DTS Sentinel unit serial number:	SN413079Multiplexer serial number:	ORYXHardware model number:	OX4-SRSoftware version number:	ORYX F/W v4.00 Oryx Data Collector v3.7.2.0data status	okinstallation	princeton_trtdifferential loss correction	single-endedforward channel	channel 1reverse channel	N/Adate	2019/09/13time	00:02:35forward acquisition time	60.00reverse acquisition time	0.00gamma	496.2192k internal	0.2328k external	0.2328temperature offset calibration	1.0150default loss term (dB/km)	0.3790temperature slope calibration	1.0000multiplexer offset coefficient	1.0000multiplexer slope coefficient	1.0000fibre end	0.00T internal ref (°C)	28.64T ext. ref 1 (°C)	3.77T ext. ref 2 (°C)	23.36length (m)	temperature (°C)	Stokes	anti-Stokes-747.200	-200.000	0.033	-0.178
-746.185	-134.980	-0.176	0.021
-745.171	-96.970	-0.375	-0.099
-744.156	-16.402	-0.323	0.206
-743.142	376.769	0.045	-0.093
-742.127	-200.000	0.038	0.219
-741.112	-105.365	0.220	0.050
-740.098	243.101	-0.210	0.355
-739.083	800.000	-0.027	-0.077
-738.069	-159.217	-0.074	0.004
-737.054	-200.000	0.040	-0.179
-736.039	205.741	-0.146	-0.229
-735.025	-200.000	0.008	0.335
-734.010	-124.179	-0.212	0.033
-732.996	-91.462	0.175	0.050
-731.981	-152.904	-0.112	-0.008
-730.966	-42.687	-0.112	-0.057
-729.952	26.667	-0.155	-0.131
-728.937	-200.000	0.066	-0.305
-727.923	5.319	0.282	-0.209
-726.908	-135.012	-0.123	-0.015
-725.894	76.879	-0.165	-0.176
-724.879	-200.000	0.002	0.027
-723.864	800.000	-0.087	-0.342
-722.850	20.775	-0.100	0.082
-721.835	68.449	-0.059	-0.060
-720.821	25.966	-0.163	-0.137
-719.806	-38.804	-0.246	0.131
-718.791	54.777	0.026	0.025
-717.777	-72.237	-0.357	0.133
-716.762	449.073	0.101	-0.224
-715.748	-132.655	-0.198	0.026
-714.733	412.799	0.187	-0.400
-713.718	113.170	-0.087	0.106
-712.704	800.000	-0.093	-0.298
-711.689	-134.728	-0.433	0.053
-710.675	385.715	0.124	0.258
-709.660	90.527	-0.101	-0.114
-708.645	-93.614	-0.375	0.104
-707.631	-46.792	0.169	-0.083
-706.616	-200.000	-0.007	0.124
-705.602	-4.258	0.289	0.201
-704.587	-200.000	0.036	-0.168
-703.572	101.589	0.151	0.177
-702.558	247.262	0.152	0.258
-701.543	31.881	-0.352	-0.305
-700.529	-91.284	-0.040	-0.011
-699.514	127.196	0.026	-0.033
-698.499	-49.604	-0.078	-0.037
-697.485	-95.527	-0.299	-0.081
-696.470	-126.947	0.290	-0.043
-695.456	-75.217	-0.192	0.069
-694.441	-116.788	-0.350	-0.065
-693.426	-145.426	-0.387	0.035
-692.412	-68.702	0.153	0.060
-691.397	668.668	0.070	-0.182
-690.383	800.000	-0.047	-0.180
-689.368	67.043	0.207	0.212
-688.354	-86.440	0.511	0.158
-687.339	-64.726	-0.312	0.127
-686.324	-178.123	0.105	-0.002
-685.310	166.256	0.101	0.144
-684.295	-76.662	-0.463	-0.163
-683.281	-28.410	-0.231	-0.134
-682.266	-200.000	0.066	0.509
-681.251	-147.136	-0.116	0.010
-680.237	187.490	-0.148	0.221
-679.222	800.000	-0.025	0.104
-678.208	-92.682	0.252	-0.071
-677.193	-200.000	-0.003	0.225
-676.178	-25.109	-0.121	0.072
-675.164	257.343	-0.147	0.254
-674.149	-200.000	0.057	-0.316
-673.135	-60.199	-0.158	-0.068
-672.120	504.403	0.135	-0.315
-671.105	162.157	0.208	-0.293
-670.091	-132.244	0.208	0.027
-669.076	118.136	0.152	0.188
-668.062	272.636	0.121	-0.214
-667.047	463.670	-0.028	0.063
-666.032	-200.000	0.015	-0.125
-665.018	459.439	0.035	-0.077
-664.003	240.586	-0.035	0.058
-662.989	-200.000	-0.000	-0.077
-661.974	-80.714	0.028	0.010
-660.959	-200.000	0.003	0.110
-659.945	441.209	0.048	0.106
-658.930	-200.000	-0.260	-0.000
-657.916	-92.262	0.020	-0.006
-656.901	-200.000	0.007	0.050
-655.886	211.669	-0.210	-0.333
-654.872	-92.732	-0.404	0.114
-653.857	-200.000	0.015	0.082
-652.843	-5.014	-0.383	-0.265
-651.828	630.783	0.101	0.256
-650.814	-89.787	-0.108	0.032
-649.799	61.005	0.178	-0.177
-648.784	-200.000	-0.011	-0.267
-647.770	-126.816	0.032	0.005
-646.755	339.131	0.049	0.096
-645.741	-143.960	0.210	-0.020
-644.726	318.797	-0.261	-0.497
-643.711	-137.774	-0.338	0.038
-642.697	-189.392	0.356	0.004
-641.682	-55.831	0.315	0.141
-640.668	500.424	0.016	0.036
-639.653	-90.040	-0.038	0.011
-638.638	586.109	-0.047	0.115
-637.624	274.557	-0.054	-0.096
-636.609	-200.000	-0.044	-0.278
-635.595	39.765	0.019	0.017
-634.580	115.384	-0.036	-0.044
-633.565	140.840	-0.114	0.152
-632.551	-28.381	-0.310	-0.180
-631.536	-47.570	0.097	0.047
-630.522	-154.169	0.077	0.005
-629.507	-125.171	0.260	0.040
-628.492	267.496	0.066	-0.115
-627.478	0.626	-0.150	0.107
-626.463	-93.935	0.255	-0.070
-625.449	503.714	0.066	0.154
-624.434	-200.000	-0.019	-0.262
-623.419	-87.001	-0.197	0.060
-622.405	719.494	0.047	-0.124
-621.390	800.000	-0.136	0.413
-620.376	350.046	-0.101	-0.201
-619.361	-41.336	0.063	0.033
-618.346	-66.290	0.022	0.009
-617.332	228.442	-0.040	0.066
-616.317	-80.616	-0.129	-0.043
-615.303	-59.721	-0.316	-0.136
-614.288	-99.674	-0.479	-0.120
-613.273	800.000	0.082	0.325
-612.259	-200.000	-0.013	0.226
-611.244	286.936	-0.132	-0.239
-610.230	-47.049	0.128	0.062
-609.215	-161.766	-0.224	0.011
-608.201	-18.257	-0.367	0.230
-607.186	326.129	0.092	-0.177
-606.171	-200.000	0.030	-0.146
-605.157	65.804	-0.093	-0.095
-604.142	-75.048	0.137	-0.049
-603.128	-144.974	-0.373	-0.034
-602.113	-200.000	-0.031	-0.183
-601.098	136.085	0.107	0.139
-600.084	-4.055	0.290	-0.202
-599.069	-25.109	0.064	-0.038
-598.055	-92.977	0.332	0.093
-597.040	-200.000	0.029	-0.236
-596.025	153.744	-0.177	0.243
-595.011	307.922	-0.301	0.563
-593.996	49.806	-0.137	-0.129
-592.982	-112.333	0.249	-0.050
-591.967	-191.768	0.139	0.001
-590.952	-200.000	0.044	-0.212
-589.938	534.547	-0.148	-0.352
-588.923	-60.468	0.353	-0.150
-587.909	-32.723	0.336	0.187
-586.894	-15.877	-0.274	-0.175
-585.879	-200.000	-0.028	0.159
-584.865	366.646	0.123	0.249
-583.850	-166.922	-0.308	0.013
-582.836	19.466	-0.074	0.060
-581.821	-31.159	-0.299	-0.169
-580.806	-200.000	0.017	-0.107
-579.792	288.271	-0.052	0.095
-578.777	3.390	-0.331	-0.241
-577.763	32.725	-0.356	0.308
-576.748	-13.155	-0.028	0.018
-575.733	-24.558	-0.081	0.049
-574.719	155.697	0.066	-0.091
-573.704	116.095	-0.220	-0.269
-572.690	-153.664	0.176	-0.012
-571.675	26.149	-0.183	0.153
-570.661	376.981	-0.128	-0.261
-569.646	433.769	-0.048	0.104
-568.631	155.236	0.116	-0.159
-567.617	670.408	-0.008	-0.021
-566.602	105.310	-0.259	-0.306
-565.588	16.224	-0.100	0.079
-564.573	-200.000	0.027	0.213
-563.558	-200.000	0.017	0.249
-562.544	-173.848	-0.236	0.007
-561.529	192.947	-0.095	0.144
-560.515	208.741	-0.227	-0.355
-559.500	129.826	0.081	0.103
-558.485	-200.000	-0.055	-0.361
-557.471	3.496	-0.187	-0.136
-556.456	-96.887	-0.340	0.089
-555.442	46.423	0.106	0.098
-554.427	-200.000	0.026	-0.195
-553.412	-64.874	0.318	0.129
-552.398	37.164	0.022	-0.020
-551.383	89.833	0.336	-0.376
-550.369	800.000	-0.041	0.161
-549.354	800.000	0.026	0.096
-548.339	370.224	-0.051	-0.104
-547.325	108.908	-0.069	0.083
-546.310	427.297	-0.140	-0.303
-545.296	-200.000	0.034	-0.264
-544.281	-200.000	-0.020	-0.145
-543.266	-59.748	-0.045	0.019
-542.252	455.335	-0.018	0.040
-541.237	-79.901	-0.159	0.053
-540.223	38.687	-0.074	0.066
-539.208	-72.516	0.460	-0.170
-538.193	-200.000	-0.097	0.468
-537.179	-131.697	-0.105	-0.014
-536.164	-200.000	-0.106	-0.511
-535.150	-46.936	0.034	-0.017
-534.135	-117.610	-0.361	0.065
-533.121	68.727	0.077	0.079
-532.106	-200.000	-0.051	0.393
-531.091	-200.000	-0.008	0.128
-530.077	-53.222	0.123	0.057
-529.062	-13.331	-0.213	0.138
-528.048	653.141	-0.037	-0.095
-527.033	-32.464	0.202	0.113
-526.018	-200.000	-0.040	-0.333
-525.004	-200.000	-0.020	-0.163
-523.989	-103.620	-0.116	-0.027
-522.975	-69.973	-0.333	0.127
-521.960	-37.047	0.410	0.220
-520.945	-166.923	-0.368	-0.015
-519.931	49.282	0.225	0.211
-518.916	613.735	-0.061	0.153
-517.902	-67.713	0.260	0.102
-516.887	-68.384	0.256	0.099
-515.872	0.893	-0.319	-0.228
-514.858	-112.684	0.368	0.073
-513.843	-93.027	0.171	0.047
-512.829	-200.000	-0.012	-0.141
-511.814	-200.000	0.048	0.224
-510.799	-123.827	-0.246	-0.039
-509.785	167.972	0.067	-0.095
-508.770	63.292	0.129	-0.129
-507.756	-60.000	0.300	-0.128
-506.741	-17.500	0.242	0.152
-505.726	-58.164	-0.234	-0.102
-504.712	94.190	-0.099	0.113
-503.697	-200.000	0.019	-0.115
-502.683	23.240	-0.177	0.145
-501.668	-55.303	-0.085	-0.038
-500.653	-18.845	0.101	-0.063
-499.639	191.205	0.146	-0.220
-498.624	-151.313	-0.261	0.019
-497.610	-33.950	0.361	0.198
-496.595	151.793	-0.080	0.108
-495.581	-48.792	0.237	-0.113
-494.566	56.911	-0.096	0.093
-493.551	266.637	0.096	0.167
-492.537	6.354	-0.097	-0.072
-491.522	-137.436	0.324	-0.037
-490.508	180.059	0.175	0.257
-489.493	105.043	0.078	-0.092
-488.478	372.612	-0.036	-0.073
-487.464	-45.055	0.098	0.049
-486.449	212.490	-0.082	0.129
-485.435	-51.207	-0.262	0.122
-484.420	-161.996	-0.057	0.003
-483.405	800.000	-0.055	-0.168
-482.391	-200.000	0.024	0.146
-481.376	-9.847	-0.470	-0.312
-480.362	92.303	-0.153	-0.172
-479.347	800.000	0.062	-0.216
-478.332	-67.841	0.083	0.032
-477.318	506.847	0.078	0.181
-476.303	-140.558	-0.307	0.032
-475.289	-29.786	0.165	0.094
-474.274	-36.108	-0.149	-0.080
-473.259	-200.000	0.015	0.205
-472.245	800.000	-0.108	0.351
-471.230	182.493	0.109	0.161
-470.216	117.849	-0.166	-0.204
-469.201	617.239	0.067	0.169
-468.186	-8.199	-0.091	0.061
-467.172	-200.000	-0.029	-0.135
-466.157	454.320	0.058	-0.129
-465.143	-63.470	0.275	-0.113
-464.128	-200.000	0.012	-0.230
-463.113	-97.535	0.206	-0.053
-462.099	25.206	0.026	-0.021
-461.084	35.694	-0.014	-0.013
-460.070	747.376	-0.098	-0.263
-459.055	439.873	-0.117	-0.255
-458.040	-89.595	-0.118	0.034
-457.026	108.328	0.191	0.227
-456.011	-200.000	0.012	-0.173
-454.997	800.000	-0.109	-0.345
-453.982	800.000	0.095	-0.265
-452.968	800.000	-0.073	-0.302
-451.953	800.000	-0.100	0.386
-450.938	-200.000	0.038	-0.196
-449.924	-69.110	0.047	-0.018
-448.909	97.690	-0.291	0.333
-447.895	800.000	-0.117	0.478
-446.880	-188.581	-0.466	-0.006
-445.865	453.499	0.122	-0.268
-444.851	54.305	-0.100	0.096
-443.836	-65.156	0.063	0.025
-442.822	800.000	-0.039	0.170
-441.807	-10.171	0.105	-0.069
-440.792	-173.861	0.429	0.013
-439.778	-130.280	0.123	-0.017
-438.763	8.008	0.097	-0.073
-437.749	193.449	0.068	0.102
-436.734	800.000	-0.128	0.505
-435.719	-132.535	-0.206	-0.026
-434.705	288.549	-0.142	-0.255
-433.690	202.736	-0.091	0.140
-432.676	141.005	-0.113	0.148
-431.661	280.658	-0.171	0.304
-430.646	-36.590	-0.114	0.061
-429.632	60.509	-0.123	0.121
-428.617	130.460	-0.163	-0.208
-427.603	411.739	-0.082	-0.173
-426.588	365.524	-0.089	-0.178
-425.573	217.087	-0.144	-0.228
-424.559	490.992	-0.024	0.054
-423.544	-104.101	-0.095	-0.022
-422.530	-24.998	0.221	-0.130
-421.515	124.625	-0.184	0.231
-420.500	-96.811	-0.160	-0.042
-419.486	-106.134	0.236	-0.053
-418.471	143.161	0.113	-0.149
-417.457	-62.723	-0.278	0.115
-416.442	-42.176	-0.211	0.107
-415.428	-89.533	0.123	0.036
-414.413	104.345	0.126	0.147
-413.398	-200.000	0.031	0.218
-412.384	111.271	0.216	0.259
-411.369	-200.000	0.023	0.282
-410.355	-34.736	0.381	-0.207
-409.340	87.144	-0.219	-0.241
-408.325	-41.663	-0.249	0.127
-407.311	-76.148	0.324	0.114
-406.296	-75.996	-0.274	0.096
-405.282	226.185	0.095	-0.153
-404.267	-42.449	-0.110	0.056
-403.252	12.921	0.317	0.244
-402.238	-169.608	-0.305	0.011
-401.223	-170.054	0.169	0.006
-400.209	-200.000	-0.026	-0.237
-399.194	256.719	-0.187	-0.319
-398.179	164.664	0.175	0.245
-397.165	-77.946	0.259	0.089
-396.150	181.763	0.135	0.198
-395.136	180.088	-0.097	-0.141
-394.121	-84.643	0.564	-0.176
-393.106	-56.240	0.323	-0.143
-392.092	-10.789	-0.135	-0.088
-391.077	-136.870	-0.058	-0.007
-390.063	-82.605	-0.160	-0.051
-389.048	-15.882	0.234	-0.148
-388.033	273.630	0.025	0.044
-387.019	800.000	-0.016	0.062
-386.004	85.540	-0.259	-0.283
-384.990	108.292	0.076	0.090
-383.975	171.423	0.146	0.209
-382.960	-200.000	0.002	0.242
-381.946	800.000	0.067	-0.202
-380.931	113.390	-0.151	0.183
-379.917	486.039	0.020	0.044
-378.902	-63.267	0.316	0.129
-377.888	-84.976	-0.141	0.044
-376.873	-200.000	-0.055	-0.643
-375.858	-52.332	-0.160	-0.074
-374.844	-200.000	0.030	-0.347
-373.829	422.521	0.031	-0.066
-372.815	-16.080	0.214	-0.135
-371.800	89.544	0.109	0.120
-370.785	-97.381	-0.168	0.043
-369.771	57.569	0.060	0.058
-368.756	-40.714	0.151	-0.078
-367.742	800.000	-0.019	0.058
-366.727	-200.000	0.004	-0.076
-365.712	-200.000	-0.004	0.401
-364.698	788.850	-0.069	-0.188
-363.683	800.000	-0.091	-0.308
-362.669	-33.285	0.121	-0.066
-361.654	1.968	0.096	0.069
-360.639	-200.000	-0.049	0.349
-359.625	161.493	-0.143	0.198
-358.610	292.849	0.142	-0.257
-357.596	-138.742	0.211	-0.023
-356.581	25.590	-0.072	0.059
-355.566	196.148	0.230	0.347
-354.552	125.799	-0.119	-0.149
-353.537	65.705	0.247	0.248
-352.523	74.332	-0.119	0.124
-351.508	-39.992	0.276	-0.143
-350.493	-11.792	0.053	-0.034
-349.479	-164.394	-0.171	0.008
-348.464	33.630	0.245	0.211
-347.450	518.771	0.159	-0.369
-346.435	104.342	-0.122	-0.142
-345.420	-187.388	-0.143	-0.002
-344.406	-152.943	-0.130	0.009
-343.391	-111.642	0.300	-0.060
-342.377	-200.000	0.020	-0.118
-341.362	800.000	-0.037	0.141
-340.348	-41.771	-0.168	0.085
-339.333	-200.000	0.020	0.174
-338.318	196.944	-0.206	-0.312
-337.304	-200.000	0.010	-0.077
-336.289	121.903	-0.134	-0.166
-335.275	800.000	0.059	-0.178
-334.260	-12.571	0.139	0.090
-333.245	-43.861	-0.164	-0.082
-332.231	83.792	0.265	0.286
-331.216	253.256	0.082	0.138
-330.202	286.813	0.031	-0.055
-329.187	800.000	0.125	-0.483
-328.172	478.729	-0.085	-0.191
-327.158	-200.000	0.016	-0.141
-326.143	3.406	0.275	0.199
-325.129	800.000	-0.025	0.107
-324.114	22.061	0.248	-0.200
-323.099	68.629	-0.038	0.038
-322.085	-155.959	0.202	-0.013
-321.070	-147.238	0.329	0.028
-320.056	-63.425	-0.336	-0.137
-319.041	-200.000	-0.024	-0.138
-318.026	-74.145	0.158	-0.057
-317.012	-200.000	-0.001	-0.023
-315.997	-10.515	-0.223	0.146
-314.983	317.789	0.126	-0.237
-313.968	45.614	0.164	0.150
-312.953	-200.000	0.022	-0.179
-311.939	359.982	0.082	0.163
-310.924	-27.693	0.345	-0.198
-309.910	301.627	-0.173	-0.317
-308.895	-62.278	0.086	0.035
-307.880	242.489	0.156	0.258
-306.866	-60.881	-0.177	0.074
-305.851	50.741	-0.121	0.114
-304.837	800.000	-0.020	0.065
-303.822	-95.657	-0.261	-0.069
-302.807	-78.042	0.224	-0.077
-301.793	86.262	0.143	-0.156
-300.778	-200.000	-0.019	0.152
-299.764	386.551	0.101	-0.207
-298.749	450.674	-0.119	0.260
-297.735	-200.000	-0.045	0.330
-296.720	-36.276	0.242	0.129
-295.705	800.000	0.027	0.078
-294.691	-115.786	0.252	-0.047
-293.676	-200.000	-0.009	0.227
-292.662	-129.741	-0.350	-0.048
-291.647	-37.447	0.325	0.172
-290.632	35.691	-0.134	0.117
-289.618	-103.170	0.271	0.063
-288.603	-200.000	0.056	-0.420
-287.589	-102.073	-0.107	0.026
-286.574	214.405	0.108	-0.170
-285.559	504.650	-0.115	-0.263
-284.545	800.000	0.068	-0.218
-283.530	-197.157	-0.146	0.001
-282.516	63.477	-0.085	-0.085
-281.501	-40.608	0.165	-0.085
-280.486	260.464	-0.117	-0.201
-279.472	-200.000	0.088	-0.395
-278.457	698.157	-0.043	-0.111
-277.443	-121.284	-0.029	0.005
-276.428	448.939	-0.079	0.173
-275.413	-146.054	-0.262	0.023
-274.399	-50.844	-0.101	0.047
-273.384	-200.000	0.164	0.000
-272.370	-200.000	-0.036	0.478
-271.355	-200.000	0.031	0.476
-270.340	157.890	-0.217	-0.297
-269.326	104.425	0.126	0.146
-268.311	-109.159	0.598	0.126
-267.297	-200.000	-0.016	0.244
-266.282	-123.724	0.088	0.014
-265.267	-200.000	0.046	-0.228
-264.253	32.480	-0.183	0.157
-263.238	800.000	0.052	0.168
-262.224	329.975	0.153	0.292
-261.209	-76.273	0.143	0.050
-260.195	-115.757	-0.123	-0.023
-259.180	17.949	0.167	-0.132
-258.165	800.000	0.092	0.313
-257.151	-200.000	0.007	0.404
-256.136	-175.447	-0.221	0.006
-255.122	-27.397	-0.157	0.091
-254.107	10.123	0.184	-0.138
-253.092	3.057	-0.081	-0.058
-252.078	-57.293	0.277	0.120
-251.063	-1.414	-0.485	-0.338
-250.049	800.000	-0.055	-0.159
-249.034	171.852	0.250	-0.356
-248.019	-122.343	0.394	-0.063
-247.005	-132.626	0.056	-0.007
-245.990	31.469	-0.189	0.160
-244.976	-130.355	0.049	0.007
-243.961	-200.000	0.048	-0.325
-242.946	-112.436	-0.117	0.023
-241.932	-181.686	-0.092	-0.002
-240.917	-200.000	0.014	0.161
-239.903	800.000	0.069	0.238
-238.888	800.000	-0.091	-0.282
-237.873	-74.632	0.204	0.073
-236.859	-0.256	-0.295	0.207
-235.844	109.641	-0.270	0.319
-234.830	-6.595	0.269	0.181
-233.815	735.963	-0.089	0.235
-232.800	120.954	-0.137	0.168
-231.786	-59.957	-0.201	0.085
-230.771	-200.000	-0.012	0.092
-229.757	-200.000	0.041	0.184
-228.742	27.555	-0.395	0.329
-227.727	-200.000	-0.012	0.113
-226.713	800.000	0.012	-0.047
-225.698	44.832	0.223	-0.203
-224.684	265.763	0.122	-0.210
-223.669	-200.000	0.003	-0.029
-222.655	-37.344	0.055	0.029
-221.640	96.871	0.120	-0.136
-220.625	-200.000	0.015	0.092
-219.611	800.000	-0.090	0.258
-218.596	19.541	-0.302	-0.240
-217.582	800.000	-0.050	0.169
-216.567	-110.139	0.127	-0.026
-215.552	-5.231	0.274	-0.186
-214.538	-80.553	-0.248	0.082
-213.523	318.686	-0.049	-0.091
-212.509	-114.374	-0.183	0.035
-211.494	-200.000	-0.051	-0.316
-210.479	-95.017	-0.130	0.035
-209.465	-119.509	-0.113	-0.019
-208.450	-4.162	0.323	-0.221
-207.436	52.392	-0.124	0.116
-206.421	32.128	0.243	-0.207
-205.406	-79.330	-0.222	-0.074
-204.392	-40.143	-0.092	0.048
-203.377	-18.658	-0.230	0.141
-202.363	-6.042	0.132	0.089
-201.348	486.027	-0.147	0.329
-200.333	-158.010	0.303	-0.018
-199.319	-200.000	-0.001	0.321
-198.304	800.000	0.101	0.316
-197.290	800.000	-0.062	0.188
-196.275	136.190	-0.257	-0.331
-195.260	142.229	-0.130	-0.170
-194.246	190.791	-0.086	-0.127
-193.231	45.369	-0.101	-0.091
-192.217	-12.953	0.206	0.132
-191.202	47.281	-0.305	0.280
-190.187	-195.512	-0.128	0.001
-189.173	-200.000	-0.020	-0.225
-188.158	99.725	-0.062	-0.071
-187.144	27.024	0.058	0.048
-186.129	-96.366	-0.255	0.066
-185.114	116.306	0.124	0.150
-184.100	250.470	0.074	-0.124
-183.085	-137.716	0.191	-0.021
-182.071	138.503	0.050	0.065
-181.056	184.127	-0.087	-0.127
-180.042	252.003	0.082	0.137
-179.027	-107.433	0.214	-0.046
-178.012	-153.940	0.187	-0.013
-176.998	-200.000	0.011	0.142
-175.983	129.679	0.260	0.327
-174.969	-99.136	-0.150	-0.038
-173.954	-81.918	-0.173	0.056
-172.939	-3.264	-0.160	0.110
-171.925	-99.452	0.398	-0.099
-170.910	111.309	-0.051	-0.060
-169.896	800.000	0.014	-0.055
-168.881	222.637	0.113	0.179
-167.866	153.162	-0.096	0.129
-166.852	438.544	-0.076	0.163
-165.837	-27.606	0.310	0.177
-164.823	33.193	0.313	-0.267
-163.808	-122.723	0.029	0.005
-162.793	-118.561	-0.063	-0.011
-161.779	-57.576	-0.121	-0.052
-160.764	-84.833	-0.242	0.075
-159.750	31.817	0.243	-0.206
-158.735	-200.000	0.027	-0.116
-157.720	65.676	0.105	0.105
-156.706	261.154	-0.100	0.171
-155.691	-78.730	0.148	-0.050
-154.677	182.801	0.197	-0.287
-153.662	20.602	0.134	-0.106
-152.647	-200.000	0.025	0.204
-151.633	-17.764	0.179	0.111
-150.618	-200.000	-0.035	0.248
-149.604	-200.000	0.089	-0.446
-148.589	342.257	0.088	0.170
-147.574	800.000	0.081	0.276
-146.560	-31.328	0.321	-0.178
-145.545	-165.018	-0.375	-0.016
-144.531	-142.172	0.196	-0.019
-143.516	800.000	0.095	-0.273
-142.502	-200.000	-0.010	-0.361
-141.487	800.000	0.058	0.171
-140.472	-82.088	-0.079	-0.025
-139.458	-200.000	-0.060	-0.273
-138.443	549.695	-0.083	0.195
-137.429	54.165	-0.135	-0.128
-136.414	98.034	0.181	-0.205
-135.399	175.479	-0.045	-0.064
-134.385	-49.519	-0.220	0.103
-133.370	181.575	0.212	0.306
-132.356	252.992	-0.050	-0.084
-131.341	321.512	0.063	-0.119
-130.326	800.000	-0.048	0.162
-129.312	-53.442	0.102	-0.046
-128.297	-6.312	0.316	-0.212
-127.283	628.079	0.111	0.275
-126.268	-23.058	0.225	-0.134
-125.253	151.852	-0.153	0.205
-124.239	-146.916	0.386	0.033
-123.224	171.648	0.214	-0.302
-122.210	-200.000	0.014	-0.127
-121.195	-62.332	-0.135	-0.055
