DTS Sentinel unit serial number:	SN413079Multiplexer serial number:	ORYXHardware model number:	OX4-SRSoftware version number:	ORYX F/W v4.00 Oryx Data Collector v3.7.2.0data status	okinstallation	princeton_trtdifferential loss correction	single-endedforward channel	channel 1reverse channel	N/Adate	2019/09/12time	10:08:11forward acquisition time	60.00reverse acquisition time	0.00gamma	496.2192k internal	0.2299k external	0.2299temperature offset calibration	1.0047default loss term (dB/km)	0.3790temperature slope calibration	1.0000multiplexer offset coefficient	1.0000multiplexer slope coefficient	1.0000fibre end	0.00T internal ref (°C)	36.37T ext. ref 1 (°C)	1.87T ext. ref 2 (°C)	33.31length (m)	temperature (°C)	Stokes	anti-Stokes-747.200	-200.000	-0.011	-0.053
-746.185	111.199	0.272	0.334
-745.171	203.604	0.083	-0.131
-744.156	84.224	-0.288	0.322
-743.142	351.896	0.029	0.058
-742.127	-200.000	0.007	-0.050
-741.112	428.403	0.112	0.247
-740.098	-69.476	-0.268	-0.105
-739.083	-200.000	-0.063	-0.306
-738.069	496.590	-0.078	-0.183
-737.054	-53.286	-0.099	0.046
-736.039	71.588	-0.195	-0.206
-735.025	800.000	0.065	-0.195
-734.010	-23.931	-0.150	-0.091
-732.996	479.539	-0.097	-0.224
-731.981	562.185	0.054	0.134
-730.966	-64.832	0.191	-0.079
-729.952	-66.537	0.027	0.011
-728.937	-93.322	0.366	-0.104
-727.923	-54.246	-0.456	-0.211
-726.908	217.355	-0.218	-0.354
-725.894	-95.749	0.298	0.081
-724.879	-200.000	-0.023	-0.168
-723.864	-125.064	0.227	0.036
-722.850	-85.083	-0.146	-0.047
-721.835	113.794	0.185	-0.229
-720.821	-200.000	0.007	0.154
-719.806	205.996	-0.032	-0.051
-718.791	-11.424	-0.128	-0.086
-717.777	57.530	-0.216	-0.215
-716.762	-60.641	0.292	-0.126
-715.748	-52.075	-0.319	0.151
-714.733	-14.597	0.200	-0.131
-713.718	-142.107	0.067	-0.007
-712.704	-76.026	-0.019	0.007
-711.689	800.000	0.059	-0.234
-710.675	118.059	-0.128	-0.161
-709.660	-57.740	-0.272	0.121
-708.645	800.000	-0.019	0.083
-707.631	-42.899	0.198	-0.103
-706.616	-62.016	0.119	-0.051
-705.602	102.100	-0.076	-0.091
-704.587	800.000	0.151	-0.457
-703.572	-64.637	0.251	0.104
-702.558	-77.468	0.114	-0.040
-701.543	-200.000	-0.046	0.265
-700.529	800.000	-0.049	0.196
-699.514	-200.000	-0.007	-0.345
-698.499	-135.691	-0.351	-0.042
-697.485	-6.256	-0.098	-0.068
-696.470	-200.000	-0.012	-0.238
-695.456	99.334	0.079	-0.093
-694.441	-37.425	-0.291	0.158
-693.426	-180.026	-0.158	-0.003
-692.412	-200.000	-0.036	-0.177
-691.397	-117.641	-0.230	0.042
-690.383	800.000	0.073	-0.225
-689.368	390.636	0.069	0.145
-688.354	339.725	0.018	-0.036
-687.339	-112.779	0.200	0.041
-686.324	-200.000	-0.045	-0.249
-685.310	-69.607	-0.142	0.055
-684.295	-48.255	-0.114	0.056
-683.281	276.839	0.046	-0.083
-682.266	18.638	-0.106	0.086
-681.251	-93.514	-0.472	0.133
-680.237	321.272	0.143	-0.276
-679.222	-72.742	0.118	-0.044
-678.208	800.000	0.094	-0.299
-677.193	-78.981	-0.169	0.059
-676.178	-200.000	0.041	-0.218
-675.164	99.542	-0.240	-0.283
-674.149	-57.704	-0.223	0.100
-673.135	-69.216	-0.237	0.093
-672.120	508.674	0.132	-0.313
-671.105	154.775	0.152	-0.212
-670.091	34.408	0.082	0.072
-669.076	79.122	-0.071	-0.078
-668.062	84.816	-0.085	-0.094
-667.047	-98.554	0.268	0.070
-666.032	143.218	0.124	-0.168
-665.018	-200.000	-0.072	-0.347
-664.003	95.393	0.170	-0.197
-662.989	283.029	-0.080	0.146
-661.974	172.511	0.179	-0.262
-660.959	559.651	-0.104	0.255
-659.945	-102.005	0.221	0.054
-658.930	28.324	0.266	0.229
-657.916	-121.911	-0.103	-0.017
-656.901	441.862	0.158	0.352
-655.886	-87.924	-0.066	0.020
-654.872	-41.910	0.198	-0.103
-653.857	96.961	-0.288	-0.335
-652.843	-78.561	-0.124	-0.043
-651.828	800.000	0.085	-0.279
-650.814	-200.000	-0.026	0.183
-649.799	-200.000	0.014	-0.092
-648.784	369.638	-0.166	0.342
-647.770	-126.554	0.075	0.011
-646.755	43.940	-0.144	-0.134
-645.741	-200.000	-0.014	0.250
-644.726	260.958	-0.128	0.226
-643.711	800.000	0.125	0.472
-642.697	144.945	-0.211	0.287
-641.682	-200.000	-0.025	0.279
-640.668	-56.316	-0.284	-0.128
-639.653	-47.024	-0.479	-0.238
-638.638	-200.000	-0.029	0.133
-637.624	-129.886	0.134	0.019
-636.609	-38.184	0.108	-0.058
-635.595	-29.992	0.176	0.102
-634.580	-9.010	0.139	0.094
-633.565	-200.000	0.024	0.139
-632.551	687.168	-0.037	0.097
-631.536	-200.000	0.022	-0.139
-630.522	189.188	-0.213	-0.324
-629.507	-200.000	0.043	-0.208
-628.492	10.474	0.230	-0.178
-627.478	12.012	-0.218	-0.170
-626.463	9.472	0.025	-0.019
-625.449	-144.467	0.380	-0.036
-624.434	-200.000	0.019	-0.135
-623.419	-76.492	0.081	-0.029
-622.405	-112.301	-0.265	0.054
-621.390	800.000	-0.044	0.187
-620.376	85.305	0.099	-0.111
-619.361	-200.000	-0.014	-0.089
-618.346	63.157	0.167	-0.170
-617.332	217.420	0.109	0.177
-616.317	289.999	0.055	-0.101
-615.303	-200.000	-0.065	-0.457
-614.288	274.699	0.021	-0.038
-613.273	-171.124	-0.052	0.002
-612.259	-54.004	-0.243	-0.112
-611.244	54.120	0.110	0.108
-610.230	106.765	-0.086	0.103
-609.215	-18.917	-0.097	0.061
-608.201	207.040	0.122	-0.193
-607.186	-62.977	-0.120	0.050
-606.171	523.492	0.048	-0.114
-605.157	435.670	0.106	-0.233
-604.142	-122.642	0.293	0.048
-603.128	136.794	0.098	-0.130
-602.113	-150.603	-0.136	0.011
-601.098	13.090	-0.113	-0.089
-600.084	644.545	-0.101	0.262
-599.069	-151.525	-0.166	-0.012
-598.055	-200.000	0.008	0.038
-597.040	-200.000	-0.009	0.088
-596.025	-109.530	-0.136	0.029
-595.011	563.639	0.071	-0.173
-593.996	564.640	-0.069	0.168
-592.982	-1.764	0.159	-0.113
-591.967	-8.174	0.207	0.141
-590.952	57.640	-0.065	0.064
-589.938	428.548	0.144	-0.317
-588.923	33.484	-0.325	0.287
-587.909	-62.853	-0.145	0.061
-586.894	182.313	-0.116	0.173
-585.879	800.000	-0.041	0.149
-584.865	84.587	-0.143	0.159
-583.850	-28.058	-0.251	0.147
-582.836	-134.432	0.099	-0.012
-581.821	-17.147	0.308	0.197
-580.806	10.720	-0.187	0.145
-579.792	268.690	-0.161	0.286
-578.777	582.009	-0.022	-0.055
-577.763	231.086	0.095	0.157
-576.748	11.639	-0.219	-0.170
-575.733	498.616	0.013	-0.031
-574.719	-98.343	0.329	-0.086
-573.704	-200.000	-0.377	0.000
-572.690	-200.000	0.018	-0.229
-571.675	-200.000	0.017	0.177
-570.661	270.008	-0.031	-0.055
-569.646	0.388	-0.028	-0.020
-568.631	-57.118	-0.026	0.012
-567.617	128.238	-0.157	0.202
-566.602	800.000	-0.103	0.323
-565.588	-101.249	0.083	0.021
-564.573	-122.980	0.146	-0.024
-563.558	-78.031	0.235	-0.082
-562.544	75.498	0.218	-0.234
-561.529	143.026	0.128	0.172
-560.515	-14.713	0.299	-0.195
-559.500	-200.000	0.032	0.361
-558.485	-92.692	-0.107	0.030
-557.471	91.188	-0.184	0.210
-556.456	-43.271	-0.037	0.019
-555.442	800.000	0.058	0.175
-554.427	-0.867	0.266	-0.191
-553.412	-200.000	0.029	-0.194
-552.398	531.262	0.105	-0.250
-551.383	105.405	-0.067	0.080
-550.369	142.896	-0.191	0.257
-549.354	-200.000	-0.253	-0.000
-548.339	800.000	0.034	0.128
-547.325	-14.009	-0.257	-0.168
-546.310	537.650	-0.096	0.232
-545.296	-22.369	-0.272	0.167
-544.281	-77.633	-0.196	0.069
-543.266	-200.000	0.007	-0.260
-542.252	305.660	-0.143	0.269
-541.237	-200.000	-0.022	-0.216
-540.223	18.712	0.143	-0.116
-539.208	-52.545	0.520	-0.243
-538.193	267.502	0.054	-0.095
-537.179	-46.643	-0.124	-0.062
-536.164	-200.000	0.047	0.313
-535.150	-123.968	0.312	0.050
-534.135	-68.619	-0.119	0.047
-533.121	-100.392	0.113	0.028
-532.106	-134.910	-0.228	-0.028
-531.091	493.913	-0.171	-0.397
-530.077	-93.592	-0.375	-0.105
-529.062	-200.000	-0.003	-0.069
-528.048	800.000	-0.102	-0.315
-527.033	-200.000	-0.050	-0.237
-526.018	61.832	-0.121	-0.122
-525.004	-48.440	-0.241	-0.118
-523.989	361.059	-0.189	0.383
-522.975	800.000	0.012	0.048
-521.960	-128.741	0.309	0.044
-520.945	240.807	-0.027	0.046
-519.931	-146.978	-0.178	0.015
-518.916	-200.000	0.001	0.046
-517.902	800.000	0.066	-0.215
-516.887	493.988	-0.071	0.164
-515.872	-155.721	0.270	0.018
-514.858	310.245	0.087	-0.165
-513.843	-95.523	-0.094	-0.025
-512.829	-200.000	-0.143	-0.001
-511.814	-200.000	-0.026	-0.122
-510.799	-112.962	0.287	0.057
-509.785	-200.000	0.018	-0.243
-508.770	379.517	-0.174	0.360
-507.756	652.230	-0.035	0.090
-506.741	81.178	0.146	0.160
-505.726	314.440	-0.113	-0.215
-504.712	-83.844	0.094	-0.030
-503.697	68.530	0.245	0.254
-502.683	124.575	-0.396	-0.504
-501.668	-110.198	0.118	-0.025
-500.653	-19.181	-0.188	-0.118
-499.639	800.000	0.098	0.295
-498.624	99.857	0.067	0.078
-497.610	26.720	-0.260	0.220
-496.595	-200.000	-0.003	-0.026
-495.581	800.000	0.141	-0.487
-494.566	-30.574	-0.176	0.101
-493.551	800.000	0.092	-0.282
-492.537	-200.000	0.028	-0.140
-491.522	-37.443	0.210	-0.114
-490.508	-9.532	0.285	0.192
-489.493	163.037	-0.105	-0.148
-488.478	78.119	-0.161	-0.173
-487.464	-32.263	0.138	0.078
-486.449	800.000	0.033	-0.124
-485.435	762.707	-0.042	-0.116
-484.420	-106.310	0.419	0.095
-483.405	800.000	-0.043	-0.157
-482.391	582.636	0.103	-0.255
-481.376	-137.158	-0.139	0.016
-480.362	-12.699	0.283	0.186
-479.347	52.244	0.203	-0.195
-478.332	112.307	-0.101	-0.124
-477.318	-200.000	0.008	0.122
-476.303	-68.273	-0.175	-0.069
-475.289	800.000	-0.033	0.111
-474.274	219.686	-0.144	0.234
-473.259	-162.187	0.379	0.019
-472.245	-126.733	0.204	-0.030
-471.230	-131.725	-0.492	0.065
-470.216	-144.001	-0.144	0.014
-469.201	-200.000	-0.018	-0.098
-468.186	-200.000	0.040	0.287
-467.172	118.617	0.072	-0.090
-466.157	251.777	-0.194	0.333
-465.143	-65.867	-0.176	-0.071
-464.128	554.113	0.075	0.181
-463.113	199.799	0.148	0.230
-462.099	-96.044	0.321	-0.086
-461.084	207.741	-0.132	-0.208
-460.070	-3.798	-0.172	0.121
-459.055	-200.000	-0.031	-0.188
-458.040	42.183	0.163	0.149
-457.026	800.000	-0.015	0.047
-456.011	-72.860	-0.345	-0.128
-454.997	-40.410	0.222	-0.116
-453.982	-200.000	0.016	-0.186
-452.968	372.538	-0.047	-0.096
-451.953	-23.183	-0.369	-0.224
-450.938	-73.305	-0.266	0.098
-449.924	406.889	-0.031	-0.067
-448.909	661.218	-0.106	-0.275
-447.895	-200.000	-0.029	0.287
-446.880	-146.562	0.188	0.016
-445.865	-51.016	-0.250	0.118
-444.851	800.000	-0.036	0.142
-443.836	800.000	0.194	0.571
-442.822	24.856	0.272	0.227
-441.807	-25.079	0.153	-0.091
-440.792	118.803	0.128	0.159
-439.778	436.419	0.089	-0.195
-438.763	18.064	-0.333	-0.268
-437.749	-142.406	-0.121	0.012
-436.734	-67.500	0.293	0.116
-435.719	108.758	-0.117	-0.141
-434.705	133.959	-0.205	0.268
-433.690	11.031	0.142	0.109
-432.676	-190.592	-0.178	0.002
-431.661	100.119	-0.133	0.155
-430.646	-49.090	0.249	0.120
-429.632	89.389	-0.075	0.084
-428.617	-151.789	0.152	0.011
-427.603	102.053	-0.145	0.170
-426.588	176.679	0.153	0.225
-425.573	-200.000	0.014	-0.200
-424.559	-200.000	-0.006	-0.229
-423.544	228.708	-0.073	0.120
-422.530	-162.650	-0.246	-0.012
-421.515	-59.598	0.174	0.075
-420.500	-200.000	-0.068	-0.493
-419.486	-175.805	0.236	0.006
-418.471	800.000	-0.049	0.159
-417.457	-111.211	-0.113	0.023
-416.442	60.303	-0.215	0.214
-415.428	417.167	-0.107	-0.229
-414.413	-55.534	0.063	-0.028
-413.398	-64.338	0.072	0.030
-412.384	-165.629	-0.224	0.010
-411.369	-134.274	-0.244	0.030
-410.355	-143.277	-0.368	0.036
-409.340	-41.262	0.210	0.109
-408.325	-119.546	-0.102	0.018
-407.311	-200.000	0.016	0.077
-406.296	800.000	0.044	0.122
-405.282	-89.763	0.201	-0.059
-404.267	182.638	-0.035	0.052
-403.252	-41.292	-0.286	-0.148
-402.238	-147.164	-0.166	-0.014
-401.223	12.091	-0.268	-0.207
-400.209	-187.860	-0.169	0.002
-399.194	358.438	-0.159	-0.321
-398.179	306.684	0.193	-0.361
-397.165	-111.269	0.159	-0.033
-396.150	-115.742	0.256	0.048
-395.136	155.926	0.131	0.181
-394.121	-200.000	0.038	0.204
-393.106	-111.935	0.435	-0.088
-392.092	-182.724	0.089	0.002
-391.077	-200.000	0.053	-0.266
-390.063	-143.545	-0.184	-0.018
-389.048	12.049	-0.025	-0.019
-388.033	547.289	0.095	0.229
-387.019	501.728	-0.123	0.285
-386.004	47.322	0.259	0.243
-384.990	129.218	-0.224	-0.288
-383.975	-43.283	0.103	-0.052
-382.960	-33.644	0.246	-0.137
-381.946	-27.961	-0.218	-0.127
-380.931	95.051	-0.175	-0.200
-379.917	-181.310	-0.165	-0.003
-378.902	800.000	0.080	-0.294
-377.888	800.000	0.060	0.192
-376.873	-108.241	0.183	-0.040
-375.858	-200.000	-0.022	-0.151
-374.844	-139.339	0.126	0.014
-373.829	379.481	-0.090	0.186
-372.815	800.000	0.061	0.195
-371.800	-200.000	0.004	0.239
-370.785	-200.000	0.002	0.487
-369.771	-13.749	-0.241	0.157
-368.756	-104.536	-0.146	-0.034
-367.742	800.000	0.075	0.281
-366.727	394.408	0.060	0.125
-365.712	68.879	0.189	0.195
-364.698	528.763	0.058	0.138
-363.683	-62.787	-0.365	-0.152
-362.669	800.000	0.120	0.369
-361.654	800.000	-0.047	0.173
-360.639	174.175	-0.246	0.358
-359.625	77.891	-0.096	-0.103
-358.610	-30.469	-0.160	0.091
-357.596	-39.723	0.285	0.150
-356.581	-98.459	0.184	0.047
-355.566	43.017	-0.145	-0.133
-354.552	-108.785	-0.012	0.003
-353.537	-74.823	0.348	-0.125
-352.523	181.751	-0.133	-0.196
-351.508	-92.504	0.042	-0.012
-350.493	-200.000	0.034	-0.233
-349.479	-139.446	-0.189	0.020
-348.464	-200.000	-0.071	0.000
-347.450	800.000	0.021	0.081
-346.435	-126.815	0.277	0.041
-345.420	697.801	-0.152	-0.402
-344.406	85.016	0.071	0.078
-343.391	50.203	0.120	-0.114
-342.377	238.811	-0.088	-0.147
-341.362	21.617	-0.152	-0.124
-340.348	-82.051	-0.229	-0.075
-339.333	-24.190	0.123	-0.074
-338.318	-118.255	0.259	0.046
-337.304	-79.389	-0.184	0.062
-336.289	270.476	0.037	-0.066
-335.275	-83.454	-0.083	-0.027
-334.260	-101.862	0.407	-0.099
-333.245	111.758	-0.212	-0.257
-332.231	378.430	-0.124	-0.255
-331.216	-95.156	0.099	-0.027
-330.202	-119.947	-0.112	0.019
-329.187	-200.000	-0.032	-0.245
-328.172	-8.595	-0.201	0.136
-327.158	79.110	-0.201	0.217
-326.143	-126.876	-0.165	-0.024
-325.129	-14.657	0.211	0.136
-324.114	-88.798	0.372	0.111
-323.099	282.281	0.049	0.088
-322.085	-37.143	-0.284	0.152
-321.070	83.291	0.036	0.039
-320.056	243.250	0.192	0.324
-319.041	-200.000	0.001	0.372
-318.026	-99.341	0.091	0.023
-317.012	183.875	-0.106	-0.157
-315.997	28.180	0.274	0.232
-314.983	-61.372	0.282	-0.119
-313.968	800.000	0.052	0.212
-312.953	-162.373	-0.056	0.003
-311.939	232.905	-0.198	-0.327
-310.924	-78.537	0.161	-0.055
-309.910	12.704	-0.163	0.126
-308.895	-200.000	0.051	-0.230
-307.880	-102.576	-0.071	-0.017
-306.866	62.929	0.058	-0.058
-305.851	212.034	-0.048	-0.076
-304.837	671.536	-0.130	-0.338
-303.822	188.922	-0.088	0.132
-302.807	-200.000	-0.074	-0.469
-301.793	-200.000	-0.042	0.253
-300.778	-200.000	-0.015	0.070
-299.764	-200.000	-0.007	-0.257
-298.749	194.619	0.090	0.137
-297.735	176.192	0.136	-0.198
-296.720	3.518	0.063	0.046
-295.705	166.237	0.086	0.122
-294.691	71.041	0.029	-0.030
-293.676	-200.000	0.022	-0.298
-292.662	800.000	0.072	0.277
-291.647	-131.899	0.090	-0.012
-290.632	-200.000	0.089	-0.441
-289.618	415.434	-0.034	0.073
-288.603	466.692	0.015	-0.033
-287.589	-164.356	0.071	-0.003
-286.574	-99.741	0.022	-0.006
-285.559	-200.000	-0.043	-0.273
-284.545	800.000	-0.020	-0.076
-283.530	88.013	0.019	-0.022
-282.516	126.275	0.130	0.165
-281.501	-107.144	0.242	0.054
-280.486	-62.170	-0.175	-0.073
-279.472	22.890	-0.094	-0.078
-278.457	800.000	-0.106	-0.299
-277.443	-90.330	0.148	-0.043
-276.428	251.810	-0.060	0.103
-275.413	501.154	-0.091	0.211
-274.399	-94.954	0.378	-0.102
-273.384	-89.991	-0.622	-0.182
-272.370	-75.947	-0.071	-0.025
-271.355	-82.894	-0.088	-0.028
-270.340	544.016	0.007	0.016
-269.326	-83.939	0.143	-0.046
-268.311	800.000	0.047	0.156
-267.297	83.847	-0.249	0.272
-266.282	79.233	0.129	-0.138
-265.267	598.220	-0.054	-0.134
-264.253	156.666	0.066	0.091
-263.238	-186.753	-0.264	-0.004
-262.224	271.302	-0.054	-0.094
-261.209	-73.508	0.087	0.032
-260.195	150.945	0.320	-0.436
-259.180	136.511	-0.111	-0.144
-258.165	103.167	-0.199	-0.233
-257.151	-81.486	-0.250	-0.083
-256.136	52.418	0.198	-0.189
-255.122	-200.000	0.021	0.160
-254.107	19.930	-0.290	0.234
-253.092	-38.478	0.267	-0.141
-252.078	149.225	-0.112	0.152
-251.063	800.000	-0.074	-0.232
-250.049	800.000	0.077	0.310
-249.034	-104.136	-0.327	0.076
-248.019	299.715	-0.055	0.101
-247.005	167.853	-0.135	0.192
-245.990	426.658	0.101	0.217
-244.976	-38.534	0.181	-0.096
-243.961	-200.000	-0.010	0.309
-242.946	37.819	0.118	-0.105
-241.932	190.219	0.135	0.203
-240.917	163.665	-0.195	-0.274
-239.903	34.320	-0.058	0.051
-238.888	-183.698	0.295	0.005
-237.873	624.133	-0.075	0.190
-236.859	-69.357	0.094	0.036
-235.844	193.286	0.022	-0.034
-234.830	-147.117	0.227	0.019
-233.815	-128.483	-0.204	0.029
-232.800	148.079	0.088	-0.118
-231.786	10.037	-0.289	0.220
-230.771	143.264	0.031	0.042
-229.757	122.715	0.064	-0.080
-228.742	91.649	-0.139	0.156
-227.727	-88.864	0.268	-0.079
-226.713	339.584	-0.116	0.226
-225.698	-200.000	-0.008	-0.276
-224.684	106.097	0.021	-0.024
-223.669	213.241	0.137	-0.216
-222.655	800.000	0.095	-0.278
-221.640	-122.239	0.130	0.021
-220.625	433.931	-0.078	0.168
-219.611	12.660	0.256	0.198
-218.596	-59.125	0.190	-0.082
-217.582	-200.000	-0.009	-0.298
-216.567	800.000	-0.042	0.164
-215.552	-67.814	0.180	-0.070
-214.538	800.000	-0.118	-0.360
-213.523	-200.000	-0.031	0.393
-212.509	-200.000	-0.009	-0.041
-211.494	800.000	-0.131	-0.372
-210.479	-137.634	-0.075	0.008
-209.465	-78.826	0.232	0.079
-208.450	24.379	-0.402	-0.332
-207.436	46.518	-0.238	0.221
-206.421	-200.000	0.035	-0.195
-205.406	-18.881	-0.315	-0.196
-204.392	355.221	-0.159	-0.316
-203.377	460.445	0.104	-0.231
-202.363	201.041	0.180	-0.277
-201.348	-120.577	0.145	-0.025
-200.333	-200.000	-0.045	-0.359
-199.319	-200.000	0.003	-0.206
-198.304	-39.504	0.319	0.167
-197.290	-47.560	0.217	-0.105
-196.275	-36.698	0.426	-0.229
-195.260	133.639	0.068	0.088
-194.246	-37.548	-0.099	-0.053
-193.231	169.395	-0.168	0.240
-192.217	726.320	-0.051	0.136
-191.202	800.000	0.059	-0.233
-190.187	26.090	0.066	-0.055
-189.173	-200.000	-0.015	-0.193
-188.158	-195.281	0.119	0.001
-187.144	-200.000	0.002	-0.149
-186.129	-200.000	0.022	0.166
-185.114	-200.000	-0.005	-0.100
-184.100	-200.000	-0.023	-0.196
-183.085	-123.786	-0.194	-0.031
-182.071	62.702	0.199	-0.199
-181.056	79.551	0.185	-0.198
-180.042	-30.962	0.193	-0.109
-179.027	430.001	0.166	0.358
-178.012	-11.641	0.162	0.106
-176.998	-200.000	-0.020	0.418
-175.983	800.000	-0.042	0.129
-174.969	501.879	-0.120	0.278
-173.954	118.372	0.179	0.221
-172.939	-50.462	-0.101	-0.048
-171.925	800.000	-0.048	0.170
-170.910	800.000	-0.052	-0.162
-169.896	528.573	0.134	-0.317
-168.881	-200.000	-0.020	0.411
-167.866	56.109	0.205	0.199
-166.852	185.191	0.159	0.235
-165.837	8.759	0.324	0.244
-164.823	-200.000	-0.047	-0.326
-163.808	800.000	0.033	0.111
-162.793	-200.000	0.058	0.499
-161.779	-200.000	0.185	-0.000
-160.764	-134.004	0.247	0.031
-159.750	-53.954	-0.074	-0.034
-158.735	366.882	0.037	-0.075
-157.720	50.209	0.016	-0.015
-156.706	-101.907	0.270	0.065
-155.691	139.473	0.099	0.131
-154.677	-27.530	-0.369	0.214
-153.662	654.594	0.129	-0.330
-152.647	532.544	0.094	0.223
-151.633	-200.000	0.008	0.276
-150.618	-200.000	0.030	-0.133
-149.604	-80.253	0.622	0.208
-148.589	-96.819	0.288	0.075
-147.574	718.756	0.074	-0.197
-146.560	-105.819	-0.177	-0.040
-145.545	-200.000	-0.004	0.119
-144.531	-200.000	0.060	-0.304
-143.516	28.279	0.104	-0.087
-142.502	144.838	-0.084	0.112
-141.487	-200.000	-0.046	0.221
-140.472	800.000	0.024	-0.070
-139.458	28.385	-0.147	0.124
-138.443	-157.564	0.075	0.004
-137.429	-5.053	-0.283	0.194
-136.414	-200.000	-0.036	-0.247
-135.399	800.000	0.052	-0.209
-134.385	76.056	0.193	0.203
-133.370	171.218	0.109	-0.156
-132.356	-200.000	-0.025	-0.253
-131.341	797.566	0.083	0.227
-130.326	43.688	0.164	0.149
-129.312	-124.963	-0.152	0.023
-128.297	-0.321	-0.334	0.236
-127.283	800.000	0.097	-0.341
-126.268	-56.236	-0.445	0.197
-125.253	-200.000	-0.013	0.322
-124.239	-200.000	-0.004	0.000
-123.224	-200.000	0.027	0.221
-122.210	620.674	0.227	0.569
