DTS Sentinel unit serial number:	SN413079Multiplexer serial number:	ORYXHardware model number:	OX4-SRSoftware version number:	ORYX F/W v4.00 Oryx Data Collector v3.7.2.0data status	okinstallation	princeton_trtdifferential loss correction	single-endedforward channel	channel 1reverse channel	N/Adate	2019/09/11time	11:00:11forward acquisition time	60.00reverse acquisition time	0.00gamma	496.2192k internal	0.2297k external	0.2297temperature offset calibration	0.9959default loss term (dB/km)	0.3790temperature slope calibration	1.0000multiplexer offset coefficient	1.0000multiplexer slope coefficient	1.0000fibre end	0.00T internal ref (°C)	37.20T ext. ref 1 (°C)	0.17T ext. ref 2 (°C)	34.49length (m)	temperature (°C)	Stokes	anti-Stokes-747.200	800.000	0.006	-0.021
-746.185	-200.000	0.005	0.051
-745.171	-200.000	0.028	0.146
-744.156	-200.000	-0.014	0.309
-743.142	11.267	0.209	0.163
-742.127	184.937	0.097	0.147
-741.112	566.888	0.105	0.260
-740.098	-2.613	0.248	-0.177
-739.083	63.739	0.156	0.160
-738.069	42.911	-0.127	0.118
-737.054	367.484	-0.233	-0.481
-736.039	121.600	0.210	-0.268
-735.025	-16.393	0.172	0.111
-734.010	-145.364	-0.079	0.007
-732.996	195.460	0.088	-0.137
-731.981	184.623	-0.181	-0.275
-730.966	-200.000	-0.029	-0.210
-729.952	-169.870	-0.421	-0.015
-728.937	800.000	-0.038	-0.135
-727.923	268.083	0.223	-0.399
-726.908	800.000	-0.047	-0.188
-725.894	-8.216	-0.084	0.058
-724.879	-191.808	-0.049	-0.000
-723.864	-15.481	0.030	-0.020
-722.850	30.404	-0.064	0.056
-721.835	-141.437	0.416	-0.043
-720.821	190.024	-0.021	-0.031
-719.806	57.371	-0.385	-0.384
-718.791	-65.012	-0.165	-0.068
-717.777	-19.610	-0.344	-0.217
-716.762	-54.580	0.066	0.031
-715.748	800.000	0.019	-0.067
-714.733	17.924	-0.035	-0.029
-713.718	264.123	-0.052	-0.093
-712.704	117.683	-0.052	-0.065
-711.689	-165.221	-0.340	0.015
-710.675	-103.205	0.355	-0.086
-709.660	-200.000	-0.047	-0.383
-708.645	-67.169	-0.294	0.118
-707.631	-1.050	0.228	-0.164
-706.616	-143.602	0.126	0.012
-705.602	88.972	0.069	-0.078
-704.587	467.263	-0.093	0.213
-703.572	-21.696	0.131	0.081
-702.558	-112.917	0.370	-0.075
-701.543	-3.760	-0.130	0.092
-700.529	-136.619	0.136	-0.016
-699.514	247.727	0.173	0.297
-698.499	-75.338	-0.061	0.022
-697.485	36.162	-0.255	0.229
-696.470	40.644	-0.103	-0.095
-695.456	-74.542	0.452	-0.166
-694.441	-200.000	0.004	-0.160
-693.426	-62.777	-0.075	-0.032
-692.412	-25.048	0.320	-0.194
-691.397	-35.745	-0.101	-0.056
-690.383	-40.879	-0.249	-0.131
-689.368	619.358	0.072	0.185
-688.354	464.018	-0.227	-0.518
-687.339	145.131	0.161	0.220
-686.324	-126.092	0.197	0.030
-685.310	-200.000	-0.042	0.228
-684.295	-34.285	-0.320	0.179
-683.281	800.000	0.087	-0.376
-682.266	618.622	-0.073	-0.187
-681.251	-200.000	0.015	-0.378
-680.237	-58.439	-0.089	-0.040
-679.222	307.091	-0.148	-0.281
-678.208	38.252	0.177	0.161
-677.193	-18.173	0.088	0.056
-676.178	-68.755	0.195	-0.077
-675.164	-200.000	-0.043	-0.458
-674.149	126.691	-0.137	0.177
-673.135	-79.710	0.067	0.023
-672.120	-200.000	0.024	0.261
-671.105	800.000	-0.063	0.194
-670.091	-149.404	-0.157	0.013
-669.076	130.518	0.184	-0.240
-668.062	-200.000	0.041	-0.327
-667.047	-80.871	0.291	-0.098
-666.032	21.193	0.427	0.353
-665.018	92.519	-0.145	0.166
-664.003	101.933	-0.124	0.147
-662.989	-83.184	-0.098	0.032
-661.974	-200.000	-0.005	-0.338
-660.959	239.749	0.049	-0.082
-659.945	462.511	-0.120	-0.272
-658.930	236.393	-0.093	0.156
-657.916	-200.000	-0.014	-0.068
-656.901	-145.179	-0.056	0.005
-655.886	-140.330	0.140	0.015
-654.872	-118.908	0.264	0.047
-653.857	-28.946	0.437	-0.255
-652.843	124.284	0.255	0.327
-651.828	412.070	0.197	0.426
-650.814	20.524	0.196	-0.162
-649.799	-34.036	-0.149	0.083
-648.784	363.612	-0.200	-0.410
-647.770	363.172	-0.107	-0.219
-646.755	800.000	0.029	-0.128
-645.741	-200.000	0.007	-0.303
-644.726	-137.666	-0.197	0.023
-643.711	417.347	0.054	0.117
-642.697	-200.000	-0.013	-0.096
-641.682	24.654	0.123	-0.104
-640.668	42.304	0.209	-0.193
-639.653	-133.197	0.606	0.078
-638.638	800.000	0.043	-0.165
-637.624	254.868	-0.073	0.126
-636.609	256.544	-0.037	-0.065
-635.595	2.897	-0.195	-0.144
-634.580	-200.000	0.004	0.152
-633.565	800.000	0.033	-0.098
-632.551	-150.397	-0.275	-0.021
-631.536	127.602	-0.275	-0.355
-630.522	800.000	-0.109	-0.375
-629.507	14.954	-0.157	0.125
-628.492	-200.000	-0.016	0.127
-627.478	84.467	0.037	-0.041
-626.463	-56.760	-0.334	-0.150
-625.449	-200.000	-0.017	-0.217
-624.434	-145.432	-0.222	0.020
-623.419	-100.444	-0.190	0.048
-622.405	13.186	0.127	0.100
-621.390	220.119	-0.148	0.241
-620.376	800.000	-0.072	-0.260
-619.361	-21.171	-0.211	0.131
-618.346	182.448	-0.036	-0.054
-617.332	-172.199	-0.412	0.013
-616.317	-200.000	-0.069	-0.419
-615.303	-91.260	-0.225	-0.065
-614.288	150.079	0.105	0.145
-613.273	-184.455	-0.069	0.001
-612.259	-200.000	-0.006	0.285
-611.244	5.428	-0.101	0.076
-610.230	36.667	-0.148	0.132
-609.215	31.425	0.154	0.134
-608.201	-33.392	0.130	0.073
-607.186	-29.716	-0.155	0.090
-606.171	167.374	-0.104	-0.150
-605.157	-112.738	-0.234	0.047
-604.142	-200.000	-0.038	-0.240
-603.128	-26.682	-0.147	0.087
-602.113	28.232	0.015	0.013
-601.098	767.772	0.077	0.212
-600.084	-80.294	0.129	0.044
-599.069	23.546	0.042	0.035
-598.055	800.000	-0.104	0.332
-597.040	186.222	-0.132	0.200
-596.025	-179.378	0.370	-0.008
-595.011	-200.000	-0.003	-0.438
-593.996	435.851	-0.060	0.132
-592.982	-161.932	-0.119	-0.006
-591.967	-200.000	-0.029	0.179
-590.952	-71.046	0.352	0.134
-589.938	122.485	0.110	-0.140
-588.923	-200.000	0.000	-0.050
-587.909	91.086	0.193	0.220
-586.894	571.013	0.089	0.221
-585.879	-13.214	0.118	0.078
-584.865	-200.000	-0.015	0.171
-583.850	286.220	0.154	-0.283
-582.836	-200.000	0.006	-0.120
-581.821	13.021	0.089	0.070
-580.806	144.918	0.154	-0.210
-579.792	164.111	-0.142	0.202
-578.777	-76.475	0.139	0.049
-577.763	-115.054	-0.121	-0.023
-576.748	313.246	-0.013	-0.024
-575.733	-200.000	0.028	-0.268
-574.719	-151.437	-0.157	0.012
-573.704	175.181	0.095	0.139
-572.690	-200.000	-0.038	-0.182
-571.675	305.664	-0.067	-0.127
-570.661	-40.367	-0.224	0.118
-569.646	800.000	0.096	0.277
-568.631	36.183	0.264	0.236
-567.617	251.879	0.212	0.366
-566.602	77.349	0.202	0.217
-565.588	-184.930	-0.036	-0.001
-564.573	-53.595	0.155	-0.072
-563.558	-200.000	-0.053	-0.305
-562.544	-58.340	0.077	0.034
-561.529	244.469	0.120	0.204
-560.515	800.000	-0.020	-0.084
-559.500	-126.306	0.164	-0.025
-558.485	-120.863	-0.097	-0.017
-557.471	181.856	-0.098	0.147
-556.456	4.160	0.071	-0.053
-555.442	800.000	0.046	0.195
-554.427	744.926	0.093	-0.254
-553.412	-77.277	0.090	0.032
-552.398	800.000	-0.072	0.246
-551.383	-200.000	0.048	0.230
-550.369	-107.626	0.275	-0.061
-549.354	-200.000	0.010	-0.191
-548.339	639.249	-0.058	-0.150
-547.325	-22.043	0.273	-0.168
-546.310	9.620	-0.165	-0.127
-545.296	-3.583	0.096	-0.068
-544.281	-129.353	-0.366	-0.052
-543.266	-43.472	-0.150	0.077
-542.252	-124.099	-0.370	0.059
-541.237	800.000	-0.064	-0.249
-540.223	-1.720	-0.041	0.029
-539.208	-200.000	-0.002	0.039
-538.193	162.678	0.114	0.162
-537.179	-120.405	-0.106	0.018
-536.164	-200.000	-0.063	0.288
-535.150	-5.491	-0.209	0.145
-534.135	482.281	-0.078	0.180
-533.121	49.152	-0.195	0.186
-532.106	-153.370	-0.597	0.042
-531.091	232.383	-0.108	0.180
-530.077	-200.000	-0.003	0.112
-529.062	-200.000	0.029	-0.290
-528.048	-200.000	-0.021	-0.276
-527.033	426.034	0.038	-0.082
-526.018	-43.904	-0.251	-0.128
-525.004	155.418	0.211	-0.294
-523.989	126.086	-0.228	-0.292
-522.975	-200.000	0.030	0.415
-521.960	499.995	-0.065	0.151
-520.945	206.255	0.056	0.089
-519.931	-182.373	0.248	-0.005
-518.916	261.429	0.120	-0.210
-517.902	124.796	-0.084	0.107
-516.887	275.537	-0.181	-0.325
-515.872	19.654	-0.128	-0.104
-514.858	492.164	0.069	-0.161
-513.843	155.664	-0.053	0.074
-512.829	-75.119	0.168	0.061
-511.814	18.992	-0.230	0.187
-510.799	-200.000	-0.025	-0.320
-509.785	-91.095	-0.142	-0.041
-508.770	126.092	0.074	0.095
-507.756	96.204	-0.050	0.058
-506.741	-14.013	-0.103	-0.067
-505.726	800.000	-0.035	0.107
-504.712	-115.447	0.132	0.025
-503.697	789.130	0.049	0.135
-502.683	15.976	-0.154	0.123
-501.668	-18.646	0.023	0.015
-500.653	-200.000	0.016	0.101
-499.639	-35.475	-0.069	-0.038
-498.624	-200.000	-0.019	-0.138
-497.610	800.000	-0.022	-0.069
-496.595	18.415	0.108	0.087
-495.581	123.483	-0.219	0.278
-494.566	-103.257	0.235	0.056
-493.551	-63.600	0.188	-0.078
-492.537	340.734	0.094	-0.185
-491.522	800.000	0.121	-0.337
-490.508	188.671	0.076	0.115
-489.493	800.000	0.022	-0.075
-488.478	164.800	-0.184	0.263
-487.464	184.852	-0.098	0.147
-486.449	54.144	-0.246	0.240
-485.435	142.106	-0.153	-0.205
-484.420	-200.000	-0.052	0.358
-483.405	109.098	0.044	-0.053
-482.391	-200.000	-0.006	-0.046
-481.376	123.977	0.141	-0.179
-480.362	800.000	0.126	-0.386
-479.347	156.281	0.088	-0.123
-478.332	6.545	-0.214	0.161
-477.318	304.319	0.069	0.130
-476.303	116.728	0.101	0.125
-475.289	-55.455	0.530	0.240
-474.274	-200.000	0.011	0.116
-473.259	21.098	-0.082	0.068
-472.245	-90.162	0.143	0.042
-471.230	800.000	0.014	0.042
-470.216	-172.552	0.181	-0.006
-469.201	-200.000	-0.029	-0.241
-468.186	-182.855	0.148	0.003
-467.172	55.580	-0.214	0.210
-466.157	38.642	-0.261	-0.235
-465.143	-61.802	0.029	0.012
-464.128	-74.114	-0.069	0.025
-463.113	99.758	-0.042	-0.049
-462.099	400.040	0.034	-0.072
-461.084	215.313	0.185	-0.297
-460.070	-200.000	0.005	-0.176
-459.055	363.191	0.241	0.490
-458.040	8.838	-0.254	-0.194
-457.026	-17.870	0.215	-0.136
-456.011	-106.516	0.310	0.070
-454.997	-100.546	0.207	0.052
-453.982	800.000	-0.085	-0.250
-452.968	60.866	0.255	-0.256
-451.953	-17.659	0.294	0.187
-450.938	61.294	0.138	0.139
-449.924	7.785	0.264	-0.200
-448.909	-159.260	-0.025	0.001
-447.895	-131.905	-0.106	-0.014
-446.880	-75.116	0.243	0.088
-445.865	-200.000	-0.030	0.255
-444.851	-56.858	0.105	0.047
-443.836	-98.930	-0.213	-0.055
-442.822	-142.199	-0.121	0.012
-441.807	-140.775	-0.103	0.011
-440.792	-200.000	-0.009	-0.365
-439.778	222.198	0.100	-0.162
-438.763	-200.000	0.014	0.281
-437.749	800.000	0.048	-0.142
-436.734	-200.000	0.003	0.143
-435.719	127.233	0.129	-0.165
-434.705	800.000	0.057	-0.227
-433.690	-14.581	-0.038	-0.024
-432.676	-75.349	-0.378	0.136
-431.661	-33.765	0.124	-0.069
-430.646	61.196	0.212	0.213
-429.632	-155.725	-0.397	-0.026
-428.617	-200.000	-0.031	0.306
-427.603	800.000	-0.137	0.499
-426.588	-51.413	-0.124	0.058
-425.573	-134.804	-0.142	-0.017
-424.559	-110.118	-0.209	-0.044
-423.544	800.000	0.078	-0.328
-422.530	-70.099	0.147	-0.056
-421.515	187.496	-0.136	-0.205
-420.500	59.969	-0.095	-0.095
-419.486	227.921	0.047	0.078
-418.471	800.000	-0.033	0.104
-417.457	252.203	-0.052	0.090
-416.442	-200.000	-0.005	-0.194
-415.428	94.274	0.150	-0.171
-414.413	-200.000	-0.037	-0.357
-413.398	6.007	-0.178	-0.133
-412.384	32.374	0.132	0.115
-411.369	-131.817	-0.263	0.035
-410.355	-171.568	-0.166	-0.006
-409.340	800.000	-0.045	0.158
-408.325	-137.907	0.189	-0.021
-407.311	-200.000	-0.065	-0.303
-406.296	-122.434	-0.262	0.043
-405.282	-60.248	-0.170	-0.073
-404.267	-28.742	0.332	-0.192
-403.252	-112.179	-0.114	-0.023
-402.238	-200.000	0.001	-0.188
-401.223	-200.000	0.034	-0.219
-400.209	-68.666	0.073	0.028
-399.194	407.777	-0.099	0.210
-398.179	-55.050	0.197	-0.089
-397.165	240.847	0.202	0.340
-396.150	28.927	0.270	0.231
-395.136	-197.755	0.124	0.001
-394.121	-122.468	-0.115	0.019
-393.106	16.210	0.126	-0.100
-392.092	-79.683	0.225	-0.076
-391.077	800.000	-0.075	-0.288
-390.063	89.672	0.081	-0.091
-389.048	-54.314	0.174	0.080
-388.033	-32.257	-0.200	-0.113
-387.019	-200.000	-0.081	-0.403
-386.004	171.338	-0.100	0.144
-384.990	466.717	0.128	0.289
-383.975	661.135	-0.105	0.273
-382.960	-5.511	-0.233	0.161
-381.946	-61.831	-0.180	0.076
-380.931	162.417	-0.061	-0.087
-379.917	437.447	0.086	-0.188
-378.902	61.078	-0.019	0.019
-377.888	-13.491	0.275	0.179
-376.873	-199.072	0.325	-0.002
-375.858	22.362	-0.290	-0.239
-374.844	35.228	0.144	-0.127
-373.829	185.379	0.098	0.147
-372.815	-200.000	-0.115	-0.000
-371.800	-87.078	0.109	0.033
-370.785	-9.499	0.188	-0.126
-369.771	18.710	-0.321	0.259
-368.756	-34.963	0.162	0.089
-367.742	-5.778	0.105	0.072
-366.727	-2.859	-0.232	0.163
-365.712	-200.000	-0.039	0.211
-364.698	800.000	0.084	0.295
-363.683	-83.213	0.167	-0.054
-362.669	109.967	-0.109	0.132
-361.654	-200.000	-0.064	0.294
-360.639	-40.886	0.167	0.087
-359.625	800.000	-0.117	0.482
-358.610	-200.000	-0.023	0.112
-357.596	-80.616	-0.134	0.045
-356.581	800.000	-0.038	-0.124
-355.566	68.858	0.112	-0.115
-354.552	-135.332	0.200	-0.024
-353.537	-67.699	0.113	0.044
-352.523	-104.447	-0.243	-0.057
-351.508	-107.721	-0.320	0.070
-350.493	-41.164	0.340	0.176
-349.479	59.822	-0.190	0.188
-348.464	-69.499	0.019	-0.007
-347.450	139.325	-0.171	-0.226
-346.435	-1.286	-0.153	0.109
-345.420	185.759	0.146	0.219
-344.406	-200.000	-0.009	0.129
-343.391	255.071	-0.125	-0.216
-342.377	168.573	-0.042	0.060
-341.362	18.016	0.142	-0.114
-340.348	-87.882	0.124	-0.038
-339.333	129.654	-0.174	0.224
-338.318	-200.000	-0.074	0.329
-337.304	64.414	0.241	-0.244
-336.289	363.055	0.072	0.145
-335.275	730.997	0.146	0.392
-334.260	60.352	-0.064	-0.063
-333.245	-142.920	0.082	0.008
-332.231	-76.189	0.162	0.057
-331.216	-141.919	-0.101	-0.010
-330.202	-200.000	0.013	-0.167
-329.187	-16.942	-0.061	-0.039
-328.172	-164.503	-0.098	0.004
-327.158	421.935	0.166	0.357
-326.143	-53.663	0.191	-0.088
-325.129	-38.141	-0.222	0.118
-324.114	-148.532	-0.475	0.039
-323.099	271.305	-0.130	0.231
-322.085	-200.000	-0.033	-0.213
-321.070	800.000	0.062	0.201
-320.056	-50.421	0.175	0.083
-319.041	-5.588	0.133	0.092
-318.026	-81.919	-0.068	-0.022
-317.012	-178.833	-0.080	-0.002
-315.997	22.631	-0.135	-0.111
-314.983	-83.524	0.139	-0.045
-313.968	-165.825	-0.309	0.013
-312.953	-200.000	-0.035	-0.404
-311.939	800.000	-0.057	0.224
-310.924	73.837	0.155	0.163
-309.910	-200.000	0.029	-0.150
-308.895	139.910	0.150	0.199
-307.880	-200.000	0.030	-0.185
-306.866	23.124	0.441	0.364
-305.851	-163.299	0.166	-0.008
-304.837	39.445	-0.068	-0.061
-303.822	800.000	-0.093	0.274
-302.807	-200.000	0.022	0.356
-301.793	-200.000	-0.012	-0.154
-300.778	-98.211	0.006	0.002
-299.764	311.859	0.105	0.198
-298.749	-116.872	-0.445	0.082
-297.735	173.352	0.083	-0.120
-296.720	-110.133	-0.075	-0.016
-295.705	-161.032	-0.036	-0.002
-294.691	-199.600	-0.354	-0.002
-293.676	800.000	0.065	0.208
-292.662	-200.000	-0.012	0.080
-291.647	-16.313	-0.177	-0.113
-290.632	-200.000	-0.014	0.272
-289.618	284.413	-0.116	0.210
-288.603	-114.262	-0.276	-0.053
-287.589	800.000	-0.089	0.262
-286.574	30.829	0.077	-0.066
-285.559	-80.197	0.228	-0.077
-284.545	800.000	0.006	0.016
-283.530	140.712	-0.132	0.175
-282.516	-69.706	0.184	0.071
-281.501	-177.236	-0.226	-0.006
-280.486	-200.000	-0.081	0.368
-279.472	13.027	0.132	0.102
-278.457	-200.000	-0.008	-0.192
-277.443	-41.740	0.389	-0.200
-276.428	-62.807	-0.407	-0.169
-275.413	-128.294	0.184	0.026
-274.399	-130.757	-0.177	0.024
-273.384	-60.356	-0.088	0.038
-272.370	74.973	0.130	0.137
-271.355	-112.797	0.284	0.057
-270.340	-200.000	0.059	-0.318
-269.326	-200.000	0.036	0.345
-268.311	-186.463	0.458	-0.007
-267.297	-6.740	-0.308	0.210
-266.282	-200.000	0.022	-0.472
-265.267	-200.000	0.009	-0.398
-264.253	800.000	-0.071	-0.226
-263.238	-103.215	-0.163	-0.039
-262.224	72.859	0.203	-0.212
-261.209	293.733	0.122	-0.224
-260.195	-81.785	0.228	0.075
-259.180	49.835	0.170	-0.160
-258.165	74.025	-0.175	0.184
-257.151	-151.013	0.051	-0.004
-256.136	-139.479	0.202	-0.022
-255.122	-76.811	0.364	-0.128
-254.107	-200.000	-0.015	-0.248
-253.092	-175.302	-0.259	0.007
-252.078	100.208	-0.098	-0.113
-251.063	136.207	0.238	0.311
-250.049	-22.403	-0.091	-0.055
-249.034	800.000	0.040	-0.148
-248.019	-7.896	0.258	-0.175
-247.005	17.490	0.316	0.252
-245.990	-94.960	0.219	0.059
-244.976	3.836	-0.256	-0.187
-243.961	-28.998	0.185	-0.106
-242.946	-200.000	0.005	0.300
-241.932	800.000	-0.062	-0.209
-240.917	124.110	-0.077	0.097
-239.903	55.744	0.004	0.004
-238.888	-200.000	0.005	-0.139
-237.873	31.322	0.138	0.119
-236.859	-140.761	-0.258	-0.027
-235.844	109.986	-0.257	-0.308
-234.830	-4.087	-0.223	-0.154
-233.815	-77.104	0.068	0.024
-232.800	800.000	-0.081	-0.326
-231.786	-190.979	0.265	0.003
-230.771	208.964	-0.205	0.321
-229.757	-102.266	0.210	-0.050
-228.742	-114.549	0.039	-0.007
-227.727	251.002	-0.097	-0.164
-226.713	-200.000	-0.104	-0.500
-225.698	-32.593	0.017	-0.010
-224.684	-200.000	0.039	-0.224
-223.669	717.023	-0.010	-0.026
-222.655	-20.825	-0.152	0.093
-221.640	73.222	0.334	0.350
-220.625	195.809	0.095	-0.144
-219.611	564.479	0.102	0.248
-218.596	-92.393	-0.099	-0.028
-217.582	136.517	0.100	-0.130
-216.567	20.705	-0.153	-0.124
-215.552	-80.003	-0.361	-0.121
-214.538	128.362	0.154	-0.196
-213.523	153.781	0.129	-0.176
-212.509	-132.960	0.182	0.023
-211.494	12.392	0.011	0.009
-210.479	16.389	-0.128	-0.101
-209.465	21.324	0.251	-0.204
-208.450	-79.749	-0.155	0.052
-207.436	-141.253	0.129	-0.013
-206.421	800.000	-0.105	0.422
-205.406	-155.948	0.125	-0.008
-204.392	800.000	0.068	0.201
-203.377	-40.997	0.243	-0.125
-202.363	-1.795	-0.273	0.192
-201.348	-73.939	0.143	0.052
-200.333	-102.971	0.261	-0.062
-199.319	446.604	-0.084	-0.184
-198.304	-134.155	-0.472	-0.058
-197.290	783.684	-0.124	0.339
-196.275	-200.000	0.050	-0.341
-195.260	800.000	-0.026	0.084
-194.246	800.000	0.073	-0.209
-193.231	-116.175	0.151	0.028
-192.217	800.000	-0.012	0.047
-191.202	800.000	-0.036	-0.133
-190.187	-200.000	-0.061	0.299
-189.173	-94.013	0.288	-0.079
-188.158	-133.034	0.161	-0.020
-187.144	27.986	0.354	-0.299
-186.129	133.271	0.137	-0.177
-185.114	297.084	0.045	-0.083
-184.100	-70.566	-0.189	0.072
-183.085	351.601	0.045	-0.089
-182.071	86.297	0.097	-0.107
-181.056	245.846	-0.103	-0.173
-180.042	-181.229	-0.127	-0.003
-179.027	-87.351	-0.395	0.120
-178.012	800.000	-0.170	0.575
-176.998	74.870	0.117	-0.123
-175.983	438.968	0.094	0.205
-174.969	41.793	-0.277	-0.251
-173.954	181.112	0.178	0.262
-172.939	12.532	-0.271	-0.209
-171.925	-72.808	0.086	0.031
-170.910	166.238	-0.053	0.074
-169.896	135.650	0.308	0.400
-168.881	800.000	-0.053	0.188
-167.866	800.000	0.030	0.117
-166.852	359.183	0.103	-0.205
-165.837	701.001	0.031	-0.081
-164.823	22.599	0.089	0.073
-163.808	-200.000	-0.033	-0.491
-162.793	-149.985	0.066	0.005
-161.779	216.377	-0.174	0.277
-160.764	36.004	-0.060	-0.053
-159.750	3.216	0.259	-0.188
-158.735	134.429	-0.180	-0.233
-157.720	800.000	-0.016	0.064
-156.706	-39.020	0.328	-0.173
-155.691	800.000	0.043	0.144
-154.677	-28.234	-0.398	-0.229
-153.662	50.960	-0.215	-0.204
-152.647	-50.972	0.293	-0.137
-151.633	-121.773	0.298	-0.049
-150.618	-200.000	0.033	-0.258
-149.604	-101.793	0.253	-0.061
-148.589	71.302	0.125	-0.130
-147.574	-68.642	-0.225	-0.087
-146.560	8.712	-0.365	-0.274
-145.545	800.000	0.020	0.070
-144.531	452.384	-0.145	0.320
-143.516	-59.671	0.176	0.075
-142.502	-200.000	-0.062	0.290
-141.487	371.299	0.144	0.291
-140.472	48.468	0.103	0.097
-139.458	800.000	-0.017	-0.057
-138.443	-78.236	0.098	0.034
-137.429	-102.121	-0.334	-0.080
-136.414	30.909	0.167	0.143
-135.399	-200.000	0.001	-0.216
-134.385	703.499	0.077	-0.203
-133.370	-37.247	0.099	0.053
-132.356	331.397	0.094	-0.180
-131.341	-110.670	-0.249	0.051
-130.326	147.342	-0.078	0.105
-129.312	51.893	0.210	0.200
-128.297	-200.000	-0.008	-0.042
-127.283	-200.000	-0.024	-0.283
-126.268	24.257	0.105	0.086
-125.253	22.936	0.191	-0.156
-124.239	97.122	0.172	-0.197
-123.224	127.665	-0.037	0.047
-122.210	-15.536	-0.313	0.199
-121.195	-108.040	-0.163	0.035
