DTS Sentinel unit serial number:	SN413079Multiplexer serial number:	ORYXHardware model number:	OX4-SRSoftware version number:	ORYX F/W v4.00 Oryx Data Collector v3.7.2.0data status	okinstallation	princeton_trtdifferential loss correction	single-endedforward channel	channel 1reverse channel	N/Adate	2019/09/12time	08:28:11forward acquisition time	60.00reverse acquisition time	0.00gamma	496.2192k internal	0.2312k external	0.2312temperature offset calibration	1.0043default loss term (dB/km)	0.3790temperature slope calibration	1.0000multiplexer offset coefficient	1.0000multiplexer slope coefficient	1.0000fibre end	0.00T internal ref (°C)	33.62T ext. ref 1 (°C)	1.70T ext. ref 2 (°C)	29.62length (m)	temperature (°C)	Stokes	anti-Stokes-747.200	-200.000	0.022	0.243
-746.185	64.299	-0.067	0.069
-745.171	128.131	-0.213	0.275
-744.156	87.219	-0.055	0.061
-743.142	-200.000	0.053	-0.322
-742.127	-200.000	-0.008	0.127
-741.112	455.074	0.071	-0.161
-740.098	-200.000	-0.015	0.272
-739.083	24.793	0.227	-0.191
-738.069	-200.000	-0.002	0.382
-737.054	286.539	0.143	0.262
-736.039	108.138	0.143	-0.172
-735.025	-130.846	-0.259	0.035
-734.010	254.612	-0.072	-0.126
-732.996	-200.000	0.013	0.100
-731.981	-106.877	-0.314	-0.071
-730.966	752.520	-0.027	-0.073
-729.952	-200.000	0.001	0.029
-728.937	-62.700	-0.221	0.093
-727.923	-118.432	-0.140	-0.025
-726.908	32.578	-0.251	-0.220
-725.894	3.513	-0.183	0.135
-724.879	-200.000	-0.024	-0.443
-723.864	-27.165	-0.270	-0.159
-722.850	-200.000	-0.014	0.149
-721.835	117.237	0.184	-0.229
-720.821	800.000	-0.131	0.368
-719.806	-200.000	0.043	-0.212
-718.791	-85.958	0.121	-0.038
-717.777	-188.824	0.117	-0.001
-716.762	-96.000	-0.236	-0.064
-715.748	162.925	0.313	-0.445
-714.733	220.946	-0.139	-0.227
-713.718	800.000	-0.070	-0.207
-712.704	-18.756	-0.284	0.179
-711.689	305.140	-0.081	0.153
-710.675	-128.404	-0.133	0.019
-709.660	800.000	0.059	0.187
-708.645	-200.000	-0.038	0.457
-707.631	-95.558	-0.142	0.039
-706.616	-89.814	0.236	0.070
-705.602	-122.241	-0.197	0.033
-704.587	-49.451	0.388	-0.187
-703.572	800.000	-0.040	-0.112
-702.558	-47.600	-0.265	-0.130
-701.543	800.000	-0.065	-0.212
-700.529	221.195	-0.280	-0.456
-699.514	382.545	-0.083	-0.173
-698.499	-133.662	-0.293	-0.037
-697.485	-96.508	-0.215	-0.058
-696.470	-87.236	0.205	-0.063
-695.456	139.594	0.152	0.202
-694.441	-3.894	-0.059	0.042
-693.426	133.386	0.156	0.205
-692.412	34.169	-0.091	-0.080
-691.397	77.053	-0.155	0.167
-690.383	419.504	0.058	-0.127
-689.368	65.698	0.096	0.099
-688.354	-72.257	-0.092	-0.035
-687.339	-36.297	0.225	0.123
-686.324	99.734	-0.255	0.299
-685.310	-200.000	-0.024	-0.152
-684.295	55.980	0.116	0.113
-683.281	800.000	0.020	-0.084
-682.266	88.602	0.099	-0.111
-681.251	-138.095	-0.198	-0.022
-680.237	-115.017	-0.314	0.060
-679.222	800.000	0.100	-0.420
-678.208	-42.183	-0.453	-0.234
-677.193	-17.440	-0.156	-0.100
-676.178	-200.000	-0.024	-0.109
-675.164	-200.000	0.038	0.207
-674.149	-37.593	-0.178	-0.096
-673.135	-28.678	0.140	-0.081
-672.120	176.934	0.038	0.056
-671.105	-200.000	-0.020	-0.358
-670.091	1.324	-0.153	0.111
-669.076	-64.200	0.290	0.120
-668.062	182.185	0.159	0.237
-667.047	246.833	-0.164	0.280
-666.032	60.200	0.093	-0.093
-665.018	800.000	0.110	-0.398
-664.003	355.336	-0.151	0.303
-662.989	13.677	0.065	0.051
-661.974	-27.455	0.219	-0.129
-660.959	-16.758	-0.102	-0.065
-659.945	-32.955	0.025	0.014
-658.930	72.559	0.155	-0.164
-657.916	39.707	0.266	-0.242
-656.901	-200.000	-0.042	-0.254
-655.886	281.167	0.166	-0.301
-654.872	222.507	-0.049	-0.080
-653.857	-200.000	-0.012	0.086
-652.843	-154.045	0.209	-0.014
-651.828	304.730	-0.154	0.289
-650.814	-135.774	0.114	-0.014
-649.799	-14.455	0.274	0.178
-648.784	-200.000	0.029	-0.159
-647.770	-87.084	0.309	-0.095
-646.755	-60.012	-0.339	0.146
-645.741	20.834	0.158	-0.129
-644.726	800.000	0.096	-0.338
-643.711	224.915	-0.119	-0.194
-642.697	-200.000	-0.009	0.182
-641.682	-200.000	0.021	0.251
-640.668	13.567	-0.331	0.260
-639.653	217.557	-0.146	0.235
-638.638	-74.372	-0.175	-0.064
-637.624	100.825	0.122	-0.143
-636.609	-200.000	-0.013	0.218
-635.595	447.370	0.118	-0.263
-634.580	75.347	-0.245	-0.261
-633.565	-200.000	-0.006	0.074
-632.551	800.000	-0.048	0.158
-631.536	164.473	-0.047	-0.066
-630.522	89.943	0.089	0.100
-629.507	236.548	-0.133	0.222
-628.492	36.798	0.299	0.267
-627.478	-19.953	0.233	0.145
-626.463	-174.641	0.159	-0.005
-625.449	-111.580	-0.105	-0.022
-624.434	101.640	0.124	0.145
-623.419	-143.162	0.359	0.035
-622.405	-124.215	0.142	0.022
-621.390	-1.911	-0.361	0.257
-620.376	-54.127	-0.130	0.060
-619.361	-156.001	-0.372	0.024
-618.346	-10.649	-0.202	-0.135
-617.332	800.000	0.074	-0.295
-616.317	528.931	0.025	-0.060
-615.303	453.916	-0.095	-0.212
-614.288	154.794	0.088	0.123
-613.273	0.267	0.035	-0.025
-612.259	-200.000	0.066	-0.296
-611.244	510.524	-0.112	-0.263
-610.230	171.314	0.199	-0.288
-609.215	148.128	-0.142	0.193
-608.201	186.798	-0.141	0.212
-607.186	-107.491	0.199	0.044
-606.171	-141.392	0.187	-0.019
-605.157	-200.000	0.002	-0.369
-604.142	395.190	-0.128	-0.270
-603.128	800.000	0.070	-0.271
-602.113	-54.916	0.162	0.074
-601.098	594.810	0.056	0.140
-600.084	-200.000	-0.001	0.125
-599.069	14.849	0.174	0.137
-598.055	-39.794	-0.263	0.138
-597.040	17.532	-0.095	-0.076
-596.025	-19.648	-0.249	-0.156
-595.011	-9.773	0.108	-0.073
-593.996	61.892	-0.072	-0.073
-592.982	67.171	-0.257	0.264
-591.967	11.186	-0.063	0.049
-590.952	-34.504	-0.288	-0.159
-589.938	106.367	-0.070	-0.084
-588.923	207.914	0.066	-0.104
-587.909	-11.610	-0.270	0.179
-586.894	-200.000	0.001	0.052
-585.879	-200.000	0.060	-0.271
-584.865	-82.979	-0.241	0.078
-583.850	27.301	0.320	-0.271
-582.836	-71.270	0.165	0.063
-581.821	-200.000	-0.029	0.240
-580.806	46.952	-0.315	0.296
-579.792	800.000	-0.023	-0.068
-578.777	-118.167	-0.330	0.059
-577.763	-24.194	-0.116	0.070
-576.748	-124.852	0.418	-0.065
-575.733	-139.063	-0.151	-0.016
-574.719	-200.000	0.012	-0.309
-573.704	39.248	0.178	-0.161
-572.690	229.438	-0.240	0.395
-571.675	32.152	-0.374	0.325
-570.661	800.000	0.020	0.068
-569.646	-200.000	0.000	0.295
-568.631	-200.000	0.017	0.093
-567.617	8.495	-0.151	-0.114
-566.602	179.849	-0.140	0.207
-565.588	-1.766	0.316	-0.224
-564.573	-166.423	-0.121	-0.005
-563.558	417.618	-0.027	-0.059
-562.544	326.260	-0.062	-0.119
-561.529	-200.000	-0.042	0.263
-560.515	-200.000	0.022	-0.151
-559.500	-24.922	-0.294	-0.176
-558.485	-200.000	0.069	0.433
-557.471	-200.000	-0.017	-0.198
-556.456	-200.000	0.018	-0.082
-555.442	-46.284	0.188	0.093
-554.427	-200.000	-0.004	-0.237
-553.412	262.531	-0.390	-0.681
-552.398	84.183	0.251	-0.277
-551.383	-70.369	-0.122	-0.047
-550.369	317.092	0.110	0.209
-549.354	-200.000	-0.088	0.479
-548.339	142.918	0.158	0.212
-547.325	-200.000	0.041	-0.418
-546.310	-36.782	-0.074	-0.040
-545.296	219.865	-0.041	-0.067
-544.281	-200.000	0.008	-0.063
-543.266	770.762	0.096	-0.262
-542.252	-200.000	0.032	-0.211
-541.237	99.965	0.094	-0.109
-540.223	157.055	-0.279	-0.388
-539.208	263.418	0.121	-0.212
-538.193	247.363	-0.083	0.141
-537.179	-200.000	-0.007	0.106
-536.164	-200.000	-0.024	0.153
-535.150	800.000	0.096	0.301
-534.135	135.902	-0.056	-0.073
-533.121	721.407	-0.093	-0.250
-532.106	-155.140	-0.102	0.007
-531.091	56.624	0.091	-0.089
-530.077	-106.736	-0.190	0.043
-529.062	83.170	-0.227	-0.249
-528.048	-148.318	0.299	-0.025
-527.033	-139.849	0.204	-0.022
-526.018	355.959	0.090	-0.180
-525.004	458.493	0.140	0.314
-523.989	415.163	-0.181	0.387
-522.975	432.438	-0.008	-0.018
-521.960	260.026	-0.139	-0.242
-520.945	-38.649	0.184	0.098
-519.931	-200.000	0.012	0.264
-518.916	-58.126	0.118	-0.052
-517.902	-27.687	0.088	-0.051
-516.887	800.000	-0.029	-0.099
-515.872	-123.846	-0.327	0.052
-514.858	-191.924	-0.209	-0.002
-513.843	-140.796	-0.184	0.019
-512.829	-44.472	-0.398	-0.200
-511.814	-22.865	0.197	0.119
-510.799	-159.010	-0.249	-0.014
-509.785	-43.286	0.408	0.208
-508.770	-41.723	0.262	0.135
-507.756	-6.194	-0.299	-0.205
-506.741	143.057	0.156	0.208
-505.726	-124.911	-0.366	-0.057
-504.712	113.033	0.195	-0.238
-503.697	-200.000	0.014	0.155
-502.683	279.271	-0.047	-0.085
-501.668	206.831	0.132	-0.207
-500.653	800.000	-0.061	-0.170
-499.639	-13.591	-0.168	0.110
-498.624	62.151	-0.244	0.245
-497.610	-152.621	-0.291	-0.021
-496.595	-57.319	-0.071	0.031
-495.581	237.136	-0.095	0.158
-494.566	4.150	-0.112	0.083
-493.551	-43.291	0.410	-0.208
-492.537	-118.265	-0.098	0.018
-491.522	334.477	-0.099	-0.192
-490.508	274.006	0.087	0.154
-489.493	800.000	-0.112	0.333
-488.478	-74.695	-0.102	0.037
-487.464	800.000	0.032	-0.105
-486.449	189.976	-0.269	-0.405
-485.435	-57.419	0.307	0.135
-484.420	-112.250	-0.161	0.032
-483.405	-40.499	-0.154	0.080
-482.391	65.897	0.160	0.163
-481.376	166.912	0.045	-0.065
-480.362	-44.033	0.329	0.166
-479.347	-33.619	-0.114	0.063
-478.332	-34.517	0.036	-0.020
-477.318	-7.816	-0.095	-0.064
-476.303	509.450	-0.075	0.174
-475.289	-190.135	0.393	-0.004
-474.274	-200.000	0.036	-0.187
-473.259	369.242	-0.073	-0.147
-472.245	161.969	-0.124	-0.174
-471.230	-137.780	0.239	-0.027
-470.216	782.488	0.047	-0.128
-469.201	-31.110	-0.179	0.101
-468.186	-117.483	-0.046	-0.008
-467.172	-132.345	-0.084	-0.011
-466.157	-83.867	-0.136	0.044
-465.143	-200.000	0.043	0.256
-464.128	-112.697	0.179	-0.036
-463.113	140.395	-0.182	0.242
-462.099	-103.597	-0.160	-0.038
-461.084	389.695	-0.107	-0.223
-460.070	-66.162	0.090	-0.036
-459.055	-103.460	-0.056	0.013
-458.040	158.682	0.171	-0.238
-457.026	14.433	-0.115	-0.090
-456.011	-65.869	0.167	-0.067
-454.997	374.823	0.138	-0.283
-453.982	20.574	-0.312	0.253
-452.968	346.703	-0.054	-0.107
-451.953	-200.000	-0.003	-0.031
-450.938	-200.000	-0.042	0.223
-449.924	800.000	0.100	0.375
-448.909	267.964	0.033	0.058
-447.895	-200.000	0.015	0.156
-446.880	151.366	-0.115	-0.158
-445.865	-63.023	0.373	0.155
-444.851	-27.566	-0.072	0.042
-443.836	-111.479	0.185	0.038
-442.822	-18.524	-0.320	0.201
-441.807	-73.971	0.365	-0.133
-440.792	-26.769	0.260	-0.152
-439.778	800.000	0.056	-0.217
-438.763	33.657	-0.377	0.328
-437.749	492.979	-0.112	-0.257
-436.734	800.000	-0.022	-0.092
-435.719	147.465	-0.057	0.077
-434.705	-200.000	-0.035	0.226
-433.690	234.538	-0.072	-0.119
-432.676	-143.134	0.348	0.034
-431.661	-42.718	0.212	-0.108
-430.646	-60.619	0.240	-0.102
-429.632	255.242	0.154	0.264
-428.617	-58.453	0.188	-0.082
-427.603	559.137	-0.080	-0.193
-426.588	-200.000	-0.009	0.046
-425.573	-138.384	-0.282	-0.031
-424.559	95.978	-0.115	0.131
-423.544	-129.489	-0.333	0.046
-422.530	14.348	-0.261	0.204
-421.515	-90.802	-0.205	0.059
-420.500	-200.000	0.007	0.175
-419.486	4.768	-0.258	0.190
-418.471	-27.343	0.096	0.056
-417.457	-200.000	-0.044	0.241
-416.442	-22.651	0.086	-0.052
-415.428	-106.988	-0.085	0.019
-414.413	119.660	0.134	0.166
-413.398	-36.287	0.154	-0.083
-412.384	35.254	-0.022	-0.019
-411.369	-200.000	-0.030	0.206
-410.355	70.245	-0.095	-0.098
-409.340	75.372	0.154	0.163
-408.325	584.445	0.041	0.101
-407.311	-77.134	-0.226	0.079
-406.296	52.844	0.108	-0.103
-405.282	-138.666	-0.207	-0.023
-404.267	-46.829	0.062	0.030
-403.252	-61.623	0.150	-0.063
-402.238	282.991	-0.127	0.228
-401.223	-70.556	-0.097	0.037
-400.209	97.188	-0.203	-0.233
-399.194	98.056	-0.205	-0.237
-398.179	-200.000	-0.004	-0.103
-397.165	87.635	0.165	-0.182
-396.150	752.322	0.094	0.254
-395.136	-200.000	0.015	0.253
-394.121	-200.000	-0.045	-0.223
-393.106	358.712	-0.110	0.221
-392.092	-175.372	0.122	-0.003
-391.077	-121.722	0.069	0.011
-390.063	-200.000	-0.043	0.268
-389.048	-85.797	0.063	-0.019
-388.033	-200.000	-0.034	-0.246
-387.019	53.609	0.327	-0.314
-386.004	-200.000	0.022	-0.204
-384.990	800.000	0.074	-0.221
-383.975	94.632	-0.159	0.181
-382.960	800.000	0.026	0.082
-381.946	210.442	0.122	-0.192
-380.931	-34.418	0.216	-0.119
-379.917	-171.032	0.155	-0.005
-378.902	264.926	0.157	0.274
-377.888	353.821	0.110	0.218
-376.873	13.728	-0.267	-0.208
-375.858	-89.572	0.318	-0.093
-374.844	-145.067	0.105	0.010
-373.829	-32.108	-0.269	-0.150
-372.815	-200.000	0.021	0.125
-371.800	-95.690	-0.081	0.022
-370.785	518.776	-0.095	0.222
-369.771	-62.023	-0.265	-0.111
-368.756	-200.000	-0.036	0.521
-367.742	-200.000	0.015	0.251
-366.727	-68.659	0.221	0.085
-365.712	-28.502	0.120	-0.069
-364.698	578.944	0.081	-0.199
-363.683	319.264	-0.079	-0.149
-362.669	254.446	-0.072	-0.122
-361.654	-200.000	0.016	-0.163
-360.639	800.000	0.017	-0.064
-359.625	17.134	-0.213	0.169
-358.610	126.746	-0.280	-0.355
-357.596	143.602	0.365	-0.486
-356.581	50.419	0.043	-0.040
-355.566	800.000	-0.127	-0.358
-354.552	62.385	-0.141	0.140
-353.537	-117.374	-0.196	-0.035
-352.523	54.489	0.260	0.251
-351.508	-162.249	0.189	0.009
-350.493	23.637	0.169	-0.139
-349.479	290.913	-0.219	0.398
-348.464	-74.381	-0.453	0.163
-347.450	564.649	0.038	-0.093
-346.435	74.360	-0.070	-0.074
-345.420	-131.498	-0.286	-0.038
-344.406	106.379	-0.138	0.163
-343.391	156.848	0.234	0.323
-342.377	0.688	-0.152	0.109
-341.362	30.481	-0.390	0.333
-340.348	-71.878	0.572	0.213
-339.333	-57.215	-0.332	0.146
-338.318	266.129	0.042	0.074
-337.304	-109.117	-0.345	0.073
-336.289	61.227	-0.158	-0.157
-335.275	-118.073	0.178	-0.032
-334.260	432.689	-0.132	0.286
-333.245	274.479	-0.108	-0.190
-332.231	-67.123	-0.394	-0.155
-331.216	20.812	0.267	-0.216
-330.202	19.364	-0.436	-0.350
-329.187	-21.476	0.189	0.115
-328.172	-41.946	0.181	0.093
-327.158	-102.276	-0.335	-0.080
-326.143	800.000	-0.052	-0.157
-325.129	-118.543	0.327	-0.058
-324.114	381.611	0.045	0.092
-323.099	-200.000	0.022	-0.181
-322.085	-200.000	-0.007	0.082
-321.070	-78.643	0.341	0.116
-320.056	-50.263	0.330	-0.156
-319.041	-127.751	0.241	-0.035
-318.026	232.287	0.018	0.030
-317.012	260.565	0.208	0.358
-315.997	-8.236	0.292	0.196
-314.983	206.717	-0.074	-0.116
-313.968	-25.117	0.128	0.075
-312.953	-94.055	0.083	-0.023
-311.939	63.830	-0.087	-0.087
-310.924	126.673	0.081	-0.102
-309.910	167.604	0.120	0.171
-308.895	-2.478	-0.135	-0.094
-307.880	321.055	-0.138	-0.262
-306.866	16.628	0.028	-0.022
-305.851	-89.094	-0.174	-0.051
-304.837	-142.522	-0.211	0.021
-303.822	-200.000	0.004	-0.093
-302.807	800.000	-0.078	-0.284
-301.793	-200.000	-0.009	0.086
-300.778	44.575	-0.109	0.099
-299.764	-8.721	-0.130	0.087
-298.749	488.645	0.030	-0.069
-297.735	-2.005	0.299	0.209
-296.720	-200.000	0.032	-0.293
-295.705	-82.675	-0.513	0.166
-294.691	-129.049	0.292	-0.041
-293.676	197.850	-0.101	-0.154
-292.662	-200.000	-0.000	-0.152
-291.647	25.135	-0.191	0.158
-290.632	-90.746	0.174	-0.050
-289.618	-112.812	-0.138	-0.027
-288.603	-12.644	0.265	-0.172
-287.589	-200.000	-0.015	-0.085
-286.574	-134.101	0.283	-0.035
-285.559	17.836	-0.111	-0.088
-284.545	29.190	0.246	0.208
-283.530	-100.737	-0.113	0.028
-282.516	96.198	-0.118	-0.135
-281.501	-41.221	0.079	0.041
-280.486	-105.100	-0.266	0.061
-279.472	87.809	0.119	0.132
-278.457	800.000	0.077	0.285
-277.443	800.000	-0.026	-0.082
-276.428	-35.255	-0.061	-0.033
-275.413	-78.493	-0.192	-0.065
-274.399	-200.000	-0.008	0.077
-273.384	800.000	0.152	0.504
-272.370	800.000	-0.083	0.309
-271.355	224.675	0.185	-0.298
-270.340	800.000	-0.047	-0.151
-269.326	-109.146	0.216	0.046
-268.311	-200.000	0.005	0.038
-267.297	-60.380	0.249	-0.105
-266.282	-75.125	-0.202	0.072
-265.267	800.000	0.068	0.208
-264.253	328.395	-0.111	-0.212
-263.238	-200.000	0.012	-0.191
-262.224	-16.254	-0.170	-0.107
-261.209	-64.895	0.348	-0.140
-260.195	731.250	-0.037	-0.098
-259.180	-200.000	0.013	0.164
-258.165	650.595	-0.085	0.217
-257.151	-200.000	-0.019	0.086
-256.136	-76.351	0.310	0.109
-255.122	-5.513	-0.178	-0.122
-254.107	-200.000	0.024	0.192
-253.092	-107.808	0.231	-0.050
-252.078	34.216	0.168	0.146
-251.063	37.741	0.293	-0.259
-250.049	77.171	0.085	0.090
-249.034	-131.074	-0.029	-0.004
-248.019	-43.797	0.197	-0.099
-247.005	-185.463	0.139	0.002
-245.990	-162.521	0.216	-0.011
-244.976	-142.861	0.093	-0.009
-243.961	-136.251	0.255	-0.030
-242.946	53.384	-0.135	0.129
-241.932	58.615	-0.116	0.113
-240.917	-24.972	-0.073	-0.043
-239.903	-137.153	0.274	0.031
-238.888	141.111	0.144	0.190
-237.873	-200.000	0.025	-0.419
-236.859	-68.540	0.416	0.160
-235.844	-200.000	0.015	-0.086
-234.830	-73.856	-0.117	-0.042
-233.815	-87.307	-0.385	-0.116
-232.800	295.062	-0.044	-0.079
-231.786	-116.656	-0.060	0.011
-230.771	800.000	0.074	0.274
-229.757	-113.184	0.088	0.017
-228.742	-29.887	-0.349	0.198
-227.727	-131.834	0.312	-0.041
-226.713	478.548	0.043	-0.098
-225.698	152.521	-0.070	-0.095
-224.684	-178.009	0.033	0.001
-223.669	-168.768	0.199	0.007
-222.655	-162.315	-0.195	0.010
-221.640	-117.718	0.142	0.025
-220.625	29.639	0.094	-0.080
-219.611	-121.899	0.204	-0.033
-218.596	418.976	-0.159	0.339
-217.582	36.540	-0.244	-0.214
-216.567	800.000	-0.082	0.337
-215.552	-200.000	-0.075	-0.327
-214.538	-131.077	0.330	-0.044
-213.523	256.653	0.080	-0.137
-212.509	75.566	0.211	-0.222
-211.494	152.583	0.101	0.136
-210.479	178.722	0.162	-0.236
-209.465	-97.942	-0.314	-0.081
-208.450	-38.135	-0.209	0.110
-207.436	-107.723	0.319	0.069
-206.421	212.431	0.155	0.244
-205.406	-131.025	-0.022	0.003
-204.392	123.508	0.317	0.395
-203.377	44.317	0.158	0.144
-202.363	125.107	-0.044	-0.055
-201.348	-177.496	0.161	0.004
-200.333	-142.432	-0.224	0.022
-199.319	800.000	-0.027	-0.078
-198.304	-41.137	0.087	0.045
-197.290	319.770	0.048	0.090
-196.275	-200.000	-0.020	-0.248
-195.260	660.060	-0.153	-0.390
-194.246	-88.431	-0.384	0.114
-193.231	-83.241	-0.156	0.050
-192.217	19.742	-0.165	-0.132
-191.202	800.000	-0.108	-0.341
-190.187	167.886	0.060	-0.085
-189.173	800.000	0.095	0.286
-188.158	-94.269	0.442	-0.120
-187.144	13.268	0.134	0.103
-186.129	-200.000	0.029	-0.128
-185.114	56.153	-0.234	0.226
-184.100	-101.043	0.434	0.106
-183.085	-86.346	0.231	-0.070
-182.071	-82.947	0.248	-0.080
-181.056	-26.967	-0.424	-0.246
-180.042	800.000	-0.060	-0.199
-179.027	-154.426	-0.086	-0.006
-178.012	800.000	0.117	-0.414
-176.998	44.957	0.224	0.204
-175.983	97.014	-0.165	-0.188
-174.969	4.111	-0.092	-0.067
-173.954	-200.000	-0.192	-0.000
-172.939	130.012	0.018	0.023
-171.925	-22.901	0.243	0.145
-170.910	-24.039	0.141	0.083
-169.896	203.937	0.116	-0.179
-168.881	-120.488	-0.289	-0.049
-167.866	-38.108	0.059	0.031
-166.852	-21.803	0.274	-0.166
-165.837	-200.000	0.005	0.051
-164.823	-123.820	-0.247	0.039
-163.808	7.900	0.401	-0.298
-162.793	800.000	0.056	0.229
-161.779	612.656	0.063	0.157
-160.764	32.799	0.125	0.107
-159.750	-68.817	-0.224	0.086
-158.735	-200.000	-0.042	0.398
-157.720	271.849	-0.101	0.176
-156.706	714.850	0.067	-0.175
-155.691	155.062	-0.139	-0.190
-154.677	-107.539	0.371	-0.081
-153.662	-78.349	0.152	-0.052
-152.647	64.258	-0.237	0.237
-151.633	-200.000	-0.052	0.235
-150.618	-84.257	0.085	0.027
-149.604	800.000	-0.063	0.226
-148.589	-101.719	0.241	-0.058
-147.574	-48.915	0.155	-0.073
-146.560	-3.113	0.322	0.222
-145.545	-200.000	0.006	0.292
-144.531	95.119	-0.215	-0.242
-143.516	-70.597	-0.144	-0.054
-142.502	183.527	0.096	0.140
-141.487	-200.000	-0.035	-0.174
-140.472	74.024	0.075	-0.078
-139.458	133.924	-0.218	-0.280
-138.443	209.413	-0.085	-0.133
-137.429	-13.211	-0.197	-0.127
-136.414	-12.712	0.266	-0.172
-135.399	-116.374	-0.211	-0.039
-134.385	135.216	-0.307	0.395
-133.370	800.000	0.109	0.327
-132.356	-120.286	0.394	0.067
-131.341	-102.001	-0.250	-0.060
-130.326	-81.692	-0.126	0.041
-129.312	-101.470	-0.148	0.036
-128.297	-123.434	0.311	0.049
-127.283	-200.000	-0.049	-0.278
-126.268	-55.937	0.118	-0.052
-125.253	-200.000	-0.029	0.336
-124.239	3.054	0.141	0.102
-123.224	-200.000	-0.015	0.098
-122.210	241.871	0.126	0.209
