DTS Sentinel unit serial number:	SN413079Multiplexer serial number:	ORYXHardware model number:	OX4-SRSoftware version number:	ORYX F/W v4.00 Oryx Data Collector v3.7.2.0data status	okinstallation	princeton_trtdifferential loss correction	single-endedforward channel	channel 1reverse channel	N/Adate	2019/09/15time	10:46:35forward acquisition time	60.00reverse acquisition time	0.00gamma	496.2192k internal	0.2309k external	0.2309temperature offset calibration	0.9985default loss term (dB/km)	0.3790temperature slope calibration	1.0000multiplexer offset coefficient	1.0000multiplexer slope coefficient	1.0000fibre end	0.00T internal ref (°C)	34.25T ext. ref 1 (°C)	5.02T ext. ref 2 (°C)	29.61length (m)	temperature (°C)	Stokes	anti-Stokes-747.200	-47.223	0.153	-0.076
-746.185	645.077	-0.071	0.183
-745.171	206.422	0.094	-0.148
-744.156	448.535	-0.114	0.254
-743.142	-134.558	0.062	0.008
-742.127	-200.000	-0.017	0.154
-741.112	392.833	-0.074	0.157
-740.098	-200.000	0.006	0.136
-739.083	-171.710	0.169	-0.006
-738.069	-200.000	-0.007	0.370
-737.054	370.032	0.222	0.458
-736.039	-196.647	-0.324	0.002
-735.025	324.107	-0.074	-0.144
-734.010	-160.733	-0.085	0.005
-732.996	135.057	0.258	-0.340
-731.981	-186.989	-0.478	-0.007
-730.966	-44.986	0.463	-0.234
-729.952	318.156	-0.152	-0.292
-728.937	-8.954	-0.327	-0.223
-727.923	199.304	0.108	-0.169
-726.908	-69.365	-0.240	0.094
-725.894	-200.000	0.018	0.197
-724.879	28.570	-0.093	0.080
-723.864	-200.000	0.055	0.347
-722.850	-172.142	0.159	-0.005
-721.835	71.218	-0.206	-0.217
-720.821	-155.374	0.196	0.013
-719.806	-200.000	-0.021	-0.210
-718.791	-144.427	-0.355	-0.033
-717.777	-8.464	-0.210	0.143
-716.762	-125.735	-0.163	-0.025
-715.748	800.000	-0.034	0.147
-714.733	-119.306	0.177	0.031
-713.718	291.885	-0.163	0.300
-712.704	-200.000	0.025	-0.457
-711.689	16.223	0.139	0.112
-710.675	624.210	-0.137	-0.351
-709.660	-200.000	0.003	-0.256
-708.645	584.054	-0.059	-0.148
-707.631	545.979	-0.135	0.328
-706.616	12.805	0.187	0.146
-705.602	234.536	0.154	-0.258
-704.587	-200.000	-0.018	-0.182
-703.572	-155.631	0.221	-0.014
-702.558	92.352	0.071	0.081
-701.543	369.985	-0.145	0.297
-700.529	-137.453	-0.146	-0.017
-699.514	800.000	-0.010	-0.030
-698.499	75.225	-0.121	-0.129
-697.485	100.071	-0.098	-0.115
-696.470	800.000	-0.003	-0.009
-695.456	-165.057	-0.281	-0.013
-694.441	272.375	-0.077	0.138
-693.426	551.857	0.067	0.164
-692.412	-66.040	0.332	0.134
-691.397	-40.312	-0.124	-0.065
-690.383	250.926	-0.060	-0.104
-689.368	-44.360	-0.301	-0.153
-688.354	-200.000	0.000	-0.129
-687.339	800.000	0.068	0.260
-686.324	52.391	0.213	-0.206
-685.310	150.560	-0.301	-0.414
-684.295	235.493	-0.118	-0.198
-683.281	-200.000	0.036	-0.260
-682.266	-41.824	-0.163	-0.085
-681.251	-35.085	-0.154	0.085
-680.237	-200.000	0.009	-0.161
-679.222	-200.000	-0.014	0.258
-678.208	-71.201	0.279	0.106
-677.193	-57.718	-0.293	-0.130
-676.178	102.225	-0.096	0.114
-675.164	-130.904	-0.256	0.035
-674.149	-200.000	0.008	-0.129
-673.135	-59.774	-0.026	0.011
-672.120	626.707	-0.052	-0.134
-671.105	-123.322	-0.165	-0.027
-670.091	306.819	-0.091	0.172
-669.076	-157.714	0.124	-0.007
-668.062	-86.206	0.215	0.067
-667.047	28.338	-0.123	-0.105
-666.032	50.023	-0.320	0.306
-665.018	440.281	0.050	-0.112
-664.003	-101.318	0.067	-0.017
-662.989	-200.000	0.042	0.269
-661.974	-4.236	0.131	-0.092
-660.959	-32.436	0.006	-0.003
-659.945	548.385	-0.097	0.235
-658.930	-25.307	0.273	-0.164
-657.916	800.000	-0.052	0.219
-656.901	-187.320	-0.328	-0.004
-655.886	-44.352	-0.216	0.109
-654.872	100.459	0.234	-0.275
-653.857	-200.000	0.014	-0.133
-652.843	558.696	-0.133	0.325
-651.828	145.319	-0.086	0.117
-650.814	-15.012	-0.013	-0.009
-649.799	-200.000	-0.023	0.173
-648.784	-37.545	-0.169	0.091
-647.770	-71.436	-0.226	0.086
-646.755	178.278	0.141	-0.208
-645.741	-108.653	0.127	0.028
-644.726	800.000	-0.064	-0.226
-643.711	16.837	-0.147	-0.118
-642.697	-1.484	0.041	0.029
-641.682	-200.000	-0.000	0.193
-640.668	49.449	0.223	0.212
-639.653	-125.963	-0.055	0.008
-638.638	-176.746	0.293	0.008
-637.624	153.037	0.048	0.067
-636.609	-126.968	0.259	0.039
-635.595	350.747	0.043	-0.086
-634.580	800.000	0.068	-0.202
-633.565	-200.000	-0.003	0.049
-632.551	18.005	-0.156	-0.126
-631.536	-79.122	0.245	0.084
-630.522	168.132	-0.140	0.201
-629.507	406.223	-0.076	-0.163
-628.492	-123.372	-0.273	-0.044
-627.478	-45.668	-0.147	-0.073
-626.463	-200.000	-0.024	-0.171
-625.449	702.440	0.116	-0.310
-624.434	-117.326	-0.105	-0.019
-623.419	160.481	-0.134	-0.189
-622.405	-200.000	0.024	0.153
-621.390	-200.000	0.014	0.102
-620.376	61.678	-0.011	-0.011
-619.361	7.332	0.185	-0.140
-618.346	-137.685	0.256	-0.029
-617.332	800.000	0.100	0.288
-616.317	640.215	-0.011	-0.029
-615.303	15.870	0.115	0.092
-614.288	-74.937	0.473	-0.171
-613.273	-200.000	0.001	-0.242
-612.259	-1.725	-0.342	-0.244
-611.244	60.786	0.219	0.220
-610.230	-103.409	0.153	0.036
-609.215	-57.634	0.124	0.055
-608.201	2.793	-0.379	-0.278
-607.186	-200.000	-0.014	-0.159
-606.171	75.272	-0.156	0.166
-605.157	13.111	-0.192	0.151
-604.142	-11.117	0.046	0.030
-603.128	-128.654	0.113	0.016
-602.113	44.690	0.175	0.163
-601.098	629.189	-0.127	0.323
-600.084	-200.000	-0.009	0.353
-599.069	-94.189	-0.126	-0.035
-598.055	-96.308	0.385	-0.103
-597.040	-126.095	-0.293	-0.044
-596.025	561.462	-0.031	-0.076
-595.011	-45.337	-0.230	0.115
-593.996	4.634	-0.102	0.076
-592.982	800.000	0.011	0.043
-591.967	800.000	0.058	-0.165
-590.952	-200.000	0.383	0.001
-589.938	-131.924	-0.081	-0.011
-588.923	-58.406	-0.079	-0.035
-587.909	-184.094	-0.249	-0.004
-586.894	-200.000	0.017	0.151
-585.879	330.341	0.033	-0.064
-584.865	119.445	0.153	0.191
-583.850	-52.724	0.102	-0.047
-582.836	-71.629	-0.381	0.144
-581.821	492.483	0.030	0.069
-580.806	17.385	0.076	-0.061
-579.792	178.247	-0.041	-0.061
-578.777	54.598	-0.329	0.320
-577.763	-65.713	-0.071	-0.029
-576.748	797.787	-0.102	0.285
-575.733	493.496	0.090	0.208
-574.719	176.724	0.158	-0.232
-573.704	91.942	-0.138	-0.157
-572.690	-197.015	-0.135	-0.001
-571.675	-93.151	0.022	0.006
-570.661	-200.000	-0.057	-0.275
-569.646	-200.000	-0.001	-0.250
-568.631	-48.350	-0.038	0.019
-567.617	-53.133	0.089	0.041
-566.602	138.633	0.005	0.007
-565.588	153.209	0.214	-0.295
-564.573	800.000	0.079	-0.221
-563.558	-200.000	-0.028	-0.124
-562.544	800.000	-0.103	0.332
-561.529	800.000	0.091	0.304
-560.515	-83.430	0.128	-0.041
-559.500	-200.000	-0.050	0.348
-558.485	30.714	-0.242	-0.209
-557.471	-12.082	0.156	0.103
-556.456	800.000	-0.105	0.306
-555.442	-124.932	0.283	-0.044
-554.427	-200.000	0.009	-0.292
-553.412	-168.749	0.102	-0.004
-552.398	-200.000	-0.038	-0.258
-551.383	-69.545	-0.107	-0.041
-550.369	97.117	-0.196	-0.226
-549.354	224.352	0.074	0.120
-548.339	-74.487	0.270	0.098
-547.325	-89.844	-0.414	-0.122
-546.310	23.941	-0.374	-0.311
-545.296	-65.936	0.107	0.043
-544.281	-115.581	0.314	0.059
-543.266	-200.000	-0.061	-0.321
-542.252	-200.000	0.035	-0.286
-541.237	800.000	0.108	0.365
-540.223	-200.000	-0.028	-0.145
-539.208	-200.000	0.037	-0.336
-538.193	240.114	-0.228	-0.383
-537.179	-35.189	0.184	0.101
-536.164	369.071	0.137	-0.280
-535.150	-23.905	-0.162	-0.098
-534.135	800.000	-0.068	0.223
-533.121	-200.000	-0.003	0.239
-532.106	-53.210	0.039	-0.018
-531.091	340.805	0.066	-0.130
-530.077	77.960	-0.153	-0.165
-529.062	-200.000	-0.012	-0.187
-528.048	-160.011	-0.097	0.005
-527.033	-101.277	0.217	0.053
-526.018	-200.000	0.006	0.253
-525.004	-67.766	-0.222	0.088
-523.989	-159.397	0.132	0.007
-522.975	-91.742	0.139	0.040
-521.960	145.525	0.194	0.262
-520.945	-32.397	0.178	-0.100
-519.931	700.700	0.045	0.120
-518.916	-50.564	0.074	-0.035
-517.902	-8.398	-0.312	0.212
-516.887	138.063	-0.115	0.151
-515.872	284.936	0.064	0.116
-514.858	-136.190	0.358	-0.042
-513.843	147.193	0.155	0.210
-512.829	7.992	-0.117	-0.089
-511.814	85.867	0.039	-0.043
-510.799	391.669	-0.066	0.137
-509.785	1.346	0.213	-0.154
-508.770	357.221	0.138	0.277
-507.756	-58.923	0.059	0.026
-506.741	-200.000	-0.002	-0.148
-505.726	-200.000	-0.050	-0.321
-504.712	-140.990	0.319	0.033
-503.697	435.326	0.172	-0.377
-502.683	-200.000	-0.035	0.237
-501.668	-200.000	-0.007	-0.161
-500.653	-200.000	0.037	0.168
-499.639	750.225	-0.003	-0.008
-498.624	72.321	0.165	-0.173
-497.610	-111.369	-0.198	0.041
-496.595	-200.000	0.005	-0.154
-495.581	800.000	-0.104	0.378
-494.566	-129.774	-0.308	0.043
-493.551	309.180	-0.018	0.034
-492.537	-157.764	0.139	0.008
-491.522	-200.000	0.086	0.549
-490.508	276.883	-0.205	0.367
-489.493	32.459	0.041	0.035
-488.478	409.235	0.097	0.207
-487.464	-78.889	-0.149	0.051
-486.449	629.871	-0.039	0.099
-485.435	66.607	-0.044	0.045
-484.420	89.584	0.190	-0.213
-483.405	26.847	-0.048	-0.040
-482.391	-17.948	-0.176	-0.111
-481.376	-57.543	0.292	0.129
-480.362	117.796	-0.226	-0.280
-479.347	349.373	-0.088	-0.175
-478.332	-26.599	-0.085	0.050
-477.318	800.000	-0.057	0.170
-476.303	492.880	0.075	0.173
-475.289	-118.371	-0.097	0.017
-474.274	-124.455	0.147	-0.023
-473.259	-200.000	0.009	-0.107
-472.245	-94.940	-0.149	0.041
-471.230	-200.000	0.003	0.022
-470.216	-11.167	-0.213	0.141
-469.201	-103.562	-0.261	-0.062
-468.186	-200.000	-0.002	0.019
-467.172	130.233	-0.126	-0.162
-466.157	-40.992	0.153	-0.079
-465.143	374.793	0.083	0.170
-464.128	238.585	0.044	0.073
-463.113	800.000	0.015	-0.053
-462.099	299.636	0.013	0.024
-461.084	454.315	0.109	-0.242
-460.070	69.303	0.153	-0.158
-459.055	-30.015	0.055	-0.031
-458.040	800.000	-0.004	-0.017
-457.026	47.544	-0.137	-0.129
-456.011	692.806	-0.122	0.322
-454.997	-128.783	0.361	0.051
-453.982	-74.060	-0.154	0.056
-452.968	-46.793	0.340	0.167
-451.953	1.608	-0.071	-0.051
-450.938	-67.241	-0.351	-0.139
-449.924	-200.000	-0.024	-0.210
-448.909	-40.564	0.130	-0.068
-447.895	341.888	0.088	-0.174
-446.880	-124.573	-0.185	0.029
-445.865	-200.000	-0.007	-0.108
-444.851	49.983	-0.187	-0.178
-443.836	293.095	0.102	-0.187
-442.822	-84.658	0.083	0.026
-441.807	-135.963	-0.164	-0.019
-440.792	0.186	0.214	0.153
-439.778	-59.585	-0.294	0.127
-438.763	-115.748	-0.181	0.034
-437.749	-200.000	0.006	0.047
-436.734	-200.000	0.000	-0.560
-435.719	-26.954	-0.109	0.064
-434.705	2.709	0.172	0.125
-433.690	-200.000	-0.043	0.249
-432.676	396.052	-0.045	0.093
-431.661	-200.000	0.025	-0.506
-430.646	-84.136	0.159	0.051
-429.632	493.015	-0.074	-0.171
-428.617	408.358	0.048	0.101
-427.603	8.970	-0.139	-0.105
-426.588	-200.000	-0.090	0.525
-425.573	26.484	0.137	0.115
-424.559	104.888	0.048	-0.057
-423.544	800.000	0.036	0.127
-422.530	-12.510	-0.152	-0.100
-421.515	-200.000	-0.039	-0.245
-420.500	54.434	-0.099	-0.096
-419.486	-126.594	-0.143	0.021
-418.471	5.114	0.102	-0.076
-417.457	42.512	0.049	-0.045
-416.442	129.047	-0.226	0.289
-415.428	-29.843	-0.143	-0.082
-414.413	-200.000	0.047	0.316
-413.398	-200.000	-0.012	0.243
-412.384	800.000	0.042	0.132
-411.369	-42.121	-0.170	-0.087
-410.355	-154.424	-0.128	-0.009
-409.340	-200.000	-0.007	0.097
-408.325	163.860	0.122	0.172
-407.311	-200.000	0.032	-0.299
-406.296	30.663	0.165	-0.142
-405.282	-124.572	-0.135	-0.021
-404.267	-156.408	-0.206	0.013
-403.252	260.517	-0.118	-0.205
-402.238	-200.000	-0.016	-0.095
-401.223	-196.991	0.256	-0.002
-400.209	112.520	0.042	0.051
-399.194	-126.754	-0.358	0.053
-398.179	-86.372	0.310	-0.095
-397.165	159.458	-0.132	-0.184
-396.150	-29.798	0.300	0.172
-395.136	-86.147	0.184	0.057
-394.121	307.079	0.145	-0.271
-393.106	201.910	-0.183	0.283
-392.092	-15.204	-0.073	0.047
-391.077	-16.728	0.100	-0.064
-390.063	-74.488	-0.247	0.089
-389.048	98.552	-0.008	-0.009
-388.033	-107.326	-0.210	-0.046
-387.019	-200.000	-0.013	0.233
-386.004	800.000	0.037	-0.161
-384.990	-200.000	0.021	-0.141
-383.975	-200.000	-0.021	-0.661
-382.960	141.289	0.147	-0.195
-381.946	73.730	0.066	0.070
-380.931	-63.398	-0.127	-0.052
-379.917	-64.832	-0.182	-0.074
-378.902	-38.825	-0.232	-0.123
-377.888	121.974	-0.065	0.082
-376.873	140.241	-0.117	0.155
-375.858	-32.613	0.325	0.181
-374.844	-200.000	-0.018	-0.396
-373.829	-200.000	0.034	-0.204
-372.815	-83.879	-0.350	-0.112
-371.800	73.862	-0.186	-0.195
-370.785	-117.693	0.365	-0.066
-369.771	-96.763	0.215	-0.057
-368.756	-62.069	-0.133	-0.055
-367.742	150.925	-0.078	0.106
-366.727	-98.041	0.145	0.037
-365.712	221.436	-0.157	-0.252
-364.698	765.994	0.067	-0.184
-363.683	47.339	0.127	0.119
-362.669	-115.789	-0.370	-0.069
-361.654	15.776	-0.098	0.077
-360.639	-57.221	0.232	-0.102
-359.625	-54.840	0.181	-0.082
-358.610	-200.000	-0.001	0.082
-357.596	-0.099	-0.158	-0.113
-356.581	-31.197	0.122	0.069
-355.566	-12.744	-0.152	0.099
-354.552	425.173	-0.136	-0.294
-353.537	-1.034	-0.162	0.115
-352.523	-125.351	0.328	-0.050
-351.508	-22.917	-0.236	-0.143
-350.493	319.988	0.065	-0.124
-349.479	24.106	-0.286	0.236
-348.464	340.255	-0.191	0.374
-347.450	-69.183	-0.264	-0.102
-346.435	-34.231	-0.339	0.186
-345.420	313.727	-0.057	0.107
-344.406	-92.704	-0.031	-0.009
-343.391	-200.000	-0.004	-0.189
-342.377	115.546	0.135	0.165
-341.362	165.270	0.197	0.278
-340.348	1.936	-0.171	0.124
-339.333	50.804	0.033	0.031
-338.318	-139.461	0.186	-0.020
-337.304	703.735	0.034	-0.089
-336.289	-41.011	0.173	-0.089
-335.275	-200.000	0.023	0.356
-334.260	800.000	0.015	-0.043
-333.245	70.851	-0.226	0.234
-332.231	-117.545	0.288	0.052
-331.216	412.135	0.161	-0.343
-330.202	-200.000	-0.029	0.376
-329.187	-79.328	-0.147	-0.050
-328.172	-144.831	0.009	0.001
-327.158	-20.701	-0.331	0.203
-326.143	0.594	0.151	0.108
-325.129	-200.000	0.022	0.345
-324.114	-1.116	-0.215	0.152
-323.099	-200.000	-0.011	-0.065
-322.085	-200.000	0.046	0.281
-321.070	-99.358	0.186	-0.047
-320.056	800.000	-0.036	-0.110
-319.041	189.118	-0.158	-0.237
-318.026	174.067	0.075	0.109
-317.012	800.000	0.034	0.124
-315.997	15.064	0.119	0.093
-314.983	-69.570	-0.134	-0.051
-313.968	-50.685	-0.280	-0.132
-312.953	-185.206	0.278	0.004
-311.939	59.678	0.271	-0.267
-310.924	-45.821	0.123	-0.061
-309.910	31.680	0.261	-0.224
-308.895	48.240	0.017	0.016
-307.880	-200.000	0.021	-0.096
-306.866	153.625	0.100	-0.137
-305.851	-121.391	0.177	-0.029
-304.837	-49.780	0.187	-0.089
-303.822	181.742	-0.100	0.148
-302.807	800.000	-0.088	-0.318
-301.793	520.347	-0.097	-0.227
-300.778	51.104	-0.211	0.200
-299.764	43.777	0.185	-0.169
-298.749	800.000	-0.068	0.235
-297.735	-103.106	0.360	0.085
-296.720	81.074	0.233	-0.251
-295.705	-200.000	0.001	-0.360
-294.691	-133.333	0.349	-0.044
-293.676	376.030	0.085	0.174
-292.662	800.000	0.031	-0.115
-291.647	-54.770	-0.083	0.038
-290.632	-93.386	0.456	-0.126
-289.618	-135.906	-0.175	0.021
-288.603	-58.096	-0.180	-0.079
-287.589	93.829	0.079	0.089
-286.574	-73.484	0.102	-0.037
-285.559	1.894	-0.159	-0.115
-284.545	-130.119	-0.044	-0.006
-283.530	654.513	0.114	-0.292
-282.516	-114.067	0.101	-0.020
-281.501	38.407	-0.210	-0.187
-280.486	-200.000	-0.028	0.465
-279.472	-200.000	-0.017	-0.088
-278.457	520.315	0.215	-0.503
-277.443	554.741	0.183	0.440
-276.428	-89.221	0.041	0.012
-275.413	173.827	0.116	0.167
-274.399	-80.191	-0.371	0.124
-273.384	-112.460	-0.314	0.063
-272.370	117.807	0.193	0.237
-271.355	203.434	-0.146	0.225
-270.340	800.000	0.039	0.163
-269.326	21.256	0.363	0.294
-268.311	-107.659	0.131	-0.029
-267.297	-200.000	-0.274	0.000
-266.282	-136.317	-0.270	0.031
-265.267	-200.000	0.222	0.001
-264.253	68.361	0.069	-0.071
-263.238	42.107	-0.227	-0.205
-262.224	294.363	-0.066	-0.120
-261.209	-100.651	0.313	0.077
-260.195	-44.110	-0.085	-0.042
-259.180	-64.236	-0.260	0.106
-258.165	-160.022	0.295	0.016
-257.151	800.000	0.135	-0.435
-256.136	10.859	0.300	-0.229
-255.122	-83.110	-0.198	-0.064
-254.107	367.548	-0.029	0.059
-253.092	800.000	-0.050	-0.143
-252.078	-4.671	0.086	0.059
-251.063	-200.000	0.002	-0.030
-250.049	67.586	-0.147	-0.149
-249.034	-10.047	0.310	0.206
-248.019	-200.000	0.056	-0.281
-247.005	-200.000	-0.014	-0.291
-245.990	331.871	0.136	-0.261
-244.976	640.631	0.207	-0.524
-243.961	300.887	0.141	-0.259
-242.946	800.000	-0.035	-0.101
-241.932	800.000	0.060	-0.184
-240.917	-53.449	0.320	0.146
-239.903	-120.243	-0.445	0.076
-238.888	-200.000	0.003	0.237
-237.873	479.029	0.030	0.067
-236.859	-111.705	-0.084	0.017
-235.844	-200.000	-0.007	-0.051
-234.830	-25.535	-0.206	-0.121
-233.815	7.093	0.201	-0.149
-232.800	-200.000	-0.058	-0.308
-231.786	-66.485	-0.210	0.083
-230.771	45.888	-0.136	0.125
-229.757	414.375	0.057	-0.121
-228.742	-58.488	0.319	0.138
-227.727	38.730	-0.257	0.228
-226.713	183.547	0.094	0.138
-225.698	272.324	-0.121	0.213
-224.684	-200.000	-0.002	0.203
-223.669	-89.920	0.150	-0.044
-222.655	147.134	-0.142	-0.191
-221.640	508.661	-0.030	-0.070
-220.625	674.604	-0.093	0.240
-219.611	327.879	-0.123	0.235
-218.596	-49.211	-0.269	-0.128
-217.582	-10.386	0.247	-0.163
-216.567	228.377	0.055	-0.089
-215.552	800.000	0.107	-0.328
-214.538	49.159	-0.133	0.124
-213.523	-122.161	0.035	-0.006
-212.509	-47.291	0.081	0.039
-211.494	615.903	-0.095	0.237
-210.479	-94.202	0.369	-0.100
-209.465	188.830	0.050	0.075
-208.450	-7.142	-0.130	0.088
-207.436	84.811	0.240	0.261
-206.421	-200.000	0.029	0.199
-205.406	223.957	0.222	0.357
-204.392	-200.000	0.062	0.316
-203.377	-111.306	0.382	0.078
-202.363	-125.889	-0.161	0.024
-201.348	-135.857	-0.131	-0.015
-200.333	35.710	-0.231	0.202
-199.319	-112.773	-0.245	-0.048
-198.304	68.021	-0.121	-0.124
-197.290	-138.210	-0.237	-0.026
-196.275	800.000	0.039	0.116
-195.260	120.041	0.147	-0.181
-194.246	0.122	0.119	0.084
-193.231	88.051	0.169	0.187
-192.217	134.853	-0.066	-0.085
-191.202	56.669	-0.061	0.059
-190.187	32.728	0.203	-0.175
-189.173	800.000	0.046	-0.168
-188.158	54.779	-0.237	0.227
-187.144	108.128	0.176	0.209
-186.129	283.876	-0.097	0.173
-185.114	-2.895	0.121	-0.084
-184.100	224.556	-0.064	-0.103
-183.085	604.737	-0.019	-0.046
-182.071	-65.407	0.211	-0.084
-181.056	174.041	-0.083	0.119
-180.042	-200.000	0.043	0.251
-179.027	181.969	-0.135	-0.197
-178.012	37.516	-0.238	0.210
-176.998	-47.926	0.193	0.093
-175.983	69.406	-0.185	-0.190
-174.969	158.064	0.092	0.126
-173.954	105.338	0.085	0.100
-172.939	30.446	-0.169	0.143
-171.925	222.612	0.125	0.200
-170.910	725.158	0.075	0.199
-169.896	112.971	-0.042	0.050
-168.881	-93.962	0.158	-0.043
-167.866	43.409	0.031	-0.028
-166.852	-65.391	-0.228	0.091
-165.837	-109.433	-0.472	-0.099
-164.823	-158.384	0.201	0.012
-163.808	160.419	-0.095	0.132
-162.793	-87.379	-0.227	0.068
-161.779	800.000	0.093	0.327
-160.764	405.455	-0.119	-0.248
-159.750	1.631	-0.108	0.077
-158.735	800.000	-0.006	-0.016
-157.720	-200.000	-0.038	0.230
-156.706	-71.510	-0.166	-0.062
-155.691	-121.258	0.221	-0.037
-154.677	69.958	0.141	-0.144
-153.662	-158.679	-0.135	0.008
-152.647	-200.000	-0.075	0.415
-151.633	13.602	0.060	-0.047
-150.618	-200.000	-0.014	0.225
-149.604	-26.911	-0.141	0.082
-148.589	243.817	0.082	0.136
-147.574	-200.000	-0.033	0.406
-146.560	-200.000	0.049	0.292
-145.545	-40.732	-0.176	-0.090
-144.531	30.009	0.127	-0.108
-143.516	-55.960	-0.191	-0.085
-142.502	167.795	0.171	0.241
-141.487	-200.000	0.011	-0.116
-140.472	255.635	0.102	0.174
-139.458	81.382	-0.223	0.239
-138.443	158.904	-0.084	0.116
-137.429	-46.795	-0.118	0.057
-136.414	66.827	0.034	0.034
-135.399	-200.000	-0.017	-0.083
-134.385	5.093	-0.123	-0.090
-133.370	-195.829	0.142	0.001
-132.356	192.916	0.294	0.441
-131.341	-132.909	0.046	-0.006
-130.326	-66.098	0.247	0.098
-129.312	800.000	-0.155	0.434
-128.297	-71.845	0.137	-0.051
-127.283	-101.583	-0.119	-0.029
-126.268	-200.000	0.004	-0.051
-125.253	216.150	-0.031	0.048
-124.239	-9.671	-0.028	0.018
-123.224	-200.000	0.019	-0.291
-122.210	-160.420	-0.474	-0.025
-121.195	490.178	0.134	0.304
