DTS Sentinel unit serial number:	SN413079Multiplexer serial number:	ORYXHardware model number:	OX4-SRSoftware version number:	ORYX F/W v4.00 Oryx Data Collector v3.7.2.0data status	okinstallation	princeton_trtdifferential loss correction	single-endedforward channel	channel 1reverse channel	N/Adate	2019/09/11time	20:56:11forward acquisition time	60.00reverse acquisition time	0.00gamma	496.2192k internal	0.2307k external	0.2307temperature offset calibration	1.0053default loss term (dB/km)	0.3790temperature slope calibration	1.0000multiplexer offset coefficient	1.0000multiplexer slope coefficient	1.0000fibre end	0.00T internal ref (°C)	36.80T ext. ref 1 (°C)	1.66T ext. ref 2 (°C)	30.73length (m)	temperature (°C)	Stokes	anti-Stokes-747.200	-95.407	-0.258	0.070
-746.185	97.849	-0.242	0.283
-745.171	54.865	0.305	0.299
-744.156	40.219	-0.055	0.050
-743.142	-106.221	-0.336	0.076
-742.127	800.000	-0.053	-0.211
-741.112	-62.705	0.144	0.061
-740.098	41.174	0.100	0.092
-739.083	-115.688	0.088	0.017
-738.069	-200.000	-0.016	-0.172
-737.054	-200.000	0.014	-0.157
-736.039	-57.590	-0.339	0.151
-735.025	-113.576	0.348	0.069
-734.010	-76.152	-0.159	-0.057
-732.996	593.857	-0.172	-0.433
-731.981	-87.106	-0.289	-0.089
-730.966	-142.534	0.322	0.032
-729.952	150.186	0.206	-0.284
-728.937	-61.449	0.035	-0.015
-727.923	364.839	-0.135	-0.277
-726.908	-32.099	0.204	0.116
-725.894	-200.000	-0.030	0.189
-724.879	580.666	-0.088	-0.219
-723.864	-183.326	0.231	-0.004
-722.850	-200.000	0.019	-0.373
-721.835	800.000	-0.050	0.150
-720.821	530.666	-0.016	-0.039
-719.806	275.686	0.053	0.096
-718.791	800.000	0.066	-0.282
-717.777	-200.000	-0.113	-0.001
-716.762	-117.032	-0.273	-0.051
-715.748	-111.492	-0.194	-0.040
-714.733	800.000	0.089	-0.261
-713.718	34.872	-0.129	0.114
-712.704	476.867	-0.057	0.130
-711.689	-73.221	-0.147	0.055
-710.675	19.583	-0.128	-0.104
-709.660	17.583	0.338	-0.273
-708.645	-156.106	0.130	0.008
-707.631	310.176	0.124	-0.235
-706.616	130.011	0.051	-0.066
-705.602	15.072	-0.352	0.280
-704.587	14.864	0.346	0.275
-703.572	89.896	0.237	0.269
-702.558	-100.023	-0.432	0.109
-701.543	-2.394	-0.157	0.112
-700.529	-200.000	0.008	0.128
-699.514	-200.000	-0.049	0.250
-698.499	-81.095	0.470	0.158
-697.485	14.172	0.225	-0.178
-696.470	-30.606	0.023	0.013
-695.456	-134.078	0.132	-0.017
-694.441	-136.894	-0.027	-0.003
-693.426	-79.992	0.101	0.035
-692.412	-5.233	0.105	-0.074
-691.397	147.950	-0.198	-0.271
-690.383	-165.813	-0.140	-0.006
-689.368	-200.000	0.024	-0.206
-688.354	-161.064	-0.215	0.011
-687.339	-22.619	-0.320	-0.196
-686.324	800.000	0.034	-0.112
-685.310	12.577	-0.062	-0.048
-684.295	79.399	0.025	-0.027
-683.281	23.900	-0.202	0.169
-682.266	800.000	0.039	-0.119
-681.251	-67.362	0.082	-0.033
-680.237	205.047	-0.143	-0.224
-679.222	-11.322	0.457	-0.305
-678.208	-108.878	-0.430	0.093
-677.193	134.066	-0.143	-0.188
-676.178	-2.868	-0.289	0.205
-675.164	162.196	-0.240	0.341
-674.149	-200.000	0.024	-0.166
-673.135	800.000	0.104	0.324
-672.120	-101.110	0.257	-0.064
-671.105	471.894	0.043	-0.097
-670.091	-200.000	0.057	0.352
-669.076	368.755	-0.073	-0.149
-668.062	255.470	0.146	-0.254
-667.047	-27.558	0.083	-0.049
-666.032	1.649	-0.382	-0.279
-665.018	800.000	0.049	0.171
-664.003	229.494	-0.041	-0.068
-662.989	444.163	-0.148	-0.329
-661.974	800.000	-0.037	-0.119
-660.959	-200.000	-0.016	0.185
-659.945	181.893	-0.077	0.115
-658.930	49.043	-0.032	-0.030
-657.916	696.190	0.179	-0.476
-656.901	363.018	-0.116	-0.236
-655.886	-162.819	-0.105	-0.005
-654.872	29.849	0.211	-0.182
-653.857	-85.846	0.034	-0.011
-652.843	-77.950	-0.304	-0.106
-651.828	-7.630	0.277	-0.190
-650.814	-11.529	0.129	0.086
-649.799	81.716	0.087	0.095
-648.784	-81.331	0.231	-0.077
-647.770	800.000	-0.014	-0.047
-646.755	-5.260	0.290	-0.202
-645.741	-76.269	-0.109	0.039
-644.726	66.405	0.092	0.095
-643.711	402.462	0.109	-0.232
-642.697	734.965	-0.048	0.129
-641.682	-200.000	0.036	-0.164
-640.668	-184.752	-0.198	-0.003
-639.653	1.816	0.105	-0.077
-638.638	-124.203	-0.108	0.017
-637.624	309.384	-0.050	-0.095
-636.609	-22.579	0.368	-0.225
-635.595	-130.514	0.174	-0.024
-634.580	-200.000	0.077	-0.584
-633.565	14.599	-0.174	-0.137
-632.551	64.692	-0.303	0.310
-631.536	424.259	0.068	0.147
-630.522	211.518	0.113	0.180
-629.507	-65.873	0.109	0.044
-628.492	-92.779	0.290	-0.082
-627.478	-12.309	-0.259	-0.171
-626.463	4.636	-0.145	-0.108
-625.449	-23.308	0.097	0.059
-624.434	-57.225	0.128	-0.057
-623.419	208.726	0.078	-0.123
-622.405	5.951	-0.224	-0.168
-621.390	-98.686	0.261	0.067
-620.376	281.958	0.086	0.156
-619.361	43.014	-0.229	-0.211
-618.346	-50.866	-0.183	0.087
-617.332	-114.539	-0.070	0.014
-616.317	-122.951	0.303	-0.049
-615.303	-22.440	-0.231	0.142
-614.288	-200.000	-0.016	0.413
-613.273	62.056	0.209	0.211
-612.259	92.165	-0.066	-0.075
-611.244	59.241	-0.098	-0.098
-610.230	630.544	-0.108	-0.276
-609.215	-175.325	0.294	-0.008
-608.201	-200.000	-0.000	-0.054
-607.186	414.241	0.162	-0.349
-606.171	219.968	0.058	0.094
-605.157	-200.000	0.018	-0.186
-604.142	65.952	-0.183	-0.187
-603.128	324.101	0.038	-0.074
-602.113	-200.000	-0.002	0.197
-601.098	380.204	-0.143	0.297
-600.084	367.361	-0.095	-0.194
-599.069	-64.284	0.163	0.067
-598.055	-200.000	0.044	0.289
-597.040	147.458	-0.111	-0.152
-596.025	-200.000	-0.043	-0.254
-595.011	45.561	-0.219	-0.204
-593.996	-148.263	-0.208	-0.017
-592.982	-16.257	-0.087	0.056
-591.967	-200.000	-0.036	0.250
-590.952	-49.144	0.289	0.140
-589.938	-59.317	0.084	-0.036
-588.923	294.560	0.032	-0.059
-587.909	129.142	0.256	0.330
-586.894	-78.365	-0.246	0.085
-585.879	-163.910	-0.257	-0.012
-584.865	-84.447	0.189	0.060
-583.850	-200.000	-0.007	-0.275
-582.836	19.501	-0.241	0.196
-581.821	800.000	0.095	-0.310
-580.806	-200.000	-0.039	0.227
-579.792	-200.000	-0.024	-0.318
-578.777	342.190	0.101	-0.200
-577.763	70.431	0.101	-0.106
-576.748	44.235	-0.103	0.096
-575.733	460.462	0.053	0.119
-574.719	800.000	-0.068	-0.223
-573.704	-177.685	-0.107	-0.003
-572.690	32.821	-0.066	0.057
-571.675	369.148	-0.141	0.288
-570.661	-52.296	-0.282	0.132
-569.646	193.239	0.132	-0.202
-568.631	800.000	-0.060	-0.192
-567.617	-75.081	-0.249	-0.090
-566.602	-63.978	0.254	0.105
-565.588	-200.000	0.005	-0.085
-564.573	130.783	-0.069	-0.090
-563.558	278.447	0.074	-0.133
-562.544	-103.468	-0.151	-0.036
-561.529	2.258	-0.114	-0.083
-560.515	800.000	0.054	-0.178
-559.500	-100.775	-0.141	0.035
-558.485	-16.718	0.331	-0.211
-557.471	59.725	0.184	-0.184
-556.456	-200.000	0.010	-0.179
-555.442	-130.288	-0.384	-0.053
-554.427	38.202	-0.175	0.157
-553.412	-181.796	0.219	-0.004
-552.398	147.259	-0.052	0.071
-551.383	-16.927	-0.318	0.203
-550.369	-112.123	-0.175	0.035
-549.354	-11.736	-0.262	0.173
-548.339	-200.000	-0.009	-0.101
-547.325	22.712	0.418	0.346
-546.310	24.159	0.195	-0.162
-545.296	227.925	-0.328	-0.539
-544.281	-163.844	0.211	0.010
-543.266	792.934	-0.041	0.114
-542.252	-102.181	-0.088	-0.021
-541.237	290.798	0.116	0.213
-540.223	20.471	-0.221	-0.180
-539.208	-200.000	0.056	0.325
-538.193	-200.000	-0.021	0.277
-537.179	-159.422	0.498	-0.028
-536.164	-108.636	0.025	-0.005
-535.150	6.074	-0.122	-0.091
-534.135	-75.010	-0.243	-0.088
-533.121	-29.132	-0.075	-0.043
-532.106	-200.000	0.008	-0.390
-531.091	-200.000	0.038	0.257
-530.077	-102.767	-0.107	-0.026
-529.062	-69.948	-0.329	-0.126
-528.048	-200.000	-0.015	0.162
-527.033	46.959	0.076	0.071
-526.018	12.375	-0.309	-0.240
-525.004	800.000	-0.066	-0.187
-523.989	-13.838	-0.165	0.107
-522.975	753.440	0.058	-0.157
-521.960	-119.591	0.379	-0.066
-520.945	800.000	-0.052	-0.221
-519.931	95.827	-0.263	0.303
-518.916	261.497	0.042	0.073
-517.902	-200.000	-0.394	0.000
-516.887	189.759	-0.115	-0.174
-515.872	-171.705	-0.220	-0.007
-514.858	-21.942	-0.187	-0.114
-513.843	106.152	-0.244	-0.292
-512.829	-200.000	0.013	-0.209
-511.814	-93.919	-0.408	-0.113
-510.799	183.943	0.048	0.071
-509.785	-200.000	-0.053	-0.261
-508.770	-200.000	-0.028	-0.305
-507.756	22.028	-0.027	-0.022
-506.741	-200.000	-0.043	0.243
-505.726	-139.445	-0.187	-0.020
-504.712	-200.000	0.039	0.391
-503.697	219.659	-0.139	-0.225
-502.683	-157.531	-0.149	0.009
-501.668	-74.363	0.347	-0.126
-500.653	329.445	-0.069	-0.133
-499.639	-89.863	-0.306	-0.090
-498.624	-44.726	-0.218	0.110
-497.610	-99.406	-0.293	-0.074
-496.595	95.399	-0.200	-0.230
-495.581	1.307	0.292	-0.211
-494.566	-74.728	-0.131	0.047
-493.551	-54.136	-0.166	-0.076
-492.537	-117.003	0.176	-0.032
-491.522	355.917	0.123	0.246
-490.508	-87.197	-0.149	-0.046
-489.493	495.156	0.075	-0.174
-488.478	57.086	0.111	-0.109
-487.464	664.386	-0.066	0.173
-486.449	173.905	0.020	0.030
-485.435	-94.891	-0.413	0.113
-484.420	16.334	-0.358	0.285
-483.405	72.914	0.111	-0.117
-482.391	3.432	0.081	-0.060
-481.376	119.380	0.149	0.186
-480.362	-44.736	0.245	0.123
-479.347	290.843	-0.137	-0.250
-478.332	-136.363	0.095	-0.011
-477.318	-38.444	0.107	-0.057
-476.303	-120.758	0.110	0.019
-475.289	161.070	-0.119	-0.168
-474.274	-182.262	-0.155	-0.003
-473.259	-122.419	0.150	0.025
-472.245	-113.852	0.239	0.047
-471.230	-163.095	0.257	0.012
-470.216	705.430	0.196	-0.520
-469.201	-41.353	0.258	0.134
-468.186	-200.000	0.041	-0.215
-467.172	-60.600	0.040	-0.017
-466.157	19.866	-0.431	-0.349
-465.143	-200.000	-0.003	-0.047
-464.128	800.000	-0.114	0.461
-463.113	-104.950	-0.464	0.107
-462.099	401.926	-0.161	0.341
-461.084	175.746	-0.155	-0.226
-460.070	120.149	0.047	-0.059
-459.055	-56.046	-0.062	-0.028
-458.040	800.000	-0.047	-0.155
-457.026	53.995	-0.172	-0.167
-456.011	800.000	-0.045	0.145
-454.997	-200.000	0.400	0.002
-453.982	85.533	-0.173	-0.191
-452.968	51.022	-0.065	0.062
-451.953	773.226	-0.031	-0.085
-450.938	463.427	0.086	0.193
-449.924	80.688	-0.184	0.199
-448.909	535.550	0.058	-0.137
-447.895	21.723	0.080	-0.065
-446.880	800.000	0.015	-0.054
-445.865	-85.820	0.265	0.083
-444.851	-200.000	-0.001	0.135
-443.836	-200.000	0.006	0.043
-442.822	-98.770	0.237	0.061
-441.807	-114.093	-0.468	0.091
-440.792	49.700	0.083	0.078
-439.778	-200.000	0.010	0.056
-438.763	-169.917	0.281	-0.010
-437.749	-68.647	0.190	0.074
-436.734	-200.000	-0.010	0.360
-435.719	-59.694	0.179	0.077
-434.705	124.827	0.230	-0.291
-433.690	15.276	-0.255	0.201
-432.676	-200.000	0.007	0.358
-431.661	-43.204	0.280	0.142
-430.646	70.497	0.155	-0.161
-429.632	49.302	-0.243	0.229
-428.617	72.687	-0.131	0.137
-427.603	93.916	-0.142	0.162
-426.588	17.378	0.262	0.209
-425.573	-59.049	0.265	0.115
-424.559	209.154	-0.140	0.220
-423.544	109.878	0.134	0.161
-422.530	93.675	-0.118	-0.134
-421.515	485.010	0.198	0.453
-420.500	-140.268	-0.287	-0.030
-419.486	-200.000	-0.032	0.260
-418.471	2.542	0.168	0.122
-417.457	311.188	0.064	-0.120
-416.442	800.000	-0.065	-0.209
-415.428	63.082	-0.099	-0.099
-414.413	-66.803	0.448	-0.178
-413.398	-23.488	0.282	-0.170
-412.384	-200.000	0.024	-0.158
-411.369	-200.000	0.019	-0.096
-410.355	93.452	-0.295	-0.335
-409.340	800.000	0.036	0.120
-408.325	331.219	-0.108	0.208
-407.311	-12.086	-0.153	-0.100
-406.296	-16.040	0.312	-0.199
-405.282	800.000	-0.026	-0.079
-404.267	-123.961	-0.114	0.018
-403.252	172.365	0.043	-0.062
-402.238	246.146	-0.066	-0.111
-401.223	171.833	0.098	-0.142
-400.209	800.000	0.029	0.085
-399.194	-102.204	-0.430	-0.104
-398.179	108.878	0.102	0.123
-397.165	-200.000	0.022	0.234
-396.150	148.244	0.170	0.230
-395.136	183.002	-0.301	0.446
-394.121	-200.000	-0.049	0.222
-393.106	-57.156	-0.129	0.057
-392.092	-200.000	0.003	0.445
-391.077	16.962	0.223	-0.177
-390.063	220.446	0.145	0.234
-389.048	-200.000	0.017	-0.351
-388.033	-120.531	-0.409	-0.070
-387.019	-2.599	-0.474	0.333
-386.004	800.000	-0.061	0.196
-384.990	-87.283	-0.082	-0.025
-383.975	-60.204	0.102	0.044
-382.960	-13.936	-0.276	-0.178
-381.946	105.687	0.165	0.196
-380.931	-135.277	-0.177	0.021
-379.917	-121.874	-0.297	0.049
-378.902	48.949	0.136	0.128
-377.888	-106.969	0.198	0.044
-376.873	-91.804	0.376	-0.107
-375.858	-99.640	-0.290	0.073
-374.844	176.170	-0.061	-0.089
-373.829	-92.829	-0.219	0.061
-372.815	800.000	-0.086	-0.289
-371.800	747.372	-0.071	-0.192
-370.785	234.503	0.192	0.318
-369.771	-178.723	-0.045	0.001
-368.756	-123.100	-0.171	-0.028
-367.742	-19.272	0.119	-0.074
-366.727	168.583	-0.127	-0.181
-365.712	-54.164	-0.256	0.117
-364.698	252.608	0.048	-0.083
-363.683	-200.000	0.001	0.030
-362.669	42.646	0.140	-0.127
-361.654	372.329	-0.068	-0.137
-360.639	-53.193	0.236	0.109
-359.625	493.971	-0.132	0.303
-358.610	-103.892	0.213	-0.050
-357.596	421.661	-0.128	0.274
-356.581	156.167	0.108	-0.149
-355.566	414.579	0.110	-0.234
-354.552	59.695	0.223	-0.220
-353.537	-98.570	-0.260	-0.067
-352.523	-158.631	0.164	0.009
-351.508	512.844	0.116	0.271
-350.493	800.000	0.104	0.418
-349.479	-57.962	0.165	-0.072
-348.464	-200.000	0.080	0.461
-347.450	-184.998	0.245	-0.004
-346.435	-115.838	0.225	0.042
-345.420	-175.769	-0.691	-0.019
-344.406	271.388	0.120	-0.211
-343.391	-194.023	-0.071	0.001
-342.377	-53.499	0.215	-0.098
-341.362	169.258	-0.024	0.034
-340.348	-111.220	0.385	-0.079
-339.333	-200.000	-0.009	-0.231
-338.318	516.873	0.152	-0.355
-337.304	-82.653	0.127	0.041
-336.289	265.383	0.012	0.020
-335.275	800.000	-0.062	0.223
-334.260	-200.000	0.019	-0.579
-333.245	447.775	-0.130	0.287
-332.231	-142.148	0.101	0.010
-331.216	238.551	0.136	-0.227
-330.202	196.501	0.114	0.174
-329.187	-98.373	-0.312	-0.080
-328.172	772.055	-0.053	-0.145
-327.158	-200.000	0.063	-0.335
-326.143	-200.000	0.049	0.252
-325.129	-157.197	0.357	-0.022
-324.114	462.349	0.139	0.309
-323.099	18.657	0.195	-0.156
-322.085	-200.000	-0.022	-0.130
-321.070	-73.954	0.071	-0.026
-320.056	34.101	0.032	0.028
-319.041	-115.620	-0.053	0.010
-318.026	56.259	-0.253	0.246
-317.012	-63.467	0.450	0.185
-315.997	-78.479	0.357	0.122
-314.983	3.840	0.339	0.247
-313.968	-73.409	0.129	-0.047
-312.953	800.000	-0.100	-0.288
-311.939	184.927	-0.168	-0.249
-310.924	-200.000	-0.016	-0.321
-309.910	87.398	0.047	-0.052
-308.895	76.181	0.065	0.069
-307.880	-28.151	-0.102	-0.059
-306.866	-200.000	-0.100	-0.475
-305.851	251.052	0.129	0.219
-304.837	-94.220	0.224	0.061
-303.822	91.892	-0.204	-0.230
-302.807	-0.437	0.103	-0.073
-301.793	125.969	-0.076	-0.096
-300.778	800.000	-0.055	-0.219
-299.764	357.722	-0.214	-0.427
-298.749	-138.265	-0.248	0.027
-297.735	-200.000	-0.062	0.414
-296.720	181.658	0.102	-0.150
-295.705	-187.773	-0.186	0.002
-294.691	-200.000	0.023	0.174
-293.676	800.000	-0.100	0.378
-292.662	-200.000	-0.012	0.093
-291.647	62.430	-0.229	-0.229
-290.632	-51.639	0.285	0.133
-289.618	-200.000	-0.035	-0.345
-288.603	3.200	0.162	0.118
-287.589	-40.447	-0.158	-0.082
-286.574	-37.861	-0.101	-0.054
-285.559	-89.854	-0.128	-0.038
-284.545	662.803	-0.028	-0.072
-283.530	614.090	0.097	-0.244
-282.516	-28.091	0.151	0.087
-281.501	-7.348	-0.120	-0.081
-280.486	-112.649	0.152	-0.030
-279.472	800.000	0.016	-0.049
-278.457	286.671	-0.070	0.126
-277.443	258.318	0.092	-0.158
-276.428	800.000	-0.044	-0.168
-275.413	-200.000	-0.022	0.170
-274.399	-200.000	-0.047	0.460
-273.384	-65.743	-0.107	0.043
-272.370	0.966	0.325	0.232
-271.355	56.723	-0.097	0.095
-270.340	-200.000	-0.001	-0.200
-269.326	231.493	0.146	0.238
-268.311	19.151	-0.083	0.067
-267.297	-82.502	0.395	0.128
-266.282	43.606	-0.199	0.182
-265.267	800.000	0.046	-0.190
-264.253	151.171	0.110	0.150
-263.238	-96.473	-0.163	0.043
-262.224	72.643	0.139	-0.145
-261.209	-200.000	0.022	-0.234
-260.195	-5.262	0.067	-0.046
-259.180	91.655	-0.091	-0.102
-258.165	348.469	-0.033	-0.064
-257.151	57.901	0.023	-0.022
-256.136	-164.169	-0.200	0.009
-255.122	-200.000	0.012	-0.068
-254.107	383.582	0.198	-0.406
-253.092	15.352	-0.282	-0.221
-252.078	401.776	-0.053	-0.111
-251.063	-30.165	-0.154	0.087
-250.049	-66.040	-0.402	0.160
-249.034	149.057	-0.045	-0.060
-248.019	253.252	-0.124	0.211
-247.005	-4.872	-0.233	0.160
-245.990	76.871	-0.325	-0.344
-244.976	101.030	-0.201	-0.233
-243.961	119.442	0.244	-0.301
-242.946	263.105	-0.080	-0.138
-241.932	206.514	-0.088	-0.136
-240.917	-56.526	0.431	0.190
-239.903	742.593	-0.170	0.455
-238.888	-121.237	-0.172	0.029
-237.873	297.120	0.163	-0.299
-236.859	-200.000	0.019	0.306
-235.844	-49.705	0.119	0.056
-234.830	68.277	0.136	-0.139
-233.815	-0.465	0.248	0.176
-232.800	-133.055	0.358	0.045
-231.786	800.000	0.048	0.133
-230.771	105.412	0.286	0.337
-229.757	-200.000	-0.038	0.180
-228.742	-87.230	0.407	-0.123
-227.727	-1.166	-0.187	0.132
-226.713	257.456	-0.077	-0.132
-225.698	30.384	0.191	0.162
-224.684	-93.186	-0.428	-0.119
-223.669	800.000	-0.101	0.302
-222.655	800.000	-0.086	0.311
-221.640	800.000	0.051	0.201
-220.625	-200.000	0.057	0.275
-219.611	-105.168	0.104	0.024
-218.596	71.381	0.202	0.209
-217.582	559.414	-0.041	0.100
-216.567	-47.991	0.299	0.144
-215.552	454.565	0.094	0.207
-214.538	-101.492	-0.472	-0.114
-213.523	800.000	0.111	0.363
-212.509	228.065	0.066	0.106
-211.494	39.757	0.188	-0.168
-210.479	-27.231	-0.159	0.092
-209.465	709.900	0.157	0.413
-208.450	86.880	0.118	-0.130
-207.436	800.000	0.064	-0.243
-206.421	-200.000	-0.003	-0.054
-205.406	-142.749	0.173	0.017
-204.392	4.242	0.111	0.081
-203.377	-58.333	0.063	0.027
-202.363	176.956	-0.040	0.058
-201.348	-200.000	0.009	-0.104
-200.333	38.739	-0.141	0.125
-199.319	38.558	0.052	-0.046
-198.304	-200.000	-0.006	0.065
-197.290	-71.553	-0.103	0.038
-196.275	-108.881	0.295	0.063
-195.260	-86.108	-0.286	0.088
-194.246	-11.074	-0.197	-0.129
-193.231	208.165	-0.022	-0.034
-192.217	-200.000	-0.009	-0.172
-191.202	200.955	0.166	-0.255
-190.187	-12.061	-0.083	-0.054
-189.173	-55.143	-0.329	-0.147
-188.158	136.821	0.141	-0.184
-187.144	-200.000	0.042	-0.317
-186.129	2.594	-0.180	-0.129
-185.114	-150.296	0.420	-0.032
-184.100	800.000	-0.077	-0.221
-183.085	-200.000	0.025	0.248
-182.071	301.979	-0.057	-0.106
-181.056	-200.000	0.032	0.295
-180.042	82.380	0.245	0.265
-179.027	-200.000	0.007	0.055
-178.012	41.304	0.190	0.171
-176.998	375.316	-0.140	-0.283
-175.983	509.421	-0.083	0.193
-174.969	47.340	0.357	-0.331
-173.954	-132.478	-0.194	-0.025
-172.939	-10.373	-0.342	0.225
-171.925	-73.626	0.322	-0.117
-170.910	-148.069	0.185	0.015
-169.896	144.319	0.091	-0.121
-168.881	800.000	-0.066	-0.268
-167.866	-29.402	0.257	0.146
-166.852	-200.000	-0.014	0.299
-165.837	800.000	0.093	0.395
-164.823	-200.000	-0.063	0.318
-163.808	-119.451	0.186	0.032
-162.793	-63.395	-0.137	-0.056
-161.779	-79.008	-0.161	0.055
-160.764	-109.928	0.538	-0.112
-159.750	55.481	-0.041	0.039
-158.735	342.918	-0.097	0.189
-157.720	644.173	-0.046	-0.117
-156.706	-159.996	0.211	0.011
-155.691	800.000	-0.090	0.346
-154.677	614.370	-0.020	0.049
-153.662	-45.654	-0.044	0.022
-152.647	164.768	0.173	0.243
-151.633	-105.060	0.279	0.063
-150.618	800.000	-0.063	-0.203
-149.604	-200.000	-0.003	0.056
-148.589	-200.000	-0.011	0.268
-147.574	800.000	-0.102	0.373
-146.560	-28.628	-0.068	-0.039
-145.545	-200.000	0.022	0.304
-144.531	-200.000	-0.006	0.167
-143.516	-130.492	-0.302	0.041
-142.502	-200.000	-0.024	-0.140
-141.487	800.000	0.054	0.213
-140.472	-26.433	0.192	0.112
-139.458	-41.433	0.158	-0.081
-138.443	-5.644	0.043	-0.029
-137.429	-2.109	0.112	0.078
-136.414	677.805	0.060	-0.156
-135.399	-65.398	0.176	0.070
-134.385	-180.277	0.157	0.003
-133.370	-177.805	0.332	0.008
-132.356	119.597	0.135	0.167
-131.341	-200.000	0.015	0.089
-130.326	-95.962	-0.314	-0.083
-129.312	43.451	-0.116	-0.105
-128.297	248.989	0.087	0.147
-127.283	800.000	0.099	0.352
-126.268	-47.140	-0.222	0.108
-125.253	-10.184	-0.178	0.117
-124.239	3.834	0.216	-0.157
-123.224	247.168	-0.109	0.183
-122.210	-106.754	0.161	-0.036
-121.195	34.734	0.195	0.169
