DTS Sentinel unit serial number:	SN413079Multiplexer serial number:	ORYXHardware model number:	OX4-SRSoftware version number:	ORYX F/W v4.00 Oryx Data Collector v3.7.2.0data status	okinstallation	princeton_trtdifferential loss correction	single-endedforward channel	channel 1reverse channel	N/Adate	2019/09/15time	19:14:35forward acquisition time	60.00reverse acquisition time	0.00gamma	496.2192k internal	0.2296k external	0.2296temperature offset calibration	0.9953default loss term (dB/km)	0.3790temperature slope calibration	1.0000multiplexer offset coefficient	1.0000multiplexer slope coefficient	1.0000fibre end	0.00T internal ref (°C)	40.53T ext. ref 1 (°C)	7.16T ext. ref 2 (°C)	29.80length (m)	temperature (°C)	Stokes	anti-Stokes-747.200	-87.960	-0.080	-0.025
-746.185	99.719	-0.294	0.348
-745.171	430.018	-0.032	0.070
-744.156	-151.507	-0.179	0.014
-743.142	-62.017	0.215	0.092
-742.127	102.019	-0.136	0.162
-741.112	-200.000	0.006	-0.243
-740.098	-32.173	-0.429	0.245
-739.083	-200.000	-0.061	0.458
-738.069	50.599	-0.285	0.275
-737.054	188.030	-0.039	0.060
-736.039	99.069	0.158	-0.186
-735.025	800.000	0.058	0.206
-734.010	192.875	0.062	0.096
-732.996	-33.150	0.387	-0.219
-731.981	106.395	0.106	-0.129
-730.966	-200.000	0.008	0.375
-729.952	-56.752	0.106	0.048
-728.937	-102.269	0.508	0.125
-727.923	709.564	0.065	-0.175
-726.908	-130.942	-0.466	-0.064
-725.894	38.372	-0.027	-0.025
-724.879	105.506	0.046	0.055
-723.864	-200.000	0.366	-0.001
-722.850	-112.269	0.411	-0.084
-721.835	-69.869	0.019	0.007
-720.821	142.087	-0.160	-0.217
-719.806	-113.816	0.104	-0.021
-718.791	-18.451	0.225	0.143
-717.777	114.456	0.183	-0.227
-716.762	1.508	-0.070	-0.051
-715.748	111.536	0.034	0.042
-714.733	43.087	0.042	-0.039
-713.718	800.000	0.029	-0.100
-712.704	100.594	-0.128	0.151
-711.689	-186.258	-0.197	-0.003
-710.675	-139.133	-0.476	0.053
-709.660	-27.693	0.165	-0.098
-708.645	29.310	-0.266	-0.230
-707.631	1.045	0.166	-0.122
-706.616	-34.177	0.204	0.114
-705.602	-52.797	0.258	0.121
-704.587	-69.261	0.377	0.148
-703.572	-200.000	0.047	-0.403
-702.558	800.000	-0.018	-0.061
-701.543	800.000	-0.073	0.238
-700.529	-168.627	-0.195	0.008
-699.514	-80.370	-0.147	0.050
-698.499	-57.504	0.301	0.135
-697.485	-113.776	-0.291	0.058
-696.470	-33.489	-0.177	-0.100
-695.456	-200.000	-0.003	-0.363
-694.441	-168.879	0.228	-0.009
-693.426	-132.356	-0.432	0.057
-692.412	187.094	-0.102	0.155
-691.397	-200.000	-0.008	-0.162
-690.383	64.896	-0.305	-0.314
-689.368	-200.000	0.006	-0.061
-688.354	-126.939	0.273	0.041
-687.339	22.478	0.192	0.160
-686.324	456.662	-0.078	0.178
-685.310	58.400	-0.156	0.156
-684.295	-0.921	-0.207	0.149
-683.281	-128.997	-0.195	0.028
-682.266	300.214	-0.084	0.157
-681.251	704.799	-0.044	-0.118
-680.237	104.390	-0.121	-0.146
-679.222	-79.147	0.281	-0.097
-678.208	126.341	-0.184	0.238
-677.193	49.215	-0.112	-0.107
-676.178	16.546	-0.163	-0.131
-675.164	312.646	-0.152	0.292
-674.149	-84.385	0.244	0.079
-673.135	-140.955	-0.236	0.025
-672.120	-62.716	-0.155	-0.066
-671.105	55.093	0.052	0.051
-670.091	-70.320	-0.068	-0.026
-669.076	5.948	-0.298	0.225
-668.062	800.000	-0.079	-0.339
-667.047	-114.342	0.038	0.007
-666.032	216.822	-0.181	-0.294
-665.018	-96.573	0.111	0.030
-664.003	-123.921	-0.183	0.029
-662.989	-40.719	-0.175	0.092
-661.974	-200.000	0.078	0.442
-660.959	257.222	0.070	0.123
-659.945	-91.272	0.144	-0.042
-658.930	-71.326	-0.247	0.094
-657.916	551.952	-0.074	-0.180
-656.901	51.403	0.229	0.221
-655.886	-200.000	0.003	0.366
-654.872	17.365	-0.045	0.036
-653.857	178.832	-0.167	0.249
-652.843	-93.382	-0.255	-0.072
-651.828	31.964	0.076	0.066
-650.814	-69.324	-0.068	0.026
-649.799	-200.000	0.025	-0.262
-648.784	40.008	-0.323	0.296
-647.770	-200.000	-0.021	-0.320
-646.755	-67.548	-0.249	-0.099
-645.741	263.240	-0.045	0.079
-644.726	635.468	-0.089	-0.230
-643.711	-184.540	0.108	0.002
-642.697	-81.269	-0.166	-0.056
-641.682	155.471	-0.146	-0.205
-640.668	-200.000	-0.043	-0.291
-639.653	433.914	0.065	0.145
-638.638	-92.750	0.303	0.086
-637.624	352.933	0.054	-0.109
-636.609	-3.368	-0.365	0.259
-635.595	800.000	-0.094	0.361
-634.580	27.638	-0.264	-0.226
-633.565	36.577	-0.138	0.124
-632.551	53.894	0.043	0.042
-631.536	229.742	-0.218	0.362
-630.522	95.204	0.099	-0.115
-629.507	-101.305	-0.142	-0.035
-628.492	-200.000	0.093	0.446
-627.478	149.474	-0.137	-0.188
-626.463	19.064	-0.256	0.209
-625.449	61.952	0.284	-0.288
-624.434	-112.855	-0.357	-0.072
-623.419	-200.000	-0.073	-0.334
-622.405	-45.560	-0.206	-0.104
-621.390	-1.882	-0.177	0.127
-620.376	96.155	0.103	0.120
-619.361	-200.000	-0.066	-0.294
-618.346	102.976	0.170	0.202
-617.332	-17.254	-0.264	0.169
-616.317	-173.187	-0.426	0.013
-615.303	659.024	-0.157	-0.411
-614.288	800.000	-0.098	-0.332
-613.273	-78.288	0.168	0.059
-612.259	-37.684	-0.141	-0.077
-611.244	413.065	-0.123	-0.267
-610.230	-109.813	-0.232	0.050
-609.215	-50.826	-0.156	-0.075
-608.201	-200.000	0.003	0.210
-607.186	800.000	-0.084	0.289
-606.171	110.314	-0.122	0.149
-605.157	275.837	0.233	-0.420
-604.142	25.597	-0.241	0.204
-603.128	-101.281	-0.538	-0.134
-602.113	-105.406	0.048	0.011
-601.098	336.427	0.111	0.218
-600.084	-88.481	-0.230	-0.070
-599.069	-115.376	0.139	-0.027
-598.055	-200.000	-0.030	0.142
-597.040	800.000	-0.045	-0.189
-596.025	586.637	-0.097	0.243
-595.011	-172.435	0.198	-0.006
-593.996	-109.872	0.134	-0.029
-592.982	-200.000	0.032	0.194
-591.967	-23.482	0.053	-0.032
-590.952	800.000	-0.119	-0.345
-589.938	55.126	-0.143	-0.140
-588.923	193.558	0.095	0.145
-587.909	18.311	-0.176	-0.143
-586.894	-200.000	0.014	-0.105
-585.879	-75.607	0.325	0.117
-584.865	132.642	0.198	-0.260
-583.850	-85.898	0.292	-0.092
-582.836	-64.352	-0.169	0.070
-581.821	11.268	-0.181	0.140
-580.806	29.726	0.195	-0.168
-579.792	-200.000	0.011	0.096
-578.777	-78.672	0.137	-0.047
-577.763	63.462	-0.113	0.115
-576.748	800.000	0.054	0.188
-575.733	-103.416	-0.267	0.064
-574.719	-101.763	0.313	-0.077
-573.704	-198.936	0.331	0.002
-572.690	-109.356	-0.191	0.041
-571.675	-64.764	-0.189	-0.078
-570.661	-200.000	0.029	0.250
-569.646	38.161	-0.178	0.161
-568.631	112.910	0.050	0.061
-567.617	613.976	-0.022	0.057
-566.602	394.717	-0.035	0.074
-565.588	34.216	-0.121	0.107
-564.573	225.916	-0.140	0.230
-563.558	314.541	0.152	0.291
-562.544	-93.940	0.169	0.047
-561.529	-12.988	0.216	-0.142
-560.515	800.000	0.040	-0.129
-559.500	-104.777	0.110	-0.026
-558.485	43.804	0.335	-0.312
-557.471	-200.000	0.023	-0.288
-556.456	-61.936	-0.237	-0.101
-555.442	230.285	0.100	-0.166
-554.427	-77.556	-0.170	0.060
-553.412	-137.356	0.537	0.062
-552.398	-106.831	0.035	0.008
-551.383	-110.367	0.168	0.035
-550.369	690.492	0.123	-0.326
-549.354	-182.415	0.011	0.000
-548.339	-61.673	-0.111	0.047
-547.325	165.362	0.141	0.203
-546.310	172.503	0.285	-0.417
-545.296	115.688	0.121	0.150
-544.281	174.055	0.128	0.188
-543.266	-120.070	0.275	0.048
-542.252	800.000	-0.055	-0.194
-541.237	-165.346	0.291	0.013
-540.223	577.576	0.113	-0.281
-539.208	-6.961	-0.146	0.100
-538.193	782.467	-0.057	-0.158
-537.179	-30.986	-0.277	-0.159
-536.164	694.105	-0.058	0.155
-535.150	157.550	-0.023	-0.032
-534.135	800.000	0.128	-0.376
-533.121	47.377	0.164	0.155
-532.106	-96.115	-0.113	-0.030
-531.091	-67.752	-0.257	-0.102
-530.077	-200.000	-0.034	0.267
-529.062	-58.976	0.295	0.129
-528.048	164.937	-0.187	0.267
-527.033	-90.804	-0.386	0.113
-526.018	800.000	-0.081	0.258
-525.004	35.675	0.283	0.252
-523.989	296.682	0.069	-0.129
-522.975	-54.908	-0.357	-0.163
-521.960	139.027	0.112	0.149
-520.945	12.118	-0.201	-0.157
-519.931	91.533	0.168	-0.191
-518.916	-200.000	0.043	0.000
-517.902	96.224	0.062	-0.072
-516.887	-99.423	0.209	0.053
-515.872	-178.797	-0.084	-0.002
-514.858	117.896	-0.040	0.049
-513.843	-200.000	0.003	0.114
-512.829	64.860	0.238	0.243
-511.814	-200.000	0.024	0.174
-510.799	-134.585	0.380	-0.047
-509.785	-99.605	0.142	0.036
-508.770	-148.531	-0.098	0.008
-507.756	-39.648	-0.081	0.043
-506.741	-200.000	0.000	0.199
-505.726	-88.737	-0.348	0.105
-504.712	-7.688	0.256	0.175
-503.697	435.475	0.097	0.215
-502.683	-135.451	-0.219	0.026
-501.668	592.523	-0.028	-0.070
-500.653	306.361	-0.089	-0.168
-499.639	-122.114	0.310	-0.051
-498.624	13.866	-0.272	0.214
-497.610	-58.650	0.142	-0.062
-496.595	-200.000	0.089	0.531
-495.581	-180.449	0.141	0.003
-494.566	800.000	0.086	-0.315
-493.551	641.552	-0.078	0.200
-492.537	743.007	-0.114	0.311
-491.522	156.303	-0.162	0.226
-490.508	149.682	0.184	-0.253
-489.493	119.496	0.159	-0.199
-488.478	800.000	-0.063	-0.258
-487.464	-130.794	-0.211	0.029
-486.449	-200.000	0.029	0.211
-485.435	163.104	0.128	-0.182
-484.420	-64.102	-0.041	-0.017
-483.405	469.219	0.138	-0.314
-482.391	-200.000	0.016	-0.199
-481.376	800.000	0.055	-0.232
-480.362	-158.390	-0.130	-0.008
-479.347	800.000	0.143	0.466
-478.332	-126.282	0.200	-0.030
-477.318	202.308	0.044	-0.069
-476.303	-75.615	-0.294	-0.106
-475.289	185.222	-0.165	0.248
-474.274	44.320	0.170	0.158
-473.259	-83.612	0.062	0.020
-472.245	368.075	0.082	-0.168
-471.230	117.399	-0.219	-0.273
-470.216	-200.000	-0.005	-0.295
-469.201	-103.397	-0.242	-0.058
-468.186	-117.445	0.104	0.019
-467.172	-200.000	0.005	-0.099
-466.157	-134.259	0.201	-0.025
-465.143	-47.876	0.208	0.102
-464.128	800.000	0.080	-0.227
-463.113	-71.670	0.318	-0.120
-462.099	-49.401	0.050	0.024
-461.084	-200.000	0.023	-0.120
-460.070	-200.000	-0.000	-0.136
-459.055	-23.492	-0.101	-0.061
-458.040	191.907	0.164	0.249
-457.026	160.264	-0.255	-0.359
-456.011	-74.080	-0.122	0.045
-454.997	93.522	0.155	-0.177
-453.982	-47.303	0.037	0.018
-452.968	-200.000	0.018	-0.191
-451.953	-155.537	0.354	0.023
-450.938	-78.520	0.121	0.042
-449.924	800.000	-0.063	0.180
-448.909	402.110	0.078	0.166
-447.895	-200.000	0.003	0.077
-446.880	192.364	0.077	0.117
-445.865	8.831	-0.230	0.175
-444.851	800.000	0.068	0.278
-443.836	-86.238	-0.208	-0.065
-442.822	13.988	-0.117	0.092
-441.807	-200.000	0.034	-0.376
-440.792	460.307	-0.098	0.220
-439.778	447.102	-0.061	0.135
-438.763	-125.189	-0.215	0.033
-437.749	-120.438	-0.042	-0.007
-436.734	-22.637	0.052	0.032
-435.719	599.550	0.137	0.342
-434.705	783.633	0.115	0.319
-433.690	-37.298	0.047	0.025
-432.676	-130.724	-0.075	0.010
-431.661	64.771	-0.065	0.066
-430.646	199.545	-0.072	0.112
-429.632	-17.326	-0.137	-0.087
-428.617	641.333	-0.073	-0.187
-427.603	800.000	0.107	-0.354
-426.588	1.394	-0.122	0.088
-425.573	184.293	0.035	0.053
-424.559	-103.277	0.251	-0.060
-423.544	343.835	-0.130	-0.256
-422.530	-137.709	-0.423	-0.048
-421.515	-124.282	-0.224	0.035
-420.500	800.000	-0.081	-0.248
-419.486	10.002	0.283	-0.217
-418.471	395.792	-0.110	0.232
-417.457	462.163	0.045	-0.101
-416.442	-200.000	-0.057	0.288
-415.428	368.717	0.043	0.089
-414.413	186.815	-0.202	0.304
-413.398	-108.286	0.138	0.030
-412.384	-48.456	0.143	-0.069
-411.369	-200.000	-0.010	0.060
-410.355	286.855	-0.191	0.348
-409.340	800.000	0.013	0.052
-408.325	-87.638	0.173	0.053
-407.311	218.458	-0.131	-0.210
-406.296	-109.875	0.209	0.044
-405.282	-200.000	0.008	-0.367
-404.267	-129.249	-0.256	-0.036
-403.252	-200.000	0.028	0.182
-402.238	60.950	0.114	0.114
-401.223	-200.000	0.007	0.307
-400.209	444.583	0.047	0.103
-399.194	20.597	-0.200	-0.163
-398.179	29.974	0.149	-0.128
-397.165	800.000	-0.024	-0.099
-396.150	-116.388	-0.193	0.036
-395.136	-200.000	-0.023	-0.122
-394.121	-200.000	0.037	0.333
-393.106	800.000	-0.026	0.102
-392.092	800.000	0.058	0.225
-391.077	-44.317	-0.052	0.026
-390.063	220.263	0.106	0.172
-389.048	-46.196	0.480	0.238
-388.033	155.626	0.063	0.087
-387.019	148.887	0.105	0.143
-386.004	800.000	-0.099	0.278
-384.990	-22.626	-0.124	-0.076
-383.975	-57.004	0.298	-0.132
-382.960	91.860	0.141	0.159
-381.946	-61.604	-0.130	0.055
-380.931	183.631	0.209	-0.311
-379.917	5.229	0.193	0.144
-378.902	800.000	0.047	-0.198
-377.888	-90.374	0.258	-0.076
-376.873	-161.637	0.261	-0.013
-375.858	-200.000	0.007	-0.087
-374.844	-106.755	-0.372	0.083
-373.829	-131.376	-0.102	-0.014
-372.815	-200.000	-0.027	0.165
-371.800	333.760	0.090	0.175
-370.785	297.596	-0.105	0.194
-369.771	133.985	-0.035	-0.046
-368.756	29.830	0.213	-0.183
-367.742	-67.896	0.342	-0.134
-366.727	122.065	0.082	0.104
-365.712	214.373	0.142	0.226
-364.698	-120.584	-0.196	-0.033
-363.683	-200.000	0.061	0.303
-362.669	-22.266	0.305	0.186
-361.654	-141.461	-0.186	-0.019
-360.639	-200.000	0.036	0.337
-359.625	334.684	-0.159	-0.309
-358.610	-80.246	-0.258	0.087
-357.596	-61.812	-0.374	0.157
-356.581	165.261	0.195	0.277
-355.566	-200.000	0.076	-0.349
-354.552	122.259	0.121	-0.152
-353.537	-81.070	-0.370	0.123
-352.523	37.208	0.111	0.099
-351.508	-94.678	0.282	0.077
-350.493	335.525	0.134	-0.261
-349.479	-23.795	0.332	0.200
-348.464	-8.202	-0.120	-0.081
-347.450	800.000	0.063	-0.243
-346.435	17.680	-0.093	-0.074
-345.420	-44.104	0.382	0.193
-344.406	-200.000	-0.028	-0.128
-343.391	125.885	-0.151	0.192
-342.377	9.351	-0.144	-0.110
-341.362	-140.449	-0.404	0.042
-340.348	91.198	0.046	-0.052
-339.333	39.040	-0.105	-0.095
-338.318	-191.341	0.151	0.002
-337.304	685.115	-0.103	-0.270
-336.289	-150.926	0.413	-0.031
-335.275	428.952	0.184	0.399
-334.260	155.996	-0.103	0.142
-333.245	-92.030	-0.166	0.047
-332.231	274.626	-0.196	-0.348
-331.216	89.124	0.020	-0.023
-330.202	-200.000	0.024	0.366
-329.187	-200.000	0.034	0.281
-328.172	-200.000	-0.025	0.116
-327.158	117.993	0.107	0.132
-326.143	-5.810	0.117	-0.080
-325.129	800.000	-0.018	-0.058
-324.114	800.000	-0.078	0.296
-323.099	21.746	-0.285	-0.233
-322.085	338.797	-0.073	-0.143
-321.070	-183.225	0.285	-0.005
-320.056	30.213	0.185	0.159
-319.041	-200.000	-0.064	0.331
-318.026	-167.721	-0.102	0.004
-317.012	57.736	0.161	0.159
-315.997	-92.586	-0.148	0.042
-314.983	800.000	-0.062	0.193
-313.968	2.416	0.070	0.051
-312.953	-111.098	0.239	0.049
-311.939	77.525	0.205	-0.219
-310.924	156.798	0.155	0.215
-309.910	800.000	-0.022	-0.073
-308.895	65.629	-0.192	-0.195
-307.880	644.289	0.064	-0.164
-306.866	-200.000	-0.010	0.084
-305.851	-200.000	-0.002	-0.306
-304.837	-200.000	-0.047	0.280
-303.822	-200.000	0.038	-0.326
-302.807	439.366	0.084	-0.183
-301.793	68.875	0.315	-0.325
-300.778	251.416	0.122	-0.208
-299.764	-11.471	-0.054	-0.036
-298.749	93.887	0.093	-0.105
-297.735	-200.000	-0.005	0.066
-296.720	213.151	0.061	-0.097
-295.705	570.779	0.179	-0.438
-294.691	-200.000	0.040	-0.191
-293.676	-69.127	-0.183	0.071
-292.662	-104.815	-0.304	0.070
-291.647	147.756	-0.144	-0.195
-290.632	-200.000	-0.003	0.153
-289.618	463.277	-0.017	-0.039
-288.603	45.582	-0.109	0.101
-287.589	84.186	-0.107	0.118
-286.574	-125.101	0.158	-0.024
-285.559	-3.519	0.266	0.186
-284.545	61.014	0.257	-0.256
-283.530	162.417	0.192	-0.270
-282.516	-124.655	-0.331	-0.051
-281.501	48.270	0.337	-0.316
-280.486	402.276	-0.154	-0.325
-279.472	-124.445	0.096	-0.015
-278.457	-139.988	0.486	0.051
-277.443	38.123	0.138	0.123
-276.428	-200.000	0.031	0.162
-275.413	-200.000	0.003	-0.132
-274.399	-200.000	0.008	-0.150
-273.384	552.013	0.120	0.290
-272.370	-200.000	-0.003	0.069
-271.355	-118.528	-0.741	-0.132
-270.340	-76.515	-0.134	-0.047
-269.326	-0.980	-0.166	0.118
-268.311	137.682	-0.168	0.221
-267.297	367.635	-0.132	-0.268
-266.282	800.000	-0.074	0.261
-265.267	800.000	-0.090	-0.252
-264.253	-200.000	-0.021	-0.188
-263.238	-118.853	-0.143	-0.025
-262.224	-200.000	0.001	-0.559
-261.209	-53.908	0.094	-0.043
-260.195	666.435	0.106	-0.274
-259.180	-165.251	-0.150	-0.007
-258.165	800.000	-0.039	0.131
-257.151	144.889	0.111	0.149
-256.136	290.945	-0.140	-0.256
-255.122	-69.973	0.362	-0.138
-254.107	-200.000	0.014	0.308
-253.092	-78.696	-0.366	-0.125
-252.078	682.933	0.032	0.083
-251.063	145.148	-0.046	0.061
-250.049	178.882	0.102	-0.150
-249.034	-60.864	0.219	-0.093
-248.019	117.452	0.067	0.083
-247.005	-168.307	0.409	0.016
-245.990	514.350	-0.129	-0.301
-244.976	69.859	-0.249	0.257
-243.961	-200.000	0.027	-0.130
-242.946	-200.000	0.004	-0.472
-241.932	346.988	0.152	-0.300
-240.917	-48.397	-0.122	0.059
-239.903	-126.696	-0.187	-0.028
-238.888	-200.000	-0.010	-0.155
-237.873	-0.676	-0.060	0.043
-236.859	409.452	0.108	-0.230
-235.844	226.115	-0.178	0.289
-234.830	24.772	-0.119	-0.099
-233.815	800.000	-0.076	0.228
-232.800	34.806	-0.201	-0.176
-231.786	-200.000	0.005	-0.219
-230.771	-8.749	-0.013	-0.009
-229.757	29.580	0.098	0.083
-228.742	800.000	-0.125	0.364
-227.727	-56.134	0.266	-0.118
-226.713	-27.491	-0.263	0.153
-225.698	47.266	0.120	0.112
-224.684	800.000	0.072	-0.280
-223.669	800.000	-0.018	0.054
-222.655	-114.442	0.200	0.038
-221.640	-120.713	-0.190	0.032
-220.625	-162.185	0.153	-0.008
-219.611	536.036	-0.062	0.148
-218.596	72.247	-0.143	0.149
-217.582	-114.931	-0.209	-0.040
-216.567	-200.000	0.020	-0.176
-215.552	-61.324	-0.462	-0.195
-214.538	-110.648	-0.213	-0.044
-213.523	142.471	0.085	-0.114
-212.509	-200.000	0.025	0.129
-211.494	234.340	-0.037	0.061
-210.479	-134.690	0.091	-0.011
-209.465	-52.434	0.432	-0.200
-208.450	-97.192	-0.158	0.041
-207.436	-99.839	-0.195	0.049
-206.421	800.000	0.018	0.070
-205.406	-200.000	0.014	0.273
-204.392	-77.397	-0.075	-0.026
-203.377	-128.454	0.232	-0.033
-202.363	434.397	-0.021	0.046
-201.348	-76.821	-0.138	0.048
-200.333	-162.504	0.388	0.019
-199.319	-132.597	-0.392	0.050
-198.304	-88.162	0.240	0.072
-197.290	-67.500	-0.312	-0.122
-196.275	243.551	0.210	-0.352
-195.260	142.049	-0.212	-0.281
-194.246	458.925	0.106	0.236
-193.231	-27.480	0.226	0.132
-192.217	-200.000	0.068	-0.323
-191.202	-73.489	-0.192	0.070
-190.187	-200.000	0.035	0.402
-189.173	-200.000	0.026	0.126
-188.158	12.173	-0.149	0.114
-187.144	-128.227	-0.071	0.010
-186.129	-192.337	-0.104	-0.001
-185.114	-1.148	0.127	-0.090
-184.100	-25.587	0.077	0.046
-183.085	-193.688	0.210	-0.002
-182.071	245.685	-0.161	-0.270
-181.056	-200.000	-0.007	-0.222
-180.042	-124.746	0.281	0.043
-179.027	-200.000	0.068	0.601
-178.012	-147.359	-0.036	-0.003
-176.998	-18.562	-0.134	0.084
-175.983	-22.199	-0.197	-0.119
-174.969	258.220	-0.181	-0.311
-173.954	-63.551	-0.196	0.080
-172.939	162.077	-0.196	-0.274
-171.925	-33.799	-0.562	0.310
-170.910	-108.604	0.178	-0.038
-169.896	-57.075	0.099	0.043
-168.881	135.580	0.119	0.154
-167.866	102.157	0.115	-0.135
-166.852	-141.174	0.355	-0.036
-165.837	-113.367	0.083	0.016
-164.823	262.125	-0.114	-0.198
-163.808	472.184	0.190	0.427
-162.793	32.004	-0.055	0.047
-161.779	259.291	0.130	0.224
-160.764	772.033	0.118	0.321
-159.750	-182.221	0.140	-0.003
-158.735	-30.132	0.223	-0.127
-157.720	-200.000	0.036	-0.365
-156.706	-55.500	0.240	0.108
-155.691	143.282	-0.163	-0.217
-154.677	-124.069	-0.202	0.032
-153.662	-15.348	-0.303	0.194
-152.647	800.000	0.050	-0.213
-151.633	-200.000	-0.047	0.215
-150.618	-133.761	-0.044	-0.005
-149.604	117.500	-0.144	0.177
-148.589	-103.044	-0.076	-0.018
-147.574	-200.000	-0.056	-0.257
-146.560	146.366	0.075	-0.100
-145.545	127.352	0.156	0.198
-144.531	-200.000	0.019	0.298
-143.516	117.999	-0.051	-0.063
-142.502	-52.155	0.009	-0.004
-141.487	-200.000	-0.002	-0.036
-140.472	-200.000	0.011	-0.087
-139.458	367.022	-0.156	-0.315
-138.443	-80.921	-0.048	-0.016
-137.429	-200.000	0.006	-0.119
-136.414	800.000	-0.110	0.327
-135.399	-16.911	0.240	-0.151
-134.385	107.292	-0.280	0.332
-133.370	-132.193	0.277	-0.036
-132.356	-200.000	-0.001	0.009
-131.341	-200.000	0.006	0.033
-130.326	423.401	-0.095	0.204
-129.312	-106.451	0.218	-0.049
-128.297	-25.434	0.270	0.159
-127.283	-59.341	0.468	0.201
-126.268	732.081	0.081	-0.216
-125.253	-200.000	0.050	0.372
-124.239	593.511	0.090	0.222
-123.224	40.194	0.192	0.172
-122.210	198.747	-0.165	-0.252
-121.195	-38.046	-0.088	-0.047
