DTS Sentinel unit serial number:	SN413079Multiplexer serial number:	ORYXHardware model number:	OX4-SRSoftware version number:	ORYX F/W v4.00 Oryx Data Collector v3.7.2.0data status	okinstallation	princeton_trtdifferential loss correction	single-endedforward channel	channel 1reverse channel	N/Adate	2019/09/18time	18:46:35forward acquisition time	60.00reverse acquisition time	0.00gamma	496.2192k internal	0.2302k external	0.2302temperature offset calibration	1.0018default loss term (dB/km)	0.3790temperature slope calibration	1.0000multiplexer offset coefficient	1.0000multiplexer slope coefficient	1.0000fibre end	0.00T internal ref (°C)	37.37T ext. ref 1 (°C)	0.94T ext. ref 2 (°C)	27.64length (m)	temperature (°C)	Stokes	anti-Stokes-747.200	35.894	0.091	0.081
-746.185	286.805	0.040	0.073
-745.171	-62.331	0.146	0.062
-744.156	800.000	-0.077	0.218
-743.142	2.920	0.104	0.077
-742.127	-200.000	-0.020	0.318
-741.112	-200.000	-0.012	-0.082
-740.098	-110.356	0.215	0.046
-739.083	-62.764	-0.144	-0.061
-738.069	0.184	-0.248	0.181
-737.054	-200.000	-0.026	-0.182
-736.039	77.833	-0.136	0.148
-735.025	-116.711	0.339	0.063
-734.010	-54.157	-0.342	-0.158
-732.996	800.000	0.098	-0.341
-731.981	381.802	-0.143	-0.300
-730.966	141.379	0.096	0.130
-729.952	-137.486	-0.528	0.061
-728.937	-116.030	-0.125	0.024
-727.923	-165.871	-0.244	0.011
-726.908	366.709	-0.130	-0.266
-725.894	-103.049	0.181	-0.044
-724.879	-24.449	-0.144	-0.088
-723.864	-200.000	0.020	-0.090
-722.850	87.850	0.094	-0.106
-721.835	800.000	0.045	0.173
-720.821	95.393	0.160	-0.186
-719.806	-16.478	-0.010	0.006
-718.791	-200.000	0.007	-0.065
-717.777	-191.435	-0.578	-0.006
-716.762	9.428	0.069	-0.053
-715.748	-200.000	-0.019	0.203
-714.733	38.777	-0.023	0.021
-713.718	-118.930	0.306	-0.055
-712.704	-30.231	0.026	-0.015
-711.689	662.572	0.082	-0.216
-710.675	-187.367	0.291	0.004
-709.660	-200.000	-0.017	-0.129
-708.645	-0.585	0.200	-0.145
-707.631	-168.668	-0.269	-0.010
-706.616	-200.000	0.048	0.302
-705.602	-20.654	-0.412	0.257
-704.587	752.871	-0.106	0.291
-703.572	73.496	0.156	0.166
-702.558	-75.670	0.163	0.059
-701.543	-13.029	-0.100	-0.066
-700.529	-114.758	-0.313	-0.061
-699.514	-17.059	0.104	0.067
-698.499	-200.000	-0.008	0.069
-697.485	-200.000	0.031	0.179
-696.470	-200.000	-0.016	0.258
-695.456	62.207	-0.154	0.157
-694.441	-92.648	-0.305	-0.087
-693.426	49.720	0.055	0.052
-692.412	-186.172	0.312	-0.005
-691.397	-17.374	-0.224	0.143
-690.383	-53.410	-0.241	0.112
-689.368	-171.509	-0.330	-0.011
-688.354	23.696	0.118	0.099
-687.339	138.495	0.064	-0.085
-686.324	-64.400	0.332	0.137
-685.310	-133.021	-0.260	0.034
-684.295	-200.000	-0.005	-0.230
-683.281	148.317	0.049	-0.067
-682.266	-200.000	-0.001	0.112
-681.251	-142.279	0.303	0.030
-680.237	150.325	0.050	-0.068
-679.222	7.943	0.091	-0.070
-678.208	-48.240	-0.308	0.151
-677.193	254.091	-0.153	0.266
-676.178	-200.000	0.019	0.248
-675.164	-119.114	-0.370	-0.066
-674.149	-200.000	0.002	0.193
-673.135	-117.154	0.214	0.040
-672.120	64.832	0.162	-0.166
-671.105	39.706	0.138	0.126
-670.091	-36.726	-0.165	-0.090
-669.076	69.725	0.078	-0.081
-668.062	492.172	-0.132	-0.306
-667.047	-200.000	-0.031	0.275
-666.032	-200.000	0.061	0.335
-665.018	-1.873	-0.135	-0.096
-664.003	-130.955	0.265	0.036
-662.989	-182.934	-0.318	0.006
-661.974	-200.000	-0.007	0.309
-660.959	90.592	-0.110	-0.125
-659.945	-200.000	0.018	0.083
-658.930	74.305	-0.176	-0.188
-657.916	147.831	-0.053	0.073
-656.901	-69.135	-0.209	0.082
-655.886	-65.717	-0.103	0.042
-654.872	-200.000	-0.038	-0.311
-653.857	423.702	-0.099	0.217
-652.843	-1.837	-0.305	-0.218
-651.828	99.774	0.149	0.175
-650.814	-61.099	0.022	-0.010
-649.799	28.196	-0.164	0.141
-648.784	-200.000	0.091	-0.529
-647.770	74.607	0.228	-0.243
-646.755	-200.000	0.034	0.257
-645.741	524.643	-0.158	-0.377
-644.726	96.417	0.206	-0.239
-643.711	27.295	0.108	0.092
-642.697	115.955	-0.073	-0.091
-641.682	22.210	0.185	-0.153
-640.668	-99.791	0.033	-0.008
-639.653	-176.248	0.118	-0.003
-638.638	-69.046	-0.192	-0.075
-637.624	-158.651	0.175	0.010
-636.609	800.000	0.093	-0.292
-635.595	-44.334	-0.213	0.108
-634.580	79.547	0.096	-0.105
-633.565	61.779	0.028	-0.028
-632.551	27.059	0.192	0.163
-631.536	-93.679	0.082	-0.023
-630.522	800.000	0.127	-0.384
-629.507	-150.277	0.484	-0.038
-628.492	420.465	-0.098	0.213
-627.478	-67.709	0.294	0.117
-626.463	-55.995	0.113	0.051
-625.449	-200.000	-0.010	0.106
-624.434	-90.335	-0.111	0.033
-623.419	800.000	0.125	-0.366
-622.405	-0.737	-0.106	0.076
-621.390	98.537	0.222	-0.259
-620.376	87.330	-0.211	-0.237
-619.361	-108.649	0.320	-0.070
-618.346	61.149	-0.072	-0.072
-617.332	-105.144	-0.190	0.044
-616.317	36.385	0.100	0.090
-615.303	-189.318	-0.172	0.002
-614.288	-34.216	-0.164	0.091
-613.273	2.853	-0.186	0.137
-612.259	-61.366	-0.201	0.086
-611.244	33.085	0.071	0.063
-610.230	-200.000	-0.038	-0.341
-609.215	-68.023	0.225	-0.089
-608.201	535.191	0.184	-0.443
-607.186	54.190	0.174	-0.170
-606.171	5.404	-0.169	-0.127
-605.157	-97.536	0.124	0.033
-604.142	-200.000	-0.002	-0.072
-603.128	800.000	-0.091	0.280
-602.113	430.578	-0.037	-0.080
-601.098	-61.837	-0.594	-0.252
-600.084	81.772	-0.066	-0.073
-599.069	438.828	-0.079	-0.175
-598.055	800.000	-0.054	-0.182
-597.040	72.589	-0.167	0.177
-596.025	-200.000	0.067	0.432
-595.011	800.000	-0.025	0.104
-593.996	-35.126	0.225	0.124
-592.982	-200.000	0.038	-0.205
-591.967	118.131	0.194	-0.242
-590.952	-47.798	-0.291	0.143
-589.938	-112.118	-0.384	-0.078
-588.923	188.587	-0.159	0.241
-587.909	228.985	0.130	-0.215
-586.894	740.171	-0.029	0.080
-585.879	77.964	-0.179	0.194
-584.865	105.205	0.165	-0.197
-583.850	-97.657	-0.206	-0.054
-582.836	-200.000	-0.003	-0.221
-581.821	-73.757	-0.295	-0.109
-580.806	-20.390	-0.046	0.029
-579.792	-35.589	0.221	-0.121
-578.777	155.170	-0.038	0.053
-577.763	-200.000	0.042	0.305
-576.748	192.646	-0.005	-0.008
-575.733	160.145	0.089	-0.125
-574.719	800.000	-0.085	0.353
-573.704	593.654	-0.069	-0.172
-572.690	-101.713	-0.140	0.034
-571.675	-22.162	0.197	-0.121
-570.661	-36.685	-0.218	0.119
-569.646	-200.000	-0.014	0.091
-568.631	-183.080	0.084	-0.002
-567.617	-17.846	-0.249	-0.158
-566.602	-71.724	0.314	0.119
-565.588	-200.000	0.009	-0.401
-564.573	-34.394	0.210	-0.117
-563.558	183.809	-0.087	-0.130
-562.544	-200.000	-0.050	0.235
-561.529	-144.246	-0.142	-0.013
-560.515	-56.793	-0.231	0.103
-559.500	-114.109	-0.164	-0.032
-558.485	103.300	-0.194	0.230
-557.471	94.589	0.021	0.025
-556.456	800.000	-0.073	-0.320
-555.442	-40.867	0.329	0.172
-554.427	359.902	0.067	-0.136
-553.412	800.000	0.058	0.195
-552.398	499.688	-0.066	-0.153
-551.383	-113.240	0.189	-0.038
-550.369	-200.000	0.021	0.220
-549.354	152.757	-0.101	-0.140
-548.339	-57.572	-0.204	-0.090
-547.325	56.836	0.200	-0.197
-546.310	22.129	-0.074	-0.061
-545.296	-28.614	0.282	-0.164
-544.281	800.000	0.014	-0.051
-543.266	-42.040	0.181	0.094
-542.252	-88.770	-0.096	0.029
-541.237	-200.000	-0.001	-0.217
-540.223	-0.778	-0.208	-0.149
-539.208	-200.000	-0.001	-0.218
-538.193	-157.921	0.176	0.011
-537.179	-19.585	-0.248	0.155
-536.164	-11.564	-0.111	-0.074
-535.150	-200.000	-0.025	-0.218
-534.135	-172.012	0.072	0.002
-533.121	419.735	-0.076	-0.164
-532.106	379.885	0.095	-0.198
-531.091	414.903	-0.200	0.431
-530.077	-118.013	-0.192	0.035
-529.062	-65.513	-0.102	-0.041
-528.048	-78.252	-0.168	0.058
-527.033	-32.146	0.050	0.028
-526.018	-200.000	0.010	0.382
-525.004	800.000	-0.121	0.459
-523.989	-142.544	-0.165	-0.016
-522.975	85.262	0.123	-0.136
-521.960	424.939	0.091	-0.198
-520.945	161.839	-0.149	0.211
-519.931	-48.878	0.163	0.079
-518.916	-200.000	-0.033	-0.372
-517.902	-28.104	-0.085	-0.050
-516.887	50.453	0.067	-0.064
-515.872	-81.307	0.380	0.126
-514.858	126.118	0.244	0.312
-513.843	800.000	0.069	0.253
-512.829	319.897	0.083	0.159
-511.814	-12.447	-0.021	-0.014
-510.799	-200.000	0.037	0.203
-509.785	-65.972	-0.056	-0.023
-508.770	-85.651	-0.177	-0.056
-507.756	-76.277	0.182	-0.065
-506.741	-100.629	0.312	-0.078
-505.726	800.000	-0.048	-0.176
-504.712	-200.000	0.040	-0.195
-503.697	-27.658	0.204	0.120
-502.683	73.016	0.221	0.233
-501.668	75.211	-0.163	-0.173
-500.653	-15.348	0.214	-0.138
-499.639	-200.000	-0.054	0.241
-498.624	-62.054	0.215	0.091
-497.610	-137.452	0.218	0.025
-496.595	357.074	-0.034	0.068
-495.581	-172.010	0.430	0.014
-494.566	-200.000	0.001	-0.140
-493.551	398.106	-0.119	0.252
-492.537	127.067	0.191	0.244
-491.522	-197.895	-0.315	0.002
-490.508	-134.734	0.136	0.017
-489.493	-83.217	-0.126	-0.041
-488.478	800.000	-0.086	-0.352
-487.464	714.026	0.122	-0.326
-486.449	610.110	0.136	0.343
-485.435	-80.929	0.151	0.050
-484.420	800.000	-0.089	0.352
-483.405	-200.000	-0.007	0.049
-482.391	800.000	0.034	-0.147
-481.376	-54.743	0.197	0.090
-480.362	-200.000	-0.012	-0.141
-479.347	-10.029	0.436	0.292
-478.332	71.627	-0.400	0.419
-477.318	-191.533	-0.232	0.002
-476.303	800.000	0.044	0.139
-475.289	800.000	0.043	0.122
-474.274	350.514	-0.078	0.155
-473.259	-137.461	0.330	0.038
-472.245	-171.961	-0.068	0.002
-471.230	-48.128	-0.216	0.105
-470.216	75.710	-0.092	0.098
-469.201	-81.643	-0.281	0.093
-468.186	54.360	-0.095	-0.092
-467.172	-200.000	0.044	-0.201
-466.157	391.390	0.021	-0.044
-465.143	-120.463	0.419	0.072
-464.128	23.715	0.143	-0.118
-463.113	421.432	-0.180	-0.389
-462.099	-51.371	0.205	0.097
-461.084	-69.677	0.186	-0.072
-460.070	115.715	0.288	0.355
-459.055	-125.693	0.434	-0.066
-458.040	-82.756	0.115	-0.038
-457.026	168.394	-0.178	0.255
-456.011	60.924	-0.234	-0.234
-454.997	-76.509	0.370	-0.131
-453.982	262.300	-0.078	-0.136
-452.968	588.353	0.138	0.342
-451.953	-160.441	-0.102	-0.005
-450.938	739.888	-0.161	0.436
-449.924	11.850	-0.252	-0.195
-448.909	-46.723	-0.231	0.114
-447.895	63.639	-0.136	0.137
-446.880	-55.355	0.304	-0.137
-445.865	715.176	-0.067	-0.179
-444.851	39.807	-0.155	-0.140
-443.836	-200.000	-0.026	0.176
-442.822	800.000	-0.023	0.093
-441.807	25.459	0.228	-0.191
-440.792	572.470	0.097	0.237
-439.778	800.000	0.059	-0.194
-438.763	144.771	0.194	-0.261
-437.749	800.000	-0.103	-0.375
-436.734	226.193	-0.139	0.227
-435.719	388.843	0.074	-0.155
-434.705	234.919	-0.153	-0.255
-433.690	-127.945	-0.214	0.031
-432.676	-58.233	-0.125	0.055
-431.661	-200.000	-0.024	-0.240
-430.646	578.120	-0.107	-0.264
-429.632	569.112	0.068	0.167
-428.617	208.145	0.126	0.199
-427.603	-200.000	-0.012	-0.173
-426.588	290.301	0.092	0.168
-425.573	-47.122	-0.127	-0.062
-424.559	-73.658	-0.126	0.046
-423.544	-49.805	0.322	0.154
-422.530	131.516	-0.080	0.104
-421.515	800.000	-0.071	-0.219
-420.500	-200.000	0.014	0.099
-419.486	-70.444	-0.231	0.088
-418.471	22.516	0.015	0.012
-417.457	-138.141	0.189	-0.021
-416.442	336.226	-0.154	-0.301
-415.428	-200.000	0.005	-0.228
-414.413	-122.202	-0.217	-0.036
-413.398	800.000	-0.016	0.052
-412.384	348.567	0.071	0.140
-411.369	-96.046	-0.291	-0.078
-410.355	800.000	-0.106	-0.357
-409.340	40.693	0.166	-0.151
-408.325	-7.722	-0.181	0.123
-407.311	-85.084	0.055	-0.017
-406.296	-200.000	0.023	-0.143
-405.282	800.000	-0.085	0.339
-404.267	447.717	-0.133	-0.293
-403.252	8.046	0.191	-0.144
-402.238	65.305	0.105	-0.107
-401.223	101.137	0.105	-0.123
-400.209	800.000	0.047	-0.159
-399.194	-90.516	-0.035	0.010
-398.179	800.000	0.065	-0.221
-397.165	415.185	-0.090	0.192
-396.150	-140.415	0.158	0.017
-395.136	11.121	0.251	0.193
-394.121	251.817	-0.126	-0.215
-393.106	41.969	0.154	-0.140
-392.092	800.000	0.036	-0.152
-391.077	-100.383	0.145	0.036
-390.063	800.000	0.057	0.242
-389.048	285.414	-0.131	0.238
-388.033	-164.012	-0.357	-0.017
-387.019	-200.000	0.041	-0.235
-386.004	800.000	-0.019	0.081
-384.990	36.214	0.134	0.118
-383.975	800.000	-0.050	0.187
-382.960	260.705	0.190	0.330
-381.946	-56.067	-0.106	-0.047
-380.931	-200.000	-0.009	0.292
-379.917	-69.834	-0.190	0.073
-378.902	800.000	0.084	0.314
-377.888	-200.000	-0.055	0.324
-376.873	10.025	0.159	-0.122
-375.858	-70.694	0.287	0.109
-374.844	247.524	-0.124	0.211
-373.829	48.976	-0.069	-0.065
-372.815	278.046	0.035	0.062
-371.800	-59.910	0.211	0.091
-370.785	-103.228	-0.159	-0.038
-369.771	-200.000	0.005	0.111
-368.756	589.941	0.095	0.236
-367.742	114.048	0.165	0.202
-366.727	-200.000	-0.007	-0.075
-365.712	687.505	-0.111	-0.292
-364.698	123.010	-0.088	0.111
-363.683	-3.923	0.183	-0.127
-362.669	213.345	0.174	0.276
-361.654	40.642	-0.220	0.199
-360.639	-200.000	0.014	-0.161
-359.625	-200.000	0.034	0.223
-358.610	-172.120	-0.316	-0.010
-357.596	498.675	0.103	-0.238
-356.581	-5.189	0.181	-0.125
-355.566	-84.025	0.095	0.030
-354.552	11.347	0.223	-0.172
-353.537	-160.674	0.364	0.019
-352.523	101.524	0.058	-0.067
-351.508	13.472	-0.047	0.036
-350.493	-200.000	-0.006	0.073
-349.479	613.077	-0.093	-0.234
-348.464	-130.006	-0.173	-0.024
-347.450	-200.000	0.006	0.117
-346.435	-24.224	-0.176	0.105
-345.420	-166.439	0.169	0.007
-344.406	74.836	0.237	0.250
-343.391	-123.208	0.307	0.049
-342.377	-81.119	-0.201	0.067
-341.362	800.000	-0.059	-0.222
-340.348	111.717	-0.177	0.215
-339.333	80.183	-0.091	-0.098
-338.318	-200.000	0.071	0.497
-337.304	56.049	-0.339	0.330
-336.289	281.985	-0.151	0.272
-335.275	-39.609	0.367	-0.193
-334.260	800.000	0.094	-0.335
-333.245	-48.391	0.271	-0.131
-332.231	-200.000	-0.394	0.000
-331.216	114.555	-0.367	-0.448
-330.202	-200.000	0.003	-0.127
-329.187	235.033	-0.218	-0.362
-328.172	-86.869	0.090	0.027
-327.158	162.048	-0.094	-0.132
-326.143	-133.854	-0.180	0.022
-325.129	-79.956	0.078	0.026
-324.114	-200.000	0.050	0.538
-323.099	-200.000	-0.001	0.020
-322.085	-143.831	0.329	0.031
-321.070	332.758	-0.118	0.228
-320.056	20.328	0.184	-0.149
-319.041	-159.321	0.413	-0.023
-318.026	-106.581	0.278	0.062
-317.012	385.125	-0.097	0.201
-315.997	-113.086	-0.182	0.036
-314.983	-200.000	0.017	0.259
-313.968	-87.395	0.167	0.051
-312.953	-162.080	-0.235	0.012
-311.939	800.000	-0.107	0.316
-310.924	-200.000	0.043	0.336
-309.910	-126.594	-0.157	0.023
-308.895	507.893	-0.093	-0.216
-307.880	-200.000	-0.083	-0.367
-306.866	-199.354	0.164	0.001
-305.851	-65.363	-0.221	0.089
-304.837	434.852	-0.173	0.377
-303.822	6.705	0.317	0.236
-302.807	-200.000	0.066	-0.389
-301.793	-35.350	-0.357	-0.194
-300.778	115.564	-0.220	0.269
-299.764	631.104	0.133	0.337
-298.749	-45.891	0.240	0.119
-297.735	-21.035	-0.349	0.214
-296.720	-200.000	-0.032	-0.215
-295.705	-200.000	0.027	-0.167
-294.691	-122.925	-0.294	-0.047
-293.676	-200.000	-0.013	-0.184
-292.662	800.000	0.045	0.149
-291.647	-37.455	0.125	-0.067
-290.632	104.624	-0.190	0.225
-289.618	-50.223	0.153	0.072
-288.603	-84.927	0.149	0.047
-287.589	779.368	0.225	0.617
-286.574	-160.216	0.258	-0.014
-285.559	63.453	-0.194	0.195
-284.545	-134.047	-0.505	-0.063
-283.530	-200.000	0.041	-0.225
-282.516	674.249	0.120	0.313
-281.501	-114.843	-0.073	-0.014
-280.486	113.254	0.148	-0.179
-279.472	800.000	0.118	-0.338
-278.457	-143.357	0.025	0.002
-277.443	553.302	-0.086	-0.207
-276.428	-115.055	-0.052	0.010
-275.413	-32.658	0.332	0.185
-274.399	-200.000	0.025	0.124
-273.384	-149.440	-0.209	0.017
-272.370	-200.000	-0.026	-0.134
-271.355	-23.172	-0.241	0.145
-270.340	304.985	-0.100	-0.185
-269.326	241.032	0.136	0.228
-268.311	139.330	-0.167	-0.220
-267.297	-200.000	0.000	-0.023
-266.282	-200.000	0.029	0.251
-265.267	-200.000	-0.036	-0.168
-264.253	-80.192	-0.158	-0.053
-263.238	135.951	-0.108	0.140
-262.224	-69.267	0.216	-0.083
-261.209	-200.000	0.013	0.113
-260.195	153.505	0.270	0.369
-259.180	192.618	-0.078	-0.118
-258.165	800.000	0.037	-0.132
-257.151	-23.899	0.177	0.106
-256.136	800.000	0.037	0.107
-255.122	639.203	-0.055	-0.141
-254.107	235.828	-0.231	-0.382
-253.092	800.000	0.045	-0.193
-252.078	800.000	-0.155	-0.448
-251.063	398.330	-0.123	-0.257
-250.049	318.726	0.189	-0.358
-249.034	-117.015	0.133	0.024
-248.019	75.547	0.029	-0.031
-247.005	800.000	0.123	-0.395
-245.990	-189.547	-0.118	-0.001
-244.976	35.086	0.135	0.118
-243.961	-84.706	0.105	0.033
-242.946	-10.146	0.060	0.040
-241.932	-200.000	-0.049	-0.283
-240.917	190.974	-0.183	0.274
-239.903	-200.000	0.040	0.195
-238.888	-148.609	-0.252	-0.020
-237.873	-200.000	0.003	0.420
-236.859	-200.000	0.001	-0.301
-235.844	-31.356	-0.116	0.065
-234.830	197.294	0.168	0.256
-233.815	-165.783	-0.314	-0.014
-232.800	430.388	-0.156	-0.337
-231.786	-73.599	0.365	-0.133
-230.771	-200.000	0.027	0.450
-229.757	24.513	-0.141	-0.117
-228.742	-131.078	0.155	-0.021
-227.727	-200.000	-0.036	0.305
-226.713	-200.000	-0.023	-0.396
-225.698	-52.840	-0.268	0.123
-224.684	-116.029	-0.215	0.040
-223.669	340.117	-0.096	0.187
-222.655	67.046	-0.149	-0.151
-221.640	-200.000	0.011	0.080
-220.625	251.472	-0.091	0.154
-219.611	-94.401	-0.423	0.115
-218.596	104.703	0.175	0.206
-217.582	82.042	0.054	0.058
-216.567	11.042	0.045	-0.035
-215.552	-85.840	-0.337	0.104
-214.538	-90.719	0.280	0.081
-213.523	-200.000	-0.021	0.260
-212.509	-25.849	-0.192	-0.113
-211.494	-108.063	-0.306	0.066
-210.479	800.000	-0.054	0.186
-209.465	37.475	0.221	0.196
-208.450	124.011	0.078	0.097
-207.436	-200.000	-0.005	-0.234
-206.421	-35.346	0.113	0.061
-205.406	-36.712	0.006	-0.003
-204.392	-27.624	-0.203	-0.118
-203.377	260.581	0.152	0.262
-202.363	-37.693	-0.150	-0.080
-201.348	-200.000	0.043	-0.345
-200.333	66.774	-0.033	0.033
-199.319	-56.570	-0.151	0.067
-198.304	254.564	-0.191	0.327
-197.290	-128.037	0.364	-0.052
-196.275	5.890	0.174	0.128
-195.260	-168.760	0.106	0.004
-194.246	-200.000	0.051	-0.468
-193.231	24.991	0.235	-0.194
-192.217	800.000	0.104	-0.340
-191.202	767.826	0.169	0.458
-190.187	108.881	-0.111	-0.132
-189.173	22.465	-0.287	-0.234
-188.158	-200.000	-0.005	0.090
-187.144	-200.000	0.001	0.402
-186.129	-99.431	0.371	-0.093
-185.114	454.666	0.139	-0.307
-184.100	47.903	0.210	0.196
-183.085	727.776	0.139	-0.369
-182.071	800.000	0.038	0.106
-181.056	80.999	0.172	0.185
-180.042	-200.000	-0.027	0.309
-179.027	-53.331	-0.228	-0.104
-178.012	-117.106	-0.272	0.049
-176.998	-36.614	-0.117	-0.063
-175.983	-200.000	0.014	-0.300
-174.969	138.754	-0.095	-0.124
-173.954	-138.297	0.111	-0.012
-172.939	169.983	0.178	-0.254
-171.925	-41.660	-0.122	-0.062
-170.910	-200.000	0.072	0.415
-169.896	-200.000	0.023	-0.124
-168.881	568.939	-0.068	-0.164
-167.866	-200.000	-0.048	0.235
-166.852	120.600	0.143	0.177
-165.837	353.925	-0.098	0.194
-164.823	-200.000	-0.030	0.218
-163.808	23.281	0.044	0.036
-162.793	-122.239	-0.228	-0.037
-161.779	-52.388	-0.216	0.100
-160.764	-200.000	-0.007	0.155
-159.750	-164.932	-0.077	0.003
-158.735	61.742	-0.206	-0.204
-157.720	-200.000	-0.032	0.295
-156.706	83.259	0.345	-0.374
-155.691	-200.000	-0.070	-0.348
-154.677	-98.435	-0.157	0.040
-153.662	110.348	-0.220	0.264
-152.647	800.000	-0.134	-0.449
-151.633	-200.000	-0.084	-0.423
-150.618	140.385	-0.025	0.032
-149.604	800.000	-0.055	0.169
-148.589	-200.000	-0.025	0.269
-147.574	-200.000	-0.049	0.247
-146.560	193.890	-0.054	0.081
-145.545	-131.855	-0.395	0.051
-144.531	-200.000	0.016	-0.110
-143.516	-103.933	0.215	0.050
-142.502	-76.324	0.318	0.111
-141.487	-43.097	-0.190	0.096
-140.472	721.666	-0.148	0.391
-139.458	41.979	-0.047	0.042
-138.443	-109.691	0.218	-0.046
-137.429	11.996	0.282	0.216
-136.414	-200.000	0.095	0.439
-135.399	-33.901	0.269	-0.147
-134.385	-33.693	0.130	0.071
-133.370	84.879	0.141	-0.154
-132.356	-96.907	0.228	-0.059
-131.341	27.459	-0.229	-0.192
-130.326	48.992	0.145	0.136
-129.312	-91.003	0.259	-0.074
-128.297	800.000	0.039	0.153
-127.283	244.195	-0.082	0.138
-126.268	-149.607	0.278	0.022
-125.253	-200.000	0.000	0.263
-124.239	-91.936	-0.123	-0.035
-123.224	-150.757	0.029	0.002
-122.210	274.678	-0.088	0.154
-121.195	479.497	-0.044	-0.100
