DTS Sentinel unit serial number:	SN413079Multiplexer serial number:	ORYXHardware model number:	OX4-SRSoftware version number:	ORYX F/W v4.00 Oryx Data Collector v3.7.2.0data status	okinstallation	princeton_trtdifferential loss correction	single-endedforward channel	channel 1reverse channel	N/Adate	2019/09/12time	18:35:34forward acquisition time	15.00reverse acquisition time	0.00gamma	496.2192k internal	0.2318k external	0.2318temperature offset calibration	1.0105default loss term (dB/km)	0.3790temperature slope calibration	1.0000multiplexer offset coefficient	1.0000multiplexer slope coefficient	1.0000fibre end	0.00T internal ref (°C)	33.19T ext. ref 1 (°C)	2.94T ext. ref 2 (°C)	27.72length (m)	temperature (°C)	Stokes	anti-Stokes-747.200	800.000	-0.111	0.422
-746.185	59.989	-0.108	-0.108
-745.171	-200.000	0.002	0.358
-744.156	-66.346	-0.678	-0.273
-743.142	54.575	0.115	-0.112
-742.127	138.918	0.196	-0.260
-741.112	-46.161	0.257	0.128
-740.098	-100.454	-0.699	0.175
-739.083	-152.134	-0.365	-0.027
-738.069	-46.402	0.395	-0.196
-737.054	121.646	-0.236	0.298
-736.039	724.419	-0.217	0.584
-735.025	-6.914	0.155	0.106
-734.010	255.966	-0.156	0.271
-732.996	-139.641	0.670	-0.072
-731.981	-42.017	-0.509	-0.263
-730.966	-200.000	-0.037	0.180
-729.952	186.318	-0.292	0.439
-728.937	150.845	-0.454	0.624
-727.923	367.421	-0.176	0.359
-726.908	-86.417	0.225	0.070
-725.894	-138.729	1.094	-0.121
-724.879	-138.759	-0.913	-0.101
-723.864	252.870	0.707	1.219
-722.850	37.571	0.212	0.190
-721.835	-200.000	0.046	0.380
-720.821	800.000	0.059	0.250
-719.806	-137.846	-0.436	0.049
-718.791	52.257	0.234	0.226
-717.777	800.000	-0.331	1.022
-716.762	-200.000	-0.118	-0.594
-715.748	-89.013	-0.901	-0.270
-714.733	-200.000	0.064	0.540
-713.718	800.000	0.084	-0.348
-712.704	588.651	0.222	0.554
-711.689	-50.423	-0.723	-0.345
-710.675	-104.330	-0.558	-0.131
-709.660	59.624	-0.721	-0.719
-708.645	222.078	0.341	0.555
-707.631	-1.911	0.728	0.518
-706.616	16.247	-0.189	-0.151
-705.602	104.448	-0.699	-0.832
-704.587	12.631	0.681	0.532
-703.572	98.062	-0.842	0.979
-702.558	279.137	-0.106	-0.191
-701.543	-137.133	0.703	-0.081
-700.529	712.105	-0.075	-0.202
-699.514	534.885	0.132	0.316
-698.499	-0.665	-0.486	0.348
-697.485	-42.437	0.570	-0.294
-696.470	-4.588	-0.273	-0.191
-695.456	-141.342	-0.304	0.031
-694.441	495.258	-0.110	0.255
-693.426	-200.000	0.088	-0.511
-692.412	-182.381	-0.998	-0.019
-691.397	800.000	0.105	-0.424
-690.383	84.262	-0.496	-0.547
-689.368	-9.057	0.218	0.148
-688.354	-130.428	-0.630	0.086
-687.339	46.053	-0.376	-0.351
-686.324	110.996	0.255	0.309
-685.310	-116.347	-0.218	0.041
-684.295	-162.408	-0.686	0.034
-683.281	25.501	0.253	0.213
-682.266	-30.983	0.335	0.191
-681.251	800.000	0.234	-0.849
-680.237	134.804	-0.573	-0.751
-679.222	800.000	0.112	0.389
-678.208	65.021	0.035	-0.035
-677.193	-113.565	0.705	0.139
-676.178	209.618	0.091	0.144
-675.164	-2.562	0.523	0.370
-674.149	-200.000	0.022	-0.434
-673.135	213.993	-0.078	0.125
-672.120	-200.000	0.050	-0.461
-671.105	-164.992	-0.765	-0.034
-670.091	-78.790	-0.851	-0.293
-669.076	-200.000	0.024	-0.168
-668.062	680.995	0.168	0.442
-667.047	-35.334	-0.107	0.059
-666.032	221.555	0.451	-0.731
-665.018	-13.788	0.348	-0.227
-664.003	-200.000	0.008	-0.684
-662.989	211.003	0.328	-0.520
-661.974	-133.562	-0.534	-0.067
-660.959	43.748	-0.493	0.455
-659.945	-200.000	0.016	-0.985
-658.930	-76.897	-0.391	-0.138
-657.916	63.143	0.106	-0.107
-656.901	-180.025	0.325	-0.007
-655.886	115.761	0.561	0.692
-654.872	-200.000	-0.172	-1.016
-653.857	-75.567	0.515	-0.185
-652.843	-200.000	-0.091	-0.752
-651.828	-23.460	0.497	-0.301
-650.814	800.000	0.297	-1.064
-649.799	-69.405	0.461	-0.178
-648.784	32.700	0.314	0.274
-647.770	-200.000	0.016	-0.859
-646.755	69.655	-0.305	-0.317
-645.741	95.749	0.478	-0.551
-644.726	800.000	-0.073	-0.233
-643.711	32.031	-0.616	0.535
-642.697	183.575	-0.220	0.327
-641.682	-42.878	-0.471	-0.241
-640.668	-42.274	0.877	-0.451
-639.653	-163.680	-0.563	0.027
-638.638	-67.700	0.339	0.134
-637.624	-159.997	-0.767	0.042
-636.609	-115.966	-1.002	-0.188
-635.595	-200.000	0.123	1.348
-634.580	-156.255	-0.282	-0.018
-633.565	579.440	-0.237	0.586
-632.551	-200.000	-0.006	-0.752
-631.536	800.000	0.444	-1.348
-630.522	38.698	-0.351	-0.315
-629.507	174.022	-0.341	-0.497
-628.492	-200.000	-0.112	-0.546
-627.478	243.626	0.319	-0.539
-626.463	800.000	-0.120	0.487
-625.449	-103.534	-0.584	0.138
-624.434	45.140	0.596	0.554
-623.419	-80.946	0.493	0.165
-622.405	28.682	0.401	-0.342
-621.390	-128.202	0.113	-0.016
-620.376	460.621	0.186	-0.418
-619.361	63.951	0.399	0.404
-618.346	-200.000	-0.053	-0.337
-617.332	215.646	0.215	0.344
-616.317	-25.937	-0.746	-0.443
-615.303	-45.670	-0.515	-0.257
-614.288	800.000	0.287	-0.891
-613.273	16.236	0.698	-0.555
-612.259	36.418	0.094	0.084
-611.244	-44.164	-0.500	-0.253
-610.230	-135.119	0.632	-0.077
-609.215	-9.343	0.372	0.250
-608.201	-200.000	-0.204	-1.197
-607.186	-200.000	-0.004	-0.188
-606.171	660.530	-0.354	0.919
-605.157	409.815	-0.397	-0.846
-604.142	-200.000	0.006	0.982
-603.128	-200.000	-0.063	0.298
-602.113	-59.290	-0.742	-0.322
-601.098	794.996	-0.014	0.038
-600.084	100.881	-0.261	0.305
-599.069	800.000	0.192	0.785
-598.055	102.988	0.406	-0.479
-597.040	388.761	-0.246	-0.513
-596.025	537.877	0.312	-0.745
-595.011	-79.624	0.302	0.103
-593.996	800.000	-0.220	-0.698
-592.982	217.067	0.496	-0.795
-591.967	-200.000	0.036	0.442
-590.952	-53.120	0.739	-0.341
-589.938	163.963	-0.189	0.268
-588.923	800.000	-0.213	0.723
-587.909	-200.000	-0.097	-0.550
-586.894	289.985	0.264	-0.482
-585.879	556.480	0.192	-0.466
-584.865	800.000	-0.172	-0.630
-583.850	800.000	-0.198	-0.670
-582.836	-200.000	-0.001	0.403
-581.821	-67.230	-0.266	0.105
-580.806	-132.300	-1.512	-0.197
-579.792	-200.000	0.146	0.693
-578.777	74.499	0.198	0.210
-577.763	683.796	-0.229	0.600
-576.748	-99.614	0.252	-0.064
-575.733	-200.000	0.054	-0.493
-574.719	-179.269	0.439	-0.010
-573.704	800.000	0.027	0.077
-572.690	-200.000	0.066	0.345
-571.675	482.342	-0.024	0.056
-570.661	-200.000	-0.130	0.730
-569.646	-200.000	0.027	-0.197
-568.631	-118.099	0.679	-0.122
-567.617	-4.504	0.567	-0.394
-566.602	-46.538	-0.712	-0.351
-565.588	575.837	-0.361	0.886
-564.573	-77.814	-0.203	-0.070
-563.558	162.123	-0.419	0.590
-562.544	-74.501	0.323	-0.117
-561.529	800.000	-0.153	-0.636
-560.515	48.793	0.726	0.684
-559.500	800.000	0.031	-0.115
-558.485	-169.108	-1.001	0.037
-557.471	-15.837	-0.412	0.264
-556.456	-74.021	0.417	0.152
-555.442	-79.790	1.418	0.480
-554.427	577.077	0.064	0.156
-553.412	-158.475	-0.567	0.033
-552.398	-200.000	0.077	-0.386
-551.383	27.826	-0.149	-0.126
-550.369	-142.643	0.487	0.048
-549.354	800.000	-0.147	-0.542
-548.339	105.515	-0.228	-0.270
-547.325	-0.227	0.340	-0.243
-546.310	490.489	-0.496	1.139
-545.296	68.926	0.230	-0.238
-544.281	-84.766	-0.428	-0.135
-543.266	-88.002	0.495	-0.149
-542.252	732.510	-0.166	-0.447
-541.237	800.000	0.182	-0.642
-540.223	-200.000	0.087	0.491
-539.208	-17.786	0.569	0.359
-538.193	-99.457	-0.232	0.059
-537.179	107.419	0.216	0.258
-536.164	-200.000	-0.072	-0.661
-535.150	-74.898	0.466	0.168
-534.135	-38.673	0.144	0.076
-533.121	-104.211	-0.637	0.149
-532.106	-200.000	0.056	0.333
-531.091	-200.000	0.036	-0.816
-530.077	-101.048	0.628	-0.154
-529.062	-73.145	0.193	-0.071
-528.048	-70.792	0.671	0.254
-527.033	592.820	0.379	-0.941
-526.018	-200.000	-0.054	-0.443
-525.004	-200.000	-0.229	-1.086
-523.989	-200.000	-0.103	1.021
-522.975	-104.280	-0.969	0.226
-521.960	-96.085	0.237	0.063
-520.945	92.074	0.105	0.119
-519.931	800.000	0.198	-0.648
-518.916	59.278	-0.150	-0.148
-517.902	-14.633	0.605	-0.390
-516.887	-149.444	-1.379	0.110
-515.872	80.981	-0.108	0.117
-514.858	297.502	0.198	0.364
-513.843	8.482	-0.274	-0.207
-512.829	-52.663	-0.224	0.104
-511.814	206.402	-0.485	-0.758
-510.799	-200.000	-0.129	-1.111
-509.785	-4.284	0.940	-0.652
-508.770	-88.929	-0.315	-0.094
-507.756	-22.115	-1.190	-0.725
-506.741	6.656	-0.093	-0.069
-505.726	49.217	-0.398	-0.375
-504.712	155.546	-0.438	0.605
-503.697	-125.229	0.071	0.011
-502.683	-200.000	0.070	0.563
-501.668	-75.965	0.218	-0.077
-500.653	778.057	0.180	0.493
-499.639	197.040	0.375	0.574
-498.624	-4.589	0.543	0.376
-497.610	-200.000	0.040	-0.387
-496.595	244.957	-0.651	1.097
-495.581	800.000	-0.063	0.246
-494.566	-81.813	0.404	-0.133
-493.551	-13.581	-0.728	-0.473
-492.537	-200.000	0.036	-0.279
-491.522	314.362	0.121	0.229
-490.508	-55.983	-0.454	0.203
-489.493	249.742	0.095	0.161
-488.478	-200.000	-0.104	0.619
-487.464	-200.000	-0.062	-0.339
-486.449	87.196	-0.343	-0.380
-485.435	351.067	-0.293	-0.582
-484.420	-200.000	-0.006	0.418
-483.405	-38.210	-0.805	-0.428
-482.391	450.335	-0.097	0.215
-481.376	-91.756	1.143	0.325
-480.362	348.599	0.358	0.707
-479.347	64.351	-0.024	0.024
-478.332	-69.514	0.487	-0.187
-477.318	-200.000	0.011	0.242
-476.303	-71.723	0.351	0.131
-475.289	346.487	0.344	0.678
-474.274	25.594	-0.975	0.813
-473.259	2.102	-0.186	0.135
-472.245	-200.000	0.158	-0.759
-471.230	-182.301	-0.251	0.005
-470.216	-200.000	0.030	0.191
-469.201	51.575	0.109	0.103
-468.186	-23.631	-0.360	-0.216
-467.172	17.899	0.192	0.153
-466.157	800.000	-0.289	0.874
-465.143	-120.292	0.870	0.149
-464.128	204.270	0.349	0.541
-463.113	33.132	0.478	0.415
-462.099	800.000	0.224	-0.801
-461.084	638.669	0.074	0.188
-460.070	26.870	0.431	-0.362
-459.055	228.978	0.281	-0.459
-458.040	-44.234	-0.287	0.144
-457.026	-98.166	0.580	-0.149
-456.011	290.369	0.063	-0.114
-454.997	-36.083	-0.089	0.048
-453.982	-160.239	-0.972	-0.053
-452.968	63.865	0.645	0.649
-451.953	-200.000	-0.123	-0.560
-450.938	-59.552	-0.169	0.073
-449.924	-43.989	0.936	0.471
-448.909	-45.320	-0.574	-0.285
-447.895	-200.000	-0.012	0.830
-446.880	800.000	-0.071	0.232
-445.865	800.000	0.065	-0.242
-444.851	4.987	-0.459	0.338
-443.836	2.124	0.323	-0.233
-442.822	248.757	-0.328	0.555
-441.807	-200.000	-0.030	0.493
-440.792	-3.347	-0.128	-0.089
-439.778	-61.099	-0.384	-0.162
-438.763	-4.787	0.961	-0.663
-437.749	-86.257	0.512	0.158
-436.734	-42.743	0.672	0.342
-435.719	-32.745	-0.646	0.359
-434.705	62.618	0.729	0.729
-433.690	-200.000	-0.112	0.933
-432.676	243.182	0.182	-0.305
-431.661	-183.030	-0.396	0.007
-430.646	-200.000	0.082	-0.532
-429.632	-69.814	-0.525	-0.200
-428.617	-200.000	-0.064	-0.698
-427.603	172.638	0.153	0.220
-426.588	-31.233	-0.289	0.163
-425.573	344.807	-0.294	-0.576
-424.559	32.164	0.228	0.197
-423.544	-200.000	-0.247	1.178
-422.530	95.917	0.571	0.652
-421.515	-98.394	0.171	0.044
-420.500	-36.446	-0.158	-0.085
-419.486	543.384	-0.328	-0.782
-418.471	60.688	-0.201	0.199
-417.457	800.000	0.052	0.167
-416.442	-105.774	0.338	0.076
-415.428	-200.000	0.096	0.522
-414.413	90.335	-0.321	-0.359
-413.398	141.463	-0.256	-0.338
-412.384	43.671	-0.302	-0.277
-411.369	800.000	0.305	-0.926
-410.355	-91.497	0.137	-0.039
-409.340	-42.380	-0.725	-0.370
-408.325	800.000	-0.280	0.954
-407.311	-183.590	0.900	0.015
-406.296	800.000	-0.235	0.724
-405.282	-78.449	0.028	0.010
-404.267	-33.931	-0.116	0.064
-403.252	-41.625	0.480	-0.246
-402.238	8.456	0.205	-0.154
-401.223	269.623	-0.240	-0.421
-400.209	-189.358	-0.465	0.005
-399.194	424.441	-0.249	0.535
-398.179	250.674	0.206	0.349
-397.165	215.429	-0.110	0.174
-396.150	-28.815	0.458	0.263
-395.136	-25.231	0.546	0.323
-394.121	338.232	-0.244	0.473
-393.106	301.129	0.096	0.177
-392.092	-59.526	0.754	0.323
-391.077	-200.000	-0.029	0.671
-390.063	-200.000	0.031	-0.245
-389.048	-142.546	-0.556	0.054
-388.033	-129.532	-0.537	-0.074
-387.019	-193.633	-0.317	-0.003
-386.004	800.000	-0.147	0.409
-384.990	27.875	0.395	0.332
-383.975	-138.826	-0.360	-0.039
-382.960	5.913	-0.517	-0.382
-381.946	-200.000	-0.033	-0.343
-380.931	-119.860	-0.705	0.121
-379.917	333.696	0.170	-0.329
-378.902	228.957	0.225	0.366
-377.888	-94.913	-0.249	-0.067
-376.873	-97.518	0.254	-0.066
-375.858	-129.995	-0.830	0.113
-374.844	14.016	-0.309	-0.240
-373.829	-101.937	-0.632	0.152
-372.815	392.779	-0.205	0.426
-371.800	-136.231	0.370	0.043
-370.785	-200.000	0.000	0.298
-369.771	-146.588	0.786	0.068
-368.756	-200.000	0.419	0.002
-367.742	-109.506	0.378	-0.080
-366.727	-200.000	0.039	-1.089
-365.712	11.032	0.670	-0.511
-364.698	-138.913	1.585	-0.172
-363.683	-200.000	0.119	-0.580
-362.669	-200.000	0.143	-0.736
-361.654	-102.821	0.450	-0.107
-360.639	-200.000	0.006	-1.115
-359.625	-106.785	-0.612	0.135
-358.610	61.141	0.647	-0.641
-357.596	102.528	0.434	-0.506
-356.581	800.000	0.065	-0.216
-355.566	12.635	0.101	0.078
-354.552	-67.632	-0.122	-0.048
-353.537	-89.030	-0.404	-0.119
-352.523	-141.629	-0.230	-0.023
-351.508	7.938	0.338	-0.252
-350.493	161.184	0.233	-0.325
-349.479	-19.667	-0.561	0.346
-348.464	-200.000	-0.088	0.748
-347.450	-200.000	-0.132	-0.660
-346.435	-77.787	0.224	-0.077
-345.420	298.801	-0.266	-0.489
-344.406	-44.955	0.440	0.218
-343.391	-168.541	0.414	-0.016
-342.377	800.000	-0.062	0.193
-341.362	-200.000	-0.001	-0.962
-340.348	496.429	0.003	0.007
-339.333	155.441	-0.134	0.184
-338.318	-133.353	-0.341	-0.043
-337.304	147.712	-0.813	1.091
-336.289	-80.348	0.351	-0.117
-335.275	800.000	0.212	-0.635
-334.260	-26.724	-0.364	0.212
-333.245	31.606	-0.662	-0.567
-332.231	8.953	0.812	-0.611
-331.216	682.733	-0.082	-0.214
-330.202	147.413	0.271	-0.364
-329.187	-57.548	0.871	-0.380
-328.172	88.523	-0.470	-0.520
-327.158	-127.320	0.111	-0.016
-326.143	-169.894	1.457	0.052
-325.129	79.653	0.139	0.148
-324.114	-112.061	0.857	0.172
-323.099	53.252	-0.470	-0.449
-322.085	106.834	-0.614	0.725
-321.070	-129.505	-0.104	0.014
-320.056	-52.822	-1.048	0.481
-319.041	-85.818	0.094	0.029
-318.026	43.633	-0.210	0.191
-317.012	-105.417	-0.423	0.096
-315.997	673.480	-0.082	0.211
-314.983	-29.695	0.588	-0.334
-313.968	-200.000	-0.001	-0.311
-312.953	29.528	0.805	-0.681
-311.939	-162.181	0.681	0.034
-310.924	178.895	0.351	-0.511
-309.910	-200.000	0.001	-0.184
-308.895	-19.638	0.276	0.170
-307.880	-27.998	-0.138	0.079
-306.866	319.302	-0.531	1.001
-305.851	-23.402	0.489	-0.292
-304.837	40.917	0.076	-0.068
-303.822	-78.514	-0.565	-0.192
-302.807	378.645	0.311	-0.633
-301.793	-145.898	0.236	-0.021
-300.778	214.580	-0.578	0.911
-299.764	-136.378	-0.391	0.045
-298.749	613.347	-0.399	0.994
-297.735	-200.000	0.041	0.599
-296.720	-148.177	0.230	-0.019
-295.705	-200.000	-0.001	0.462
-294.691	-61.088	-0.182	-0.076
-293.676	82.855	0.345	0.373
-292.662	-106.516	-0.316	0.070
-291.647	-162.471	0.365	-0.018
-290.632	-144.130	0.567	-0.053
-289.618	33.255	-0.323	-0.279
-288.603	-135.848	-0.218	0.026
-287.589	221.536	-0.333	-0.532
-286.574	-200.000	0.026	-0.234
-285.559	-40.555	0.407	0.210
-284.545	479.337	0.063	0.142
-283.530	-200.000	0.058	0.367
-282.516	-200.000	0.066	0.476
-281.501	-24.226	0.288	-0.171
-280.486	-200.000	0.080	1.239
-279.472	198.969	0.194	0.295
-278.457	-145.425	-0.419	-0.037
-277.443	-32.094	0.629	-0.350
-276.428	-96.031	-0.276	-0.073
-275.413	-200.000	0.037	-0.228
-274.399	444.010	-0.046	0.099
-273.384	4.052	0.473	-0.344
-272.370	1.438	0.223	-0.159
-271.355	566.284	0.149	0.359
-270.340	3.259	-0.358	-0.259
-269.326	-97.435	-0.562	0.145
-268.311	32.342	0.270	-0.231
-267.297	50.108	-0.419	0.393
-266.282	-200.000	-0.090	-0.533
-265.267	-141.351	0.767	0.077
-264.253	147.114	-0.259	0.346
-263.238	800.000	0.217	0.811
-262.224	-159.738	0.328	-0.018
-261.209	70.825	0.267	0.275
-260.195	-61.998	0.725	0.301
-259.180	-2.301	0.266	0.186
-258.165	-200.000	-0.026	0.493
-257.151	-39.719	0.465	-0.241
-256.136	424.244	-0.053	0.113
-255.122	167.864	-0.147	0.207
-254.107	354.928	0.158	0.312
-253.092	800.000	0.097	-0.325
-252.078	-95.579	0.585	-0.156
-251.063	-200.000	-0.000	-0.414
-250.049	392.964	-0.360	-0.744
-249.034	694.565	0.255	0.663
-248.019	-200.000	0.004	0.926
-247.005	-132.678	0.142	-0.018
-245.990	-63.466	0.334	-0.136
-244.976	-200.000	-0.032	-0.452
-243.961	-200.000	-0.039	0.222
-242.946	77.336	0.478	-0.504
-241.932	251.334	-0.143	-0.242
-240.917	-200.000	-0.011	-0.383
-239.903	800.000	-0.091	0.373
-238.888	-200.000	0.001	0.327
-237.873	-136.455	0.469	-0.054
-236.859	178.588	0.165	-0.240
-235.844	164.565	-0.254	-0.356
-234.830	21.642	0.613	0.495
-233.815	-53.176	-0.432	0.197
-232.800	800.000	0.120	0.424
-231.786	67.614	0.237	0.240
-230.771	-112.003	0.154	-0.031
-229.757	58.256	-0.327	0.318
-228.742	-36.812	-0.351	-0.187
-227.727	-200.000	-0.065	0.434
-226.713	-42.578	0.343	0.173
-225.698	-200.000	0.044	0.785
-224.684	-200.000	0.009	-0.159
-223.669	800.000	0.226	-0.808
-222.655	271.345	0.245	0.429
-221.640	246.938	0.500	0.837
-220.625	-116.047	0.295	-0.054
-219.611	-135.641	-0.850	0.100
-218.596	80.418	0.268	0.286
-217.582	-87.886	0.340	-0.101
-216.567	8.294	-0.446	-0.332
-215.552	-112.390	-0.266	-0.053
-214.538	2.021	-0.446	-0.319
-213.523	-83.150	-0.792	0.253
-212.509	-113.258	-0.753	-0.147
-211.494	-90.534	-0.401	-0.115
-210.479	-48.122	-1.199	0.574
-209.465	-63.189	0.802	0.328
-208.450	-200.000	0.025	-0.298
-207.436	-115.408	-0.477	0.089
-206.421	-63.780	0.477	0.194
-205.406	-89.814	0.654	0.190
-204.392	40.235	-0.524	0.467
-203.377	-131.293	0.199	-0.026
-202.363	-172.233	0.367	-0.012
-201.348	-50.903	-0.815	-0.379
-200.333	72.753	-0.635	-0.656
-199.319	78.695	0.548	0.581
-198.304	-115.382	-0.102	-0.019
-197.290	-80.534	-0.879	-0.290
-196.275	396.884	-0.127	-0.262
-195.260	57.247	-0.035	-0.034
-194.246	34.361	0.434	0.376
-193.231	-13.878	-0.243	0.155
-192.217	-45.546	-0.630	0.309
-191.202	155.488	-0.768	1.048
-190.187	-200.000	0.062	0.396
-189.173	-200.000	0.012	-0.391
-188.158	180.739	0.254	0.370
-187.144	-152.935	0.814	0.057
-186.129	-70.420	0.689	0.259
-185.114	-141.330	-0.655	0.066
-184.100	64.907	-0.574	0.574
-183.085	-172.023	-1.832	-0.059
-182.071	127.050	-0.425	-0.534
-181.056	-200.000	-0.004	-0.056
-180.042	-114.594	-0.547	-0.104
-179.027	-200.000	0.128	0.640
-178.012	-52.691	-0.477	0.218
-176.998	-200.000	-0.117	0.910
-175.983	-61.725	-0.607	0.252
-174.969	-10.382	-0.423	-0.278
-173.954	800.000	-0.069	0.287
-172.939	-123.391	-0.482	0.076
-171.925	-43.427	0.553	-0.276
-170.910	-50.110	0.434	0.204
-169.896	-35.313	-0.534	-0.288
-168.881	-35.750	-0.675	0.362
-167.866	248.269	-0.042	-0.070
-166.852	104.989	0.213	-0.249
-165.837	-123.121	-0.738	0.117
-164.823	-163.188	0.131	-0.006
-163.808	-128.745	-0.389	0.054
-162.793	-200.000	-0.015	-0.439
-161.779	-96.552	0.403	0.105
-160.764	-200.000	0.161	-0.854
-159.750	-111.945	0.463	0.092
-158.735	-200.000	-0.143	-1.061
-157.720	51.481	0.360	0.339
-156.706	-161.450	0.654	0.033
-155.691	43.426	0.221	-0.199
-154.677	-70.827	0.332	-0.124
-153.662	35.831	-0.663	0.577
-152.647	-200.000	-0.051	-0.951
-151.633	128.854	0.507	-0.639
-150.618	-29.937	0.811	-0.457
-149.604	-146.686	0.755	-0.065
-148.589	-22.675	-0.706	0.422
-147.574	-165.432	-1.031	0.045
-146.560	-114.486	-1.309	-0.248
-145.545	143.727	-0.389	-0.512
-144.531	-49.811	-0.384	0.180
-143.516	-109.529	0.633	0.132
-142.502	-37.965	-0.261	0.137
-141.487	-119.012	-0.273	0.047
-140.472	-140.998	-0.196	-0.020
-139.458	-52.476	0.192	-0.088
-138.443	-15.991	-0.148	-0.093
-137.429	-186.544	0.095	0.001
-136.414	281.476	0.213	-0.378
-135.399	800.000	-0.269	0.833
-134.385	659.988	0.108	-0.274
-133.370	-117.038	0.996	-0.180
-132.356	-82.783	0.708	0.226
-131.341	10.585	-0.361	-0.272
-130.326	-14.395	0.245	0.156
-129.312	800.000	0.231	0.692
-128.297	-93.570	-0.341	-0.093
-127.283	-200.000	0.053	0.720
-126.268	-87.684	0.471	0.140
-125.253	175.874	0.089	-0.128
-124.239	181.516	-0.133	0.194
-123.224	169.998	-0.416	-0.588
-122.210	35.971	0.220	-0.191
-121.195	714.299	0.270	0.706
