DTS Sentinel unit serial number:	SN413079Multiplexer serial number:	ORYXHardware model number:	OX4-SRSoftware version number:	ORYX F/W v4.00 Oryx Data Collector v3.7.2.0data status	okinstallation	princeton_trtdifferential loss correction	single-endedforward channel	channel 1reverse channel	N/Adate	2019/09/18time	01:38:35forward acquisition time	60.00reverse acquisition time	0.00gamma	496.2192k internal	0.2341k external	0.2341temperature offset calibration	0.9978default loss term (dB/km)	0.3790temperature slope calibration	1.0000multiplexer offset coefficient	1.0000multiplexer slope coefficient	1.0000fibre end	0.00T internal ref (°C)	23.06T ext. ref 1 (°C)	0.15T ext. ref 2 (°C)	16.71length (m)	temperature (°C)	Stokes	anti-Stokes-747.200	-17.363	-0.252	-0.159
-746.185	-86.236	0.039	0.012
-745.171	205.430	0.051	0.080
-744.156	800.000	-0.114	0.367
-743.142	146.288	-0.170	0.229
-742.127	-46.997	0.191	-0.094
-741.112	800.000	0.076	-0.219
-740.098	54.690	0.271	0.261
-739.083	-122.311	0.089	-0.015
-738.069	95.995	-0.325	0.372
-737.054	-200.000	-0.092	0.460
-736.039	126.416	-0.123	-0.156
-735.025	-98.968	0.292	-0.074
-734.010	407.154	-0.072	-0.153
-732.996	800.000	0.070	0.202
-731.981	800.000	0.026	0.074
-730.966	-71.060	-0.101	0.038
-729.952	136.111	-0.133	-0.174
-728.937	-109.400	0.319	-0.068
-727.923	152.385	0.141	0.193
-726.908	-200.000	0.029	0.274
-725.894	377.223	0.085	-0.174
-724.879	213.488	-0.195	0.309
-723.864	-200.000	0.010	-0.064
-722.850	-100.302	-0.234	-0.058
-721.835	15.976	0.119	0.094
-720.821	-200.000	0.000	0.232
-719.806	800.000	-0.036	0.140
-718.791	10.702	0.182	-0.139
-717.777	22.764	-0.192	0.157
-716.762	636.841	0.056	0.143
-715.748	-27.325	-0.166	0.097
-714.733	-8.000	-0.276	-0.186
-713.718	-200.000	0.067	-0.326
-712.704	-23.949	0.106	-0.064
-711.689	-200.000	-0.051	-0.256
-710.675	-200.000	-0.028	-0.232
-709.660	-5.592	-0.122	-0.084
-708.645	-200.000	-0.089	-0.491
-707.631	184.462	-0.171	-0.253
-706.616	-200.000	-0.028	0.146
-705.602	-22.591	-0.396	-0.240
-704.587	727.373	0.075	0.201
-703.572	166.229	0.053	-0.075
-702.558	-200.000	-0.013	-0.108
-701.543	231.884	0.055	0.090
-700.529	800.000	0.031	-0.112
-699.514	-4.068	0.315	0.219
-698.499	-200.000	0.041	0.298
-697.485	309.348	0.094	-0.176
-696.470	-152.213	-0.321	-0.023
-695.456	-43.741	-0.270	-0.136
-694.441	-77.496	0.158	-0.055
-693.426	319.890	0.166	-0.315
-692.412	-53.953	0.204	0.093
-691.397	129.263	0.256	-0.327
-690.383	54.692	0.186	-0.180
-689.368	193.393	-0.200	-0.303
-688.354	-77.475	0.108	0.037
-687.339	-79.429	-0.308	-0.104
-686.324	-200.000	0.028	0.308
-685.310	180.196	-0.108	0.158
-684.295	800.000	-0.101	-0.326
-683.281	-118.342	0.200	-0.035
-682.266	134.459	-0.191	-0.248
-681.251	-200.000	0.016	0.091
-680.237	618.252	0.104	0.260
-679.222	-200.000	0.020	-0.123
-678.208	188.104	-0.048	-0.072
-677.193	800.000	0.022	-0.095
-676.178	-16.590	-0.159	-0.100
-675.164	-20.664	0.273	0.167
-674.149	113.619	0.042	-0.051
-673.135	-133.399	-0.158	0.020
-672.120	-200.000	0.019	-0.181
-671.105	800.000	0.052	0.170
-670.091	171.580	-0.151	-0.217
-669.076	236.867	-0.140	-0.232
-668.062	800.000	0.048	-0.135
-667.047	37.326	-0.037	0.033
-666.032	-2.051	0.303	0.213
-665.018	-99.342	-0.268	-0.067
-664.003	-200.000	0.064	0.295
-662.989	-38.658	-0.153	0.081
-661.974	190.206	-0.080	0.121
-660.959	-67.552	-0.293	-0.115
-659.945	10.515	-0.114	-0.086
-658.930	-151.610	-0.159	-0.012
-657.916	-138.021	0.093	0.010
-656.901	-70.003	0.195	0.074
-655.886	-72.074	0.190	0.071
-654.872	-2.529	-0.129	-0.090
-653.857	390.432	0.026	-0.054
-652.843	256.170	-0.171	-0.293
-651.828	-96.584	-0.519	0.137
-650.814	115.862	-0.146	0.179
-649.799	606.218	0.061	0.153
-648.784	115.850	0.109	0.133
-647.770	800.000	-0.128	-0.424
-646.755	-10.169	-0.217	-0.144
-645.741	349.568	0.091	0.179
-644.726	2.811	0.183	0.133
-643.711	-173.750	-0.152	-0.005
-642.697	160.003	-0.185	0.258
-641.682	-142.901	0.082	-0.008
-640.668	173.426	0.273	-0.393
-639.653	228.897	-0.100	0.162
-638.638	-149.588	-0.013	0.001
-637.624	119.168	-0.083	0.103
-636.609	7.341	0.095	0.071
-635.595	41.939	0.027	0.025
-634.580	-60.288	0.401	-0.170
-633.565	153.981	0.244	-0.334
-632.551	608.153	-0.088	0.219
-631.536	-174.850	-0.468	0.013
-630.522	-116.534	-0.015	0.003
-629.507	800.000	0.088	-0.247
-628.492	-101.085	-0.199	-0.049
-627.478	-104.345	-0.261	-0.060
-626.463	172.165	-0.238	0.342
-625.449	-49.890	-0.115	-0.054
-624.434	-88.672	0.523	-0.155
-623.419	7.159	0.134	-0.100
-622.405	256.763	-0.271	-0.464
-621.390	105.952	0.122	-0.143
-620.376	-132.613	0.317	0.041
-619.361	-200.000	-0.031	-0.176
-618.346	-95.752	-0.076	0.020
-617.332	800.000	-0.078	0.236
-616.317	-25.484	-0.149	-0.088
-615.303	-200.000	-0.015	0.218
-614.288	-125.140	0.206	-0.031
-613.273	-171.788	-0.157	-0.005
-612.259	-200.000	0.007	-0.155
-611.244	-200.000	-0.021	-0.173
-610.230	178.141	0.103	0.150
-609.215	-93.083	0.074	0.021
-608.201	-24.798	-0.159	-0.094
-607.186	-199.304	0.353	0.002
-606.171	186.246	-0.253	-0.375
-605.157	-83.825	-0.326	0.104
-604.142	-130.010	0.123	0.017
-603.128	800.000	-0.034	0.101
-602.113	-147.097	0.267	0.023
-601.098	-115.099	-0.056	-0.011
-600.084	-66.525	-0.229	-0.090
-599.069	-70.722	-0.016	0.006
-598.055	-65.944	-0.159	0.063
-597.040	800.000	-0.058	-0.163
-596.025	-200.000	-0.010	-0.092
-595.011	33.713	-0.244	-0.212
-593.996	-200.000	-0.009	-0.191
-592.982	-103.862	0.328	-0.076
-591.967	-107.962	-0.254	0.055
-590.952	-62.435	0.298	-0.123
-589.938	32.170	0.108	0.093
-588.923	-47.897	0.187	-0.090
-587.909	-123.828	-0.188	0.030
-586.894	-41.062	-0.102	-0.053
-585.879	46.461	-0.220	0.203
-584.865	113.942	-0.131	-0.158
-583.850	-200.000	0.022	-0.327
-582.836	75.231	-0.043	0.045
-581.821	-200.000	-0.060	0.328
-580.806	-86.225	0.035	-0.011
-579.792	103.934	-0.151	0.177
-578.777	219.387	-0.147	0.234
-577.763	-73.131	-0.432	0.158
-576.748	115.811	0.360	-0.439
-575.733	-49.467	-0.201	-0.095
-574.719	40.713	-0.131	-0.118
-573.704	112.836	-0.106	0.127
-572.690	381.024	0.106	-0.217
-571.675	-33.200	0.150	-0.082
-570.661	-74.034	-0.435	0.157
-569.646	212.324	0.067	-0.106
-568.631	-58.257	0.090	0.039
-567.617	568.776	-0.043	-0.105
-566.602	-200.000	-0.006	0.218
-565.588	104.636	0.152	-0.178
-564.573	454.334	0.070	0.153
-563.558	272.090	0.100	0.175
-562.544	-127.337	-0.258	0.037
-561.529	399.347	-0.040	0.083
-560.515	-131.854	0.054	-0.007
-559.500	61.337	0.232	-0.229
-558.485	-200.000	-0.011	-0.122
-557.471	-50.100	0.122	0.057
-556.456	-66.655	0.198	-0.078
-555.442	617.365	0.076	0.189
-554.427	25.182	-0.229	0.189
-553.412	9.634	-0.026	-0.020
-552.398	44.849	0.389	-0.356
-551.383	-200.000	0.025	-0.139
-550.369	800.000	0.066	0.236
-549.354	783.451	-0.055	-0.150
-548.339	-200.000	0.059	-0.472
-547.325	29.030	-0.182	-0.153
-546.310	0.651	-0.197	-0.140
-545.296	-99.445	0.257	-0.064
-544.281	-26.195	0.087	0.051
-543.266	123.697	0.078	-0.097
-542.252	-50.671	-0.229	0.107
-541.237	-1.653	-0.020	-0.014
-540.223	-79.853	-0.116	-0.039
-539.208	535.871	-0.034	0.080
-538.193	116.472	0.411	-0.501
-537.179	800.000	0.102	0.295
-536.164	-171.997	-0.205	-0.007
-535.150	694.197	0.107	0.280
-534.135	-119.363	-0.189	0.033
-533.121	-43.016	0.298	-0.150
-532.106	-87.397	-0.053	0.016
-531.091	258.790	0.085	0.145
-530.077	-131.902	0.234	0.030
-529.062	262.451	-0.097	0.166
-528.048	132.130	-0.193	0.247
-527.033	-88.989	-0.035	-0.010
-526.018	-136.355	0.301	-0.035
-525.004	47.343	0.132	0.122
-523.989	12.367	0.079	0.060
-522.975	24.760	-0.338	-0.278
-521.960	-85.440	-0.140	0.043
-520.945	-123.117	0.098	0.016
-519.931	-200.000	0.031	0.137
-518.916	-92.244	-0.084	0.024
-517.902	-200.000	0.030	0.152
-516.887	242.045	0.123	-0.204
-515.872	1.784	-0.095	-0.068
-514.858	-78.873	0.195	0.066
-513.843	800.000	0.069	0.196
-512.829	-38.414	0.144	-0.076
-511.814	253.692	-0.120	-0.203
-510.799	-83.153	-0.037	0.012
-509.785	-191.982	0.178	0.002
-508.770	-146.326	-0.128	-0.011
-507.756	2.303	-0.118	-0.085
-506.741	-173.210	0.279	0.008
-505.726	-24.109	0.175	0.104
-504.712	147.032	-0.122	-0.163
-503.697	-155.054	0.382	0.025
-502.683	1.617	-0.199	0.142
-501.668	-80.607	0.097	-0.032
-500.653	-173.630	-0.340	0.010
-499.639	800.000	-0.099	0.343
-498.624	-200.000	0.021	-0.220
-497.610	88.582	0.321	0.354
-496.595	-93.555	0.436	-0.120
-495.581	75.842	-0.089	0.094
-494.566	-22.145	-0.286	0.172
-493.551	-50.358	0.162	0.076
-492.537	-171.012	-0.343	-0.012
-491.522	601.769	-0.031	0.076
-490.508	-127.235	0.181	-0.026
-489.493	-12.496	0.285	0.184
-488.478	259.847	-0.102	0.175
-487.464	-190.223	-0.251	-0.003
-486.449	-131.850	0.205	-0.027
-485.435	-200.000	-0.008	0.116
-484.420	-138.818	0.279	0.030
-483.405	-45.881	-0.158	0.077
-482.391	-200.000	0.073	0.366
-481.376	-200.000	-0.046	-0.409
-480.362	-83.644	0.112	0.035
-479.347	-200.000	-0.037	0.172
-478.332	6.482	0.106	0.078
-477.318	-81.913	-0.259	-0.084
-476.303	-71.484	0.058	0.021
-475.289	-51.416	0.226	-0.105
-474.274	-200.000	-0.019	0.152
-473.259	-119.504	-0.137	0.024
-472.245	397.052	0.110	0.229
-471.230	800.000	0.041	-0.130
-470.216	-200.000	0.000	0.131
-469.201	-136.750	-0.142	-0.016
-468.186	585.014	-0.073	-0.178
-467.172	-200.000	0.010	0.186
-466.157	-200.000	0.055	0.423
-465.143	94.051	-0.202	0.228
-464.128	51.754	0.296	-0.279
-463.113	-105.942	0.281	0.063
-462.099	-200.000	0.040	0.205
-461.084	15.298	0.323	0.251
-460.070	574.163	0.050	-0.122
-459.055	5.498	0.259	-0.190
-458.040	-59.583	0.111	-0.047
-457.026	-23.263	-0.146	0.087
-456.011	-200.000	-0.016	-0.147
-454.997	129.642	0.151	-0.191
-453.982	800.000	-0.069	-0.192
-452.968	101.892	-0.261	-0.302
-451.953	194.094	0.071	-0.106
-450.938	-112.911	0.237	0.046
-449.924	-200.000	0.014	0.149
-448.909	-98.831	-0.194	0.049
-447.895	88.246	-0.039	-0.043
-446.880	-200.000	0.043	-0.191
-445.865	-27.314	0.252	-0.145
-444.851	442.675	0.131	-0.284
-443.836	-152.366	0.138	0.010
-442.822	399.491	-0.074	0.154
-441.807	-89.156	-0.480	-0.141
-440.792	-129.592	-0.200	-0.027
-439.778	17.191	-0.304	0.239
-438.763	-200.000	0.002	-0.070
-437.749	-166.591	0.584	0.024
-436.734	279.698	0.089	0.157
-435.719	351.438	0.010	0.019
-434.705	162.463	-0.114	0.158
-433.690	-86.660	-0.106	0.032
-432.676	283.695	-0.230	-0.409
-431.661	140.795	0.225	-0.294
-430.646	-96.972	-0.291	-0.076
-429.632	-51.246	0.048	-0.022
-428.617	-81.522	0.340	-0.111
-427.603	-200.000	0.018	0.215
-426.588	-107.864	0.338	-0.073
-425.573	47.460	0.221	0.204
-424.559	252.861	-0.270	0.455
-423.544	90.056	-0.246	-0.272
-422.530	-196.606	-0.078	-0.001
-421.515	293.775	-0.092	-0.166
-420.500	-196.467	-0.121	-0.001
-419.486	-86.472	0.228	0.069
-418.471	-82.437	0.297	-0.095
-417.457	460.789	-0.097	0.214
-416.442	800.000	-0.066	-0.233
-415.428	23.732	-0.269	0.219
-414.413	-64.478	0.130	0.052
-413.398	-129.308	-0.513	-0.071
-412.384	96.198	0.089	0.101
-411.369	61.722	-0.086	-0.084
-410.355	-90.273	0.246	-0.071
-409.340	131.167	-0.094	0.119
-408.325	-79.048	0.236	0.079
-407.311	-118.910	0.111	-0.019
-406.296	-156.951	0.060	0.004
-405.282	273.870	-0.141	-0.247
-404.267	-200.000	0.022	0.161
-403.252	-20.319	-0.238	-0.145
-402.238	-152.563	-0.102	0.007
-401.223	-200.000	0.019	0.119
-400.209	323.990	0.127	-0.240
-399.194	-200.000	-0.022	0.137
-398.179	800.000	0.061	-0.232
-397.165	629.072	-0.120	0.299
-396.150	-36.055	0.300	0.160
-395.136	16.979	0.183	0.143
-394.121	70.999	-0.186	-0.191
-393.106	-26.093	-0.446	0.259
-392.092	292.940	-0.222	-0.400
-391.077	-200.000	0.018	-0.153
-390.063	690.092	-0.154	0.399
-389.048	-99.383	-0.239	-0.059
-388.033	351.035	-0.182	0.356
-387.019	14.005	0.135	-0.104
-386.004	162.465	0.064	0.088
-384.990	-130.530	0.158	-0.021
-383.975	639.370	0.040	0.101
-382.960	342.899	-0.212	0.410
-381.946	40.196	0.119	0.106
-380.931	52.371	-0.064	-0.060
-379.917	-200.000	0.012	-0.221
-378.902	149.135	-0.105	-0.141
-377.888	638.113	0.036	0.090
-376.873	764.314	-0.220	0.589
-375.858	180.965	0.280	0.406
-374.844	800.000	-0.050	-0.197
-373.829	800.000	0.060	-0.180
-372.815	-32.461	-0.182	-0.100
-371.800	-200.000	-0.001	-0.104
-370.785	800.000	-0.031	0.103
-369.771	-36.058	-0.148	0.079
-368.756	-200.000	0.044	-0.202
-367.742	-200.000	-0.046	0.409
-366.727	-75.520	0.063	0.022
-365.712	-132.449	0.126	-0.016
-364.698	-37.677	-0.125	0.066
-363.683	128.388	0.053	0.067
-362.669	386.906	0.140	0.285
-361.654	37.918	0.293	-0.257
-360.639	-200.000	0.036	0.159
-359.625	140.377	0.125	0.163
-358.610	150.799	-0.120	0.161
-357.596	297.365	-0.077	0.140
-356.581	345.964	-0.073	-0.142
-355.566	-6.987	0.129	-0.087
-354.552	-200.000	0.010	-0.190
-353.537	624.444	0.152	0.377
-352.523	-27.820	0.103	-0.059
-351.508	-167.110	-0.257	0.010
-350.493	369.765	-0.128	-0.256
-349.479	-117.847	-0.401	0.071
-348.464	165.868	0.400	0.558
-347.450	14.337	0.118	-0.091
-346.435	-61.140	-0.288	0.120
-345.420	-131.828	0.195	-0.025
-344.406	800.000	-0.077	0.247
-343.391	-200.000	-0.071	-0.345
-342.377	133.031	-0.253	-0.322
-341.362	0.570	0.088	0.062
-340.348	-169.314	0.188	-0.007
-339.333	-115.414	0.268	-0.050
-338.318	-51.506	-0.218	0.100
-337.304	-200.000	-0.004	-0.186
-336.289	41.616	-0.091	0.082
-335.275	-92.126	-0.056	0.016
-334.260	-66.445	-0.089	-0.035
-333.245	126.520	-0.079	-0.099
-332.231	-200.000	0.034	-0.170
-331.216	-200.000	0.026	-0.258
-330.202	-55.262	-0.144	0.064
-329.187	341.321	-0.185	-0.357
-328.172	-99.705	-0.254	0.063
-327.158	-44.849	-0.271	0.133
-326.143	-109.653	-0.321	0.067
-325.129	122.868	-0.143	-0.177
-324.114	-200.000	0.016	0.070
-323.099	27.763	-0.204	0.170
-322.085	800.000	0.064	0.180
-321.070	-200.000	-0.020	0.144
-320.056	-54.796	0.065	0.029
-319.041	52.153	-0.058	-0.054
-318.026	154.695	0.054	-0.073
-317.012	-0.079	-0.223	-0.156
-315.997	328.503	0.038	-0.073
-314.983	-200.000	0.032	0.456
-313.968	-1.601	0.227	-0.157
-312.953	36.024	0.079	0.068
-311.939	-80.110	0.281	-0.093
-310.924	157.039	-0.211	-0.288
-309.910	-200.000	-0.013	-0.153
-308.895	182.029	-0.105	-0.153
-307.880	130.632	-0.157	-0.198
-306.866	39.322	-0.061	0.054
-305.851	165.459	0.141	0.196
-304.837	394.433	0.067	0.137
-303.822	-60.092	-0.192	-0.081
-302.807	275.612	0.008	0.014
-301.793	-118.513	0.242	0.042
-300.778	-48.792	-0.317	0.150
-299.764	199.498	0.101	-0.152
-298.749	106.514	-0.121	-0.141
-297.735	-200.000	0.003	-0.322
-296.720	800.000	0.020	0.065
-295.705	800.000	0.041	-0.165
-294.691	163.225	0.156	0.216
-293.676	-90.222	-0.224	-0.064
-292.662	518.683	0.050	-0.115
-291.647	-63.621	-0.292	0.118
-290.632	546.615	0.112	0.265
-289.618	308.884	-0.158	0.291
-288.603	-200.000	-0.007	-0.136
-287.589	264.939	-0.182	0.312
-286.574	750.289	-0.068	0.181
-285.559	13.512	0.072	-0.055
-284.545	-161.083	-0.226	-0.012
-283.530	7.063	0.174	-0.128
-282.516	139.614	-0.074	-0.096
-281.501	-200.000	-0.010	0.139
-280.486	800.000	0.067	0.203
-279.472	-200.000	-0.013	-0.201
-278.457	163.237	0.133	0.183
-277.443	206.846	-0.040	-0.061
-276.428	800.000	0.019	0.052
-275.413	9.529	-0.238	-0.178
-274.399	289.706	0.125	0.223
-273.384	80.863	0.069	-0.074
-272.370	-79.223	0.242	-0.081
-271.355	50.474	0.105	-0.098
-270.340	-81.819	0.145	-0.047
-269.326	-57.519	-0.073	0.032
-268.311	15.576	-0.065	0.050
-267.297	125.581	-0.257	0.319
-266.282	-146.548	0.270	0.023
-265.267	-200.000	0.018	-0.222
-264.253	-44.933	-0.037	-0.018
-263.238	800.000	-0.108	0.348
-262.224	598.211	-0.173	-0.422
-261.209	-161.058	-0.034	-0.002
-260.195	-200.000	-0.036	0.345
-259.180	104.470	0.108	0.125
-258.165	146.189	0.086	0.114
-257.151	-30.696	0.567	0.315
-256.136	-91.357	0.234	0.066
-255.122	-127.292	-0.307	0.044
-254.107	107.610	-0.212	0.248
-253.092	66.879	-0.209	0.209
-252.078	6.104	0.331	0.241
-251.063	800.000	0.067	-0.244
-250.049	130.924	-0.258	-0.325
-249.034	800.000	0.108	-0.315
-248.019	482.758	0.125	-0.279
-247.005	-67.876	0.196	-0.075
-245.990	-55.630	-0.465	-0.205
-244.976	230.004	-0.133	-0.213
-243.961	-106.301	0.314	0.069
-242.946	800.000	0.143	-0.419
-241.932	101.463	-0.159	-0.183
-240.917	52.580	-0.267	-0.251
-239.903	0.573	0.355	-0.250
-238.888	-200.000	-0.002	0.188
-237.873	-117.977	-0.199	-0.035
-236.859	800.000	0.051	0.210
-235.844	800.000	-0.048	0.152
-234.830	-200.000	0.001	-0.067
-233.815	8.017	-0.247	0.182
-232.800	49.899	-0.080	-0.074
-231.786	-200.000	-0.066	-0.289
-230.771	-58.346	0.436	-0.186
-229.757	29.397	-0.203	0.169
-228.742	65.468	0.182	-0.181
-227.727	398.762	-0.131	-0.269
-226.713	800.000	-0.060	-0.186
-225.698	216.657	-0.183	0.287
-224.684	-94.575	0.197	-0.053
-223.669	-200.000	0.038	-0.279
-222.655	96.477	-0.069	-0.077
-221.640	800.000	-0.045	0.128
-220.625	800.000	0.048	0.170
-219.611	-36.770	0.295	-0.156
-218.596	-21.342	0.139	-0.083
-217.582	-200.000	-0.024	-0.260
-216.567	-200.000	-0.009	0.139
-215.552	800.000	-0.075	-0.235
-214.538	-200.000	-0.027	-0.193
-213.523	43.887	0.420	0.378
-212.509	-76.581	0.286	-0.098
-211.494	276.966	-0.052	0.091
-210.479	-26.253	-0.358	-0.206
-209.465	-58.773	-0.078	-0.033
-208.450	-200.000	-0.010	-0.163
-207.436	-150.350	-0.390	0.029
-206.421	-19.479	0.271	-0.165
-205.406	134.876	0.008	-0.010
-204.392	-113.236	0.258	0.050
-203.377	-63.330	0.577	0.233
-202.363	310.750	0.108	0.198
-201.348	-29.616	-0.301	0.168
-200.333	800.000	-0.081	-0.247
-199.319	387.127	0.063	-0.128
-198.304	-134.582	-0.225	-0.027
-197.290	-118.690	-0.101	-0.017
-196.275	315.373	-0.149	0.276
-195.260	36.990	-0.286	-0.248
-194.246	-57.354	0.157	-0.068
-193.231	47.331	0.130	0.118
-192.217	800.000	-0.020	-0.061
-191.202	469.926	0.056	-0.123
-190.187	-36.202	-0.293	-0.155
-189.173	49.593	-0.145	0.133
-188.158	-70.800	0.359	-0.133
-187.144	-171.224	-0.178	0.006
-186.129	104.830	-0.070	0.081
-185.114	6.220	0.190	0.138
-184.100	-15.841	0.281	-0.176
-183.085	-200.000	-0.008	0.118
-182.071	-62.757	0.019	-0.008
-181.056	24.901	0.176	-0.143
-180.042	-27.526	0.257	0.146
-179.027	410.706	-0.099	0.205
-178.012	800.000	-0.031	0.124
-176.998	-136.559	0.446	0.051
-175.983	800.000	0.073	0.254
-174.969	-200.000	-0.004	-0.155
-173.954	-200.000	-0.014	0.129
-172.939	-92.890	-0.318	0.087
-171.925	226.521	0.201	0.320
-170.910	3.427	-0.189	0.135
-169.896	-21.455	0.132	0.079
-168.881	-200.000	0.014	-0.175
-167.866	168.934	0.098	0.136
-166.852	800.000	0.030	0.106
-165.837	-200.000	0.012	0.099
-164.823	647.254	0.106	-0.265
-163.808	18.579	-0.075	-0.059
-162.793	-127.944	-0.198	0.028
-161.779	800.000	-0.109	-0.346
-160.764	-119.395	0.210	0.036
-159.750	401.948	-0.148	-0.304
-158.735	-81.078	-0.205	0.066
-157.720	-200.000	-0.012	0.287
-156.706	-200.000	0.003	0.224
-155.691	-16.566	0.241	0.150
-154.677	-104.195	0.376	0.086
-153.662	800.000	0.043	-0.161
-152.647	-174.383	-0.234	-0.007
-151.633	-200.000	0.003	0.128
-150.618	-110.156	-0.093	0.019
-149.604	800.000	-0.106	0.352
-148.589	-77.007	0.332	-0.113
-147.574	158.774	0.108	-0.146
-146.560	85.845	0.065	-0.070
-145.545	22.441	-0.113	0.090
-144.531	-64.576	-0.226	0.090
-143.516	-40.097	0.146	0.074
-142.502	800.000	-0.076	0.215
-141.487	10.734	-0.153	-0.114
-140.472	-200.000	-0.443	-0.002
-139.458	-63.635	-0.375	0.150
-138.443	66.961	0.115	0.114
-137.429	126.709	0.116	0.144
-136.414	368.995	-0.063	-0.126
-135.399	442.256	0.076	0.164
-134.385	-200.000	-0.077	0.386
-133.370	397.473	-0.106	0.218
-132.356	574.574	0.141	-0.336
-131.341	-71.294	0.125	-0.046
-130.326	-188.909	-0.219	-0.003
-129.312	-150.523	0.371	0.028
-128.297	433.461	-0.075	-0.159
-127.283	8.597	0.198	0.145
-126.268	130.686	-0.153	0.192
-125.253	-200.000	-0.036	-0.232
-124.239	-86.884	0.318	0.095
-123.224	-200.000	-0.033	0.224
-122.210	-43.457	0.261	-0.129
-121.195	-200.000	0.027	0.135
