DTS Sentinel unit serial number:	SN413079Multiplexer serial number:	ORYXHardware model number:	OX4-SRSoftware version number:	ORYX F/W v4.00 Oryx Data Collector v3.7.2.0data status	okinstallation	princeton_trtdifferential loss correction	single-endedforward channel	channel 1reverse channel	N/Adate	2019/09/17time	13:22:35forward acquisition time	60.00reverse acquisition time	0.00gamma	496.2192k internal	0.2309k external	0.2309temperature offset calibration	0.9967default loss term (dB/km)	0.3790temperature slope calibration	1.0000multiplexer offset coefficient	1.0000multiplexer slope coefficient	1.0000fibre end	0.00T internal ref (°C)	34.30T ext. ref 1 (°C)	0.42T ext. ref 2 (°C)	31.49length (m)	temperature (°C)	Stokes	anti-Stokes-747.200	468.836	0.129	0.294
-746.185	-53.094	-0.364	0.170
-745.171	-67.537	-0.304	-0.121
-744.156	794.430	-0.033	0.093
-743.142	164.695	0.311	0.445
-742.127	-200.000	-0.044	0.649
-741.112	188.523	-0.135	-0.205
-740.098	-82.924	-0.217	0.071
-739.083	209.723	-0.283	0.451
-738.069	-6.354	0.299	0.207
-737.054	-200.000	0.003	-0.036
-736.039	-113.227	-0.393	0.079
-735.025	-87.907	0.424	-0.130
-734.010	-0.435	-0.229	0.165
-732.996	-58.693	0.224	-0.099
-731.981	168.140	0.099	-0.143
-730.966	-200.000	0.050	0.403
-729.952	-200.000	-0.051	-0.272
-728.937	-106.041	-0.132	0.030
-727.923	-28.848	-0.127	0.074
-726.908	-117.313	-0.407	0.075
-725.894	23.376	0.288	0.241
-724.879	-78.043	0.304	-0.106
-723.864	139.630	-0.154	-0.207
-722.850	-45.883	-0.104	0.052
-721.835	800.000	0.030	-0.097
-720.821	20.468	0.276	-0.227
-719.806	-57.088	0.088	0.039
-718.791	-200.000	0.006	-0.208
-717.777	-82.882	-0.283	-0.093
-716.762	800.000	-0.035	0.153
-715.748	-200.000	0.007	-0.089
-714.733	800.000	0.060	0.230
-713.718	52.351	0.113	0.110
-712.704	-200.000	0.032	0.217
-711.689	521.442	0.094	0.224
-710.675	373.594	0.105	-0.217
-709.660	-101.944	-0.397	-0.097
-708.645	37.254	0.128	0.115
-707.631	18.394	-0.100	0.081
-706.616	-165.320	0.138	0.006
-705.602	82.944	-0.113	0.125
-704.587	776.819	-0.100	-0.277
-703.572	-200.000	-0.035	0.356
-702.558	-87.397	-0.212	-0.065
-701.543	19.748	0.207	-0.169
-700.529	-69.970	-0.262	-0.101
-699.514	-20.967	0.277	-0.172
-698.499	-18.737	-0.277	-0.175
-697.485	-17.618	-0.211	0.134
-696.470	-200.000	0.039	0.460
-695.456	42.599	-0.053	-0.049
-694.441	20.250	0.157	0.128
-693.426	-98.786	-0.247	0.064
-692.412	-155.148	-0.288	-0.019
-691.397	-64.377	0.347	-0.143
-690.383	207.896	-0.191	-0.302
-689.368	800.000	0.091	-0.403
-688.354	380.342	-0.086	0.179
-687.339	-22.020	0.174	0.107
-686.324	-200.000	-0.014	0.370
-685.310	800.000	0.084	0.351
-684.295	238.295	0.217	-0.365
-683.281	352.052	-0.091	0.184
-682.266	-119.511	0.077	-0.013
-681.251	-200.000	-0.002	-0.080
-680.237	229.091	-0.068	0.113
-679.222	-115.815	-0.228	0.043
-678.208	-58.102	0.207	-0.092
-677.193	-200.000	-0.004	-0.040
-676.178	62.750	-0.203	-0.206
-675.164	-95.927	-0.068	-0.018
-674.149	-55.849	-0.111	-0.050
-673.135	63.749	0.324	-0.330
-672.120	36.081	-0.154	0.137
-671.105	800.000	0.055	-0.178
-670.091	142.720	0.113	0.152
-669.076	-115.283	-0.207	0.040
-668.062	176.025	0.043	0.063
-667.047	-27.960	0.047	-0.027
-666.032	703.554	-0.177	-0.471
-665.018	-134.030	-0.363	0.045
-664.003	123.671	0.146	-0.185
-662.989	93.199	0.099	-0.113
-661.974	-50.484	0.267	0.127
-660.959	-84.309	-0.057	-0.018
-659.945	86.833	-0.107	0.120
-658.930	-26.648	0.134	0.079
-657.916	322.716	-0.132	-0.255
-656.901	-81.934	-0.256	0.085
-655.886	132.558	-0.075	0.098
-654.872	-111.011	0.051	0.011
-653.857	-126.574	-0.242	-0.036
-652.843	61.670	0.109	-0.110
-651.828	-37.164	0.254	-0.138
-650.814	286.318	-0.032	-0.058
-649.799	-200.000	-0.014	-0.185
-648.784	7.320	-0.208	-0.157
-647.770	22.858	0.177	0.147
-646.755	-70.304	-0.140	0.054
-645.741	-8.334	0.074	0.050
-644.726	7.832	0.178	-0.135
-643.711	13.796	0.098	0.077
-642.697	440.994	0.112	-0.249
-641.682	-188.771	-0.451	-0.006
-640.668	121.449	-0.098	-0.124
-639.653	-45.853	0.238	-0.119
-638.638	-131.670	0.199	-0.026
-637.624	-89.477	-0.162	-0.048
-636.609	378.441	0.020	0.040
-635.595	-69.093	0.040	0.016
-634.580	238.658	0.048	0.081
-633.565	-43.881	-0.296	0.150
-632.551	-112.018	-0.280	0.057
-631.536	560.752	0.078	-0.191
-630.522	78.324	0.177	-0.192
-629.507	-25.980	-0.038	-0.023
-628.492	-125.015	-0.267	-0.042
-627.478	-200.000	-0.029	0.140
-626.463	-76.308	0.294	0.105
-625.449	71.834	-0.119	-0.125
-624.434	-200.000	0.054	0.429
-623.419	800.000	-0.033	0.129
-622.405	-73.641	-0.296	0.109
-621.390	-122.327	-0.149	0.025
-620.376	-37.413	-0.275	0.149
-619.361	160.760	0.156	0.220
-618.346	14.913	-0.184	0.145
-617.332	-19.890	0.181	0.113
-616.317	-200.000	-0.003	-0.065
-615.303	8.382	0.006	-0.004
-614.288	-114.032	0.389	-0.076
-613.273	-12.856	-0.189	0.124
-612.259	-200.000	-0.116	-0.534
-611.244	322.101	-0.016	-0.031
-610.230	-158.550	0.247	-0.014
-609.215	-9.641	-0.354	-0.238
-608.201	458.779	-0.035	-0.079
-607.186	600.983	0.075	0.188
-606.171	-32.711	0.088	0.049
-605.157	104.615	0.222	-0.264
-604.142	219.062	-0.080	-0.129
-603.128	-9.188	-0.173	-0.117
-602.113	-200.000	-0.010	-0.181
-601.098	-200.000	0.047	-0.357
-600.084	-88.841	-0.358	-0.107
-599.069	-94.620	0.221	0.061
-598.055	-70.339	-0.228	0.087
-597.040	259.284	0.110	0.192
-596.025	-200.000	-0.007	-0.308
-595.011	-200.000	-0.021	0.260
-593.996	-109.050	0.313	-0.067
-592.982	52.015	-0.011	-0.010
-591.967	491.602	-0.009	0.022
-590.952	800.000	0.017	-0.064
-589.938	-125.733	0.209	-0.032
-588.923	-70.839	0.339	-0.129
-587.909	55.624	-0.260	0.254
-586.894	48.699	-0.175	-0.166
-585.879	580.669	0.043	0.106
-584.865	-200.000	-0.020	-0.325
-583.850	259.030	0.107	0.186
-582.836	-200.000	-0.020	-0.134
-581.821	-200.000	-0.049	-0.301
-580.806	69.695	-0.321	0.334
-579.792	-200.000	0.003	0.178
-578.777	-92.637	-0.180	0.051
-577.763	-96.282	0.125	0.033
-576.748	-137.471	0.138	0.016
-575.733	-40.238	-0.254	0.134
-574.719	-200.000	0.008	-0.040
-573.704	-123.746	0.167	-0.027
-572.690	126.987	-0.004	-0.006
-571.675	-200.000	-0.061	0.284
-570.661	348.572	-0.109	-0.217
-569.646	-4.178	0.116	-0.081
-568.631	122.631	-0.045	-0.057
-567.617	-200.000	-0.020	-0.208
-566.602	-200.000	0.005	-0.057
-565.588	77.750	-0.076	0.082
-564.573	-160.115	0.169	0.009
-563.558	674.858	-0.150	-0.393
-562.544	800.000	0.149	-0.463
-561.529	13.847	0.226	0.177
-560.515	-61.013	-0.358	0.153
-559.500	-105.705	0.205	0.047
-558.485	-82.288	0.062	0.020
-557.471	45.283	0.022	-0.021
-556.456	-33.803	0.318	-0.176
-555.442	-7.759	-0.331	-0.225
-554.427	-200.000	-0.002	-0.075
-553.412	-200.000	0.003	0.076
-552.398	68.163	0.141	0.146
-551.383	-56.531	-0.247	0.111
-550.369	31.275	-0.121	-0.105
-549.354	-200.000	0.005	0.185
-548.339	-138.914	0.430	0.047
-547.325	198.225	-0.181	-0.279
-546.310	92.809	0.110	-0.125
-545.296	8.580	0.154	-0.117
-544.281	20.947	-0.132	-0.108
-543.266	85.280	0.174	-0.193
-542.252	800.000	0.115	0.421
-541.237	-200.000	-0.099	0.438
-540.223	-28.937	0.224	0.130
-539.208	800.000	-0.063	-0.192
-538.193	-99.013	-0.357	-0.091
-537.179	-200.000	0.051	0.379
-536.164	800.000	-0.096	0.300
-535.150	-147.532	-0.229	0.019
-534.135	800.000	0.123	0.437
-533.121	800.000	0.041	-0.151
-532.106	800.000	-0.106	-0.326
-531.091	158.732	-0.073	-0.102
-530.077	-110.386	-0.234	-0.049
-529.062	-200.000	-0.023	-0.252
-528.048	-178.186	0.271	0.006
-527.033	-200.000	0.025	-0.153
-526.018	-200.000	0.005	-0.029
-525.004	387.272	0.111	-0.231
-523.989	-86.964	0.040	0.012
-522.975	-195.712	-0.143	0.001
-521.960	157.538	0.088	0.123
-520.945	-81.976	0.123	0.041
-519.931	-122.473	0.211	-0.035
-518.916	-200.000	-0.045	-0.228
-517.902	-115.229	-0.199	-0.038
-516.887	232.726	-0.092	-0.151
-515.872	-200.000	0.007	-0.213
-514.858	105.742	-0.171	-0.203
-513.843	-200.000	-0.039	0.220
-512.829	-32.532	-0.213	0.119
-511.814	211.603	0.029	-0.046
-510.799	520.285	0.132	-0.312
-509.785	-24.115	0.112	-0.067
-508.770	-119.729	-0.181	0.031
-507.756	-170.216	0.132	-0.005
-506.741	-37.814	-0.189	-0.101
-505.726	-98.870	0.293	-0.075
-504.712	26.076	-0.129	-0.109
-503.697	250.352	0.046	0.078
-502.683	-75.410	-0.125	0.045
-501.668	85.221	-0.069	0.076
-500.653	800.000	-0.068	-0.215
-499.639	102.650	-0.234	-0.275
-498.624	256.268	0.150	-0.260
-497.610	-52.890	-0.187	0.087
-496.595	117.316	-0.057	-0.070
-495.581	117.422	-0.069	-0.085
-494.566	-200.000	0.002	0.219
-493.551	-200.000	-0.018	-0.108
-492.537	-130.209	-0.077	0.011
-491.522	15.118	0.281	0.222
-490.508	-200.000	-0.010	0.221
-489.493	-35.617	-0.194	0.106
-488.478	70.759	-0.142	0.148
-487.464	89.512	0.069	0.078
-486.449	18.011	-0.262	0.210
-485.435	91.627	0.081	-0.091
-484.420	121.256	0.118	-0.147
-483.405	26.865	-0.101	-0.085
-482.391	-124.778	0.250	-0.039
-481.376	800.000	0.038	-0.157
-480.362	-11.151	0.392	0.260
-479.347	-200.000	-0.013	0.093
-478.332	92.734	-0.063	-0.072
-477.318	-189.939	-0.113	-0.001
-476.303	800.000	-0.050	-0.201
-475.289	225.342	0.119	-0.193
-474.274	-90.728	-0.299	-0.087
-473.259	91.662	-0.251	0.284
-472.245	-91.759	0.159	0.045
-471.230	510.897	-0.158	-0.369
-470.216	-200.000	-0.047	0.208
-469.201	800.000	0.032	0.104
-468.186	-200.000	-0.093	0.450
-467.172	800.000	0.066	0.286
-466.157	800.000	-0.059	0.195
-465.143	-200.000	0.008	0.046
-464.128	106.552	-0.116	-0.138
-463.113	-45.188	0.251	-0.126
-462.099	-142.462	-0.188	0.019
-461.084	-200.000	0.029	0.260
-460.070	-65.882	0.176	-0.071
-459.055	57.872	-0.174	-0.171
-458.040	624.852	-0.108	-0.274
-457.026	-75.928	0.122	0.043
-456.011	207.886	0.015	-0.023
-454.997	-15.434	-0.095	-0.061
-453.982	201.444	-0.029	-0.045
-452.968	-107.220	0.253	-0.056
-451.953	159.889	0.164	0.229
-450.938	800.000	-0.087	0.284
-449.924	505.772	-0.095	-0.221
-448.909	-200.000	-0.021	-0.239
-447.895	213.596	0.063	-0.099
-446.880	409.762	0.075	0.159
-445.865	-36.272	-0.053	0.029
-444.851	-200.000	0.015	-0.122
-443.836	-166.120	0.184	-0.008
-442.822	-200.000	0.056	-0.254
-441.807	-200.000	0.022	0.167
-440.792	210.332	-0.048	0.076
-439.778	110.857	-0.083	0.100
-438.763	-8.033	-0.287	0.195
-437.749	283.481	0.079	0.143
-436.734	5.045	-0.297	-0.220
-435.719	-118.544	-0.310	0.055
-434.705	216.039	0.027	0.044
-433.690	140.465	0.034	-0.045
-432.676	-200.000	-0.065	0.330
-431.661	9.018	0.293	-0.222
-430.646	158.796	-0.202	0.282
-429.632	40.120	0.158	0.143
-428.617	55.390	-0.279	-0.271
-427.603	-200.000	0.017	0.115
-426.588	-200.000	-0.038	0.186
-425.573	-36.862	0.079	-0.042
-424.559	-174.864	0.235	-0.007
-423.544	-11.786	-0.079	-0.052
-422.530	59.141	0.176	-0.174
-421.515	-110.518	-0.388	-0.081
-420.500	-200.000	-0.017	-0.372
-419.486	-104.851	-0.119	-0.027
-418.471	238.927	-0.174	0.291
-417.457	1.923	0.165	0.119
-416.442	13.731	0.232	0.180
-415.428	-200.000	0.017	0.213
-414.413	-24.302	-0.401	0.240
-413.398	-200.000	0.004	-0.055
-412.384	800.000	0.062	0.192
-411.369	101.761	0.254	0.297
-410.355	18.360	-0.239	0.192
-409.340	-152.294	0.053	0.004
-408.325	-129.276	-0.121	0.017
-407.311	-200.000	0.030	0.239
-406.296	89.596	-0.262	-0.293
-405.282	-200.000	-0.006	-0.324
-404.267	83.314	0.126	0.137
-403.252	-157.800	0.070	-0.004
-402.238	-85.489	0.241	0.075
-401.223	-105.475	-0.222	0.051
-400.209	-200.000	0.492	0.000
-399.194	-200.000	0.004	-0.084
-398.179	-22.252	-0.186	0.113
-397.165	17.163	0.186	0.148
-396.150	-166.379	-0.260	-0.011
-395.136	-200.000	-0.023	0.149
-394.121	-85.832	-0.372	-0.115
-393.106	62.766	-0.096	0.097
-392.092	800.000	-0.016	0.065
-391.077	-200.000	0.067	0.556
-390.063	94.974	0.077	0.088
-389.048	800.000	-0.033	-0.094
-388.033	800.000	0.103	-0.302
-387.019	-200.000	0.019	-0.140
-386.004	-200.000	0.004	-0.224
-384.990	-200.000	-0.008	-0.144
-383.975	800.000	0.020	-0.071
-382.960	496.648	0.129	0.298
-381.946	147.564	-0.138	-0.186
-380.931	62.470	0.188	-0.188
-379.917	-117.374	0.444	0.081
-378.902	-200.000	-0.024	-0.133
-377.888	28.461	-0.023	0.020
-376.873	-172.925	-0.230	0.007
-375.858	-95.764	-0.317	0.085
-374.844	-200.000	0.005	0.260
-373.829	-200.000	-0.018	0.110
-372.815	321.450	0.034	-0.065
-371.800	63.542	0.247	-0.248
-370.785	56.169	0.258	-0.251
-369.771	656.379	-0.124	-0.319
-368.756	-166.664	-0.129	-0.005
-367.742	130.327	0.053	0.067
-366.727	-200.000	0.002	0.176
-365.712	101.814	0.159	-0.185
-364.698	-14.196	0.248	-0.160
-363.683	26.459	-0.410	0.343
-362.669	517.910	0.098	-0.230
-361.654	-55.388	0.088	-0.040
-360.639	-113.005	-0.116	0.023
-359.625	-200.000	-0.200	0.000
-358.610	266.469	0.094	0.165
-357.596	243.635	0.104	-0.175
-356.581	93.019	0.177	0.200
-355.566	-200.000	-0.008	-0.086
-354.552	800.000	-0.077	0.287
-353.537	-43.904	0.119	0.060
-352.523	14.823	0.094	-0.074
-351.508	-200.000	0.002	-0.160
-350.493	116.548	0.149	0.183
-349.479	736.980	-0.086	0.230
-348.464	800.000	0.158	0.535
-347.450	-87.880	-0.315	-0.095
-346.435	10.060	-0.124	-0.094
-345.420	-200.000	0.065	-0.299
-344.406	-81.068	-0.240	-0.079
-343.391	-200.000	-0.045	0.283
-342.377	-173.318	0.352	0.011
-341.362	-32.520	-0.086	0.048
-340.348	-20.042	0.253	-0.156
-339.333	800.000	0.071	0.202
-338.318	199.133	0.108	-0.166
-337.304	29.027	0.043	-0.036
-336.289	-129.347	0.063	-0.009
-335.275	126.725	-0.071	-0.090
-334.260	-85.447	-0.293	-0.091
-333.245	-15.190	0.440	-0.281
-332.231	58.122	0.154	0.151
-331.216	-110.135	-0.091	0.019
-330.202	-200.000	0.036	0.263
-329.187	-200.000	-0.013	-0.126
-328.172	-200.000	0.032	-0.185
-327.158	84.928	0.235	0.257
-326.143	-113.077	-0.193	-0.038
-325.129	-62.364	0.284	0.118
-324.114	105.387	-0.069	0.081
-323.099	-34.701	-0.237	0.130
-322.085	44.632	-0.191	-0.175
-321.070	-12.979	0.221	0.143
-320.056	417.767	0.024	0.052
-319.041	-18.768	-0.363	0.226
-318.026	127.361	0.186	0.236
-317.012	800.000	0.083	-0.244
-315.997	-139.606	-0.217	0.023
-314.983	-200.000	-0.001	-0.088
-313.968	186.686	-0.125	-0.186
-312.953	-43.683	-0.230	-0.116
-311.939	-47.622	0.154	-0.075
-310.924	-74.414	0.119	-0.043
-309.910	290.882	-0.076	-0.138
-308.895	-61.910	0.397	0.166
-307.880	308.274	0.071	-0.132
-306.866	0.501	0.119	0.085
-305.851	-39.902	0.086	0.045
-304.837	-102.105	0.417	0.100
-303.822	-164.563	0.200	-0.009
-302.807	542.520	-0.100	-0.237
-301.793	-47.899	0.118	-0.057
-300.778	-135.739	0.249	0.029
-299.764	-200.000	0.007	-0.082
-298.749	-176.416	0.192	0.005
-297.735	69.885	-0.153	0.157
-296.720	-30.724	0.159	0.090
-295.705	636.675	-0.083	0.210
-294.691	638.195	-0.114	-0.289
-293.676	-29.316	-0.273	-0.156
-292.662	-186.759	-0.163	0.002
-291.647	800.000	0.081	0.349
-290.632	47.603	-0.373	-0.348
-289.618	-23.404	0.157	0.094
-288.603	800.000	0.064	0.188
-287.589	12.822	-0.111	0.086
-286.574	-81.935	0.215	0.070
-285.559	183.934	-0.159	0.235
-284.545	-200.000	0.029	-0.128
-283.530	-1.904	0.157	-0.110
-282.516	17.669	-0.086	-0.068
-281.501	664.399	0.039	-0.099
-280.486	340.769	0.045	0.088
-279.472	187.410	0.159	0.236
-278.457	5.557	-0.147	0.108
-277.443	164.783	-0.107	0.151
-276.428	-11.990	-0.175	-0.114
-275.413	-200.000	-0.013	-0.122
-274.399	-200.000	-0.016	-0.211
-273.384	158.498	-0.034	0.047
-272.370	257.322	0.032	-0.054
-271.355	800.000	-0.054	-0.155
-270.340	-37.208	0.043	0.023
-269.326	-134.153	0.256	0.031
-268.311	30.746	0.313	-0.267
-267.297	-32.168	-0.236	-0.132
-266.282	204.253	0.231	0.356
-265.267	-44.548	0.214	-0.107
-264.253	-200.000	0.016	-0.232
-263.238	-151.730	-0.012	-0.001
-262.224	-200.000	0.011	-0.080
-261.209	-200.000	0.021	0.181
-260.195	-69.226	0.154	0.059
-259.180	-200.000	0.000	-0.061
-258.165	-200.000	-0.004	-0.189
-257.151	-200.000	-0.011	-0.389
-256.136	800.000	-0.069	0.208
-255.122	800.000	-0.040	-0.161
-254.107	-10.578	0.039	-0.026
-253.092	-75.085	0.351	0.125
-252.078	-12.579	-0.110	0.071
-251.063	370.738	0.118	-0.239
-250.049	-200.000	-0.021	-0.221
-249.034	-100.962	-0.238	0.058
-248.019	-59.850	0.165	-0.070
-247.005	251.798	-0.115	-0.196
-245.990	114.216	0.060	-0.073
-244.976	270.206	-0.081	-0.141
-243.961	-26.975	0.274	0.160
-242.946	225.361	0.133	0.215
-241.932	-200.000	0.007	-0.053
-240.917	-200.000	-0.007	0.234
-239.903	-88.242	0.134	0.040
-238.888	-41.607	0.235	-0.120
-237.873	56.730	0.054	-0.052
-236.859	-120.374	0.047	-0.008
-235.844	45.589	0.117	0.108
-234.830	-200.000	0.050	0.278
-233.815	800.000	0.059	0.241
-232.800	48.966	0.156	0.146
-231.786	135.025	0.058	-0.075
-230.771	-44.860	0.110	-0.054
-229.757	-200.000	0.001	-0.113
-228.742	169.023	0.130	-0.184
-227.727	85.467	-0.066	-0.072
-226.713	342.354	0.082	-0.160
-225.698	-8.347	-0.175	0.117
-224.684	-100.320	0.379	-0.094
-223.669	738.108	-0.250	0.668
-222.655	800.000	0.088	0.255
-221.640	-1.094	-0.281	-0.198
-220.625	222.459	-0.199	0.319
-219.611	153.726	0.060	0.082
-218.596	-155.750	0.114	-0.007
-217.582	14.748	0.104	0.081
-216.567	-200.000	-0.000	-0.002
-215.552	-39.624	-0.217	-0.113
-214.538	33.206	-0.304	-0.262
-213.523	-77.375	-0.026	-0.009
-212.509	656.618	-0.028	-0.071
-211.494	-164.055	0.143	0.007
-210.479	800.000	-0.146	-0.518
-209.465	103.132	-0.202	0.236
-208.450	211.093	0.164	0.256
-207.436	173.756	-0.055	0.079
-206.421	-76.826	-0.200	0.070
-205.406	-110.253	-0.242	-0.050
-204.392	-91.188	0.091	0.026
-203.377	115.084	0.037	-0.045
-202.363	800.000	0.065	-0.271
-201.348	-39.313	-0.137	0.071
-200.333	800.000	-0.028	-0.120
-199.319	144.388	0.011	0.014
-198.304	-200.000	0.067	-0.328
-197.290	5.188	0.340	-0.249
-196.275	-79.511	0.106	-0.035
-195.260	-56.935	0.178	-0.078
-194.246	8.114	-0.279	0.208
-193.231	-123.264	0.174	0.028
-192.217	29.980	0.111	0.094
-191.202	800.000	0.049	0.188
-190.187	358.154	0.086	0.170
-189.173	116.678	-0.151	-0.184
-188.158	192.704	-0.216	0.324
-187.144	-200.000	0.045	0.197
-186.129	-200.000	0.020	-0.089
-185.114	419.809	-0.087	-0.185
-184.100	-1.611	-0.383	-0.268
-183.085	-77.294	-0.172	0.060
-182.071	-93.127	0.157	0.044
-181.056	220.637	0.092	0.147
-180.042	800.000	0.058	-0.172
-179.027	-4.702	-0.132	0.090
-178.012	0.114	0.121	-0.086
-176.998	800.000	0.020	0.066
-175.983	-55.524	-0.185	-0.082
-174.969	746.102	0.019	0.051
-173.954	-99.664	-0.220	-0.055
-172.939	18.266	-0.298	0.236
-171.925	286.790	0.148	0.265
-170.910	-151.511	0.326	-0.024
-169.896	-95.924	-0.269	0.071
-168.881	149.099	-0.177	-0.237
-167.866	291.496	-0.143	-0.258
-166.852	-82.221	0.045	-0.014
-165.837	-50.258	0.199	0.094
-164.823	-145.598	0.145	-0.013
-163.808	-66.181	-0.049	0.019
-162.793	202.590	0.174	0.267
-161.779	139.733	0.031	0.040
-160.764	800.000	0.061	0.189
-159.750	-68.331	-0.153	-0.059
-158.735	50.244	-0.177	0.166
-157.720	321.949	0.066	0.124
-156.706	-66.323	-0.204	-0.081
-155.691	13.165	0.120	0.092
-154.677	190.387	-0.169	-0.252
-153.662	421.146	0.132	0.281
-152.647	-43.099	-0.059	0.029
-151.633	500.075	0.134	0.306
-150.618	597.393	0.049	-0.121
-149.604	-33.717	-0.088	0.048
-148.589	-82.201	-0.081	0.026
-147.574	207.084	-0.032	0.049
-146.560	133.430	0.053	-0.068
-145.545	238.600	-0.194	0.320
-144.531	56.213	0.176	-0.170
-143.516	-100.136	0.177	0.044
-142.502	-200.000	-0.012	0.105
-141.487	100.868	0.449	0.518
-140.472	-131.065	-0.127	0.017
-139.458	72.600	0.254	0.262
-138.443	85.764	-0.124	0.136
-137.429	-200.000	-0.009	-0.359
-136.414	168.670	0.079	0.112
-135.399	176.402	-0.097	-0.140
-134.385	-200.000	-0.022	0.350
-133.370	113.234	-0.272	-0.327
-132.356	335.269	0.023	0.044
-131.341	544.853	0.167	0.396
-130.326	800.000	0.061	-0.194
-129.312	-15.748	0.245	-0.155
-128.297	27.117	0.188	0.156
-127.283	36.881	0.062	-0.054
-126.268	800.000	-0.062	0.203
-125.253	154.289	0.015	0.020
-124.239	588.614	-0.066	-0.160
-123.224	-75.635	0.041	0.014
-122.210	-55.400	0.157	-0.070
-121.195	204.925	0.098	0.150
-120.180	-14.951	-0.212	-0.135
