DTS Sentinel unit serial number:	SN413079Multiplexer serial number:	ORYXHardware model number:	OX4-SRSoftware version number:	ORYX F/W v4.00 Oryx Data Collector v3.7.2.0data status	okinstallation	princeton_trtdifferential loss correction	single-endedforward channel	channel 1reverse channel	N/Adate	2019/09/16time	02:54:35forward acquisition time	60.00reverse acquisition time	0.00gamma	496.2192k internal	0.2330k external	0.2330temperature offset calibration	0.9977default loss term (dB/km)	0.3790temperature slope calibration	1.0000multiplexer offset coefficient	1.0000multiplexer slope coefficient	1.0000fibre end	0.00T internal ref (°C)	27.75T ext. ref 1 (°C)	10.39T ext. ref 2 (°C)	22.16length (m)	temperature (°C)	Stokes	anti-Stokes-747.200	-154.790	-0.196	0.013
-746.185	212.356	0.096	0.153
-745.171	268.042	-0.106	-0.187
-744.156	-148.509	-0.353	0.029
-743.142	-54.679	-0.131	0.060
-742.127	800.000	-0.045	-0.183
-741.112	237.288	0.124	-0.208
-740.098	-52.585	0.288	-0.134
-739.083	549.110	0.077	0.185
-738.069	376.352	0.106	0.218
-737.054	-200.000	-0.029	-0.267
-736.039	-200.000	0.011	-0.203
-735.025	-108.973	0.502	0.108
-734.010	-0.916	-0.178	-0.127
-732.996	-200.000	-0.007	0.052
-731.981	-143.049	0.291	0.028
-730.966	81.291	0.052	-0.056
-729.952	60.121	-0.218	-0.217
-728.937	-32.235	0.142	-0.080
-727.923	-9.023	-0.312	0.210
-726.908	-105.515	0.204	0.047
-725.894	89.601	0.121	-0.136
-724.879	701.741	0.156	-0.414
-723.864	-70.117	-0.232	-0.089
-722.850	-91.466	-0.116	-0.033
-721.835	-200.000	-0.026	-0.227
-720.821	60.230	-0.180	-0.179
-719.806	-96.056	0.223	-0.060
-718.791	-63.433	-0.227	-0.094
-717.777	225.898	0.069	-0.112
-716.762	498.642	-0.053	0.124
-715.748	-90.109	-0.243	0.071
-714.733	-82.171	-0.387	-0.127
-713.718	-136.351	0.120	0.014
-712.704	29.919	0.266	-0.228
-711.689	144.100	0.123	-0.164
-710.675	-157.895	0.060	-0.004
-709.660	-200.000	-0.011	-0.191
-708.645	-128.294	-0.255	0.036
-707.631	800.000	0.063	0.240
-706.616	493.357	0.118	-0.273
-705.602	59.277	-0.131	-0.130
-704.587	506.303	0.076	-0.177
-703.572	-21.146	0.257	0.158
-702.558	-88.650	0.229	-0.068
-701.543	800.000	-0.010	0.029
-700.529	402.776	-0.041	0.086
-699.514	-200.000	-0.020	-0.112
-698.499	-118.871	-0.165	0.029
-697.485	-121.866	0.326	-0.054
-696.470	-128.563	-0.070	0.010
-695.456	0.654	0.086	0.062
-694.441	722.816	-0.110	0.295
-693.426	535.584	0.063	-0.151
-692.412	45.553	-0.408	-0.378
-691.397	386.023	0.034	-0.070
-690.383	-200.000	-0.007	-0.076
-689.368	-6.423	0.189	-0.129
-688.354	264.846	-0.089	0.156
-687.339	62.258	-0.067	-0.067
-686.324	-109.775	-0.252	0.053
-685.310	-56.017	-0.207	0.093
-684.295	0.566	-0.240	-0.172
-683.281	23.000	-0.115	-0.095
-682.266	-100.612	-0.171	-0.042
-681.251	-65.053	0.412	-0.167
-680.237	800.000	-0.040	-0.124
-679.222	346.403	0.103	0.203
-678.208	-13.623	-0.176	-0.115
-677.193	378.973	-0.070	0.144
-676.178	-200.000	0.089	-0.529
-675.164	57.236	-0.167	0.164
-674.149	54.077	0.084	-0.081
-673.135	-200.000	0.033	0.251
-672.120	11.575	-0.176	0.136
-671.105	299.409	-0.073	-0.136
-670.091	-101.309	0.151	-0.037
-669.076	-63.023	-0.203	0.084
-668.062	-93.468	-0.207	-0.058
-667.047	-77.792	-0.283	-0.098
-666.032	31.369	-0.131	0.113
-665.018	-75.179	-0.106	0.038
-664.003	-92.572	0.087	0.024
-662.989	-200.000	0.020	-0.238
-661.974	800.000	-0.021	0.063
-660.959	178.763	0.093	-0.137
-659.945	-200.000	-0.014	0.342
-658.930	9.880	0.086	-0.065
-657.916	-164.606	0.241	0.011
-656.901	-62.243	-0.304	0.127
-655.886	-59.598	0.294	-0.126
-654.872	85.286	0.070	-0.077
-653.857	-40.951	-0.154	-0.080
-652.843	54.816	0.056	-0.054
-651.828	800.000	-0.031	0.112
-650.814	-38.635	0.257	-0.136
-649.799	-91.912	-0.190	0.054
-648.784	-54.926	0.221	-0.100
-647.770	-98.921	-0.225	0.057
-646.755	-33.733	0.089	-0.049
-645.741	333.223	0.104	0.202
-644.726	2.227	-0.141	0.102
-643.711	-200.000	-0.049	0.492
-642.697	-163.662	-0.239	-0.011
-641.682	38.229	0.303	-0.271
-640.668	800.000	-0.032	0.110
-639.653	35.928	0.051	0.045
-638.638	-179.642	0.252	0.005
-637.624	-200.000	0.000	0.047
-636.609	90.028	0.200	0.224
-635.595	-147.250	-0.188	0.016
-634.580	-200.000	-0.014	-0.204
-633.565	-200.000	-0.006	-0.039
-632.551	800.000	-0.073	-0.285
-631.536	85.833	0.161	0.178
-630.522	253.265	0.096	0.163
-629.507	337.768	0.061	-0.120
-628.492	-162.698	-0.075	0.004
-627.478	-162.781	-0.155	-0.008
-626.463	115.317	0.259	0.317
-625.449	800.000	-0.054	-0.232
-624.434	-91.215	-0.237	-0.068
-623.419	-115.538	-0.450	-0.085
-622.405	-152.448	0.142	0.010
-621.390	-102.218	-0.259	-0.062
-620.376	-95.299	0.433	-0.117
-619.361	-37.237	0.061	0.033
-618.346	-7.894	-0.059	0.040
-617.332	-200.000	-0.000	0.084
-616.317	-45.551	0.338	-0.168
-615.303	-200.000	0.048	-0.465
-614.288	-84.911	-0.276	0.087
-613.273	-99.126	-0.408	0.104
-612.259	2.153	-0.306	0.221
-611.244	711.290	0.093	0.245
-610.230	387.110	0.179	-0.370
-609.215	-28.360	-0.290	0.167
-608.201	-47.383	0.139	-0.068
-607.186	231.184	-0.087	0.142
-606.171	157.697	0.058	-0.080
-605.157	96.193	-0.114	-0.131
-604.142	-98.367	-0.131	-0.034
-603.128	-200.000	-0.012	0.055
-602.113	-29.435	0.028	0.016
-601.098	-200.000	0.001	0.560
-600.084	-98.964	0.192	-0.049
-599.069	-200.000	-0.014	-0.140
-598.055	126.902	-0.078	0.100
-597.040	325.117	0.155	0.296
-596.025	31.132	-0.083	-0.071
-595.011	-200.000	0.000	0.002
-593.996	67.164	0.131	0.133
-592.982	24.796	0.310	-0.257
-591.967	129.429	0.221	0.282
-590.952	800.000	0.075	-0.247
-589.938	619.162	0.070	-0.176
-588.923	349.294	-0.108	0.214
-587.909	-99.094	0.032	0.008
-586.894	-81.860	-0.219	0.072
-585.879	-137.533	0.091	0.010
-584.865	-200.000	-0.498	0.001
-583.850	-200.000	-0.012	-0.195
-582.836	180.451	-0.084	-0.123
-581.821	-200.000	-0.005	0.071
-580.806	100.968	-0.360	-0.419
-579.792	-26.423	-0.200	-0.117
-578.777	-200.000	0.019	0.170
-577.763	1.026	-0.369	-0.265
-576.748	800.000	-0.093	0.299
-575.733	298.782	0.078	0.144
-574.719	-62.417	0.208	0.086
-573.704	24.902	0.213	-0.176
-572.690	-125.814	-0.238	0.036
-571.675	46.945	-0.067	-0.063
-570.661	44.769	-0.238	0.219
-569.646	800.000	0.068	-0.199
-568.631	104.633	-0.106	-0.125
-567.617	126.805	0.180	-0.227
-566.602	291.478	0.138	0.251
-565.588	-45.657	-0.284	-0.140
-564.573	-200.000	-0.107	-0.000
-563.558	-57.278	0.270	0.119
-562.544	-116.046	-0.075	-0.014
-561.529	-79.874	0.197	-0.066
-560.515	271.922	0.074	-0.130
-559.500	-10.104	-0.087	-0.058
-558.485	-2.933	-0.011	0.008
-557.471	800.000	-0.092	-0.269
-556.456	-118.766	0.152	0.027
-555.442	-73.214	0.394	-0.144
-554.427	-43.136	0.113	-0.057
-553.412	-200.000	0.012	-0.452
-552.398	11.518	-0.216	0.166
-551.383	-70.083	-0.187	0.071
-550.369	219.893	-0.086	0.138
-549.354	800.000	-0.131	0.407
-548.339	-69.770	0.070	0.027
-547.325	-70.194	0.279	-0.106
-546.310	384.446	-0.172	-0.353
-545.296	201.020	-0.123	-0.189
-544.281	-28.839	0.295	0.170
-543.266	290.711	-0.076	0.138
-542.252	-166.252	0.158	0.007
-541.237	-3.457	0.230	0.160
-540.223	16.346	-0.103	0.081
-539.208	800.000	-0.121	0.412
-538.193	-200.000	-0.065	-0.523
-537.179	-122.357	-0.195	0.032
-536.164	291.735	-0.167	0.303
-535.150	58.108	0.055	-0.054
-534.135	-78.868	-0.169	0.057
-533.121	800.000	0.069	0.195
-532.106	-200.000	0.008	0.047
-531.091	-13.814	-0.154	0.099
-530.077	-200.000	-0.017	-0.247
-529.062	-6.884	0.108	-0.073
-528.048	127.569	-0.114	-0.145
-527.033	773.349	0.150	-0.407
-526.018	160.462	-0.131	-0.183
-525.004	199.563	0.120	0.183
-523.989	800.000	-0.054	-0.234
-522.975	148.179	0.112	-0.151
-521.960	800.000	0.063	-0.234
-520.945	-79.853	0.170	-0.057
-519.931	-97.800	0.440	-0.113
-518.916	-200.000	-0.026	0.126
-517.902	-200.000	-0.013	-0.069
-516.887	-104.717	-0.205	-0.047
-515.872	-158.566	0.194	-0.011
-514.858	56.794	-0.140	-0.136
-513.843	-200.000	0.010	-0.167
-512.829	227.761	0.058	-0.093
-511.814	-135.217	-0.211	0.025
-510.799	-200.000	0.034	0.322
-509.785	15.646	-0.107	-0.084
-508.770	-200.000	-0.020	-0.197
-507.756	-58.315	-0.163	-0.071
-506.741	-69.080	0.085	-0.032
-505.726	33.154	0.103	0.089
-504.712	42.585	-0.157	0.143
-503.697	800.000	-0.110	-0.311
-502.683	-200.000	-0.033	0.280
-501.668	-192.819	0.197	-0.002
-500.653	117.096	0.074	0.090
-499.639	93.077	0.276	-0.311
-498.624	-93.125	0.292	0.081
-497.610	322.124	-0.185	-0.350
-496.595	30.225	-0.137	0.117
-495.581	-92.218	0.076	-0.022
-494.566	-200.000	0.006	-0.230
-493.551	-174.141	0.184	-0.005
-492.537	-70.838	-0.321	-0.121
-491.522	800.000	-0.048	0.198
-490.508	593.855	-0.059	-0.145
-489.493	-18.179	-0.098	-0.061
-488.478	669.340	-0.076	0.196
-487.464	342.234	0.104	-0.202
-486.449	60.124	0.202	-0.199
-485.435	-158.177	0.076	0.004
-484.420	-152.673	0.211	-0.015
-483.405	-4.938	-0.255	0.175
-482.391	521.633	-0.093	-0.217
-481.376	-200.000	0.038	0.342
-480.362	668.366	-0.126	-0.325
-479.347	115.684	-0.206	-0.250
-478.332	-196.879	-0.250	-0.002
-477.318	-91.110	0.302	-0.086
-476.303	-149.266	-0.313	-0.025
-475.289	-150.964	0.114	0.009
-474.274	-142.715	-0.298	0.029
-473.259	28.723	-0.121	-0.102
-472.245	5.237	-0.060	-0.044
-471.230	-9.178	0.105	0.070
-470.216	168.680	0.159	-0.225
-469.201	53.195	-0.053	0.051
-468.186	-15.267	0.221	0.141
-467.172	-153.075	0.150	0.011
-466.157	445.535	0.010	-0.022
-465.143	7.231	0.286	-0.213
-464.128	244.565	-0.081	-0.136
-463.113	800.000	0.058	0.240
-462.099	800.000	0.101	0.340
-461.084	-200.000	0.033	0.168
-460.070	237.576	0.074	-0.123
-459.055	-85.135	-0.103	0.032
-458.040	-69.637	-0.131	0.050
-457.026	-33.014	0.193	0.107
-456.011	-46.053	-0.117	0.057
-454.997	557.121	0.097	-0.233
-453.982	302.253	-0.080	-0.147
-452.968	58.405	0.079	-0.077
-451.953	-200.000	-0.067	0.379
-450.938	-200.000	-0.024	-0.225
-449.924	-108.404	-0.217	0.047
-448.909	800.000	-0.014	0.048
-447.895	87.899	0.056	-0.062
-446.880	800.000	0.061	-0.240
-445.865	96.583	-0.076	0.086
-444.851	-91.775	-0.057	0.016
-443.836	-76.756	-0.223	0.078
-442.822	588.274	0.096	0.235
-441.807	-112.080	-0.325	-0.065
-440.792	345.306	-0.042	0.081
-439.778	202.545	0.035	0.053
-438.763	236.407	-0.095	-0.157
-437.749	269.171	-0.045	-0.078
-436.734	-109.011	0.182	-0.039
-435.719	72.772	0.151	-0.157
-434.705	-33.617	0.140	0.077
-433.690	-196.259	-0.022	0.000
-432.676	-27.884	-0.345	0.199
-431.661	135.984	0.066	0.086
-430.646	-17.445	-0.127	-0.079
-429.632	800.000	-0.015	-0.056
-428.617	178.193	-0.193	-0.280
-427.603	53.083	0.099	-0.094
-426.588	-200.000	0.022	0.098
-425.573	-8.470	-0.232	0.155
-424.559	-200.000	0.023	0.300
-423.544	130.161	-0.208	0.264
-422.530	232.638	0.092	-0.151
-421.515	-160.865	-0.164	0.009
-420.500	589.599	0.186	0.455
-419.486	-200.000	0.012	0.205
-418.471	-98.862	-0.299	0.076
-417.457	412.408	0.054	0.114
-416.442	29.294	-0.393	-0.332
-415.428	800.000	-0.061	-0.213
-414.413	800.000	-0.121	0.331
-413.398	-200.000	-0.032	-0.269
-412.384	64.887	-0.123	-0.123
-411.369	202.315	-0.181	0.278
-410.355	-40.984	-0.135	-0.069
-409.340	-10.653	-0.085	-0.056
-408.325	-200.000	0.004	-0.122
-407.311	-79.078	0.209	0.070
-406.296	-83.317	0.071	0.023
-405.282	665.257	-0.069	-0.177
-404.267	800.000	-0.058	0.218
-403.252	-9.362	-0.330	0.219
-402.238	-200.000	0.017	0.200
-401.223	-91.854	-0.218	0.061
-400.209	132.952	0.087	0.111
-399.194	-167.135	0.430	-0.017
-398.179	-27.951	0.019	0.011
-397.165	29.324	-0.114	-0.096
-396.150	-44.182	-0.180	-0.090
-395.136	6.605	-0.213	-0.157
-394.121	-200.000	-0.006	-0.398
-393.106	93.290	0.177	0.199
-392.092	-8.945	0.344	-0.229
-391.077	-36.562	0.347	-0.186
-390.063	-200.000	0.007	-0.065
-389.048	2.001	-0.216	0.155
-388.033	226.254	-0.151	0.243
-387.019	255.546	-0.308	-0.524
-386.004	79.360	0.142	-0.151
-384.990	-18.339	0.331	-0.205
-383.975	423.540	0.087	-0.185
-382.960	239.871	-0.112	-0.185
-381.946	-81.817	0.221	0.072
-380.931	13.422	-0.048	0.037
-379.917	32.758	0.170	-0.146
-378.902	-0.012	-0.138	0.098
-377.888	-25.981	-0.483	0.282
-376.873	-42.281	0.031	-0.016
-375.858	-39.745	-0.216	-0.112
-374.844	-200.000	-0.010	-0.289
-373.829	-200.000	-0.001	-0.024
-372.815	-43.468	0.257	0.129
-371.800	214.296	0.200	0.315
-370.785	153.110	0.122	-0.165
-369.771	-142.454	0.566	-0.055
-368.756	-113.401	-0.136	0.027
-367.742	342.461	-0.035	0.068
-366.727	-94.574	0.375	-0.101
-365.712	-45.606	-0.119	0.058
-364.698	332.370	-0.104	0.200
-363.683	79.755	-0.101	0.108
-362.669	506.533	-0.021	-0.048
-361.654	31.437	-0.177	0.151
-360.639	-200.000	0.008	-0.136
-359.625	-200.000	0.078	-0.355
-358.610	-166.676	0.166	0.007
-357.596	29.650	0.323	-0.273
-356.581	83.251	0.186	-0.201
-355.566	21.488	-0.272	0.220
-354.552	-200.000	0.028	-0.203
-353.537	-200.000	-0.013	-0.093
-352.523	800.000	-0.066	0.242
-351.508	-111.746	-0.208	0.042
-350.493	-150.400	0.138	-0.011
-349.479	23.147	0.265	-0.216
-348.464	-200.000	-0.027	-0.330
-347.450	-101.774	-0.140	0.034
-346.435	-13.570	-0.130	0.084
-345.420	-76.826	0.185	0.064
-344.406	-200.000	-0.027	0.380
-343.391	18.449	0.305	-0.241
-342.377	800.000	0.069	-0.268
-341.362	52.596	0.218	0.206
-340.348	78.460	-0.053	0.057
-339.333	-88.609	-0.220	0.065
-338.318	-200.000	-0.024	-0.205
-337.304	-56.212	0.395	0.174
-336.289	-88.979	-0.139	0.041
-335.275	86.296	0.180	0.197
-334.260	26.947	0.110	-0.091
-333.245	-200.000	0.014	0.294
-332.231	53.245	-0.227	0.215
-331.216	-134.973	-0.066	-0.008
-330.202	-49.695	-0.351	0.165
-329.187	-100.034	-0.112	-0.028
-328.172	-200.000	-0.005	0.332
-327.158	-84.223	0.129	0.040
-326.143	217.473	0.166	0.263
-325.129	-185.725	-0.120	-0.002
-324.114	-17.528	-0.163	-0.102
-323.099	-200.000	-0.034	-0.201
-322.085	84.875	0.106	-0.115
-321.070	79.021	0.124	-0.132
-320.056	-172.339	-0.254	-0.008
-319.041	9.139	-0.203	-0.152
-318.026	59.010	0.126	-0.122
-317.012	800.000	0.035	0.136
-315.997	-27.861	-0.088	-0.050
-314.983	-200.000	-0.033	-0.170
-313.968	95.647	-0.165	-0.186
-312.953	61.758	-0.046	0.046
-311.939	800.000	-0.054	-0.158
-310.924	-200.000	-0.020	-0.225
-309.910	-4.208	0.319	-0.218
-308.895	-84.842	-0.279	-0.087
-307.880	-69.337	-0.173	0.066
-306.866	-126.399	0.366	0.054
-305.851	-88.902	0.438	-0.129
-304.837	-200.000	-0.032	-0.216
-303.822	-200.000	0.022	0.107
-302.807	66.371	0.209	-0.210
-301.793	-200.000	0.057	0.288
-300.778	800.000	-0.036	-0.135
-299.764	800.000	-0.021	-0.086
-298.749	242.049	0.175	0.290
-297.735	17.961	0.041	0.033
-296.720	800.000	-0.102	-0.323
-295.705	-200.000	-0.057	0.437
-294.691	800.000	-0.059	-0.215
-293.676	-200.000	-0.002	0.089
-292.662	68.052	0.187	0.189
-291.647	149.078	0.038	-0.050
-290.632	-154.465	-0.173	-0.011
-289.618	800.000	-0.129	0.407
-288.603	-49.208	0.072	-0.034
-287.589	36.620	0.067	0.058
-286.574	800.000	0.067	0.195
-285.559	-173.038	0.127	0.004
-284.545	87.705	0.213	-0.233
-283.530	-3.790	-0.128	0.088
-282.516	394.017	-0.138	0.285
-281.501	-197.019	-0.325	0.002
-280.486	-42.667	-0.204	0.102
-279.472	156.071	0.082	-0.112
-278.457	-64.501	-0.149	0.060
-277.443	367.309	0.185	0.369
-276.428	-49.279	0.296	0.140
-275.413	225.936	0.212	0.340
-274.399	-135.033	0.243	0.029
-273.384	-149.451	0.131	0.010
-272.370	800.000	-0.034	0.122
-271.355	-200.000	0.001	0.055
-270.340	-15.350	0.095	-0.060
-269.326	119.363	-0.069	0.085
-268.311	-137.928	0.215	0.024
-267.297	-144.173	-0.074	-0.007
-266.282	-174.170	-0.134	0.004
-265.267	-90.333	-0.218	0.062
-264.253	299.565	0.191	-0.347
-263.238	126.847	0.159	0.199
-262.224	-38.599	0.161	0.084
-261.209	-200.000	0.065	-0.515
-260.195	-6.943	-0.191	0.128
-259.180	-1.740	-0.138	0.096
-258.165	163.580	0.204	-0.283
-257.151	-41.030	-0.058	0.030
-256.136	94.442	-0.081	0.091
-255.122	-14.936	0.261	-0.166
-254.107	57.349	0.089	-0.086
-253.092	-200.000	0.031	0.168
-252.078	-103.652	-0.124	0.029
-251.063	-70.648	-0.142	-0.053
-250.049	-34.999	-0.088	-0.047
-249.034	-200.000	-0.006	-0.274
-248.019	222.335	-0.118	-0.188
-247.005	-158.100	0.179	-0.010
-245.990	-32.395	0.217	-0.120
-244.976	111.307	0.105	0.124
-243.961	21.380	0.057	0.046
-242.946	67.219	0.356	-0.358
-241.932	255.224	-0.065	-0.110
-240.917	589.320	-0.089	0.216
-239.903	-200.000	-0.037	-0.175
-238.888	-200.000	-0.014	0.225
-237.873	-103.479	0.188	-0.044
-236.859	5.012	0.167	-0.121
-235.844	-71.550	-0.383	0.141
-234.830	553.610	-0.106	0.251
-233.815	300.162	-0.040	-0.073
-232.800	-200.000	0.003	-0.027
-231.786	25.552	0.063	-0.052
-230.771	165.663	0.147	0.205
-229.757	45.904	-0.023	0.021
-228.742	-80.036	-0.082	0.027
-227.727	-200.000	-0.099	0.474
-226.713	-14.924	-0.257	-0.163
-225.698	-200.000	0.041	-0.251
-224.684	7.121	0.090	0.066
-223.669	800.000	0.088	-0.294
-222.655	-200.000	0.018	0.116
-221.640	800.000	-0.148	0.501
-220.625	251.177	0.081	-0.135
-219.611	-40.259	0.097	0.050
-218.596	800.000	-0.042	0.159
-217.582	102.171	-0.172	0.199
-216.567	120.613	-0.121	0.148
-215.552	-126.492	-0.149	0.022
-214.538	-90.026	-0.152	-0.044
-213.523	-173.611	0.467	-0.014
-212.509	-114.642	-0.216	0.041
-211.494	800.000	0.027	-0.098
-210.479	-200.000	-0.042	0.204
-209.465	-200.000	-0.010	0.223
-208.450	-200.000	0.000	-0.132
-207.436	27.490	0.102	-0.085
-206.421	53.560	-0.120	0.113
-205.406	69.979	-0.162	0.164
-204.392	348.743	0.263	0.511
-203.377	90.441	0.067	-0.074
-202.363	184.973	-0.099	0.144
-201.348	-25.187	0.073	0.043
-200.333	84.998	-0.098	0.106
-199.319	229.780	-0.104	0.167
-198.304	185.205	-0.124	0.181
-197.290	-95.859	0.047	0.012
-196.275	-106.666	0.244	-0.054
-195.260	-200.000	-0.071	0.366
-194.246	-200.000	0.003	0.091
-193.231	123.496	0.072	0.089
-192.217	147.448	0.085	0.113
-191.202	-8.955	-0.077	-0.051
-190.187	800.000	0.078	0.213
-189.173	-68.573	0.200	0.076
-188.158	-48.775	-0.106	0.050
-187.144	800.000	-0.098	0.284
-186.129	187.223	0.122	-0.179
-185.114	-200.000	-0.006	-0.237
-184.100	-104.089	-0.111	-0.025
-183.085	-200.000	0.011	-0.154
-182.071	-152.503	0.277	0.020
-181.056	11.033	0.083	0.062
-180.042	800.000	0.060	-0.170
-179.027	-65.968	0.035	-0.014
-178.012	-200.000	-0.022	-0.327
-176.998	-185.916	-0.192	0.003
-175.983	-19.717	-0.325	0.198
-174.969	60.002	-0.106	0.103
-173.954	66.101	0.184	-0.184
-172.939	152.896	0.251	0.337
-171.925	55.615	-0.098	0.094
-170.910	-7.335	0.146	0.097
-169.896	-200.000	0.012	-0.107
-168.881	173.679	0.266	-0.378
-167.866	122.807	0.082	-0.101
-166.852	-188.422	0.432	0.005
-165.837	600.824	-0.028	0.070
-164.823	316.227	-0.129	0.240
-163.808	-118.985	0.101	0.018
-162.793	5.630	0.252	0.183
-161.779	-73.079	-0.065	-0.023
-160.764	-71.908	-0.145	-0.053
-159.750	-200.000	0.013	-0.410
-158.735	-138.231	0.078	-0.008
-157.720	800.000	-0.078	0.314
-156.706	800.000	0.045	0.172
-155.691	-186.052	0.267	-0.004
-154.677	-200.000	0.004	0.024
-153.662	155.615	-0.215	-0.291
-152.647	6.340	-0.267	-0.195
-151.633	-9.143	0.058	0.038
-150.618	206.377	0.150	0.230
-149.604	223.459	0.108	0.172
-148.589	162.570	0.147	0.203
-147.574	-81.059	0.265	-0.086
-146.560	-45.258	-0.214	0.104
-145.545	-200.000	0.017	0.226
-144.531	-200.000	0.048	-0.446
-143.516	-134.782	0.217	-0.026
-142.502	-85.864	-0.148	-0.045
-141.487	-23.942	0.356	0.209
-140.472	774.271	-0.024	-0.065
-139.458	269.268	-0.208	0.358
-138.443	-52.657	0.171	0.078
-137.429	-20.266	0.147	0.089
-136.414	-38.075	-0.159	-0.083
-135.399	-52.491	-0.151	0.069
-134.385	598.755	0.095	0.233
-133.370	-114.918	-0.182	-0.034
-132.356	-97.524	-0.233	0.059
-131.341	225.294	-0.086	-0.137
-130.326	-85.036	0.085	0.026
-129.312	70.743	-0.061	-0.062
-128.297	800.000	-0.066	0.217
-127.283	20.323	0.204	0.162
-126.268	-51.269	-0.361	0.166
-125.253	800.000	-0.041	-0.157
-124.239	233.063	0.127	0.206
-123.224	-200.000	0.042	-0.346
-122.210	21.881	0.318	0.254
-121.195	-200.000	-0.026	-0.222
-120.180	800.000	0.118	0.331
