DTS Sentinel unit serial number:	SN413079Multiplexer serial number:	ORYXHardware model number:	OX4-SRSoftware version number:	ORYX F/W v4.00 Oryx Data Collector v3.7.2.0data status	okinstallation	princeton_trtdifferential loss correction	single-endedforward channel	channel 1reverse channel	N/Adate	2019/09/16time	18:38:35forward acquisition time	60.00reverse acquisition time	0.00gamma	496.2192k internal	0.2306k external	0.2306temperature offset calibration	0.9942default loss term (dB/km)	0.3790temperature slope calibration	1.0000multiplexer offset coefficient	1.0000multiplexer slope coefficient	1.0000fibre end	0.00T internal ref (°C)	36.34T ext. ref 1 (°C)	0.03T ext. ref 2 (°C)	29.77length (m)	temperature (°C)	Stokes	anti-Stokes-747.200	-117.662	0.357	-0.065
-746.185	-74.590	-0.287	0.105
-745.171	-200.000	0.048	0.439
-744.156	270.185	-0.152	0.271
-743.142	86.065	-0.122	-0.137
-742.127	-150.660	-0.305	0.024
-741.112	4.807	0.069	-0.052
-740.098	224.740	0.186	0.306
-739.083	-200.000	-0.043	0.216
-738.069	134.379	0.146	0.193
-737.054	45.922	-0.135	-0.127
-736.039	-200.000	0.038	-0.384
-735.025	235.108	0.119	0.200
-734.010	-108.915	-0.167	0.036
-732.996	237.245	-0.138	-0.233
-731.981	-183.222	-0.077	0.001
-730.966	142.371	0.168	-0.227
-729.952	-200.000	0.012	-0.180
-728.937	-200.000	0.029	-0.210
-727.923	218.797	0.116	0.188
-726.908	-3.026	0.086	0.061
-725.894	-88.739	-0.116	-0.035
-724.879	800.000	-0.031	0.104
-723.864	-127.270	-0.470	0.070
-722.850	0.968	-0.097	0.071
-721.835	800.000	0.123	0.480
-720.821	700.125	-0.054	-0.144
-719.806	-200.000	0.010	-0.084
-718.791	-95.532	-0.104	-0.028
-717.777	304.820	0.106	-0.200
-716.762	302.965	-0.123	-0.232
-715.748	-200.000	-0.041	-0.298
-714.733	313.202	-0.069	0.131
-713.718	313.111	0.024	-0.046
-712.704	-117.980	0.111	0.020
-711.689	-200.000	0.008	-0.469
-710.675	800.000	0.124	-0.363
-709.660	-49.891	0.244	-0.118
-708.645	-200.000	-0.074	0.345
-707.631	-35.771	0.232	0.128
-706.616	40.704	0.281	0.257
-705.602	31.469	-0.251	0.219
-704.587	-121.188	-0.248	0.042
-703.572	800.000	-0.041	0.169
-702.558	21.623	0.113	0.094
-701.543	800.000	-0.046	0.177
-700.529	-47.660	0.113	-0.056
-699.514	-200.000	-0.030	0.136
-698.499	-55.502	0.205	-0.093
-697.485	250.853	-0.051	-0.089
-696.470	-74.505	-0.174	-0.064
-695.456	-43.308	0.144	-0.074
-694.441	-200.000	-0.003	0.032
-693.426	800.000	0.055	-0.209
-692.412	149.884	-0.128	-0.176
-691.397	-9.381	0.176	-0.120
-690.383	-200.000	0.122	0.663
-689.368	-200.000	0.064	0.299
-688.354	64.162	-0.155	-0.158
-687.339	-81.424	-0.299	-0.100
-686.324	-131.010	-0.301	0.041
-685.310	-200.000	-0.039	-0.241
-684.295	108.604	-0.308	-0.373
-683.281	536.269	-0.080	-0.193
-682.266	-71.687	-0.080	0.030
-681.251	-32.003	-0.126	0.072
-680.237	-51.051	-0.104	-0.049
-679.222	-151.136	-0.130	-0.010
-678.208	262.837	-0.099	0.174
-677.193	-200.000	0.093	0.450
-676.178	-11.881	-0.158	-0.105
-675.164	14.695	-0.222	-0.176
-674.149	316.197	0.017	-0.032
-673.135	-70.210	0.394	-0.152
-672.120	12.139	-0.109	-0.085
-671.105	-140.719	0.095	0.010
-670.091	-52.787	0.058	0.027
-669.076	206.392	-0.019	-0.030
-668.062	478.946	0.081	-0.185
-667.047	539.756	0.067	-0.161
-666.032	113.123	-0.140	0.172
-665.018	-105.791	-0.222	-0.051
-664.003	129.614	0.048	0.063
-662.989	-8.686	0.162	0.110
-661.974	800.000	0.111	0.410
-660.959	6.896	0.142	0.107
-659.945	800.000	0.094	-0.325
-658.930	-160.501	-0.088	0.005
-657.916	-200.000	-0.008	0.055
-656.901	-200.000	0.016	-0.190
-655.886	-107.814	0.116	-0.026
-654.872	-89.606	-0.199	0.059
-653.857	-200.000	-0.058	0.327
-652.843	401.414	0.098	-0.208
-651.828	-200.000	0.072	-0.382
-650.814	286.117	-0.155	-0.283
-649.799	-200.000	0.001	0.028
-648.784	-123.869	0.079	-0.013
-647.770	261.910	0.060	0.106
-646.755	-26.277	-0.212	0.126
-645.741	45.648	0.339	0.317
-644.726	-62.497	0.032	-0.013
-643.711	5.591	-0.069	-0.052
-642.697	-23.051	-0.084	0.052
-641.682	-200.000	0.010	-0.195
-640.668	101.990	0.030	-0.035
-639.653	141.179	0.161	-0.216
-638.638	222.198	0.052	-0.086
-637.624	-137.895	0.475	-0.054
-636.609	800.000	-0.065	-0.267
-635.595	504.944	-0.211	-0.495
-634.580	499.118	0.151	-0.353
-633.565	-78.011	-0.357	0.125
-632.551	262.210	-0.096	-0.169
-631.536	-63.159	-0.067	-0.028
-630.522	25.021	-0.066	0.056
-629.507	-200.000	-0.025	0.149
-628.492	-200.000	-0.009	-0.185
-627.478	194.748	-0.115	0.177
-626.463	-38.049	-0.180	-0.096
-625.449	800.000	0.024	-0.104
-624.434	524.748	-0.110	-0.261
-623.419	319.320	-0.077	0.148
-622.405	-200.000	-0.039	-0.313
-621.390	72.756	0.013	-0.013
-620.376	-200.000	-0.021	-0.093
-619.361	800.000	-0.130	0.520
-618.346	131.959	0.107	-0.140
-617.332	44.296	0.201	-0.187
-616.317	348.555	-0.098	0.196
-615.303	800.000	-0.019	0.066
-614.288	-61.439	0.210	0.089
-613.273	-73.580	-0.115	-0.042
-612.259	-32.590	0.131	0.074
-611.244	64.991	-0.184	-0.188
-610.230	-69.173	0.154	-0.060
-609.215	43.258	-0.183	0.169
-608.201	-31.801	-0.205	0.116
-607.186	-112.798	0.079	0.016
-606.171	-56.343	0.314	0.141
-605.157	800.000	0.073	-0.257
-604.142	115.167	0.093	0.115
-603.128	11.981	0.219	0.170
-602.113	-200.000	-0.008	-0.087
-601.098	-50.883	-0.204	-0.097
-600.084	27.489	-0.123	0.105
-599.069	-57.110	0.332	0.148
-598.055	-200.000	-0.028	-0.139
-597.040	120.854	-0.061	-0.077
-596.025	85.237	0.075	-0.083
-595.011	448.360	-0.075	-0.167
-593.996	353.267	-0.049	-0.098
-592.982	-200.000	-0.005	-0.082
-591.967	-108.740	0.243	0.053
-590.952	-61.766	-0.258	-0.109
-589.938	108.110	0.157	-0.189
-588.923	-169.341	-0.012	-0.000
-587.909	-143.132	0.118	0.011
-586.894	-200.000	-0.055	-0.295
-585.879	-200.000	-0.016	-0.288
-584.865	427.775	0.103	0.225
-583.850	152.859	-0.134	-0.185
-582.836	75.244	0.150	0.160
-581.821	544.269	-0.091	-0.219
-580.806	-200.000	-0.015	0.183
-579.792	-157.240	-0.362	0.022
-578.777	-200.000	0.017	0.267
-577.763	60.996	0.199	0.200
-576.748	-38.055	0.210	-0.112
-575.733	192.748	-0.015	-0.022
-574.719	394.646	0.011	-0.022
-573.704	-200.000	-0.017	0.451
-572.690	364.827	0.146	-0.298
-571.675	38.684	-0.122	-0.110
-570.661	-93.387	-0.438	0.123
-569.646	800.000	-0.053	-0.169
-568.631	-147.245	0.174	0.015
-567.617	22.202	-0.121	-0.100
-566.602	470.857	0.078	-0.177
-565.588	251.806	-0.095	0.163
-564.573	800.000	0.097	0.413
-563.558	800.000	0.052	0.222
-562.544	54.266	-0.116	-0.112
-561.529	-200.000	-0.003	0.017
-560.515	-200.000	-0.008	-0.096
-559.500	-200.000	-0.028	0.134
-558.485	-67.408	-0.161	-0.064
-557.471	381.639	0.131	-0.273
-556.456	0.995	-0.164	0.119
-555.442	800.000	-0.165	0.493
-554.427	-8.502	-0.433	0.294
-553.412	115.260	0.138	-0.170
-552.398	-124.999	0.062	-0.010
-551.383	-42.697	-0.162	-0.083
-550.369	-173.023	-0.329	-0.010
-549.354	18.814	-0.292	-0.236
-548.339	-150.155	0.256	-0.020
-547.325	800.000	0.048	0.148
-546.310	-200.000	-0.076	-0.467
-545.296	800.000	-0.047	0.170
-544.281	-5.127	-0.125	0.087
-543.266	-108.377	-0.330	0.072
-542.252	-176.741	-0.312	-0.008
-541.237	112.358	-0.188	-0.230
-540.223	186.673	0.087	-0.131
-539.208	800.000	-0.084	0.315
-538.193	325.610	-0.169	-0.327
-537.179	800.000	-0.036	0.107
-536.164	-50.025	-0.174	0.083
-535.150	-200.000	-0.010	-0.239
-534.135	180.739	0.010	-0.015
-533.121	21.631	0.108	-0.089
-532.106	-200.000	-0.054	0.253
-531.091	119.409	-0.024	-0.030
-530.077	800.000	-0.041	0.151
-529.062	3.377	-0.083	-0.061
-528.048	-77.625	0.258	0.090
-527.033	121.824	0.139	0.175
-526.018	-200.000	-0.041	-0.209
-525.004	-33.516	0.177	-0.099
-523.989	-200.000	0.009	0.091
-522.975	113.704	-0.061	-0.075
-521.960	-200.000	-0.014	-0.078
-520.945	-37.409	0.086	-0.046
-519.931	-200.000	-0.053	-0.299
-518.916	-166.414	-0.189	-0.008
-517.902	4.732	-0.530	0.393
-516.887	-118.132	0.216	-0.039
-515.872	800.000	-0.060	-0.177
-514.858	-160.513	-0.203	-0.011
-513.843	14.893	0.172	0.136
-512.829	637.557	0.155	0.397
-511.814	-17.699	-0.314	0.199
-510.799	-66.226	-0.212	-0.085
-509.785	-58.565	-0.143	0.063
-508.770	696.948	0.066	0.176
-507.756	434.339	-0.129	-0.282
-506.741	45.633	-0.200	0.186
-505.726	610.487	-0.073	0.184
-504.712	148.754	-0.011	-0.015
-503.697	-200.000	0.047	0.294
-502.683	800.000	0.049	0.179
-501.668	115.963	-0.251	0.309
-500.653	-200.000	0.051	-0.308
-499.639	-200.000	-0.016	-0.127
-498.624	234.521	0.066	0.109
-497.610	85.953	0.191	-0.212
-496.595	80.406	-0.063	-0.068
-495.581	-119.674	0.154	0.027
-494.566	-60.366	-0.194	-0.083
-493.551	-200.000	0.013	-0.284
-492.537	800.000	-0.080	0.298
-491.522	800.000	0.007	-0.026
-490.508	84.179	-0.249	-0.274
-489.493	-200.000	0.047	0.436
-488.478	380.602	0.118	-0.244
-487.464	-53.440	-0.376	-0.173
-486.449	-12.687	-0.147	0.096
-485.435	800.000	0.094	0.318
-484.420	-200.000	-0.054	-0.282
-483.405	621.054	0.105	-0.267
-482.391	8.033	-0.299	-0.226
-481.376	800.000	-0.046	-0.134
-480.362	800.000	0.111	-0.441
-479.347	-116.693	-0.278	0.051
-478.332	99.829	-0.181	-0.212
-477.318	-145.235	-0.360	-0.033
-476.303	-42.755	0.139	0.071
-475.289	-200.000	0.012	-0.281
-474.274	800.000	-0.072	0.256
-473.259	-102.668	0.306	0.073
-472.245	-200.000	0.047	-0.228
-471.230	-123.253	0.146	-0.023
-470.216	296.893	0.111	0.204
-469.201	-99.493	-0.185	0.047
-468.186	-154.393	-0.161	0.011
-467.172	-108.133	-0.153	0.033
-466.157	-108.284	0.460	0.100
-465.143	31.294	0.165	0.143
-464.128	-200.000	0.008	-0.094
-463.113	-77.956	0.190	-0.066
-462.099	-156.299	0.224	0.014
-461.084	-200.000	0.001	-0.158
-460.070	131.464	0.181	0.234
-459.055	215.331	0.027	-0.044
-458.040	26.619	0.250	0.210
-457.026	-109.890	0.106	0.022
-456.011	-51.176	-0.156	-0.073
-454.997	-105.064	0.119	0.027
-453.982	800.000	0.055	-0.202
-452.968	-104.782	-0.139	-0.032
-451.953	-153.516	0.118	0.008
-450.938	800.000	-0.074	0.243
-449.924	302.974	0.127	0.237
-448.909	122.592	-0.060	0.075
-447.895	-79.593	-0.128	-0.043
-446.880	800.000	-0.048	-0.151
-445.865	-155.036	-0.021	0.001
-444.851	203.161	-0.027	-0.043
-443.836	-200.000	0.005	-0.086
-442.822	478.852	0.015	0.035
-441.807	321.401	0.145	0.278
-440.792	374.296	0.141	0.289
-439.778	800.000	-0.114	0.321
-438.763	800.000	0.009	-0.035
-437.749	-142.595	0.185	-0.018
-436.734	-142.772	-0.142	0.014
-435.719	275.827	0.138	0.246
-434.705	-138.371	-0.264	-0.029
-433.690	800.000	0.066	-0.290
-432.676	-71.950	-0.033	0.012
-431.661	14.982	0.069	-0.054
-430.646	800.000	0.021	0.071
-429.632	-121.364	0.097	0.016
-428.617	22.133	0.253	0.207
-427.603	362.470	0.052	0.104
-426.588	800.000	-0.021	0.091
-425.573	260.014	0.169	0.294
-424.559	227.586	-0.160	-0.261
-423.544	-28.735	-0.066	0.038
-422.530	-18.575	0.149	0.093
-421.515	-164.004	-0.244	-0.011
-420.500	410.507	0.094	0.201
-419.486	800.000	-0.080	-0.225
-418.471	-133.798	0.305	-0.038
-417.457	-47.338	-0.168	0.082
-416.442	23.812	0.133	0.110
-415.428	460.109	-0.042	0.094
-414.413	-170.743	0.326	0.011
-413.398	167.137	0.054	-0.077
-412.384	-80.283	0.386	-0.130
-411.369	-54.447	0.125	0.057
-410.355	-78.560	0.025	-0.008
-409.340	337.809	-0.092	0.180
-408.325	53.186	-0.176	-0.169
-407.311	102.215	0.086	-0.100
-406.296	800.000	-0.053	-0.231
-405.282	85.360	-0.301	-0.332
-404.267	-200.000	0.007	0.043
-403.252	-118.437	0.252	0.045
-402.238	-103.401	-0.348	0.082
-401.223	800.000	-0.067	-0.236
-400.209	206.933	-0.039	-0.061
-399.194	98.339	-0.084	-0.097
-398.179	42.125	0.372	-0.339
-397.165	-40.904	-0.267	0.139
-396.150	-67.711	-0.288	0.113
-395.136	-151.056	-0.120	-0.009
-394.121	-65.920	0.258	-0.104
-393.106	-39.066	-0.028	0.015
-392.092	-101.084	-0.029	-0.007
-391.077	-200.000	0.022	-0.165
-390.063	-55.607	0.118	-0.053
-389.048	-133.358	-0.271	0.034
-388.033	338.292	-0.066	-0.130
-387.019	-103.311	-0.242	0.057
-386.004	-67.765	-0.241	-0.095
-384.990	-200.000	-0.012	0.288
-383.975	-108.399	-0.339	-0.073
-382.960	22.201	-0.111	-0.091
-381.946	54.313	-0.331	-0.319
-380.931	-200.000	0.012	-0.398
-379.917	-33.520	-0.259	-0.143
-378.902	-200.000	0.032	-0.224
-377.888	800.000	0.055	-0.207
-376.873	-79.130	0.327	-0.111
-375.858	255.482	-0.135	0.232
-374.844	-53.293	-0.204	0.094
-373.829	-110.707	0.236	0.049
-372.815	-200.000	-0.001	-0.068
-371.800	-115.486	-0.341	-0.064
-370.785	54.339	-0.229	0.221
-369.771	-109.578	0.229	-0.048
-368.756	777.083	0.126	0.344
-367.742	-145.552	-0.099	-0.009
-366.727	-200.000	-0.016	0.178
-365.712	-92.869	0.198	-0.055
-364.698	489.489	-0.067	-0.153
-363.683	213.407	-0.028	0.044
-362.669	20.182	0.097	-0.078
-361.654	-119.549	0.382	0.066
-360.639	-7.632	0.100	-0.068
-359.625	-200.000	-0.042	0.212
-358.610	165.964	0.056	0.080
-357.596	678.107	0.020	-0.053
-356.581	54.694	0.015	-0.015
-355.566	573.355	0.098	0.240
-354.552	707.720	-0.155	-0.410
-353.537	524.355	-0.014	-0.032
-352.523	-200.000	-0.002	-0.234
-351.508	-64.341	0.058	0.023
-350.493	127.516	-0.150	-0.191
-349.479	181.082	-0.121	0.177
-348.464	-200.000	-0.020	0.306
-347.450	72.159	0.255	0.266
-346.435	800.000	0.191	-0.586
-345.420	-45.111	0.094	0.047
-344.406	-200.000	0.077	0.347
-343.391	800.000	0.057	0.181
-342.377	145.125	-0.221	0.297
-341.362	-13.618	-0.109	-0.071
-340.348	-47.772	0.120	0.058
-339.333	416.671	0.074	0.158
-338.318	-41.995	-0.238	0.122
-337.304	800.000	-0.097	-0.346
-336.289	-81.302	-0.215	-0.071
-335.275	-30.431	-0.268	-0.152
-334.260	131.600	0.079	0.101
-333.245	-200.000	-0.031	-0.265
-332.231	800.000	-0.028	0.115
-331.216	-153.805	0.171	-0.012
-330.202	501.588	-0.036	0.082
-329.187	-53.701	-0.033	0.015
-328.172	9.997	-0.160	-0.122
-327.158	-174.221	-0.169	-0.005
-326.143	-67.034	0.313	-0.124
-325.129	-52.539	0.267	-0.124
-324.114	-10.561	0.178	0.118
-323.099	440.921	0.217	-0.476
-322.085	-200.000	-0.068	-0.335
-321.070	347.644	0.111	-0.218
-320.056	800.000	-0.043	-0.167
-319.041	60.067	0.108	-0.107
-318.026	-200.000	0.009	0.147
-317.012	764.025	0.134	-0.364
-315.997	33.275	-0.180	-0.156
-314.983	-99.284	0.019	0.005
-313.968	105.719	-0.017	-0.020
-312.953	172.690	0.088	0.127
-311.939	61.524	-0.235	-0.233
-310.924	-97.473	0.030	-0.008
-309.910	-102.958	0.230	0.055
-308.895	-200.000	-0.021	0.104
-307.880	143.236	-0.426	0.567
-306.866	-178.248	0.159	-0.004
-305.851	27.556	0.123	-0.103
-304.837	-181.685	0.293	-0.006
-303.822	56.947	0.281	-0.274
-302.807	-200.000	0.031	-0.312
-301.793	309.900	0.166	0.311
-300.778	32.963	0.186	0.161
-299.764	359.456	-0.062	0.123
-298.749	-22.703	0.132	0.080
-297.735	-111.300	-0.331	0.068
-296.720	-200.000	-0.001	-0.022
-295.705	-95.674	0.279	-0.075
-294.691	89.823	-0.088	0.099
-293.676	-15.217	0.184	0.118
-292.662	-77.126	0.030	-0.010
-291.647	-178.989	-0.285	0.006
-290.632	239.778	0.035	0.058
-289.618	125.702	-0.240	0.303
-288.603	-160.635	0.514	-0.027
-287.589	800.000	0.108	-0.333
-286.574	-134.102	-0.306	-0.038
-285.559	75.421	0.235	0.247
-284.545	-131.779	-0.222	0.029
-283.530	-121.004	-0.324	-0.054
-282.516	47.899	0.230	0.214
-281.501	-89.125	0.221	0.065
-280.486	-200.000	0.021	0.101
-279.472	-105.831	0.253	-0.057
-278.457	-200.000	0.030	0.160
-277.443	-97.839	0.199	0.051
-276.428	180.970	0.266	-0.390
-275.413	198.648	0.121	0.185
-274.399	-50.772	0.237	-0.111
-273.384	800.000	0.128	0.402
-272.370	55.081	-0.211	0.203
-271.355	-133.118	0.356	0.045
-270.340	-200.000	0.007	-0.105
-269.326	45.989	-0.229	-0.212
-268.311	518.870	-0.135	-0.316
-267.297	800.000	0.029	-0.083
-266.282	238.004	0.052	-0.086
-265.267	-30.453	-0.011	-0.006
-264.253	-53.987	-0.090	0.041
-263.238	-200.000	0.043	-0.251
-262.224	547.412	0.038	-0.090
-261.209	-115.879	-0.105	0.019
-260.195	-200.000	0.054	-0.288
-259.180	-129.253	-0.102	0.014
-258.165	-70.012	0.244	0.093
-257.151	-33.311	0.131	0.072
-256.136	-45.925	-0.240	-0.118
-255.122	-141.087	-0.440	0.045
-254.107	168.943	0.077	0.110
-253.092	-63.285	-0.236	0.097
-252.078	-141.893	-0.200	-0.020
-251.063	-200.000	0.005	-0.056
-250.049	-83.126	-0.234	0.075
-249.034	732.983	0.026	-0.071
-248.019	287.256	0.018	-0.033
-247.005	-109.021	0.200	0.043
-245.990	29.719	0.268	0.228
-244.976	-7.908	-0.113	-0.076
-243.961	704.460	-0.114	0.300
-242.946	-90.026	0.267	-0.078
-241.932	336.089	-0.209	0.404
-240.917	91.275	-0.129	-0.144
-239.903	69.104	0.240	-0.246
-238.888	-17.468	-0.259	0.162
-237.873	-200.000	-0.034	0.238
-236.859	800.000	0.132	0.446
-235.844	-53.766	-0.211	-0.096
-234.830	-121.446	-0.176	0.029
-233.815	176.333	-0.162	0.235
-232.800	-66.447	0.366	0.145
-231.786	-200.000	-0.003	0.137
-230.771	-200.000	-0.011	0.087
-229.757	-105.909	-0.192	0.043
-228.742	-200.000	0.003	0.035
-227.727	-75.385	0.280	0.100
-226.713	58.606	0.329	0.322
-225.698	-27.524	-0.103	-0.059
-224.684	-117.833	-0.254	-0.045
-223.669	1.909	0.166	0.119
-222.655	40.003	-0.179	-0.160
-221.640	103.405	-0.056	-0.065
-220.625	306.059	0.121	0.225
-219.611	280.499	-0.096	0.171
-218.596	-29.210	0.148	-0.084
-217.582	-77.913	0.347	0.119
-216.567	336.636	0.061	-0.118
-215.552	-172.433	-0.277	-0.009
-214.538	-200.000	-0.026	-0.230
-213.523	-107.549	0.364	0.079
-212.509	6.818	0.162	0.120
-211.494	417.989	0.182	0.388
-210.479	800.000	0.052	0.152
-209.465	64.774	-0.119	0.120
-208.450	800.000	0.094	0.269
-207.436	10.784	0.101	0.076
-206.421	-98.492	0.068	0.017
-205.406	202.027	-0.128	-0.197
-204.392	41.396	-0.162	-0.146
-203.377	7.408	0.263	-0.195
-202.363	-146.311	-0.241	-0.021
-201.348	-200.000	-0.049	0.221
-200.333	800.000	-0.045	-0.169
-199.319	-47.050	0.383	-0.186
-198.304	200.571	-0.097	0.149
-197.290	-200.000	0.010	-0.122
-196.275	-87.754	0.106	-0.032
-195.260	83.626	-0.165	0.179
-194.246	-22.273	0.272	0.164
-193.231	165.054	0.045	-0.063
-192.217	-128.486	-0.135	0.019
-191.202	72.517	-0.118	0.122
-190.187	103.496	-0.124	-0.144
-189.173	-32.008	-0.184	-0.102
-188.158	-17.989	-0.245	0.153
-187.144	-200.000	-0.010	-0.342
-186.129	-136.968	0.308	0.035
-185.114	-200.000	-0.085	0.439
-184.100	5.948	0.260	0.191
-183.085	45.578	0.032	-0.029
-182.071	224.201	0.167	0.269
-181.056	-115.348	0.261	-0.049
-180.042	-79.146	-0.139	-0.047
-179.027	-200.000	-0.061	0.272
-178.012	224.316	0.111	-0.178
-176.998	84.094	-0.144	0.156
-175.983	-32.987	0.035	-0.019
-174.969	-68.262	0.188	-0.073
-173.954	757.023	0.119	-0.321
-172.939	-200.000	-0.018	0.180
-171.925	-127.836	-0.304	-0.044
-170.910	-47.021	-0.062	0.030
-169.896	195.944	0.010	0.015
-168.881	-170.374	-0.047	-0.002
-167.866	-65.876	-0.174	0.069
-166.852	-62.632	-0.059	-0.024
-165.837	-5.417	0.139	0.095
-164.823	128.794	-0.187	-0.237
-163.808	193.314	0.095	-0.143
-162.793	-106.937	0.246	0.054
-161.779	-85.679	0.086	0.026
-160.764	160.114	-0.191	-0.265
-159.750	-105.398	0.273	-0.062
-158.735	-2.668	-0.159	-0.111
-157.720	-129.576	0.426	-0.058
-156.706	31.482	0.045	-0.038
-155.691	-105.474	0.308	-0.069
-154.677	529.284	0.086	-0.202
-153.662	-2.906	0.195	0.136
-152.647	50.909	0.246	0.232
-151.633	800.000	-0.061	0.184
-150.618	119.480	0.049	-0.061
-149.604	-200.000	0.032	-0.157
-148.589	-200.000	-0.038	0.210
-147.574	119.455	0.083	-0.102
-146.560	-119.435	0.194	0.033
-145.545	-50.922	-0.267	0.125
-144.531	92.919	0.077	-0.087
-143.516	-112.497	0.544	-0.108
-142.502	204.210	-0.162	-0.249
-141.487	-101.282	0.091	-0.022
-140.472	-200.000	0.029	-0.198
-139.458	-140.456	0.308	-0.032
-138.443	-200.000	-0.041	0.210
-137.429	383.305	-0.072	-0.147
-136.414	79.873	-0.157	0.168
-135.399	703.359	-0.059	-0.155
-134.385	82.733	-0.116	0.126
-133.370	-26.659	0.195	-0.113
-132.356	343.296	-0.045	-0.087
-131.341	-200.000	0.024	-0.183
-130.326	-109.860	0.299	-0.062
-129.312	-88.971	0.182	-0.053
-128.297	-28.466	-0.071	-0.041
-127.283	87.883	-0.239	-0.263
-126.268	113.427	-0.080	-0.096
-125.253	-123.070	-0.083	-0.013
-124.239	31.219	0.016	-0.014
-123.224	-200.000	0.050	0.279
-122.210	105.532	0.234	0.274
