DTS Sentinel unit serial number:	SN413079Multiplexer serial number:	ORYXHardware model number:	OX4-SRSoftware version number:	ORYX F/W v4.00 Oryx Data Collector v3.7.2.0data status	okinstallation	princeton_trtdifferential loss correction	single-endedforward channel	channel 1reverse channel	N/Adate	2019/09/18time	10:02:35forward acquisition time	60.00reverse acquisition time	0.00gamma	496.2192k internal	0.2330k external	0.2330temperature offset calibration	0.9974default loss term (dB/km)	0.3790temperature slope calibration	1.0000multiplexer offset coefficient	1.0000multiplexer slope coefficient	1.0000fibre end	0.00T internal ref (°C)	27.50T ext. ref 1 (°C)	0.31T ext. ref 2 (°C)	23.97length (m)	temperature (°C)	Stokes	anti-Stokes-747.200	-10.752	-0.094	-0.063
-746.185	-200.000	0.010	0.091
-745.171	800.000	-0.036	-0.130
-744.156	149.644	0.189	-0.258
-743.142	-105.047	-0.171	-0.039
-742.127	69.013	0.189	0.195
-741.112	174.845	-0.107	0.156
-740.098	-121.978	-0.131	-0.022
-739.083	57.278	0.195	0.191
-738.069	-71.591	-0.202	-0.076
-737.054	472.473	0.097	-0.220
-736.039	342.593	-0.127	-0.251
-735.025	-61.592	-0.124	-0.052
-734.010	-24.674	-0.208	-0.124
-732.996	-200.000	0.004	-0.062
-731.981	49.356	-0.145	-0.137
-730.966	125.882	0.345	-0.439
-729.952	-101.344	-0.157	-0.039
-728.937	-162.618	-0.149	-0.007
-727.923	216.481	0.040	0.063
-726.908	9.549	-0.024	0.018
-725.894	-28.337	-0.194	-0.113
-724.879	-200.000	0.008	-0.043
-723.864	800.000	-0.071	-0.265
-722.850	800.000	0.031	-0.132
-721.835	170.638	0.141	-0.203
-720.821	197.756	-0.019	0.029
-719.806	-53.166	-0.221	-0.102
-718.791	-200.000	0.046	-0.255
-717.777	-200.000	-0.018	-0.577
-716.762	-6.742	-0.088	-0.061
-715.748	-163.922	-0.179	-0.008
-714.733	430.073	-0.060	-0.130
-713.718	343.774	-0.097	-0.190
-712.704	-200.000	0.004	0.183
-711.689	91.759	0.164	-0.186
-710.675	-71.128	-0.495	-0.187
-709.660	-200.000	0.018	0.109
-708.645	14.928	0.238	0.187
-707.631	196.242	0.115	0.176
-706.616	-104.480	0.166	-0.039
-705.602	800.000	0.120	0.377
-704.587	20.371	-0.085	-0.069
-703.572	-200.000	-0.012	-0.097
-702.558	-78.263	0.182	-0.063
-701.543	-117.107	0.282	0.052
-700.529	4.679	-0.374	0.276
-699.514	106.385	-0.282	-0.336
-698.499	397.262	0.121	-0.254
-697.485	-158.962	-0.322	-0.018
-696.470	-97.718	0.245	-0.064
-695.456	-15.720	0.133	-0.085
-694.441	-78.872	0.196	-0.067
-693.426	3.783	-0.083	-0.061
-692.412	-17.090	-0.247	-0.156
-691.397	15.000	0.247	0.194
-690.383	-31.313	0.283	-0.160
-689.368	48.275	-0.160	0.150
-688.354	123.275	0.056	-0.070
-687.339	18.284	-0.012	-0.010
-686.324	500.341	0.030	-0.069
-685.310	-25.270	-0.315	0.187
-684.295	7.231	0.160	0.120
-683.281	800.000	0.083	-0.324
-682.266	148.778	0.185	-0.251
-681.251	110.724	0.124	-0.150
-680.237	160.894	-0.151	0.211
-679.222	49.404	-0.219	0.207
-678.208	-34.707	0.174	0.096
-677.193	30.834	0.206	-0.177
-676.178	31.692	0.134	-0.116
-675.164	-105.633	-0.175	0.040
-674.149	-30.240	0.185	-0.106
-673.135	-200.000	0.022	-0.104
-672.120	-200.000	-0.006	0.081
-671.105	-200.000	-0.055	-0.291
-670.091	-58.262	0.262	-0.114
-669.076	124.885	0.246	-0.311
-668.062	-200.000	0.078	0.366
-667.047	344.879	-0.038	-0.075
-666.032	-33.775	0.135	-0.075
-665.018	372.136	-0.083	-0.168
-664.003	37.028	-0.093	-0.083
-662.989	132.409	0.154	0.199
-661.974	218.255	0.195	0.312
-660.959	-200.000	0.014	-0.276
-659.945	139.519	-0.193	0.256
-658.930	-100.796	-0.242	0.060
-657.916	159.390	0.132	0.184
-656.901	122.622	-0.072	-0.090
-655.886	-195.472	0.175	-0.001
-654.872	525.721	-0.047	-0.112
-653.857	-143.841	-0.169	-0.016
-652.843	-84.045	-0.216	-0.069
-651.828	800.000	0.192	0.613
-650.814	71.677	-0.139	0.145
-649.799	60.919	-0.109	0.109
-648.784	-200.000	0.001	0.173
-647.770	260.095	-0.107	0.186
-646.755	15.048	0.402	0.316
-645.741	-66.117	-0.111	0.045
-644.726	-126.188	0.209	-0.031
-643.711	-66.862	0.118	0.047
-642.697	452.039	-0.130	-0.288
-641.682	800.000	-0.068	-0.204
-640.668	-183.884	-0.163	-0.003
-639.653	-172.081	0.368	0.012
-638.638	123.588	-0.134	-0.169
-637.624	-112.767	0.058	0.011
-636.609	-200.000	0.006	0.070
-635.595	-200.000	-0.040	-0.296
-634.580	22.613	0.169	0.139
-633.565	448.428	-0.100	-0.222
-632.551	-200.000	-0.005	0.031
-631.536	-40.858	0.159	-0.082
-630.522	-200.000	-0.033	-0.204
-629.507	-13.027	-0.284	-0.185
-628.492	-200.000	0.007	0.073
-627.478	29.533	-0.147	0.126
-626.463	242.286	0.129	0.217
-625.449	-200.000	0.025	0.249
-624.434	-200.000	-0.057	-0.316
-623.419	-96.301	0.258	-0.069
-622.405	800.000	-0.047	-0.195
-621.390	56.525	-0.229	-0.223
-620.376	800.000	0.048	-0.167
-619.361	490.377	-0.023	-0.054
-618.346	27.845	-0.096	-0.081
-617.332	-200.000	0.000	-0.080
-616.317	-200.000	0.023	-0.193
-615.303	705.428	0.138	-0.364
-614.288	-200.000	0.027	0.214
-613.273	-200.000	0.050	-0.258
-612.259	800.000	0.160	-0.485
-611.244	71.200	-0.086	0.089
-610.230	55.235	0.274	0.265
-609.215	-200.000	0.035	-0.160
-608.201	-154.511	-0.296	-0.020
-607.186	466.589	0.136	0.305
-606.171	800.000	-0.075	0.211
-605.157	-200.000	-0.013	-0.144
-604.142	384.855	-0.066	-0.136
-603.128	158.983	-0.082	0.114
-602.113	-42.970	0.277	0.141
-601.098	-179.870	-0.046	-0.001
-600.084	-59.604	0.180	0.077
-599.069	-95.145	0.117	-0.032
-598.055	243.554	0.167	0.281
-597.040	-129.861	0.224	0.031
-596.025	60.429	-0.214	-0.212
-595.011	-97.684	0.194	0.050
-593.996	72.555	-0.100	0.105
-592.982	-132.257	-0.047	0.006
-591.967	-59.611	-0.205	0.088
-590.952	0.503	-0.157	-0.112
-589.938	-10.547	-0.181	-0.120
-588.923	-98.051	-0.260	0.067
-587.909	-111.566	0.136	0.028
-586.894	617.383	-0.087	0.218
-585.879	104.423	-0.220	-0.259
-584.865	78.597	-0.101	0.108
-583.850	-126.210	0.204	-0.031
-582.836	88.989	0.127	0.141
-581.821	800.000	0.091	-0.328
-580.806	-200.000	0.127	0.566
-579.792	-36.600	0.325	0.175
-578.777	-14.934	-0.210	0.135
-577.763	115.562	0.041	0.050
-576.748	-32.039	0.263	0.147
-575.733	-200.000	-0.008	-0.043
-574.719	-200.000	0.047	-0.281
-573.704	-62.185	0.400	0.167
-572.690	518.930	-0.129	0.301
-571.675	194.355	0.253	-0.384
-570.661	-200.000	0.016	0.261
-569.646	-19.774	-0.180	-0.111
-568.631	-69.829	-0.188	0.072
-567.617	-139.703	0.167	0.018
-566.602	-91.302	-0.191	0.055
-565.588	30.651	0.197	0.169
-564.573	231.816	0.106	0.173
-563.558	800.000	-0.071	-0.229
-562.544	91.525	-0.110	-0.124
-561.529	-99.961	-0.185	0.046
-560.515	88.863	0.120	0.134
-559.500	800.000	0.058	0.216
-558.485	-83.262	-0.220	-0.071
-557.471	185.657	-0.095	0.141
-556.456	-104.616	0.029	-0.007
-555.442	539.385	-0.163	-0.387
-554.427	-7.488	-0.134	0.090
-553.412	-77.968	-0.024	0.008
-552.398	5.354	-0.115	-0.085
-551.383	-61.067	0.197	-0.083
-550.369	-160.253	-0.397	0.021
-549.354	501.552	0.193	0.446
-548.339	158.594	0.040	0.055
-547.325	588.900	0.032	0.079
-546.310	595.440	0.067	-0.166
-545.296	-66.528	0.287	-0.114
-544.281	57.067	0.091	0.089
-543.266	-84.888	0.107	0.033
-542.252	-13.160	0.038	0.025
-541.237	74.926	-0.097	-0.102
-540.223	24.153	0.132	-0.109
-539.208	-5.671	-0.242	0.166
-538.193	583.066	-0.040	0.099
-537.179	-59.960	-0.260	-0.111
-536.164	-63.951	0.359	0.147
-535.150	46.106	-0.109	0.101
-534.135	-200.000	0.014	-0.321
-533.121	-169.696	0.130	-0.005
-532.106	-200.000	-0.008	-0.064
-531.091	190.706	0.067	-0.100
-530.077	-125.120	0.125	-0.019
-529.062	-138.145	0.166	-0.018
-528.048	-200.000	0.032	0.275
-527.033	-135.266	-0.048	0.006
-526.018	-36.362	0.279	-0.150
-525.004	-27.876	-0.235	-0.136
-523.989	128.109	0.098	-0.124
-522.975	76.306	-0.098	0.104
-521.960	-166.259	-0.357	0.015
-520.945	-200.000	-0.039	-0.216
-519.931	-200.000	-0.007	0.223
-518.916	264.861	0.117	-0.204
-517.902	274.010	-0.043	-0.076
-516.887	22.838	0.120	-0.099
-515.872	221.253	-0.066	-0.107
-514.858	-63.576	0.258	0.106
-513.843	-4.965	-0.334	0.230
-512.829	-67.196	-0.229	0.090
-511.814	397.452	0.052	0.108
-510.799	800.000	-0.036	-0.112
-509.785	-200.000	-0.017	0.244
-508.770	42.619	0.175	0.159
-507.756	58.032	0.262	-0.256
-506.741	-145.196	-0.160	0.014
-505.726	-200.000	-0.051	-0.244
-504.712	62.480	-0.337	-0.336
-503.697	800.000	0.034	-0.120
-502.683	17.423	-0.098	0.078
-501.668	-66.419	-0.130	0.052
-500.653	-106.331	0.267	0.060
-499.639	-75.646	-0.289	-0.102
-498.624	26.997	0.345	0.289
-497.610	604.861	0.064	0.158
-496.595	782.997	-0.103	-0.283
-495.581	777.695	-0.051	0.138
-494.566	-128.827	-0.111	-0.016
-493.551	254.821	0.068	-0.116
-492.537	-24.091	0.172	0.102
-491.522	-169.744	-0.069	-0.002
-490.508	-119.754	-0.244	-0.042
-489.493	66.110	0.165	0.167
-488.478	178.648	0.045	0.066
-487.464	367.584	-0.001	-0.003
-486.449	800.000	-0.077	0.256
-485.435	257.142	0.194	0.332
-484.420	-116.150	0.435	-0.081
-483.405	566.673	-0.131	-0.317
-482.391	647.455	-0.080	-0.205
-481.376	114.128	-0.292	0.354
-480.362	86.438	-0.224	-0.247
-479.347	-68.190	0.242	-0.094
-478.332	800.000	-0.064	0.269
-477.318	-200.000	0.022	-0.201
-476.303	-64.286	-0.257	-0.104
-475.289	322.445	-0.032	0.061
-474.274	-18.850	-0.015	-0.009
-473.259	-200.000	-0.035	-0.239
-472.245	-121.231	-0.564	0.094
-471.230	-109.663	0.246	-0.052
-470.216	714.930	-0.066	0.176
-469.201	-90.017	-0.192	0.056
-468.186	80.180	0.125	-0.134
-467.172	-37.073	-0.126	-0.067
-466.157	-200.000	-0.003	0.018
-465.143	151.707	0.090	-0.122
-464.128	-94.528	-0.164	-0.044
-463.113	175.689	-0.121	0.175
-462.099	143.082	0.016	-0.021
-461.084	82.681	-0.195	0.211
-460.070	-200.000	0.068	-0.336
-459.055	568.475	-0.085	0.206
-458.040	-145.544	0.198	0.018
-457.026	260.636	0.137	0.236
-456.011	-196.056	0.162	-0.001
-454.997	-145.462	-0.249	0.022
-453.982	604.821	-0.148	0.367
-452.968	-138.344	-0.435	-0.048
-451.953	-1.829	-0.145	0.101
-450.938	342.406	0.105	-0.204
-449.924	-10.201	0.235	-0.156
-448.909	-48.533	0.098	-0.047
-447.895	800.000	0.037	0.137
-446.880	409.457	0.151	0.318
-445.865	-106.840	-0.074	0.016
-444.851	355.576	0.097	-0.192
-443.836	-117.815	0.078	0.014
-442.822	5.841	-0.261	0.192
-441.807	-16.088	0.257	0.163
-440.792	800.000	0.063	0.178
-439.778	-76.984	0.280	0.097
-438.763	-200.000	-0.018	-0.169
-437.749	178.131	-0.117	0.170
-436.734	80.619	0.140	0.150
-435.719	800.000	-0.057	0.207
-434.705	-200.000	0.004	0.226
-433.690	-84.397	-0.143	0.045
-432.676	-5.264	-0.176	-0.120
-431.661	228.177	0.044	0.072
-430.646	-75.251	0.136	-0.048
-429.632	-125.370	-0.165	-0.025
-428.617	-200.000	-0.009	-0.154
-427.603	800.000	0.067	0.209
-426.588	186.958	-0.091	-0.135
-425.573	-20.553	0.104	0.063
-424.559	2.629	-0.486	0.350
-423.544	10.461	0.192	-0.145
-422.530	-97.917	0.109	-0.028
-421.515	-200.000	-0.037	-0.468
-420.500	800.000	0.056	-0.157
-419.486	78.718	-0.218	0.231
-418.471	-28.377	0.169	-0.097
-417.457	-20.056	0.170	0.104
-416.442	-169.373	-0.536	-0.020
-415.428	-124.116	0.277	-0.043
-414.413	12.160	0.159	0.122
-413.398	280.712	0.063	0.112
-412.384	33.502	-0.159	-0.137
-411.369	-200.000	-0.053	-0.329
-410.355	-200.000	-0.001	-0.363
-409.340	259.035	-0.031	0.052
-408.325	-56.397	0.086	-0.038
-407.311	800.000	-0.066	-0.220
-406.296	-200.000	0.008	-0.461
-405.282	-88.893	0.146	-0.043
-404.267	-119.054	0.147	-0.025
-403.252	800.000	0.023	0.078
-402.238	-95.470	0.143	0.038
-401.223	-65.218	-0.198	-0.079
-400.209	-8.142	-0.182	-0.122
-399.194	-92.147	0.110	-0.031
-398.179	-66.064	0.106	-0.042
-397.165	-17.569	-0.262	-0.164
-396.150	-123.878	0.099	-0.016
-395.136	800.000	-0.015	-0.045
-394.121	-200.000	-0.004	-0.283
-393.106	-159.817	0.146	-0.008
-392.092	-200.000	0.001	-0.138
-391.077	15.984	0.237	-0.185
-390.063	46.637	0.026	-0.024
-389.048	-200.000	0.013	-0.319
-388.033	-54.699	0.124	0.056
-387.019	-200.000	0.012	0.287
-386.004	459.300	0.087	-0.191
-384.990	57.328	-0.125	-0.121
-383.975	-104.964	0.297	-0.068
-382.960	-91.508	-0.165	-0.047
-381.946	525.188	0.089	0.208
-380.931	133.280	-0.326	-0.418
-379.917	800.000	0.039	-0.137
-378.902	-117.833	-0.318	-0.057
-377.888	800.000	-0.077	-0.214
-376.873	60.313	-0.281	-0.276
-375.858	-6.948	0.206	0.139
-374.844	-89.658	-0.142	0.041
-373.829	122.125	-0.264	0.327
-372.815	800.000	0.110	0.368
-371.800	-150.851	-0.084	-0.006
-370.785	-147.198	-0.206	0.017
-369.771	-116.748	-0.090	-0.016
-368.756	233.972	0.027	0.045
-367.742	288.141	0.149	0.268
-366.727	-31.481	-0.244	0.136
-365.712	-200.000	-0.018	-0.101
-364.698	307.356	-0.081	0.151
-363.683	-5.406	0.005	0.003
-362.669	72.093	0.192	-0.198
-361.654	-92.779	-0.127	-0.035
-360.639	531.269	0.029	-0.067
-359.625	48.615	0.094	-0.087
-358.610	134.688	0.160	0.206
-357.596	-131.716	0.385	0.050
-356.581	44.707	-0.321	-0.293
-355.566	518.036	-0.073	-0.170
-354.552	526.139	0.066	-0.155
-353.537	349.646	0.046	-0.090
-352.523	800.000	-0.109	-0.352
-351.508	-79.872	-0.099	0.033
-350.493	259.900	-0.069	0.118
-349.479	328.967	0.091	0.174
-348.464	418.917	-0.054	0.115
-347.450	323.594	0.111	0.210
-346.435	-196.556	0.125	-0.001
-345.420	-200.000	0.009	-0.223
-344.406	-163.310	-0.278	-0.013
-343.391	-5.843	-0.097	0.066
-342.377	-200.000	0.012	-0.074
-341.362	52.935	-0.187	-0.177
-340.348	-200.000	-0.010	0.156
-339.333	800.000	0.073	0.237
-338.318	-81.224	0.077	-0.025
-337.304	194.283	-0.074	-0.111
-336.289	98.468	-0.131	-0.150
-335.275	-76.483	0.049	-0.017
-334.260	-53.992	0.152	-0.069
-333.245	89.549	-0.132	-0.146
-332.231	-200.000	-0.019	-0.174
-331.216	31.674	0.051	-0.043
-330.202	331.647	0.139	0.266
-329.187	-0.335	0.113	-0.080
-328.172	53.544	-0.263	-0.250
-327.158	93.111	0.124	0.139
-326.143	-44.419	0.066	0.033
-325.129	-88.443	0.207	0.061
-324.114	800.000	0.069	0.246
-323.099	-33.399	-0.079	0.043
-322.085	-123.750	0.238	0.037
-321.070	-170.661	-0.179	0.006
-320.056	-116.045	0.149	-0.027
-319.041	-122.653	-0.308	0.049
-318.026	-67.834	0.034	-0.013
-317.012	20.880	-0.338	0.271
-315.997	50.225	-0.253	0.236
-314.983	-187.135	0.190	0.003
-313.968	58.488	-0.221	0.215
-312.953	-181.528	-0.110	0.002
-311.939	-200.000	0.022	0.345
-310.924	-30.207	0.161	0.090
-309.910	-67.821	-0.146	-0.057
-308.895	-167.905	0.559	0.022
-307.880	-27.830	-0.126	-0.073
-306.866	-78.477	-0.265	-0.090
-305.851	-52.696	-0.063	0.029
-304.837	-200.000	0.024	0.141
-303.822	-200.000	0.043	0.244
-302.807	-182.391	-0.148	0.003
-301.793	-74.029	0.141	-0.051
-300.778	-121.664	0.198	0.032
-299.764	-147.492	0.165	-0.014
-298.749	-200.000	0.013	0.173
-297.735	21.636	0.300	0.241
-296.720	800.000	0.094	-0.264
-295.705	189.276	-0.336	-0.499
-294.691	216.384	-0.199	-0.313
-293.676	-42.389	-0.174	0.088
-292.662	-159.711	0.170	-0.009
-291.647	-100.609	0.240	-0.059
-290.632	-130.525	-0.414	-0.055
-289.618	439.780	0.071	-0.153
-288.603	124.815	-0.073	0.092
-287.589	-148.640	0.141	-0.011
-286.574	161.511	0.090	-0.124
-285.559	-131.603	-0.295	0.038
-284.545	-89.350	-0.393	-0.114
-283.530	-106.217	-0.355	-0.079
-282.516	-200.000	-0.036	-0.269
-281.501	606.710	-0.098	0.243
-280.486	-8.890	0.211	-0.140
-279.472	73.905	0.164	0.170
-278.457	15.779	0.179	-0.140
-277.443	94.164	-0.063	-0.071
-276.428	169.064	0.131	0.185
-275.413	-7.949	0.229	-0.153
-274.399	-125.858	-0.272	0.041
-273.384	-135.826	0.179	-0.021
-272.370	800.000	0.087	0.237
-271.355	335.954	-0.204	0.391
-270.340	-200.000	-0.003	0.095
-269.326	5.020	0.148	-0.108
-268.311	800.000	-0.060	-0.206
-267.297	253.973	-0.175	-0.296
-266.282	-71.628	0.220	-0.081
-265.267	-37.674	-0.131	-0.069
-264.253	-200.000	0.003	0.051
-263.238	-200.000	0.003	-0.193
-262.224	-5.088	-0.095	-0.064
-261.209	-13.881	-0.157	0.100
-260.195	800.000	-0.111	-0.333
-259.180	-200.000	0.016	-0.173
-258.165	645.969	-0.141	0.357
-257.151	167.604	0.179	0.251
-256.136	-73.799	0.204	0.073
-255.122	10.811	0.130	0.098
-254.107	-75.425	0.344	0.121
-253.092	-78.332	0.289	0.098
-252.078	102.805	0.194	0.224
-251.063	145.534	-0.149	-0.198
-250.049	-89.461	0.120	0.035
-249.034	-83.516	-0.315	-0.099
-248.019	14.324	-0.093	-0.072
-247.005	-49.413	0.117	0.055
-245.990	-200.000	-0.070	-0.495
-244.976	800.000	-0.112	0.338
-243.961	800.000	-0.027	-0.109
-242.946	71.678	0.068	0.070
-241.932	-200.000	0.055	-0.262
-240.917	187.330	-0.110	-0.161
-239.903	673.189	-0.069	-0.177
-238.888	281.790	-0.026	0.046
-237.873	246.849	0.110	0.183
-236.859	800.000	-0.033	-0.135
-235.844	800.000	0.030	0.117
-234.830	-97.222	-0.140	0.036
-233.815	-13.024	0.165	-0.106
-232.800	26.265	0.319	0.263
-231.786	-107.967	0.196	0.042
-230.771	189.326	-0.144	0.213
-229.757	-121.629	0.058	0.010
-228.742	-75.732	0.087	-0.030
-227.727	-200.000	-0.020	0.130
-226.713	-117.733	0.181	-0.032
-225.698	800.000	0.046	0.138
-224.684	4.154	-0.015	0.011
-223.669	-17.845	0.153	0.095
-222.655	-81.612	0.119	0.039
-221.640	779.692	0.046	-0.125
-220.625	149.955	-0.152	0.203
-219.611	292.652	-0.010	-0.018
-218.596	-25.520	0.258	0.150
-217.582	48.656	0.225	0.208
-216.567	490.799	-0.078	0.176
-215.552	-127.582	0.139	-0.020
-214.538	-36.725	-0.175	0.093
-213.523	327.929	0.065	0.123
-212.509	41.356	0.136	0.122
-211.494	145.653	0.119	-0.157
-210.479	-94.217	0.172	0.046
-209.465	135.559	0.023	0.029
-208.450	267.034	-0.014	-0.024
-207.436	-200.000	-0.007	0.289
-206.421	9.234	0.299	0.222
-205.406	64.654	-0.143	0.142
-204.392	-101.067	-0.200	-0.048
-203.377	-47.570	0.142	0.068
-202.363	231.419	0.107	-0.172
-201.348	-200.000	-0.077	-0.400
-200.333	78.836	0.171	0.180
-199.319	276.543	-0.072	-0.125
-198.304	-44.365	0.206	0.102
-197.290	-122.657	-0.032	0.005
-196.275	219.824	-0.181	0.286
-195.260	-200.000	0.065	0.289
-194.246	-200.000	0.005	-0.152
-193.231	-82.094	0.376	-0.121
-192.217	-49.201	0.303	0.143
-191.202	-2.022	0.168	-0.117
-190.187	6.673	-0.255	0.187
-189.173	462.398	0.051	0.113
-188.158	-166.112	-0.304	-0.013
-187.144	800.000	0.070	0.286
-186.129	800.000	-0.090	-0.248
-185.114	94.219	-0.084	0.093
-184.100	-69.742	-0.175	0.066
-183.085	-127.001	-0.242	0.035
-182.071	-137.758	0.236	-0.026
-181.056	-31.614	-0.145	0.080
-180.042	194.401	0.159	0.237
-179.027	-200.000	0.038	-0.193
-178.012	-64.107	0.116	-0.047
-176.998	-71.369	-0.568	0.210
-175.983	-200.000	0.027	0.189
-174.969	-9.530	-0.043	-0.028
-173.954	-5.771	-0.260	0.175
-172.939	-146.440	0.210	-0.018
-171.925	1.553	0.174	0.123
-170.910	-200.000	-0.020	0.217
-169.896	216.240	-0.083	-0.130
-168.881	66.605	-0.104	-0.104
-167.866	-200.000	0.058	-0.571
-166.852	468.163	0.153	-0.337
-165.837	800.000	-0.078	-0.244
-164.823	-55.205	-0.087	-0.039
-163.808	367.486	0.100	-0.199
-162.793	454.479	0.151	-0.330
-161.779	-146.440	-0.333	0.029
-160.764	438.781	-0.102	0.219
-159.750	153.518	0.028	-0.038
-158.735	-88.827	0.262	0.077
-157.720	-108.849	0.210	0.044
-156.706	-10.362	-0.341	-0.222
-155.691	-200.000	-0.032	0.149
-154.677	-18.816	0.146	0.090
-153.662	-14.085	-0.048	0.031
-152.647	-33.830	-0.289	0.157
-151.633	-200.000	-0.004	-0.182
-150.618	-45.128	0.052	0.025
-149.604	-172.054	0.087	-0.003
-148.589	-101.558	0.191	0.046
-147.574	-135.237	-0.338	-0.040
-146.560	52.487	-0.206	0.193
-145.545	-141.423	0.297	-0.030
-144.531	-62.582	-0.257	0.105
-143.516	-200.000	-0.045	-0.359
-142.502	363.941	0.047	0.093
-141.487	49.868	0.038	-0.036
-140.472	-167.795	0.098	-0.004
-139.458	691.422	0.043	0.110
-138.443	-63.252	0.202	-0.082
-137.429	60.710	-0.095	0.092
-136.414	-49.211	-0.161	-0.076
-135.399	-200.000	0.001	0.030
-134.385	131.061	0.098	0.124
-133.370	17.215	-0.308	-0.240
-132.356	24.794	0.166	0.136
-131.341	224.964	-0.120	0.191
-130.326	-99.539	-0.321	-0.079
-129.312	-96.563	0.032	-0.008
-128.297	-101.656	-0.142	-0.034
-127.283	-200.000	-0.069	-0.337
-126.268	-58.229	-0.370	-0.159
-125.253	291.526	-0.142	0.255
-124.239	-200.000	-0.319	0.000
-123.224	139.490	-0.040	-0.052
-122.210	10.328	0.114	0.085
-121.195	118.952	-0.099	-0.120
