DTS Sentinel unit serial number:	SN413079Multiplexer serial number:	ORYXHardware model number:	OX4-SRSoftware version number:	ORYX F/W v4.00 Oryx Data Collector v3.7.2.0data status	okinstallation	princeton_trtdifferential loss correction	single-endedforward channel	channel 1reverse channel	N/Adate	2019/09/15time	14:50:35forward acquisition time	60.00reverse acquisition time	0.00gamma	496.2192k internal	0.2292k external	0.2292temperature offset calibration	0.9948default loss term (dB/km)	0.3790temperature slope calibration	1.0000multiplexer offset coefficient	1.0000multiplexer slope coefficient	1.0000fibre end	0.00T internal ref (°C)	39.91T ext. ref 1 (°C)	4.85T ext. ref 2 (°C)	36.85length (m)	temperature (°C)	Stokes	anti-Stokes-747.200	-21.297	-0.225	0.141
-746.185	-127.680	-0.272	0.040
-745.171	800.000	0.118	0.432
-744.156	-200.000	0.092	0.561
-743.142	-13.347	0.159	-0.106
-742.127	-49.329	-0.157	-0.076
-741.112	548.331	0.078	-0.191
-740.098	615.814	-0.077	0.199
-739.083	-96.473	0.385	-0.104
-738.069	244.671	-0.215	0.370
-737.054	-200.000	0.038	0.342
-736.039	-200.000	0.003	0.022
-735.025	-152.670	0.308	-0.022
-734.010	104.005	0.107	-0.129
-732.996	-32.012	-0.278	0.159
-731.981	270.717	0.036	-0.065
-730.966	-84.223	-0.127	0.041
-729.952	-1.046	0.119	-0.086
-728.937	34.770	0.202	-0.181
-727.923	-25.163	-0.088	-0.053
-726.908	-200.000	-0.028	0.225
-725.894	-134.197	-0.303	0.038
-724.879	-62.495	-0.101	0.043
-723.864	232.482	0.056	0.094
-722.850	60.470	-0.299	-0.302
-721.835	-171.669	-0.245	0.008
-720.821	508.293	0.078	-0.186
-719.806	-200.000	-0.031	-0.239
-718.791	800.000	0.102	0.315
-717.777	-106.997	-0.185	-0.042
-716.762	25.396	-0.251	-0.213
-715.748	85.849	-0.034	0.038
-714.733	-200.000	-0.001	0.056
-713.718	-93.846	-0.244	0.069
-712.704	-126.146	-0.224	0.034
-711.689	161.195	-0.084	0.119
-710.675	800.000	-0.067	-0.219
-709.660	89.939	-0.205	-0.235
-708.645	51.247	0.034	-0.033
-707.631	800.000	0.050	-0.210
-706.616	-200.000	-0.005	0.051
-705.602	-100.091	-0.158	0.040
-704.587	-200.000	0.006	-0.117
-703.572	-1.688	0.223	0.160
-702.558	28.879	0.261	0.226
-701.543	-0.295	0.263	0.191
-700.529	-144.038	0.295	0.028
-699.514	380.678	-0.211	0.443
-698.499	-115.622	-0.385	-0.074
-697.485	206.788	0.207	-0.329
-696.470	666.298	-0.114	-0.301
-695.456	-200.000	-0.036	0.175
-694.441	-83.817	0.118	-0.038
-693.426	-200.000	-0.009	0.265
-692.412	371.874	-0.179	0.371
-691.397	-101.223	-0.388	-0.097
-690.383	166.213	0.150	0.217
-689.368	-136.432	0.088	0.010
-688.354	800.000	0.020	-0.083
-687.339	-94.185	0.120	0.033
-686.324	216.333	-0.041	-0.066
-685.310	7.638	-0.173	-0.132
-684.295	-128.277	-0.271	-0.039
-683.281	-200.000	0.023	0.189
-682.266	-200.000	0.014	0.072
-681.251	-138.297	0.241	0.027
-680.237	43.395	-0.216	-0.202
-679.222	800.000	0.073	0.327
-678.208	157.537	0.080	0.113
-677.193	-103.352	0.422	0.102
-676.178	196.629	0.069	-0.107
-675.164	-144.264	-0.113	0.011
-674.149	-23.290	-0.388	0.238
-673.135	-11.816	0.219	-0.147
-672.120	15.764	-0.229	0.184
-671.105	-124.274	0.068	-0.011
-670.091	-144.207	-0.173	0.016
-669.076	-87.154	0.200	0.062
-668.062	-2.798	-0.205	0.146
-667.047	800.000	-0.083	-0.362
-666.032	125.234	-0.142	-0.183
-665.018	-122.598	-0.440	-0.073
-664.003	-100.912	-0.340	0.085
-662.989	-96.512	0.277	0.075
-661.974	-200.000	0.037	-0.181
-660.959	-143.393	0.177	0.017
-659.945	682.612	-0.047	0.124
-658.930	4.127	0.151	-0.113
-657.916	-104.271	0.269	0.064
-656.901	48.799	0.232	-0.222
-655.886	121.852	-0.123	-0.157
-654.872	2.976	-0.125	0.093
-653.857	15.778	-0.142	-0.114
-652.843	236.583	-0.070	0.119
-651.828	800.000	0.057	-0.169
-650.814	-129.323	-0.036	0.005
-649.799	-22.095	0.070	-0.043
-648.784	662.300	-0.061	0.160
-647.770	341.384	0.035	-0.069
-646.755	-64.904	0.242	0.100
-645.741	800.000	0.063	-0.276
-644.726	-49.206	-0.170	-0.083
-643.711	-200.000	0.029	0.221
-642.697	-29.404	-0.170	0.099
-641.682	-200.000	0.005	0.073
-640.668	148.501	-0.083	0.114
-639.653	-13.505	0.272	-0.180
-638.638	49.477	-0.067	0.065
-637.624	-50.459	-0.404	0.194
-636.609	25.232	0.169	0.143
-635.595	76.134	0.064	0.069
-634.580	-20.587	0.122	-0.077
-633.565	186.140	-0.114	-0.173
-632.551	-18.244	0.239	0.153
-631.536	800.000	-0.064	0.238
-630.522	93.401	-0.225	0.260
-629.507	800.000	-0.042	-0.179
-628.492	-40.651	0.273	-0.144
-627.478	-147.568	-0.113	-0.010
-626.463	29.949	0.129	-0.112
-625.449	-65.968	-0.202	0.082
-624.434	41.659	-0.063	-0.058
-623.419	-200.000	0.002	0.251
-622.405	800.000	0.022	0.096
-621.390	-200.000	0.164	0.001
-620.376	160.706	-0.088	-0.125
-619.361	131.474	0.117	-0.153
-618.346	-86.717	-0.228	0.071
-617.332	-99.903	0.454	-0.115
-616.317	-73.953	0.352	0.130
-615.303	155.082	-0.122	0.171
-614.288	101.330	0.110	-0.130
-613.273	36.783	-0.076	0.068
-612.259	-88.897	-0.153	-0.046
-611.244	-113.898	0.306	0.061
-610.230	704.154	-0.112	-0.301
-609.215	330.865	0.046	-0.089
-608.201	7.547	0.226	-0.172
-607.186	-22.089	0.136	0.084
-606.171	-60.323	-0.257	-0.111
-605.157	396.349	-0.060	-0.128
-604.142	406.431	-0.116	-0.249
-603.128	48.460	-0.289	-0.275
-602.113	-78.142	-0.132	0.046
-601.098	-157.059	-0.165	0.010
-600.084	229.206	0.035	-0.058
-599.069	-127.487	0.150	-0.022
-598.055	-200.000	0.015	0.089
-597.040	312.573	0.042	0.080
-596.025	800.000	0.013	0.041
-595.011	-160.402	-0.470	-0.026
-593.996	-37.714	-0.349	-0.189
-592.982	-111.971	-0.214	0.044
-591.967	-86.613	0.144	-0.045
-590.952	-39.091	-0.230	0.123
-589.938	-149.153	0.150	0.012
-588.923	-200.000	0.002	0.041
-587.909	-200.000	-0.056	-0.265
-586.894	146.870	0.056	-0.076
-585.879	86.174	0.179	0.200
-584.865	-31.297	-0.078	0.045
-583.850	-5.508	-0.225	-0.157
-582.836	186.101	0.286	-0.433
-581.821	-132.177	0.374	-0.049
-580.806	-82.288	0.241	0.080
-579.792	-179.190	-0.343	-0.008
-578.777	800.000	-0.078	-0.318
-577.763	-200.000	0.014	0.128
-576.748	-137.599	0.040	-0.005
-575.733	-87.753	0.219	-0.067
-574.719	799.735	-0.075	-0.211
-573.704	-129.864	0.092	-0.013
-572.690	-115.551	0.205	-0.039
-571.675	156.734	0.060	-0.084
-570.661	62.839	-0.149	-0.151
-569.646	109.077	0.066	0.081
-568.631	-200.000	0.057	0.328
-567.617	222.238	-0.127	-0.207
-566.602	-200.000	-0.020	-0.199
-565.588	189.739	-0.130	0.199
-564.573	597.340	0.051	-0.129
-563.558	-65.592	0.148	0.060
-562.544	-101.939	0.256	0.063
-561.529	-182.826	-0.337	0.006
-560.515	-19.060	0.156	-0.098
-559.500	-135.507	0.224	-0.027
-558.485	-200.000	0.032	-0.218
-557.471	-200.000	-0.031	-0.328
-556.456	-46.784	-0.150	-0.075
-555.442	-88.607	-0.318	-0.096
-554.427	246.923	-0.092	0.157
-553.412	-98.632	-0.466	-0.121
-552.398	-200.000	-0.036	0.252
-551.383	316.278	0.116	0.222
-550.369	-90.345	-0.273	-0.080
-549.354	-104.703	-0.319	-0.075
-548.339	-200.000	0.066	-0.328
-547.325	573.897	0.140	0.347
-546.310	-200.000	-0.034	0.313
-545.296	12.371	-0.163	0.127
-544.281	406.542	0.096	-0.206
-543.266	-200.000	-0.026	0.125
-542.252	-200.000	-0.020	0.096
-541.237	181.092	-0.110	-0.165
-540.223	-105.927	-0.054	0.012
-539.208	-83.600	-0.349	-0.113
-538.193	-149.661	0.119	-0.010
-537.179	-88.916	-0.313	-0.094
-536.164	125.468	-0.149	-0.191
-535.150	-200.000	-0.023	0.286
-534.135	-59.629	0.369	-0.161
-533.121	-108.681	-0.206	-0.045
-532.106	-103.517	0.034	-0.008
-531.091	-126.017	0.408	0.062
-530.077	-114.218	0.096	-0.019
-529.062	-64.047	-0.138	0.057
-528.048	-2.189	-0.366	0.261
-527.033	-44.964	-0.064	-0.033
-526.018	-185.351	0.151	0.002
-525.004	50.847	-0.174	0.167
-523.989	-200.000	0.053	-0.346
-522.975	116.590	-0.197	0.245
-521.960	-200.000	0.013	-0.530
-520.945	-200.000	0.001	0.114
-519.931	-200.000	-0.046	-0.234
-518.916	-118.416	0.309	0.056
-517.902	-1.279	-0.173	0.124
-516.887	-19.690	0.155	-0.097
-515.872	-20.782	-0.280	-0.174
-514.858	20.287	0.147	-0.121
-513.843	-67.733	-0.200	0.079
-512.829	-120.662	-0.224	0.038
-511.814	85.456	0.330	-0.368
-510.799	-46.473	0.021	0.011
-509.785	108.234	0.081	0.098
-508.770	49.039	-0.121	-0.115
-507.756	15.097	0.173	0.138
-506.741	-33.155	0.228	-0.128
-505.726	55.088	-0.170	0.166
-504.712	299.087	0.115	0.214
-503.697	-83.675	0.235	0.076
-502.683	72.050	0.134	0.141
-501.668	-74.069	-0.267	-0.098
-500.653	800.000	0.055	0.228
-499.639	-32.766	0.200	0.113
-498.624	-2.343	0.108	-0.077
-497.610	16.886	0.200	0.161
-496.595	260.990	0.067	-0.118
-495.581	-65.569	-0.263	-0.107
-494.566	-200.000	0.038	-0.211
-493.551	590.988	0.095	0.238
-492.537	-141.532	0.305	0.031
-491.522	-157.362	0.280	-0.017
-490.508	-139.877	-0.169	-0.018
-489.493	-200.000	-0.001	-0.168
-488.478	-200.000	-0.006	0.091
-487.464	800.000	-0.030	-0.126
-486.449	-200.000	-0.038	0.191
-485.435	295.345	0.213	-0.395
-484.420	-200.000	-0.018	-0.376
-483.405	34.863	-0.189	-0.168
-482.391	-141.861	-0.118	-0.012
-481.376	130.735	-0.089	0.116
-480.362	800.000	-0.023	-0.074
-479.347	-78.291	-0.276	-0.096
-478.332	800.000	0.061	-0.221
-477.318	-200.000	0.026	0.165
-476.303	-200.000	-0.058	-0.268
-475.289	156.757	-0.152	-0.213
-474.274	153.500	0.257	-0.356
-473.259	12.669	-0.200	-0.156
-472.245	800.000	0.077	-0.248
-471.230	-200.000	-0.038	0.314
-470.216	-200.000	-0.023	-0.107
-469.201	44.923	-0.042	0.039
-468.186	2.625	0.190	0.140
-467.172	-107.893	-0.410	-0.090
-466.157	-51.292	-0.338	-0.160
-465.143	363.190	0.202	0.410
-464.128	-200.000	0.003	-0.188
-463.113	-21.751	0.320	0.197
-462.099	101.782	0.079	0.093
-461.084	179.772	-0.075	0.112
-460.070	-41.472	0.073	0.038
-459.055	64.412	-0.218	0.222
-458.040	161.161	0.186	0.264
-457.026	-50.660	-0.276	-0.131
-456.011	800.000	-0.084	-0.363
-454.997	-91.924	0.207	0.059
-453.982	271.606	0.221	0.394
-452.968	-200.000	0.003	-0.116
-451.953	58.204	0.045	-0.044
-450.938	800.000	-0.044	-0.186
-449.924	800.000	0.030	0.116
-448.909	-12.058	-0.119	-0.079
-447.895	-106.777	-0.150	0.034
-446.880	-51.379	-0.028	0.013
-445.865	-10.564	-0.094	-0.063
-444.851	-49.165	0.234	-0.113
-443.836	-93.512	0.193	0.054
-442.822	85.807	0.098	0.109
-441.807	800.000	-0.030	-0.128
-440.792	-129.705	-0.287	0.040
-439.778	-27.731	0.173	0.102
-438.763	139.638	0.045	-0.060
-437.749	466.082	0.076	-0.171
-436.734	697.407	0.033	-0.087
-435.719	117.350	0.044	-0.055
-434.705	199.975	-0.159	-0.247
-433.690	10.845	0.268	0.207
-432.676	-61.247	-0.167	0.071
-431.661	-111.785	-0.265	0.054
-430.646	-92.181	0.082	0.023
-429.632	-82.632	-0.296	-0.097
-428.617	-200.000	0.020	0.227
-427.603	-27.561	-0.226	0.133
-426.588	-19.179	0.422	0.265
-425.573	-200.000	0.073	-0.422
-424.559	-200.000	-0.003	0.253
-423.544	-87.867	0.402	0.122
-422.530	-177.772	0.182	0.004
-421.515	800.000	-0.033	-0.120
-420.500	-102.564	-0.164	0.040
-419.486	34.222	0.065	0.058
-418.471	495.371	-0.020	0.046
-417.457	-31.547	0.245	0.139
-416.442	800.000	-0.035	0.144
-415.428	56.911	-0.282	0.277
-414.413	179.621	-0.208	0.308
-413.398	800.000	-0.021	-0.086
-412.384	25.117	0.100	0.084
-411.369	-200.000	-0.041	-0.230
-410.355	-143.871	0.042	-0.004
-409.340	-161.464	-0.554	-0.029
-408.325	362.716	0.089	0.181
-407.311	-10.065	-0.040	0.027
-406.296	343.077	0.048	0.095
-405.282	800.000	-0.033	-0.131
-404.267	-147.340	0.166	-0.014
-403.252	204.930	-0.191	-0.300
-402.238	-66.912	0.432	0.172
-401.223	-200.000	0.005	0.066
-400.209	-200.000	-0.002	0.056
-399.194	-38.734	0.130	0.069
-398.179	-50.211	-0.191	0.091
-397.165	-172.147	-0.277	0.009
-396.150	-200.000	-0.005	0.139
-395.136	-200.000	0.032	0.153
-394.121	-37.832	0.067	-0.036
-393.106	34.109	0.097	-0.085
-392.092	-126.597	-0.229	0.034
-391.077	410.211	-0.100	-0.214
-390.063	800.000	-0.088	-0.264
-389.048	800.000	-0.050	-0.180
-388.033	120.353	0.125	0.157
-387.019	800.000	0.063	0.187
-386.004	-112.329	-0.312	0.063
-384.990	74.259	-0.105	-0.111
-383.975	53.336	-0.176	-0.170
-382.960	510.514	-0.099	0.233
-381.946	-200.000	0.004	-0.127
-380.931	-46.889	0.243	-0.120
-379.917	-111.310	0.196	-0.040
-378.902	228.833	0.189	-0.310
-377.888	-74.647	0.195	-0.071
-376.873	-149.550	0.116	-0.009
-375.858	-21.439	-0.096	-0.059
-374.844	-100.753	-0.116	-0.029
-373.829	22.128	0.254	-0.209
-372.815	-159.098	-0.147	-0.008
-371.800	249.768	-0.088	0.151
-370.785	-200.000	-0.021	0.167
-369.771	-200.000	0.009	0.379
-368.756	-91.620	0.315	-0.090
-367.742	-200.000	-0.001	-0.029
-366.727	9.597	-0.090	-0.069
-365.712	113.512	0.083	0.102
-364.698	-114.711	-0.347	-0.067
-363.683	-151.277	0.329	-0.025
-362.669	-129.173	-0.158	0.022
-361.654	-200.000	-0.035	-0.167
-360.639	-200.000	-0.012	0.157
-359.625	-108.750	-0.316	-0.068
-358.610	-200.000	0.033	0.278
-357.596	-21.792	-0.102	0.062
-356.581	-29.006	-0.056	-0.033
-355.566	-103.361	0.044	0.010
-354.552	-200.000	0.043	0.365
-353.537	-49.213	0.082	0.039
-352.523	169.576	-0.168	0.241
-351.508	800.000	-0.050	-0.158
-350.493	800.000	0.057	0.172
-349.479	303.956	0.180	0.336
-348.464	118.599	0.183	0.228
-347.450	52.738	-0.221	-0.213
-346.435	74.380	-0.097	0.103
-345.420	264.364	-0.077	0.136
-344.406	-200.000	0.040	0.239
-343.391	-89.906	0.064	0.019
-342.377	20.043	0.098	-0.079
-341.362	-78.197	-0.407	0.141
-340.348	69.752	0.204	0.212
-339.333	121.018	-0.176	0.221
-338.318	-32.499	-0.149	0.083
-337.304	494.892	-0.058	0.135
-336.289	224.478	-0.020	0.033
-335.275	-90.060	0.130	-0.038
-334.260	-41.624	-0.077	0.040
-333.245	71.092	-0.273	0.285
-332.231	-97.789	0.229	-0.060
-331.216	-200.000	0.000	-0.091
-330.202	-42.694	0.108	-0.055
-329.187	-200.000	0.002	-0.099
-328.172	650.407	0.059	0.151
-327.158	181.177	0.060	0.089
-326.143	-128.976	0.170	-0.024
-325.129	-50.278	0.221	0.105
-324.114	800.000	-0.045	0.167
-323.099	217.719	0.029	-0.047
-322.085	-200.000	0.010	0.189
-321.070	30.895	0.306	-0.264
-320.056	-2.375	0.197	-0.139
-319.041	-15.875	-0.070	0.045
-318.026	-9.218	0.162	-0.109
-317.012	55.123	-0.103	-0.100
-315.997	-19.885	0.189	0.117
-314.983	184.831	0.025	-0.037
-313.968	151.663	-0.284	-0.390
-312.953	-200.000	0.062	-0.286
-311.939	165.025	-0.127	-0.180
-310.924	-12.203	0.272	-0.179
-309.910	227.022	-0.088	0.144
-308.895	800.000	0.002	-0.006
-307.880	800.000	-0.065	0.199
-306.866	-97.506	-0.181	-0.047
-305.851	-167.389	-0.105	0.004
-304.837	-15.064	-0.095	-0.061
-303.822	183.229	-0.204	-0.304
-302.807	42.404	0.021	0.019
-301.793	-183.748	0.465	0.008
-300.778	-17.667	-0.322	-0.204
-299.764	-200.000	0.019	-0.112
-298.749	-40.948	0.168	-0.087
-297.735	79.354	-0.161	-0.174
-296.720	170.691	-0.191	0.274
-295.705	9.454	0.211	0.160
-294.691	800.000	0.137	0.530
-293.676	509.521	0.059	0.138
-292.662	10.331	-0.013	0.010
-291.647	-200.000	0.063	-0.334
-290.632	800.000	-0.057	-0.239
-289.618	-75.931	0.376	-0.134
-288.603	-128.763	0.186	0.026
-287.589	65.932	0.135	0.137
-286.574	-165.644	0.157	-0.007
-285.559	-200.000	-0.038	0.338
-284.545	25.132	-0.147	-0.123
-283.530	-200.000	-0.002	0.319
-282.516	800.000	-0.022	-0.088
-281.501	-39.668	-0.189	-0.099
-280.486	237.618	-0.080	0.133
-279.472	800.000	-0.127	-0.382
-278.457	-18.010	-0.235	0.148
-277.443	-42.495	0.279	-0.143
-276.428	302.100	-0.077	0.143
-275.413	-52.065	0.291	0.136
-274.399	137.096	0.091	-0.119
-273.384	-127.878	-0.078	-0.011
-272.370	-12.031	0.108	0.071
-271.355	157.967	-0.087	-0.121
-270.340	181.819	-0.286	-0.423
-269.326	-54.921	0.055	-0.025
-268.311	176.089	-0.067	0.098
-267.297	-200.000	-0.008	-0.037
-266.282	33.395	-0.116	-0.101
-265.267	800.000	0.053	0.231
-264.253	257.787	0.128	0.221
-263.238	42.232	-0.064	-0.058
-262.224	-153.811	-0.089	-0.006
-261.209	-50.171	-0.137	-0.065
-260.195	-200.000	-0.021	0.199
-259.180	-200.000	-0.038	-0.295
-258.165	-128.810	0.171	-0.024
-257.151	-114.815	0.162	-0.031
-256.136	-70.855	-0.218	0.083
-255.122	-200.000	0.012	-0.193
-254.107	-200.000	-0.006	-0.032
-253.092	-87.439	0.123	0.037
-252.078	-56.123	0.296	0.132
-251.063	241.072	-0.088	0.147
-250.049	441.233	0.066	-0.145
-249.034	800.000	0.118	0.413
-248.019	-58.543	-0.189	0.082
-247.005	-146.522	0.302	0.026
-245.990	-90.674	-0.051	-0.015
-244.976	111.484	-0.206	0.250
-243.961	-83.983	0.273	-0.087
-242.946	362.416	0.079	-0.160
-241.932	-36.406	-0.110	-0.060
-240.917	155.573	0.060	-0.082
-239.903	45.980	0.108	-0.100
-238.888	-89.610	-0.084	-0.025
-237.873	756.124	0.041	-0.111
-236.859	-52.560	-0.330	0.153
-235.844	-54.714	0.136	0.062
-234.830	-58.618	-0.149	-0.065
-233.815	38.232	-0.254	0.227
-232.800	-152.705	0.120	0.009
-231.786	53.742	-0.169	-0.163
-230.771	302.739	0.075	0.139
-229.757	-200.000	0.025	-0.179
-228.742	95.269	0.220	0.251
-227.727	280.279	-0.141	0.252
-226.713	8.337	-0.277	-0.209
-225.698	-127.875	-0.225	-0.033
-224.684	-3.006	0.146	-0.102
-223.669	375.426	-0.144	-0.294
-222.655	-200.000	0.002	0.045
-221.640	664.117	0.190	0.491
-220.625	46.685	-0.113	0.105
-219.611	173.917	-0.274	0.397
-218.596	-114.798	0.260	0.050
-217.582	-200.000	-0.060	-0.336
-216.567	800.000	0.090	0.357
-215.552	-200.000	-0.009	0.146
-214.538	269.050	0.089	0.156
-213.523	98.733	-0.170	0.197
-212.509	1.566	0.142	0.102
-211.494	-71.642	0.207	0.078
-210.479	-200.000	-0.061	0.280
-209.465	-45.837	-0.446	0.221
-208.450	-62.365	0.247	0.103
-207.436	800.000	0.006	0.017
-206.421	12.412	-0.164	-0.126
-205.406	173.017	-0.154	-0.223
-204.392	800.000	0.067	0.248
-203.377	-37.176	0.057	0.031
-202.363	-90.307	-0.187	-0.054
-201.348	23.682	-0.110	0.091
-200.333	-106.965	-0.404	-0.090
-199.319	-120.836	0.359	0.061
-198.304	-92.755	0.334	0.094
-197.290	-89.503	-0.036	0.011
-196.275	-75.785	-0.103	0.037
-195.260	64.362	0.247	0.249
-194.246	327.501	0.049	0.095
-193.231	-180.714	0.311	0.006
-192.217	338.137	0.111	-0.217
-191.202	800.000	0.109	-0.309
-190.187	347.078	-0.083	-0.164
-189.173	800.000	0.073	-0.244
-188.158	315.988	0.038	0.072
-187.144	-38.502	0.248	-0.131
-186.129	800.000	0.051	0.217
-185.114	161.323	0.076	0.106
-184.100	174.613	0.165	-0.239
-183.085	-200.000	-0.007	-0.077
-182.071	-117.717	0.416	0.075
-181.056	800.000	0.050	-0.166
-180.042	-200.000	-0.009	0.068
-179.027	-200.000	0.012	0.085
-178.012	-7.048	0.100	0.068
-176.998	-200.000	0.003	0.193
-175.983	-66.431	-0.339	-0.135
-174.969	150.468	-0.125	0.169
-173.954	50.436	-0.023	0.022
-172.939	99.588	0.343	-0.398
-171.925	104.347	-0.095	0.112
-170.910	465.929	0.028	-0.062
-169.896	402.115	-0.133	-0.280
-168.881	-34.549	-0.177	-0.097
-167.866	206.666	0.005	-0.008
-166.852	-200.000	-0.007	0.189
-165.837	-140.429	-0.199	0.021
-164.823	163.690	0.231	0.325
-163.808	-200.000	-0.014	-0.236
-162.793	718.151	-0.078	-0.207
-161.779	299.729	-0.159	-0.293
-160.764	2.670	0.111	-0.081
-159.750	-12.566	-0.267	-0.175
-158.735	-82.764	0.198	-0.064
-157.720	182.733	0.076	-0.113
-156.706	-13.430	0.206	0.134
-155.691	-63.715	-0.116	0.048
-154.677	-200.000	0.034	0.184
-153.662	375.327	-0.032	0.066
-152.647	245.266	0.158	-0.266
-151.633	-113.375	0.078	0.015
-150.618	-34.195	-0.207	0.114
-149.604	-200.000	-0.081	0.409
-148.589	-200.000	0.006	0.398
-147.574	166.916	0.061	0.086
-146.560	522.950	-0.113	0.265
-145.545	163.409	-0.059	0.083
-144.531	133.183	0.037	-0.048
-143.516	98.358	-0.256	0.295
-142.502	-94.764	-0.263	-0.071
-141.487	25.436	-0.161	0.134
-140.472	71.487	-0.142	-0.147
-139.458	195.501	-0.052	-0.079
-138.443	-54.268	0.026	0.012
-137.429	-112.306	-0.463	-0.093
-136.414	-64.667	-0.174	-0.071
-135.399	43.113	0.364	0.332
-134.385	201.519	-0.148	-0.227
-133.370	-98.694	-0.011	0.003
-132.356	343.285	-0.074	0.145
-131.341	-100.561	-0.398	-0.098
-130.326	-37.203	0.167	0.089
-129.312	225.811	0.147	0.238
-128.297	-86.415	0.405	-0.124
-127.283	-200.000	-0.060	-0.331
-126.268	800.000	0.112	0.421
-125.253	-140.295	-0.395	-0.041
-124.239	-106.294	0.370	-0.083
-123.224	234.838	0.041	0.067
-122.210	16.854	0.003	-0.003
-121.195	-99.858	-0.250	0.063
