DTS Sentinel unit serial number:	SN413079Multiplexer serial number:	ORYXHardware model number:	OX4-SRSoftware version number:	ORYX F/W v4.00 Oryx Data Collector v3.7.2.0data status	okinstallation	princeton_trtdifferential loss correction	single-endedforward channel	channel 1reverse channel	N/Adate	2019/09/16time	16:38:35forward acquisition time	60.00reverse acquisition time	0.00gamma	496.2192k internal	0.2296k external	0.2296temperature offset calibration	0.9964default loss term (dB/km)	0.3790temperature slope calibration	1.0000multiplexer offset coefficient	1.0000multiplexer slope coefficient	1.0000fibre end	0.00T internal ref (°C)	39.94T ext. ref 1 (°C)	15.14T ext. ref 2 (°C)	33.80length (m)	temperature (°C)	Stokes	anti-Stokes-747.200	-63.535	-0.283	0.119
-746.185	81.114	-0.292	0.322
-745.171	-138.245	0.268	0.030
-744.156	-200.000	0.007	0.222
-743.142	-54.213	-0.064	-0.030
-742.127	-92.708	0.272	0.078
-741.112	-200.000	-0.042	0.366
-740.098	85.151	0.112	-0.126
-739.083	-1.796	-0.110	-0.079
-738.069	-98.597	0.171	0.045
-737.054	-52.750	-0.220	0.104
-736.039	312.084	0.135	-0.259
-735.025	-200.000	-0.028	-0.445
-734.010	152.616	0.176	-0.246
-732.996	128.868	-0.176	-0.230
-731.981	800.000	0.013	-0.044
-730.966	-115.337	0.375	-0.072
-729.952	800.000	-0.050	0.144
-728.937	-63.533	0.180	0.075
-727.923	-57.309	0.079	0.036
-726.908	-27.179	0.127	-0.075
-725.894	-27.296	-0.052	0.031
-724.879	51.033	-0.263	-0.255
-723.864	-200.000	-0.063	-0.347
-722.850	-71.572	-0.270	-0.103
-721.835	-39.207	-0.275	0.147
-720.821	-117.902	0.175	0.032
-719.806	551.206	0.031	-0.075
-718.791	800.000	-0.017	-0.051
-717.777	-77.620	0.099	0.035
-716.762	-148.015	-0.255	-0.022
-715.748	-130.761	-0.170	-0.023
-714.733	66.294	-0.301	-0.312
-713.718	527.401	-0.054	-0.131
-712.704	39.691	0.074	-0.068
-711.689	315.832	0.105	-0.202
-710.675	-98.795	0.032	0.008
-709.660	346.491	0.094	0.189
-708.645	-111.375	0.372	-0.077
-707.631	-15.797	-0.154	0.100
-706.616	134.926	0.135	-0.179
-705.602	116.482	0.107	0.134
-704.587	-200.000	-0.039	-0.187
-703.572	-181.085	0.167	-0.003
-702.558	76.819	0.085	0.092
-701.543	66.098	-0.175	0.182
-700.529	27.438	-0.237	-0.204
-699.514	-200.000	-0.121	-0.550
-698.499	136.764	-0.069	-0.093
-697.485	-200.000	-0.037	0.256
-696.470	-91.545	0.282	-0.082
-695.456	24.649	0.043	-0.036
-694.441	-200.000	0.046	-0.367
-693.426	-200.000	-0.052	0.270
-692.412	-200.000	-0.032	0.173
-691.397	24.551	-0.332	-0.280
-690.383	-8.408	0.110	0.076
-689.368	800.000	-0.052	0.205
-688.354	-200.000	-0.093	0.000
-687.339	186.822	-0.110	0.167
-686.324	-200.000	-0.077	0.415
-685.310	-171.773	-0.261	-0.009
-684.295	-78.624	0.213	0.074
-683.281	247.357	-0.196	-0.337
-682.266	-71.704	-0.245	0.093
-681.251	800.000	-0.085	-0.261
-680.237	-200.000	-0.014	0.176
-679.222	-123.728	0.108	-0.017
-678.208	12.166	0.095	-0.075
-677.193	800.000	-0.023	-0.100
-676.178	307.261	-0.167	0.316
-675.164	308.798	-0.193	0.368
-674.149	170.219	0.042	-0.062
-673.135	12.934	0.010	0.008
-672.120	-113.914	0.146	0.029
-671.105	179.020	0.065	0.097
-670.091	316.895	-0.083	-0.160
-669.076	-77.417	0.151	0.054
-668.062	-200.000	-0.016	-0.512
-667.047	-34.169	-0.069	-0.039
-666.032	800.000	0.151	0.514
-665.018	-200.000	-0.020	0.297
-664.003	-115.148	-0.093	0.018
-662.989	62.351	0.170	0.173
-661.974	-122.426	-0.193	-0.032
-660.959	-148.901	-0.144	-0.012
-659.945	-149.267	-0.161	0.013
-658.930	-157.924	0.262	0.016
-657.916	280.441	-0.239	-0.436
-656.901	310.584	-0.172	-0.328
-655.886	800.000	0.097	-0.294
-654.872	70.673	0.261	0.275
-653.857	-99.233	0.114	0.029
-652.843	226.405	0.238	0.393
-651.828	-89.455	-0.202	0.060
-650.814	-13.782	-0.322	-0.212
-649.799	-58.139	0.233	-0.103
-648.784	-77.824	-0.192	0.067
-647.770	-200.000	-0.001	-0.087
-646.755	-33.882	-0.140	-0.078
-645.741	-200.000	-0.014	-0.111
-644.726	612.771	-0.127	-0.323
-643.711	129.630	0.141	-0.183
-642.697	-91.906	0.010	0.003
-641.682	-79.246	-0.113	-0.039
-640.668	-14.413	0.388	0.254
-639.653	-122.174	-0.115	-0.019
-638.638	-32.135	0.253	-0.144
-637.624	-71.759	0.147	-0.056
-636.609	5.448	-0.152	0.114
-635.595	783.652	-0.097	0.270
-634.580	14.050	-0.174	0.138
-633.565	122.096	-0.249	-0.317
-632.551	800.000	0.046	-0.144
-631.536	-27.013	-0.322	-0.191
-630.522	-141.720	-0.126	-0.013
-629.507	800.000	0.033	-0.101
-628.492	-104.994	0.259	0.060
-627.478	-39.754	-0.127	-0.067
-626.463	-78.815	-0.148	-0.051
-625.449	204.441	0.033	0.052
-624.434	-200.000	-0.033	-0.181
-623.419	-32.982	0.148	-0.083
-622.405	-177.084	-0.047	0.001
-621.390	142.001	-0.039	0.053
-620.376	94.238	0.032	0.037
-619.361	-157.412	-0.163	0.010
-618.346	-200.000	0.036	-0.315
-617.332	-200.000	-0.006	0.060
-616.317	243.066	-0.164	-0.280
-615.303	-137.895	0.121	-0.014
-614.288	-200.000	0.018	0.149
-613.273	291.586	-0.173	-0.320
-612.259	484.911	0.069	-0.160
-611.244	176.108	0.083	0.122
-610.230	72.580	0.303	-0.321
-609.215	457.594	-0.122	0.276
-608.201	-91.795	-0.340	-0.098
-607.186	125.034	0.052	0.067
-606.171	4.290	-0.115	0.085
-605.157	-113.312	0.235	-0.047
-604.142	-113.888	0.155	-0.031
-603.128	-163.039	-0.123	-0.006
-602.113	-97.696	-0.207	0.055
-601.098	283.358	-0.047	-0.086
-600.084	167.492	-0.099	0.143
-599.069	158.251	-0.279	-0.393
-598.055	-200.000	0.056	-0.289
-597.040	-118.504	0.191	0.034
-596.025	-200.000	-0.008	-0.109
-595.011	-22.863	0.121	-0.074
-593.996	628.404	-0.034	-0.088
-592.982	-170.723	0.117	-0.004
-591.967	-200.000	0.007	0.123
-590.952	6.297	-0.412	-0.311
-589.938	290.049	-0.156	-0.287
-588.923	98.780	-0.141	0.166
-587.909	-105.914	0.212	0.049
-586.894	-200.000	0.012	-0.076
-585.879	-113.131	0.095	-0.019
-584.865	-92.211	0.059	0.017
-583.850	26.864	-0.217	0.184
-582.836	-200.000	0.001	-0.033
-581.821	-89.987	-0.371	0.110
-580.806	-200.000	-0.068	-0.408
-579.792	-47.102	0.182	0.090
-578.777	285.839	0.085	0.156
-577.763	786.853	-0.167	0.464
-576.748	130.732	0.028	-0.037
-575.733	222.198	-0.062	0.101
-574.719	229.897	0.172	-0.285
-573.704	79.022	0.108	0.118
-572.690	-200.000	0.102	0.458
-571.675	480.772	0.026	-0.059
-570.661	-19.023	-0.090	0.057
-569.646	-73.052	-0.218	-0.081
-568.631	243.813	-0.191	-0.325
-567.617	-29.634	0.147	0.085
-566.602	-200.000	-0.018	-0.167
-565.588	-82.652	-0.218	-0.072
-564.573	-179.893	0.070	0.002
-563.558	-46.243	0.297	0.148
-562.544	207.293	-0.110	-0.174
-561.529	800.000	0.080	0.240
-560.515	54.223	-0.123	-0.120
-559.500	103.677	-0.128	-0.152
-558.485	29.994	0.387	-0.335
-557.471	435.882	0.114	-0.252
-556.456	296.738	-0.188	0.349
-555.442	-39.733	0.275	0.146
-554.427	-101.849	-0.143	0.035
-553.412	125.339	-0.079	-0.102
-552.398	-166.484	0.202	-0.009
-551.383	-73.578	-0.201	-0.074
-550.369	134.672	-0.104	0.137
-549.354	527.607	-0.159	-0.381
-548.339	-8.354	0.244	0.167
-547.325	394.983	0.051	-0.109
-546.310	-31.793	-0.133	-0.076
-545.296	-200.000	-0.004	-0.365
-544.281	55.090	-0.219	0.214
-543.266	7.466	-0.076	0.058
-542.252	-200.000	-0.017	0.313
-541.237	-105.034	-0.226	-0.052
-540.223	-1.436	-0.226	0.161
-539.208	124.270	0.114	0.146
-538.193	-58.814	0.185	0.081
-537.179	-163.201	-0.326	-0.016
-536.164	-155.293	0.056	-0.004
-535.150	11.337	0.005	-0.004
-534.135	-200.000	0.040	-0.435
-533.121	-200.000	0.054	0.410
-532.106	-200.000	-0.015	0.131
-531.091	-0.156	-0.092	-0.066
-530.077	-185.386	-0.140	-0.002
-529.062	-50.362	-0.012	-0.006
-528.048	19.953	0.144	0.117
-527.033	-123.036	0.065	0.011
-526.018	-45.444	-0.172	-0.086
-525.004	-99.524	0.148	-0.038
-523.989	48.007	0.166	0.157
-522.975	113.991	-0.125	0.153
-521.960	800.000	0.085	0.268
-520.945	-126.735	-0.385	0.058
-519.931	-18.384	-0.194	-0.123
-518.916	-77.437	-0.112	-0.039
-517.902	85.041	-0.197	0.219
-516.887	-119.524	-0.154	0.027
-515.872	-4.189	0.119	-0.084
-514.858	-200.000	0.030	0.183
-513.843	456.628	0.105	-0.235
-512.829	800.000	-0.057	0.211
-511.814	142.567	0.272	0.366
-510.799	-194.212	-0.196	-0.002
-509.785	28.954	-0.207	-0.178
-508.770	800.000	-0.037	-0.129
-507.756	-200.000	0.012	0.146
-506.741	-163.909	-0.132	0.006
-505.726	73.998	0.207	-0.220
-504.712	-78.186	0.133	0.046
-503.697	800.000	-0.016	-0.049
-502.683	-119.613	0.295	-0.052
-501.668	-116.388	-0.330	-0.062
-500.653	-200.000	-0.035	0.251
-499.639	-158.101	-0.119	-0.007
-498.624	-22.311	-0.103	-0.063
-497.610	-79.293	0.353	-0.121
-496.595	-93.825	-0.181	-0.051
-495.581	-200.000	0.066	0.298
-494.566	-200.000	0.012	0.114
-493.551	36.252	0.182	-0.163
-492.537	148.006	-0.114	-0.155
-491.522	800.000	0.036	0.142
-490.508	-94.265	0.333	0.092
-489.493	204.684	-0.174	-0.273
-488.478	116.099	-0.074	-0.092
-487.464	37.195	-0.222	-0.199
-486.449	543.709	-0.019	-0.046
-485.435	-84.554	0.465	-0.148
-484.420	800.000	-0.076	0.230
-483.405	31.609	-0.084	0.073
-482.391	-182.985	0.270	-0.005
-481.376	-70.806	0.281	0.107
-480.362	82.020	0.070	0.077
-479.347	39.154	-0.140	0.127
-478.332	-200.000	0.019	-0.175
-477.318	800.000	-0.040	0.150
-476.303	35.338	0.114	0.101
-475.289	800.000	-0.115	-0.324
-474.274	347.155	-0.142	-0.283
-473.259	241.774	0.101	0.171
-472.245	215.541	-0.274	-0.439
-471.230	-40.158	0.086	0.045
-470.216	-3.339	0.271	0.191
-469.201	-200.000	-0.033	-0.192
-468.186	180.269	-0.267	-0.396
-467.172	154.480	-0.153	0.212
-466.157	21.016	-0.165	0.135
-465.143	-178.499	0.110	0.003
-464.128	-200.000	-0.040	0.187
-463.113	800.000	0.017	0.070
-462.099	-16.730	0.194	0.124
-461.084	-12.194	0.274	0.181
-460.070	69.845	-0.271	0.282
-459.055	159.286	0.097	-0.136
-458.040	797.337	0.088	-0.244
-457.026	66.598	0.134	-0.137
-456.011	-129.110	-0.146	-0.021
-454.997	800.000	-0.020	0.076
-453.982	215.344	-0.153	-0.246
-452.968	17.645	-0.081	-0.065
-451.953	-200.000	0.008	0.048
-450.938	-200.000	0.007	-0.057
-449.924	35.779	0.250	0.222
-448.909	67.268	-0.061	-0.063
-447.895	163.853	-0.111	-0.158
-446.880	50.166	0.095	0.090
-445.865	800.000	-0.109	-0.338
-444.851	-53.207	-0.215	0.100
-443.836	38.969	0.117	0.105
-442.822	-42.471	-0.351	0.181
-441.807	21.953	-0.243	-0.200
-440.792	110.937	-0.154	0.187
-439.778	-77.238	0.459	-0.161
-438.763	-65.618	-0.293	-0.118
-437.749	469.428	0.067	0.153
-436.734	-113.423	0.399	-0.079
-435.719	800.000	-0.093	0.280
-434.705	133.700	0.168	0.219
-433.690	-39.959	0.189	-0.100
-432.676	353.648	-0.103	0.206
-431.661	-130.154	0.313	-0.043
-430.646	-115.336	0.137	-0.026
-429.632	59.161	-0.240	-0.239
-428.617	-200.000	0.049	0.251
-427.603	14.190	-0.323	-0.254
-426.588	-110.665	0.340	0.071
-425.573	800.000	0.031	-0.106
-424.559	110.658	-0.089	-0.108
-423.544	-200.000	-0.010	0.433
-422.530	217.770	0.027	0.043
-421.515	-12.601	0.243	0.160
-420.500	-139.726	-0.092	0.010
-419.486	800.000	0.118	-0.381
-418.471	27.553	-0.172	-0.146
-417.457	-200.000	-0.021	0.260
-416.442	-107.327	0.274	0.061
-415.428	800.000	-0.061	-0.206
-414.413	-131.295	-0.321	0.043
-413.398	195.439	0.175	-0.269
-412.384	346.484	0.197	-0.391
-411.369	561.534	0.052	-0.126
-410.355	145.929	0.077	-0.105
-409.340	800.000	-0.081	0.286
-408.325	-145.047	0.180	0.017
-407.311	800.000	0.064	0.249
-406.296	-80.819	-0.323	0.108
-405.282	-64.228	-0.206	0.085
-404.267	-152.307	-0.061	-0.004
-403.252	469.527	0.028	0.064
-402.238	624.454	0.052	-0.133
-401.223	-200.000	-0.031	-0.187
-400.209	800.000	-0.060	-0.171
-399.194	105.180	-0.210	0.250
-398.179	120.397	-0.271	-0.340
-397.165	10.161	0.195	-0.150
-396.150	-142.636	0.403	-0.040
-395.136	-20.613	-0.144	0.089
-394.121	-26.715	-0.153	0.090
-393.106	111.117	0.149	0.180
-392.092	33.742	-0.123	-0.108
-391.077	347.280	-0.141	0.280
-390.063	-55.368	0.170	0.077
-389.048	-153.861	0.213	0.015
-388.033	-72.806	-0.161	0.060
-387.019	43.295	0.093	-0.085
-386.004	-63.991	-0.134	-0.055
-384.990	217.776	-0.126	-0.202
-383.975	209.802	-0.041	0.064
-382.960	126.054	0.111	0.142
-381.946	800.000	0.039	-0.163
-380.931	-200.000	0.039	-0.314
-379.917	-146.390	-0.257	-0.023
-378.902	-71.457	-0.211	0.079
-377.888	67.127	0.185	0.190
-376.873	-200.000	0.013	0.178
-375.858	-200.000	-0.011	0.115
-374.844	-160.057	-0.178	-0.010
-373.829	-14.348	-0.222	0.144
-372.815	147.392	-0.061	0.082
-371.800	163.659	0.011	0.015
-370.785	-85.724	-0.322	-0.101
-369.771	57.067	0.263	-0.258
-368.756	-135.924	0.202	-0.024
-367.742	800.000	-0.030	-0.112
-366.727	-13.781	0.301	0.196
-365.712	604.366	-0.066	0.164
-364.698	800.000	-0.174	-0.501
-363.683	81.736	-0.113	-0.123
-362.669	394.971	0.109	0.229
-361.654	-79.901	0.247	0.084
-360.639	-115.057	-0.174	-0.033
-359.625	651.492	0.150	0.387
-358.610	800.000	-0.120	0.462
-357.596	208.161	0.072	-0.114
-356.581	800.000	0.143	-0.439
-355.566	-79.920	0.054	-0.018
-354.552	434.468	0.167	0.366
-353.537	-25.697	-0.159	-0.094
-352.523	-200.000	-0.008	0.130
-351.508	-77.250	-0.228	0.080
-350.493	233.556	-0.103	0.171
-349.479	45.544	0.157	-0.146
-348.464	800.000	0.030	0.124
-347.450	-75.318	0.383	0.138
-346.435	-140.372	-0.174	-0.018
-345.420	800.000	0.078	-0.236
-344.406	40.235	0.055	0.050
-343.391	-159.784	-0.127	0.007
-342.377	-62.563	0.156	0.065
-341.362	800.000	-0.083	0.280
-340.348	147.434	-0.197	-0.267
-339.333	103.204	0.158	0.186
-338.318	56.347	-0.121	-0.119
-337.304	-200.000	-0.045	-0.205
-336.289	800.000	-0.024	-0.088
-335.275	69.394	-0.036	-0.037
-334.260	-161.666	-0.257	-0.013
-333.245	-82.121	0.205	0.067
-332.231	61.521	0.148	-0.148
-331.216	-168.044	0.211	-0.008
-330.202	800.000	-0.067	0.295
-329.187	15.460	-0.132	0.104
-328.172	-95.692	-0.348	-0.094
-327.158	312.143	0.147	0.278
-326.143	102.958	0.160	-0.188
-325.129	-200.000	-0.009	0.199
-324.114	-81.038	-0.177	0.059
-323.099	-58.309	0.159	-0.070
-322.085	-200.000	-0.222	-0.000
-321.070	412.491	0.073	-0.157
-320.056	-68.980	-0.105	-0.041
-319.041	800.000	0.137	-0.488
-318.026	-14.994	-0.172	-0.111
-317.012	4.408	-0.280	-0.207
-315.997	-115.389	0.106	-0.020
-314.983	-74.133	-0.269	-0.098
-313.968	6.178	-0.224	0.167
-312.953	-40.635	-0.044	0.023
-311.939	-26.359	-0.154	-0.091
-310.924	-19.254	-0.252	-0.157
-309.910	189.692	-0.111	0.168
-308.895	74.201	0.119	-0.125
-307.880	42.458	0.189	-0.172
-306.866	-200.000	-0.043	-0.214
-305.851	800.000	0.037	-0.110
-304.837	347.159	0.121	0.240
-303.822	-200.000	0.050	0.290
-302.807	126.489	-0.240	-0.305
-301.793	496.323	-0.031	0.071
-300.778	-200.000	0.024	-0.122
-299.764	-154.740	-0.127	0.008
-298.749	-89.732	0.258	0.076
-297.735	-68.814	-0.136	-0.053
-296.720	800.000	0.051	0.188
-295.705	-103.691	0.641	0.151
-294.691	50.752	-0.099	0.094
-293.676	-51.088	0.223	0.105
-292.662	18.605	-0.313	0.252
-291.647	-200.000	-0.017	-0.150
-290.632	48.153	-0.047	-0.044
-289.618	19.813	-0.049	0.040
-288.603	254.830	0.064	-0.110
-287.589	800.000	0.021	0.087
-286.574	800.000	-0.073	0.229
-285.559	-104.405	0.309	-0.072
-284.545	28.229	0.340	-0.288
-283.530	91.552	0.118	0.133
-282.516	17.858	0.132	-0.105
-281.501	-200.000	-0.048	-0.443
-280.486	-91.093	-0.327	0.094
-279.472	-122.219	0.189	0.031
-278.457	-94.676	0.020	0.006
-277.443	-200.000	0.010	-0.311
-276.428	-70.710	-0.118	-0.045
-275.413	800.000	-0.013	0.046
-274.399	-181.224	0.054	0.001
-273.384	398.441	-0.057	-0.119
-272.370	-94.297	0.031	-0.008
-271.355	-110.096	0.322	-0.067
-270.340	32.998	0.141	-0.122
-269.326	800.000	0.046	0.161
-268.311	-200.000	-0.088	0.414
-267.297	-117.221	0.067	-0.012
-266.282	55.117	-0.106	0.102
-265.267	731.408	0.104	0.278
-264.253	-101.915	0.123	0.030
-263.238	-12.740	0.121	0.079
-262.224	-200.000	-0.005	0.021
-261.209	348.079	-0.074	0.146
-260.195	-18.166	-0.194	-0.122
-259.180	-153.013	0.347	0.024
-258.165	-130.051	0.145	-0.020
-257.151	676.504	-0.167	-0.436
-256.136	551.570	0.027	-0.064
-255.122	-147.326	0.269	0.023
-254.107	539.717	0.057	-0.137
-253.092	-200.000	-0.019	0.253
-252.078	-11.636	-0.179	-0.118
-251.063	241.968	0.055	-0.092
-250.049	3.593	-0.255	0.186
-249.034	-200.000	0.012	-0.091
-248.019	-47.189	0.247	0.121
-247.005	77.926	-0.084	-0.089
-245.990	800.000	0.083	0.253
-244.976	-200.000	-0.003	-0.068
-243.961	800.000	0.072	0.222
-242.946	800.000	0.091	0.319
-241.932	589.895	-0.042	0.103
-240.917	-128.475	-0.131	-0.019
-239.903	86.529	0.212	0.234
-238.888	31.838	0.266	-0.229
-237.873	-187.912	0.209	0.003
-236.859	-17.921	-0.284	0.178
-235.844	18.932	0.156	-0.125
-234.830	697.688	-0.066	0.174
-233.815	-45.399	-0.292	-0.145
-232.800	-107.654	-0.258	-0.057
-231.786	-10.103	-0.212	0.141
-230.771	69.110	-0.214	0.221
-229.757	-2.643	-0.096	-0.068
-228.742	-200.000	0.010	0.171
-227.727	800.000	-0.049	-0.206
-226.713	-66.315	0.219	0.087
-225.698	1.747	-0.195	0.141
-224.684	-200.000	0.002	0.651
-223.669	800.000	0.058	0.211
-222.655	-91.917	0.300	0.085
-221.640	-88.084	0.138	0.041
-220.625	800.000	0.101	0.284
-219.611	800.000	-0.077	0.228
-218.596	-78.655	-0.087	-0.030
-217.582	-106.801	0.308	0.068
-216.567	-200.000	-0.017	0.209
-215.552	-101.304	-0.249	0.061
-214.538	-200.000	-0.050	-0.385
-213.523	43.077	-0.206	-0.188
-212.509	-134.872	0.407	-0.049
-211.494	-152.554	-0.095	-0.007
-210.479	123.057	-0.177	0.222
-209.465	-23.045	-0.089	-0.054
-208.450	-143.907	-0.394	0.037
-207.436	-200.000	-0.025	0.229
-206.421	3.160	0.174	-0.126
-205.406	4.377	0.173	0.127
-204.392	-196.615	0.312	0.002
-203.377	-35.636	-0.110	0.060
-202.363	-72.303	-0.251	0.093
-201.348	-21.717	-0.269	0.164
-200.333	-14.291	0.158	-0.102
-199.319	432.001	-0.086	-0.186
-198.304	-200.000	-0.003	0.046
-197.290	-187.870	-0.316	-0.004
-196.275	215.132	0.306	-0.485
-195.260	63.972	0.102	-0.103
-194.246	290.976	0.083	0.152
-193.231	800.000	-0.060	0.198
-192.217	530.868	-0.066	0.157
-191.202	-85.952	0.251	-0.078
-190.187	-137.578	0.280	-0.032
-189.173	-140.245	0.029	0.003
-188.158	-200.000	-0.018	-0.084
-187.144	-72.655	0.227	-0.084
-186.129	-200.000	-0.009	0.183
-185.114	9.709	0.171	0.130
-184.100	-64.542	0.261	-0.106
-183.085	-200.000	0.034	-0.187
-182.071	495.939	-0.093	0.214
-181.056	209.665	0.107	0.168
-180.042	-200.000	-0.018	-0.164
-179.027	-200.000	0.003	-0.217
-178.012	-200.000	-0.011	0.092
-176.998	-2.452	0.214	0.150
-175.983	-19.215	0.297	0.184
-174.969	-200.000	0.055	0.302
-173.954	79.206	-0.108	0.116
-172.939	-106.052	0.368	-0.083
-171.925	-65.493	0.114	-0.046
-170.910	-200.000	0.020	0.174
-169.896	204.438	-0.192	-0.297
-168.881	-173.013	0.208	0.006
-167.866	-200.000	0.054	-0.272
-166.852	-118.366	0.091	-0.016
-165.837	-117.534	0.349	-0.063
-164.823	34.328	-0.293	-0.255
-163.808	-48.781	0.041	0.020
-162.793	-200.000	0.019	0.479
-161.779	-29.971	0.154	-0.088
-160.764	141.512	-0.082	0.109
-159.750	358.188	-0.122	-0.243
-158.735	238.426	-0.084	0.140
-157.720	215.205	-0.107	0.169
-156.706	-115.918	0.286	-0.053
-155.691	61.385	0.056	-0.056
-154.677	-32.959	-0.273	-0.151
-153.662	-160.249	0.234	0.013
-152.647	-200.000	-0.008	-0.132
-151.633	-16.213	0.090	0.057
-150.618	-105.736	0.147	-0.033
-149.604	-0.454	0.294	-0.208
-148.589	-200.000	0.023	-0.143
-147.574	35.415	-0.072	-0.063
-146.560	54.165	0.113	-0.108
-145.545	-123.153	-0.070	-0.011
-144.531	-200.000	0.025	-0.159
-143.516	-200.000	-0.036	-0.491
-142.502	-110.788	-0.429	0.088
-141.487	85.140	0.060	-0.066
-140.472	151.460	-0.158	-0.215
-139.458	18.739	-0.098	-0.078
-138.443	477.061	-0.062	0.139
-137.429	190.154	0.133	-0.199
-136.414	301.592	0.097	-0.179
-135.399	156.886	-0.061	0.084
-134.385	-58.294	-0.187	-0.081
-133.370	800.000	-0.029	-0.093
-132.356	-154.392	0.114	0.008
-131.341	172.475	-0.049	0.071
-130.326	-200.000	0.042	-0.220
-129.312	-10.560	-0.097	-0.064
-128.297	55.554	-0.043	0.042
-127.283	104.037	-0.139	0.163
-126.268	192.150	-0.112	-0.169
-125.253	-142.847	0.297	0.029
-124.239	-14.388	-0.466	0.299
-123.224	-159.705	-0.175	0.010
-122.210	-200.000	-0.010	-0.065
