DTS Sentinel unit serial number:	SN413079Multiplexer serial number:	ORYXHardware model number:	OX4-SRSoftware version number:	ORYX F/W v4.00 Oryx Data Collector v3.7.2.0data status	okinstallation	princeton_trtdifferential loss correction	single-endedforward channel	channel 1reverse channel	N/Adate	2019/09/18time	01:50:35forward acquisition time	60.00reverse acquisition time	0.00gamma	496.2192k internal	0.2341k external	0.2341temperature offset calibration	0.9979default loss term (dB/km)	0.3790temperature slope calibration	1.0000multiplexer offset coefficient	1.0000multiplexer slope coefficient	1.0000fibre end	0.00T internal ref (°C)	22.98T ext. ref 1 (°C)	0.17T ext. ref 2 (°C)	16.59length (m)	temperature (°C)	Stokes	anti-Stokes-747.200	-186.718	0.290	0.004
-746.185	-65.761	0.056	-0.022
-745.171	-200.000	0.010	0.315
-744.156	-30.252	0.267	0.152
-743.142	-134.642	-0.256	-0.031
-742.127	-200.000	0.039	0.379
-741.112	590.341	-0.117	0.290
-740.098	-128.893	-0.340	0.048
-739.083	174.679	-0.206	-0.298
-738.069	93.564	0.080	0.090
-737.054	800.000	-0.031	-0.122
-736.039	127.887	-0.190	-0.241
-735.025	-200.000	-0.033	0.210
-734.010	-200.000	-0.108	-0.490
-732.996	403.299	0.122	-0.258
-731.981	-106.134	-0.380	0.085
-730.966	148.696	-0.066	-0.090
-729.952	414.271	-0.049	0.104
-728.937	-146.862	0.513	0.044
-727.923	-200.000	-0.012	-0.129
-726.908	-86.630	-0.203	0.062
-725.894	42.096	0.072	0.065
-724.879	-200.000	-0.002	-0.399
-723.864	102.695	0.121	-0.141
-722.850	35.252	0.303	-0.266
-721.835	-200.000	0.041	-0.203
-720.821	140.029	-0.045	-0.059
-719.806	301.678	0.035	-0.065
-718.791	11.816	0.069	-0.053
-717.777	137.588	0.205	0.269
-716.762	-12.408	-0.381	0.249
-715.748	800.000	-0.085	-0.301
-714.733	-174.788	-0.171	-0.005
-713.718	-8.179	0.020	0.013
-712.704	-105.937	0.222	-0.050
-711.689	800.000	-0.116	0.419
-710.675	-24.772	0.117	0.070
-709.660	661.316	0.060	-0.154
-708.645	-41.989	-0.172	0.088
-707.631	157.044	-0.076	-0.105
-706.616	-25.105	0.359	0.213
-705.602	800.000	-0.054	-0.237
-704.587	-200.000	0.027	-0.454
-703.572	-58.399	0.283	-0.123
-702.558	-31.403	0.149	0.084
-701.543	-84.154	0.146	-0.046
-700.529	-85.552	0.369	-0.115
-699.514	-30.218	-0.253	-0.144
-698.499	-200.000	0.007	-0.046
-697.485	434.810	0.140	-0.304
-696.470	-114.510	-0.284	0.054
-695.456	800.000	-0.016	0.061
-694.441	136.058	0.161	-0.209
-693.426	-42.562	0.187	-0.095
-692.412	-75.079	-0.097	-0.035
-691.397	-200.000	-0.024	-0.248
-690.383	132.243	-0.127	-0.164
-689.368	288.329	0.084	-0.152
-688.354	-200.000	-0.040	0.242
-687.339	-16.581	0.225	0.143
-686.324	-101.208	-0.396	-0.097
-685.310	-200.000	0.035	0.249
-684.295	93.564	0.128	-0.145
-683.281	-99.027	-0.082	-0.021
-682.266	100.134	0.182	0.211
-681.251	800.000	0.088	-0.312
-680.237	563.795	-0.077	0.185
-679.222	121.081	0.096	-0.119
-678.208	1.325	-0.129	-0.092
-677.193	238.803	-0.032	0.054
-676.178	-78.775	0.359	-0.122
-675.164	-28.052	-0.331	0.191
-674.149	114.838	0.053	0.065
-673.135	-200.000	0.071	0.349
-672.120	62.343	-0.169	0.169
-671.105	490.295	0.093	0.212
-670.091	28.787	0.136	-0.115
-669.076	118.532	-0.197	0.243
-668.062	111.709	-0.054	0.065
-667.047	-200.000	-0.041	-0.343
-666.032	-50.247	-0.141	-0.067
-665.018	800.000	0.056	0.184
-664.003	-124.865	-0.470	-0.072
-662.989	-29.074	0.217	-0.125
-661.974	-43.194	-0.124	-0.062
-660.959	-30.950	-0.323	0.182
-659.945	-158.972	0.208	0.012
-658.930	-200.000	0.017	0.092
-657.916	800.000	-0.031	-0.101
-656.901	149.834	0.079	0.107
-655.886	283.020	0.263	-0.471
-654.872	75.816	-0.335	-0.354
-653.857	800.000	-0.091	0.323
-652.843	275.818	-0.048	-0.086
-651.828	-200.000	-0.020	-0.111
-650.814	-64.301	0.291	-0.118
-649.799	-97.417	0.096	-0.025
-648.784	164.228	-0.198	-0.279
-647.770	-150.901	0.117	-0.009
-646.755	44.213	-0.180	-0.165
-645.741	-200.000	0.003	-0.235
-644.726	220.263	-0.054	0.087
-643.711	643.220	0.107	0.272
-642.697	-41.708	-0.110	0.057
-641.682	-86.978	0.158	-0.048
-640.668	141.452	0.075	-0.099
-639.653	235.270	-0.090	-0.147
-638.638	563.072	-0.069	0.166
-637.624	196.295	-0.139	-0.210
-636.609	442.455	0.104	-0.227
-635.595	-2.199	-0.243	0.170
-634.580	-135.381	-0.137	0.016
-633.565	-39.106	-0.198	-0.104
-632.551	87.701	-0.264	-0.292
-631.536	-76.327	0.317	0.112
-630.522	-75.947	-0.255	0.090
-629.507	-200.000	0.005	-0.333
-628.492	-99.750	0.115	0.029
-627.478	800.000	0.043	0.186
-626.463	190.913	-0.136	0.204
-625.449	89.049	-0.007	0.008
-624.434	-157.418	0.349	-0.021
-623.419	-200.000	-0.001	0.325
-622.405	-16.824	0.417	0.263
-621.390	-200.000	0.045	0.231
-620.376	43.902	-0.081	0.074
-619.361	261.972	0.098	-0.170
-618.346	-158.488	-0.113	0.007
-617.332	-200.000	-0.044	0.311
-616.317	101.660	-0.055	-0.064
-615.303	-37.339	0.065	0.035
-614.288	68.484	0.169	0.173
-613.273	-200.000	-0.029	0.139
-612.259	800.000	-0.080	-0.253
-611.244	-93.051	-0.281	-0.078
-610.230	3.979	0.148	0.108
-609.215	-151.896	-0.142	0.010
-608.201	23.995	0.119	0.097
-607.186	483.776	0.071	-0.162
-606.171	-182.245	0.214	0.004
-605.157	800.000	0.073	-0.216
-604.142	206.740	-0.181	-0.281
-603.128	-111.407	-0.031	0.006
-602.113	71.088	-0.274	0.283
-601.098	-124.690	-0.336	0.052
-600.084	-3.274	0.205	-0.142
-599.069	-51.271	-0.202	0.094
-598.055	-88.277	0.242	-0.072
-597.040	-200.000	0.027	-0.234
-596.025	23.903	0.035	-0.028
-595.011	-150.810	-0.294	0.022
-593.996	800.000	0.035	0.132
-592.982	247.216	-0.054	0.091
-591.967	126.912	0.040	0.051
-590.952	-7.372	-0.173	-0.117
-589.938	-200.000	-0.065	-0.337
-588.923	-63.786	-0.176	-0.072
-587.909	121.504	0.272	-0.338
-586.894	-200.000	0.037	0.170
-585.879	-75.984	-0.129	0.046
-584.865	-200.000	0.059	0.261
-583.850	-39.176	0.108	0.057
-582.836	800.000	-0.055	0.197
-581.821	105.680	0.138	-0.162
-580.806	-200.000	0.025	-0.232
-579.792	684.154	-0.063	-0.163
-578.777	25.993	0.180	0.150
-577.763	-130.663	0.171	0.023
-576.748	564.461	-0.049	-0.118
-575.733	688.209	0.064	0.167
-574.719	143.796	0.167	0.221
-573.704	61.366	-0.196	-0.194
-572.690	333.734	0.039	0.075
-571.675	146.894	-0.058	-0.078
-570.661	275.123	-0.180	-0.317
-569.646	93.869	-0.123	-0.139
-568.631	-131.573	-0.290	0.038
-567.617	331.792	-0.097	-0.186
-566.602	-200.000	0.012	0.068
-565.588	-110.511	-0.057	0.012
-564.573	137.006	-0.205	-0.266
-563.558	77.376	0.077	0.081
-562.544	800.000	-0.061	0.245
-561.529	13.870	-0.028	-0.022
-560.515	215.952	-0.149	0.235
-559.500	-100.494	-0.229	0.056
-558.485	88.275	0.228	0.252
-557.471	-145.746	-0.206	0.018
-556.456	800.000	0.048	-0.186
-555.442	800.000	-0.006	-0.018
-554.427	41.792	-0.175	-0.158
-553.412	-87.846	-0.157	0.047
-552.398	521.683	-0.063	0.147
-551.383	-64.203	-0.292	-0.118
-550.369	-165.062	0.173	-0.008
-549.354	-118.593	-0.407	-0.071
-548.339	-200.000	0.008	-0.106
-547.325	8.325	0.120	-0.089
-546.310	-131.670	-0.284	-0.037
-545.296	800.000	-0.047	0.175
-544.281	-200.000	-0.015	-0.243
-543.266	-19.400	-0.385	-0.237
-542.252	-96.945	-0.327	-0.085
-541.237	-14.221	0.105	0.068
-540.223	-19.945	0.062	-0.038
-539.208	-91.850	0.083	-0.023
-538.193	-70.957	0.217	-0.081
-537.179	-200.000	-0.052	-0.389
-536.164	-66.311	0.245	-0.097
-535.150	101.743	0.327	0.379
-534.135	528.650	-0.033	0.077
-533.121	-6.494	0.339	-0.229
-532.106	36.699	0.366	-0.321
-531.091	-2.594	-0.214	0.149
-530.077	-200.000	0.048	0.227
-529.062	800.000	0.057	0.167
-528.048	495.721	-0.153	-0.350
-527.033	-100.495	-0.230	0.056
-526.018	65.476	0.162	0.163
-525.004	314.551	0.116	-0.216
-523.989	-49.771	-0.185	-0.087
-522.975	109.536	-0.113	-0.134
-521.960	-117.443	0.358	-0.064
-520.945	-13.462	-0.307	-0.197
-519.931	-120.271	-0.292	0.050
-518.916	800.000	-0.088	0.270
-517.902	0.608	0.207	0.147
-516.887	596.028	-0.089	0.218
-515.872	227.578	-0.020	-0.032
-514.858	-60.618	-0.128	0.054
-513.843	692.206	-0.100	-0.261
-512.829	-181.896	0.179	0.003
-511.814	800.000	-0.016	0.058
-510.799	-200.000	0.000	-0.056
-509.785	-200.000	-0.001	-0.096
-508.770	343.281	-0.117	0.228
-507.756	-110.328	0.136	-0.028
-506.741	-200.000	-0.067	0.372
-505.726	53.896	-0.125	0.119
-504.712	326.574	0.159	0.303
-503.697	800.000	-0.020	0.076
-502.683	-200.000	0.020	0.176
-501.668	337.027	-0.241	0.465
-500.653	227.206	0.077	-0.124
-499.639	-162.738	0.194	0.009
-498.624	-91.472	0.207	-0.059
-497.610	-200.000	-0.058	0.299
-496.595	-200.000	0.064	0.388
-495.581	445.827	0.009	-0.020
-494.566	-98.813	-0.425	-0.107
-493.551	39.390	-0.103	-0.091
-492.537	-200.000	0.002	0.111
-491.522	327.737	0.078	0.148
-490.508	-200.000	-0.020	-0.281
-489.493	-27.604	0.083	0.048
-488.478	634.838	-0.082	-0.207
-487.464	384.693	-0.046	0.094
-486.449	-200.000	-0.023	0.199
-485.435	63.213	-0.121	0.120
-484.420	603.124	0.090	0.222
-483.405	78.297	-0.217	0.230
-482.391	83.737	0.231	-0.250
-481.376	-109.834	-0.309	0.064
-480.362	-34.549	-0.160	0.087
-479.347	-200.000	0.025	0.207
-478.332	-200.000	0.012	0.138
-477.318	-71.811	-0.232	0.086
-476.303	-155.104	0.137	0.009
-475.289	800.000	-0.072	-0.213
-474.274	-200.000	-0.013	-0.172
-473.259	447.323	0.104	0.227
-472.245	16.689	0.157	-0.123
-471.230	615.331	0.058	0.144
-470.216	636.514	0.045	-0.114
-469.201	-82.368	0.327	0.105
-468.186	-155.514	0.711	-0.045
-467.172	-87.294	-0.213	0.064
-466.157	723.118	-0.090	0.238
-465.143	108.975	-0.264	-0.313
-464.128	320.668	-0.250	-0.471
-463.113	-14.582	0.182	0.116
-462.099	193.860	0.056	0.084
-461.084	331.420	-0.140	0.268
-460.070	-20.180	0.213	0.130
-459.055	-99.744	-0.221	-0.055
-458.040	114.255	-0.104	0.125
-457.026	768.679	0.040	-0.107
-456.011	-99.674	-0.063	-0.016
-454.997	-48.288	0.116	-0.055
-453.982	47.687	-0.089	0.082
-452.968	116.985	-0.156	-0.190
-451.953	435.409	-0.053	0.115
-450.938	-88.448	0.164	0.049
-449.924	-4.992	-0.229	-0.156
-448.909	-47.169	-0.214	-0.103
-447.895	-81.807	0.085	-0.028
-446.880	194.294	-0.059	0.089
-445.865	-3.544	-0.126	-0.086
-444.851	800.000	-0.012	-0.041
-443.836	585.826	-0.063	0.154
-442.822	800.000	0.088	-0.318
-441.807	97.824	0.094	0.107
-440.792	800.000	-0.115	0.373
-439.778	-200.000	-0.003	0.077
-438.763	398.135	-0.172	0.357
-437.749	-30.091	-0.188	0.106
-436.734	57.278	0.040	-0.039
-435.719	124.223	0.100	0.125
-434.705	-108.141	0.301	-0.065
-433.690	137.367	0.054	-0.069
-432.676	75.710	0.061	0.064
-431.661	169.162	0.175	0.247
-430.646	-73.072	-0.150	0.054
-429.632	-29.285	0.271	0.154
-428.617	-153.822	0.242	0.016
-427.603	602.378	0.079	0.193
-426.588	97.616	0.120	0.137
-425.573	8.442	0.091	0.068
-424.559	237.520	-0.194	-0.318
-423.544	-58.922	0.138	-0.059
-422.530	163.329	0.011	0.016
-421.515	-200.000	0.004	0.113
-420.500	686.617	-0.039	0.100
-419.486	-52.541	-0.019	-0.009
-418.471	-44.944	0.088	-0.043
-417.457	550.943	-0.037	0.087
-416.442	-45.446	0.165	0.081
-415.428	192.785	0.200	-0.299
-414.413	555.958	-0.135	-0.321
-413.398	-10.266	-0.128	-0.084
-412.384	-56.752	-0.273	0.119
-411.369	100.825	0.156	-0.180
-410.355	236.937	0.169	-0.276
-409.340	-45.832	0.156	-0.076
-408.325	-102.610	0.438	-0.103
-407.311	257.818	-0.172	0.292
-406.296	237.486	-0.065	-0.106
-405.282	-200.000	-0.003	-0.397
-404.267	-200.000	0.058	0.314
-403.252	251.557	-0.198	-0.333
-402.238	-38.640	0.278	0.145
-401.223	277.372	-0.101	0.178
-400.209	385.130	-0.107	-0.219
-399.194	10.126	-0.353	-0.265
-398.179	-200.000	-0.014	0.156
-397.165	-41.885	0.430	-0.218
-396.150	800.000	-0.035	-0.141
-395.136	-200.000	-0.031	-0.325
-394.121	43.628	0.081	-0.073
-393.106	251.321	-0.080	-0.134
-392.092	16.596	0.361	-0.282
-391.077	800.000	0.071	-0.230
-390.063	-79.804	0.074	-0.025
-389.048	23.744	0.404	0.329
-388.033	5.710	-0.061	0.045
-387.019	-76.176	0.398	-0.139
-386.004	-200.000	0.009	-0.081
-384.990	315.827	0.125	-0.233
-383.975	-200.000	0.008	0.113
-382.960	-200.000	-0.010	-0.059
-381.946	80.229	0.137	0.146
-380.931	114.169	0.202	0.243
-379.917	-87.650	-0.179	-0.053
-378.902	800.000	0.080	0.259
-377.888	-21.251	0.249	0.150
-376.873	800.000	-0.025	-0.075
-375.858	-200.000	-0.007	0.080
-374.844	66.305	-0.125	0.125
-373.829	-89.451	0.149	-0.043
-372.815	-112.396	-0.334	0.066
-371.800	800.000	-0.137	-0.391
-370.785	103.426	-0.097	-0.113
-369.771	-200.000	0.013	-0.105
-368.756	-200.000	-0.044	0.230
-367.742	-27.168	-0.132	-0.076
-366.727	800.000	0.022	0.092
-365.712	-57.007	0.073	0.032
-364.698	-200.000	0.008	-0.421
-363.683	258.887	-0.116	0.197
-362.669	-24.693	-0.389	0.228
-361.654	-200.000	-0.017	-0.234
-360.639	198.513	0.101	-0.153
-359.625	-200.000	0.066	0.286
-358.610	-123.605	0.359	0.056
-357.596	43.639	0.098	0.088
-356.581	-200.000	0.002	-0.109
-355.566	-74.044	0.225	-0.081
-354.552	-200.000	0.019	0.230
-353.537	-158.162	-0.467	-0.027
-352.523	800.000	-0.025	0.097
-351.508	-200.000	0.063	0.338
-350.493	-117.113	-0.056	-0.010
-349.479	-86.514	0.024	0.007
-348.464	-6.631	0.346	0.232
-347.450	-120.558	-0.112	0.019
-346.435	257.275	0.055	0.093
-345.420	-134.326	0.147	0.018
-344.406	-200.000	0.078	-0.493
-343.391	800.000	0.084	0.260
-342.377	-102.698	-0.291	-0.069
-341.362	219.190	-0.062	0.098
-340.348	44.276	-0.066	-0.060
-339.333	-8.989	0.390	0.257
-338.318	-200.000	-0.014	0.356
-337.304	307.439	-0.148	0.272
-336.289	800.000	0.018	0.070
-335.275	215.996	-0.126	0.197
-334.260	-200.000	0.028	-0.124
-333.245	471.515	0.003	-0.006
-332.231	96.672	-0.084	0.094
-331.216	-58.328	0.213	-0.091
-330.202	34.441	-0.216	0.186
-329.187	-62.706	0.031	-0.013
-328.172	-200.000	0.021	-0.341
-327.158	-200.000	-0.022	-0.155
-326.143	-124.233	0.217	-0.033
-325.129	-69.564	0.197	0.074
-324.114	-87.836	0.202	0.060
-323.099	227.447	0.068	0.108
-322.085	-19.540	-0.098	-0.060
-321.070	128.853	0.112	-0.140
-320.056	30.663	-0.286	0.241
-319.041	-200.000	-0.017	-0.152
-318.026	-158.136	-0.165	-0.010
-317.012	-78.757	-0.296	0.099
-315.997	265.929	0.175	-0.300
-314.983	-117.628	-0.128	-0.023
-313.968	-200.000	0.091	-0.472
-312.953	800.000	-0.061	-0.246
-311.939	-132.484	0.279	0.035
-310.924	-200.000	-0.016	-0.094
-309.910	-175.292	0.361	0.010
-308.895	187.975	0.163	-0.240
-307.880	-43.358	-0.095	0.048
-306.866	143.382	0.169	0.222
-305.851	67.611	-0.023	-0.023
-304.837	174.532	-0.014	-0.020
-303.822	-33.216	0.280	-0.153
-302.807	383.022	0.077	-0.156
-301.793	387.628	-0.215	0.438
-300.778	32.212	0.045	0.038
-299.764	48.034	0.224	0.206
-298.749	-14.915	0.119	-0.075
-297.735	15.336	-0.084	0.065
-296.720	-35.794	0.079	-0.042
-295.705	447.452	0.228	0.495
-294.691	-107.344	0.191	0.041
-293.676	-88.881	0.035	0.010
-292.662	361.901	-0.037	-0.073
-291.647	260.456	0.106	0.181
-290.632	100.745	-0.131	0.150
-289.618	58.101	0.148	-0.143
-288.603	63.288	0.091	-0.090
-287.589	-185.332	0.057	0.001
-286.574	376.985	-0.083	-0.167
-285.559	-200.000	0.030	0.239
-284.545	-200.000	-0.012	0.056
-283.530	47.345	0.131	-0.120
-282.516	-66.841	-0.473	-0.184
-281.501	-161.152	0.211	0.011
-280.486	-55.922	0.169	-0.074
-279.472	800.000	-0.125	-0.373
-278.457	112.989	-0.198	-0.237
-277.443	-88.805	-0.168	0.049
-276.428	-34.213	0.224	-0.121
-275.413	-90.306	-0.181	-0.052
-274.399	800.000	-0.025	-0.106
-273.384	110.337	0.157	-0.186
-272.370	-84.923	-0.686	-0.212
-271.355	3.462	-0.407	0.291
-270.340	-85.877	-0.163	0.050
-269.326	94.433	-0.125	-0.140
-268.311	-80.617	0.268	-0.088
-267.297	-200.000	0.061	-0.322
-266.282	30.887	0.196	0.165
-265.267	25.676	0.119	0.097
-264.253	-72.828	0.102	0.037
-263.238	800.000	0.069	-0.194
-262.224	-200.000	0.002	0.049
-261.209	-200.000	-0.016	-0.131
-260.195	-200.000	-0.026	0.121
-259.180	-120.439	-0.150	-0.025
-258.165	-200.000	0.056	0.272
-257.151	-10.429	-0.147	0.096
-256.136	-109.640	0.225	-0.047
-255.122	36.928	-0.146	0.127
-254.107	349.838	-0.093	0.180
-253.092	54.146	-0.105	0.099
-252.078	-128.495	0.506	0.071
-251.063	-200.000	0.011	0.182
-250.049	800.000	-0.078	-0.257
-249.034	236.816	0.258	-0.421
-248.019	536.455	0.057	-0.134
-247.005	76.157	-0.054	0.056
-245.990	-200.000	-0.011	0.229
-244.976	42.327	-0.042	0.038
-243.961	-200.000	0.005	-0.248
-242.946	800.000	-0.093	0.276
-241.932	-105.643	0.215	-0.048
-240.917	-84.662	-0.358	0.111
-239.903	-107.922	-0.181	-0.039
-238.888	-31.686	0.402	-0.222
-237.873	-200.000	-0.072	0.417
-236.859	-8.772	-0.250	0.164
-235.844	161.192	0.119	-0.163
-234.830	-25.843	-0.170	0.099
-233.815	172.001	0.009	0.013
-232.800	209.232	-0.221	0.340
-231.786	-89.390	0.054	0.016
-230.771	800.000	0.152	-0.526
-229.757	759.117	0.074	0.196
-228.742	22.092	-0.213	0.171
-227.727	-111.606	-0.415	0.083
-226.713	198.009	0.148	0.222
-225.698	800.000	-0.013	0.043
-224.684	554.623	-0.051	0.122
-223.669	-200.000	0.001	-0.370
-222.655	50.197	-0.251	-0.233
-221.640	-200.000	0.082	0.384
-220.625	-44.054	0.037	-0.018
-219.611	29.809	-0.337	-0.282
-218.596	-109.111	0.175	-0.037
-217.582	-200.000	0.032	0.251
-216.567	184.087	-0.178	-0.259
-215.552	-200.000	-0.024	-0.171
-214.538	-104.208	0.204	-0.047
-213.523	-200.000	0.036	-0.259
-212.509	572.819	0.032	0.077
-211.494	-157.399	-0.049	0.003
-210.479	-96.968	-0.229	0.059
-209.465	-12.118	-0.250	-0.160
-208.450	800.000	-0.038	-0.152
-207.436	-45.822	0.032	-0.016
-206.421	523.043	0.043	0.100
-205.406	-97.057	-0.151	-0.039
-204.392	-93.620	0.162	0.044
-203.377	-26.871	0.214	-0.122
-202.363	-82.163	-0.277	0.089
-201.348	93.340	0.105	-0.117
-200.333	93.005	0.280	-0.311
-199.319	800.000	0.027	-0.101
-198.304	-9.096	0.152	0.100
-197.290	-200.000	0.043	0.510
-196.275	-200.000	-0.019	-0.096
-195.260	739.126	-0.092	0.242
-194.246	-200.000	0.004	0.473
-193.231	581.330	-0.151	-0.362
-192.217	350.016	0.166	0.322
-191.202	683.114	-0.145	-0.370
-190.187	-89.625	-0.086	-0.025
-189.173	800.000	0.063	-0.266
-188.158	-68.853	-0.195	-0.074
-187.144	-38.997	-0.040	0.021
-186.129	92.433	-0.103	-0.114
-185.114	478.285	0.110	-0.244
-184.100	-88.099	0.099	-0.029
-183.085	-75.682	0.223	0.077
-182.071	800.000	-0.014	-0.056
-181.056	-108.565	0.120	-0.025
-180.042	-130.800	-0.109	-0.014
-179.027	800.000	-0.118	0.432
-178.012	481.349	0.052	0.115
-176.998	96.698	-0.168	0.188
-175.983	-124.255	0.074	0.011
-174.969	308.452	0.076	-0.140
-173.954	-200.000	0.055	0.371
-172.939	-200.000	0.008	0.069
-171.925	8.308	-0.247	-0.182
-170.910	-200.000	-0.013	-0.288
-169.896	256.671	0.214	0.360
-168.881	6.475	0.424	0.309
-167.866	33.800	-0.173	0.148
-166.852	-107.118	0.253	0.055
-165.837	52.187	-0.211	-0.197
-164.823	206.994	0.100	-0.153
-163.808	367.325	0.071	0.140
-162.793	800.000	0.044	0.147
-161.779	230.577	-0.038	-0.061
-160.764	-200.000	-0.010	-0.113
-159.750	-155.422	0.058	0.004
-158.735	-48.863	-0.086	0.040
-157.720	409.210	0.130	0.270
-156.706	22.833	0.062	-0.050
-155.691	-200.000	0.002	-0.366
-154.677	250.401	-0.072	-0.119
-153.662	-200.000	0.025	0.131
-152.647	702.935	0.148	-0.383
-151.633	-200.000	0.011	-0.366
-150.618	-115.235	0.115	-0.021
-149.604	-24.952	-0.175	0.102
-148.589	79.307	-0.193	-0.202
-147.574	-37.468	0.163	0.085
-146.560	800.000	-0.033	0.103
-145.545	111.483	-0.066	-0.078
-144.531	800.000	0.138	0.427
-143.516	800.000	0.054	-0.190
-142.502	473.349	-0.186	0.410
-141.487	436.411	-0.111	0.236
-140.472	-65.500	0.534	-0.210
-139.458	-200.000	-0.046	-0.220
-138.443	-11.856	-0.176	-0.113
-137.429	658.592	0.090	-0.226
-136.414	328.642	0.165	-0.310
-135.399	-154.498	-0.087	-0.006
-134.385	214.566	-0.073	0.113
-133.370	-0.064	0.108	0.075
-132.356	-85.543	-0.118	-0.036
-131.341	362.757	0.113	-0.223
-130.326	-188.333	0.175	0.002
-129.312	88.168	-0.212	0.230
-128.297	-103.658	-0.231	0.053
-127.283	102.331	-0.051	-0.058
-126.268	10.751	0.158	-0.118
-125.253	-50.036	0.235	-0.109
-124.239	-200.000	-0.029	0.427
-123.224	-2.495	0.051	-0.035
-122.210	145.129	0.207	0.270
-121.195	-25.084	0.235	0.136
