DTS Sentinel unit serial number:	SN413079Multiplexer serial number:	ORYXHardware model number:	OX4-SRSoftware version number:	ORYX F/W v4.00 Oryx Data Collector v3.7.2.0data status	okinstallation	princeton_trtdifferential loss correction	single-endedforward channel	channel 1reverse channel	N/Adate	2019/09/16time	09:38:35forward acquisition time	60.00reverse acquisition time	0.00gamma	496.2192k internal	0.2320k external	0.2320temperature offset calibration	0.9965default loss term (dB/km)	0.3790temperature slope calibration	1.0000multiplexer offset coefficient	1.0000multiplexer slope coefficient	1.0000fibre end	0.00T internal ref (°C)	32.27T ext. ref 1 (°C)	12.25T ext. ref 2 (°C)	30.17length (m)	temperature (°C)	Stokes	anti-Stokes-747.200	-23.621	0.086	-0.052
-746.185	800.000	0.039	0.133
-745.171	-60.551	-0.135	-0.058
-744.156	386.975	-0.071	0.149
-743.142	-200.000	-0.025	-0.155
-742.127	177.417	0.197	0.291
-741.112	1.244	0.213	0.155
-740.098	-200.000	-0.034	0.155
-739.083	71.541	0.035	-0.037
-738.069	206.335	-0.138	0.218
-737.054	245.818	-0.181	-0.308
-736.039	31.810	0.152	0.132
-735.025	3.812	0.171	0.126
-734.010	525.793	-0.061	-0.145
-732.996	-97.250	-0.104	0.027
-731.981	-200.000	-0.090	-0.435
-730.966	-33.166	0.215	0.121
-729.952	800.000	0.088	-0.253
-728.937	69.986	-0.114	-0.118
-727.923	25.255	-0.152	-0.128
-726.908	-200.000	-0.031	0.349
-725.894	341.943	-0.094	0.186
-724.879	-149.526	-0.179	-0.014
-723.864	46.067	0.075	0.070
-722.850	147.925	-0.101	-0.138
-721.835	-200.000	0.021	0.176
-720.821	50.949	-0.295	-0.282
-719.806	181.246	0.141	-0.210
-718.791	-86.605	0.025	0.008
-717.777	800.000	0.112	-0.317
-716.762	-109.611	0.225	-0.048
-715.748	-50.424	0.396	-0.189
-714.733	344.968	0.013	-0.027
-713.718	800.000	0.106	-0.380
-712.704	-44.730	-0.182	0.092
-711.689	-48.571	-0.040	0.019
-710.675	-79.092	0.332	-0.114
-709.660	-40.742	0.188	0.098
-708.645	-200.000	-0.017	-0.255
-707.631	-79.055	-0.239	-0.082
-706.616	411.076	0.070	-0.151
-705.602	71.796	-0.249	0.262
-704.587	-137.905	0.334	0.038
-703.572	253.426	0.045	0.077
-702.558	131.145	-0.022	0.028
-701.543	-200.000	-0.013	0.151
-700.529	-82.044	0.082	0.027
-699.514	-104.810	0.245	0.057
-698.499	388.725	-0.081	-0.170
-697.485	-12.463	-0.316	-0.208
-696.470	-171.352	-0.210	0.007
-695.456	-60.802	-0.089	-0.038
-694.441	800.000	0.119	0.432
-693.426	341.643	0.141	-0.277
-692.412	31.266	-0.298	-0.258
-691.397	-200.000	-0.048	-0.251
-690.383	114.888	0.191	-0.235
-689.368	-108.592	0.233	0.050
-688.354	-79.149	0.169	-0.058
-687.339	77.396	-0.100	0.107
-686.324	58.138	-0.127	0.126
-685.310	98.466	-0.186	0.217
-684.295	-56.772	0.157	0.070
-683.281	-121.369	-0.173	0.029
-682.266	-177.508	-0.275	0.007
-681.251	311.652	0.158	-0.298
-680.237	-200.000	-0.024	-0.328
-679.222	495.656	-0.035	0.081
-678.208	39.119	0.184	0.166
-677.193	218.133	0.019	0.031
-676.178	171.586	-0.136	-0.197
-675.164	800.000	-0.063	-0.273
-674.149	-200.000	-0.041	-0.293
-673.135	-71.001	-0.190	0.072
-672.120	-171.874	0.105	-0.003
-671.105	393.979	-0.031	0.065
-670.091	203.789	0.142	0.222
-669.076	736.013	0.039	0.104
-668.062	-47.707	-0.309	-0.151
-667.047	-122.418	0.304	-0.050
-666.032	89.191	-0.179	-0.202
-665.018	54.245	0.202	0.196
-664.003	-200.000	-0.008	-0.159
-662.989	166.313	0.094	-0.134
-661.974	-166.660	0.109	0.005
-660.959	-191.024	0.324	0.003
-659.945	24.246	-0.166	0.138
-658.930	-85.701	-0.323	0.101
-657.916	374.350	-0.073	0.150
-656.901	-1.190	-0.191	-0.136
-655.886	800.000	-0.086	-0.303
-654.872	800.000	0.118	-0.399
-653.857	-184.291	-0.199	-0.003
-652.843	-63.095	-0.134	0.056
-651.828	-110.993	-0.263	-0.054
-650.814	-200.000	0.026	0.129
-649.799	-94.498	0.057	-0.016
-648.784	-14.944	0.207	-0.134
-647.770	81.989	-0.125	0.137
-646.755	33.826	-0.127	-0.111
-645.741	43.207	0.105	-0.097
-644.726	-12.245	-0.293	0.193
-643.711	-1.758	0.295	0.209
-642.697	45.397	0.165	-0.153
-641.682	-108.674	0.285	-0.062
-640.668	-24.793	0.434	0.260
-639.653	122.355	-0.227	-0.285
-638.638	82.522	0.451	-0.493
-637.624	-29.970	-0.176	-0.101
-636.609	-79.931	-0.106	-0.036
-635.595	341.314	0.082	0.162
-634.580	-83.559	-0.157	0.050
-633.565	-1.008	0.123	-0.088
-632.551	29.801	-0.350	-0.301
-631.536	-102.251	-0.039	0.009
-630.522	-41.959	-0.126	-0.065
-629.507	32.892	0.232	-0.202
-628.492	-29.815	0.522	-0.299
-627.478	322.959	-0.212	0.407
-626.463	30.375	-0.132	0.114
-625.449	101.522	0.190	-0.222
-624.434	106.536	-0.382	-0.456
-623.419	-200.000	-0.013	0.219
-622.405	800.000	-0.086	0.291
-621.390	0.532	0.175	-0.126
-620.376	9.073	0.048	-0.037
-619.361	189.565	0.225	-0.339
-618.346	-54.692	-0.174	0.079
-617.332	800.000	0.047	0.157
-616.317	-200.000	0.095	0.000
-615.303	80.339	-0.271	-0.294
-614.288	243.768	0.207	-0.350
-613.273	187.270	-0.177	-0.266
-612.259	49.207	-0.094	-0.089
-611.244	45.084	-0.126	0.116
-610.230	800.000	0.053	-0.195
-609.215	-106.387	-0.107	-0.024
-608.201	110.666	0.261	0.316
-607.186	308.799	-0.189	-0.356
-606.171	209.237	-0.089	-0.140
-605.157	-200.000	-0.025	0.177
-604.142	800.000	0.006	0.023
-603.128	225.907	-0.040	-0.065
-602.113	145.811	0.246	-0.331
-601.098	800.000	-0.078	-0.216
-600.084	-200.000	0.020	0.456
-599.069	-20.583	0.292	0.181
-598.055	28.728	-0.422	0.359
-597.040	-200.000	0.011	-0.179
-596.025	415.965	-0.081	0.174
-595.011	-36.618	-0.113	0.061
-593.996	-38.314	0.453	-0.241
-592.982	338.655	0.094	0.184
-591.967	168.090	-0.126	0.180
-590.952	-111.304	-0.125	0.026
-589.938	-29.300	0.179	0.103
-588.923	-41.733	0.430	0.222
-587.909	-154.719	-0.133	0.009
-586.894	-83.427	0.066	0.021
-585.879	-200.000	-0.010	-0.163
-584.865	-200.000	-0.004	0.223
-583.850	315.800	0.199	-0.378
-582.836	-115.118	0.266	0.051
-581.821	-27.331	-0.203	0.119
-580.806	258.614	-0.161	-0.279
-579.792	-123.515	0.132	0.021
-578.777	-200.000	-0.030	-0.135
-577.763	358.101	-0.129	0.258
-576.748	173.243	-0.058	-0.084
-575.733	800.000	-0.089	-0.310
-574.719	126.361	-0.293	-0.372
-573.704	14.438	0.105	-0.083
-572.690	96.691	-0.112	-0.129
-571.675	-21.286	-0.119	-0.073
-570.661	17.185	0.169	-0.135
-569.646	-141.263	0.237	-0.024
-568.631	329.735	-0.076	-0.148
-567.617	-122.007	-0.079	-0.013
-566.602	53.428	0.112	-0.108
-565.588	275.564	0.103	-0.183
-564.573	1.576	0.023	0.017
-563.558	181.210	0.113	0.166
-562.544	-64.616	-0.138	-0.056
-561.529	-55.477	0.328	0.148
-560.515	364.094	0.050	-0.101
-559.500	-200.000	0.000	0.037
-558.485	-134.987	-0.145	-0.018
-557.471	-109.192	-0.191	0.041
-556.456	-93.352	-0.297	-0.083
-555.442	-181.773	0.246	0.005
-554.427	-200.000	-0.065	0.344
-553.412	2.508	0.117	-0.085
-552.398	357.806	-0.054	-0.108
-551.383	217.245	-0.189	-0.303
-550.369	-128.483	0.307	-0.044
-549.354	7.527	-0.157	0.118
-548.339	-200.000	-0.043	0.305
-547.325	-175.959	-0.172	0.005
-546.310	-200.000	-0.012	-0.110
-545.296	329.845	-0.094	-0.182
-544.281	800.000	0.040	0.155
-543.266	-77.348	0.198	0.069
-542.252	-127.696	-0.183	0.027
-541.237	0.808	-0.204	-0.146
-540.223	800.000	-0.075	0.232
-539.208	137.231	-0.103	-0.135
-538.193	-45.866	0.060	-0.030
-537.179	-200.000	0.041	0.300
-536.164	-200.000	0.038	0.279
-535.150	-184.083	-0.328	0.005
-534.135	-138.953	0.202	-0.022
-533.121	-141.201	-0.232	-0.024
-532.106	-34.739	-0.040	-0.022
-531.091	-103.703	0.593	-0.139
-530.077	47.366	0.269	-0.251
-529.062	-95.659	-0.337	0.090
-528.048	130.060	-0.079	0.102
-527.033	784.037	0.116	0.319
-526.018	-93.317	-0.324	-0.090
-525.004	-59.400	-0.221	-0.095
-523.989	93.702	-0.091	0.103
-522.975	158.463	0.144	0.200
-521.960	348.479	-0.142	-0.280
-520.945	-33.346	-0.003	-0.002
-519.931	-106.115	-0.135	-0.030
-518.916	-64.168	-0.188	-0.077
-517.902	800.000	0.029	-0.101
-516.887	294.951	-0.127	-0.232
-515.872	92.292	0.135	-0.153
-514.858	800.000	-0.079	0.302
-513.843	450.093	-0.017	0.037
-512.829	-36.561	0.203	-0.109
-511.814	800.000	0.083	-0.306
-510.799	315.198	-0.123	0.233
-509.785	-200.000	0.017	-0.196
-508.770	-200.000	-0.047	-0.271
-507.756	-88.797	0.040	-0.012
-506.741	474.166	0.064	0.145
-505.726	-200.000	-0.066	-0.397
-504.712	-19.887	-0.236	-0.146
-503.697	323.579	-0.134	0.256
-502.683	-138.594	-0.402	-0.044
-501.668	-200.000	-0.048	-0.400
-500.653	78.886	0.119	-0.128
-499.639	177.063	0.209	0.305
-498.624	-109.786	-0.291	0.061
-497.610	-200.000	-0.059	0.287
-496.595	75.564	0.138	0.146
-495.581	800.000	-0.094	0.265
-494.566	-200.000	-0.049	-0.254
-493.551	-200.000	-0.014	0.259
-492.537	-1.643	0.289	0.204
-491.522	-139.181	0.376	-0.041
-490.508	800.000	-0.110	0.371
-489.493	320.689	-0.021	-0.040
-488.478	28.209	0.206	0.174
-487.464	30.392	0.007	-0.006
-486.449	71.421	-0.104	0.108
-485.435	103.884	-0.369	0.434
-484.420	-22.616	0.225	-0.136
-483.405	800.000	-0.072	-0.226
-482.391	-121.224	0.228	-0.038
-481.376	-130.447	0.035	0.005
-480.362	-176.669	-0.418	-0.011
-479.347	-200.000	0.006	0.383
-478.332	-194.207	-0.310	-0.003
-477.318	161.515	-0.018	-0.025
-476.303	800.000	0.035	-0.112
-475.289	-200.000	0.025	-0.125
-474.274	-45.836	0.168	-0.083
-473.259	414.509	0.011	0.024
-472.245	-200.000	-0.007	-0.086
-471.230	-139.910	0.075	-0.008
-470.216	93.512	0.169	0.191
-469.201	-15.719	-0.176	0.112
-468.186	94.726	-0.278	0.316
-467.172	98.879	-0.099	0.114
-466.157	800.000	0.051	-0.217
-465.143	-77.838	0.100	-0.034
-464.128	-71.474	0.211	0.079
-463.113	371.811	0.039	0.079
-462.099	-96.072	-0.347	0.092
-461.084	-135.092	-0.330	0.040
-460.070	-71.775	0.368	0.137
-459.055	-60.203	0.279	-0.119
-458.040	-200.000	-0.001	0.096
-457.026	-200.000	0.040	0.444
-456.011	13.164	0.148	0.114
-454.997	-1.769	0.227	-0.160
-453.982	-144.299	-0.494	0.046
-452.968	171.188	0.107	-0.154
-451.953	27.144	0.239	-0.200
-450.938	-38.450	0.207	-0.109
-449.924	-7.802	-0.143	-0.097
-448.909	679.713	-0.031	0.081
-447.895	-19.142	0.305	0.189
-446.880	-200.000	-0.010	-0.111
-445.865	389.100	-0.123	-0.254
-444.851	-200.000	-0.021	-0.234
-443.836	-3.782	-0.050	0.035
-442.822	800.000	-0.090	0.311
-441.807	619.700	-0.079	-0.198
-440.792	34.988	0.086	-0.075
-439.778	194.306	-0.095	-0.143
-438.763	-178.970	0.212	-0.005
-437.749	182.188	-0.130	0.192
-436.734	540.699	-0.129	0.308
-435.719	147.681	0.078	-0.105
-434.705	800.000	0.010	-0.029
-433.690	-88.236	0.454	0.136
-432.676	-200.000	0.020	0.240
-431.661	-2.810	-0.320	0.223
-430.646	324.238	-0.073	0.139
-429.632	2.380	0.252	0.182
-428.617	37.280	-0.124	0.109
-427.603	67.901	-0.170	-0.174
-426.588	65.161	0.164	0.165
-425.573	-200.000	-0.011	-0.204
-424.559	441.560	-0.095	-0.208
-423.544	-20.967	0.211	0.129
-422.530	28.202	0.202	0.170
-421.515	291.733	-0.055	0.101
-420.500	153.013	-0.110	-0.150
-419.486	4.513	0.210	-0.154
-418.471	87.311	-0.290	-0.320
-417.457	-200.000	-0.025	0.392
-416.442	-98.170	-0.260	0.067
-415.428	73.700	0.128	-0.134
-414.413	-200.000	0.024	0.152
-413.398	-141.324	-0.223	-0.023
-412.384	800.000	-0.111	-0.328
-411.369	-67.855	0.112	-0.044
-410.355	-48.437	0.259	0.125
-409.340	-200.000	-0.031	-0.244
-408.325	-64.697	0.181	-0.073
-407.311	177.589	0.200	-0.290
-406.296	-62.586	-0.275	-0.114
-405.282	-200.000	0.031	0.286
-404.267	39.645	-0.190	0.170
-403.252	-200.000	0.001	-0.090
-402.238	-20.784	0.310	0.190
-401.223	-200.000	-0.015	-0.218
-400.209	211.747	-0.047	-0.073
-399.194	115.250	0.119	0.145
-398.179	98.291	-0.045	0.052
-397.165	-105.196	-0.198	0.045
-396.150	195.628	-0.048	-0.073
-395.136	-63.305	0.229	0.094
-394.121	98.189	-0.057	0.066
-393.106	90.279	0.268	-0.299
-392.092	-16.374	-0.135	-0.085
-391.077	384.790	-0.187	0.384
-390.063	-200.000	0.000	0.299
-389.048	-1.953	0.238	-0.167
-388.033	4.918	-0.186	-0.137
-387.019	212.737	0.120	-0.189
-386.004	-157.069	-0.047	-0.003
-384.990	139.393	0.151	-0.198
-383.975	800.000	-0.105	-0.404
-382.960	7.926	0.060	-0.045
-381.946	23.204	-0.131	0.107
-380.931	-46.276	0.149	0.073
-379.917	800.000	0.043	-0.168
-378.902	-89.679	0.330	0.096
-377.888	-132.528	0.021	-0.003
-376.873	-89.900	0.195	-0.057
-375.858	123.362	0.300	0.375
-374.844	-120.150	-0.189	0.032
-373.829	-200.000	-0.003	-0.168
-372.815	-71.242	0.242	-0.091
-371.800	-80.906	-0.136	-0.045
-370.785	-24.547	-0.159	0.094
-369.771	-30.701	0.067	-0.038
-368.756	-118.624	-0.170	-0.030
-367.742	-138.672	-0.181	0.020
-366.727	-13.499	0.172	-0.111
-365.712	-200.000	0.038	0.187
-364.698	-40.120	-0.092	-0.048
-363.683	800.000	0.029	-0.109
-362.669	800.000	-0.043	0.147
-361.654	800.000	0.051	0.165
-360.639	-200.000	-0.040	0.257
-359.625	-20.404	-0.142	0.087
-358.610	517.260	-0.040	0.092
-357.596	-28.271	-0.225	-0.129
-356.581	-84.149	0.115	-0.036
-355.566	-87.435	-0.089	0.027
-354.552	-185.128	-0.096	-0.001
-353.537	-200.000	-0.054	0.308
-352.523	-24.190	-0.125	0.074
-351.508	39.813	0.236	0.211
-350.493	-200.000	-0.012	-0.104
-349.479	-13.310	0.177	-0.114
-348.464	-200.000	0.055	-0.282
-347.450	800.000	-0.039	0.147
-346.435	55.352	-0.260	0.250
-345.420	0.543	-0.096	0.068
-344.406	372.986	-0.068	0.137
-343.391	-49.792	-0.223	0.105
-342.377	77.398	-0.097	-0.103
-341.362	39.109	-0.136	-0.121
-340.348	-78.686	0.058	-0.020
-339.333	-8.124	0.159	0.107
-338.318	345.700	0.040	0.079
-337.304	268.377	0.252	0.440
-336.289	800.000	0.062	0.224
-335.275	-31.768	0.102	0.057
-334.260	-200.000	0.058	-0.352
-333.245	-200.000	-0.042	0.219
-332.231	-80.445	-0.214	0.071
-331.216	-144.127	-0.228	0.021
-330.202	-53.676	0.164	0.075
-329.187	134.339	0.331	0.426
-328.172	-104.708	-0.242	-0.055
-327.158	40.760	0.202	0.181
-326.143	665.561	0.059	-0.152
-325.129	483.041	-0.097	0.220
-324.114	-1.636	0.229	-0.161
-323.099	36.801	0.194	0.170
-322.085	-139.175	-0.263	0.028
-321.070	105.430	-0.225	-0.264
-320.056	115.048	0.115	0.140
-319.041	-156.960	-0.341	0.021
-318.026	129.029	-0.241	-0.305
-317.012	56.910	0.098	0.095
-315.997	-25.532	-0.127	-0.075
-314.983	-124.274	-0.117	0.018
-313.968	-200.000	0.005	-0.101
-312.953	800.000	-0.184	-0.510
-311.939	-200.000	0.022	0.142
-310.924	-148.842	-0.212	0.017
-309.910	800.000	-0.019	-0.052
-308.895	-200.000	0.033	-0.257
-307.880	325.799	0.079	-0.150
-306.866	-93.876	0.082	-0.022
-305.851	-105.691	0.220	0.050
-304.837	-200.000	-0.076	0.355
-303.822	281.663	0.039	-0.070
-302.807	-144.882	-0.181	0.016
-301.793	-114.477	0.411	-0.078
-300.778	-103.981	-0.121	-0.028
-299.764	-29.411	-0.194	0.110
-298.749	-118.073	0.379	-0.067
-297.735	-63.402	0.207	0.085
-296.720	260.779	0.131	-0.225
-295.705	-200.000	-0.072	0.426
-294.691	-86.815	-0.198	-0.060
-293.676	-127.866	-0.114	0.016
-292.662	32.939	0.188	-0.162
-291.647	40.222	0.394	0.352
-290.632	-157.465	0.341	-0.020
-289.618	-200.000	0.036	0.000
-288.603	181.128	0.142	-0.207
-287.589	-200.000	-0.001	0.071
-286.574	128.566	-0.113	-0.143
-285.559	-10.053	-0.233	0.154
-284.545	577.038	-0.032	-0.078
-283.530	-52.354	-0.275	0.126
-282.516	800.000	-0.050	0.181
-281.501	800.000	0.040	-0.132
-280.486	800.000	0.090	0.361
-279.472	46.554	0.231	-0.213
-278.457	303.308	-0.043	-0.080
-277.443	-200.000	0.011	0.105
-276.428	-121.260	0.027	-0.004
-275.413	800.000	0.010	0.040
-274.399	271.937	0.028	-0.048
-273.384	244.111	0.281	0.469
-272.370	-22.972	0.239	0.143
-271.355	30.216	-0.323	-0.274
-270.340	-65.220	0.211	-0.084
-269.326	1.469	-0.241	0.172
-268.311	-74.678	0.286	-0.102
-267.297	-123.859	0.162	0.025
-266.282	-200.000	0.065	-0.286
-265.267	366.117	0.215	-0.431
-264.253	174.793	-0.069	-0.099
-263.238	-200.000	-0.035	-0.271
-262.224	212.670	0.097	-0.151
-261.209	266.441	0.070	0.121
-260.195	88.893	0.192	0.212
-259.180	73.880	0.039	0.040
-258.165	500.885	0.021	0.048
-257.151	-68.810	0.253	0.097
-256.136	290.656	0.176	0.318
-255.122	83.993	-0.167	0.180
-254.107	173.100	0.135	0.192
-253.092	-123.839	-0.352	-0.055
-252.078	303.931	-0.169	-0.311
-251.063	111.687	-0.236	-0.283
-250.049	144.323	-0.106	0.140
-249.034	-104.474	0.181	0.041
-248.019	800.000	0.031	0.104
-247.005	800.000	0.078	-0.284
-245.990	125.350	-0.353	0.442
-244.976	-137.562	-0.505	-0.056
-243.961	17.446	0.076	-0.060
-242.946	-75.341	-0.231	-0.082
-241.932	14.303	0.135	-0.104
-240.917	-133.753	0.298	-0.037
-239.903	653.418	0.017	-0.042
-238.888	-24.449	-0.019	0.011
-237.873	5.884	-0.079	-0.058
-236.859	-200.000	0.009	-0.069
-235.844	16.519	-0.075	0.059
-234.830	-43.056	-0.297	0.149
-233.815	800.000	0.060	-0.249
-232.800	35.942	-0.249	0.217
-231.786	76.345	0.229	-0.240
-230.771	-48.988	-0.159	-0.076
-229.757	-200.000	-0.020	0.155
-228.742	130.196	0.071	-0.090
-227.727	-61.401	0.333	-0.139
-226.713	-166.413	-0.118	0.005
-225.698	800.000	-0.058	-0.233
-224.684	-4.920	-0.115	-0.078
-223.669	480.330	-0.079	-0.178
-222.655	246.197	0.058	0.098
-221.640	-43.829	-0.063	-0.031
-220.625	-123.302	-0.198	-0.031
-219.611	800.000	-0.058	0.246
-218.596	27.809	-0.152	-0.127
-217.582	-200.000	-0.025	-0.253
-216.567	-200.000	-0.013	-0.211
-215.552	-200.000	0.014	0.189
-214.538	800.000	0.028	-0.103
-213.523	46.714	-0.119	-0.110
-212.509	29.339	0.245	0.206
-211.494	404.436	0.083	0.172
-210.479	-96.423	-0.092	0.024
-209.465	737.536	-0.058	-0.154
-208.450	-200.000	0.053	0.230
-207.436	47.459	-0.314	0.289
-206.421	-57.537	-0.143	0.062
-205.406	-200.000	0.000	-0.259
-204.392	90.196	-0.028	-0.031
-203.377	-117.664	-0.188	-0.034
-202.363	800.000	-0.103	0.365
-201.348	100.978	-0.202	-0.232
-200.333	69.467	-0.353	0.359
-199.319	130.381	0.367	0.466
-198.304	-67.913	-0.279	-0.108
-197.290	20.787	-0.148	0.119
-196.275	-119.740	0.183	0.031
-195.260	-127.668	0.519	-0.074
-194.246	-96.772	0.424	0.110
-193.231	-129.693	-0.344	0.047
-192.217	-31.107	0.376	0.210
-191.202	800.000	-0.047	-0.187
-190.187	-17.490	0.297	0.185
-189.173	132.387	0.079	-0.101
-188.158	596.002	-0.230	0.564
-187.144	320.362	0.150	-0.282
-186.129	-64.630	-0.232	-0.093
-185.114	-110.387	0.096	-0.020
-184.100	-109.481	-0.315	-0.066
-183.085	-30.183	0.106	-0.060
-182.071	8.917	0.080	-0.060
-181.056	-200.000	0.082	0.417
-180.042	-100.357	-0.058	-0.014
-179.027	63.718	0.273	-0.271
-178.012	-28.049	-0.161	-0.092
-176.998	-131.288	-0.395	0.052
-175.983	-69.597	0.011	0.004
-174.969	61.478	0.073	-0.072
-173.954	-29.044	0.097	0.055
-172.939	-99.070	-0.106	-0.027
-171.925	800.000	0.081	-0.230
-170.910	-8.656	-0.163	0.108
-169.896	-61.566	-0.032	-0.013
-168.881	800.000	-0.035	-0.124
-167.866	329.345	0.111	-0.210
-166.852	159.018	-0.013	-0.017
-165.837	180.375	0.147	-0.213
-164.823	267.469	-0.010	0.017
-163.808	0.684	0.388	-0.274
-162.793	-30.031	0.297	0.167
-161.779	-124.257	-0.231	0.036
-160.764	-16.718	-0.341	-0.213
-159.750	96.508	0.379	-0.428
-158.735	-51.279	0.113	0.052
-157.720	-200.000	0.065	0.320
-156.706	-83.728	-0.196	0.062
-155.691	-33.145	-0.162	0.089
-154.677	-200.000	0.030	-0.191
-153.662	401.295	-0.203	0.422
-152.647	-95.318	0.055	-0.015
-151.633	-74.689	0.150	0.053
-150.618	26.188	-0.075	0.062
-149.604	-81.450	0.217	0.071
-148.589	669.473	-0.164	-0.419
-147.574	-200.000	-0.014	-0.091
-146.560	800.000	-0.058	0.174
-145.545	-200.000	-0.059	-0.521
-144.531	-28.454	-0.290	0.165
-143.516	630.997	0.026	-0.065
-142.502	237.885	-0.258	-0.423
-141.487	-86.946	0.210	0.063
-140.472	12.213	0.078	0.060
-139.458	-200.000	-0.017	0.342
-138.443	-127.172	0.295	0.043
-137.429	107.309	0.111	0.131
-136.414	800.000	0.038	-0.123
-135.399	-80.779	0.234	-0.077
-134.385	165.782	0.032	-0.045
-133.370	-175.147	0.412	0.011
-132.356	-200.000	0.002	0.115
-131.341	-200.000	0.002	0.171
-130.326	-91.043	-0.274	0.078
-129.312	-43.531	0.316	-0.158
-128.297	-200.000	0.011	-0.052
-127.283	-200.000	-0.015	0.112
-126.268	51.764	-0.137	-0.129
-125.253	800.000	-0.058	-0.189
-124.239	94.481	0.218	0.245
-123.224	55.467	0.061	0.059
-122.210	-162.073	0.309	-0.015
-121.195	800.000	0.089	0.242
