DTS Sentinel unit serial number:	SN413079Multiplexer serial number:	ORYXHardware model number:	OX4-SRSoftware version number:	ORYX F/W v4.00 Oryx Data Collector v3.7.2.0data status	okinstallation	princeton_trtdifferential loss correction	single-endedforward channel	channel 1reverse channel	N/Adate	2019/09/12time	15:32:11forward acquisition time	60.00reverse acquisition time	0.00gamma	496.2192k internal	0.2293k external	0.2293temperature offset calibration	1.0068default loss term (dB/km)	0.3790temperature slope calibration	1.0000multiplexer offset coefficient	1.0000multiplexer slope coefficient	1.0000fibre end	0.00T internal ref (°C)	40.52T ext. ref 1 (°C)	2.42T ext. ref 2 (°C)	33.63length (m)	temperature (°C)	Stokes	anti-Stokes-747.200	-200.000	0.003	0.027
-746.185	800.000	0.065	0.220
-745.171	-50.426	0.186	-0.090
-744.156	-179.788	-0.065	0.001
-743.142	44.308	0.066	-0.062
-742.127	-200.000	-0.007	0.117
-741.112	-146.654	-0.395	-0.035
-740.098	800.000	-0.123	0.436
-739.083	325.127	-0.064	-0.125
-738.069	196.489	0.188	0.294
-737.054	140.477	0.074	0.100
-736.039	83.071	-0.159	0.177
-735.025	-121.442	0.163	0.028
-734.010	-109.520	-0.330	-0.071
-732.996	-148.185	-0.168	-0.014
-731.981	129.631	-0.144	0.188
-730.966	-200.000	-0.000	-0.130
-729.952	-15.311	-0.275	0.180
-728.937	-162.463	0.208	-0.011
-727.923	-114.370	0.098	0.019
-726.908	-200.000	0.001	-0.008
-725.894	-29.189	-0.173	0.101
-724.879	-37.430	-0.182	0.100
-723.864	-18.078	0.079	0.050
-722.850	-31.980	-0.286	-0.164
-721.835	-2.209	-0.388	-0.278
-720.821	775.594	-0.057	-0.160
-719.806	-119.871	-0.158	-0.028
-718.791	35.024	-0.252	0.225
-717.777	-200.000	0.003	-0.019
-716.762	-13.344	-0.105	-0.070
-715.748	262.036	0.097	0.171
-714.733	-148.584	-0.360	0.030
-713.718	27.103	0.367	0.314
-712.704	-99.716	-0.323	-0.083
-711.689	32.398	-0.246	-0.217
-710.675	172.737	0.102	-0.150
-709.660	491.295	0.117	0.274
-708.645	32.574	0.093	-0.082
-707.631	270.411	0.316	-0.567
-706.616	-122.075	-0.147	-0.025
-705.602	40.295	-0.182	0.168
-704.587	-58.813	-0.044	-0.019
-703.572	-200.000	0.027	0.389
-702.558	-81.701	-0.234	-0.078
-701.543	-200.000	-0.016	-0.114
-700.529	241.167	0.075	0.127
-699.514	-34.697	-0.278	0.156
-698.499	-200.000	0.030	-0.364
-697.485	131.525	0.056	-0.074
-696.470	71.309	-0.242	-0.256
-695.456	51.936	0.127	-0.124
-694.441	-8.596	0.357	-0.245
-693.426	-120.399	0.076	-0.013
-692.412	403.332	-0.143	0.308
-691.397	-44.877	-0.315	-0.160
-690.383	-200.000	-0.004	0.034
-689.368	68.337	0.260	0.272
-688.354	-69.164	-0.189	-0.074
-687.339	36.033	0.123	-0.110
-686.324	800.000	-0.033	-0.136
-685.310	-200.000	-0.023	0.229
-684.295	-128.235	-0.092	0.013
-683.281	-112.677	0.307	-0.062
-682.266	-128.154	-0.115	-0.017
-681.251	204.558	0.068	0.107
-680.237	-74.128	-0.396	-0.146
-679.222	69.353	0.075	-0.079
-678.208	195.319	-0.060	0.093
-677.193	42.571	0.203	0.188
-676.178	-200.000	0.007	-0.060
-675.164	-79.377	-0.273	0.094
-674.149	191.342	-0.139	-0.214
-673.135	-23.137	0.045	-0.027
-672.120	-132.708	0.078	-0.010
-671.105	360.527	0.084	-0.172
-670.091	-45.027	0.063	-0.032
-669.076	133.221	0.102	-0.134
-668.062	-64.930	0.252	-0.104
-667.047	-180.768	-0.388	-0.008
-666.032	-35.554	0.024	-0.013
-665.018	-18.243	0.072	0.046
-664.003	-6.304	0.439	-0.306
-662.989	-76.814	0.176	-0.063
-661.974	-200.000	0.042	-0.264
-660.959	800.000	-0.015	0.049
-659.945	218.632	-0.170	0.277
-658.930	-169.123	0.221	-0.008
-657.916	26.502	-0.124	0.106
-656.901	-13.616	-0.092	0.061
-655.886	-140.037	-0.078	0.008
-654.872	271.276	0.229	-0.411
-653.857	-171.503	-0.398	-0.013
-652.843	800.000	-0.047	-0.192
-651.828	28.634	-0.263	-0.227
-650.814	-101.823	0.210	-0.052
-649.799	-144.877	0.152	0.014
-648.784	-200.000	-0.013	0.188
-647.770	-126.967	0.267	0.040
-646.755	-4.739	0.028	-0.020
-645.741	800.000	0.026	0.090
-644.726	692.764	-0.070	-0.186
-643.711	-5.181	0.074	0.052
-642.697	59.978	-0.248	-0.249
-641.682	-83.436	-0.163	0.053
-640.668	-85.334	0.151	0.048
-639.653	-50.523	-0.117	0.056
-638.638	10.165	0.146	-0.113
-637.624	31.347	0.141	-0.123
-636.609	424.848	0.118	-0.259
-635.595	159.985	0.166	-0.236
-634.580	-200.000	0.043	-0.216
-633.565	-153.336	0.194	-0.014
-632.551	-200.000	-0.007	-0.416
-631.536	794.557	-0.137	-0.383
-630.522	-93.487	-0.263	-0.074
-629.507	-124.811	-0.345	0.054
-628.492	800.000	0.077	0.268
-627.478	-134.264	0.088	0.011
-626.463	29.549	0.192	-0.166
-625.449	65.911	0.081	-0.083
-624.434	-200.000	0.036	-0.184
-623.419	-200.000	0.023	0.159
-622.405	135.665	-0.012	0.016
-621.390	4.544	0.104	-0.078
-620.376	487.388	-0.108	0.252
-619.361	246.141	0.111	0.191
-618.346	-200.000	0.055	-0.273
-617.332	27.738	0.157	0.135
-616.317	-200.000	-0.012	0.066
-615.303	61.682	-0.125	0.126
-614.288	-200.000	0.018	0.083
-613.273	-36.386	-0.087	-0.048
-612.259	-200.000	-0.049	-0.271
-611.244	-102.831	-0.309	-0.075
-610.230	-175.357	0.206	0.006
-609.215	-200.000	-0.034	-0.253
-608.201	-187.351	-0.311	0.004
-607.186	-39.852	-0.160	-0.085
-606.171	264.496	-0.055	-0.098
-605.157	-200.000	-0.039	-0.449
-604.142	178.676	-0.154	0.230
-603.128	12.969	0.280	0.220
-602.113	-53.553	0.218	-0.101
-601.098	-191.147	0.059	0.001
-600.084	-200.000	-0.019	-0.098
-599.069	-3.623	0.156	0.110
-598.055	-200.000	-0.012	0.325
-597.040	-200.000	-0.014	-0.238
-596.025	800.000	0.049	-0.213
-595.011	596.397	-0.061	0.155
-593.996	242.322	0.067	-0.114
-592.982	800.000	0.056	-0.220
-591.967	106.870	0.136	0.164
-590.952	-74.081	-0.277	-0.102
-589.938	800.000	0.033	-0.120
-588.923	7.942	0.144	0.110
-587.909	57.411	0.307	0.305
-586.894	118.829	-0.151	0.190
-585.879	320.677	-0.103	0.199
-584.865	16.324	0.169	0.136
-583.850	278.261	-0.230	-0.416
-582.836	112.590	0.190	-0.234
-581.821	800.000	0.021	-0.075
-580.806	59.056	-0.160	0.160
-579.792	658.486	-0.148	0.388
-578.777	800.000	-0.060	-0.261
-577.763	457.637	0.025	0.055
-576.748	-3.205	-0.420	0.298
-575.733	-113.761	-0.288	0.057
-574.719	66.577	0.043	-0.045
-573.704	-92.712	0.180	-0.051
-572.690	453.550	-0.030	-0.068
-571.675	34.968	-0.103	-0.092
-570.661	-123.147	0.125	0.020
-569.646	506.880	-0.034	0.080
-568.631	106.156	-0.080	-0.097
-567.617	234.898	0.090	-0.151
-566.602	-119.872	0.185	0.032
-565.588	297.086	-0.171	-0.319
-564.573	-143.158	-0.211	0.021
-563.558	-200.000	-0.031	0.200
-562.544	-68.831	0.373	0.146
-561.529	679.519	-0.098	-0.260
-560.515	240.663	0.193	0.327
-559.500	-200.000	-0.007	-0.198
-558.485	654.115	0.059	0.153
-557.471	140.264	0.088	-0.117
-556.456	24.684	0.153	-0.129
-555.442	84.594	0.252	0.281
-554.427	7.315	-0.311	-0.236
-553.412	-58.690	0.436	-0.192
-552.398	-55.889	-0.096	-0.044
-551.383	-49.611	-0.239	0.115
-550.369	134.532	-0.100	-0.131
-549.354	-41.496	0.051	0.027
-548.339	-114.658	-0.209	-0.041
-547.325	800.000	0.088	0.288
-546.310	42.920	-0.041	0.038
-545.296	56.477	-0.247	0.244
-544.281	172.631	0.166	-0.243
-543.266	124.991	0.054	-0.069
-542.252	-59.079	0.208	0.091
-541.237	33.903	-0.164	-0.145
-540.223	-34.420	0.255	-0.142
-539.208	-200.000	0.007	0.048
-538.193	-191.300	0.155	-0.002
-537.179	800.000	-0.056	0.233
-536.164	800.000	0.049	0.139
-535.150	-200.000	-0.018	0.177
-534.135	24.930	-0.346	0.291
-533.121	700.040	0.053	-0.143
-532.106	800.000	-0.114	-0.366
-531.091	492.981	-0.042	-0.099
-530.077	225.259	0.030	0.050
-529.062	-36.611	-0.306	-0.167
-528.048	-144.213	-0.212	0.020
-527.033	800.000	-0.070	-0.234
-526.018	-106.792	0.105	0.024
-525.004	558.986	0.011	-0.026
-523.989	-15.801	0.096	0.062
-522.975	-8.284	-0.133	-0.091
-521.960	117.090	-0.235	-0.293
-520.945	800.000	0.035	-0.145
-519.931	-86.910	-0.281	-0.087
-518.916	-200.000	-0.029	0.382
-517.902	-48.129	0.272	-0.133
-516.887	-79.761	0.329	0.112
-515.872	-86.299	-0.398	-0.124
-514.858	29.453	-0.188	0.162
-513.843	-46.556	-0.098	0.049
-512.829	-102.725	0.112	0.027
-511.814	34.046	0.301	-0.266
-510.799	-86.493	-0.152	-0.047
-509.785	66.973	0.063	-0.065
-508.770	-200.000	0.025	0.276
-507.756	-26.967	0.149	-0.088
-506.741	-110.195	-0.477	-0.101
-505.726	800.000	0.075	0.223
-504.712	2.312	0.113	0.083
-503.697	-171.542	0.058	0.002
-502.683	-200.000	0.067	0.363
-501.668	174.166	-0.083	0.121
-500.653	-83.468	0.068	-0.022
-499.639	202.700	0.068	0.106
-498.624	29.001	-0.260	0.224
-497.610	9.976	-0.224	0.173
-496.595	684.523	-0.067	0.176
-495.581	-102.227	0.193	-0.047
-494.566	156.875	0.222	-0.311
-493.551	-193.382	-0.216	-0.002
-492.537	339.498	0.020	0.039
-491.522	69.896	0.169	0.177
-490.508	607.273	-0.058	-0.147
-489.493	195.491	0.144	-0.221
-488.478	62.538	0.118	0.120
-487.464	-25.686	0.027	0.016
-486.449	800.000	0.117	-0.356
-485.435	-136.990	-0.079	-0.009
-484.420	227.891	-0.043	-0.072
-483.405	-132.853	-0.074	0.010
-482.391	37.279	0.291	0.261
-481.376	193.325	0.182	0.279
-480.362	-200.000	0.001	0.019
-479.347	-200.000	-0.022	-0.134
-478.332	435.541	-0.114	-0.251
-477.318	210.620	-0.033	-0.053
-476.303	-100.220	0.183	-0.046
-475.289	204.292	-0.069	-0.108
-474.274	-99.784	-0.009	0.002
-473.259	-25.664	0.102	0.061
-472.245	-54.681	-0.169	0.078
-471.230	38.438	-0.224	0.203
-470.216	-148.377	0.037	0.003
-469.201	-9.551	-0.163	0.110
-468.186	-6.721	0.126	0.087
-467.172	118.063	0.142	-0.177
-466.157	-54.663	-0.250	0.114
-465.143	43.663	0.152	0.141
-464.128	-200.000	0.022	0.189
-463.113	-78.923	-0.241	0.083
-462.099	171.205	-0.167	-0.243
-461.084	-200.000	-0.026	0.216
-460.070	800.000	0.041	-0.171
-459.055	324.931	-0.108	-0.209
-458.040	211.629	0.036	0.057
-457.026	132.122	0.115	0.150
-456.011	-200.000	0.071	-0.350
-454.997	181.942	0.158	0.236
-453.982	192.481	0.184	-0.280
-452.968	-108.643	-0.181	0.039
-451.953	-52.914	0.157	-0.073
-450.938	800.000	-0.102	-0.341
-449.924	-120.998	-0.262	0.045
-448.909	800.000	0.046	-0.130
-447.895	469.943	0.072	0.163
-446.880	-189.188	-0.299	0.004
-445.865	-52.898	-0.072	-0.034
-444.851	52.377	-0.084	0.081
-443.836	-26.310	-0.185	-0.110
-442.822	199.712	0.051	0.079
-441.807	-110.909	-0.098	-0.020
-440.792	114.213	0.224	0.275
-439.778	-66.762	0.092	0.037
-438.763	-200.000	0.008	0.160
-437.749	-65.901	0.054	-0.022
-436.734	134.220	0.096	-0.125
-435.719	13.260	0.233	0.183
-434.705	6.682	0.106	0.080
-433.690	800.000	0.059	0.184
-432.676	130.166	0.116	-0.150
-431.661	357.150	-0.084	0.170
-430.646	144.909	-0.043	-0.058
-429.632	-200.000	-0.013	0.117
-428.617	108.408	0.229	0.277
-427.603	50.698	0.354	0.339
-426.588	468.940	-0.123	0.280
-425.573	-24.623	-0.160	-0.096
-424.559	800.000	-0.097	-0.320
-423.544	-87.326	0.330	-0.101
-422.530	146.710	0.094	0.128
-421.515	-82.981	0.201	0.066
-420.500	-69.329	-0.162	-0.063
-419.486	-35.859	0.297	0.162
-418.471	194.033	0.313	0.479
-417.457	-200.000	0.045	0.206
-416.442	187.095	0.237	-0.357
-415.428	732.477	0.087	-0.234
-414.413	2.839	-0.224	0.164
-413.398	800.000	0.130	0.382
-412.384	800.000	0.074	-0.245
-411.369	-106.960	-0.139	0.031
-410.355	-40.141	-0.085	-0.045
-409.340	84.201	-0.058	-0.064
-408.325	800.000	-0.019	-0.069
-407.311	11.732	0.180	0.139
-406.296	180.690	-0.022	-0.033
-405.282	-158.162	-0.271	0.016
-404.267	-116.338	0.273	-0.051
-403.252	-115.945	-0.169	0.032
-402.238	62.733	0.064	0.065
-401.223	735.024	-0.192	0.519
-400.209	-123.391	0.039	0.006
-399.194	800.000	-0.078	0.294
-398.179	-138.350	0.446	0.050
-397.165	780.688	0.075	0.207
-396.150	454.847	-0.009	-0.021
-395.136	666.413	0.119	0.312
-394.121	-106.659	0.357	0.080
-393.106	-112.246	-0.337	-0.068
-392.092	200.547	0.191	-0.296
-391.077	171.044	-0.128	0.185
-390.063	800.000	0.022	-0.091
-389.048	-17.151	0.180	-0.115
-388.033	-163.269	-0.403	0.019
-387.019	530.265	0.058	0.138
-386.004	-115.959	-0.256	0.048
-384.990	-200.000	0.018	-0.152
-383.975	601.409	-0.019	0.047
-382.960	43.289	-0.153	0.141
-381.946	-87.087	0.129	-0.040
-380.931	428.457	0.284	-0.619
-379.917	251.711	-0.105	0.180
-378.902	-95.075	-0.336	-0.091
-377.888	-147.523	-0.149	0.013
-376.873	-108.102	0.183	-0.040
-375.858	119.911	0.244	0.305
-374.844	21.904	0.287	0.236
-373.829	32.221	0.184	-0.160
-372.815	-49.233	0.153	0.074
-371.800	-12.402	-0.380	0.251
-370.785	-200.000	0.021	-0.136
-369.771	265.820	-0.055	0.097
-368.756	267.531	0.087	0.153
-367.742	209.168	-0.102	-0.162
-366.727	-123.855	0.242	0.038
-365.712	-22.165	-0.263	-0.161
-364.698	11.270	-0.367	-0.284
-363.683	-179.928	-0.029	0.001
-362.669	5.246	-0.213	0.159
-361.654	800.000	0.044	-0.137
-360.639	-154.130	0.186	-0.013
-359.625	123.019	0.127	-0.160
-358.610	-105.097	-0.249	-0.057
-357.596	800.000	0.038	0.126
-356.581	-159.701	0.134	-0.007
-355.566	-78.587	0.160	-0.055
-354.552	-40.418	0.229	-0.120
-353.537	-58.538	-0.174	0.076
-352.523	-200.000	0.053	0.498
-351.508	97.991	0.145	0.168
-350.493	-200.000	0.023	0.212
-349.479	109.421	0.156	0.188
-348.464	43.907	-0.220	0.203
-347.450	29.016	0.261	-0.223
-346.435	800.000	-0.090	-0.345
-345.420	-94.731	-0.038	-0.011
-344.406	-6.902	0.061	0.042
-343.391	-200.000	-0.013	0.149
-342.377	-10.468	0.214	-0.143
-341.362	133.767	-0.222	-0.289
-340.348	-38.784	-0.109	-0.058
-339.333	-200.000	-0.002	0.057
-338.318	7.675	0.195	-0.147
-337.304	-136.901	-0.333	-0.038
-336.289	-25.311	0.131	0.078
-335.275	800.000	0.097	0.283
-334.260	-74.139	0.278	-0.101
-333.245	800.000	-0.075	-0.301
-332.231	800.000	0.107	0.306
-331.216	498.222	-0.057	-0.132
-330.202	800.000	-0.046	0.127
-329.187	800.000	0.012	0.053
-328.172	-35.514	-0.144	0.079
-327.158	-99.193	-0.351	-0.089
-326.143	4.686	-0.049	0.036
-325.129	-200.000	0.030	0.256
-324.114	219.876	-0.097	0.156
-323.099	-33.573	0.320	-0.178
-322.085	-59.497	-0.082	-0.035
-321.070	-118.239	-0.238	0.043
-320.056	-79.758	-0.216	0.073
-319.041	87.079	-0.146	-0.162
-318.026	22.072	0.272	-0.223
-317.012	164.661	0.067	0.095
-315.997	282.728	0.114	-0.207
-314.983	-200.000	0.116	-0.521
-313.968	-200.000	-0.046	-0.323
-312.953	-13.152	0.052	-0.034
-311.939	-69.185	-0.324	0.125
-310.924	152.142	-0.087	0.119
-309.910	32.566	0.151	-0.131
-308.895	-200.000	0.015	0.079
-307.880	-93.676	-0.277	0.077
-306.866	175.894	0.117	-0.170
-305.851	-77.011	0.167	-0.059
-304.837	-27.746	0.191	-0.112
-303.822	-150.532	0.244	-0.019
-302.807	148.753	0.029	-0.040
-301.793	227.674	-0.177	0.289
-300.778	230.259	-0.093	0.153
-299.764	254.758	0.012	0.020
-298.749	800.000	-0.067	0.290
-297.735	-30.724	-0.378	0.215
-296.720	28.963	0.172	-0.147
-295.705	-200.000	0.001	-0.009
-294.691	-200.000	0.018	0.305
-293.676	-55.147	0.284	0.128
-292.662	-70.201	0.384	0.147
-291.647	-200.000	-0.021	0.254
-290.632	-156.098	-0.167	0.011
-289.618	147.667	0.226	-0.306
-288.603	416.533	-0.145	-0.310
-287.589	-55.528	-0.240	-0.108
-286.574	243.231	-0.097	-0.163
-285.559	-21.384	-0.103	-0.063
-284.545	-200.000	-0.065	0.306
-283.530	-19.715	-0.070	0.043
-282.516	-200.000	-0.008	-0.222
-281.501	-112.707	-0.442	0.088
-280.486	264.446	-0.104	-0.182
-279.472	800.000	-0.103	-0.296
-278.457	-200.000	-0.023	-0.115
-277.443	-200.000	-0.020	-0.171
-276.428	2.234	-0.072	0.052
-275.413	-200.000	-0.051	-0.400
-274.399	-115.498	-0.237	0.045
-273.384	165.409	0.038	0.055
-272.370	-39.139	0.393	0.208
-271.355	185.882	-0.100	-0.149
-270.340	-136.941	0.258	0.030
-269.326	-200.000	-0.048	-0.238
-268.311	-172.535	0.135	-0.004
-267.297	47.740	-0.133	0.125
-266.282	-102.009	0.262	-0.063
-265.267	9.276	-0.256	0.195
-264.253	557.609	-0.099	0.240
-263.238	290.657	-0.060	-0.109
-262.224	-190.078	0.223	-0.002
-261.209	222.094	-0.142	0.230
-260.195	-69.115	-0.187	0.072
-259.180	-4.320	0.046	0.032
-258.165	68.361	0.301	0.310
-257.151	-200.000	-0.015	-0.378
-256.136	541.263	-0.096	0.230
-255.122	218.147	-0.090	0.144
-254.107	-200.000	0.014	0.263
-253.092	-200.000	0.002	0.252
-252.078	428.386	-0.076	-0.165
-251.063	28.009	0.067	-0.057
-250.049	800.000	0.023	0.091
-249.034	-67.018	-0.033	0.013
-248.019	111.168	-0.071	0.085
-247.005	-185.021	-0.182	-0.003
-245.990	54.767	-0.097	0.094
-244.976	-84.850	0.120	0.038
-243.961	-102.955	0.137	-0.033
-242.946	240.895	0.077	-0.130
-241.932	-67.979	-0.163	0.064
-240.917	196.837	0.007	-0.010
-239.903	27.711	-0.070	-0.059
-238.888	-116.980	-0.210	-0.039
-237.873	-200.000	-0.038	0.192
-236.859	-200.000	0.004	-0.238
-235.844	-200.000	0.023	-0.361
-234.830	-132.148	-0.102	-0.013
-233.815	40.828	0.104	0.094
-232.800	213.214	0.207	0.328
-231.786	-120.813	-0.342	-0.058
-230.771	57.069	-0.069	0.067
-229.757	155.389	-0.299	0.412
-228.742	788.529	0.056	0.153
-227.727	187.001	-0.231	0.346
-226.713	-128.421	0.277	-0.039
-225.698	-200.000	0.001	0.047
-224.684	209.224	0.251	0.394
-223.669	297.744	0.054	0.100
-222.655	-200.000	-0.020	0.133
-221.640	256.719	0.068	-0.118
-220.625	800.000	0.047	-0.156
-219.611	206.922	0.052	0.081
-218.596	167.365	0.155	0.220
-217.582	-113.220	-0.141	-0.028
-216.567	-200.000	0.046	-0.323
-215.552	800.000	0.026	0.107
-214.538	-200.000	0.017	0.177
-213.523	26.156	-0.128	-0.107
-212.509	-69.058	0.348	-0.134
-211.494	-72.220	-0.108	-0.040
-210.479	-44.399	-0.197	0.099
-209.465	-112.182	-0.028	-0.006
-208.450	212.509	-0.050	0.080
-207.436	9.488	-0.185	-0.140
-206.421	642.457	-0.037	0.094
-205.406	225.840	-0.078	0.126
-204.392	9.372	-0.213	-0.161
-203.377	472.195	-0.126	-0.283
-202.363	-89.491	-0.264	-0.078
-201.348	-20.235	-0.077	0.048
-200.333	178.694	-0.224	-0.329
-199.319	144.507	-0.089	0.120
-198.304	-1.577	-0.246	0.174
-197.290	-178.989	-0.199	0.004
-196.275	-76.856	0.140	-0.049
-195.260	443.222	-0.079	0.174
-194.246	-200.000	-0.008	-0.079
-193.231	-200.000	0.014	0.229
-192.217	-83.300	0.179	-0.058
-191.202	-90.477	0.261	0.076
-190.187	-162.009	-0.108	0.005
-189.173	436.743	0.108	-0.235
-188.158	800.000	-0.047	0.165
-187.144	290.770	0.226	0.412
-186.129	-27.885	0.213	-0.124
-185.114	-90.903	0.327	0.094
-184.100	145.747	-0.115	-0.154
-183.085	5.177	0.034	0.025
-182.071	-126.124	0.250	0.038
-181.056	-200.000	-0.046	-0.238
-180.042	-24.423	0.121	-0.072
-179.027	17.602	0.042	-0.034
-178.012	-6.891	-0.228	-0.155
-176.998	-200.000	0.029	-0.241
-175.983	-69.709	-0.140	-0.054
-174.969	-200.000	-0.029	-0.294
-173.954	41.900	0.097	0.088
-172.939	-104.547	0.023	-0.005
-171.925	174.193	0.052	0.075
-170.910	-82.325	-0.298	0.097
-169.896	-116.742	0.335	-0.062
-168.881	248.527	-0.185	-0.312
-167.866	-200.000	0.041	-0.350
-166.852	-41.864	-0.212	-0.109
-165.837	77.618	0.289	0.308
-164.823	-200.000	0.029	-0.158
-163.808	0.041	0.179	-0.127
-162.793	800.000	0.076	-0.228
-161.779	-200.000	0.003	-0.149
-160.764	252.526	0.110	-0.188
-159.750	69.788	0.280	-0.289
-158.735	-65.450	-0.084	-0.034
-157.720	-130.537	-0.142	0.019
-156.706	-108.474	-0.173	0.037
-155.691	121.482	-0.237	0.295
-154.677	69.492	0.044	-0.046
-153.662	112.739	-0.054	-0.065
-152.647	-85.137	0.344	-0.108
-151.633	-200.000	-0.039	-0.364
-150.618	-200.000	-0.052	0.266
-149.604	84.942	0.254	-0.278
-148.589	-200.000	-0.054	-0.298
-147.574	-39.429	0.341	0.179
-146.560	-200.000	-0.086	0.434
-145.545	-150.513	-0.030	0.002
-144.531	-119.456	0.332	0.058
-143.516	800.000	0.041	-0.143
-142.502	800.000	0.049	-0.195
-141.487	800.000	0.031	0.106
-140.472	-66.843	-0.151	-0.060
-139.458	263.810	-0.147	0.256
-138.443	-109.632	0.081	0.017
-137.429	-52.359	-0.162	-0.075
-136.414	-200.000	0.033	0.259
-135.399	356.447	0.036	0.071
-134.385	-112.733	-0.238	-0.047
-133.370	-82.784	-0.114	0.037
-132.356	-200.000	-0.010	-0.169
-131.341	191.032	0.198	0.298
-130.326	-8.693	0.268	0.180
-129.312	-192.755	-0.103	-0.001
-128.297	-200.000	0.007	0.081
-127.283	-200.000	-0.055	0.352
-126.268	15.510	0.139	-0.109
-125.253	25.446	-0.171	0.142
-124.239	154.054	-0.065	0.089
-123.224	-108.839	-0.221	-0.047
-122.210	357.355	-0.119	0.238
-121.195	-82.303	0.148	-0.048
