DTS Sentinel unit serial number:	SN413079Multiplexer serial number:	ORYXHardware model number:	OX4-SRSoftware version number:	ORYX F/W v4.00 Oryx Data Collector v3.7.2.0data status	okinstallation	princeton_trtdifferential loss correction	single-endedforward channel	channel 1reverse channel	N/Adate	2019/09/17time	14:54:35forward acquisition time	60.00reverse acquisition time	0.00gamma	496.2192k internal	0.2296k external	0.2296temperature offset calibration	0.9971default loss term (dB/km)	0.3790temperature slope calibration	1.0000multiplexer offset coefficient	1.0000multiplexer slope coefficient	1.0000fibre end	0.00T internal ref (°C)	37.20T ext. ref 1 (°C)	0.39T ext. ref 2 (°C)	34.24length (m)	temperature (°C)	Stokes	anti-Stokes-747.200	-200.000	0.026	0.286
-746.185	-89.049	0.156	0.047
-745.171	305.290	-0.156	0.296
-744.156	91.806	-0.062	0.071
-743.142	-46.511	-0.244	-0.123
-742.127	-69.088	0.032	0.012
-741.112	61.634	-0.173	-0.176
-740.098	0.033	-0.095	-0.069
-739.083	0.752	0.263	-0.192
-738.069	-19.118	0.278	0.176
-737.054	261.929	0.100	0.177
-736.039	546.576	0.084	0.205
-735.025	-54.276	0.244	-0.113
-734.010	-200.000	-0.052	-0.334
-732.996	-200.000	-0.018	0.407
-731.981	-200.000	-0.009	-0.059
-730.966	159.805	0.046	-0.065
-729.952	372.724	-0.091	0.188
-728.937	-200.000	-0.048	0.389
-727.923	-176.707	0.250	-0.007
-726.908	-64.993	0.283	-0.117
-725.894	251.948	0.099	0.172
-724.879	-132.591	0.428	0.056
-723.864	-59.718	-0.237	0.104
-722.850	-147.599	0.110	-0.009
-721.835	623.131	0.221	-0.569
-720.821	-157.219	-0.389	0.024
-719.806	-78.283	-0.258	0.090
-718.791	0.036	-0.246	-0.179
-717.777	193.351	0.070	0.108
-716.762	77.208	0.210	0.227
-715.748	-30.644	-0.242	-0.140
-714.733	375.795	-0.112	0.233
-713.718	652.420	0.040	-0.105
-712.704	-103.668	0.158	-0.038
-711.689	-21.752	0.176	-0.109
-710.675	800.000	0.060	-0.244
-709.660	309.441	-0.125	0.239
-708.645	59.433	-0.096	-0.097
-707.631	800.000	0.055	0.216
-706.616	12.720	0.087	0.068
-705.602	98.261	-0.078	0.091
-704.587	-99.216	0.178	0.046
-703.572	-100.028	0.262	-0.067
-702.558	-130.287	-0.363	-0.050
-701.543	-200.000	-0.004	-0.043
-700.529	-90.079	0.252	-0.075
-699.514	-79.453	0.083	0.029
-698.499	784.753	-0.067	-0.186
-697.485	457.887	0.055	-0.126
-696.470	584.270	-0.023	0.057
-695.456	-13.278	-0.219	-0.145
-694.441	460.006	0.095	-0.215
-693.426	18.403	-0.188	0.153
-692.412	-112.158	-0.285	-0.058
-691.397	-106.705	-0.253	0.057
-690.383	106.482	0.110	-0.133
-689.368	502.154	-0.070	-0.164
-688.354	-174.390	-0.282	-0.008
-687.339	800.000	-0.022	-0.096
-686.324	-200.000	0.004	0.427
-685.310	302.188	0.024	0.044
-684.295	32.239	0.128	0.113
-683.281	-200.000	0.037	-0.224
-682.266	183.630	-0.090	0.136
-681.251	800.000	0.092	-0.304
-680.237	-200.000	0.053	-0.321
-679.222	535.893	-0.113	-0.274
-678.208	800.000	0.040	-0.131
-677.193	-79.149	0.154	0.053
-676.178	-147.477	-0.114	0.010
-675.164	800.000	-0.034	0.108
-674.149	-46.551	0.280	0.140
-673.135	-52.802	0.109	0.051
-672.120	-107.374	0.090	0.020
-671.105	-130.678	-0.049	0.007
-670.091	207.379	-0.014	-0.021
-669.076	-42.147	0.234	-0.122
-668.062	-200.000	0.020	-0.354
-667.047	470.459	0.085	-0.194
-666.032	-200.000	0.020	0.344
-665.018	457.806	-0.166	-0.375
-664.003	657.517	0.093	-0.244
-662.989	-26.735	-0.228	0.136
-661.974	-96.875	-0.396	-0.106
-660.959	-114.234	0.320	-0.063
-659.945	596.833	0.090	0.227
-658.930	800.000	0.064	-0.183
-657.916	-200.000	0.020	0.132
-656.901	-200.000	0.011	0.194
-655.886	800.000	-0.053	-0.161
-654.872	97.834	-0.018	0.021
-653.857	215.456	-0.120	-0.195
-652.843	800.000	0.153	-0.438
-651.828	-200.000	0.040	-0.210
-650.814	-143.481	-0.224	-0.022
-649.799	-43.546	-0.241	0.124
-648.784	-200.000	-0.005	-0.155
-647.770	-25.233	-0.084	-0.051
-646.755	-200.000	0.029	-0.164
-645.741	-200.000	0.046	-0.274
-644.726	296.300	0.026	0.048
-643.711	123.981	0.094	0.120
-642.697	800.000	0.032	0.139
-641.682	359.117	-0.111	0.226
-640.668	-200.000	0.004	-0.228
-639.653	143.139	0.180	0.243
-638.638	-168.593	-0.214	-0.008
-637.624	796.733	0.026	-0.074
-636.609	-27.769	0.201	0.119
-635.595	-200.000	-0.021	-0.221
-634.580	163.265	-0.149	-0.213
-633.565	-200.000	0.021	-0.100
-632.551	-200.000	0.011	-0.110
-631.536	-88.096	0.159	0.049
-630.522	-130.744	0.120	-0.016
-629.507	104.911	-0.109	0.131
-628.492	236.926	0.100	0.169
-627.478	-200.000	-0.001	-0.055
-626.463	-10.740	-0.076	0.051
-625.449	-44.159	0.098	-0.050
-624.434	451.670	-0.030	-0.068
-623.419	-138.997	-0.139	0.015
-622.405	-101.233	-0.214	0.053
-621.390	41.629	-0.161	-0.148
-620.376	524.749	-0.142	-0.339
-619.361	213.289	-0.162	-0.261
-618.346	252.056	-0.189	0.328
-617.332	-200.000	-0.009	-0.087
-616.317	53.858	-0.138	-0.135
-615.303	-101.255	0.240	0.060
-614.288	800.000	-0.049	-0.142
-613.273	-200.000	-0.035	-0.209
-612.259	-200.000	-0.030	0.494
-611.244	800.000	-0.086	-0.286
-610.230	-27.606	-0.220	-0.130
-609.215	800.000	0.111	-0.470
-608.201	800.000	0.043	0.176
-607.186	-200.000	0.018	-0.105
-606.171	-100.357	0.183	-0.046
-605.157	-144.480	0.082	0.008
-604.142	90.311	0.090	-0.103
-603.128	-200.000	0.018	0.354
-602.113	387.730	0.092	0.193
-601.098	97.521	0.240	0.280
-600.084	46.787	-0.131	-0.124
-599.069	-200.000	0.011	-0.101
-598.055	-81.656	0.262	-0.087
-597.040	-200.000	-0.018	0.170
-596.025	-43.869	-0.103	0.053
-595.011	-89.859	-0.024	0.007
-593.996	-40.855	-0.200	-0.105
-592.982	-49.774	-0.135	-0.065
-591.967	-200.000	-0.024	-0.173
-590.952	800.000	0.026	-0.076
-589.938	94.417	0.077	0.088
-588.923	-200.000	0.014	0.358
-587.909	267.164	0.021	-0.037
-586.894	-11.556	0.277	-0.185
-585.879	354.333	-0.132	-0.267
-584.865	29.452	-0.159	0.137
-583.850	800.000	0.067	-0.240
-582.836	169.560	0.108	-0.157
-581.821	350.243	0.098	-0.196
-580.806	-160.286	-0.430	-0.024
-579.792	731.969	0.022	0.059
-578.777	-109.229	0.137	0.030
-577.763	-31.656	-0.253	0.144
-576.748	74.440	-0.081	-0.087
-575.733	-62.580	-0.070	-0.030
-574.719	-62.618	-0.114	-0.048
-573.704	7.365	0.225	-0.170
-572.690	-153.241	-0.376	-0.027
-571.675	-53.852	0.465	-0.215
-570.661	665.214	0.102	0.268
-569.646	-129.848	0.185	0.026
-568.631	-108.876	-0.228	0.049
-567.617	-41.035	-0.044	-0.023
-566.602	-0.534	0.083	0.060
-565.588	267.267	-0.171	0.303
-564.573	-109.239	0.356	0.077
-563.558	-31.561	-0.275	-0.157
-562.544	712.857	-0.060	-0.160
-561.529	-61.298	0.413	-0.176
-560.515	-111.869	-0.224	0.046
-559.500	-200.000	-0.006	0.221
-558.485	-42.137	0.061	0.031
-557.471	460.776	0.085	-0.191
-556.456	-28.396	-0.031	0.018
-555.442	298.617	-0.178	0.333
-554.427	109.964	-0.158	0.192
-553.412	68.151	-0.087	-0.090
-552.398	-68.480	0.391	-0.154
-551.383	-53.514	0.417	-0.193
-550.369	-200.000	-0.002	0.231
-549.354	183.507	-0.099	0.149
-548.339	248.397	-0.185	-0.318
-547.325	800.000	-0.095	0.295
-546.310	-107.922	-0.149	-0.033
-545.296	-104.179	0.296	0.070
-544.281	744.273	-0.055	0.151
-543.266	800.000	-0.038	0.131
-542.252	-49.207	0.140	-0.068
-541.237	-114.408	0.224	-0.044
-540.223	-200.000	-0.027	-0.163
-539.208	-200.000	-0.039	0.330
-538.193	347.012	-0.080	-0.159
-537.179	-200.000	0.059	-0.439
-536.164	35.682	-0.310	-0.276
-535.150	-171.741	0.125	-0.004
-534.135	-156.349	-0.053	-0.003
-533.121	-200.000	0.007	-0.109
-532.106	-187.487	-0.316	-0.004
-531.091	-85.906	-0.420	-0.132
-530.077	-175.933	-0.089	0.002
-529.062	171.152	-0.104	-0.151
-528.048	-106.203	-0.187	0.042
-527.033	-125.499	0.362	-0.056
-526.018	-103.422	0.164	-0.039
-525.004	-105.426	-0.357	-0.082
-523.989	-158.340	0.050	-0.003
-522.975	-200.000	0.012	-0.285
-521.960	4.596	0.229	0.170
-520.945	-110.715	-0.193	0.040
-519.931	-106.473	-0.074	-0.017
-518.916	191.180	-0.060	-0.091
-517.902	-200.000	0.010	0.066
-516.887	257.609	-0.073	0.127
-515.872	-74.669	-0.242	0.088
-514.858	-119.635	-0.166	0.029
-513.843	29.478	-0.115	0.099
-512.829	60.026	-0.109	-0.110
-511.814	-47.775	-0.116	-0.057
-510.799	-144.938	0.258	0.024
-509.785	20.376	-0.058	-0.048
-508.770	283.790	-0.214	0.389
-507.756	136.987	-0.198	-0.262
-506.741	11.708	0.118	0.092
-505.726	687.727	-0.076	0.202
-504.712	417.398	0.121	0.261
-503.697	-130.213	0.168	-0.023
-502.683	137.250	0.163	0.216
-501.668	276.996	-0.038	0.068
-500.653	-200.000	0.029	-0.239
-499.639	118.185	0.239	0.298
-498.624	223.220	0.118	0.193
-497.610	86.901	0.069	-0.077
-496.595	343.918	-0.159	0.316
-495.581	327.441	0.163	-0.317
-494.566	420.701	0.082	-0.177
-493.551	233.969	-0.141	-0.235
-492.537	8.047	0.316	-0.240
-491.522	800.000	0.022	0.078
-490.508	800.000	-0.071	-0.277
-489.493	268.710	-0.120	0.214
-488.478	-88.821	-0.245	-0.074
-487.464	-53.274	-0.177	0.082
-486.449	86.422	0.104	0.116
-485.435	800.000	0.036	-0.135
-484.420	46.711	-0.305	0.287
-483.405	459.890	-0.055	0.124
-482.391	-4.500	0.188	-0.131
-481.376	26.572	-0.079	-0.066
-480.362	-50.637	-0.106	-0.050
-479.347	800.000	0.046	-0.138
-478.332	-122.824	0.185	0.030
-477.318	306.191	-0.184	0.347
-476.303	-130.586	-0.455	0.062
-475.289	-41.290	0.246	0.128
-474.274	-200.000	0.061	-0.288
-473.259	-200.000	0.045	0.262
-472.245	-200.000	-0.014	0.546
-471.230	88.792	-0.145	0.163
-470.216	43.429	0.276	0.255
-469.201	-200.000	-0.017	0.106
-468.186	-137.785	0.327	-0.037
-467.172	185.763	0.066	-0.099
-466.157	-95.719	-0.124	-0.033
-465.143	14.372	-0.044	-0.035
-464.128	-200.000	-0.011	0.107
-463.113	800.000	-0.004	-0.013
-462.099	496.483	0.092	-0.215
-461.084	-200.000	0.030	0.136
-460.070	-45.934	-0.082	-0.041
-459.055	3.391	0.328	0.242
-458.040	36.476	-0.055	-0.049
-457.026	268.819	0.152	0.269
-456.011	35.387	0.169	0.150
-454.997	-200.000	0.017	-0.369
-453.982	-99.135	0.360	-0.092
-452.968	171.271	-0.167	0.243
-451.953	-59.616	-0.245	-0.106
-450.938	-200.000	0.047	-0.215
-449.924	71.855	-0.095	-0.100
-448.909	-4.333	0.237	-0.165
-447.895	205.162	0.084	-0.131
-446.880	-200.000	-0.007	0.168
-445.865	-29.998	-0.274	0.157
-444.851	-8.348	0.200	0.136
-443.836	239.087	0.103	0.173
-442.822	-200.000	-0.037	0.166
-441.807	21.657	0.087	0.072
-440.792	0.703	-0.217	0.157
-439.778	130.995	-0.112	-0.145
-438.763	-11.489	0.103	-0.068
-437.749	-130.063	-0.117	0.016
-436.734	-200.000	-0.064	-0.346
-435.719	-90.082	0.098	0.029
-434.705	-175.018	0.101	0.003
-433.690	104.024	-0.148	0.176
-432.676	189.198	-0.060	0.090
-431.661	57.208	-0.201	0.198
-430.646	11.603	0.184	-0.143
-429.632	733.909	0.092	-0.249
-428.617	-200.000	0.038	0.250
-427.603	-200.000	0.005	0.148
-426.588	32.792	0.117	-0.103
-425.573	549.727	0.048	-0.116
-424.559	-76.443	-0.325	-0.115
-423.544	176.514	-0.112	-0.165
-422.530	-54.510	0.370	-0.169
-421.515	-154.778	0.162	-0.011
-420.500	598.686	-0.092	-0.230
-419.486	15.178	0.344	-0.272
-418.471	-63.666	-0.256	-0.106
-417.457	372.277	0.090	0.184
-416.442	-131.223	0.248	0.033
-415.428	50.585	0.260	0.248
-414.413	-200.000	-0.069	0.342
-413.398	-200.000	-0.023	0.147
-412.384	-200.000	-0.016	-0.200
-411.369	-91.159	-0.089	-0.026
-410.355	-98.434	0.339	0.087
-409.340	280.893	-0.088	-0.159
-408.325	-37.471	-0.317	0.171
-407.311	20.673	0.147	0.120
-406.296	-200.000	0.032	0.178
-405.282	777.716	-0.192	0.529
-404.267	800.000	0.064	0.264
-403.252	238.734	0.074	-0.125
-402.238	143.002	0.033	-0.044
-401.223	-200.000	0.012	-0.117
-400.209	122.983	0.105	-0.132
-399.194	-17.548	-0.025	0.016
-398.179	74.175	-0.118	-0.125
-397.165	-55.719	-0.319	-0.144
-396.150	47.424	-0.248	-0.233
-395.136	-43.714	0.217	-0.110
-394.121	6.100	-0.231	-0.172
-393.106	651.326	-0.082	0.212
-392.092	-128.816	0.196	0.028
-391.077	0.069	0.078	-0.056
-390.063	-200.000	-0.044	0.221
-389.048	42.397	0.118	0.108
-388.033	-127.767	-0.245	-0.036
-387.019	39.668	0.044	-0.040
-386.004	133.087	-0.128	-0.166
-384.990	-145.689	0.119	-0.011
-383.975	-9.047	-0.104	-0.070
-382.960	800.000	-0.039	0.123
-381.946	-75.407	-0.255	0.092
-380.931	121.823	-0.066	0.083
-379.917	763.534	-0.039	0.108
-378.902	-123.409	0.237	0.038
-377.888	286.828	-0.073	-0.132
-376.873	53.155	-0.186	0.180
-375.858	-6.082	0.142	0.098
-374.844	303.305	0.090	-0.168
-373.829	-66.800	0.225	-0.089
-372.815	-119.007	-0.150	-0.026
-371.800	-132.584	0.155	-0.020
-370.785	45.886	0.073	-0.068
-369.771	-119.099	0.147	0.026
-368.756	-145.969	-0.193	-0.017
-367.742	-200.000	0.018	-0.355
-366.727	-200.000	0.031	-0.178
-365.712	-118.351	-0.122	-0.022
-364.698	-28.941	-0.127	-0.073
-363.683	-106.051	-0.539	0.122
-362.669	-200.000	0.084	0.426
-361.654	290.260	-0.135	-0.247
-360.639	800.000	-0.067	-0.193
-359.625	-44.000	-0.296	-0.150
-358.610	-200.000	-0.029	-0.266
-357.596	-33.981	0.211	0.117
-356.581	-59.097	0.153	0.066
-355.566	800.000	-0.084	0.294
-354.552	326.841	0.069	-0.133
-353.537	68.275	0.126	0.130
-352.523	31.709	-0.371	0.322
-351.508	206.030	0.082	-0.128
-350.493	484.499	-0.055	0.127
-349.479	132.176	-0.180	0.233
-348.464	-200.000	0.047	0.235
-347.450	-200.000	-0.006	-0.186
-346.435	-200.000	0.030	0.266
-345.420	-200.000	0.056	0.252
-344.406	173.736	-0.112	0.163
-343.391	-200.000	0.033	-0.378
-342.377	-104.733	0.245	-0.057
-341.362	-55.647	-0.260	0.117
-340.348	-103.016	-0.130	0.031
-339.333	-200.000	0.005	0.159
-338.318	103.007	-0.257	-0.303
-337.304	800.000	0.043	0.176
-336.289	-200.000	0.022	0.220
-335.275	-29.239	0.255	-0.147
-334.260	50.950	-0.150	0.143
-333.245	-107.821	-0.230	0.050
-332.231	-200.000	0.012	0.182
-331.216	-57.215	-0.092	0.041
-330.202	740.279	0.124	0.334
-329.187	-200.000	-0.029	0.300
-328.172	-200.000	-0.043	-0.201
-327.158	-182.942	0.156	-0.003
-326.143	121.682	0.201	0.252
-325.129	800.000	0.097	0.288
-324.114	27.223	-0.366	-0.309
-323.099	270.950	0.039	-0.068
-322.085	160.961	-0.126	0.177
-321.070	-117.338	0.187	-0.034
-320.056	26.399	-0.132	0.111
-319.041	110.662	0.155	-0.187
-318.026	-200.000	0.015	-0.197
-317.012	-200.000	-0.000	-0.230
-315.997	388.147	-0.103	-0.215
-314.983	-53.500	0.497	0.228
-313.968	599.365	0.063	0.158
-312.953	-156.033	0.259	0.016
-311.939	-200.000	-0.038	-0.308
-310.924	44.173	-0.292	0.269
-309.910	-140.861	-0.139	-0.014
-308.895	0.988	-0.079	0.057
-307.880	-106.776	0.360	-0.080
-306.866	800.000	0.038	-0.152
-305.851	-76.672	0.332	0.117
-304.837	623.632	-0.059	0.150
-303.822	37.922	-0.026	-0.023
-302.807	-85.390	-0.082	-0.026
-301.793	-124.664	0.177	-0.028
-300.778	-170.969	0.212	-0.007
-299.764	59.362	-0.090	0.089
-298.749	800.000	-0.079	-0.222
-297.735	-178.958	-0.413	0.009
-296.720	-67.796	-0.281	0.110
-295.705	-200.000	0.005	-0.156
-294.691	800.000	0.012	-0.035
-293.676	-68.359	0.117	-0.046
-292.662	277.511	0.080	0.144
-291.647	-108.908	-0.174	-0.037
-290.632	-200.000	0.053	0.239
-289.618	-30.798	-0.233	-0.132
-288.603	-174.295	0.358	0.010
-287.589	-44.432	0.102	-0.051
-286.574	0.428	0.240	-0.172
-285.559	-200.000	0.060	-0.352
-284.545	275.003	0.114	-0.203
-283.530	207.525	0.101	0.158
-282.516	800.000	0.048	-0.152
-281.501	205.755	0.089	-0.139
-280.486	226.631	0.055	0.090
-279.472	23.086	-0.150	-0.124
-278.457	157.045	0.102	0.142
-277.443	-23.655	0.107	-0.064
-276.428	-131.636	0.218	0.029
-275.413	-200.000	-0.029	-0.250
-274.399	-200.000	-0.019	-0.195
-273.384	-200.000	0.045	-0.252
-272.370	138.356	0.096	-0.126
-271.355	-100.682	0.186	-0.046
-270.340	-200.000	-0.001	0.221
-269.326	-52.794	0.134	-0.062
-268.311	-164.563	0.068	-0.003
-267.297	800.000	0.092	0.316
-266.282	37.385	0.108	-0.096
-265.267	-200.000	-0.017	-0.197
-264.253	-190.660	-0.178	-0.002
-263.238	-200.000	-0.040	0.341
-262.224	59.396	-0.213	0.210
-261.209	-99.134	0.012	-0.003
-260.195	-38.290	0.292	-0.155
-259.180	213.358	-0.171	0.271
-258.165	79.093	-0.138	-0.148
-257.151	533.508	-0.039	-0.093
-256.136	183.030	-0.064	0.095
-255.122	-56.368	0.294	0.131
-254.107	800.000	0.047	-0.134
-253.092	791.766	0.060	-0.166
-252.078	-200.000	0.080	-0.371
-251.063	550.011	-0.097	0.233
-250.049	-4.279	-0.429	-0.298
-249.034	-200.000	0.009	-0.046
-248.019	-109.105	-0.329	-0.070
-247.005	37.301	-0.076	-0.068
-245.990	-110.811	-0.181	-0.037
-244.976	-139.393	-0.297	0.032
-243.961	-35.310	-0.224	0.122
-242.946	-200.000	-0.020	0.314
-241.932	253.800	-0.189	0.323
-240.917	800.000	-0.056	0.193
-239.903	24.532	0.197	0.163
-238.888	-119.133	0.180	-0.031
-237.873	-98.152	0.222	0.057
-236.859	148.682	-0.158	0.214
-235.844	-7.179	0.065	-0.044
-234.830	-200.000	0.019	-0.313
-233.815	-104.029	-0.227	0.053
-232.800	-200.000	-0.005	0.251
-231.786	165.814	-0.227	0.321
-230.771	-200.000	0.000	-0.031
-229.757	800.000	-0.056	-0.157
-228.742	-73.824	-0.339	-0.123
-227.727	-200.000	0.001	-0.321
-226.713	-62.939	0.102	-0.042
-225.698	-111.164	0.011	0.002
-224.684	76.133	0.152	-0.161
-223.669	-177.404	0.248	0.006
-222.655	-2.646	0.142	-0.100
-221.640	-4.169	0.195	0.136
-220.625	-76.767	-0.315	0.110
-219.611	-149.344	0.091	-0.007
-218.596	17.953	-0.172	0.137
-217.582	315.416	0.058	0.109
-216.567	185.206	0.081	0.121
-215.552	-42.143	0.242	-0.124
-214.538	-200.000	0.016	-0.114
-213.523	-5.655	0.325	-0.223
-212.509	-125.148	0.156	0.024
-211.494	-200.000	0.019	0.288
-210.479	-2.779	-0.132	0.092
-209.465	800.000	-0.108	0.314
-208.450	-24.924	0.207	-0.123
-207.436	-200.000	-0.019	0.119
-206.421	463.629	0.104	0.233
-205.406	-19.436	0.129	-0.080
-204.392	-84.181	-0.434	-0.138
-203.377	-151.634	0.148	-0.011
-202.363	433.009	0.066	0.143
-201.348	99.321	0.204	0.236
-200.333	-174.720	0.094	-0.003
-199.319	-200.000	0.028	0.187
-198.304	-200.000	0.030	-0.319
-197.290	-200.000	-0.048	-0.293
-196.275	800.000	0.040	0.114
-195.260	-200.000	0.003	-0.047
-194.246	-33.055	0.159	-0.088
-193.231	-94.102	-0.175	0.048
-192.217	-200.000	0.027	-0.297
-191.202	525.756	0.159	0.374
-190.187	-200.000	0.004	-0.111
-189.173	-45.522	-0.134	-0.066
-188.158	-200.000	-0.016	0.278
-187.144	-200.000	0.006	0.147
-186.129	-187.976	0.310	-0.004
-185.114	-91.856	0.114	-0.032
-184.100	32.038	-0.158	0.136
-183.085	-78.930	-0.080	0.027
-182.071	300.387	0.114	-0.211
-181.056	23.457	-0.068	0.056
-180.042	-67.076	-0.300	0.118
-179.027	321.517	-0.080	-0.153
-178.012	-9.519	-0.112	0.074
-176.998	-200.000	-0.002	-0.231
-175.983	231.809	-0.114	-0.187
-174.969	51.878	-0.187	-0.178
-173.954	-94.394	0.263	0.072
-172.939	-200.000	0.003	-0.206
-171.925	-160.604	-0.114	0.006
-170.910	-200.000	0.070	-0.380
-169.896	119.058	0.233	-0.288
-168.881	-175.734	0.082	-0.002
-167.866	-193.572	-0.226	0.002
-166.852	34.923	0.164	0.143
-165.837	-81.842	0.044	0.014
-164.823	80.872	-0.145	-0.156
-163.808	-200.000	-0.003	0.143
-162.793	-116.211	-0.112	0.021
-161.779	404.331	-0.089	0.187
-160.764	-16.555	0.297	-0.188
-159.750	-86.504	0.190	-0.058
-158.735	6.721	0.207	0.154
-157.720	274.431	0.158	-0.280
-156.706	362.378	0.036	-0.073
-155.691	25.554	0.123	0.102
-154.677	-57.685	0.292	0.128
-153.662	-200.000	0.009	-0.059
-152.647	-16.654	-0.133	-0.084
-151.633	225.838	0.045	-0.073
-150.618	114.143	-0.175	-0.212
-149.604	-200.000	0.002	0.043
-148.589	-200.000	-0.001	0.237
-147.574	441.703	0.171	0.373
-146.560	-65.317	-0.117	-0.047
-145.545	-26.359	0.050	-0.029
-144.531	191.738	0.029	0.044
-143.516	800.000	0.098	0.331
-142.502	57.357	-0.035	0.034
-141.487	-200.000	0.010	0.086
-140.472	-26.679	-0.095	-0.055
-139.458	-42.385	0.220	-0.112
-138.443	-18.355	0.486	0.303
-137.429	800.000	-0.066	-0.268
-136.414	581.727	0.133	-0.325
-135.399	223.779	-0.111	-0.179
-134.385	-200.000	-0.006	0.034
-133.370	40.284	-0.265	0.237
-132.356	-50.366	-0.251	0.118
-131.341	-11.207	0.065	0.043
-130.326	-119.736	0.289	0.050
-129.312	-68.425	-0.129	0.050
-128.297	102.933	-0.210	-0.246
-127.283	90.883	-0.182	-0.204
-126.268	545.778	-0.113	0.269
-125.253	63.541	0.198	0.198
-124.239	-190.289	0.133	-0.001
-123.224	238.877	0.029	-0.048
-122.210	-58.907	0.128	0.055
