DTS Sentinel unit serial number:	SN413079Multiplexer serial number:	ORYXHardware model number:	OX4-SRSoftware version number:	ORYX F/W v4.00 Oryx Data Collector v3.7.2.0data status	okinstallation	princeton_trtdifferential loss correction	single-endedforward channel	channel 1reverse channel	N/Adate	2019/09/18time	13:54:35forward acquisition time	60.00reverse acquisition time	0.00gamma	496.2192k internal	0.2312k external	0.2312temperature offset calibration	0.9985default loss term (dB/km)	0.3790temperature slope calibration	1.0000multiplexer offset coefficient	1.0000multiplexer slope coefficient	1.0000fibre end	0.00T internal ref (°C)	34.55T ext. ref 1 (°C)	0.65T ext. ref 2 (°C)	29.57length (m)	temperature (°C)	Stokes	anti-Stokes-747.200	-46.968	-0.031	-0.015
-746.185	-134.778	-0.079	-0.010
-745.171	-107.795	0.265	-0.059
-744.156	583.633	-0.089	0.221
-743.142	509.863	-0.091	0.216
-742.127	800.000	-0.054	-0.211
-741.112	97.235	0.161	0.187
-740.098	-200.000	-0.048	0.240
-739.083	-10.069	0.510	-0.344
-738.069	-164.225	-0.094	0.004
-737.054	-158.477	-0.198	-0.012
-736.039	39.623	-0.120	-0.109
-735.025	-55.123	0.210	-0.096
-734.010	504.572	0.194	0.457
-732.996	23.335	-0.171	-0.143
-731.981	268.170	0.159	-0.282
-730.966	-164.944	-0.337	0.015
-729.952	-77.113	0.253	-0.089
-728.937	-21.541	-0.321	0.199
-727.923	-92.177	-0.383	-0.110
-726.908	-200.000	-0.036	0.289
-725.894	-2.057	-0.043	-0.031
-724.879	-200.000	-0.003	0.038
-723.864	15.459	0.050	-0.040
-722.850	86.239	0.140	0.156
-721.835	168.103	-0.128	-0.185
-720.821	-42.525	-0.158	-0.082
-719.806	89.915	0.046	0.052
-718.791	-200.000	0.069	0.391
-717.777	76.732	-0.069	-0.074
-716.762	-163.401	-0.366	-0.018
-715.748	-200.000	-0.032	-0.186
-714.733	111.177	-0.271	-0.330
-713.718	81.142	0.217	0.238
-712.704	-3.341	-0.180	0.127
-711.689	-43.971	-0.129	-0.066
-710.675	419.019	0.147	0.319
-709.660	456.324	0.084	-0.189
-708.645	-200.000	0.049	-0.305
-707.631	-46.291	0.216	0.107
-706.616	-143.096	-0.321	-0.031
-705.602	-200.000	-0.025	0.246
-704.587	-83.016	0.068	0.022
-703.572	364.337	0.113	-0.230
-702.558	-12.459	0.176	0.117
-701.543	76.469	0.115	-0.124
-700.529	-114.362	-0.122	0.024
-699.514	8.016	0.283	-0.215
-698.499	-200.000	0.025	-0.268
-697.485	-17.836	0.070	-0.044
-696.470	-200.000	0.030	-0.169
-695.456	-104.426	0.340	-0.080
-694.441	639.961	0.100	-0.258
-693.426	-200.000	-0.017	-0.140
-692.412	-200.000	0.050	0.229
-691.397	-10.015	-0.418	0.281
-690.383	-44.015	-0.180	0.091
-689.368	-200.000	-0.042	-0.204
-688.354	-85.510	0.247	-0.078
-687.339	155.700	0.126	0.176
-686.324	-189.515	0.275	0.003
-685.310	57.834	-0.237	0.235
-684.295	206.545	-0.170	0.267
-683.281	220.182	0.129	0.209
-682.266	-45.923	-0.103	0.051
-681.251	-0.745	-0.164	0.118
-680.237	202.881	-0.122	-0.191
-679.222	800.000	0.039	0.116
-678.208	466.674	-0.050	-0.113
-677.193	59.389	-0.113	0.113
-676.178	17.888	0.339	-0.273
-675.164	-122.456	-0.222	0.037
-674.149	101.123	0.074	-0.087
-673.135	-178.131	0.289	0.007
-672.120	-200.000	-0.028	0.170
-671.105	-88.603	0.083	0.025
-670.091	432.095	0.041	0.090
-669.076	-159.822	0.113	-0.006
-668.062	-54.035	0.132	-0.061
-667.047	122.102	0.158	0.200
-666.032	21.389	-0.184	-0.151
-665.018	-24.879	-0.370	-0.222
-664.003	-107.271	0.294	-0.065
-662.989	-200.000	0.014	-0.158
-661.974	94.859	0.050	0.058
-660.959	-200.000	-0.044	0.220
-659.945	-60.709	0.325	0.139
-658.930	-50.635	0.070	0.033
-657.916	-20.786	0.258	0.160
-656.901	-200.000	-0.056	-0.346
-655.886	-147.429	-0.298	0.025
-654.872	-168.016	-0.299	0.012
-653.857	-200.000	0.025	0.342
-652.843	-138.910	0.161	0.018
-651.828	-4.502	0.098	-0.069
-650.814	-28.592	0.199	-0.116
-649.799	-123.042	-0.180	0.029
-648.784	37.367	-0.239	-0.214
-647.770	-200.000	0.013	-0.104
-646.755	-200.000	0.241	0.000
-645.741	-128.713	0.140	0.020
-644.726	141.936	0.084	-0.113
-643.711	-200.000	0.004	0.114
-642.697	-22.104	0.204	-0.125
-641.682	-200.000	-0.022	-0.117
-640.668	-200.000	0.034	0.163
-639.653	-53.796	0.136	-0.063
-638.638	-200.000	-0.045	0.273
-637.624	-95.357	0.150	0.041
-636.609	781.774	0.085	0.236
-635.595	800.000	0.160	0.527
-634.580	17.263	0.211	0.169
-633.565	534.789	-0.161	-0.386
-632.551	39.789	0.208	-0.188
-631.536	-126.965	-0.020	-0.003
-630.522	-107.656	-0.218	-0.048
-629.507	800.000	-0.087	0.275
-628.492	800.000	-0.095	0.290
-627.478	-69.208	-0.273	0.106
-626.463	-61.507	0.152	-0.065
-625.449	303.597	0.100	-0.187
-624.434	303.780	0.033	-0.061
-623.419	800.000	0.070	-0.248
-622.405	76.128	-0.200	-0.214
-621.390	61.938	-0.222	0.224
-620.376	-76.516	-0.120	-0.043
-619.361	-200.000	0.039	-0.228
-618.346	-153.764	0.264	0.018
-617.332	42.711	0.202	-0.185
-616.317	9.915	0.116	-0.089
-615.303	-200.000	0.031	-0.199
-614.288	-200.000	0.014	-0.082
-613.273	-41.547	0.162	-0.084
-612.259	-143.676	-0.069	0.007
-611.244	161.335	0.078	-0.110
-610.230	-61.354	-0.210	0.089
-609.215	259.154	-0.062	-0.108
-608.201	39.238	0.438	-0.396
-607.186	441.760	-0.032	0.071
-606.171	-135.122	-0.382	-0.046
-605.157	-166.408	0.141	-0.006
-604.142	138.157	0.155	-0.205
-603.128	58.468	-0.302	-0.299
-602.113	-200.000	0.022	-0.140
-601.098	102.022	0.208	-0.245
-600.084	-22.105	-0.218	-0.133
-599.069	-200.000	0.028	-0.173
-598.055	452.061	0.100	-0.223
-597.040	322.111	-0.156	-0.299
-596.025	-96.689	0.428	0.114
-595.011	252.763	0.105	0.181
-593.996	800.000	0.046	-0.146
-592.982	-39.928	0.224	-0.118
-591.967	22.964	0.082	0.068
-590.952	-200.000	0.011	-0.326
-589.938	-128.335	-0.275	-0.040
-588.923	53.945	0.155	0.150
-587.909	-51.878	-0.202	-0.095
-586.894	-30.011	-0.181	0.104
-585.879	-200.000	-0.029	0.188
-584.865	-139.642	-0.065	0.007
-583.850	-83.701	-0.355	0.114
-582.836	-99.496	-0.232	0.059
-581.821	-77.207	0.112	-0.039
-580.806	101.595	0.179	0.210
-579.792	800.000	-0.015	0.058
-578.777	267.615	0.143	-0.253
-577.763	288.547	-0.123	0.225
-576.748	-0.485	0.120	-0.086
-575.733	224.519	-0.082	0.134
-574.719	-136.422	-0.414	-0.049
-573.704	-97.878	0.121	0.032
-572.690	203.459	0.139	0.216
-571.675	433.878	0.104	0.227
-570.661	-200.000	0.007	-0.052
-569.646	-200.000	-0.024	0.443
-568.631	800.000	0.042	0.165
-567.617	-134.284	0.257	0.032
-566.602	-200.000	-0.099	-0.439
-565.588	-109.519	-0.439	0.093
-564.573	-102.245	-0.015	-0.004
-563.558	800.000	0.066	-0.202
-562.544	-65.954	-0.020	-0.008
-561.529	384.967	-0.089	-0.185
-560.515	-110.340	-0.127	0.027
-559.500	108.649	-0.058	-0.069
-558.485	130.913	-0.182	0.235
-557.471	-91.860	0.242	-0.069
-556.456	234.874	-0.087	-0.145
-555.442	-51.034	-0.254	-0.120
-554.427	119.045	0.090	-0.112
-553.412	-146.774	0.175	-0.015
-552.398	-200.000	0.032	-0.382
-551.383	-135.989	-0.166	-0.020
-550.369	-200.000	0.017	0.117
-549.354	12.715	0.179	0.139
-548.339	-5.450	0.119	0.082
-547.325	-60.994	0.299	0.127
-546.310	591.130	0.010	0.025
-545.296	-53.249	-0.288	0.133
-544.281	99.457	-0.078	0.091
-543.266	637.114	0.151	-0.385
-542.252	43.054	0.137	-0.126
-541.237	-200.000	0.035	0.230
-540.223	151.252	0.176	-0.240
-539.208	800.000	0.016	0.044
-538.193	800.000	0.044	0.133
-537.179	542.832	-0.102	-0.245
-536.164	95.324	-0.167	-0.191
-535.150	-159.203	0.295	0.017
-534.135	99.571	-0.104	-0.121
-533.121	382.688	-0.151	0.312
-532.106	41.529	0.032	-0.030
-531.091	-41.144	0.256	0.133
-530.077	-41.698	0.142	0.073
-529.062	19.199	-0.070	0.057
-528.048	-51.015	-0.178	-0.084
-527.033	33.496	-0.048	0.042
-526.018	219.082	0.036	-0.059
-525.004	-138.315	0.082	0.009
-523.989	13.864	-0.091	0.071
-522.975	679.425	-0.046	0.120
-521.960	800.000	0.030	-0.090
-520.945	-200.000	-0.025	-0.298
-519.931	193.061	-0.010	-0.015
-518.916	-31.179	0.106	0.060
-517.902	-91.819	-0.252	0.072
-516.887	165.861	-0.020	0.029
-515.872	6.129	0.311	0.232
-514.858	623.957	-0.040	-0.102
-513.843	568.707	0.066	0.161
-512.829	800.000	-0.021	0.070
-511.814	192.589	0.034	0.052
-510.799	-30.310	-0.203	0.116
-509.785	580.014	-0.061	-0.151
-508.770	800.000	0.003	-0.011
-507.756	222.174	-0.243	0.393
-506.741	-153.432	0.248	0.017
-505.726	-125.545	-0.579	-0.088
-504.712	-81.487	-0.156	0.052
-503.697	79.175	0.047	-0.051
-502.683	-200.000	0.021	0.211
-501.668	-114.622	0.299	-0.057
-500.653	-200.000	0.051	-0.303
-499.639	-93.797	0.263	0.073
-498.624	-200.000	0.025	0.182
-497.610	-71.478	0.074	0.028
-496.595	-14.354	-0.451	0.292
-495.581	724.813	-0.117	-0.314
-494.566	-34.784	-0.121	0.067
-493.551	-200.000	0.000	0.032
-492.537	-71.127	0.163	0.061
-491.522	-118.663	-0.131	-0.023
-490.508	800.000	0.048	-0.135
-489.493	561.761	0.125	0.304
-488.478	126.309	-0.120	-0.152
-487.464	81.308	-0.249	0.270
-486.449	-55.946	-0.107	0.048
-485.435	181.098	0.067	0.099
-484.420	90.717	-0.166	-0.186
-483.405	251.097	-0.043	0.074
-482.391	-86.971	-0.252	0.077
-481.376	-39.962	-0.081	-0.042
-480.362	-34.993	-0.167	-0.091
-479.347	535.239	-0.089	-0.212
-478.332	-38.057	-0.162	0.087
-477.318	-104.707	0.254	-0.059
-476.303	-200.000	-0.001	-0.085
-475.289	-5.545	0.221	0.152
-474.274	-38.146	0.159	-0.085
-473.259	-200.000	-0.020	-0.355
-472.245	55.762	0.082	-0.079
-471.230	39.618	-0.140	-0.126
-470.216	-128.553	-0.135	0.019
-469.201	-32.402	0.088	0.049
-468.186	143.408	0.103	0.138
-467.172	32.224	0.093	0.081
-466.157	512.501	0.032	-0.075
-465.143	-19.279	0.231	-0.144
-464.128	-200.000	-0.045	-0.208
-463.113	94.118	0.010	-0.012
-462.099	-31.239	0.069	-0.039
-461.084	-105.795	0.187	-0.042
-460.070	-69.404	-0.307	0.118
-459.055	-70.655	0.212	0.080
-458.040	-28.838	-0.293	0.169
-457.026	50.445	0.134	-0.127
-456.011	66.335	0.164	0.167
-454.997	-23.143	-0.106	-0.064
-453.982	4.169	0.123	-0.091
-452.968	-55.554	0.207	0.093
-451.953	-40.934	-0.227	0.118
-450.938	-18.286	-0.521	-0.327
-449.924	-42.121	-0.161	0.083
-448.909	-200.000	0.049	0.233
-447.895	-122.432	-0.235	-0.038
-446.880	31.890	0.041	0.036
-445.865	238.875	-0.094	-0.156
-444.851	-137.661	0.377	-0.042
-443.836	52.339	0.352	0.337
-442.822	31.370	0.103	0.088
-441.807	134.877	0.231	-0.301
-440.792	800.000	0.068	0.299
-439.778	-200.000	0.012	-0.311
-438.763	72.144	-0.013	-0.014
-437.749	-200.000	0.004	0.020
-436.734	-124.143	0.309	-0.049
-435.719	79.471	-0.134	-0.144
-434.705	-147.754	-0.405	-0.034
-433.690	119.765	-0.012	0.014
-432.676	-39.458	0.055	-0.029
-431.661	-137.400	0.090	-0.010
-430.646	98.907	-0.082	-0.095
-429.632	163.532	0.171	-0.241
-428.617	2.550	0.240	-0.174
-427.603	-200.000	0.063	0.308
-426.588	84.397	0.203	-0.223
-425.573	7.752	0.153	-0.115
-424.559	-104.007	-0.421	-0.098
-423.544	96.723	0.151	-0.173
-422.530	133.416	-0.076	0.098
-421.515	306.926	0.067	0.124
-420.500	429.993	-0.083	0.179
-419.486	-25.653	0.478	-0.282
-418.471	-119.880	-0.149	-0.026
-417.457	271.792	-0.073	0.130
-416.442	-14.071	0.219	0.141
-415.428	130.139	0.114	0.146
-414.413	159.455	0.075	-0.105
-413.398	-141.116	0.426	0.044
-412.384	-200.000	-0.014	0.116
-411.369	-200.000	-0.016	-0.100
-410.355	-200.000	-0.022	-0.242
-409.340	634.093	-0.061	-0.156
-408.325	800.000	0.126	-0.375
-407.311	133.559	0.091	0.117
-406.296	133.130	0.233	0.302
-405.282	-83.134	-0.235	-0.076
-404.267	-61.003	0.196	-0.083
-403.252	-123.382	-0.112	0.018
-402.238	142.368	-0.206	-0.274
-401.223	260.454	0.153	-0.265
-400.209	629.065	0.067	0.171
-399.194	-200.000	-0.007	-0.059
-398.179	79.014	-0.193	0.207
-397.165	44.290	0.058	-0.053
-396.150	-38.629	-0.136	0.072
-395.136	-200.000	0.034	-0.171
-394.121	-192.932	0.333	-0.003
-393.106	66.333	0.064	0.065
-392.092	-128.577	-0.246	-0.035
-391.077	-163.241	0.175	0.008
-390.063	-137.031	-0.492	0.056
-389.048	792.828	0.177	0.486
-388.033	285.892	-0.045	0.082
-387.019	710.459	0.023	-0.061
-386.004	-113.786	0.131	0.025
-384.990	-94.483	-0.198	-0.054
-383.975	-200.000	0.029	0.177
-382.960	-133.795	-0.155	-0.019
-381.946	-101.734	0.165	0.040
-380.931	-200.000	0.047	0.223
-379.917	-143.608	0.179	0.017
-378.902	800.000	-0.081	-0.302
-377.888	800.000	0.056	-0.159
-376.873	310.186	-0.126	-0.236
-375.858	622.235	-0.067	-0.169
-374.844	-200.000	-0.002	0.048
-373.829	55.068	0.022	0.021
-372.815	547.628	0.049	0.116
-371.800	-130.227	0.176	0.024
-370.785	-108.059	-0.358	-0.078
-369.771	800.000	0.056	0.184
-368.756	-95.301	0.138	-0.037
-367.742	40.915	0.253	-0.228
-366.727	-41.113	-0.061	-0.032
-365.712	-13.834	-0.385	0.249
-364.698	800.000	0.067	0.188
-363.683	31.014	0.074	-0.064
-362.669	358.663	-0.142	0.283
-361.654	-69.819	-0.192	-0.073
-360.639	46.993	0.181	0.168
-359.625	610.292	-0.081	0.203
-358.610	658.216	-0.085	0.218
-357.596	106.000	-0.090	-0.106
-356.581	800.000	-0.046	-0.188
-355.566	22.952	-0.261	-0.214
-354.552	32.945	0.196	0.170
-353.537	-140.448	-0.544	-0.057
-352.523	-10.096	-0.259	-0.172
-351.508	-55.554	-0.458	0.205
-350.493	182.350	0.074	-0.108
-349.479	800.000	0.033	-0.099
-348.464	251.612	0.095	-0.162
-347.450	92.495	0.304	0.343
-346.435	35.105	0.103	-0.090
-345.420	-200.000	0.063	0.453
-344.406	370.054	0.201	0.407
-343.391	-56.009	-0.114	-0.051
-342.377	-177.938	-0.078	-0.002
-341.362	-56.028	0.423	-0.188
-340.348	-123.260	-0.333	-0.053
-339.333	-60.583	0.126	0.053
-338.318	-200.000	-0.066	-0.313
-337.304	125.148	0.170	0.214
-336.289	-200.000	0.003	0.262
-335.275	-12.812	0.147	0.096
-334.260	123.804	0.256	-0.321
-333.245	42.298	0.245	0.222
-332.231	-200.000	-0.000	0.135
-331.216	12.007	0.134	-0.103
-330.202	6.423	-0.187	0.138
-329.187	-200.000	0.040	-0.194
-328.172	-200.000	-0.037	-0.219
-327.158	-99.148	-0.127	0.032
-326.143	-126.481	0.358	0.053
-325.129	-200.000	-0.006	0.172
-324.114	800.000	-0.058	0.221
-323.099	-106.343	-0.166	-0.037
-322.085	-75.081	-0.329	0.117
-321.070	462.749	0.061	0.137
-320.056	0.316	-0.054	-0.039
-319.041	-14.376	-0.084	-0.054
-318.026	151.353	0.089	-0.121
-317.012	17.175	-0.062	-0.049
-315.997	201.157	0.121	-0.185
-314.983	-83.182	0.195	0.063
-313.968	76.858	0.171	-0.181
-312.953	118.770	-0.233	0.287
-311.939	800.000	0.040	0.121
-310.924	-43.038	0.173	-0.088
-309.910	-36.972	0.044	0.024
-308.895	-200.000	0.026	0.199
-307.880	-16.384	-0.095	-0.060
-306.866	-80.433	0.153	0.051
-305.851	-92.164	-0.115	0.032
-304.837	-200.000	-0.048	-0.241
-303.822	390.397	-0.065	-0.135
-302.807	26.026	-0.018	-0.015
-301.793	-200.000	-0.002	-0.095
-300.778	-188.375	-0.595	-0.007
-299.764	-150.518	-0.135	-0.010
-298.749	800.000	0.037	-0.162
-297.735	307.871	0.149	-0.278
-296.720	302.911	0.040	0.074
-295.705	-49.632	0.370	-0.175
-294.691	800.000	-0.045	0.174
-293.676	-200.000	-0.004	0.279
-292.662	-200.000	-0.018	-0.235
-291.647	-54.056	0.263	-0.119
-290.632	-21.278	0.088	0.053
-289.618	800.000	-0.086	-0.277
-288.603	18.114	-0.095	0.076
-287.589	60.840	-0.118	0.116
-286.574	68.764	-0.132	0.135
-285.559	-111.883	0.348	0.070
-284.545	800.000	-0.121	0.375
-283.530	121.771	0.232	0.289
-282.516	117.884	0.052	-0.064
-281.501	-14.765	-0.105	-0.067
-280.486	-200.000	-0.052	-0.240
-279.472	56.675	-0.349	-0.339
-278.457	8.322	-0.092	0.069
-277.443	227.769	-0.320	-0.519
-276.428	147.797	0.211	-0.283
-275.413	800.000	0.044	0.124
-274.399	-2.131	-0.137	0.096
-273.384	-14.339	-0.156	-0.100
-272.370	50.200	0.030	0.028
-271.355	800.000	0.058	-0.228
-270.340	-43.020	-0.261	0.132
-269.326	76.703	0.263	-0.278
-268.311	-200.000	0.010	0.311
-267.297	-132.484	0.167	-0.021
-266.282	88.839	-0.029	-0.032
-265.267	470.126	0.065	-0.145
-264.253	-200.000	-0.009	-0.213
-263.238	-200.000	0.011	0.108
-262.224	800.000	-0.089	-0.315
-261.209	219.415	0.051	0.081
-260.195	-13.703	-0.198	0.127
-259.180	347.505	-0.148	0.290
-258.165	257.606	0.079	0.136
-257.151	392.580	-0.028	0.058
-256.136	-200.000	-0.001	-0.110
-255.122	-200.000	0.025	-0.288
-254.107	619.994	0.128	-0.320
-253.092	110.095	-0.163	-0.195
-252.078	121.656	0.084	0.104
-251.063	-200.000	-0.037	-0.173
-250.049	-68.991	-0.175	-0.067
-249.034	-120.468	0.182	0.031
-248.019	5.665	-0.220	0.162
-247.005	800.000	0.038	0.156
-245.990	368.950	0.197	0.396
-244.976	-200.000	0.007	0.167
-243.961	-36.518	-0.201	-0.108
-242.946	52.425	-0.098	-0.093
-241.932	506.884	0.089	0.206
-240.917	-12.314	0.341	0.222
-239.903	45.009	-0.103	-0.094
-238.888	516.884	-0.082	-0.190
-237.873	-14.506	0.207	-0.132
-236.859	296.470	0.095	0.174
-235.844	-47.003	-0.341	-0.166
-234.830	-174.906	-0.300	0.008
-233.815	-42.582	-0.162	0.082
-232.800	-152.693	0.324	-0.023
-231.786	624.826	-0.060	0.150
-230.771	291.536	-0.177	0.320
-229.757	800.000	-0.015	0.065
-228.742	2.580	-0.258	-0.186
-227.727	121.057	-0.221	-0.274
-226.713	-200.000	-0.005	0.234
-225.698	114.225	-0.218	0.264
-224.684	-148.672	-0.094	-0.008
-223.669	-114.523	0.282	-0.054
-222.655	-69.333	-0.307	0.117
-221.640	220.933	-0.168	0.269
-220.625	154.429	-0.104	0.141
-219.611	-200.000	-0.033	-0.410
-218.596	-76.088	0.059	-0.021
-217.582	-138.739	0.152	-0.017
-216.567	-19.414	0.239	0.147
-215.552	41.624	-0.160	0.144
-214.538	-27.233	0.281	-0.163
-213.523	-200.000	0.019	-0.088
-212.509	-33.497	0.167	-0.092
-211.494	18.962	0.101	0.080
-210.479	-200.000	0.075	0.422
-209.465	-189.242	0.438	0.005
-208.450	58.825	0.296	0.289
-207.436	134.134	-0.092	-0.118
-206.421	146.649	0.039	0.052
-205.406	-200.000	-0.012	0.232
-204.392	214.680	-0.146	0.230
-203.377	-200.000	-0.027	0.265
-202.363	179.676	0.173	-0.251
-201.348	-151.541	0.432	-0.032
-200.333	167.159	-0.017	-0.023
-199.319	-200.000	-0.010	-0.093
-198.304	-73.632	-0.215	0.078
-197.290	-130.905	-0.226	0.030
-196.275	106.225	0.194	0.228
-195.260	-33.588	0.218	-0.119
-194.246	-48.342	0.109	-0.052
-193.231	-200.000	0.010	0.215
-192.217	-162.068	-0.385	-0.019
-191.202	6.726	0.084	0.062
-190.187	-84.316	0.150	0.047
-189.173	-0.167	-0.338	0.239
-188.158	74.829	0.214	-0.224
-187.144	-150.761	0.239	0.018
-186.129	251.540	0.148	0.250
-185.114	-119.473	-0.383	-0.066
-184.100	-51.011	-0.263	0.122
-183.085	-200.000	-0.057	0.298
-182.071	-200.000	0.062	-0.362
-181.056	670.284	-0.039	-0.101
-180.042	-14.768	-0.225	0.143
-179.027	6.474	-0.128	-0.095
-178.012	-76.899	-0.375	-0.130
-176.998	-113.200	0.337	0.066
-175.983	-17.961	0.265	-0.165
-174.969	-115.644	-0.100	0.019
-173.954	212.638	-0.188	0.294
-172.939	76.452	0.206	-0.217
-171.925	-67.457	-0.147	-0.057
-170.910	371.318	0.188	0.379
-169.896	800.000	-0.035	-0.113
-168.881	564.432	0.058	0.139
-167.866	-190.893	0.036	-0.000
-166.852	-162.088	0.136	0.007
-165.837	369.317	-0.099	-0.200
-164.823	-46.346	-0.176	-0.086
-163.808	800.000	-0.161	0.599
-162.793	-106.555	-0.216	-0.048
-161.779	534.012	-0.044	0.103
-160.764	-0.001	0.260	0.184
-159.750	407.463	0.035	-0.074
-158.735	-31.293	0.205	-0.115
-157.720	104.578	-0.113	0.132
-156.706	714.033	0.028	-0.074
-155.691	-136.442	-0.432	0.050
-154.677	-177.816	-0.148	0.004
-153.662	-6.601	0.215	0.145
-152.647	10.238	0.269	-0.203
-151.633	-92.878	-0.189	-0.052
-150.618	-136.825	-0.248	-0.028
-149.604	-200.000	0.030	0.399
-148.589	-108.967	-0.144	0.030
-147.574	-89.325	-0.081	-0.024
-146.560	-200.000	0.000	0.162
-145.545	-51.930	0.133	-0.062
-144.531	246.174	0.043	-0.072
-143.516	-200.000	0.026	0.255
-142.502	291.220	0.021	-0.038
-141.487	-200.000	-0.048	0.370
-140.472	57.491	-0.198	0.191
-139.458	-100.841	0.050	-0.012
-138.443	378.726	0.081	0.165
-137.429	45.195	-0.160	-0.146
-136.414	-57.757	0.267	-0.116
-135.399	-200.000	0.021	0.315
-134.385	284.336	-0.057	0.102
-133.370	-200.000	-0.002	0.092
-132.356	-89.840	0.186	0.054
-131.341	-87.744	-0.201	0.060
-130.326	-200.000	0.000	0.041
-129.312	-200.000	0.015	0.322
-128.297	-78.266	0.261	-0.089
-127.283	81.466	0.178	-0.191
-126.268	-77.998	-0.195	-0.067
-125.253	800.000	0.058	0.227
-124.239	424.721	-0.161	0.343
-123.224	-74.034	-0.192	0.069
-122.210	-104.398	-0.119	-0.027
-121.195	-200.000	0.037	-0.165
