DTS Sentinel unit serial number:	SN413079Multiplexer serial number:	ORYXHardware model number:	OX4-SRSoftware version number:	ORYX F/W v4.00 Oryx Data Collector v3.7.2.0data status	okinstallation	princeton_trtdifferential loss correction	single-endedforward channel	channel 1reverse channel	N/Adate	2019/09/12time	10:12:11forward acquisition time	60.00reverse acquisition time	0.00gamma	496.2192k internal	0.2298k external	0.2298temperature offset calibration	1.0042default loss term (dB/km)	0.3790temperature slope calibration	1.0000multiplexer offset coefficient	1.0000multiplexer slope coefficient	1.0000fibre end	0.00T internal ref (°C)	36.44T ext. ref 1 (°C)	1.83T ext. ref 2 (°C)	33.34length (m)	temperature (°C)	Stokes	anti-Stokes-747.200	-137.826	0.045	-0.005
-746.185	586.194	-0.027	0.067
-745.171	-141.312	0.240	0.025
-744.156	-200.000	-0.069	0.517
-743.142	-147.770	-0.277	0.024
-742.127	278.946	-0.197	0.358
-741.112	-200.000	0.014	-0.300
-740.098	-120.142	-0.496	-0.087
-739.083	245.595	-0.109	0.187
-738.069	-48.624	-0.264	0.129
-737.054	0.466	-0.104	0.076
-736.039	-71.434	0.127	-0.049
-735.025	62.104	0.059	-0.060
-734.010	435.129	-0.105	0.232
-732.996	176.481	-0.181	-0.269
-731.981	-200.000	0.016	0.107
-730.966	-200.000	0.014	0.108
-729.952	-26.519	0.248	-0.148
-728.937	-200.000	0.016	0.080
-727.923	-17.853	-0.096	0.061
-726.908	800.000	0.038	0.162
-725.894	-200.000	0.037	-0.301
-724.879	-27.097	-0.286	-0.170
-723.864	-8.509	0.154	-0.106
-722.850	800.000	0.115	0.352
-721.835	-110.012	-0.303	-0.065
-720.821	549.220	0.067	-0.165
-719.806	800.000	-0.113	-0.361
-718.791	-133.653	-0.369	-0.047
-717.777	485.107	-0.094	-0.219
-716.762	-27.333	-0.062	0.037
-715.748	25.046	-0.195	-0.165
-714.733	-200.000	-0.021	0.254
-713.718	-15.827	0.039	0.026
-712.704	-130.819	0.141	0.019
-711.689	208.156	-0.050	-0.080
-710.675	-200.000	-0.058	-0.286
-709.660	-99.886	0.178	-0.045
-708.645	-200.000	0.009	0.391
-707.631	79.990	-0.362	-0.396
-706.616	800.000	0.030	-0.130
-705.602	-200.000	0.010	0.153
-704.587	-200.000	0.004	0.185
-703.572	-193.243	0.082	-0.001
-702.558	-200.000	-0.014	-0.238
-701.543	62.501	-0.016	0.017
-700.529	-5.118	0.313	0.219
-699.514	-108.650	-0.214	0.047
-698.499	-66.752	0.198	-0.080
-697.485	-118.145	0.078	-0.014
-696.470	99.995	0.157	-0.185
-695.456	-200.000	0.010	-0.206
-694.441	326.621	-0.115	0.225
-693.426	124.138	0.322	0.412
-692.412	-200.000	-0.046	0.300
-691.397	-82.654	0.097	0.032
-690.383	-22.260	0.474	-0.293
-689.368	-13.389	-0.200	-0.132
-688.354	14.013	-0.299	0.237
-687.339	734.771	0.033	0.090
-686.324	218.361	0.085	0.137
-685.310	-95.415	-0.236	-0.065
-684.295	-124.360	-0.056	-0.009
-683.281	168.763	-0.176	0.256
-682.266	25.700	0.158	-0.134
-681.251	-149.364	-0.209	0.017
-680.237	-101.783	-0.336	-0.083
-679.222	14.344	-0.176	-0.140
-678.208	53.579	0.115	-0.113
-677.193	-129.108	-0.302	0.043
-676.178	-200.000	0.006	-0.151
-675.164	-92.133	-0.136	0.039
-674.149	301.474	0.121	-0.228
-673.135	-200.000	-0.021	0.124
-672.120	-98.096	-0.188	-0.049
-671.105	-104.129	0.062	-0.015
-670.091	-55.757	0.275	-0.125
-669.076	67.388	0.212	-0.220
-668.062	338.211	0.101	-0.199
-667.047	-153.676	0.333	0.023
-666.032	115.873	0.131	0.163
-665.018	-111.340	-0.272	0.057
-664.003	129.324	-0.245	-0.319
-662.989	0.048	0.158	0.115
-661.974	-141.221	-0.367	-0.038
-660.959	79.178	0.127	-0.138
-659.945	-136.992	0.237	-0.028
-658.930	89.884	-0.028	-0.032
-657.916	358.914	-0.050	-0.101
-656.901	800.000	-0.112	0.394
-655.886	517.133	-0.035	-0.084
-654.872	234.316	-0.127	-0.212
-653.857	800.000	0.026	0.080
-652.843	-129.244	-0.251	-0.036
-651.828	-10.587	-0.170	-0.115
-650.814	-71.416	-0.094	0.036
-649.799	-46.640	0.383	-0.191
-648.784	-200.000	0.061	-0.290
-647.770	-15.321	0.318	-0.206
-646.755	95.329	0.060	-0.069
-645.741	-89.627	-0.359	0.107
-644.726	-141.157	-0.053	0.006
-643.711	181.523	0.097	0.146
-642.697	92.072	-0.067	-0.076
-641.682	48.016	-0.251	-0.239
-640.668	77.344	0.400	-0.433
-639.653	142.947	0.157	-0.212
-638.638	-200.000	-0.020	-0.309
-637.624	-0.361	0.341	-0.246
-636.609	69.560	0.111	0.117
-635.595	-4.333	-0.102	0.071
-634.580	-191.567	-0.176	0.002
-633.565	-115.561	0.109	0.021
-632.551	79.842	0.199	0.218
-631.536	-101.257	0.311	0.077
-630.522	800.000	0.092	-0.389
-629.507	-29.198	0.194	-0.113
-628.492	-200.000	-0.023	0.167
-627.478	-200.000	0.011	-0.242
-626.463	-200.000	0.018	0.185
-625.449	800.000	-0.078	0.257
-624.434	-200.000	-0.001	-0.074
-623.419	-200.000	-0.014	0.075
-622.405	800.000	-0.073	-0.250
-621.390	436.849	-0.021	0.047
-620.376	-85.502	-0.067	-0.021
-619.361	62.882	0.126	-0.128
-618.346	-121.021	0.233	0.040
-617.332	-123.482	-0.043	-0.007
-616.317	-139.171	0.247	0.027
-615.303	-144.065	0.178	-0.017
-614.288	800.000	0.104	0.298
-613.273	-200.000	-0.044	0.251
-612.259	-106.126	0.149	-0.034
-611.244	-200.000	0.005	-0.346
-610.230	48.112	-0.241	0.228
-609.215	41.761	-0.127	-0.117
-608.201	181.781	0.135	-0.202
-607.186	-200.000	-0.029	0.174
-606.171	-80.404	0.064	0.022
-605.157	-200.000	-0.004	-0.247
-604.142	-112.801	0.212	0.043
-603.128	90.762	-0.138	-0.157
-602.113	-200.000	-0.016	-0.262
-601.098	173.793	-0.061	0.090
-600.084	-173.038	-0.304	0.010
-599.069	-186.026	0.066	0.001
-598.055	-131.600	0.251	0.034
-597.040	169.627	0.085	-0.123
-596.025	-22.055	0.043	0.026
-595.011	-62.461	0.269	-0.114
-593.996	800.000	-0.031	0.108
-592.982	51.863	0.090	0.087
-591.967	-21.395	0.135	-0.084
-590.952	582.753	-0.086	0.214
-589.938	11.385	0.298	-0.231
-588.923	131.033	-0.216	0.281
-587.909	-19.404	0.214	-0.134
-586.894	-200.000	0.007	0.056
-585.879	-200.000	-0.024	-0.181
-584.865	17.079	0.125	0.100
-583.850	690.649	0.084	0.223
-582.836	-200.000	0.084	0.000
-581.821	800.000	0.056	0.167
-580.806	-200.000	0.024	0.382
-579.792	-200.000	0.035	0.229
-578.777	-44.092	-0.355	-0.181
-577.763	-119.803	-0.231	0.040
-576.748	-63.359	0.359	-0.150
-575.733	262.618	0.051	-0.089
-574.719	800.000	0.072	0.204
-573.704	489.160	-0.117	-0.271
-572.690	-175.823	0.349	0.009
-571.675	-2.580	-0.154	0.109
-570.661	-29.205	-0.040	0.023
-569.646	107.172	-0.080	0.096
-568.631	-104.513	-0.221	0.052
-567.617	-24.148	0.137	-0.083
-566.602	-81.678	-0.486	-0.162
-565.588	-200.000	0.001	-0.143
-564.573	-200.000	-0.013	0.091
-563.558	-8.345	0.221	0.150
-562.544	-81.399	0.064	0.021
-561.529	-62.579	0.128	0.054
-560.515	-57.845	-0.093	-0.041
-559.500	-39.732	0.095	0.050
-558.485	-200.000	0.011	-0.105
-557.471	-200.000	0.039	0.217
-556.456	-159.605	-0.183	-0.010
-555.442	440.972	-0.077	-0.170
-554.427	-200.000	0.058	-0.660
-553.412	-165.768	0.418	-0.018
-552.398	185.432	-0.150	-0.226
-551.383	-200.000	-0.044	0.296
-550.369	6.041	0.024	-0.018
-549.354	-139.969	-0.239	-0.026
-548.339	-47.672	0.273	-0.134
-547.325	-200.000	0.025	-0.255
-546.310	-104.694	0.297	-0.069
-545.296	19.360	-0.182	-0.148
-544.281	137.233	-0.174	-0.231
-543.266	800.000	0.081	-0.259
-542.252	34.427	0.412	0.364
-541.237	-200.000	-0.354	-0.000
-540.223	381.849	-0.125	0.260
-539.208	140.737	-0.204	0.272
-538.193	-18.863	-0.113	-0.071
-537.179	-68.266	-0.207	0.081
-536.164	194.399	0.093	-0.143
-535.150	-84.498	-0.234	0.075
-534.135	-200.000	-0.018	0.251
-533.121	-200.000	-0.044	0.375
-532.106	-200.000	-0.027	-0.134
-531.091	743.500	0.164	-0.447
-530.077	57.654	0.151	0.150
-529.062	0.863	-0.104	0.076
-528.048	44.712	-0.140	0.130
-527.033	-200.000	0.004	0.086
-526.018	-108.556	-0.201	0.044
-525.004	97.189	-0.201	-0.233
-523.989	800.000	0.044	0.191
-522.975	-176.712	0.138	-0.004
-521.960	15.017	0.250	-0.198
-520.945	13.471	0.144	-0.113
-519.931	353.824	-0.071	0.143
-518.916	267.436	-0.021	-0.037
-517.902	-46.595	-0.258	-0.128
-516.887	229.410	-0.114	0.188
-515.872	-108.812	-0.177	-0.038
-514.858	-157.049	-0.238	-0.015
-513.843	256.498	0.077	0.134
-512.829	-112.072	-0.210	0.043
-511.814	39.254	0.358	0.324
-510.799	-168.771	-0.074	-0.003
-509.785	-0.077	0.032	-0.023
-508.770	3.412	0.017	-0.012
-507.756	199.821	0.039	0.061
-506.741	130.184	-0.306	-0.396
-505.726	800.000	0.062	0.184
-504.712	-130.474	0.204	0.028
-503.697	228.555	0.088	0.145
-502.683	510.450	0.052	0.123
-501.668	152.039	0.154	-0.212
-500.653	218.547	0.131	-0.212
-499.639	-168.718	-0.118	-0.005
-498.624	60.048	0.287	0.286
-497.610	-16.610	-0.223	0.143
-496.595	-200.000	-0.019	0.127
-495.581	51.973	-0.203	0.195
-494.566	-44.802	0.198	-0.100
-493.551	-58.650	0.128	0.056
-492.537	-148.016	-0.244	-0.020
-491.522	-200.000	0.036	0.259
-490.508	-200.000	0.022	0.176
-489.493	-200.000	0.005	0.070
-488.478	71.192	-0.102	-0.107
-487.464	-200.000	-0.047	0.249
-486.449	150.528	-0.081	0.111
-485.435	-108.416	0.168	-0.037
-484.420	483.265	-0.086	-0.197
-483.405	-19.677	-0.080	0.050
-482.391	-155.130	-0.218	-0.014
-481.376	-200.000	-0.024	-0.188
-480.362	-200.000	0.007	-0.337
-479.347	-172.972	-0.149	-0.005
-478.332	-200.000	-0.031	0.403
-477.318	-88.136	-0.275	-0.083
-476.303	-122.186	0.297	0.049
-475.289	-200.000	0.017	0.218
-474.274	282.784	-0.060	-0.108
-473.259	-51.850	-0.072	-0.034
-472.245	-21.841	-0.159	-0.098
-471.230	-5.692	-0.185	0.128
-470.216	525.721	0.195	0.463
-469.201	-200.000	0.022	-0.386
-468.186	-147.927	-0.258	-0.022
-467.172	-137.750	0.119	0.013
-466.157	-98.850	-0.115	-0.030
-465.143	-40.261	-0.339	0.178
-464.128	-139.000	-0.469	0.051
-463.113	44.807	0.196	0.182
-462.099	800.000	-0.051	-0.144
-461.084	664.738	0.041	0.107
-460.070	-44.259	-0.062	0.031
-459.055	12.733	0.080	0.062
-458.040	-200.000	0.005	0.139
-457.026	-4.999	0.105	0.073
-456.011	60.293	0.181	0.180
-454.997	-200.000	0.007	0.063
-453.982	-168.457	-0.104	0.004
-452.968	135.594	0.144	-0.189
-451.953	76.721	0.076	0.081
-450.938	-200.000	0.006	-0.155
-449.924	800.000	-0.076	-0.243
-448.909	780.371	0.049	-0.136
-447.895	774.695	-0.090	0.249
-446.880	800.000	0.087	0.340
-445.865	167.936	-0.094	0.135
-444.851	-200.000	0.051	0.323
-443.836	181.690	-0.039	0.058
-442.822	2.058	-0.126	0.092
-441.807	-21.025	-0.180	0.111
-440.792	-146.625	-0.060	-0.005
-439.778	-26.776	0.074	0.044
-438.763	95.773	0.142	-0.164
-437.749	61.277	-0.070	0.070
-436.734	-141.068	-0.074	0.008
-435.719	601.646	0.080	-0.200
-434.705	-4.336	0.140	-0.098
-433.690	-102.025	0.335	0.082
-432.676	10.494	0.212	0.163
-431.661	148.149	-0.096	-0.131
-430.646	34.802	0.253	-0.223
-429.632	464.498	0.070	-0.158
-428.617	11.917	-0.131	-0.101
-427.603	72.805	-0.068	-0.071
-426.588	17.650	-0.385	-0.308
-425.573	-147.857	-0.219	0.018
-424.559	-101.349	-0.224	0.055
-423.544	285.328	0.055	-0.100
-422.530	60.111	0.202	-0.202
-421.515	-200.000	-0.029	-0.357
-420.500	3.686	-0.521	-0.383
-419.486	362.305	-0.164	-0.332
-418.471	-85.875	0.105	0.033
-417.457	-112.978	0.113	0.023
-416.442	-88.735	0.363	-0.109
-415.428	38.447	-0.226	0.203
-414.413	-200.000	-0.062	0.346
-413.398	-19.408	-0.124	-0.077
-412.384	27.594	-0.291	-0.247
-411.369	110.620	0.163	-0.197
-410.355	-198.387	-0.223	0.001
-409.340	-20.802	0.101	0.062
-408.325	493.590	0.040	0.093
-407.311	800.000	0.105	0.399
-406.296	462.279	0.155	0.348
-405.282	-109.890	-0.219	-0.046
-404.267	43.159	0.164	-0.150
-403.252	800.000	0.046	0.189
-402.238	84.338	0.079	-0.087
-401.223	-200.000	-0.037	0.233
-400.209	-73.259	-0.318	-0.117
-399.194	-58.244	0.126	0.055
-398.179	21.110	0.119	-0.097
-397.165	-83.760	-0.162	0.052
-396.150	124.470	0.110	0.139
-395.136	-114.332	-0.183	-0.035
-394.121	800.000	-0.069	-0.234
-393.106	-72.752	0.122	0.045
-392.092	800.000	-0.010	0.043
-391.077	-5.680	-0.268	0.185
-390.063	-200.000	-0.012	0.143
-389.048	3.958	0.050	-0.037
-388.033	-86.429	-0.125	0.039
-387.019	800.000	-0.100	0.335
-386.004	-146.232	0.192	-0.017
-384.990	96.694	-0.181	-0.208
-383.975	-14.551	-0.182	-0.118
-382.960	-18.130	0.174	0.109
-381.946	-156.485	0.503	-0.032
-380.931	50.167	0.158	-0.150
-379.917	-140.744	-0.144	0.015
-378.902	800.000	0.059	0.170
-377.888	-200.000	-0.038	0.366
-376.873	46.124	-0.137	0.128
-375.858	194.373	-0.082	-0.124
-374.844	183.603	0.128	0.190
-373.829	10.178	0.394	-0.301
-372.815	800.000	0.026	-0.073
-371.800	-110.491	0.146	-0.030
-370.785	-200.000	-0.010	-0.102
-369.771	-57.740	-0.208	0.092
-368.756	-105.294	0.183	-0.042
-367.742	-104.956	-0.425	-0.098
-366.727	800.000	0.073	0.226
-365.712	-43.756	0.207	-0.105
-364.698	144.519	0.031	-0.041
-363.683	210.716	-0.074	0.118
-362.669	-153.061	0.594	0.042
-361.654	117.192	-0.351	0.434
-360.639	-35.133	0.127	-0.070
-359.625	-200.000	0.007	-0.105
-358.610	13.188	0.110	-0.086
-357.596	174.211	0.154	0.224
-356.581	32.133	-0.072	-0.062
-355.566	-98.096	-0.400	0.103
-354.552	-200.000	0.000	-0.031
-353.537	-57.205	0.199	0.088
-352.523	19.847	-0.165	0.133
-351.508	364.159	0.094	-0.190
-350.493	591.624	-0.052	-0.130
-349.479	-101.577	-0.175	-0.043
-348.464	84.192	-0.097	0.106
-347.450	146.181	-0.353	-0.476
-346.435	800.000	0.127	-0.483
-345.420	-73.920	0.177	-0.065
-344.406	-26.600	0.238	-0.140
-343.391	-85.297	-0.395	-0.124
-342.377	56.306	-0.288	0.281
-341.362	-200.000	0.034	-0.169
-340.348	27.179	-0.139	0.117
-339.333	327.128	-0.210	0.404
-338.318	5.036	0.321	0.237
-337.304	-43.753	-0.234	-0.119
-336.289	440.075	-0.062	0.135
-335.275	-18.856	-0.129	-0.080
-334.260	320.546	0.074	0.141
-333.245	-187.882	0.049	-0.001
-332.231	-200.000	0.024	-0.249
-331.216	-136.376	-0.129	-0.015
-330.202	64.772	-0.188	-0.190
-329.187	-169.121	-0.345	0.013
-328.172	-67.653	-0.100	-0.039
-327.158	-1.739	-0.252	0.178
-326.143	39.141	-0.080	-0.072
-325.129	70.424	-0.375	-0.389
-324.114	-171.511	-0.071	-0.002
-323.099	-110.714	-0.217	0.045
-322.085	335.432	-0.161	0.313
-321.070	-64.926	-0.259	0.105
-320.056	-200.000	-0.046	-0.283
-319.041	4.332	0.179	0.132
-318.026	-200.000	-0.007	0.448
-317.012	800.000	-0.039	0.157
-315.997	16.892	0.337	0.268
-314.983	0.277	-0.015	0.010
-313.968	360.303	-0.064	0.129
-312.953	-200.000	0.060	-0.470
-311.939	-147.553	0.230	-0.019
-310.924	-200.000	-0.007	-0.103
-309.910	-95.161	0.073	-0.020
-308.895	405.541	-0.101	-0.213
-307.880	800.000	-0.072	-0.212
-306.866	800.000	0.109	0.394
-305.851	-36.660	0.170	0.092
-304.837	-13.520	0.155	0.101
-303.822	-200.000	0.019	-0.327
-302.807	-107.618	-0.162	0.036
-301.793	-47.527	-0.119	-0.058
-300.778	800.000	-0.008	-0.024
-299.764	563.091	-0.115	0.279
-298.749	222.843	-0.061	0.099
-297.735	-200.000	-0.013	0.240
-296.720	339.234	0.086	-0.168
-295.705	601.013	-0.053	-0.132
-294.691	800.000	0.054	-0.171
-293.676	-200.000	-0.025	0.287
-292.662	91.697	-0.123	-0.139
-291.647	739.153	0.029	-0.078
-290.632	-114.392	-0.085	0.016
-289.618	-161.141	0.023	0.001
-288.603	230.003	0.051	0.083
-287.589	-86.508	-0.174	-0.054
-286.574	-96.851	0.401	-0.105
-285.559	800.000	-0.068	-0.229
-284.545	157.720	0.097	-0.135
-283.530	-38.074	0.121	0.064
-282.516	-69.167	0.034	0.013
-281.501	55.388	0.073	0.071
-280.486	-141.909	0.104	-0.010
-279.472	164.898	-0.092	-0.130
-278.457	8.701	0.267	0.202
-277.443	34.015	-0.236	-0.206
-276.428	-200.000	0.038	0.258
-275.413	800.000	-0.062	0.250
-274.399	43.997	-0.198	0.182
-273.384	-68.702	0.090	0.035
-272.370	351.313	0.092	-0.183
-271.355	305.435	0.069	-0.128
-270.340	-50.853	-0.231	0.109
-269.326	-6.971	0.171	-0.117
-268.311	237.467	0.165	0.274
-267.297	151.562	-0.007	-0.010
-266.282	800.000	-0.022	0.064
-265.267	-132.216	0.316	-0.041
-264.253	-14.541	-0.135	-0.087
-263.238	-19.678	0.150	-0.093
-262.224	-200.000	0.035	0.186
-261.209	52.955	-0.245	0.235
-260.195	198.507	-0.084	-0.128
-259.180	800.000	-0.098	-0.350
-258.165	-103.005	0.198	0.047
-257.151	440.457	0.035	0.078
-256.136	15.019	-0.087	0.068
-255.122	-109.285	0.155	0.033
-254.107	327.417	-0.154	0.296
-253.092	-43.831	0.171	0.086
-252.078	-121.900	-0.211	-0.035
-251.063	-200.000	-0.012	-0.094
-250.049	-200.000	0.073	0.373
-249.034	-26.239	-0.119	-0.070
-248.019	-79.961	-0.180	0.060
-247.005	800.000	0.039	0.153
-245.990	-4.774	0.268	0.185
-244.976	-82.614	-0.089	-0.029
-243.961	-101.818	0.405	-0.098
-242.946	-52.370	-0.349	-0.162
-241.932	170.834	-0.121	0.174
-240.917	-200.000	0.112	-0.501
-239.903	320.066	0.109	0.208
-238.888	-18.745	-0.185	0.115
-237.873	404.090	0.108	-0.227
-236.859	-165.580	0.099	0.004
-235.844	112.104	-0.069	0.083
-234.830	727.718	-0.107	0.285
-233.815	1.182	-0.356	-0.256
-232.800	68.904	0.033	0.034
-231.786	-134.719	0.285	-0.035
-230.771	-200.000	0.081	0.492
-229.757	312.280	-0.062	-0.116
-228.742	-200.000	-0.009	0.119
-227.727	147.865	0.070	-0.095
-226.713	35.373	-0.182	0.159
-225.698	-200.000	-0.021	0.212
-224.684	-200.000	-0.007	0.042
-223.669	-200.000	-0.029	0.196
-222.655	142.967	0.173	0.231
-221.640	38.363	-0.030	0.027
-220.625	219.219	0.213	-0.341
-219.611	-200.000	-0.008	0.127
-218.596	30.041	0.082	-0.070
-217.582	-6.212	0.112	-0.076
-216.567	12.685	0.180	0.139
-215.552	139.944	0.129	0.170
-214.538	-179.287	0.241	-0.005
-213.523	221.642	0.087	-0.140
-212.509	168.758	0.214	-0.305
-211.494	493.170	0.065	-0.150
-210.479	-59.025	0.285	-0.123
-209.465	0.553	0.042	-0.030
-208.450	796.768	0.122	0.336
-207.436	-74.716	0.319	0.114
-206.421	-200.000	-0.010	0.116
-205.406	-200.000	0.022	0.128
-204.392	-74.064	-0.222	0.080
-203.377	99.140	-0.103	0.119
-202.363	34.428	-0.150	-0.131
-201.348	231.491	0.109	0.179
-200.333	-139.752	-0.200	-0.021
-199.319	800.000	0.035	-0.120
-198.304	800.000	0.024	-0.092
-197.290	-164.700	0.281	-0.013
-196.275	199.074	-0.186	-0.285
-195.260	-21.085	-0.138	0.084
-194.246	-200.000	-0.037	0.179
-193.231	-107.742	0.282	-0.062
-192.217	93.585	-0.212	0.240
-191.202	-200.000	-0.027	0.124
-190.187	-7.659	-0.252	0.170
-189.173	20.163	0.305	-0.246
-188.158	-200.000	0.001	0.141
-187.144	-114.291	0.185	-0.036
-186.129	-117.339	0.217	-0.039
-185.114	790.640	0.094	-0.259
-184.100	-200.000	0.044	0.308
-183.085	197.149	-0.097	0.148
-182.071	-65.876	-0.299	-0.120
-181.056	9.348	0.164	-0.124
-180.042	701.542	-0.118	0.311
-179.027	184.266	-0.108	-0.159
-178.012	800.000	-0.033	0.118
-176.998	14.911	0.264	0.206
-175.983	532.880	0.131	-0.310
-174.969	-200.000	0.056	-0.255
-173.954	-102.086	-0.182	0.044
-172.939	-111.590	-0.280	0.057
-171.925	-200.000	-0.043	-0.388
-170.910	-85.229	-0.062	-0.019
-169.896	134.808	-0.091	-0.118
-168.881	-128.693	-0.249	0.035
-167.866	-171.592	-0.247	-0.008
-166.852	188.494	0.141	-0.210
-165.837	-137.737	0.381	0.043
-164.823	-200.000	0.040	-0.212
-163.808	42.885	0.221	0.201
-162.793	388.720	0.149	0.309
-161.779	-74.621	-0.122	0.044
-160.764	-61.913	-0.202	-0.084
-159.750	-200.000	0.022	-0.548
-158.735	-10.657	0.192	0.127
-157.720	293.623	0.143	-0.260
-156.706	800.000	-0.191	-0.556
-155.691	-123.741	-0.214	-0.034
-154.677	-200.000	0.014	-0.152
-153.662	524.032	0.090	-0.210
-152.647	-109.490	-0.488	-0.103
-151.633	-18.889	0.216	-0.134
-150.618	117.701	0.289	0.354
-149.604	-23.652	0.211	0.126
-148.589	-166.509	-0.152	0.006
-147.574	-200.000	0.050	-0.243
-146.560	800.000	-0.117	0.368
-145.545	148.832	0.048	-0.064
-144.531	44.220	0.248	0.227
-143.516	-200.000	0.042	-0.233
-142.502	-26.264	0.066	0.039
-141.487	-199.540	-0.318	0.002
-140.472	-128.596	-0.349	-0.049
-139.458	183.195	-0.113	0.166
-138.443	573.685	0.105	0.256
-137.429	-200.000	0.021	-0.256
-136.414	-44.050	-0.228	-0.114
-135.399	63.186	-0.229	0.228
-134.385	-200.000	0.060	0.381
-133.370	-63.290	0.215	0.088
-132.356	3.886	0.252	0.184
-131.341	-64.733	-0.243	-0.098
-130.326	26.959	0.069	-0.057
-129.312	-200.000	-0.027	-0.234
-128.297	65.911	-0.268	-0.271
-127.283	-118.118	-0.083	-0.015
-126.268	-14.988	0.326	0.208
-125.253	-111.665	-0.277	0.056
-124.239	60.007	0.066	-0.065
-123.224	800.000	-0.085	-0.336
-122.210	63.102	0.249	0.249
-121.195	-145.277	-0.040	0.004
