DTS Sentinel unit serial number:	SN413079Multiplexer serial number:	ORYXHardware model number:	OX4-SRSoftware version number:	ORYX F/W v4.00 Oryx Data Collector v3.7.2.0data status	okinstallation	princeton_trtdifferential loss correction	single-endedforward channel	channel 1reverse channel	N/Adate	2019/09/15time	05:10:36forward acquisition time	60.00reverse acquisition time	0.00gamma	496.2192k internal	0.2325k external	0.2325temperature offset calibration	0.9996default loss term (dB/km)	0.3790temperature slope calibration	1.0000multiplexer offset coefficient	1.0000multiplexer slope coefficient	1.0000fibre end	0.00T internal ref (°C)	30.62T ext. ref 1 (°C)	4.79T ext. ref 2 (°C)	25.30length (m)	temperature (°C)	Stokes	anti-Stokes-747.200	800.000	0.041	-0.139
-746.185	48.167	-0.179	0.169
-745.171	111.035	0.192	-0.233
-744.156	-92.565	0.386	-0.109
-743.142	-200.000	-0.010	-0.090
-742.127	800.000	-0.085	0.369
-741.112	-200.000	0.004	0.080
-740.098	287.602	-0.162	0.295
-739.083	-6.511	-0.196	-0.135
-738.069	-107.592	0.147	-0.033
-737.054	-200.000	-0.057	-0.301
-736.039	800.000	-0.082	0.247
-735.025	-169.965	0.217	0.008
-734.010	-26.976	-0.214	-0.126
-732.996	-93.984	-0.475	-0.132
-731.981	86.044	-0.374	-0.415
-730.966	-108.947	0.335	0.072
-729.952	-7.976	0.269	-0.183
-728.937	23.711	-0.320	-0.266
-727.923	-200.000	0.037	-0.342
-726.908	-75.689	0.280	0.100
-725.894	-200.000	0.002	-0.332
-724.879	8.515	-0.311	-0.236
-723.864	-60.106	-0.295	0.127
-722.850	-52.974	0.152	-0.071
-721.835	373.910	0.141	-0.290
-720.821	-26.609	0.290	-0.171
-719.806	-110.204	0.037	-0.008
-718.791	800.000	0.062	-0.173
-717.777	-13.131	-0.052	-0.034
-716.762	-44.443	-0.353	0.178
-715.748	-17.970	-0.152	-0.096
-714.733	-200.000	0.037	-0.465
-713.718	-100.916	0.085	-0.021
-712.704	-30.117	0.050	0.029
-711.689	136.180	-0.036	0.048
-710.675	56.574	-0.073	0.071
-709.660	558.786	-0.075	0.182
-708.645	800.000	-0.048	-0.170
-707.631	51.122	-0.056	-0.053
-706.616	800.000	-0.052	0.151
-705.602	-200.000	0.017	-0.156
-704.587	83.289	0.096	0.106
-703.572	-96.587	-0.312	-0.083
-702.558	-123.322	-0.262	-0.042
-701.543	-81.118	-0.127	-0.042
-700.529	-200.000	-0.046	0.263
-699.514	-135.129	0.070	0.008
-698.499	-200.000	0.006	-0.213
-697.485	-100.507	-0.026	0.006
-696.470	-197.785	-0.008	0.000
-695.456	-200.000	-0.019	-0.094
-694.441	-200.000	0.023	-0.199
-693.426	269.127	0.167	-0.295
-692.412	-126.750	-0.366	-0.055
-691.397	-93.896	0.373	0.103
-690.383	-7.162	-0.137	-0.094
-689.368	-20.705	0.129	0.080
-688.354	172.027	-0.043	0.062
-687.339	-114.029	0.226	0.044
-686.324	-63.769	-0.448	-0.185
-685.310	-191.597	-0.266	-0.003
-684.295	252.676	0.216	-0.372
-683.281	-167.276	-0.234	0.010
-682.266	192.237	-0.151	-0.229
-681.251	-49.678	-0.201	0.096
-680.237	-200.000	-0.060	-0.292
-679.222	800.000	0.098	-0.287
-678.208	57.822	-0.107	-0.105
-677.193	-10.057	-0.207	-0.139
-676.178	800.000	0.123	-0.409
-675.164	-66.336	0.133	0.053
-674.149	113.901	-0.146	-0.178
-673.135	503.447	-0.089	0.208
-672.120	451.548	0.014	0.032
-671.105	229.358	0.237	-0.390
-670.091	152.639	0.074	-0.101
-669.076	271.338	-0.035	-0.063
-668.062	-133.281	0.300	0.038
-667.047	-38.606	-0.292	-0.155
-666.032	-50.938	-0.334	-0.158
-665.018	103.075	-0.122	-0.143
-664.003	-156.806	-0.054	-0.003
-662.989	-104.685	0.279	-0.065
-661.974	800.000	-0.036	-0.108
-660.959	107.440	0.071	-0.085
-659.945	-36.848	-0.408	0.220
-658.930	-200.000	-0.043	-0.372
-657.916	-89.054	-0.194	-0.058
-656.901	-45.732	0.139	-0.069
-655.886	-36.620	0.224	0.121
-654.872	-64.790	-0.066	0.027
-653.857	333.491	0.053	-0.104
-652.843	-6.511	-0.091	-0.062
-651.828	-200.000	-0.058	0.257
-650.814	333.213	-0.084	-0.164
-649.799	-39.124	-0.232	0.122
-648.784	107.483	-0.213	0.255
-647.770	91.610	-0.058	0.065
-646.755	800.000	0.084	-0.271
-645.741	-2.808	-0.198	0.139
-644.726	-200.000	0.044	-0.305
-643.711	324.719	0.078	-0.150
-642.697	151.222	-0.133	-0.182
-641.682	800.000	-0.103	-0.310
-640.668	4.354	-0.212	0.156
-639.653	-200.000	-0.008	0.271
-638.638	-79.331	-0.181	-0.061
-637.624	53.638	-0.224	0.216
-636.609	21.242	0.421	-0.343
-635.595	-141.119	-0.258	0.027
-634.580	-68.477	-0.237	-0.093
-633.565	-200.000	-0.030	0.191
-632.551	-12.552	-0.221	-0.145
-631.536	79.442	0.070	-0.076
-630.522	800.000	-0.025	-0.100
-629.507	-200.000	0.031	-0.189
-628.492	328.219	0.037	0.071
-627.478	800.000	0.021	-0.085
-626.463	-200.000	-0.078	-0.520
-625.449	237.439	-0.087	-0.145
-624.434	-72.013	0.058	0.022
-623.419	-11.321	-0.090	-0.059
-622.405	384.859	-0.178	0.368
-621.390	-200.000	-0.042	0.289
-620.376	621.008	0.063	0.158
-619.361	35.429	0.260	0.229
-618.346	296.779	-0.016	0.030
-617.332	-200.000	-0.025	-0.360
-616.317	159.226	0.093	-0.130
-615.303	-22.318	0.231	0.141
-614.288	72.110	-0.133	0.139
-613.273	609.486	0.045	-0.113
-612.259	-200.000	0.007	-0.074
-611.244	-200.000	0.018	-0.217
-610.230	-55.847	-0.275	0.123
-609.215	758.556	-0.038	-0.104
-608.201	44.010	-0.220	-0.202
-607.186	-200.000	-0.069	-0.383
-606.171	-200.000	0.028	-0.151
-605.157	-200.000	-0.010	-0.187
-604.142	10.136	-0.174	0.133
-603.128	-99.787	0.063	0.016
-602.113	3.905	-0.124	-0.091
-601.098	-35.507	0.013	-0.007
-600.084	571.714	0.092	-0.225
-599.069	-9.392	0.041	0.028
-598.055	-200.000	0.021	-0.120
-597.040	-200.000	-0.043	-0.218
-596.025	-132.690	-0.201	0.026
-595.011	128.312	0.213	0.272
-593.996	77.606	-0.099	-0.106
-592.982	-200.000	0.035	0.213
-591.967	-20.386	0.191	0.118
-590.952	512.114	0.110	-0.256
-589.938	37.001	0.130	-0.115
-588.923	-37.018	-0.279	-0.150
-587.909	-200.000	-0.038	-0.521
-586.894	25.536	0.186	0.155
-585.879	11.518	-0.099	0.076
-584.865	-200.000	0.030	-0.255
-583.850	13.017	0.355	-0.276
-582.836	-117.511	-0.265	-0.048
-581.821	25.566	0.195	0.163
-580.806	-132.424	-0.246	-0.032
-579.792	14.876	-0.147	-0.115
-578.777	-200.000	0.109	0.000
-577.763	-95.656	-0.253	-0.068
-576.748	-109.248	-0.250	0.053
-575.733	-105.700	0.259	0.059
-574.719	26.521	-0.059	0.050
-573.704	311.868	-0.157	0.295
-572.690	197.837	0.065	0.099
-571.675	-129.610	0.064	-0.009
-570.661	-61.903	-0.249	-0.104
-569.646	800.000	0.021	-0.060
-568.631	-2.474	-0.121	-0.085
-567.617	-0.875	0.032	0.023
-566.602	244.826	-0.046	0.077
-565.588	62.097	-0.319	0.319
-564.573	107.391	-0.314	0.374
-563.558	252.028	0.151	0.258
-562.544	-37.104	-0.286	-0.154
-561.529	-120.207	-0.129	-0.022
-560.515	-9.880	-0.380	-0.253
-559.500	168.446	0.115	-0.164
-558.485	-200.000	0.050	0.260
-557.471	6.218	0.428	0.318
-556.456	-200.000	-0.024	0.209
-555.442	800.000	-0.021	-0.059
-554.427	-55.326	-0.317	0.143
-553.412	-75.761	-0.344	0.122
-552.398	-50.418	-0.178	0.084
-551.383	800.000	0.041	0.130
-550.369	54.727	0.240	0.232
-549.354	189.731	0.105	0.157
-548.339	-200.000	-0.018	0.228
-547.325	-148.277	0.167	0.014
-546.310	79.667	-0.115	-0.124
-545.296	-200.000	-0.005	-0.041
-544.281	226.561	-0.046	0.075
-543.266	88.177	-0.089	0.099
-542.252	-102.641	-0.114	-0.027
-541.237	-133.129	0.153	0.019
-540.223	76.895	-0.219	0.232
-539.208	-0.898	0.268	0.190
-538.193	800.000	-0.102	-0.415
-537.179	592.593	0.059	-0.146
-536.164	-44.968	0.322	-0.161
-535.150	-200.000	-0.020	0.143
-534.135	800.000	0.042	0.129
-533.121	-37.905	-0.161	0.086
-532.106	-125.792	0.232	0.035
-531.091	-137.018	0.284	-0.033
-530.077	344.164	0.121	0.238
-529.062	142.275	-0.110	-0.146
-528.048	-48.110	0.077	0.037
-527.033	147.784	-0.135	0.182
-526.018	800.000	-0.067	-0.273
-525.004	800.000	0.059	-0.222
-523.989	-200.000	0.045	-0.545
-522.975	-23.048	-0.200	0.120
-521.960	176.565	0.128	-0.186
-520.945	256.806	0.164	0.282
-519.931	800.000	-0.129	0.367
-518.916	-152.038	-0.222	0.016
-517.902	800.000	0.053	-0.168
-516.887	-114.452	-0.135	-0.026
-515.872	-65.666	0.110	-0.044
-514.858	-99.058	-0.093	0.023
-513.843	800.000	-0.072	0.264
-512.829	178.451	0.041	0.061
-511.814	54.967	0.200	-0.193
-510.799	110.895	0.099	0.119
-509.785	-105.452	-0.323	-0.073
-508.770	175.386	-0.052	0.075
-507.756	-126.557	0.193	-0.029
-506.741	471.970	0.017	-0.038
-505.726	368.530	0.134	0.272
-504.712	-200.000	-0.012	-0.191
-503.697	408.903	0.024	-0.051
-502.683	-57.346	0.200	0.088
-501.668	173.017	0.083	0.119
-500.653	-39.889	-0.240	-0.125
-499.639	4.128	-0.175	-0.128
-498.624	-114.823	0.097	-0.018
-497.610	-31.994	0.158	0.089
-496.595	70.439	0.066	0.068
-495.581	497.028	0.067	-0.154
-494.566	704.722	-0.046	0.121
-493.551	-80.318	-0.205	-0.068
-492.537	800.000	0.012	0.052
-491.522	-79.765	0.087	0.029
-490.508	72.523	-0.144	0.150
-489.493	153.082	0.172	-0.235
-488.478	-173.008	0.361	0.011
-487.464	537.842	0.130	-0.308
-486.449	-102.958	0.162	-0.038
-485.435	588.251	0.013	-0.031
-484.420	540.426	0.101	-0.239
-483.405	-126.829	0.243	0.036
-482.391	800.000	-0.062	0.199
-481.376	-200.000	0.015	-0.173
-480.362	117.319	0.354	-0.434
-479.347	-200.000	-0.004	-0.242
-478.332	800.000	-0.126	0.378
-477.318	-19.603	0.045	-0.028
-476.303	-1.982	-0.174	0.122
-475.289	-200.000	0.050	0.341
-474.274	-53.019	0.204	0.094
-473.259	-5.449	0.261	-0.179
-472.245	226.038	0.080	0.129
-471.230	384.243	-0.174	0.358
-470.216	-150.552	-0.358	-0.027
-469.201	199.488	-0.073	0.112
-468.186	-119.332	-0.413	-0.072
-467.172	-114.100	0.169	-0.033
-466.157	-33.717	0.127	-0.070
-465.143	120.334	0.249	-0.309
-464.128	87.799	0.096	0.106
-463.113	-116.576	0.055	0.010
-462.099	-200.000	0.032	-0.199
-461.084	50.284	-0.166	-0.157
-460.070	800.000	-0.047	-0.143
-459.055	444.075	0.029	0.064
-458.040	-23.341	-0.102	0.061
-457.026	46.919	0.185	-0.172
-456.011	7.924	0.250	0.187
-454.997	-119.965	-0.297	0.051
-453.982	51.478	0.144	-0.136
-452.968	44.182	0.141	-0.129
-451.953	-158.334	-0.192	-0.011
-450.938	390.033	0.116	0.240
-449.924	800.000	-0.065	0.217
-448.909	139.027	0.102	-0.134
-447.895	-110.192	-0.358	-0.075
-446.880	471.133	0.042	0.095
-445.865	-142.574	0.049	-0.005
-444.851	-200.000	0.085	0.666
-443.836	-57.439	-0.223	0.098
-442.822	-200.000	0.109	-0.493
-441.807	230.744	-0.147	-0.240
-440.792	-111.417	-0.235	-0.048
-439.778	468.959	0.110	-0.245
-438.763	340.761	0.218	-0.424
-437.749	-130.602	0.467	-0.063
-436.734	324.321	0.076	-0.144
-435.719	-52.735	0.233	0.107
-434.705	-53.389	-0.142	-0.065
-433.690	2.329	0.081	-0.059
-432.676	-200.000	-0.010	0.325
-431.661	-76.389	-0.400	0.140
-430.646	251.072	0.019	0.032
-429.632	28.252	-0.118	-0.099
-428.617	707.263	0.184	0.485
-427.603	-133.399	-0.077	-0.010
-426.588	-26.559	-0.143	-0.083
-425.573	-25.663	0.198	0.116
-424.559	111.334	-0.245	-0.294
-423.544	10.721	0.094	-0.071
-422.530	-200.000	-0.059	-0.267
-421.515	63.123	-0.126	0.126
-420.500	-81.730	-0.273	0.089
-419.486	-200.000	0.018	0.112
-418.471	800.000	0.027	0.110
-417.457	-139.506	0.354	0.038
-416.442	-63.838	-0.149	0.061
-415.428	-200.000	0.238	-0.001
-414.413	-111.367	-0.169	0.034
-413.398	114.518	-0.123	-0.149
-412.384	-200.000	-0.066	0.367
-411.369	-101.148	0.235	0.057
-410.355	-178.296	-0.148	-0.003
-409.340	-200.000	0.006	0.190
-408.325	-92.618	0.128	0.036
-407.311	25.106	-0.185	-0.153
-406.296	35.420	-0.042	0.037
-405.282	-109.652	0.425	0.089
-404.267	-24.168	0.261	-0.155
-403.252	640.125	-0.059	-0.151
-402.238	-200.000	0.032	-0.178
-401.223	21.541	-0.122	-0.099
-400.209	354.165	0.107	-0.211
-399.194	-200.000	-0.006	-0.161
-398.179	518.327	0.087	0.203
-397.165	-68.987	0.194	-0.074
-396.150	502.969	0.206	-0.474
-395.136	-41.917	0.137	-0.070
-394.121	613.358	0.107	0.267
-393.106	597.282	0.135	0.334
-392.092	442.319	-0.087	0.189
-391.077	-79.919	0.399	-0.133
-390.063	56.756	0.138	0.134
-389.048	-200.000	0.043	0.206
-388.033	144.043	-0.091	-0.121
-387.019	-110.152	-0.207	0.043
-386.004	-200.000	0.047	0.246
-384.990	-58.885	0.234	0.101
-383.975	129.782	0.115	-0.146
-382.960	-92.987	-0.413	0.114
-381.946	-1.934	-0.308	-0.215
-380.931	331.222	0.155	-0.297
-379.917	-86.317	-0.161	-0.049
-378.902	-136.255	0.129	0.015
-377.888	-200.000	0.026	-0.166
-376.873	-200.000	-0.019	-0.147
-375.858	189.551	0.213	-0.318
-374.844	-95.679	-0.496	0.132
-373.829	672.165	0.016	-0.042
-372.815	-113.379	0.064	-0.012
-371.800	585.700	-0.073	-0.178
-370.785	-197.360	-0.285	0.002
-369.771	-200.000	0.001	0.127
-368.756	-100.416	-0.260	0.064
-367.742	161.733	0.143	0.199
-366.727	85.150	-0.247	-0.269
-365.712	262.433	0.066	0.114
-364.698	-130.755	-0.172	0.023
-363.683	-164.748	-0.261	0.012
-362.669	-157.308	-0.087	-0.005
-361.654	216.450	-0.167	-0.264
-360.639	-60.991	-0.249	-0.105
-359.625	183.702	-0.043	0.064
-358.610	800.000	0.022	-0.094
-357.596	-59.592	0.256	-0.109
-356.581	800.000	0.026	0.084
-355.566	-43.284	-0.061	-0.030
-354.552	-200.000	0.053	-0.341
-353.537	-85.631	0.266	-0.082
-352.523	800.000	-0.059	-0.173
-351.508	28.998	0.287	-0.242
-350.493	-106.544	-0.093	0.021
-349.479	-151.767	0.098	-0.007
-348.464	-200.000	0.093	-0.432
-347.450	-124.415	0.320	-0.049
-346.435	-28.768	-0.259	0.148
-345.420	47.747	0.242	-0.224
-344.406	-22.613	-0.320	0.192
-343.391	112.454	0.151	0.181
-342.377	-14.856	0.153	0.098
-341.362	800.000	-0.040	0.146
-340.348	-200.000	-0.065	-0.303
-339.333	-11.277	-0.241	-0.158
-338.318	-200.000	0.009	-0.253
-337.304	75.009	-0.123	0.129
-336.289	-200.000	0.077	0.603
-335.275	-200.000	-0.001	0.010
-334.260	-200.000	-0.070	-0.309
-333.245	451.599	0.014	-0.030
-332.231	-200.000	0.021	0.156
-331.216	-200.000	-0.042	-0.210
-330.202	-52.282	0.162	-0.075
-329.187	-10.784	-0.151	0.099
-328.172	-38.730	-0.126	-0.066
-327.158	-105.833	0.180	-0.040
-326.143	-114.511	-0.203	0.039
-325.129	14.730	-0.117	0.091
-324.114	170.328	0.082	-0.117
-323.099	17.309	-0.119	-0.094
-322.085	800.000	-0.064	-0.245
-321.070	-80.718	-0.093	-0.031
-320.056	50.170	0.103	0.096
-319.041	-65.094	-0.209	-0.084
-318.026	800.000	0.064	-0.277
-317.012	253.686	0.095	0.161
-315.997	-107.532	0.197	-0.043
-314.983	212.561	0.215	0.336
-313.968	283.802	-0.082	-0.146
-312.953	-200.000	0.012	-0.169
-311.939	-200.000	0.033	0.180
-310.924	119.154	0.051	0.063
-309.910	-87.279	0.358	-0.108
-308.895	-83.239	-0.153	-0.049
-307.880	-7.565	0.360	0.242
-306.866	166.378	0.109	-0.154
-305.851	-200.000	-0.034	-0.263
-304.837	116.909	0.036	-0.044
-303.822	-200.000	-0.028	-0.164
-302.807	800.000	0.105	0.374
-301.793	250.738	0.088	-0.148
-300.778	44.251	-0.033	-0.030
-299.764	146.113	0.095	0.127
-298.749	-189.568	0.501	0.006
-297.735	482.232	-0.117	0.263
-296.720	33.480	0.139	0.120
-295.705	-150.472	0.396	-0.030
-294.691	-200.000	0.002	0.126
-293.676	-200.000	0.011	0.113
-292.662	1.527	0.343	0.245
-291.647	800.000	-0.040	-0.127
-290.632	164.180	-0.083	-0.117
-289.618	5.760	0.360	0.264
-288.603	123.012	-0.213	0.264
-287.589	322.210	-0.112	-0.211
-286.574	-200.000	0.017	0.323
-285.559	-18.190	-0.267	0.166
-284.545	453.024	0.132	-0.289
-283.530	-200.000	-0.003	0.323
-282.516	-81.825	0.202	-0.066
-281.501	-78.679	-0.245	0.083
-280.486	502.445	0.106	-0.242
-279.472	-136.466	0.444	0.051
-278.457	463.433	-0.084	0.186
-277.443	-143.526	0.137	-0.013
-276.428	-26.692	-0.297	0.172
-275.413	-200.000	0.033	-0.343
-274.399	152.347	0.113	-0.153
-273.384	490.059	0.115	0.261
-272.370	-156.874	0.059	-0.004
-271.355	641.184	0.123	-0.309
-270.340	430.255	0.076	-0.162
-269.326	378.088	0.082	-0.166
-268.311	327.030	-0.104	0.197
-267.297	73.434	-0.135	0.140
-266.282	94.227	-0.072	-0.081
-265.267	-200.000	0.050	-0.267
-264.253	526.260	0.140	0.326
-263.238	-120.575	0.075	-0.013
-262.224	800.000	-0.090	0.285
-261.209	-153.889	0.086	0.006
-260.195	-200.000	-0.006	0.198
-259.180	-109.251	0.178	-0.037
-258.165	378.500	0.081	-0.164
-257.151	-200.000	0.042	0.256
-256.136	65.337	-0.267	0.267
-255.122	-17.285	-0.225	-0.140
-254.107	-200.000	0.006	-0.202
-253.092	366.961	0.053	0.107
-252.078	90.059	0.155	-0.171
-251.063	-159.992	-0.041	-0.002
-250.049	-183.868	-0.122	0.002
-249.034	-140.028	-0.147	0.015
-248.019	-97.620	0.399	-0.102
-247.005	800.000	0.086	-0.350
-245.990	-200.000	-0.003	0.093
-244.976	247.492	-0.111	0.186
-243.961	66.884	-0.236	-0.238
-242.946	-43.959	-0.104	-0.052
-241.932	98.021	0.124	0.141
-240.917	735.375	0.083	0.220
-239.903	121.806	0.169	0.208
-238.888	225.072	0.104	-0.167
-237.873	-200.000	0.041	0.278
-236.859	-134.293	-0.276	-0.034
-235.844	-200.000	-0.029	0.181
-234.830	-200.000	0.028	0.401
-233.815	800.000	-0.044	-0.128
-232.800	800.000	-0.065	-0.197
-231.786	800.000	0.055	0.157
-230.771	-65.528	0.059	-0.023
-229.757	-59.741	-0.553	0.234
-228.742	141.759	-0.162	0.212
-227.727	-66.402	-0.519	-0.204
-226.713	-17.537	-0.081	-0.050
-225.698	-200.000	-0.010	0.265
-224.684	800.000	0.122	0.356
-223.669	254.519	0.133	0.224
-222.655	49.090	-0.197	0.183
-221.640	-200.000	-0.029	-0.158
-220.625	-123.516	0.325	-0.051
-219.611	-200.000	0.060	-0.464
-218.596	162.961	0.138	0.192
-217.582	-200.000	0.033	0.278
-216.567	-123.129	-0.229	-0.036
-215.552	77.039	0.238	0.250
-214.538	-106.416	-0.119	-0.026
-213.523	-126.274	0.104	-0.015
-212.509	486.506	-0.077	0.173
-211.494	-140.146	-0.014	0.001
-210.479	141.756	0.067	0.088
-209.465	-59.993	-0.040	0.017
-208.450	-200.000	-0.039	-0.271
-207.436	800.000	0.066	0.231
-206.421	-119.700	0.261	0.045
-205.406	-200.000	-0.029	0.130
-204.392	-200.000	-0.150	0.001
-203.377	-60.324	-0.246	-0.104
-202.363	-200.000	-0.051	0.301
-201.348	59.381	0.096	-0.094
-200.333	-33.601	-0.284	0.155
-199.319	758.926	-0.077	-0.206
-198.304	-66.979	0.159	-0.062
-197.290	-200.000	-0.000	0.129
-196.275	145.935	0.180	-0.238
-195.260	-161.691	0.404	-0.020
-194.246	144.678	0.060	0.079
-193.231	189.433	-0.185	0.274
-192.217	-140.399	-0.097	-0.010
-191.202	-41.203	0.142	-0.073
-190.187	88.959	-0.049	-0.053
-189.173	-200.000	0.016	0.135
-188.158	121.922	0.097	-0.120
-187.144	41.502	-0.127	0.113
-186.129	261.012	0.037	0.063
-185.114	150.419	-0.082	0.110
-184.100	160.844	0.296	0.408
-183.085	-144.334	0.228	-0.021
-182.071	-36.007	0.233	0.124
-181.056	517.937	0.056	0.129
-180.042	189.679	0.042	-0.063
-179.027	690.038	-0.126	-0.327
-178.012	-105.131	-0.063	-0.014
-176.998	15.140	-0.260	0.201
-175.983	-200.000	-0.006	0.054
-174.969	191.043	0.118	-0.175
-173.954	397.498	0.055	0.113
-172.939	-74.098	-0.340	-0.122
-171.925	39.180	-0.199	-0.176
-170.910	196.912	0.045	-0.068
-169.896	66.203	-0.037	-0.037
-168.881	53.179	0.063	-0.059
-167.866	61.987	0.057	-0.056
-166.852	-56.691	-0.145	-0.063
-165.837	800.000	-0.085	0.290
-164.823	800.000	0.072	0.259
-163.808	-20.442	-0.236	0.143
-162.793	800.000	-0.136	0.372
-161.779	16.479	0.182	0.142
-160.764	14.728	-0.305	-0.235
-159.750	-114.961	-0.097	0.018
-158.735	-143.756	0.470	0.044
-157.720	-200.000	0.014	-0.166
-156.706	-200.000	0.044	-0.259
-155.691	-29.429	-0.325	-0.183
-154.677	-200.000	-0.033	-0.392
-153.662	-200.000	-0.013	0.140
-152.647	100.896	-0.109	0.125
-151.633	-78.802	0.200	0.067
-150.618	-41.019	0.140	0.071
-149.604	-74.076	-0.266	0.095
-148.589	113.178	-0.030	-0.035
-147.574	-76.936	0.400	-0.138
-146.560	-200.000	-0.033	-0.164
-145.545	-6.087	-0.170	-0.114
-144.531	-200.000	0.012	-0.133
-143.516	-200.000	0.018	-0.418
-142.502	-121.879	-0.289	-0.047
-141.487	97.722	-0.132	-0.150
-140.472	800.000	-0.050	0.145
-139.458	-82.255	0.180	-0.058
-138.443	-200.000	0.009	0.321
-137.429	523.416	-0.054	-0.124
-136.414	18.967	0.030	0.023
-135.399	-150.312	0.252	0.019
-134.385	-29.074	-0.183	0.104
-133.370	800.000	0.045	-0.151
-132.356	-134.411	0.244	0.030
-131.341	-58.333	0.256	-0.110
-130.326	126.885	-0.133	-0.166
-129.312	247.853	0.166	-0.276
-128.297	-78.989	0.409	0.137
-127.283	-121.045	0.348	-0.057
-126.268	15.382	-0.021	0.016
-125.253	-110.096	-0.328	0.067
-124.239	-93.660	0.196	-0.053
-123.224	85.362	0.025	0.027
-122.210	-121.102	-0.309	0.051
