DTS Sentinel unit serial number:	SN413079Multiplexer serial number:	ORYXHardware model number:	OX4-SRSoftware version number:	ORYX F/W v4.00 Oryx Data Collector v3.7.2.0data status	okinstallation	princeton_trtdifferential loss correction	single-endedforward channel	channel 1reverse channel	N/Adate	2019/09/12time	00:44:11forward acquisition time	60.00reverse acquisition time	0.00gamma	496.2192k internal	0.2319k external	0.2319temperature offset calibration	1.0075default loss term (dB/km)	0.3790temperature slope calibration	1.0000multiplexer offset coefficient	1.0000multiplexer slope coefficient	1.0000fibre end	0.00T internal ref (°C)	33.31T ext. ref 1 (°C)	2.07T ext. ref 2 (°C)	28.10length (m)	temperature (°C)	Stokes	anti-Stokes-747.200	-95.376	0.224	-0.061
-746.185	-200.000	0.013	0.089
-745.171	800.000	0.132	-0.390
-744.156	800.000	0.095	0.313
-743.142	745.841	-0.064	0.175
-742.127	59.062	0.139	-0.138
-741.112	-200.000	0.015	-0.185
-740.098	26.042	0.234	0.197
-739.083	-200.000	0.028	0.318
-738.069	178.416	-0.131	-0.194
-737.054	-155.619	-0.298	0.019
-736.039	800.000	-0.032	-0.116
-735.025	-200.000	0.012	0.223
-734.010	-12.435	0.113	-0.075
-732.996	270.363	0.118	-0.209
-731.981	-69.136	0.090	0.035
-730.966	-200.000	0.029	0.168
-729.952	347.419	-0.024	-0.048
-728.937	-161.945	-0.268	-0.014
-727.923	200.633	0.027	-0.042
-726.908	2.436	-0.091	-0.067
-725.894	83.183	-0.096	-0.106
-724.879	126.613	-0.086	0.110
-723.864	63.767	0.226	-0.229
-722.850	221.194	0.179	0.291
-721.835	-131.930	-0.291	-0.038
-720.821	369.659	0.214	-0.439
-719.806	1.944	-0.163	0.119
-718.791	800.000	-0.078	0.249
-717.777	-200.000	0.029	-0.193
-716.762	151.655	-0.132	0.182
-715.748	-62.905	0.120	-0.050
-714.733	-78.040	0.365	-0.127
-713.718	-24.606	-0.081	-0.048
-712.704	181.950	-0.110	0.163
-711.689	800.000	-0.060	0.230
-710.675	-47.289	-0.274	-0.135
-709.660	14.686	-0.230	-0.181
-708.645	-67.115	-0.068	-0.027
-707.631	-200.000	-0.001	-0.160
-706.616	66.371	0.265	0.272
-705.602	-140.053	-0.360	0.038
-704.587	-200.000	0.015	-0.083
-703.572	-200.000	-0.029	-0.319
-702.558	-112.238	-0.229	-0.046
-701.543	1.349	-0.242	0.175
-700.529	123.004	0.157	-0.198
-699.514	-21.697	-0.348	-0.214
-698.499	-6.090	-0.241	-0.166
-697.485	125.407	0.141	0.179
-696.470	-32.949	-0.281	0.158
-695.456	461.560	0.051	-0.114
-694.441	-34.396	0.191	0.106
-693.426	-135.786	-0.378	0.045
-692.412	68.454	-0.238	-0.246
-691.397	-16.960	-0.205	-0.131
-690.383	15.051	0.276	0.218
-689.368	254.108	0.075	-0.130
-688.354	-23.936	0.157	0.095
-687.339	109.068	0.057	-0.069
-686.324	-74.003	-0.297	-0.109
-685.310	349.697	0.130	0.260
-684.295	-105.056	-0.211	-0.049
-683.281	-84.718	0.183	0.058
-682.266	155.231	0.125	0.174
-681.251	-200.000	-0.010	-0.327
-680.237	-200.000	-0.052	-0.307
-679.222	424.632	-0.026	-0.058
-678.208	-117.702	0.189	-0.034
-677.193	-123.105	-0.116	-0.019
-676.178	-37.176	0.184	0.099
-675.164	800.000	0.056	0.241
-674.149	-89.326	-0.255	0.076
-673.135	-76.926	0.253	-0.089
-672.120	33.621	-0.296	0.260
-671.105	-67.078	0.524	-0.208
-670.091	397.230	-0.050	-0.106
-669.076	-146.820	0.051	-0.004
-668.062	-72.105	-0.205	0.077
-667.047	-41.301	0.084	-0.044
-666.032	800.000	0.070	-0.206
-665.018	129.025	-0.146	-0.188
-664.003	62.014	-0.137	-0.138
-662.989	-200.000	-0.038	0.247
-661.974	761.929	0.045	-0.122
-660.959	-99.482	-0.058	-0.015
-659.945	-9.396	-0.319	0.215
-658.930	-40.312	0.254	-0.133
-657.916	87.673	0.195	-0.218
-656.901	-80.016	-0.010	-0.003
-655.886	-4.586	0.427	0.297
-654.872	-100.385	0.285	-0.071
-653.857	-200.000	-0.003	-0.105
-652.843	-200.000	-0.079	0.386
-651.828	36.107	0.260	-0.231
-650.814	24.434	0.092	-0.077
-649.799	-200.000	-0.007	0.105
-648.784	108.249	-0.312	-0.375
-647.770	70.902	0.087	-0.091
-646.755	-139.832	-0.109	0.012
-645.741	-200.000	0.010	0.301
-644.726	-177.056	0.189	0.005
-643.711	-160.525	-0.277	0.015
-642.697	569.111	-0.062	-0.152
-641.682	-94.163	-0.196	0.054
-640.668	-1.720	-0.089	0.063
-639.653	-103.045	-0.465	0.111
-638.638	330.766	0.070	-0.136
-637.624	-141.871	-0.095	-0.010
-636.609	-200.000	-0.010	-0.145
-635.595	20.251	-0.217	0.176
-634.580	-111.665	-0.110	0.023
-633.565	-200.000	0.001	-0.075
-632.551	7.637	-0.114	0.086
-631.536	325.317	-0.165	-0.318
-630.522	642.317	0.139	-0.356
-629.507	-93.172	-0.145	-0.041
-628.492	212.819	-0.125	-0.199
-627.478	-200.000	-0.038	-0.256
-626.463	-128.936	-0.222	0.031
-625.449	-86.368	-0.136	0.042
-624.434	-200.000	-0.021	-0.162
-623.419	277.806	-0.119	0.213
-622.405	242.800	-0.077	0.129
-621.390	-27.936	-0.212	0.123
-620.376	303.067	0.053	0.099
-619.361	-13.468	0.082	-0.053
-618.346	-200.000	0.015	0.073
-617.332	-119.893	-0.145	0.025
-616.317	-55.452	-0.422	0.190
-615.303	-11.314	0.287	-0.190
-614.288	98.714	0.194	0.225
-613.273	-200.000	0.029	0.164
-612.259	412.081	0.160	0.342
-611.244	263.126	0.053	-0.094
-610.230	-200.000	-0.015	-0.112
-609.215	244.429	0.113	-0.190
-608.201	800.000	-0.123	-0.446
-607.186	-5.185	-0.289	-0.200
-606.171	90.286	0.071	0.080
-605.157	170.147	0.120	0.173
-604.142	-28.658	0.234	-0.135
-603.128	-200.000	-0.007	0.124
-602.113	-118.476	0.166	0.030
-601.098	111.872	0.158	0.192
-600.084	-57.318	-0.218	0.096
-599.069	-26.762	-0.122	-0.072
-598.055	-92.459	-0.090	0.026
-597.040	7.313	0.275	0.206
-596.025	800.000	0.059	0.164
-595.011	158.372	0.211	-0.295
-593.996	800.000	0.045	0.143
-592.982	173.391	0.109	-0.158
-591.967	-24.036	-0.194	-0.116
-590.952	-60.457	0.109	0.046
-589.938	-200.000	0.015	-0.090
-588.923	-6.674	-0.288	0.197
-587.909	-200.000	-0.042	0.319
-586.894	-40.295	-0.332	0.174
-585.879	-20.830	-0.287	0.177
-584.865	800.000	-0.083	0.232
-583.850	188.035	0.047	0.070
-582.836	26.718	0.180	0.152
-581.821	160.221	0.135	0.190
-580.806	39.147	0.200	-0.180
-579.792	12.645	0.247	0.192
-578.777	-200.000	-0.011	0.131
-577.763	66.788	-0.106	0.109
-576.748	-128.097	0.294	-0.042
-575.733	14.822	-0.249	-0.195
-574.719	-26.093	-0.029	0.017
-573.704	439.775	0.235	0.516
-572.690	22.766	0.041	0.034
-571.675	-200.000	0.053	-0.245
-570.661	148.350	-0.197	-0.268
-569.646	235.220	-0.153	-0.253
-568.631	17.012	-0.114	-0.090
-567.617	-2.341	-0.238	0.168
-566.602	537.313	-0.107	-0.254
-565.588	79.699	0.050	-0.054
-564.573	-200.000	-0.015	-0.317
-563.558	-200.000	0.041	0.387
-562.544	291.325	0.079	0.144
-561.529	289.382	0.240	0.437
-560.515	40.492	-0.191	0.172
-559.500	800.000	-0.049	-0.157
-558.485	233.236	0.129	-0.212
-557.471	-130.698	-0.379	0.051
-556.456	-86.689	-0.029	0.009
-555.442	-20.333	0.021	0.013
-554.427	242.969	-0.169	0.284
-553.412	-61.489	0.307	0.130
-552.398	27.410	0.325	-0.274
-551.383	-175.602	-0.179	-0.005
-550.369	170.425	-0.103	0.147
-549.354	87.581	-0.221	0.246
-548.339	800.000	0.089	0.311
-547.325	-63.901	-0.136	0.056
-546.310	19.737	0.215	0.174
-545.296	-162.898	-0.447	0.022
-544.281	10.601	-0.099	0.076
-543.266	-31.888	-0.101	-0.057
-542.252	34.656	0.088	-0.078
-541.237	-200.000	-0.079	-0.396
-540.223	-200.000	0.005	0.156
-539.208	26.042	-0.013	-0.011
-538.193	168.703	-0.122	0.175
-537.179	161.360	-0.055	0.077
-536.164	526.080	0.050	0.117
-535.150	-200.000	0.040	-0.231
-534.135	-101.752	0.178	-0.043
-533.121	800.000	-0.028	0.097
-532.106	-200.000	-0.023	0.141
-531.091	3.454	-0.178	0.130
-530.077	-193.947	-0.361	-0.003
-529.062	-2.838	0.116	-0.082
-528.048	800.000	-0.168	-0.470
-527.033	800.000	-0.054	-0.211
-526.018	800.000	-0.062	-0.227
-525.004	102.847	-0.214	-0.251
-523.989	800.000	-0.067	-0.274
-522.975	800.000	0.044	0.161
-521.960	179.137	-0.116	0.170
-520.945	140.429	-0.174	-0.230
-519.931	354.061	-0.189	-0.377
-518.916	754.430	-0.068	-0.184
-517.902	-38.900	-0.326	-0.172
-516.887	-1.711	-0.367	-0.259
-515.872	-142.185	-0.179	0.018
-514.858	-200.000	-0.014	-0.079
-513.843	33.039	-0.126	-0.109
-512.829	-49.471	-0.102	0.049
-511.814	800.000	0.109	0.430
-510.799	-38.874	0.123	0.065
-509.785	800.000	-0.110	-0.348
-508.770	-200.000	0.071	-0.355
-507.756	-94.356	0.186	0.051
-506.741	-200.000	0.001	-0.124
-505.726	205.687	0.139	0.217
-504.712	144.214	-0.060	0.080
-503.697	-200.000	0.026	-0.169
-502.683	-95.082	0.393	-0.106
-501.668	-141.523	0.153	-0.015
-500.653	5.783	0.141	0.104
-499.639	58.053	0.161	-0.158
-498.624	182.598	0.071	-0.105
-497.610	189.051	-0.089	-0.134
-496.595	800.000	-0.066	0.203
-495.581	440.024	-0.024	0.053
-494.566	722.072	-0.120	-0.320
-493.551	800.000	0.074	-0.271
-492.537	-12.584	0.121	-0.079
-491.522	-13.349	0.033	-0.022
-490.508	-46.815	0.064	-0.031
-489.493	-135.915	0.192	0.023
-488.478	-168.320	0.096	-0.004
-487.464	166.635	0.056	-0.079
-486.449	800.000	-0.074	0.248
-485.435	477.130	0.109	0.247
-484.420	-37.803	0.173	-0.092
-483.405	-200.000	-0.003	0.497
-482.391	-200.000	-0.039	0.390
-481.376	-114.231	0.168	0.032
-480.362	800.000	0.080	0.266
-479.347	-14.338	0.289	-0.186
-478.332	800.000	0.074	-0.217
-477.318	800.000	0.068	-0.226
-476.303	-71.053	0.235	-0.089
-475.289	147.758	-0.123	0.166
-474.274	28.269	0.037	0.031
-473.259	-102.749	-0.220	0.052
-472.245	91.580	-0.113	-0.127
-471.230	-46.976	-0.227	0.111
-470.216	-200.000	0.017	-0.084
-469.201	-143.404	-0.264	-0.025
-468.186	518.895	-0.049	-0.115
-467.172	-77.850	-0.112	-0.039
-466.157	-159.217	0.214	0.012
-465.143	324.801	-0.246	0.471
-464.128	-7.752	-0.140	0.095
-463.113	-200.000	-0.022	0.123
-462.099	-200.000	-0.002	0.114
-461.084	-135.151	0.492	0.059
-460.070	252.792	-0.122	0.209
-459.055	-200.000	-0.001	0.024
-458.040	58.826	-0.190	0.186
-457.026	203.678	0.177	-0.274
-456.011	662.576	0.078	-0.201
-454.997	-15.045	0.096	-0.062
-453.982	-39.146	-0.296	0.155
-452.968	140.864	0.118	-0.156
-451.953	97.728	0.227	-0.261
-450.938	-200.000	0.057	0.300
-449.924	-22.783	-0.162	0.098
-448.909	800.000	0.038	0.124
-447.895	-200.000	-0.046	-0.234
-446.880	26.048	0.126	-0.106
-445.865	398.336	-0.136	-0.284
-444.851	-168.359	0.311	0.012
-443.836	-113.567	0.256	-0.050
-442.822	540.156	0.057	0.136
-441.807	123.762	0.099	-0.125
-440.792	-118.247	0.117	-0.021
-439.778	-46.880	-0.072	-0.035
-438.763	-175.320	-0.023	-0.001
-437.749	800.000	-0.106	0.431
-436.734	-200.000	-0.327	-0.000
-435.719	-200.000	0.007	0.077
-434.705	800.000	-0.080	-0.310
-433.690	-72.144	-0.162	0.060
-432.676	-92.553	-0.318	0.089
-431.661	59.163	0.204	-0.201
-430.646	106.471	-0.125	0.148
-429.632	-200.000	0.080	0.374
-428.617	-200.000	-0.060	0.364
-427.603	-187.911	0.173	0.002
-426.588	402.201	-0.095	-0.199
-425.573	49.888	-0.169	-0.159
-424.559	800.000	0.082	0.245
-423.544	175.931	0.078	0.113
-422.530	119.011	-0.348	0.430
-421.515	199.156	-0.133	-0.203
-420.500	28.668	0.008	-0.007
-419.486	-76.242	0.179	0.063
-418.471	800.000	-0.143	0.518
-417.457	245.150	0.063	-0.105
-416.442	-89.442	-0.350	0.103
-415.428	-200.000	0.002	-0.048
-414.413	800.000	0.032	0.125
-413.398	169.947	-0.362	-0.516
-412.384	800.000	-0.112	-0.438
-411.369	-96.975	-0.066	-0.017
-410.355	-77.336	0.131	-0.045
-409.340	46.389	-0.145	0.134
-408.325	-94.015	-0.425	0.117
-407.311	800.000	0.044	0.130
-406.296	-200.000	-0.023	-0.150
-405.282	800.000	0.047	0.194
-404.267	-177.355	-0.382	-0.009
-403.252	393.921	-0.201	0.419
-402.238	400.178	-0.103	0.217
-401.223	82.877	-0.166	0.180
-400.209	-48.232	0.102	0.049
-399.194	9.858	0.319	-0.242
-398.179	12.636	-0.039	0.030
-397.165	-41.050	0.100	0.051
-396.150	358.510	-0.090	0.180
-395.136	-32.916	-0.017	-0.009
-394.121	-135.961	-0.230	-0.027
-393.106	-134.707	-0.100	-0.012
-392.092	-200.000	-0.007	0.275
-391.077	-112.747	-0.220	-0.044
-390.063	-63.604	-0.065	0.027
-389.048	-136.229	-0.125	0.015
-388.033	85.717	0.223	0.244
-387.019	-200.000	0.030	0.165
-386.004	88.412	-0.141	-0.157
-384.990	176.967	-0.100	0.145
-383.975	-44.742	0.065	-0.032
-382.960	-200.000	0.021	-0.123
-381.946	40.863	0.193	-0.174
-380.931	233.581	0.085	0.139
-379.917	-200.000	-0.003	0.215
-378.902	-49.072	0.054	-0.026
-377.888	-87.188	-0.326	0.099
-376.873	148.869	-0.037	-0.050
-375.858	5.056	-0.328	0.241
-374.844	-86.629	0.083	-0.025
-373.829	-200.000	0.021	-0.533
-372.815	800.000	-0.040	-0.132
-371.800	-139.220	0.309	0.033
-370.785	352.937	0.150	-0.296
-369.771	-145.707	0.078	0.007
-368.756	14.068	-0.128	-0.100
-367.742	-62.756	0.178	0.074
-366.727	-200.000	0.033	0.621
-365.712	298.659	-0.035	-0.065
-364.698	100.549	-0.263	0.305
-363.683	-122.288	0.305	0.050
-362.669	-189.987	0.280	0.003
-361.654	417.335	0.108	-0.229
-360.639	779.058	-0.010	0.026
-359.625	113.063	0.117	-0.141
-358.610	357.350	-0.111	-0.221
-357.596	-29.643	0.176	0.100
-356.581	-126.783	-0.140	0.021
-355.566	-200.000	-0.041	0.223
-354.552	800.000	-0.087	0.332
-353.537	800.000	-0.048	-0.186
-352.523	-129.239	-0.224	-0.031
-351.508	-121.837	-0.057	0.009
-350.493	-200.000	0.009	0.165
-349.479	-135.499	0.352	-0.042
-348.464	-200.000	-0.032	0.216
-347.450	137.144	0.104	0.135
-346.435	-46.379	0.240	-0.117
-345.420	-170.323	0.116	-0.004
-344.406	-27.934	-0.085	-0.049
-343.391	-82.213	-0.476	0.154
-342.377	617.035	-0.029	-0.072
-341.362	219.385	0.183	-0.292
-340.348	-108.326	0.380	-0.082
-339.333	39.146	-0.198	0.176
-338.318	-200.000	0.007	-0.227
-337.304	30.653	-0.047	0.040
-336.289	-147.136	0.169	0.014
-335.275	149.412	0.177	-0.238
-334.260	247.379	0.144	-0.242
-333.245	7.066	-0.169	-0.125
-332.231	-88.074	0.077	0.023
-331.216	-200.000	-0.004	-0.139
-330.202	-28.355	-0.107	0.062
-329.187	113.008	0.237	0.286
-328.172	441.264	0.036	-0.079
-327.158	136.921	-0.094	0.122
-326.143	103.484	0.096	0.112
-325.129	-93.535	0.601	-0.165
-324.114	302.247	0.114	0.210
-323.099	800.000	-0.066	0.258
-322.085	246.566	0.111	0.186
-321.070	-41.937	0.258	-0.131
-320.056	-40.547	-0.016	0.008
-319.041	237.982	-0.096	0.158
-318.026	150.128	-0.105	0.141
-317.012	-146.063	-0.197	0.017
-315.997	-113.527	0.128	-0.025
-314.983	800.000	-0.046	-0.192
-313.968	-100.115	0.046	-0.011
-312.953	51.230	-0.191	-0.180
-311.939	538.966	-0.103	-0.243
-310.924	-200.000	-0.002	0.287
-309.910	128.477	0.174	-0.221
-308.895	-9.161	-0.185	0.123
-307.880	-60.078	0.251	-0.106
-306.866	21.894	-0.320	-0.259
-305.851	96.683	-0.082	0.093
-304.837	24.768	-0.173	-0.143
-303.822	-73.313	-0.151	0.055
-302.807	-200.000	0.044	0.338
-301.793	-200.000	-0.004	0.302
-300.778	-11.557	-0.169	0.110
-299.764	492.110	0.172	-0.392
-298.749	24.701	0.202	-0.166
-297.735	-200.000	0.008	0.178
-296.720	-113.110	-0.418	0.082
-295.705	22.524	-0.127	0.103
-294.691	-11.426	0.302	-0.198
-293.676	30.991	0.111	-0.094
-292.662	82.858	0.167	-0.181
-291.647	-58.053	0.136	-0.059
-290.632	-146.579	0.234	-0.020
-289.618	67.942	-0.299	-0.303
-288.603	-94.651	-0.056	0.015
-287.589	-59.855	-0.234	0.100
-286.574	-163.108	-0.103	-0.005
-285.559	191.343	0.176	0.264
-284.545	-89.326	0.035	0.010
-283.530	-200.000	-0.022	0.282
-282.516	318.834	-0.023	-0.044
-281.501	-155.156	-0.151	-0.010
-280.486	-57.120	0.249	-0.109
-279.472	-111.420	-0.233	0.047
-278.457	-88.587	0.193	0.057
-277.443	51.657	0.169	0.160
-276.428	-32.019	0.219	0.122
-275.413	443.248	-0.238	-0.519
-274.399	-105.841	0.345	0.077
-273.384	-200.000	0.006	-0.143
-272.370	178.630	0.225	-0.326
-271.355	-200.000	0.075	0.586
-270.340	285.969	0.173	0.310
-269.326	32.471	0.161	0.138
-268.311	-36.447	-0.310	0.166
-267.297	76.450	0.187	0.197
-266.282	-88.772	0.257	0.076
-265.267	27.070	0.151	-0.125
-264.253	-84.907	-0.238	-0.074
-263.238	-198.390	-0.107	0.001
-262.224	-71.374	0.247	0.092
-261.209	-150.513	-0.244	-0.019
-260.195	188.112	-0.149	-0.220
-259.180	55.913	-0.294	-0.283
-258.165	538.910	0.018	-0.042
-257.151	-168.712	-0.142	-0.005
-256.136	211.142	-0.219	-0.341
-255.122	-76.277	-0.144	0.050
-254.107	800.000	-0.045	-0.160
-253.092	44.165	0.154	-0.141
-252.078	-111.247	0.174	0.035
-251.063	-18.605	-0.062	-0.038
-250.049	-200.000	-0.269	-0.001
-249.034	150.916	-0.228	0.308
-248.019	800.000	0.029	-0.123
-247.005	-82.675	0.159	0.051
-245.990	126.647	0.217	0.273
-244.976	420.413	0.087	-0.184
-243.961	1.293	0.023	-0.017
-242.946	94.772	0.079	-0.089
-241.932	146.654	-0.242	-0.323
-240.917	-66.878	0.358	0.140
-239.903	-9.645	-0.377	0.249
-238.888	382.648	-0.166	0.339
-237.873	800.000	-0.076	0.274
-236.859	-76.005	0.280	0.098
-235.844	-144.962	0.078	0.007
-234.830	-3.302	-0.217	0.150
-233.815	38.685	0.201	-0.178
-232.800	17.613	0.038	0.030
-231.786	78.910	0.216	0.229
-230.771	295.016	-0.131	-0.238
-229.757	-76.615	-0.210	0.073
-228.742	-87.231	0.258	-0.078
-227.727	800.000	0.103	-0.363
-226.713	-50.094	0.250	-0.117
-225.698	469.385	-0.145	-0.323
-224.684	-200.000	-0.005	-0.073
-223.669	-200.000	-0.025	0.205
-222.655	78.790	0.108	0.114
-221.640	-31.366	-0.201	-0.112
-220.625	307.606	-0.099	-0.183
-219.611	232.641	-0.045	0.073
-218.596	-200.000	0.037	-0.327
-217.582	-110.336	0.364	0.075
-216.567	426.340	-0.005	0.011
-215.552	76.333	0.152	-0.159
-214.538	69.389	-0.279	-0.285
-213.523	-200.000	0.028	-0.262
-212.509	-200.000	0.070	-0.316
-211.494	163.155	0.111	-0.154
-210.479	-132.649	0.052	-0.007
-209.465	312.057	-0.163	-0.302
-208.450	23.564	0.194	-0.158
-207.436	38.474	-0.112	0.099
-206.421	86.805	0.259	-0.284
-205.406	39.975	0.086	0.076
-204.392	-95.989	-0.130	0.034
-203.377	160.104	0.053	0.073
-202.363	-12.327	0.055	0.035
-201.348	-141.487	-0.289	-0.029
-200.333	128.800	0.173	0.219
-199.319	208.601	-0.125	-0.193
-198.304	-99.111	-0.101	-0.025
-197.290	332.923	-0.139	-0.267
-196.275	187.156	0.170	-0.250
-195.260	70.475	0.011	-0.011
-194.246	-107.290	0.161	0.035
-193.231	23.171	0.190	-0.154
-192.217	-93.838	-0.301	-0.082
-191.202	-154.047	0.281	-0.019
-190.187	-150.286	0.526	-0.040
-189.173	164.293	0.064	0.089
-188.158	-139.803	0.273	-0.029
-187.144	281.002	-0.287	0.509
-186.129	-200.000	0.014	0.101
-185.114	-200.000	0.006	0.032
-184.100	182.245	-0.069	0.101
-183.085	126.878	-0.094	0.117
-182.071	101.297	-0.186	-0.215
-181.056	373.081	0.089	-0.179
-180.042	212.725	-0.104	-0.162
-179.027	-32.906	0.138	-0.076
-178.012	-200.000	-0.008	0.090
-176.998	78.352	-0.120	-0.127
-175.983	-200.000	0.034	0.238
-174.969	-200.000	-0.010	-0.170
-173.954	-51.550	0.066	0.031
-172.939	-45.438	0.303	0.149
-171.925	-186.621	0.179	-0.003
-170.910	24.000	0.162	-0.132
-169.896	800.000	-0.023	-0.095
-168.881	512.973	0.115	-0.266
-167.866	455.686	-0.059	-0.130
-166.852	-76.173	-0.024	-0.008
-165.837	-53.945	0.095	0.043
-164.823	-200.000	0.020	0.263
-163.808	-3.890	0.297	-0.204
-162.793	75.885	-0.088	-0.092
-161.779	-200.000	0.039	-0.217
-160.764	104.099	0.165	-0.192
-159.750	800.000	-0.025	0.092
-158.735	-187.763	0.317	0.004
-157.720	-80.536	0.192	0.063
-156.706	-165.609	0.268	0.012
-155.691	83.694	0.176	0.190
-154.677	-80.257	0.495	-0.164
-153.662	-163.639	0.267	-0.012
-152.647	-145.511	0.546	0.048
-151.633	743.575	0.170	0.451
-150.618	-115.941	-0.260	0.048
-149.604	162.538	-0.035	-0.049
-148.589	-145.603	0.174	0.015
-147.574	-100.678	-0.150	0.037
-146.560	17.247	-0.192	-0.151
-145.545	25.117	-0.096	-0.079
-144.531	-200.000	0.021	-0.196
-143.516	-150.283	-0.204	-0.016
-142.502	-92.814	0.044	0.012
-141.487	-63.743	0.200	-0.081
-140.472	4.676	-0.144	0.104
-139.458	-200.000	0.024	0.143
-138.443	-171.923	-0.181	-0.006
-137.429	500.358	-0.119	-0.271
-136.414	-200.000	-0.011	0.190
-135.399	-137.083	0.271	-0.031
-134.385	-103.321	-0.389	0.091
-133.370	-31.059	-0.196	-0.109
-132.356	167.768	0.037	-0.051
-131.341	73.428	-0.217	0.225
-130.326	551.459	-0.021	-0.051
-129.312	-43.753	0.149	0.074
-128.297	-45.256	0.218	0.107
-127.283	-15.388	-0.118	-0.074
-126.268	-200.000	0.020	0.367
-125.253	-179.902	-0.287	-0.006
-124.239	132.583	-0.244	0.310
-123.224	72.994	-0.096	0.099
-122.210	-200.000	-0.051	-0.339
-121.195	-3.100	-0.153	0.105
