DTS Sentinel unit serial number:	SN413079Multiplexer serial number:	ORYXHardware model number:	OX4-SRSoftware version number:	ORYX F/W v4.00 Oryx Data Collector v3.7.2.0data status	okinstallation	princeton_trtdifferential loss correction	single-endedforward channel	channel 1reverse channel	N/Adate	2019/09/17time	20:50:35forward acquisition time	60.00reverse acquisition time	0.00gamma	496.2192k internal	0.2332k external	0.2332temperature offset calibration	0.9980default loss term (dB/km)	0.3790temperature slope calibration	1.0000multiplexer offset coefficient	1.0000multiplexer slope coefficient	1.0000fibre end	0.00T internal ref (°C)	29.23T ext. ref 1 (°C)	0.20T ext. ref 2 (°C)	20.60length (m)	temperature (°C)	Stokes	anti-Stokes-747.200	800.000	-0.070	0.294
-746.185	-200.000	0.028	0.227
-745.171	-53.495	0.119	-0.055
-744.156	-61.002	-0.250	-0.106
-743.142	-44.562	-0.189	0.095
-742.127	-200.000	-0.094	0.459
-741.112	172.368	0.090	0.130
-740.098	-200.000	-0.059	0.420
-739.083	4.001	0.158	-0.116
-738.069	51.674	-0.258	0.246
-737.054	-5.462	0.124	-0.085
-736.039	3.896	-0.130	-0.096
-735.025	-200.000	-0.005	0.090
-734.010	4.181	-0.199	-0.146
-732.996	71.249	-0.052	-0.055
-731.981	-20.407	-0.248	-0.154
-730.966	-91.948	-0.271	-0.077
-729.952	727.042	-0.091	-0.245
-728.937	-105.265	0.252	0.058
-727.923	84.010	0.126	0.139
-726.908	3.905	-0.069	0.051
-725.894	339.891	0.046	0.091
-724.879	446.333	0.109	-0.241
-723.864	-128.306	-0.393	-0.056
-722.850	51.653	0.113	-0.108
-721.835	-80.779	0.138	-0.046
-720.821	142.771	-0.014	0.019
-719.806	124.487	0.046	0.058
-718.791	51.383	-0.123	-0.118
-717.777	566.876	-0.094	-0.229
-716.762	347.642	0.180	-0.357
-715.748	44.280	0.121	-0.112
-714.733	-200.000	-0.000	0.211
-713.718	-56.848	-0.200	0.089
-712.704	800.000	0.102	-0.327
-711.689	557.571	-0.077	-0.188
-710.675	-200.000	0.051	-0.232
-709.660	-21.776	-0.076	-0.046
-708.645	-121.268	-0.426	0.072
-707.631	488.693	-0.015	0.035
-706.616	-200.000	0.038	-0.286
-705.602	95.436	0.181	0.208
-704.587	666.714	-0.128	0.332
-703.572	277.218	-0.260	0.464
-702.558	564.820	0.079	0.192
-701.543	-90.328	-0.144	-0.042
-700.529	-60.570	0.251	0.107
-699.514	42.246	-0.206	-0.188
-698.499	800.000	-0.125	-0.474
-697.485	-200.000	-0.054	-0.295
-696.470	55.993	-0.124	0.120
-695.456	-150.555	-0.280	0.022
-694.441	-77.956	0.134	-0.047
-693.426	800.000	-0.099	0.280
-692.412	91.953	-0.169	-0.191
-691.397	-145.955	-0.701	-0.062
-690.383	-200.000	-0.060	0.311
-689.368	-200.000	0.070	0.315
-688.354	-200.000	-0.011	0.096
-687.339	800.000	0.080	0.337
-686.324	-83.512	-0.227	-0.073
-685.310	538.597	0.054	0.130
-684.295	-80.061	0.366	0.123
-683.281	779.733	-0.105	0.288
-682.266	24.224	-0.206	-0.170
-681.251	-90.589	-0.376	-0.109
-680.237	800.000	-0.029	-0.112
-679.222	138.649	-0.100	0.132
-678.208	-32.927	-0.099	-0.055
-677.193	-74.921	-0.140	-0.050
-676.178	-135.001	0.051	-0.006
-675.164	800.000	0.074	0.228
-674.149	166.881	-0.138	-0.197
-673.135	-200.000	0.007	0.092
-672.120	45.430	-0.093	0.086
-671.105	490.392	0.020	0.046
-670.091	363.364	0.047	0.095
-669.076	800.000	-0.046	0.134
-668.062	800.000	-0.034	-0.146
-667.047	-100.126	-0.139	-0.035
-666.032	265.111	0.098	0.172
-665.018	-148.575	-0.109	0.009
-664.003	-200.000	0.033	-0.207
-662.989	-62.216	-0.365	-0.153
-661.974	-44.466	-0.142	0.071
-660.959	136.205	0.190	0.248
-659.945	-80.147	-0.245	-0.082
-658.930	-200.000	0.038	-0.351
-657.916	-29.884	0.135	-0.077
-656.901	-64.147	0.093	-0.038
-655.886	-200.000	-0.009	-0.357
-654.872	355.553	-0.110	-0.220
-653.857	-80.332	-0.229	-0.077
-652.843	-200.000	-0.036	0.215
-651.828	43.334	-0.148	-0.135
-650.814	295.153	-0.042	0.077
-649.799	132.734	0.068	-0.087
-648.784	-151.101	-0.087	0.007
-647.770	-179.495	0.313	-0.007
-646.755	-114.065	-0.083	0.016
-645.741	83.204	0.235	0.256
-644.726	18.213	0.193	-0.154
-643.711	-36.624	0.225	0.121
-642.697	7.121	-0.220	-0.164
-641.682	-200.000	0.040	-0.178
-640.668	-154.594	0.271	0.018
-639.653	-6.942	-0.225	-0.153
-638.638	129.993	-0.085	0.108
-637.624	250.765	0.052	-0.088
-636.609	302.707	-0.077	0.143
-635.595	19.995	-0.398	0.321
-634.580	800.000	0.094	0.281
-633.565	22.415	-0.056	-0.046
-632.551	226.434	-0.063	-0.103
-631.536	-50.331	-0.227	-0.107
-630.522	192.542	0.087	0.131
-629.507	-123.348	0.325	0.052
-628.492	144.906	0.163	-0.218
-627.478	5.787	0.126	-0.094
-626.463	-200.000	0.019	0.109
-625.449	-200.000	0.026	-0.239
-624.434	-106.847	0.131	0.029
-623.419	-43.265	-0.214	0.109
-622.405	474.165	0.253	0.571
-621.390	257.251	0.047	0.081
-620.376	57.745	-0.324	0.317
-619.361	-99.788	0.074	-0.018
-618.346	-43.249	0.039	-0.020
-617.332	-10.172	-0.134	-0.089
-616.317	-25.145	0.221	-0.131
-615.303	-200.000	-0.000	-0.108
-614.288	52.745	0.379	-0.362
-613.273	-129.829	0.254	-0.035
-612.259	-200.000	-0.022	0.126
-611.244	-120.769	-0.496	-0.084
-610.230	264.578	0.206	-0.359
-609.215	-200.000	-0.013	0.175
-608.201	59.251	-0.065	0.064
-607.186	276.266	0.109	-0.193
-606.171	134.846	-0.209	0.271
-605.157	-52.614	-0.177	-0.082
-604.142	800.000	0.007	-0.024
-603.128	-38.796	0.110	-0.058
-602.113	130.687	-0.127	-0.163
-601.098	-73.114	-0.230	-0.084
-600.084	-120.891	-0.422	-0.071
-599.069	-200.000	0.006	-0.039
-598.055	104.660	-0.143	0.169
-597.040	663.335	0.156	-0.403
-596.025	-35.549	0.298	0.162
-595.011	269.642	0.049	0.086
-593.996	18.589	-0.211	-0.169
-592.982	789.796	-0.017	-0.047
-591.967	-80.576	0.094	-0.031
-590.952	86.640	-0.133	0.147
-589.938	35.982	-0.062	0.055
-588.923	-76.163	-0.096	-0.034
-587.909	-200.000	0.012	-0.211
-586.894	207.187	-0.044	-0.069
-585.879	445.384	0.107	-0.236
-584.865	-200.000	0.026	-0.206
-583.850	-200.000	0.008	-0.053
-582.836	800.000	-0.074	-0.223
-581.821	-26.778	0.145	-0.085
-580.806	256.746	0.159	-0.273
-579.792	-0.975	-0.078	0.055
-578.777	-200.000	0.066	-0.292
-577.763	-9.219	0.390	-0.261
-576.748	-130.987	-0.091	0.012
-575.733	-36.703	-0.049	0.026
-574.719	-156.862	-0.275	0.017
-573.704	-200.000	-0.064	-0.365
-572.690	137.468	-0.152	-0.198
-571.675	800.000	0.077	-0.212
-570.661	-200.000	-0.035	0.380
-569.646	-148.286	-0.352	-0.029
-568.631	-75.238	0.117	0.042
-567.617	-75.402	0.270	-0.096
-566.602	800.000	0.091	-0.331
-565.588	-123.165	0.203	0.033
-564.573	61.503	-0.252	-0.251
-563.558	122.855	-0.071	-0.089
-562.544	34.381	0.206	-0.179
-561.529	-116.381	-0.176	0.033
-560.515	-13.525	0.027	0.017
-559.500	-74.912	0.300	0.107
-558.485	-30.265	0.183	-0.104
-557.471	-200.000	0.008	0.112
-556.456	54.813	-0.206	0.199
-555.442	189.299	0.283	0.423
-554.427	-85.095	0.069	-0.022
-553.412	-200.000	0.053	0.248
-552.398	-59.478	-0.148	-0.063
-551.383	245.712	0.041	-0.069
-550.369	-88.000	-0.097	-0.029
-549.354	-142.454	-0.204	0.020
-548.339	-200.000	-0.042	0.256
-547.325	485.093	0.099	-0.226
-546.310	800.000	0.074	-0.222
-545.296	277.652	-0.037	-0.066
-544.281	-200.000	-0.027	0.271
-543.266	-141.604	0.218	0.022
-542.252	103.674	-0.200	-0.235
-541.237	75.639	0.116	0.122
-540.223	-127.402	0.221	-0.032
-539.208	578.422	-0.209	-0.509
-538.193	-64.007	0.037	-0.015
-537.179	-61.087	0.306	0.129
-536.164	-135.024	-0.288	-0.035
-535.150	670.361	-0.052	0.135
-534.135	-200.000	-0.058	0.391
-533.121	741.478	-0.025	-0.067
-532.106	427.431	0.029	0.063
-531.091	-149.615	-0.511	0.040
-530.077	241.939	0.154	-0.257
-529.062	2.768	-0.252	-0.183
-528.048	-200.000	0.021	0.167
-527.033	217.419	-0.216	0.343
-526.018	-200.000	-0.018	0.177
-525.004	-115.918	-0.188	0.035
-523.989	800.000	-0.066	0.282
-522.975	747.862	0.030	0.080
-521.960	-188.458	0.020	0.000
-520.945	190.658	0.149	0.224
-519.931	-200.000	-0.052	0.273
-518.916	234.996	0.159	-0.262
-517.902	-124.351	0.236	-0.037
-516.887	51.939	0.093	0.088
-515.872	-70.666	-0.136	-0.051
-514.858	-200.000	0.002	-0.055
-513.843	800.000	-0.087	0.365
-512.829	37.385	-0.339	0.300
-511.814	-88.510	-0.387	-0.115
-510.799	7.040	-0.131	-0.098
-509.785	-200.000	-0.026	0.122
-508.770	-200.000	-0.001	0.027
-507.756	336.449	0.046	0.089
-506.741	13.531	0.132	-0.102
-505.726	-4.034	0.076	0.053
-504.712	-200.000	-0.017	-0.123
-503.697	273.622	-0.204	0.359
-502.683	288.564	-0.014	0.024
-501.668	-109.097	0.373	-0.079
-500.653	-140.614	-0.302	0.031
-499.639	-200.000	-0.002	-0.225
-498.624	-81.251	-0.263	0.086
-497.610	-86.756	0.061	-0.018
-496.595	103.223	0.055	-0.064
-495.581	350.609	0.007	-0.015
-494.566	-31.847	-0.216	0.120
-493.551	-7.128	-0.123	0.083
-492.537	-45.007	0.157	0.078
-491.522	262.788	0.073	-0.127
-490.508	-200.000	0.020	0.433
-489.493	-29.217	-0.299	0.171
-488.478	-200.000	0.060	0.325
-487.464	236.959	0.066	-0.109
-486.449	-83.555	0.035	-0.011
-485.435	201.192	-0.253	-0.388
-484.420	-8.638	0.205	0.137
-483.405	38.045	-0.138	0.122
-482.391	-56.662	-0.256	0.113
-481.376	-51.008	-0.277	-0.129
-480.362	551.747	0.127	-0.303
-479.347	-13.714	-0.156	-0.100
-478.332	-35.903	-0.093	-0.050
-477.318	-16.917	-0.172	0.108
-476.303	198.357	0.144	0.219
-475.289	96.657	-0.150	0.171
-474.274	75.881	-0.180	-0.190
-473.259	800.000	0.064	0.222
-472.245	168.588	0.185	-0.263
-471.230	155.593	-0.116	0.159
-470.216	47.835	-0.064	-0.059
-469.201	800.000	-0.061	-0.224
-468.186	49.274	0.325	0.304
-467.172	199.492	-0.132	-0.201
-466.157	-73.299	-0.118	0.043
-465.143	-109.394	-0.292	0.062
-464.128	743.199	0.136	0.363
-463.113	-200.000	0.012	0.071
-462.099	-200.000	-0.033	0.173
-461.084	-112.778	0.271	-0.053
-460.070	49.165	-0.149	-0.139
-459.055	-114.578	-0.145	0.028
-458.040	13.251	0.082	0.063
-457.026	58.876	0.118	-0.116
-456.011	275.262	0.049	-0.087
-454.997	68.809	0.307	0.313
-453.982	510.504	0.122	0.283
-452.968	-119.601	-0.207	-0.036
-451.953	125.786	0.191	-0.240
-450.938	-150.075	-0.387	0.030
-449.924	-200.000	-0.025	-0.113
-448.909	412.919	0.033	0.069
-447.895	36.236	-0.314	0.275
-446.880	205.362	0.181	0.280
-445.865	-110.161	0.178	-0.037
-444.851	36.009	0.303	0.266
-443.836	396.026	0.051	-0.106
-442.822	207.337	0.093	-0.144
-441.807	13.827	0.150	0.116
-440.792	-200.000	-0.000	-0.006
-439.778	21.552	0.047	-0.038
-438.763	105.397	0.132	-0.156
-437.749	409.199	-0.116	0.245
-436.734	-82.859	-0.178	-0.057
-435.719	218.554	-0.015	0.024
-434.705	-43.755	0.078	-0.039
-433.690	146.441	-0.218	-0.291
-432.676	-200.000	0.022	-0.126
-431.661	240.674	-0.137	-0.227
-430.646	-200.000	-0.037	-0.189
-429.632	28.119	-0.162	0.136
-428.617	-200.000	-0.019	-0.174
-427.603	-33.591	0.111	-0.061
-426.588	-133.135	0.159	0.020
-425.573	135.925	0.024	-0.032
-424.559	354.890	-0.027	0.054
-423.544	190.406	0.029	0.044
-422.530	84.110	-0.231	0.250
-421.515	-3.122	0.119	-0.082
-420.500	19.328	0.123	0.098
-419.486	-179.651	-0.124	-0.003
-418.471	32.547	0.230	0.197
-417.457	-69.169	0.461	0.176
-416.442	718.633	-0.087	-0.229
-415.428	172.084	-0.032	-0.045
-414.413	-200.000	-0.001	-0.059
-413.398	-44.333	0.052	0.026
-412.384	5.993	0.276	0.203
-411.369	52.137	-0.078	-0.074
-410.355	-48.572	0.272	-0.130
-409.340	-93.321	0.110	-0.030
-408.325	-200.000	-0.046	-0.250
-407.311	-200.000	-0.029	0.189
-406.296	162.881	0.245	0.341
-405.282	-200.000	-0.006	-0.187
-404.267	215.717	-0.142	-0.224
-403.252	-200.000	-0.063	0.328
-402.238	-100.989	0.225	-0.055
-401.223	-68.701	-0.479	0.184
-400.209	115.224	-0.135	-0.164
-399.194	-4.649	-0.345	-0.236
-398.179	-82.443	0.230	-0.074
-397.165	128.269	-0.075	0.095
-396.150	-137.737	-0.140	-0.016
-395.136	5.161	-0.076	-0.056
-394.121	-48.584	0.150	-0.072
-393.106	-200.000	-0.042	-0.339
-392.092	51.128	0.153	-0.144
-391.077	97.196	-0.135	-0.153
-390.063	-51.113	0.176	-0.082
-389.048	4.694	0.390	0.284
-388.033	64.735	0.067	-0.067
-387.019	290.195	-0.079	-0.142
-386.004	800.000	0.077	-0.273
-384.990	-200.000	0.033	0.263
-383.975	-200.000	0.006	0.113
-382.960	-136.399	0.611	-0.071
-381.946	-75.216	0.090	-0.032
-380.931	-106.630	-0.340	0.075
-379.917	167.204	0.324	0.457
-378.902	17.743	0.074	0.058
-377.888	800.000	0.068	-0.261
-376.873	-37.117	-0.259	-0.138
-375.858	-151.164	0.453	0.034
-374.844	87.347	-0.090	0.098
-373.829	128.955	0.060	-0.075
-372.815	-200.000	-0.001	-0.173
-371.800	99.332	-0.286	0.327
-370.785	25.461	-0.094	-0.078
-369.771	-174.142	-0.371	-0.011
-368.756	27.290	-0.013	0.011
-367.742	5.641	0.204	0.149
-366.727	800.000	0.045	0.158
-365.712	-200.000	-0.022	-0.170
-364.698	-41.575	-0.136	0.069
-363.683	-167.922	-0.097	-0.004
-362.669	28.165	-0.185	0.155
-361.654	-200.000	-0.027	-0.168
-360.639	-106.660	-0.292	0.064
-359.625	-27.142	-0.405	-0.234
-358.610	241.222	0.051	0.084
-357.596	-200.000	0.079	0.436
-356.581	-89.625	-0.329	0.096
-355.566	800.000	-0.040	0.163
-354.552	-137.058	0.198	0.022
-353.537	-200.000	-0.014	0.379
-352.523	126.166	-0.037	0.047
-351.508	11.443	0.026	-0.020
-350.493	-149.572	0.085	-0.007
-349.479	4.154	-0.079	-0.058
-348.464	210.476	-0.026	0.041
-347.450	512.771	-0.148	0.341
-346.435	-200.000	0.010	0.085
-345.420	-115.254	-0.156	-0.029
-344.406	332.990	0.095	-0.182
-343.391	-103.053	0.082	-0.019
-342.377	-73.624	0.125	-0.045
-341.362	-61.725	0.207	-0.086
-340.348	-200.000	0.024	0.271
-339.333	-61.495	-0.276	-0.115
-338.318	-72.257	0.208	-0.076
-337.304	512.398	-0.056	-0.128
-336.289	65.777	-0.030	-0.030
-335.275	800.000	-0.085	0.342
-334.260	-106.224	-0.134	-0.030
-333.245	60.106	-0.155	0.152
-332.231	800.000	-0.063	0.178
-331.216	430.675	0.090	0.193
-330.202	-79.841	0.105	0.035
-329.187	-74.113	0.108	-0.039
-328.172	-85.513	-0.371	-0.114
-327.158	434.346	0.112	0.242
-326.143	47.852	-0.085	0.079
-325.129	-200.000	-0.068	-0.000
-324.114	-200.000	0.070	-0.509
-323.099	-200.000	0.005	-0.444
-322.085	72.519	-0.064	-0.066
-321.070	-85.732	0.224	-0.069
-320.056	-200.000	-0.052	0.456
-319.041	-4.090	0.223	0.153
-318.026	178.319	-0.153	-0.221
-317.012	55.751	-0.149	0.143
-315.997	-102.481	-0.283	-0.067
-314.983	-58.745	0.275	-0.118
-313.968	260.345	-0.112	0.192
-312.953	-200.000	0.003	-0.101
-311.939	128.351	0.074	0.093
-310.924	800.000	-0.047	-0.190
-309.910	-32.606	-0.204	0.112
-308.895	-200.000	0.027	0.242
-307.880	529.632	0.042	-0.098
-306.866	52.684	-0.128	0.121
-305.851	-200.000	0.003	0.061
-304.837	35.854	0.111	-0.097
-303.822	-103.815	0.185	-0.043
-302.807	44.066	-0.253	0.230
-301.793	339.003	0.097	0.187
-300.778	182.815	0.107	0.157
-299.764	502.176	-0.105	0.239
-298.749	-125.958	-0.139	-0.021
-297.735	-83.637	-0.058	0.018
-296.720	-78.439	0.229	-0.078
-295.705	93.977	0.238	0.267
-294.691	162.693	-0.163	0.226
-293.676	-200.000	-0.009	-0.260
-292.662	73.682	-0.023	0.024
-291.647	193.481	-0.114	0.170
-290.632	-200.000	-0.001	0.154
-289.618	-108.243	0.061	0.013
-288.603	-137.337	-0.541	-0.061
-287.589	-199.136	0.250	0.001
-286.574	-80.374	-0.359	0.119
-285.559	428.713	0.059	-0.126
-284.545	351.048	-0.126	-0.246
-283.530	800.000	-0.062	-0.223
-282.516	476.335	-0.193	0.431
-281.501	22.981	0.269	0.218
-280.486	64.597	0.158	0.157
-279.472	512.634	-0.139	-0.321
-278.457	46.161	0.069	-0.063
-277.443	-125.444	0.213	0.032
-276.428	68.013	0.145	-0.146
-275.413	-200.000	-0.009	-0.057
-274.399	176.820	0.285	0.409
-273.384	-61.567	0.284	0.118
-272.370	446.655	-0.111	-0.240
-271.355	108.402	-0.097	0.114
-270.340	-60.903	0.052	0.022
-269.326	139.321	0.070	-0.091
-268.311	-197.592	-0.227	-0.001
-267.297	-61.350	0.399	-0.166
-266.282	-200.000	-0.043	-0.189
-265.267	-15.623	0.141	-0.089
-264.253	-200.000	0.025	0.121
-263.238	-64.203	0.246	-0.099
-262.224	81.943	0.097	-0.104
-261.209	-34.958	-0.011	-0.006
-260.195	59.643	0.205	0.199
-259.180	-2.418	-0.236	0.163
-258.165	-72.490	0.355	0.129
-257.151	-31.098	0.189	0.105
-256.136	800.000	-0.076	0.221
-255.122	203.232	-0.137	-0.209
-254.107	502.379	-0.121	0.277
-253.092	91.836	-0.131	0.146
-252.078	-200.000	-0.021	-0.132
-251.063	-200.000	-0.004	-0.069
-250.049	-28.783	0.228	0.130
-249.034	0.356	0.067	-0.047
-248.019	243.128	-0.123	-0.203
-247.005	800.000	-0.031	-0.107
-245.990	174.739	0.085	0.122
-244.976	800.000	0.025	0.077
-243.961	47.853	-0.178	0.164
-242.946	64.066	0.107	-0.107
-241.932	199.031	-0.115	-0.173
-240.917	-200.000	-0.044	-0.436
-239.903	-161.515	0.169	0.009
-238.888	-200.000	0.056	0.355
-237.873	-0.497	0.311	-0.218
-236.859	-183.467	0.217	0.004
-235.844	98.896	-0.242	0.275
-234.830	-79.164	0.166	-0.055
-233.815	-112.881	0.255	-0.050
-232.800	159.963	-0.229	-0.314
-231.786	-47.751	0.201	0.096
-230.771	-165.905	0.091	0.004
-229.757	-124.678	-0.062	0.009
-228.742	187.229	0.172	0.253
-227.727	-200.000	0.042	0.276
-226.713	72.026	0.369	-0.379
-225.698	-200.000	0.025	-0.171
-224.684	-114.578	-0.139	0.026
-223.669	800.000	0.083	-0.236
-222.655	-200.000	0.015	0.185
-221.640	7.440	0.137	0.101
-220.625	-200.000	0.044	-0.189
-219.611	487.531	0.124	-0.280
-218.596	-160.649	0.190	-0.010
-217.582	-182.697	-0.346	0.006
-216.567	56.130	0.215	-0.206
-215.552	800.000	0.048	0.143
-214.538	-37.709	0.083	-0.043
-213.523	531.001	0.161	0.375
-212.509	800.000	-0.041	-0.118
-211.494	-66.994	-0.095	0.037
-210.479	120.047	-0.147	-0.180
-209.465	195.025	0.193	0.289
-208.450	-200.000	-0.012	-0.250
-207.436	-200.000	-0.001	-0.279
-206.421	-41.605	-0.136	0.069
-205.406	-200.000	0.008	-0.208
-204.392	-200.000	-0.032	-0.541
-203.377	-62.318	0.167	0.069
-202.363	800.000	-0.055	0.202
-201.348	242.741	0.075	0.123
-200.333	5.289	-0.219	-0.159
-199.319	800.000	0.088	-0.281
-198.304	-12.581	-0.465	-0.299
-197.290	-200.000	-0.028	-0.396
-196.275	32.202	0.081	-0.069
-195.260	800.000	0.044	-0.161
-194.246	31.036	-0.363	0.306
-193.231	38.455	-0.043	0.038
-192.217	-47.770	0.145	-0.069
-191.202	800.000	-0.060	0.241
-190.187	203.836	-0.150	0.229
-189.173	-200.000	-0.001	-0.355
-188.158	-134.359	0.637	0.077
-187.144	359.003	-0.068	-0.134
-186.129	-200.000	-0.019	-0.334
-185.114	-24.603	0.154	0.090
-184.100	47.309	0.238	-0.218
-183.085	365.735	0.013	-0.026
-182.071	-200.000	0.003	-0.142
-181.056	-149.743	0.104	-0.008
-180.042	-48.942	-0.048	0.023
-179.027	-164.450	0.307	0.014
-178.012	-200.000	0.027	0.138
-176.998	-131.276	-0.117	0.015
-175.983	-93.433	-0.294	0.080
-174.969	-200.000	-0.216	-0.001
-173.954	159.461	0.078	0.107
-172.939	55.111	-0.027	-0.025
-171.925	-52.353	0.264	-0.120
-170.910	-200.000	-0.037	-0.281
-169.896	-40.412	-0.285	-0.146
-168.881	-85.977	0.058	-0.018
-167.866	1.611	-0.115	0.081
-166.852	-200.000	-0.058	-0.375
-165.837	182.045	-0.072	-0.105
-164.823	-66.748	0.095	0.037
-163.808	-53.380	-0.244	0.110
-162.793	-162.809	0.225	0.011
-161.779	-81.045	0.049	0.016
-160.764	-141.735	-0.155	-0.015
-159.750	28.357	-0.046	-0.038
-158.735	20.659	0.220	-0.175
-157.720	-162.074	-0.042	-0.002
-156.706	-34.726	-0.268	0.144
-155.691	-71.742	-0.306	-0.112
-154.677	800.000	-0.108	0.337
-153.662	709.447	0.130	0.339
-152.647	800.000	-0.079	-0.339
-151.633	53.195	0.116	0.109
-150.618	-200.000	-0.014	-0.273
-149.604	54.883	0.208	-0.197
-148.589	-200.000	-0.011	0.142
-147.574	86.178	-0.167	0.181
-146.560	-112.736	0.450	-0.088
-145.545	58.712	0.157	0.152
-144.531	14.771	0.250	-0.192
-143.516	800.000	0.060	-0.168
-142.502	285.739	0.049	0.087
-141.487	-200.000	-0.214	-0.001
-140.472	332.502	0.028	-0.053
-139.458	95.128	-0.082	0.092
-138.443	61.104	-0.251	0.244
-137.429	-26.712	-0.091	0.052
-136.414	78.268	-0.046	-0.048
-135.399	-103.255	-0.143	0.033
-134.385	15.542	-0.225	-0.173
-133.370	800.000	0.034	0.111
-132.356	594.509	0.130	-0.316
-131.341	111.683	0.084	-0.099
-130.326	-61.723	0.241	-0.099
-129.312	166.289	0.207	0.289
-128.297	-200.000	-0.035	0.250
-127.283	-109.629	0.270	0.056
-126.268	-200.000	0.034	-0.229
-125.253	-56.996	0.144	0.063
-124.239	-197.922	0.069	0.000
-123.224	-98.737	-0.172	0.043
-122.210	-200.000	-0.015	-0.157
-121.195	-90.360	-0.287	0.082
