DTS Sentinel unit serial number:	SN413079Multiplexer serial number:	ORYXHardware model number:	OX4-SRSoftware version number:	ORYX F/W v4.00 Oryx Data Collector v3.7.2.0data status	okinstallation	princeton_trtdifferential loss correction	single-endedforward channel	channel 1reverse channel	N/Adate	2019/09/15time	10:58:35forward acquisition time	60.00reverse acquisition time	0.00gamma	496.2192k internal	0.2308k external	0.2308temperature offset calibration	0.9989default loss term (dB/km)	0.3790temperature slope calibration	1.0000multiplexer offset coefficient	1.0000multiplexer slope coefficient	1.0000fibre end	0.00T internal ref (°C)	34.25T ext. ref 1 (°C)	5.04T ext. ref 2 (°C)	29.84length (m)	temperature (°C)	Stokes	anti-Stokes-747.200	-200.000	-0.001	0.076
-746.185	-29.734	-0.282	0.164
-745.171	201.626	0.054	0.084
-744.156	-24.264	-0.183	-0.111
-743.142	-91.070	0.147	-0.043
-742.127	296.906	0.127	-0.237
-741.112	-67.447	0.193	-0.077
-740.098	-200.000	0.013	0.174
-739.083	287.436	-0.184	0.339
-738.069	-174.107	-0.089	0.003
-737.054	35.537	0.247	0.221
-736.039	43.813	-0.303	-0.282
-735.025	311.845	0.181	0.345
-734.010	44.341	-0.211	0.197
-732.996	-95.530	-0.357	-0.097
-731.981	135.269	-0.072	-0.095
-730.966	800.000	0.089	-0.320
-729.952	-42.767	-0.086	-0.044
-728.937	-133.259	-0.311	-0.040
-727.923	-200.000	-0.008	0.180
-726.908	-75.683	-0.112	-0.040
-725.894	-87.589	-0.107	0.033
-724.879	-92.582	-0.158	-0.045
-723.864	-58.409	-0.349	-0.154
-722.850	352.335	0.118	-0.238
-721.835	481.195	-0.214	-0.493
-720.821	-200.000	-0.004	-0.112
-719.806	-200.000	0.020	-0.364
-718.791	-36.029	-0.165	-0.091
-717.777	-23.158	-0.160	0.098
-716.762	4.023	0.160	-0.119
-715.748	-200.000	-0.023	-0.137
-714.733	17.175	0.211	-0.170
-713.718	201.996	-0.111	-0.174
-712.704	-65.088	0.148	0.061
-711.689	-200.000	0.049	0.306
-710.675	-80.960	0.158	-0.053
-709.660	-81.312	0.256	-0.086
-708.645	429.231	-0.017	0.037
-707.631	-124.731	-0.165	-0.026
-706.616	800.000	0.119	-0.354
-705.602	-121.954	-0.226	0.038
-704.587	-74.879	-0.312	-0.114
-703.572	-200.000	-0.028	0.133
-702.558	-135.768	-0.158	-0.019
-701.543	-48.377	0.139	-0.068
-700.529	-3.269	0.338	-0.239
-699.514	800.000	-0.082	0.272
-698.499	705.767	-0.071	-0.190
-697.485	800.000	-0.052	-0.219
-696.470	-124.124	-0.300	0.048
-695.456	280.983	-0.055	-0.100
-694.441	289.772	0.047	-0.087
-693.426	83.767	0.142	-0.157
-692.412	-200.000	0.008	-0.102
-691.397	800.000	-0.118	0.400
-690.383	-29.126	-0.149	0.087
-689.368	-170.242	-0.055	-0.002
-688.354	82.936	-0.127	0.140
-687.339	-200.000	-0.051	0.302
-686.324	-200.000	-0.050	0.329
-685.310	-6.834	0.240	0.166
-684.295	85.828	-0.282	-0.315
-683.281	72.050	-0.097	0.103
-682.266	-50.843	-0.176	-0.084
-681.251	39.333	0.213	-0.193
-680.237	214.941	-0.114	-0.183
-679.222	-186.375	-0.532	-0.008
-678.208	210.731	-0.092	0.146
-677.193	800.000	-0.092	0.302
-676.178	800.000	-0.089	0.285
-675.164	270.763	0.083	-0.148
-674.149	207.147	-0.077	-0.122
-673.135	39.728	0.110	-0.100
-672.120	-135.064	0.284	-0.035
-671.105	93.910	-0.223	-0.256
-670.091	-104.217	0.255	-0.060
-669.076	-139.651	0.071	0.008
-668.062	45.517	-0.204	-0.190
-667.047	-158.470	0.287	-0.017
-666.032	722.769	-0.083	-0.224
-665.018	-7.285	-0.309	-0.212
-664.003	-127.960	-0.378	0.055
-662.989	-118.852	-0.299	0.053
-661.974	-200.000	-0.047	0.220
-660.959	31.943	-0.156	-0.136
-659.945	116.827	0.233	-0.290
-658.930	172.949	-0.279	0.407
-657.916	-7.665	-0.216	-0.148
-656.901	800.000	-0.092	-0.279
-655.886	-200.000	-0.022	0.305
-654.872	-5.902	0.187	-0.130
-653.857	-200.000	0.030	-0.209
-652.843	0.818	-0.361	0.262
-651.828	-11.153	-0.218	-0.145
-650.814	-169.626	0.130	-0.005
-649.799	-200.000	0.017	-0.403
-648.784	346.801	0.034	-0.067
-647.770	89.699	-0.091	-0.103
-646.755	-127.278	0.261	0.039
-645.741	800.000	-0.053	-0.216
-644.726	-4.722	-0.185	-0.129
-643.711	-200.000	-0.019	-0.355
-642.697	-179.440	-0.142	-0.003
-641.682	800.000	0.119	-0.469
-640.668	263.239	-0.040	0.071
-639.653	-200.000	-0.318	0.001
-638.638	-75.137	-0.220	0.080
-637.624	-200.000	0.008	-0.184
-636.609	800.000	-0.069	-0.251
-635.595	315.779	-0.066	0.125
-634.580	136.273	0.224	-0.295
-633.565	800.000	0.053	-0.229
-632.551	-104.069	0.022	0.005
-631.536	395.157	-0.117	0.248
-630.522	-98.821	-0.375	0.097
-629.507	-200.000	-0.073	0.384
-628.492	142.608	0.192	-0.258
-627.478	-104.625	0.123	-0.029
-626.463	25.240	0.033	-0.028
-625.449	-50.576	-0.171	-0.082
-624.434	-40.232	0.188	-0.099
-623.419	-200.000	-0.037	0.190
-622.405	51.296	0.066	0.064
-621.390	-44.736	-0.087	-0.044
-620.376	-107.571	-0.181	-0.040
-619.361	295.459	0.102	0.188
-618.346	441.494	-0.164	0.364
-617.332	800.000	-0.074	0.232
-616.317	800.000	0.088	-0.282
-615.303	-23.217	0.055	-0.033
-614.288	-131.432	0.109	-0.015
-613.273	79.789	-0.190	0.206
-612.259	745.540	-0.116	0.317
-611.244	-200.000	0.017	-0.247
-610.230	-72.462	0.180	-0.067
-609.215	-200.000	-0.000	-0.051
-608.201	-71.439	-0.295	0.112
-607.186	-78.496	-0.122	-0.042
-606.171	44.429	-0.101	0.094
-605.157	-200.000	0.018	-0.137
-604.142	-82.825	0.012	-0.004
-603.128	-57.901	0.159	-0.070
-602.113	577.149	0.179	-0.442
-601.098	-200.000	-0.018	-0.228
-600.084	-55.107	0.299	-0.136
-599.069	-66.966	-0.135	0.054
-598.055	-110.839	-0.151	-0.032
-597.040	-200.000	-0.037	0.256
-596.025	-175.547	0.120	-0.003
-595.011	-118.608	-0.146	-0.026
-593.996	-200.000	0.018	-0.299
-592.982	47.274	-0.096	-0.090
-591.967	113.478	-0.209	0.256
-590.952	800.000	0.083	-0.240
-589.938	-39.224	-0.305	0.162
-588.923	34.968	-0.276	0.244
-587.909	224.938	-0.234	0.382
-586.894	-200.000	0.039	0.438
-585.879	-200.000	-0.011	0.118
-584.865	800.000	0.057	-0.248
-583.850	-55.738	-0.144	-0.065
-582.836	-73.788	0.083	0.030
-581.821	-21.571	0.192	-0.118
-580.806	243.113	0.112	-0.190
-579.792	-83.988	0.066	0.021
-578.777	68.360	0.223	0.231
-577.763	800.000	-0.067	-0.262
-576.748	-200.000	-0.051	0.234
-575.733	176.890	0.228	0.335
-574.719	388.513	0.057	0.119
-573.704	-30.437	0.148	0.085
-572.690	-71.338	-0.165	0.063
-571.675	29.539	0.127	0.109
-570.661	33.394	0.223	0.196
-569.646	1.856	0.362	0.263
-568.631	23.435	-0.137	0.114
-567.617	-200.000	-0.012	0.142
-566.602	-127.800	0.286	0.042
-565.588	-200.000	-0.006	0.161
-564.573	-122.640	0.379	0.062
-563.558	36.411	-0.320	0.285
-562.544	-132.662	0.138	-0.018
-561.529	-143.152	0.290	0.028
-560.515	24.329	0.160	-0.133
-559.500	-200.000	0.037	0.315
-558.485	800.000	0.068	0.196
-557.471	-92.353	-0.039	0.011
-556.456	-161.897	0.284	-0.015
-555.442	189.825	0.089	-0.134
-554.427	39.754	0.241	0.218
-553.412	42.822	-0.155	-0.142
-552.398	-76.618	-0.119	0.042
-551.383	-51.728	0.201	0.094
-550.369	-128.976	-0.214	-0.030
-549.354	132.660	0.103	-0.134
-548.339	-95.918	-0.133	-0.036
-547.325	-42.279	-0.256	-0.132
-546.310	24.054	-0.262	0.218
-545.296	18.845	-0.326	0.264
-544.281	191.668	-0.042	0.064
-543.266	-125.593	-0.220	-0.034
-542.252	1.307	-0.138	-0.100
-541.237	800.000	-0.071	0.210
-540.223	-200.000	0.016	0.269
-539.208	-102.632	-0.216	-0.052
-538.193	242.937	-0.170	-0.286
-537.179	17.112	-0.328	-0.262
-536.164	29.070	0.124	-0.106
-535.150	-200.000	-0.017	-0.202
-534.135	-200.000	-0.055	-0.430
-533.121	800.000	0.066	-0.246
-532.106	127.943	0.084	-0.108
-531.091	183.486	0.093	-0.139
-530.077	-148.781	-0.215	0.018
-529.062	-94.534	0.301	0.083
-528.048	21.078	0.132	0.108
-527.033	-143.344	-0.164	0.016
-526.018	163.171	-0.044	-0.062
-525.004	-145.112	-0.154	0.014
-523.989	-91.872	0.202	-0.058
-522.975	800.000	0.064	0.198
-521.960	40.368	0.051	-0.046
-520.945	45.271	-0.084	-0.078
-519.931	-91.270	0.493	-0.142
-518.916	101.036	-0.111	-0.130
-517.902	800.000	-0.045	0.188
-516.887	-73.778	0.219	-0.080
-515.872	800.000	0.030	-0.111
-514.858	-82.216	-0.242	0.079
-513.843	37.145	0.298	-0.265
-512.829	-24.956	0.223	0.133
-511.814	-46.711	-0.335	0.165
-510.799	-126.145	-0.280	-0.042
-509.785	124.126	-0.229	-0.289
-508.770	-156.367	-0.435	0.027
-507.756	-46.969	-0.132	-0.065
-506.741	-200.000	-0.008	-0.231
-505.726	68.661	0.266	0.275
-504.712	208.450	0.076	-0.120
-503.697	104.293	-0.186	0.221
-502.683	-199.850	0.315	0.002
-501.668	-82.640	0.228	-0.074
-500.653	-121.672	0.096	0.016
-499.639	-64.773	-0.291	-0.118
-498.624	531.943	0.083	-0.198
-497.610	-34.701	-0.206	0.114
-496.595	-200.000	-0.001	-0.031
-495.581	157.203	0.061	-0.084
-494.566	-106.312	0.148	-0.033
-493.551	-200.000	0.020	0.296
-492.537	220.145	-0.216	0.348
-491.522	317.143	-0.054	-0.102
-490.508	455.735	-0.074	0.165
-489.493	117.238	-0.155	0.192
-488.478	66.930	0.220	-0.226
-487.464	421.246	-0.115	0.248
-486.449	95.420	0.132	-0.151
-485.435	800.000	0.046	-0.136
-484.420	-159.142	-0.295	0.017
-483.405	753.601	-0.035	0.095
-482.391	215.167	0.112	0.179
-481.376	-200.000	-0.012	0.113
-480.362	-77.084	-0.039	0.014
-479.347	-101.107	0.064	0.016
-478.332	207.704	0.172	-0.271
-477.318	-52.564	-0.168	0.078
-476.303	164.570	-0.079	0.112
-475.289	-139.902	0.179	0.019
-474.274	-125.435	-0.163	-0.025
-473.259	-200.000	-0.034	-0.152
-472.245	-164.043	-0.219	0.010
-471.230	-116.553	0.287	0.053
-470.216	-27.063	-0.249	0.146
-469.201	170.620	0.154	-0.221
-468.186	464.254	0.129	0.291
-467.172	-152.926	-0.159	0.011
-466.157	41.805	-0.208	-0.190
-465.143	-200.000	0.025	0.158
-464.128	-200.000	-0.005	-0.076
-463.113	-174.362	0.117	-0.003
-462.099	-121.890	0.430	0.071
-461.084	-187.343	-0.031	-0.000
-460.070	16.925	0.175	-0.139
-459.055	196.348	-0.068	0.105
-458.040	26.208	-0.286	-0.240
-457.026	43.976	-0.066	0.060
-456.011	-200.000	0.025	0.146
-454.997	136.770	0.057	-0.074
-453.982	-47.351	-0.190	0.093
-452.968	-4.352	-0.081	0.056
-451.953	7.539	0.113	0.085
-450.938	800.000	-0.102	-0.393
-449.924	-37.462	-0.222	-0.119
-448.909	65.403	0.137	0.140
-447.895	-91.109	-0.255	-0.073
-446.880	539.820	-0.001	0.004
-445.865	-50.568	-0.357	0.169
-444.851	-108.960	-0.253	-0.054
-443.836	-200.000	0.017	-0.198
-442.822	800.000	-0.079	0.292
-441.807	141.016	-0.096	-0.128
-440.792	88.885	0.107	-0.120
-439.778	-132.929	-0.273	0.035
-438.763	-113.984	0.259	-0.050
-437.749	-94.736	0.208	-0.057
-436.734	800.000	-0.175	-0.579
-435.719	30.017	0.273	-0.234
-434.705	168.602	0.174	-0.249
-433.690	129.795	0.111	0.142
-432.676	-200.000	-0.015	-0.345
-431.661	694.353	0.191	-0.502
-430.646	-200.000	0.012	-0.163
-429.632	-119.856	-0.291	0.050
-428.617	12.403	-0.043	0.033
-427.603	336.876	0.098	0.192
-426.588	511.547	-0.066	0.154
-425.573	-200.000	-0.014	-0.133
-424.559	-62.203	0.075	-0.031
-423.544	-108.071	-0.208	-0.045
-422.530	304.296	-0.059	-0.109
-421.515	753.252	0.106	0.288
-420.500	-57.879	0.168	0.074
-419.486	37.267	-0.134	-0.119
-418.471	-200.000	0.008	0.080
-417.457	-82.873	0.443	-0.144
-416.442	-15.188	0.250	0.160
-415.428	-44.457	0.110	-0.055
-414.413	-58.217	-0.197	0.086
-413.398	-86.213	0.251	0.077
-412.384	-200.000	0.022	-0.137
-411.369	-200.000	-0.010	0.144
-410.355	-49.338	0.259	-0.124
-409.340	45.067	-0.274	0.253
-408.325	-31.001	-0.308	-0.174
-407.311	800.000	-0.077	0.238
-406.296	-103.636	-0.327	-0.077
-405.282	-118.090	0.197	0.035
-404.267	800.000	-0.044	-0.142
-403.252	351.640	0.123	-0.243
-402.238	-200.000	-0.029	0.248
-401.223	57.068	-0.032	0.031
-400.209	-51.830	-0.256	0.120
-399.194	-18.068	0.097	-0.061
-398.179	-193.472	0.117	-0.001
-397.165	-54.292	-0.263	0.120
-396.150	511.103	-0.118	-0.276
-395.136	61.250	0.083	-0.083
-394.121	362.690	-0.101	-0.203
-393.106	-69.949	-0.153	0.058
-392.092	1.545	0.363	-0.262
-391.077	-36.592	-0.270	0.145
-390.063	-59.748	0.149	0.064
-389.048	-175.052	-0.113	-0.003
-388.033	252.660	-0.086	0.147
-387.019	418.112	0.163	0.349
-386.004	712.971	-0.111	0.294
-384.990	800.000	-0.135	-0.430
-383.975	138.592	0.160	-0.210
-382.960	2.592	-0.262	0.190
-381.946	33.511	0.352	-0.306
-380.931	126.621	0.198	0.251
-379.917	-200.000	0.056	0.293
-378.902	800.000	-0.017	0.054
-377.888	313.733	-0.210	0.396
-376.873	161.366	-0.097	-0.136
-375.858	30.785	-0.328	-0.281
-374.844	305.580	-0.071	-0.132
-373.829	800.000	-0.061	-0.179
-372.815	110.944	-0.184	-0.222
-371.800	800.000	0.052	0.189
-370.785	800.000	-0.109	-0.431
-369.771	-68.880	0.246	-0.095
-368.756	781.263	0.045	-0.124
-367.742	-200.000	0.094	0.485
-366.727	-150.692	0.109	-0.008
-365.712	-70.305	0.118	-0.045
-364.698	27.177	0.041	0.034
-363.683	-69.774	-0.187	0.071
-362.669	800.000	0.026	-0.077
-361.654	-37.238	-0.185	0.099
-360.639	-16.789	0.061	-0.038
-359.625	182.128	-0.002	-0.003
-358.610	-56.453	0.359	-0.160
-357.596	-81.298	0.055	0.018
-356.581	206.280	-0.078	-0.121
-355.566	-87.440	-0.044	0.013
-354.552	13.270	-0.201	-0.156
-353.537	296.899	0.286	-0.525
-352.523	-75.947	0.299	0.106
-351.508	-57.829	0.120	0.052
-350.493	210.181	-0.066	-0.104
-349.479	26.032	-0.258	-0.216
-348.464	1.007	0.096	0.069
-347.450	-200.000	-0.007	-0.485
-346.435	735.479	-0.146	-0.392
-345.420	149.351	-0.084	0.113
-344.406	-200.000	0.081	-0.364
-343.391	-99.197	0.149	0.038
-342.377	-200.000	0.028	-0.278
-341.362	89.352	-0.141	0.157
-340.348	-103.392	0.406	0.096
-339.333	432.053	-0.069	0.149
-338.318	441.253	0.031	0.069
-337.304	800.000	-0.066	0.256
-336.289	188.004	-0.066	0.099
-335.275	394.855	-0.031	0.065
-334.260	-119.230	-0.061	-0.011
-333.245	33.687	-0.120	0.104
-332.231	57.992	-0.066	-0.065
-331.216	-200.000	0.096	-0.480
-330.202	-140.373	0.289	-0.030
-329.187	81.244	-0.074	0.080
-328.172	647.452	0.094	-0.239
-327.158	-200.000	-0.027	0.165
-326.143	5.953	-0.241	0.178
-325.129	800.000	-0.041	-0.174
-324.114	-165.424	-0.199	0.009
-323.099	-200.000	-0.057	-0.380
-322.085	42.285	0.050	0.045
-321.070	-56.653	0.147	-0.065
-320.056	659.211	-0.123	-0.316
-319.041	-200.000	-0.034	0.000
-318.026	197.288	0.115	0.176
-317.012	-200.000	-0.007	0.261
-315.997	800.000	-0.057	0.222
-314.983	-200.000	-0.022	0.189
-313.968	6.531	0.170	-0.126
-312.953	674.049	0.086	0.223
-311.939	-68.514	0.284	0.110
-310.924	55.976	-0.078	0.075
-309.910	-107.548	0.046	-0.010
-308.895	800.000	-0.067	0.244
-307.880	-200.000	-0.001	-0.092
-306.866	-200.000	0.283	0.000
-305.851	-162.359	0.342	-0.017
-304.837	-0.491	-0.193	-0.137
-303.822	-173.979	-0.039	0.001
-302.807	94.842	0.024	-0.027
-301.793	230.331	0.052	0.085
-300.778	-161.597	-0.234	-0.012
-299.764	-200.000	-0.008	-0.232
-298.749	-66.090	0.140	-0.056
-297.735	-36.002	-0.216	0.116
-296.720	4.391	0.341	0.249
-295.705	-63.695	0.178	-0.073
-294.691	20.562	-0.158	0.127
-293.676	-53.614	0.133	-0.061
-292.662	205.644	-0.143	-0.222
-291.647	662.585	0.054	-0.139
-290.632	-95.897	-0.222	0.059
-289.618	209.752	-0.158	0.248
-288.603	-191.043	-0.159	0.002
-287.589	-200.000	0.032	-0.229
-286.574	260.584	0.163	0.281
-285.559	-125.623	-0.185	-0.028
-284.545	-46.009	-0.140	0.069
-283.530	-31.777	-0.108	-0.060
-282.516	-200.000	-0.021	-0.232
-281.501	144.974	0.244	-0.326
-280.486	-200.000	-0.010	0.129
-279.472	-112.290	-0.353	0.071
-278.457	-137.822	-0.090	-0.010
-277.443	-77.563	-0.159	-0.055
-276.428	195.466	-0.186	-0.282
-275.413	-106.782	0.409	0.091
-274.399	800.000	-0.066	-0.214
-273.384	-18.016	0.314	-0.196
-272.370	-99.950	0.346	0.086
-271.355	72.456	0.207	-0.215
-270.340	59.181	-0.375	-0.368
-269.326	244.783	0.236	0.396
-268.311	44.145	-0.234	-0.214
-267.297	11.548	0.211	0.161
-266.282	5.141	0.115	-0.085
-265.267	-21.592	-0.338	0.205
-264.253	54.605	0.159	-0.153
-263.238	163.135	-0.123	-0.172
-262.224	-10.413	0.294	-0.194
-261.209	800.000	0.094	-0.296
-260.195	145.957	0.258	0.344
-259.180	303.369	0.063	-0.116
-258.165	241.507	0.224	0.373
-257.151	-35.914	-0.248	-0.134
-256.136	-177.750	0.198	0.005
-255.122	-50.759	-0.133	0.062
-254.107	-1.173	-0.303	0.213
-253.092	126.370	-0.020	-0.026
-252.078	-200.000	0.002	0.157
-251.063	800.000	0.038	-0.152
-250.049	22.418	-0.121	-0.098
-249.034	-200.000	-0.021	-0.272
-248.019	175.074	-0.170	0.245
-247.005	-1.217	0.204	-0.144
-245.990	-100.397	-0.469	-0.116
-244.976	-73.332	0.228	0.083
-243.961	160.827	-0.140	-0.194
-242.946	109.482	0.115	0.137
-241.932	-177.233	-0.185	-0.005
-240.917	579.372	-0.042	0.103
-239.903	742.625	0.066	0.178
-238.888	19.578	0.050	-0.040
-237.873	-144.142	0.113	-0.011
-236.859	373.054	0.103	0.209
-235.844	-200.000	0.013	0.180
-234.830	361.223	-0.103	0.206
-233.815	-127.438	0.264	0.038
-232.800	-2.022	0.093	-0.065
-231.786	-200.000	-0.001	-0.102
-230.771	303.301	-0.036	0.066
-229.757	-200.000	0.031	0.230
-228.742	162.050	0.259	0.362
-227.727	44.560	0.066	0.061
-226.713	-200.000	0.045	-0.219
-225.698	317.881	0.140	0.264
-224.684	232.698	-0.135	0.221
-223.669	136.229	0.213	0.276
-222.655	81.701	-0.121	0.130
-221.640	-8.565	0.134	-0.090
-220.625	79.481	-0.021	-0.023
-219.611	-196.225	0.471	-0.003
-218.596	66.024	-0.150	0.152
-217.582	71.412	0.173	-0.179
-216.567	234.939	-0.051	-0.085
-215.552	85.029	0.163	0.178
-214.538	-34.656	0.107	-0.058
-213.523	12.575	-0.199	-0.153
-212.509	-41.508	0.136	-0.070
-211.494	218.344	-0.173	-0.275
-210.479	-61.301	0.266	-0.112
-209.465	-200.000	-0.007	0.081
-208.450	-200.000	-0.085	0.453
-207.436	48.523	-0.227	-0.211
-206.421	-123.646	0.159	0.025
-205.406	-127.986	0.209	0.030
-204.392	297.088	-0.065	-0.118
-203.377	-88.408	0.385	0.114
-202.363	175.971	-0.172	-0.248
-201.348	800.000	0.046	0.155
-200.333	111.652	-0.290	0.349
-199.319	57.471	0.167	0.163
-198.304	-103.374	-0.211	0.050
-197.290	-200.000	0.052	0.226
-196.275	18.890	-0.203	-0.162
-195.260	132.999	0.055	-0.070
-194.246	-200.000	0.034	0.209
-193.231	-200.000	0.012	-0.134
-192.217	800.000	-0.070	0.230
-191.202	1.370	-0.296	0.211
-190.187	800.000	0.130	0.383
-189.173	130.141	0.381	0.485
-188.158	447.408	0.086	0.188
-187.144	-200.000	-0.045	-0.382
-186.129	-90.775	-0.265	0.076
-185.114	800.000	-0.085	-0.310
-184.100	-200.000	-0.032	-0.196
-183.085	-81.742	-0.464	-0.151
-182.071	-200.000	-0.035	0.158
-181.056	-200.000	0.046	0.246
-180.042	114.521	0.098	-0.118
-179.027	204.257	0.170	0.262
-178.012	18.879	0.154	0.123
-176.998	-102.509	0.189	0.045
-175.983	-161.091	-0.222	0.012
-174.969	-141.598	-0.348	-0.035
-173.954	161.439	0.108	0.150
-172.939	16.200	-0.119	-0.093
-171.925	-57.938	0.218	0.095
-170.910	-0.473	-0.026	0.018
-169.896	-159.622	0.300	-0.017
-168.881	-32.967	0.377	0.208
-167.866	800.000	0.057	0.198
-166.852	800.000	0.051	-0.171
-165.837	-56.732	0.291	-0.128
-164.823	-51.708	-0.162	-0.075
-163.808	-97.240	0.191	-0.049
-162.793	216.559	-0.019	-0.030
-161.779	-62.069	0.225	0.093
-160.764	370.120	0.075	0.152
-159.750	543.178	-0.034	0.081
-158.735	800.000	0.023	-0.082
-157.720	369.341	-0.152	0.306
-156.706	-114.807	-0.174	0.033
-155.691	-23.484	-0.133	-0.079
-154.677	99.923	-0.043	-0.050
-153.662	193.370	-0.210	0.316
-152.647	196.155	0.062	0.094
-151.633	-200.000	0.018	0.260
-150.618	800.000	-0.040	0.120
-149.604	-6.361	0.167	-0.113
-148.589	800.000	-0.094	-0.329
-147.574	83.425	-0.196	0.212
-146.560	88.583	-0.122	0.135
-145.545	29.762	-0.092	0.078
-144.531	-25.827	0.220	-0.129
-143.516	800.000	0.065	0.206
-142.502	65.738	0.202	-0.204
-141.487	88.212	-0.182	-0.201
-140.472	800.000	-0.053	-0.225
-139.458	50.721	0.245	0.231
-138.443	-200.000	0.021	0.108
-137.429	-160.090	0.413	-0.022
-136.414	-114.466	-0.171	-0.033
-135.399	-45.928	0.244	0.119
-134.385	580.706	-0.230	-0.560
-133.370	9.259	-0.066	-0.050
-132.356	-200.000	-0.011	-0.167
-131.341	35.539	-0.263	-0.229
-130.326	713.297	0.121	0.319
-129.312	-126.587	0.117	0.017
-128.297	-182.074	0.380	-0.007
-127.283	277.778	0.085	-0.150
-126.268	12.343	-0.130	0.099
-125.253	800.000	0.053	0.200
-124.239	-200.000	0.020	0.248
-123.224	96.587	0.165	-0.187
-122.210	254.879	-0.182	0.310
-121.195	-71.560	0.223	-0.083
