DTS Sentinel unit serial number:	SN413079Multiplexer serial number:	ORYXHardware model number:	OX4-SRSoftware version number:	ORYX F/W v4.00 Oryx Data Collector v3.7.2.0data status	okinstallation	princeton_trtdifferential loss correction	single-endedforward channel	channel 1reverse channel	N/Adate	2019/09/11time	04:52:11forward acquisition time	60.00reverse acquisition time	0.00gamma	496.2192k internal	0.2331k external	0.2331temperature offset calibration	0.9922default loss term (dB/km)	0.3790temperature slope calibration	1.0000multiplexer offset coefficient	1.0000multiplexer slope coefficient	1.0000fibre end	0.00T internal ref (°C)	29.50T ext. ref 1 (°C)	-0.26T ext. ref 2 (°C)	23.29length (m)	temperature (°C)	Stokes	anti-Stokes-747.200	-44.536	-0.067	-0.034
-746.185	40.309	0.134	0.122
-745.171	232.540	0.070	-0.116
-744.156	406.910	-0.055	-0.116
-743.142	800.000	0.044	0.131
-742.127	30.676	0.204	0.175
-741.112	16.380	-0.165	-0.131
-740.098	-151.240	0.207	0.016
-739.083	69.668	-0.299	-0.310
-738.069	-91.595	0.060	0.017
-737.054	45.600	-0.175	0.162
-736.039	-200.000	0.029	-0.196
-735.025	167.261	0.041	-0.059
-734.010	-74.648	-0.396	-0.143
-732.996	-200.000	-0.012	-0.176
-731.981	23.530	-0.272	-0.225
-730.966	35.858	0.059	0.052
-729.952	539.167	0.152	-0.363
-728.937	-102.856	-0.345	-0.083
-727.923	-200.000	-0.026	0.364
-726.908	338.684	-0.182	-0.356
-725.894	127.906	0.303	-0.387
-724.879	435.277	-0.032	0.071
-723.864	25.880	-0.230	-0.193
-722.850	-200.000	0.114	-0.560
-721.835	800.000	0.036	0.134
-720.821	-117.930	-0.307	-0.055
-719.806	-74.823	-0.255	0.092
-718.791	119.301	0.128	0.159
-717.777	-161.398	-0.380	-0.020
-716.762	-200.000	-0.024	-0.293
-715.748	15.157	0.098	-0.077
-714.733	741.554	0.092	0.249
-713.718	64.663	0.070	0.071
-712.704	-97.879	0.194	-0.050
-711.689	-139.173	-0.159	-0.017
-710.675	800.000	-0.055	0.160
-709.660	552.585	-0.060	-0.145
-708.645	48.379	0.186	-0.175
-707.631	335.893	-0.049	-0.096
-706.616	-3.570	-0.046	0.032
-705.602	295.834	0.031	-0.057
-704.587	78.447	0.134	-0.143
-703.572	-38.523	-0.366	-0.194
-702.558	15.895	-0.125	0.099
-701.543	667.921	0.077	0.200
-700.529	-53.138	0.044	-0.020
-699.514	118.767	-0.079	0.098
-698.499	440.997	0.234	-0.513
-697.485	-108.101	0.422	-0.092
-696.470	220.286	0.118	0.189
-695.456	28.532	0.256	0.218
-694.441	100.673	0.139	0.162
-693.426	-111.711	0.092	0.019
-692.412	-158.928	0.205	0.012
-691.397	-67.226	0.469	0.185
-690.383	-200.000	-0.034	-0.184
-689.368	156.100	0.224	0.310
-688.354	-17.063	0.141	0.089
-687.339	-120.337	0.482	-0.082
-686.324	-134.129	-0.232	0.029
-685.310	800.000	-0.065	0.247
-684.295	208.543	-0.040	0.063
-683.281	207.102	0.096	0.150
-682.266	-133.480	0.167	0.021
-681.251	800.000	0.122	-0.377
-680.237	-200.000	0.015	-0.179
-679.222	35.871	0.135	0.119
-678.208	-200.000	-0.021	0.157
-677.193	70.551	0.067	-0.070
-676.178	-60.147	0.191	0.082
-675.164	-117.544	-0.153	0.028
-674.149	-10.220	-0.211	0.141
-673.135	800.000	0.012	0.043
-672.120	-113.207	-0.224	0.044
-671.105	10.411	-0.141	0.107
-670.091	-200.000	0.008	-0.138
-669.076	-5.998	-0.378	-0.259
-668.062	172.120	-0.136	-0.196
-667.047	20.070	0.286	-0.232
-666.032	-194.755	0.151	0.001
-665.018	-17.948	0.241	-0.151
-664.003	-39.969	0.276	0.145
-662.989	107.559	0.108	-0.129
-661.974	-1.012	0.077	0.055
-660.959	-200.000	0.045	-0.227
-659.945	54.709	0.169	-0.163
-658.930	-200.000	-0.047	0.238
-657.916	-50.284	-0.144	-0.068
-656.901	417.095	0.077	-0.166
-655.886	2.290	0.154	-0.112
-654.872	-66.520	0.119	-0.047
-653.857	-52.342	0.144	-0.067
-652.843	-200.000	-0.017	-0.211
-651.828	-182.186	0.142	-0.003
-650.814	-200.000	0.056	-0.271
-649.799	-200.000	-0.054	-0.276
-648.784	204.287	-0.130	0.202
-647.770	-200.000	-0.003	-0.256
-646.755	46.001	0.121	-0.112
-645.741	395.121	-0.037	0.078
-644.726	-16.457	0.314	-0.200
-643.711	-142.629	-0.378	-0.037
-642.697	14.817	-0.215	0.168
-641.682	-200.000	0.017	-0.116
-640.668	-35.344	-0.073	-0.040
-639.653	-60.992	0.340	-0.144
-638.638	-200.000	-0.004	-0.215
-637.624	-67.975	0.225	-0.088
-636.609	65.762	-0.168	-0.170
-635.595	-200.000	-0.000	-0.041
-634.580	-55.164	-0.083	0.037
-633.565	800.000	0.049	-0.157
-632.551	19.283	-0.236	0.190
-631.536	-200.000	-0.030	0.256
-630.522	-110.087	-0.181	-0.038
-629.507	-107.387	-0.134	0.029
-628.492	800.000	0.060	0.166
-627.478	-81.579	0.203	0.067
-626.463	-97.836	0.283	0.073
-625.449	-200.000	-0.083	0.442
-624.434	-69.263	0.313	-0.120
-623.419	-200.000	0.032	-0.230
-622.405	-23.757	0.274	0.165
-621.390	29.601	0.073	0.062
-620.376	800.000	-0.042	-0.121
-619.361	-160.289	0.104	0.006
-618.346	79.925	0.176	0.190
-617.332	17.534	-0.047	0.037
-616.317	147.017	-0.089	-0.120
-615.303	-111.292	0.086	0.018
-614.288	59.998	0.228	0.226
-613.273	252.277	0.164	0.279
-612.259	200.558	-0.183	0.282
-611.244	-90.613	-0.251	-0.073
-610.230	-90.374	0.205	0.059
-609.215	6.433	-0.196	0.146
-608.201	800.000	0.055	-0.200
-607.186	-198.693	0.186	-0.001
-606.171	90.374	0.125	-0.140
-605.157	-200.000	0.000	0.047
-604.142	424.274	-0.061	-0.132
-603.128	-96.409	-0.187	-0.050
-602.113	-200.000	0.020	-0.177
-601.098	-200.000	0.019	-0.216
-600.084	1.767	0.146	0.105
-599.069	-98.983	-0.395	-0.100
-598.055	-200.000	0.052	-0.238
-597.040	800.000	0.082	-0.285
-596.025	743.897	-0.089	0.240
-595.011	-140.602	-0.186	-0.019
-593.996	682.321	-0.041	-0.106
-592.982	94.776	-0.182	0.207
-591.967	-41.628	0.107	-0.055
-590.952	-188.687	-0.253	0.003
-589.938	-73.545	-0.121	0.044
-588.923	255.089	-0.163	-0.279
-587.909	-84.239	0.220	-0.070
-586.894	60.439	-0.258	0.255
-585.879	-47.536	-0.090	0.044
-584.865	14.122	0.122	0.095
-583.850	-42.827	-0.254	0.129
-582.836	50.280	0.132	0.124
-581.821	439.491	0.042	-0.091
-580.806	-46.049	-0.228	-0.112
-579.792	-200.000	-0.003	0.040
-578.777	54.609	0.251	0.242
-577.763	800.000	0.039	0.107
-576.748	-91.509	0.186	-0.053
-575.733	7.334	-0.111	0.083
-574.719	-200.000	0.082	0.486
-573.704	198.489	0.139	0.212
-572.690	-71.772	-0.210	0.078
-571.675	-200.000	-0.054	-0.320
-570.661	59.627	0.104	-0.103
-569.646	-200.000	0.021	-0.249
-568.631	800.000	-0.092	-0.294
-567.617	153.559	0.156	-0.214
-566.602	-75.747	-0.476	0.169
-565.588	292.709	-0.165	-0.300
-564.573	-200.000	-0.031	-0.314
-563.558	149.025	0.217	-0.293
-562.544	52.948	-0.058	-0.055
-561.529	356.640	0.090	-0.180
-560.515	-200.000	0.010	-0.362
-559.500	-200.000	-0.051	-0.386
-558.485	-109.234	-0.049	-0.010
-557.471	-88.645	-0.269	0.080
-556.456	-88.716	0.072	-0.021
-555.442	219.808	-0.109	-0.175
-554.427	-200.000	-0.014	0.266
-553.412	-30.085	-0.344	0.195
-552.398	231.583	0.072	0.118
-551.383	-93.589	-0.224	-0.062
-550.369	534.323	0.054	-0.128
-549.354	-73.618	0.076	0.027
-548.339	-86.198	0.188	-0.058
-547.325	-200.000	-0.034	0.177
-546.310	-200.000	-0.017	-0.124
-545.296	-28.610	-0.305	-0.175
-544.281	37.016	0.171	-0.151
-543.266	46.047	0.235	0.217
-542.252	-200.000	0.000	-0.144
-541.237	-45.036	0.221	0.110
-540.223	19.069	0.156	-0.125
-539.208	759.672	-0.106	0.288
-538.193	-98.440	0.257	-0.066
-537.179	-200.000	0.042	0.230
-536.164	296.489	-0.100	-0.183
-535.150	-133.847	0.283	-0.035
-534.135	-200.000	0.039	0.184
-533.121	-176.216	0.221	-0.006
-532.106	-153.392	0.175	-0.012
-531.091	-200.000	0.034	0.245
-530.077	104.199	-0.110	-0.129
-529.062	104.705	-0.106	-0.125
-528.048	157.300	-0.235	0.325
-527.033	-59.183	0.365	-0.157
-526.018	36.976	0.069	0.061
-525.004	12.839	-0.090	-0.070
-523.989	175.145	-0.059	0.085
-522.975	366.052	-0.199	-0.400
-521.960	-200.000	-0.055	-0.243
-520.945	-98.221	-0.239	-0.061
-519.931	46.041	-0.200	0.185
-518.916	-199.204	0.143	0.001
-517.902	31.953	0.043	-0.037
-516.887	124.874	-0.187	0.235
-515.872	166.032	0.173	0.245
-514.858	800.000	0.073	0.227
-513.843	14.988	-0.110	-0.086
-512.829	800.000	-0.066	-0.242
-511.814	-119.232	-0.137	-0.024
-510.799	-11.382	-0.146	0.096
-509.785	-75.217	-0.217	-0.077
-508.770	23.346	-0.082	0.068
-507.756	107.133	-0.241	0.285
-506.741	10.366	-0.245	-0.186
-505.726	282.560	0.155	-0.278
-504.712	-200.000	-0.059	-0.317
-503.697	-81.604	0.407	-0.133
-502.683	-117.550	-0.190	0.034
-501.668	-1.575	-0.132	-0.093
-500.653	-155.979	0.315	0.020
-499.639	800.000	-0.059	0.196
-498.624	-200.000	-0.016	-0.074
-497.610	-200.000	0.016	-0.155
-496.595	-75.697	-0.232	0.082
-495.581	-54.406	0.196	-0.088
-494.566	15.958	-0.072	-0.057
-493.551	221.074	0.055	0.088
-492.537	800.000	0.076	0.273
-491.522	87.691	0.016	0.018
-490.508	31.139	0.458	0.391
-489.493	-16.021	-0.082	-0.052
-488.478	207.194	-0.029	-0.044
-487.464	-47.080	0.149	-0.073
-486.449	153.339	-0.178	-0.243
-485.435	400.789	0.120	0.251
-484.420	322.231	0.034	-0.064
-483.405	-109.437	-0.245	0.052
-482.391	-12.974	-0.195	0.127
-481.376	77.816	0.131	-0.139
-480.362	-112.699	0.507	-0.100
-479.347	30.091	-0.052	0.045
-478.332	-17.786	-0.021	0.013
-477.318	-200.000	-0.038	0.539
-476.303	159.461	-0.121	0.167
-475.289	226.537	0.130	-0.211
-474.274	7.307	-0.080	-0.059
-473.259	306.225	-0.157	-0.290
-472.245	20.759	0.083	-0.067
-471.230	-200.000	-0.025	-0.139
-470.216	29.814	-0.174	-0.148
-469.201	-200.000	-0.026	-0.204
-468.186	-65.302	-0.236	0.094
-467.172	800.000	-0.099	0.356
-466.157	39.546	-0.075	0.067
-465.143	-200.000	0.016	0.135
-464.128	-0.200	-0.122	-0.086
-463.113	-123.112	-0.394	0.063
-462.099	260.389	0.035	-0.061
-461.084	238.331	-0.074	0.122
-460.070	16.971	-0.223	-0.176
-459.055	-18.819	-0.358	0.222
-458.040	800.000	-0.003	0.012
-457.026	589.627	-0.105	0.259
-456.011	-72.966	-0.336	0.123
-454.997	86.837	0.258	-0.283
-453.982	144.099	-0.088	-0.117
-452.968	97.427	-0.063	-0.072
-451.953	-153.542	0.199	0.014
-450.938	-30.219	-0.089	0.050
-449.924	130.367	-0.273	-0.348
-448.909	-161.257	-0.256	-0.013
-447.895	-200.000	0.006	-0.032
-446.880	-200.000	-0.053	-0.242
-445.865	-67.910	-0.308	-0.120
-444.851	217.090	0.122	-0.193
-443.836	-144.187	0.249	0.023
-442.822	124.400	-0.117	0.146
-441.807	130.229	0.196	0.250
-440.792	37.638	0.132	0.116
-439.778	800.000	-0.152	-0.504
-438.763	300.077	0.023	0.042
-437.749	130.952	0.207	-0.264
-436.734	-132.234	0.300	0.039
-435.719	323.613	-0.121	-0.229
-434.705	69.764	-0.190	-0.195
-433.690	-73.550	0.082	0.030
-432.676	-82.660	0.360	0.116
-431.661	-82.952	-0.225	-0.072
-430.646	800.000	-0.042	-0.150
-429.632	-173.731	0.345	-0.010
-428.617	239.718	-0.045	-0.074
-427.603	-0.644	-0.091	0.064
-426.588	-200.000	-0.040	0.242
-425.573	-85.408	0.183	-0.057
-424.559	334.666	0.087	-0.167
-423.544	-64.167	-0.123	-0.050
-422.530	800.000	-0.016	0.067
-421.515	599.591	-0.181	-0.446
-420.500	-19.371	-0.106	-0.065
-419.486	800.000	-0.026	-0.075
-418.471	800.000	-0.015	0.045
-417.457	644.511	0.067	-0.169
-416.442	140.022	0.244	-0.320
-415.428	800.000	0.123	0.378
-414.413	-147.322	0.197	-0.017
-413.398	-116.845	-0.046	0.008
-412.384	-4.454	0.216	-0.149
-411.369	-123.558	0.229	0.036
-410.355	-200.000	-0.026	-0.157
-409.340	-171.175	0.355	0.012
-408.325	106.439	-0.125	-0.147
-407.311	-38.716	0.114	-0.060
-406.296	284.263	0.113	-0.202
-405.282	-200.000	0.051	0.239
-404.267	-113.829	0.087	0.017
-403.252	122.039	0.085	0.105
-402.238	780.242	-0.062	-0.168
-401.223	367.356	-0.102	0.205
-400.209	1.927	0.131	-0.094
-399.194	800.000	-0.039	0.147
-398.179	6.919	0.239	-0.177
-397.165	79.437	-0.164	-0.174
-396.150	-88.227	-0.108	-0.032
-395.136	-2.687	-0.160	0.111
-394.121	643.361	0.058	0.148
-393.106	-119.938	-0.198	-0.034
-392.092	-78.692	0.176	0.060
-391.077	-200.000	-0.022	0.422
-390.063	-200.000	0.005	0.023
-389.048	403.502	0.129	0.269
-388.033	-200.000	0.004	0.032
-387.019	89.524	0.080	0.088
-386.004	16.015	0.129	0.101
-384.990	-22.936	-0.066	0.039
-383.975	46.463	-0.088	0.081
-382.960	480.124	0.096	0.216
-381.946	-200.000	0.049	-0.359
-380.931	17.844	0.119	-0.094
-379.917	409.496	0.053	0.111
-378.902	-186.166	0.317	-0.005
-377.888	-87.997	-0.412	-0.123
-376.873	800.000	-0.088	-0.315
-375.858	10.003	0.187	0.141
-374.844	680.271	-0.076	0.196
-373.829	153.413	-0.146	0.198
-372.815	39.360	-0.063	0.056
-371.800	800.000	0.037	0.138
-370.785	244.434	-0.107	0.179
-369.771	-28.315	0.215	-0.123
-368.756	-91.607	0.139	0.039
-367.742	-105.347	0.273	0.062
-366.727	10.967	-0.181	0.138
-365.712	16.414	0.053	0.042
-364.698	-200.000	-0.064	0.327
-363.683	162.168	0.106	0.147
-362.669	-125.669	0.312	0.047
-361.654	-132.671	-0.221	0.028
-360.639	57.183	-0.196	-0.190
-359.625	398.791	-0.031	0.064
-358.610	-39.862	0.198	-0.102
-357.596	521.999	-0.029	-0.066
-356.581	-200.000	-0.006	0.056
-355.566	-6.455	-0.142	0.096
-354.552	-81.205	0.210	0.069
-353.537	192.053	0.118	0.176
-352.523	180.731	0.222	0.323
-351.508	-200.000	-0.015	0.242
-350.493	247.587	-0.115	-0.192
-349.479	-61.602	-0.246	0.102
-348.464	-0.327	0.147	0.104
-347.450	-14.615	0.068	-0.043
-346.435	800.000	0.065	0.264
-345.420	-200.000	-0.019	-0.102
-344.406	145.016	-0.029	-0.038
-343.391	-87.051	-0.130	-0.039
-342.377	259.727	0.077	-0.132
-341.362	358.750	0.185	-0.365
-340.348	800.000	0.094	-0.293
-339.333	-18.527	-0.102	-0.063
-338.318	26.294	-0.125	0.104
-337.304	341.299	0.045	-0.088
-336.289	1.686	0.106	0.076
-335.275	-161.034	-0.043	-0.002
-334.260	177.075	-0.130	0.188
-333.245	352.800	-0.071	-0.139
-332.231	-149.985	0.156	-0.012
-331.216	-56.207	-0.201	0.089
-330.202	32.955	-0.119	-0.102
-329.187	-91.856	0.191	0.054
-328.172	-99.652	-0.350	-0.087
-327.158	-138.780	-0.133	-0.014
-326.143	-200.000	0.039	0.268
-325.129	9.135	-0.216	0.162
-324.114	202.522	-0.167	-0.256
-323.099	28.888	0.272	-0.228
-322.085	-30.004	-0.268	-0.151
-321.070	-113.726	-0.337	0.065
-320.056	-200.000	-0.052	0.320
-319.041	800.000	0.142	-0.402
-318.026	292.074	0.045	0.082
-317.012	-135.095	-0.219	-0.026
-315.997	-103.030	-0.308	0.072
-314.983	-200.000	-0.034	0.176
-313.968	-200.000	-0.014	0.182
-312.953	180.816	0.027	0.039
-311.939	30.778	-0.140	-0.119
-310.924	-96.637	-0.027	0.007
-309.910	-200.000	0.051	-0.244
-308.895	-22.495	0.202	0.121
-307.880	-55.955	0.309	0.136
-306.866	320.122	0.179	0.336
-305.851	-133.973	0.052	0.006
-304.837	800.000	0.036	0.127
-303.822	36.119	0.243	0.211
-302.807	251.240	-0.099	0.167
-301.793	-39.456	0.302	-0.157
-300.778	-200.000	-0.033	-0.171
-299.764	-78.770	-0.194	0.065
-298.749	491.828	-0.056	0.128
-297.735	-200.000	0.007	0.188
-296.720	800.000	0.028	-0.080
-295.705	-50.750	0.098	-0.046
-294.691	74.712	-0.040	0.042
-293.676	-200.000	0.030	0.181
-292.662	48.072	-0.073	-0.067
-291.647	-147.832	0.325	-0.027
-290.632	800.000	0.066	0.217
-289.618	-91.299	-0.186	0.053
-288.603	15.838	-0.195	-0.152
-287.589	100.333	-0.054	0.062
-286.574	7.936	0.247	0.183
-285.559	13.220	-0.181	-0.139
-284.545	546.644	-0.154	0.364
-283.530	82.971	0.326	0.350
-282.516	-91.136	-0.317	0.090
-281.501	-194.078	-0.107	-0.001
-280.486	219.124	-0.052	0.083
-279.472	-118.333	-0.051	0.009
-278.457	230.863	0.070	-0.114
-277.443	637.367	0.063	0.159
-276.428	436.120	-0.159	-0.343
-275.413	-173.400	-0.125	0.004
-274.399	35.183	0.050	0.043
-273.384	125.523	-0.146	-0.183
-272.370	-81.097	-0.227	-0.074
-271.355	-85.332	0.176	-0.054
-270.340	417.294	0.057	-0.121
-269.326	800.000	-0.075	0.203
-268.311	33.328	-0.048	0.041
-267.297	-65.322	0.187	0.074
-266.282	18.536	0.140	0.110
-265.267	68.619	-0.132	0.134
-264.253	-96.237	0.282	-0.074
-263.238	665.780	-0.079	-0.201
-262.224	-19.069	0.224	0.138
-261.209	83.983	0.151	0.162
-260.195	-200.000	-0.054	0.264
-259.180	-200.000	-0.026	0.181
-258.165	800.000	-0.032	0.108
-257.151	28.158	-0.194	0.161
-256.136	-14.987	0.184	0.117
-255.122	-145.786	-0.228	-0.020
-254.107	122.995	0.111	-0.137
-253.092	-81.574	0.325	0.105
-252.078	-200.000	-0.056	-0.465
-251.063	800.000	-0.048	-0.141
-250.049	403.511	-0.090	0.187
-249.034	144.688	0.027	-0.036
-248.019	49.325	0.124	-0.115
-247.005	383.474	0.004	0.008
-245.990	-108.706	0.178	0.038
-244.976	-200.000	0.033	-0.237
-243.961	-51.422	-0.198	0.091
-242.946	800.000	-0.027	-0.083
-241.932	-66.191	0.142	0.056
-240.917	381.174	-0.067	0.136
-239.903	-92.616	-0.190	-0.053
-238.888	-56.426	-0.159	-0.069
-237.873	-123.844	-0.299	0.047
-236.859	209.773	0.057	-0.087
-235.844	-200.000	0.039	0.261
-234.830	429.865	0.137	-0.292
-233.815	-22.425	0.358	-0.214
-232.800	141.757	-0.081	-0.105
-231.786	144.539	0.064	-0.084
-230.771	161.326	-0.092	-0.127
-229.757	-72.488	0.072	-0.026
-228.742	-26.585	0.210	-0.121
-227.727	212.655	0.055	-0.085
-226.713	-93.254	-0.086	-0.023
-225.698	356.079	0.122	-0.240
-224.684	-39.816	-0.312	0.161
-223.669	86.862	-0.095	-0.104
-222.655	-130.118	0.333	0.045
-221.640	-137.192	0.193	0.022
-220.625	655.664	0.092	-0.232
-219.611	8.258	0.175	0.130
-218.596	288.629	0.206	0.368
-217.582	-111.313	0.462	0.093
-216.567	-33.345	0.208	-0.113
-215.552	30.389	-0.082	0.069
-214.538	-200.000	0.085	-0.369
-213.523	-200.000	-0.012	-0.180
-212.509	-120.876	0.147	0.024
-211.494	124.276	-0.063	0.078
-210.479	-39.912	0.263	-0.135
-209.465	98.273	-0.049	-0.056
-208.450	333.995	0.058	0.110
-207.436	17.929	0.242	0.190
-206.421	167.797	-0.120	0.168
-205.406	-69.672	-0.068	0.026
-204.392	-148.567	-0.437	-0.035
-203.377	16.381	-0.144	0.112
-202.363	-200.000	-0.027	0.158
-201.348	-128.156	-0.248	-0.035
-200.333	51.096	0.182	0.170
-199.319	-200.000	0.015	0.293
-198.304	-200.000	-0.080	-0.425
-197.290	311.445	-0.113	-0.208
-196.275	-200.000	-0.014	-0.293
-195.260	-103.861	0.281	-0.065
-194.246	496.327	-0.055	-0.124
-193.231	68.983	0.126	0.127
-192.217	800.000	0.102	-0.412
-191.202	9.353	0.353	0.263
-190.187	507.377	-0.025	0.056
-189.173	59.401	-0.286	-0.277
-188.158	56.135	-0.113	-0.108
-187.144	-200.000	-0.034	0.469
-186.129	-139.481	-0.202	0.021
-185.114	-119.949	0.031	0.005
-184.100	-200.000	-0.009	0.167
-183.085	-46.052	-0.161	-0.078
-182.071	-137.605	-0.182	-0.020
-181.056	159.197	-0.040	0.054
-180.042	-200.000	-0.005	0.179
-179.027	20.175	-0.056	-0.044
-178.012	56.627	0.188	0.180
-176.998	-120.179	-0.311	0.052
-175.983	493.157	-0.050	0.113
-174.969	264.254	-0.144	0.247
-173.954	800.000	-0.060	-0.163
-172.939	-121.891	0.076	-0.012
-171.925	-36.777	0.075	0.040
-170.910	626.975	-0.036	0.089
-169.896	79.192	-0.075	-0.079
-168.881	122.072	0.193	-0.237
-167.866	-29.751	-0.170	-0.095
-166.852	-200.000	-0.012	-0.284
-165.837	800.000	-0.050	0.150
-164.823	-139.691	0.309	0.032
-163.808	-200.000	-0.025	0.285
-162.793	-105.672	0.144	-0.032
-161.779	-70.226	0.236	-0.088
-160.764	800.000	0.055	0.218
-159.750	-118.973	-0.061	0.011
-158.735	49.595	-0.083	0.077
-157.720	-200.000	-0.041	0.381
-156.706	-28.873	0.090	-0.051
-155.691	-127.418	0.234	-0.034
-154.677	309.746	-0.174	-0.320
-153.662	231.297	0.046	-0.074
-152.647	124.379	0.115	0.142
-151.633	-124.565	-0.218	0.033
-150.618	-165.290	0.199	0.009
-149.604	245.345	-0.215	-0.355
-148.589	105.525	-0.107	0.125
-147.574	145.681	-0.224	0.294
-146.560	-200.000	-0.065	0.316
-145.545	-200.000	-0.100	0.550
-144.531	-200.000	-0.029	-0.241
-143.516	-114.864	-0.152	0.029
-142.502	-157.718	-0.145	0.008
-141.487	-180.173	-0.474	0.010
-140.472	74.248	0.185	0.190
-139.458	-200.000	0.056	0.392
-138.443	22.252	0.365	0.293
-137.429	97.258	-0.102	-0.115
-136.414	721.041	0.124	0.324
-135.399	-101.005	-0.353	-0.085
-134.385	-200.000	0.132	-0.000
-133.370	-188.769	0.088	0.001
-132.356	-0.868	0.094	-0.065
-131.341	69.872	0.106	0.108
-130.326	-71.979	-0.235	-0.086
-129.312	132.267	-0.194	-0.246
-128.297	9.768	-0.130	-0.097
-127.283	587.379	-0.073	-0.175
-126.268	-124.497	-0.136	0.021
-125.253	-87.588	-0.343	-0.102
-124.239	637.540	0.168	-0.420
-123.224	-200.000	0.009	-0.207
-122.210	142.451	-0.237	-0.309
-121.195	58.649	0.175	-0.168
