DTS Sentinel unit serial number:	SN413079Multiplexer serial number:	ORYXHardware model number:	OX4-SRSoftware version number:	ORYX F/W v4.00 Oryx Data Collector v3.7.2.0data status	okinstallation	princeton_trtdifferential loss correction	single-endedforward channel	channel 1reverse channel	N/Adate	2019/09/11time	02:48:11forward acquisition time	60.00reverse acquisition time	0.00gamma	496.2192k internal	0.2331k external	0.2331temperature offset calibration	0.9929default loss term (dB/km)	0.3790temperature slope calibration	1.0000multiplexer offset coefficient	1.0000multiplexer slope coefficient	1.0000fibre end	0.00T internal ref (°C)	29.25T ext. ref 1 (°C)	-0.28T ext. ref 2 (°C)	23.34length (m)	temperature (°C)	Stokes	anti-Stokes-747.200	-71.479	0.291	0.110
-746.185	-43.908	0.244	0.123
-745.171	715.173	-0.071	0.190
-744.156	-136.375	0.086	0.010
-743.142	184.964	-0.095	0.142
-742.127	-89.407	-0.235	-0.070
-741.112	-200.000	-0.002	-0.314
-740.098	147.094	0.355	0.481
-739.083	-128.547	-0.280	-0.040
-738.069	-200.000	-0.002	0.182
-737.054	104.855	0.133	0.157
-736.039	-30.534	-0.549	-0.313
-735.025	679.279	0.057	0.148
-734.010	190.432	-0.258	-0.390
-732.996	22.350	0.090	-0.074
-731.981	147.496	-0.071	-0.097
-730.966	595.108	-0.092	-0.229
-729.952	-54.995	0.156	0.071
-728.937	-2.783	0.015	0.010
-727.923	93.112	-0.072	-0.082
-726.908	-200.000	0.044	-0.301
-725.894	-121.867	0.054	-0.009
-724.879	-70.594	-0.326	-0.124
-723.864	29.687	0.017	0.015
-722.850	172.706	-0.203	-0.294
-721.835	-25.683	-0.031	-0.019
-720.821	29.647	0.071	-0.061
-719.806	381.093	-0.111	-0.230
-718.791	48.381	-0.306	-0.288
-717.777	79.828	-0.069	0.074
-716.762	800.000	-0.107	0.372
-715.748	-200.000	0.010	-0.397
-714.733	-93.545	-0.202	-0.056
-713.718	-189.208	0.135	-0.002
-712.704	-200.000	0.069	-0.401
-711.689	-200.000	-0.011	-0.285
-710.675	123.369	-0.089	0.112
-709.660	10.589	-0.302	-0.231
-708.645	301.791	0.112	0.208
-707.631	800.000	0.080	-0.326
-706.616	-112.299	0.205	-0.041
-705.602	139.487	0.093	-0.124
-704.587	25.292	-0.281	-0.234
-703.572	800.000	0.032	-0.108
-702.558	53.912	-0.190	-0.184
-701.543	-149.442	-0.275	-0.022
-700.529	-2.228	0.441	0.311
-699.514	5.531	-0.218	0.162
-698.499	291.072	0.060	0.110
-697.485	51.749	-0.254	0.243
-696.470	-29.150	0.168	0.097
-695.456	-109.560	-0.216	-0.046
-694.441	-200.000	-0.038	-0.169
-693.426	-51.927	-0.136	-0.064
-692.412	3.039	0.328	-0.239
-691.397	181.479	0.016	-0.024
-690.383	135.382	-0.153	-0.199
-689.368	119.994	-0.113	0.140
-688.354	-116.102	0.198	-0.037
-687.339	-57.038	0.357	-0.158
-686.324	-200.000	0.051	-0.295
-685.310	-135.915	-0.140	-0.017
-684.295	192.598	-0.155	-0.234
-683.281	-91.556	-0.119	-0.034
-682.266	40.530	-0.084	0.076
-681.251	13.474	-0.056	0.043
-680.237	-105.446	-0.403	0.092
-679.222	61.037	0.234	0.233
-678.208	163.471	-0.041	-0.058
-677.193	-89.852	0.386	-0.113
-676.178	-55.022	-0.295	0.133
-675.164	-0.893	0.429	0.305
-674.149	800.000	-0.082	0.248
-673.135	-76.215	-0.217	0.077
-672.120	38.641	-0.100	-0.089
-671.105	-200.000	-0.000	0.154
-670.091	800.000	0.048	-0.142
-669.076	-35.345	-0.107	-0.058
-668.062	30.922	0.195	-0.168
-667.047	-200.000	0.026	0.322
-666.032	-30.282	-0.155	0.088
-665.018	264.904	0.031	-0.054
-664.003	336.826	-0.121	-0.235
-662.989	-9.243	0.292	-0.196
-661.974	-113.782	-0.068	-0.013
-660.959	-21.781	-0.158	-0.097
-659.945	169.856	-0.149	-0.214
-658.930	15.221	0.241	0.189
-657.916	264.117	-0.048	-0.084
-656.901	131.620	-0.045	-0.059
-655.886	731.806	0.024	0.063
-654.872	434.812	-0.094	-0.206
-653.857	-115.432	-0.348	-0.066
-652.843	224.695	-0.107	-0.173
-651.828	-84.919	-0.302	-0.095
-650.814	-200.000	0.068	-0.357
-649.799	324.984	0.045	-0.087
-648.784	-128.384	-0.163	0.023
-647.770	256.453	0.070	0.121
-646.755	-185.057	0.276	0.004
-645.741	-81.210	0.074	-0.024
-644.726	-125.112	0.381	0.059
-643.711	32.777	-0.140	-0.122
-642.697	-200.000	0.066	0.296
-641.682	-136.383	-0.271	0.032
-640.668	-200.000	-0.002	0.042
-639.653	8.128	0.079	-0.060
-638.638	-136.424	-0.346	0.040
-637.624	-200.000	-0.023	-0.100
-636.609	569.743	-0.095	-0.231
-635.595	800.000	0.055	-0.229
-634.580	-45.532	0.366	-0.181
-633.565	186.138	0.229	-0.341
-632.551	-200.000	0.063	0.408
-631.536	-60.244	-0.138	0.059
-630.522	-200.000	-0.013	0.095
-629.507	567.746	0.162	0.394
-628.492	-68.791	-0.257	-0.099
-627.478	-85.772	-0.176	0.055
-626.463	-167.757	0.154	0.006
-625.449	563.698	0.108	-0.261
-624.434	50.172	-0.220	-0.208
-623.419	757.607	-0.176	0.477
-622.405	-41.625	0.039	-0.020
-621.390	214.755	-0.234	-0.372
-620.376	-153.484	-0.240	0.017
-619.361	283.812	-0.221	0.398
-618.346	-9.802	-0.383	-0.255
-617.332	582.542	-0.046	0.112
-616.317	800.000	-0.087	-0.322
-615.303	-93.431	-0.282	0.078
-614.288	-13.185	0.153	0.100
-613.273	107.523	-0.202	-0.240
-612.259	-200.000	0.019	-0.119
-611.244	-105.820	-0.445	0.101
-610.230	-200.000	0.019	-0.117
-609.215	800.000	-0.003	0.013
-608.201	-117.429	0.123	-0.022
-607.186	413.015	-0.099	-0.210
-606.171	77.985	0.238	-0.254
-605.157	-200.000	-0.012	0.069
-604.142	-22.650	-0.165	0.100
-603.128	-156.404	0.222	0.014
-602.113	-56.849	0.089	0.040
-601.098	-48.416	-0.541	0.261
-600.084	120.713	-0.191	-0.238
-599.069	80.236	-0.083	0.090
-598.055	236.833	-0.135	-0.223
-597.040	-200.000	-0.016	0.153
-596.025	800.000	-0.048	-0.143
-595.011	619.612	0.064	-0.160
-593.996	-8.203	0.246	0.165
-592.982	-200.000	0.035	-0.257
-591.967	-200.000	0.003	0.176
-590.952	-148.429	-0.348	-0.029
-589.938	99.526	0.223	-0.259
-588.923	-51.537	0.161	-0.075
-587.909	453.017	-0.020	-0.044
-586.894	-200.000	-0.001	0.009
-585.879	-43.107	-0.132	0.067
-584.865	-200.000	0.030	-0.144
-583.850	14.267	-0.168	-0.131
-582.836	-54.754	-0.369	-0.167
-581.821	533.880	0.079	-0.188
-580.806	-100.519	0.068	0.017
-579.792	-154.101	-0.234	-0.016
-578.777	-106.698	-0.197	0.044
-577.763	-200.000	0.009	-0.226
-576.748	-147.561	0.257	0.022
-575.733	800.000	-0.097	-0.370
-574.719	284.784	-0.064	-0.115
-573.704	-200.000	0.027	0.140
-572.690	-104.556	0.191	-0.044
-571.675	800.000	-0.100	-0.321
-570.661	276.535	0.098	-0.175
-569.646	-44.626	0.136	-0.068
-568.631	139.693	0.138	0.181
-567.617	487.321	0.036	-0.082
-566.602	-137.981	0.466	0.052
-565.588	-200.000	-0.016	-0.097
-564.573	289.255	-0.164	0.297
-563.558	-81.113	-0.200	0.066
-562.544	-24.475	0.321	-0.191
-561.529	800.000	0.090	0.281
-560.515	800.000	-0.057	0.164
-559.500	800.000	-0.110	0.369
-558.485	150.516	0.202	-0.274
-557.471	-98.513	-0.063	-0.016
-556.456	-200.000	0.009	0.248
-555.442	535.453	-0.062	0.147
-554.427	656.933	0.049	0.125
-553.412	800.000	0.048	0.167
-552.398	660.699	0.029	-0.075
-551.383	-200.000	0.025	0.263
-550.369	20.359	0.048	0.039
-549.354	-42.819	-0.163	-0.083
-548.339	7.593	0.290	0.217
-547.325	-200.000	-0.072	0.482
-546.310	115.139	0.027	0.033
-545.296	800.000	-0.047	-0.135
-544.281	800.000	-0.009	-0.031
-543.266	-154.362	-0.298	-0.020
-542.252	236.603	0.149	-0.247
-541.237	291.797	-0.101	0.184
-540.223	-74.559	0.233	-0.084
-539.208	800.000	-0.090	-0.276
-538.193	800.000	0.000	-0.001
-537.179	724.172	0.058	-0.154
-536.164	-45.569	-0.107	0.053
-535.150	-129.039	0.232	0.032
-534.135	-69.802	0.151	-0.058
-533.121	0.652	-0.074	-0.053
-532.106	6.136	0.025	0.019
-531.091	483.447	0.176	-0.399
-530.077	-175.646	-0.218	0.006
-529.062	-94.472	0.343	-0.093
-528.048	147.990	-0.154	-0.207
-527.033	-41.771	-0.020	0.010
-526.018	-200.000	0.000	0.169
-525.004	640.143	0.135	-0.343
-523.989	27.535	0.114	0.095
-522.975	107.482	0.129	0.153
-521.960	-6.801	-0.230	0.156
-520.945	-75.837	-0.158	-0.056
-519.931	-200.000	-0.003	-0.177
-518.916	-89.573	0.278	0.081
-517.902	-152.758	0.089	0.006
-516.887	37.190	-0.099	0.088
-515.872	-200.000	-0.036	-0.177
-514.858	-9.917	-0.258	0.171
-513.843	-68.029	0.069	0.027
-512.829	-200.000	0.034	-0.174
-511.814	431.313	0.118	0.255
-510.799	198.063	-0.134	0.204
-509.785	-97.403	0.261	-0.068
-508.770	800.000	-0.108	0.408
-507.756	-41.566	0.087	0.045
-506.741	-162.640	-0.267	0.013
-505.726	-117.951	0.173	0.031
-504.712	-200.000	-0.018	0.110
-503.697	-141.204	-0.435	0.044
-502.683	-172.955	0.328	0.010
-501.668	-180.391	-0.103	-0.002
-500.653	-108.101	0.179	0.039
-499.639	-11.153	-0.414	0.272
-498.624	-200.000	-0.005	-0.163
-497.610	-47.556	0.372	-0.180
-496.595	800.000	-0.043	-0.142
-495.581	193.965	-0.115	0.173
-494.566	-40.640	0.308	0.159
-493.551	-15.104	-0.065	0.041
-492.537	800.000	-0.065	0.185
-491.522	-29.558	-0.236	0.134
-490.508	-126.729	0.280	-0.041
-489.493	800.000	0.068	0.191
-488.478	215.525	-0.179	-0.283
-487.464	62.966	0.104	0.103
-486.449	800.000	-0.130	0.503
-485.435	-109.818	0.170	0.036
-484.420	-40.062	-0.067	-0.035
-483.405	43.056	-0.200	0.182
-482.391	174.976	0.254	-0.367
-481.376	800.000	-0.037	0.133
-480.362	-200.000	-0.020	0.349
-479.347	262.692	-0.110	0.191
-478.332	-148.916	-0.076	0.006
-477.318	577.628	0.103	0.251
-476.303	-58.460	-0.178	-0.077
-475.289	-48.009	-0.208	-0.100
-474.274	521.098	0.082	0.192
-473.259	-101.723	-0.039	-0.009
-472.245	-200.000	0.033	0.147
-471.230	-19.812	-0.092	-0.056
-470.216	80.231	0.092	-0.098
-469.201	-18.386	-0.375	-0.233
-468.186	753.278	0.124	-0.335
-467.172	-49.908	-0.312	-0.147
-466.157	3.378	0.029	-0.021
-465.143	-94.378	0.101	-0.027
-464.128	-55.192	0.514	0.230
-463.113	-90.351	0.475	0.137
-462.099	-68.165	-0.083	-0.032
-461.084	800.000	0.072	0.285
-460.070	-32.353	-0.021	-0.012
-459.055	378.896	0.094	-0.191
-458.040	32.031	-0.214	0.184
-457.026	-150.441	-0.452	0.035
-456.011	115.752	-0.059	0.072
-454.997	-89.028	0.341	0.100
-453.982	-162.705	-0.259	0.013
-452.968	-140.228	-0.213	-0.022
-451.953	53.153	-0.261	0.248
-450.938	-90.862	0.193	0.055
-449.924	-169.232	-0.250	-0.009
-448.909	297.786	0.065	-0.119
-447.895	-23.143	0.175	-0.105
-446.880	-200.000	-0.002	-0.104
-445.865	-83.379	0.245	0.078
-444.851	-200.000	-0.016	-0.071
-443.836	-200.000	-0.005	-0.132
-442.822	-200.000	-0.092	-0.402
-441.807	9.365	0.337	-0.254
-440.792	-143.184	0.262	0.025
-439.778	800.000	0.090	0.307
-438.763	800.000	-0.134	0.420
-437.749	-200.000	-0.027	-0.459
-436.734	144.067	-0.247	-0.327
-435.719	82.881	0.077	0.084
-434.705	-132.242	0.354	-0.046
-433.690	-66.844	-0.035	-0.014
-432.676	34.246	-0.093	-0.081
-431.661	360.373	-0.083	-0.165
-430.646	-55.699	0.379	-0.169
-429.632	-121.556	0.175	0.029
-428.617	95.218	-0.128	0.145
-427.603	124.885	-0.145	-0.181
-426.588	-86.575	0.184	0.056
-425.573	414.026	-0.102	-0.217
-424.559	-200.000	0.002	0.033
-423.544	77.079	-0.088	0.093
-422.530	55.013	0.236	0.227
-421.515	190.980	-0.173	0.258
-420.500	800.000	0.101	-0.338
-419.486	117.225	0.164	0.200
-418.471	-200.000	0.012	-0.227
-417.457	-28.925	0.131	0.075
-416.442	135.991	-0.132	0.170
-415.428	685.043	-0.067	-0.175
-414.413	-36.121	0.201	0.108
-413.398	-200.000	-0.017	-0.261
-412.384	735.563	0.091	0.242
-411.369	75.171	0.047	-0.049
-410.355	-35.593	-0.125	0.068
-409.340	-16.090	0.241	0.152
-408.325	-200.000	0.065	0.301
-407.311	-200.000	-0.006	0.047
-406.296	-200.000	-0.031	-0.295
-405.282	800.000	-0.047	0.149
-404.267	62.055	-0.150	0.148
-403.252	98.262	-0.153	0.175
-402.238	308.123	0.099	-0.184
-401.223	-119.278	-0.360	0.062
-400.209	125.309	-0.012	-0.015
-399.194	-200.000	0.021	0.136
-398.179	-134.156	-0.187	0.023
-397.165	-165.614	0.135	0.006
-396.150	-200.000	0.013	0.058
-395.136	225.867	-0.110	-0.178
-394.121	-41.318	0.301	0.154
-393.106	236.346	-0.106	0.174
-392.092	566.423	-0.096	-0.232
-391.077	-30.726	0.213	-0.120
-390.063	123.712	0.271	-0.338
-389.048	-200.000	0.011	0.068
-388.033	800.000	-0.019	-0.076
-387.019	-10.980	0.134	0.088
-386.004	-102.277	-0.257	-0.061
-384.990	800.000	0.089	0.269
-383.975	-167.477	-0.274	-0.011
-382.960	2.287	-0.242	-0.174
-381.946	-1.207	0.125	0.088
-380.931	800.000	0.077	-0.283
-379.917	4.060	-0.101	-0.074
-378.902	621.689	-0.088	-0.221
-377.888	800.000	-0.081	0.250
-376.873	-135.236	0.162	0.019
-375.858	800.000	0.116	-0.408
-374.844	250.334	0.137	-0.231
-373.829	8.049	0.244	-0.182
-372.815	228.279	0.136	0.220
-371.800	-20.282	-0.067	-0.041
-370.785	-30.357	-0.193	0.108
-369.771	189.812	0.177	0.263
-368.756	-27.047	-0.142	0.082
-367.742	38.303	-0.066	0.058
-366.727	120.405	-0.086	-0.106
-365.712	346.832	-0.081	0.158
-364.698	-103.644	0.348	-0.081
-363.683	272.768	0.028	0.048
-362.669	-200.000	0.069	0.316
-361.654	-200.000	0.046	-0.238
-360.639	-76.532	-0.268	-0.093
-359.625	-50.136	-0.356	-0.167
-358.610	-75.727	0.069	0.024
-357.596	476.261	-0.170	-0.380
-356.581	188.010	0.305	-0.452
-355.566	71.535	-0.147	0.151
-354.552	800.000	0.037	-0.124
-353.537	-78.341	-0.122	-0.042
-352.523	-96.312	-0.243	0.064
-351.508	15.108	0.104	0.081
-350.493	800.000	-0.073	0.215
-349.479	398.233	-0.155	0.321
-348.464	54.005	-0.067	-0.064
-347.450	227.574	0.231	0.373
-346.435	372.531	0.073	0.147
-345.420	-200.000	0.008	0.271
-344.406	-119.240	-0.460	-0.079
-343.391	79.086	-0.257	-0.273
-342.377	-128.806	0.146	-0.020
-341.362	-54.061	-0.006	0.003
-340.348	81.194	0.179	0.192
-339.333	249.603	-0.031	-0.053
-338.318	-38.232	-0.105	0.055
-337.304	245.426	0.145	0.242
-336.289	-122.794	-0.082	-0.013
-335.275	152.719	0.097	0.131
-334.260	58.895	0.169	-0.165
-333.245	800.000	-0.086	0.269
-332.231	-123.285	0.056	0.009
-331.216	-200.000	-0.015	-0.108
-330.202	-156.950	0.395	0.024
-329.187	-127.263	0.306	0.044
-328.172	13.207	-0.235	-0.180
-327.158	-173.545	-0.137	-0.004
-326.143	-200.000	0.019	0.188
-325.129	18.399	-0.303	-0.240
-324.114	43.585	-0.116	0.105
-323.099	85.513	-0.010	0.011
-322.085	800.000	-0.090	0.379
-321.070	-110.513	-0.456	0.094
-320.056	222.116	-0.095	0.151
-319.041	216.516	-0.042	-0.066
-318.026	75.334	0.138	-0.144
-317.012	743.345	0.062	-0.165
-315.997	23.162	0.054	-0.044
-314.983	-93.596	-0.248	0.068
-313.968	65.102	0.070	-0.070
-312.953	32.728	0.142	-0.122
-311.939	-141.682	0.165	-0.016
-310.924	-58.464	0.149	-0.064
-309.910	35.389	-0.134	-0.117
-308.895	-181.467	-0.279	-0.005
-307.880	-65.648	0.209	-0.083
-306.866	-43.894	-0.344	-0.171
-305.851	-200.000	0.001	0.191
-304.837	-200.000	0.073	0.334
-303.822	501.446	-0.122	0.278
-302.807	-200.000	0.002	-0.098
-301.793	594.210	-0.094	-0.231
-300.778	-175.328	0.166	-0.005
-299.764	-2.995	-0.132	-0.091
-298.749	-200.000	-0.056	0.375
-297.735	-164.777	-0.324	0.014
-296.720	312.142	-0.031	-0.057
-295.705	177.777	-0.212	0.306
-294.691	-200.000	0.041	0.424
-293.676	-66.551	-0.089	-0.035
-292.662	31.578	-0.316	-0.269
-291.647	238.239	-0.131	-0.215
-290.632	-128.033	-0.257	-0.036
-289.618	-200.000	-0.044	0.221
-288.603	800.000	0.031	0.088
-287.589	-200.000	-0.108	-0.000
-286.574	-55.809	0.190	-0.084
-285.559	48.566	-0.085	0.078
-284.545	441.514	-0.062	0.133
-283.530	58.135	0.094	-0.091
-282.516	-34.842	0.407	-0.220
-281.501	-200.000	-0.001	-0.005
-280.486	-76.615	0.305	-0.106
-279.472	536.975	0.031	0.073
-278.457	-20.122	0.201	-0.123
-277.443	-51.246	-0.079	-0.036
-276.428	-85.717	0.346	-0.106
-275.413	-68.882	0.144	0.055
-274.399	307.149	0.165	0.305
-273.384	270.867	0.098	0.170
-272.370	-70.789	-0.278	-0.104
-271.355	347.357	0.098	-0.191
-270.340	-10.011	0.208	0.137
-269.326	800.000	-0.079	-0.254
-268.311	-200.000	0.005	0.042
-267.297	-10.838	0.260	0.170
-266.282	-200.000	-0.086	0.414
-265.267	-56.646	0.273	0.120
-264.253	-142.651	-0.192	0.019
-263.238	177.980	-0.051	0.074
-262.224	-8.209	-0.289	-0.192
-261.209	-136.970	-0.374	0.042
-260.195	-200.000	-0.047	0.306
-259.180	11.283	0.349	-0.264
-258.165	-25.251	-0.183	0.107
-257.151	-15.079	0.231	0.146
-256.136	164.005	-0.205	0.286
-255.122	-200.000	-0.018	0.315
-254.107	-117.463	0.154	0.028
-253.092	405.062	0.004	-0.008
-252.078	-200.000	-0.002	-0.207
-251.063	-200.000	0.019	-0.123
-250.049	766.976	-0.021	0.057
-249.034	-40.144	-0.043	0.022
-248.019	-200.000	-0.023	0.153
-247.005	480.499	0.046	0.104
-245.990	262.766	0.015	-0.025
-244.976	-149.259	-0.188	-0.015
-243.961	800.000	0.032	-0.102
-242.946	-98.332	0.442	0.112
-241.932	567.296	-0.026	-0.063
-240.917	-61.331	-0.082	0.034
-239.903	84.598	0.087	-0.094
-238.888	183.166	-0.090	-0.131
-237.873	12.014	0.364	-0.276
-236.859	110.284	0.149	0.177
-235.844	-200.000	-0.001	0.172
-234.830	-67.009	-0.189	-0.074
-233.815	97.056	0.056	0.063
-232.800	800.000	-0.056	0.165
-231.786	-200.000	0.050	-0.405
-230.771	-200.000	0.045	-0.353
-229.757	51.945	0.173	0.162
-228.742	-86.038	-0.266	0.081
-227.727	-46.312	0.187	0.091
-226.713	59.293	-0.110	-0.107
-225.698	-180.764	0.345	0.007
-224.684	-144.191	0.395	0.036
-223.669	609.585	-0.112	0.277
-222.655	-35.537	0.115	-0.062
-221.640	-31.043	-0.187	-0.104
-220.625	-164.347	-0.138	-0.006
-219.611	-82.778	0.386	0.123
-218.596	-30.493	-0.180	0.101
-217.582	273.584	0.066	0.115
-216.567	177.647	-0.052	0.074
-215.552	277.116	-0.171	-0.300
-214.538	-99.872	0.241	0.059
-213.523	-52.355	-0.318	-0.145
-212.509	70.948	0.098	-0.100
-211.494	496.328	0.029	0.065
-210.479	-200.000	-0.001	0.085
-209.465	17.054	-0.330	-0.258
-208.450	-200.000	0.044	-0.206
-207.436	-60.484	0.152	-0.064
-206.421	103.472	0.223	-0.258
-205.406	165.981	0.198	-0.276
-204.392	83.711	-0.232	-0.249
-203.377	-4.735	0.178	0.121
-202.363	-200.000	0.063	0.278
-201.348	800.000	-0.021	0.061
-200.333	-43.492	-0.377	0.188
-199.319	-10.810	0.185	0.120
-198.304	-115.786	-0.238	0.044
-197.290	-139.214	-0.117	0.012
-196.275	-200.000	0.005	0.248
-195.260	88.341	-0.079	-0.086
-194.246	800.000	-0.066	-0.226
-193.231	115.368	0.408	-0.490
-192.217	230.304	0.054	0.086
-191.202	-58.846	-0.174	0.074
-190.187	-156.414	-0.087	0.005
-189.173	-200.000	0.023	-0.103
-188.158	-69.474	0.250	-0.094
-187.144	-121.999	0.068	-0.011
-186.129	-33.340	0.066	-0.036
-185.114	170.732	-0.180	-0.254
-184.100	8.946	-0.140	0.104
-183.085	335.172	-0.075	0.143
-182.071	-109.001	-0.137	0.029
-181.056	-200.000	-0.005	-0.069
-180.042	59.324	0.152	-0.147
-179.027	800.000	0.081	-0.236
-178.012	-200.000	0.020	-0.472
-176.998	-43.023	-0.028	0.014
-175.983	-200.000	-0.008	0.130
-174.969	-200.000	-0.023	0.224
-173.954	-200.000	-0.003	-0.060
-172.939	-111.059	0.240	-0.048
-171.925	800.000	-0.115	0.367
-170.910	-81.369	0.321	0.104
-169.896	35.899	0.284	0.245
-168.881	-116.572	-0.261	-0.047
-167.866	-129.147	0.176	-0.024
-166.852	407.406	-0.186	-0.386
-165.837	800.000	-0.081	0.226
-164.823	82.972	-0.093	-0.099
-163.808	665.700	0.128	-0.324
-162.793	57.440	0.273	-0.262
-161.779	800.000	-0.040	-0.130
-160.764	-46.877	0.182	-0.087
-159.750	-149.176	0.366	-0.029
-158.735	-103.826	0.271	-0.062
-157.720	18.191	0.207	0.163
-156.706	378.715	0.078	0.157
-155.691	-79.300	-0.199	0.066
-154.677	144.671	-0.077	-0.101
-153.662	-37.564	-0.139	-0.073
-152.647	610.387	0.088	0.217
-151.633	9.713	-0.174	-0.130
-150.618	800.000	-0.062	-0.212
-149.604	-164.969	0.199	-0.009
-148.589	-124.178	-0.210	-0.032
-147.574	800.000	0.087	-0.319
-146.560	-82.948	-0.123	-0.039
-145.545	92.765	0.174	-0.193
-144.531	-200.000	0.013	0.078
-143.516	641.722	-0.056	-0.141
-142.502	148.489	-0.266	-0.354
-141.487	800.000	0.074	0.225
-140.472	165.356	0.037	0.052
-139.458	-200.000	-0.008	0.097
-138.443	-96.526	-0.166	-0.043
-137.429	623.077	0.104	-0.258
-136.414	800.000	0.115	0.317
-135.399	481.723	-0.218	0.485
-134.385	218.726	0.141	0.221
-133.370	-25.694	-0.069	0.040
-132.356	-200.000	0.002	-0.229
-131.341	120.067	0.258	-0.314
-130.326	-200.000	0.006	0.045
-129.312	29.489	-0.116	-0.097
-128.297	-33.036	-0.387	0.211
-127.283	648.916	0.120	0.302
-126.268	800.000	0.025	0.078
-125.253	-122.274	0.257	-0.041
-124.239	72.354	0.081	-0.083
-123.224	-200.000	0.011	-0.181
-122.210	-64.210	-0.164	-0.066
