DTS Sentinel unit serial number:	SN413079Multiplexer serial number:	ORYXHardware model number:	OX4-SRSoftware version number:	ORYX F/W v4.00 Oryx Data Collector v3.7.2.0data status	okinstallation	princeton_trtdifferential loss correction	single-endedforward channel	channel 1reverse channel	N/Adate	2019/09/12time	05:04:11forward acquisition time	60.00reverse acquisition time	0.00gamma	496.2192k internal	0.2322k external	0.2322temperature offset calibration	1.0059default loss term (dB/km)	0.3790temperature slope calibration	1.0000multiplexer offset coefficient	1.0000multiplexer slope coefficient	1.0000fibre end	0.00T internal ref (°C)	31.75T ext. ref 1 (°C)	1.71T ext. ref 2 (°C)	27.08length (m)	temperature (°C)	Stokes	anti-Stokes-747.200	423.638	-0.126	-0.274
-746.185	-200.000	-0.045	0.262
-745.171	290.671	-0.070	-0.128
-744.156	80.805	-0.324	0.353
-743.142	800.000	0.134	0.432
-742.127	-200.000	0.024	0.223
-741.112	209.636	-0.118	-0.186
-740.098	-77.686	0.247	0.086
-739.083	-147.349	0.133	0.011
-738.069	36.151	-0.344	0.306
-737.054	-100.526	0.443	-0.111
-736.039	361.152	0.190	0.384
-735.025	65.450	0.137	-0.140
-734.010	-103.622	-0.394	-0.093
-732.996	-111.551	0.135	-0.028
-731.981	-173.293	0.146	-0.004
-730.966	-54.672	0.053	0.024
-729.952	800.000	-0.033	-0.113
-728.937	-19.570	-0.193	-0.121
-727.923	-50.857	-0.270	-0.128
-726.908	-200.000	0.021	-0.196
-725.894	67.757	-0.436	-0.450
-724.879	305.843	-0.100	-0.188
-723.864	0.826	-0.166	0.120
-722.850	40.901	-0.188	0.171
-721.835	427.196	-0.053	-0.115
-720.821	106.716	-0.183	-0.220
-719.806	800.000	-0.104	-0.333
-718.791	-54.249	-0.270	-0.124
-717.777	-61.837	0.037	0.016
-716.762	-132.269	-0.527	-0.069
-715.748	800.000	0.050	-0.198
-714.733	-100.472	-0.113	0.028
-713.718	160.821	-0.164	-0.231
-712.704	24.998	-0.056	0.047
-711.689	-200.000	-0.012	-0.501
-710.675	-200.000	-0.028	0.324
-709.660	-152.099	0.412	-0.030
-708.645	-62.252	0.074	0.031
-707.631	232.401	-0.167	-0.277
-706.616	-2.655	0.133	-0.094
-705.602	58.672	-0.265	-0.262
-704.587	26.872	-0.106	0.090
-703.572	157.139	-0.135	-0.189
-702.558	-79.093	-0.112	-0.038
-701.543	87.465	-0.035	0.039
-700.529	-166.983	-0.207	-0.009
-699.514	97.602	0.161	0.187
-698.499	-59.122	-0.252	-0.109
-697.485	42.551	-0.295	-0.271
-696.470	446.237	0.067	-0.150
-695.456	415.146	0.043	0.092
-694.441	626.748	0.086	-0.219
-693.426	63.628	-0.124	0.126
-692.412	-200.000	0.004	0.185
-691.397	-98.913	0.323	0.083
-690.383	-47.530	-0.294	-0.144
-689.368	87.682	-0.059	0.066
-688.354	74.272	0.235	-0.249
-687.339	-98.040	-0.073	0.019
-686.324	-151.840	-0.144	-0.011
-685.310	-73.209	-0.188	0.069
-684.295	-174.471	0.264	-0.008
-683.281	123.352	-0.221	0.279
-682.266	-27.553	-0.310	-0.181
-681.251	800.000	0.042	-0.129
-680.237	5.432	0.206	-0.153
-679.222	-61.417	-0.253	-0.107
-678.208	9.872	-0.099	-0.076
-677.193	126.535	-0.256	0.327
-676.178	176.370	-0.157	0.229
-675.164	40.068	-0.336	-0.304
-674.149	800.000	-0.008	0.034
-673.135	-139.647	-0.231	-0.025
-672.120	-1.296	-0.368	-0.262
-671.105	527.585	0.069	0.164
-670.091	-200.000	-0.011	0.093
-669.076	-21.485	0.094	0.057
-668.062	-31.451	-0.385	-0.218
-667.047	308.993	0.087	0.164
-666.032	-125.081	-0.170	-0.026
-665.018	-36.075	-0.295	0.160
-664.003	-200.000	0.029	0.172
-662.989	800.000	-0.049	0.157
-661.974	440.987	-0.151	0.333
-660.959	351.067	0.066	0.133
-659.945	355.351	0.028	0.057
-658.930	-155.608	-0.280	-0.018
-657.916	497.168	-0.145	0.336
-656.901	73.848	-0.121	0.128
-655.886	-87.139	-0.173	-0.053
-654.872	-200.000	-0.007	-0.204
-653.857	125.642	-0.192	0.244
-652.843	-200.000	0.010	0.214
-651.828	-113.188	0.210	-0.042
-650.814	107.854	-0.217	0.261
-649.799	-200.000	0.011	0.063
-648.784	163.856	-0.162	-0.230
-647.770	358.710	-0.075	0.150
-646.755	-92.720	-0.177	0.050
-645.741	181.521	0.127	-0.189
-644.726	91.426	-0.088	0.100
-643.711	-200.000	-0.002	-0.191
-642.697	146.320	-0.036	0.048
-641.682	22.244	0.259	-0.213
-640.668	277.418	0.036	0.064
-639.653	0.091	-0.088	0.063
-638.638	-140.222	0.182	-0.019
-637.624	-200.000	-0.034	0.217
-636.609	-154.962	0.328	-0.022
-635.595	800.000	0.091	-0.320
-634.580	38.794	0.278	0.250
-633.565	-96.776	0.063	-0.017
-632.551	-52.597	-0.260	0.121
-631.536	-200.000	0.016	-0.332
-630.522	74.864	0.112	-0.119
-629.507	-70.454	-0.151	-0.057
-628.492	78.891	-0.154	0.166
-627.478	-200.000	-0.015	-0.077
-626.463	-54.132	-0.216	-0.099
-625.449	-84.292	0.192	-0.061
-624.434	-200.000	0.031	0.251
-623.419	800.000	-0.107	-0.421
-622.405	-138.189	0.034	-0.004
-621.390	-60.836	-0.142	0.060
-620.376	-200.000	-0.030	0.344
-619.361	4.915	-0.138	0.102
-618.346	63.381	-0.043	0.043
-617.332	184.920	-0.252	-0.376
-616.317	-63.061	0.226	0.094
-615.303	-38.322	-0.393	0.209
-614.288	-66.030	0.157	-0.063
-613.273	473.942	-0.119	0.269
-612.259	121.938	0.109	0.137
-611.244	-19.013	-0.395	0.247
-610.230	152.387	-0.230	-0.316
-609.215	800.000	0.042	0.117
-608.201	113.651	0.223	-0.272
-607.186	-55.260	-0.225	0.102
-606.171	-200.000	0.057	0.251
-605.157	-25.777	0.116	0.069
-604.142	-154.911	-0.099	-0.007
-603.128	-124.843	0.200	0.031
-602.113	329.547	0.070	-0.136
-601.098	93.050	-0.278	0.316
-600.084	-127.628	-0.061	0.009
-599.069	-24.380	-0.224	-0.134
-598.055	-44.884	0.312	-0.156
-597.040	-103.616	-0.062	0.015
-596.025	-120.720	-0.108	-0.018
-595.011	0.321	0.168	-0.121
-593.996	637.099	0.040	0.103
-592.982	75.872	-0.054	-0.057
-591.967	13.553	-0.141	0.110
-590.952	-74.829	-0.356	0.128
-589.938	800.000	0.013	0.054
-588.923	263.707	-0.055	0.095
-587.909	-200.000	-0.004	-0.200
-586.894	305.961	0.112	0.208
-585.879	-34.703	-0.155	0.085
-584.865	210.321	-0.038	0.060
-583.850	-28.620	-0.185	-0.107
-582.836	355.470	-0.182	-0.363
-581.821	57.264	-0.260	-0.254
-580.806	-140.278	-0.253	0.027
-579.792	49.575	-0.166	-0.157
-578.777	118.637	0.175	-0.216
-577.763	-200.000	0.015	-0.178
-576.748	800.000	-0.132	-0.556
-575.733	800.000	-0.123	0.442
-574.719	-200.000	0.010	0.183
-573.704	201.248	0.208	0.321
-572.690	-200.000	-0.035	-0.244
-571.675	698.363	-0.074	0.196
-570.661	47.478	0.250	-0.234
-569.646	-200.000	-0.043	-0.407
-568.631	-140.453	0.278	0.029
-567.617	317.688	0.095	0.181
-566.602	-200.000	-0.041	0.432
-565.588	-74.097	0.173	-0.063
-564.573	247.555	0.126	-0.214
-563.558	-200.000	-0.030	-0.205
-562.544	-200.000	-0.256	-0.001
-561.529	-145.909	0.211	-0.019
-560.515	548.676	-0.140	-0.336
-559.500	-150.579	0.233	-0.018
-558.485	92.209	0.082	-0.092
-557.471	-200.000	0.102	-0.551
-556.456	800.000	0.124	-0.353
-555.442	-18.787	0.159	-0.099
-554.427	-41.682	0.177	-0.091
-553.412	-12.524	-0.274	-0.179
-552.398	800.000	0.058	-0.200
-551.383	-31.219	0.080	0.045
-550.369	-142.034	-0.238	0.024
-549.354	611.567	0.091	0.227
-548.339	-40.596	0.210	-0.109
-547.325	265.219	0.019	-0.034
-546.310	-115.794	-0.015	-0.003
-545.296	-19.173	-0.190	0.119
-544.281	-31.419	0.092	0.052
-543.266	243.278	0.082	-0.138
-542.252	800.000	0.111	0.438
-541.237	-17.193	-0.145	0.091
-540.223	800.000	-0.138	0.395
-539.208	106.116	-0.134	-0.159
-538.193	257.470	0.128	-0.220
-537.179	-140.087	0.262	0.028
-536.164	29.196	-0.218	-0.185
-535.150	-147.456	-0.437	-0.037
-534.135	10.756	-0.234	-0.179
-533.121	37.407	-0.340	-0.302
-532.106	-200.000	0.005	-0.288
-531.091	-200.000	-0.039	0.214
-530.077	-200.000	0.016	-0.124
-529.062	-105.750	0.195	0.044
-528.048	-18.099	0.217	-0.136
-527.033	54.307	0.032	0.031
-526.018	-70.737	0.239	-0.090
-525.004	800.000	-0.147	-0.508
-523.989	21.574	0.168	-0.137
-522.975	-41.452	-0.245	0.126
-521.960	800.000	-0.053	0.220
-520.945	70.654	0.142	-0.147
-519.931	362.665	-0.170	-0.341
-518.916	-83.803	0.376	0.120
-517.902	49.148	0.339	0.319
-516.887	-75.846	-0.171	0.061
-515.872	-41.450	-0.216	-0.111
-514.858	38.674	-0.240	-0.215
-513.843	-103.825	0.055	-0.013
-512.829	-62.640	-0.345	-0.143
-511.814	57.701	-0.060	0.058
-510.799	290.858	0.076	-0.138
-509.785	285.757	-0.189	0.341
-508.770	-20.638	0.194	-0.119
-507.756	246.898	-0.242	0.409
-506.741	-200.000	0.009	0.048
-505.726	-161.461	0.520	0.027
-504.712	129.477	-0.129	-0.165
-503.697	438.479	-0.077	0.169
-502.683	-66.581	-0.394	-0.156
-501.668	-75.231	-0.146	0.052
-500.653	100.668	-0.059	-0.069
-499.639	-29.990	0.282	-0.161
-498.624	497.599	0.083	-0.191
-497.610	-200.000	0.019	0.109
-496.595	132.906	0.053	0.069
-495.581	800.000	-0.079	-0.289
-494.566	158.976	0.109	-0.152
-493.551	138.653	-0.112	0.148
-492.537	-110.977	-0.135	-0.028
-491.522	22.132	-0.055	0.045
-490.508	-41.168	-0.111	0.057
-489.493	-200.000	0.046	0.205
-488.478	175.110	0.111	-0.160
-487.464	63.029	0.058	0.058
-486.449	407.058	-0.071	-0.151
-485.435	-163.994	0.171	0.008
-484.420	800.000	-0.059	0.180
-483.405	-44.798	0.265	-0.132
-482.391	-18.834	-0.275	-0.171
-481.376	800.000	0.047	-0.191
-480.362	174.451	0.029	0.042
-479.347	-45.444	0.185	0.092
-478.332	531.011	-0.043	-0.101
-477.318	-8.876	-0.292	-0.196
-476.303	-148.449	-0.116	0.009
-475.289	332.481	-0.153	0.296
-474.274	-103.266	-0.043	0.010
-473.259	-98.534	0.336	-0.086
-472.245	800.000	0.062	0.239
-471.230	141.741	0.292	0.387
-470.216	302.031	-0.215	-0.398
-469.201	-103.795	-0.277	0.065
-468.186	-78.453	0.147	-0.050
-467.172	36.105	-0.060	0.053
-466.157	-200.000	0.013	0.082
-465.143	-24.327	0.322	0.192
-464.128	800.000	-0.095	0.273
-463.113	-69.686	-0.149	-0.057
-462.099	-200.000	0.009	0.155
-461.084	66.073	-0.217	-0.220
-460.070	62.424	0.262	0.261
-459.055	-94.529	-0.236	0.064
-458.040	-200.000	0.005	0.068
-457.026	24.170	-0.081	0.067
-456.011	800.000	0.057	-0.182
-454.997	-169.756	0.081	0.003
-453.982	32.736	0.124	-0.107
-452.968	80.797	-0.099	-0.106
-451.953	443.011	0.031	0.068
-450.938	-200.000	0.007	-0.104
-449.924	-200.000	0.013	-0.260
-448.909	91.044	-0.089	-0.100
-447.895	-157.565	0.326	-0.019
-446.880	9.125	-0.324	-0.244
-445.865	-124.124	-0.162	-0.025
-444.851	-41.961	0.182	0.093
-443.836	498.147	-0.122	-0.281
-442.822	327.941	0.152	0.290
-441.807	150.200	-0.102	0.139
-440.792	55.354	0.116	-0.112
-439.778	-42.952	0.053	-0.027
-438.763	-26.020	-0.157	0.092
-437.749	-164.459	0.180	-0.008
-436.734	6.861	0.259	0.192
-435.719	-84.143	-0.176	-0.056
-434.705	406.478	0.045	0.095
-433.690	45.854	0.163	-0.151
-432.676	522.184	0.108	0.252
-431.661	623.549	0.094	-0.237
-430.646	31.999	-0.075	-0.065
-429.632	-114.658	0.050	0.010
-428.617	-122.349	0.259	0.042
-427.603	263.702	-0.308	0.534
-426.588	-96.764	0.197	-0.052
-425.573	-97.280	0.196	-0.051
-424.559	-200.000	0.019	-0.314
-423.544	539.983	-0.087	-0.207
-422.530	-36.368	-0.119	0.064
-421.515	515.352	-0.040	-0.093
-420.500	-38.423	-0.205	-0.108
-419.486	-76.390	0.067	-0.023
-418.471	-98.333	-0.009	0.002
-417.457	57.529	-0.068	0.066
-416.442	-200.000	-0.010	0.049
-415.428	-138.644	-0.322	0.035
-414.413	149.859	-0.080	0.109
-413.398	-12.041	0.140	0.091
-412.384	87.782	0.267	0.295
-411.369	202.743	-0.083	-0.127
-410.355	-200.000	0.003	-0.032
-409.340	-126.309	-0.069	-0.010
-408.325	-157.392	-0.275	-0.017
-407.311	800.000	-0.021	-0.066
-406.296	-86.228	0.048	0.015
-405.282	-124.362	-0.178	-0.028
-404.267	800.000	0.030	0.088
-403.252	-104.382	-0.153	-0.035
-402.238	11.302	0.175	0.133
-401.223	207.169	-0.020	-0.032
-400.209	-99.500	-0.373	-0.094
-399.194	-60.099	0.247	-0.105
-398.179	-124.227	0.159	0.025
-397.165	-200.000	0.054	0.266
-396.150	-200.000	0.049	0.372
-395.136	800.000	0.073	0.247
-394.121	-60.825	0.243	0.103
-393.106	800.000	0.076	0.217
-392.092	-84.896	0.329	-0.103
-391.077	-34.285	0.209	-0.114
-390.063	243.352	0.119	-0.199
-389.048	211.910	0.176	-0.276
-388.033	176.309	0.072	-0.105
-387.019	-64.562	0.084	-0.034
-386.004	800.000	0.031	-0.115
-384.990	537.158	-0.112	-0.264
-383.975	225.952	0.059	-0.096
-382.960	-1.029	0.269	0.189
-381.946	-17.190	0.308	0.194
-380.931	96.150	0.224	0.255
-379.917	255.324	-0.055	-0.093
-378.902	-95.241	-0.270	0.072
-377.888	-130.507	0.125	0.017
-376.873	-200.000	-0.015	0.250
-375.858	-33.935	0.148	-0.081
-374.844	-200.000	0.008	-0.063
-373.829	-96.424	-0.234	-0.062
-372.815	800.000	-0.068	0.278
-371.800	-98.633	0.455	-0.115
-370.785	120.239	0.037	-0.046
-369.771	195.300	-0.057	-0.087
-368.756	539.768	-0.072	-0.170
-367.742	-200.000	0.021	0.220
-366.727	-140.114	0.239	-0.025
-365.712	148.539	-0.048	-0.065
-364.698	50.339	0.295	0.278
-363.683	800.000	-0.064	-0.222
-362.669	-149.757	-0.159	0.012
-361.654	-140.121	0.261	0.027
-360.639	185.268	0.226	0.334
-359.625	254.514	-0.150	0.256
-358.610	-53.213	-0.091	0.041
-357.596	-112.677	-0.205	0.041
-356.581	-97.451	-0.283	-0.073
-355.566	-200.000	-0.055	0.272
-354.552	-47.676	0.057	-0.028
-353.537	-139.025	0.219	0.024
-352.523	-16.870	-0.261	0.164
-351.508	643.886	0.046	0.117
-350.493	270.920	0.026	-0.046
-349.479	-63.881	-0.279	0.114
-348.464	-171.327	0.097	0.003
-347.450	21.337	-0.243	0.196
-346.435	451.823	-0.088	0.193
-345.420	-80.959	0.118	-0.039
-344.406	97.571	-0.133	-0.152
-343.391	-32.784	-0.180	0.099
-342.377	543.831	-0.065	0.154
-341.362	443.449	0.172	-0.376
-340.348	737.668	-0.078	0.209
-339.333	-73.690	-0.358	0.130
-338.318	800.000	0.118	-0.327
-337.304	72.257	0.184	-0.191
-336.289	-58.543	-0.084	-0.036
-335.275	12.033	0.138	-0.106
-334.260	-171.914	-0.184	-0.006
-333.245	1.911	0.227	0.163
-332.231	-57.422	0.179	0.078
-331.216	-99.974	0.186	-0.046
-330.202	-200.000	-0.006	0.073
-329.187	-200.000	-0.018	0.088
-328.172	800.000	-0.062	0.226
-327.158	-0.300	0.242	-0.171
-326.143	479.847	-0.016	-0.036
-325.129	-200.000	-0.023	-0.343
-324.114	536.555	-0.150	-0.353
-323.099	-12.336	0.137	0.089
-322.085	235.076	0.180	-0.296
-321.070	72.628	-0.292	-0.303
-320.056	92.914	-0.264	-0.296
-319.041	50.710	0.239	0.225
-318.026	44.706	-0.076	-0.070
-317.012	-7.583	0.157	0.105
-315.997	-152.110	0.305	-0.022
-314.983	-200.000	0.004	-0.048
-313.968	-20.540	0.128	-0.078
-312.953	-2.855	-0.321	0.223
-311.939	-138.390	0.266	-0.029
-310.924	153.772	0.137	-0.186
-309.910	-54.453	-0.106	-0.048
-308.895	-26.172	-0.200	0.117
-307.880	112.928	0.105	0.127
-306.866	661.923	-0.014	-0.037
-305.851	82.518	-0.206	-0.222
-304.837	-200.000	-0.013	-0.297
-303.822	800.000	-0.098	0.415
-302.807	154.706	-0.226	0.309
-301.793	-57.689	0.380	0.165
-300.778	422.269	-0.056	-0.119
-299.764	-92.139	-0.201	-0.056
-298.749	-132.380	-0.096	-0.012
-297.735	-153.014	0.274	0.019
-296.720	-200.000	-0.015	0.432
-295.705	6.675	0.191	0.141
-294.691	-76.139	0.171	-0.060
-293.676	-200.000	-0.018	0.184
-292.662	457.547	-0.159	0.352
-291.647	-200.000	-0.024	-0.165
-290.632	-130.425	0.245	-0.033
-289.618	-94.675	-0.170	-0.046
-288.603	575.766	-0.060	0.147
-287.589	-200.000	-0.034	-0.237
-286.574	112.587	-0.062	-0.075
-285.559	275.437	-0.173	0.305
-284.545	800.000	0.027	0.114
-283.530	61.052	0.146	0.144
-282.516	800.000	0.070	-0.230
-281.501	492.841	-0.104	0.237
-280.486	-90.650	-0.237	-0.068
-279.472	-200.000	-0.013	0.060
-278.457	800.000	-0.084	0.277
-277.443	197.351	-0.081	0.122
-276.428	-118.773	0.190	-0.033
-275.413	-200.000	-0.002	-0.060
-274.399	294.007	-0.079	0.142
-273.384	-200.000	-0.056	-0.337
-272.370	288.461	-0.011	-0.019
-271.355	-142.498	-0.046	0.004
-270.340	-45.909	0.072	-0.035
-269.326	-84.465	0.057	-0.018
-268.311	-3.870	0.072	-0.049
-267.297	-70.989	0.154	-0.057
-266.282	-21.662	-0.453	-0.274
-265.267	-125.089	0.259	0.039
-264.253	-26.687	-0.374	0.217
-263.238	-75.586	-0.251	-0.088
-262.224	113.026	-0.276	0.331
-261.209	71.293	-0.206	-0.212
-260.195	-129.822	-0.139	-0.019
-259.180	-9.822	0.260	0.172
-258.165	32.049	0.144	0.123
-257.151	0.681	-0.130	0.092
-256.136	119.710	0.060	0.074
-255.122	26.336	0.098	0.081
-254.107	800.000	-0.041	0.173
-253.092	-200.000	-0.057	-0.248
-252.078	25.693	0.113	-0.093
-251.063	92.296	0.096	-0.107
-250.049	-39.985	0.096	-0.049
-249.034	14.426	-0.064	0.049
-248.019	-200.000	0.013	0.288
-247.005	77.218	0.151	0.159
-245.990	340.670	0.053	0.102
-244.976	-200.000	0.043	0.208
-243.961	328.680	-0.132	-0.251
-242.946	-200.000	-0.016	-0.238
-241.932	-200.000	-0.083	-0.415
-240.917	45.789	-0.118	0.108
-239.903	-200.000	0.037	-0.346
-238.888	-74.807	0.497	-0.177
-237.873	-46.771	0.306	0.149
-236.859	-66.598	-0.071	-0.028
-235.844	521.344	-0.027	-0.062
-234.830	-142.456	-0.148	0.014
-233.815	-65.243	-0.445	0.178
-232.800	-200.000	0.046	-0.408
-231.786	-103.737	0.426	0.099
-230.771	112.037	-0.157	0.188
-229.757	162.611	0.094	0.131
-228.742	-200.000	0.002	0.288
-227.727	-55.774	-0.221	-0.098
-226.713	-200.000	-0.009	0.086
-225.698	-200.000	0.001	-0.011
-224.684	325.468	0.085	-0.161
-223.669	381.711	-0.109	-0.221
-222.655	-17.522	0.237	-0.147
-221.640	50.100	-0.148	0.139
-220.625	294.845	-0.052	-0.095
-219.611	-151.729	0.193	0.014
-218.596	230.996	-0.273	0.442
-217.582	191.089	0.191	0.284
-216.567	228.831	-0.068	0.110
-215.552	-200.000	0.021	-0.206
-214.538	182.689	-0.064	0.094
-213.523	-36.247	0.173	-0.092
-212.509	800.000	-0.093	0.296
-211.494	-5.172	-0.168	-0.114
-210.479	-200.000	-0.016	-0.138
-209.465	-200.000	0.078	-0.397
-208.450	234.651	-0.111	0.182
-207.436	417.481	-0.075	0.160
-206.421	-66.503	0.143	0.056
-205.406	800.000	0.170	0.477
-204.392	336.062	-0.118	0.227
-203.377	155.291	-0.088	0.120
-202.363	-200.000	0.037	0.277
-201.348	-47.120	-0.323	-0.156
-200.333	530.049	-0.114	0.267
-199.319	-157.722	0.087	0.005
-198.304	-200.000	0.010	0.148
-197.290	-49.547	-0.328	0.154
-196.275	12.675	-0.041	0.031
-195.260	221.545	0.084	-0.134
-194.246	-183.050	0.337	0.006
-193.231	123.813	0.108	0.134
-192.217	-42.883	0.315	0.158
-191.202	800.000	-0.045	-0.146
-190.187	304.846	0.050	0.092
-189.173	272.097	0.227	-0.396
-188.158	122.655	0.125	0.154
-187.144	-200.000	0.059	-0.417
-186.129	-77.740	-0.117	-0.040
-185.114	431.326	-0.064	0.136
-184.100	-147.275	0.073	-0.006
-183.085	-175.073	-0.236	0.006
-182.071	-78.351	0.269	0.091
-181.056	83.845	0.141	0.152
-180.042	800.000	0.021	-0.059
-179.027	251.064	0.077	-0.129
-178.012	-200.000	0.017	-0.197
-176.998	-30.937	0.113	0.063
-175.983	-200.000	-0.004	0.292
-174.969	737.692	0.150	-0.399
-173.954	800.000	0.041	-0.170
-172.939	-43.994	0.112	-0.056
-171.925	-1.812	0.354	-0.246
-170.910	-30.630	-0.446	-0.249
-169.896	-77.553	0.043	-0.015
-168.881	128.688	-0.120	0.151
-167.866	384.504	-0.063	0.128
-166.852	-39.298	0.109	0.057
-165.837	-44.231	0.115	-0.057
-164.823	800.000	-0.040	-0.162
-163.808	-86.829	-0.138	-0.042
-162.793	800.000	0.100	0.403
-161.779	657.625	-0.115	0.291
-160.764	-152.804	0.190	0.013
-159.750	403.895	-0.188	-0.391
-158.735	-152.666	-0.210	-0.015
-157.720	-200.000	-0.025	0.112
-156.706	167.023	0.095	0.134
-155.691	-142.742	-0.156	-0.015
-154.677	-108.986	0.257	0.054
-153.662	-200.000	0.045	-0.233
-152.647	-200.000	-0.006	0.398
-151.633	-194.131	0.076	-0.001
-150.618	-9.419	-0.124	0.082
-149.604	-200.000	0.010	0.279
-148.589	-195.022	-0.347	0.003
-147.574	-200.000	0.008	-0.049
-146.560	745.803	-0.131	0.349
-145.545	-30.633	0.327	0.183
-144.531	53.208	-0.159	0.150
-143.516	-34.338	0.142	0.077
-142.502	767.604	0.034	0.091
-141.487	-145.091	-0.291	0.026
-140.472	-76.365	-0.258	0.090
-139.458	800.000	0.065	0.205
-138.443	364.118	0.109	0.216
-137.429	133.743	0.147	0.188
-136.414	-181.416	0.297	0.006
-135.399	-34.731	0.256	-0.138
-134.385	-200.000	0.006	0.075
-133.370	213.199	-0.142	-0.220
-132.356	-200.000	-0.017	-0.230
-131.341	-25.273	-0.169	0.099
-130.326	18.279	0.285	0.225
-129.312	800.000	-0.095	-0.338
-128.297	56.600	0.057	-0.055
-127.283	-200.000	0.056	0.348
-126.268	-16.015	-0.281	0.176
-125.253	-49.377	0.242	-0.114
-124.239	-49.817	0.263	0.123
-123.224	-200.000	0.001	0.315
-122.210	-31.809	0.111	0.062
-121.195	-200.000	-0.012	-0.237
