DTS Sentinel unit serial number:	SN413079Multiplexer serial number:	ORYXHardware model number:	OX4-SRSoftware version number:	ORYX F/W v4.00 Oryx Data Collector v3.7.2.0data status	okinstallation	princeton_trtdifferential loss correction	single-endedforward channel	channel 1reverse channel	N/Adate	2019/09/12time	09:08:11forward acquisition time	60.00reverse acquisition time	0.00gamma	496.2192k internal	0.2306k external	0.2306temperature offset calibration	1.0042default loss term (dB/km)	0.3790temperature slope calibration	1.0000multiplexer offset coefficient	1.0000multiplexer slope coefficient	1.0000fibre end	0.00T internal ref (°C)	34.50T ext. ref 1 (°C)	1.77T ext. ref 2 (°C)	32.38length (m)	temperature (°C)	Stokes	anti-Stokes-747.200	-76.037	0.543	-0.195
-746.185	-5.954	-0.335	0.233
-745.171	-64.962	-0.279	0.115
-744.156	-0.245	-0.207	-0.150
-743.142	23.266	-0.286	0.239
-742.127	156.400	0.216	0.303
-741.112	-200.000	-0.057	-0.276
-740.098	800.000	-0.061	-0.196
-739.083	-185.374	-0.192	-0.003
-738.069	141.005	-0.226	0.303
-737.054	-200.000	0.024	0.325
-736.039	-155.815	-0.039	0.003
-735.025	179.312	-0.156	-0.232
-734.010	-38.201	-0.146	-0.079
-732.996	100.855	-0.249	-0.294
-731.981	104.133	-0.120	-0.143
-730.966	180.121	0.163	0.243
-729.952	101.966	-0.115	0.137
-728.937	-200.000	0.005	-0.248
-727.923	-200.000	-0.001	0.008
-726.908	-44.213	0.079	-0.040
-725.894	-50.011	-0.054	-0.026
-724.879	-73.786	-0.092	0.034
-723.864	-37.459	-0.442	-0.240
-722.850	89.800	0.262	-0.298
-721.835	-200.000	0.025	-0.166
-720.821	-164.038	0.218	-0.010
-719.806	-200.000	0.049	-0.232
-718.791	-101.146	-0.346	-0.086
-717.777	94.818	0.217	0.251
-716.762	800.000	-0.040	0.159
-715.748	351.022	-0.094	-0.188
-714.733	24.239	-0.180	0.151
-713.718	-87.878	-0.268	-0.082
-712.704	143.928	-0.077	-0.104
-711.689	-200.000	-0.018	0.288
-710.675	122.352	-0.162	-0.205
-709.660	95.808	-0.073	-0.085
-708.645	-6.465	0.082	-0.057
-707.631	-200.000	-0.005	-0.337
-706.616	449.184	-0.170	-0.382
-705.602	-138.242	-0.218	-0.024
-704.587	-85.756	0.224	0.070
-703.572	-142.488	0.237	0.024
-702.558	443.606	0.055	-0.123
-701.543	-50.031	-0.212	-0.102
-700.529	-74.993	-0.163	-0.059
-699.514	253.695	0.072	-0.125
-698.499	-89.048	-0.361	-0.108
-697.485	-43.127	0.165	-0.085
-696.470	-5.663	0.213	0.149
-695.456	800.000	-0.076	0.261
-694.441	190.982	-0.059	-0.090
-693.426	-155.813	-0.140	-0.009
-692.412	111.773	0.064	-0.078
-691.397	-180.647	-0.471	0.010
-690.383	-9.912	-0.288	-0.194
-689.368	800.000	-0.062	-0.211
-688.354	-200.000	0.040	-0.283
-687.339	181.091	-0.085	-0.126
-686.324	149.283	0.109	0.150
-685.310	-140.421	-0.272	0.029
-684.295	-137.537	-0.324	0.037
-683.281	288.146	-0.112	-0.206
-682.266	-21.949	0.142	-0.088
-681.251	155.351	-0.104	0.146
-680.237	-94.352	-0.351	-0.097
-679.222	-51.189	-0.082	0.039
-678.208	800.000	-0.038	-0.108
-677.193	284.565	-0.155	0.283
-676.178	73.734	0.179	-0.190
-675.164	-113.026	-0.191	0.038
-674.149	-54.653	-0.152	-0.070
-673.135	-200.000	-0.017	-0.097
-672.120	-200.000	-0.045	-0.271
-671.105	-42.162	-0.123	0.064
-670.091	452.306	-0.144	0.323
-669.076	-114.314	0.084	-0.016
-668.062	-41.470	0.137	-0.072
-667.047	-24.546	-0.295	-0.178
-666.032	143.485	-0.023	-0.031
-665.018	800.000	0.028	0.102
-664.003	-114.477	-0.261	0.051
-662.989	502.277	0.091	-0.212
-661.974	-125.328	-0.529	-0.082
-660.959	-56.075	0.175	0.079
-659.945	-60.592	0.240	0.103
-658.930	242.981	0.126	0.215
-657.916	-200.000	0.103	-0.672
-656.901	-138.517	0.195	0.022
-655.886	-101.958	-0.071	-0.017
-654.872	138.037	-0.073	-0.096
-653.857	-159.090	-0.085	0.005
-652.843	800.000	-0.114	-0.440
-651.828	576.906	0.009	0.022
-650.814	800.000	0.020	-0.060
-649.799	-91.516	-0.369	-0.107
-648.784	271.923	-0.162	-0.290
-647.770	-3.344	-0.297	0.209
-646.755	77.301	0.136	-0.147
-645.741	-93.371	-0.429	-0.121
-644.726	45.457	-0.186	-0.174
-643.711	-92.075	-0.141	0.040
-642.697	-200.000	0.026	0.120
-641.682	800.000	0.033	0.120
-640.668	-55.770	0.176	0.080
-639.653	324.962	0.186	-0.360
-638.638	800.000	0.035	0.111
-637.624	11.916	0.228	0.178
-636.609	-12.492	-0.143	0.095
-635.595	-14.017	-0.254	-0.166
-634.580	181.436	-0.062	-0.093
-633.565	1.656	0.277	0.202
-632.551	-181.937	0.177	-0.003
-631.536	-200.000	0.013	0.134
-630.522	249.520	0.147	-0.253
-629.507	33.668	-0.366	-0.322
-628.492	617.743	0.060	-0.153
-627.478	184.152	-0.242	0.363
-626.463	-190.044	0.210	-0.002
-625.449	800.000	-0.016	0.066
-624.434	-97.854	-0.163	0.043
-623.419	340.233	0.114	-0.225
-622.405	-124.038	0.494	0.079
-621.390	800.000	0.044	-0.130
-620.376	92.277	0.177	-0.202
-619.361	-128.163	-0.153	0.022
-618.346	12.483	0.092	0.072
-617.332	-137.211	0.156	-0.018
-616.317	-82.114	-0.208	0.069
-615.303	1.804	-0.390	-0.285
-614.288	313.591	0.012	-0.022
-613.273	267.725	-0.030	0.053
-612.259	-39.209	0.418	-0.222
-611.244	632.962	-0.072	0.183
-610.230	800.000	-0.089	0.275
-609.215	-94.753	-0.183	0.050
-608.201	-193.248	-0.184	0.002
-607.186	-200.000	-0.040	-0.256
-606.171	-200.000	0.001	-0.257
-605.157	-60.401	-0.020	0.008
-604.142	154.856	-0.181	-0.252
-603.128	36.975	0.312	0.280
-602.113	-155.167	-0.108	-0.007
-601.098	41.661	-0.114	0.104
-600.084	-23.032	0.115	0.070
-599.069	800.000	0.058	-0.201
-598.055	0.973	0.149	0.108
-597.040	-30.160	-0.255	0.147
-596.025	800.000	0.026	-0.095
-595.011	-200.000	-0.036	-0.246
-593.996	215.079	-0.162	-0.259
-592.982	-39.389	-0.295	0.156
-591.967	159.972	-0.232	0.327
-590.952	28.367	-0.222	-0.190
-589.938	-62.256	-0.385	-0.162
-588.923	421.007	-0.271	-0.587
-587.909	75.863	0.162	0.173
-586.894	251.295	0.150	-0.258
-585.879	-101.652	-0.080	0.020
-584.865	26.836	-0.161	0.137
-583.850	-200.000	-0.005	-0.046
-582.836	800.000	-0.085	-0.321
-581.821	334.644	-0.106	-0.208
-580.806	127.542	-0.109	-0.139
-579.792	-69.005	-0.178	0.069
-578.777	-95.347	0.455	0.124
-577.763	170.213	0.187	-0.271
-576.748	800.000	0.072	-0.254
-575.733	470.820	-0.053	0.121
-574.719	296.090	0.059	-0.109
-573.704	152.677	-0.167	0.230
-572.690	800.000	0.160	0.493
-571.675	-12.645	-0.214	-0.141
-570.661	9.017	0.252	0.192
-569.646	56.434	0.107	0.105
-568.631	800.000	0.050	-0.150
-567.617	800.000	-0.114	0.332
-566.602	800.000	0.085	-0.276
-565.588	-67.607	0.170	-0.067
-564.573	337.694	0.147	0.288
-563.558	175.381	0.062	-0.091
-562.544	-130.297	-0.362	0.050
-561.529	800.000	-0.070	0.216
-560.515	193.548	0.181	0.276
-559.500	-2.421	-0.283	-0.200
-558.485	800.000	0.072	-0.261
-557.471	-31.293	0.295	0.167
-556.456	800.000	0.123	0.395
-555.442	-200.000	-0.088	-0.450
-554.427	-67.158	0.070	0.028
-553.412	-89.794	-0.128	0.038
-552.398	-48.834	-0.167	0.081
-551.383	-112.705	0.129	-0.026
-550.369	-79.983	0.271	-0.092
-549.354	-180.575	0.279	0.006
-548.339	-12.154	-0.176	-0.116
-547.325	259.096	-0.072	-0.125
-546.310	-91.632	0.379	-0.109
-545.296	62.969	-0.382	-0.386
-544.281	38.703	-0.045	0.041
-543.266	-5.201	-0.092	0.064
-542.252	80.246	-0.183	0.199
-541.237	800.000	0.076	-0.242
-540.223	-0.403	-0.326	0.233
-539.208	779.633	0.055	-0.151
-538.193	253.911	0.118	0.204
-537.179	-200.000	-0.057	-0.259
-536.164	800.000	0.062	0.269
-535.150	-191.943	0.121	-0.001
-534.135	-33.405	-0.344	-0.192
-533.121	-9.399	0.169	0.114
-532.106	-93.293	0.111	0.031
-531.091	42.528	0.112	-0.102
-530.077	46.672	-0.196	-0.184
-529.062	-77.314	0.061	0.021
-528.048	5.932	-0.134	0.100
-527.033	279.195	-0.148	-0.267
-526.018	83.743	-0.057	-0.062
-525.004	-77.054	-0.192	-0.068
-523.989	-200.000	-0.015	0.087
-522.975	44.871	-0.184	-0.171
-521.960	-21.258	-0.134	-0.083
-520.945	379.944	-0.024	0.049
-519.931	51.308	-0.320	0.306
-518.916	219.668	-0.077	0.124
-517.902	17.600	0.137	0.110
-516.887	-124.864	-0.361	0.056
-515.872	-55.973	-0.256	-0.115
-514.858	29.575	-0.102	0.088
-513.843	-65.761	-0.065	0.026
-512.829	164.300	0.273	-0.388
-511.814	-62.832	-0.174	0.072
-510.799	-100.810	-0.313	0.078
-509.785	-6.323	-0.609	-0.419
-508.770	-141.611	0.210	-0.021
-507.756	-200.000	-0.081	-0.484
-506.741	-13.209	0.113	-0.074
-505.726	173.032	-0.058	0.084
-504.712	222.882	0.107	-0.174
-503.697	-100.007	-0.223	0.056
-502.683	25.852	-0.123	0.103
-501.668	354.699	0.157	-0.314
-500.653	-200.000	0.028	-0.303
-499.639	-200.000	0.023	-0.194
-498.624	-20.760	0.255	0.158
-497.610	54.541	0.027	0.026
-496.595	3.550	0.132	0.097
-495.581	-200.000	0.013	-0.115
-494.566	41.319	-0.197	0.179
-493.551	17.917	0.108	0.086
-492.537	-64.765	0.122	0.050
-491.522	17.335	0.075	-0.060
-490.508	359.921	0.014	0.028
-489.493	-200.000	0.001	0.100
-488.478	176.176	0.165	-0.241
-487.464	369.731	-0.128	0.262
-486.449	34.345	0.018	0.016
-485.435	44.722	0.061	0.056
-484.420	-200.000	0.016	-0.203
-483.405	-7.251	0.323	-0.220
-482.391	158.540	0.130	-0.182
-481.376	800.000	-0.087	-0.261
-480.362	6.403	-0.331	0.247
-479.347	-111.912	0.228	0.046
-478.332	173.829	0.161	-0.235
-477.318	-58.458	0.108	0.047
-476.303	147.290	-0.191	-0.258
-475.289	-83.145	0.330	0.107
-474.274	-11.524	-0.270	-0.178
-473.259	-117.847	0.189	0.034
-472.245	61.220	-0.122	0.122
-471.230	589.132	-0.068	-0.169
-470.216	433.335	0.107	-0.233
-469.201	198.878	-0.090	-0.138
-468.186	-113.088	0.250	-0.050
-467.172	104.342	0.272	-0.322
-466.157	-196.703	0.356	0.002
-465.143	661.131	-0.046	0.119
-464.128	-178.518	0.217	-0.005
-463.113	84.754	-0.106	0.117
-462.099	-79.157	0.263	-0.090
-461.084	313.903	0.198	-0.375
-460.070	593.930	0.074	0.183
-459.055	-51.318	0.189	0.089
-458.040	800.000	0.043	-0.137
-457.026	283.610	0.022	-0.040
-456.011	64.658	0.157	-0.159
-454.997	-45.747	-0.292	0.145
-453.982	-111.510	-0.238	-0.049
-452.968	61.257	0.150	-0.150
-451.953	-54.993	-0.418	0.190
-450.938	287.187	-0.111	0.203
-449.924	-3.585	0.119	-0.083
-448.909	-200.000	-0.019	0.115
-447.895	56.432	-0.021	-0.021
-446.880	-186.183	-0.241	0.004
-445.865	-200.000	0.017	0.125
-444.851	742.022	0.073	0.197
-443.836	116.284	0.227	-0.279
-442.822	791.711	-0.015	0.042
-441.807	73.933	0.020	0.021
-440.792	12.590	-0.177	-0.137
-439.778	-200.000	0.018	-0.392
-438.763	-115.864	0.220	0.041
-437.749	-143.872	-0.324	-0.031
-436.734	-100.277	0.271	-0.068
-435.719	-200.000	-0.011	0.245
-434.705	-200.000	0.009	0.190
-433.690	216.131	0.023	0.036
-432.676	199.130	0.055	-0.084
-431.661	-23.801	-0.272	0.164
-430.646	800.000	0.019	0.066
-429.632	-200.000	-0.005	-0.164
-428.617	-41.235	-0.027	-0.014
-427.603	-141.099	0.155	0.016
-426.588	-200.000	0.008	-0.127
-425.573	45.830	-0.090	0.084
-424.559	-125.292	0.360	0.055
-423.544	-110.300	-0.048	-0.010
-422.530	68.250	-0.169	0.174
-421.515	546.876	-0.086	0.208
-420.500	-200.000	0.012	0.084
-419.486	90.479	-0.223	-0.251
-418.471	-52.792	0.095	0.044
-417.457	77.953	0.120	0.129
-416.442	23.967	0.332	0.275
-415.428	49.154	-0.053	0.050
-414.413	116.845	-0.066	0.081
-413.398	4.344	-0.154	-0.113
-412.384	383.020	0.153	-0.316
-411.369	-59.911	-0.126	-0.054
-410.355	-200.000	0.003	0.064
-409.340	-200.000	0.034	-0.322
-408.325	-56.916	0.333	-0.148
-407.311	-200.000	0.021	-0.110
-406.296	-200.000	0.031	0.155
-405.282	-10.438	-0.118	-0.079
-404.267	-200.000	-0.032	-0.212
-403.252	-113.581	0.357	0.070
-402.238	221.820	-0.061	0.099
-401.223	-200.000	0.020	-0.229
-400.209	-200.000	0.023	-0.179
-399.194	52.492	0.166	-0.159
-398.179	800.000	0.111	-0.451
-397.165	800.000	-0.060	0.177
-396.150	-7.371	-0.128	0.087
-395.136	376.099	0.077	0.157
-394.121	117.061	-0.051	-0.062
-393.106	0.248	0.314	0.225
-392.092	-200.000	0.041	0.262
-391.077	-39.665	0.180	0.094
-390.063	27.770	-0.313	-0.264
-389.048	6.529	0.160	0.119
-388.033	741.078	0.084	-0.225
-387.019	102.476	0.193	-0.227
-386.004	-135.101	-0.187	0.023
-384.990	-200.000	0.014	-0.191
-383.975	-119.001	-0.203	-0.036
-382.960	-38.442	-0.116	-0.062
-381.946	59.812	-0.151	0.150
-380.931	-83.437	-0.260	0.083
-379.917	6.530	-0.038	-0.029
-378.902	429.719	-0.203	0.440
-377.888	-74.730	-0.156	0.056
-376.873	75.450	-0.244	-0.258
-375.858	60.232	0.174	-0.173
-374.844	-200.000	-0.009	0.113
-373.829	-0.388	-0.192	-0.137
-372.815	-8.182	-0.284	0.192
-371.800	156.851	0.088	0.122
-370.785	-11.142	0.378	-0.250
-369.771	297.031	0.051	-0.093
-368.756	-200.000	0.002	0.181
-367.742	421.275	-0.024	0.051
-366.727	-33.223	-0.075	0.042
-365.712	262.110	0.059	0.102
-364.698	391.484	0.072	0.150
-363.683	229.322	0.400	0.654
-362.669	-52.399	-0.117	0.054
-361.654	44.114	0.144	-0.133
-360.639	-139.638	0.189	-0.020
-359.625	-200.000	-0.020	0.309
-358.610	-78.761	-0.179	0.061
-357.596	36.894	0.395	0.350
-356.581	131.282	-0.069	0.089
-355.566	-76.985	-0.286	0.100
-354.552	568.995	-0.133	0.323
-353.537	-65.203	0.258	-0.104
-352.523	-200.000	0.032	-0.270
-351.508	327.550	0.069	0.132
-350.493	-200.000	-0.032	0.165
-349.479	127.043	0.208	-0.265
-348.464	-200.000	-0.067	0.478
-347.450	-129.333	-0.322	0.045
-346.435	13.791	-0.042	0.033
-345.420	-87.369	-0.202	-0.061
-344.406	135.529	-0.135	0.175
-343.391	-78.961	0.321	0.110
-342.377	800.000	0.069	-0.194
-341.362	157.547	0.145	-0.200
-340.348	-139.853	-0.344	0.037
-339.333	-7.492	0.096	0.065
-338.318	-39.477	0.202	0.106
-337.304	507.609	-0.006	0.015
-336.289	-20.315	-0.262	0.162
-335.275	-97.909	0.255	-0.066
-334.260	800.000	0.041	-0.130
-333.245	231.445	-0.150	0.246
-332.231	52.927	0.209	-0.200
-331.216	243.699	-0.096	-0.161
-330.202	-9.742	0.337	0.224
-329.187	-200.000	0.035	-0.282
-328.172	380.722	0.029	0.060
-327.158	-65.959	-0.230	-0.092
-326.143	194.169	0.167	-0.253
-325.129	-200.000	-0.011	0.179
-324.114	-115.695	0.282	0.053
-323.099	-200.000	-0.010	0.052
-322.085	261.277	-0.047	0.081
-321.070	12.567	-0.264	-0.204
-320.056	-148.646	-0.470	-0.038
-319.041	-200.000	-0.005	0.326
-318.026	30.991	0.263	-0.226
-317.012	118.424	-0.103	-0.128
-315.997	-48.913	-0.087	-0.042
-314.983	-8.138	-0.113	0.076
-313.968	-126.805	0.473	-0.070
-312.953	800.000	-0.058	0.214
-311.939	-200.000	0.049	0.484
-310.924	-16.914	-0.115	0.072
-309.910	-30.024	-0.104	-0.059
-308.895	800.000	-0.033	0.092
-307.880	98.703	0.068	-0.078
-306.866	-69.784	0.354	0.135
-305.851	57.484	-0.321	0.313
-304.837	-48.510	0.375	-0.181
-303.822	-110.112	0.163	0.034
-302.807	294.407	-0.111	0.203
-301.793	24.883	-0.060	-0.050
-300.778	-48.251	-0.307	0.148
-299.764	-36.358	0.274	0.148
-298.749	-120.907	0.147	-0.025
-297.735	-200.000	-0.003	-0.523
-296.720	198.526	0.089	-0.136
-295.705	800.000	0.077	0.277
-294.691	-200.000	0.011	0.293
-293.676	-119.724	-0.173	-0.030
-292.662	-172.179	0.170	0.005
-291.647	46.612	-0.103	-0.096
-290.632	-1.449	-0.030	0.021
-289.618	116.574	-0.087	-0.106
-288.603	110.281	0.300	-0.360
-287.589	-38.968	0.078	0.041
-286.574	77.436	-0.161	-0.171
-285.559	-200.000	0.017	0.358
-284.545	130.972	0.084	-0.107
-283.530	-200.000	0.014	0.211
-282.516	162.974	-0.042	0.059
-281.501	220.311	0.038	-0.061
-280.486	-200.000	-0.009	-0.177
-279.472	-128.921	-0.083	0.012
-278.457	-200.000	0.005	0.056
-277.443	-10.875	0.170	0.112
-276.428	788.935	-0.093	0.255
-275.413	-100.279	-0.206	0.051
-274.399	-140.185	-0.138	-0.014
-273.384	12.900	0.282	-0.218
-272.370	800.000	0.028	0.085
-271.355	7.929	0.152	-0.114
-270.340	298.694	-0.033	-0.061
-269.326	-76.908	-0.234	0.082
-268.311	-132.037	0.244	0.032
-267.297	-98.545	0.220	-0.056
-266.282	-91.958	0.070	-0.020
-265.267	65.336	0.064	-0.064
-264.253	196.192	0.233	0.354
-263.238	-200.000	-0.068	0.301
-262.224	462.769	0.211	0.470
-261.209	-200.000	0.037	0.429
-260.195	-39.160	0.252	-0.132
-259.180	259.165	0.159	-0.274
-258.165	-36.434	-0.067	0.036
-257.151	800.000	-0.020	-0.073
-256.136	148.854	0.191	0.257
-255.122	-54.102	-0.187	0.085
-254.107	-33.894	-0.449	-0.247
-253.092	-86.873	0.086	0.026
-252.078	-32.824	-0.080	0.044
-251.063	-146.487	0.132	0.011
-250.049	800.000	-0.009	0.038
-249.034	185.733	-0.151	-0.224
-248.019	-42.723	-0.065	-0.033
-247.005	52.428	-0.258	-0.245
-245.990	800.000	-0.050	-0.205
-244.976	800.000	-0.069	0.264
-243.961	225.649	0.100	0.161
-242.946	52.118	-0.214	0.203
-241.932	-91.716	-0.186	0.053
-240.917	800.000	-0.107	0.353
-239.903	-157.041	-0.132	-0.008
-238.888	645.205	-0.158	-0.402
-237.873	-7.868	-0.060	-0.041
-236.859	121.837	0.258	0.321
-235.844	106.959	0.093	0.110
-234.830	800.000	0.047	-0.146
-233.815	-150.638	0.383	-0.029
-232.800	-97.066	0.379	0.099
-231.786	-141.123	-0.217	-0.022
-230.771	41.369	0.196	0.177
-229.757	-104.812	0.057	-0.013
-228.742	-200.000	-0.007	0.190
-227.727	-31.630	-0.200	-0.112
-226.713	35.130	-0.226	0.198
-225.698	58.788	0.147	0.144
-224.684	-27.147	-0.025	-0.014
-223.669	145.906	-0.090	0.121
-222.655	-200.000	-0.028	0.423
-221.640	-23.717	0.305	-0.182
-220.625	800.000	-0.089	-0.340
-219.611	800.000	-0.068	-0.230
-218.596	461.253	0.102	-0.227
-217.582	212.839	-0.182	0.287
-216.567	143.981	0.141	0.187
-215.552	-140.674	-0.183	-0.019
-214.538	176.857	0.219	-0.317
-213.523	100.544	-0.112	0.130
-212.509	281.516	0.102	0.182
-211.494	183.226	0.106	-0.156
-210.479	154.427	0.159	0.217
-209.465	800.000	0.089	-0.285
-208.450	88.142	-0.134	0.148
-207.436	35.389	0.183	0.160
-206.421	-51.559	-0.311	-0.145
-205.406	800.000	0.045	-0.130
-204.392	362.311	0.065	-0.130
-203.377	-200.000	-0.009	0.220
-202.363	-110.851	-0.080	-0.016
-201.348	800.000	0.097	-0.326
-200.333	375.889	-0.165	0.334
-199.319	173.810	0.149	-0.215
-198.304	-200.000	0.055	0.252
-197.290	95.367	-0.330	0.375
-196.275	78.837	0.076	0.080
-195.260	404.171	0.125	-0.261
-194.246	597.769	0.050	0.123
-193.231	428.529	-0.142	0.305
-192.217	361.293	0.079	0.158
-191.202	800.000	0.064	-0.192
-190.187	-168.483	-0.039	-0.001
-189.173	11.109	0.223	0.170
-188.158	486.522	0.067	0.152
-187.144	800.000	0.025	-0.089
-186.129	168.445	0.175	-0.248
-185.114	518.106	0.065	-0.153
-184.100	81.268	0.117	-0.126
-183.085	-200.000	-0.011	-0.124
-182.071	96.117	-0.117	0.133
-181.056	-53.771	0.190	-0.086
-180.042	337.014	-0.194	0.375
-179.027	-200.000	0.025	0.339
-178.012	287.815	0.060	-0.108
-176.998	-200.000	-0.001	0.130
-175.983	800.000	0.060	-0.205
-174.969	-0.712	-0.139	0.098
-173.954	-38.124	-0.152	0.080
-172.939	-14.819	0.198	0.126
-171.925	-45.631	0.122	-0.060
-170.910	658.915	-0.134	-0.343
-169.896	-200.000	-0.014	0.302
-168.881	-165.723	0.201	-0.009
-167.866	123.146	0.202	-0.252
-166.852	306.170	-0.057	-0.106
-165.837	800.000	-0.079	0.312
-164.823	-49.020	-0.088	-0.042
-163.808	-55.224	0.109	-0.049
-162.793	-133.967	-0.150	-0.018
-161.779	-69.663	-0.294	-0.112
-160.764	800.000	0.044	-0.172
-159.750	800.000	0.044	0.132
-158.735	-104.305	-0.185	0.043
-157.720	246.358	-0.183	0.307
-156.706	-26.051	0.221	0.129
-155.691	277.154	0.020	-0.035
-154.677	12.228	0.263	0.202
-153.662	-78.551	-0.278	0.095
-152.647	554.002	0.053	-0.127
-151.633	-19.183	-0.173	-0.107
-150.618	-135.201	0.145	-0.017
-149.604	-200.000	0.007	-0.110
-148.589	-172.606	0.146	0.005
-147.574	32.260	0.155	-0.133
-146.560	800.000	-0.103	0.398
-145.545	-119.395	-0.296	0.051
-144.531	-162.567	-0.119	-0.006
-143.516	150.319	-0.146	0.196
-142.502	800.000	0.069	0.232
-141.487	240.280	-0.106	0.176
-140.472	-200.000	0.107	-0.540
-139.458	-3.605	-0.352	-0.243
-138.443	-200.000	-0.009	0.132
-137.429	800.000	-0.083	-0.281
-136.414	-84.143	0.105	0.033
-135.399	-120.479	-0.035	0.006
-134.385	-55.786	0.112	-0.050
-133.370	-93.886	-0.260	-0.071
-132.356	800.000	0.094	0.296
-131.341	-53.213	-0.153	0.070
-130.326	800.000	-0.060	-0.183
-129.312	-96.014	0.215	0.057
-128.297	243.518	0.066	0.110
-127.283	-132.110	0.094	0.012
-126.268	-4.270	0.259	0.178
-125.253	-88.504	-0.100	0.030
-124.239	211.162	-0.134	0.209
-123.224	-200.000	-0.052	0.468
-122.210	800.000	-0.054	-0.219
-121.195	-200.000	-0.026	-0.200
-120.180	800.000	-0.053	0.152
