DTS Sentinel unit serial number:	SN413079Multiplexer serial number:	ORYXHardware model number:	OX4-SRSoftware version number:	ORYX F/W v4.00 Oryx Data Collector v3.7.2.0data status	okinstallation	princeton_trtdifferential loss correction	single-endedforward channel	channel 1reverse channel	N/Adate	2019/09/18time	07:58:35forward acquisition time	60.00reverse acquisition time	0.00gamma	496.2192k internal	0.2338k external	0.2338temperature offset calibration	0.9975default loss term (dB/km)	0.3790temperature slope calibration	1.0000multiplexer offset coefficient	1.0000multiplexer slope coefficient	1.0000fibre end	0.00T internal ref (°C)	23.56T ext. ref 1 (°C)	0.20T ext. ref 2 (°C)	19.37length (m)	temperature (°C)	Stokes	anti-Stokes-747.200	-168.546	0.085	-0.003
-746.185	690.702	-0.075	0.198
-745.171	-115.481	-0.551	-0.104
-744.156	644.554	0.087	0.223
-743.142	-200.000	-0.018	0.321
-742.127	93.282	0.218	0.247
-741.112	9.815	-0.217	-0.165
-740.098	13.379	0.342	0.266
-739.083	-121.140	-0.596	-0.100
-738.069	13.690	0.233	0.182
-737.054	265.165	0.051	0.089
-736.039	-102.111	-0.247	0.060
-735.025	212.257	0.219	0.347
-734.010	230.836	-0.193	-0.317
-732.996	124.752	0.046	-0.058
-731.981	-27.107	0.366	-0.214
-730.966	-147.423	-0.194	0.017
-729.952	66.267	0.208	-0.212
-728.937	399.500	-0.091	-0.192
-727.923	-200.000	-0.020	-0.111
-726.908	-63.346	0.301	-0.124
-725.894	125.172	-0.157	-0.198
-724.879	450.619	-0.119	-0.264
-723.864	-200.000	-0.048	-0.263
-722.850	259.862	-0.048	0.083
-721.835	-73.673	0.285	-0.104
-720.821	38.638	-0.168	-0.150
-719.806	-117.431	-0.465	0.084
-718.791	800.000	0.004	0.012
-717.777	252.622	0.050	0.086
-716.762	243.043	0.156	-0.262
-715.748	-200.000	-0.030	-0.158
-714.733	-122.192	-0.232	-0.038
-713.718	61.369	-0.182	-0.181
-712.704	-44.071	0.171	-0.086
-711.689	-200.000	0.012	-0.306
-710.675	800.000	-0.033	-0.129
-709.660	-166.126	-0.161	0.007
-708.645	-46.468	-0.252	-0.124
-707.631	-200.000	-0.105	-0.487
-706.616	53.251	-0.221	-0.212
-705.602	-27.911	0.477	0.277
-704.587	192.374	-0.134	0.203
-703.572	-200.000	0.022	0.127
-702.558	-79.752	-0.066	-0.022
-701.543	132.025	0.052	-0.067
-700.529	50.574	-0.049	-0.047
-699.514	-98.634	-0.253	0.065
-698.499	-15.515	-0.388	-0.248
-697.485	-130.397	0.151	-0.020
-696.470	-16.865	-0.245	0.155
-695.456	-20.605	0.326	-0.201
-694.441	22.995	-0.145	0.119
-693.426	198.538	-0.189	-0.289
-692.412	249.073	-0.046	0.077
-691.397	-200.000	0.048	-0.308
-690.383	-166.394	0.113	-0.005
-689.368	679.827	-0.066	-0.171
-688.354	15.190	-0.344	-0.270
-687.339	42.935	0.184	-0.168
-686.324	800.000	-0.104	-0.376
-685.310	-2.536	-0.436	-0.306
-684.295	724.253	0.020	0.054
-683.281	-200.000	0.044	-0.223
-682.266	-51.204	-0.129	0.060
-681.251	582.171	-0.039	-0.096
-680.237	-74.474	0.432	0.156
-679.222	-9.586	-0.172	0.115
-678.208	140.511	0.093	-0.123
-677.193	148.652	-0.345	-0.466
-676.178	44.820	-0.094	0.087
-675.164	-78.555	-0.262	0.090
-674.149	800.000	0.043	-0.154
-673.135	611.619	-0.069	-0.173
-672.120	-128.857	0.190	0.027
-671.105	-200.000	-0.020	-0.128
-670.091	-94.334	-0.191	0.052
-669.076	93.648	-0.145	-0.165
-668.062	800.000	-0.048	-0.188
-667.047	-167.149	0.073	0.003
-666.032	452.512	-0.059	-0.131
-665.018	-119.351	-0.504	-0.088
-664.003	180.341	-0.093	-0.137
-662.989	-78.299	0.140	0.048
-661.974	-200.000	0.013	0.100
-660.959	-125.316	-0.331	0.050
-659.945	-90.956	-0.147	0.042
-658.930	130.395	-0.050	-0.064
-657.916	-200.000	0.028	-0.202
-656.901	-112.765	0.027	0.005
-655.886	-9.238	-0.142	-0.095
-654.872	-200.000	0.023	0.210
-653.857	129.015	-0.220	0.280
-652.843	-8.419	-0.054	-0.036
-651.828	86.227	0.060	-0.066
-650.814	70.900	-0.087	0.090
-649.799	497.244	-0.102	-0.235
-648.784	80.003	0.034	0.037
-647.770	-68.531	0.250	-0.097
-646.755	-200.000	0.040	-0.404
-645.741	57.601	-0.052	0.051
-644.726	800.000	0.036	0.112
-643.711	800.000	-0.129	0.474
-642.697	-3.784	-0.241	0.168
-641.682	-200.000	0.018	-0.082
-640.668	-41.015	0.149	-0.077
-639.653	-141.865	-0.411	-0.041
-638.638	800.000	0.026	0.075
-637.624	-200.000	0.037	0.233
-636.609	-200.000	-0.048	-0.265
-635.595	-200.000	0.010	-0.174
-634.580	-200.000	-0.030	0.271
-633.565	-24.761	0.152	-0.091
-632.551	339.008	-0.046	-0.090
-631.536	-200.000	-0.032	-0.175
-630.522	-20.034	0.154	-0.095
-629.507	-191.375	-0.159	-0.002
-628.492	151.495	-0.116	-0.157
-627.478	-200.000	0.024	0.308
-626.463	-151.456	0.110	0.008
-625.449	-86.641	-0.090	-0.027
-624.434	44.714	-0.187	-0.172
-623.419	41.902	0.170	0.154
-622.405	54.941	-0.101	0.097
-621.390	-108.227	-0.180	0.039
-620.376	-114.829	0.445	-0.085
-619.361	-129.158	-0.294	-0.041
-618.346	-151.564	-0.513	0.038
-617.332	7.138	-0.252	0.188
-616.317	367.229	0.005	0.011
-615.303	-200.000	-0.007	0.138
-614.288	2.692	-0.139	0.101
-613.273	-187.602	0.046	0.001
-612.259	-200.000	0.045	0.211
-611.244	-200.000	0.036	0.245
-610.230	84.430	-0.164	-0.179
-609.215	-186.199	0.213	-0.003
-608.201	182.320	-0.256	0.377
-607.186	-127.745	-0.198	-0.028
-606.171	-68.516	0.055	0.021
-605.157	-200.000	0.028	0.144
-604.142	185.433	-0.091	-0.135
-603.128	-42.603	-0.146	0.074
-602.113	-67.104	0.199	-0.078
-601.098	275.588	0.043	-0.075
-600.084	243.034	0.142	0.238
-599.069	-97.126	-0.343	0.089
-598.055	-200.000	-0.001	0.252
-597.040	-93.403	0.254	-0.070
-596.025	800.000	0.013	-0.038
-595.011	393.110	-0.105	0.219
-593.996	-200.000	0.004	-0.254
-592.982	800.000	-0.014	0.039
-591.967	-200.000	0.014	-0.086
-590.952	-46.525	-0.241	-0.118
-589.938	800.000	0.023	-0.083
-588.923	103.271	0.239	0.280
-587.909	-80.841	-0.297	-0.098
-586.894	12.682	-0.172	0.132
-585.879	-39.950	-0.134	0.070
-584.865	-200.000	-0.049	0.227
-583.850	-169.055	-0.144	0.005
-582.836	-200.000	0.069	0.386
-581.821	624.746	0.155	-0.390
-580.806	-200.000	-0.067	-0.445
-579.792	-61.684	0.136	-0.057
-578.777	73.129	0.210	-0.219
-577.763	65.404	-0.414	-0.418
-576.748	-13.623	0.123	0.079
-575.733	390.579	-0.027	0.057
-574.719	538.319	0.150	0.356
-573.704	44.083	0.200	0.183
-572.690	4.907	0.085	-0.062
-571.675	136.907	-0.159	0.207
-570.661	-65.254	-0.374	0.150
-569.646	651.456	-0.116	0.297
-568.631	-100.394	-0.358	0.088
-567.617	-200.000	-0.034	-0.221
-566.602	75.378	0.136	0.143
-565.588	167.626	0.094	0.132
-564.573	-178.920	0.106	0.002
-563.558	3.843	-0.076	-0.055
-562.544	-138.713	-0.334	-0.036
-561.529	69.631	0.023	-0.024
-560.515	761.833	0.028	-0.075
-559.500	-136.011	-0.375	0.044
-558.485	59.642	0.231	0.227
-557.471	576.230	-0.121	0.295
-556.456	45.974	0.278	-0.256
-555.442	-200.000	-0.047	-0.277
-554.427	-197.488	0.212	-0.001
-553.412	800.000	0.105	-0.310
-552.398	-77.702	-0.362	0.125
-551.383	-71.307	0.037	-0.014
-550.369	43.002	-0.157	0.143
-549.354	-61.836	0.439	-0.183
-548.339	94.914	0.223	0.253
-547.325	-200.000	-0.024	0.283
-546.310	-62.609	-0.238	0.098
-545.296	-86.526	0.208	-0.064
-544.281	85.982	-0.194	0.212
-543.266	-2.895	0.299	0.208
-542.252	-120.324	-0.293	0.050
-541.237	207.010	-0.123	0.191
-540.223	50.554	0.340	-0.320
-539.208	-182.547	0.284	-0.005
-538.193	-37.060	0.158	-0.084
-537.179	-37.452	-0.184	-0.098
-536.164	240.863	0.070	-0.116
-535.150	-50.658	-0.247	-0.116
-534.135	-93.036	0.204	0.057
-533.121	800.000	0.074	0.285
-532.106	-200.000	0.007	0.210
-531.091	279.219	0.126	-0.224
-530.077	136.257	0.156	0.202
-529.062	80.408	0.370	0.397
-528.048	-165.284	0.065	0.003
-527.033	-200.000	-0.008	-0.094
-526.018	299.567	0.091	-0.166
-525.004	-200.000	0.028	0.135
-523.989	261.536	0.158	-0.272
-522.975	-30.127	-0.410	-0.232
-521.960	380.322	0.082	-0.167
-520.945	-74.253	-0.354	-0.127
-519.931	-200.000	0.027	-0.367
-518.916	-200.000	0.088	0.428
-517.902	-200.000	-0.011	-0.071
-516.887	800.000	0.054	-0.216
-515.872	-181.155	-0.151	0.003
-514.858	-24.072	-0.102	0.061
-513.843	800.000	-0.031	-0.115
-512.829	132.639	-0.312	0.400
-511.814	40.092	-0.112	-0.100
-510.799	-75.160	-0.185	-0.066
-509.785	-60.705	-0.193	-0.081
-508.770	-154.517	0.216	-0.014
-507.756	1.814	-0.178	-0.128
-506.741	-75.187	0.413	-0.147
-505.726	800.000	0.074	0.213
-504.712	-128.702	-0.224	0.031
-503.697	-68.875	-0.253	-0.097
-502.683	-200.000	0.020	0.245
-501.668	438.858	-0.134	-0.292
-500.653	-200.000	0.008	-0.062
-499.639	-200.000	0.052	0.293
-498.624	40.766	0.249	0.223
-497.610	113.795	-0.110	-0.133
-496.595	-65.887	0.399	0.159
-495.581	-123.499	0.103	-0.016
-494.566	-200.000	-0.007	0.209
-493.551	-200.000	-0.064	-0.297
-492.537	21.927	-0.191	0.155
-491.522	-200.000	0.002	-0.237
-490.508	-82.757	-0.256	0.082
-489.493	-143.918	0.224	0.021
-488.478	-200.000	-0.056	-0.334
-487.464	-200.000	0.022	-0.173
-486.449	-200.000	-0.053	0.361
-485.435	-200.000	-0.016	-0.391
-484.420	699.898	-0.030	-0.079
-483.405	162.880	0.034	-0.047
-482.391	9.146	0.235	0.176
-481.376	-72.968	0.116	-0.042
-480.362	311.361	-0.175	0.326
-479.347	-179.070	0.334	0.007
-478.332	-85.720	-0.370	-0.114
-477.318	92.283	-0.129	0.145
-476.303	800.000	-0.144	-0.452
-475.289	166.716	0.070	0.098
-474.274	-99.065	-0.126	-0.032
-473.259	-35.600	0.266	-0.143
-472.245	29.410	-0.190	-0.160
-471.230	-88.231	-0.091	-0.027
-470.216	45.389	-0.096	0.088
-469.201	-88.033	0.346	0.103
-468.186	-50.457	0.084	0.039
-467.172	200.209	0.123	-0.187
-466.157	-65.764	-0.094	-0.038
-465.143	800.000	-0.067	-0.242
-464.128	122.399	-0.097	0.121
-463.113	-200.000	-0.027	-0.159
-462.099	-64.439	0.271	-0.109
-461.084	10.990	-0.119	0.090
-460.070	-200.000	0.002	-0.111
-459.055	17.402	-0.130	0.103
-458.040	41.862	-0.358	0.322
-457.026	-155.795	0.162	0.010
-456.011	179.351	-0.147	0.214
-454.997	800.000	-0.094	0.300
-453.982	301.363	0.065	-0.118
-452.968	-200.000	-0.030	0.137
-451.953	68.283	0.010	-0.011
-450.938	-200.000	-0.061	-0.279
-449.924	-200.000	0.004	0.326
-448.909	-72.439	0.118	-0.043
-447.895	-161.341	0.321	-0.016
-446.880	-151.590	-0.127	-0.009
-445.865	-13.411	-0.526	0.339
-444.851	162.685	0.072	0.101
-443.836	-56.460	0.225	0.099
-442.822	157.585	-0.058	-0.080
-441.807	11.628	0.294	0.224
-440.792	199.258	-0.126	0.191
-439.778	-200.000	-0.006	-0.346
-438.763	620.691	-0.036	-0.090
-437.749	-31.695	-0.152	0.085
-436.734	-104.598	-0.298	-0.068
-435.719	481.374	-0.156	-0.351
-434.705	-70.244	0.168	-0.063
-433.690	-200.000	0.058	-0.313
-432.676	752.785	-0.058	-0.156
-431.661	800.000	0.101	-0.320
-430.646	139.532	-0.153	-0.199
-429.632	-200.000	0.055	0.350
-428.617	158.659	0.105	-0.144
-427.603	-200.000	0.051	0.269
-426.588	-176.141	-0.177	0.005
-425.573	-24.116	-0.193	0.114
-424.559	221.510	0.065	0.104
-423.544	83.751	0.024	-0.026
-422.530	-64.318	0.229	-0.092
-421.515	144.677	-0.158	-0.209
-420.500	-200.000	0.022	-0.278
-419.486	-200.000	0.027	-0.214
-418.471	-200.000	0.040	0.188
-417.457	-113.657	-0.138	0.027
-416.442	-87.410	-0.102	-0.031
-415.428	66.683	-0.146	0.147
-414.413	93.987	-0.169	0.190
-413.398	54.047	0.097	-0.092
-412.384	-59.857	-0.140	0.059
-411.369	108.491	-0.075	-0.089
-410.355	79.792	-0.125	-0.133
-409.340	162.291	0.204	-0.283
-408.325	-200.000	-0.068	0.335
-407.311	64.296	-0.175	0.174
-406.296	-200.000	-0.003	-0.111
-405.282	37.102	0.123	-0.107
-404.267	-117.113	0.110	-0.020
-403.252	-200.000	0.080	0.424
-402.238	181.477	-0.081	0.117
-401.223	-61.525	0.188	-0.078
-400.209	175.309	0.214	0.306
-399.194	-133.093	-0.332	-0.042
-398.179	542.888	0.081	0.190
-397.165	-19.303	-0.033	-0.020
-396.150	-200.000	0.010	-0.071
-395.136	133.493	-0.078	-0.099
-394.121	291.624	-0.112	-0.201
-393.106	-200.000	-0.045	0.251
-392.092	-200.000	-0.017	-0.219
-391.077	2.925	0.156	0.112
-390.063	-43.506	-0.116	-0.058
-389.048	-200.000	-0.006	0.308
-388.033	344.358	-0.122	0.237
-387.019	57.345	-0.062	0.060
-386.004	747.288	-0.064	-0.170
-384.990	-41.090	-0.101	0.052
-383.975	-52.719	0.321	-0.147
-382.960	40.256	-0.054	0.048
-381.946	-200.000	-0.001	-0.158
-380.931	107.722	0.143	0.168
-379.917	16.252	0.243	-0.190
-378.902	402.247	-0.108	-0.224
-377.888	-85.882	-0.078	-0.024
-376.873	409.161	0.099	-0.208
-375.858	-200.000	-0.026	0.132
-374.844	-200.000	-0.003	-0.131
-373.829	-149.140	-0.184	0.015
-372.815	800.000	0.025	0.078
-371.800	800.000	0.074	-0.213
-370.785	208.558	0.055	-0.084
-369.771	155.852	0.017	-0.023
-368.756	97.389	-0.068	0.077
-367.742	189.942	0.160	0.237
-366.727	123.395	-0.024	-0.030
-365.712	187.985	-0.075	0.111
-364.698	22.294	0.074	0.060
-363.683	104.703	0.220	0.257
-362.669	-200.000	0.078	0.351
-361.654	-94.481	0.104	0.028
-360.639	454.321	-0.116	0.254
-359.625	-147.557	0.178	0.015
-358.610	58.372	0.145	0.140
-357.596	-150.787	-0.172	-0.013
-356.581	-162.179	-0.228	-0.011
-355.566	123.524	-0.062	-0.077
-354.552	-5.104	0.032	0.022
-353.537	-18.555	-0.194	0.120
-352.523	-200.000	0.006	-0.152
-351.508	702.007	-0.087	-0.227
-350.493	-200.000	0.022	0.287
-349.479	20.000	0.319	-0.254
-348.464	196.275	0.164	0.247
-347.450	8.351	-0.388	0.288
-346.435	-23.002	0.273	-0.162
-345.420	56.677	0.205	-0.198
-344.406	516.290	-0.173	-0.399
-343.391	-141.497	-0.204	0.020
-342.377	-38.764	0.160	0.083
-341.362	800.000	-0.191	0.574
-340.348	-68.992	0.295	-0.112
-339.333	-119.654	-0.140	-0.024
-338.318	338.365	0.053	-0.102
-337.304	8.896	0.130	-0.097
-336.289	-138.643	-0.203	0.022
-335.275	-47.672	-0.252	0.121
-334.260	89.547	0.244	-0.269
-333.245	254.124	0.177	-0.299
-332.231	106.043	0.053	0.062
-331.216	243.326	-0.169	0.279
-330.202	-200.000	-0.036	0.290
-329.187	75.420	0.233	-0.243
-328.172	-19.124	0.016	0.010
-327.158	114.967	0.128	-0.155
-326.143	-93.299	0.279	-0.076
-325.129	-77.670	0.093	-0.032
-324.114	-200.000	0.013	-0.255
-323.099	-75.440	-0.163	0.057
-322.085	445.522	-0.114	0.248
-321.070	518.559	0.166	0.383
-320.056	2.668	-0.270	0.193
-319.041	44.828	-0.204	-0.186
-318.026	52.406	-0.141	-0.133
-317.012	-200.000	-0.046	0.548
-315.997	-72.269	-0.126	0.046
-314.983	19.134	0.122	0.096
-313.968	-53.920	-0.346	-0.155
-312.953	13.027	0.074	0.056
-311.939	-12.905	-0.222	0.143
-310.924	-22.153	0.281	0.168
-309.910	156.180	-0.101	-0.138
-308.895	800.000	0.205	-0.680
-307.880	145.300	0.219	-0.289
-306.866	43.862	-0.073	-0.066
-305.851	11.733	0.128	-0.097
-304.837	37.040	-0.203	0.177
-303.822	-200.000	0.060	0.263
-302.807	-65.335	-0.259	-0.103
-301.793	-103.864	0.121	0.028
-300.778	800.000	0.128	0.380
-299.764	201.586	-0.195	-0.296
-298.749	38.412	0.224	0.197
-297.735	-106.250	0.100	-0.022
-296.720	800.000	0.039	0.168
-295.705	-200.000	0.004	-0.357
-294.691	349.587	-0.069	-0.135
-293.676	-139.414	0.097	-0.010
-292.662	-145.711	-0.059	-0.005
-291.647	-110.702	0.331	0.067
-290.632	293.033	0.151	-0.271
-289.618	-98.479	-0.140	0.035
-288.603	-118.696	0.304	-0.053
-287.589	166.855	-0.102	-0.143
-286.574	-200.000	0.048	-0.394
-285.559	-138.537	-0.111	-0.012
-284.545	243.350	0.129	0.214
-283.530	36.671	0.163	-0.142
-282.516	-29.358	-0.126	0.071
-281.501	54.119	0.262	0.248
-280.486	800.000	0.031	-0.092
-279.472	-200.000	0.051	-0.353
-278.457	800.000	-0.036	-0.151
-277.443	634.671	-0.088	-0.219
-276.428	-7.948	-0.093	-0.062
-275.413	-82.117	0.238	-0.076
-274.399	-200.000	0.035	0.362
-273.384	-200.000	0.057	-0.286
-272.370	-88.652	-0.204	0.060
-271.355	-82.057	-0.087	-0.028
-270.340	128.102	-0.078	0.098
-269.326	-78.614	0.310	0.104
-268.311	446.112	0.076	0.164
-267.297	217.958	-0.146	-0.229
-266.282	126.847	-0.132	-0.165
-265.267	-33.059	0.250	-0.137
-264.253	-200.000	-0.014	0.255
-263.238	-200.000	0.017	-0.180
-262.224	239.119	0.086	-0.141
-261.209	340.659	0.132	-0.253
-260.195	-121.274	-0.111	-0.018
-259.180	-200.000	-0.005	0.120
-258.165	-16.915	0.229	0.143
-257.151	-179.742	-0.273	0.006
-256.136	23.197	0.278	-0.224
-255.122	-13.462	0.194	0.124
-254.107	-200.000	0.008	-0.220
-253.092	-200.000	-0.014	0.138
-252.078	2.131	0.255	0.182
-251.063	-99.276	-0.249	0.062
-250.049	72.842	-0.116	-0.119
-249.034	92.495	0.048	0.053
-248.019	-4.700	-0.032	0.022
-247.005	21.243	0.239	-0.191
-245.990	226.451	0.145	0.231
-244.976	-128.451	0.250	-0.035
-243.961	-34.816	-0.136	0.073
-242.946	-200.000	0.036	0.173
-241.932	-200.000	0.018	0.093
-240.917	-112.776	0.227	0.044
-239.903	27.615	0.311	-0.258
-238.888	3.942	-0.193	-0.139
-237.873	-55.767	0.266	0.117
-236.859	10.977	0.277	-0.208
-235.844	446.469	-0.066	-0.143
-234.830	155.676	0.193	0.262
-233.815	-200.000	-0.014	0.234
-232.800	-110.155	0.224	0.046
-231.786	-200.000	0.047	0.288
-230.771	-200.000	-0.014	0.116
-229.757	-200.000	0.066	-0.305
-228.742	-98.768	0.158	0.040
-227.727	-122.535	-0.061	-0.010
-226.713	14.259	0.052	-0.040
-225.698	800.000	0.043	-0.120
-224.684	166.099	-0.245	0.341
-223.669	119.810	-0.073	0.089
-222.655	585.922	-0.075	-0.181
-221.640	-51.863	-0.475	-0.217
-220.625	230.061	0.081	-0.131
-219.611	474.082	-0.098	-0.217
-218.596	-30.248	-0.093	-0.052
-217.582	53.483	-0.170	-0.160
-216.567	-72.827	0.270	-0.098
-215.552	-107.027	0.209	-0.045
-214.538	-149.374	-0.213	-0.017
-213.523	-23.403	-0.161	-0.095
-212.509	-72.774	-0.095	0.034
-211.494	260.180	0.106	0.180
-210.479	-60.303	-0.195	0.082
-209.465	38.657	0.144	0.127
-208.450	800.000	0.018	-0.056
-207.436	800.000	0.099	0.290
-206.421	70.292	-0.211	-0.214
-205.406	39.980	-0.248	-0.219
-204.392	60.269	-0.326	-0.316
-203.377	-200.000	-0.009	0.328
-202.363	-166.823	-0.154	0.006
-201.348	-104.061	-0.147	-0.034
-200.333	752.332	0.050	-0.132
-199.319	-104.403	-0.274	-0.062
-198.304	-170.831	0.506	-0.017
-197.290	-80.878	0.255	-0.083
-196.275	800.000	0.026	-0.097
-195.260	-17.303	-0.043	0.027
-194.246	-10.844	-0.040	0.026
-193.231	5.760	0.161	-0.117
-192.217	-149.312	0.106	0.008
-191.202	14.003	-0.320	-0.245
-190.187	261.168	0.096	-0.164
-189.173	-55.553	-0.141	-0.062
-188.158	800.000	-0.078	-0.266
-187.144	-200.000	0.046	-0.306
-186.129	274.863	-0.080	0.139
-185.114	16.622	0.073	0.057
-184.100	800.000	0.141	-0.450
-183.085	-104.650	0.337	0.076
-182.071	-200.000	-0.040	0.356
-181.056	112.622	0.132	-0.156
-180.042	-200.000	-0.021	0.231
-179.027	800.000	-0.081	-0.273
-178.012	337.803	0.060	0.114
-176.998	10.190	-0.152	0.114
-175.983	157.076	0.253	-0.343
-174.969	8.050	0.033	0.024
-173.954	-141.234	-0.103	0.010
-172.939	298.335	0.241	0.436
-171.925	-200.000	0.086	0.371
-170.910	-200.000	-0.027	0.152
-169.896	57.184	-0.266	-0.254
-168.881	-94.318	0.171	-0.046
-167.866	-49.256	-0.172	-0.080
-166.852	800.000	0.011	-0.041
-165.837	106.100	-0.138	0.160
-164.823	-43.963	0.281	0.138
-163.808	-37.848	-0.157	0.082
-162.793	-130.454	0.132	0.018
-161.779	193.333	-0.075	0.111
-160.764	-24.722	-0.127	-0.074
-159.750	11.920	0.176	-0.133
-158.735	-45.840	0.136	0.066
-157.720	261.453	0.101	0.172
-156.706	36.688	0.036	0.031
-155.691	200.644	0.370	0.558
-154.677	-200.000	0.011	-0.254
-153.662	-119.237	0.039	0.007
-152.647	1.336	-0.301	-0.212
-151.633	-68.905	0.307	-0.116
-150.618	120.305	-0.078	-0.095
-149.604	-157.516	0.217	-0.013
-148.589	-97.967	0.280	0.071
-147.574	-115.301	-0.241	0.045
-146.560	-200.000	-0.002	-0.114
-145.545	-149.222	0.220	0.017
-144.531	800.000	0.051	-0.153
-143.516	3.257	0.269	-0.192
-142.502	-200.000	-0.002	0.364
-141.487	800.000	0.033	-0.110
-140.472	-200.000	-0.039	0.272
-139.458	800.000	0.074	0.207
-138.443	9.440	0.268	0.199
-137.429	-200.000	0.022	0.397
-136.414	800.000	-0.060	0.175
-135.399	131.831	-0.115	0.146
-134.385	-7.331	-0.156	-0.103
-133.370	-102.406	-0.402	-0.094
-132.356	-129.612	0.352	0.048
-131.341	24.825	0.152	-0.124
-130.326	-175.764	-0.311	0.008
-129.312	138.929	-0.085	0.110
-128.297	-99.131	-0.174	-0.043
-127.283	800.000	-0.054	0.154
-126.268	35.565	-0.227	0.196
-125.253	-200.000	0.017	-0.122
-124.239	-157.449	0.068	0.004
-123.224	800.000	-0.062	-0.216
-122.210	-142.774	-0.028	0.003
-121.195	-43.485	0.027	-0.013
