DTS Sentinel unit serial number:	SN413079Multiplexer serial number:	ORYXHardware model number:	OX4-SRSoftware version number:	ORYX F/W v4.00 Oryx Data Collector v3.7.2.0data status	okinstallation	princeton_trtdifferential loss correction	single-endedforward channel	channel 1reverse channel	N/Adate	2019/09/12time	19:49:34forward acquisition time	15.00reverse acquisition time	0.00gamma	496.2192k internal	0.2323k external	0.2323temperature offset calibration	1.0138default loss term (dB/km)	0.3790temperature slope calibration	1.0000multiplexer offset coefficient	1.0000multiplexer slope coefficient	1.0000fibre end	0.00T internal ref (°C)	31.94T ext. ref 1 (°C)	3.46T ext. ref 2 (°C)	26.59length (m)	temperature (°C)	Stokes	anti-Stokes-747.200	800.000	0.129	0.498
-746.185	800.000	0.067	0.248
-745.171	172.410	-0.250	-0.363
-744.156	59.198	0.265	0.264
-743.142	800.000	-0.202	0.623
-742.127	324.926	0.219	-0.423
-741.112	-46.534	-0.468	-0.232
-740.098	-5.846	-0.284	-0.196
-739.083	381.282	0.068	-0.142
-738.069	-54.070	0.544	0.250
-737.054	371.070	-0.173	0.354
-736.039	-133.238	0.435	-0.055
-735.025	575.706	-0.106	0.262
-734.010	-41.703	-0.415	-0.215
-732.996	-88.555	0.197	-0.059
-731.981	800.000	-0.117	0.412
-730.966	33.673	0.154	0.135
-729.952	-11.277	-0.375	0.250
-728.937	38.816	-0.513	-0.462
-727.923	365.704	-0.180	-0.366
-726.908	105.940	-0.134	-0.160
-725.894	-52.258	-0.535	-0.250
-724.879	494.532	-0.159	-0.369
-723.864	-119.191	-0.397	-0.070
-722.850	-106.086	-0.581	0.132
-721.835	-139.853	1.195	0.128
-720.821	-24.319	-0.631	0.379
-719.806	285.597	0.312	-0.567
-718.791	-96.058	0.299	0.080
-717.777	-60.178	0.357	-0.154
-716.762	-117.211	0.492	-0.090
-715.748	548.048	0.195	0.470
-714.733	-29.254	0.443	0.256
-713.718	-100.635	0.295	-0.073
-712.704	-200.000	-0.101	0.709
-711.689	-46.960	0.638	-0.314
-710.675	-16.874	-0.488	0.311
-709.660	-126.921	0.318	-0.047
-708.645	-70.129	-0.492	-0.189
-707.631	-8.053	-0.626	0.425
-706.616	537.307	0.317	-0.759
-705.602	134.419	0.427	0.558
-704.587	-124.574	-0.266	-0.042
-703.572	45.594	0.167	-0.156
-702.558	79.872	-0.627	0.679
-701.543	-200.000	0.031	-0.851
-700.529	-200.000	-0.053	1.036
-699.514	108.730	0.348	0.419
-698.499	27.750	-0.349	0.296
-697.485	541.371	0.187	-0.449
-696.470	-152.414	-0.470	0.034
-695.456	-70.813	-0.865	-0.329
-694.441	800.000	-0.402	-1.147
-693.426	23.399	0.667	-0.553
-692.412	-30.405	1.066	0.609
-691.397	64.630	-0.594	0.604
-690.383	24.747	-0.166	0.138
-689.368	61.300	0.249	0.250
-688.354	-56.024	0.589	-0.264
-687.339	-200.000	-0.073	0.506
-686.324	-84.010	-0.756	-0.242
-685.310	-35.968	0.072	0.039
-684.295	-4.571	-0.643	0.447
-683.281	182.019	0.794	1.178
-682.266	-95.631	0.174	0.047
-681.251	-96.069	-0.400	0.107
-680.237	46.498	-0.787	-0.736
-679.222	81.477	-0.393	0.428
-678.208	335.842	0.091	-0.177
-677.193	-200.000	-0.010	-0.100
-676.178	437.347	0.276	0.606
-675.164	800.000	0.277	-0.855
-674.149	21.347	-0.863	-0.706
-673.135	-73.867	-0.780	0.285
-672.120	-74.869	0.725	-0.262
-671.105	-200.000	0.039	0.424
-670.091	-200.000	-0.091	-0.501
-669.076	-90.372	0.817	-0.239
-668.062	-125.389	-0.108	-0.017
-667.047	-30.842	-0.207	-0.118
-666.032	800.000	-0.017	0.050
-665.018	203.776	-0.383	-0.597
-664.003	3.368	-0.399	-0.293
-662.989	800.000	0.125	-0.414
-661.974	-109.746	0.686	0.145
-660.959	258.257	-0.178	0.309
-659.945	77.849	-0.526	-0.565
-658.930	-105.360	0.530	-0.121
-657.916	-2.058	-0.293	0.207
-656.901	-25.201	0.837	0.499
-655.886	-93.091	0.233	-0.065
-654.872	550.229	-0.315	0.759
-653.857	89.253	0.481	0.539
-652.843	-200.000	-0.074	0.514
-651.828	-83.392	0.534	0.172
-650.814	-110.616	0.361	0.075
-649.799	-147.452	-0.376	0.032
-648.784	800.000	-0.063	-0.214
-647.770	641.873	-0.154	-0.396
-646.755	27.982	0.303	-0.257
-645.741	64.216	-0.184	-0.187
-644.726	-91.788	0.881	-0.252
-643.711	-59.345	0.638	-0.276
-642.697	-67.492	-0.659	0.260
-641.682	124.299	0.311	-0.393
-640.668	-200.000	-0.172	1.020
-639.653	800.000	0.045	0.172
-638.638	-65.124	-0.442	-0.179
-637.624	800.000	-0.030	-0.119
-636.609	41.646	-0.353	0.321
-635.595	42.426	-0.124	0.114
-634.580	-1.029	-0.344	-0.245
-633.565	596.165	-0.462	1.150
-632.551	100.947	0.460	-0.537
-631.536	-44.318	0.226	-0.114
-630.522	41.276	0.569	0.517
-629.507	149.164	0.336	0.457
-628.492	-200.000	0.029	0.572
-627.478	69.608	0.077	-0.080
-626.463	44.480	0.092	0.085
-625.449	89.259	0.213	0.239
-624.434	-50.064	-0.553	-0.264
-623.419	294.183	-0.326	-0.599
-622.405	-132.054	0.370	-0.048
-621.390	704.744	0.095	-0.251
-620.376	123.223	-0.270	-0.341
-619.361	-90.176	-0.256	-0.075
-618.346	-200.000	-0.065	0.415
-617.332	-144.061	-0.466	-0.044
-616.317	8.155	-0.421	-0.318
-615.303	564.825	-0.084	-0.203
-614.288	49.002	-0.059	0.056
-613.273	-200.000	-0.099	-0.438
-612.259	110.139	-0.388	0.468
-611.244	-137.544	0.800	-0.091
-610.230	125.387	-0.388	0.492
-609.215	-20.209	0.244	-0.151
-608.201	-200.000	-0.002	-0.157
-607.186	324.790	0.216	-0.415
-606.171	-22.975	-0.644	0.390
-605.157	15.312	-0.973	0.767
-604.142	-85.508	0.439	-0.137
-603.128	145.713	0.240	0.322
-602.113	-161.038	-0.668	0.035
-601.098	519.868	0.359	0.845
-600.084	134.340	-0.355	-0.462
-599.069	268.686	-0.573	-1.009
-598.055	85.862	0.039	0.044
-597.040	71.419	-0.245	0.255
-596.025	31.773	0.097	0.084
-595.011	-135.386	-0.454	-0.055
-593.996	-21.715	0.160	0.098
-592.982	-104.735	0.229	-0.053
-591.967	369.245	-0.185	0.375
-590.952	-77.434	1.077	-0.375
-589.938	94.271	0.553	0.630
-588.923	-168.631	-0.853	0.033
-587.909	-63.562	-0.880	0.363
-586.894	-73.093	0.179	-0.066
-585.879	-41.623	-0.694	0.358
-584.865	134.957	0.266	0.347
-583.850	133.861	-0.169	-0.220
-582.836	665.481	0.150	-0.389
-581.821	-200.000	0.011	-1.090
-580.806	473.768	-0.242	-0.548
-579.792	-200.000	0.282	0.001
-578.777	800.000	-0.287	-0.960
-577.763	-200.000	0.037	-1.002
-576.748	161.858	0.259	0.364
-575.733	-200.000	-0.022	-0.141
-574.719	260.840	-0.464	0.805
-573.704	-51.579	0.906	-0.424
-572.690	-112.049	-0.873	0.176
-571.675	-20.481	0.490	-0.302
-570.661	127.942	0.315	-0.402
-569.646	-138.860	-1.131	-0.124
-568.631	18.150	-0.282	0.226
-567.617	205.400	-0.208	-0.325
-566.602	-91.431	-0.300	0.086
-565.588	800.000	0.083	0.264
-564.573	-200.000	-0.044	0.498
-563.558	-94.193	0.308	-0.085
-562.544	-32.092	0.171	-0.096
-561.529	152.305	0.520	0.711
-560.515	-109.514	0.643	-0.136
-559.500	61.479	0.415	0.414
-558.485	-200.000	-0.057	-0.444
-557.471	-82.796	-0.092	0.030
-556.456	-119.828	0.111	0.019
-555.442	-200.000	0.053	-0.549
-554.427	640.152	0.179	-0.456
-553.412	-200.000	0.036	-0.453
-552.398	-22.568	0.572	-0.347
-551.383	-200.000	0.064	-0.780
-550.369	234.673	-0.134	0.221
-549.354	-90.919	-0.919	-0.265
-548.339	101.406	-0.819	0.957
-547.325	60.664	-0.570	0.566
-546.310	44.621	0.869	-0.801
-545.296	62.278	-0.340	0.340
-544.281	-53.403	0.571	-0.262
-543.266	725.897	0.450	-1.202
-542.252	-200.000	-0.001	-0.209
-541.237	-123.809	-0.172	-0.027
-540.223	-106.590	0.523	0.117
-539.208	800.000	-0.114	0.473
-538.193	104.329	0.541	0.638
-537.179	800.000	0.206	0.599
-536.164	-127.721	-0.477	0.069
-535.150	-200.000	0.122	-0.717
-534.135	246.188	0.227	-0.383
-533.121	28.483	0.284	0.241
-532.106	-44.619	0.652	0.326
-531.091	-200.000	0.057	0.445
-530.077	-49.332	-0.202	-0.096
-529.062	800.000	-0.121	-0.462
-528.048	-200.000	-0.007	-0.161
-527.033	-108.931	-0.318	0.068
-526.018	-74.132	0.456	-0.165
-525.004	111.915	-0.340	-0.412
-523.989	509.958	-0.231	0.537
-522.975	-62.420	-0.445	0.185
-521.960	18.329	-0.565	-0.452
-520.945	8.926	-0.268	0.202
-519.931	-57.072	0.462	0.204
-518.916	475.542	0.075	-0.168
-517.902	25.026	-0.751	0.623
-516.887	-200.000	-0.020	1.623
-515.872	-15.417	0.251	0.161
-514.858	-4.463	-0.399	0.276
-513.843	71.032	-0.315	0.326
-512.829	-77.666	0.611	0.212
-511.814	202.998	0.325	-0.502
-510.799	599.383	-0.172	-0.428
-509.785	610.603	0.164	0.410
-508.770	495.017	0.342	-0.787
-507.756	-200.000	0.062	-0.660
-506.741	111.761	-0.375	-0.452
-505.726	89.313	-0.354	-0.395
-504.712	101.576	0.429	-0.500
-503.697	-109.336	0.624	-0.132
-502.683	-200.000	0.062	0.558
-501.668	-200.000	0.061	-0.383
-500.653	47.192	-1.005	0.936
-499.639	-200.000	0.089	1.087
-498.624	-200.000	0.008	-0.406
-497.610	-135.464	-0.341	0.041
-496.595	-54.161	-0.272	-0.124
-495.581	-120.019	0.700	0.120
-494.566	-138.218	0.352	0.039
-493.551	-200.000	-0.052	-0.359
-492.537	800.000	-0.034	-0.098
-491.522	82.285	-0.314	-0.340
-490.508	800.000	0.131	-0.550
-489.493	800.000	0.064	0.256
-488.478	-5.015	0.417	0.287
-487.464	-200.000	0.048	0.743
-486.449	-39.057	-0.716	-0.377
-485.435	-12.275	0.216	-0.141
-484.420	790.288	-0.243	0.669
-483.405	669.056	-0.141	0.364
-482.391	800.000	0.069	0.254
-481.376	-64.178	0.885	-0.361
-480.362	329.810	-0.440	-0.846
-479.347	-166.580	-0.197	0.008
-478.332	11.612	0.611	0.468
-477.318	-200.000	0.058	-0.381
-476.303	-73.550	-0.430	0.157
-475.289	-176.227	-0.595	-0.016
-474.274	-142.999	-0.650	-0.063
-473.259	327.972	0.225	-0.432
-472.245	104.183	0.181	-0.213
-471.230	-58.341	-0.249	0.108
-470.216	166.395	0.720	-1.019
-469.201	-68.627	-0.916	0.354
-468.186	-200.000	0.008	0.513
-467.172	-44.110	0.295	0.148
-466.157	267.788	-0.319	-0.558
-465.143	486.115	-0.576	-1.312
-464.128	-5.182	0.650	-0.446
-463.113	-27.763	0.065	0.037
-462.099	139.706	0.200	-0.263
-461.084	-200.000	-0.022	-0.128
-460.070	492.737	0.291	0.665
-459.055	-169.589	-0.306	-0.011
-458.040	376.710	0.184	-0.375
-457.026	14.643	-0.201	-0.156
-456.011	-200.000	0.001	-0.390
-454.997	231.148	-0.232	0.379
-453.982	206.786	0.249	-0.387
-452.968	315.901	-0.163	0.307
-451.953	-200.000	-0.074	-0.390
-450.938	-12.630	0.206	0.134
-449.924	57.397	0.314	0.306
-448.909	800.000	-0.053	0.227
-447.895	36.011	0.367	-0.323
-446.880	143.301	-0.236	0.313
-445.865	71.705	-0.222	0.230
-444.851	-32.229	0.734	-0.409
-443.836	73.937	-0.093	-0.098
-442.822	139.435	-0.286	-0.375
-441.807	790.719	0.158	-0.433
-440.792	26.223	-0.318	-0.265
-439.778	-68.129	0.438	0.170
-438.763	800.000	0.127	0.458
-437.749	-83.223	0.161	0.052
-436.734	-50.463	0.423	-0.199
-435.719	29.273	-0.322	-0.273
-434.705	-72.661	-0.366	0.135
-433.690	93.371	0.543	-0.613
-432.676	800.000	-0.153	-0.658
-431.661	-143.284	-0.428	0.041
-430.646	164.442	0.421	-0.592
-429.632	800.000	-0.294	-0.980
-428.617	239.390	-0.421	-0.698
-427.603	136.270	-0.506	-0.658
-426.588	399.590	0.142	0.296
-425.573	-100.788	-0.626	-0.154
-424.559	-200.000	-0.100	-0.916
-423.544	-108.551	0.837	0.180
-422.530	-48.313	-0.292	-0.140
-421.515	-91.675	0.370	-0.105
-420.500	-200.000	0.037	-0.587
-419.486	-40.133	0.241	0.125
-418.471	800.000	-0.113	0.395
-417.457	-172.336	0.417	-0.013
-416.442	-20.170	0.495	-0.304
-415.428	-200.000	-0.001	-0.430
-414.413	-83.240	0.681	0.218
-413.398	-112.494	-0.356	0.071
-412.384	204.099	-0.345	0.532
-411.369	-38.465	-0.298	0.157
-410.355	268.540	-0.701	-1.226
-409.340	104.036	0.136	-0.160
-408.325	56.094	-0.258	0.250
-407.311	-0.063	-0.532	-0.377
-406.296	-5.936	-0.548	0.374
-405.282	-103.247	-0.523	0.123
-404.267	122.811	0.109	-0.136
-403.252	800.000	0.099	-0.289
-402.238	-200.000	-0.133	-0.697
-401.223	-102.975	-0.667	0.158
-400.209	-200.000	0.005	0.698
-399.194	-69.611	0.241	-0.092
-398.179	-71.825	0.494	-0.183
-397.165	128.146	0.474	0.601
-396.150	29.684	-0.456	0.387
-395.136	176.663	-0.249	0.360
-394.121	65.607	-0.318	-0.321
-393.106	43.987	0.297	0.271
-392.092	21.277	1.153	0.932
-391.077	-32.287	0.633	0.352
-390.063	-200.000	0.013	-0.086
-389.048	139.945	0.526	0.691
-388.033	800.000	-0.264	0.828
-387.019	-99.233	-0.357	-0.090
-386.004	19.431	-0.056	0.045
-384.990	36.190	-0.252	-0.221
-383.975	800.000	-0.115	-0.453
-382.960	-200.000	-0.068	0.351
-381.946	292.479	-0.141	0.255
-380.931	-111.065	0.628	0.128
-379.917	-200.000	-0.222	1.167
-378.902	800.000	0.253	0.718
-377.888	-109.805	1.076	-0.225
-376.873	127.711	-0.421	0.533
-375.858	-62.572	0.876	0.362
-374.844	-154.506	-0.832	-0.055
-373.829	-104.444	0.698	0.161
-372.815	481.132	0.239	0.540
-371.800	-66.927	0.603	0.237
-370.785	-131.376	-0.299	0.039
-369.771	214.249	-0.231	0.365
-368.756	-153.436	0.502	0.035
-367.742	-182.502	-0.107	-0.002
-366.727	-176.923	0.276	-0.007
-365.712	-60.962	-0.786	-0.331
-364.698	-200.000	0.011	0.209
-363.683	800.000	-0.095	0.357
-362.669	69.991	-0.481	-0.494
-361.654	-200.000	0.067	-0.627
-360.639	-20.797	0.357	0.218
-359.625	91.391	-0.234	0.261
-358.610	-109.348	0.456	0.096
-357.596	-2.526	0.082	0.057
-356.581	-88.713	-0.469	-0.139
-355.566	-82.505	0.347	0.112
-354.552	-87.389	-0.104	0.031
-353.537	-200.000	0.037	-0.470
-352.523	73.299	-0.241	-0.251
-351.508	-58.373	-0.061	0.026
-350.493	-50.948	-0.181	0.084
-349.479	-41.108	0.300	0.154
-348.464	41.182	0.431	0.387
-347.450	314.895	-0.080	-0.151
-346.435	800.000	0.142	0.455
-345.420	392.011	-0.301	-0.622
-344.406	800.000	0.152	-0.421
-343.391	-157.121	0.720	0.044
-342.377	110.998	0.355	0.425
-341.362	75.685	-0.280	-0.294
-340.348	598.701	-0.279	0.687
-339.333	125.851	0.214	0.269
-338.318	-80.202	0.585	-0.195
-337.304	800.000	0.234	0.710
-336.289	-89.019	-0.654	0.192
-335.275	141.101	0.119	0.156
-334.260	-200.000	0.068	0.313
-333.245	-200.000	-0.040	-0.387
-332.231	-141.707	0.734	0.073
-331.216	800.000	-0.118	0.463
-330.202	-78.542	0.718	-0.244
-329.187	-93.382	0.394	-0.109
-328.172	800.000	0.229	0.767
-327.158	146.862	-0.290	0.387
-326.143	119.150	0.128	-0.157
-325.129	-200.000	-0.086	-0.852
-324.114	800.000	0.051	-0.146
-323.099	800.000	-0.049	0.212
-322.085	66.434	-0.179	-0.180
-321.070	207.545	-0.486	0.753
-320.056	-129.040	0.323	-0.045
-319.041	172.023	-0.187	0.267
-318.026	-79.906	-0.801	0.267
-317.012	60.687	0.173	0.171
-315.997	-200.000	-0.067	-0.790
-314.983	800.000	0.245	0.938
-313.968	-18.818	-0.562	-0.348
-312.953	-37.205	0.219	0.116
-311.939	-89.413	0.353	0.103
-310.924	30.234	-0.402	-0.341
-309.910	103.930	0.340	-0.397
-308.895	-154.552	-0.637	0.042
-307.880	268.342	0.119	-0.207
-306.866	-200.000	-0.034	-0.776
-305.851	381.687	-0.119	0.242
-304.837	-200.000	-0.051	-0.467
-303.822	800.000	-0.132	-0.468
-302.807	-49.544	0.278	0.132
-301.793	12.657	-0.979	-0.750
-300.778	88.748	-0.316	-0.349
-299.764	106.158	-0.822	0.966
-298.749	-105.508	0.710	-0.160
-297.735	125.785	0.257	0.322
-296.720	-123.771	-0.457	0.072
-295.705	-9.596	-0.100	-0.066
-294.691	-66.879	-0.676	0.265
-293.676	403.408	0.163	-0.340
-292.662	552.423	0.285	-0.678
-291.647	-29.856	0.916	0.518
-290.632	2.885	-0.739	0.532
-289.618	800.000	0.064	0.185
-288.603	-177.232	-0.686	0.017
-287.589	94.734	0.168	-0.190
-286.574	45.044	-0.361	-0.330
-285.559	-165.872	-0.312	0.013
-284.545	800.000	-0.128	0.444
-283.530	55.461	-0.425	-0.408
-282.516	36.801	-0.437	-0.383
-281.501	800.000	0.133	0.372
-280.486	-200.000	0.124	-0.565
-279.472	-127.110	-0.174	0.025
-278.457	425.662	0.408	-0.871
-277.443	406.913	-0.350	0.734
-276.428	198.397	0.534	0.810
-275.413	-200.000	-0.042	0.330
-274.399	-5.247	-0.094	0.064
-273.384	547.405	0.303	-0.719
-272.370	1.476	-0.609	-0.435
-271.355	33.727	0.168	0.145
-270.340	16.991	0.279	-0.219
-269.326	-200.000	0.102	1.190
-268.311	-19.677	0.265	0.162
-267.297	800.000	-0.071	0.292
-266.282	-200.000	-0.099	1.279
-265.267	-200.000	-0.041	-0.202
-264.253	-89.829	0.655	0.190
-263.238	0.814	0.358	0.254
-262.224	8.571	0.623	0.465
-261.209	-200.000	-0.130	1.004
-260.195	-96.673	-0.212	0.055
-259.180	119.589	0.405	0.497
-258.165	-200.000	-0.065	-0.520
-257.151	454.133	-0.330	0.725
-256.136	-200.000	0.044	-0.244
-255.122	-53.775	-0.644	-0.291
-254.107	-151.116	0.611	0.045
-253.092	800.000	-0.120	-0.392
-252.078	-200.000	-0.018	-0.439
-251.063	73.362	0.226	-0.235
-250.049	-114.128	0.063	0.012
-249.034	469.541	0.409	0.909
-248.019	-148.659	0.599	0.048
-247.005	-200.000	-0.073	0.377
-245.990	-200.000	0.009	0.095
-244.976	-79.485	0.704	-0.236
-243.961	-200.000	-0.067	0.372
-242.946	-111.446	0.199	0.040
-241.932	329.232	0.400	0.761
-240.917	800.000	0.032	0.114
-239.903	-120.768	-0.546	-0.091
-238.888	82.120	0.140	-0.151
-237.873	392.538	-0.171	0.353
-236.859	235.571	-0.364	-0.596
-235.844	256.492	0.164	-0.279
-234.830	-70.807	0.102	-0.038
-233.815	-200.000	0.062	0.405
-232.800	-45.513	0.816	-0.400
-231.786	-41.523	-0.487	0.248
-230.771	800.000	-0.193	0.555
-229.757	10.734	-0.413	0.312
-228.742	-200.000	0.017	-0.178
-227.727	800.000	0.217	0.618
-226.713	341.677	0.128	-0.247
-225.698	204.618	-0.626	-0.960
-224.684	-110.521	-0.220	0.045
-223.669	3.835	-0.594	0.429
-222.655	-200.000	-0.017	-0.237
-221.640	47.132	-0.700	0.644
-220.625	-111.953	-0.404	0.081
-219.611	800.000	0.207	-0.857
-218.596	-200.000	0.017	-0.386
-217.582	-200.000	0.024	0.389
-216.567	-200.000	0.130	0.834
-215.552	271.312	-0.142	0.248
-214.538	19.518	-0.060	-0.048
-213.523	76.114	-0.265	-0.277
-212.509	72.833	0.913	-0.943
-211.494	-149.458	-0.440	0.035
-210.479	-53.392	0.188	-0.085
-209.465	600.023	0.053	-0.130
-208.450	-200.000	0.136	1.448
-207.436	-129.758	-0.960	-0.131
-206.421	-38.056	0.651	0.342
-205.406	243.268	-0.086	-0.143
-204.392	-107.324	-0.753	-0.164
-203.377	239.789	0.231	0.381
-202.363	-43.590	-0.709	0.354
-201.348	-200.000	-0.028	0.241
-200.333	54.573	0.305	0.291
-199.319	259.616	0.364	0.622
-198.304	-157.003	0.489	0.030
-197.290	800.000	-0.125	-0.344
-196.275	-74.357	-0.408	-0.146
-195.260	-193.608	-0.456	-0.004
-194.246	-200.000	0.130	-0.818
-193.231	-42.644	0.149	-0.075
-192.217	322.082	-0.439	-0.826
-191.202	-83.914	0.642	0.202
-190.187	-33.753	0.138	-0.075
-189.173	-31.844	-0.426	0.236
-188.158	116.641	0.297	0.360
-187.144	69.376	-0.130	0.132
-186.129	311.507	-0.453	-0.840
-185.114	778.929	0.231	0.623
-184.100	-51.378	0.427	0.197
-183.085	205.150	0.395	-0.605
-182.071	-74.974	0.337	-0.119
-181.056	5.024	0.821	0.597
-180.042	-77.068	0.249	0.086
-179.027	-94.304	-0.700	0.189
-178.012	-183.746	0.544	0.009
-176.998	-200.000	0.007	-0.236
-175.983	158.337	-0.176	0.241
-174.969	-200.000	0.065	-1.278
-173.954	-112.472	-0.271	-0.053
-172.939	1.854	0.450	0.320
-171.925	-200.000	0.002	-1.257
-170.910	-91.100	-0.297	-0.084
-169.896	255.246	-0.168	0.285
-168.881	229.687	-0.187	-0.301
-167.866	403.068	-0.242	-0.502
-166.852	28.363	-0.284	0.237
-165.837	-121.678	-0.485	-0.079
-164.823	800.000	-0.049	-0.184
-163.808	800.000	0.130	0.522
-162.793	150.425	-0.198	-0.266
-161.779	174.089	0.264	0.376
-160.764	-73.137	0.902	-0.326
-159.750	43.831	-0.218	-0.197
-158.735	-200.000	-0.017	0.514
-157.720	41.577	-0.273	0.244
-156.706	-198.429	0.723	-0.004
-155.691	-72.175	0.988	0.362
-154.677	-200.000	0.021	-0.460
-153.662	-200.000	0.009	-0.649
-152.647	-169.524	0.668	0.024
-151.633	512.225	0.301	-0.691
-150.618	20.199	-0.216	-0.172
-149.604	63.255	-1.012	-1.001
-148.589	41.140	0.061	0.055
-147.574	52.182	-0.679	-0.639
-146.560	-200.000	0.022	1.030
-145.545	95.932	-0.263	0.297
-144.531	-200.000	-0.061	0.590
-143.516	-113.773	0.937	-0.180
-142.502	-200.000	-0.025	0.649
-141.487	38.798	-0.489	0.430
-140.472	-149.445	0.165	0.013
-139.458	237.082	-0.126	-0.205
-138.443	-193.178	0.301	-0.003
-137.429	-133.253	0.874	-0.109
-136.414	66.509	-0.766	-0.768
-135.399	133.514	0.499	0.636
-134.385	246.969	0.262	-0.436
-133.370	137.342	-0.330	0.425
-132.356	100.612	0.639	-0.732
-131.341	171.103	0.380	0.537
-130.326	-200.000	-0.005	0.100
-129.312	226.845	-0.120	-0.193
-128.297	210.115	0.199	-0.307
-127.283	375.022	-0.221	0.445
-126.268	555.309	0.194	-0.461
-125.253	-200.000	-0.096	0.438
-124.239	800.000	0.100	0.275
-123.224	207.888	0.254	-0.392
-122.210	-8.473	-0.591	-0.391
-121.195	800.000	-0.094	-0.400
-120.180	800.000	-0.042	0.157
