DTS Sentinel unit serial number:	SN413079Multiplexer serial number:	ORYXHardware model number:	OX4-SRSoftware version number:	ORYX F/W v4.00 Oryx Data Collector v3.7.2.0data status	okinstallation	princeton_trtdifferential loss correction	single-endedforward channel	channel 1reverse channel	N/Adate	2019/09/18time	08:22:35forward acquisition time	60.00reverse acquisition time	0.00gamma	496.2192k internal	0.2337k external	0.2337temperature offset calibration	0.9977default loss term (dB/km)	0.3790temperature slope calibration	1.0000multiplexer offset coefficient	1.0000multiplexer slope coefficient	1.0000fibre end	0.00T internal ref (°C)	24.12T ext. ref 1 (°C)	0.22T ext. ref 2 (°C)	19.76length (m)	temperature (°C)	Stokes	anti-Stokes-747.200	-8.106	-0.136	0.092
-746.185	800.000	-0.013	0.045
-745.171	4.385	0.089	0.066
-744.156	-61.170	-0.158	0.067
-743.142	237.989	0.130	0.216
-742.127	-34.380	-0.086	-0.047
-741.112	-64.994	-0.144	0.058
-740.098	-200.000	0.029	0.210
-739.083	-24.495	-0.032	-0.019
-738.069	800.000	0.058	0.247
-737.054	-200.000	0.018	-0.159
-736.039	-25.383	-0.176	0.105
-735.025	-65.054	0.240	0.097
-734.010	-200.000	0.038	-0.249
-732.996	18.618	-0.069	0.056
-731.981	319.452	0.081	-0.154
-730.966	423.967	-0.107	-0.231
-729.952	800.000	-0.035	0.137
-728.937	-83.940	-0.227	-0.072
-727.923	19.274	-0.147	0.118
-726.908	108.810	0.062	0.075
-725.894	375.850	0.055	0.112
-724.879	-16.873	-0.166	-0.106
-723.864	142.627	0.078	0.104
-722.850	-62.279	-0.151	-0.063
-721.835	800.000	-0.075	0.317
-720.821	800.000	0.108	-0.366
-719.806	800.000	-0.043	-0.163
-718.791	76.575	-0.094	0.100
-717.777	-75.426	0.108	-0.039
-716.762	-81.773	-0.316	0.104
-715.748	-200.000	0.011	-0.084
-714.733	10.604	0.358	0.274
-713.718	82.431	-0.072	-0.078
-712.704	-81.912	-0.295	-0.097
-711.689	-200.000	0.002	-0.039
-710.675	-98.652	0.458	-0.117
-709.660	-134.828	-0.246	-0.030
-708.645	105.324	0.196	0.232
-707.631	229.103	0.048	-0.079
-706.616	-200.000	-0.011	-0.259
-705.602	-91.921	0.161	0.046
-704.587	33.529	0.038	0.033
-703.572	112.721	-0.049	0.060
-702.558	53.948	-0.026	-0.025
-701.543	447.402	0.119	0.261
-700.529	-163.618	-0.038	0.002
-699.514	800.000	0.124	0.357
-698.499	73.439	0.113	0.119
-697.485	-177.041	0.269	-0.007
-696.470	800.000	-0.078	0.245
-695.456	-119.922	-0.139	-0.024
-694.441	384.219	-0.010	-0.022
-693.426	60.984	-0.214	0.213
-692.412	93.494	0.154	0.175
-691.397	-6.971	-0.197	0.134
-690.383	100.583	-0.248	-0.288
-689.368	800.000	0.039	-0.152
-688.354	84.115	-0.186	0.203
-687.339	-200.000	0.013	0.214
-686.324	800.000	-0.055	0.182
-685.310	-130.703	0.150	0.020
-684.295	-137.395	0.089	-0.010
-683.281	204.259	-0.149	0.232
-682.266	-37.116	-0.254	-0.136
-681.251	170.564	-0.095	-0.136
-680.237	388.745	-0.194	0.403
-679.222	15.522	-0.133	0.105
-678.208	100.255	-0.124	0.144
-677.193	153.553	0.067	0.092
-676.178	-200.000	0.011	0.267
-675.164	-189.112	-0.081	0.001
-674.149	800.000	0.028	-0.083
-673.135	-200.000	-0.023	0.162
-672.120	-200.000	-0.015	0.159
-671.105	-200.000	0.035	-0.530
-670.091	800.000	0.055	0.234
-669.076	144.723	0.123	0.165
-668.062	-139.237	0.072	0.008
-667.047	-200.000	-0.016	-0.503
-666.032	-101.919	-0.450	0.109
-665.018	-130.384	0.268	0.036
-664.003	-85.862	-0.048	0.015
-662.989	-74.679	-0.376	-0.135
-661.974	-200.000	0.018	0.176
-660.959	-200.000	-0.040	0.384
-659.945	189.915	-0.110	-0.166
-658.930	481.240	-0.138	-0.313
-657.916	-150.819	-0.248	-0.019
-656.901	15.849	0.111	0.087
-655.886	-116.176	-0.167	-0.031
-654.872	29.183	0.159	0.135
-653.857	-84.448	-0.174	-0.055
-652.843	542.635	0.044	0.104
-651.828	12.206	-0.173	-0.133
-650.814	-64.810	0.031	-0.012
-649.799	322.092	-0.143	-0.273
-648.784	800.000	-0.103	0.345
-647.770	125.183	-0.124	-0.157
-646.755	-156.039	0.409	0.026
-645.741	44.633	-0.155	0.142
-644.726	340.680	-0.072	0.140
-643.711	800.000	0.044	-0.143
-642.697	-37.801	-0.072	0.039
-641.682	8.030	0.207	-0.155
-640.668	128.202	-0.178	-0.226
-639.653	-1.832	0.025	0.018
-638.638	800.000	-0.030	-0.119
-637.624	-81.728	-0.033	-0.011
-636.609	382.557	0.073	0.150
-635.595	26.235	0.229	-0.191
-634.580	800.000	0.138	0.486
-633.565	-200.000	-0.005	-0.106
-632.551	-174.876	-0.267	-0.007
-631.536	-167.753	-0.236	-0.009
-630.522	800.000	0.071	0.224
-629.507	-200.000	0.007	0.315
-628.492	-200.000	-0.028	-0.217
-627.478	-130.771	0.262	-0.035
-626.463	-62.883	0.119	-0.049
-625.449	302.506	0.044	-0.081
-624.434	800.000	-0.059	-0.165
-623.419	54.731	-0.144	0.139
-622.405	-11.109	0.076	-0.050
-621.390	166.484	0.203	0.288
-620.376	800.000	-0.042	-0.135
-619.361	100.458	0.208	-0.241
-618.346	-109.473	0.036	0.007
-617.332	-79.959	-0.331	0.111
-616.317	-90.568	0.223	-0.064
-615.303	-79.438	0.208	-0.070
-614.288	-113.749	-0.304	0.059
-613.273	60.634	-0.243	0.240
-612.259	35.964	0.114	0.100
-611.244	53.689	-0.221	-0.212
-610.230	800.000	0.024	0.070
-609.215	800.000	0.098	0.413
-608.201	-111.568	0.064	-0.013
-607.186	-91.602	-0.237	-0.068
-606.171	-194.908	-0.183	-0.001
-605.157	800.000	0.069	0.201
-604.142	-200.000	0.004	0.197
-603.128	52.035	0.167	-0.159
-602.113	165.301	0.079	-0.111
-601.098	143.818	-0.204	0.272
-600.084	224.185	0.175	0.282
-599.069	-200.000	0.008	0.060
-598.055	131.938	-0.062	-0.080
-597.040	-83.898	0.096	0.031
-596.025	17.637	-0.270	-0.214
-595.011	-70.419	-0.193	0.073
-593.996	81.444	0.025	0.027
-592.982	-44.768	-0.159	-0.079
-591.967	-30.129	-0.117	-0.066
-590.952	492.720	-0.133	0.305
-589.938	88.988	0.204	0.227
-588.923	493.437	-0.052	-0.118
-587.909	800.000	0.008	-0.024
-586.894	122.476	-0.047	-0.059
-585.879	800.000	0.070	0.199
-584.865	127.372	-0.027	0.034
-583.850	-66.116	-0.150	0.060
-582.836	220.870	-0.083	0.133
-581.821	489.094	-0.157	0.358
-580.806	-200.000	-0.022	-0.148
-579.792	280.789	0.123	0.219
-578.777	77.301	0.157	0.167
-577.763	800.000	-0.064	0.199
-576.748	-109.085	-0.181	-0.038
-575.733	137.386	-0.031	-0.040
-574.719	-113.615	-0.052	-0.010
-573.704	278.489	-0.074	-0.132
-572.690	-200.000	0.090	0.000
-571.675	-200.000	0.056	0.382
-570.661	-5.857	0.193	0.132
-569.646	-97.754	0.184	0.047
-568.631	800.000	0.015	-0.053
-567.617	-200.000	-0.000	-0.233
-566.602	-79.466	-0.193	0.065
-565.588	-36.509	0.178	0.096
-564.573	800.000	-0.086	0.299
-563.558	-122.187	-0.184	-0.030
-562.544	-200.000	-0.061	-0.285
-561.529	-18.648	-0.170	-0.106
-560.515	-69.230	0.188	0.072
-559.500	135.068	0.237	0.307
-558.485	8.427	0.157	0.118
-557.471	-200.000	-0.036	-0.245
-556.456	-52.324	0.155	0.072
-555.442	513.840	-0.109	-0.253
-554.427	-150.892	-0.278	0.021
-553.412	800.000	-0.026	-0.081
-552.398	-28.122	-0.108	-0.062
-551.383	4.147	-0.355	0.259
-550.369	290.192	-0.154	-0.278
-549.354	-135.788	0.119	-0.014
-548.339	310.695	0.118	0.220
-547.325	57.429	-0.144	-0.140
-546.310	20.571	0.186	0.150
-545.296	-200.000	-0.025	0.110
-544.281	-163.549	0.271	0.013
-543.266	-41.272	-0.255	-0.131
-542.252	153.229	-0.246	-0.335
-541.237	-200.000	0.015	-0.139
-540.223	-155.988	-0.141	-0.009
-539.208	244.519	0.117	-0.196
-538.193	-57.419	-0.386	0.169
-537.179	-60.899	-0.192	0.081
-536.164	-200.000	-0.001	0.093
-535.150	-30.722	0.305	-0.172
-534.135	389.008	0.216	-0.445
-533.121	-171.430	-0.034	-0.001
-532.106	31.752	-0.070	0.060
-531.091	-167.679	0.111	0.004
-530.077	-122.079	-0.114	0.019
-529.062	-176.365	0.112	-0.003
-528.048	-200.000	0.090	-0.408
-527.033	-1.513	-0.300	-0.211
-526.018	39.260	0.269	-0.240
-525.004	-54.478	0.405	0.183
-523.989	38.397	-0.146	0.129
-522.975	800.000	0.086	-0.317
-521.960	800.000	-0.023	-0.085
-520.945	107.305	0.053	0.063
-519.931	518.777	-0.059	-0.137
-518.916	-9.987	-0.020	-0.013
-517.902	-112.304	-0.237	-0.047
-516.887	261.548	-0.099	0.170
-515.872	-200.000	0.007	-0.290
-514.858	200.853	-0.168	0.257
-513.843	-159.163	0.270	-0.015
-512.829	-200.000	0.176	0.000
-511.814	-46.111	-0.271	-0.133
-510.799	-91.356	-0.178	-0.051
-509.785	-200.000	0.014	0.079
-508.770	-44.423	0.359	0.179
-507.756	56.610	-0.112	-0.109
-506.741	71.189	-0.277	0.286
-505.726	-200.000	0.017	0.221
-504.712	29.113	-0.207	0.174
-503.697	-66.240	0.152	-0.060
-502.683	-56.189	0.217	-0.096
-501.668	128.828	0.055	0.070
-500.653	-57.132	0.136	0.059
-499.639	-200.000	0.022	0.225
-498.624	-28.088	0.176	-0.101
-497.610	-152.624	0.307	-0.022
-496.595	170.696	0.130	-0.185
-495.581	6.934	0.192	0.142
-494.566	-200.000	-0.058	-0.266
-493.551	-2.422	-0.106	0.074
-492.537	11.674	0.024	0.018
-491.522	-13.148	-0.174	-0.112
-490.508	-69.930	-0.135	0.051
-489.493	290.477	0.244	-0.441
-488.478	150.632	-0.019	0.025
-487.464	-56.228	-0.085	-0.038
-486.449	-10.523	0.240	0.158
-485.435	159.261	-0.116	-0.161
-484.420	-200.000	-0.015	0.117
-483.405	62.121	-0.083	0.083
-482.391	800.000	-0.060	0.212
-481.376	-125.282	0.204	0.031
-480.362	-40.604	0.139	-0.072
-479.347	-4.675	0.093	0.064
-478.332	-68.152	-0.314	0.122
-477.318	-92.717	0.178	-0.050
-476.303	800.000	-0.084	-0.246
-475.289	-43.861	-0.334	-0.167
-474.274	-32.894	-0.098	-0.054
-473.259	-200.000	0.017	0.341
-472.245	474.298	0.115	-0.259
-471.230	-110.678	-0.130	-0.027
-470.216	-75.864	-0.141	0.050
-469.201	800.000	-0.041	-0.166
-468.186	226.214	0.143	-0.231
-467.172	800.000	0.069	-0.196
-466.157	187.040	0.144	-0.214
-465.143	87.962	-0.184	0.202
-464.128	162.323	-0.117	0.163
-463.113	68.198	0.358	0.364
-462.099	231.742	0.142	-0.231
-461.084	-93.401	-0.135	0.037
-460.070	-108.205	-0.279	0.060
-459.055	76.331	-0.137	-0.144
-458.040	562.185	-0.042	-0.101
-457.026	78.131	0.109	0.115
-456.011	-97.201	0.456	-0.118
-454.997	-125.924	0.075	0.011
-453.982	43.614	0.208	-0.188
-452.968	800.000	0.061	-0.262
-451.953	-200.000	0.016	-0.103
-450.938	554.613	0.077	-0.184
-449.924	800.000	0.012	-0.043
-448.909	-156.935	-0.295	-0.018
-447.895	88.371	0.146	0.161
-446.880	-171.244	-0.192	0.006
-445.865	20.753	0.182	-0.146
-444.851	800.000	0.140	-0.488
-443.836	-161.929	-0.052	0.003
-442.822	26.070	-0.109	0.090
-441.807	233.712	0.154	-0.252
-440.792	800.000	0.030	0.112
-439.778	85.351	-0.098	-0.107
-438.763	-42.124	-0.254	0.129
-437.749	-200.000	0.112	-0.598
-436.734	-126.753	-0.095	-0.014
-435.719	-113.602	-0.169	0.033
-434.705	800.000	0.016	-0.055
-433.690	800.000	0.076	0.296
-432.676	-5.030	0.129	-0.088
-431.661	-200.000	0.001	-0.225
-430.646	-59.487	0.368	0.157
-429.632	-200.000	0.041	-0.223
-428.617	800.000	0.116	-0.357
-427.603	-57.544	0.160	0.070
-426.588	62.421	-0.182	0.180
-425.573	343.997	0.103	-0.201
-424.559	-165.687	0.066	0.003
-423.544	3.828	-0.051	-0.037
-422.530	264.584	-0.057	0.098
-421.515	554.754	-0.056	0.134
-420.500	-37.598	-0.254	0.134
-419.486	-28.288	-0.073	-0.042
-418.471	285.622	0.154	0.275
-417.457	-200.000	-0.022	-0.162
-416.442	-130.097	0.156	0.021
-415.428	20.489	0.189	-0.151
-414.413	348.926	0.052	0.101
-413.398	208.065	-0.104	0.161
-412.384	115.860	-0.078	0.094
-411.369	-200.000	-0.040	0.469
-410.355	88.992	-0.136	-0.151
-409.340	-67.537	-0.230	-0.089
-408.325	682.710	0.049	-0.126
-407.311	-200.000	-0.009	-0.061
-406.296	-70.072	0.311	-0.117
-405.282	-200.000	0.017	-0.085
-404.267	-200.000	0.013	0.295
-403.252	55.645	-0.166	0.160
-402.238	-200.000	-0.021	0.095
-401.223	104.021	0.140	-0.163
-400.209	800.000	0.076	-0.263
-399.194	614.023	0.100	0.247
-398.179	40.120	-0.204	0.182
-397.165	111.614	-0.123	0.147
-396.150	720.005	0.075	-0.197
-395.136	800.000	0.044	0.147
-394.121	49.846	0.034	-0.031
-393.106	754.971	0.117	-0.312
-392.092	-200.000	0.012	-0.171
-391.077	137.950	-0.262	0.340
-390.063	119.117	-0.194	-0.237
-389.048	26.738	0.073	-0.060
-388.033	315.422	0.275	0.513
-387.019	243.600	-0.066	0.110
-386.004	-114.063	0.374	-0.072
-384.990	-47.483	0.036	-0.017
-383.975	-200.000	-0.051	0.354
-382.960	-65.466	0.305	0.121
-381.946	273.826	-0.140	-0.245
-380.931	-157.802	-0.292	0.017
-379.917	-31.288	-0.165	0.092
-378.902	-49.978	0.305	-0.143
-377.888	-200.000	0.018	0.156
-376.873	311.401	-0.066	-0.122
-375.858	-38.151	-0.129	0.068
-374.844	-71.236	-0.228	0.085
-373.829	303.272	-0.293	0.536
-372.815	-150.358	0.153	0.012
-371.800	-200.000	0.023	0.134
-370.785	440.407	-0.115	-0.249
-369.771	-10.573	0.068	-0.045
-368.756	-98.111	0.137	0.035
-367.742	35.692	-0.050	-0.044
-366.727	169.242	0.373	0.526
-365.712	-2.646	-0.068	-0.047
-364.698	146.152	-0.037	-0.049
-363.683	800.000	0.125	0.392
-362.669	-25.697	0.179	0.104
-361.654	800.000	-0.114	0.326
-360.639	800.000	0.100	0.274
-359.625	51.255	0.186	-0.175
-358.610	646.386	-0.038	-0.095
-357.596	-3.904	0.301	0.207
-356.581	-200.000	0.003	0.050
-355.566	-143.497	-0.348	0.033
-354.552	717.942	-0.155	0.406
-353.537	277.249	-0.123	-0.216
-352.523	123.538	0.285	0.353
-351.508	-2.146	0.293	0.204
-350.493	173.636	0.091	0.129
-349.479	65.559	-0.178	0.178
-348.464	3.268	0.168	0.121
-347.450	469.229	0.090	0.200
-346.435	50.057	0.271	0.253
-345.420	-101.943	-0.288	-0.069
-344.406	-103.975	-0.462	-0.107
-343.391	61.501	0.215	0.211
-342.377	-19.238	0.077	-0.047
-341.362	24.310	-0.140	0.114
-340.348	594.887	-0.047	-0.114
-339.333	-142.601	0.051	0.005
-338.318	800.000	-0.061	0.199
-337.304	101.654	-0.232	-0.268
-336.289	-88.901	-0.347	-0.102
-335.275	-32.540	-0.027	-0.015
-334.260	-200.000	0.011	-0.062
-333.245	-77.499	-0.299	-0.102
-332.231	-15.965	0.169	-0.106
-331.216	-200.000	0.007	-0.119
-330.202	614.649	-0.127	0.313
-329.187	-24.845	0.230	-0.135
-328.172	103.030	-0.268	-0.310
-327.158	278.713	0.075	0.132
-326.143	-174.438	-0.160	0.005
-325.129	-90.817	-0.205	-0.058
-324.114	-200.000	-0.016	-0.140
-323.099	114.497	0.070	0.085
-322.085	-171.543	-0.143	-0.005
-321.070	-101.308	0.122	-0.029
-320.056	224.259	0.123	-0.197
-319.041	-53.901	0.150	-0.068
-318.026	-167.907	-0.327	-0.013
-317.012	11.271	0.338	0.256
-315.997	800.000	-0.053	0.213
-314.983	-200.000	0.076	0.471
-313.968	-170.089	0.125	0.004
-312.953	724.652	-0.104	-0.272
-311.939	136.361	0.179	0.231
-310.924	-135.392	0.239	-0.028
-309.910	122.368	-0.049	-0.060
-308.895	-80.778	0.355	0.116
-307.880	5.847	0.161	-0.118
-306.866	-128.969	0.206	-0.028
-305.851	102.619	0.082	-0.095
-304.837	-111.776	0.416	0.083
-303.822	291.497	0.120	0.216
-302.807	786.466	-0.071	0.191
-301.793	-200.000	-0.011	-0.059
-300.778	-90.371	-0.233	0.067
-299.764	-125.674	-0.286	-0.043
-298.749	-200.000	0.134	-0.603
-297.735	-4.235	0.397	0.271
-296.720	-71.125	-0.244	-0.091
-295.705	-200.000	-0.015	0.118
-294.691	558.340	0.077	-0.183
-293.676	54.903	-0.013	-0.013
-292.662	-2.626	0.329	0.227
-291.647	-51.078	0.175	0.081
-290.632	800.000	-0.039	-0.149
-289.618	-131.303	-0.283	0.037
-288.603	-97.907	0.223	-0.057
-287.589	255.638	0.154	-0.261
-286.574	197.837	0.172	-0.259
-285.559	-200.000	-0.008	0.152
-284.545	13.741	-0.197	0.151
-283.530	-152.942	-0.116	-0.008
-282.516	173.490	0.178	0.253
-281.501	48.829	-0.090	0.083
-280.486	72.182	-0.173	0.178
-279.472	20.505	-0.164	0.131
-278.457	143.990	-0.117	0.153
-277.443	800.000	-0.040	-0.147
-276.428	214.280	-0.037	-0.058
-275.413	585.911	0.019	-0.045
-274.399	-200.000	-0.012	0.311
-273.384	16.367	0.172	-0.134
-272.370	389.057	-0.124	-0.254
-271.355	-89.004	-0.211	-0.062
-270.340	-200.000	-0.007	-0.259
-269.326	-200.000	0.013	-0.233
-268.311	448.648	0.092	-0.200
-267.297	51.295	0.190	-0.178
-266.282	-68.934	-0.102	-0.039
-265.267	111.360	-0.124	-0.147
-264.253	-112.602	0.436	-0.085
-263.238	-106.690	-0.461	-0.101
-262.224	98.513	-0.253	-0.288
-261.209	11.210	0.131	0.099
-260.195	-153.318	-0.275	0.019
-259.180	-61.711	-0.214	-0.088
-258.165	-200.000	0.023	-0.220
-257.151	80.858	-0.037	-0.040
-256.136	-79.361	-0.244	0.081
-255.122	-43.801	0.238	0.118
-254.107	-200.000	-0.016	-0.152
-253.092	188.006	-0.163	-0.240
-252.078	-156.795	0.211	0.013
-251.063	-20.854	-0.026	0.016
-250.049	-121.517	0.270	0.044
-249.034	88.285	-0.111	-0.122
-248.019	189.708	0.112	0.165
-247.005	-48.637	0.471	0.223
-245.990	159.282	-0.063	-0.086
-244.976	-35.503	-0.153	-0.082
-243.961	-171.752	-0.162	0.005
-242.946	-90.962	-0.130	-0.037
-241.932	-27.380	0.092	-0.053
-240.917	-12.224	0.128	0.083
-239.903	-91.762	0.139	0.039
-238.888	83.341	0.266	-0.286
-237.873	-191.674	-0.438	-0.004
-236.859	-157.100	-0.100	0.006
-235.844	170.410	-0.044	-0.062
-234.830	-200.000	0.026	-0.171
-233.815	-28.186	0.295	-0.168
-232.800	-178.540	-0.526	-0.012
-231.786	-107.513	0.218	0.047
-230.771	37.443	0.274	-0.239
-229.757	33.501	-0.297	-0.254
-228.742	-108.911	-0.140	-0.029
-227.727	-40.463	-0.213	-0.109
-226.713	800.000	0.028	-0.088
-225.698	81.369	0.016	-0.017
-224.684	66.703	-0.290	-0.290
-223.669	88.407	-0.124	0.135
-222.655	-93.282	0.104	0.028
-221.640	-54.048	0.244	0.109
-220.625	-200.000	-0.034	0.221
-219.611	44.503	0.080	0.072
-218.596	473.611	-0.046	0.103
-217.582	-38.899	0.114	-0.059
-216.567	211.912	0.149	0.230
-215.552	-134.556	-0.270	0.032
-214.538	-200.000	0.001	0.185
-213.523	-0.300	0.222	0.155
-212.509	42.596	-0.125	-0.112
-211.494	-16.650	-0.243	0.151
-210.479	-37.396	0.068	0.036
-209.465	-143.936	0.027	-0.002
-208.450	32.066	0.127	-0.108
-207.436	-200.000	0.010	0.158
-206.421	-60.855	0.160	0.067
-205.406	800.000	-0.070	-0.300
-204.392	-179.901	-0.208	-0.004
-203.377	-43.986	-0.242	-0.119
-202.363	800.000	-0.130	-0.360
-201.348	529.545	0.056	0.129
-200.333	-136.590	-0.384	-0.044
-199.319	-20.708	0.206	0.124
-198.304	61.354	0.081	0.079
-197.290	-43.145	0.244	-0.121
-196.275	-78.465	-0.241	0.081
-195.260	-49.041	0.146	0.069
-194.246	126.969	0.143	0.179
-193.231	-1.351	-0.241	-0.167
-192.217	-17.848	0.427	0.263
-191.202	-60.296	0.260	0.109
-190.187	800.000	-0.060	-0.237
-189.173	800.000	-0.037	-0.119
-188.158	800.000	-0.117	0.366
-187.144	21.961	0.121	-0.097
-186.129	-200.000	0.021	0.242
-185.114	195.761	-0.068	-0.102
-184.100	408.505	-0.238	-0.494
-183.085	189.522	-0.099	-0.146
-182.071	98.852	0.257	-0.291
-181.056	1.850	-0.271	-0.192
-180.042	-200.000	0.018	0.211
-179.027	-20.713	0.246	0.148
-178.012	-200.000	-0.037	-0.184
-176.998	25.544	0.363	-0.296
-175.983	-200.000	0.052	-0.307
-174.969	-167.100	-0.300	-0.012
-173.954	-52.294	0.063	-0.029
-172.939	800.000	-0.032	0.136
-171.925	-200.000	0.001	0.185
-170.910	125.965	-0.231	-0.286
-169.896	-200.000	-0.022	0.174
-168.881	20.681	0.323	0.256
-167.866	-104.367	0.148	-0.034
-166.852	668.930	-0.067	0.169
-165.837	208.745	-0.118	0.181
-164.823	180.375	-0.159	-0.229
-163.808	-45.562	0.106	-0.052
-162.793	225.545	0.189	0.300
-161.779	37.359	-0.104	-0.090
-160.764	30.987	-0.221	0.186
-159.750	42.120	-0.149	-0.133
-158.735	-142.790	-0.230	-0.022
-157.720	-200.000	0.011	-0.068
-156.706	9.912	0.248	-0.185
-155.691	69.394	-0.149	-0.150
-154.677	800.000	-0.089	-0.349
-153.662	-82.085	0.281	-0.090
-152.647	800.000	-0.098	0.275
-151.633	428.273	-0.060	0.127
-150.618	421.587	0.169	-0.355
-149.604	32.027	-0.121	-0.103
-148.589	486.609	0.101	-0.226
-147.574	208.627	-0.138	0.212
-146.560	119.964	0.020	0.025
-145.545	666.377	0.050	0.128
-144.531	-200.000	0.025	-0.122
-143.516	-18.999	0.151	-0.092
-142.502	183.117	-0.088	-0.128
-141.487	-35.843	-0.090	0.048
-140.472	800.000	-0.025	0.081
-139.458	185.115	-0.148	0.216
-138.443	180.838	0.244	-0.352
-137.429	800.000	0.077	0.315
-136.414	-110.512	0.188	-0.038
-135.399	-24.539	0.189	0.110
-134.385	-111.067	0.249	0.050
-133.370	-200.000	-0.003	-0.126
-132.356	32.070	0.390	-0.329
-131.341	148.957	0.040	0.053
-130.326	40.412	-0.077	-0.068
-129.312	-188.756	0.056	0.001
-128.297	-73.188	0.244	0.088
-127.283	800.000	0.037	0.141
-126.268	426.516	-0.013	0.027
-125.253	129.123	-0.225	-0.281
-124.239	-115.789	0.266	0.049
-123.224	-10.295	-0.220	-0.143
-122.210	-114.796	0.238	0.044
-121.195	-133.822	0.115	-0.014
-120.180	800.000	0.103	-0.347
