DTS Sentinel unit serial number:	SN413079Multiplexer serial number:	ORYXHardware model number:	OX4-SRSoftware version number:	ORYX F/W v4.00 Oryx Data Collector v3.7.2.0data status	okinstallation	princeton_trtdifferential loss correction	single-endedforward channel	channel 1reverse channel	N/Adate	2019/09/15time	01:22:35forward acquisition time	60.00reverse acquisition time	0.00gamma	496.2192k internal	0.2321k external	0.2321temperature offset calibration	0.9985default loss term (dB/km)	0.3790temperature slope calibration	1.0000multiplexer offset coefficient	1.0000multiplexer slope coefficient	1.0000fibre end	0.00T internal ref (°C)	31.91T ext. ref 1 (°C)	4.50T ext. ref 2 (°C)	26.80length (m)	temperature (°C)	Stokes	anti-Stokes-747.200	-24.515	0.125	0.075
-746.185	-73.900	-0.180	-0.066
-745.171	250.665	-0.077	-0.133
-744.156	-36.133	0.262	-0.143
-743.142	800.000	-0.092	-0.401
-742.127	-200.000	-0.005	-0.096
-741.112	349.347	-0.054	0.108
-740.098	454.213	-0.060	0.133
-739.083	-76.698	-0.139	0.049
-738.069	261.212	-0.046	0.081
-737.054	-200.000	0.003	-0.167
-736.039	-6.381	0.103	0.071
-735.025	-88.626	0.298	-0.090
-734.010	425.919	0.116	0.252
-732.996	-86.066	-0.260	-0.081
-731.981	10.600	0.200	-0.154
-730.966	-131.794	0.280	-0.037
-729.952	-183.922	-0.239	0.004
-728.937	-200.000	-0.009	0.073
-727.923	469.185	0.031	0.070
-726.908	-69.470	-0.136	-0.053
-725.894	-200.000	-0.026	-0.335
-724.879	137.979	0.220	-0.291
-723.864	-29.475	-0.084	0.049
-722.850	-200.000	0.034	-0.222
-721.835	161.670	-0.140	-0.197
-720.821	-136.466	0.120	0.014
-719.806	-45.683	-0.363	-0.181
-718.791	72.606	-0.251	-0.264
-717.777	-2.243	-0.367	-0.260
-716.762	508.577	-0.118	-0.277
-715.748	22.557	0.170	0.140
-714.733	211.216	-0.171	-0.272
-713.718	-56.004	0.038	0.017
-712.704	-200.000	-0.005	0.042
-711.689	800.000	-0.122	0.375
-710.675	-35.522	-0.375	0.206
-709.660	-92.491	0.593	0.168
-708.645	-167.219	-0.227	-0.009
-707.631	121.292	0.179	0.225
-706.616	111.716	-0.158	-0.192
-705.602	91.835	0.093	-0.105
-704.587	11.417	-0.168	-0.130
-703.572	-103.544	-0.235	-0.056
-702.558	72.740	0.236	0.249
-701.543	-72.887	0.159	-0.059
-700.529	51.136	0.280	-0.268
-699.514	86.982	0.103	0.114
-698.499	657.241	0.050	-0.130
-697.485	-200.000	0.023	-0.201
-696.470	144.653	-0.116	0.156
-695.456	-200.000	0.004	-0.043
-694.441	15.529	-0.091	0.072
-693.426	97.987	0.108	-0.126
-692.412	158.725	-0.174	-0.244
-691.397	-120.984	0.397	-0.067
-690.383	-200.000	0.043	-0.197
-689.368	-37.155	-0.226	0.122
-688.354	29.257	-0.216	0.185
-687.339	300.355	0.091	-0.169
-686.324	-200.000	0.023	0.236
-685.310	-200.000	0.003	-0.288
-684.295	-132.222	0.049	-0.006
-683.281	-109.334	-0.107	0.023
-682.266	-200.000	-0.026	0.306
-681.251	-200.000	-0.014	-0.176
-680.237	617.494	-0.088	0.223
-679.222	-57.080	0.063	0.028
-678.208	130.521	0.070	-0.091
-677.193	86.186	0.099	0.109
-676.178	-164.584	-0.297	-0.014
-675.164	-64.180	0.228	0.094
-674.149	329.800	-0.134	0.260
-673.135	-35.907	0.246	0.134
-672.120	-200.000	0.002	-0.074
-671.105	-19.215	-0.090	0.056
-670.091	-31.993	-0.331	-0.187
-669.076	-112.358	-0.362	0.073
-668.062	10.412	-0.313	-0.240
-667.047	-200.000	0.026	0.316
-666.032	631.347	0.024	0.062
-665.018	800.000	-0.123	0.450
-664.003	-80.822	-0.244	-0.082
-662.989	-200.000	0.030	0.153
-661.974	-200.000	-0.053	-0.340
-660.959	-66.863	-0.260	0.104
-659.945	-127.113	0.198	0.029
-658.930	-105.891	0.133	-0.030
-657.916	-26.392	-0.282	-0.167
-656.901	509.349	-0.105	-0.246
-655.886	-41.074	0.100	0.052
-654.872	-200.000	0.023	0.111
-653.857	404.170	0.067	-0.142
-652.843	-23.394	0.437	-0.264
-651.828	58.338	-0.287	-0.284
-650.814	430.165	0.095	0.208
-649.799	570.915	0.070	0.172
-648.784	285.580	-0.035	-0.063
-647.770	-97.638	-0.135	0.035
-646.755	-101.685	0.107	0.026
-645.741	219.065	0.243	-0.391
-644.726	75.540	0.328	-0.349
-643.711	-131.713	0.228	0.030
-642.697	-89.273	-0.394	-0.117
-641.682	-154.944	-0.172	0.011
-640.668	430.141	0.046	0.100
-639.653	-175.324	0.088	-0.002
-638.638	-52.684	0.191	0.089
-637.624	-152.323	0.283	-0.021
-636.609	-200.000	-0.017	-0.090
-635.595	-91.591	0.118	-0.034
-634.580	54.768	-0.233	-0.226
-633.565	-93.684	0.171	-0.047
-632.551	130.631	-0.276	-0.356
-631.536	736.173	0.063	0.171
-630.522	212.641	-0.126	-0.200
-629.507	-164.515	0.403	-0.018
-628.492	48.868	0.084	-0.079
-627.478	571.292	0.062	0.153
-626.463	-16.139	-0.076	-0.049
-625.449	21.047	-0.310	0.253
-624.434	-200.000	-0.017	-0.112
-623.419	-36.109	0.193	-0.105
-622.405	-191.890	-0.311	-0.003
-621.390	-12.160	-0.085	-0.056
-620.376	-94.031	0.259	0.072
-619.361	430.504	-0.036	-0.079
-618.346	-200.000	-0.024	0.189
-617.332	-88.599	-0.149	-0.045
-616.317	-50.300	0.081	-0.039
-615.303	67.450	0.127	0.130
-614.288	167.184	0.112	0.160
-613.273	223.076	-0.212	-0.344
-612.259	-152.013	0.053	0.004
-611.244	-7.849	0.086	0.058
-610.230	-150.766	0.022	0.002
-609.215	-154.148	0.241	0.016
-608.201	54.700	0.308	0.299
-607.186	66.949	0.097	0.099
-606.171	78.276	0.218	-0.234
-605.157	324.507	0.101	-0.195
-604.142	-50.981	-0.238	-0.112
-603.128	-68.130	0.153	0.060
-602.113	80.342	-0.185	0.201
-601.098	-5.852	-0.300	-0.206
-600.084	629.689	0.093	-0.236
-599.069	-82.909	0.347	-0.113
-598.055	166.640	-0.132	0.187
-597.040	487.963	0.173	0.398
-596.025	-73.117	-0.354	0.130
-595.011	-200.000	-0.025	0.113
-593.996	-53.248	0.288	-0.133
-592.982	-188.909	-0.151	-0.002
-591.967	-153.858	0.176	0.012
-590.952	-8.214	-0.124	0.084
-589.938	800.000	-0.080	0.246
-588.923	-200.000	0.007	0.110
-587.909	-57.502	0.144	0.063
-586.894	800.000	-0.092	0.292
-585.879	-199.358	0.292	0.002
-584.865	-125.026	-0.285	-0.044
-583.850	-135.335	-0.205	-0.025
-582.836	-9.948	0.229	-0.153
-581.821	800.000	0.082	0.273
-580.806	800.000	0.055	-0.179
-579.792	-2.748	0.184	0.130
-578.777	-180.022	-0.079	-0.002
-577.763	131.793	0.114	0.148
-576.748	-103.334	-0.168	0.040
-575.733	-99.722	0.365	0.092
-574.719	800.000	0.041	0.145
-573.704	432.692	0.192	0.418
-572.690	-30.076	-0.235	0.134
-571.675	-162.102	0.187	-0.009
-570.661	-118.796	0.020	-0.004
-569.646	-200.000	0.005	-0.107
-568.631	-200.000	0.061	-0.313
-567.617	775.515	0.046	-0.127
-566.602	-31.277	0.245	0.138
-565.588	112.656	-0.135	0.164
-564.573	800.000	-0.087	-0.325
-563.558	317.703	0.191	-0.362
-562.544	-98.958	0.194	0.049
-561.529	-10.960	-0.122	-0.081
-560.515	134.672	-0.378	-0.492
-559.500	45.574	0.280	0.259
-558.485	-40.862	-0.131	0.068
-557.471	-200.000	0.018	-0.087
-556.456	-46.668	0.173	0.085
-555.442	575.959	0.046	-0.112
-554.427	433.275	0.144	0.314
-553.412	-45.426	0.200	-0.099
-552.398	800.000	0.083	-0.279
-551.383	214.975	0.069	0.110
-550.369	-103.640	0.138	-0.032
-549.354	216.265	-0.107	0.170
-548.339	83.512	0.332	-0.362
-547.325	270.062	0.279	-0.491
-546.310	-119.254	0.373	0.065
-545.296	13.987	-0.120	-0.094
-544.281	-126.127	-0.080	-0.012
-543.266	800.000	0.082	0.265
-542.252	-200.000	-0.010	0.094
-541.237	43.770	0.008	-0.008
-540.223	-200.000	-0.049	0.349
-539.208	154.663	0.084	-0.116
-538.193	-96.293	0.310	-0.082
-537.179	202.025	0.114	-0.176
-536.164	159.271	0.140	0.196
-535.150	800.000	-0.052	0.171
-534.135	-1.673	0.257	0.181
-533.121	7.928	-0.155	0.116
-532.106	-125.879	-0.459	-0.069
-531.091	441.897	0.235	-0.515
-530.077	-74.936	0.402	0.145
-529.062	-43.585	-0.186	-0.094
-528.048	69.554	-0.222	-0.229
-527.033	800.000	0.054	-0.173
-526.018	122.242	-0.135	0.169
-525.004	-104.593	0.061	-0.014
-523.989	-200.000	0.034	-0.245
-522.975	30.662	-0.185	-0.158
-521.960	-77.005	0.138	0.048
-520.945	-50.344	-0.202	0.096
-519.931	347.328	0.028	0.056
-518.916	-110.754	-0.176	0.036
-517.902	800.000	0.058	-0.213
-516.887	-131.507	-0.482	-0.064
-515.872	171.481	-0.057	-0.082
-514.858	-46.617	0.168	0.083
-513.843	-59.134	0.212	-0.092
-512.829	40.471	-0.187	0.169
-511.814	800.000	0.126	0.367
-510.799	-85.592	0.287	0.089
-509.785	-51.029	-0.184	-0.087
-508.770	-29.973	-0.386	-0.220
-507.756	275.568	-0.065	0.116
-506.741	-90.241	-0.178	-0.052
-505.726	800.000	-0.060	-0.241
-504.712	-200.000	-0.013	0.117
-503.697	800.000	0.050	0.144
-502.683	-200.000	-0.055	-0.380
-501.668	-41.417	0.090	-0.047
-500.653	-127.550	-0.186	0.027
-499.639	-48.037	0.186	-0.090
-498.624	-135.557	-0.359	-0.043
-497.610	800.000	0.041	-0.136
-496.595	21.218	-0.149	0.121
-495.581	261.137	0.152	0.264
-494.566	10.429	-0.265	0.202
-493.551	234.281	-0.051	0.084
-492.537	21.524	-0.253	-0.206
-491.522	-141.244	-0.180	0.018
-490.508	-151.848	0.157	0.011
-489.493	-200.000	-0.009	-0.182
-488.478	-39.852	-0.322	-0.168
-487.464	-200.000	-0.019	0.161
-486.449	-73.781	0.231	0.084
-485.435	12.607	-0.148	-0.115
-484.420	-155.931	-0.244	-0.016
-483.405	34.050	-0.106	0.092
-482.391	194.194	-0.143	0.217
-481.376	37.914	0.163	-0.145
-480.362	-200.000	0.033	-0.153
-479.347	358.303	0.074	0.147
-478.332	-6.754	0.220	-0.150
-477.318	-200.000	-0.015	0.413
-476.303	-139.401	0.106	0.011
-475.289	-63.162	-0.156	0.064
-474.274	800.000	-0.125	-0.344
-473.259	167.104	0.145	-0.206
-472.245	-200.000	-0.005	0.084
-471.230	-200.000	0.069	0.339
-470.216	-186.723	0.460	-0.006
-469.201	-14.193	-0.123	0.079
-468.186	60.535	0.255	-0.252
-467.172	327.792	-0.182	-0.350
-466.157	800.000	0.015	-0.059
-465.143	90.576	-0.163	0.183
-464.128	-146.446	-0.145	0.013
-463.113	-132.229	0.058	-0.007
-462.099	-93.458	0.208	-0.058
-461.084	6.389	0.150	0.111
-460.070	-52.973	-0.519	0.239
-459.055	525.900	-0.063	-0.149
-458.040	-200.000	-0.021	-0.275
-457.026	-149.509	-0.344	0.027
-456.011	800.000	0.016	0.048
-454.997	-46.859	0.162	0.079
-453.982	800.000	-0.017	0.053
-452.968	570.260	-0.101	0.246
-451.953	-44.612	-0.119	0.060
-450.938	93.165	-0.125	-0.141
-449.924	256.448	0.039	0.067
-448.909	544.705	-0.033	-0.078
-447.895	-43.116	0.106	-0.054
-446.880	42.830	0.133	0.121
-445.865	-16.936	-0.204	0.129
-444.851	61.139	-0.146	-0.145
-443.836	-148.059	-0.395	-0.033
-442.822	15.100	-0.244	0.191
-441.807	-157.411	-0.280	-0.017
-440.792	-45.214	0.181	-0.090
-439.778	-196.791	-0.104	-0.001
-438.763	196.478	-0.225	0.342
-437.749	6.293	0.041	0.030
-436.734	-69.675	-0.493	0.188
-435.719	94.293	0.117	0.132
-434.705	800.000	-0.060	-0.188
-433.690	-165.454	-0.301	-0.013
-432.676	-47.077	-0.236	-0.115
-431.661	575.939	0.099	0.243
-430.646	-96.183	0.177	-0.047
-429.632	-200.000	0.004	0.350
-428.617	-120.018	-0.279	0.048
-427.603	-200.000	-0.036	-0.266
-426.588	424.111	0.122	-0.261
-425.573	-64.246	-0.244	0.099
-424.559	65.979	-0.157	-0.158
-423.544	-165.476	0.159	-0.007
-422.530	338.956	-0.098	0.190
-421.515	-195.795	0.407	-0.003
-420.500	84.801	-0.206	0.225
-419.486	-200.000	-0.041	0.204
-418.471	17.345	0.139	-0.110
-417.457	-108.072	-0.268	-0.058
-416.442	800.000	0.073	0.225
-415.428	800.000	-0.093	0.263
-414.413	-78.770	0.203	-0.069
-413.398	167.438	0.128	-0.182
-412.384	205.722	-0.061	-0.095
-411.369	308.755	0.131	0.245
-410.355	-38.538	-0.153	0.080
-409.340	-200.000	-0.035	-0.513
-408.325	517.245	0.046	-0.107
-407.311	-200.000	-0.005	0.088
-406.296	31.248	0.164	0.141
-405.282	128.604	0.111	-0.141
-404.267	206.318	-0.099	-0.154
-403.252	-143.178	0.270	-0.026
-402.238	800.000	-0.038	-0.147
-401.223	241.914	-0.130	-0.218
-400.209	-200.000	-0.009	-0.241
-399.194	-86.345	0.253	0.078
-398.179	91.626	-0.115	0.129
-397.165	721.440	0.142	-0.378
-396.150	487.523	0.056	-0.127
-395.136	546.020	0.111	0.264
-394.121	800.000	-0.098	-0.358
-393.106	-200.000	-0.008	-0.104
-392.092	-36.039	0.076	-0.041
-391.077	390.631	-0.080	-0.165
-390.063	145.483	0.038	0.051
-389.048	-92.752	-0.350	0.098
-388.033	-175.645	0.019	-0.000
-387.019	190.668	-0.129	0.194
-386.004	723.165	0.075	-0.200
-384.990	-200.000	0.035	0.288
-383.975	-200.000	0.019	0.244
-382.960	-115.176	0.159	-0.030
-381.946	-173.589	0.265	-0.008
-380.931	-61.646	0.207	0.086
-379.917	-148.224	-0.220	0.018
-378.902	107.259	0.102	0.121
-377.888	-140.324	0.390	-0.041
-376.873	-47.992	-0.123	0.059
-375.858	-200.000	0.011	0.050
-374.844	-163.799	-0.193	-0.009
-373.829	-151.505	0.105	-0.008
-372.815	582.509	0.126	-0.307
-371.800	329.476	0.062	0.119
-370.785	5.055	-0.175	-0.128
-369.771	-76.523	-0.158	0.055
-368.756	-118.044	-0.388	0.069
-367.742	212.231	-0.030	0.046
-366.727	-77.558	-0.243	0.084
-365.712	-200.000	0.000	0.162
-364.698	-78.318	0.133	-0.045
-363.683	-200.000	-0.007	-0.063
-362.669	68.587	0.183	-0.187
-361.654	79.029	-0.267	-0.285
-360.639	-48.300	0.151	0.072
-359.625	375.454	0.170	-0.346
-358.610	323.334	0.126	-0.239
-357.596	-70.761	-0.154	-0.058
-356.581	800.000	-0.014	-0.055
-355.566	294.330	0.134	0.244
-354.552	800.000	0.027	-0.099
-353.537	800.000	0.087	-0.253
-352.523	-200.000	0.018	0.199
-351.508	-172.264	-0.151	-0.005
-350.493	-200.000	-0.074	0.458
-349.479	-2.082	-0.263	0.184
-348.464	21.272	-0.164	0.133
-347.450	275.078	0.038	-0.067
-346.435	-119.769	0.133	-0.023
-345.420	250.573	0.067	-0.114
-344.406	10.750	-0.214	-0.162
-343.391	-77.424	0.179	0.062
-342.377	-71.867	0.142	0.053
-341.362	83.785	-0.214	-0.232
-340.348	-43.557	0.108	-0.054
-339.333	-52.513	-0.274	0.126
-338.318	-147.238	0.246	-0.021
-337.304	-6.927	-0.068	0.046
-336.289	-176.233	-0.145	0.004
-335.275	-200.000	0.009	0.050
-334.260	-194.335	-0.159	-0.001
-333.245	124.151	0.100	-0.125
-332.231	29.471	-0.314	-0.265
-331.216	-200.000	0.021	0.123
-330.202	-83.290	-0.225	0.072
-329.187	38.549	0.207	-0.183
-328.172	-79.773	-0.242	0.081
-327.158	-58.557	-0.182	0.078
-326.143	800.000	0.022	0.079
-325.129	134.882	0.070	-0.090
-324.114	-200.000	0.014	-0.096
-323.099	-54.606	0.234	-0.105
-322.085	122.180	-0.183	0.227
-321.070	-153.851	0.259	0.018
-320.056	204.585	-0.278	-0.429
-319.041	-169.499	0.173	-0.006
-318.026	-200.000	0.003	0.097
-317.012	800.000	-0.033	0.097
-315.997	-34.210	0.077	0.042
-314.983	66.045	-0.109	-0.110
-313.968	-145.241	-0.282	-0.025
-312.953	415.028	-0.172	0.365
-311.939	51.664	-0.153	0.145
-310.924	-122.725	-0.173	-0.028
-309.910	202.675	0.114	0.175
-308.895	-49.872	0.028	0.013
-307.880	-200.000	-0.016	-0.170
-306.866	248.503	-0.074	-0.124
-305.851	-200.000	-0.014	-0.221
-304.837	236.691	0.078	-0.129
-303.822	-35.445	-0.205	0.111
-302.807	-32.797	-0.301	0.166
-301.793	672.664	0.076	0.197
-300.778	-34.421	-0.150	0.082
-299.764	800.000	-0.038	-0.114
-298.749	-69.388	0.181	-0.069
-297.735	304.799	0.096	0.177
-296.720	27.484	-0.088	0.073
-295.705	-107.517	-0.235	-0.051
-294.691	-29.440	-0.069	-0.039
-293.676	42.528	-0.050	-0.045
-292.662	11.288	0.172	0.131
-291.647	703.893	-0.137	-0.359
-290.632	-4.725	-0.109	0.075
-289.618	-65.749	0.028	-0.011
-288.603	-66.710	-0.049	0.019
-287.589	-178.254	0.176	-0.004
-286.574	-91.150	0.290	0.083
-285.559	219.509	0.053	-0.085
-284.545	-200.000	0.023	0.211
-283.530	-92.858	-0.137	-0.038
-282.516	11.493	-0.328	-0.250
-281.501	45.532	0.283	0.259
-280.486	-128.019	-0.170	-0.024
-279.472	-200.000	-0.002	-0.221
-278.457	86.562	0.321	-0.351
-277.443	38.145	0.060	-0.053
-276.428	-13.431	-0.099	0.064
-275.413	287.298	0.100	-0.179
-274.399	54.560	-0.097	0.093
-273.384	-44.442	0.185	0.092
-272.370	-132.441	-0.401	-0.051
-271.355	800.000	0.083	0.229
-270.340	105.906	-0.051	-0.059
-269.326	372.217	-0.094	0.189
-268.311	643.644	0.062	-0.157
-267.297	-63.848	0.259	-0.105
-266.282	114.000	0.102	-0.123
-265.267	-200.000	0.039	0.231
-264.253	-133.133	-0.084	-0.011
-263.238	55.275	0.159	-0.152
-262.224	-165.972	-0.153	0.006
-261.209	-85.374	-0.155	-0.048
-260.195	-132.266	-0.037	-0.005
-259.180	-104.459	-0.402	-0.092
-258.165	-200.000	-0.007	0.088
-257.151	291.298	-0.052	-0.095
-256.136	800.000	-0.093	-0.292
-255.122	118.702	-0.097	-0.119
-254.107	-151.440	0.237	-0.017
-253.092	93.722	-0.373	0.420
-252.078	425.288	0.159	0.340
-251.063	-44.387	-0.065	0.032
-250.049	572.235	-0.071	0.170
-249.034	68.294	0.204	-0.207
-248.019	-78.864	-0.186	0.063
-247.005	109.469	-0.039	-0.046
-245.990	-36.747	0.094	-0.050
-244.976	-114.610	0.174	0.033
-243.961	-50.291	0.337	0.158
-242.946	-200.000	0.036	-0.220
-241.932	-200.000	0.028	-0.169
-240.917	-111.445	0.109	0.022
-239.903	700.040	-0.069	0.180
-238.888	254.639	-0.059	0.100
-237.873	23.931	-0.133	0.108
-236.859	-117.039	0.133	0.024
-235.844	5.643	0.250	0.183
-234.830	110.857	0.304	-0.363
-233.815	-179.044	-0.169	-0.004
-232.800	375.734	0.067	-0.135
-231.786	-25.511	0.317	-0.185
-230.771	800.000	0.034	-0.149
-229.757	203.151	-0.100	-0.153
-228.742	42.204	0.251	-0.226
-227.727	-59.980	-0.115	0.049
-226.713	510.347	-0.120	-0.277
-225.698	800.000	-0.100	-0.294
-224.684	800.000	0.034	-0.094
-223.669	81.520	-0.032	0.035
-222.655	-136.862	0.088	0.010
-221.640	-45.605	-0.195	0.096
-220.625	-115.810	0.280	0.052
-219.611	-18.399	-0.172	0.106
-218.596	-76.449	-0.094	0.033
-217.582	567.846	0.074	0.179
-216.567	800.000	0.105	-0.339
-215.552	800.000	-0.064	0.192
-214.538	-8.795	0.127	0.084
-213.523	55.476	0.116	-0.111
-212.509	800.000	0.117	0.323
-211.494	-59.404	0.254	-0.108
-210.479	60.018	-0.153	0.150
-209.465	-15.318	-0.135	-0.086
-208.450	41.574	-0.105	0.094
-207.436	-39.929	-0.083	-0.043
-206.421	170.044	0.260	0.368
-205.406	800.000	-0.013	0.038
-204.392	-95.172	-0.169	0.045
-203.377	104.199	-0.180	0.210
-202.363	-110.322	0.217	0.045
-201.348	236.189	-0.195	-0.318
-200.333	-140.063	-0.103	0.011
-199.319	-35.998	0.075	0.040
-198.304	-90.026	-0.277	0.080
-197.290	76.522	0.227	0.238
-196.275	570.490	0.034	-0.082
-195.260	-167.466	-0.156	0.006
-194.246	-200.000	-0.018	0.112
-193.231	-69.123	-0.155	-0.059
-192.217	-83.923	0.188	-0.059
-191.202	104.714	-0.202	-0.235
-190.187	54.681	0.134	-0.128
-189.173	352.931	-0.038	-0.075
-188.158	-200.000	-0.048	0.357
-187.144	-200.000	0.040	0.236
-186.129	-19.302	0.410	-0.251
-185.114	218.131	-0.079	-0.125
-184.100	-200.000	-0.002	0.343
-183.085	390.090	0.070	0.144
-182.071	80.795	-0.131	0.140
-181.056	-5.058	-0.240	0.163
-180.042	-142.194	0.162	-0.016
-179.027	-70.927	-0.270	-0.100
-178.012	356.409	0.076	-0.151
-176.998	84.858	0.288	-0.312
-175.983	177.421	0.105	0.151
-174.969	-51.284	0.062	-0.029
-173.954	-159.271	-0.228	0.013
-172.939	142.960	-0.069	0.091
-171.925	214.695	-0.036	0.056
-170.910	10.614	0.165	0.125
-169.896	109.005	-0.164	0.194
-168.881	-200.000	0.049	-0.513
-167.866	-200.000	0.032	0.232
-166.852	200.219	-0.107	0.163
-165.837	800.000	0.065	-0.269
-164.823	95.106	-0.112	-0.126
-163.808	424.896	0.164	0.349
-162.793	398.823	0.140	0.289
-161.779	55.483	0.135	0.130
-160.764	-19.926	0.302	-0.184
-159.750	-25.648	0.188	0.109
-158.735	30.595	0.301	0.254
-157.720	206.778	0.163	0.251
-156.706	-200.000	0.016	0.197
-155.691	-118.072	0.218	-0.039
-154.677	11.335	0.051	0.039
-153.662	-200.000	-0.055	0.334
-152.647	-135.222	-0.118	-0.014
-151.633	134.877	0.151	0.194
-150.618	-17.209	-0.128	0.080
-149.604	2.484	-0.075	-0.053
-148.589	485.453	-0.164	0.368
-147.574	-14.948	0.120	-0.076
-146.560	-166.497	0.085	0.004
-145.545	118.302	0.153	-0.186
-144.531	-75.064	0.144	0.051
-143.516	800.000	-0.033	0.122
-142.502	199.286	-0.169	-0.256
-141.487	381.839	0.071	-0.144
-140.472	-91.847	0.246	-0.069
-139.458	243.398	0.124	-0.205
-138.443	-32.787	0.210	0.115
-137.429	-200.000	0.009	0.288
-136.414	-122.217	-0.220	-0.036
-135.399	337.707	0.158	0.304
-134.385	67.940	0.260	0.262
-133.370	-200.000	-0.004	-0.051
-132.356	-62.445	-0.098	0.040
-131.341	500.672	0.123	0.281
-130.326	90.192	0.153	-0.169
-129.312	-132.892	-0.137	0.017
-128.297	161.496	0.018	0.025
-127.283	-144.214	-0.317	-0.029
-126.268	16.712	0.430	0.336
-125.253	-71.830	-0.061	0.022
-124.239	187.652	-0.095	0.140
-123.224	38.637	-0.082	0.073
-122.210	133.758	-0.106	-0.136
-121.195	-145.640	-0.431	0.038
