DTS Sentinel unit serial number:	SN413079Multiplexer serial number:	ORYXHardware model number:	OX4-SRSoftware version number:	ORYX F/W v4.00 Oryx Data Collector v3.7.2.0data status	okinstallation	princeton_trtdifferential loss correction	single-endedforward channel	channel 1reverse channel	N/Adate	2019/09/18time	01:42:35forward acquisition time	60.00reverse acquisition time	0.00gamma	496.2192k internal	0.2341k external	0.2341temperature offset calibration	0.9980default loss term (dB/km)	0.3790temperature slope calibration	1.0000multiplexer offset coefficient	1.0000multiplexer slope coefficient	1.0000fibre end	0.00T internal ref (°C)	23.02T ext. ref 1 (°C)	0.17T ext. ref 2 (°C)	16.65length (m)	temperature (°C)	Stokes	anti-Stokes-747.200	63.720	0.094	0.094
-746.185	467.903	-0.146	0.327
-745.171	-183.092	-0.163	0.003
-744.156	-84.771	-0.250	-0.079
-743.142	-67.785	-0.130	0.051
-742.127	-122.354	0.278	-0.045
-741.112	193.059	-0.118	-0.179
-740.098	-150.356	-0.423	0.033
-739.083	800.000	0.070	-0.199
-738.069	-66.819	-0.086	0.034
-737.054	-130.179	-0.385	0.053
-736.039	-200.000	-0.047	0.262
-735.025	-10.022	-0.101	0.067
-734.010	-22.562	0.060	0.037
-732.996	-30.225	-0.329	-0.187
-731.981	-200.000	-0.023	0.298
-730.966	-128.753	0.156	-0.022
-729.952	1.112	0.244	-0.176
-728.937	800.000	-0.067	-0.208
-727.923	448.095	-0.154	-0.340
-726.908	-161.095	-0.101	0.005
-725.894	-26.447	-0.229	-0.135
-724.879	-98.278	0.143	0.037
-723.864	-9.168	-0.218	-0.146
-722.850	-200.000	-0.009	0.493
-721.835	800.000	-0.113	0.368
-720.821	-185.105	-0.271	0.004
-719.806	7.853	0.109	-0.082
-718.791	-13.192	0.167	-0.109
-717.777	-200.000	0.018	-0.129
-716.762	542.441	0.063	0.150
-715.748	-36.329	0.058	0.031
-714.733	-85.861	-0.194	-0.060
-713.718	-148.661	-0.104	0.008
-712.704	800.000	0.047	-0.189
-711.689	-127.234	0.181	-0.026
-710.675	800.000	0.029	0.106
-709.660	424.027	-0.078	-0.168
-708.645	-196.385	0.185	0.001
-707.631	-128.828	0.261	0.037
-706.616	-23.846	-0.115	-0.069
-705.602	178.729	-0.086	0.125
-704.587	800.000	-0.127	0.384
-703.572	89.704	0.122	-0.136
-702.558	43.623	0.292	-0.267
-701.543	-110.247	0.204	-0.043
-700.529	25.856	-0.189	-0.158
-699.514	800.000	0.099	0.288
-698.499	92.035	-0.052	0.058
-697.485	124.749	0.174	0.219
-696.470	-175.619	-0.041	0.001
-695.456	800.000	-0.102	-0.414
-694.441	-93.981	-0.142	0.039
-693.426	-200.000	-0.022	-0.342
-692.412	-200.000	0.038	-0.295
-691.397	54.789	-0.131	0.126
-690.383	494.576	-0.033	0.075
-689.368	135.688	-0.089	0.115
-688.354	-64.000	-0.042	-0.017
-687.339	2.737	-0.221	0.160
-686.324	523.623	-0.153	-0.360
-685.310	335.885	0.138	-0.267
-684.295	188.663	0.197	-0.295
-683.281	73.254	0.325	-0.340
-682.266	-178.885	-0.318	0.007
-681.251	407.733	0.051	-0.108
-680.237	-200.000	-0.052	0.417
-679.222	54.598	0.057	0.055
-678.208	80.678	-0.219	0.235
-677.193	-186.589	0.356	0.005
-676.178	49.071	-0.284	0.267
-675.164	-200.000	0.001	0.026
-674.149	-200.000	0.033	0.147
-673.135	-145.482	0.162	-0.015
-672.120	117.909	-0.251	0.309
-671.105	800.000	0.021	0.080
-670.091	-106.773	-0.060	0.013
-669.076	-96.245	-0.072	-0.019
-668.062	-120.453	-0.060	0.010
-667.047	320.499	-0.200	0.379
-666.032	-143.629	0.154	-0.015
-665.018	147.074	-0.165	0.222
-664.003	66.258	-0.255	0.259
-662.989	-92.309	-0.366	0.103
-661.974	10.847	-0.150	-0.114
-660.959	-200.000	0.044	0.259
-659.945	-78.181	0.124	0.043
-658.930	503.034	0.044	0.101
-657.916	89.776	0.185	-0.206
-656.901	-200.000	0.020	-0.243
-655.886	-99.042	0.190	0.048
-654.872	539.210	0.088	0.208
-653.857	68.081	-0.222	0.227
-652.843	500.160	0.081	0.186
-651.828	800.000	0.057	-0.215
-650.814	-71.418	0.275	-0.103
-649.799	800.000	-0.064	0.227
-648.784	-89.232	-0.237	-0.070
-647.770	334.655	0.103	-0.199
-646.755	338.372	0.094	-0.183
-645.741	-200.000	0.021	0.215
-644.726	-42.024	0.208	0.107
-643.711	172.851	-0.140	-0.202
-642.697	-114.461	-0.248	0.048
-641.682	-155.656	-0.159	-0.010
-640.668	16.383	0.128	-0.101
-639.653	-200.000	0.059	0.331
-638.638	-163.544	0.198	0.009
-637.624	16.205	-0.123	0.097
-636.609	800.000	0.096	0.419
-635.595	-23.794	0.068	0.041
-634.580	-82.287	0.208	-0.068
-633.565	-29.629	0.086	0.049
-632.551	-16.606	-0.261	0.165
-631.536	-152.159	0.208	0.015
-630.522	67.341	-0.075	0.077
-629.507	121.023	-0.125	-0.155
-628.492	-200.000	-0.035	0.222
-627.478	58.932	0.185	-0.182
-626.463	217.591	0.043	0.068
-625.449	-162.436	-0.287	0.014
-624.434	-183.389	-0.205	0.004
-623.419	-34.448	0.082	-0.045
-622.405	462.808	-0.042	0.093
-621.390	775.452	-0.077	-0.209
-620.376	-58.099	-0.149	-0.065
-619.361	-131.884	0.103	-0.013
-618.346	-158.189	-0.377	0.022
-617.332	-200.000	-0.001	0.036
-616.317	420.974	-0.107	-0.229
-615.303	-33.767	0.313	0.172
-614.288	551.047	0.055	-0.131
-613.273	-112.739	0.259	0.051
-612.259	-107.040	-0.401	0.088
-611.244	131.702	0.218	0.279
-610.230	-143.047	-0.216	-0.021
-609.215	2.233	0.347	0.250
-608.201	800.000	-0.116	0.410
-607.186	-186.287	-0.191	0.003
-606.171	39.070	-0.299	-0.266
-605.157	-200.000	-0.017	-0.330
-604.142	-96.997	0.043	-0.011
-603.128	574.540	-0.062	-0.151
-602.113	22.222	0.107	-0.087
-601.098	-50.793	-0.203	-0.095
-600.084	-200.000	-0.076	-0.379
-599.069	142.814	-0.089	-0.117
-598.055	82.720	-0.133	-0.144
-597.040	-114.470	0.099	0.019
-596.025	-175.167	0.264	0.007
-595.011	-107.480	-0.240	-0.052
-593.996	13.041	0.270	0.208
-592.982	800.000	-0.148	0.531
-591.967	-21.499	0.208	0.126
-590.952	800.000	-0.082	0.289
-589.938	-200.000	0.010	0.130
-588.923	800.000	-0.056	0.175
-587.909	-200.000	-0.032	-0.184
-586.894	105.653	-0.079	0.093
-585.879	-64.042	0.212	-0.086
-584.865	108.144	-0.224	0.266
-583.850	177.105	-0.032	-0.046
-582.836	-147.866	-0.179	0.015
-581.821	-96.326	0.190	0.050
-580.806	-29.753	-0.033	-0.019
-579.792	-62.432	0.325	-0.135
-578.777	-200.000	-0.066	0.290
-577.763	-110.301	-0.116	0.024
-576.748	591.461	-0.078	0.192
-575.733	333.875	0.103	-0.197
-574.719	-114.184	-0.418	-0.080
-573.704	800.000	-0.094	-0.397
-572.690	29.490	0.131	-0.111
-571.675	55.642	-0.356	0.343
-570.661	354.653	-0.068	-0.134
-569.646	261.324	-0.147	-0.253
-568.631	114.695	0.181	-0.220
-567.617	418.934	-0.067	0.142
-566.602	-100.742	0.095	0.023
-565.588	-200.000	-0.020	-0.266
-564.573	-200.000	0.024	-0.478
-563.558	-47.622	0.214	0.103
-562.544	58.145	-0.285	-0.278
-561.529	800.000	0.037	-0.138
-560.515	14.853	0.275	-0.214
-559.500	69.475	-0.208	-0.213
-558.485	800.000	-0.083	0.271
-557.471	-104.619	0.359	-0.082
-556.456	-97.693	0.144	0.037
-555.442	-116.471	0.121	0.022
-554.427	54.335	-0.074	0.071
-553.412	-200.000	0.003	0.540
-552.398	180.535	0.043	-0.062
-551.383	-44.026	0.260	-0.130
-550.369	-116.959	0.138	-0.025
-549.354	-71.739	0.232	-0.086
-548.339	800.000	0.119	-0.330
-547.325	-200.000	-0.030	0.259
-546.310	225.580	-0.121	0.195
-545.296	-33.793	0.145	0.080
-544.281	-77.591	-0.395	0.136
-543.266	-11.223	0.280	0.184
-542.252	-175.409	-0.216	0.006
-541.237	-200.000	-0.008	0.093
-540.223	123.056	-0.355	-0.443
-539.208	191.012	-0.078	0.117
-538.193	-99.224	0.371	0.093
-537.179	800.000	0.076	-0.254
-536.164	-108.538	-0.343	-0.073
-535.150	-200.000	0.038	-0.214
-534.135	-79.472	-0.264	0.089
-533.121	800.000	-0.083	-0.237
-532.106	374.230	0.081	-0.165
-531.091	-55.829	-0.438	0.194
-530.077	-200.000	-0.052	0.266
-529.062	-57.704	0.022	-0.009
-528.048	24.127	0.249	-0.204
-527.033	347.819	-0.127	-0.248
-526.018	-127.252	-0.267	-0.039
-525.004	-24.837	0.517	0.305
-523.989	-200.000	0.044	-0.283
-522.975	-167.871	-0.281	-0.011
-521.960	337.239	0.112	0.216
-520.945	41.798	0.276	0.249
-519.931	-183.145	-0.250	0.004
-518.916	-95.411	-0.086	0.023
-517.902	133.995	0.252	0.324
-516.887	-143.811	-0.193	0.018
-515.872	-135.462	0.071	0.008
-514.858	3.111	-0.213	-0.154
-513.843	38.906	-0.161	0.143
-512.829	-200.000	0.034	0.321
-511.814	-200.000	0.018	-0.163
-510.799	104.916	-0.140	0.164
-509.785	-105.371	0.280	0.063
-508.770	-76.490	0.120	-0.042
-507.756	195.099	-0.146	-0.221
-506.741	-5.730	-0.329	0.224
-505.726	795.687	-0.071	0.195
-504.712	185.927	0.102	-0.150
-503.697	-95.417	-0.226	0.060
-502.683	46.404	0.088	0.081
-501.668	-200.000	-0.013	-0.076
-500.653	-47.342	-0.193	-0.093
-499.639	-200.000	-0.021	0.163
-498.624	2.682	0.107	0.077
-497.610	-200.000	-0.019	0.162
-496.595	50.545	-0.005	-0.004
-495.581	800.000	-0.016	-0.049
-494.566	202.161	-0.114	-0.174
-493.551	-200.000	-0.018	-0.245
-492.537	167.999	0.060	0.084
-491.522	206.098	-0.132	-0.204
-490.508	49.949	0.357	-0.334
-489.493	-20.890	0.158	0.096
-488.478	179.134	-0.228	-0.330
-487.464	800.000	-0.089	-0.359
-486.449	-200.000	0.097	-0.442
-485.435	-88.300	-0.227	0.067
-484.420	-190.477	-0.041	-0.000
-483.405	130.140	0.236	-0.300
-482.391	-31.616	-0.210	0.117
-481.376	180.813	-0.082	-0.120
-480.362	300.333	-0.069	-0.127
-479.347	357.713	-0.041	-0.081
-478.332	144.508	-0.099	-0.131
-477.318	-84.479	-0.088	0.028
-476.303	-200.000	0.007	-0.338
-475.289	133.512	-0.120	-0.153
-474.274	149.236	-0.202	0.271
-473.259	111.628	-0.216	-0.258
-472.245	-110.474	0.120	-0.025
-471.230	303.150	-0.083	0.153
-470.216	424.670	-0.040	0.086
-469.201	41.244	0.273	0.244
-468.186	-200.000	-0.031	-0.184
-467.172	-179.239	-0.239	-0.005
-466.157	-133.152	0.117	-0.015
-465.143	417.282	0.077	-0.163
-464.128	-7.865	-0.150	-0.100
-463.113	56.134	0.062	0.060
-462.099	-82.525	-0.293	0.094
-461.084	45.529	0.124	-0.113
-460.070	-181.868	0.267	0.005
-459.055	-200.000	-0.016	-0.160
-458.040	85.251	-0.048	-0.052
-457.026	-132.995	0.183	0.023
-456.011	265.563	0.176	-0.305
-454.997	-20.645	-0.044	-0.027
-453.982	762.452	0.022	-0.058
-452.968	-6.961	0.123	-0.083
-451.953	73.435	0.140	-0.145
-450.938	800.000	0.051	-0.176
-449.924	-144.254	-0.239	0.022
-448.909	-200.000	0.010	0.070
-447.895	17.796	0.241	-0.190
-446.880	-200.000	0.005	-0.198
-445.865	3.031	-0.285	-0.205
-444.851	-12.012	0.149	-0.097
-443.836	12.539	-0.170	-0.130
-442.822	36.042	0.141	0.123
-441.807	-151.656	-0.097	-0.007
-440.792	-200.000	-0.029	0.447
-439.778	800.000	-0.038	0.125
-438.763	-109.873	0.140	0.029
-437.749	-95.741	0.208	-0.055
-436.734	50.614	-0.108	0.102
-435.719	-200.000	-0.015	-0.115
-434.705	-200.000	-0.014	-0.119
-433.690	194.984	-0.187	0.282
-432.676	42.013	0.099	0.089
-431.661	-1.240	-0.102	-0.071
-430.646	-165.985	0.114	0.005
-429.632	13.718	-0.107	-0.082
-428.617	-200.000	0.014	0.154
-427.603	226.427	-0.075	0.120
-426.588	555.444	-0.103	-0.246
-425.573	121.691	0.147	-0.181
-424.559	800.000	0.026	0.077
-423.544	41.865	-0.121	0.109
-422.530	-195.878	0.117	0.001
-421.515	-22.465	0.116	0.070
-420.500	-45.115	-0.221	-0.109
-419.486	-80.076	0.191	0.063
-418.471	336.865	0.095	0.183
-417.457	113.324	-0.194	0.233
-416.442	260.371	0.052	-0.089
-415.428	800.000	0.019	-0.078
-414.413	-69.485	0.073	0.028
-413.398	158.819	-0.074	-0.102
-412.384	393.597	0.190	0.392
-411.369	231.246	-0.139	0.225
-410.355	61.994	0.189	-0.186
-409.340	-62.544	0.353	-0.145
-408.325	-75.226	0.167	-0.059
-407.311	141.753	0.218	-0.286
-406.296	-69.296	-0.417	-0.159
-405.282	-193.850	0.143	0.001
-404.267	235.278	-0.056	-0.092
-403.252	-200.000	0.028	-0.151
-402.238	-48.019	0.150	0.072
-401.223	800.000	-0.080	-0.274
-400.209	-156.921	-0.339	0.021
-399.194	200.119	-0.070	0.107
-398.179	325.678	0.090	0.171
-397.165	-200.000	-0.033	0.278
-396.150	-146.467	-0.090	-0.008
-395.136	73.718	0.157	0.162
-394.121	-58.868	0.204	-0.087
-393.106	-77.428	-0.282	0.097
-392.092	-103.664	0.149	0.035
-391.077	-59.380	0.061	-0.026
-390.063	163.616	0.091	0.127
-389.048	-96.998	0.317	-0.082
-388.033	-102.236	0.167	-0.040
-387.019	800.000	0.044	0.131
-386.004	171.125	-0.183	0.260
-384.990	-200.000	-0.035	0.221
-383.975	15.743	-0.242	0.188
-382.960	200.741	0.195	0.297
-381.946	4.907	-0.189	0.137
-380.931	143.300	0.285	0.374
-379.917	-200.000	-0.010	-0.145
-378.902	188.095	0.122	-0.179
-377.888	800.000	0.113	0.360
-376.873	-99.947	0.034	-0.008
-375.858	-135.477	0.036	0.004
-374.844	800.000	0.059	-0.163
-373.829	-200.000	-0.003	0.055
-372.815	-44.566	-0.269	0.133
-371.800	800.000	0.053	0.166
-370.785	254.606	-0.101	0.170
-369.771	-50.475	-0.270	0.126
-368.756	-200.000	0.013	-0.176
-367.742	-71.769	-0.074	-0.027
-366.727	-54.163	0.141	0.063
-365.712	7.757	0.095	0.070
-364.698	-0.477	0.024	0.017
-363.683	-72.998	0.215	-0.078
-362.669	-155.560	-0.147	0.009
-361.654	669.880	0.088	-0.225
-360.639	-200.000	-0.033	-0.179
-359.625	-90.027	-0.351	0.101
-358.610	800.000	0.064	-0.262
-357.596	-101.117	-0.446	-0.108
-356.581	-39.825	0.247	0.127
-355.566	-135.522	0.169	0.020
-354.552	164.910	0.031	0.044
-353.537	-63.073	-0.243	-0.099
-352.523	-165.522	0.176	0.008
-351.508	7.866	0.046	0.034
-350.493	9.018	0.147	0.109
-349.479	73.134	0.297	-0.306
-348.464	460.584	-0.045	-0.099
-347.450	48.063	-0.088	0.081
-346.435	-200.000	-0.004	-0.154
-345.420	149.694	0.068	-0.091
-344.406	-130.858	0.046	-0.006
-343.391	-102.623	0.244	-0.057
-342.377	-93.718	-0.157	0.043
-341.362	66.560	-0.187	-0.188
-340.348	-71.143	-0.258	0.096
-339.333	-20.661	0.237	-0.144
-338.318	4.936	-0.059	0.043
-337.304	656.717	0.052	-0.132
-336.289	-200.000	0.024	-0.381
-335.275	-200.000	-0.007	-0.128
-334.260	2.988	0.139	0.100
-333.245	319.872	0.061	0.115
-332.231	-37.851	-0.444	0.233
-331.216	-99.110	0.434	-0.108
-330.202	-78.824	-0.231	0.078
-329.187	-27.730	-0.103	-0.059
-328.172	8.630	0.178	-0.132
-327.158	800.000	0.036	-0.139
-326.143	-26.144	0.207	0.120
-325.129	800.000	-0.100	-0.349
-324.114	-200.000	0.001	0.154
-323.099	-48.323	0.061	-0.029
-322.085	-200.000	0.010	-0.160
-321.070	-200.000	-0.021	-0.225
-320.056	800.000	0.075	-0.301
-319.041	800.000	-0.060	-0.250
-318.026	48.743	-0.213	-0.197
-317.012	-31.720	-0.194	-0.107
-315.997	-89.063	0.221	0.064
-314.983	-76.150	-0.130	0.045
-313.968	-34.533	-0.219	-0.118
-312.953	-112.907	0.254	0.050
-311.939	60.939	-0.119	0.116
-310.924	-200.000	-0.012	0.065
-309.910	-77.755	0.231	-0.079
-308.895	-86.833	-0.546	-0.164
-307.880	800.000	-0.065	-0.218
-306.866	-82.533	0.348	-0.111
-305.851	-6.222	0.083	-0.055
-304.837	-200.000	-0.021	0.120
-303.822	-14.390	0.268	0.170
-302.807	-108.192	-0.131	-0.028
-301.793	-102.982	0.295	0.069
-300.778	-72.282	0.137	0.050
-299.764	-120.528	0.173	0.029
-298.749	-16.308	0.190	0.119
-297.735	800.000	-0.023	-0.075
-296.720	171.493	-0.206	0.292
-295.705	-200.000	0.006	-0.077
-294.691	-200.000	0.044	-0.233
-293.676	283.768	-0.151	0.267
-292.662	665.400	0.058	-0.147
-291.647	184.104	0.129	0.188
-290.632	800.000	-0.141	-0.438
-289.618	241.660	-0.140	-0.230
-288.603	118.183	-0.146	-0.178
-287.589	-200.000	-0.039	0.177
-286.574	-53.206	0.322	-0.146
-285.559	800.000	0.107	0.422
-284.545	-112.233	0.348	0.069
-283.530	757.586	-0.062	-0.165
-282.516	-13.728	0.382	0.243
-281.501	-31.072	0.145	0.081
-280.486	-118.684	-0.441	-0.076
-279.472	-8.664	0.239	-0.158
-278.457	272.949	0.183	0.319
-277.443	158.725	0.261	0.356
-276.428	-87.546	-0.134	0.040
-275.413	800.000	-0.104	-0.315
-274.399	191.545	0.143	0.212
-273.384	-35.406	0.137	-0.073
-272.370	800.000	0.011	0.031
-271.355	-59.153	-0.335	-0.142
-270.340	-79.332	-0.057	-0.019
-269.326	314.517	-0.047	-0.087
-268.311	23.728	-0.124	0.100
-267.297	-57.314	-0.038	-0.017
-266.282	-47.957	0.344	0.164
-265.267	164.406	0.271	-0.376
-264.253	-200.000	-0.069	0.314
-263.238	-200.000	-0.018	-0.088
-262.224	-143.154	-0.433	0.041
-261.209	-200.000	-0.004	0.097
-260.195	-200.000	0.011	0.093
-259.180	800.000	-0.051	0.139
-258.165	-129.120	-0.317	-0.044
-257.151	-85.825	0.330	-0.100
-256.136	144.359	-0.010	-0.013
-255.122	-170.955	-0.509	0.017
-254.107	-15.765	0.166	0.104
-253.092	-135.404	-0.327	-0.038
-252.078	39.782	0.272	0.240
-251.063	43.659	-0.081	-0.073
-250.049	-71.418	0.297	0.109
-249.034	-19.901	0.255	0.155
-248.019	-200.000	-0.002	0.181
-247.005	800.000	0.093	0.298
-245.990	-194.783	-0.030	0.000
-244.976	312.686	0.095	-0.176
-243.961	-77.130	-0.303	0.104
-242.946	2.467	0.260	0.185
-241.932	-126.115	-0.308	0.045
-240.917	-84.466	-0.165	0.051
-239.903	-68.156	0.176	-0.067
-238.888	-115.176	0.276	-0.051
-237.873	373.133	0.133	-0.265
-236.859	-78.902	0.119	0.040
-235.844	117.204	-0.095	-0.115
-234.830	-16.693	-0.121	0.075
-233.815	-84.729	-0.172	0.053
-232.800	-200.000	-0.069	0.410
-231.786	468.677	-0.030	0.066
-230.771	110.896	-0.119	0.141
-229.757	-9.463	0.181	0.118
-228.742	-26.158	-0.333	0.192
-227.727	-142.889	0.181	-0.017
-226.713	30.601	0.114	-0.096
-225.698	198.877	0.119	0.179
-224.684	-54.038	0.196	-0.087
-223.669	800.000	-0.094	0.331
-222.655	-21.817	-0.122	-0.073
-221.640	-46.386	-0.225	-0.109
-220.625	-200.000	-0.052	0.232
-219.611	191.089	0.055	0.081
-218.596	-200.000	-0.055	0.405
-217.582	224.912	-0.095	-0.151
-216.567	-200.000	-0.005	0.048
-215.552	-44.367	0.233	-0.114
-214.538	-43.472	0.070	0.035
-213.523	396.400	-0.058	0.118
-212.509	111.377	-0.113	-0.133
-211.494	-200.000	0.006	-0.276
-210.479	43.561	0.155	0.139
-209.465	-200.000	0.010	0.226
-208.450	-200.000	0.047	0.348
-207.436	203.173	0.109	-0.165
-206.421	48.767	-0.182	-0.168
-205.406	-148.706	0.141	0.011
-204.392	-168.925	-0.101	0.004
-203.377	77.169	0.212	-0.221
-202.363	-192.631	0.278	-0.003
-201.348	-200.000	0.002	0.123
-200.333	171.129	0.195	0.274
-199.319	167.026	0.061	-0.085
-198.304	203.377	0.081	-0.124
-197.290	58.882	0.165	0.159
-196.275	800.000	0.090	0.312
-195.260	-200.000	0.005	-0.202
-194.246	-105.333	0.255	-0.057
-193.231	-173.271	-0.102	-0.003
-192.217	508.273	0.058	0.133
-191.202	143.270	0.202	0.264
-190.187	105.868	0.047	0.055
-189.173	428.000	-0.140	-0.295
-188.158	9.705	0.297	-0.221
-187.144	800.000	0.033	-0.100
-186.129	-69.933	-0.100	0.038
-185.114	69.971	0.093	0.094
-184.100	103.374	-0.224	0.257
-183.085	216.481	0.156	-0.243
-182.071	800.000	0.083	-0.283
-181.056	50.089	0.176	-0.163
-180.042	-146.971	-0.079	0.007
-179.027	1.270	0.156	0.110
-178.012	188.342	0.071	-0.104
-176.998	800.000	0.050	0.195
-175.983	800.000	0.016	-0.060
-174.969	36.193	-0.325	0.281
-173.954	195.105	-0.117	0.174
-172.939	800.000	0.019	0.075
-171.925	-200.000	0.054	0.271
-170.910	-145.067	-0.052	0.005
-169.896	-200.000	0.007	0.132
-168.881	800.000	-0.008	0.021
-167.866	-102.085	-0.239	-0.056
-166.852	433.642	0.177	-0.376
-165.837	51.362	-0.255	-0.238
-164.823	5.138	-0.181	0.131
-163.808	-149.123	-0.147	-0.012
-162.793	197.795	-0.205	0.307
-161.779	438.297	-0.035	-0.074
-160.764	-150.093	-0.022	-0.002
-159.750	-105.326	0.429	-0.096
-158.735	11.248	0.179	0.134
-157.720	-98.600	-0.463	-0.116
-156.706	800.000	0.008	-0.034
-155.691	-54.823	-0.143	-0.063
-154.677	96.311	0.126	0.141
-153.662	-122.683	-0.327	-0.052
-152.647	-200.000	0.014	-0.099
-151.633	-140.261	-0.172	0.018
-150.618	-109.143	-0.348	0.072
-149.604	-200.000	-0.009	0.158
-148.589	-200.000	-0.022	0.147
-147.574	64.378	0.139	-0.138
-146.560	37.963	-0.246	-0.214
-145.545	25.250	0.036	0.029
-144.531	17.848	0.073	0.057
-143.516	153.761	-0.033	0.044
-142.502	91.963	-0.089	0.098
-141.487	328.573	-0.004	0.007
-140.472	-200.000	0.028	0.148
-139.458	253.258	-0.117	0.196
-138.443	56.892	-0.153	0.146
-137.429	-58.853	-0.134	0.057
-136.414	-200.000	-0.010	0.324
-135.399	457.302	-0.162	0.351
-134.385	41.225	-0.193	-0.171
-133.370	748.780	-0.086	-0.226
-132.356	-200.000	-0.037	-0.387
-131.341	-200.000	-0.007	0.045
-130.326	71.155	0.166	-0.169
-129.312	-200.000	-0.013	-0.296
-128.297	800.000	-0.049	-0.178
-127.283	98.846	-0.241	-0.273
-126.268	509.064	-0.025	0.057
-125.253	248.041	-0.081	-0.134
-124.239	449.057	0.035	0.076
-123.224	44.616	-0.300	-0.270
-122.210	800.000	-0.066	-0.247
-121.195	-123.547	-0.169	-0.026
