DTS Sentinel unit serial number:	SN413079Multiplexer serial number:	ORYXHardware model number:	OX4-SRSoftware version number:	ORYX F/W v4.00 Oryx Data Collector v3.7.2.0data status	okinstallation	princeton_trtdifferential loss correction	single-endedforward channel	channel 1reverse channel	N/Adate	2019/09/14time	20:54:35forward acquisition time	60.00reverse acquisition time	0.00gamma	496.2192k internal	0.2317k external	0.2317temperature offset calibration	1.0020default loss term (dB/km)	0.3790temperature slope calibration	1.0000multiplexer offset coefficient	1.0000multiplexer slope coefficient	1.0000fibre end	0.00T internal ref (°C)	33.19T ext. ref 1 (°C)	4.79T ext. ref 2 (°C)	27.93length (m)	temperature (°C)	Stokes	anti-Stokes-747.200	-148.883	-0.137	-0.011
-746.185	-30.139	0.241	-0.139
-745.171	95.691	-0.069	0.079
-744.156	377.403	-0.131	0.271
-743.142	-27.048	-0.134	0.079
-742.127	-12.557	-0.147	0.097
-741.112	682.324	0.030	-0.080
-740.098	-76.954	-0.257	0.091
-739.083	-200.000	-0.013	-0.303
-738.069	-75.597	-0.058	-0.021
-737.054	47.682	0.058	0.055
-736.039	-27.462	-0.135	-0.080
-735.025	-35.843	0.117	0.064
-734.010	21.027	0.129	-0.106
-732.996	337.666	0.099	0.194
-731.981	-88.478	-0.330	0.100
-730.966	34.676	-0.162	-0.144
-729.952	-95.948	-0.299	0.081
-728.937	495.516	-0.027	0.063
-727.923	-167.583	-0.638	0.026
-726.908	-109.554	0.084	0.018
-725.894	-133.020	-0.072	0.009
-724.879	71.016	-0.195	-0.205
-723.864	-50.024	0.260	0.125
-722.850	-99.135	-0.196	0.050
-721.835	-165.221	0.183	0.008
-720.821	-158.376	-0.557	0.033
-719.806	-96.464	-0.374	-0.100
-718.791	-40.077	0.231	0.122
-717.777	-131.916	-0.140	-0.019
-716.762	-200.000	-0.032	-0.289
-715.748	13.525	0.287	-0.225
-714.733	-200.000	-0.047	-0.232
-713.718	-26.593	-0.146	-0.086
-712.704	262.436	0.189	-0.331
-711.689	116.420	0.131	-0.163
-710.675	-120.449	-0.113	-0.019
-709.660	-44.688	-0.145	-0.073
-708.645	-50.029	0.425	-0.203
-707.631	56.140	-0.132	-0.130
-706.616	15.622	0.107	-0.085
-705.602	48.353	-0.106	-0.100
-704.587	-135.611	-0.160	-0.019
-703.572	-200.000	0.008	-0.170
-702.558	-15.317	-0.288	-0.186
-701.543	-63.587	-0.079	0.033
-700.529	68.155	0.051	-0.053
-699.514	-64.536	-0.354	-0.145
-698.499	144.466	-0.117	-0.158
-697.485	18.227	0.141	0.114
-696.470	387.998	-0.112	0.234
-695.456	141.548	0.136	-0.182
-694.441	311.819	-0.089	0.169
-693.426	63.319	-0.154	-0.156
-692.412	385.330	-0.030	-0.063
-691.397	357.700	-0.179	-0.360
-690.383	-55.955	0.108	-0.049
-689.368	69.178	-0.117	-0.121
-688.354	-86.336	0.109	0.034
-687.339	1.656	-0.276	0.200
-686.324	115.254	0.069	-0.085
-685.310	676.080	0.084	-0.221
-684.295	22.071	0.113	0.093
-683.281	-200.000	-0.030	-0.215
-682.266	151.618	0.267	0.368
-681.251	-82.077	-0.020	0.007
-680.237	699.638	-0.122	0.325
-679.222	-101.245	0.221	0.054
-678.208	-167.481	-0.126	-0.005
-677.193	-200.000	-0.010	-0.257
-676.178	500.153	-0.147	-0.343
-675.164	408.393	-0.020	0.042
-674.149	-98.750	0.202	0.052
-673.135	49.134	0.119	-0.113
-672.120	-200.000	-0.092	-0.489
-671.105	-111.365	-0.214	-0.044
-670.091	-141.017	-0.229	-0.024
-669.076	244.334	-0.145	0.246
-668.062	-45.073	-0.074	-0.037
-667.047	77.071	-0.296	-0.317
-666.032	-34.218	-0.114	-0.063
-665.018	722.135	0.013	-0.034
-664.003	191.460	-0.053	0.081
-662.989	379.396	0.036	0.075
-661.974	57.312	0.110	-0.109
-660.959	47.554	0.205	-0.193
-659.945	-126.030	0.233	0.035
-658.930	551.504	-0.068	0.165
-657.916	800.000	0.073	-0.229
-656.901	368.136	-0.092	-0.189
-655.886	-13.739	0.082	0.054
-654.872	-31.351	-0.258	-0.147
-653.857	800.000	-0.050	-0.154
-652.843	69.037	-0.188	-0.195
-651.828	263.536	-0.173	0.304
-650.814	-147.913	0.194	-0.016
-649.799	191.628	-0.102	0.156
-648.784	76.236	0.050	-0.053
-647.770	-147.403	0.340	0.029
-646.755	-200.000	0.001	0.209
-645.741	69.451	-0.146	-0.152
-644.726	800.000	-0.058	-0.197
-643.711	-200.000	0.010	0.160
-642.697	80.070	0.146	0.159
-641.682	9.914	0.188	0.144
-640.668	-200.000	-0.012	0.072
-639.653	700.443	-0.058	-0.154
-638.638	237.433	0.161	-0.270
-637.624	-193.105	0.390	0.003
-636.609	-32.033	0.127	-0.071
-635.595	-121.598	-0.042	0.007
-634.580	49.540	0.105	-0.100
-633.565	800.000	-0.079	-0.227
-632.551	297.358	0.120	0.222
-631.536	-121.255	0.285	0.048
-630.522	-92.197	-0.325	-0.093
-629.507	-98.719	-0.294	-0.075
-628.492	-200.000	0.026	-0.135
-627.478	800.000	0.020	-0.056
-626.463	23.954	-0.158	-0.132
-625.449	445.372	-0.083	0.183
-624.434	87.214	0.081	0.090
-623.419	-38.070	0.277	-0.148
-622.405	-23.580	-0.261	-0.158
-621.390	-144.355	0.175	-0.016
-620.376	179.392	-0.082	0.121
-619.361	201.033	0.215	0.333
-618.346	-2.829	-0.234	0.165
-617.332	-200.000	0.043	-0.280
-616.317	-0.456	-0.160	-0.115
-615.303	-56.595	0.234	0.105
-614.288	353.629	0.125	-0.250
-613.273	-200.000	0.007	0.055
-612.259	319.032	0.124	0.237
-611.244	-157.825	-0.334	0.020
-610.230	24.961	-0.331	-0.277
-609.215	167.248	0.064	0.091
-608.201	11.146	0.355	0.273
-607.186	-31.682	0.185	-0.104
-606.171	-57.420	-0.213	-0.094
-605.157	-124.745	-0.207	0.032
-604.142	-200.000	-0.006	-0.202
-603.128	8.327	0.201	-0.152
-602.113	-200.000	-0.046	0.207
-601.098	488.149	-0.111	-0.256
-600.084	315.287	0.139	-0.263
-599.069	-200.000	0.050	-0.330
-598.055	-200.000	-0.003	-0.138
-597.040	-74.392	-0.171	-0.062
-596.025	-200.000	-0.034	-0.156
-595.011	800.000	-0.038	-0.154
-593.996	401.812	-0.076	0.162
-592.982	-200.000	0.008	0.220
-591.967	2.887	0.099	-0.073
-590.952	-23.111	-0.141	-0.086
-589.938	-200.000	-0.007	-0.703
-588.923	-73.339	0.150	0.055
-587.909	-81.146	0.097	0.032
-586.894	291.342	-0.106	0.194
-585.879	800.000	0.086	-0.339
-584.865	-136.046	-0.213	-0.025
-583.850	33.794	-0.239	0.210
-582.836	-200.000	-0.005	-0.243
-581.821	-200.000	0.002	0.141
-580.806	300.974	-0.011	0.021
-579.792	44.374	-0.055	-0.051
-578.777	-136.783	-0.132	-0.015
-577.763	92.577	-0.245	0.278
-576.748	-200.000	-0.014	0.359
-575.733	-200.000	-0.058	0.254
-574.719	-157.627	-0.211	0.013
-573.704	383.471	-0.082	-0.170
-572.690	34.914	0.094	-0.083
-571.675	-43.741	-0.383	-0.194
-570.661	-131.023	0.111	0.015
-569.646	136.455	-0.062	0.082
-568.631	-200.000	0.035	0.184
-567.617	-112.376	-0.072	0.014
-566.602	-180.660	0.127	0.003
-565.588	-200.000	-0.027	-0.216
-564.573	800.000	0.016	-0.063
-563.558	10.825	0.147	-0.113
-562.544	30.982	0.160	0.138
-561.529	32.010	0.041	-0.036
-560.515	792.383	0.058	-0.160
-559.500	-24.366	0.360	-0.216
-558.485	800.000	-0.028	-0.110
-557.471	-200.000	-0.023	-0.134
-556.456	-51.051	0.042	0.020
-555.442	-200.000	-0.127	-0.000
-554.427	4.729	-0.161	-0.119
-553.412	68.115	0.321	0.330
-552.398	45.329	-0.049	0.045
-551.383	-0.357	0.183	0.131
-550.369	-31.791	-0.233	0.131
-549.354	-42.926	0.195	-0.100
-548.339	-93.536	-0.329	0.091
-547.325	76.124	0.157	0.167
-546.310	384.428	0.184	-0.380
-545.296	6.144	-0.253	-0.189
-544.281	181.084	-0.044	-0.065
-543.266	75.056	0.092	0.097
-542.252	292.058	-0.080	0.146
-541.237	-200.000	0.008	-0.075
-540.223	-71.567	-0.037	0.014
-539.208	800.000	-0.081	0.271
-538.193	186.194	0.221	-0.330
-537.179	80.440	0.087	-0.094
-536.164	-13.067	0.341	0.223
-535.150	419.150	0.118	0.253
-534.135	102.094	0.159	-0.186
-533.121	-124.226	-0.060	0.009
-532.106	-48.484	0.032	0.016
-531.091	164.718	-0.099	-0.140
-530.077	239.961	-0.177	0.296
-529.062	-97.899	-0.111	0.029
-528.048	-21.508	-0.207	0.127
-527.033	74.895	0.185	0.195
-526.018	-130.888	-0.266	0.036
-525.004	-112.516	0.098	0.020
-523.989	16.272	0.050	-0.040
-522.975	-72.957	0.204	0.075
-521.960	800.000	0.059	0.169
-520.945	-102.108	0.254	-0.061
-519.931	-83.747	0.261	-0.083
-518.916	-40.887	0.103	-0.053
-517.902	78.698	0.107	-0.115
-516.887	175.754	0.083	-0.120
-515.872	293.289	-0.127	0.233
-514.858	-104.110	0.167	0.039
-513.843	-125.850	-0.101	0.015
-512.829	-129.828	-0.193	-0.027
-511.814	-154.694	0.130	-0.009
-510.799	-109.927	0.324	-0.068
-509.785	-99.174	-0.485	0.123
-508.770	-200.000	0.000	-0.085
-507.756	174.619	-0.234	0.340
-506.741	-200.000	-0.043	0.277
-505.726	-9.227	-0.334	0.224
-504.712	-59.989	0.237	0.102
-503.697	145.896	0.199	-0.268
-502.683	-116.619	-0.093	0.017
-501.668	5.744	0.042	-0.032
-500.653	-200.000	0.011	-0.110
-499.639	-138.107	0.091	0.010
-498.624	-200.000	0.004	0.156
-497.610	111.121	0.375	0.453
-496.595	-29.337	0.426	-0.245
-495.581	28.804	-0.062	0.053
-494.566	-56.862	0.162	0.072
-493.551	-41.377	-0.197	0.102
-492.537	-43.189	0.081	0.041
-491.522	-109.023	0.023	-0.005
-490.508	-93.439	-0.319	-0.089
-489.493	-79.846	0.133	0.045
-488.478	-200.000	-0.093	0.488
-487.464	-171.946	-0.334	-0.011
-486.449	-200.000	-0.006	0.203
-485.435	-185.764	0.281	-0.004
-484.420	47.053	-0.169	0.157
-483.405	-35.821	-0.105	-0.057
-482.391	-101.986	0.117	-0.028
-481.376	-65.945	-0.194	-0.078
-480.362	800.000	0.067	-0.224
-479.347	-16.005	-0.084	0.054
-478.332	800.000	0.034	0.114
-477.318	-149.498	0.210	0.017
-476.303	-200.000	0.009	0.196
-475.289	800.000	-0.054	0.177
-474.274	155.193	-0.186	0.256
-473.259	26.549	-0.183	0.153
-472.245	800.000	-0.020	0.073
-471.230	8.629	0.144	0.108
-470.216	105.271	0.134	-0.158
-469.201	59.210	0.054	-0.053
-468.186	-12.773	0.213	0.139
-467.172	-200.000	0.019	0.334
-466.157	148.405	-0.362	-0.490
-465.143	-17.273	-0.202	-0.127
-464.128	60.501	-0.131	-0.130
-463.113	103.179	0.054	0.063
-462.099	-200.000	0.015	0.146
-461.084	141.200	-0.030	-0.040
-460.070	800.000	-0.034	-0.098
-459.055	156.659	0.046	-0.064
-458.040	-200.000	0.000	0.091
-457.026	49.800	0.192	0.181
-456.011	207.760	-0.145	-0.226
-454.997	-156.885	-0.154	0.009
-453.982	800.000	-0.113	0.410
-452.968	-86.334	0.184	-0.057
-451.953	800.000	0.063	0.269
-450.938	-85.769	-0.182	-0.057
-449.924	211.636	0.222	-0.350
-448.909	-200.000	0.039	-0.263
-447.895	-63.171	0.358	-0.148
-446.880	800.000	0.013	-0.051
-445.865	-80.755	-0.096	0.032
-444.851	20.567	0.277	-0.225
-443.836	22.851	-0.132	0.108
-442.822	-200.000	0.039	-0.174
-441.807	800.000	-0.045	-0.171
-440.792	800.000	-0.050	-0.178
-439.778	126.515	-0.096	0.122
-438.763	800.000	-0.026	-0.097
-437.749	-103.326	-0.145	-0.034
-436.734	272.087	0.193	0.340
-435.719	-200.000	-0.366	-0.001
-434.705	31.211	0.152	0.130
-433.690	-75.511	-0.206	-0.073
-432.676	395.075	0.103	0.216
-431.661	-147.625	-0.067	0.006
-430.646	-73.805	-0.403	0.147
-429.632	178.562	-0.190	0.277
-428.617	-200.000	0.014	-0.112
-427.603	192.993	0.084	-0.127
-426.588	-68.987	0.222	0.086
-425.573	9.278	-0.124	0.094
-424.559	-81.672	-0.336	0.110
-423.544	174.248	0.109	0.157
-422.530	506.676	-0.105	-0.243
-421.515	800.000	-0.028	-0.108
-420.500	-124.145	-0.033	0.005
-419.486	100.886	0.160	0.186
-418.471	-200.000	0.000	0.275
-417.457	19.603	0.403	-0.324
-416.442	-200.000	-0.005	0.315
-415.428	-103.172	-0.376	-0.089
-414.413	76.205	0.107	-0.113
-413.398	35.715	0.099	0.087
-412.384	-200.000	-0.014	-0.085
-411.369	207.472	0.238	-0.370
-410.355	800.000	-0.099	-0.389
-409.340	-200.000	-0.002	0.318
-408.325	197.511	0.045	-0.069
-407.311	-138.798	0.316	0.034
-406.296	-93.051	-0.207	0.058
-405.282	-200.000	0.011	-0.224
-404.267	-104.022	-0.169	0.039
-403.252	-200.000	-0.013	0.184
-402.238	-181.378	-0.540	-0.011
-401.223	-200.000	0.043	-0.294
-400.209	-97.803	0.275	0.071
-399.194	800.000	-0.034	-0.109
-398.179	75.240	-0.283	0.298
-397.165	-31.248	-0.280	0.157
-396.150	800.000	-0.103	0.369
-395.136	-17.478	-0.072	0.045
-394.121	-122.126	0.295	-0.048
-393.106	-200.000	0.016	0.074
-392.092	241.800	-0.179	-0.300
-391.077	-135.631	0.359	-0.043
-390.063	30.282	0.156	-0.133
-389.048	259.126	-0.164	0.283
-388.033	-18.621	0.221	-0.138
-387.019	-178.689	0.124	0.003
-386.004	-200.000	0.011	-0.175
-384.990	-200.000	-0.104	-0.502
-383.975	-155.794	-0.218	0.014
-382.960	-100.677	0.121	0.030
-381.946	-200.000	0.003	-0.073
-380.931	-200.000	-0.005	0.311
-379.917	17.827	-0.082	0.066
-378.902	-46.042	-0.115	-0.057
-377.888	307.425	0.098	-0.183
-376.873	212.397	-0.046	0.073
-375.858	-23.623	-0.337	-0.202
-374.844	-58.843	0.173	0.075
-373.829	246.144	-0.130	0.218
-372.815	25.024	-0.044	-0.037
-371.800	-93.144	-0.043	-0.012
-370.785	-200.000	0.029	0.238
-369.771	67.130	-0.145	-0.148
-368.756	-154.797	-0.223	0.015
-367.742	-200.000	-0.006	0.324
-366.727	-53.512	0.120	0.055
-365.712	-102.536	0.191	0.045
-364.698	8.381	-0.153	0.114
-363.683	-92.736	0.164	0.046
-362.669	-92.288	-0.051	0.014
-361.654	351.365	-0.056	0.111
-360.639	467.751	0.060	-0.134
-359.625	8.670	0.144	0.108
-358.610	389.551	0.081	0.167
-357.596	-133.432	0.184	0.023
-356.581	-84.488	0.189	-0.060
-355.566	-38.002	0.056	-0.030
-354.552	72.053	0.095	0.099
-353.537	800.000	0.051	0.219
-352.523	-200.000	0.021	0.188
-351.508	-200.000	0.021	0.270
-350.493	164.414	-0.145	0.204
-349.479	-97.879	0.217	0.056
-348.464	-7.361	-0.499	0.337
-347.450	-200.000	0.034	0.216
-346.435	274.069	0.124	0.218
-345.420	800.000	-0.049	0.153
-344.406	-129.090	-0.182	-0.025
-343.391	-82.692	0.267	0.086
-342.377	800.000	0.074	-0.282
-341.362	-9.185	-0.284	-0.189
-340.348	-156.636	0.414	0.026
-339.333	-112.383	0.168	0.033
-338.318	-200.000	-0.016	0.253
-337.304	800.000	-0.136	-0.428
-336.289	131.909	0.264	-0.338
-335.275	-47.829	-0.212	0.102
-334.260	122.015	-0.126	-0.157
-333.245	-133.475	-0.263	0.033
-332.231	800.000	-0.053	-0.169
-331.216	-200.000	0.013	-0.155
-330.202	-200.000	-0.008	-0.244
-329.187	-200.000	0.071	-0.326
-328.172	129.591	0.071	0.090
-327.158	-200.000	-0.032	-0.408
-326.143	-200.000	0.001	0.236
-325.129	-56.980	-0.272	-0.120
-324.114	800.000	0.035	-0.124
-323.099	-104.141	-0.037	0.009
-322.085	-17.998	-0.401	0.250
-321.070	62.670	-0.140	0.139
-320.056	83.200	0.056	-0.061
-319.041	-76.796	-0.296	0.103
-318.026	283.253	-0.258	-0.462
-317.012	-15.830	0.106	-0.067
-315.997	30.666	0.207	-0.176
-314.983	800.000	0.081	0.321
-313.968	800.000	0.157	0.440
-312.953	-139.232	-0.341	0.037
-311.939	800.000	-0.033	0.141
-310.924	122.089	0.133	-0.165
-309.910	-127.213	-0.170	-0.025
-308.895	-43.211	-0.134	-0.067
-307.880	115.123	0.227	0.276
-306.866	-200.000	0.033	-0.159
-305.851	800.000	0.032	-0.090
-304.837	-112.616	0.142	0.028
-303.822	-122.836	0.095	-0.015
-302.807	800.000	-0.067	0.215
-301.793	47.480	-0.226	0.209
-300.778	88.301	0.156	-0.172
-299.764	-95.838	0.136	0.036
-298.749	669.343	-0.039	0.099
-297.735	35.910	0.172	0.151
-296.720	47.459	-0.155	0.144
-295.705	-1.303	0.355	0.249
-294.691	65.474	0.065	-0.065
-293.676	289.351	-0.122	-0.219
-292.662	-26.726	0.181	-0.105
-291.647	190.737	-0.081	0.122
-290.632	800.000	0.075	0.295
-289.618	-200.000	0.007	-0.176
-288.603	372.314	-0.097	0.196
-287.589	-142.212	-0.318	-0.031
-286.574	48.432	-0.292	0.272
-285.559	-129.791	0.190	0.026
-284.545	-170.965	-0.076	-0.003
-283.530	-200.000	0.002	-0.209
-282.516	-99.379	0.171	0.043
-281.501	135.565	-0.077	-0.099
-280.486	380.821	0.036	-0.073
-279.472	800.000	-0.079	-0.322
-278.457	-162.491	-0.364	0.018
-277.443	212.473	0.192	0.300
-276.428	-200.000	0.017	-0.191
-275.413	-114.575	-0.120	0.023
-274.399	-61.236	0.374	-0.157
-273.384	28.885	0.280	-0.236
-272.370	13.059	0.147	-0.113
-271.355	-102.173	-0.149	-0.036
-270.340	496.682	-0.113	0.259
-269.326	-125.403	-0.303	0.046
-268.311	-200.000	0.053	-0.359
-267.297	47.142	-0.089	0.082
-266.282	-14.513	-0.424	0.271
-265.267	-200.000	-0.066	0.429
-264.253	-166.639	-0.318	-0.013
-263.238	-117.530	-0.171	-0.031
-262.224	30.454	-0.072	-0.061
-261.209	-70.062	-0.204	-0.077
-260.195	-48.402	0.361	0.173
-259.180	-69.892	-0.283	-0.107
-258.165	245.965	-0.207	-0.347
-257.151	-30.274	-0.219	0.123
-256.136	28.300	-0.339	0.284
-255.122	-25.615	-0.292	0.171
-254.107	800.000	0.061	-0.183
-253.092	398.298	-0.064	-0.132
-252.078	-200.000	-0.057	-0.425
-251.063	-93.340	-0.106	0.029
-250.049	674.132	0.047	0.122
-249.034	-61.502	0.062	-0.026
-248.019	-200.000	0.421	0.001
-247.005	-200.000	-0.003	-0.019
-245.990	127.004	-0.257	-0.324
-244.976	-163.665	0.238	0.011
-243.961	-184.929	0.202	-0.003
-242.946	-80.263	0.182	-0.060
-241.932	800.000	0.157	0.432
-240.917	-37.756	-0.157	0.083
-239.903	52.314	-0.179	0.170
-238.888	-189.122	0.123	-0.001
-237.873	294.903	0.181	-0.328
-236.859	-200.000	-0.022	0.237
-235.844	-34.178	0.145	0.079
-234.830	-43.680	-0.114	-0.057
-233.815	53.272	-0.146	-0.139
-232.800	-200.000	0.017	-0.166
-231.786	31.392	0.090	-0.076
-230.771	-48.496	-0.131	-0.062
-229.757	410.366	0.188	0.396
-228.742	245.633	0.084	-0.141
-227.727	-200.000	0.036	-0.236
-226.713	91.832	0.266	-0.297
-225.698	-200.000	0.020	0.089
-224.684	652.082	0.138	0.352
-223.669	179.787	-0.161	0.233
-222.655	-115.464	-0.118	0.022
-221.640	-131.065	0.255	-0.034
-220.625	-9.716	0.325	0.215
-219.611	20.532	0.211	0.169
-218.596	449.067	0.026	-0.057
-217.582	800.000	-0.044	-0.122
-216.567	-200.000	-0.010	-0.301
-215.552	-40.302	-0.073	0.037
-214.538	-75.649	0.216	0.076
-213.523	800.000	-0.091	-0.333
-212.509	800.000	0.090	0.382
-211.494	800.000	-0.033	0.145
-210.479	669.268	0.050	0.129
-209.465	-8.684	0.102	-0.068
-208.450	-200.000	0.016	0.256
-207.436	238.474	0.213	0.351
-206.421	-162.022	0.400	-0.020
-205.406	-74.846	0.101	-0.036
-204.392	-88.909	0.233	-0.068
-203.377	-200.000	-0.068	-0.321
-202.363	-200.000	0.043	0.289
-201.348	800.000	0.088	0.353
-200.333	-90.540	0.402	-0.115
-199.319	-85.668	0.367	-0.113
-198.304	-152.879	0.288	0.020
-197.290	84.748	-0.178	-0.194
-196.275	800.000	0.032	0.097
-195.260	-200.000	-0.048	-0.293
-194.246	98.380	-0.175	-0.200
-193.231	46.466	0.114	0.104
-192.217	-150.862	0.083	-0.006
-191.202	37.707	-0.073	-0.064
-190.187	274.028	-0.056	-0.097
-189.173	-92.981	-0.291	-0.080
-188.158	-59.539	-0.209	0.089
-187.144	-200.000	0.024	0.262
-186.129	134.876	-0.183	-0.235
-185.114	-200.000	0.041	-0.178
-184.100	309.229	-0.201	-0.372
-183.085	575.177	0.103	-0.250
-182.071	-27.278	0.237	-0.137
-181.056	-68.247	0.261	0.101
-180.042	448.083	0.074	-0.161
-179.027	-200.000	0.047	-0.283
-178.012	-170.889	-0.196	-0.007
-176.998	-200.000	-0.055	-0.344
-175.983	-49.028	-0.067	-0.032
-174.969	800.000	-0.069	-0.259
-173.954	-129.362	-0.320	-0.044
-172.939	214.407	-0.022	0.035
-171.925	35.372	0.194	0.168
-170.910	-200.000	-0.018	-0.112
-169.896	122.899	-0.246	-0.305
-168.881	300.663	0.072	-0.132
-167.866	-169.982	-0.211	0.007
-166.852	35.561	0.198	0.172
-165.837	-156.220	0.119	-0.007
-164.823	35.309	0.106	-0.092
-163.808	-200.000	-0.081	-0.402
-162.793	-37.535	0.292	0.154
-161.779	800.000	0.082	-0.271
-160.764	-0.249	-0.170	-0.120
-159.750	800.000	-0.044	0.180
-158.735	-143.540	0.257	-0.024
-157.720	93.688	0.144	0.161
-156.706	7.034	-0.208	0.153
-155.691	-58.405	-0.220	-0.095
-154.677	-49.094	0.294	-0.139
-153.662	-195.253	-0.144	0.001
-152.647	-16.667	-0.009	0.006
-151.633	-113.238	-0.397	0.077
-150.618	126.358	-0.107	0.134
-149.604	-19.182	-0.142	0.087
-148.589	132.052	-0.334	0.426
-147.574	-132.157	0.197	0.025
-146.560	190.500	0.076	0.113
-145.545	489.348	0.109	0.246
-144.531	269.510	0.101	-0.176
-143.516	-200.000	-0.052	-0.249
-142.502	-200.000	0.008	0.249
-141.487	330.062	-0.204	0.389
-140.472	800.000	0.012	0.037
-139.458	-60.877	-0.218	0.091
-138.443	195.720	0.082	0.123
-137.429	45.667	-0.217	-0.198
-136.414	-200.000	0.008	-0.147
-135.399	71.158	0.090	0.092
-134.385	-158.216	0.284	0.016
-133.370	800.000	-0.136	0.379
-132.356	-68.702	0.130	-0.050
-131.341	3.339	0.157	0.113
-130.326	95.796	-0.137	0.155
-129.312	800.000	0.070	0.221
-128.297	-87.143	-0.105	-0.032
-127.283	498.459	0.130	-0.296
-126.268	-200.000	0.007	0.128
-125.253	131.675	-0.278	-0.354
-124.239	800.000	-0.130	-0.467
-123.224	10.983	0.209	0.158
-122.210	-89.957	-0.305	-0.088
-121.195	110.244	-0.098	0.116
