DTS Sentinel unit serial number:	SN413079Multiplexer serial number:	ORYXHardware model number:	OX4-SRSoftware version number:	ORYX F/W v4.00 Oryx Data Collector v3.7.2.0data status	okinstallation	princeton_trtdifferential loss correction	single-endedforward channel	channel 1reverse channel	N/Adate	2019/09/13time	10:54:35forward acquisition time	60.00reverse acquisition time	0.00gamma	496.2192k internal	0.2320k external	0.2320temperature offset calibration	1.0157default loss term (dB/km)	0.3790temperature slope calibration	1.0000multiplexer offset coefficient	1.0000multiplexer slope coefficient	1.0000fibre end	0.00T internal ref (°C)	31.75T ext. ref 1 (°C)	4.61T ext. ref 2 (°C)	28.27length (m)	temperature (°C)	Stokes	anti-Stokes-747.200	-200.000	0.023	0.348
-746.185	800.000	0.056	-0.187
-745.171	-121.318	-0.063	-0.011
-744.156	228.863	0.167	0.275
-743.142	579.973	-0.138	-0.342
-742.127	-200.000	0.011	0.320
-741.112	-124.816	0.080	-0.013
-740.098	112.173	0.091	-0.112
-739.083	-142.032	-0.330	0.033
-738.069	168.332	0.238	0.343
-737.054	200.309	0.139	-0.216
-736.039	147.436	0.062	-0.084
-735.025	417.890	-0.092	-0.199
-734.010	101.041	-0.146	-0.172
-732.996	44.379	-0.025	-0.023
-731.981	-118.028	-0.404	-0.073
-730.966	-200.000	0.015	0.119
-729.952	39.115	-0.076	-0.069
-728.937	86.227	-0.089	-0.099
-727.923	1.706	-0.279	0.203
-726.908	-200.000	-0.010	0.222
-725.894	-139.676	-0.067	-0.007
-724.879	-129.460	0.143	0.020
-723.864	297.143	-0.070	0.130
-722.850	-86.522	-0.363	-0.113
-721.835	-143.892	-0.179	0.017
-720.821	800.000	-0.077	-0.273
-719.806	-57.468	0.090	-0.040
-718.791	-19.992	-0.273	0.170
-717.777	-200.000	-0.095	-0.492
-716.762	800.000	-0.020	-0.085
-715.748	-20.088	-0.050	0.031
-714.733	-200.000	-0.042	-0.322
-713.718	560.103	0.059	0.145
-712.704	67.862	0.100	0.103
-711.689	-90.416	-0.145	-0.042
-710.675	800.000	0.043	0.174
-709.660	213.817	-0.045	0.071
-708.645	465.090	0.065	-0.147
-707.631	95.833	0.437	-0.504
-706.616	-200.000	-0.021	-0.101
-705.602	57.368	0.151	-0.149
-704.587	-200.000	-0.095	-0.585
-703.572	-59.136	0.219	-0.095
-702.558	-200.000	0.005	0.232
-701.543	-70.909	-0.458	0.174
-700.529	354.186	-0.022	0.044
-699.514	234.554	-0.108	-0.180
-698.499	34.960	0.236	0.209
-697.485	-7.232	-0.330	0.226
-696.470	-26.673	-0.269	0.159
-695.456	-127.064	0.162	0.024
-694.441	121.538	0.051	0.064
-693.426	-15.427	0.170	-0.109
-692.412	392.641	-0.126	0.264
-691.397	800.000	0.077	-0.255
-690.383	-109.266	-0.341	0.073
-689.368	800.000	-0.104	-0.321
-688.354	-161.453	-0.088	0.005
-687.339	176.818	-0.075	0.110
-686.324	-156.950	-0.263	0.016
-685.310	800.000	-0.039	0.163
-684.295	83.405	-0.059	0.065
-683.281	-139.247	-0.260	0.028
-682.266	-200.000	-0.008	0.438
-681.251	-108.624	-0.039	0.008
-680.237	45.539	-0.382	-0.356
-679.222	-191.993	-0.301	-0.003
-678.208	-200.000	0.011	-0.205
-677.193	62.179	-0.261	0.263
-676.178	-25.299	-0.161	0.096
-675.164	-200.000	-0.027	-0.166
-674.149	80.762	-0.157	-0.171
-673.135	146.206	-0.227	0.307
-672.120	271.253	-0.159	0.282
-671.105	-159.848	-0.352	0.019
-670.091	-123.049	0.193	0.031
-669.076	-49.867	-0.071	-0.034
-668.062	60.906	-0.120	0.120
-667.047	-131.748	-0.254	0.034
-666.032	-16.832	0.036	0.023
-665.018	-200.000	-0.009	-0.271
-664.003	-72.664	0.057	0.021
-662.989	174.564	0.160	0.233
-661.974	213.133	-0.316	-0.504
-660.959	-32.187	-0.265	0.149
-659.945	800.000	0.125	0.511
-658.930	70.579	-0.097	-0.101
-657.916	348.269	-0.132	0.263
-656.901	-200.000	-0.046	0.418
-655.886	-200.000	0.036	0.293
-654.872	-94.629	-0.102	-0.028
-653.857	-76.544	0.239	0.085
-652.843	294.077	0.087	-0.160
-651.828	-200.000	-0.003	-0.019
-650.814	800.000	0.033	0.113
-649.799	169.964	0.192	-0.277
-648.784	141.023	0.184	0.246
-647.770	-28.561	0.144	0.083
-646.755	45.314	0.152	-0.141
-645.741	-94.331	0.290	-0.080
-644.726	31.602	-0.277	-0.240
-643.711	386.188	-0.098	-0.203
-642.697	-70.275	0.188	-0.072
-641.682	-99.994	0.120	0.030
-640.668	-113.071	-0.160	0.032
-639.653	-200.000	0.080	-0.389
-638.638	178.971	0.225	0.332
-637.624	70.641	-0.124	0.130
-636.609	-37.525	-0.174	0.094
-635.595	800.000	0.084	0.293
-634.580	-29.391	-0.177	0.102
-633.565	-58.616	-0.130	-0.057
-632.551	-200.000	-0.003	-0.029
-631.536	327.080	0.168	-0.324
-630.522	142.299	-0.028	-0.037
-629.507	118.334	-0.247	-0.307
-628.492	-56.076	-0.207	-0.093
-627.478	-11.065	-0.196	0.130
-626.463	26.002	-0.280	-0.235
-625.449	108.736	0.102	-0.123
-624.434	-36.834	-0.259	0.140
-623.419	791.974	-0.050	-0.138
-622.405	664.698	0.102	-0.265
-621.390	51.244	-0.177	-0.169
-620.376	-87.321	-0.280	-0.085
-619.361	-102.681	0.144	0.035
-618.346	-200.000	0.017	0.282
-617.332	-149.834	-0.289	0.023
-616.317	8.459	-0.088	0.067
-615.303	800.000	0.077	0.235
-614.288	159.258	-0.092	-0.129
-613.273	-40.134	-0.279	-0.147
-612.259	-200.000	-0.015	-0.199
-611.244	17.780	-0.303	0.243
-610.230	-188.498	-0.108	0.001
-609.215	53.328	0.215	0.207
-608.201	-89.260	-0.199	0.059
-607.186	-157.938	-0.089	0.005
-606.171	598.496	0.129	-0.321
-605.157	-60.525	-0.100	-0.043
-604.142	800.000	0.046	0.144
-603.128	528.075	0.103	0.243
-602.113	-140.242	0.248	0.026
-601.098	-200.000	-0.050	0.235
-600.084	-200.000	0.020	-0.234
-599.069	181.676	-0.096	0.142
-598.055	-41.128	-0.402	-0.209
-597.040	17.538	-0.138	-0.111
-596.025	800.000	0.033	-0.101
-595.011	123.451	-0.113	-0.143
-593.996	-87.799	0.438	-0.133
-592.982	800.000	0.079	0.236
-591.967	67.144	0.201	-0.206
-590.952	325.614	-0.031	0.060
-589.938	800.000	-0.042	0.150
-588.923	181.818	0.020	0.029
-587.909	-200.000	-0.030	0.134
-586.894	-36.768	-0.125	0.067
-585.879	800.000	0.076	0.259
-584.865	-192.080	0.349	0.003
-583.850	-101.813	0.114	-0.028
-582.836	-200.000	0.040	0.190
-581.821	10.361	-0.340	0.260
-580.806	-47.017	-0.158	-0.078
-579.792	89.250	-0.096	0.107
-578.777	-200.000	0.006	0.236
-577.763	326.601	-0.018	-0.035
-576.748	586.367	-0.041	0.102
-575.733	177.647	0.165	-0.242
-574.719	3.929	-0.193	0.142
-573.704	800.000	-0.027	-0.114
-572.690	-200.000	0.006	0.187
-571.675	92.227	0.051	-0.058
-570.661	183.726	0.146	0.217
-569.646	-60.127	0.257	0.110
-568.631	-29.950	0.055	-0.031
-567.617	800.000	-0.073	0.290
-566.602	-86.002	-0.209	-0.065
-565.588	-48.201	-0.027	0.013
-564.573	-132.938	-0.122	0.016
-563.558	-84.894	-0.125	0.039
-562.544	56.381	-0.380	-0.371
-561.529	-142.619	0.145	-0.014
-560.515	-18.286	-0.075	0.047
-559.500	-44.589	0.338	0.169
-558.485	-93.111	-0.174	0.049
-557.471	149.538	0.043	-0.059
-556.456	274.352	0.190	-0.339
-555.442	-144.513	-0.305	-0.028
-554.427	89.701	-0.205	-0.230
-553.412	-200.000	-0.038	-0.313
-552.398	-107.075	-0.184	0.041
-551.383	-172.357	0.070	0.002
-550.369	-138.370	-0.225	0.025
-549.354	57.830	0.109	-0.107
-548.339	585.180	0.039	-0.096
-547.325	420.302	-0.053	0.113
-546.310	-90.421	-0.081	-0.024
-545.296	114.734	0.092	-0.113
-544.281	-66.454	0.080	-0.032
-543.266	-14.522	0.109	0.070
-542.252	-200.000	0.035	-0.236
-541.237	36.533	-0.295	-0.261
-540.223	800.000	-0.063	-0.215
-539.208	-30.756	-0.186	-0.106
-538.193	-200.000	-0.002	-0.040
-537.179	-172.163	0.257	-0.008
-536.164	181.362	-0.219	0.323
-535.150	2.573	0.269	0.196
-534.135	800.000	0.043	0.139
-533.121	-46.196	0.157	-0.077
-532.106	-98.705	0.128	0.033
-531.091	-31.862	-0.262	0.147
-530.077	800.000	-0.048	0.178
-529.062	735.757	-0.101	-0.270
-528.048	-200.000	-0.013	0.082
-527.033	78.630	0.183	0.196
-526.018	-120.272	0.587	0.100
-525.004	48.751	0.205	-0.193
-523.989	-121.164	-0.420	0.070
-522.975	266.268	-0.168	-0.294
-521.960	119.865	0.130	-0.161
-520.945	291.716	0.132	-0.240
-519.931	76.461	-0.061	-0.065
-518.916	-136.974	0.371	0.043
-517.902	-200.000	-0.008	-0.438
-516.887	-89.188	-0.214	0.063
-515.872	-146.567	-0.309	-0.027
-514.858	392.358	0.085	0.178
-513.843	270.289	-0.078	-0.138
-512.829	800.000	-0.059	-0.194
-511.814	800.000	-0.080	-0.248
-510.799	-99.412	0.095	-0.024
-509.785	-200.000	0.076	-0.392
-508.770	800.000	-0.031	0.087
-507.756	-200.000	0.037	-0.225
-506.741	492.414	-0.051	-0.117
-505.726	-200.000	0.012	-0.204
-504.712	-93.260	-0.255	-0.071
-503.697	-151.904	0.355	-0.026
-502.683	-62.716	0.274	-0.114
-501.668	277.106	0.024	-0.042
-500.653	-163.511	0.307	0.015
-499.639	-92.942	-0.045	-0.013
-498.624	-200.000	-0.037	0.174
-497.610	121.867	-0.038	0.047
-496.595	-28.912	-0.319	0.184
-495.581	129.232	0.233	0.298
-494.566	-169.265	-0.029	0.001
-493.551	-200.000	-0.000	-0.225
-492.537	591.581	0.052	-0.129
-491.522	800.000	0.023	-0.067
-490.508	-73.938	-0.157	0.057
-489.493	73.224	-0.111	0.116
-488.478	-69.712	-0.174	0.067
-487.464	314.807	0.072	-0.135
-486.449	-32.047	0.210	0.118
-485.435	-90.574	-0.289	-0.084
-484.420	-200.000	-0.023	-0.245
-483.405	54.027	-0.167	-0.161
-482.391	-184.179	0.043	-0.001
-481.376	800.000	0.033	-0.092
-480.362	-100.029	-0.026	0.006
-479.347	343.642	-0.121	0.238
-478.332	78.026	0.148	0.157
-477.318	-200.000	-0.032	0.158
-476.303	-200.000	-0.011	0.359
-475.289	-0.127	0.083	0.059
-474.274	172.242	0.330	0.476
-473.259	-179.532	-0.364	0.008
-472.245	-200.000	0.031	-0.354
-471.230	23.881	0.303	0.250
-470.216	-18.066	0.240	0.150
-469.201	-200.000	0.021	-0.195
-468.186	227.628	-0.213	-0.346
-467.172	70.993	-0.278	-0.289
-466.157	192.958	-0.204	0.309
-465.143	-78.221	-0.354	0.122
-464.128	613.410	0.171	-0.429
-463.113	561.290	-0.136	-0.329
-462.099	98.384	0.158	0.183
-461.084	-138.001	-0.185	-0.021
-460.070	-96.121	-0.086	-0.023
-459.055	-200.000	0.032	-0.180
-458.040	664.698	0.074	-0.191
-457.026	69.455	0.064	-0.066
-456.011	-81.859	0.113	0.037
-454.997	-200.000	-0.000	-0.227
-453.982	-47.205	0.157	0.076
-452.968	8.439	-0.171	-0.128
-451.953	-59.888	0.204	0.087
-450.938	800.000	-0.052	0.169
-449.924	50.419	0.244	0.230
-448.909	91.672	-0.362	0.407
-447.895	112.884	-0.021	0.026
-446.880	800.000	-0.055	0.194
-445.865	-200.000	0.032	0.169
-444.851	-23.504	-0.078	0.047
-443.836	233.137	0.133	-0.218
-442.822	-143.314	-0.209	0.020
-441.807	-81.916	0.129	0.042
-440.792	-200.000	0.022	-0.105
-439.778	-94.064	-0.281	-0.077
-438.763	-69.921	0.272	-0.104
-437.749	-200.000	0.029	-0.141
-436.734	-11.948	-0.102	-0.067
-435.719	-200.000	0.010	-0.263
-434.705	-42.083	0.197	-0.101
-433.690	-200.000	-0.012	0.143
-432.676	66.470	-0.094	-0.095
-431.661	-200.000	-0.039	0.203
-430.646	-169.826	-0.234	0.008
-429.632	-200.000	0.052	-0.418
-428.617	-33.073	-0.205	-0.113
-427.603	-2.302	-0.177	0.124
-426.588	67.773	0.184	0.188
-425.573	30.999	0.129	-0.111
-424.559	530.790	-0.093	-0.220
-423.544	17.554	-0.386	-0.307
-422.530	-14.772	0.345	-0.221
-421.515	-15.038	-0.143	0.092
-420.500	-200.000	-0.014	-0.071
-419.486	-200.000	-0.022	-0.119
-418.471	134.984	0.035	-0.045
-417.457	202.100	0.143	-0.221
-416.442	-134.091	0.302	-0.037
-415.428	-134.361	0.138	-0.017
-414.413	-200.000	0.045	0.207
-413.398	-56.811	0.212	0.094
-412.384	-200.000	-0.107	-0.473
-411.369	-71.583	0.156	-0.058
-410.355	167.653	-0.068	-0.096
-409.340	-31.901	-0.264	-0.148
-408.325	-94.184	0.187	-0.051
-407.311	393.941	-0.130	-0.270
-406.296	800.000	-0.082	-0.241
-405.282	44.403	0.169	0.155
-404.267	629.195	0.126	0.319
-403.252	9.324	0.178	-0.134
-402.238	11.369	0.364	0.278
-401.223	18.684	-0.180	0.143
-400.209	-35.899	-0.216	-0.116
-399.194	-146.273	0.303	-0.027
-398.179	-200.000	-0.047	0.343
-397.165	-200.000	0.016	-0.107
-396.150	-50.909	-0.154	0.072
-395.136	217.732	0.237	0.377
-394.121	-42.720	-0.220	0.111
-393.106	800.000	-0.085	-0.244
-392.092	-137.517	0.085	0.010
-391.077	184.762	0.126	0.186
-390.063	-200.000	0.050	-0.325
-389.048	-75.512	-0.196	-0.070
-388.033	800.000	0.030	0.087
-387.019	-162.074	-0.076	-0.004
-386.004	25.451	0.290	-0.240
-384.990	-200.000	-0.088	-0.397
-383.975	227.970	-0.117	0.191
-382.960	-136.013	0.458	-0.054
-381.946	-158.186	0.287	0.017
-380.931	252.023	0.186	0.316
-379.917	-28.639	0.077	0.044
-378.902	73.590	-0.121	0.127
-377.888	-69.378	0.087	-0.033
-376.873	-153.916	-0.124	-0.008
-375.858	800.000	-0.033	-0.111
-374.844	-167.436	-0.237	-0.009
-373.829	800.000	0.027	-0.078
-372.815	800.000	0.089	-0.297
-371.800	-9.581	-0.172	-0.114
-370.785	6.157	-0.068	0.050
-369.771	-200.000	-0.015	-0.092
-368.756	800.000	-0.041	0.141
-367.742	-4.371	-0.185	0.127
-366.727	-14.032	-0.120	0.077
-365.712	-53.047	0.020	-0.009
-364.698	-52.610	-0.158	0.073
-363.683	25.276	0.265	0.219
-362.669	286.919	0.130	0.234
-361.654	-200.000	0.005	0.102
-360.639	-200.000	0.020	0.249
-359.625	105.099	-0.150	-0.177
-358.610	800.000	-0.055	0.166
-357.596	261.927	0.192	0.331
-356.581	-200.000	0.018	0.129
-355.566	800.000	-0.064	-0.209
-354.552	-84.577	-0.246	-0.077
-353.537	-159.534	-0.258	-0.014
-352.523	800.000	0.033	0.107
-351.508	141.564	0.064	-0.084
-350.493	-147.855	-0.069	-0.006
-349.479	427.175	0.070	0.149
-348.464	-144.896	-0.272	0.025
-347.450	6.251	-0.268	-0.198
-346.435	38.684	0.176	-0.157
-345.420	205.559	-0.198	-0.306
-344.406	-4.536	-0.132	-0.091
-343.391	-20.520	0.198	-0.121
-342.377	41.934	0.207	0.187
-341.362	-67.943	-0.097	0.038
-340.348	800.000	0.055	0.232
-339.333	120.486	0.309	0.382
-338.318	-65.586	-0.250	0.100
-337.304	-1.474	-0.086	0.060
-336.289	800.000	0.037	0.113
-335.275	316.526	-0.051	-0.097
-334.260	603.590	-0.085	-0.210
-333.245	131.353	0.302	0.387
-332.231	-200.000	-0.096	0.000
-331.216	-43.701	-0.197	-0.099
-330.202	800.000	0.090	-0.274
-329.187	-200.000	0.015	0.074
-328.172	800.000	0.083	-0.360
-327.158	-77.085	-0.412	0.143
-326.143	360.488	-0.072	0.143
-325.129	501.859	-0.077	0.177
-324.114	159.847	0.055	-0.076
-323.099	96.795	-0.133	0.151
-322.085	-76.597	-0.137	0.048
-321.070	-8.204	0.124	0.083
-320.056	51.407	0.131	0.124
-319.041	255.853	-0.059	-0.100
-318.026	-126.491	-0.305	0.045
-317.012	11.158	0.346	0.263
-315.997	453.623	0.144	0.316
-314.983	679.494	-0.055	-0.142
-313.968	357.968	0.119	0.236
-312.953	-113.574	0.415	0.081
-311.939	-176.874	-0.229	-0.006
-310.924	800.000	0.025	-0.089
-309.910	-158.409	-0.327	0.019
-308.895	66.965	0.182	-0.184
-307.880	137.502	0.013	0.017
-306.866	367.782	-0.084	0.168
-305.851	-200.000	-0.008	-0.105
-304.837	142.654	-0.089	0.117
-303.822	27.684	0.100	0.084
-302.807	-25.615	0.197	0.116
-301.793	800.000	0.066	-0.231
-300.778	-40.412	-0.279	-0.144
-299.764	800.000	0.048	0.202
-298.749	380.416	0.091	0.186
-297.735	46.319	-0.095	-0.087
-296.720	353.369	-0.210	0.415
-295.705	3.850	0.110	-0.080
-294.691	-92.591	-0.275	-0.077
-293.676	-200.000	0.004	-0.088
-292.662	222.171	-0.234	-0.375
-291.647	-62.531	0.294	-0.121
-290.632	-89.016	0.027	-0.008
-289.618	-172.887	-0.246	0.008
-288.603	-94.557	0.202	-0.055
-287.589	37.914	0.148	-0.130
-286.574	-200.000	-0.002	0.151
-285.559	800.000	-0.032	0.132
-284.545	800.000	0.083	0.277
-283.530	-33.189	0.161	0.089
-282.516	-133.434	0.431	-0.054
-281.501	112.110	-0.181	-0.218
-280.486	-126.125	-0.086	-0.013
-279.472	-200.000	0.303	-0.001
-278.457	8.695	-0.190	-0.142
-277.443	-5.092	-0.226	0.155
-276.428	-125.083	0.171	0.026
-275.413	50.458	-0.085	0.079
-274.399	69.323	-0.132	0.135
-273.384	25.484	0.204	0.168
-272.370	800.000	0.120	0.391
-271.355	800.000	-0.025	0.070
-270.340	-107.363	0.174	-0.038
-269.326	800.000	0.023	0.069
-268.311	-3.619	0.565	-0.390
-267.297	-200.000	0.024	-0.169
-266.282	86.917	0.080	0.088
-265.267	57.484	0.427	-0.414
-264.253	481.101	0.039	0.088
-263.238	-100.720	-0.130	-0.032
-262.224	221.262	-0.179	-0.285
-261.209	-137.573	0.345	-0.039
-260.195	210.791	0.188	0.292
-259.180	800.000	0.051	0.185
-258.165	-200.000	-0.014	0.396
-257.151	32.570	-0.268	-0.230
-256.136	532.872	0.126	0.296
-255.122	800.000	0.068	0.260
-254.107	-62.962	-0.198	0.081
-253.092	800.000	0.038	0.111
-252.078	6.452	0.182	0.134
-251.063	-86.624	-0.144	-0.044
-250.049	311.727	0.171	0.318
-249.034	-114.327	-0.086	-0.016
-248.019	-200.000	0.011	-0.078
-247.005	481.421	-0.045	0.101
-245.990	800.000	0.026	-0.077
-244.976	256.177	-0.102	0.173
-243.961	-200.000	0.038	0.211
-242.946	-200.000	0.004	0.163
-241.932	432.837	-0.035	0.075
-240.917	-200.000	0.018	-0.146
-239.903	-200.000	0.040	-0.207
-238.888	-137.841	-0.341	-0.038
-237.873	359.493	-0.062	0.123
-236.859	344.951	0.047	0.092
-235.844	-200.000	0.032	0.154
-234.830	-73.186	-0.090	-0.033
-233.815	455.594	-0.008	-0.017
-232.800	-85.703	-0.335	0.103
-231.786	-150.332	-0.175	-0.013
-230.771	-200.000	-0.079	0.466
-229.757	319.401	0.088	0.166
-228.742	-200.000	0.070	0.351
-227.727	207.600	0.069	-0.107
-226.713	-81.547	-0.221	-0.072
-225.698	408.310	-0.117	0.244
-224.684	2.278	0.280	0.200
-223.669	-98.113	0.523	0.133
-222.655	-59.754	-0.142	0.060
-221.640	152.578	0.177	-0.240
-220.625	-200.000	0.017	-0.244
-219.611	-39.773	0.091	0.047
-218.596	171.656	-0.056	0.080
-217.582	333.683	-0.068	-0.131
-216.567	800.000	-0.017	-0.060
-215.552	370.806	0.104	-0.210
-214.538	123.463	0.026	0.033
-213.523	-200.000	0.065	-0.346
-212.509	260.318	0.055	0.094
-211.494	-64.917	0.394	0.158
-210.479	274.780	0.131	0.230
-209.465	-200.000	-0.030	0.273
-208.450	88.118	0.156	-0.171
-207.436	349.166	-0.114	-0.223
-206.421	-114.555	-0.185	-0.035
-205.406	-200.000	0.068	0.362
-204.392	-183.146	0.188	0.003
-203.377	-135.055	0.252	0.030
-202.363	-134.600	-0.151	0.018
-201.348	-200.000	-0.014	-0.121
-200.333	232.299	0.133	0.216
-199.319	-200.000	0.072	0.000
-198.304	-91.849	-0.169	-0.048
-197.290	-154.330	0.250	-0.017
-196.275	-200.000	0.051	-0.280
-195.260	-110.887	0.237	0.048
-194.246	-200.000	-0.028	0.124
-193.231	-112.454	0.238	0.047
-192.217	178.640	-0.074	0.106
-191.202	94.491	0.288	-0.324
-190.187	-200.000	-0.067	-0.346
-189.173	587.961	0.036	0.087
-188.158	-72.276	-0.317	-0.116
-187.144	-95.016	-0.338	0.090
-186.129	-200.000	0.014	-0.414
-185.114	119.005	0.161	0.197
-184.100	-200.000	0.028	0.288
-183.085	-200.000	-0.011	-0.061
-182.071	800.000	-0.064	0.189
-181.056	800.000	-0.086	-0.249
-180.042	-200.000	0.017	0.089
-179.027	133.519	-0.088	0.112
-178.012	-200.000	0.009	0.076
-176.998	252.710	0.086	0.145
-175.983	60.457	0.236	0.231
-174.969	-147.469	0.003	0.000
-173.954	800.000	-0.032	0.115
-172.939	259.411	-0.060	0.103
-171.925	-115.847	-0.192	-0.035
-170.910	124.391	-0.214	0.267
-169.896	800.000	0.072	-0.235
-168.881	-200.000	0.016	-0.375
-167.866	800.000	-0.035	-0.104
-166.852	-86.419	0.239	-0.073
-165.837	-95.924	0.136	-0.036
-164.823	-44.411	0.089	-0.044
-163.808	40.740	-0.155	-0.138
-162.793	87.969	0.111	0.122
-161.779	-95.055	0.186	0.050
-160.764	-39.594	-0.309	0.160
-159.750	-57.849	0.103	-0.045
-158.735	-200.000	-0.041	-0.294
-157.720	81.325	0.150	-0.160
-156.706	-100.886	-0.113	-0.027
-155.691	-51.261	-0.086	-0.040
-154.677	-100.057	0.047	0.012
-153.662	-68.498	-0.177	-0.068
-152.647	317.247	-0.103	-0.193
-151.633	800.000	-0.083	0.243
-150.618	800.000	0.056	-0.172
-149.604	177.466	0.070	-0.101
-148.589	56.755	-0.145	-0.140
-147.574	-59.093	-0.402	-0.171
-146.560	30.987	0.358	0.304
-145.545	-168.751	-0.063	-0.002
-144.531	32.076	0.159	-0.136
-143.516	-200.000	0.051	0.348
-142.502	36.207	0.259	0.225
-141.487	437.325	-0.079	0.170
-140.472	-115.230	0.164	-0.031
-139.458	-200.000	0.027	0.382
-138.443	92.614	0.165	0.184
-137.429	63.079	0.150	0.148
-136.414	800.000	-0.044	-0.154
-135.399	379.102	-0.116	0.234
-134.385	-200.000	-0.000	-0.293
-133.370	21.078	-0.124	0.100
-132.356	-81.188	-0.106	0.035
-131.341	614.585	-0.101	0.250
-130.326	16.340	0.256	-0.200
-129.312	129.838	-0.159	0.201
-128.297	-133.258	-0.179	0.022
-127.283	-200.000	0.065	0.348
-126.268	-39.799	-0.314	-0.162
-125.253	-53.770	-0.072	-0.033
-124.239	89.563	0.156	0.171
-123.224	-71.264	-0.148	0.055
-122.210	-22.506	-0.196	-0.117
-121.195	800.000	0.023	0.089
