DTS Sentinel unit serial number:	SN413079Multiplexer serial number:	ORYXHardware model number:	OX4-SRSoftware version number:	ORYX F/W v4.00 Oryx Data Collector v3.7.2.0data status	okinstallation	princeton_trtdifferential loss correction	single-endedforward channel	channel 1reverse channel	N/Adate	2019/09/17time	10:58:35forward acquisition time	60.00reverse acquisition time	0.00gamma	496.2192k internal	0.2323k external	0.2323temperature offset calibration	0.9960default loss term (dB/km)	0.3790temperature slope calibration	1.0000multiplexer offset coefficient	1.0000multiplexer slope coefficient	1.0000fibre end	0.00T internal ref (°C)	30.30T ext. ref 1 (°C)	0.20T ext. ref 2 (°C)	25.87length (m)	temperature (°C)	Stokes	anti-Stokes-747.200	37.439	-0.022	-0.019
-746.185	-174.379	-0.447	-0.013
-745.171	171.573	-0.190	0.275
-744.156	-200.000	-0.030	0.308
-743.142	-200.000	-0.030	0.297
-742.127	253.896	0.176	0.303
-741.112	-128.245	0.055	0.008
-740.098	800.000	-0.148	0.514
-739.083	68.998	0.060	-0.063
-738.069	-200.000	0.025	0.534
-737.054	-132.101	0.218	-0.029
-736.039	185.015	-0.021	-0.031
-735.025	-185.139	0.382	0.006
-734.010	800.000	-0.020	-0.064
-732.996	94.107	0.131	0.150
-731.981	161.055	-0.069	-0.097
-730.966	49.893	-0.164	-0.156
-729.952	-6.367	-0.256	-0.177
-728.937	800.000	-0.106	-0.306
-727.923	465.621	0.067	0.151
-726.908	-189.719	-0.238	-0.003
-725.894	7.451	-0.429	-0.324
-724.879	-105.647	-0.185	-0.042
-723.864	-46.477	0.130	0.065
-722.850	72.265	-0.086	-0.091
-721.835	-111.407	-0.474	-0.097
-720.821	-4.737	0.101	0.070
-719.806	-123.408	-0.084	0.014
-718.791	109.860	-0.145	0.175
-717.777	67.284	-0.264	-0.272
-716.762	-64.997	-0.214	-0.087
-715.748	-13.174	0.070	0.046
-714.733	-155.034	-0.241	0.016
-713.718	340.265	0.048	-0.095
-712.704	35.836	-0.254	-0.225
-711.689	278.347	-0.113	-0.203
-710.675	134.279	0.013	0.017
-709.660	155.887	0.098	-0.136
-708.645	156.679	-0.175	-0.243
-707.631	800.000	-0.094	0.264
-706.616	110.687	0.052	0.064
-705.602	-135.947	-0.203	-0.024
-704.587	800.000	0.005	-0.021
-703.572	-200.000	-0.012	0.104
-702.558	-95.110	0.323	-0.088
-701.543	6.890	-0.201	0.151
-700.529	463.299	-0.090	-0.203
-699.514	480.371	0.074	-0.169
-698.499	336.539	-0.118	-0.231
-697.485	41.866	0.236	-0.215
-696.470	-200.000	-0.025	0.110
-695.456	-200.000	0.013	0.185
-694.441	115.783	-0.157	-0.193
-693.426	-28.888	0.351	-0.203
-692.412	800.000	0.083	-0.244
-691.397	800.000	-0.062	-0.267
-690.383	-200.000	0.009	-0.273
-689.368	34.309	-0.140	-0.123
-688.354	-112.422	0.230	-0.046
-687.339	800.000	-0.052	0.225
-686.324	503.890	-0.060	0.139
-685.310	418.341	-0.090	-0.194
-684.295	-128.616	0.235	-0.033
-683.281	126.304	-0.031	-0.040
-682.266	-200.000	0.042	-0.493
-681.251	508.311	-0.135	-0.315
-680.237	66.242	-0.335	0.343
-679.222	352.539	0.034	0.067
-678.208	-46.105	0.083	0.041
-677.193	-90.821	-0.276	0.080
-676.178	-89.551	0.126	0.037
-675.164	-186.180	-0.300	-0.004
-674.149	-15.548	-0.154	-0.099
-673.135	-58.094	0.187	-0.082
-672.120	-109.575	-0.429	0.091
-671.105	291.620	-0.111	0.204
-670.091	-152.072	0.331	-0.024
-669.076	-200.000	-0.012	-0.271
-668.062	128.982	-0.132	-0.169
-667.047	799.810	-0.054	-0.149
-666.032	75.386	0.181	-0.193
-665.018	-167.484	-0.117	-0.005
-664.003	296.612	0.215	-0.396
-662.989	-14.504	-0.172	-0.111
-661.974	91.647	-0.100	-0.113
-660.959	297.712	-0.047	0.087
-659.945	800.000	-0.087	-0.257
-658.930	-40.290	0.062	0.032
-657.916	-61.602	0.053	0.022
-656.901	-32.559	-0.123	0.069
-655.886	800.000	0.071	0.231
-654.872	-200.000	0.043	-0.232
-653.857	-31.067	0.114	0.064
-652.843	-52.647	0.153	0.071
-651.828	-90.962	0.173	-0.050
-650.814	21.418	0.407	-0.333
-649.799	291.307	0.058	-0.106
-648.784	800.000	-0.058	-0.223
-647.770	800.000	0.050	-0.210
-646.755	-200.000	-0.026	-0.226
-645.741	-200.000	-0.039	-0.368
-644.726	170.234	0.065	0.094
-643.711	-179.793	-0.168	0.004
-642.697	-200.000	-0.004	-0.201
-641.682	-150.738	0.240	0.018
-640.668	-89.244	0.209	-0.062
-639.653	-25.934	-0.232	-0.138
-638.638	-163.091	-0.293	-0.014
-637.624	122.103	-0.108	-0.135
-636.609	-76.610	0.271	-0.096
-635.595	36.353	0.246	-0.218
-634.580	-159.231	0.125	-0.007
-633.565	-9.906	-0.307	-0.205
-632.551	0.230	0.102	-0.073
-631.536	-200.000	-0.060	0.321
-630.522	-138.086	0.265	-0.030
-629.507	800.000	0.045	-0.132
-628.492	-200.000	-0.025	0.212
-627.478	337.511	0.091	0.179
-626.463	800.000	0.103	-0.318
-625.449	800.000	0.066	-0.216
-624.434	115.449	0.054	-0.066
-623.419	-70.651	0.305	-0.116
-622.405	251.620	0.194	0.332
-621.390	60.334	0.048	-0.048
-620.376	-170.755	-0.333	-0.012
-619.361	-200.000	-0.179	-0.001
-618.346	28.161	-0.291	-0.247
-617.332	42.312	-0.235	-0.215
-616.317	622.557	-0.092	-0.233
-615.303	206.858	0.098	0.154
-614.288	-200.000	0.013	0.379
-613.273	-200.000	-0.007	-0.221
-612.259	-45.914	0.094	0.047
-611.244	99.442	-0.055	-0.064
-610.230	-120.513	0.083	-0.014
-609.215	800.000	-0.066	0.184
-608.201	800.000	-0.057	0.220
-607.186	-200.000	0.026	-0.390
-606.171	-126.571	0.187	-0.028
-605.157	-97.932	0.124	-0.032
-604.142	-200.000	-0.015	-0.121
-603.128	247.808	0.219	0.372
-602.113	488.211	0.109	-0.249
-601.098	344.406	0.135	-0.266
-600.084	27.438	0.193	0.163
-599.069	303.130	0.153	-0.284
-598.055	-143.070	0.259	0.025
-597.040	-200.000	0.029	0.213
-596.025	-186.761	-0.235	0.003
-595.011	-96.252	0.378	0.101
-593.996	800.000	-0.037	-0.115
-592.982	-200.000	-0.004	0.019
-591.967	-200.000	-0.043	0.197
-590.952	111.589	0.139	0.168
-589.938	129.902	0.143	0.183
-588.923	137.325	0.152	0.200
-587.909	-64.130	0.233	-0.095
-586.894	-120.643	-0.118	0.020
-585.879	-81.184	0.228	-0.076
-584.865	291.199	-0.191	-0.349
-583.850	90.975	-0.104	0.118
-582.836	800.000	0.036	-0.125
-581.821	-200.000	-0.024	-0.126
-580.806	49.232	-0.228	-0.215
-579.792	4.324	0.198	-0.145
-578.777	-70.762	-0.145	0.055
-577.763	-106.221	-0.121	-0.027
-576.748	518.591	-0.062	0.145
-575.733	-27.013	0.331	0.194
-574.719	232.443	0.072	0.118
-573.704	148.731	-0.218	-0.296
-572.690	-5.851	0.141	-0.097
-571.675	-75.840	-0.148	-0.052
-570.661	800.000	-0.008	0.027
-569.646	-4.735	-0.292	0.202
-568.631	-5.792	0.326	-0.224
-567.617	-72.871	0.092	0.034
-566.602	-1.903	-0.178	0.125
-565.588	800.000	-0.137	-0.452
-564.573	-78.970	-0.099	0.034
-563.558	-169.269	0.150	0.006
-562.544	-71.814	0.311	0.116
-561.529	-131.617	0.225	-0.030
-560.515	-189.688	0.316	0.004
-559.500	-200.000	-0.038	0.270
-558.485	-119.112	-0.122	-0.021
-557.471	-85.594	-0.347	-0.108
-556.456	-200.000	0.015	0.075
-555.442	-3.137	-0.148	-0.103
-554.427	-80.428	0.292	0.098
-553.412	198.251	-0.083	0.127
-552.398	111.996	-0.082	-0.100
-551.383	598.949	-0.146	0.363
-550.369	800.000	-0.017	0.050
-549.354	-200.000	0.002	-0.105
-548.339	-122.688	-0.535	0.087
-547.325	-200.000	0.008	0.348
-546.310	52.137	-0.212	-0.203
-545.296	328.761	-0.024	-0.047
-544.281	-92.491	-0.299	0.084
-543.266	-36.336	0.184	-0.099
-542.252	-167.399	0.131	-0.005
-541.237	-20.261	-0.208	-0.128
-540.223	-200.000	0.001	-0.109
-539.208	-68.963	-0.316	0.122
-538.193	-46.438	0.039	-0.019
-537.179	-43.132	-0.190	-0.096
-536.164	167.042	-0.014	0.020
-535.150	-39.546	0.204	0.107
-534.135	68.744	-0.068	0.070
-533.121	-200.000	-0.009	-0.130
-532.106	-152.664	-0.236	0.017
-531.091	800.000	0.050	0.170
-530.077	-56.538	0.136	0.060
-529.062	-155.105	0.214	0.014
-528.048	367.154	0.151	-0.306
-527.033	379.658	0.070	0.143
-526.018	-110.392	0.049	-0.010
-525.004	800.000	-0.016	-0.066
-523.989	261.475	-0.063	0.109
-522.975	-28.280	0.089	0.051
-521.960	-30.613	-0.285	0.162
-520.945	-68.358	0.098	-0.038
-519.931	-200.000	-0.002	0.333
-518.916	-39.498	-0.308	0.162
-517.902	-179.966	-0.295	-0.006
-516.887	386.935	0.171	-0.355
-515.872	-200.000	0.002	-0.105
-514.858	-163.453	0.236	-0.011
-513.843	130.851	-0.224	-0.288
-512.829	-200.000	-0.031	0.238
-511.814	-98.729	0.201	0.051
-510.799	81.615	-0.213	0.230
-509.785	85.952	-0.058	0.064
-508.770	-39.200	-0.253	0.133
-507.756	-174.708	0.259	0.007
-506.741	-120.812	0.202	-0.034
-505.726	91.371	-0.065	0.073
-504.712	-4.831	0.131	0.090
-503.697	-34.645	-0.095	-0.052
-502.683	-58.306	0.109	0.048
-501.668	-88.683	-0.097	-0.029
-500.653	462.331	0.132	0.294
-499.639	800.000	0.167	0.479
-498.624	-200.000	-0.009	-0.355
-497.610	315.133	-0.162	0.305
-496.595	-200.000	-0.006	-0.096
-495.581	-82.465	-0.197	-0.064
-494.566	4.295	0.065	-0.048
-493.551	-182.057	0.083	-0.002
-492.537	-200.000	-0.004	-0.090
-491.522	-43.261	-0.298	-0.151
-490.508	800.000	-0.019	-0.061
-489.493	299.025	0.106	0.195
-488.478	-39.813	-0.281	0.147
-487.464	121.154	-0.017	0.022
-486.449	-51.536	-0.322	0.150
-485.435	34.807	0.196	-0.171
-484.420	-200.000	-0.024	-0.118
-483.405	37.812	0.098	-0.087
-482.391	91.126	-0.098	-0.110
-481.376	-200.000	0.000	0.157
-480.362	31.909	0.108	-0.093
-479.347	-72.940	-0.448	0.165
-478.332	-158.935	-0.351	0.020
-477.318	-91.887	0.159	0.045
-476.303	800.000	0.042	0.160
-475.289	-200.000	-0.053	0.293
-474.274	304.260	0.091	0.169
-473.259	800.000	-0.063	0.275
-472.245	146.359	-0.128	0.172
-471.230	6.797	0.269	-0.200
-470.216	-136.083	-0.268	0.031
-469.201	725.791	0.083	0.222
-468.186	51.766	0.160	-0.152
-467.172	-72.212	0.060	-0.022
-466.157	-32.807	0.270	-0.150
-465.143	48.811	-0.218	-0.204
-464.128	-97.128	0.156	-0.041
-463.113	228.367	-0.195	-0.318
-462.099	-117.092	0.249	-0.045
-461.084	-200.000	0.002	0.027
-460.070	163.849	0.083	-0.116
-459.055	139.126	0.112	0.148
-458.040	255.017	0.099	-0.169
-457.026	275.872	0.050	0.089
-456.011	-50.017	0.360	0.171
-454.997	-200.000	0.001	0.169
-453.982	-100.490	-0.512	-0.127
-452.968	-27.287	0.125	-0.073
-451.953	-200.000	0.011	-0.161
-450.938	259.121	-0.062	-0.108
-449.924	800.000	-0.044	-0.173
-448.909	304.207	0.013	0.024
-447.895	-119.190	-0.098	0.017
-446.880	-106.364	-0.280	0.062
-445.865	800.000	-0.113	0.397
-444.851	52.674	0.166	0.158
-443.836	55.107	-0.181	-0.175
-442.822	85.151	-0.230	-0.252
-441.807	-100.271	0.111	-0.027
-440.792	717.966	0.048	-0.128
-439.778	-95.532	0.460	-0.123
-438.763	-4.459	0.172	-0.118
-437.749	155.547	-0.349	-0.479
-436.734	336.390	-0.061	0.118
-435.719	-81.521	-0.353	0.116
-434.705	-200.000	-0.015	0.070
-433.690	-58.932	0.178	-0.077
-432.676	-200.000	0.050	-0.484
-431.661	92.121	-0.329	-0.369
-430.646	419.221	0.108	0.230
-429.632	-80.395	0.197	-0.066
-428.617	82.882	-0.310	0.337
-427.603	800.000	-0.049	0.166
-426.588	800.000	-0.077	-0.301
-425.573	24.754	-0.100	0.083
-424.559	-200.000	-0.019	-0.179
-423.544	311.701	0.109	-0.205
-422.530	-200.000	-0.072	-0.477
-421.515	50.795	-0.036	-0.034
-420.500	-22.417	-0.197	0.119
-419.486	-188.745	0.065	0.001
-418.471	256.952	0.176	0.302
-417.457	42.478	-0.251	0.228
-416.442	-47.099	-0.451	0.220
-415.428	110.985	-0.062	0.075
-414.413	-200.000	0.020	0.288
-413.398	-8.852	0.193	-0.129
-412.384	-63.569	0.208	-0.085
-411.369	-165.948	-0.276	0.012
-410.355	87.623	-0.078	0.086
-409.340	-50.472	0.204	0.096
-408.325	-112.051	0.230	0.046
-407.311	-200.000	0.067	-0.417
-406.296	-200.000	-0.007	0.118
-405.282	-30.216	0.147	-0.083
-404.267	-200.000	0.110	0.505
-403.252	800.000	0.026	-0.092
-402.238	-200.000	-0.020	0.122
-401.223	-101.204	-0.376	-0.092
-400.209	-19.694	0.385	0.237
-399.194	-142.235	0.100	-0.010
-398.179	-63.319	-0.120	-0.049
-397.165	49.128	-0.201	0.188
-396.150	112.519	-0.075	-0.090
-395.136	252.094	0.137	-0.232
-394.121	740.174	-0.029	0.078
-393.106	252.812	-0.023	0.039
-392.092	-76.791	-0.112	0.039
-391.077	-26.386	0.221	0.129
-390.063	22.801	-0.316	0.258
-389.048	-11.635	-0.305	0.200
-388.033	-200.000	-0.036	-0.539
-387.019	109.508	-0.071	-0.085
-386.004	284.375	0.040	-0.072
-384.990	-200.000	0.011	-0.064
-383.975	202.248	0.143	0.220
-382.960	-169.768	-0.096	0.003
-381.946	19.221	-0.089	-0.071
-380.931	800.000	-0.025	-0.077
-379.917	-135.187	-0.438	-0.052
-378.902	-43.860	0.099	-0.050
-377.888	135.784	-0.101	-0.130
-376.873	19.330	0.357	0.285
-375.858	-200.000	-0.003	0.573
-374.844	-55.757	0.321	0.143
-373.829	-36.233	-0.401	0.216
-372.815	-132.883	0.053	-0.007
-371.800	-159.040	0.180	0.010
-370.785	800.000	0.048	0.142
-369.771	345.559	-0.113	0.221
-368.756	-200.000	0.011	0.080
-367.742	-200.000	-0.033	0.283
-366.727	-23.687	0.134	-0.080
-365.712	-200.000	-0.040	-0.464
-364.698	-133.446	-0.523	0.065
-363.683	56.276	-0.259	-0.250
-362.669	-200.000	0.008	-0.113
-361.654	800.000	0.109	0.319
-360.639	-140.433	0.314	0.033
-359.625	38.091	-0.216	-0.191
-358.610	-112.880	-0.305	-0.060
-357.596	-200.000	-0.033	-0.289
-356.581	-200.000	0.035	-0.189
-355.566	-65.907	0.075	-0.030
-354.552	-136.599	-0.322	-0.037
-353.537	255.616	0.082	-0.139
-352.523	-200.000	-0.020	0.128
-351.508	-111.270	0.195	-0.040
-350.493	-51.365	-0.208	-0.097
-349.479	383.008	0.124	0.254
-348.464	-200.000	-0.052	0.280
-347.450	395.745	-0.115	-0.239
-346.435	800.000	0.029	0.089
-345.420	137.251	-0.102	0.133
-344.406	101.665	0.129	0.150
-343.391	-25.825	0.210	-0.123
-342.377	367.527	0.223	-0.447
-341.362	-86.920	0.347	-0.105
-340.348	-22.288	0.288	0.173
-339.333	-200.000	-0.034	-0.341
-338.318	-200.000	0.081	-0.510
-337.304	-0.543	0.158	-0.112
-336.289	800.000	0.067	-0.250
-335.275	800.000	0.041	-0.150
-334.260	379.448	-0.014	0.028
-333.245	-64.116	0.065	0.026
-332.231	-200.000	-0.026	-0.120
-331.216	-139.432	0.380	-0.040
-330.202	1.557	-0.111	0.080
-329.187	-200.000	-0.031	-0.177
-328.172	-87.654	-0.209	0.063
-327.158	-88.564	0.234	-0.069
-326.143	-200.000	0.020	0.287
-325.129	-200.000	-0.029	0.159
-324.114	-33.861	-0.113	0.062
-323.099	800.000	-0.103	0.323
-322.085	800.000	0.054	-0.224
-321.070	482.658	0.028	-0.062
-320.056	-95.859	-0.208	-0.055
-319.041	274.307	0.142	0.250
-318.026	255.699	0.133	0.226
-317.012	189.340	-0.159	0.237
-315.997	69.567	0.294	0.301
-314.983	369.689	0.095	-0.191
-313.968	800.000	-0.066	-0.279
-312.953	-28.359	-0.136	0.078
-311.939	321.072	-0.096	0.181
-310.924	-100.462	-0.219	0.054
-309.910	800.000	0.025	-0.080
-308.895	313.053	0.184	0.343
-307.880	416.154	-0.106	0.225
-306.866	16.708	-0.019	0.015
-305.851	26.056	-0.173	-0.143
-304.837	-200.000	-0.023	-0.363
-303.822	306.269	-0.067	0.123
-302.807	-57.958	-0.140	0.061
-301.793	702.343	0.022	-0.058
-300.778	10.860	0.190	-0.144
-299.764	-90.755	0.157	0.045
-298.749	160.372	-0.094	0.130
-297.735	60.660	-0.325	-0.320
-296.720	-53.448	-0.235	0.107
-295.705	800.000	0.060	0.227
-294.691	672.754	-0.035	-0.090
-293.676	591.845	-0.123	0.301
-292.662	-200.000	-0.005	-0.149
-291.647	67.011	-0.091	-0.092
-290.632	-26.241	-0.035	-0.021
-289.618	84.063	0.233	0.253
-288.603	-16.576	-0.155	-0.097
-287.589	-13.665	0.210	-0.135
-286.574	26.968	0.418	0.348
-285.559	-200.000	0.011	0.059
-284.545	-114.280	-0.133	0.025
-283.530	351.720	-0.089	-0.174
-282.516	800.000	-0.098	-0.327
-281.501	-200.000	-0.025	-0.222
-280.486	-133.443	0.283	-0.035
-279.472	-68.516	0.045	-0.017
-278.457	-200.000	0.017	-0.440
-277.443	-115.120	-0.192	0.036
-276.428	734.667	0.131	0.347
-275.413	262.541	0.124	0.213
-274.399	800.000	0.096	0.406
-273.384	114.546	-0.234	0.283
-272.370	-200.000	0.013	0.169
-271.355	-46.425	-0.190	-0.092
-270.340	5.464	0.211	-0.155
-269.326	-54.157	0.091	-0.041
-268.311	201.217	0.069	0.106
-267.297	-109.989	0.009	-0.002
-266.282	-116.564	-0.241	-0.044
-265.267	-51.133	0.394	-0.183
-264.253	192.583	-0.084	-0.126
-263.238	-100.235	-0.206	0.051
-262.224	-200.000	0.001	0.251
-261.209	800.000	0.047	0.179
-260.195	-32.621	-0.121	-0.067
-259.180	-89.812	0.364	-0.106
-258.165	282.914	0.091	0.161
-257.151	-50.808	-0.175	0.082
-256.136	-125.226	0.134	0.020
-255.122	12.169	-0.243	0.185
-254.107	800.000	-0.092	0.330
-253.092	-82.933	-0.130	-0.042
-252.078	83.227	0.102	-0.111
-251.063	-101.848	0.456	0.109
-250.049	-139.848	-0.315	0.033
-249.034	-103.835	-0.093	-0.022
-248.019	-200.000	-0.006	0.070
-247.005	85.644	0.264	0.287
-245.990	-176.900	0.228	0.006
-244.976	62.411	-0.207	-0.205
-243.961	-186.145	0.169	-0.002
-242.946	-92.685	0.300	0.083
-241.932	343.918	0.114	0.222
-240.917	-200.000	-0.002	0.118
-239.903	705.114	0.090	-0.235
-238.888	-124.311	-0.132	-0.020
-237.873	-119.516	0.253	0.043
-236.859	-94.851	-0.122	0.033
-235.844	322.298	0.041	0.078
-234.830	31.622	0.277	0.236
-233.815	-122.536	0.052	-0.008
-232.800	158.955	-0.138	-0.190
-231.786	148.308	0.179	0.239
-230.771	107.669	0.192	-0.226
-229.757	-19.852	-0.190	-0.116
-228.742	-0.741	0.316	-0.222
-227.727	67.958	-0.273	0.276
-226.713	60.386	0.082	-0.080
-225.698	-76.654	-0.194	-0.067
-224.684	37.634	0.098	0.086
-223.669	-92.258	0.074	0.021
-222.655	-10.357	0.244	0.160
-221.640	-200.000	-0.008	0.147
-220.625	800.000	0.119	0.415
-219.611	-200.000	-0.006	0.299
-218.596	33.437	0.091	-0.078
-217.582	25.962	0.216	-0.178
-216.567	800.000	0.028	-0.082
-215.552	-200.000	-0.015	0.129
-214.538	56.796	-0.252	-0.243
-213.523	172.727	-0.220	-0.314
-212.509	-1.046	-0.233	0.163
-211.494	-200.000	-0.385	0.001
-210.479	-163.970	-0.196	-0.009
-209.465	49.839	0.344	-0.321
-208.450	91.825	-0.077	-0.086
-207.436	532.395	0.068	-0.159
-206.421	-70.769	-0.135	0.051
-205.406	-200.000	-0.016	-0.386
-204.392	621.334	-0.020	0.049
-203.377	422.379	-0.033	0.070
-202.363	-119.166	0.066	-0.011
-201.348	84.871	-0.130	0.140
-200.333	37.300	-0.128	0.112
-199.319	-15.852	0.271	0.171
-198.304	38.269	-0.117	-0.103
-197.290	46.253	-0.036	0.033
-196.275	56.563	0.091	0.088
-195.260	800.000	0.047	0.144
-194.246	-200.000	-0.042	0.330
-193.231	233.827	0.043	-0.069
-192.217	800.000	0.032	-0.125
-191.202	647.330	0.016	-0.041
-190.187	-81.695	-0.191	-0.062
-189.173	800.000	0.067	0.228
-188.158	-200.000	-0.016	-0.176
-187.144	34.316	0.271	-0.234
-186.129	344.663	-0.038	0.074
-185.114	478.340	-0.035	-0.079
-184.100	-11.239	-0.202	0.131
-183.085	-27.227	0.209	-0.120
-182.071	-0.087	-0.132	0.093
-181.056	-116.587	-0.289	0.053
-180.042	-51.991	-0.164	-0.075
-179.027	800.000	-0.117	-0.321
-178.012	628.379	0.062	0.156
-176.998	49.544	-0.204	-0.189
-175.983	-41.334	-0.212	-0.108
-174.969	-200.000	-0.008	0.257
-173.954	146.168	0.116	-0.153
-172.939	4.558	0.063	0.046
-171.925	-68.394	-0.140	0.054
-170.910	37.120	0.245	0.214
-169.896	-200.000	-0.012	0.076
-168.881	680.692	-0.086	-0.222
-167.866	116.698	0.138	0.168
-166.852	233.015	0.026	0.042
-165.837	-122.488	0.240	-0.039
-164.823	-200.000	-0.055	-0.377
-163.808	9.255	0.075	-0.056
-162.793	-200.000	0.005	-0.256
-161.779	378.354	0.112	-0.226
-160.764	13.858	0.051	-0.039
-159.750	-19.369	0.181	0.111
-158.735	-28.364	0.066	0.037
-157.720	-61.161	0.214	-0.089
-156.706	-200.000	-0.028	-0.372
-155.691	-30.631	0.070	0.039
-154.677	-200.000	0.044	0.205
-153.662	800.000	-0.045	0.158
-152.647	-136.263	0.169	0.020
-151.633	247.216	-0.167	0.277
-150.618	714.036	0.023	-0.060
-149.604	324.999	-0.149	-0.280
-148.589	-54.837	0.239	-0.106
-147.574	-200.000	0.006	0.071
-146.560	-119.262	-0.128	0.022
-145.545	233.239	0.049	-0.080
-144.531	800.000	-0.015	-0.051
-143.516	-200.000	0.026	-0.172
-142.502	-182.557	0.111	0.002
-141.487	800.000	0.090	0.307
-140.472	-15.205	-0.112	-0.070
-139.458	-200.000	0.064	0.324
-138.443	6.767	-0.091	0.067
-137.429	-200.000	-0.047	0.234
-136.414	-117.210	0.097	-0.017
-135.399	138.239	-0.110	-0.142
-134.385	-200.000	-0.014	-0.200
-133.370	336.752	-0.046	-0.088
-132.356	-193.664	0.292	-0.002
-131.341	-68.163	-0.238	0.091
-130.326	-200.000	0.044	-0.203
-129.312	800.000	-0.076	0.218
-128.297	230.023	0.149	0.240
-127.283	23.210	0.109	-0.089
-126.268	-20.553	-0.216	-0.131
-125.253	-47.401	-0.186	0.089
-124.239	-83.625	0.129	-0.041
-123.224	551.190	-0.014	0.033
-122.210	48.849	-0.058	-0.053
