DTS Sentinel unit serial number:	SN413079Multiplexer serial number:	ORYXHardware model number:	OX4-SRSoftware version number:	ORYX F/W v4.00 Oryx Data Collector v3.7.2.0data status	okinstallation	princeton_trtdifferential loss correction	single-endedforward channel	channel 1reverse channel	N/Adate	2019/09/19time	04:06:35forward acquisition time	60.00reverse acquisition time	0.00gamma	496.2192k internal	0.2343k external	0.2343temperature offset calibration	1.0013default loss term (dB/km)	0.3790temperature slope calibration	1.0000multiplexer offset coefficient	1.0000multiplexer slope coefficient	1.0000fibre end	0.00T internal ref (°C)	20.39T ext. ref 1 (°C)	0.63T ext. ref 2 (°C)	13.94length (m)	temperature (°C)	Stokes	anti-Stokes-747.200	-154.696	-0.172	-0.011
-746.185	227.024	-0.044	-0.071
-745.171	-118.507	-0.295	-0.052
-744.156	12.018	0.224	-0.173
-743.142	800.000	0.088	0.349
-742.127	346.705	-0.149	0.294
-741.112	72.792	-0.087	0.091
-740.098	800.000	-0.100	0.318
-739.083	-92.452	-0.118	0.033
-738.069	-80.027	-0.451	0.152
-737.054	-62.285	-0.214	0.089
-736.039	-30.147	0.226	-0.128
-735.025	554.835	0.065	-0.157
-734.010	15.568	-0.104	-0.082
-732.996	-84.102	-0.155	-0.049
-731.981	16.662	-0.293	0.232
-730.966	166.463	0.125	-0.178
-729.952	-113.023	-0.462	-0.091
-728.937	49.390	0.140	0.131
-727.923	-16.241	-0.305	-0.194
-726.908	800.000	-0.150	-0.415
-725.894	151.396	-0.358	-0.488
-724.879	-200.000	0.037	0.246
-723.864	2.660	-0.447	-0.324
-722.850	35.764	0.449	0.395
-721.835	207.684	-0.199	-0.311
-720.821	79.128	-0.320	-0.343
-719.806	391.390	-0.132	-0.273
-718.791	-155.824	-0.194	-0.012
-717.777	-119.468	0.424	0.074
-716.762	-178.349	-0.128	-0.003
-715.748	619.076	0.062	-0.156
-714.733	-37.281	0.098	-0.052
-713.718	551.544	0.114	-0.274
-712.704	231.134	-0.117	0.192
-711.689	495.185	0.151	-0.346
-710.675	-142.206	-0.052	0.005
-709.660	-200.000	0.004	-0.117
-708.645	-89.720	-0.401	0.117
-707.631	-138.747	-0.461	0.050
-706.616	-52.623	0.131	-0.060
-705.602	-151.550	0.143	0.011
-704.587	70.949	-0.167	0.173
-703.572	0.076	-0.085	0.061
-702.558	76.156	-0.093	0.098
-701.543	249.250	0.135	-0.229
-700.529	166.413	0.213	-0.301
-699.514	393.813	-0.083	-0.173
-698.499	-135.333	-0.107	0.013
-697.485	237.859	0.081	-0.134
-696.470	272.767	-0.079	-0.139
-695.456	18.840	-0.296	0.237
-694.441	-92.233	0.399	0.112
-693.426	800.000	0.061	-0.253
-692.412	457.658	-0.110	0.245
-691.397	-43.455	-0.255	0.128
-690.383	-91.031	0.507	0.146
-689.368	-182.538	0.306	-0.006
-688.354	417.873	0.101	-0.215
-687.339	24.737	-0.417	0.345
-686.324	-117.160	0.206	-0.037
-685.310	460.384	-0.056	-0.126
-684.295	229.795	0.110	-0.180
-683.281	-68.403	0.070	-0.027
-682.266	591.491	-0.059	-0.147
-681.251	82.489	0.143	-0.156
-680.237	241.049	-0.151	0.252
-679.222	96.224	-0.216	-0.247
-678.208	800.000	0.046	-0.136
-677.193	632.530	-0.102	0.258
-676.178	-68.069	-0.044	-0.017
-675.164	488.854	-0.245	0.559
-674.149	-95.692	-0.152	0.041
-673.135	-200.000	0.001	0.098
-672.120	20.970	0.190	-0.154
-671.105	-161.483	-0.351	-0.018
-670.091	-200.000	-0.022	0.169
-669.076	272.137	-0.094	-0.166
-668.062	-51.158	-0.127	-0.060
-667.047	-133.592	0.158	-0.020
-666.032	-55.548	-0.197	0.088
-665.018	206.571	-0.178	-0.277
-664.003	800.000	-0.080	0.278
-662.989	-119.212	-0.125	0.022
-661.974	11.056	-0.124	-0.094
-660.959	-76.857	0.232	-0.081
-659.945	61.369	-0.137	-0.136
-658.930	80.601	0.111	-0.120
-657.916	62.700	0.111	-0.111
-656.901	-174.261	-0.299	0.009
-655.886	446.507	0.066	0.145
-654.872	134.018	-0.120	0.156
-653.857	800.000	-0.055	-0.211
-652.843	128.942	0.078	0.099
-651.828	778.723	0.036	0.097
-650.814	800.000	-0.078	0.257
-649.799	41.779	-0.328	-0.297
-648.784	253.819	-0.217	-0.369
-647.770	20.747	0.215	-0.173
-646.755	441.474	0.075	-0.164
-645.741	-151.598	0.251	0.019
-644.726	-64.690	-0.132	0.054
-643.711	8.376	0.212	0.159
-642.697	-71.200	-0.365	-0.137
-641.682	329.289	-0.164	-0.314
-640.668	-118.055	-0.208	-0.037
-639.653	800.000	-0.041	0.137
-638.638	-200.000	-0.030	0.163
-637.624	-200.000	-0.029	0.171
-636.609	-86.261	0.245	-0.075
-635.595	800.000	-0.041	0.133
-634.580	111.118	0.211	0.254
-633.565	-110.277	-0.120	-0.025
-632.551	-127.766	0.406	0.058
-631.536	-35.823	-0.034	-0.018
-630.522	43.441	-0.238	-0.217
-629.507	85.080	0.094	0.103
-628.492	-200.000	0.021	0.322
-627.478	-200.000	0.012	-0.058
-626.463	-200.000	-0.031	0.272
-625.449	800.000	-0.065	-0.220
-624.434	-60.241	-0.086	0.037
-623.419	-59.266	0.081	-0.035
-622.405	-106.355	0.286	-0.064
-621.390	341.456	0.180	-0.350
-620.376	76.824	0.210	-0.222
-619.361	-106.388	0.072	-0.016
-618.346	-155.992	0.407	0.026
-617.332	-20.731	-0.117	0.071
-616.317	800.000	-0.073	0.247
-615.303	-111.341	0.216	-0.044
-614.288	89.266	-0.120	0.134
-613.273	-28.734	0.253	-0.145
-612.259	-117.459	-0.309	-0.056
-611.244	47.652	0.200	0.186
-610.230	293.716	-0.225	-0.409
-609.215	126.440	-0.197	0.248
-608.201	-53.570	-0.231	-0.105
-607.186	-81.715	-0.112	0.037
-606.171	-56.996	-0.360	-0.158
-605.157	-174.523	0.110	-0.003
-604.142	129.958	-0.203	-0.258
-603.128	-14.106	-0.146	-0.094
-602.113	-137.200	0.388	-0.044
-601.098	-66.244	-0.332	-0.132
-600.084	513.368	-0.166	-0.385
-599.069	-136.297	-0.160	0.019
-598.055	23.793	0.038	-0.031
-597.040	53.239	-0.368	-0.351
-596.025	-200.000	-0.042	0.295
-595.011	-200.000	0.014	-0.155
-593.996	440.690	-0.057	0.123
-592.982	800.000	0.017	-0.069
-591.967	-60.951	-0.183	-0.077
-590.952	-200.000	0.002	-0.031
-589.938	-121.608	0.057	-0.009
-588.923	-5.758	0.140	0.096
-587.909	52.487	0.128	0.121
-586.894	800.000	-0.044	0.126
-585.879	-50.943	-0.371	-0.173
-584.865	-131.413	-0.187	0.025
-583.850	-200.000	-0.003	0.078
-582.836	112.168	-0.101	0.122
-581.821	-16.471	-0.323	-0.204
-580.806	-57.738	-0.219	-0.095
-579.792	-106.065	0.092	-0.021
-578.777	101.670	0.193	0.224
-577.763	-68.909	-0.125	0.048
-576.748	-29.531	-0.157	0.089
-575.733	-200.000	-0.050	0.220
-574.719	-180.788	0.145	0.003
-573.704	57.169	-0.134	0.130
-572.690	-56.726	-0.166	0.073
-571.675	-24.500	0.203	-0.120
-570.661	-200.000	0.063	0.295
-569.646	243.056	0.082	-0.137
-568.631	-104.233	0.307	-0.071
-567.617	17.801	0.161	0.127
-566.602	-97.796	-0.183	-0.047
-565.588	-200.000	-0.044	-0.281
-564.573	-200.000	-0.023	-0.163
-563.558	92.184	0.106	0.119
-562.544	-100.215	0.178	0.044
-561.529	327.904	-0.097	-0.186
-560.515	4.399	0.351	-0.256
-559.500	-200.000	-0.056	-0.393
-558.485	-11.483	-0.145	0.095
-557.471	-52.714	-0.132	-0.061
-556.456	203.363	0.076	0.117
-555.442	468.468	0.071	-0.159
-554.427	57.981	-0.056	-0.055
-553.412	-200.000	-0.064	0.294
-552.398	-168.711	0.163	-0.006
-551.383	26.593	-0.067	0.056
-550.369	85.576	-0.219	-0.239
-549.354	122.136	0.162	0.201
-548.339	15.023	-0.051	-0.040
-547.325	110.347	0.195	-0.233
-546.310	-43.129	-0.444	-0.223
-545.296	-194.108	0.205	0.002
-544.281	346.376	0.253	0.494
-543.266	-189.748	-0.363	-0.004
-542.252	22.294	-0.103	0.084
-541.237	800.000	-0.114	0.427
-540.223	-27.100	-0.217	0.126
-539.208	-200.000	-0.018	-0.284
-538.193	800.000	0.041	-0.157
-537.179	5.610	0.232	0.170
-536.164	311.776	-0.105	-0.195
-535.150	-75.166	-0.133	-0.047
-534.135	-125.677	0.262	-0.039
-533.121	800.000	0.058	0.242
-532.106	526.057	0.120	0.281
-531.091	5.288	0.256	0.187
-530.077	-108.180	-0.282	0.061
-529.062	480.695	-0.159	0.358
-528.048	-124.595	-0.226	-0.035
-527.033	-200.000	-0.034	0.176
-526.018	-8.373	-0.161	0.108
-525.004	-143.887	-0.200	0.019
-523.989	-200.000	0.016	0.215
-522.975	92.364	-0.075	0.084
-521.960	50.711	0.197	0.185
-520.945	-22.290	-0.213	0.128
-519.931	-77.785	0.187	0.064
-518.916	-7.742	-0.178	-0.120
-517.902	269.612	0.105	-0.184
-516.887	-200.000	-0.022	-0.267
-515.872	40.474	-0.089	0.079
-514.858	60.294	-0.109	-0.107
-513.843	28.222	0.300	0.251
-512.829	-14.826	0.274	0.174
-511.814	-150.524	0.129	0.010
-510.799	-64.838	-0.085	0.034
-509.785	-200.000	-0.040	0.403
-508.770	-117.332	-0.306	0.055
-507.756	800.000	0.053	0.155
-506.741	51.064	-0.107	0.101
-505.726	11.768	0.390	0.297
-504.712	-39.338	0.337	-0.175
-503.697	423.025	-0.089	-0.189
-502.683	-165.097	-0.055	0.002
-501.668	-200.000	-0.068	0.321
-500.653	36.986	-0.066	-0.058
-499.639	-200.000	0.049	-0.298
-498.624	-23.255	-0.110	0.066
-497.610	221.398	-0.062	-0.098
-496.595	-200.000	-0.006	0.123
-495.581	-200.000	0.020	-0.370
-494.566	800.000	0.064	0.208
-493.551	-200.000	0.012	0.070
-492.537	-104.209	0.172	0.040
-491.522	484.380	0.082	0.186
-490.508	-200.000	0.069	-0.304
-489.493	-200.000	-0.025	0.154
-488.478	13.631	0.433	-0.333
-487.464	-71.275	0.163	-0.061
-486.449	-42.513	0.121	0.061
-485.435	800.000	0.095	0.313
-484.420	-120.499	-0.080	-0.013
-483.405	-73.719	0.324	-0.117
-482.391	92.836	0.197	0.220
-481.376	-0.595	-0.239	0.168
-480.362	156.391	-0.117	0.160
-479.347	-22.851	0.347	0.208
-478.332	489.224	0.043	-0.097
-477.318	200.196	-0.119	0.182
-476.303	-58.778	-0.162	0.070
-475.289	-200.000	0.358	0.001
-474.274	800.000	0.060	-0.181
-473.259	-110.591	-0.161	-0.033
-472.245	-200.000	0.055	-0.382
-471.230	-130.123	-0.356	-0.048
-470.216	-60.455	0.225	0.095
-469.201	800.000	-0.033	-0.141
-468.186	-2.630	-0.062	-0.043
-467.172	-91.632	0.045	0.013
-466.157	324.454	-0.161	-0.305
-465.143	800.000	-0.110	-0.419
-464.128	180.674	-0.080	-0.117
-463.113	-72.623	0.242	0.088
-462.099	-72.088	-0.415	-0.153
-461.084	-81.640	-0.085	0.028
-460.070	415.130	-0.137	-0.289
-459.055	-27.459	-0.261	-0.150
-458.040	800.000	0.053	-0.155
-457.026	248.259	-0.092	-0.154
-456.011	-60.464	0.110	0.046
-454.997	-121.194	0.301	-0.050
-453.982	67.160	0.120	-0.122
-452.968	-97.154	-0.206	-0.053
-451.953	25.613	-0.038	0.031
-450.938	-46.543	-0.097	0.047
-449.924	-1.490	0.161	0.113
-448.909	800.000	0.021	0.072
-447.895	158.663	-0.054	0.074
-446.880	28.317	0.269	0.225
-445.865	-85.421	0.277	0.086
-444.851	800.000	0.085	0.254
-443.836	134.452	-0.132	-0.170
-442.822	-71.034	-0.155	-0.058
-441.807	-200.000	0.032	0.296
-440.792	41.751	0.170	0.152
-439.778	800.000	-0.024	0.100
-438.763	-200.000	-0.129	0.000
-437.749	102.347	-0.042	-0.049
-436.734	-10.772	-0.210	-0.138
-435.719	-20.091	0.229	-0.140
-434.705	-200.000	-0.012	-0.168
-433.690	-156.947	0.265	0.016
-432.676	361.223	0.062	-0.122
-431.661	800.000	-0.027	-0.086
-430.646	125.693	0.071	-0.089
-429.632	67.665	-0.255	0.258
-428.617	-200.000	-0.003	0.157
-427.603	269.357	0.077	0.134
-426.588	-200.000	0.053	0.386
-425.573	-170.604	0.218	0.007
-424.559	244.262	-0.096	0.160
-423.544	312.654	-0.076	0.141
-422.530	45.489	-0.136	0.124
-421.515	-200.000	0.030	-0.165
-420.500	30.716	0.108	-0.091
-419.486	-125.319	0.312	-0.047
-418.471	-200.000	-0.008	0.225
-417.457	5.552	-0.267	-0.195
-416.442	-44.821	-0.095	-0.047
-415.428	462.152	0.049	0.108
-414.413	800.000	0.047	0.165
-413.398	368.744	-0.190	0.379
-412.384	110.450	0.152	-0.181
-411.369	-54.534	-0.258	0.116
-410.355	534.148	0.026	0.060
-409.340	-145.304	0.084	0.007
-408.325	-167.842	0.266	0.010
-407.311	275.100	-0.067	-0.117
-406.296	-71.524	-0.172	-0.064
-405.282	70.752	0.073	0.074
-404.267	-144.725	0.208	-0.019
-403.252	30.607	0.221	-0.187
-402.238	-61.492	0.101	0.042
-401.223	-200.000	-0.271	-0.000
-400.209	-127.003	-0.203	-0.029
-399.194	299.435	0.042	0.076
-398.179	-47.050	-0.304	0.147
-397.165	-25.140	-0.228	-0.134
-396.150	-200.000	0.017	-0.267
-395.136	-24.778	-0.136	-0.080
-394.121	447.735	-0.127	-0.277
-393.106	-88.228	0.416	-0.123
-392.092	-169.258	-0.420	-0.015
-391.077	72.180	-0.072	-0.074
-390.063	-200.000	0.020	-0.120
-389.048	389.302	-0.117	0.240
-388.033	800.000	0.031	0.136
-387.019	-68.767	-0.178	-0.068
-386.004	-200.000	-0.035	-0.310
-384.990	800.000	0.048	-0.194
-383.975	800.000	0.044	-0.167
-382.960	5.592	-0.200	0.146
-381.946	465.087	0.071	-0.157
-380.931	-36.617	0.097	0.052
-379.917	125.268	0.031	0.039
-378.902	800.000	0.063	0.216
-377.888	-200.000	0.036	-0.308
-376.873	-103.138	0.118	-0.028
-375.858	-78.922	0.106	-0.036
-374.844	232.344	0.212	0.344
-373.829	-200.000	0.017	0.425
-372.815	128.686	0.172	0.217
-371.800	-15.379	0.182	-0.115
-370.785	-200.000	0.022	0.157
-369.771	726.429	-0.128	-0.337
-368.756	800.000	-0.107	-0.294
-367.742	81.745	-0.077	0.083
-366.727	-78.392	0.150	-0.051
-365.712	-200.000	0.046	-0.265
-364.698	800.000	-0.074	0.315
-363.683	-152.518	0.028	-0.002
-362.669	116.165	0.287	0.347
-361.654	-200.000	0.028	0.126
-360.639	-92.141	0.222	-0.062
-359.625	123.360	-0.195	0.242
-358.610	-200.000	-0.030	-0.230
-357.596	-32.808	-0.262	0.143
-356.581	-163.211	0.115	-0.005
-355.566	800.000	-0.058	0.224
-354.552	-21.761	0.201	0.121
-353.537	149.376	-0.274	-0.367
-352.523	-200.000	0.041	0.189
-351.508	280.103	-0.104	-0.183
-350.493	-71.554	0.081	0.030
-349.479	-200.000	0.021	0.329
-348.464	-128.353	0.119	-0.017
-347.450	-66.177	0.447	-0.176
-346.435	800.000	0.036	-0.121
-345.420	752.271	-0.052	-0.138
-344.406	-184.546	0.193	-0.003
-343.391	-160.106	0.299	0.016
-342.377	-3.446	-0.155	0.106
-341.362	90.881	0.242	-0.268
-340.348	-109.645	0.238	0.049
-339.333	82.206	-0.266	0.284
-338.318	-200.000	0.046	-0.290
-337.304	-200.000	-0.031	0.188
-336.289	-200.000	0.057	0.284
-335.275	148.939	-0.082	0.109
-334.260	248.060	0.156	-0.260
-333.245	23.217	-0.155	0.125
-332.231	-128.677	-0.104	0.014
-331.216	62.723	-0.169	0.166
-330.202	117.175	-0.083	0.101
-329.187	-200.000	-0.106	0.533
-328.172	471.647	-0.267	0.591
-327.158	224.108	-0.002	0.003
-326.143	369.799	0.167	-0.334
-325.129	18.432	0.178	-0.140
-324.114	769.761	-0.065	-0.174
-323.099	-52.839	-0.357	0.162
-322.085	800.000	0.189	0.524
-321.070	-200.000	0.023	-0.227
-320.056	800.000	-0.060	0.221
-319.041	80.527	-0.432	0.458
-318.026	307.294	0.088	-0.161
-317.012	81.643	0.218	-0.233
-315.997	259.120	0.080	0.135
-314.983	-200.000	-0.072	0.348
-313.968	-123.331	0.066	0.010
-312.953	-54.263	0.287	-0.128
-311.939	-200.000	0.034	-0.179
-310.924	419.752	-0.102	-0.216
-309.910	-200.000	-0.068	-0.353
-308.895	-59.751	0.190	0.080
-307.880	343.411	-0.195	-0.376
-306.866	-200.000	0.007	0.031
-305.851	-77.533	0.087	-0.030
-304.837	111.376	0.049	0.059
-303.822	-200.000	-0.018	-0.306
-302.807	74.731	-0.074	-0.077
-301.793	-10.548	-0.196	0.128
-300.778	-200.000	0.002	0.322
-299.764	371.139	-0.049	-0.098
-298.749	84.613	0.093	-0.100
-297.735	-39.178	0.114	-0.059
-296.720	-19.387	0.085	0.052
-295.705	-200.000	-0.008	0.108
-294.691	-88.483	0.266	-0.078
-293.676	231.366	-0.240	-0.386
-292.662	279.992	-0.056	0.098
-291.647	-13.738	-0.567	0.361
-290.632	-35.641	-0.049	-0.026
-289.618	-57.054	0.097	0.042
-288.603	1.085	-0.382	-0.269
-287.589	204.087	-0.039	-0.060
-286.574	-169.473	-0.088	-0.003
-285.559	730.848	0.094	-0.248
-284.545	-98.081	0.313	-0.079
-283.530	800.000	0.097	-0.278
-282.516	67.476	-0.105	-0.105
-281.501	484.069	-0.042	-0.093
-280.486	140.095	-0.025	-0.033
-279.472	-121.860	0.265	0.043
-278.457	119.669	-0.067	-0.081
-277.443	168.766	0.070	-0.098
-276.428	800.000	-0.074	-0.262
-275.413	76.805	0.206	0.214
-274.399	-135.074	0.244	0.029
-273.384	331.202	0.037	-0.071
-272.370	-65.855	-0.095	-0.037
-271.355	129.631	-0.047	0.059
-270.340	-142.603	-0.307	0.030
-269.326	800.000	-0.070	0.218
-268.311	-200.000	-0.009	0.071
-267.297	38.154	0.091	0.080
-266.282	-69.334	-0.274	0.103
-265.267	204.878	0.060	-0.091
-264.253	130.218	0.030	0.038
-263.238	3.111	-0.271	0.194
-262.224	171.709	-0.161	-0.227
-261.209	-111.088	0.027	0.006
-260.195	-29.910	-0.235	-0.131
-259.180	-86.061	0.020	0.006
-258.165	-200.000	0.037	0.327
-257.151	-47.941	0.032	0.015
-256.136	389.227	-0.044	-0.090
-255.122	364.906	0.079	0.157
-254.107	-40.990	0.295	0.150
-253.092	153.980	-0.019	-0.026
-252.078	-78.297	0.189	-0.064
-251.063	-117.388	0.185	0.033
-250.049	-153.261	0.221	-0.015
-249.034	40.972	0.076	0.067
-248.019	800.000	-0.056	-0.196
-247.005	149.610	0.062	0.082
-245.990	225.130	-0.232	0.369
-244.976	402.234	-0.112	0.232
-243.961	118.385	-0.220	0.267
-242.946	14.021	-0.099	0.075
-241.932	-40.487	0.133	-0.068
-240.917	10.711	-0.273	0.204
-239.903	-10.502	0.076	0.049
-238.888	245.661	0.052	-0.085
-237.873	-103.484	-0.031	0.007
-236.859	800.000	-0.110	-0.432
-235.844	137.903	-0.022	0.028
-234.830	291.139	-0.105	-0.188
-233.815	800.000	0.104	-0.302
-232.800	40.065	0.159	-0.140
-231.786	-142.981	0.212	0.020
-230.771	78.840	-0.178	0.187
-229.757	-49.035	-0.233	0.110
-228.742	-82.776	0.427	0.136
-227.727	-178.043	-0.266	0.006
-226.713	-200.000	-0.061	0.332
-225.698	-62.172	0.140	0.057
-224.684	4.824	0.279	-0.202
-223.669	444.907	0.114	0.246
-222.655	57.540	0.208	0.200
-221.640	-54.184	-0.284	-0.127
-220.625	-43.193	0.062	-0.031
-219.611	-41.255	0.252	0.128
-218.596	-200.000	0.011	0.167
-217.582	-124.115	0.026	-0.004
-216.567	-8.672	0.095	-0.063
-215.552	800.000	0.094	0.278
-214.538	-26.438	-0.270	0.156
-213.523	-161.195	0.255	0.013
-212.509	-1.505	0.113	-0.078
-211.494	-200.000	-0.008	-0.105
-210.479	-115.643	-0.103	0.019
-209.465	33.116	-0.042	-0.036
-208.450	152.859	0.181	0.243
-207.436	472.831	0.091	-0.200
-206.421	800.000	-0.021	0.060
-205.406	800.000	-0.120	-0.417
-204.392	20.347	0.220	0.174
-203.377	-200.000	0.039	-0.230
-202.363	14.605	-0.133	-0.102
-201.348	96.564	-0.176	0.198
-200.333	88.957	-0.036	0.040
-199.319	46.435	-0.122	0.111
-198.304	335.947	-0.078	-0.147
-197.290	-21.930	0.036	-0.022
-196.275	800.000	-0.096	0.291
-195.260	297.749	-0.149	-0.269
-194.246	168.890	0.202	-0.282
-193.231	-68.415	-0.094	-0.036
-192.217	164.093	0.176	0.243
-191.202	212.825	-0.056	-0.087
-190.187	296.896	-0.141	-0.254
-189.173	-88.430	-0.251	-0.073
-188.158	-47.996	-0.331	-0.157
-187.144	-157.743	0.063	0.004
-186.129	-86.781	0.333	0.100
-185.114	398.740	0.121	-0.248
-184.100	-200.000	-0.045	-0.309
-183.085	-90.356	0.177	0.050
-182.071	800.000	0.072	-0.216
-181.056	174.274	-0.109	-0.155
-180.042	-105.423	0.195	-0.043
-179.027	-105.066	0.162	0.036
-178.012	-46.217	-0.043	-0.021
-176.998	519.295	0.139	-0.319
-175.983	-79.979	-0.167	0.055
-174.969	-200.000	0.074	0.374
-173.954	257.939	-0.083	0.140
-172.939	13.020	0.165	0.125
-171.925	-176.353	0.112	0.003
-170.910	-103.402	0.375	0.087
-169.896	-121.003	-0.318	0.052
-168.881	-5.622	0.161	-0.108
-167.866	-200.000	0.001	-0.233
-166.852	-123.438	0.277	0.043
-165.837	-7.309	-0.321	0.213
-164.823	-79.984	0.363	-0.119
-163.808	-150.094	0.156	-0.012
-162.793	-163.075	0.214	-0.010
-161.779	-108.577	-0.445	-0.094
-160.764	-30.378	0.154	-0.085
-159.750	402.744	-0.114	-0.235
-158.735	-200.000	0.008	-0.274
-157.720	-63.409	-0.111	0.045
-156.706	-74.759	-0.223	-0.078
-155.691	423.423	0.072	0.152
-154.677	92.520	-0.124	-0.137
-153.662	11.142	0.082	-0.062
-152.647	-58.039	-0.325	-0.139
-151.633	-98.606	0.188	-0.047
-150.618	-200.000	-0.062	0.280
-149.604	396.727	-0.094	-0.192
-148.589	-200.000	-0.058	-0.303
-147.574	-83.434	-0.196	-0.062
-146.560	260.738	0.060	-0.102
-145.545	88.809	-0.187	0.204
-144.531	-115.543	-0.499	0.092
-143.516	317.604	0.106	0.196
-142.502	380.877	-0.109	0.219
-141.487	22.392	-0.219	-0.175
-140.472	10.473	-0.174	-0.130
-139.458	-65.326	0.141	-0.056
-138.443	-74.995	0.271	0.095
-137.429	800.000	0.110	0.303
-136.414	196.538	-0.092	-0.136
-135.399	-200.000	-0.034	-0.524
-134.385	314.938	0.109	0.201
-133.370	-200.000	0.011	-0.095
-132.356	-13.106	0.310	-0.197
-131.341	-147.057	-0.118	-0.010
-130.326	103.457	-0.152	-0.175
-129.312	36.319	-0.135	0.116
-128.297	651.706	-0.075	0.187
-127.283	-73.098	-0.206	0.074
-126.268	-169.973	0.195	0.007
-125.253	-46.158	-0.461	-0.222
-124.239	58.943	0.114	0.110
-123.224	-13.327	0.095	-0.060
-122.210	-200.000	-0.029	-0.288
-121.195	-108.965	0.103	-0.021
