DTS Sentinel unit serial number:	SN413079Multiplexer serial number:	ORYXHardware model number:	OX4-SRSoftware version number:	ORYX F/W v4.00 Oryx Data Collector v3.7.2.0data status	okinstallation	princeton_trtdifferential loss correction	single-endedforward channel	channel 1reverse channel	N/Adate	2019/09/18time	04:38:35forward acquisition time	60.00reverse acquisition time	0.00gamma	496.2192k internal	0.2339k external	0.2339temperature offset calibration	0.9978default loss term (dB/km)	0.3790temperature slope calibration	1.0000multiplexer offset coefficient	1.0000multiplexer slope coefficient	1.0000fibre end	0.00T internal ref (°C)	23.41T ext. ref 1 (°C)	0.19T ext. ref 2 (°C)	17.66length (m)	temperature (°C)	Stokes	anti-Stokes-747.200	-141.856	0.370	0.037
-746.185	-122.337	-0.112	0.018
-745.171	-58.003	0.048	0.021
-744.156	108.218	-0.226	0.270
-743.142	-36.077	-0.250	0.136
-742.127	-81.478	-0.072	0.024
-741.112	-66.621	0.095	-0.038
-740.098	77.527	-0.238	0.254
-739.083	228.331	-0.102	0.167
-738.069	-43.351	-0.117	0.059
-737.054	-133.634	0.366	-0.046
-736.039	-107.248	-0.179	-0.040
-735.025	-70.828	0.330	-0.125
-734.010	47.982	-0.097	0.090
-732.996	-66.239	0.201	0.080
-731.981	800.000	-0.089	0.294
-730.966	96.646	0.085	0.098
-729.952	39.000	-0.143	0.128
-728.937	-13.189	-0.096	-0.062
-727.923	-53.332	-0.189	0.087
-726.908	51.189	0.079	0.075
-725.894	800.000	-0.059	-0.173
-724.879	-63.281	-0.417	0.172
-723.864	-200.000	-0.019	-0.324
-722.850	112.634	-0.134	-0.163
-721.835	84.597	-0.262	0.287
-720.821	105.673	0.161	0.191
-719.806	-106.673	-0.400	0.089
-718.791	-191.803	0.302	0.003
-717.777	-200.000	0.023	-0.132
-716.762	42.596	0.097	-0.088
-715.748	-123.174	0.148	-0.024
-714.733	-121.887	-0.135	0.022
-713.718	-35.606	-0.314	0.171
-712.704	-55.874	-0.174	0.078
-711.689	543.712	0.143	-0.342
-710.675	426.683	0.100	-0.216
-709.660	64.007	0.099	-0.100
-708.645	54.974	0.146	0.141
-707.631	-19.029	0.104	-0.065
-706.616	50.478	-0.107	-0.101
-705.602	-24.065	0.130	0.078
-704.587	800.000	0.048	-0.194
-703.572	291.297	0.076	0.138
-702.558	-40.856	-0.131	0.068
-701.543	-65.214	0.047	-0.019
-700.529	302.901	0.060	0.112
-699.514	-200.000	0.063	0.432
-698.499	-23.280	0.309	0.186
-697.485	75.516	-0.302	0.319
-696.470	146.210	0.279	-0.375
-695.456	-200.000	0.004	0.336
-694.441	50.725	-0.449	0.426
-693.426	-200.000	-0.016	0.139
-692.412	18.733	0.142	-0.114
-691.397	-118.501	0.117	0.021
-690.383	800.000	-0.179	-0.647
-689.368	418.663	0.177	-0.380
-688.354	-130.833	0.190	-0.026
-687.339	139.893	-0.229	0.302
-686.324	622.014	-0.018	-0.046
-685.310	346.224	-0.047	0.092
-684.295	4.302	0.259	0.190
-683.281	110.653	0.137	0.164
-682.266	800.000	0.037	0.121
-681.251	19.689	-0.117	0.095
-680.237	800.000	0.124	0.362
-679.222	-37.383	-0.139	0.074
-678.208	102.617	0.080	0.094
-677.193	-117.660	0.322	0.058
-676.178	-187.622	0.382	0.005
-675.164	17.722	-0.288	0.229
-674.149	118.813	-0.120	-0.148
-673.135	589.641	-0.070	0.174
-672.120	-17.430	0.060	0.038
-671.105	52.695	-0.196	-0.187
-670.091	185.189	0.016	0.024
-669.076	-96.669	-0.170	0.045
-668.062	-200.000	-0.014	0.164
-667.047	210.796	0.094	-0.148
-666.032	398.717	0.104	0.218
-665.018	-200.000	0.031	0.248
-664.003	-162.959	-0.193	0.009
-662.989	-18.865	0.084	-0.052
-661.974	44.964	0.165	-0.152
-660.959	-100.067	-0.378	0.094
-659.945	800.000	0.026	0.087
-658.930	11.521	0.177	-0.136
-657.916	-107.348	0.101	0.022
-656.901	-200.000	-0.026	0.186
-655.886	-200.000	0.004	0.225
-654.872	-75.010	0.212	0.076
-653.857	-100.641	-0.159	-0.039
-652.843	-115.802	-0.040	-0.008
-651.828	-114.984	-0.154	0.029
-650.814	800.000	-0.081	-0.306
-649.799	-75.247	-0.194	-0.069
-648.784	-60.771	-0.205	-0.087
-647.770	-164.295	-0.295	0.014
-646.755	-200.000	-0.036	0.215
-645.741	168.312	0.159	0.226
-644.726	-74.171	0.246	-0.089
-643.711	259.446	-0.030	0.052
-642.697	204.925	0.032	-0.050
-641.682	113.330	0.219	0.266
-640.668	-200.000	-0.001	-0.326
-639.653	-200.000	-0.036	0.233
-638.638	302.554	0.090	0.166
-637.624	206.516	0.186	-0.290
-636.609	-200.000	0.410	-0.002
-635.595	-1.837	0.252	0.177
-634.580	-164.204	-0.132	-0.006
-633.565	-200.000	0.029	0.221
-632.551	151.290	0.058	0.079
-631.536	603.709	0.073	-0.182
-630.522	-161.378	0.411	-0.021
-629.507	800.000	0.020	0.067
-628.492	233.367	-0.021	0.034
-627.478	-200.000	-0.018	-0.128
-626.463	800.000	0.058	-0.242
-625.449	-200.000	0.002	0.166
-624.434	9.668	0.048	0.036
-623.419	525.803	0.142	-0.333
-622.405	-122.335	0.530	0.086
-621.390	-8.106	-0.292	0.197
-620.376	-200.000	0.047	-0.450
-619.361	-76.601	0.082	0.029
-618.346	19.049	0.196	-0.157
-617.332	58.401	-0.041	0.040
-616.317	179.721	-0.072	0.106
-615.303	-8.668	-0.033	-0.022
-614.288	-200.000	0.011	0.254
-613.273	800.000	0.069	0.255
-612.259	348.908	-0.131	0.257
-611.244	-200.000	-0.010	0.264
-610.230	-41.598	-0.145	0.074
-609.215	16.006	-0.126	-0.099
-608.201	150.670	-0.117	0.158
-607.186	-200.000	-0.002	0.161
-606.171	430.116	-0.109	-0.236
-605.157	488.612	0.096	0.219
-604.142	56.625	0.156	0.152
-603.128	96.771	-0.235	0.269
-602.113	774.977	0.044	-0.119
-601.098	800.000	0.012	-0.043
-600.084	12.654	-0.267	-0.206
-599.069	-194.259	-0.329	-0.003
-598.055	641.693	0.073	0.184
-597.040	-200.000	-0.020	0.265
-596.025	-64.981	0.351	-0.141
-595.011	-200.000	-0.044	-0.388
-593.996	-58.955	0.116	-0.050
-592.982	92.333	-0.244	-0.275
-591.967	159.660	-0.175	0.243
-590.952	144.712	-0.085	-0.114
-589.938	-134.869	-0.210	-0.025
-588.923	183.297	-0.075	0.111
-587.909	539.734	0.040	0.096
-586.894	-87.095	0.293	0.089
-585.879	-111.914	-0.180	0.036
-584.865	55.715	0.035	0.034
-583.850	-107.770	-0.218	-0.047
-582.836	-58.932	-0.106	0.046
-581.821	-200.000	0.007	-0.125
-580.806	800.000	-0.070	-0.214
-579.792	103.705	0.019	-0.022
-578.777	-67.184	0.241	-0.094
-577.763	-59.270	0.300	-0.129
-576.748	305.715	-0.007	-0.013
-575.733	800.000	0.028	0.117
-574.719	530.096	-0.043	-0.101
-573.704	216.408	0.101	-0.160
-572.690	-162.850	-0.345	-0.017
-571.675	78.340	0.091	0.097
-570.661	69.547	0.301	0.309
-569.646	-7.893	-0.345	-0.232
-568.631	4.455	-0.147	-0.107
-567.617	800.000	-0.100	-0.332
-566.602	112.346	0.133	-0.160
-565.588	207.212	0.127	0.197
-564.573	235.695	0.104	0.171
-563.558	95.686	-0.242	0.275
-562.544	800.000	0.056	0.172
-561.529	-200.000	-0.013	-0.119
-560.515	-88.294	-0.458	0.136
-559.500	-163.990	-0.057	-0.003
-558.485	66.625	0.285	-0.289
-557.471	-200.000	-0.031	-0.239
-556.456	-145.829	0.090	-0.008
-555.442	150.814	-0.133	-0.180
-554.427	105.425	-0.287	0.338
-553.412	-114.426	0.392	0.075
-552.398	0.221	-0.291	-0.207
-551.383	-58.809	-0.034	0.015
-550.369	-53.526	-0.081	0.037
-549.354	-57.022	-0.358	0.157
-548.339	254.290	-0.105	-0.178
-547.325	-155.540	0.129	-0.008
-546.310	-142.336	-0.127	0.012
-545.296	-200.000	-0.054	0.369
-544.281	433.906	-0.116	-0.251
-543.266	-102.839	0.188	0.045
-542.252	-49.117	-0.123	0.058
-541.237	227.537	-0.218	-0.352
-540.223	33.372	-0.219	-0.189
-539.208	-200.000	0.083	0.000
-538.193	-150.752	-0.086	-0.007
-537.179	230.854	0.068	0.111
-536.164	-68.098	-0.265	-0.103
-535.150	-189.102	-0.151	0.002
-534.135	578.942	-0.100	-0.243
-533.121	1.226	0.088	-0.063
-532.106	114.523	-0.096	-0.116
-531.091	-64.464	-0.175	-0.071
-530.077	361.129	-0.128	-0.255
-529.062	-200.000	-0.018	-0.210
-528.048	800.000	0.127	-0.362
-527.033	540.334	0.011	0.027
-526.018	17.199	0.126	-0.099
-525.004	3.454	0.097	-0.070
-523.989	-25.404	0.136	-0.080
-522.975	11.086	-0.298	-0.226
-521.960	800.000	-0.074	0.287
-520.945	-29.888	-0.019	-0.011
-519.931	-153.888	0.330	0.022
-518.916	357.652	-0.049	-0.097
-517.902	15.240	0.212	-0.166
-516.887	-163.842	-0.112	0.005
-515.872	-101.249	0.062	0.015
-514.858	511.058	-0.006	0.013
-513.843	30.204	0.078	0.066
-512.829	800.000	-0.150	-0.532
-511.814	-200.000	0.027	0.199
-510.799	-72.144	-0.155	-0.057
-509.785	50.201	-0.297	0.279
-508.770	-126.419	0.128	0.019
-507.756	465.205	-0.080	-0.179
-506.741	-10.045	0.092	0.061
-505.726	800.000	-0.064	0.197
-504.712	784.637	-0.111	0.303
-503.697	77.416	0.215	0.227
-502.683	-59.225	0.104	-0.045
-501.668	-1.938	-0.047	0.033
-500.653	-66.518	-0.093	0.037
-499.639	272.831	-0.170	-0.298
-498.624	-93.615	0.162	0.044
-497.610	-0.343	0.212	0.150
-496.595	-101.263	-0.079	0.019
-495.581	-200.000	-0.035	-0.480
-494.566	-106.947	-0.125	0.027
-493.551	-123.686	-0.197	-0.031
-492.537	-5.879	-0.145	-0.098
-491.522	800.000	-0.079	0.287
-490.508	-200.000	0.030	0.184
-489.493	800.000	0.092	-0.291
-488.478	190.763	-0.081	-0.121
-487.464	-92.112	0.354	-0.099
-486.449	-83.043	0.175	0.056
-485.435	74.552	0.211	-0.220
-484.420	3.976	0.048	-0.035
-483.405	-150.336	0.097	0.007
-482.391	-200.000	-0.089	-0.392
-481.376	-81.134	-0.317	0.104
-480.362	800.000	-0.018	-0.061
-479.347	-111.279	-0.271	-0.055
-478.332	-64.741	-0.156	0.063
-477.318	-76.605	-0.335	0.117
-476.303	15.481	0.334	0.260
-475.289	196.058	-0.061	0.092
-474.274	-105.625	0.378	0.085
-473.259	-200.000	0.023	-0.282
-472.245	-167.306	-0.253	0.010
-471.230	273.465	0.228	0.401
-470.216	11.230	-0.134	0.102
-469.201	-200.000	0.071	0.500
-468.186	-103.588	0.348	-0.081
-467.172	-100.255	-0.272	0.067
-466.157	-143.147	-0.133	-0.013
-465.143	5.165	0.351	-0.257
-464.128	-102.748	-0.507	-0.120
-463.113	386.360	0.011	0.023
-462.099	38.737	-0.083	-0.074
-461.084	480.788	0.016	-0.035
-460.070	-200.000	-0.023	0.160
-459.055	-125.879	0.381	-0.057
-458.040	289.686	0.291	-0.523
-457.026	-62.696	-0.235	-0.097
-456.011	-145.773	0.191	-0.017
-454.997	800.000	0.119	-0.353
-453.982	174.718	0.003	-0.005
-452.968	1.884	0.209	-0.150
-451.953	-20.514	0.152	-0.092
-450.938	-32.758	0.345	0.190
-449.924	28.022	-0.202	0.169
-448.909	-152.016	-0.195	-0.014
-447.895	-200.000	0.049	0.299
-446.880	5.142	0.137	0.100
-445.865	12.365	-0.238	0.182
-444.851	800.000	0.065	-0.212
-443.836	-124.886	-0.186	-0.028
-442.822	-108.471	-0.175	-0.037
-441.807	13.280	0.189	0.146
-440.792	800.000	-0.049	0.144
-439.778	-200.000	0.003	-0.114
-438.763	-104.337	0.051	0.012
-437.749	-200.000	-0.008	0.301
-436.734	800.000	0.053	0.208
-435.719	-163.708	0.245	-0.011
-434.705	9.868	0.156	0.117
-433.690	36.142	0.106	-0.093
-432.676	154.468	-0.123	0.168
-431.661	76.600	0.181	-0.190
-430.646	-200.000	0.021	0.301
-429.632	698.124	-0.015	0.040
-428.617	-143.778	0.226	-0.021
-427.603	800.000	0.053	0.179
-426.588	-55.292	0.197	0.088
-425.573	406.771	0.065	0.136
-424.559	114.244	-0.110	0.132
-423.544	800.000	-0.095	0.285
-422.530	578.448	0.099	0.239
-421.515	-200.000	-0.009	0.048
-420.500	-110.348	0.205	0.042
-419.486	-200.000	-0.043	-0.274
-418.471	174.954	-0.156	-0.223
-417.457	197.432	0.051	-0.077
-416.442	649.746	0.072	0.181
-415.428	-200.000	-0.004	-0.025
-414.413	-42.509	-0.207	-0.105
-413.398	-182.149	-0.215	-0.004
-412.384	46.991	-0.078	0.072
-411.369	-200.000	0.020	0.114
-410.355	800.000	0.051	-0.213
-409.340	800.000	0.066	-0.199
-408.325	800.000	0.051	0.186
-407.311	382.499	-0.051	0.103
-406.296	113.651	0.150	-0.181
-405.282	-39.049	-0.204	0.106
-404.267	79.157	-0.098	-0.104
-403.252	-86.512	-0.232	-0.070
-402.238	33.145	0.195	-0.167
-401.223	800.000	0.087	0.304
-400.209	149.748	0.145	0.195
-399.194	-7.877	0.139	0.093
-398.179	-15.938	0.045	0.028
-397.165	800.000	-0.053	-0.165
-396.150	-200.000	-0.007	-0.294
-395.136	-95.878	0.331	0.087
-394.121	35.732	0.123	-0.107
-393.106	-137.369	-0.247	-0.028
-392.092	470.451	-0.142	-0.317
-391.077	-27.455	0.118	0.068
-390.063	115.653	0.018	-0.021
-389.048	373.464	0.086	-0.173
-388.033	-158.722	-0.390	0.022
-387.019	22.572	0.132	-0.107
-386.004	96.916	-0.151	-0.171
-384.990	-165.975	0.172	0.007
-383.975	-200.000	0.030	0.328
-382.960	67.579	0.147	-0.148
-381.946	-92.325	0.212	-0.059
-380.931	-200.000	-0.007	0.082
-379.917	-56.984	0.188	-0.082
-378.902	14.154	-0.183	0.141
-377.888	-98.507	0.266	0.067
-376.873	-33.618	0.157	-0.086
-375.858	587.894	0.135	0.328
-374.844	-200.000	-0.046	-0.288
-373.829	-130.918	-0.083	0.011
-372.815	135.079	-0.171	0.219
-371.800	-66.755	-0.157	-0.061
-370.785	-156.748	-0.338	-0.021
-369.771	-74.175	0.130	0.046
-368.756	-54.000	-0.265	-0.119
-367.742	-200.000	-0.112	0.572
-366.727	-200.000	0.083	0.446
-365.712	203.088	0.087	-0.133
-364.698	377.588	0.111	-0.225
-363.683	800.000	0.046	-0.198
-362.669	-78.617	-0.157	0.053
-361.654	-200.000	-0.031	-0.290
-360.639	-28.147	-0.080	0.046
-359.625	113.960	-0.146	-0.175
-358.610	-45.175	0.051	-0.025
-357.596	-68.289	0.194	-0.074
-356.581	-84.329	0.427	-0.133
-355.566	73.435	0.152	0.157
-354.552	461.116	-0.045	-0.100
-353.537	-99.135	-0.193	-0.048
-352.523	-200.000	-0.017	-0.138
-351.508	-147.307	-0.159	-0.013
-350.493	34.494	-0.222	-0.191
-349.479	118.665	-0.156	0.190
-348.464	510.242	0.143	0.329
-347.450	-178.715	-0.315	-0.007
-346.435	239.649	0.051	0.084
-345.420	-0.789	-0.097	-0.068
-344.406	-51.519	0.053	0.024
-343.391	-151.379	-0.329	0.024
-342.377	-32.394	0.100	0.055
-341.362	800.000	-0.081	0.249
-340.348	800.000	-0.119	-0.407
-339.333	-111.107	0.181	-0.037
-338.318	800.000	0.078	0.304
-337.304	-200.000	0.056	-0.418
-336.289	-134.582	0.147	-0.018
-335.275	-200.000	-0.024	-0.248
-334.260	800.000	-0.042	-0.178
-333.245	-105.824	-0.300	0.067
-332.231	34.938	-0.142	-0.123
-331.216	380.204	0.074	0.150
-330.202	800.000	-0.056	0.194
-329.187	-102.828	0.279	-0.065
-328.172	129.937	0.076	-0.096
-327.158	-136.560	-0.394	0.045
-326.143	119.127	-0.227	0.277
-325.129	-200.000	-0.001	-0.233
-324.114	-145.463	-0.457	0.041
-323.099	-200.000	0.005	-0.345
-322.085	184.465	-0.036	-0.053
-321.070	27.031	0.178	0.147
-320.056	-200.000	0.140	-0.000
-319.041	-171.554	0.227	-0.007
-318.026	103.456	-0.269	0.311
-317.012	-35.334	0.177	-0.095
-315.997	17.666	0.170	0.133
-314.983	-200.000	0.014	0.079
-313.968	-124.612	-0.251	0.038
-312.953	-186.409	0.242	0.003
-311.939	356.300	-0.067	0.132
-310.924	156.855	0.133	0.182
-309.910	-168.368	-0.321	-0.012
-308.895	-145.766	0.301	-0.026
-307.880	-200.000	-0.004	-0.092
-306.866	-34.605	-0.365	0.197
-305.851	800.000	-0.085	-0.255
-304.837	-40.665	0.271	-0.138
-303.822	84.495	-0.224	0.242
-302.807	-136.193	-0.104	0.012
-301.793	24.372	0.190	-0.155
-300.778	-53.741	0.094	-0.042
-299.764	-81.547	0.383	0.124
-298.749	-189.691	-0.382	0.004
-297.735	-0.007	-0.274	-0.193
-296.720	80.537	-0.077	0.082
-295.705	258.957	0.093	0.158
-294.691	30.728	0.144	-0.121
-293.676	42.667	0.202	-0.182
-292.662	209.046	0.171	-0.264
-291.647	98.951	-0.059	-0.067
-290.632	79.606	-0.124	-0.131
-289.618	-43.849	-0.097	-0.048
-288.603	-12.077	0.145	-0.094
-287.589	-148.317	0.106	0.009
-286.574	107.944	-0.089	-0.104
-285.559	-12.104	0.054	0.035
-284.545	75.933	0.180	-0.187
-283.530	422.624	0.069	-0.147
-282.516	29.155	-0.224	0.188
-281.501	-200.000	0.037	0.348
-280.486	-48.620	0.193	0.091
-279.472	-25.440	0.099	-0.058
-278.457	-65.366	-0.078	-0.031
-277.443	87.317	0.115	0.125
-276.428	63.429	-0.108	0.107
-275.413	-200.000	0.011	0.184
-274.399	-200.000	0.066	0.364
-273.384	-200.000	-0.002	-0.162
-272.370	-117.396	0.176	-0.031
-271.355	800.000	0.071	0.216
-270.340	-33.242	-0.259	-0.141
-269.326	-97.506	-0.174	0.045
-268.311	261.418	0.110	0.187
-267.297	-200.000	0.052	-0.387
-266.282	5.927	0.315	0.230
-265.267	-33.034	0.275	0.150
-264.253	-90.299	-0.195	-0.056
-263.238	174.839	-0.179	-0.255
-262.224	203.309	-0.155	-0.235
-261.209	10.747	0.061	0.046
-260.195	23.802	-0.125	-0.101
-259.180	221.339	0.162	0.256
-258.165	143.095	-0.043	0.057
-257.151	-88.736	-0.243	0.071
-256.136	-108.018	-0.090	0.019
-255.122	-200.000	-0.014	-0.171
-254.107	303.622	-0.081	-0.147
-253.092	-60.493	-0.053	0.022
-252.078	800.000	0.028	-0.093
-251.063	286.042	0.070	0.124
-250.049	-90.549	0.141	-0.040
-249.034	254.240	0.194	0.326
-248.019	90.121	0.101	-0.111
-247.005	-200.000	-0.045	0.212
-245.990	-24.145	0.252	-0.148
-244.976	62.345	-0.076	-0.075
-243.961	-200.000	0.053	-0.419
-242.946	-145.809	0.034	0.003
-241.932	-33.737	0.280	-0.152
-240.917	-72.961	-0.147	0.053
-239.903	130.246	0.082	-0.104
-238.888	-15.708	0.086	-0.054
-237.873	800.000	0.040	0.165
-236.859	800.000	0.085	0.284
-235.844	-200.000	-0.008	0.116
-234.830	800.000	-0.053	0.183
-233.815	574.771	-0.036	-0.086
-232.800	-130.716	0.500	-0.066
-231.786	-23.197	-0.169	0.100
-230.771	800.000	-0.100	0.272
-229.757	63.428	-0.019	0.019
-228.742	242.300	0.157	0.258
-227.727	507.466	0.082	0.188
-226.713	-97.943	0.365	0.093
-225.698	7.953	0.176	0.130
-224.684	-200.000	-0.001	-0.132
-223.669	800.000	-0.059	-0.161
-222.655	-17.525	0.449	-0.277
-221.640	193.438	-0.205	-0.304
-220.625	288.467	0.161	-0.287
-219.611	-97.860	0.311	-0.079
-218.596	96.836	-0.137	-0.155
-217.582	-200.000	-0.063	0.294
-216.567	-200.000	0.021	-0.271
-215.552	12.719	-0.123	-0.093
-214.538	-100.049	0.010	0.003
-213.523	-200.000	-0.056	0.315
-212.509	-31.872	-0.038	-0.021
-211.494	-176.963	0.240	-0.006
-210.479	376.057	0.114	0.229
-209.465	625.523	-0.091	0.226
-208.450	-200.000	-0.001	-0.208
-207.436	-108.671	0.110	-0.023
-206.421	86.145	-0.122	-0.132
-205.406	-98.202	0.168	-0.042
-204.392	800.000	0.081	-0.243
-203.377	186.953	-0.084	0.123
-202.363	17.082	0.135	0.105
-201.348	-66.332	-0.320	-0.125
-200.333	121.295	-0.151	0.184
-199.319	-131.655	0.228	-0.029
-198.304	-66.390	-0.088	-0.034
-197.290	-142.513	0.233	0.022
-196.275	-144.352	-0.112	0.010
-195.260	92.342	0.197	0.219
-194.246	-200.000	-0.011	-0.174
-193.231	-150.056	-0.327	0.025
-192.217	172.210	-0.063	-0.089
-191.202	800.000	0.131	0.417
-190.187	800.000	-0.048	0.137
-189.173	-200.000	0.018	-0.360
-188.158	-87.374	-0.122	-0.036
-187.144	-194.100	0.201	-0.002
-186.129	99.114	0.124	-0.141
-185.114	729.645	0.043	-0.114
-184.100	70.112	-0.281	-0.285
-183.085	209.864	-0.141	-0.217
-182.071	-200.000	-0.042	0.289
-181.056	220.153	-0.076	-0.120
-180.042	-200.000	-0.021	0.097
-179.027	-6.995	-0.491	0.327
-178.012	104.399	-0.076	0.087
-176.998	-200.000	0.049	0.320
-175.983	100.504	-0.134	-0.153
-174.969	150.269	-0.168	0.223
-173.954	53.743	0.202	-0.190
-172.939	93.639	-0.186	0.207
-171.925	-200.000	0.007	0.290
-170.910	14.173	-0.082	-0.062
-169.896	56.294	0.199	-0.190
-168.881	141.547	-0.138	0.179
-167.866	55.446	-0.166	0.158
-166.852	800.000	0.049	0.185
-165.837	388.987	0.016	0.032
-164.823	-117.864	-0.186	0.033
-163.808	-141.475	-0.255	0.025
-162.793	800.000	0.018	0.077
-161.779	-7.945	0.002	-0.001
-160.764	-200.000	0.058	-0.380
-159.750	326.947	-0.105	-0.197
-158.735	157.978	0.107	-0.145
-157.720	-74.210	-0.264	-0.094
-156.706	-200.000	-0.031	-0.220
-155.691	339.379	-0.146	0.279
-154.677	-29.344	0.196	0.110
-153.662	-112.643	0.161	-0.031
-152.647	1.169	0.126	0.088
-151.633	-200.000	0.044	0.339
-150.618	314.393	-0.186	0.343
-149.604	800.000	0.041	0.130
-148.589	-93.882	0.318	0.086
-147.574	-61.211	0.381	0.158
-146.560	67.276	-0.228	0.228
-145.545	35.115	-0.086	0.074
-144.531	-170.999	0.183	0.006
-143.516	182.009	-0.127	-0.184
-142.502	-200.000	0.076	0.471
-141.487	-200.000	0.054	-0.261
-140.472	-200.000	0.004	0.095
-139.458	64.082	-0.143	0.141
-138.443	-25.055	0.106	0.061
-137.429	-108.217	0.041	-0.009
-136.414	-162.379	0.113	-0.005
-135.399	-94.441	-0.269	-0.072
-134.385	-71.602	-0.202	-0.074
-133.370	-64.400	0.256	-0.102
-132.356	-48.860	-0.214	0.101
-131.341	-200.000	-0.012	0.177
-130.326	209.690	0.136	0.208
-129.312	591.877	-0.083	0.201
-128.297	-200.000	0.029	-0.200
-127.283	125.171	0.212	-0.262
-126.268	67.878	-0.128	-0.129
-125.253	-200.000	-0.019	0.258
-124.239	-63.324	-0.141	0.057
-123.224	-200.000	0.004	0.170
-122.210	-200.000	-0.035	-0.236
-121.195	-136.348	-0.197	0.022
-120.180	-200.000	0.006	-0.108
