DTS Sentinel unit serial number:	SN413079Multiplexer serial number:	ORYXHardware model number:	OX4-SRSoftware version number:	ORYX F/W v4.00 Oryx Data Collector v3.7.2.0data status	okinstallation	princeton_trtdifferential loss correction	single-endedforward channel	channel 1reverse channel	N/Adate	2019/09/18time	05:46:35forward acquisition time	60.00reverse acquisition time	0.00gamma	496.2192k internal	0.2340k external	0.2340temperature offset calibration	0.9981default loss term (dB/km)	0.3790temperature slope calibration	1.0000multiplexer offset coefficient	1.0000multiplexer slope coefficient	1.0000fibre end	0.00T internal ref (°C)	23.28T ext. ref 1 (°C)	0.19T ext. ref 2 (°C)	16.95length (m)	temperature (°C)	Stokes	anti-Stokes-747.200	-38.006	0.458	0.244
-746.185	-77.400	-0.079	-0.028
-745.171	-200.000	0.030	0.260
-744.156	105.467	-0.124	0.146
-743.142	112.209	0.035	0.043
-742.127	-80.462	-0.128	-0.043
-741.112	56.750	0.104	0.101
-740.098	-96.516	0.052	-0.014
-739.083	-27.940	0.189	0.110
-738.069	232.080	-0.249	0.410
-737.054	447.124	-0.124	0.274
-736.039	279.372	-0.099	0.177
-735.025	-26.347	0.432	0.254
-734.010	-200.000	0.012	0.179
-732.996	-112.321	-0.206	0.041
-731.981	61.656	0.039	-0.039
-730.966	-171.467	-0.146	0.005
-729.952	-200.000	-0.032	-0.382
-728.937	-35.882	-0.189	0.103
-727.923	-110.355	-0.272	0.057
-726.908	-110.194	-0.267	-0.056
-725.894	800.000	0.058	0.191
-724.879	-17.234	-0.264	0.167
-723.864	-16.865	-0.309	-0.196
-722.850	-1.413	0.260	-0.184
-721.835	-200.000	-0.008	0.117
-720.821	-200.000	0.055	-0.304
-719.806	640.642	-0.190	-0.485
-718.791	132.721	0.137	-0.177
-717.777	-45.934	0.278	-0.137
-716.762	-71.785	0.097	-0.036
-715.748	78.835	-0.033	-0.035
-714.733	-173.197	0.300	0.009
-713.718	104.230	0.203	-0.239
-712.704	-100.862	0.244	0.060
-711.689	-123.753	-0.188	0.030
-710.675	390.124	0.071	-0.147
-709.660	-200.000	0.060	-0.384
-708.645	-158.994	-0.160	-0.009
-707.631	-19.149	0.395	0.246
-706.616	-200.000	0.040	0.259
-705.602	-200.000	-0.021	-0.174
-704.587	-79.239	-0.143	0.049
-703.572	-97.831	0.168	-0.043
-702.558	-48.194	0.079	0.038
-701.543	73.758	0.073	0.077
-700.529	800.000	-0.061	-0.180
-699.514	414.248	0.109	0.233
-698.499	337.076	0.086	0.168
-697.485	431.075	-0.102	-0.222
-696.470	-96.104	0.059	-0.016
-695.456	66.629	0.061	-0.062
-694.441	-91.063	0.073	-0.021
-693.426	-200.000	-0.028	-0.197
-692.412	800.000	0.022	0.082
-691.397	177.111	-0.092	-0.134
-690.383	-149.703	0.218	0.017
-689.368	-120.357	-0.320	-0.055
-688.354	-200.000	0.008	0.109
-687.339	-144.671	0.437	0.040
-686.324	-78.009	0.166	-0.057
-685.310	800.000	-0.020	-0.078
-684.295	-78.230	0.254	-0.087
-683.281	-67.230	-0.163	0.064
-682.266	-200.000	0.028	-0.180
-681.251	-10.670	-0.105	-0.070
-680.237	67.551	0.280	0.286
-679.222	800.000	0.126	0.394
-678.208	546.577	-0.137	0.328
-677.193	-56.347	0.085	0.038
-676.178	-136.963	-0.256	-0.029
-675.164	-200.000	-0.038	-0.334
-674.149	800.000	-0.117	0.469
-673.135	23.128	-0.216	-0.177
-672.120	-200.000	-0.037	0.224
-671.105	-200.000	-0.006	-0.278
-670.091	-91.686	-0.161	-0.046
-669.076	-143.735	-0.363	-0.034
-668.062	-105.705	-0.379	-0.086
-667.047	-77.871	-0.103	0.035
-666.032	-200.000	0.372	0.001
-665.018	-29.705	-0.265	-0.151
-664.003	800.000	-0.095	0.338
-662.989	-200.000	-0.005	-0.227
-661.974	-13.961	-0.244	-0.157
-660.959	-22.561	-0.403	0.244
-659.945	-90.449	-0.207	-0.060
-658.930	800.000	-0.075	-0.274
-657.916	224.610	-0.050	0.082
-656.901	451.172	-0.073	0.160
-655.886	800.000	-0.092	0.301
-654.872	207.850	-0.095	-0.148
-653.857	-173.480	-0.270	0.008
-652.843	-69.477	-0.213	-0.082
-651.828	-200.000	0.043	-0.227
-650.814	206.920	0.106	-0.166
-649.799	-145.483	-0.351	-0.032
-648.784	-33.942	-0.031	-0.017
-647.770	-1.619	0.153	-0.107
-646.755	52.175	0.015	0.014
-645.741	259.762	0.169	-0.291
-644.726	-9.970	0.245	-0.162
-643.711	303.673	-0.035	0.066
-642.697	800.000	0.020	-0.060
-641.682	1.561	0.209	0.150
-640.668	29.149	-0.219	0.185
-639.653	-115.055	-0.151	-0.029
-638.638	-22.761	0.149	0.090
-637.624	236.797	0.188	0.311
-636.609	200.782	-0.052	0.080
-635.595	-96.045	-0.280	-0.074
-634.580	86.179	-0.184	0.203
-633.565	-98.130	-0.306	-0.079
-632.551	-98.332	0.068	0.017
-631.536	-72.364	0.246	0.091
-630.522	-200.000	0.030	-0.220
-629.507	66.761	-0.173	-0.176
-628.492	-36.732	-0.305	0.163
-627.478	284.226	-0.133	0.238
-626.463	12.206	-0.279	-0.214
-625.449	245.888	0.064	-0.107
-624.434	-200.000	0.066	0.302
-623.419	-200.000	-0.016	0.390
-622.405	33.726	-0.117	-0.102
-621.390	-162.895	-0.220	0.011
-620.376	304.466	-0.087	-0.161
-619.361	-134.984	-0.164	-0.020
-618.346	-123.089	0.066	0.011
-617.332	-100.575	-0.127	-0.031
-616.317	375.608	-0.140	-0.284
-615.303	-200.000	0.003	0.056
-614.288	-128.029	-0.186	0.027
-613.273	-7.494	0.239	-0.161
-612.259	-32.563	-0.148	-0.082
-611.244	10.233	-0.072	-0.055
-610.230	-200.000	0.035	0.324
-609.215	347.309	0.021	0.041
-608.201	80.067	-0.252	-0.270
-607.186	-200.000	-0.033	-0.156
-606.171	219.244	0.126	0.201
-605.157	110.117	0.092	0.110
-604.142	-105.227	-0.364	0.083
-603.128	54.125	-0.199	-0.191
-602.113	-43.532	0.407	-0.205
-601.098	800.000	-0.039	0.122
-600.084	-157.493	-0.206	0.012
-599.069	-112.540	-0.119	-0.024
-598.055	800.000	-0.073	0.313
-597.040	-145.373	-0.338	-0.030
-596.025	-200.000	-0.017	-0.269
-595.011	-200.000	-0.026	-0.270
-593.996	-98.417	0.132	-0.034
-592.982	-12.237	-0.227	0.148
-591.967	31.509	0.125	0.107
-590.952	283.717	0.147	-0.263
-589.938	-149.857	-0.152	-0.012
-588.923	352.910	0.173	0.343
-587.909	-125.355	0.124	-0.019
-586.894	84.250	-0.320	-0.349
-585.879	149.367	0.129	-0.174
-584.865	-48.558	-0.363	-0.174
-583.850	78.535	-0.139	0.148
-582.836	-116.334	0.432	-0.080
-581.821	-104.250	-0.243	0.056
-580.806	-40.223	0.168	-0.087
-579.792	195.415	-0.135	-0.204
-578.777	11.269	-0.092	0.070
-577.763	111.128	0.057	-0.069
-576.748	-200.000	-0.025	-0.265
-575.733	790.409	0.114	-0.313
-574.719	0.176	0.374	0.266
-573.704	76.880	-0.126	0.133
-572.690	-110.365	0.222	0.046
-571.675	129.808	0.201	0.257
-570.661	-36.113	0.165	0.089
-569.646	-200.000	-0.010	-0.043
-568.631	-200.000	-0.002	-0.107
-567.617	800.000	0.071	0.238
-566.602	78.914	-0.042	-0.045
-565.588	-200.000	0.005	0.140
-564.573	-96.291	0.096	0.025
-563.558	-104.628	0.199	0.046
-562.544	405.515	-0.169	-0.356
-561.529	133.516	0.045	-0.058
-560.515	-200.000	-0.046	0.224
-559.500	-200.000	-0.019	0.305
-558.485	220.275	-0.251	0.400
-557.471	-171.457	0.201	0.007
-556.456	123.974	0.157	-0.197
-555.442	-189.876	-0.331	-0.004
-554.427	257.786	0.181	0.309
-553.412	75.007	-0.165	-0.173
-552.398	0.688	0.177	-0.126
-551.383	29.794	0.047	0.040
-550.369	-200.000	0.045	0.239
-549.354	-100.917	-0.221	0.054
-548.339	800.000	0.014	-0.042
-547.325	205.439	-0.242	0.375
-546.310	800.000	-0.025	0.094
-545.296	-200.000	0.044	-0.329
-544.281	44.102	0.194	-0.177
-543.266	39.410	0.121	0.108
-542.252	194.948	-0.005	-0.007
-541.237	-200.000	-0.001	-0.020
-540.223	-71.835	0.103	-0.038
-539.208	26.036	0.074	0.062
-538.193	464.527	-0.070	0.156
-537.179	-134.838	-0.084	0.010
-536.164	-200.000	-0.011	0.085
-535.150	734.035	-0.025	-0.065
-534.135	-163.465	0.317	0.015
-533.121	800.000	-0.128	0.380
-532.106	-200.000	-0.028	-0.239
-531.091	800.000	-0.086	0.324
-530.077	800.000	-0.027	-0.100
-529.062	-45.830	-0.126	-0.062
-528.048	9.640	-0.359	-0.270
-527.033	-84.339	0.295	-0.093
-526.018	-116.300	0.277	0.051
-525.004	765.419	0.072	-0.194
-523.989	657.687	-0.091	-0.232
-522.975	-157.743	0.259	0.015
-521.960	564.735	0.040	0.095
-520.945	-137.847	-0.236	0.026
-519.931	-200.000	-0.013	-0.106
-518.916	-174.908	0.246	-0.007
-517.902	8.172	0.225	0.168
-516.887	800.000	-0.061	0.256
-515.872	593.210	-0.092	0.225
-514.858	-168.771	-0.103	-0.004
-513.843	-42.598	0.174	0.088
-512.829	-36.943	-0.124	-0.066
-511.814	-23.403	-0.237	-0.142
-510.799	-15.182	-0.160	0.102
-509.785	-50.289	0.113	0.053
-508.770	800.000	0.085	0.270
-507.756	-47.308	0.347	-0.168
-506.741	-40.441	-0.362	0.187
-505.726	-200.000	-0.035	-0.229
-504.712	-166.796	-0.135	-0.006
-503.697	-200.000	-0.035	-0.247
-502.683	-200.000	-0.024	-0.182
-501.668	-114.231	0.016	0.003
-500.653	85.464	0.123	0.134
-499.639	-200.000	0.034	-0.325
-498.624	587.204	-0.042	0.103
-497.610	-18.888	-0.135	0.083
-496.595	181.008	0.071	-0.104
-495.581	219.919	0.091	-0.145
-494.566	800.000	0.126	0.365
-493.551	89.854	0.053	-0.059
-492.537	-200.000	-0.015	-0.474
-491.522	800.000	0.098	0.360
-490.508	69.131	0.318	-0.325
-489.493	173.592	0.056	0.080
-488.478	-85.900	0.208	-0.064
-487.464	117.082	0.231	-0.282
-486.449	-153.691	0.076	-0.005
-485.435	-58.880	0.405	0.174
-484.420	800.000	-0.102	-0.317
-483.405	800.000	-0.098	-0.354
-482.391	-38.898	0.185	0.097
-481.376	-200.000	-0.017	-0.232
-480.362	-39.811	-0.162	0.084
-479.347	237.855	-0.075	-0.124
-478.332	174.854	-0.139	0.200
-477.318	-122.941	0.065	-0.010
-476.303	148.105	-0.078	0.105
-475.289	18.710	0.125	0.099
-474.274	-42.315	0.321	-0.162
-473.259	-97.993	0.253	-0.065
-472.245	-200.000	0.053	0.281
-471.230	-200.000	-0.012	-0.082
-470.216	-172.121	0.163	-0.005
-469.201	565.971	-0.118	-0.283
-468.186	-130.782	0.134	-0.018
-467.172	93.801	-0.052	0.058
-466.157	-37.467	0.112	0.059
-465.143	-200.000	0.029	-0.189
-464.128	52.771	-0.175	-0.166
-463.113	229.309	-0.119	0.193
-462.099	267.111	0.182	0.316
-461.084	800.000	0.022	-0.078
-460.070	-62.574	0.107	0.044
-459.055	40.016	0.233	-0.208
-458.040	656.264	-0.035	0.089
-457.026	-92.311	0.331	-0.093
-456.011	-130.309	0.171	-0.023
-454.997	-200.000	-0.010	0.084
-453.982	788.203	0.096	-0.260
-452.968	-200.000	-0.037	0.278
-451.953	82.839	-0.250	-0.270
-450.938	-200.000	0.045	-0.281
-449.924	-200.000	0.016	-0.141
-448.909	-200.000	-0.027	0.205
-447.895	692.515	0.116	-0.303
-446.880	-146.590	-0.408	-0.035
-445.865	89.543	0.216	-0.239
-444.851	316.316	0.065	0.121
-443.836	800.000	-0.068	0.195
-442.822	219.148	0.250	0.396
-441.807	123.569	-0.272	-0.338
-440.792	-200.000	-0.023	0.126
-439.778	-114.985	0.065	0.012
-438.763	158.064	-0.167	-0.230
-437.749	-78.424	0.251	-0.085
-436.734	142.976	0.057	0.075
-435.719	324.862	0.104	0.197
-434.705	-195.079	-0.576	-0.004
-433.690	-8.310	0.084	-0.056
-432.676	463.884	0.057	0.126
-431.661	39.756	0.183	-0.162
-430.646	121.840	-0.119	0.147
-429.632	-81.545	-0.090	-0.029
-428.617	198.062	-0.072	-0.109
-427.603	-81.235	0.097	-0.032
-426.588	-67.590	-0.124	-0.048
-425.573	-200.000	0.064	-0.328
-424.559	37.535	0.338	0.297
-423.544	170.073	-0.139	-0.197
-422.530	4.945	-0.084	0.061
-421.515	800.000	0.055	0.190
-420.500	761.238	0.173	0.465
-419.486	-60.546	0.111	-0.047
-418.471	-10.543	0.200	0.131
-417.457	202.153	-0.119	-0.181
-416.442	61.543	-0.112	-0.110
-415.428	-44.381	0.310	0.154
-414.413	-32.686	-0.175	0.097
-413.398	1.878	0.180	0.128
-412.384	324.681	-0.108	0.205
-411.369	445.118	-0.054	-0.118
-410.355	537.874	0.039	-0.093
-409.340	-18.509	-0.100	-0.062
-408.325	-77.946	-0.160	0.055
-407.311	434.008	-0.038	0.082
-406.296	-200.000	-0.088	-0.474
-405.282	-147.663	0.461	0.038
-404.267	-68.493	-0.158	0.061
-403.252	354.295	0.037	0.073
-402.238	271.653	0.040	-0.070
-401.223	512.219	0.094	0.216
-400.209	-157.191	0.102	-0.006
-399.194	-200.000	-0.000	-0.187
-398.179	38.561	0.060	0.053
-397.165	164.934	0.120	0.168
-396.150	403.734	-0.067	-0.139
-395.136	274.955	-0.032	-0.056
-394.121	-200.000	0.002	0.044
-393.106	-19.273	-0.103	0.063
-392.092	800.000	-0.087	0.270
-391.077	-51.739	-0.276	0.127
-390.063	-49.895	-0.274	0.129
-389.048	514.643	0.069	0.160
-388.033	-59.931	-0.219	0.093
-387.019	-19.789	-0.217	0.133
-386.004	-10.295	-0.115	0.076
-384.990	-200.000	0.021	-0.096
-383.975	673.308	-0.082	0.211
-382.960	-103.086	-0.304	0.071
-381.946	800.000	-0.121	-0.396
-380.931	311.355	-0.041	0.076
-379.917	-200.000	-0.031	0.254
-378.902	454.352	-0.092	0.201
-377.888	-63.835	-0.153	0.062
-376.873	52.141	-0.180	-0.170
-375.858	-200.000	0.029	-0.209
-374.844	-8.995	0.079	0.052
-373.829	166.624	0.270	0.378
-372.815	73.295	-0.222	0.229
-371.800	800.000	0.041	0.178
-370.785	-118.638	0.275	0.048
-369.771	-126.070	-0.251	0.037
-368.756	284.828	0.208	-0.369
-367.742	292.549	0.018	-0.033
-366.727	151.347	-0.110	-0.148
-365.712	7.883	0.170	0.126
-364.698	371.366	-0.147	-0.295
-363.683	694.842	0.044	-0.115
-362.669	-25.053	0.250	-0.146
-361.654	58.638	-0.039	0.038
-360.639	164.132	-0.089	-0.125
-359.625	117.931	-0.129	-0.157
-358.610	800.000	0.124	-0.427
-357.596	-24.499	-0.214	-0.126
-356.581	-200.000	-0.030	0.164
-355.566	-4.835	-0.238	0.162
-354.552	-47.893	0.112	0.053
-353.537	-200.000	-0.074	0.475
-352.523	-200.000	0.033	0.242
-351.508	197.447	0.104	0.157
-350.493	228.965	-0.151	0.244
-349.479	65.559	-0.201	-0.201
-348.464	183.346	-0.054	0.079
-347.450	84.093	0.072	-0.077
-346.435	13.207	0.069	0.053
-345.420	-27.449	0.249	0.143
-344.406	800.000	-0.069	0.215
-343.391	-193.650	-0.261	0.002
-342.377	-70.926	-0.143	0.053
-341.362	800.000	0.071	-0.292
-340.348	362.298	-0.121	0.240
-339.333	129.154	0.100	0.126
-338.318	-200.000	-0.006	-0.178
-337.304	-200.000	-0.020	0.212
-336.289	-82.818	0.132	-0.042
-335.275	-100.897	-0.376	0.091
-334.260	-195.195	0.638	0.005
-333.245	-200.000	-0.005	-0.057
-332.231	-89.449	0.110	-0.032
-331.216	21.540	-0.075	-0.060
-330.202	800.000	0.050	-0.149
-329.187	-26.692	0.207	0.119
-328.172	-200.000	-0.060	-0.382
-327.158	-38.987	0.204	-0.106
-326.143	328.289	-0.080	0.151
-325.129	-200.000	-0.008	-0.279
-324.114	-33.206	0.267	0.146
-323.099	48.543	-0.197	-0.182
-322.085	-200.000	-0.030	0.159
-321.070	29.981	0.051	-0.043
-320.056	8.312	-0.265	-0.197
-319.041	-27.500	0.212	-0.122
-318.026	-200.000	-0.000	0.164
-317.012	-80.696	0.301	-0.099
-315.997	205.803	-0.087	0.134
-314.983	8.533	-0.079	0.059
-313.968	-150.353	0.199	0.015
-312.953	558.525	-0.095	-0.226
-311.939	-89.034	0.236	-0.069
-310.924	102.138	0.060	0.069
-309.910	431.440	-0.076	-0.162
-308.895	-95.115	-0.207	0.055
-307.880	372.672	0.022	0.043
-306.866	100.034	-0.177	0.202
-305.851	-15.907	0.331	-0.207
-304.837	230.468	0.125	0.201
-303.822	-200.000	-0.010	0.234
-302.807	-16.076	-0.103	0.064
-301.793	31.581	-0.079	-0.067
-300.778	-130.115	-0.135	0.018
-299.764	22.797	-0.218	-0.176
-298.749	228.148	0.102	-0.164
-297.735	68.325	-0.198	-0.200
-296.720	-200.000	-0.009	0.186
-295.705	68.995	-0.127	0.129
-294.691	13.562	-0.070	-0.054
-293.676	-164.488	0.145	0.007
-292.662	105.789	-0.187	-0.218
-291.647	147.970	-0.114	-0.152
-290.632	69.346	-0.115	-0.117
-289.618	-128.063	0.077	-0.011
-288.603	-130.056	0.265	0.036
-287.589	-200.000	0.016	-0.199
-286.574	95.308	0.234	-0.263
-285.559	442.948	0.049	-0.107
-284.545	-43.139	0.438	-0.219
-283.530	-149.772	-0.159	0.012
-282.516	29.599	-0.210	-0.176
-281.501	-150.450	0.104	0.008
-280.486	34.529	0.044	0.038
-279.472	-110.125	-0.124	0.025
-278.457	-200.000	-0.043	0.189
-277.443	-200.000	0.013	-0.240
-276.428	37.880	-0.010	0.009
-275.413	-200.000	-0.005	-0.334
-274.399	-200.000	-0.051	0.225
-273.384	-200.000	-0.018	-0.093
-272.370	-150.748	-0.113	0.008
-271.355	-191.820	-0.186	-0.002
-270.340	455.965	-0.123	0.268
-269.326	33.753	0.201	0.172
-268.311	800.000	0.043	-0.154
-267.297	242.699	-0.159	0.261
-266.282	31.893	-0.038	-0.033
-265.267	232.779	0.144	0.233
-264.253	-200.000	0.001	-0.184
-263.238	5.680	-0.182	-0.132
-262.224	-108.185	-0.301	0.064
-261.209	-67.644	-0.282	-0.109
-260.195	220.940	0.109	0.172
-259.180	89.326	-0.058	-0.064
-258.165	205.380	-0.135	-0.207
-257.151	-140.380	0.331	0.034
-256.136	87.711	-0.081	0.089
-255.122	-200.000	-0.019	-0.352
-254.107	202.752	-0.106	-0.161
-253.092	133.612	0.102	-0.129
-252.078	-110.390	-0.201	-0.041
-251.063	236.660	0.153	-0.249
-250.049	-7.180	-0.053	-0.036
-249.034	-130.127	-0.236	-0.032
-248.019	-86.201	0.510	-0.155
-247.005	800.000	-0.074	-0.303
-245.990	41.079	0.085	0.075
-244.976	-200.000	0.004	-0.055
-243.961	-161.269	0.538	0.027
-242.946	257.579	-0.087	0.146
-241.932	26.483	0.090	-0.074
-240.917	180.399	-0.178	0.257
-239.903	-29.205	0.295	0.166
-238.888	-127.542	0.219	0.031
-237.873	-88.106	0.368	0.109
-236.859	-200.000	-0.010	-0.047
-235.844	219.771	-0.190	-0.300
-234.830	-55.613	-0.139	0.061
-233.815	-95.741	-0.276	-0.073
-232.800	2.664	0.133	-0.095
-231.786	-74.422	-0.282	0.100
-230.771	76.160	-0.036	-0.038
-229.757	92.634	-0.276	0.306
-228.742	631.322	-0.040	0.100
-227.727	-200.000	-0.019	0.287
-226.713	-144.866	0.155	0.014
-225.698	-200.000	-0.049	0.223
-224.684	409.232	0.087	0.182
-223.669	44.608	-0.036	-0.032
-222.655	80.446	-0.176	-0.186
-221.640	-172.042	0.272	-0.009
-220.625	-200.000	-0.009	0.056
-219.611	493.859	-0.145	0.328
-218.596	800.000	0.060	-0.187
-217.582	744.962	0.041	0.107
-216.567	-55.585	0.321	0.141
-215.552	800.000	0.105	0.375
-214.538	-67.768	0.182	0.070
-213.523	-112.469	0.389	-0.076
-212.509	-98.233	-0.208	0.052
-211.494	-200.000	0.059	0.278
-210.479	367.145	0.174	0.344
-209.465	800.000	-0.110	-0.354
-208.450	-150.199	0.316	0.024
-207.436	37.521	0.141	-0.123
-206.421	341.829	-0.192	-0.368
-205.406	53.981	-0.104	-0.098
-204.392	47.035	0.193	0.177
-203.377	-200.000	-0.001	-0.218
-202.363	62.652	0.109	-0.107
-201.348	11.300	0.207	0.155
-200.333	-173.407	0.205	0.006
-199.319	-121.723	0.063	-0.010
-198.304	-188.260	-0.047	0.001
-197.290	-129.215	0.173	0.024
-196.275	-112.414	-0.298	0.059
-195.260	159.787	-0.189	0.258
-194.246	304.570	-0.029	0.053
-193.231	71.378	-0.082	0.083
-192.217	-68.468	0.191	-0.073
-191.202	-200.000	0.021	-0.187
-190.187	-200.000	-0.006	0.151
-189.173	-133.673	0.176	0.022
-188.158	-28.525	-0.363	-0.205
-187.144	581.637	0.033	-0.079
-186.129	-105.172	0.317	0.071
-185.114	-133.684	-0.307	0.038
-184.100	346.964	0.085	-0.164
-183.085	-71.193	-0.150	-0.055
-182.071	-167.788	0.192	-0.007
-181.056	32.585	0.171	-0.145
-180.042	682.252	-0.103	-0.264
-179.027	-75.286	-0.333	-0.117
-178.012	13.277	-0.151	0.115
-176.998	70.012	-0.267	-0.270
-175.983	-200.000	0.017	-0.190
-174.969	-85.472	0.158	0.048
-173.954	-43.975	0.188	0.093
-172.939	-147.769	0.200	0.016
-171.925	800.000	-0.094	0.372
-170.910	4.693	0.185	0.133
-169.896	-53.404	-0.024	-0.011
-168.881	-186.433	-0.235	-0.003
-167.866	-86.722	0.022	0.007
-166.852	254.337	0.043	-0.071
-165.837	-200.000	-0.006	0.224
-164.823	800.000	0.039	-0.129
-163.808	-104.312	-0.292	0.066
-162.793	-184.806	0.088	-0.001
-161.779	-3.688	0.060	0.041
-160.764	236.943	0.161	-0.261
-159.750	113.876	-0.063	-0.076
-158.735	-200.000	0.018	0.413
-157.720	130.617	0.110	0.138
-156.706	-49.291	-0.107	0.050
-155.691	-42.348	-0.247	0.124
-154.677	270.205	0.164	-0.283
-153.662	-8.921	-0.305	0.200
-152.647	212.087	0.107	0.165
-151.633	2.962	-0.468	0.333
-150.618	-71.992	-0.152	0.055
-149.604	-200.000	-0.054	-0.326
-148.589	-39.954	-0.192	0.098
-147.574	800.000	-0.028	0.109
-146.560	45.246	0.316	0.285
-145.545	-121.523	-0.260	-0.042
-144.531	427.800	0.111	-0.234
-143.516	122.828	0.185	0.227
-142.502	-39.589	-0.384	0.197
-141.487	-173.471	-0.176	0.005
-140.472	-200.000	0.031	-0.198
-139.458	182.144	0.138	0.200
-138.443	284.343	-0.103	0.181
-137.429	388.374	0.126	0.255
-136.414	-9.247	-0.165	-0.108
-135.399	-65.962	-0.276	-0.108
-134.385	800.000	0.097	0.293
-133.370	-27.425	0.130	-0.074
-132.356	72.379	0.142	0.145
-131.341	45.596	0.119	0.108
-130.326	-200.000	0.014	-0.184
-129.312	-200.000	0.000	0.051
-128.297	113.351	0.173	0.206
-127.283	800.000	-0.063	0.211
-126.268	-144.852	0.249	-0.022
-125.253	-200.000	-0.051	-0.471
-124.239	266.769	-0.045	0.078
-123.224	-16.891	0.287	-0.177
-122.210	-187.641	-0.370	-0.005
