DTS Sentinel unit serial number:	SN413079Multiplexer serial number:	ORYXHardware model number:	OX4-SRSoftware version number:	ORYX F/W v4.00 Oryx Data Collector v3.7.2.0data status	okinstallation	princeton_trtdifferential loss correction	single-endedforward channel	channel 1reverse channel	N/Adate	2019/09/12time	18:19:34forward acquisition time	15.00reverse acquisition time	0.00gamma	496.2192k internal	0.2317k external	0.2317temperature offset calibration	1.0109default loss term (dB/km)	0.3790temperature slope calibration	1.0000multiplexer offset coefficient	1.0000multiplexer slope coefficient	1.0000fibre end	0.00T internal ref (°C)	33.44T ext. ref 1 (°C)	2.99T ext. ref 2 (°C)	28.04length (m)	temperature (°C)	Stokes	anti-Stokes-747.200	800.000	0.093	0.334
-746.185	-2.453	0.452	-0.321
-745.171	-106.186	-0.327	-0.074
-744.156	105.770	0.225	-0.270
-743.142	60.933	-0.482	0.484
-742.127	-73.199	-0.668	-0.248
-741.112	582.703	0.479	-1.190
-740.098	-200.000	0.041	-0.465
-739.083	-83.886	-0.485	-0.156
-738.069	800.000	0.163	-0.575
-737.054	-93.543	0.829	0.232
-736.039	122.320	0.216	-0.273
-735.025	-83.097	0.413	-0.134
-734.010	-109.068	-0.392	0.085
-732.996	-53.759	-0.429	-0.198
-731.981	-103.640	0.371	0.088
-730.966	-184.241	-0.423	-0.007
-729.952	-64.876	-0.588	0.241
-728.937	-200.000	-0.023	-0.188
-727.923	103.811	-0.284	0.337
-726.908	-200.000	0.049	0.663
-725.894	-145.219	0.529	0.048
-724.879	-200.000	-0.060	-0.333
-723.864	-40.860	-0.232	-0.122
-722.850	-200.000	-0.009	0.155
-721.835	294.318	0.135	0.250
-720.821	54.538	-0.619	0.603
-719.806	-49.223	0.284	-0.137
-718.791	-2.580	-0.520	0.368
-717.777	153.948	0.407	0.564
-716.762	800.000	0.055	-0.229
-715.748	746.069	-0.213	-0.579
-714.733	-160.141	-0.412	-0.023
-713.718	-200.000	-0.005	0.098
-712.704	-200.000	0.097	-0.909
-711.689	150.180	-0.170	0.233
-710.675	-200.000	-0.152	-0.713
-709.660	19.538	-0.675	0.548
-708.645	475.782	-0.335	0.765
-707.631	-200.000	-0.035	-0.352
-706.616	109.879	0.152	0.184
-705.602	159.386	-0.538	-0.756
-704.587	0.620	0.028	0.020
-703.572	118.573	0.117	0.146
-702.558	492.783	0.011	0.024
-701.543	139.711	-0.273	0.363
-700.529	-62.963	0.516	-0.215
-699.514	81.434	0.179	0.196
-698.499	-199.314	-0.815	0.004
-697.485	-200.000	-0.046	-0.424
-696.470	800.000	0.363	-1.345
-695.456	800.000	0.033	0.106
-694.441	-3.197	-0.363	-0.256
-693.426	-110.679	-0.566	-0.118
-692.412	-72.848	-0.305	0.113
-691.397	-200.000	-0.020	-0.203
-690.383	69.528	0.283	-0.294
-689.368	800.000	-0.126	-0.546
-688.354	-200.000	0.108	0.557
-687.339	-120.135	-0.267	0.046
-686.324	-200.000	-0.026	-0.206
-685.310	-42.234	0.598	-0.309
-684.295	114.204	0.233	-0.287
-683.281	-121.842	0.277	0.046
-682.266	47.407	0.354	0.333
-681.251	12.862	0.329	-0.257
-680.237	554.378	0.125	0.303
-679.222	-91.689	-0.189	0.054
-678.208	438.009	0.347	0.764
-677.193	407.813	-0.585	1.248
-676.178	37.779	-0.334	-0.300
-675.164	124.428	0.433	0.550
-674.149	13.594	-0.244	-0.191
-673.135	-26.906	-0.575	-0.339
-672.120	800.000	-0.194	0.627
-671.105	-24.013	-0.429	0.259
-670.091	800.000	0.070	-0.198
-669.076	-4.321	0.511	-0.357
-668.062	-131.269	-0.341	-0.046
-667.047	228.711	-0.291	0.478
-666.032	-200.000	-0.007	-0.052
-665.018	-137.884	0.103	0.012
-664.003	379.217	-0.202	-0.417
-662.989	-30.070	-0.659	-0.378
-661.974	445.432	-0.406	0.900
-660.959	44.565	0.613	0.568
-659.945	14.676	-0.051	-0.040
-658.930	11.429	0.791	-0.612
-657.916	489.103	0.348	-0.802
-656.901	-174.670	0.167	-0.005
-655.886	800.000	-0.120	0.391
-654.872	323.647	0.056	-0.107
-653.857	800.000	0.072	-0.260
-652.843	17.887	-0.541	-0.434
-651.828	-200.000	0.073	0.667
-650.814	-25.692	-0.616	-0.366
-649.799	800.000	-0.080	0.296
-648.784	800.000	0.016	-0.044
-647.770	-200.000	0.035	0.186
-646.755	52.279	0.148	0.143
-645.741	-77.670	0.295	-0.103
-644.726	111.784	0.293	0.357
-643.711	-156.098	-0.313	-0.020
-642.697	-200.000	-0.105	0.722
-641.682	-101.689	-0.470	-0.115
-640.668	800.000	-0.157	0.520
-639.653	-200.000	-0.007	-0.243
-638.638	-38.960	0.281	-0.149
-637.624	30.022	-0.148	0.127
-636.609	108.715	0.582	-0.701
-635.595	48.958	-0.199	0.188
-634.580	51.849	1.073	1.029
-633.565	204.893	-0.273	0.428
-632.551	-31.384	-0.140	0.079
-631.536	63.803	-0.142	-0.144
-630.522	-128.245	-0.412	-0.059
-629.507	-69.755	0.047	-0.018
-628.492	-45.234	0.295	-0.148
-627.478	-200.000	0.084	0.493
-626.463	-64.019	-0.191	0.078
-625.449	163.799	-0.308	0.437
-624.434	43.122	0.206	-0.189
-623.419	-107.627	0.288	-0.063
-622.405	-129.049	-0.866	0.122
-621.390	-200.000	-0.113	0.505
-620.376	-89.664	0.734	-0.217
-619.361	102.697	-0.527	-0.622
-618.346	-200.000	-0.019	0.269
-617.332	273.810	0.367	0.654
-616.317	56.377	-0.338	0.331
-615.303	794.956	0.312	-0.865
-614.288	800.000	0.212	-0.695
-613.273	16.743	0.217	0.173
-612.259	800.000	0.065	-0.232
-611.244	800.000	-0.090	0.254
-610.230	35.541	0.569	-0.503
-609.215	800.000	-0.102	0.357
-608.201	-0.060	0.199	0.143
-607.186	175.836	0.136	0.198
-606.171	3.716	0.662	-0.486
-605.157	-200.000	0.046	-0.397
-604.142	-200.000	-0.016	0.806
-603.128	800.000	0.136	0.542
-602.113	333.012	-0.190	0.370
-601.098	-100.053	1.005	0.252
-600.084	-19.843	0.575	0.358
-599.069	-200.000	0.066	-0.353
-598.055	114.110	0.256	-0.314
-597.040	-158.873	0.597	0.034
-596.025	-98.486	0.331	-0.085
-595.011	-200.000	-0.028	-0.204
-593.996	800.000	-0.328	1.039
-592.982	-183.623	0.882	-0.015
-591.967	-200.000	0.036	0.259
-590.952	-200.000	-0.049	0.512
-589.938	-117.206	0.537	0.098
-588.923	-200.000	0.034	0.800
-587.909	-99.900	-0.588	0.148
-586.894	-132.077	0.355	-0.046
-585.879	800.000	-0.115	-0.453
-584.865	-200.000	-0.025	0.397
-583.850	-200.000	-0.009	0.390
-582.836	-48.741	-0.615	0.297
-581.821	-38.231	-0.316	-0.169
-580.806	74.723	-0.153	0.162
-579.792	-28.889	0.111	-0.064
-578.777	-61.056	-0.331	-0.141
-577.763	361.573	-0.150	-0.303
-576.748	758.959	-0.139	-0.379
-575.733	385.246	-0.146	0.303
-574.719	-113.448	0.144	0.028
-573.704	319.734	-0.190	0.363
-572.690	-184.322	0.556	-0.009
-571.675	49.436	0.187	-0.177
-570.661	126.586	0.186	-0.236
-569.646	-200.000	0.027	-0.478
-568.631	287.257	-0.413	-0.750
-567.617	-7.850	-0.505	0.343
-566.602	-200.000	0.045	0.244
-565.588	127.964	0.294	0.376
-564.573	158.919	0.206	0.288
-563.558	59.025	-0.034	-0.034
-562.544	-33.854	-0.669	-0.370
-561.529	95.232	-0.100	0.115
-560.515	15.886	0.442	0.350
-559.500	-111.407	-0.826	0.169
-558.485	-81.418	-0.069	0.023
-557.471	110.471	0.102	-0.123
-556.456	800.000	0.108	-0.392
-555.442	50.846	-0.296	0.282
-554.427	-78.313	-0.166	-0.057
-553.412	203.715	-0.211	-0.329
-552.398	-200.000	0.010	0.674
-551.383	18.035	-0.218	-0.174
-550.369	63.051	0.434	-0.436
-549.354	217.809	-0.464	-0.743
-548.339	-99.336	0.069	-0.018
-547.325	-200.000	0.055	-0.637
-546.310	132.770	0.330	-0.428
-545.296	800.000	-0.275	1.055
-544.281	-98.347	-0.765	-0.197
-543.266	102.014	-0.283	0.332
-542.252	-85.363	0.573	-0.179
-541.237	-28.122	0.332	-0.193
-540.223	-45.067	-0.115	-0.058
-539.208	-9.863	0.698	0.467
-538.193	87.934	0.090	0.100
-537.179	-51.814	-0.110	0.052
-536.164	144.408	-0.063	-0.085
-535.150	-140.885	0.472	-0.049
-534.135	-34.629	-0.606	-0.333
-533.121	-200.000	0.064	-0.727
-532.106	-12.692	0.704	-0.461
-531.091	30.895	-0.433	0.372
-530.077	-200.000	-0.055	-0.690
-529.062	-145.095	0.471	0.043
-528.048	-49.168	-0.840	-0.403
-527.033	331.423	0.310	0.601
-526.018	-200.000	0.040	-0.415
-525.004	52.915	-0.518	-0.497
-523.989	48.136	0.529	0.496
-522.975	-41.228	-0.780	-0.404
-521.960	-125.602	-0.971	0.148
-520.945	-7.264	-0.236	-0.161
-519.931	85.657	0.036	0.039
-518.916	275.752	0.116	-0.207
-517.902	333.458	-0.261	0.506
-516.887	445.863	0.542	1.195
-515.872	-176.230	0.102	0.003
-514.858	422.213	-0.166	0.357
-513.843	40.097	-0.197	0.178
-512.829	-200.000	0.161	-0.845
-511.814	275.903	0.183	-0.326
-510.799	800.000	0.053	-0.178
-509.785	-200.000	0.012	-1.067
-508.770	336.969	-0.135	-0.263
-507.756	98.606	-0.528	0.611
-506.741	-87.869	0.548	-0.165
-505.726	128.618	-0.126	-0.162
-504.712	459.810	-0.269	0.600
-503.697	-9.873	0.568	-0.379
-502.683	800.000	0.209	-0.833
-501.668	1.287	0.215	-0.155
-500.653	242.941	0.441	-0.741
-499.639	205.500	-0.224	-0.349
-498.624	-141.745	0.336	0.034
-497.610	-15.602	-0.873	0.559
-496.595	296.357	-0.358	0.659
-495.581	-55.923	-0.153	-0.068
-494.566	-48.594	-0.412	-0.199
-493.551	-14.698	0.042	0.027
-492.537	-60.496	0.259	0.110
-491.522	-75.744	-0.377	-0.134
-490.508	14.647	-0.352	-0.276
-489.493	-78.862	0.616	0.210
-488.478	-200.000	-0.116	0.876
-487.464	12.894	-0.437	-0.339
-486.449	-54.194	0.280	0.128
-485.435	-200.000	0.055	0.631
-484.420	-159.160	-0.210	-0.012
-483.405	-200.000	0.057	0.623
-482.391	269.727	0.004	0.007
-481.376	-28.281	-0.144	0.083
-480.362	-189.455	-0.574	-0.007
-479.347	800.000	0.113	0.479
-478.332	800.000	0.154	0.452
-477.318	800.000	0.184	0.596
-476.303	-93.142	-0.396	-0.110
-475.289	800.000	-0.197	-0.584
-474.274	656.880	0.112	0.288
-473.259	-24.801	-0.126	-0.075
-472.245	-94.931	1.024	0.278
-471.230	-109.142	-0.544	0.116
-470.216	-122.757	-0.473	0.077
-469.201	-67.733	0.453	-0.177
-468.186	262.859	-0.213	0.370
-467.172	-121.619	-0.350	0.058
-466.157	90.101	0.597	0.669
-465.143	40.923	-0.732	0.661
-464.128	-29.174	0.427	0.245
-463.113	259.998	-0.353	0.611
-462.099	-37.996	-0.255	0.136
-461.084	174.450	0.754	-1.092
-460.070	800.000	-0.279	0.809
-459.055	-81.636	0.190	0.063
-458.040	-200.000	-0.040	-0.264
-457.026	60.498	-0.296	0.294
-456.011	-37.643	-0.340	-0.181
-454.997	593.197	0.370	-0.915
-453.982	53.973	-0.303	-0.292
-452.968	-58.202	0.933	0.407
-451.953	-30.955	-0.323	0.182
-450.938	105.601	-0.713	-0.843
-449.924	7.927	-0.442	-0.332
-448.909	1.447	0.477	0.343
-447.895	351.465	-0.331	-0.656
-446.880	-200.000	-0.093	-0.650
-445.865	64.154	0.103	0.104
-444.851	332.739	-0.020	-0.038
-443.836	-200.000	-0.086	0.891
-442.822	27.168	-0.304	0.256
-441.807	-200.000	0.027	0.354
-440.792	-200.000	-0.045	0.222
-439.778	-200.000	0.064	0.780
-438.763	253.212	-0.376	-0.641
-437.749	-200.000	0.097	-0.734
-436.734	272.083	-0.337	-0.594
-435.719	-40.056	0.178	-0.093
-434.705	800.000	0.072	-0.253
-433.690	82.166	-0.254	-0.276
-432.676	50.588	0.498	-0.471
-431.661	-87.084	-0.122	-0.037
-430.646	-151.193	-0.496	-0.037
-429.632	74.627	0.460	-0.484
-428.617	68.687	-0.587	0.602
-427.603	800.000	0.277	0.768
-426.588	305.907	-0.297	0.553
-425.573	101.081	0.105	-0.122
-424.559	-72.072	-0.700	0.260
-423.544	434.590	0.201	-0.437
-422.530	-102.177	0.236	-0.057
-421.515	-17.293	-0.205	-0.129
-420.500	-75.304	-0.082	-0.029
-419.486	-143.648	0.519	0.049
-418.471	95.491	-0.283	-0.322
-417.457	-136.991	0.368	0.042
-416.442	105.170	-0.341	0.403
-415.428	-0.470	-0.472	0.335
-414.413	-137.453	0.695	-0.079
-413.398	-200.000	0.055	-0.663
-412.384	182.252	0.297	-0.438
-411.369	800.000	0.257	-0.926
-410.355	-89.174	0.411	-0.121
-409.340	-200.000	0.002	0.704
-408.325	494.884	0.386	0.887
-407.311	166.971	0.295	0.419
-406.296	-94.967	0.204	0.055
-405.282	165.021	0.183	0.259
-404.267	-168.666	-0.092	-0.003
-403.252	139.911	-0.227	0.299
-402.238	-72.990	-0.471	-0.173
-401.223	-186.585	0.741	-0.011
-400.209	229.438	0.408	-0.666
-399.194	800.000	-0.293	-0.935
-398.179	-200.000	0.014	-0.175
-397.165	-128.509	0.740	0.105
-396.150	800.000	-0.145	-0.491
-395.136	37.601	-0.297	0.263
-394.121	45.304	0.586	-0.540
-393.106	-24.527	-0.295	0.175
-392.092	41.180	-0.636	0.574
-391.077	47.270	0.478	0.444
-390.063	800.000	-0.454	-1.338
-389.048	-79.559	-0.579	-0.195
-388.033	251.223	0.068	0.116
-387.019	-2.714	0.621	-0.434
-386.004	-69.378	-0.628	-0.241
-384.990	516.786	0.128	-0.298
-383.975	223.976	-0.302	0.487
-382.960	-12.077	-0.403	-0.263
-381.946	-200.000	0.059	0.786
-380.931	-200.000	-0.048	-0.306
-379.917	316.491	0.177	-0.334
-378.902	-86.859	0.705	0.215
-377.888	-67.279	-0.304	0.120
-376.873	-54.918	-0.459	0.207
-375.858	198.001	0.291	-0.444
-374.844	213.525	0.417	-0.658
-373.829	-89.815	0.657	-0.192
-372.815	346.576	0.211	-0.413
-371.800	-10.239	0.318	0.211
-370.785	-200.000	0.199	0.929
-369.771	-37.060	0.579	-0.309
-368.756	-50.210	-0.832	0.393
-367.742	-76.325	0.503	-0.177
-366.727	-89.046	-0.990	-0.292
-365.712	-106.935	-0.332	-0.073
-364.698	-116.182	0.768	-0.142
-363.683	569.151	0.285	0.691
-362.669	229.088	-0.184	-0.300
-361.654	-9.846	-0.097	-0.065
-360.639	-147.671	0.485	-0.041
-359.625	-10.795	0.129	-0.085
-358.610	800.000	0.141	-0.472
-357.596	355.211	0.287	0.570
-356.581	800.000	-0.185	0.513
-355.566	27.443	0.388	0.325
-354.552	-200.000	0.149	0.750
-353.537	-116.362	-0.287	0.053
-352.523	-200.000	-0.088	-0.695
-351.508	-200.000	-0.131	0.727
-350.493	14.595	-0.113	-0.088
-349.479	-61.141	0.774	0.325
-348.464	-200.000	-0.145	0.742
-347.450	-56.598	-0.564	0.249
-346.435	-88.227	-0.399	-0.119
-345.420	-117.271	-0.651	0.118
-344.406	-19.538	0.041	0.025
-343.391	-30.384	0.376	-0.213
-342.377	800.000	-0.054	-0.216
-341.362	-171.848	0.578	-0.019
-340.348	-200.000	0.073	0.340
-339.333	-74.020	-0.790	-0.285
-338.318	-200.000	-0.032	-0.319
-337.304	159.616	-0.082	0.113
-336.289	-7.166	0.205	-0.138
-335.275	-200.000	0.018	0.120
-334.260	-200.000	-0.030	-0.815
-333.245	-200.000	-0.064	-1.156
-332.231	-200.000	0.049	0.735
-331.216	304.087	0.468	0.865
-330.202	-200.000	0.060	0.508
-329.187	521.380	0.204	-0.476
-328.172	19.667	-0.746	-0.598
-327.158	-24.884	-0.483	0.286
-326.143	-19.555	0.266	0.164
-325.129	-200.000	0.147	-0.718
-324.114	157.957	-0.472	0.651
-323.099	269.286	0.314	0.549
-322.085	-0.861	0.176	-0.124
-321.070	7.930	0.301	0.225
-320.056	629.188	-0.161	0.404
-319.041	-2.884	0.397	0.277
-318.026	800.000	-0.193	-0.632
-317.012	86.846	0.370	-0.407
-315.997	48.123	-0.452	0.421
-314.983	70.518	0.091	0.093
-313.968	-30.863	-0.865	-0.486
-312.953	-15.081	-0.662	0.422
-311.939	-122.480	0.895	-0.145
-310.924	181.751	-0.321	0.471
-309.910	549.533	-0.149	-0.355
-308.895	-155.867	0.265	0.017
-307.880	-200.000	0.093	0.725
-306.866	-39.976	-0.406	-0.211
-305.851	-68.299	0.042	0.016
-304.837	-200.000	0.132	1.035
-303.822	-111.429	-0.451	-0.092
-302.807	-68.123	0.649	-0.251
-301.793	-200.000	0.128	-0.635
-300.778	-75.958	0.650	0.229
-299.764	117.895	0.606	-0.743
-298.749	377.832	0.410	0.834
-297.735	37.381	-0.798	0.704
-296.720	-48.133	0.215	0.104
-295.705	-100.796	0.528	-0.129
-294.691	-94.652	0.219	-0.059
-293.676	89.411	-0.257	-0.285
-292.662	-52.385	0.081	0.037
-291.647	101.472	-0.507	0.588
-290.632	37.762	1.026	-0.906
-289.618	-200.000	0.058	0.750
-288.603	15.273	-0.152	-0.119
-287.589	401.158	-0.361	-0.754
-286.574	12.568	0.363	-0.279
-285.559	-5.811	-0.507	-0.345
-284.545	-16.109	-0.681	-0.430
-283.530	45.167	0.215	0.197
-282.516	-74.214	0.517	-0.186
-281.501	271.423	-0.251	-0.439
-280.486	111.946	-0.335	0.402
-279.472	389.331	-0.111	-0.229
-278.457	-130.154	-0.609	0.083
-277.443	800.000	-0.198	-0.699
-276.428	3.610	0.564	-0.409
-275.413	-160.836	-0.599	-0.031
-274.399	180.783	-0.049	0.071
-273.384	209.510	0.225	0.351
-272.370	230.162	0.036	-0.059
-271.355	-5.800	0.317	0.215
-270.340	643.583	0.290	0.735
-269.326	800.000	-0.147	0.427
-268.311	17.878	-0.319	0.252
-267.297	-111.502	-0.643	-0.130
-266.282	-200.000	0.008	-0.129
-265.267	-200.000	-0.030	0.561
-264.253	310.164	-0.143	-0.266
-263.238	230.001	-0.353	-0.573
-262.224	-127.268	-0.166	-0.024
-261.209	-200.000	-0.026	-0.594
-260.195	178.259	-0.467	-0.677
-259.180	-43.955	0.922	0.460
-258.165	-89.437	0.486	0.142
-257.151	672.760	0.191	0.493
-256.136	-53.860	0.935	0.424
-255.122	783.275	0.073	0.198
-254.107	65.753	0.295	0.297
-253.092	187.349	-0.350	0.518
-252.078	-200.000	-0.075	0.551
-251.063	203.298	-0.377	-0.579
-250.049	94.102	0.676	-0.762
-249.034	-49.874	-0.423	-0.200
-248.019	112.130	-0.644	0.773
-247.005	-71.404	-0.289	-0.108
-245.990	800.000	0.067	-0.201
-244.976	47.520	0.483	-0.447
-243.961	23.486	-0.286	0.234
-242.946	438.107	0.094	-0.203
-241.932	-71.785	0.267	0.099
-240.917	-169.759	-0.421	-0.015
-239.903	-110.329	-0.597	0.123
-238.888	-130.929	-0.185	0.025
-237.873	-13.263	-0.187	-0.120
-236.859	-1.020	-0.259	0.182
-235.844	-200.000	-0.079	0.585
-234.830	-200.000	0.003	0.189
-233.815	800.000	-0.094	0.393
-232.800	226.189	0.100	0.161
-231.786	158.417	0.290	-0.399
-230.771	-132.144	1.102	-0.142
-229.757	-81.014	-0.127	0.042
-228.742	38.239	0.092	-0.081
-227.727	506.997	0.169	-0.388
-226.713	-5.708	-0.290	-0.197
-225.698	-41.995	-0.599	0.304
-224.684	-50.210	0.740	0.347
-223.669	-200.000	-0.090	0.882
-222.655	86.760	0.484	-0.530
-221.640	-52.439	-0.294	0.135
-220.625	341.064	0.612	-1.187
-219.611	570.505	0.075	0.182
-218.596	-112.127	-0.287	-0.057
-217.582	300.945	-0.084	0.154
-216.567	-200.000	-0.162	1.186
-215.552	316.754	0.423	0.793
-214.538	483.760	0.135	-0.305
-213.523	534.332	0.480	1.129
-212.509	-40.261	0.418	-0.216
-211.494	105.792	-0.688	0.807
-210.479	-192.931	-0.252	0.002
-209.465	2.425	-0.746	-0.535
-208.450	-200.000	0.044	0.426
-207.436	-200.000	0.071	-0.376
-206.421	-90.887	-0.498	0.142
-205.406	592.702	0.033	-0.080
-204.392	489.283	-0.170	0.385
-203.377	-10.490	0.482	-0.316
-202.363	-200.000	-0.008	-0.472
-201.348	431.044	0.186	-0.400
-200.333	218.185	-0.253	0.400
-199.319	-200.000	-0.090	0.444
-198.304	800.000	-0.201	-0.710
-197.290	-200.000	0.006	-0.213
-196.275	51.986	-0.122	0.115
-195.260	-200.000	-0.045	-0.625
-194.246	119.414	0.230	-0.282
-193.231	-200.000	-0.036	-0.235
-192.217	73.829	-0.259	-0.269
-191.202	-200.000	-0.031	-1.041
-190.187	7.281	0.958	-0.708
-189.173	-41.391	-0.786	-0.401
-188.158	338.297	0.080	0.154
-187.144	224.287	0.227	0.363
-186.129	317.745	-0.260	-0.487
-185.114	-92.123	0.227	-0.063
-184.100	250.994	-0.341	-0.574
-183.085	8.626	0.566	0.422
-182.071	462.811	-0.045	0.100
-181.056	13.090	-0.864	-0.662
-180.042	116.126	-0.098	0.119
-179.027	453.207	-0.402	-0.881
-178.012	-86.535	-0.605	-0.184
-176.998	94.858	0.188	-0.211
-175.983	33.284	0.168	-0.145
-174.969	-200.000	0.058	-0.694
-173.954	-200.000	0.175	-0.903
-172.939	-84.088	-0.614	-0.193
-171.925	-93.755	0.310	-0.085
-170.910	-19.774	-0.322	-0.197
-169.896	175.127	-0.240	0.344
-168.881	153.963	0.613	-0.832
-167.866	-62.161	-0.532	0.219
-166.852	-72.531	-0.747	0.273
-165.837	-4.259	0.523	-0.358
-164.823	0.679	0.355	0.251
-163.808	305.827	-0.164	0.301
-162.793	228.682	-0.430	-0.694
-161.779	-38.495	0.663	-0.347
-160.764	168.072	0.265	0.373
-159.750	83.037	-0.665	0.716
-158.735	-126.910	1.081	-0.157
-157.720	-83.178	0.362	0.115
-156.706	-16.882	-0.491	-0.307
-155.691	-26.839	0.223	0.129
-154.677	-60.769	-0.771	0.323
-153.662	-200.000	0.153	-0.924
-152.647	4.960	0.223	0.162
-151.633	-38.570	0.628	0.328
-150.618	-200.000	-0.053	-0.246
-149.604	1.946	-0.555	0.396
-148.589	-149.965	-0.447	0.034
-147.574	-200.000	0.001	0.025
-146.560	-18.630	-0.646	-0.399
-145.545	800.000	-0.135	-0.490
-144.531	-120.839	0.342	0.057
-143.516	14.226	0.266	0.205
-142.502	33.752	-0.285	-0.245
-141.487	323.446	-0.086	0.162
-140.472	-163.944	0.574	-0.026
-139.458	-200.000	0.067	0.620
-138.443	-8.403	-0.130	-0.087
-137.429	304.328	-0.389	0.714
-136.414	180.138	-0.415	0.601
-135.399	-117.189	-0.489	-0.088
-134.385	-200.000	0.092	0.605
-133.370	24.075	-0.318	-0.259
-132.356	-55.493	0.516	0.229
-131.341	-200.000	0.042	-0.890
-130.326	-200.000	-0.148	-0.937
-129.312	-118.822	-0.211	-0.037
-128.297	-66.198	0.255	-0.100
-127.283	-200.000	0.016	-1.199
-126.268	-7.051	-0.096	0.065
-125.253	-133.914	1.258	0.154
-124.239	-163.528	0.120	-0.006
-123.224	-103.808	-0.565	-0.131
-122.210	8.927	-0.488	-0.364
-121.195	-64.885	0.443	0.177
