DTS Sentinel unit serial number:	SN413079Multiplexer serial number:	ORYXHardware model number:	OX4-SRSoftware version number:	ORYX F/W v4.00 Oryx Data Collector v3.7.2.0data status	okinstallation	princeton_trtdifferential loss correction	single-endedforward channel	channel 1reverse channel	N/Adate	2019/09/18time	01:34:35forward acquisition time	60.00reverse acquisition time	0.00gamma	496.2192k internal	0.2340k external	0.2340temperature offset calibration	0.9981default loss term (dB/km)	0.3790temperature slope calibration	1.0000multiplexer offset coefficient	1.0000multiplexer slope coefficient	1.0000fibre end	0.00T internal ref (°C)	23.06T ext. ref 1 (°C)	0.17T ext. ref 2 (°C)	16.74length (m)	temperature (°C)	Stokes	anti-Stokes-747.200	800.000	0.044	-0.131
-746.185	57.671	-0.113	0.111
-745.171	-200.000	0.025	0.250
-744.156	112.714	0.202	0.245
-743.142	800.000	0.055	0.167
-742.127	800.000	-0.124	0.488
-741.112	-45.257	0.303	-0.151
-740.098	-200.000	-0.034	0.362
-739.083	800.000	0.038	0.137
-738.069	192.875	0.014	0.021
-737.054	310.248	0.093	0.174
-736.039	-43.361	-0.239	-0.121
-735.025	12.220	0.116	0.089
-734.010	321.880	-0.097	-0.185
-732.996	18.162	-0.115	0.092
-731.981	119.661	-0.111	0.138
-730.966	800.000	0.108	-0.427
-729.952	147.024	-0.222	-0.299
-728.937	-131.547	-0.247	0.033
-727.923	78.510	-0.161	-0.172
-726.908	-50.268	-0.120	0.057
-725.894	310.029	-0.014	-0.026
-724.879	-161.572	0.446	0.023
-723.864	1.504	-0.051	0.037
-722.850	127.041	0.128	0.163
-721.835	-85.608	-0.311	0.097
-720.821	-14.482	0.231	0.149
-719.806	-80.784	-0.040	-0.013
-718.791	76.958	-0.070	0.075
-717.777	243.376	-0.092	-0.154
-716.762	-200.000	0.061	0.342
-715.748	94.693	0.194	0.221
-714.733	-95.978	-0.265	0.071
-713.718	-200.000	0.006	0.208
-712.704	-200.000	0.036	0.269
-711.689	185.690	0.135	-0.200
-710.675	-23.637	-0.317	-0.190
-709.660	800.000	-0.029	-0.123
-708.645	-200.000	0.001	0.015
-707.631	-25.095	-0.140	0.083
-706.616	-200.000	-0.009	0.054
-705.602	-70.318	0.151	0.057
-704.587	-62.412	-0.256	-0.106
-703.572	-66.263	0.174	-0.069
-702.558	-126.017	-0.327	0.049
-701.543	-95.730	-0.186	-0.050
-700.529	-26.596	-0.189	-0.111
-699.514	-109.299	-0.224	-0.048
-698.499	151.252	-0.183	0.250
-697.485	-200.000	-0.021	-0.249
-696.470	-44.809	-0.260	0.130
-695.456	-200.000	0.046	-0.233
-694.441	-143.030	-0.102	0.010
-693.426	115.096	0.146	0.178
-692.412	-168.687	-0.123	0.005
-691.397	-163.797	-0.213	-0.010
-690.383	-200.000	0.005	-0.134
-689.368	66.151	-0.254	-0.258
-688.354	-200.000	-0.095	0.419
-687.339	-77.246	-0.254	0.088
-686.324	64.793	-0.096	0.097
-685.310	777.426	0.029	0.079
-684.295	100.617	0.031	0.036
-683.281	800.000	-0.065	0.273
-682.266	-143.043	-0.068	0.007
-681.251	204.484	0.062	-0.097
-680.237	-64.561	-0.051	0.021
-679.222	-100.717	-0.110	-0.027
-678.208	-17.449	-0.253	-0.159
-677.193	-200.000	-0.016	0.083
-676.178	-137.520	-0.130	-0.015
-675.164	-200.000	-0.018	0.362
-674.149	109.464	-0.269	-0.323
-673.135	-88.039	-0.251	0.075
-672.120	10.238	0.141	0.107
-671.105	315.262	-0.094	-0.176
-670.091	-78.364	-0.302	0.104
-669.076	-47.444	0.141	-0.069
-668.062	-64.705	-0.324	-0.131
-667.047	107.205	0.099	-0.117
-666.032	-99.972	0.374	0.093
-665.018	800.000	-0.049	0.163
-664.003	-58.302	0.238	0.103
-662.989	-22.128	0.251	0.152
-661.974	275.077	0.050	0.088
-660.959	-200.000	-0.016	-0.141
-659.945	-125.816	0.203	-0.031
-658.930	-16.224	0.099	0.063
-657.916	183.959	-0.028	-0.041
-656.901	50.582	0.182	0.172
-655.886	-43.518	0.264	0.133
-654.872	155.941	0.124	-0.171
-653.857	337.409	0.060	0.117
-652.843	24.920	-0.176	0.145
-651.828	-22.038	0.178	0.108
-650.814	-82.692	-0.346	0.112
-649.799	3.237	0.243	0.177
-648.784	11.531	-0.473	0.362
-647.770	-120.334	0.413	0.070
-646.755	-200.000	-0.015	0.278
-645.741	-127.786	-0.210	-0.030
-644.726	-42.633	0.182	-0.092
-643.711	-150.333	-0.059	-0.005
-642.697	188.914	-0.107	-0.159
-641.682	-104.333	-0.235	0.054
-640.668	-18.362	0.198	0.124
-639.653	164.421	-0.223	-0.314
-638.638	-0.507	0.129	-0.091
-637.624	-200.000	0.025	-0.427
-636.609	-119.149	-0.155	0.027
-635.595	-64.586	0.269	0.109
-634.580	-13.419	0.149	0.096
-633.565	238.252	-0.176	-0.292
-632.551	59.616	-0.093	-0.092
-631.536	228.005	0.156	0.253
-630.522	-157.231	0.054	-0.003
-629.507	35.844	-0.204	0.179
-628.492	-200.000	-0.016	-0.165
-627.478	800.000	-0.160	-0.525
-626.463	252.952	0.032	-0.055
-625.449	-31.378	0.141	0.079
-624.434	-170.059	0.388	0.014
-623.419	-200.000	-0.062	0.368
-622.405	-74.593	0.348	-0.125
-621.390	249.951	-0.109	-0.184
-620.376	671.062	-0.077	-0.199
-619.361	-143.709	0.222	-0.021
-618.346	-100.447	-0.302	-0.075
-617.332	185.942	-0.206	0.305
-616.317	92.524	-0.241	0.271
-615.303	-121.156	-0.167	0.028
-614.288	-138.158	-0.196	0.022
-613.273	-55.087	-0.112	-0.050
-612.259	165.585	0.061	-0.086
-611.244	-33.238	-0.248	0.137
-610.230	800.000	-0.029	-0.102
-609.215	-149.284	-0.148	0.012
-608.201	-66.455	0.272	-0.108
-607.186	-143.318	-0.262	-0.025
-606.171	-76.404	0.306	0.107
-605.157	800.000	-0.064	-0.223
-604.142	-129.060	-0.318	0.044
-603.128	800.000	0.074	-0.244
-602.113	18.355	-0.187	0.149
-601.098	-200.000	0.026	-0.142
-600.084	-126.307	-0.356	-0.053
-599.069	588.918	0.118	0.289
-598.055	-74.616	0.159	0.057
-597.040	-86.926	-0.285	-0.087
-596.025	4.023	-0.220	0.160
-595.011	-200.000	-0.022	0.103
-593.996	-200.000	-0.053	0.268
-592.982	-200.000	0.063	0.309
-591.967	534.935	-0.013	0.031
-590.952	-13.239	-0.192	-0.124
-589.938	-200.000	0.047	-0.361
-588.923	66.455	0.128	0.129
-587.909	214.813	-0.049	0.077
-586.894	-105.670	-0.185	-0.042
-585.879	-200.000	0.019	-0.121
-584.865	-90.981	0.118	0.034
-583.850	36.598	0.092	-0.081
-582.836	108.061	0.208	0.247
-581.821	800.000	-0.064	-0.272
-580.806	247.883	0.154	-0.259
-579.792	-200.000	0.057	-0.370
-578.777	-77.308	0.176	-0.061
-577.763	-57.124	-0.191	-0.084
-576.748	10.549	0.107	-0.081
-575.733	-200.000	0.043	-0.207
-574.719	72.863	-0.127	0.132
-573.704	146.086	0.174	0.233
-572.690	73.176	0.025	-0.027
-571.675	-23.166	0.120	0.072
-570.661	472.530	0.191	0.429
-569.646	290.706	0.177	0.320
-568.631	-180.013	0.214	-0.005
-567.617	101.348	-0.117	0.136
-566.602	800.000	0.073	-0.272
-565.588	-26.715	0.195	-0.114
-564.573	39.698	0.138	-0.124
-563.558	-115.815	-0.235	0.044
-562.544	169.198	-0.216	0.307
-561.529	-130.065	0.154	0.021
-560.515	800.000	-0.114	-0.315
-559.500	-40.443	0.248	0.128
-558.485	250.865	-0.126	0.213
-557.471	-60.978	0.229	0.096
-556.456	-102.734	0.371	-0.088
-555.442	563.848	0.168	-0.404
-554.427	-107.926	-0.419	-0.091
-553.412	299.406	-0.026	-0.048
-552.398	-1.524	0.223	0.157
-551.383	-85.311	-0.314	-0.097
-550.369	-115.794	-0.449	-0.084
-549.354	-7.985	-0.312	-0.209
-548.339	-72.885	-0.311	0.114
-547.325	-87.302	-0.275	0.083
-546.310	781.885	0.127	-0.346
-545.296	-24.988	-0.130	0.077
-544.281	-200.000	-0.005	0.156
-543.266	-84.930	-0.185	0.058
-542.252	-68.093	0.103	-0.040
-541.237	236.560	-0.132	0.218
-540.223	-200.000	-0.014	-0.215
-539.208	-200.000	0.082	0.399
-538.193	-64.225	-0.304	0.123
-537.179	-122.430	-0.298	-0.048
-536.164	43.184	-0.255	-0.232
-535.150	178.691	0.199	-0.289
-534.135	148.058	-0.073	0.097
-533.121	-200.000	-0.015	0.278
-532.106	57.175	0.206	-0.200
-531.091	45.340	0.109	-0.100
-530.077	-200.000	0.006	0.086
-529.062	-101.928	-0.361	-0.087
-528.048	-200.000	-0.017	-0.305
-527.033	90.203	-0.222	0.247
-526.018	265.839	-0.023	0.039
-525.004	362.540	0.035	0.069
-523.989	-89.027	-0.388	-0.114
-522.975	235.057	-0.040	-0.066
-521.960	6.773	-0.437	-0.323
-520.945	-172.729	0.305	0.009
-519.931	800.000	0.071	0.220
-518.916	-2.805	0.184	-0.128
-517.902	235.063	0.179	0.294
-516.887	0.590	-0.154	0.110
-515.872	-156.564	0.317	-0.020
-514.858	-155.310	0.235	-0.015
-513.843	-53.631	-0.185	0.084
-512.829	-19.394	-0.233	0.144
-511.814	-38.728	-0.211	0.110
-510.799	-157.571	0.355	-0.021
-509.785	-12.049	-0.161	-0.104
-508.770	170.293	0.269	-0.382
-507.756	-72.659	-0.107	-0.039
-506.741	321.373	0.131	-0.247
-505.726	303.921	-0.053	0.097
-504.712	3.403	-0.132	0.095
-503.697	800.000	-0.043	-0.184
-502.683	-200.000	0.027	-0.251
-501.668	-79.114	0.443	0.149
-500.653	-5.443	0.303	-0.207
-499.639	-41.410	0.350	-0.179
-498.624	-6.419	0.060	-0.040
-497.610	800.000	-0.085	0.258
-496.595	-200.000	0.036	0.415
-495.581	-0.013	0.095	-0.067
-494.566	88.562	-0.056	0.062
-493.551	-52.731	0.337	-0.154
-492.537	34.301	-0.120	0.104
-491.522	118.962	-0.172	0.211
-490.508	645.542	-0.035	0.088
-489.493	-200.000	0.066	-0.373
-488.478	139.521	0.123	0.160
-487.464	-61.918	0.186	-0.077
-486.449	800.000	-0.071	0.242
-485.435	404.759	-0.156	0.326
-484.420	-47.830	0.267	-0.128
-483.405	800.000	-0.041	0.126
-482.391	-200.000	-0.016	-0.125
-481.376	-86.445	-0.086	-0.026
-480.362	262.576	0.049	-0.084
-479.347	-71.044	0.073	0.027
-478.332	-49.756	-0.087	0.041
-477.318	-125.441	-0.076	0.011
-476.303	124.517	-0.024	-0.030
-475.289	89.216	-0.224	-0.247
-474.274	59.038	-0.258	0.252
-473.259	-118.730	-0.177	-0.031
-472.245	-200.000	0.021	-0.375
-471.230	800.000	-0.055	0.198
-470.216	61.658	0.174	0.172
-469.201	-83.873	-0.225	-0.071
-468.186	-200.000	0.016	-0.271
-467.172	14.791	0.139	0.108
-466.157	-132.867	-0.148	-0.019
-465.143	520.502	0.145	-0.337
-464.128	-200.000	0.045	0.408
-463.113	-89.872	-0.163	-0.047
-462.099	800.000	-0.058	0.197
-461.084	202.905	-0.175	0.267
-460.070	-75.754	0.372	0.131
-459.055	399.840	0.090	0.188
-458.040	800.000	0.077	-0.285
-457.026	-21.715	0.080	0.048
-456.011	78.576	-0.163	-0.173
-454.997	-200.000	0.009	0.055
-453.982	-23.167	0.214	0.127
-452.968	543.579	0.114	-0.269
-451.953	-200.000	-0.045	0.376
-450.938	-200.000	0.041	-0.213
-449.924	57.219	0.080	-0.077
-448.909	-48.874	-0.102	-0.048
-447.895	-88.300	0.331	-0.098
-446.880	-200.000	-0.104	0.460
-445.865	-200.000	0.001	0.127
-444.851	-32.537	-0.169	0.093
-443.836	-81.501	0.337	-0.110
-442.822	-71.684	0.252	-0.093
-441.807	-18.847	0.086	0.053
-440.792	98.623	0.130	0.149
-439.778	169.805	0.177	-0.250
-438.763	-94.285	-0.145	0.039
-437.749	301.187	0.099	0.181
-436.734	137.822	0.146	0.189
-435.719	205.945	-0.194	-0.299
-434.705	54.829	0.231	-0.221
-433.690	-101.367	0.320	-0.077
-432.676	800.000	0.024	0.069
-431.661	-130.014	-0.160	-0.022
-430.646	-8.026	0.342	0.228
-429.632	128.902	-0.122	-0.154
-428.617	-105.234	-0.215	0.049
-427.603	-15.097	-0.176	-0.111
-426.588	-73.247	-0.149	-0.054
-425.573	-104.978	0.105	0.024
-424.559	-182.483	0.258	-0.005
-423.544	327.291	-0.256	0.487
-422.530	-200.000	-0.013	0.120
-421.515	33.747	-0.202	0.174
-420.500	-156.434	0.191	-0.012
-419.486	-200.000	-0.023	-0.143
-418.471	438.548	0.171	-0.369
-417.457	3.086	-0.079	-0.057
-416.442	-15.451	0.251	-0.159
-415.428	800.000	0.015	-0.054
-414.413	-115.601	0.245	-0.046
-413.398	35.980	-0.220	0.191
-412.384	101.742	0.076	-0.088
-411.369	3.053	-0.178	0.128
-410.355	-70.290	-0.391	-0.147
-409.340	410.420	0.059	0.124
-408.325	502.480	0.055	0.126
-407.311	23.204	0.101	0.082
-406.296	-200.000	0.021	0.130
-405.282	800.000	-0.070	0.196
-404.267	104.905	-0.162	-0.189
-403.252	125.332	-0.156	-0.195
-402.238	163.877	-0.082	0.114
-401.223	306.957	0.057	-0.106
-400.209	42.705	0.178	-0.160
-399.194	37.750	0.107	-0.094
-398.179	77.996	-0.092	0.097
-397.165	-0.409	-0.335	-0.236
-396.150	649.552	0.208	0.526
-395.136	-128.995	-0.229	0.032
-394.121	-200.000	-0.030	-0.163
-393.106	92.152	0.007	-0.007
-392.092	-8.385	-0.238	0.158
-391.077	-68.225	0.204	0.079
-390.063	-200.000	0.055	-0.291
-389.048	-133.790	-0.018	-0.002
-388.033	78.986	-0.229	-0.243
-387.019	206.515	0.126	0.194
-386.004	-130.047	-0.140	-0.019
-384.990	696.343	-0.093	-0.240
-383.975	7.554	0.306	-0.226
-382.960	245.904	-0.285	0.475
-381.946	-5.557	-0.189	-0.128
-380.931	211.294	0.038	-0.060
-379.917	31.058	-0.371	-0.315
-378.902	-159.580	0.206	-0.011
-377.888	-141.333	0.147	0.015
-376.873	99.360	0.193	-0.220
-375.858	-83.108	0.027	0.009
-374.844	-171.573	-0.331	0.011
-373.829	421.016	-0.013	-0.028
-372.815	-200.000	0.003	0.169
-371.800	44.491	-0.125	-0.114
-370.785	233.987	0.120	0.196
-369.771	-87.367	0.094	0.028
-368.756	-138.658	-0.335	-0.036
-367.742	-66.490	0.141	-0.055
-366.727	800.000	0.093	-0.308
-365.712	243.031	-0.063	0.104
-364.698	67.252	-0.127	-0.128
-363.683	-200.000	-0.006	0.166
-362.669	800.000	-0.066	0.218
-361.654	-200.000	-0.063	0.282
-360.639	-135.536	0.174	0.020
-359.625	382.045	-0.122	0.247
-358.610	341.508	-0.139	-0.268
-357.596	-100.886	0.116	0.028
-356.581	800.000	0.096	-0.270
-355.566	-200.000	0.061	0.300
-354.552	443.334	-0.121	-0.261
-353.537	-200.000	0.022	0.116
-352.523	-72.079	-0.197	-0.072
-351.508	503.405	-0.077	0.177
-350.493	-144.187	-0.330	-0.030
-349.479	-84.553	0.149	0.047
-348.464	-145.536	0.181	0.016
-347.450	-110.266	0.459	-0.094
-346.435	-19.752	-0.029	-0.017
-345.420	428.740	0.089	0.190
-344.406	189.510	-0.220	0.326
-343.391	-31.118	-0.160	-0.089
-342.377	-55.470	0.092	0.041
-341.362	800.000	-0.082	-0.264
-340.348	177.116	0.315	0.453
-339.333	800.000	0.059	0.254
-338.318	-168.119	-0.154	0.006
-337.304	-123.901	0.442	0.069
-336.289	225.205	-0.005	0.008
-335.275	638.422	0.108	-0.272
-334.260	-40.856	-0.151	-0.077
-333.245	-200.000	-0.018	0.158
-332.231	233.208	0.072	0.116
-331.216	800.000	-0.053	0.180
-330.202	-139.794	-0.262	0.027
-329.187	41.551	0.222	0.198
-328.172	349.421	0.028	-0.054
-327.158	-50.731	0.102	-0.047
-326.143	-12.009	-0.088	-0.057
-325.129	800.000	0.013	-0.047
-324.114	-200.000	0.004	-0.118
-323.099	142.266	-0.106	0.139
-322.085	143.046	0.062	-0.081
-321.070	76.019	-0.311	0.324
-320.056	-200.000	-0.040	0.219
-319.041	-200.000	-0.006	0.111
-318.026	-37.983	0.087	0.046
-317.012	311.917	-0.066	-0.123
-315.997	-156.864	0.054	0.003
-314.983	-200.000	-0.003	-0.178
-313.968	6.447	-0.046	-0.034
-312.953	-171.247	-0.114	0.004
-311.939	-55.229	-0.407	-0.180
-310.924	-188.121	0.207	-0.003
-309.910	-183.014	0.441	-0.008
-308.895	681.597	0.051	0.130
-307.880	29.740	-0.128	0.108
-306.866	8.480	0.219	0.162
-305.851	715.559	-0.047	0.123
-304.837	-200.000	0.008	-0.350
-303.822	-69.258	0.230	-0.087
-302.807	-200.000	-0.007	0.314
-301.793	143.097	0.208	0.273
-300.778	-45.751	0.214	0.104
-299.764	-73.739	-0.133	0.048
-298.749	222.246	0.139	0.220
-297.735	800.000	-0.080	-0.232
-296.720	-130.851	0.126	0.017
-295.705	22.423	0.143	0.115
-294.691	125.741	0.195	-0.242
-293.676	800.000	0.033	-0.112
-292.662	-188.142	-0.101	-0.001
-291.647	800.000	0.142	0.389
-290.632	-200.000	0.028	-0.146
-289.618	-93.874	-0.423	0.115
-288.603	-200.000	0.017	-0.246
-287.589	-111.833	0.181	0.036
-286.574	800.000	0.039	0.129
-285.559	383.016	-0.065	0.131
-284.545	-48.151	-0.230	-0.109
-283.530	576.049	-0.063	-0.151
-282.516	-200.000	-0.008	0.175
-281.501	0.510	0.172	0.121
-280.486	103.546	-0.337	0.389
-279.472	-133.229	0.197	0.024
-278.457	-51.355	0.097	0.045
-277.443	800.000	0.051	-0.141
-276.428	-15.238	0.203	0.128
-275.413	135.580	0.077	-0.098
-274.399	-200.000	0.064	-0.303
-273.384	-110.139	-0.090	0.018
-272.370	38.435	0.162	0.142
-271.355	123.158	-0.157	-0.194
-270.340	800.000	-0.091	-0.266
-269.326	-66.526	-0.302	0.118
-268.311	-170.630	0.120	-0.004
-267.297	-200.000	0.049	-0.219
-266.282	-68.096	-0.523	0.201
-265.267	178.072	-0.157	-0.225
-264.253	-200.000	-0.031	-0.215
-263.238	-200.000	0.072	0.379
-262.224	636.999	-0.129	0.323
-261.209	-97.836	0.374	-0.095
-260.195	-20.250	0.095	0.058
-259.180	-200.000	0.023	-0.396
-258.165	48.681	-0.305	-0.281
-257.151	148.205	0.110	-0.146
-256.136	-15.564	-0.031	-0.019
-255.122	151.621	0.104	-0.139
-254.107	-43.891	-0.190	0.094
-253.092	29.716	0.120	0.100
-252.078	-89.266	0.319	0.092
-251.063	312.024	-0.049	-0.090
-250.049	771.991	-0.146	-0.391
-249.034	800.000	0.055	-0.178
-248.019	262.910	0.028	0.047
-247.005	201.873	0.037	0.056
-245.990	90.757	-0.250	-0.276
-244.976	800.000	-0.104	-0.422
-243.961	-12.444	-0.386	-0.248
-242.946	-31.224	-0.321	0.178
-241.932	455.691	0.025	-0.055
-240.917	-42.926	-0.119	-0.059
-239.903	290.304	0.098	-0.176
-238.888	-74.189	0.223	-0.079
-237.873	225.469	0.115	0.183
-236.859	-25.817	0.347	0.201
-235.844	272.286	0.007	0.012
-234.830	-109.749	0.246	-0.051
-233.815	50.479	0.195	0.181
-232.800	185.791	-0.028	0.041
-231.786	800.000	-0.118	-0.389
-230.771	-150.266	0.176	0.013
-229.757	-127.594	0.184	-0.026
-228.742	-10.812	-0.152	-0.099
-227.727	85.701	-0.154	0.167
-226.713	494.399	-0.107	-0.242
-225.698	-124.631	-0.055	-0.008
-224.684	163.623	-0.129	0.179
-223.669	800.000	0.050	0.176
-222.655	14.310	-0.093	-0.071
-221.640	73.855	-0.245	-0.252
-220.625	61.011	0.177	0.172
-219.611	-113.166	-0.258	0.050
-218.596	10.121	0.067	-0.050
-217.582	154.819	0.094	-0.127
-216.567	-52.437	-0.200	0.091
-215.552	-151.476	0.386	0.028
-214.538	-26.403	-0.078	0.045
-213.523	73.140	0.191	-0.197
-212.509	513.532	-0.044	-0.101
-211.494	-3.255	-0.364	0.249
-210.479	573.335	-0.060	0.144
-209.465	-200.000	-0.011	-0.196
-208.450	60.199	-0.152	0.148
-207.436	-87.890	0.192	-0.057
-206.421	70.914	0.266	0.271
-205.406	749.355	-0.050	-0.132
-204.392	-29.472	-0.089	-0.050
-203.377	307.355	0.055	0.101
-202.363	-81.884	0.246	-0.079
-201.348	22.190	0.238	-0.191
-200.333	124.802	0.033	0.040
-199.319	-167.643	0.494	-0.019
-198.304	20.104	-0.249	-0.197
-197.290	136.678	0.102	0.131
-196.275	-100.401	0.224	-0.055
-195.260	512.268	-0.013	-0.029
-194.246	-200.000	0.082	0.556
-193.231	-200.000	-0.007	-0.098
-192.217	567.869	0.063	0.150
-191.202	-106.421	-0.167	0.037
-190.187	106.190	0.094	-0.109
-189.173	-43.588	0.025	0.012
-188.158	-5.468	0.240	0.161
-187.144	-142.282	-0.182	-0.018
-186.129	62.177	-0.143	-0.140
-185.114	-200.000	0.009	-0.059
-184.100	-88.860	0.069	0.020
-183.085	-171.660	0.190	0.006
-182.071	-200.000	-0.055	-0.310
-181.056	800.000	-0.037	0.108
-180.042	-122.854	0.111	0.018
-179.027	-200.000	-0.011	-0.257
-178.012	116.627	0.106	-0.128
-176.998	800.000	0.079	0.222
-175.983	469.246	-0.018	-0.039
-174.969	-196.648	0.059	-0.000
-173.954	169.584	0.060	-0.084
-172.939	139.280	0.089	0.115
-171.925	800.000	-0.115	-0.326
-170.910	-5.662	0.232	0.156
-169.896	-166.535	-0.501	0.020
-168.881	800.000	-0.081	-0.253
-167.866	-200.000	0.010	0.098
-166.852	-42.885	-0.137	-0.068
-165.837	85.740	0.025	0.027
-164.823	800.000	0.022	0.081
-163.808	-111.990	-0.123	-0.024
-162.793	604.851	-0.088	0.215
-161.779	-132.002	0.184	-0.023
-160.764	800.000	0.092	0.308
-159.750	45.004	0.123	0.111
-158.735	190.820	-0.148	0.218
-157.720	52.263	-0.106	-0.099
-156.706	478.519	0.066	-0.146
-155.691	-70.031	0.174	-0.065
-154.677	35.807	-0.272	-0.234
-153.662	-200.000	0.005	0.077
-152.647	-195.736	0.307	-0.002
-151.633	728.041	0.054	0.142
-150.618	-145.843	-0.171	0.015
-149.604	-43.262	0.231	-0.115
-148.589	-200.000	-0.053	-0.535
-147.574	13.245	-0.178	-0.135
-146.560	55.778	-0.143	0.136
-145.545	-113.678	0.201	0.038
-144.531	-69.936	0.315	-0.118
-143.516	-92.468	-0.040	0.011
-142.502	8.184	-0.181	-0.133
-141.487	19.814	0.256	0.202
-140.472	800.000	0.082	-0.268
-139.458	60.800	0.070	-0.068
-138.443	-200.000	-0.014	-0.280
-137.429	478.843	0.222	0.491
-136.414	134.756	-0.038	-0.048
-135.399	-85.821	-0.133	0.040
-134.385	322.001	-0.037	-0.069
-133.370	98.776	0.160	-0.180
-132.356	162.014	0.114	0.157
-131.341	-167.554	-0.095	0.004
-130.326	-126.162	-0.317	-0.046
-129.312	33.016	-0.087	-0.074
-128.297	774.682	0.107	-0.286
-127.283	332.568	0.089	0.168
-126.268	-36.210	-0.136	0.072
-125.253	-200.000	0.115	0.557
-124.239	-200.000	-0.054	-0.308
-123.224	146.434	-0.130	-0.170
-122.210	-200.000	-0.046	0.341
-121.195	-200.000	-0.001	-0.135
