DTS Sentinel unit serial number:	SN413079Multiplexer serial number:	ORYXHardware model number:	OX4-SRSoftware version number:	ORYX F/W v4.00 Oryx Data Collector v3.7.2.0data status	okinstallation	princeton_trtdifferential loss correction	single-endedforward channel	channel 1reverse channel	N/Adate	2019/09/16time	10:58:35forward acquisition time	60.00reverse acquisition time	0.00gamma	496.2192k internal	0.2300k external	0.2300temperature offset calibration	0.9963default loss term (dB/km)	0.3790temperature slope calibration	1.0000multiplexer offset coefficient	1.0000multiplexer slope coefficient	1.0000fibre end	0.00T internal ref (°C)	36.73T ext. ref 1 (°C)	12.75T ext. ref 2 (°C)	34.34length (m)	temperature (°C)	Stokes	anti-Stokes-747.200	-200.000	-0.030	0.226
-746.185	-200.000	-0.422	-0.001
-745.171	-200.000	0.008	-0.287
-744.156	83.059	-0.195	0.216
-743.142	-141.443	-0.066	-0.007
-742.127	-200.000	-0.063	0.436
-741.112	301.407	0.187	0.353
-740.098	800.000	-0.135	0.421
-739.083	-90.955	-0.075	-0.022
-738.069	-200.000	0.005	0.179
-737.054	-21.260	0.308	0.192
-736.039	192.313	0.168	0.259
-735.025	-200.000	-0.153	0.686
-734.010	-52.012	-0.438	0.208
-732.996	-196.406	0.167	0.001
-731.981	-52.328	-0.386	-0.182
-730.966	510.291	0.079	-0.188
-729.952	-153.472	0.468	0.033
-728.937	-63.194	-0.223	0.094
-727.923	800.000	0.071	-0.286
-726.908	75.201	-0.103	-0.111
-725.894	-142.912	-0.172	-0.017
-724.879	97.792	-0.154	-0.180
-723.864	-129.935	-0.123	-0.017
-722.850	-144.266	-0.213	-0.020
-721.835	295.259	-0.167	-0.312
-720.821	-78.477	-0.206	0.072
-719.806	-30.862	0.142	-0.082
-718.791	-152.989	0.071	-0.005
-717.777	92.379	0.176	-0.202
-716.762	82.019	0.056	-0.062
-715.748	653.644	0.130	0.339
-714.733	8.743	0.220	0.169
-713.718	31.377	-0.138	-0.121
-712.704	-137.540	-0.203	-0.023
-711.689	-89.192	-0.162	-0.049
-710.675	-121.485	0.103	0.017
-709.660	4.726	-0.238	-0.178
-708.645	15.099	0.202	0.161
-707.631	-200.000	0.025	-0.252
-706.616	-150.357	0.146	-0.011
-705.602	-89.757	0.401	-0.120
-704.587	389.631	-0.084	-0.178
-703.572	-200.000	-0.017	-0.251
-702.558	593.214	0.110	0.276
-701.543	-102.310	-0.081	-0.020
-700.529	61.428	0.099	-0.100
-699.514	-186.293	0.067	-0.001
-698.499	237.012	0.057	0.097
-697.485	143.181	-0.099	-0.134
-696.470	564.341	-0.086	-0.213
-695.456	-200.000	-0.025	0.131
-694.441	-200.000	-0.003	0.110
-693.426	-86.109	0.087	-0.027
-692.412	67.308	0.268	-0.278
-691.397	800.000	0.086	0.349
-690.383	-200.000	0.034	0.186
-689.368	-20.492	-0.374	0.234
-688.354	-103.315	-0.236	0.057
-687.339	-21.217	0.099	0.061
-686.324	-77.759	0.181	-0.064
-685.310	68.251	-0.035	-0.037
-684.295	27.775	-0.316	0.271
-683.281	-94.933	0.031	-0.008
-682.266	305.578	0.074	0.140
-681.251	286.980	-0.196	-0.361
-680.237	-82.990	-0.332	-0.109
-679.222	88.751	-0.062	-0.070
-678.208	69.117	-0.235	0.246
-677.193	-64.874	-0.064	-0.026
-676.178	54.960	-0.037	0.036
-675.164	-200.000	-0.001	-0.365
-674.149	201.409	0.123	-0.192
-673.135	-200.000	0.019	-0.284
-672.120	-57.951	0.078	0.034
-671.105	-83.217	-0.194	0.064
-670.091	143.939	0.137	0.186
-669.076	-62.723	0.199	0.084
-668.062	30.511	-0.346	0.300
-667.047	-40.082	0.201	0.107
-666.032	179.409	0.115	0.172
-665.018	-105.263	-0.139	0.032
-664.003	-54.567	0.111	-0.051
-662.989	308.799	0.094	0.178
-661.974	62.775	0.087	0.089
-660.959	-34.254	-0.339	-0.189
-659.945	-200.000	-0.032	-0.322
-658.930	800.000	-0.097	0.309
-657.916	-191.399	0.070	0.001
-656.901	248.315	0.038	0.065
-655.886	-200.000	-0.029	0.205
-654.872	-8.142	-0.284	-0.194
-653.857	-52.332	-0.246	-0.116
-652.843	464.968	0.083	0.189
-651.828	8.551	-0.249	0.190
-650.814	-3.987	-0.201	-0.142
-649.799	36.667	0.174	0.156
-648.784	800.000	-0.022	0.083
-647.770	-200.000	0.007	0.119
-646.755	800.000	0.010	-0.035
-645.741	-101.622	-0.362	0.089
-644.726	-138.884	0.283	0.031
-643.711	-200.000	0.026	-0.184
-642.697	-8.779	0.078	0.053
-641.682	30.263	-0.165	-0.143
-640.668	-200.000	-0.003	0.064
-639.653	800.000	-0.026	0.103
-638.638	-105.620	0.456	-0.105
-637.624	-200.000	-0.034	0.235
-636.609	290.356	-0.091	-0.167
-635.595	-149.980	-0.202	0.016
-634.580	180.100	-0.167	-0.249
-633.565	-140.857	-0.469	0.049
-632.551	-200.000	0.011	0.100
-631.536	-90.430	0.126	-0.037
-630.522	-142.578	0.104	0.010
-629.507	-73.025	-0.262	-0.098
-628.492	800.000	0.088	0.275
-627.478	-15.983	0.145	0.094
-626.463	202.697	0.219	-0.343
-625.449	789.784	-0.130	0.362
-624.434	269.152	-0.133	-0.237
-623.419	800.000	0.045	0.193
-622.405	2.391	-0.077	0.057
-621.390	-139.819	-0.117	0.013
-620.376	238.795	0.245	-0.413
-619.361	-200.000	0.021	-0.211
-618.346	43.823	0.063	0.059
-617.332	0.720	-0.347	-0.252
-616.317	800.000	0.119	-0.409
-615.303	800.000	0.074	0.211
-614.288	-200.000	-0.003	0.339
-613.273	-200.000	0.024	0.284
-612.259	-139.473	-0.372	-0.040
-611.244	800.000	0.047	-0.138
-610.230	-54.963	0.186	0.085
-609.215	-75.313	0.278	0.101
-608.201	-161.669	-0.130	0.007
-607.186	35.055	-0.288	-0.256
-606.171	227.194	-0.065	0.108
-605.157	-139.047	-0.194	-0.021
-604.142	-64.252	-0.425	-0.175
-603.128	-174.670	0.262	0.008
-602.113	368.251	0.081	0.166
-601.098	143.668	-0.144	-0.195
-600.084	456.714	0.104	0.233
-599.069	111.954	-0.064	0.078
-598.055	85.407	-0.197	0.220
-597.040	73.678	0.091	-0.097
-596.025	800.000	0.033	-0.122
-595.011	-92.470	-0.516	-0.147
-593.996	72.691	-0.112	0.119
-592.982	-200.000	0.137	-0.000
-591.967	-200.000	0.039	0.186
-590.952	800.000	-0.019	0.083
-589.938	-85.522	-0.194	-0.061
-588.923	-127.671	0.361	-0.053
-587.909	660.230	0.093	-0.242
-586.894	40.364	0.341	-0.311
-585.879	-200.000	-0.010	0.162
-584.865	118.896	-0.227	-0.284
-583.850	-71.024	0.045	-0.017
-582.836	-108.449	0.111	0.024
-581.821	-186.428	-0.211	-0.003
-580.806	10.092	0.200	-0.154
-579.792	-47.259	-0.173	0.086
-578.777	-157.584	0.063	0.004
-577.763	-50.615	0.138	0.066
-576.748	238.801	-0.177	-0.298
-575.733	-200.000	-0.003	-0.329
-574.719	106.940	-0.097	0.117
-573.704	-33.671	-0.014	0.008
-572.690	-131.567	0.279	0.037
-571.675	800.000	-0.020	0.058
-570.661	-149.921	0.616	-0.049
-569.646	800.000	-0.024	0.083
-568.631	77.817	0.094	-0.102
-567.617	-122.777	-0.345	-0.057
-566.602	493.216	0.097	-0.225
-565.588	-200.000	0.031	-0.226
-564.573	259.585	-0.132	0.230
-563.558	223.952	0.090	0.146
-562.544	-63.024	-0.064	0.027
-561.529	287.848	0.070	-0.129
-560.515	101.378	-0.168	0.198
-559.500	118.478	-0.212	0.265
-558.485	-46.686	0.214	-0.106
-557.471	-25.036	0.379	-0.228
-556.456	-200.000	-0.012	0.220
-555.442	494.682	0.047	0.110
-554.427	539.209	0.128	-0.309
-553.412	60.370	0.143	0.143
-552.398	-138.984	0.253	0.028
-551.383	-33.328	0.376	-0.211
-550.369	34.062	-0.133	0.117
-549.354	800.000	-0.074	-0.268
-548.339	88.562	-0.057	0.064
-547.325	-15.122	-0.213	-0.138
-546.310	3.728	-0.213	-0.157
-545.296	-74.423	0.167	-0.061
-544.281	-200.000	-0.014	-0.425
-543.266	-200.000	0.031	0.173
-542.252	-138.627	-0.461	-0.051
-541.237	60.054	0.143	-0.143
-540.223	800.000	0.029	-0.111
-539.208	218.634	0.127	0.205
-538.193	-156.558	-0.253	0.016
-537.179	-125.404	0.085	-0.013
-536.164	471.805	0.087	-0.198
-535.150	-145.885	0.272	0.024
-534.135	-151.409	0.222	-0.017
-533.121	75.082	0.054	-0.058
-532.106	-22.009	0.165	0.101
-531.091	101.080	0.165	0.195
-530.077	-105.281	0.258	0.059
-529.062	222.347	-0.062	0.101
-528.048	-200.000	-0.029	-0.138
-527.033	800.000	0.085	-0.254
-526.018	800.000	-0.070	0.244
-525.004	2.907	-0.271	-0.199
-523.989	142.174	-0.165	0.222
-522.975	-0.061	0.156	0.112
-521.960	-200.000	-0.019	0.308
-520.945	-200.000	0.033	0.197
-519.931	-82.514	-0.035	0.012
-518.916	-81.008	0.254	0.085
-517.902	278.365	0.099	-0.177
-516.887	-200.000	0.028	-0.229
-515.872	166.640	-0.257	-0.368
-514.858	-109.546	-0.057	0.012
-513.843	800.000	0.061	-0.201
-512.829	309.774	0.023	0.043
-511.814	-104.920	0.322	-0.075
-510.799	42.520	-0.115	-0.105
-509.785	-74.369	-0.112	-0.041
-508.770	-86.707	-0.047	-0.015
-507.756	-34.015	-0.145	-0.081
-506.741	94.652	-0.073	-0.084
-505.726	205.809	0.090	0.141
-504.712	14.991	0.253	0.200
-503.697	403.784	0.077	-0.163
-502.683	-90.083	0.193	-0.057
-501.668	-156.733	0.202	0.013
-500.653	-43.135	-0.101	0.052
-499.639	800.000	0.030	-0.115
-498.624	-200.000	0.009	-0.463
-497.610	-200.000	0.033	-0.230
-496.595	-130.246	0.282	-0.039
-495.581	140.328	-0.192	-0.256
-494.566	-87.078	0.334	0.103
-493.551	-161.277	-0.233	-0.012
-492.537	310.531	-0.323	-0.612
-491.522	-173.150	0.198	-0.006
-490.508	-0.779	-0.182	0.130
-489.493	144.519	-0.127	0.171
-488.478	448.614	0.150	-0.334
-487.464	-200.000	0.005	0.130
-486.449	-94.794	0.127	-0.035
-485.435	-153.699	0.131	-0.009
-484.420	10.691	-0.123	-0.095
-483.405	-200.000	-0.001	0.223
-482.391	-81.637	-0.187	-0.062
-481.376	-67.196	0.081	0.032
-480.362	-200.000	0.021	-0.314
-479.347	-32.315	-0.160	-0.090
-478.332	-145.089	0.179	0.016
-477.318	-158.463	0.351	-0.021
-476.303	178.341	-0.312	0.460
-475.289	31.755	0.132	-0.115
-474.274	-92.762	-0.225	0.064
-473.259	-42.653	0.189	0.097
-472.245	29.331	-0.293	0.251
-471.230	-49.465	0.087	0.042
-470.216	-8.645	-0.272	0.184
-469.201	-49.227	-0.266	-0.128
-468.186	97.593	-0.043	0.050
-467.172	-153.571	-0.179	0.012
-466.157	156.798	0.078	0.108
-465.143	61.251	0.180	0.180
-464.128	114.025	0.109	0.133
-463.113	-165.603	-0.133	-0.006
-462.099	269.563	0.146	0.259
-461.084	165.578	-0.094	-0.134
-460.070	339.108	-0.036	-0.071
-459.055	529.702	-0.039	0.092
-458.040	-168.804	-0.292	-0.011
-457.026	299.870	-0.070	0.130
-456.011	-152.404	-0.040	0.003
-454.997	127.045	-0.108	-0.138
-453.982	79.471	0.173	-0.187
-452.968	-92.757	0.287	-0.081
-451.953	259.327	-0.121	-0.211
-450.938	26.897	0.137	0.116
-449.924	-46.261	-0.197	0.098
-448.909	-200.000	0.012	0.179
-447.895	800.000	-0.021	-0.069
-446.880	-82.708	0.157	-0.051
-445.865	-88.422	-0.151	-0.046
-444.851	-37.641	-0.186	-0.100
-443.836	701.457	0.049	0.129
-442.822	-200.000	0.013	0.079
-441.807	-200.000	0.006	-0.156
-440.792	-73.427	0.304	-0.112
-439.778	-102.916	0.161	0.039
-438.763	-200.000	0.006	-0.093
-437.749	-151.699	0.101	-0.008
-436.734	2.831	0.528	-0.386
-435.719	-72.334	-0.579	-0.216
-434.705	386.908	0.051	0.106
-433.690	-200.000	0.001	0.289
-432.676	-62.011	0.026	-0.011
-431.661	-58.969	-0.173	-0.075
-430.646	165.462	-0.117	-0.167
-429.632	380.306	-0.064	-0.133
-428.617	122.160	0.261	-0.328
-427.603	-45.651	0.156	-0.078
-426.588	60.862	-0.194	-0.194
-425.573	-200.000	0.040	-0.196
-424.559	-200.000	0.020	0.322
-423.544	8.902	0.071	-0.054
-422.530	-200.000	0.175	0.000
-421.515	565.506	0.072	0.175
-420.500	-200.000	0.020	-0.304
-419.486	132.403	0.199	-0.259
-418.471	-49.779	-0.048	-0.023
-417.457	-7.067	0.266	-0.182
-416.442	800.000	0.077	0.291
-415.428	-23.642	-0.042	0.025
-414.413	61.918	0.059	-0.059
-413.398	-66.963	0.123	0.049
-412.384	-134.704	0.164	0.020
-411.369	-81.166	-0.025	0.008
-410.355	71.389	-0.056	-0.059
-409.340	-125.309	0.040	-0.006
-408.325	-106.137	-0.099	0.022
-407.311	357.419	0.119	0.239
-406.296	-17.782	0.207	-0.131
-405.282	9.020	-0.128	0.097
-404.267	189.875	-0.102	0.154
-403.252	800.000	0.052	0.198
-402.238	-20.733	0.094	0.058
-401.223	174.544	0.093	-0.135
-400.209	-13.481	0.215	-0.140
-399.194	434.506	-0.069	-0.150
-398.179	17.079	0.136	-0.108
-397.165	-94.194	0.058	0.016
-396.150	170.872	-0.026	-0.037
-395.136	-71.585	0.025	-0.009
-394.121	-59.022	-0.332	0.144
-393.106	-20.595	0.273	-0.169
-392.092	111.283	-0.182	0.221
-391.077	-127.924	0.173	-0.025
-390.063	-129.043	0.097	0.014
-389.048	-138.682	0.168	0.018
-388.033	-92.935	-0.436	-0.122
-387.019	339.591	-0.219	-0.430
-386.004	-46.495	0.200	0.099
-384.990	22.517	-0.155	-0.128
-383.975	-25.044	0.144	0.086
-382.960	-8.663	0.224	-0.151
-381.946	-76.736	0.480	0.169
-380.931	105.066	-0.107	-0.127
-379.917	-17.306	-0.454	0.288
-378.902	-62.226	-0.255	-0.107
-377.888	-200.000	0.000	0.048
-376.873	-96.871	-0.232	0.061
-375.858	582.434	-0.028	-0.069
-374.844	-80.305	0.326	-0.110
-373.829	-151.577	0.259	0.019
-372.815	204.763	-0.106	0.166
-371.800	363.405	-0.124	-0.250
-370.785	-10.199	-0.156	0.104
-369.771	800.000	-0.029	0.117
-368.756	-105.348	0.213	0.049
-367.742	734.727	-0.110	0.297
-366.727	-103.338	-0.131	0.031
-365.712	-200.000	-0.009	-0.264
-364.698	144.635	0.181	0.243
-363.683	800.000	-0.083	-0.231
-362.669	-27.307	-0.110	0.065
-361.654	-150.109	0.263	-0.021
-360.639	-200.000	0.013	0.061
-359.625	-86.095	-0.213	-0.066
-358.610	-125.956	0.354	-0.054
-357.596	800.000	0.042	0.138
-356.581	59.693	0.220	-0.219
-355.566	57.318	-0.169	-0.166
-354.552	77.585	0.248	0.265
-353.537	-200.000	0.003	0.026
-352.523	-127.656	0.216	0.031
-351.508	-83.331	0.267	0.086
-350.493	71.939	-0.090	-0.094
-349.479	447.260	-0.036	0.079
-348.464	-72.059	0.176	-0.066
-347.450	80.850	-0.253	0.274
-346.435	418.987	-0.048	0.104
-345.420	-200.000	0.029	-0.156
-344.406	166.631	-0.040	-0.057
-343.391	47.517	-0.028	-0.026
-342.377	279.732	-0.141	0.252
-341.362	-123.154	-0.433	-0.070
-340.348	-90.835	0.455	0.132
-339.333	8.045	0.208	0.157
-338.318	-158.421	-0.362	-0.021
-337.304	800.000	-0.033	-0.101
-336.289	-115.462	-0.285	-0.054
-335.275	115.457	-0.246	-0.302
-334.260	-200.000	-0.020	0.112
-333.245	394.151	-0.056	0.118
-332.231	88.238	-0.050	-0.055
-331.216	-200.000	0.005	-0.113
-330.202	-9.828	-0.218	0.145
-329.187	-59.665	-0.009	-0.004
-328.172	-200.000	-0.004	0.029
-327.158	-200.000	0.064	0.312
-326.143	-77.655	0.327	0.114
-325.129	-200.000	0.022	-0.335
-324.114	184.043	0.086	-0.128
-323.099	311.519	0.114	-0.214
-322.085	133.645	-0.055	0.071
-321.070	-16.290	0.178	-0.114
-320.056	-128.912	0.116	0.016
-319.041	-123.941	-0.238	-0.038
-318.026	114.935	-0.163	0.200
-317.012	-144.346	-0.327	-0.030
-315.997	-25.974	0.226	0.134
-314.983	-26.888	-0.503	0.295
-313.968	-136.343	-0.169	-0.020
-312.953	-200.000	-0.057	0.286
-311.939	254.228	0.109	0.187
-310.924	68.307	-0.204	0.209
-309.910	-154.038	-0.200	-0.014
-308.895	-9.220	0.368	-0.247
-307.880	333.066	-0.109	0.212
-306.866	-110.840	-0.274	-0.057
-305.851	272.562	0.074	0.131
-304.837	800.000	-0.040	0.111
-303.822	800.000	-0.014	0.053
-302.807	-76.153	-0.329	-0.117
-301.793	402.580	0.103	-0.217
-300.778	558.715	0.149	-0.360
-299.764	559.992	-0.099	-0.239
-298.749	-68.992	0.094	-0.036
-297.735	-200.000	0.002	-0.374
-296.720	-40.935	-0.140	0.072
-295.705	-200.000	-0.031	-0.319
-294.691	-30.928	-0.195	-0.110
-293.676	11.925	0.233	0.179
-292.662	800.000	-0.071	0.304
-291.647	-170.994	-0.329	-0.011
-290.632	-74.017	0.212	0.077
-289.618	-31.286	-0.111	0.063
-288.603	101.274	0.085	0.099
-287.589	-16.259	-0.211	0.134
-286.574	-39.444	0.087	-0.046
-285.559	-110.898	0.180	0.037
-284.545	-6.541	-0.187	0.128
-283.530	-200.000	-0.002	-0.108
-282.516	800.000	-0.109	-0.383
-281.501	90.416	0.141	-0.158
-280.486	21.062	-0.236	0.192
-279.472	35.060	-0.085	0.075
-278.457	-200.000	-0.032	0.180
-277.443	-91.929	0.094	0.027
-276.428	-200.000	0.037	-0.195
-275.413	-200.000	-0.000	-0.096
-274.399	-12.308	-0.137	0.090
-273.384	-86.019	-0.247	-0.076
-272.370	-2.421	-0.300	0.211
-271.355	-58.374	0.098	0.043
-270.340	569.338	-0.028	0.067
-269.326	59.075	0.180	-0.177
-268.311	-200.000	-0.022	-0.233
-267.297	-90.651	-0.333	0.096
-266.282	123.607	0.057	0.071
-265.267	314.228	-0.080	-0.152
-264.253	-200.000	-0.006	-0.117
-263.238	-35.423	-0.251	0.136
-262.224	800.000	0.023	0.090
-261.209	482.101	0.070	0.159
-260.195	-200.000	0.005	-0.194
-259.180	-34.491	-0.373	-0.205
-258.165	372.568	-0.154	-0.313
-257.151	-115.547	-0.200	-0.038
-256.136	800.000	-0.065	-0.206
-255.122	571.410	0.127	-0.309
-254.107	167.304	0.156	-0.221
-253.092	-92.765	-0.303	-0.085
-252.078	-116.009	0.433	0.081
-251.063	-200.000	0.001	-0.259
-250.049	-31.549	-0.348	-0.196
-249.034	90.265	0.192	-0.215
-248.019	-200.000	-0.000	-0.083
-247.005	85.115	-0.137	0.151
-245.990	-200.000	-0.019	0.283
-244.976	800.000	0.061	0.237
-243.961	-116.432	-0.254	0.047
-242.946	16.360	0.079	0.062
-241.932	-200.000	-0.001	-0.299
-240.917	-96.192	-0.155	0.041
-239.903	281.898	0.095	0.170
-238.888	31.258	0.222	0.190
-237.873	-47.751	0.183	-0.089
-236.859	226.253	0.149	0.241
-235.844	7.327	0.166	-0.124
-234.830	-136.432	0.148	-0.017
-233.815	208.985	0.242	0.379
-232.800	-200.000	0.045	0.244
-231.786	-63.775	0.210	0.086
-230.771	-5.708	0.168	0.115
-229.757	800.000	0.054	0.159
-228.742	-22.500	0.070	0.042
-227.727	-71.047	0.094	-0.035
-226.713	123.935	-0.147	0.184
-225.698	-200.000	0.009	0.140
-224.684	-39.531	-0.477	0.250
-223.669	-200.000	0.045	0.293
-222.655	-60.296	0.304	-0.129
-221.640	-200.000	-0.038	0.212
-220.625	116.161	-0.155	-0.190
-219.611	282.449	0.133	0.239
-218.596	92.274	0.178	0.200
-217.582	-96.374	-0.438	-0.116
-216.567	-87.275	0.250	0.076
-215.552	800.000	-0.009	-0.031
-214.538	-200.000	-0.002	0.407
-213.523	-43.950	-0.101	-0.051
-212.509	98.288	-0.173	0.199
-211.494	534.119	0.104	0.247
-210.479	-31.005	0.474	-0.267
-209.465	738.140	0.084	-0.224
-208.450	800.000	-0.019	0.074
-207.436	800.000	0.016	0.066
-206.421	800.000	0.032	0.106
-205.406	-165.890	0.396	-0.017
-204.392	-48.984	-0.054	0.026
-203.377	800.000	0.054	0.168
-202.363	155.746	0.061	0.084
-201.348	-36.717	-0.084	0.045
-200.333	-50.273	-0.281	-0.133
-199.319	144.688	0.166	0.221
-198.304	72.400	-0.135	-0.141
-197.290	-143.455	0.253	-0.024
-196.275	-139.648	0.100	0.011
-195.260	93.872	-0.156	-0.176
-194.246	163.367	0.198	0.279
-193.231	199.637	0.083	-0.126
-192.217	106.874	-0.145	0.172
-191.202	80.247	0.102	0.110
-190.187	67.394	0.144	-0.147
-189.173	40.962	-0.198	-0.179
-188.158	-152.122	-0.265	0.019
-187.144	-109.494	0.244	0.052
-186.129	800.000	0.056	-0.196
-185.114	53.851	0.345	-0.331
-184.100	-140.156	-0.296	-0.031
-183.085	205.651	-0.070	-0.108
-182.071	-42.227	-0.167	0.085
-181.056	202.449	0.280	0.431
-180.042	-200.000	0.028	0.237
-179.027	-28.110	0.222	0.128
-178.012	-86.988	0.335	-0.102
-176.998	-85.765	0.152	-0.047
-175.983	-200.000	-0.029	-0.149
-174.969	22.874	-0.128	0.105
-173.954	178.206	-0.126	0.183
-172.939	636.583	0.008	0.020
-171.925	714.169	-0.083	0.220
-170.910	800.000	0.055	0.211
-169.896	-51.751	0.336	0.156
-168.881	-200.000	0.025	0.116
-167.866	282.076	-0.112	0.200
-166.852	-14.688	0.044	0.028
-165.837	662.225	0.121	-0.310
-164.823	-36.936	-0.376	0.201
-163.808	-14.938	-0.342	-0.219
-162.793	-121.077	-0.269	-0.045
-161.779	-200.000	0.007	0.068
-160.764	-200.000	-0.020	0.285
-159.750	86.586	-0.225	0.247
-158.735	224.303	0.107	0.172
-157.720	-200.000	0.039	-0.199
-156.706	-200.000	0.019	0.335
-155.691	-69.057	-0.329	0.126
-154.677	800.000	-0.044	0.130
-153.662	-59.335	0.172	0.074
-152.647	63.020	-0.180	0.180
-151.633	-67.305	-0.349	0.137
-150.618	-200.000	0.045	0.288
-149.604	800.000	0.027	0.094
-148.589	70.899	-0.083	-0.086
-147.574	-200.000	0.028	-0.197
-146.560	-96.684	-0.324	-0.085
-145.545	193.198	-0.060	0.090
-144.531	-200.000	0.007	0.090
-143.516	167.617	-0.270	0.383
-142.502	116.639	-0.180	0.220
-141.487	-136.355	-0.421	-0.049
-140.472	304.482	0.076	-0.141
-139.458	-68.866	-0.035	-0.013
-138.443	-56.027	-0.055	0.024
-137.429	-200.000	0.017	-0.305
-136.414	-200.000	-0.028	-0.312
-135.399	-61.601	0.196	-0.082
-134.385	-119.586	0.199	0.034
-133.370	-136.818	0.157	0.018
-132.356	-29.975	0.225	-0.128
-131.341	66.693	-0.169	-0.171
-130.326	-111.836	-0.222	0.045
-129.312	-40.426	-0.228	0.118
-128.297	-93.571	-0.040	0.011
-127.283	800.000	-0.058	-0.168
-126.268	-200.000	-0.024	0.191
-125.253	-133.542	0.298	-0.037
-124.239	-131.345	0.173	0.023
-123.224	-128.754	-0.414	0.058
-122.210	-74.791	-0.236	0.085
-121.195	63.733	0.187	0.187
