DTS Sentinel unit serial number:	SN413079Multiplexer serial number:	ORYXHardware model number:	OX4-SRSoftware version number:	ORYX F/W v4.00 Oryx Data Collector v3.7.2.0data status	okinstallation	princeton_trtdifferential loss correction	single-endedforward channel	channel 1reverse channel	N/Adate	2019/09/14time	08:46:35forward acquisition time	60.00reverse acquisition time	0.00gamma	496.2192k internal	0.2325k external	0.2325temperature offset calibration	1.0069default loss term (dB/km)	0.3790temperature slope calibration	1.0000multiplexer offset coefficient	1.0000multiplexer slope coefficient	1.0000fibre end	0.00T internal ref (°C)	29.19T ext. ref 1 (°C)	3.68T ext. ref 2 (°C)	26.92length (m)	temperature (°C)	Stokes	anti-Stokes-747.200	309.474	0.128	0.242
-746.185	-159.297	-0.254	-0.014
-745.171	-130.058	0.188	0.026
-744.156	-104.620	-0.397	0.092
-743.142	18.546	-0.096	0.077
-742.127	-200.000	-0.028	0.139
-741.112	-130.021	-0.215	0.030
-740.098	219.452	-0.203	0.328
-739.083	-200.000	0.018	-0.264
-738.069	-98.071	-0.416	0.108
-737.054	-143.720	0.094	-0.009
-736.039	-200.000	0.034	0.187
-735.025	141.949	0.112	0.150
-734.010	-111.188	-0.237	-0.049
-732.996	-45.556	-0.197	-0.098
-731.981	206.246	-0.086	0.134
-730.966	-92.409	-0.376	0.107
-729.952	276.308	-0.125	-0.224
-728.937	-45.278	-0.191	0.096
-727.923	117.134	-0.145	0.180
-726.908	-200.000	-0.012	0.060
-725.894	60.533	-0.122	0.122
-724.879	163.057	-0.082	-0.117
-723.864	62.305	0.127	-0.128
-722.850	-143.748	-0.353	-0.034
-721.835	800.000	-0.075	-0.320
-720.821	-104.810	-0.270	0.063
-719.806	-200.000	0.005	-0.186
-718.791	-183.676	0.202	-0.003
-717.777	-87.511	-0.222	0.068
-716.762	-19.924	-0.099	0.061
-715.748	-200.000	0.035	-0.181
-714.733	-200.000	-0.016	0.087
-713.718	48.868	0.171	-0.162
-712.704	777.818	-0.137	-0.377
-711.689	48.923	0.222	0.210
-710.675	-26.876	0.217	0.128
-709.660	-94.114	-0.292	0.081
-708.645	250.193	-0.095	0.162
-707.631	30.518	-0.262	0.225
-706.616	-53.037	0.224	0.104
-705.602	-66.538	0.129	-0.052
-704.587	7.944	0.142	0.107
-703.572	357.049	0.117	0.234
-702.558	-200.000	0.045	-0.235
-701.543	38.011	-0.243	-0.218
-700.529	123.207	0.100	-0.127
-699.514	-130.632	0.185	-0.025
-698.499	-200.000	0.007	0.213
-697.485	-200.000	-0.018	0.337
-696.470	9.968	-0.182	-0.139
-695.456	-48.072	-0.100	-0.049
-694.441	-60.260	-0.215	0.092
-693.426	-200.000	-0.007	0.227
-692.412	-36.151	-0.103	-0.056
-691.397	227.506	0.144	0.235
-690.383	-200.000	0.029	0.238
-689.368	48.892	-0.117	0.110
-688.354	-88.143	-0.146	-0.044
-687.339	-34.278	-0.270	0.149
-686.324	132.139	-0.123	0.160
-685.310	608.971	-0.015	-0.038
-684.295	105.124	-0.084	-0.100
-683.281	-200.000	0.029	-0.208
-682.266	800.000	-0.082	-0.311
-681.251	80.400	-0.203	-0.220
-680.237	-2.790	-0.105	-0.074
-679.222	-8.893	0.074	-0.050
-678.208	800.000	0.054	0.172
-677.193	-147.867	0.389	-0.033
-676.178	669.697	-0.028	0.074
-675.164	82.755	0.169	-0.185
-674.149	-200.000	-0.063	-0.294
-673.135	-132.435	-0.134	0.017
-672.120	-200.000	0.008	-0.045
-671.105	-27.231	0.193	0.113
-670.091	746.634	0.059	0.160
-669.076	-75.712	0.071	-0.025
-668.062	-18.585	-0.196	-0.123
-667.047	-87.119	-0.335	0.102
-666.032	662.611	0.188	-0.488
-665.018	0.235	-0.152	0.109
-664.003	-7.938	-0.101	-0.068
-662.989	-71.732	-0.220	-0.083
-661.974	-158.260	-0.069	-0.004
-660.959	19.561	-0.099	0.080
-659.945	53.509	0.066	0.064
-658.930	-24.238	-0.287	-0.172
-657.916	209.403	0.299	0.470
-656.901	800.000	0.115	0.384
-655.886	-97.162	0.250	-0.066
-654.872	-27.189	0.054	-0.031
-653.857	369.930	0.065	0.133
-652.843	-158.291	-0.303	0.018
-651.828	-8.339	0.071	-0.048
-650.814	-157.779	0.380	-0.023
-649.799	-147.614	-0.173	0.015
-648.784	800.000	-0.022	-0.089
-647.770	90.637	0.250	0.281
-646.755	-200.000	-0.079	0.434
-645.741	-7.000	-0.210	-0.143
-644.726	-4.063	-0.211	0.147
-643.711	-166.284	-0.191	0.008
-642.697	245.508	0.103	-0.174
-641.682	25.411	-0.156	0.131
-640.668	520.200	0.078	0.185
-639.653	-11.587	0.168	-0.111
-638.638	-200.000	0.044	0.243
-637.624	800.000	0.014	0.040
-636.609	69.843	-0.053	0.054
-635.595	-98.488	0.018	-0.005
-634.580	-56.169	-0.232	0.104
-633.565	80.874	-0.215	-0.233
-632.551	586.292	-0.064	0.158
-631.536	-100.055	0.318	0.080
-630.522	127.431	0.211	-0.270
-629.507	-37.599	0.068	-0.037
-628.492	-59.762	-0.114	0.049
-627.478	512.911	0.050	0.117
-626.463	-200.000	0.016	0.207
-625.449	-200.000	0.038	-0.183
-624.434	209.409	-0.106	-0.167
-623.419	-52.165	-0.184	-0.086
-622.405	800.000	0.076	-0.322
-621.390	-200.000	0.033	0.399
-620.376	91.730	-0.154	0.174
-619.361	35.745	-0.293	0.259
-618.346	-6.558	-0.055	-0.038
-617.332	225.947	0.090	-0.147
-616.317	-3.689	0.113	0.078
-615.303	-91.588	-0.056	0.016
-614.288	-122.715	-0.252	0.041
-613.273	471.552	-0.029	-0.066
-612.259	56.326	0.097	0.095
-611.244	-126.298	0.078	-0.012
-610.230	-120.238	-0.222	-0.038
-609.215	144.307	-0.057	0.077
-608.201	-200.000	0.029	-0.253
-607.186	111.486	-0.106	-0.128
-606.171	-200.000	0.004	-0.032
-605.157	-200.000	0.003	0.047
-604.142	800.000	0.070	0.200
-603.128	84.139	-0.278	-0.304
-602.113	56.229	-0.017	-0.016
-601.098	-20.451	0.120	-0.074
-600.084	800.000	-0.072	-0.240
-599.069	154.992	0.244	-0.336
-598.055	291.299	0.091	0.166
-597.040	117.912	-0.083	0.102
-596.025	397.572	-0.036	-0.076
-595.011	-6.224	0.071	0.049
-593.996	-94.373	-0.127	0.035
-592.982	435.701	-0.087	0.189
-591.967	5.389	0.118	0.088
-590.952	34.470	0.257	-0.225
-589.938	-200.000	0.020	0.443
-588.923	372.384	0.036	0.073
-587.909	353.358	0.119	-0.237
-586.894	800.000	-0.028	-0.077
-585.879	-1.438	0.159	0.113
-584.865	-200.000	0.032	0.314
-583.850	-135.836	-0.408	0.048
-582.836	110.879	0.185	0.223
-581.821	0.176	0.069	-0.049
-580.806	220.823	0.102	0.164
-579.792	-63.677	-0.314	-0.129
-578.777	732.474	-0.132	-0.354
-577.763	31.028	-0.350	-0.301
-576.748	-200.000	0.024	-0.153
-575.733	-152.635	0.222	-0.016
-574.719	-63.587	0.231	0.095
-573.704	121.616	0.060	-0.075
-572.690	66.958	0.145	0.148
-571.675	186.788	0.150	0.224
-570.661	-69.716	-0.027	0.010
-569.646	-200.000	-0.002	-0.297
-568.631	-200.000	0.018	-0.104
-567.617	-161.734	-0.103	0.005
-566.602	-112.466	0.140	0.028
-565.588	-18.010	-0.145	0.091
-564.573	-142.715	-0.349	-0.034
-563.558	-7.199	-0.155	0.106
-562.544	24.336	0.024	0.020
-561.529	-28.450	0.179	-0.103
-560.515	-200.000	-0.006	0.280
-559.500	469.401	-0.091	0.204
-558.485	-200.000	-0.026	0.241
-557.471	362.851	0.126	0.253
-556.456	139.460	0.162	0.214
-555.442	93.823	0.053	0.060
-554.427	-200.000	0.041	-0.291
-553.412	-73.004	0.125	0.046
-552.398	-3.170	0.157	-0.109
-551.383	-83.977	-0.238	0.076
-550.369	-123.713	-0.228	0.036
-549.354	176.266	0.300	0.436
-548.339	89.123	-0.250	-0.279
-547.325	224.623	-0.138	-0.224
-546.310	263.491	0.110	0.192
-545.296	-59.531	0.046	0.020
-544.281	86.535	0.122	-0.134
-543.266	455.065	0.104	0.231
-542.252	226.499	0.141	-0.230
-541.237	-200.000	0.040	-0.217
-540.223	181.778	-0.111	-0.164
-539.208	-44.457	-0.278	-0.139
-538.193	-50.841	-0.261	0.123
-537.179	7.415	0.195	0.146
-536.164	-93.849	-0.172	0.047
-535.150	623.113	0.085	-0.215
-534.135	536.532	0.053	0.127
-533.121	679.780	-0.132	0.344
-532.106	-42.716	0.129	-0.066
-531.091	-113.262	-0.067	0.013
-530.077	-200.000	-0.004	-0.071
-529.062	-66.200	0.327	-0.130
-528.048	130.798	-0.024	-0.031
-527.033	-54.082	0.310	0.141
-526.018	800.000	0.049	-0.188
-525.004	800.000	0.048	0.139
-523.989	58.317	0.153	0.150
-522.975	282.936	0.065	-0.117
-521.960	-200.000	-0.041	0.183
-520.945	68.430	-0.318	0.326
-519.931	47.412	0.148	0.138
-518.916	-168.140	-0.255	-0.010
-517.902	800.000	0.026	-0.098
-516.887	-200.000	-0.005	-0.083
-515.872	-155.135	0.185	-0.012
-514.858	-53.365	0.398	-0.182
-513.843	800.000	-0.022	-0.071
-512.829	229.510	0.134	0.219
-511.814	-200.000	0.020	0.255
-510.799	-97.767	-0.388	0.100
-509.785	-200.000	0.022	-0.104
-508.770	-160.057	0.233	0.013
-507.756	800.000	0.009	-0.030
-506.741	-22.749	-0.087	0.052
-505.726	-3.137	0.176	0.123
-504.712	81.104	-0.188	-0.203
-503.697	42.513	0.150	-0.137
-502.683	104.848	0.175	0.206
-501.668	-165.233	0.123	0.005
-500.653	800.000	-0.040	0.120
-499.639	93.392	-0.284	-0.321
-498.624	-200.000	0.018	-0.209
-497.610	-51.380	-0.197	-0.092
-496.595	-67.241	-0.287	-0.113
-495.581	-200.000	-0.012	-0.171
-494.566	-200.000	-0.019	0.461
-493.551	-163.768	-0.189	0.009
-492.537	48.825	-0.075	-0.071
-491.522	20.611	0.089	-0.072
-490.508	800.000	0.036	-0.148
-489.493	171.377	0.070	0.100
-488.478	112.910	0.158	0.191
-487.464	277.582	0.062	0.110
-486.449	398.444	0.053	-0.110
-485.435	-8.237	-0.290	-0.195
-484.420	-72.184	-0.181	0.067
-483.405	-200.000	0.000	-0.460
-482.391	800.000	0.136	-0.403
-481.376	567.525	0.117	-0.284
-480.362	-36.839	-0.102	0.054
-479.347	-200.000	0.079	-0.564
-478.332	503.496	-0.024	-0.056
-477.318	800.000	-0.049	0.146
-476.303	194.689	0.068	0.103
-475.289	-90.906	0.241	-0.069
-474.274	-200.000	0.034	-0.173
-473.259	-120.178	0.113	0.019
-472.245	477.745	0.118	0.267
-471.230	256.549	0.057	0.097
-470.216	-59.923	0.160	-0.068
-469.201	159.529	-0.113	0.157
-468.186	-73.536	-0.220	-0.080
-467.172	-200.000	-0.005	0.209
-466.157	-130.943	0.202	0.027
-465.143	-194.911	0.185	0.001
-464.128	-17.800	-0.155	0.097
-463.113	-82.194	0.140	-0.046
-462.099	722.794	-0.016	-0.044
-461.084	-93.462	0.204	0.056
-460.070	-200.000	0.021	-0.338
-459.055	265.788	-0.193	-0.335
-458.040	190.656	0.109	0.163
-457.026	336.607	-0.141	-0.274
-456.011	-125.895	0.135	0.020
-454.997	-97.578	-0.289	-0.075
-453.982	-136.580	-0.184	0.021
-452.968	-31.206	-0.169	-0.095
-451.953	324.541	-0.079	-0.150
-450.938	-46.972	0.321	-0.156
-449.924	185.871	0.235	0.349
-448.909	213.929	-0.106	-0.168
-447.895	-83.464	0.034	0.011
-446.880	12.544	0.236	0.181
-445.865	-70.658	0.081	0.031
-444.851	-139.202	0.154	-0.017
-443.836	-57.253	-0.353	-0.155
-442.822	-200.000	-0.040	-0.250
-441.807	593.734	-0.051	-0.126
-440.792	-47.250	0.275	0.134
-439.778	-4.827	-0.267	-0.183
-438.763	-200.000	0.012	-0.333
-437.749	800.000	0.097	-0.420
-436.734	-13.916	0.177	0.114
-435.719	-200.000	0.058	-0.270
-434.705	-55.367	0.095	0.042
-433.690	97.790	-0.043	-0.049
-432.676	185.153	0.205	-0.303
-431.661	-27.959	0.202	-0.116
-430.646	-200.000	0.000	0.391
-429.632	-31.432	0.011	0.006
-428.617	800.000	-0.088	0.260
-427.603	154.890	0.083	-0.113
-426.588	-76.394	-0.247	0.087
-425.573	88.949	0.139	0.154
-424.559	84.485	-0.025	0.027
-423.544	228.774	0.032	0.052
-422.530	483.123	-0.132	-0.300
-421.515	-200.000	-0.002	-0.031
-420.500	614.956	-0.069	-0.171
-419.486	800.000	-0.013	0.055
-418.471	-127.939	-0.369	-0.053
-417.457	579.503	-0.064	-0.155
-416.442	-22.787	0.219	0.132
-415.428	131.026	-0.166	-0.212
-414.413	70.404	0.163	0.168
-413.398	-200.000	-0.009	0.309
-412.384	-89.219	0.225	-0.066
-411.369	-103.303	-0.196	0.046
-410.355	-99.124	-0.325	0.082
-409.340	-6.956	-0.199	-0.135
-408.325	-159.960	-0.211	-0.012
-407.311	-66.926	-0.060	-0.024
-406.296	-77.612	-0.231	-0.080
-405.282	800.000	-0.014	-0.044
-404.267	58.340	-0.158	-0.154
-403.252	-56.892	0.206	0.090
-402.238	-53.493	0.280	-0.128
-401.223	139.309	0.158	-0.206
-400.209	10.380	0.090	-0.068
-399.194	-106.135	-0.305	-0.068
-398.179	72.741	0.150	-0.155
-397.165	800.000	0.073	0.213
-396.150	647.548	0.130	0.330
-395.136	-50.664	0.161	0.076
-394.121	148.662	-0.027	0.036
-393.106	255.431	-0.126	-0.215
-392.092	-200.000	-0.034	0.231
-391.077	-110.491	-0.159	0.033
-390.063	-102.343	0.223	0.053
-389.048	-200.000	-0.066	0.345
-388.033	-84.114	0.165	0.052
-387.019	800.000	-0.060	0.182
-386.004	51.806	-0.215	0.203
-384.990	800.000	0.021	0.083
-383.975	800.000	-0.082	-0.280
-382.960	397.493	0.031	0.064
-381.946	800.000	-0.027	0.114
-380.931	16.398	-0.056	0.044
-379.917	-28.018	-0.078	0.045
-378.902	-200.000	-0.061	-0.560
-377.888	28.619	0.108	-0.091
-376.873	84.144	-0.093	-0.101
-375.858	-107.764	-0.502	-0.109
-374.844	44.540	0.254	-0.233
-373.829	-200.000	-0.007	0.064
-372.815	87.515	0.144	-0.158
-371.800	-46.447	-0.124	-0.060
-370.785	-175.998	0.283	0.007
-369.771	-200.000	0.056	0.281
-368.756	526.493	-0.082	-0.191
-367.742	-130.255	0.192	0.026
-366.727	-200.000	0.002	-0.239
-365.712	-15.519	0.084	-0.053
-364.698	-27.064	0.316	-0.183
-363.683	-200.000	0.020	-0.425
-362.669	-156.095	0.070	-0.004
-361.654	795.964	0.131	0.359
-360.639	73.725	0.189	0.197
-359.625	800.000	0.060	0.251
-358.610	89.754	0.119	-0.132
-357.596	-92.312	-0.083	-0.023
-356.581	-200.000	-0.045	-0.327
-355.566	-162.213	0.190	0.009
-354.552	-34.579	0.100	0.054
-353.537	116.382	-0.235	0.287
-352.523	-95.965	-0.406	-0.108
-351.508	-24.987	0.139	-0.082
-350.493	-69.991	-0.343	0.130
-349.479	800.000	-0.033	-0.107
-348.464	-74.859	0.325	0.116
-347.450	1.951	-0.094	-0.067
-346.435	-200.000	0.009	-0.162
-345.420	488.564	-0.022	-0.049
-344.406	-64.572	0.349	-0.141
-343.391	800.000	0.041	0.124
-342.377	14.014	-0.332	-0.256
-341.362	-200.000	-0.006	-0.276
-340.348	-200.000	0.015	0.095
-339.333	-92.839	-0.335	0.093
-338.318	800.000	-0.050	-0.162
-337.304	64.334	-0.236	0.236
-336.289	800.000	-0.100	0.420
-335.275	-74.951	0.099	-0.035
-334.260	131.722	0.110	-0.140
-333.245	64.985	-0.157	-0.158
-332.231	-55.085	0.189	-0.084
-331.216	-200.000	0.018	0.626
-330.202	7.429	0.176	-0.131
-329.187	615.778	0.050	0.124
-328.172	-120.328	-0.172	0.029
-327.158	137.636	0.212	-0.275
-326.143	-200.000	0.022	-0.149
-325.129	-93.349	-0.084	-0.023
-324.114	127.884	-0.103	0.129
-323.099	208.192	0.080	0.125
-322.085	-94.142	0.391	0.106
-321.070	-151.050	0.353	0.026
-320.056	-79.278	-0.027	-0.009
-319.041	3.958	-0.149	-0.108
-318.026	94.995	0.055	-0.063
-317.012	800.000	-0.027	-0.078
-315.997	800.000	0.059	0.164
-314.983	-85.905	-0.312	-0.096
-313.968	-200.000	-0.020	0.146
-312.953	-86.936	0.183	0.055
-311.939	-114.442	-0.017	0.003
-310.924	11.821	-0.139	0.106
-309.910	-200.000	-0.013	0.136
-308.895	-113.112	-0.319	0.062
-307.880	221.405	0.101	0.162
-306.866	-144.431	-0.224	-0.021
-305.851	-46.420	-0.126	-0.061
-304.837	-54.713	0.185	-0.083
-303.822	-98.252	0.307	0.078
-302.807	800.000	0.060	-0.175
-301.793	-11.480	0.106	0.069
-300.778	800.000	0.073	0.247
-299.764	-106.527	-0.067	0.015
-298.749	800.000	0.079	0.308
-297.735	225.768	0.202	-0.325
-296.720	131.640	0.104	0.132
-295.705	800.000	0.020	0.072
-294.691	-85.215	-0.112	-0.035
-293.676	212.388	0.180	-0.281
-292.662	-200.000	0.027	0.219
-291.647	-21.144	0.271	-0.164
-290.632	-200.000	-0.018	0.111
-289.618	-81.455	-0.065	-0.021
-288.603	-44.365	0.272	-0.135
-287.589	-44.424	0.055	-0.027
-286.574	177.489	0.094	-0.135
-285.559	200.282	-0.083	-0.126
-284.545	35.043	-0.323	-0.280
-283.530	-164.944	-0.274	-0.012
-282.516	800.000	0.053	0.182
-281.501	-200.000	-0.016	0.145
-280.486	-99.078	0.077	0.019
-279.472	-169.994	-0.209	-0.007
-278.457	-55.917	0.164	-0.072
-277.443	-200.000	-0.016	0.249
-276.428	139.923	-0.131	-0.171
-275.413	-126.305	0.125	-0.019
-274.399	-65.053	0.314	0.125
-273.384	800.000	-0.114	-0.398
-272.370	-130.228	-0.112	0.015
-271.355	-99.714	0.368	-0.091
-270.340	172.800	-0.134	-0.191
-269.326	-200.000	0.023	-0.115
-268.311	-97.837	-0.138	-0.035
-267.297	-90.205	-0.186	-0.054
-266.282	475.215	0.086	0.193
-265.267	-8.374	0.232	-0.155
-264.253	-88.066	-0.143	-0.042
-263.238	-171.829	-0.263	0.009
-262.224	14.110	0.182	-0.140
-261.209	800.000	-0.018	0.075
-260.195	-127.481	-0.140	0.020
-259.180	64.768	0.261	0.261
-258.165	-200.000	0.011	0.149
-257.151	800.000	-0.051	0.201
-256.136	-83.628	0.293	-0.093
-255.122	800.000	0.062	-0.207
-254.107	430.743	0.025	-0.053
-253.092	45.026	-0.099	-0.090
-252.078	-138.641	0.220	-0.024
-251.063	130.982	-0.162	0.205
-250.049	-72.878	-0.230	0.084
-249.034	-155.318	0.301	0.019
-248.019	54.863	-0.162	0.155
-247.005	-48.089	0.230	-0.110
-245.990	262.772	-0.220	0.378
-244.976	-200.000	0.028	0.222
-243.961	-186.665	0.228	-0.003
-242.946	-90.238	0.401	0.115
-241.932	40.745	0.346	0.309
-240.917	-54.173	-0.215	-0.097
-239.903	-96.371	0.307	0.080
-238.888	-154.666	-0.051	-0.003
-237.873	211.534	-0.041	0.064
-236.859	-200.000	-0.021	-0.336
-235.844	-80.601	-0.405	0.133
-234.830	-200.000	0.026	-0.279
-233.815	27.353	-0.107	0.089
-232.800	-156.118	-0.270	0.017
-231.786	377.888	0.128	-0.259
-230.771	-150.102	-0.182	0.014
-229.757	-200.000	0.002	-0.030
-228.742	-200.000	-0.049	0.233
-227.727	195.852	-0.077	-0.116
-226.713	109.367	-0.106	0.126
-225.698	-200.000	-0.001	0.169
-224.684	-200.000	-0.032	0.188
-223.669	104.640	0.141	-0.164
-222.655	800.000	-0.069	0.287
-221.640	109.336	0.124	0.147
-220.625	-56.477	0.089	0.039
-219.611	-200.000	-0.052	0.277
-218.596	-200.000	-0.056	0.252
-217.582	-110.842	-0.151	0.031
-216.567	-103.352	0.079	0.018
-215.552	-102.851	0.029	-0.007
-214.538	-114.933	-0.125	-0.023
-213.523	-25.479	-0.226	-0.132
-212.509	-62.745	-0.257	-0.105
-211.494	800.000	0.028	-0.116
-210.479	-53.014	0.174	-0.079
-209.465	-200.000	0.001	-0.080
-208.450	-36.775	0.210	0.111
-207.436	-82.983	0.224	-0.071
-206.421	24.175	-0.257	0.209
-205.406	3.979	0.159	0.115
-204.392	126.761	-0.080	-0.100
-203.377	191.299	-0.129	0.191
-202.363	800.000	0.112	-0.322
-201.348	87.330	-0.254	-0.277
-200.333	800.000	-0.053	-0.222
-199.319	20.422	-0.178	0.142
-198.304	356.758	0.129	0.253
-197.290	376.879	-0.101	0.203
-196.275	-200.000	0.001	-0.006
-195.260	800.000	0.069	-0.261
-194.246	-67.538	-0.142	0.055
-193.231	115.392	-0.076	0.091
-192.217	-139.359	0.226	0.024
-191.202	139.836	-0.048	-0.062
-190.187	-148.701	-0.169	0.014
-189.173	-200.000	-0.003	-0.182
-188.158	-82.634	-0.297	-0.095
-187.144	17.422	0.168	-0.132
-186.129	72.731	0.216	0.222
-185.114	692.216	0.074	0.192
-184.100	-33.423	-0.175	0.096
-183.085	66.607	-0.229	-0.230
-182.071	-77.749	-0.243	-0.083
-181.056	-116.558	0.074	-0.013
-180.042	-97.088	-0.135	0.035
-179.027	-200.000	0.068	0.397
-178.012	-64.161	-0.114	0.046
-176.998	-4.901	0.111	-0.075
-175.983	-173.469	-0.218	-0.006
-174.969	15.769	-0.316	0.245
-173.954	-200.000	0.035	0.220
-172.939	113.849	0.189	0.227
-171.925	89.491	-0.077	-0.085
-170.910	173.837	0.027	-0.038
-169.896	-4.613	-0.181	0.124
-168.881	59.284	0.238	0.231
-167.866	-200.000	0.001	0.436
-166.852	589.796	0.028	0.068
-165.837	-119.209	0.431	-0.074
-164.823	360.504	-0.105	-0.208
-163.808	800.000	-0.107	-0.386
-162.793	-200.000	-0.021	0.176
-161.779	27.483	0.282	-0.234
-160.764	20.804	-0.154	-0.123
-159.750	-200.000	0.022	0.229
-158.735	-119.011	-0.322	-0.056
-157.720	681.761	-0.034	0.087
-156.706	533.170	-0.129	0.301
-155.691	-130.560	0.257	0.034
-154.677	118.963	0.120	-0.147
-153.662	-200.000	0.001	-0.137
-152.647	800.000	-0.157	-0.500
-151.633	-200.000	0.000	0.155
-150.618	-56.254	-0.225	0.098
-149.604	131.818	-0.096	0.122
-148.589	7.205	-0.084	0.062
-147.574	-74.548	0.095	0.034
-146.560	-61.010	0.290	0.121
-145.545	49.698	0.236	-0.219
-144.531	-200.000	0.048	0.213
-143.516	382.693	0.128	0.259
-142.502	230.084	-0.101	-0.162
-141.487	414.277	-0.097	-0.203
-140.472	254.180	0.060	0.102
-139.458	75.749	0.128	-0.133
-138.443	41.565	0.085	0.076
-137.429	485.147	-0.169	0.379
-136.414	-135.471	-0.116	0.014
-135.399	153.827	0.095	0.128
-134.385	800.000	0.042	0.131
-133.370	-139.704	-0.076	0.008
-132.356	-200.000	-0.011	0.308
-131.341	-134.013	0.229	-0.028
-130.326	-11.339	-0.301	0.195
-129.312	-200.000	-0.067	0.296
-128.297	-5.892	-0.041	-0.027
-127.283	-24.534	0.073	-0.043
-126.268	-110.631	0.312	0.064
-125.253	800.000	-0.069	0.268
-124.239	-133.773	-0.272	-0.033
-123.224	-200.000	0.000	-0.075
-122.210	-129.472	-0.204	0.028
-121.195	-22.652	0.042	0.025
-120.180	758.077	0.039	-0.103
