DTS Sentinel unit serial number:	SN413079Multiplexer serial number:	ORYXHardware model number:	OX4-SRSoftware version number:	ORYX F/W v4.00 Oryx Data Collector v3.7.2.0data status	okinstallation	princeton_trtdifferential loss correction	single-endedforward channel	channel 1reverse channel	N/Adate	2019/09/13time	11:26:35forward acquisition time	60.00reverse acquisition time	0.00gamma	496.2192k internal	0.2315k external	0.2315temperature offset calibration	1.0145default loss term (dB/km)	0.3790temperature slope calibration	1.0000multiplexer offset coefficient	1.0000multiplexer slope coefficient	1.0000fibre end	0.00T internal ref (°C)	32.62T ext. ref 1 (°C)	4.36T ext. ref 2 (°C)	29.92length (m)	temperature (°C)	Stokes	anti-Stokes-747.200	-68.082	0.029	0.012
-746.185	55.356	-0.440	0.431
-745.171	130.933	0.150	-0.195
-744.156	92.548	-0.133	0.152
-743.142	-68.884	0.185	-0.072
-742.127	-200.000	-0.019	0.180
-741.112	491.472	0.166	0.384
-740.098	-7.474	0.243	0.167
-739.083	-200.000	-0.006	0.164
-738.069	101.660	0.048	0.057
-737.054	157.854	-0.036	0.051
-736.039	-200.000	-0.029	-0.211
-735.025	654.561	0.065	0.169
-734.010	349.151	0.163	0.326
-732.996	456.970	0.074	0.166
-731.981	-200.000	0.001	0.110
-730.966	16.512	0.142	-0.114
-729.952	733.364	-0.079	-0.215
-728.937	191.652	-0.164	-0.250
-727.923	-35.426	-0.295	-0.162
-726.908	-176.787	0.160	-0.004
-725.894	800.000	0.028	-0.093
-724.879	17.333	-0.140	-0.113
-723.864	800.000	0.073	0.239
-722.850	-106.270	-0.263	-0.060
-721.835	386.672	0.243	0.508
-720.821	-95.612	0.321	0.087
-719.806	-116.623	-0.197	0.037
-718.791	293.401	-0.253	-0.467
-717.777	-58.380	-0.187	-0.082
-716.762	-152.333	0.170	-0.012
-715.748	65.749	0.373	0.383
-714.733	800.000	0.068	-0.276
-713.718	-48.087	-0.205	0.100
-712.704	538.600	-0.142	-0.342
-711.689	-92.305	-0.241	-0.069
-710.675	-7.471	-0.047	-0.032
-709.660	48.803	0.148	0.140
-708.645	63.284	0.090	-0.091
-707.631	85.970	0.033	0.037
-706.616	-198.410	0.046	-0.000
-705.602	716.145	0.125	-0.335
-704.587	-200.000	0.043	-0.235
-703.572	-99.006	0.186	-0.048
-702.558	-200.000	-0.021	0.145
-701.543	800.000	0.023	0.082
-700.529	104.091	0.250	0.297
-699.514	230.090	0.187	-0.309
-698.499	83.735	-0.063	0.070
-697.485	192.466	-0.083	0.127
-696.470	-106.662	0.178	0.040
-695.456	339.519	0.076	0.150
-694.441	-200.000	-0.000	0.071
-693.426	-60.139	-0.151	0.065
-692.412	-90.420	0.154	0.045
-691.397	-178.587	0.174	-0.004
-690.383	800.000	-0.065	-0.181
-689.368	-18.215	-0.206	-0.130
-688.354	196.521	-0.206	-0.317
-687.339	800.000	0.146	-0.416
-686.324	34.571	-0.170	-0.151
-685.310	77.192	0.065	0.070
-684.295	-116.987	-0.164	0.030
-683.281	-20.550	-0.146	0.091
-682.266	-120.794	-0.463	-0.079
-681.251	37.602	0.178	0.160
-680.237	-200.000	0.026	-0.244
-679.222	1.245	0.075	0.054
-678.208	-66.896	-0.138	0.055
-677.193	144.002	-0.152	-0.205
-676.178	508.988	0.186	-0.436
-675.164	7.355	-0.281	-0.212
-674.149	114.707	0.307	-0.378
-673.135	-200.000	-0.001	0.027
-672.120	29.926	0.189	-0.163
-671.105	-36.509	-0.223	0.121
-670.091	667.475	0.076	0.199
-669.076	-200.000	-0.061	-0.271
-668.062	17.537	-0.208	-0.167
-667.047	-49.943	0.210	0.101
-666.032	-120.791	0.043	-0.007
-665.018	-85.913	-0.143	-0.045
-664.003	800.000	0.067	-0.274
-662.989	-147.436	0.300	0.026
-661.974	485.735	-0.050	-0.115
-660.959	-115.988	-0.397	0.075
-659.945	-66.610	-0.134	-0.054
-658.930	-200.000	0.007	0.130
-657.916	-139.251	0.140	-0.015
-656.901	122.967	-0.217	0.275
-655.886	327.574	-0.198	-0.384
-654.872	-200.000	-0.018	-0.183
-653.857	-136.052	0.283	0.034
-652.843	41.659	-0.154	-0.141
-651.828	-115.472	-0.213	0.041
-650.814	-37.491	-0.095	0.051
-649.799	34.152	0.081	-0.071
-648.784	-65.672	-0.279	-0.113
-647.770	574.562	-0.029	0.071
-646.755	-99.696	0.128	0.032
-645.741	-21.380	-0.168	-0.104
-644.726	94.162	-0.313	0.359
-643.711	129.083	-0.057	0.073
-642.697	-118.339	-0.159	0.029
-641.682	34.404	0.197	-0.174
-640.668	275.774	-0.141	-0.252
-639.653	-200.000	-0.015	-0.500
-638.638	800.000	-0.060	-0.187
-637.624	-108.718	0.376	-0.081
-636.609	153.539	0.093	0.129
-635.595	-200.000	-0.014	-0.100
-634.580	800.000	-0.029	-0.116
-633.565	375.108	-0.154	0.317
-632.551	106.042	0.274	0.327
-631.536	800.000	-0.123	-0.374
-630.522	-73.778	0.267	0.098
-629.507	73.183	0.149	0.157
-628.492	111.229	0.148	0.180
-627.478	-107.108	-0.049	0.011
-626.463	-200.000	0.007	-0.267
-625.449	-48.474	-0.263	-0.128
-624.434	-124.334	0.284	-0.045
-623.419	10.998	0.195	-0.150
-622.405	-184.992	0.124	-0.002
-621.390	14.339	-0.063	-0.050
-620.376	-35.560	0.233	-0.127
-619.361	161.010	0.138	-0.195
-618.346	43.932	-0.236	0.218
-617.332	-107.605	-0.327	-0.072
-616.317	-22.786	-0.133	0.081
-615.303	-200.000	-0.002	0.166
-614.288	800.000	0.094	-0.340
-613.273	-17.109	-0.241	-0.154
-612.259	80.808	-0.190	0.207
-611.244	80.098	0.101	0.109
-610.230	12.695	0.401	-0.312
-609.215	173.186	0.293	-0.425
-608.201	634.099	0.023	0.060
-607.186	434.725	-0.076	0.166
-606.171	-200.000	0.022	0.142
-605.157	165.582	0.066	-0.094
-604.142	-0.947	-0.227	-0.162
-603.128	580.146	-0.130	-0.320
-602.113	-97.189	-0.459	0.121
-601.098	-67.162	-0.146	-0.058
-600.084	-46.578	0.307	-0.152
-599.069	-187.105	0.453	0.006
-598.055	-105.154	-0.140	0.032
-597.040	371.778	-0.055	-0.113
-596.025	800.000	0.040	-0.126
-595.011	281.467	-0.265	-0.479
-593.996	-86.795	0.049	-0.015
-592.982	-200.000	0.004	-0.028
-591.967	-154.272	-0.286	0.019
-590.952	-104.842	-0.151	-0.035
-589.938	-94.447	0.148	0.041
-588.923	-200.000	0.050	-0.268
-587.909	-116.670	-0.095	-0.018
-586.894	800.000	-0.022	-0.071
-585.879	50.153	0.044	0.041
-584.865	800.000	-0.032	0.104
-583.850	-200.000	0.023	0.185
-582.836	-62.588	0.113	-0.047
-581.821	800.000	-0.092	0.283
-580.806	-1.830	0.156	0.110
-579.792	-156.571	0.124	-0.008
-578.777	-103.651	-0.524	0.124
-577.763	-200.000	-0.010	-0.224
-576.748	-40.027	-0.389	-0.204
-575.733	326.071	0.137	0.265
-574.719	-29.515	-0.288	0.166
-573.704	-200.000	0.030	0.359
-572.690	-79.637	-0.156	-0.053
-571.675	-9.305	-0.309	-0.208
-570.661	6.093	0.136	-0.102
-569.646	-45.356	0.395	0.197
-568.631	288.254	0.070	0.127
-567.617	16.292	0.050	0.040
-566.602	96.113	-0.142	-0.163
-565.588	800.000	-0.085	0.297
-564.573	190.877	0.209	0.316
-563.558	-132.637	0.239	0.031
-562.544	248.517	-0.158	-0.269
-561.529	800.000	-0.118	0.343
-560.515	-7.636	0.178	0.121
-559.500	214.463	-0.111	-0.176
-558.485	570.473	0.004	0.010
-557.471	-183.998	-0.337	-0.006
-556.456	-91.637	0.274	0.079
-555.442	800.000	0.026	0.113
-554.427	0.957	-0.194	-0.140
-553.412	-117.014	-0.469	0.086
-552.398	-23.185	-0.313	-0.190
-551.383	38.373	0.392	-0.351
-550.369	231.021	0.128	0.212
-549.354	800.000	-0.028	0.125
-548.339	-138.180	-0.323	-0.036
-547.325	-112.793	-0.086	0.017
-546.310	399.354	0.147	-0.310
-545.296	250.930	-0.121	-0.206
-544.281	491.067	0.017	-0.039
-543.266	156.351	0.042	-0.058
-542.252	-200.000	0.006	-0.072
-541.237	86.981	-0.048	-0.053
-540.223	-91.826	-0.449	0.128
-539.208	277.382	0.095	-0.169
-538.193	273.179	-0.045	-0.080
-537.179	40.572	0.092	0.083
-536.164	438.162	0.078	-0.172
-535.150	182.520	-0.166	0.246
-534.135	-35.691	0.150	0.081
-533.121	251.412	0.145	-0.248
-532.106	-85.455	0.377	-0.118
-531.091	-101.916	-0.154	0.037
-530.077	170.478	-0.195	-0.281
-529.062	70.823	0.118	-0.123
-528.048	-200.000	0.055	-0.247
-527.033	129.387	0.111	-0.142
-526.018	356.507	0.093	0.187
-525.004	-20.128	0.285	0.177
-523.989	-133.499	-0.177	0.022
-522.975	105.606	0.113	0.134
-521.960	-92.509	-0.282	-0.080
-520.945	55.776	0.217	0.211
-519.931	-47.404	0.394	0.192
-518.916	800.000	0.093	-0.353
-517.902	-129.753	0.256	0.035
-516.887	-200.000	0.016	0.098
-515.872	-200.000	-0.029	0.149
-514.858	145.346	-0.123	-0.165
-513.843	-18.713	0.054	0.034
-512.829	63.553	0.142	0.143
-511.814	-200.000	-0.016	0.090
-510.799	-200.000	-0.034	-0.221
-509.785	-200.000	0.028	-0.198
-508.770	-183.982	-0.531	-0.009
-507.756	678.068	0.168	-0.438
-506.741	-91.238	0.184	0.053
-505.726	532.515	0.119	-0.284
-504.712	32.188	-0.275	-0.238
-503.697	-120.809	-0.073	-0.012
-502.683	-99.822	0.377	0.095
-501.668	-21.182	-0.122	0.075
-500.653	-200.000	0.022	0.167
-499.639	800.000	-0.042	0.134
-498.624	6.669	-0.250	-0.186
-497.610	-115.388	0.058	0.011
-496.595	-200.000	-0.051	0.249
-495.581	130.101	0.192	0.247
-494.566	166.071	-0.284	-0.404
-493.551	-200.000	-0.035	-0.191
-492.537	11.679	-0.240	0.185
-491.522	214.894	-0.086	-0.137
-490.508	135.897	0.008	0.011
-489.493	-81.045	-0.142	-0.047
-488.478	-200.000	-0.042	-0.420
-487.464	-13.935	0.274	-0.177
-486.449	-110.141	0.127	-0.027
-485.435	-28.303	-0.046	-0.026
-484.420	-200.000	0.437	-0.000
-483.405	456.844	-0.041	-0.091
-482.391	94.877	0.160	-0.182
-481.376	447.672	0.070	-0.156
-480.362	-200.000	0.024	0.242
-479.347	-200.000	-0.001	0.013
-478.332	513.550	0.025	-0.058
-477.318	-101.283	-0.013	-0.003
-476.303	-56.236	-0.120	-0.053
-475.289	-200.000	0.028	0.204
-474.274	-67.648	0.228	0.090
-473.259	-18.596	-0.153	-0.096
-472.245	-11.085	0.144	-0.095
-471.230	-147.868	-0.198	-0.017
-470.216	642.648	0.021	0.054
-469.201	-200.000	-0.004	0.067
-468.186	-35.983	-0.181	0.098
-467.172	24.178	0.157	0.130
-466.157	397.097	-0.071	-0.150
-465.143	-200.000	-0.038	0.237
-464.128	800.000	-0.089	-0.317
-463.113	-44.898	-0.063	0.031
-462.099	97.141	-0.180	0.207
-461.084	116.281	0.291	-0.358
-460.070	-104.724	0.158	0.036
-459.055	48.238	0.397	-0.372
-458.040	800.000	-0.043	0.149
-457.026	278.355	0.265	0.474
-456.011	111.021	-0.071	-0.085
-454.997	-19.203	-0.323	0.201
-453.982	18.778	0.266	0.213
-452.968	800.000	0.124	-0.361
-451.953	-114.737	-0.130	-0.025
-450.938	-76.608	-0.219	-0.077
-449.924	-40.411	0.124	-0.065
-448.909	-147.958	-0.190	-0.016
-447.895	95.307	-0.144	0.164
-446.880	-126.001	-0.070	0.011
-445.865	52.913	0.173	-0.166
-444.851	-154.895	0.223	0.015
-443.836	1.106	-0.269	-0.193
-442.822	800.000	-0.080	-0.350
-441.807	380.436	-0.140	-0.288
-440.792	87.279	-0.266	0.294
-439.778	800.000	0.116	-0.469
-438.763	-200.000	0.018	-0.150
-437.749	22.742	0.153	-0.126
-436.734	10.309	-0.156	0.119
-435.719	800.000	0.033	-0.098
-434.705	136.034	0.128	-0.168
-433.690	27.808	-0.168	-0.142
-432.676	-8.325	-0.194	0.131
-431.661	-90.654	-0.191	0.055
-430.646	800.000	0.127	0.362
-429.632	-107.290	-0.279	-0.061
-428.617	85.775	0.320	-0.352
-427.603	800.000	-0.050	0.198
-426.588	466.268	-0.120	0.269
-425.573	-108.698	0.352	0.075
-424.559	66.579	0.077	0.078
-423.544	75.705	-0.181	0.191
-422.530	13.752	0.036	-0.028
-421.515	474.243	-0.030	-0.067
-420.500	-116.054	-0.334	0.062
-419.486	-83.650	-0.273	0.087
-418.471	-200.000	-0.037	0.251
-417.457	-57.849	0.249	0.109
-416.442	59.415	-0.263	-0.260
-415.428	-200.000	0.048	0.321
-414.413	55.705	-0.090	0.088
-413.398	-72.470	0.182	0.067
-412.384	-159.814	0.145	-0.008
-411.369	137.387	0.219	0.286
-410.355	177.066	-0.186	0.271
-409.340	24.452	0.064	-0.053
-408.325	800.000	0.021	0.088
-407.311	-200.000	-0.025	0.147
-406.296	42.570	0.244	0.222
-405.282	-200.000	0.021	-0.223
-404.267	-68.711	-0.034	-0.013
-403.252	332.726	0.199	-0.385
-402.238	275.886	0.087	0.155
-401.223	280.023	0.172	0.307
-400.209	176.215	-0.056	0.082
-399.194	-48.493	-0.308	0.148
-398.179	28.856	-0.055	0.047
-397.165	-200.000	-0.043	-0.232
-396.150	398.611	-0.042	-0.087
-395.136	800.000	-0.081	-0.244
-394.121	308.085	0.193	0.360
-393.106	800.000	-0.100	0.279
-392.092	-173.989	-0.216	-0.006
-391.077	308.938	-0.078	0.146
-390.063	133.500	-0.164	-0.212
-389.048	154.379	-0.093	0.127
-388.033	-26.537	-0.089	0.052
-387.019	5.836	0.194	0.143
-386.004	719.360	0.053	0.139
-384.990	25.177	0.116	-0.096
-383.975	21.011	0.115	0.093
-382.960	304.646	0.123	-0.227
-381.946	-62.517	-0.026	-0.011
-380.931	40.252	0.192	-0.172
-379.917	553.128	0.114	0.273
-378.902	659.961	-0.023	0.059
-377.888	70.997	0.075	-0.078
-376.873	102.373	-0.146	-0.170
-375.858	-51.054	-0.122	0.057
-374.844	76.432	0.037	0.039
-373.829	-63.504	-0.063	-0.026
-372.815	34.509	-0.049	-0.043
-371.800	54.176	-0.133	-0.128
-370.785	-91.590	-0.255	-0.073
-369.771	-121.798	-0.367	0.061
-368.756	133.467	0.113	-0.145
-367.742	-104.493	0.521	0.120
-366.727	-200.000	-0.021	0.201
-365.712	323.277	0.048	0.091
-364.698	177.560	-0.057	0.083
-363.683	-9.747	-0.239	-0.159
-362.669	-76.219	0.198	0.070
-361.654	268.489	0.127	0.222
-360.639	800.000	-0.041	-0.143
-359.625	94.606	0.108	-0.122
-358.610	-27.697	-0.094	-0.055
-357.596	-200.000	-0.012	-0.200
-356.581	116.527	-0.178	-0.218
-355.566	-200.000	-0.032	-0.174
-354.552	34.728	0.132	0.115
-353.537	-200.000	0.019	0.130
-352.523	-41.042	-0.132	-0.068
-351.508	-200.000	-0.011	-0.131
-350.493	-97.987	0.107	-0.027
-349.479	13.622	-0.235	-0.182
-348.464	-200.000	-0.031	-0.217
-347.450	258.602	0.070	-0.121
-346.435	11.985	0.147	-0.113
-345.420	49.275	0.119	0.112
-344.406	499.863	-0.073	-0.169
-343.391	117.233	-0.049	-0.060
-342.377	-152.236	-0.103	-0.007
-341.362	-200.000	-0.001	0.077
-340.348	-112.170	-0.149	0.030
-339.333	-200.000	0.046	0.204
-338.318	800.000	-0.052	-0.153
-337.304	-200.000	0.017	0.133
-336.289	800.000	-0.095	0.293
-335.275	160.421	-0.124	-0.172
-334.260	-105.009	0.136	0.031
-333.245	800.000	-0.050	0.163
-332.231	-26.333	0.267	0.156
-331.216	-94.594	-0.247	0.067
-330.202	800.000	-0.051	-0.204
-329.187	580.094	-0.089	0.217
-328.172	43.576	0.211	0.192
-327.158	242.174	0.159	-0.264
-326.143	69.592	0.180	0.185
-325.129	15.858	-0.220	-0.172
-324.114	800.000	-0.023	0.081
-323.099	-73.560	0.055	-0.020
-322.085	123.113	-0.024	-0.029
-321.070	464.657	-0.167	0.372
-320.056	310.808	0.179	0.334
-319.041	640.274	-0.154	0.391
-318.026	-51.250	-0.109	-0.051
-317.012	35.580	-0.139	0.121
-315.997	691.859	0.110	0.287
-314.983	-43.832	0.162	0.081
-313.968	-200.000	-0.031	0.199
-312.953	-51.843	-0.138	-0.064
-311.939	-79.752	0.113	0.038
-310.924	167.508	-0.230	0.326
-309.910	-200.000	0.020	-0.288
-308.895	-150.310	0.285	-0.022
-307.880	363.910	-0.053	0.107
-306.866	261.991	-0.124	-0.214
-305.851	214.282	0.062	-0.097
-304.837	-200.000	0.043	0.307
-303.822	800.000	0.075	-0.211
-302.807	154.292	0.131	0.179
-301.793	800.000	0.063	-0.229
-300.778	-200.000	-0.002	0.259
-299.764	-114.657	0.239	-0.046
-298.749	17.773	-0.103	0.081
-297.735	117.852	0.136	-0.167
-296.720	6.847	-0.243	-0.180
-295.705	230.885	-0.072	-0.117
-294.691	20.792	0.338	-0.273
-293.676	-200.000	0.035	0.218
-292.662	-41.665	-0.193	-0.099
-291.647	-137.654	0.435	0.049
-290.632	84.930	-0.119	0.130
-289.618	75.539	0.122	-0.129
-288.603	75.270	0.030	0.032
-287.589	-200.000	0.022	-0.250
-286.574	-159.215	-0.360	-0.020
-285.559	727.813	0.121	0.322
-284.545	225.982	-0.038	-0.061
-283.530	-19.574	-0.180	-0.111
-282.516	-32.957	-0.143	0.079
-281.501	-200.000	-0.056	-0.328
-280.486	800.000	0.021	-0.066
-279.472	35.308	0.118	-0.103
-278.457	680.585	-0.174	-0.450
-277.443	-200.000	0.019	-0.207
-276.428	800.000	-0.035	0.112
-275.413	-136.304	0.185	0.021
-274.399	90.350	0.120	-0.134
-273.384	-185.516	0.379	0.006
-272.370	-200.000	0.018	0.253
-271.355	624.858	-0.140	-0.350
-270.340	-92.595	0.098	0.027
-269.326	179.864	0.103	-0.150
-268.311	91.175	0.139	-0.155
-267.297	102.443	0.119	-0.138
-266.282	26.554	0.199	-0.166
-265.267	-200.000	0.014	0.232
-264.253	199.143	0.051	0.077
-263.238	-200.000	-0.005	-0.193
-262.224	-12.426	-0.411	0.267
-261.209	25.491	0.085	0.071
-260.195	-200.000	-0.017	-0.090
-259.180	-62.176	-0.239	0.099
-258.165	-200.000	0.019	-0.152
-257.151	-22.214	-0.399	-0.241
-256.136	379.227	0.032	-0.065
-255.122	-28.530	0.176	0.101
-254.107	-99.618	0.246	-0.061
-253.092	147.927	-0.151	-0.202
-252.078	-79.016	-0.282	0.095
-251.063	-200.000	0.033	0.243
-250.049	136.499	-0.106	0.138
-249.034	-10.458	-0.249	-0.164
-248.019	64.094	0.246	-0.246
-247.005	-50.362	-0.050	0.023
-245.990	-168.640	0.086	-0.003
-244.976	-107.304	0.292	-0.064
-243.961	22.523	-0.134	-0.109
-242.946	25.937	-0.283	0.234
-241.932	-38.682	0.225	0.118
-240.917	-114.063	0.131	0.025
-239.903	-200.000	-0.015	0.110
-238.888	-14.952	-0.152	0.097
-237.873	-101.932	0.089	0.021
-236.859	-200.000	0.015	-0.087
-235.844	-107.370	-0.244	0.053
-234.830	33.476	-0.083	0.072
-233.815	-200.000	-0.028	0.207
-232.800	-148.466	-0.304	0.025
-231.786	-200.000	0.024	0.188
-230.771	-6.466	-0.310	0.210
-229.757	-200.000	0.015	-0.123
-228.742	-200.000	0.010	-0.191
-227.727	-107.507	-0.198	-0.043
-226.713	24.279	0.276	0.227
-225.698	139.705	0.151	0.197
-224.684	11.087	-0.199	0.151
-223.669	-18.720	-0.097	-0.060
-222.655	-200.000	-0.002	-0.210
-221.640	511.758	0.066	0.152
-220.625	364.753	0.053	0.107
-219.611	-198.662	0.166	0.001
-218.596	-200.000	-0.001	-0.031
-217.582	52.198	0.157	0.149
-216.567	293.616	0.057	0.102
-215.552	33.025	-0.057	0.049
-214.538	-27.556	0.169	0.097
-213.523	156.068	0.318	0.435
-212.509	-6.526	-0.271	-0.183
-211.494	455.035	-0.042	0.092
-210.479	255.420	0.200	-0.340
-209.465	-65.221	0.350	-0.140
-208.450	114.661	-0.100	0.121
-207.436	800.000	-0.085	0.276
-206.421	800.000	0.063	0.229
-205.406	144.501	0.176	0.234
-204.392	532.260	-0.026	0.060
-203.377	47.153	0.061	-0.056
-202.363	-57.696	-0.143	0.062
-201.348	-144.671	0.045	-0.004
-200.333	265.838	-0.109	0.189
-199.319	-200.000	-0.006	-0.090
-198.304	323.144	-0.167	0.316
-197.290	315.461	-0.070	-0.131
-196.275	-105.373	-0.333	0.075
-195.260	-32.454	0.232	-0.128
-194.246	-187.669	-0.167	0.002
-193.231	-96.456	-0.234	0.061
-192.217	792.364	0.084	0.228
-191.202	798.266	0.048	-0.132
-190.187	80.057	0.158	0.169
-189.173	800.000	0.066	-0.196
-188.158	728.737	-0.102	-0.271
-187.144	-45.750	0.234	-0.115
-186.129	-200.000	0.010	0.228
-185.114	137.501	0.092	-0.120
-184.100	-48.931	0.317	-0.150
-183.085	-162.990	0.418	0.020
-182.071	800.000	-0.020	-0.084
-181.056	4.109	-0.153	-0.111
-180.042	-14.170	-0.072	-0.046
-179.027	800.000	-0.051	0.161
-178.012	106.073	-0.336	0.394
-176.998	-200.000	0.005	0.104
-175.983	34.576	0.380	-0.329
-174.969	168.806	0.168	0.238
-173.954	-69.480	0.151	0.057
-172.939	-95.397	0.082	-0.022
-171.925	94.468	-0.112	0.126
-170.910	-149.624	0.258	-0.020
-169.896	154.774	0.035	-0.048
-168.881	-200.000	0.008	0.175
-167.866	-200.000	-0.006	0.301
-166.852	-117.109	-0.262	0.047
-165.837	-200.000	-0.044	-0.234
-164.823	-67.060	0.221	-0.086
-163.808	800.000	-0.104	-0.287
-162.793	-200.000	0.004	0.061
-161.779	400.318	-0.150	0.311
-160.764	347.909	0.074	0.144
-159.750	-114.536	-0.182	0.035
-158.735	-88.818	0.345	0.101
-157.720	518.208	-0.085	0.197
-156.706	561.146	0.060	0.143
-155.691	145.381	0.161	0.213
-154.677	184.125	0.277	0.406
-153.662	-76.481	-0.318	0.111
-152.647	-102.738	0.045	-0.011
-151.633	-200.000	0.024	-0.282
-150.618	26.920	0.276	-0.229
-149.604	-80.054	0.404	-0.134
-148.589	40.239	-0.069	-0.062
-147.574	-167.918	-0.169	-0.007
-146.560	743.546	-0.048	-0.128
-145.545	209.454	0.165	0.256
-144.531	66.066	-0.078	0.078
-143.516	195.008	0.086	-0.129
-142.502	476.124	0.104	-0.233
-141.487	-101.852	0.113	0.027
-140.472	-152.609	0.156	0.011
-139.458	217.190	-0.215	0.339
-138.443	800.000	-0.093	0.351
-137.429	-180.668	-0.313	0.006
-136.414	-200.000	0.078	0.408
-135.399	-177.048	0.196	0.005
-134.385	126.267	-0.125	-0.156
-133.370	139.024	0.095	0.123
-132.356	-82.160	0.113	-0.037
-131.341	270.601	-0.095	0.166
-130.326	800.000	0.011	-0.036
-129.312	-175.597	-0.123	-0.003
-128.297	11.590	0.111	-0.084
-127.283	-175.182	0.300	-0.008
-126.268	800.000	0.065	-0.186
-125.253	144.024	-0.112	0.147
-124.239	-115.148	-0.076	-0.014
-123.224	285.085	-0.198	0.353
-122.210	800.000	0.059	0.222
-121.195	-26.811	-0.192	0.111
-120.180	-7.409	0.228	0.153
