DTS Sentinel unit serial number:	SN413079Multiplexer serial number:	ORYXHardware model number:	OX4-SRSoftware version number:	ORYX F/W v4.00 Oryx Data Collector v3.7.2.0data status	okinstallation	princeton_trtdifferential loss correction	single-endedforward channel	channel 1reverse channel	N/Adate	2019/09/17time	01:18:35forward acquisition time	60.00reverse acquisition time	0.00gamma	496.2192k internal	0.2324k external	0.2324temperature offset calibration	0.9962default loss term (dB/km)	0.3790temperature slope calibration	1.0000multiplexer offset coefficient	1.0000multiplexer slope coefficient	1.0000fibre end	0.00T internal ref (°C)	29.50T ext. ref 1 (°C)	0.12T ext. ref 2 (°C)	24.18length (m)	temperature (°C)	Stokes	anti-Stokes-747.200	224.722	-0.108	0.176
-746.185	-39.776	-0.240	0.127
-745.171	-71.752	0.316	0.119
-744.156	362.974	-0.150	0.304
-743.142	85.199	0.127	0.141
-742.127	-200.000	-0.007	0.162
-741.112	-200.000	-0.015	0.166
-740.098	248.680	0.228	0.390
-739.083	-139.973	0.134	0.014
-738.069	-71.831	-0.076	0.028
-737.054	519.804	0.032	0.075
-736.039	-136.301	-0.321	-0.038
-735.025	800.000	-0.076	-0.231
-734.010	800.000	0.022	-0.079
-732.996	125.285	0.199	-0.254
-731.981	-200.000	0.021	-0.099
-730.966	-130.962	0.222	-0.030
-729.952	316.121	0.096	-0.184
-728.937	524.633	0.056	0.133
-727.923	-121.131	0.165	-0.028
-726.908	371.969	-0.147	-0.301
-725.894	-113.498	-0.087	0.017
-724.879	607.812	0.109	-0.275
-723.864	120.771	0.067	0.084
-722.850	84.353	-0.127	0.140
-721.835	-15.042	-0.297	-0.192
-720.821	199.157	0.136	0.210
-719.806	406.798	0.154	-0.328
-718.791	-43.354	-0.231	-0.118
-717.777	-200.000	-0.041	-0.233
-716.762	-200.000	-0.067	-0.396
-715.748	-147.283	0.407	0.035
-714.733	-200.000	-0.041	0.318
-713.718	-64.706	-0.082	0.033
-712.704	87.727	0.279	-0.312
-711.689	-200.000	0.039	0.285
-710.675	-111.452	0.386	-0.079
-709.660	-200.000	-0.044	-0.302
-708.645	-37.120	-0.269	0.145
-707.631	-200.000	-0.018	0.297
-706.616	-140.167	-0.115	-0.012
-705.602	313.231	-0.066	-0.125
-704.587	-200.000	0.003	0.295
-703.572	-26.228	-0.008	0.005
-702.558	125.312	-0.064	0.081
-701.543	800.000	-0.055	-0.171
-700.529	-149.753	-0.113	-0.009
-699.514	800.000	0.165	0.489
-698.499	350.765	0.041	-0.081
-697.485	800.000	-0.026	0.107
-696.470	-99.935	-0.423	0.106
-695.456	-110.270	-0.271	-0.057
-694.441	556.487	0.092	-0.223
-693.426	-192.657	0.276	-0.003
-692.412	172.413	0.079	-0.115
-691.397	800.000	0.103	-0.451
-690.383	743.219	0.099	-0.268
-689.368	316.130	0.128	-0.244
-688.354	-12.829	0.088	-0.058
-687.339	-121.514	0.231	0.039
-686.324	147.426	-0.178	-0.241
-685.310	-7.710	0.117	0.080
-684.295	-65.633	0.316	-0.128
-683.281	800.000	0.050	-0.190
-682.266	57.542	-0.224	-0.221
-681.251	-121.680	0.206	0.034
-680.237	-114.609	0.260	0.050
-679.222	-200.000	0.048	0.265
-678.208	233.424	-0.239	0.396
-677.193	-42.050	0.340	0.175
-676.178	197.328	0.047	0.072
-675.164	-87.903	-0.334	0.101
-674.149	-43.460	0.035	0.018
-673.135	72.152	0.110	0.115
-672.120	-136.965	0.098	-0.011
-671.105	39.226	-0.047	-0.043
-670.091	-200.000	-0.015	-0.096
-669.076	209.121	0.105	0.166
-668.062	-93.506	0.288	-0.080
-667.047	-92.685	-0.211	0.060
-666.032	17.494	-0.049	0.039
-665.018	84.474	0.198	0.218
-664.003	-82.044	0.296	0.097
-662.989	637.353	-0.063	0.160
-661.974	800.000	-0.055	-0.165
-660.959	-114.283	-0.145	0.028
-659.945	-77.699	-0.197	0.069
-658.930	-200.000	-0.032	-0.198
-657.916	800.000	-0.010	-0.040
-656.901	6.406	0.082	0.062
-655.886	-34.391	0.390	-0.215
-654.872	-9.273	-0.115	-0.077
-653.857	144.763	-0.279	-0.374
-652.843	-8.037	-0.217	0.147
-651.828	-200.000	-0.000	-0.066
-650.814	-22.254	0.185	0.113
-649.799	-100.949	-0.074	-0.018
-648.784	49.237	0.225	0.212
-647.770	-200.000	0.062	0.400
-646.755	159.752	0.264	-0.370
-645.741	152.220	-0.151	-0.207
-644.726	35.159	0.123	0.108
-643.711	-200.000	-0.011	-0.069
-642.697	342.357	-0.014	0.028
-641.682	375.781	-0.122	0.251
-640.668	-93.842	-0.138	-0.038
-639.653	-107.140	-0.135	-0.030
-638.638	307.103	-0.134	-0.251
-637.624	-81.427	0.324	-0.107
-636.609	-20.505	-0.180	0.112
-635.595	-29.320	0.131	-0.075
-634.580	-86.996	0.204	-0.063
-633.565	-200.000	-0.018	-0.086
-632.551	800.000	-0.012	-0.051
-631.536	265.873	-0.150	0.264
-630.522	-141.582	0.319	0.032
-629.507	-38.153	0.239	-0.127
-628.492	42.791	-0.127	0.116
-627.478	331.565	0.139	0.270
-626.463	183.686	-0.219	-0.325
-625.449	69.998	0.137	-0.142
-624.434	-29.138	0.078	-0.045
-623.419	-1.322	0.229	-0.163
-622.405	507.588	0.084	-0.196
-621.390	-133.429	-0.060	-0.008
-620.376	-63.066	0.510	-0.211
-619.361	82.465	0.102	-0.111
-618.346	-66.277	-0.089	-0.036
-617.332	800.000	-0.133	-0.424
-616.317	220.965	-0.054	0.087
-615.303	169.938	0.028	-0.040
-614.288	110.631	0.139	-0.168
-613.273	-115.174	-0.064	-0.012
-612.259	-200.000	0.028	-0.266
-611.244	-113.111	0.171	-0.034
-610.230	-66.233	-0.069	0.028
-609.215	-100.925	-0.103	0.025
-608.201	-200.000	-0.012	0.074
-607.186	40.859	-0.228	0.206
-606.171	287.085	0.098	-0.177
-605.157	-129.646	-0.065	0.009
-604.142	-119.434	0.118	-0.021
-603.128	-8.582	-0.038	0.026
-602.113	-200.000	-0.042	0.194
-601.098	262.448	-0.118	-0.205
-600.084	19.281	0.372	-0.300
-599.069	-165.944	-0.107	0.005
-598.055	-200.000	0.011	0.358
-597.040	800.000	-0.092	0.287
-596.025	-169.813	-0.369	0.013
-595.011	800.000	-0.070	0.247
-593.996	-65.299	-0.382	-0.155
-592.982	-107.216	0.037	-0.008
-591.967	-2.381	0.190	-0.134
-590.952	66.271	0.109	-0.111
-589.938	93.596	-0.080	-0.091
-588.923	-144.243	0.346	-0.032
-587.909	-30.408	-0.191	0.109
-586.894	-165.401	0.183	-0.008
-585.879	-100.937	-0.517	-0.127
-584.865	21.856	-0.292	-0.238
-583.850	95.101	0.275	0.314
-582.836	-200.000	0.009	0.252
-581.821	-200.000	0.008	0.152
-580.806	70.164	-0.037	-0.038
-579.792	-20.713	-0.150	-0.092
-578.777	-62.607	0.203	-0.085
-577.763	-197.037	-0.419	-0.003
-576.748	485.952	0.138	0.315
-575.733	142.047	0.107	0.143
-574.719	-108.716	-0.348	-0.075
-573.704	40.171	-0.243	-0.219
-572.690	38.409	-0.018	0.016
-571.675	-69.914	-0.162	0.062
-570.661	63.706	0.170	-0.171
-569.646	435.201	-0.071	0.154
-568.631	5.120	-0.184	-0.136
-567.617	126.313	0.118	-0.150
-566.602	244.852	-0.134	-0.225
-565.588	15.435	0.107	-0.084
-564.573	-48.168	-0.269	-0.130
-563.558	800.000	-0.092	-0.380
-562.544	-140.753	-0.217	-0.022
-561.529	800.000	-0.145	0.410
-560.515	-81.714	0.162	-0.053
-559.500	-11.219	-0.136	-0.090
-558.485	-152.528	0.375	-0.027
-557.471	-55.802	0.253	-0.113
-556.456	114.884	-0.049	-0.060
-555.442	121.345	0.129	-0.161
-554.427	416.048	-0.071	-0.152
-553.412	-34.866	-0.258	-0.141
-552.398	-200.000	-0.065	-0.329
-551.383	99.728	0.234	-0.271
-550.369	32.881	0.113	0.098
-549.354	472.437	0.088	0.198
-548.339	217.131	0.036	0.057
-547.325	-108.022	-0.311	0.068
-546.310	-3.226	-0.070	-0.049
-545.296	164.877	-0.170	-0.240
-544.281	-139.917	0.094	-0.010
-543.266	-50.164	-0.277	0.131
-542.252	798.570	0.076	-0.210
-541.237	-200.000	0.025	0.179
-540.223	800.000	-0.064	-0.222
-539.208	-81.467	-0.121	-0.040
-538.193	-200.000	-0.087	0.388
-537.179	553.000	0.052	0.126
-536.164	252.734	-0.084	-0.143
-535.150	800.000	-0.034	-0.145
-534.135	-200.000	0.013	0.059
-533.121	715.244	0.086	0.230
-532.106	318.813	-0.119	0.225
-531.091	208.661	0.065	0.102
-530.077	-200.000	0.027	-0.150
-529.062	-200.000	0.018	0.363
-528.048	-142.676	-0.081	-0.008
-527.033	-151.146	-0.443	-0.033
-526.018	-106.002	-0.371	-0.084
-525.004	-200.000	0.018	-0.088
-523.989	-98.623	-0.267	0.068
-522.975	800.000	0.022	-0.073
-521.960	800.000	0.064	-0.279
-520.945	164.596	0.124	-0.175
-519.931	-115.873	0.305	0.057
-518.916	800.000	0.086	-0.322
-517.902	346.237	0.073	-0.144
-516.887	-200.000	0.009	-0.176
-515.872	-125.986	-0.340	-0.051
-514.858	-169.057	-0.126	0.005
-513.843	-200.000	0.008	-0.125
-512.829	-152.829	-0.250	-0.018
-511.814	-28.965	0.213	-0.122
-510.799	-141.517	0.294	0.030
-509.785	-97.603	-0.128	0.033
-508.770	-17.859	0.065	-0.041
-507.756	-81.505	-0.036	0.012
-506.741	-200.000	-0.093	0.447
-505.726	-121.165	0.334	0.056
-504.712	26.357	-0.327	-0.274
-503.697	219.257	0.041	0.066
-502.683	-168.842	-0.151	-0.006
-501.668	-67.054	-0.503	-0.198
-500.653	-92.362	0.027	-0.008
-499.639	800.000	0.048	0.189
-498.624	251.568	0.071	-0.121
-497.610	52.697	-0.144	0.137
-496.595	5.840	-0.072	0.053
-495.581	-65.957	-0.314	0.125
-494.566	-200.000	0.009	-0.382
-493.551	-200.000	0.012	0.289
-492.537	800.000	0.060	0.173
-491.522	-133.772	0.280	0.035
-490.508	-93.251	-0.124	-0.034
-489.493	-50.035	-0.136	0.064
-488.478	-200.000	-0.015	-0.207
-487.464	136.903	0.336	-0.439
-486.449	-200.000	-0.001	0.150
-485.435	-75.180	-0.262	-0.094
-484.420	532.165	-0.128	-0.302
-483.405	492.998	0.084	-0.192
-482.391	-12.407	-0.161	-0.105
-481.376	-200.000	0.001	0.021
-480.362	-96.364	-0.191	0.050
-479.347	614.930	-0.052	-0.131
-478.332	-141.826	0.180	-0.018
-477.318	75.889	-0.232	-0.245
-476.303	-83.299	0.340	0.109
-475.289	307.851	-0.098	-0.182
-474.274	-39.243	-0.029	0.015
-473.259	-200.000	-0.013	0.154
-472.245	-47.739	-0.058	-0.028
-471.230	131.038	0.085	-0.109
-470.216	76.852	0.204	0.216
-469.201	1.752	-0.217	0.156
-468.186	-130.418	0.243	0.033
-467.172	-38.204	0.376	0.199
-466.157	-73.568	-0.312	-0.114
-465.143	-32.500	-0.156	0.087
-464.128	197.374	-0.107	0.164
-463.113	-200.000	0.001	-0.005
-462.099	800.000	-0.075	0.240
-461.084	117.255	0.237	0.290
-460.070	-200.000	0.048	-0.255
-459.055	280.385	0.057	-0.102
-458.040	8.896	0.118	0.088
-457.026	-102.918	-0.092	-0.022
-456.011	-152.664	-0.265	0.019
-454.997	254.747	0.019	0.033
-453.982	-117.843	0.300	0.054
-452.968	-200.000	0.055	0.273
-451.953	-25.983	-0.174	0.102
-450.938	-11.115	0.075	-0.049
-449.924	-61.810	-0.339	0.142
-448.909	-104.261	-0.285	0.066
-447.895	238.145	0.063	-0.104
-446.880	40.194	0.023	-0.021
-445.865	800.000	-0.067	0.204
-444.851	-61.809	0.159	-0.066
-443.836	-53.717	-0.362	0.165
-442.822	-90.119	-0.166	0.048
-441.807	800.000	-0.045	-0.185
-440.792	-105.261	0.287	0.065
-439.778	-142.986	0.126	0.012
-438.763	-200.000	0.002	-0.123
-437.749	50.273	0.131	-0.123
-436.734	201.307	-0.159	0.245
-435.719	-141.008	-0.435	-0.044
-434.705	800.000	-0.060	-0.204
-433.690	590.389	-0.046	-0.114
-432.676	89.784	-0.143	-0.159
-431.661	-151.935	0.343	-0.025
-430.646	136.501	0.084	-0.110
-429.632	-200.000	0.017	-0.307
-428.617	-112.228	-0.300	0.060
-427.603	-200.000	-0.125	0.000
-426.588	-93.888	0.335	-0.092
-425.573	-158.344	-0.259	-0.015
-424.559	-140.576	-0.138	-0.014
-423.544	-172.741	0.384	0.012
-422.530	249.278	-0.137	-0.232
-421.515	-200.000	0.005	0.060
-420.500	444.382	-0.056	0.123
-419.486	-39.804	-0.202	0.105
-418.471	-200.000	0.001	0.108
-417.457	-200.000	-0.014	0.265
-416.442	-75.384	-0.197	0.070
-415.428	131.277	-0.138	-0.177
-414.413	-108.853	0.335	0.071
-413.398	-88.706	-0.092	-0.027
-412.384	800.000	-0.035	0.099
-411.369	-200.000	-0.042	0.283
-410.355	-200.000	-0.052	0.292
-409.340	-3.563	-0.155	0.108
-408.325	-100.629	0.213	0.052
-407.311	437.125	0.126	0.273
-406.296	124.725	-0.217	-0.272
-405.282	628.535	0.050	0.127
-404.267	-52.276	0.091	-0.042
-403.252	-200.000	0.006	0.130
-402.238	-112.883	0.193	0.038
-401.223	-59.084	0.210	-0.090
-400.209	800.000	-0.083	-0.338
-399.194	-111.649	0.276	-0.056
-398.179	-37.681	-0.129	-0.068
-397.165	-186.635	-0.282	0.004
-396.150	143.442	0.052	0.070
-395.136	24.590	0.027	0.023
-394.121	16.274	-0.058	-0.046
-393.106	345.543	0.172	0.337
-392.092	-109.793	0.294	0.061
-391.077	-57.575	0.280	0.122
-390.063	-0.997	-0.333	0.235
-389.048	4.219	-0.202	0.147
-388.033	113.179	-0.034	0.041
-387.019	-47.022	0.025	0.012
-386.004	-136.283	-0.183	-0.021
-384.990	161.185	0.056	0.078
-383.975	800.000	-0.126	0.474
-382.960	-109.330	0.167	0.035
-381.946	-200.000	0.012	-0.067
-380.931	35.245	-0.103	0.090
-379.917	-35.270	0.222	-0.120
-378.902	800.000	0.008	0.033
-377.888	205.490	-0.032	-0.049
-376.873	356.659	-0.097	0.193
-375.858	-79.885	-0.124	-0.042
-374.844	800.000	0.069	-0.227
-373.829	-198.589	-0.212	-0.001
-372.815	-200.000	0.017	0.210
-371.800	-137.916	-0.070	-0.008
-370.785	127.978	0.128	-0.162
-369.771	-153.904	-0.059	0.004
-368.756	-133.594	-0.211	-0.026
-367.742	800.000	0.116	0.348
-366.727	379.204	-0.128	0.261
-365.712	-200.000	-0.018	-0.158
-364.698	-73.226	0.378	-0.138
-363.683	1.142	0.176	-0.126
-362.669	-37.400	-0.159	0.084
-361.654	248.666	0.065	0.109
-360.639	-70.473	0.223	-0.084
-359.625	-131.386	-0.060	-0.008
-358.610	283.534	-0.080	0.143
-357.596	-96.423	0.115	0.030
-356.581	7.969	-0.059	0.044
-355.566	266.680	-0.044	0.076
-354.552	-52.996	0.098	-0.045
-353.537	-54.496	-0.109	-0.049
-352.523	-128.505	0.208	-0.029
-351.508	18.816	0.111	-0.089
-350.493	431.694	0.125	0.268
-349.479	-200.000	0.061	0.335
-348.464	-47.848	0.206	0.099
-347.450	-136.393	0.300	0.035
-346.435	128.091	0.417	0.527
-345.420	800.000	-0.053	0.172
-344.406	-200.000	-0.002	-0.046
-343.391	-156.624	0.330	0.020
-342.377	-62.124	-0.303	0.126
-341.362	33.270	-0.090	0.077
-340.348	-40.941	-0.298	-0.153
-339.333	800.000	-0.054	0.191
-338.318	250.759	-0.078	0.132
-337.304	102.848	-0.262	0.305
-336.289	14.625	0.032	0.025
-335.275	174.056	0.188	-0.269
-334.260	-200.000	0.010	0.271
-333.245	208.120	-0.066	-0.103
-332.231	800.000	0.037	-0.139
-331.216	-155.557	0.102	-0.007
-330.202	-126.967	0.118	-0.017
-329.187	221.653	0.113	-0.181
-328.172	33.540	-0.172	-0.148
-327.158	-178.012	-0.182	-0.004
-326.143	-24.020	0.079	0.047
-325.129	-152.549	0.109	-0.008
-324.114	94.540	0.173	0.195
-323.099	-16.927	-0.114	0.071
-322.085	-157.653	0.067	0.004
-321.070	-200.000	0.007	0.101
-320.056	315.280	0.054	0.101
-319.041	126.207	0.132	-0.166
-318.026	-61.799	0.206	0.086
-317.012	-33.327	-0.258	-0.142
-315.997	-61.446	-0.090	0.038
-314.983	92.134	0.104	0.117
-313.968	800.000	0.032	-0.117
-312.953	800.000	0.082	-0.279
-311.939	134.331	-0.085	-0.110
-310.924	188.077	-0.167	-0.248
-309.910	-7.576	0.253	-0.170
-308.895	-200.000	-0.054	-0.261
-307.880	-57.066	-0.190	-0.083
-306.866	50.481	-0.015	0.014
-305.851	800.000	0.037	-0.133
-304.837	-12.708	-0.186	-0.120
-303.822	-56.930	-0.295	0.129
-302.807	19.564	0.302	0.241
-301.793	-24.355	0.092	-0.054
-300.778	404.565	-0.113	0.236
-299.764	-11.372	0.073	0.048
-298.749	42.579	0.222	-0.200
-297.735	139.007	0.060	-0.078
-296.720	-101.037	0.330	0.080
-295.705	56.308	-0.091	0.088
-294.691	7.665	-0.213	-0.158
-293.676	457.927	-0.080	-0.177
-292.662	-200.000	-0.023	-0.219
-291.647	-43.811	0.182	0.091
-290.632	800.000	-0.057	-0.201
-289.618	76.677	0.153	0.161
-288.603	-12.753	-0.238	-0.154
-287.589	129.134	-0.087	0.110
-286.574	789.966	-0.139	0.379
-285.559	226.181	0.124	0.200
-284.545	800.000	-0.089	0.273
-283.530	179.987	0.197	-0.286
-282.516	-132.917	0.089	0.011
-281.501	321.325	0.190	0.358
-280.486	-200.000	-0.038	0.208
-279.472	-53.349	-0.193	0.088
-278.457	13.163	0.240	0.184
-277.443	632.824	-0.082	0.207
-276.428	800.000	0.235	0.718
-275.413	-144.866	0.277	-0.025
-274.399	397.588	0.082	0.171
-273.384	-148.469	-0.393	0.032
-272.370	-200.000	0.006	0.121
-271.355	527.002	0.070	-0.162
-270.340	-135.044	0.060	-0.007
-269.326	-114.309	-0.096	0.018
-268.311	800.000	-0.138	0.436
-267.297	-200.000	-0.027	0.246
-266.282	-65.628	0.109	-0.043
-265.267	-91.414	-0.117	-0.033
-264.253	800.000	0.039	0.117
-263.238	-200.000	0.010	0.067
-262.224	-131.947	-0.325	-0.042
-261.209	-62.032	0.095	-0.039
-260.195	800.000	-0.062	-0.237
-259.180	-120.583	0.359	-0.060
-258.165	54.209	-0.394	-0.375
-257.151	127.144	-0.166	-0.209
-256.136	15.846	-0.169	-0.132
-255.122	198.515	-0.109	0.165
-254.107	-200.000	0.020	0.129
-253.092	18.801	-0.030	0.023
-252.078	5.750	0.136	-0.100
-251.063	67.901	0.154	-0.156
-250.049	-149.743	0.254	0.020
-249.034	800.000	-0.060	0.259
-248.019	150.862	-0.108	-0.145
-247.005	361.916	0.026	0.052
-245.990	-200.000	0.048	0.252
-244.976	5.212	-0.201	-0.147
-243.961	-200.000	0.000	-0.110
-242.946	-89.879	0.063	-0.018
-241.932	79.133	-0.135	-0.143
-240.917	-94.700	0.075	-0.020
-239.903	98.601	-0.060	0.068
-238.888	-121.758	0.251	-0.041
-237.873	-75.899	0.151	-0.053
-236.859	-54.598	0.399	-0.179
-235.844	-70.405	-0.373	0.140
-234.830	-167.388	-0.092	0.004
-233.815	-200.000	0.056	0.413
-232.800	117.525	0.088	-0.107
-231.786	42.188	0.061	-0.055
-230.771	-200.000	-0.019	0.181
-229.757	800.000	0.095	-0.349
-228.742	-82.075	0.338	0.109
-227.727	-52.557	0.180	-0.082
-226.713	214.166	-0.045	0.070
-225.698	800.000	-0.055	0.176
-224.684	-200.000	0.060	0.317
-223.669	-3.250	-0.176	-0.122
-222.655	225.529	0.085	-0.136
-221.640	-200.000	-0.016	0.231
-220.625	43.497	0.080	-0.073
-219.611	-200.000	0.006	0.124
-218.596	-12.114	-0.127	-0.082
-217.582	-200.000	0.068	0.294
-216.567	-61.131	0.064	-0.027
-215.552	800.000	-0.040	0.136
-214.538	-59.464	0.071	-0.030
-213.523	176.415	0.118	0.170
-212.509	-200.000	0.033	-0.213
-211.494	177.688	0.214	0.309
-210.479	-16.991	0.151	0.094
-209.465	66.349	-0.066	-0.066
-208.450	-100.943	-0.246	-0.060
-207.436	407.397	-0.151	-0.316
-206.421	-17.853	-0.383	-0.238
-205.406	-200.000	-0.022	-0.360
-204.392	479.724	0.011	0.026
-203.377	-143.030	0.326	0.031
-202.363	141.758	0.076	-0.100
-201.348	-200.000	-0.009	0.237
-200.333	-35.715	0.228	-0.122
-199.319	87.850	0.123	-0.135
-198.304	-53.068	0.236	0.107
-197.290	-153.305	0.127	0.009
-196.275	787.757	0.059	-0.160
-195.260	-109.443	-0.063	0.013
-194.246	-99.949	0.272	0.067
-193.231	-111.725	-0.190	-0.038
-192.217	-200.000	0.011	-0.301
-191.202	-69.227	0.167	-0.064
-190.187	373.536	-0.054	-0.108
-189.173	800.000	0.102	-0.374
-188.158	48.795	-0.145	-0.134
-187.144	-1.561	0.306	-0.213
-186.129	-200.000	0.006	0.101
-185.114	-200.000	0.025	0.147
-184.100	163.506	0.231	-0.320
-183.085	-5.011	0.312	-0.212
-182.071	610.568	0.026	0.063
-181.056	-141.623	0.387	-0.038
-180.042	28.373	-0.165	-0.138
-179.027	115.623	0.192	-0.232
-178.012	359.559	-0.086	-0.170
-176.998	-33.063	-0.109	-0.060
-175.983	-200.000	-0.022	0.159
-174.969	800.000	0.099	0.340
-173.954	-125.879	0.173	-0.026
-172.939	0.999	0.031	-0.022
-171.925	800.000	-0.036	0.150
-170.910	-98.281	0.067	0.017
-169.896	614.112	0.081	0.199
-168.881	-19.963	-0.217	-0.132
-167.866	752.639	0.084	-0.224
-166.852	-60.596	0.071	-0.030
-165.837	141.929	0.128	-0.168
-164.823	800.000	0.077	-0.242
-163.808	99.665	-0.133	-0.152
-162.793	-156.530	-0.121	-0.007
-161.779	800.000	-0.107	-0.318
-160.764	-28.528	0.252	-0.143
-159.750	-3.492	-0.185	-0.127
-158.735	-33.333	-0.084	0.046
-157.720	204.238	-0.110	-0.168
-156.706	-83.829	-0.060	0.019
-155.691	616.603	-0.101	0.249
-154.677	-200.000	-0.060	0.281
-153.662	-200.000	-0.050	0.231
-152.647	-200.000	-0.035	0.309
-151.633	604.844	-0.112	0.274
-150.618	-38.504	0.328	0.171
-149.604	128.258	0.141	0.176
-148.589	262.315	0.077	-0.132
-147.574	-91.152	-0.087	-0.025
-146.560	-200.000	-0.071	-0.412
-145.545	399.806	-0.130	-0.268
-144.531	-133.761	-0.192	-0.024
-143.516	-137.635	0.225	-0.025
-142.502	-119.094	-0.034	-0.006
-141.487	-39.090	-0.150	0.078
-140.472	-183.031	-0.144	-0.003
-139.458	-114.872	-0.038	-0.007
-138.443	2.668	-0.184	-0.132
-137.429	-200.000	0.071	-0.333
-136.414	-1.397	-0.060	-0.041
-135.399	112.955	-0.049	0.059
-134.385	-126.603	-0.218	-0.032
-133.370	329.925	-0.050	-0.094
-132.356	-43.466	0.378	0.188
-131.341	-74.253	0.263	0.094
-130.326	800.000	-0.029	0.080
-129.312	-200.000	0.000	0.046
-128.297	546.893	-0.076	0.179
-127.283	73.704	0.178	-0.184
-126.268	259.160	0.054	-0.092
-125.253	800.000	-0.026	0.079
-124.239	45.296	0.132	0.120
-123.224	-47.234	0.118	0.057
-122.210	-200.000	-0.003	0.074
