DTS Sentinel unit serial number:	SN413079Multiplexer serial number:	ORYXHardware model number:	OX4-SRSoftware version number:	ORYX F/W v4.00 Oryx Data Collector v3.7.2.0data status	okinstallation	princeton_trtdifferential loss correction	single-endedforward channel	channel 1reverse channel	N/Adate	2019/09/17time	14:06:35forward acquisition time	60.00reverse acquisition time	0.00gamma	496.2192k internal	0.2300k external	0.2300temperature offset calibration	0.9966default loss term (dB/km)	0.3790temperature slope calibration	1.0000multiplexer offset coefficient	1.0000multiplexer slope coefficient	1.0000fibre end	0.00T internal ref (°C)	35.75T ext. ref 1 (°C)	0.40T ext. ref 2 (°C)	32.58length (m)	temperature (°C)	Stokes	anti-Stokes-747.200	-200.000	0.015	0.103
-746.185	-61.394	0.105	-0.045
-745.171	-163.351	0.118	-0.006
-744.156	-90.033	0.294	0.087
-743.142	800.000	-0.056	0.198
-742.127	321.615	-0.148	0.287
-741.112	-200.000	-0.008	0.147
-740.098	-43.534	0.296	0.152
-739.083	60.842	-0.026	-0.026
-738.069	-200.000	-0.511	-0.002
-737.054	-42.266	0.088	-0.046
-736.039	320.926	0.204	0.395
-735.025	45.167	0.154	-0.144
-734.010	269.968	-0.098	-0.176
-732.996	151.771	0.093	0.130
-731.981	200.392	-0.082	0.129
-730.966	-61.971	0.258	-0.110
-729.952	-104.743	-0.115	0.027
-728.937	44.857	0.130	-0.122
-727.923	-200.000	-0.040	-0.275
-726.908	800.000	0.047	0.190
-725.894	-200.000	0.035	0.226
-724.879	-84.323	-0.346	-0.111
-723.864	-82.080	-0.204	0.068
-722.850	-116.251	-0.085	-0.016
-721.835	142.781	0.103	0.139
-720.821	387.975	0.055	0.116
-719.806	800.000	0.065	0.264
-718.791	30.053	-0.192	0.167
-717.777	160.764	0.143	-0.203
-716.762	632.492	0.158	-0.407
-715.748	31.387	0.125	0.109
-714.733	120.367	-0.231	-0.292
-713.718	-138.540	0.235	0.026
-712.704	-174.683	0.319	0.009
-711.689	-57.439	0.128	-0.057
-710.675	23.957	0.250	-0.210
-709.660	-50.598	0.265	0.127
-708.645	26.136	-0.213	-0.181
-707.631	-95.539	0.191	-0.052
-706.616	-200.000	-0.002	0.146
-705.602	116.556	0.139	0.173
-704.587	36.707	-0.204	0.183
-703.572	177.512	-0.143	-0.212
-702.558	-55.404	-0.174	-0.080
-701.543	-200.000	-0.007	-0.286
-700.529	-200.000	-0.014	0.150
-699.514	-99.275	-0.085	-0.022
-698.499	225.076	0.081	0.134
-697.485	574.877	-0.065	0.161
-696.470	-200.000	0.225	0.000
-695.456	-200.000	-0.007	-0.122
-694.441	-51.312	0.137	0.065
-693.426	-61.625	-0.153	-0.065
-692.412	113.700	-0.142	0.175
-691.397	-168.513	-0.031	0.001
-690.383	-33.313	0.208	0.117
-689.368	204.495	0.043	0.068
-688.354	52.830	0.178	-0.173
-687.339	-12.779	0.142	-0.094
-686.324	-45.450	-0.258	0.130
-685.310	800.000	0.009	0.028
-684.295	-1.357	-0.306	-0.220
-683.281	-200.000	0.027	-0.177
-682.266	-163.511	0.240	0.012
-681.251	-200.000	0.005	-0.442
-680.237	216.575	-0.156	-0.252
-679.222	736.110	0.079	0.217
-678.208	266.278	0.212	0.377
-677.193	68.728	0.026	-0.028
-676.178	53.888	-0.158	-0.155
-675.164	-140.403	-0.196	0.021
-674.149	-115.434	0.214	-0.041
-673.135	-61.322	-0.200	0.086
-672.120	-91.844	-0.320	-0.092
-671.105	-200.000	0.002	-0.046
-670.091	263.378	-0.022	0.039
-669.076	-72.826	-0.086	0.032
-668.062	-120.130	-0.089	-0.015
-667.047	-70.248	-0.356	-0.137
-666.032	30.256	-0.188	-0.163
-665.018	-23.451	0.107	-0.065
-664.003	-32.725	-0.042	0.024
-662.989	-24.644	0.459	0.277
-661.974	55.660	0.042	-0.041
-660.959	-134.347	-0.261	-0.033
-659.945	-165.617	-0.371	0.016
-658.930	-69.757	0.062	-0.024
-657.916	-40.316	-0.229	0.121
-656.901	4.189	0.143	-0.107
-655.886	161.113	-0.106	-0.150
-654.872	-119.383	0.271	-0.048
-653.857	617.213	0.073	0.186
-652.843	-145.127	-0.021	0.002
-651.828	125.010	-0.074	0.095
-650.814	258.693	-0.098	0.171
-649.799	-76.276	-0.243	0.087
-648.784	-200.000	0.023	0.124
-647.770	-136.061	-0.075	-0.009
-646.755	-200.000	0.061	0.000
-645.741	-200.000	0.039	0.291
-644.726	-62.514	-0.228	0.096
-643.711	-21.720	-0.140	-0.087
-642.697	167.596	0.264	-0.381
-641.682	-200.000	-0.016	-0.105
-640.668	-61.087	-0.489	0.209
-639.653	-116.286	-0.069	-0.013
-638.638	-146.171	-0.193	0.017
-637.624	279.489	-0.104	-0.189
-636.609	-51.071	0.331	-0.158
-635.595	800.000	0.044	0.178
-634.580	-200.000	0.022	0.107
-633.565	177.325	0.099	0.146
-632.551	-55.521	0.083	-0.038
-631.536	-35.364	-0.245	-0.135
-630.522	32.453	0.067	-0.058
-629.507	18.372	-0.338	0.274
-628.492	395.949	-0.135	-0.286
-627.478	-200.000	0.004	-0.360
-626.463	151.304	0.178	0.245
-625.449	-103.956	0.067	0.016
-624.434	50.577	-0.074	0.072
-623.419	-18.054	-0.102	0.065
-622.405	246.481	-0.106	-0.182
-621.390	-4.037	0.305	-0.214
-620.376	-102.990	0.512	0.123
-619.361	100.842	0.301	-0.355
-618.346	137.499	-0.072	0.096
-617.332	-133.562	0.123	0.016
-616.317	24.353	-0.257	-0.215
-615.303	60.477	-0.162	0.163
-614.288	-32.015	-0.202	-0.115
-613.273	800.000	-0.099	-0.284
-612.259	-76.665	0.238	-0.085
-611.244	-70.569	-0.240	-0.092
-610.230	-182.612	0.080	0.001
-609.215	-11.754	0.346	-0.230
-608.201	-5.673	0.115	0.080
-607.186	-200.000	0.001	-0.010
-606.171	-124.480	0.192	-0.030
-605.157	-200.000	0.011	-0.317
-604.142	-123.167	-0.389	-0.063
-603.128	-200.000	0.030	-0.227
-602.113	800.000	-0.065	0.207
-601.098	414.504	-0.016	-0.034
-600.084	-148.603	-0.190	-0.016
-599.069	160.361	0.032	-0.045
-598.055	11.581	0.271	0.210
-597.040	-200.000	0.010	-0.046
-596.025	-55.372	-0.205	0.093
-595.011	-95.800	0.053	-0.014
-593.996	437.829	0.017	-0.038
-592.982	44.652	-0.151	0.140
-591.967	-200.000	-0.011	-0.303
-590.952	219.323	-0.146	-0.236
-589.938	-141.710	0.118	-0.012
-588.923	-200.000	-0.001	-0.066
-587.909	-200.000	0.036	-0.237
-586.894	648.913	-0.126	-0.327
-585.879	19.572	-0.236	-0.193
-584.865	-84.914	0.168	-0.053
-583.850	-2.952	0.110	-0.078
-582.836	25.315	-0.074	-0.063
-581.821	-25.638	-0.242	0.144
-580.806	-19.828	0.285	0.178
-579.792	109.917	-0.062	-0.075
-578.777	-30.825	0.111	-0.063
-577.763	-200.000	0.010	0.411
-576.748	-101.477	0.095	-0.023
-575.733	-24.833	-0.248	-0.149
-574.719	-192.620	-0.379	-0.004
-573.704	276.775	-0.193	-0.347
-572.690	-118.600	-0.045	-0.008
-571.675	-110.301	-0.168	-0.035
-570.661	534.280	-0.128	-0.307
-569.646	373.181	0.109	-0.224
-568.631	-200.000	0.005	-0.161
-567.617	-56.536	0.222	0.100
-566.602	-200.000	-0.032	0.365
-565.588	207.532	0.097	0.153
-564.573	95.224	-0.176	-0.203
-563.558	-134.753	0.105	-0.013
-562.544	800.000	0.051	0.169
-561.529	-69.833	-0.204	0.079
-560.515	-101.219	-0.233	-0.058
-559.500	-61.921	0.418	-0.177
-558.485	38.580	0.267	-0.241
-557.471	-78.732	-0.295	0.102
-556.456	677.438	-0.008	0.022
-555.442	-70.527	-0.107	-0.041
-554.427	608.664	-0.089	-0.224
-553.412	-59.278	0.319	0.139
-552.398	-13.874	-0.209	-0.137
-551.383	1.586	0.298	-0.217
-550.369	139.089	-0.164	-0.218
-549.354	800.000	-0.083	0.300
-548.339	-200.000	0.012	0.086
-547.325	758.710	0.016	-0.045
-546.310	56.528	-0.388	0.382
-545.296	-200.000	-0.002	-0.059
-544.281	-200.000	0.017	0.244
-543.266	-200.000	0.033	-0.344
-542.252	-65.438	-0.208	0.085
-541.237	105.789	0.277	-0.331
-540.223	9.235	-0.167	-0.127
-539.208	30.537	0.098	0.085
-538.193	-103.088	0.209	-0.050
-537.179	-104.342	-0.057	-0.013
-536.164	63.596	0.048	0.049
-535.150	-200.000	-0.001	-0.423
-534.135	-48.227	-0.138	-0.068
-533.121	-27.963	-0.047	-0.027
-532.106	130.203	0.067	0.087
-531.091	-174.564	0.283	-0.008
-530.077	-196.906	0.154	-0.001
-529.062	63.721	0.261	0.265
-528.048	247.346	0.151	0.257
-527.033	320.489	0.087	-0.167
-526.018	161.603	0.315	0.446
-525.004	138.997	-0.053	-0.071
-523.989	-121.141	0.118	0.020
-522.975	-200.000	0.003	0.303
-521.960	-26.634	0.110	-0.065
-520.945	600.813	0.110	-0.277
-519.931	-58.877	0.249	-0.109
-518.916	-143.935	-0.086	0.008
-517.902	-196.815	0.092	0.001
-516.887	190.801	0.117	0.178
-515.872	79.358	0.276	0.299
-514.858	78.193	0.420	-0.453
-513.843	414.413	-0.052	-0.111
-512.829	251.932	0.016	-0.027
-511.814	604.303	-0.145	0.366
-510.799	242.211	-0.174	0.294
-509.785	-200.000	0.015	-0.150
-508.770	-21.568	-0.212	-0.130
-507.756	-200.000	-0.002	0.091
-506.741	-142.872	-0.177	0.017
-505.726	-10.426	-0.176	-0.118
-504.712	-100.624	0.362	0.090
-503.697	91.320	0.128	0.145
-502.683	-0.180	0.226	0.162
-501.668	-198.094	-0.278	0.002
-500.653	-200.000	-0.076	-0.391
-499.639	-4.311	-0.178	-0.124
-498.624	-192.575	0.254	0.002
-497.610	-135.286	-0.210	-0.025
-496.595	453.798	0.097	0.216
-495.581	-200.000	0.003	0.086
-494.566	-151.077	-0.199	0.015
-493.551	266.787	0.118	0.209
-492.537	173.130	-0.185	0.269
-491.522	2.569	0.036	-0.026
-490.508	532.114	-0.081	0.194
-489.493	-200.000	-0.000	-0.074
-488.478	-20.533	0.057	0.035
-487.464	-200.000	-0.099	-0.481
-486.449	-37.163	0.081	-0.044
-485.435	111.543	0.189	-0.230
-484.420	-43.893	-0.246	-0.125
-483.405	-164.970	0.169	0.008
-482.391	187.856	-0.150	0.227
-481.376	582.398	0.045	0.112
-480.362	-82.274	0.075	0.025
-479.347	158.669	0.046	-0.065
-478.332	84.493	-0.107	-0.118
-477.318	245.196	0.125	0.212
-476.303	800.000	0.102	0.401
-475.289	131.350	-0.065	-0.084
-474.274	-200.000	0.041	0.261
-473.259	-93.922	-0.262	0.073
-472.245	-200.000	0.013	-0.326
-471.230	123.795	0.216	-0.273
-470.216	-128.984	-0.136	0.019
-469.201	44.925	0.279	-0.259
-468.186	-200.000	-0.008	0.224
-467.172	149.582	0.059	0.081
-466.157	-89.615	0.306	-0.091
-465.143	139.089	-0.052	0.069
-464.128	800.000	-0.126	0.404
-463.113	280.589	-0.165	0.298
-462.099	800.000	0.125	0.460
-461.084	144.485	-0.057	0.077
-460.070	-17.649	-0.067	-0.043
-459.055	-81.945	-0.272	-0.090
-458.040	-200.000	0.005	0.042
-457.026	-76.220	0.223	0.079
-456.011	-58.406	0.163	0.071
-454.997	175.051	0.083	0.121
-453.982	46.906	-0.121	-0.113
-452.968	-95.758	0.154	0.041
-451.953	149.594	0.122	0.166
-450.938	-142.754	0.573	0.056
-449.924	-131.338	-0.122	0.016
-448.909	-39.545	0.187	-0.099
-447.895	-200.000	-0.083	0.381
-446.880	-119.592	0.143	-0.025
-445.865	670.247	0.034	0.090
-444.851	-37.527	-0.235	0.126
-443.836	-200.000	0.017	0.309
-442.822	-200.000	-0.013	0.154
-441.807	-82.541	-0.254	0.083
-440.792	442.351	0.108	0.239
-439.778	6.150	0.166	-0.124
-438.763	81.853	0.037	0.041
-437.749	-79.492	0.355	0.121
-436.734	800.000	0.082	-0.323
-435.719	-200.000	0.014	0.086
-434.705	114.262	0.228	-0.280
-433.690	-46.426	-0.396	-0.196
-432.676	-200.000	-0.012	-0.282
-431.661	87.558	0.047	-0.053
-430.646	312.892	-0.040	0.075
-429.632	684.765	-0.085	0.224
-428.617	-77.984	0.076	-0.027
-427.603	-85.126	0.148	-0.047
-426.588	-200.000	-0.003	-0.055
-425.573	30.789	-0.083	0.072
-424.559	196.705	-0.142	-0.218
-423.544	796.589	-0.061	-0.170
-422.530	51.685	0.099	0.094
-421.515	-200.000	-0.034	-0.224
-420.500	-122.144	0.075	-0.012
-419.486	187.447	-0.163	-0.244
-418.471	-126.978	-0.185	0.027
-417.457	173.060	0.033	0.047
-416.442	165.807	0.097	0.137
-415.428	800.000	-0.094	-0.385
-414.413	17.400	0.088	-0.070
-413.398	128.671	0.126	-0.161
-412.384	-52.447	-0.180	-0.084
-411.369	-200.000	-0.006	-0.217
-410.355	18.368	0.043	-0.035
-409.340	138.431	-0.239	0.316
-408.325	-200.000	0.054	0.265
-407.311	-200.000	0.017	0.165
-406.296	-34.750	-0.326	0.179
-405.282	-84.294	0.402	0.128
-404.267	-200.000	0.023	0.125
-403.252	-66.584	0.467	-0.187
-402.238	-18.194	-0.160	-0.100
-401.223	-154.593	-0.075	0.005
-400.209	-90.017	0.283	0.083
-399.194	-200.000	0.028	0.170
-398.179	-200.000	-0.022	-0.113
-397.165	-151.114	-0.177	0.013
-396.150	-158.315	0.081	-0.005
-395.136	-108.416	0.187	-0.041
-394.121	58.680	-0.160	0.158
-393.106	800.000	-0.032	-0.114
-392.092	-27.607	0.053	-0.031
-391.077	-200.000	-0.035	0.174
-390.063	-74.357	0.266	0.097
-389.048	-43.373	-0.220	0.112
-388.033	781.397	-0.032	-0.089
-387.019	34.770	-0.146	-0.129
-386.004	2.973	-0.125	-0.091
-384.990	-200.000	0.211	0.000
-383.975	32.175	-0.231	0.200
-382.960	-200.000	0.001	0.045
-381.946	-200.000	0.015	-0.227
-380.931	-25.234	-0.214	-0.128
-379.917	-43.826	0.249	-0.126
-378.902	800.000	-0.031	0.136
-377.888	112.847	0.177	-0.215
-376.873	-200.000	0.044	-0.439
-375.858	170.590	0.080	-0.115
-374.844	79.267	-0.096	-0.103
-373.829	378.100	-0.094	0.193
-372.815	-194.696	0.188	-0.001
-371.800	-141.889	0.101	0.010
-370.785	-200.000	-0.016	0.302
-369.771	-139.011	-0.223	-0.024
-368.756	-105.883	0.464	0.105
-367.742	247.679	0.078	0.132
-366.727	-182.063	-0.251	0.005
-365.712	456.157	0.095	0.212
-364.698	23.678	-0.051	-0.043
-363.683	-56.008	-0.239	0.107
-362.669	57.360	-0.140	-0.137
-361.654	6.917	-0.315	0.236
-360.639	-47.812	0.242	0.118
-359.625	189.164	0.096	-0.144
-358.610	-5.258	-0.268	-0.185
-357.596	39.497	-0.084	0.076
-356.581	-63.184	-0.184	-0.076
-355.566	51.251	-0.181	0.173
-354.552	-38.291	0.330	0.176
-353.537	542.697	0.120	0.287
-352.523	-200.000	-0.001	0.136
-351.508	-200.000	-0.018	-0.161
-350.493	-54.424	-0.033	-0.015
-349.479	14.852	0.194	0.152
-348.464	-85.224	-0.287	0.090
-347.450	140.880	0.121	-0.161
-346.435	-200.000	0.040	0.444
-345.420	140.310	0.201	0.267
-344.406	-177.778	-0.239	0.006
-343.391	197.541	-0.088	-0.134
-342.377	271.143	-0.187	-0.331
-341.362	-145.596	0.281	0.025
-340.348	-44.553	-0.162	0.081
-339.333	-26.536	0.227	0.133
-338.318	-74.323	0.216	0.078
-337.304	85.785	0.320	0.354
-336.289	513.631	0.079	-0.184
-335.275	800.000	0.046	0.163
-334.260	21.538	0.114	-0.093
-333.245	-200.000	0.010	0.080
-332.231	800.000	-0.074	0.315
-331.216	-200.000	-0.006	-0.113
-330.202	-200.000	-0.029	0.364
-329.187	-15.183	-0.306	0.196
-328.172	757.289	0.099	-0.269
-327.158	693.365	0.051	0.134
-326.143	-200.000	-0.012	0.188
-325.129	150.674	0.101	0.137
-324.114	800.000	0.012	0.039
-323.099	152.341	-0.122	-0.167
-322.085	-18.012	-0.205	0.129
-321.070	427.725	0.022	-0.048
-320.056	800.000	0.081	-0.267
-319.041	-200.000	0.053	-0.236
-318.026	193.407	-0.096	-0.146
-317.012	106.946	0.084	0.100
-315.997	377.022	0.017	0.036
-314.983	164.436	0.069	-0.098
-313.968	117.368	0.163	0.202
-312.953	580.170	-0.061	-0.150
-311.939	421.156	0.106	0.229
-310.924	-93.252	-0.189	0.053
-309.910	3.669	-0.098	-0.072
-308.895	28.521	0.151	0.128
-307.880	47.266	0.101	0.094
-306.866	288.733	-0.125	-0.226
-305.851	203.575	-0.082	0.127
-304.837	-172.693	0.160	-0.005
-303.822	-63.053	0.114	0.047
-302.807	320.557	0.041	-0.078
-301.793	-64.470	0.236	-0.096
-300.778	800.000	0.043	0.127
-299.764	800.000	-0.043	-0.164
-298.749	75.580	-0.044	0.046
-297.735	800.000	0.024	-0.084
-296.720	800.000	0.073	-0.297
-295.705	-68.643	-0.172	-0.067
-294.691	800.000	-0.043	0.130
-293.676	443.954	0.055	-0.121
-292.662	-200.000	-0.009	-0.047
-291.647	-60.283	0.198	0.084
-290.632	-33.410	-0.242	0.134
-289.618	177.654	-0.156	0.228
-288.603	-200.000	-0.003	0.042
-287.589	-47.093	0.458	0.224
-286.574	396.265	-0.114	0.238
-285.559	-67.886	-0.228	-0.089
-284.545	-83.259	-0.172	-0.055
-283.530	12.201	0.120	-0.093
-282.516	-152.771	-0.075	0.005
-281.501	-86.095	0.326	-0.101
-280.486	-45.309	0.125	0.062
-279.472	561.242	0.007	0.018
-278.457	35.493	0.145	0.127
-277.443	-171.813	0.426	-0.014
-276.428	800.000	0.058	0.216
-275.413	-72.399	-0.260	0.096
-274.399	362.450	0.104	0.209
-273.384	-39.867	-0.072	0.038
-272.370	-43.290	0.081	0.041
-271.355	79.042	-0.235	-0.252
-270.340	89.291	0.136	0.152
-269.326	-90.612	0.067	-0.019
-268.311	-161.680	-0.044	0.002
-267.297	-2.094	-0.151	-0.106
-266.282	-200.000	0.006	0.243
-265.267	-200.000	0.010	-0.045
-264.253	-6.451	-0.248	0.169
-263.238	165.269	-0.099	0.140
-262.224	-58.329	-0.298	0.130
-261.209	-54.511	-0.200	0.091
-260.195	712.972	-0.073	0.194
-259.180	-200.000	-0.049	0.239
-258.165	-119.257	-0.185	0.032
-257.151	-21.884	-0.121	0.073
-256.136	-79.550	0.058	0.019
-255.122	115.792	-0.041	-0.050
-254.107	-200.000	-0.009	-0.479
-253.092	623.407	-0.028	0.071
-252.078	-87.320	0.293	0.089
-251.063	800.000	-0.061	-0.258
-250.049	-36.594	0.273	-0.147
-249.034	148.574	0.122	0.164
-248.019	613.966	-0.046	-0.115
-247.005	-121.480	-0.258	-0.043
-245.990	469.822	-0.124	-0.279
-244.976	800.000	0.008	-0.033
-243.961	-10.540	0.247	-0.164
-242.946	2.507	-0.152	-0.110
-241.932	-128.338	0.239	0.034
-240.917	-114.285	-0.235	-0.045
-239.903	-182.185	-0.199	0.004
-238.888	21.535	0.162	0.132
-237.873	20.671	-0.097	-0.079
-236.859	800.000	-0.026	0.114
-235.844	8.354	-0.086	0.065
-234.830	-10.991	-0.212	-0.140
-233.815	-125.478	-0.090	-0.014
-232.800	-200.000	-0.012	0.354
-231.786	-200.000	-0.008	0.255
-230.771	26.751	-0.296	-0.247
-229.757	-168.772	-0.217	0.008
-228.742	-92.695	0.165	0.046
-227.727	800.000	-0.084	0.349
-226.713	473.679	-0.110	0.249
-225.698	-200.000	0.022	-0.331
-224.684	-165.288	-0.051	-0.002
-223.669	800.000	0.090	-0.349
-222.655	353.996	-0.085	-0.169
-221.640	16.553	-0.159	-0.125
-220.625	-98.544	-0.210	-0.054
-219.611	-148.637	0.239	-0.019
-218.596	-131.437	0.209	0.028
-217.582	-183.126	-0.284	-0.005
-216.567	-200.000	-0.020	0.092
-215.552	188.511	0.168	0.251
-214.538	91.159	0.050	-0.056
-213.523	-97.810	-0.034	-0.009
-212.509	70.686	-0.159	0.164
-211.494	-80.320	0.216	0.072
-210.479	-89.628	-0.228	0.067
-209.465	-93.759	-0.282	-0.078
-208.450	408.956	0.011	0.024
-207.436	-28.423	-0.179	0.103
-206.421	-134.734	0.180	0.022
-205.406	-27.920	0.183	-0.106
-204.392	-46.988	-0.041	-0.020
-203.377	45.748	0.186	-0.171
-202.363	800.000	0.139	-0.392
-201.348	-200.000	0.049	-0.259
-200.333	245.886	-0.160	0.269
-199.319	338.817	0.020	-0.038
-198.304	-200.000	0.007	-0.103
-197.290	800.000	-0.015	-0.064
-196.275	-21.726	-0.158	-0.096
-195.260	-25.211	-0.471	-0.278
-194.246	18.340	0.173	0.138
-193.231	126.794	-0.073	0.092
-192.217	185.146	-0.132	-0.196
-191.202	-87.928	-0.218	-0.065
-190.187	190.919	0.104	0.156
-189.173	400.511	0.022	-0.045
-188.158	45.335	-0.148	0.136
-187.144	77.512	-0.110	-0.117
-186.129	-200.000	-0.024	-0.190
-185.114	-149.756	0.224	0.018
-184.100	238.457	0.080	-0.132
-183.085	-200.000	-0.031	-0.415
-182.071	90.366	0.182	-0.203
-181.056	-79.223	-0.064	0.022
-180.042	-22.272	0.306	-0.185
-179.027	-200.000	0.058	-0.283
-178.012	116.802	0.069	0.085
-176.998	-1.943	0.361	0.253
-175.983	307.459	0.065	-0.120
-174.969	220.073	0.127	0.203
-173.954	-109.646	0.149	-0.031
-172.939	-27.155	-0.024	-0.014
-171.925	-142.388	0.069	0.007
-170.910	-90.885	-0.062	0.018
-169.896	419.114	0.143	-0.305
-168.881	-200.000	0.055	0.455
-167.866	-200.000	-0.000	-0.015
-166.852	122.132	-0.159	-0.198
-165.837	-147.711	-0.211	-0.018
-164.823	225.246	-0.115	-0.186
-163.808	217.086	-0.117	-0.186
-162.793	524.642	-0.071	0.166
-161.779	-156.434	0.134	0.008
-160.764	160.330	0.232	0.323
-159.750	433.549	-0.076	-0.165
-158.735	162.275	-0.134	0.188
-157.720	-200.000	-0.019	-0.095
-156.706	800.000	-0.069	-0.196
-155.691	-159.097	-0.248	-0.014
-154.677	-126.584	-0.259	0.038
-153.662	15.442	0.178	-0.139
-152.647	800.000	-0.058	0.218
-151.633	-22.497	-0.218	0.131
-150.618	800.000	-0.033	-0.117
-149.604	12.542	0.150	0.115
-148.589	-119.676	-0.182	-0.031
-147.574	-85.362	-0.142	0.044
-146.560	399.774	-0.032	0.068
-145.545	19.581	-0.247	-0.198
-144.531	-200.000	-0.229	-0.001
-143.516	-95.540	0.247	-0.066
-142.502	-103.292	0.138	0.033
-141.487	-200.000	-0.050	0.317
-140.472	-13.831	0.325	0.209
-139.458	333.560	0.142	0.273
-138.443	800.000	0.069	-0.270
-137.429	-200.000	0.006	-0.216
-136.414	-23.487	-0.168	-0.100
-135.399	145.739	0.262	0.350
-134.385	-200.000	0.037	0.199
-133.370	102.404	-0.019	-0.022
-132.356	-73.185	-0.021	0.008
-131.341	-74.138	0.136	0.049
-130.326	-144.445	0.259	0.024
-129.312	73.392	-0.096	0.100
-128.297	-149.637	-0.186	0.015
-127.283	243.808	0.029	0.048
-126.268	709.621	0.071	0.186
-125.253	173.272	-0.140	-0.200
-124.239	-7.026	0.317	0.215
-123.224	294.224	0.084	-0.153
-122.210	-102.993	-0.124	0.029
-121.195	-175.224	-0.254	0.007
