DTS Sentinel unit serial number:	SN413079Multiplexer serial number:	ORYXHardware model number:	OX4-SRSoftware version number:	ORYX F/W v4.00 Oryx Data Collector v3.7.2.0data status	okinstallation	princeton_trtdifferential loss correction	single-endedforward channel	channel 1reverse channel	N/Adate	2019/09/15time	05:50:35forward acquisition time	60.00reverse acquisition time	0.00gamma	496.2192k internal	0.2325k external	0.2325temperature offset calibration	0.9998default loss term (dB/km)	0.3790temperature slope calibration	1.0000multiplexer offset coefficient	1.0000multiplexer slope coefficient	1.0000fibre end	0.00T internal ref (°C)	30.62T ext. ref 1 (°C)	4.85T ext. ref 2 (°C)	25.56length (m)	temperature (°C)	Stokes	anti-Stokes-747.200	800.000	0.091	0.279
-746.185	-200.000	-0.030	-0.166
-745.171	31.083	-0.216	-0.187
-744.156	112.673	0.306	-0.374
-743.142	-9.872	-0.039	0.026
-742.127	-2.015	-0.258	0.183
-741.112	-78.377	-0.263	0.091
-740.098	18.729	-0.075	0.061
-739.083	90.893	0.113	0.128
-738.069	19.981	0.110	0.090
-737.054	408.157	-0.065	0.139
-736.039	-140.059	0.140	0.015
-735.025	-69.853	0.367	0.141
-734.010	169.684	-0.074	-0.107
-732.996	52.766	-0.201	-0.194
-731.981	-82.778	0.247	-0.081
-730.966	-83.896	-0.221	0.071
-729.952	-200.000	-0.016	-0.233
-728.937	-111.936	-0.099	-0.020
-727.923	169.391	0.097	0.139
-726.908	182.017	-0.202	-0.300
-725.894	409.274	0.100	-0.213
-724.879	59.414	-0.103	-0.103
-723.864	-193.022	0.393	-0.004
-722.850	165.435	-0.342	-0.487
-721.835	-95.040	-0.060	-0.016
-720.821	21.933	0.173	-0.142
-719.806	800.000	0.028	0.112
-718.791	16.647	-0.284	0.226
-717.777	-200.000	-0.055	-0.251
-716.762	-42.377	-0.027	-0.014
-715.748	-163.275	0.098	0.005
-714.733	800.000	0.098	0.316
-713.718	-133.174	-0.240	-0.031
-712.704	713.514	-0.123	-0.328
-711.689	800.000	0.040	0.144
-710.675	-200.000	0.065	-0.304
-709.660	26.651	-0.176	0.148
-708.645	10.501	-0.207	0.159
-707.631	-81.375	0.266	0.088
-706.616	-149.979	-0.292	0.023
-705.602	-192.497	0.110	-0.001
-704.587	-47.700	-0.302	0.148
-703.572	473.136	-0.056	0.126
-702.558	800.000	-0.020	0.066
-701.543	-9.275	0.101	0.068
-700.529	-45.021	-0.110	0.055
-699.514	-112.920	-0.370	-0.074
-698.499	55.481	-0.038	0.037
-697.485	567.297	0.126	-0.308
-696.470	79.265	-0.252	-0.273
-695.456	798.982	0.054	-0.150
-694.441	268.242	-0.135	-0.237
-693.426	800.000	0.099	-0.300
-692.412	-69.127	-0.195	-0.076
-691.397	94.247	-0.181	-0.207
-690.383	-119.143	0.199	-0.035
-689.368	321.405	-0.123	0.236
-688.354	-19.339	-0.193	-0.121
-687.339	-95.333	0.171	-0.046
-686.324	800.000	0.083	-0.259
-685.310	-9.877	0.053	0.036
-684.295	-200.000	-0.031	0.195
-683.281	-15.781	0.170	0.109
-682.266	800.000	-0.021	0.079
-681.251	262.224	-0.080	-0.140
-680.237	-19.132	0.194	-0.121
-679.222	-200.000	0.004	0.347
-678.208	-81.802	-0.132	0.043
-677.193	78.569	-0.144	-0.155
-676.178	-200.000	0.033	-0.285
-675.164	-1.603	-0.245	-0.174
-674.149	541.732	-0.057	-0.137
-673.135	-48.288	0.065	-0.032
-672.120	-89.284	-0.314	0.093
-671.105	-131.292	0.241	0.032
-670.091	206.064	0.033	-0.052
-669.076	14.765	0.216	-0.170
-668.062	-81.086	-0.371	0.123
-667.047	-2.551	0.156	0.110
-666.032	-30.926	-0.158	0.090
-665.018	-84.235	0.272	-0.087
-664.003	285.067	0.155	-0.282
-662.989	800.000	0.011	-0.030
-661.974	467.606	-0.098	-0.222
-660.959	-110.763	0.149	-0.031
-659.945	100.421	-0.051	0.060
-658.930	-124.821	0.366	0.057
-657.916	98.095	-0.203	-0.235
-656.901	69.549	-0.111	-0.115
-655.886	384.480	-0.135	-0.280
-654.872	-77.538	0.332	-0.116
-653.857	179.992	-0.187	-0.276
-652.843	-133.433	-0.340	0.043
-651.828	246.323	0.128	-0.217
-650.814	496.663	-0.078	-0.181
-649.799	182.222	-0.230	0.341
-648.784	60.958	0.175	0.175
-647.770	-3.266	0.184	0.129
-646.755	-10.151	-0.118	-0.079
-645.741	-200.000	-0.009	-0.204
-644.726	-200.000	0.002	-0.236
-643.711	-163.391	0.085	-0.004
-642.697	-47.729	-0.236	0.115
-641.682	221.798	-0.121	-0.196
-640.668	-200.000	0.035	-0.360
-639.653	-200.000	0.018	0.154
-638.638	109.060	-0.116	0.140
-637.624	146.914	-0.069	0.093
-636.609	-128.123	-0.265	0.038
-635.595	-132.518	0.104	0.013
-634.580	433.252	-0.042	-0.092
-633.565	-12.499	-0.024	0.016
-632.551	24.914	0.023	-0.019
-631.536	265.109	0.113	0.198
-630.522	-143.095	-0.372	0.036
-629.507	2.631	-0.025	0.018
-628.492	-56.089	-0.184	-0.082
-627.478	-117.745	0.130	0.024
-626.463	-200.000	-0.041	-0.203
-625.449	-119.545	0.271	-0.047
-624.434	-200.000	-0.001	0.283
-623.419	-200.000	0.057	0.290
-622.405	-68.685	-0.373	-0.145
-621.390	-200.000	-0.011	-0.136
-620.376	-128.356	-0.268	0.038
-619.361	-200.000	0.042	-0.221
-618.346	-200.000	0.025	-0.340
-617.332	-200.000	-0.018	-0.403
-616.317	178.454	0.182	0.266
-615.303	800.000	0.113	0.379
-614.288	195.658	-0.131	-0.201
-613.273	-154.142	0.252	0.017
-612.259	-200.000	0.022	0.188
-611.244	-200.000	0.012	-0.111
-610.230	416.118	0.117	-0.250
-609.215	-20.431	0.085	-0.053
-608.201	215.541	-0.215	0.343
-607.186	348.349	-0.095	0.189
-606.171	252.484	-0.110	-0.188
-605.157	-21.650	0.258	0.158
-604.142	446.743	0.104	-0.229
-603.128	68.725	-0.156	-0.161
-602.113	-200.000	-0.044	0.273
-601.098	800.000	0.063	-0.257
-600.084	416.342	-0.103	-0.220
-599.069	-200.000	-0.052	0.233
-598.055	-200.000	0.000	0.075
-597.040	-172.419	0.132	0.004
-596.025	240.509	-0.030	0.050
-595.011	88.183	-0.176	-0.196
-593.996	800.000	0.069	0.285
-592.982	99.832	-0.214	-0.248
-591.967	-1.094	0.110	-0.078
-590.952	-72.539	-0.282	-0.104
-589.938	800.000	-0.036	-0.123
-588.923	8.962	0.204	-0.155
-587.909	13.352	0.129	0.100
-586.894	40.161	-0.011	0.010
-585.879	-171.649	0.193	0.006
-584.865	37.783	0.239	-0.213
-583.850	530.694	0.093	-0.220
-582.836	39.046	-0.107	-0.096
-581.821	800.000	-0.053	0.160
-580.806	43.660	0.228	0.209
-579.792	15.894	-0.135	0.107
-578.777	800.000	-0.098	-0.320
-577.763	40.203	-0.230	0.207
-576.748	-130.729	0.327	0.044
-575.733	800.000	-0.100	-0.318
-574.719	-143.479	0.343	-0.033
-573.704	-67.810	0.099	-0.039
-572.690	-54.414	-0.221	-0.100
-571.675	45.671	-0.129	-0.120
-570.661	800.000	-0.053	0.150
-569.646	194.241	0.196	-0.298
-568.631	8.314	-0.062	-0.046
-567.617	-186.099	-0.122	0.002
-566.602	-53.592	-0.101	-0.046
-565.588	12.087	-0.225	0.173
-564.573	27.074	-0.159	-0.134
-563.558	573.694	0.046	-0.113
-562.544	-87.562	0.266	-0.081
-561.529	-14.682	-0.176	0.113
-560.515	-200.000	0.051	-0.446
-559.500	8.536	-0.208	-0.157
-558.485	55.816	0.045	-0.044
-557.471	63.613	-0.120	-0.121
-556.456	217.180	0.012	-0.019
-555.442	-200.000	-0.020	0.142
-554.427	-52.507	-0.171	-0.079
-553.412	428.945	-0.037	0.081
-552.398	-105.156	-0.184	-0.042
-551.383	88.637	0.268	-0.299
-550.369	-86.438	-0.014	0.004
-549.354	-200.000	0.022	0.360
-548.339	41.781	-0.141	0.128
-547.325	-109.888	0.287	-0.060
-546.310	-43.920	-0.105	-0.053
-545.296	54.024	0.147	-0.142
-544.281	800.000	0.046	0.185
-543.266	512.112	0.108	0.252
-542.252	-200.000	0.018	0.112
-541.237	74.265	0.084	-0.088
-540.223	-152.304	-0.180	0.013
-539.208	-200.000	-0.012	-0.297
-538.193	800.000	0.039	0.143
-537.179	800.000	0.005	-0.017
-536.164	170.460	-0.226	0.324
-535.150	-49.463	-0.072	0.034
-534.135	800.000	-0.035	-0.148
-533.121	-35.068	0.171	0.093
-532.106	800.000	-0.122	-0.376
-531.091	-99.684	0.076	-0.019
-530.077	-200.000	0.024	0.179
-529.062	145.827	0.192	0.258
-528.048	-200.000	-0.015	-0.215
-527.033	544.532	-0.082	-0.197
-526.018	-20.761	0.109	-0.067
-525.004	800.000	0.052	0.191
-523.989	-134.520	0.288	0.035
-522.975	119.248	-0.024	0.030
-521.960	192.098	0.130	-0.196
-520.945	-144.097	-0.196	-0.018
-519.931	-200.000	0.018	0.120
-518.916	507.305	-0.066	0.153
-517.902	-5.575	-0.364	-0.249
-516.887	-200.000	-0.048	-0.419
-515.872	-52.861	-0.092	-0.042
-514.858	25.081	-0.395	0.328
-513.843	442.167	-0.139	0.304
-512.829	-35.944	0.290	0.157
-511.814	-200.000	0.024	-0.202
-510.799	-16.980	0.117	0.074
-509.785	240.657	-0.045	0.075
-508.770	-114.077	-0.277	0.054
-507.756	313.154	-0.182	-0.343
-506.741	-77.567	0.027	-0.009
-505.726	-4.246	-0.112	0.078
-504.712	-200.000	-0.007	0.255
-503.697	-5.080	-0.092	0.063
-502.683	-156.318	0.360	0.023
-501.668	-200.000	0.016	-0.172
-500.653	-117.557	-0.150	0.027
-499.639	35.346	-0.153	0.134
-498.624	-0.967	-0.346	0.245
-497.610	-5.907	-0.185	0.127
-496.595	-26.866	-0.153	0.089
-495.581	-4.165	0.324	0.224
-494.566	800.000	0.010	-0.039
-493.551	569.834	-0.064	-0.156
-492.537	4.469	0.149	-0.109
-491.522	-70.397	-0.128	0.048
-490.508	-193.316	0.287	-0.003
-489.493	522.434	0.046	-0.109
-488.478	216.627	-0.131	-0.208
-487.464	-37.041	-0.202	0.108
-486.449	-200.000	-0.008	0.088
-485.435	405.987	0.037	-0.079
-484.420	-200.000	-0.004	0.034
-483.405	-138.536	-0.026	-0.003
-482.391	-104.279	-0.066	-0.015
-481.376	141.914	0.077	0.102
-480.362	15.253	-0.261	-0.204
-479.347	264.565	0.086	-0.150
-478.332	-35.504	-0.126	-0.068
-477.318	95.585	0.144	0.164
-476.303	424.257	-0.105	-0.225
-475.289	-59.889	0.175	0.075
-474.274	271.424	-0.071	0.125
-473.259	-129.346	-0.462	-0.064
-472.245	-22.518	0.387	-0.234
-471.230	-7.574	-0.073	-0.049
-470.216	-127.251	0.056	-0.008
-469.201	-128.751	-0.339	-0.048
-468.186	-109.683	0.325	0.068
-467.172	-82.432	-0.260	0.084
-466.157	800.000	-0.008	0.034
-465.143	247.828	0.097	-0.163
-464.128	-200.000	0.009	-0.174
-463.113	-77.534	-0.096	-0.033
-462.099	0.719	0.412	0.294
-461.084	-86.039	0.112	0.035
-460.070	-200.000	0.057	0.335
-459.055	25.246	-0.133	-0.110
-458.040	346.506	-0.103	0.202
-457.026	134.684	0.205	0.266
-456.011	-75.567	0.286	0.101
-454.997	753.900	0.057	-0.154
-453.982	21.900	-0.373	0.303
-452.968	-200.000	-0.017	0.094
-451.953	-200.000	-0.000	0.121
-450.938	-200.000	0.008	-0.305
-449.924	-182.173	0.104	0.002
-448.909	-104.185	0.041	0.010
-447.895	114.831	0.158	0.193
-446.880	-37.654	0.035	-0.019
-445.865	-90.425	-0.433	0.125
-444.851	87.912	0.324	0.359
-443.836	-76.015	0.262	0.092
-442.822	-200.000	0.063	-0.310
-441.807	-116.978	-0.072	0.013
-440.792	-57.964	0.192	0.084
-439.778	800.000	-0.039	-0.120
-438.763	-145.872	0.198	-0.018
-437.749	-200.000	-0.052	-0.412
-436.734	800.000	0.041	0.119
-435.719	-69.251	0.126	0.048
-434.705	800.000	0.049	0.159
-433.690	-200.000	0.137	-0.000
-432.676	800.000	-0.048	-0.175
-431.661	-102.618	0.156	0.037
-430.646	-130.718	-0.230	0.031
-429.632	367.821	0.037	0.074
-428.617	26.917	0.093	0.078
-427.603	-28.435	-0.063	0.036
-426.588	422.913	0.155	0.331
-425.573	-165.250	0.398	-0.017
-424.559	-26.693	0.095	0.056
-423.544	-40.884	0.087	0.045
-422.530	172.134	-0.110	0.157
-421.515	-73.349	0.227	0.083
-420.500	550.467	-0.066	-0.159
-419.486	44.058	0.036	0.032
-418.471	-99.394	0.098	-0.025
-417.457	618.019	-0.080	0.201
-416.442	-24.429	0.319	0.189
-415.428	-73.898	-0.121	-0.044
-414.413	-106.439	0.293	0.065
-413.398	-149.899	-0.451	0.035
-412.384	-200.000	0.293	-0.000
-411.369	-86.021	0.255	0.079
-410.355	263.029	0.098	-0.170
-409.340	-130.710	-0.294	-0.039
-408.325	-20.704	-0.260	-0.159
-407.311	273.788	-0.150	0.264
-406.296	705.003	-0.079	0.207
-405.282	-127.153	-0.104	-0.015
-404.267	-200.000	-0.057	0.302
-403.252	723.289	-0.104	-0.275
-402.238	800.000	-0.093	0.272
-401.223	-200.000	-0.030	0.475
-400.209	-70.701	-0.126	0.047
-399.194	800.000	0.050	-0.205
-398.179	-107.365	-0.314	-0.069
-397.165	11.823	0.377	0.289
-396.150	-200.000	-0.043	-0.426
-395.136	103.870	-0.089	-0.104
-394.121	82.694	0.064	-0.069
-393.106	521.812	0.072	0.168
-392.092	-200.000	0.014	-0.216
-391.077	-64.772	0.178	0.072
-390.063	418.653	-0.234	-0.498
-389.048	49.455	0.142	0.133
-388.033	800.000	0.061	-0.216
-387.019	107.946	-0.122	-0.144
-386.004	31.524	-0.110	0.094
-384.990	-18.464	-0.142	-0.088
-383.975	70.364	0.138	-0.142
-382.960	-67.000	-0.242	0.095
-381.946	-88.105	0.109	-0.032
-380.931	658.725	-0.103	0.264
-379.917	-113.314	0.215	-0.042
-378.902	-130.832	0.162	0.022
-377.888	-74.509	0.077	0.028
-376.873	-53.609	-0.153	-0.070
-375.858	231.061	-0.126	-0.205
-374.844	-200.000	-0.032	-0.209
-373.829	-200.000	-0.047	-0.224
-372.815	674.304	-0.075	0.193
-371.800	-200.000	-0.025	0.190
-370.785	-200.000	-0.039	0.192
-369.771	-107.595	-0.268	-0.058
-368.756	-162.739	0.213	0.010
-367.742	100.366	0.133	0.154
-366.727	-200.000	-0.031	0.321
-365.712	17.004	-0.198	-0.156
-364.698	-48.347	0.124	0.059
-363.683	-65.290	0.219	-0.088
-362.669	-200.000	0.025	-0.203
-361.654	138.881	0.201	0.263
-360.639	154.961	0.183	0.250
-359.625	-191.075	0.223	-0.002
-358.610	800.000	-0.056	0.170
-357.596	-168.056	-0.121	-0.005
-356.581	-71.208	-0.093	0.035
-355.566	-63.853	0.324	0.132
-354.552	171.616	-0.084	-0.120
-353.537	-200.000	-0.013	0.086
-352.523	-126.644	-0.286	0.042
-351.508	800.000	0.073	0.280
-350.493	86.510	0.186	-0.204
-349.479	-126.389	-0.189	0.028
-348.464	800.000	0.030	-0.126
-347.450	-117.978	0.105	0.019
-346.435	103.338	-0.054	-0.063
-345.420	-14.011	0.206	-0.132
-344.406	23.219	-0.151	0.123
-343.391	-200.000	0.017	0.299
-342.377	-200.000	-0.011	-0.183
-341.362	51.535	-0.131	0.124
-340.348	-112.218	0.283	-0.057
-339.333	147.137	0.119	0.159
-338.318	12.513	-0.130	0.099
-337.304	45.973	-0.175	-0.161
-336.289	-139.201	0.120	-0.013
-335.275	118.203	0.051	0.063
-334.260	-30.632	-0.224	0.126
-333.245	69.183	-0.200	0.204
-332.231	301.117	-0.041	0.074
-331.216	-3.999	0.199	-0.137
-330.202	51.178	-0.116	0.109
-329.187	316.922	0.029	0.054
-328.172	16.793	-0.043	0.034
-327.158	-200.000	0.024	0.105
-326.143	383.423	-0.112	-0.228
-325.129	109.033	-0.046	0.055
-324.114	175.775	-0.100	-0.144
-323.099	-101.527	-0.250	0.060
-322.085	-20.117	-0.184	0.113
-321.070	-57.801	-0.180	-0.078
-320.056	-200.000	-0.013	0.122
-319.041	-94.949	-0.176	0.047
-318.026	800.000	0.078	-0.227
-317.012	127.326	0.035	0.044
-315.997	800.000	0.041	0.143
-314.983	-200.000	-0.045	0.222
-313.968	133.590	-0.192	0.247
-312.953	-77.903	0.132	0.045
-311.939	127.158	0.044	0.055
-310.924	290.163	-0.099	0.178
-309.910	288.630	-0.020	0.036
-308.895	800.000	-0.016	-0.064
-307.880	-200.000	0.003	-0.111
-306.866	32.724	0.192	-0.165
-305.851	496.697	0.021	0.049
-304.837	3.082	-0.191	-0.137
-303.822	-112.311	0.036	0.007
-302.807	-200.000	0.041	-0.481
-301.793	-200.000	-0.021	-0.446
-300.778	-158.232	-0.319	-0.018
-299.764	309.501	-0.057	-0.105
-298.749	335.764	0.112	-0.216
-297.735	-108.645	0.261	-0.056
-296.720	-142.684	-0.203	-0.020
-295.705	-16.206	0.077	0.049
-294.691	280.335	-0.146	0.258
-293.676	112.918	0.093	-0.112
-292.662	159.618	0.219	0.302
-291.647	-175.797	0.178	-0.005
-290.632	-167.859	-0.279	0.011
-289.618	-33.390	0.143	-0.078
-288.603	125.628	0.116	0.146
-287.589	-200.000	-0.001	-0.070
-286.574	449.131	0.095	-0.207
-285.559	269.935	-0.068	-0.118
-284.545	-73.535	0.140	0.051
-283.530	634.552	0.090	0.227
-282.516	122.389	0.140	0.173
-281.501	-200.000	-0.000	0.157
-280.486	28.634	0.169	-0.142
-279.472	-37.998	0.225	-0.119
-278.457	-195.891	-0.410	-0.003
-277.443	-200.000	-0.042	-0.291
-276.428	-70.452	-0.164	-0.062
-275.413	87.490	0.118	0.130
-274.399	-200.000	0.019	0.193
-273.384	11.466	0.188	-0.143
-272.370	-61.252	0.230	-0.096
-271.355	-86.144	-0.208	-0.063
-270.340	53.331	-0.127	-0.121
-269.326	-38.339	0.593	0.311
-268.311	-76.917	-0.237	0.082
-267.297	61.784	0.141	-0.139
-266.282	-150.925	0.354	-0.026
-265.267	-200.000	0.052	-0.237
-264.253	800.000	0.142	-0.390
-263.238	-115.828	-0.132	0.024
-262.224	-136.146	0.443	-0.051
-261.209	-200.000	-0.000	0.007
-260.195	-124.959	-0.264	-0.040
-259.180	-200.000	-0.078	-0.436
-258.165	114.057	0.109	-0.131
-257.151	113.097	0.099	-0.119
-256.136	-200.000	0.044	0.200
-255.122	230.036	-0.108	0.175
-254.107	-29.293	0.181	-0.103
-253.092	-91.762	0.112	0.031
-252.078	70.949	-0.143	-0.147
-251.063	-120.968	-0.177	0.030
-250.049	335.248	-0.117	0.225
-249.034	58.279	0.119	0.116
-248.019	-10.922	0.122	0.079
-247.005	559.008	-0.025	0.061
-245.990	113.271	-0.058	-0.070
-244.976	-71.024	0.049	0.018
-243.961	-71.548	0.260	-0.096
-242.946	634.662	0.030	0.076
-241.932	-57.096	-0.176	-0.077
-240.917	-35.298	0.080	-0.043
-239.903	800.000	-0.014	-0.043
-238.888	-77.512	-0.171	0.059
-237.873	211.296	-0.105	0.164
-236.859	-188.366	0.108	0.001
-235.844	-66.698	-0.460	-0.180
-234.830	-11.572	-0.053	-0.035
-233.815	-200.000	0.005	-0.157
-232.800	59.588	0.235	0.230
-231.786	-200.000	0.022	0.119
-230.771	-182.767	-0.133	0.002
-229.757	800.000	0.082	0.253
-228.742	-142.965	0.221	0.021
-227.727	227.189	-0.107	0.171
-226.713	21.308	0.194	-0.156
-225.698	228.067	-0.091	-0.146
-224.684	-58.569	-0.257	0.110
-223.669	179.875	0.184	-0.267
-222.655	92.659	-0.126	0.141
-221.640	-78.004	-0.078	-0.027
-220.625	40.288	0.153	-0.136
-219.611	-100.999	-0.375	-0.091
-218.596	-54.901	-0.151	-0.067
-217.582	-166.286	0.133	0.006
-216.567	-200.000	0.013	0.066
-215.552	-200.000	-0.085	0.441
-214.538	-31.338	-0.268	-0.149
-213.523	-146.385	-0.397	0.034
-212.509	-26.724	-0.265	0.153
-211.494	21.620	0.240	0.193
-210.479	397.088	0.067	-0.137
-209.465	800.000	-0.087	0.264
-208.450	8.790	0.256	-0.191
-207.436	258.109	-0.119	-0.203
-206.421	120.433	0.052	0.063
-205.406	-53.861	0.149	-0.067
-204.392	90.215	0.250	-0.276
-203.377	83.442	-0.017	0.018
-202.363	800.000	-0.127	-0.504
-201.348	-110.820	-0.234	0.048
-200.333	-64.339	0.088	-0.035
-199.319	29.759	0.094	0.079
-198.304	-52.087	-0.237	0.109
-197.290	-112.093	0.178	-0.035
-196.275	800.000	0.078	-0.243
-195.260	20.798	0.173	0.139
-194.246	-30.303	-0.085	-0.048
-193.231	-200.000	-0.002	0.163
-192.217	-138.179	-0.176	0.019
-191.202	-124.439	-0.044	-0.007
-190.187	-200.000	-0.018	-0.085
-189.173	-195.939	0.095	0.001
-188.158	249.733	-0.047	0.079
-187.144	14.293	0.256	-0.197
-186.129	-37.242	-0.212	0.112
-185.114	800.000	0.026	0.073
-184.100	800.000	0.084	-0.237
-183.085	-109.209	0.222	-0.047
-182.071	-39.355	-0.176	-0.091
-181.056	-200.000	-0.080	-0.420
-180.042	295.435	-0.058	0.105
-179.027	-200.000	-0.012	0.114
-178.012	231.431	-0.096	0.155
-176.998	-200.000	0.008	0.096
-175.983	253.007	-0.042	-0.070
-174.969	1.596	0.080	-0.057
-173.954	768.332	0.096	-0.259
-172.939	-200.000	0.019	0.206
-171.925	-23.732	-0.157	0.093
-170.910	-9.890	0.097	-0.064
-169.896	-89.902	0.247	-0.071
-168.881	800.000	0.028	0.089
-167.866	-17.788	-0.081	0.050
-166.852	153.220	-0.280	0.378
-165.837	381.197	0.120	-0.244
-164.823	65.657	0.153	0.153
-163.808	-200.000	0.027	-0.182
-162.793	-194.905	-0.263	0.002
-161.779	-71.831	0.106	-0.039
-160.764	-111.363	-0.184	0.037
-159.750	159.107	0.279	0.382
-158.735	-200.000	-0.009	0.115
-157.720	334.045	0.108	-0.207
-156.706	-107.706	0.245	-0.053
-155.691	800.000	-0.031	-0.086
-154.677	487.022	0.172	0.386
-153.662	110.449	0.077	0.091
-152.647	627.284	-0.062	-0.154
-151.633	-148.433	0.477	-0.039
-150.618	-200.000	-0.017	0.147
-149.604	-73.562	0.234	-0.084
-148.589	97.501	0.244	0.277
-147.574	-5.144	-0.173	-0.117
-146.560	418.455	0.041	0.087
-145.545	-30.795	0.268	-0.150
-144.531	800.000	-0.070	0.249
-143.516	-56.017	-0.157	0.069
-142.502	77.605	0.070	-0.073
-141.487	-162.359	0.296	-0.015
-140.472	-12.790	0.072	0.047
-139.458	-64.015	-0.360	0.145
-138.443	-83.256	-0.178	-0.056
-137.429	140.640	0.186	-0.243
-136.414	-31.456	-0.190	0.106
-135.399	-111.072	-0.208	0.042
-134.385	-200.000	-0.043	0.205
-133.370	-200.000	0.021	0.416
-132.356	-91.141	-0.214	0.060
-131.341	-200.000	-0.019	0.199
-130.326	800.000	-0.038	0.110
-129.312	122.897	0.057	0.070
-128.297	800.000	0.081	-0.259
-127.283	-79.890	0.151	0.050
-126.268	-11.660	0.194	0.126
-125.253	-108.553	-0.123	-0.026
-124.239	-195.751	-0.324	0.002
-123.224	106.033	0.182	0.213
-122.210	410.313	0.036	0.074
-121.195	-53.798	0.227	-0.102
