DTS Sentinel unit serial number:	SN413079Multiplexer serial number:	ORYXHardware model number:	OX4-SRSoftware version number:	ORYX F/W v4.00 Oryx Data Collector v3.7.2.0data status	okinstallation	princeton_trtdifferential loss correction	single-endedforward channel	channel 1reverse channel	N/Adate	2019/09/12time	01:28:11forward acquisition time	60.00reverse acquisition time	0.00gamma	496.2192k internal	0.2320k external	0.2320temperature offset calibration	1.0075default loss term (dB/km)	0.3790temperature slope calibration	1.0000multiplexer offset coefficient	1.0000multiplexer slope coefficient	1.0000fibre end	0.00T internal ref (°C)	32.94T ext. ref 1 (°C)	2.10T ext. ref 2 (°C)	27.81length (m)	temperature (°C)	Stokes	anti-Stokes-747.200	334.075	0.099	0.194
-746.185	-200.000	0.031	0.431
-745.171	206.247	0.073	0.114
-744.156	-183.003	-0.301	-0.005
-743.142	47.910	0.191	0.180
-742.127	37.304	0.368	0.329
-741.112	83.993	-0.089	-0.098
-740.098	-200.000	0.274	-0.001
-739.083	-11.016	-0.202	0.135
-738.069	-200.000	-0.004	-0.109
-737.054	12.475	-0.229	0.178
-736.039	-121.048	-0.176	-0.030
-735.025	-200.000	0.021	0.165
-734.010	-50.504	0.144	-0.069
-732.996	-41.492	-0.104	-0.054
-731.981	-67.041	0.302	0.120
-730.966	8.893	-0.056	0.043
-729.952	333.300	-0.080	0.157
-728.937	-74.713	-0.258	0.094
-727.923	-30.355	-0.185	-0.106
-726.908	254.720	-0.220	0.381
-725.894	-200.000	-0.013	0.292
-724.879	-200.000	-0.026	0.164
-723.864	-40.643	-0.152	-0.080
-722.850	502.020	-0.080	-0.186
-721.835	-102.049	-0.222	0.054
-720.821	-75.950	-0.076	-0.027
-719.806	31.591	0.227	-0.197
-718.791	171.426	-0.172	0.250
-717.777	-117.220	0.361	0.066
-716.762	15.150	-0.014	0.011
-715.748	34.552	0.312	-0.276
-714.733	-75.916	0.344	-0.123
-713.718	-200.000	-0.040	0.328
-712.704	-101.501	-0.025	-0.006
-711.689	800.000	0.042	-0.118
-710.675	-70.612	-0.222	-0.085
-709.660	-112.152	0.256	0.052
-708.645	-127.314	0.129	0.019
-707.631	800.000	-0.104	-0.299
-706.616	-40.034	-0.174	0.092
-705.602	-186.559	-0.253	0.004
-704.587	634.262	-0.113	-0.289
-703.572	800.000	-0.054	-0.234
-702.558	-38.980	-0.047	-0.025
-701.543	451.252	-0.100	-0.224
-700.529	75.267	0.151	-0.161
-699.514	228.709	0.072	-0.119
-698.499	-13.635	-0.343	0.224
-697.485	800.000	-0.063	-0.275
-696.470	383.085	-0.121	0.252
-695.456	230.086	0.179	-0.295
-694.441	-148.036	0.145	-0.012
-693.426	686.306	0.118	0.310
-692.412	52.777	0.072	0.070
-691.397	-71.330	-0.114	0.043
-690.383	-54.209	-0.189	-0.087
-689.368	156.551	-0.227	0.317
-688.354	-90.197	-0.329	-0.097
-687.339	239.611	-0.158	-0.265
-686.324	-24.980	-0.242	0.145
-685.310	775.980	-0.194	-0.536
-684.295	-36.590	-0.263	-0.143
-683.281	60.064	-0.234	-0.234
-682.266	47.206	0.191	-0.180
-681.251	-87.504	-0.313	0.096
-680.237	-167.814	0.191	0.008
-679.222	-116.162	-0.219	-0.041
-678.208	189.402	-0.086	-0.129
-677.193	-200.000	-0.009	-0.040
-676.178	-200.000	-0.018	0.365
-675.164	31.895	0.069	-0.060
-674.149	17.503	-0.363	-0.291
-673.135	50.449	-0.197	-0.188
-672.120	411.538	0.034	-0.073
-671.105	800.000	0.153	-0.510
-670.091	24.495	0.129	0.108
-669.076	-200.000	-0.017	-0.358
-668.062	-200.000	0.015	-0.249
-667.047	-200.000	-0.011	0.089
-666.032	80.563	0.237	-0.258
-665.018	-125.425	0.192	-0.029
-664.003	800.000	-0.109	-0.366
-662.989	800.000	-0.086	0.298
-661.974	-2.013	0.270	-0.191
-660.959	-200.000	0.003	-0.197
-659.945	617.090	0.032	-0.082
-658.930	800.000	-0.100	-0.375
-657.916	-94.075	-0.382	-0.106
-656.901	522.489	-0.108	0.256
-655.886	-78.190	-0.548	-0.190
-654.872	-106.185	-0.229	0.052
-653.857	800.000	0.035	0.141
-652.843	-200.000	-0.079	-0.386
-651.828	15.317	0.248	0.196
-650.814	-132.471	-0.131	0.017
-649.799	466.418	0.011	0.026
-648.784	800.000	-0.042	0.162
-647.770	171.347	-0.045	0.066
-646.755	-200.000	-0.033	0.195
-645.741	-96.838	-0.164	0.043
-644.726	-103.480	-0.350	-0.083
-643.711	-25.043	0.332	-0.198
-642.697	497.988	-0.165	-0.383
-641.682	-91.137	-0.187	-0.054
-640.668	-116.506	-0.422	-0.078
-639.653	-140.584	0.276	-0.029
-638.638	-58.406	-0.315	-0.138
-637.624	-125.217	0.157	-0.024
-636.609	-200.000	-0.031	-0.246
-635.595	-200.000	-0.025	0.250
-634.580	-175.574	-0.204	-0.006
-633.565	381.581	0.139	-0.288
-632.551	-53.073	-0.252	0.117
-631.536	62.330	-0.150	-0.151
-630.522	-156.302	0.295	0.019
-629.507	-75.352	0.102	-0.037
-628.492	-200.000	0.025	0.113
-627.478	-121.085	-0.355	0.060
-626.463	-74.891	-0.231	0.083
-625.449	-200.000	-0.080	-0.445
-624.434	448.705	-0.034	0.076
-623.419	-30.468	-0.137	-0.078
-622.405	178.818	0.040	-0.058
-621.390	-144.073	-0.124	-0.012
-620.376	800.000	-0.043	0.157
-619.361	800.000	-0.151	-0.425
-618.346	-43.860	-0.324	-0.164
-617.332	337.198	-0.015	0.030
-616.317	-200.000	0.045	-0.334
-615.303	495.806	0.127	0.293
-614.288	800.000	0.099	0.379
-613.273	-134.175	-0.324	0.040
-612.259	-200.000	0.001	0.191
-611.244	160.277	-0.244	-0.343
-610.230	53.834	-0.202	-0.195
-609.215	-53.671	0.246	0.113
-608.201	-46.221	0.351	0.174
-607.186	323.470	-0.094	0.180
-606.171	489.494	0.069	0.159
-605.157	800.000	-0.057	0.210
-604.142	-108.859	-0.112	-0.024
-603.128	-200.000	0.011	0.485
-602.113	-105.978	-0.069	-0.016
-601.098	-44.767	-0.184	0.092
-600.084	101.855	0.061	-0.072
-599.069	800.000	-0.087	-0.252
-598.055	800.000	0.036	0.145
-597.040	41.576	0.068	0.062
-596.025	-157.596	-0.211	-0.013
-595.011	-149.811	0.121	0.010
-593.996	233.124	-0.067	0.111
-592.982	141.273	0.077	0.103
-591.967	-200.000	0.022	0.136
-590.952	122.802	-0.091	0.114
-589.938	39.575	-0.162	0.146
-588.923	-196.968	0.069	0.000
-587.909	96.685	0.059	-0.067
-586.894	1.380	-0.014	0.010
-585.879	-200.000	-0.027	0.355
-584.865	240.742	0.148	0.248
-583.850	-77.832	-0.081	-0.028
-582.836	378.494	0.078	-0.160
-581.821	191.951	-0.048	-0.073
-580.806	7.149	0.107	-0.080
-579.792	78.993	-0.154	-0.165
-578.777	34.223	-0.140	0.123
-577.763	171.876	0.227	-0.328
-576.748	313.240	-0.075	0.142
-575.733	153.206	0.106	-0.145
-574.719	-42.378	-0.201	-0.103
-573.704	800.000	0.105	-0.337
-572.690	-200.000	0.081	-0.475
-571.675	-5.134	-0.333	0.230
-570.661	-101.787	-0.288	0.070
-569.646	181.246	-0.069	0.101
-568.631	-200.000	0.017	-0.204
-567.617	672.715	0.012	-0.031
-566.602	-200.000	-0.009	0.131
-565.588	5.072	-0.134	-0.099
-564.573	-200.000	-0.019	0.147
-563.558	-200.000	-0.033	0.331
-562.544	24.043	0.232	-0.192
-561.529	-29.326	-0.356	0.205
-560.515	772.592	-0.077	0.211
-559.500	800.000	-0.121	-0.520
-558.485	262.492	0.118	-0.206
-557.471	41.440	-0.050	-0.045
-556.456	354.876	0.092	0.183
-555.442	166.420	0.078	0.111
-554.427	16.595	0.176	0.139
-553.412	361.140	-0.196	0.394
-552.398	-2.186	-0.046	-0.033
-551.383	218.092	-0.133	0.212
-550.369	201.228	-0.089	0.137
-549.354	45.944	-0.186	-0.173
-548.339	-200.000	-0.018	0.284
-547.325	397.261	0.077	0.162
-546.310	800.000	-0.092	-0.299
-545.296	160.248	0.266	0.372
-544.281	661.277	0.070	0.180
-543.266	156.093	-0.264	0.365
-542.252	800.000	0.089	-0.381
-541.237	-200.000	0.019	-0.378
-540.223	149.806	-0.044	-0.060
-539.208	-57.159	0.335	0.148
-538.193	8.190	-0.293	0.221
-537.179	668.007	-0.032	-0.082
-536.164	358.368	-0.111	-0.222
-535.150	-30.169	-0.150	0.085
-534.135	-31.326	0.179	-0.101
-533.121	-81.400	0.358	-0.118
-532.106	-200.000	0.026	-0.168
-531.091	-200.000	-0.007	0.090
-530.077	800.000	0.033	-0.121
-529.062	-200.000	0.012	-0.086
-528.048	-152.949	-0.321	0.023
-527.033	-70.194	0.190	-0.072
-526.018	-193.389	0.341	0.003
-525.004	-9.002	-0.074	0.050
-523.989	163.304	-0.219	0.308
-522.975	-65.762	-0.217	-0.087
-521.960	74.343	0.219	-0.231
-520.945	800.000	-0.051	-0.184
-519.931	177.536	-0.029	0.042
-518.916	-95.007	0.216	0.058
-517.902	117.542	0.067	-0.083
-516.887	87.247	-0.202	-0.224
-515.872	-200.000	-0.015	0.171
-514.858	-200.000	-0.053	0.245
-513.843	800.000	0.005	0.013
-512.829	4.950	0.294	-0.217
-511.814	-200.000	0.029	-0.290
-510.799	-183.505	0.279	-0.005
-509.785	248.129	0.053	0.089
-508.770	122.532	0.093	-0.117
-507.756	-87.972	0.374	-0.113
-506.741	-35.909	-0.263	-0.142
-505.726	599.503	0.107	0.266
-504.712	36.741	0.101	0.090
-503.697	-80.024	-0.390	0.131
-502.683	476.324	0.035	0.079
-501.668	-127.134	0.143	0.021
-500.653	-199.068	-0.317	-0.002
-499.639	-104.341	0.275	-0.064
-498.624	-88.942	-0.124	-0.037
-497.610	472.826	0.138	0.310
-496.595	-90.927	0.148	-0.043
-495.581	-18.081	-0.346	-0.217
-494.566	40.409	-0.099	-0.089
-493.551	-154.551	-0.089	-0.006
-492.537	356.917	-0.185	-0.370
-491.522	-68.349	-0.217	0.084
-490.508	-186.579	-0.391	0.006
-489.493	7.065	0.131	-0.098
-488.478	-200.000	0.003	-0.087
-487.464	-125.474	-0.259	-0.039
-486.449	-200.000	0.031	0.308
-485.435	-200.000	0.020	0.301
-484.420	2.568	0.305	-0.221
-483.405	-200.000	0.024	-0.173
-482.391	384.090	0.198	-0.408
-481.376	172.642	0.059	0.084
-480.362	-20.811	-0.187	0.115
-479.347	8.161	-0.190	0.143
-478.332	235.346	-0.108	0.178
-477.318	-10.145	-0.187	-0.124
-476.303	593.264	0.059	0.146
-475.289	-200.000	0.010	-0.513
-474.274	-125.292	0.085	0.013
-473.259	-81.070	0.047	0.016
-472.245	-9.272	-0.257	-0.172
-471.230	-132.918	0.133	0.017
-470.216	205.806	-0.146	0.227
-469.201	106.078	-0.094	0.111
-468.186	38.915	-0.086	0.077
-467.172	-140.751	-0.263	0.027
-466.157	70.295	-0.254	0.262
-465.143	800.000	-0.076	-0.222
-464.128	-200.000	-0.002	-0.052
-463.113	-54.952	-0.019	-0.009
-462.099	-119.619	0.225	-0.039
-461.084	38.189	-0.318	-0.283
-460.070	800.000	0.035	0.127
-459.055	-43.473	-0.179	0.090
-458.040	-83.013	0.190	0.061
-457.026	-107.607	-0.422	0.092
-456.011	-137.517	0.074	0.008
-454.997	-200.000	-0.012	-0.399
-453.982	-71.072	0.096	0.036
-452.968	-153.561	0.387	-0.027
-451.953	307.831	-0.090	0.168
-450.938	800.000	-0.087	-0.309
-449.924	-69.135	0.078	-0.030
-448.909	-200.000	-0.007	0.079
-447.895	-91.187	0.165	-0.047
-446.880	-99.324	0.341	0.086
-445.865	70.922	0.087	-0.090
-444.851	16.941	-0.182	0.144
-443.836	-15.318	-0.369	-0.236
-442.822	217.798	0.038	-0.061
-441.807	-123.299	0.359	-0.057
-440.792	-55.266	0.257	0.115
-439.778	146.488	0.137	-0.183
-438.763	-147.079	0.266	-0.023
-437.749	56.052	-0.171	0.165
-436.734	86.320	-0.221	0.243
-435.719	-74.057	-0.157	0.057
-434.705	-102.643	-0.169	0.040
-433.690	800.000	0.061	-0.175
-432.676	113.840	-0.327	-0.397
-431.661	-48.353	-0.340	-0.164
-430.646	800.000	-0.073	0.233
-429.632	-200.000	-0.031	0.214
-428.617	-183.705	0.235	0.004
-427.603	800.000	0.117	0.370
-426.588	-77.241	0.152	0.053
-425.573	-200.000	-0.011	-0.194
-424.559	-200.000	-0.048	0.262
-423.544	35.681	-0.195	-0.171
-422.530	-31.368	-0.138	-0.078
-421.515	38.540	0.158	-0.140
-420.500	608.927	0.127	-0.317
-419.486	-104.930	0.153	-0.035
-418.471	-125.007	0.317	0.049
-417.457	82.964	0.041	-0.044
-416.442	147.421	0.010	0.013
-415.428	-28.708	0.032	0.018
-414.413	-27.373	-0.256	0.149
-413.398	22.333	0.278	0.227
-412.384	225.836	-0.185	-0.300
-411.369	20.569	0.425	-0.343
-410.355	-32.021	-0.342	0.191
-409.340	127.899	-0.065	-0.083
-408.325	-7.230	-0.195	0.132
-407.311	-200.000	-0.022	0.225
-406.296	-200.000	0.032	0.154
-405.282	-103.923	0.176	-0.041
-404.267	-200.000	0.062	0.365
-403.252	215.838	0.238	-0.378
-402.238	-200.000	-0.016	-0.333
-401.223	-100.827	0.030	-0.007
-400.209	-109.089	0.312	0.066
-399.194	-115.908	-0.287	0.054
-398.179	800.000	0.023	0.087
-397.165	-200.000	0.006	0.339
-396.150	548.891	-0.092	0.220
-395.136	800.000	-0.010	0.034
-394.121	-87.238	0.078	0.024
-393.106	199.940	0.046	0.070
-392.092	68.926	0.059	0.061
-391.077	-200.000	0.018	0.080
-390.063	-120.616	0.495	0.084
-389.048	-200.000	0.011	0.053
-388.033	160.274	0.191	0.265
-387.019	18.947	0.173	-0.138
-386.004	-200.000	-0.022	0.215
-384.990	-200.000	0.026	0.176
-383.975	800.000	0.075	0.242
-382.960	-44.982	-0.340	0.169
-381.946	-77.982	-0.240	-0.082
-380.931	26.742	0.086	-0.072
-379.917	8.685	-0.167	0.126
-378.902	790.441	-0.130	-0.356
-377.888	208.064	-0.068	0.106
-376.873	-37.044	-0.159	0.085
-375.858	231.570	-0.051	0.084
-374.844	290.625	-0.131	0.238
-373.829	-19.433	-0.163	0.101
-372.815	14.494	0.129	0.100
-371.800	-200.000	0.070	0.000
-370.785	-127.282	-0.194	0.028
-369.771	-200.000	0.037	0.268
-368.756	800.000	-0.091	0.284
-367.742	-200.000	-0.021	-0.162
-366.727	-144.325	0.259	0.024
-365.712	152.310	-0.148	-0.201
-364.698	-200.000	-0.076	-0.366
-363.683	-68.295	0.231	-0.089
-362.669	-95.414	-0.134	0.036
-361.654	363.848	-0.020	-0.040
-360.639	-48.816	-0.216	0.103
-359.625	227.765	0.060	-0.097
-358.610	399.168	0.178	0.371
-357.596	-200.000	0.022	-0.204
-356.581	-200.000	0.022	-0.167
-355.566	52.272	0.069	-0.065
-354.552	-5.144	0.168	0.115
-353.537	-153.783	0.285	0.019
-352.523	214.986	-0.082	-0.130
-351.508	-34.629	0.376	-0.205
-350.493	754.190	-0.065	0.175
-349.479	157.772	-0.109	-0.151
-348.464	-103.032	-0.371	0.088
-347.450	51.271	0.231	-0.218
-346.435	800.000	-0.045	-0.167
-345.420	80.466	0.164	0.176
-344.406	7.160	-0.191	0.142
-343.391	262.844	0.087	0.150
-342.377	-17.096	0.126	-0.079
-341.362	-67.543	0.253	-0.099
-340.348	-200.000	0.027	-0.246
-339.333	-133.368	-0.127	-0.016
-338.318	42.281	0.148	-0.134
-337.304	-106.670	-0.141	0.031
-336.289	-42.945	0.205	-0.103
-335.275	-8.157	0.086	-0.058
-334.260	76.127	0.266	0.281
-333.245	-200.000	0.011	0.241
-332.231	-170.077	0.166	0.006
-331.216	-165.272	-0.217	0.010
-330.202	-200.000	0.001	-0.111
-329.187	-131.129	-0.157	-0.021
-328.172	2.662	-0.076	-0.055
-327.158	-48.096	0.097	0.046
-326.143	-16.025	0.020	0.012
-325.129	-97.147	0.078	0.020
-324.114	-45.779	0.287	-0.141
-323.099	-113.638	0.346	0.067
-322.085	-104.289	0.417	-0.096
-321.070	800.000	-0.095	-0.311
-320.056	123.619	-0.103	0.128
-319.041	-74.609	0.171	0.061
-318.026	326.231	0.056	0.107
-317.012	-200.000	0.056	0.267
-315.997	-200.000	-0.084	0.440
-314.983	107.883	-0.069	0.082
-313.968	-131.299	0.288	0.038
-312.953	37.922	0.220	0.195
-311.939	125.272	-0.080	-0.101
-310.924	-33.927	-0.290	0.159
-309.910	-126.663	-0.378	-0.056
-308.895	-200.000	0.001	-0.227
-307.880	-200.000	0.058	0.000
-306.866	800.000	-0.102	-0.401
-305.851	466.136	0.132	0.295
-304.837	197.167	-0.156	0.237
-303.822	-157.315	0.266	0.016
-302.807	-145.033	0.213	-0.019
-301.793	-200.000	0.015	0.540
-300.778	-58.186	0.318	-0.138
-299.764	-177.863	-0.159	-0.004
-298.749	800.000	0.094	-0.263
-297.735	-114.290	0.306	0.059
-296.720	-27.270	-0.243	0.140
-295.705	-91.040	-0.182	-0.052
-294.691	369.299	-0.113	-0.226
-293.676	800.000	-0.033	0.119
-292.662	-76.423	-0.123	-0.043
-291.647	800.000	0.041	-0.135
-290.632	-200.000	0.035	-0.234
-289.618	-47.719	0.305	0.147
-288.603	-92.913	0.275	-0.076
-287.589	-5.942	-0.358	-0.243
-286.574	-200.000	0.092	-0.492
-285.559	147.634	0.101	-0.136
-284.545	-62.638	0.107	-0.044
-283.530	-200.000	-0.022	-0.120
-282.516	395.441	-0.092	-0.190
-281.501	-118.576	-0.049	0.009
-280.486	-74.947	-0.261	-0.093
-279.472	-127.242	-0.112	-0.016
-278.457	-140.193	0.577	0.060
-277.443	681.154	-0.060	0.155
-276.428	-91.538	0.200	-0.057
-275.413	-143.103	-0.364	-0.035
-274.399	-143.362	-0.372	-0.035
-273.384	-162.476	-0.280	-0.014
-272.370	231.142	0.177	-0.288
-271.355	-131.297	0.241	0.032
-270.340	-11.287	0.214	0.140
-269.326	-146.760	0.337	0.029
-268.311	-59.503	-0.217	0.093
-267.297	12.204	-0.170	-0.130
-266.282	-200.000	-0.023	0.185
-265.267	312.617	-0.143	-0.266
-264.253	534.281	0.088	0.208
-263.238	-61.101	-0.393	-0.165
-262.224	160.532	-0.215	-0.298
-261.209	226.720	0.196	-0.317
-260.195	800.000	0.081	0.240
-259.180	-163.933	-0.172	-0.008
-258.165	-200.000	-0.027	-0.311
-257.151	4.444	0.116	0.084
-256.136	364.294	-0.131	-0.261
-255.122	-33.113	0.382	-0.210
-254.107	142.268	-0.124	0.163
-253.092	-200.000	-0.278	-0.001
-252.078	-146.184	-0.283	0.025
-251.063	12.528	0.187	-0.143
-250.049	800.000	-0.059	-0.171
-249.034	191.944	0.187	0.279
-248.019	133.998	0.114	0.146
-247.005	44.596	-0.300	0.274
-245.990	68.434	0.203	-0.207
-244.976	661.560	0.150	-0.382
-243.961	95.450	-0.192	0.217
-242.946	-133.228	0.331	0.041
-241.932	-174.162	-0.272	-0.008
-240.917	357.764	-0.243	-0.480
-239.903	75.595	-0.253	0.265
-238.888	49.996	0.086	0.081
-237.873	-53.958	-0.115	-0.052
-236.859	16.898	0.275	0.216
-235.844	388.234	0.056	-0.116
-234.830	-200.000	0.018	0.153
-233.815	467.939	-0.071	0.159
-232.800	-90.585	0.492	0.141
-231.786	-194.206	0.128	-0.001
-230.771	800.000	-0.085	-0.340
-229.757	33.094	0.221	0.189
-228.742	-46.731	0.272	0.132
-227.727	-200.000	0.057	0.410
-226.713	-120.085	-0.106	-0.018
-225.698	-163.057	-0.146	-0.007
-224.684	46.803	0.180	-0.166
-223.669	40.026	0.087	0.077
-222.655	58.639	0.255	-0.248
-221.640	-31.886	0.136	-0.075
-220.625	800.000	0.068	-0.255
-219.611	528.351	0.130	0.303
-218.596	-200.000	-0.144	-0.000
-217.582	-200.000	-0.018	-0.102
-216.567	-97.358	-0.049	0.013
-215.552	-146.880	0.199	0.017
-214.538	457.536	-0.045	-0.098
-213.523	-145.284	0.265	-0.024
-212.509	25.641	-0.156	-0.129
-211.494	284.082	-0.092	-0.164
-210.479	800.000	-0.023	-0.066
-209.465	-131.069	0.173	-0.023
-208.450	800.000	0.037	0.113
-207.436	-110.643	0.434	-0.089
-206.421	425.617	-0.096	-0.206
-205.406	19.210	-0.062	0.049
-204.392	96.721	0.135	-0.153
-203.377	88.045	-0.221	-0.243
-202.363	-180.873	0.233	0.005
-201.348	-200.000	-0.012	-0.278
-200.333	-184.345	-0.298	-0.005
-199.319	-93.722	0.268	0.073
-198.304	5.268	0.157	-0.114
-197.290	-74.106	0.157	-0.056
-196.275	-163.387	-0.376	0.018
-195.260	-57.979	-0.527	0.228
-194.246	-26.661	0.251	0.145
-193.231	-99.693	-0.357	0.089
-192.217	540.942	0.061	0.143
-191.202	-6.836	0.245	-0.165
-190.187	-200.000	-0.007	-0.084
-189.173	372.010	-0.103	0.207
-188.158	7.257	-0.237	0.175
-187.144	40.314	-0.074	-0.066
-186.129	82.032	0.217	0.233
-185.114	-200.000	-0.013	0.179
-184.100	800.000	0.080	-0.279
-183.085	-200.000	-0.003	0.247
-182.071	800.000	-0.111	0.451
-181.056	-6.510	-0.097	0.065
-180.042	11.556	-0.077	-0.059
-179.027	540.921	-0.119	0.281
-178.012	477.210	0.091	-0.203
-176.998	-90.533	0.105	0.030
-175.983	205.730	0.044	0.068
-174.969	-155.316	0.160	0.010
-173.954	-131.271	-0.262	-0.034
-172.939	-67.825	0.352	0.136
-171.925	-33.509	0.298	0.163
-170.910	-33.390	0.322	-0.176
-169.896	525.730	0.106	-0.247
-168.881	37.157	-0.164	-0.144
-167.866	-200.000	0.014	-0.150
-166.852	155.462	0.233	0.318
-165.837	-108.760	0.072	0.015
-164.823	-184.836	0.265	0.004
-163.808	755.424	0.114	0.304
-162.793	-84.481	-0.435	-0.136
-161.779	2.232	0.131	0.093
-160.764	371.354	0.070	0.139
-159.750	800.000	-0.048	0.192
-158.735	26.164	-0.164	0.135
-157.720	37.249	0.270	0.236
-156.706	-22.956	-0.243	-0.145
-155.691	-64.674	0.223	-0.089
-154.677	178.684	-0.056	0.081
-153.662	800.000	0.017	-0.073
-152.647	-52.940	-0.143	-0.065
-151.633	-26.369	0.230	-0.134
-150.618	417.757	0.172	0.363
-149.604	111.504	0.196	0.233
-148.589	-200.000	0.040	0.383
-147.574	-45.596	0.074	0.036
-146.560	367.682	0.249	0.498
-145.545	-56.335	0.079	-0.035
-144.531	360.248	0.141	-0.279
-143.516	-163.856	-0.079	0.004
-142.502	191.010	-0.182	-0.270
-141.487	280.445	-0.096	-0.169
-140.472	-200.000	0.033	-0.405
-139.458	-55.439	0.116	-0.051
-138.443	91.255	-0.056	-0.062
-137.429	15.650	-0.183	0.142
-136.414	-69.837	-0.171	-0.064
-135.399	-56.018	0.072	0.032
-134.385	97.870	0.151	-0.171
-133.370	157.039	0.030	-0.041
-132.356	-12.774	-0.226	-0.146
-131.341	800.000	-0.127	0.423
-130.326	273.715	-0.227	0.396
-129.312	-62.467	0.072	-0.029
-128.297	73.574	0.104	-0.107
-127.283	-156.845	0.260	0.016
-126.268	42.424	-0.091	-0.082
-125.253	157.586	0.282	-0.386
-124.239	-136.395	-0.066	-0.008
-123.224	32.419	0.349	0.297
-122.210	-200.000	-0.034	0.226
-121.195	-61.278	-0.019	0.008
