DTS Sentinel unit serial number:	SN413079Multiplexer serial number:	ORYXHardware model number:	OX4-SRSoftware version number:	ORYX F/W v4.00 Oryx Data Collector v3.7.2.0data status	okinstallation	princeton_trtdifferential loss correction	single-endedforward channel	channel 1reverse channel	N/Adate	2019/09/17time	20:42:35forward acquisition time	60.00reverse acquisition time	0.00gamma	496.2192k internal	0.2331k external	0.2331temperature offset calibration	0.9982default loss term (dB/km)	0.3790temperature slope calibration	1.0000multiplexer offset coefficient	1.0000multiplexer slope coefficient	1.0000fibre end	0.00T internal ref (°C)	29.77T ext. ref 1 (°C)	0.20T ext. ref 2 (°C)	20.78length (m)	temperature (°C)	Stokes	anti-Stokes-747.200	375.873	0.078	0.161
-746.185	427.655	0.086	0.187
-745.171	-125.711	0.113	-0.017
-744.156	-125.686	-0.246	0.037
-743.142	-27.474	-0.219	0.128
-742.127	-200.000	-0.009	-0.045
-741.112	-106.946	0.098	0.022
-740.098	-121.358	0.105	-0.018
-739.083	-53.129	-0.093	-0.043
-738.069	-200.000	-0.030	0.215
-737.054	-155.740	-0.289	-0.019
-736.039	75.386	-0.211	-0.224
-735.025	40.817	0.180	-0.164
-734.010	-200.000	-0.058	-0.291
-732.996	158.182	-0.103	-0.144
-731.981	-96.167	-0.141	0.038
-730.966	270.688	0.117	-0.208
-729.952	-163.282	-0.361	0.017
-728.937	-200.000	0.018	-0.216
-727.923	-15.187	-0.052	0.033
-726.908	-25.339	-0.288	-0.171
-725.894	21.965	0.283	-0.232
-724.879	227.810	0.103	-0.168
-723.864	22.245	0.201	-0.165
-722.850	800.000	0.088	-0.298
-721.835	184.514	-0.107	0.159
-720.821	-200.000	-0.036	-0.216
-719.806	-148.790	-0.419	-0.034
-718.791	208.790	0.103	0.162
-717.777	-200.000	0.007	0.175
-716.762	193.938	-0.134	-0.204
-715.748	-200.000	-0.019	-0.107
-714.733	800.000	0.112	0.417
-713.718	-200.000	0.024	0.305
-712.704	-89.690	-0.258	-0.076
-711.689	702.937	-0.101	-0.267
-710.675	245.187	0.095	-0.161
-709.660	-200.000	0.085	-0.433
-708.645	-200.000	-0.009	0.340
-707.631	-140.250	-0.587	0.062
-706.616	-73.794	0.260	-0.095
-705.602	134.158	-0.211	0.275
-704.587	-61.721	0.001	-0.000
-703.572	800.000	-0.021	0.074
-702.558	430.499	-0.085	0.184
-701.543	-102.848	-0.039	0.009
-700.529	-82.090	0.082	-0.027
-699.514	13.318	-0.096	-0.075
-698.499	214.676	-0.024	-0.038
-697.485	-102.929	0.086	-0.021
-696.470	-66.506	0.230	0.092
-695.456	-200.000	0.011	-0.288
-694.441	-55.284	0.195	0.088
-693.426	173.923	0.191	-0.277
-692.412	31.832	-0.349	-0.302
-691.397	26.414	-0.201	0.168
-690.383	-132.485	-0.347	-0.045
-689.368	-200.000	0.007	-0.095
-688.354	-177.812	0.079	0.002
-687.339	-200.000	-0.003	0.175
-686.324	-122.586	0.232	-0.038
-685.310	-57.125	-0.122	-0.054
-684.295	-92.540	0.101	-0.029
-683.281	505.539	0.077	0.179
-682.266	-30.049	0.145	-0.083
-681.251	-81.834	0.440	0.145
-680.237	549.616	-0.072	0.172
-679.222	753.391	-0.058	-0.158
-678.208	76.733	0.232	-0.248
-677.193	203.099	-0.096	-0.149
-676.178	160.598	0.316	-0.442
-675.164	151.381	-0.134	0.184
-674.149	0.232	0.132	0.095
-673.135	388.177	-0.136	-0.282
-672.120	51.656	-0.073	-0.070
-671.105	-74.995	-0.221	0.079
-670.091	-127.233	0.228	0.033
-669.076	389.465	-0.075	-0.156
-668.062	72.094	-0.122	-0.128
-667.047	-78.480	-0.393	-0.135
-666.032	-200.000	0.006	0.316
-665.018	-185.692	0.335	-0.005
-664.003	-30.322	0.148	0.084
-662.989	16.415	-0.291	-0.230
-661.974	800.000	-0.071	-0.253
-660.959	-200.000	-0.015	0.302
-659.945	-200.000	-0.006	-0.116
-658.930	91.491	-0.120	0.135
-657.916	-200.000	0.006	0.354
-656.901	-45.550	-0.279	0.138
-655.886	-134.250	0.228	-0.028
-654.872	486.118	-0.079	-0.181
-653.857	-136.828	0.299	-0.034
-652.843	-200.000	0.046	-0.340
-651.828	-87.257	-0.182	-0.055
-650.814	201.458	-0.059	0.092
-649.799	800.000	-0.034	-0.096
-648.784	420.234	-0.031	-0.067
-647.770	169.895	-0.212	0.303
-646.755	579.040	0.114	-0.279
-645.741	800.000	-0.034	-0.129
-644.726	-153.854	-0.110	-0.008
-643.711	84.550	0.088	-0.097
-642.697	-127.478	-0.209	-0.030
-641.682	166.210	0.186	-0.264
-640.668	-137.506	-0.067	0.008
-639.653	-130.520	0.304	-0.041
-638.638	-139.734	0.184	-0.020
-637.624	-31.791	-0.090	0.051
-636.609	-89.616	-0.508	-0.149
-635.595	-200.000	-0.002	-0.095
-634.580	31.968	0.155	0.134
-633.565	-50.795	0.328	0.155
-632.551	11.606	0.143	-0.110
-631.536	185.832	-0.168	-0.250
-630.522	131.587	-0.175	-0.225
-629.507	-85.932	-0.134	0.041
-628.492	793.469	-0.035	-0.095
-627.478	-200.000	-0.009	0.164
-626.463	-60.113	-0.135	0.058
-625.449	94.989	-0.060	0.068
-624.434	220.355	-0.138	0.222
-623.419	800.000	0.053	0.181
-622.405	239.922	0.130	0.217
-621.390	-129.036	0.159	0.022
-620.376	-200.000	0.059	-0.371
-619.361	-140.497	0.314	-0.033
-618.346	255.038	-0.055	0.094
-617.332	242.090	0.097	-0.163
-616.317	-128.243	-0.220	-0.032
-615.303	800.000	0.019	0.081
-614.288	16.023	0.159	-0.125
-613.273	84.113	0.100	0.110
-612.259	241.895	-0.166	0.278
-611.244	-83.809	-0.224	-0.071
-610.230	800.000	-0.079	-0.233
-609.215	47.388	-0.181	0.168
-608.201	166.790	0.065	-0.093
-607.186	60.842	0.068	-0.067
-606.171	800.000	-0.099	0.281
-605.157	-153.814	0.143	-0.010
-604.142	-113.634	0.055	-0.011
-603.128	168.770	0.206	-0.294
-602.113	320.431	-0.135	-0.256
-601.098	-53.358	-0.190	0.087
-600.084	-85.930	-0.256	0.079
-599.069	68.161	0.184	0.189
-598.055	73.440	-0.146	0.152
-597.040	527.393	-0.127	-0.300
-596.025	-58.592	0.410	0.178
-595.011	-133.498	-0.335	0.042
-593.996	18.009	-0.047	-0.038
-592.982	-113.955	0.138	0.027
-591.967	-41.564	-0.179	-0.092
-590.952	-126.569	-0.263	-0.039
-589.938	-58.378	0.150	0.065
-588.923	39.802	-0.264	0.237
-587.909	417.378	0.153	0.326
-586.894	-11.944	0.318	-0.208
-585.879	-200.000	-0.012	-0.564
-584.865	382.333	0.072	0.148
-583.850	800.000	-0.050	0.193
-582.836	-87.423	-0.080	-0.024
-581.821	112.913	-0.385	0.466
-580.806	800.000	0.137	0.449
-579.792	244.703	-0.094	0.158
-578.777	82.606	0.222	-0.241
-577.763	-200.000	0.017	0.096
-576.748	-72.378	0.193	-0.071
-575.733	-200.000	-0.020	0.391
-574.719	-76.806	0.099	-0.034
-573.704	-11.146	0.441	0.291
-572.690	97.172	-0.194	0.223
-571.675	-134.346	0.142	0.017
-570.661	-42.493	-0.021	-0.011
-569.646	-51.443	0.286	-0.133
-568.631	-200.000	0.051	-0.319
-567.617	13.653	-0.136	-0.106
-566.602	359.266	-0.155	-0.310
-565.588	84.606	-0.119	-0.131
-564.573	-102.423	-0.168	0.040
-563.558	-200.000	0.011	-0.187
-562.544	236.734	0.064	-0.107
-561.529	168.606	-0.162	0.231
-560.515	43.460	0.090	-0.082
-559.500	-5.836	0.148	-0.101
-558.485	-200.000	-0.012	0.095
-557.471	-200.000	-0.047	-0.407
-556.456	-9.898	-0.232	0.155
-555.442	-56.116	0.154	-0.069
-554.427	108.400	0.035	-0.041
-553.412	800.000	0.041	-0.164
-552.398	800.000	0.063	-0.273
-551.383	800.000	-0.130	-0.363
-550.369	-43.445	0.264	0.133
-549.354	568.843	-0.071	0.173
-548.339	300.221	-0.193	0.355
-547.325	800.000	0.138	0.396
-546.310	-114.286	-0.323	0.062
-545.296	-127.971	0.169	-0.024
-544.281	-132.093	0.273	0.035
-543.266	154.712	-0.224	-0.307
-542.252	140.623	-0.212	-0.280
-541.237	589.232	0.101	0.248
-540.223	-36.276	-0.102	-0.055
-539.208	4.023	0.057	-0.042
-538.193	-100.504	0.122	-0.030
-537.179	-200.000	0.045	0.232
-536.164	-200.000	0.262	-0.001
-535.150	292.572	-0.169	-0.308
-534.135	98.798	-0.225	0.259
-533.121	340.110	0.081	-0.159
-532.106	-200.000	0.026	-0.125
-531.091	-19.699	-0.284	-0.175
-530.077	-154.698	-0.038	-0.003
-529.062	-50.965	-0.155	0.073
-528.048	50.875	0.047	-0.045
-527.033	7.973	-0.220	0.165
-526.018	143.220	-0.246	-0.327
-525.004	800.000	-0.020	-0.068
-523.989	-109.007	-0.351	0.075
-522.975	800.000	-0.140	-0.389
-521.960	-71.683	-0.180	0.067
-520.945	30.570	0.189	-0.161
-519.931	257.888	0.020	-0.034
-518.916	-98.141	0.298	0.076
-517.902	151.751	-0.203	0.277
-516.887	-26.230	-0.121	-0.071
-515.872	467.221	0.093	-0.209
-514.858	-29.849	-0.154	-0.088
-513.843	436.464	-0.124	0.268
-512.829	49.126	0.093	-0.087
-511.814	-200.000	0.044	-0.230
-510.799	25.847	0.220	0.182
-509.785	642.655	0.060	0.152
-508.770	-58.216	-0.050	0.022
-507.756	385.740	0.140	0.287
-506.741	-200.000	-0.039	-0.609
-505.726	27.781	-0.217	0.182
-504.712	800.000	0.035	-0.130
-503.697	-15.763	-0.239	-0.152
-502.683	133.820	0.113	-0.146
-501.668	31.256	0.130	-0.111
-500.653	800.000	-0.068	-0.215
-499.639	372.058	0.031	0.062
-498.624	-116.494	-0.331	0.061
-497.610	-69.595	-0.212	0.081
-496.595	-200.000	0.015	0.179
-495.581	223.275	-0.022	-0.035
-494.566	561.926	-0.082	-0.197
-493.551	196.227	0.032	0.049
-492.537	-159.253	0.223	-0.012
-491.522	266.925	0.022	-0.038
-490.508	-82.039	0.166	0.054
-489.493	46.618	0.310	0.287
-488.478	-178.704	0.273	-0.006
-487.464	-45.548	0.503	0.248
-486.449	62.634	0.127	-0.127
-485.435	231.144	-0.164	-0.267
-484.420	-86.530	0.283	0.087
-483.405	-63.146	0.281	0.115
-482.391	-200.000	0.085	-0.386
-481.376	-60.988	0.206	-0.087
-480.362	-75.842	-0.092	0.033
-479.347	420.323	0.158	0.337
-478.332	-132.138	0.123	-0.016
-477.318	268.334	0.156	-0.273
-476.303	275.246	0.112	0.197
-475.289	-200.000	0.018	0.180
-474.274	450.754	-0.033	0.072
-473.259	-107.260	0.161	0.035
-472.245	800.000	-0.057	0.171
-471.230	-36.913	-0.087	-0.046
-470.216	-44.521	0.088	-0.044
-469.201	-51.231	-0.142	-0.066
-468.186	-74.730	0.530	-0.190
-467.172	376.417	-0.059	0.120
-466.157	-96.062	0.150	-0.040
-465.143	-113.306	0.114	-0.022
-464.128	-37.651	-0.222	-0.118
-463.113	-113.376	0.282	0.055
-462.099	68.994	-0.232	-0.238
-461.084	-26.700	-0.394	0.229
-460.070	9.367	0.170	-0.128
-459.055	-200.000	0.054	0.427
-458.040	800.000	0.041	-0.127
-457.026	-150.869	0.155	0.012
-456.011	91.181	0.124	-0.138
-454.997	200.258	-0.162	0.247
-453.982	273.584	-0.139	0.245
-452.968	61.301	0.163	-0.161
-451.953	9.233	0.330	0.248
-450.938	18.372	-0.170	-0.135
-449.924	-69.573	-0.168	-0.064
-448.909	292.919	0.147	0.267
-447.895	-93.418	-0.276	-0.076
-446.880	800.000	0.086	-0.248
-445.865	-31.296	0.172	0.097
-444.851	23.566	-0.197	-0.161
-443.836	53.435	-0.108	-0.103
-442.822	302.694	-0.140	0.258
-441.807	738.943	-0.041	0.108
-440.792	-94.789	-0.229	-0.062
-439.778	530.040	0.080	-0.188
-438.763	-33.490	-0.232	-0.128
-437.749	-51.287	-0.349	-0.163
-436.734	-139.069	0.327	-0.035
-435.719	230.477	-0.102	0.166
-434.705	595.990	0.094	-0.232
-433.690	-80.805	0.257	0.085
-432.676	-88.830	0.120	-0.036
-431.661	-109.665	0.449	-0.094
-430.646	17.591	0.224	0.177
-429.632	-200.000	-0.012	-0.326
-428.617	-200.000	-0.045	0.217
-427.603	-200.000	0.012	0.174
-426.588	52.312	0.176	-0.166
-425.573	800.000	0.063	0.236
-424.559	-200.000	0.081	0.375
-423.544	-84.455	-0.155	-0.049
-422.530	78.631	-0.139	-0.148
-421.515	308.987	-0.030	0.056
-420.500	800.000	0.098	-0.411
-419.486	-50.427	-0.126	0.059
-418.471	-106.935	-0.122	-0.027
-417.457	-200.000	0.003	-0.232
-416.442	-67.251	-0.038	-0.015
-415.428	57.608	-0.064	-0.063
-414.413	-81.248	-0.174	0.057
-413.398	-91.953	0.195	-0.055
-412.384	-169.312	-0.434	0.016
-411.369	-142.870	0.151	0.015
-410.355	211.315	0.081	0.126
-409.340	-67.400	-0.058	-0.023
-408.325	39.968	0.033	-0.030
-407.311	635.340	0.137	0.345
-406.296	-57.711	-0.106	0.046
-405.282	222.620	-0.059	-0.094
-404.267	-46.406	0.207	-0.101
-403.252	-114.610	0.269	-0.051
-402.238	-200.000	-0.031	-0.283
-401.223	-47.763	-0.236	0.114
-400.209	239.733	0.249	0.411
-399.194	-95.493	-0.040	-0.011
-398.179	-200.000	-0.005	-0.061
-397.165	-73.678	0.101	0.037
-396.150	139.977	0.057	-0.075
-395.136	83.796	0.038	-0.042
-394.121	412.386	-0.075	-0.158
-393.106	-200.000	0.008	0.226
-392.092	-200.000	-0.043	0.264
-391.077	135.715	0.061	-0.079
-390.063	-200.000	0.048	0.218
-389.048	-200.000	-0.052	0.454
-388.033	-24.816	-0.006	-0.003
-387.019	320.309	-0.082	0.155
-386.004	-200.000	0.016	-0.117
-384.990	-20.104	-0.091	0.056
-383.975	-148.467	-0.286	-0.023
-382.960	-200.000	-0.017	-0.080
-381.946	800.000	0.040	0.129
-380.931	149.464	-0.172	-0.231
-379.917	-200.000	-0.011	0.103
-378.902	800.000	0.005	0.018
-377.888	84.928	0.011	0.012
-376.873	-84.965	0.073	-0.023
-375.858	-200.000	-0.021	0.212
-374.844	322.940	-0.099	0.188
-373.829	47.891	-0.225	-0.209
-372.815	-35.981	0.308	0.165
-371.800	-22.920	-0.138	0.082
-370.785	-200.000	0.002	0.215
-369.771	-200.000	0.023	0.309
-368.756	115.756	0.232	-0.281
-367.742	60.632	0.088	-0.086
-366.727	397.321	0.084	0.174
-365.712	524.840	-0.036	0.085
-364.698	800.000	0.047	0.133
-363.683	-125.212	0.211	-0.032
-362.669	-84.358	0.062	-0.019
-361.654	-200.000	-0.032	-0.289
-360.639	-200.000	0.022	-0.101
-359.625	13.002	-0.175	0.134
-358.610	-25.773	-0.279	0.163
-357.596	178.519	-0.114	-0.166
-356.581	-55.597	-0.085	-0.038
-355.566	336.844	0.040	0.077
-354.552	-24.080	-0.137	0.081
-353.537	-150.819	-0.160	0.012
-352.523	1.213	0.173	0.123
-351.508	-88.464	-0.132	0.039
-350.493	-147.938	0.284	-0.023
-349.479	276.369	0.068	-0.120
-348.464	-47.019	-0.135	-0.066
-347.450	72.297	0.223	0.230
-346.435	227.391	-0.261	0.421
-345.420	103.563	0.033	0.039
-344.406	151.893	-0.224	0.302
-343.391	-72.012	0.090	0.033
-342.377	800.000	0.233	-0.686
-341.362	-84.602	0.295	-0.092
-340.348	106.354	-0.099	-0.116
-339.333	800.000	-0.023	0.067
-338.318	800.000	-0.066	0.252
-337.304	478.316	-0.124	0.279
-336.289	-200.000	-0.057	0.279
-335.275	419.772	0.140	0.298
-334.260	800.000	-0.111	-0.323
-333.245	-31.215	-0.309	-0.173
-332.231	-200.000	0.001	0.133
-331.216	800.000	-0.059	-0.214
-330.202	-72.295	0.060	-0.022
-329.187	166.232	-0.072	-0.101
-328.172	-69.362	0.226	-0.086
-327.158	-127.594	-0.121	0.017
-326.143	-113.218	0.399	-0.078
-325.129	101.309	-0.131	-0.151
-324.114	-200.000	-0.097	0.463
-323.099	-50.415	-0.278	0.130
-322.085	-110.266	-0.075	0.015
-321.070	800.000	0.088	-0.296
-320.056	165.454	-0.056	-0.078
-319.041	-199.540	0.199	0.001
-318.026	-174.196	-0.258	0.007
-317.012	-27.515	0.165	-0.095
-315.997	-51.373	-0.197	0.091
-314.983	164.735	-0.191	-0.266
-313.968	-192.427	-0.384	0.004
-312.953	-200.000	-0.070	-0.364
-311.939	631.654	-0.060	-0.151
-310.924	-103.935	-0.325	0.075
-309.910	-123.876	0.113	0.018
-308.895	-165.163	-0.027	0.001
-307.880	-200.000	0.033	0.172
-306.866	-200.000	-0.067	0.353
-305.851	122.948	0.127	0.157
-304.837	-170.619	-0.295	-0.010
-303.822	-200.000	-0.009	-0.104
-302.807	-36.948	0.247	-0.131
-301.793	-27.188	0.416	-0.240
-300.778	280.304	-0.117	0.206
-299.764	-200.000	-0.018	0.246
-298.749	-200.000	-0.031	0.236
-297.735	-64.755	-0.200	-0.080
-296.720	-158.507	0.208	0.012
-295.705	96.538	-0.102	0.115
-294.691	-200.000	0.299	0.001
-293.676	-89.927	-0.138	-0.040
-292.662	26.142	-0.348	-0.287
-291.647	56.697	0.006	-0.006
-290.632	385.635	0.052	0.107
-289.618	276.389	-0.145	0.255
-288.603	389.365	0.148	0.303
-287.589	-41.162	-0.253	0.129
-286.574	-200.000	-0.032	-0.217
-285.559	8.869	0.128	-0.096
-284.545	276.632	-0.056	0.099
-283.530	-200.000	-0.021	0.178
-282.516	180.058	0.016	-0.023
-281.501	-102.173	-0.274	-0.065
-280.486	-200.000	0.001	0.238
-279.472	-1.480	0.186	0.130
-278.457	800.000	-0.113	-0.392
-277.443	-34.493	-0.112	0.061
-276.428	-76.290	-0.201	0.070
-275.413	-20.618	-0.228	-0.139
-274.399	-72.347	0.246	-0.090
-273.384	83.465	-0.216	0.233
-272.370	477.042	0.116	-0.260
-271.355	800.000	0.061	-0.166
-270.340	-113.648	0.170	-0.033
-269.326	26.273	-0.183	-0.151
-268.311	256.572	0.068	0.115
-267.297	12.349	-0.325	-0.247
-266.282	-186.629	0.331	-0.005
-265.267	540.185	0.079	-0.186
-264.253	-76.922	0.135	0.046
-263.238	-22.094	-0.105	0.063
-262.224	-52.152	0.119	0.054
-261.209	477.510	-0.044	-0.098
-260.195	-106.588	-0.199	0.044
-259.180	-117.335	0.168	-0.030
-258.165	-34.318	0.169	0.092
-257.151	-200.000	-0.002	-0.024
-256.136	267.522	-0.086	-0.149
-255.122	800.000	-0.049	-0.211
-254.107	36.930	0.032	0.028
-253.092	-0.311	-0.221	0.155
-252.078	797.381	-0.093	-0.253
-251.063	14.104	-0.029	0.022
-250.049	496.208	0.193	-0.439
-249.034	-11.729	-0.157	0.102
-248.019	-97.164	-0.320	0.083
-247.005	253.958	0.143	-0.241
-245.990	-148.756	0.213	0.017
-244.976	-200.000	0.033	-0.196
-243.961	-41.103	-0.153	-0.078
-242.946	-200.000	-0.051	-0.362
-241.932	197.088	0.086	-0.129
-240.917	-166.046	-0.237	0.010
-239.903	662.646	-0.113	0.287
-238.888	-200.000	0.060	-0.413
-237.873	-94.829	-0.147	-0.039
-236.859	482.219	0.065	0.145
-235.844	27.508	0.074	-0.061
-234.830	-200.000	0.009	0.279
-233.815	-61.640	-0.217	0.090
-232.800	-179.496	0.206	0.004
-231.786	800.000	0.058	-0.184
-230.771	-94.916	0.139	0.037
-229.757	-189.984	0.280	0.003
-228.742	800.000	-0.104	0.380
-227.727	800.000	0.055	-0.217
-226.713	-200.000	-0.032	0.259
-225.698	-17.647	0.302	-0.187
-224.684	-168.563	-0.447	0.017
-223.669	-116.349	0.328	-0.060
-222.655	-78.509	0.370	0.125
-221.640	192.263	0.114	-0.170
-220.625	-46.129	0.110	-0.054
-219.611	-200.000	0.017	0.297
-218.596	285.153	0.156	-0.277
-217.582	77.609	-0.181	-0.190
-216.567	-31.832	-0.198	-0.110
-215.552	-169.412	-0.165	-0.006
-214.538	54.258	-0.196	-0.186
-213.523	-78.434	0.247	0.083
-212.509	-86.891	0.237	-0.071
-211.494	-200.000	0.043	-0.201
-210.479	-108.017	-0.050	-0.011
-209.465	-200.000	0.013	0.126
-208.450	-47.181	0.150	-0.072
-207.436	-200.000	0.022	-0.144
-206.421	-29.608	0.403	0.227
-205.406	-200.000	-0.029	0.212
-204.392	6.673	-0.256	0.188
-203.377	-134.571	-0.111	-0.013
-202.363	-112.397	0.257	0.051
-201.348	-112.694	0.089	0.017
-200.333	-102.540	0.281	-0.066
-199.319	-157.677	-0.208	-0.012
-198.304	202.995	-0.181	0.275
-197.290	-200.000	-0.024	-0.175
-196.275	-42.424	-0.261	0.131
-195.260	-26.410	-0.027	-0.015
-194.246	-200.000	-0.029	-0.441
-193.231	-200.000	0.032	0.269
-192.217	-79.796	0.308	-0.102
-191.202	-200.000	-0.009	-0.149
-190.187	227.247	-0.075	0.120
-189.173	90.040	-0.205	-0.225
-188.158	-52.534	0.300	0.137
-187.144	-200.000	0.027	-0.197
-186.129	-200.000	-0.003	-0.138
-185.114	36.785	0.107	-0.093
-184.100	-11.411	0.180	0.116
-183.085	-200.000	-0.061	-0.368
-182.071	-78.938	0.290	0.097
-181.056	-200.000	-0.034	0.438
-180.042	411.036	0.180	0.375
-179.027	-97.739	0.031	0.008
-178.012	94.694	0.127	0.142
-176.998	566.813	0.057	0.135
-175.983	-82.142	0.102	-0.033
-174.969	-63.591	0.170	-0.069
-173.954	-47.850	-0.138	-0.066
-172.939	-69.066	0.381	-0.144
-171.925	-200.000	0.003	0.167
-170.910	354.075	-0.220	0.431
-169.896	-200.000	-0.020	-0.167
-168.881	100.538	-0.054	-0.061
-167.866	-51.352	-0.141	0.065
-166.852	545.690	-0.060	-0.142
-165.837	109.168	0.088	0.103
-164.823	485.257	0.099	0.223
-163.808	800.000	-0.044	0.123
-162.793	800.000	-0.037	0.112
-161.779	-99.030	-0.262	-0.065
-160.764	-200.000	0.007	0.193
-159.750	49.934	0.098	-0.091
-158.735	133.699	-0.159	-0.203
-157.720	97.281	0.126	0.142
-156.706	-106.802	-0.173	-0.038
-155.691	-8.622	0.255	0.168
-154.677	-107.038	-0.366	0.079
-153.662	-152.841	-0.288	0.020
-152.647	-200.000	0.025	-0.140
-151.633	314.580	0.022	-0.041
-150.618	130.385	-0.068	0.085
-149.604	248.403	0.265	0.441
-148.589	59.850	-0.146	0.142
-147.574	-11.668	0.147	0.095
-146.560	-200.000	-0.040	0.261
-145.545	-157.274	0.295	-0.018
-144.531	562.087	-0.113	-0.268
-143.516	614.750	-0.062	0.152
-142.502	-46.871	0.294	0.141
-141.487	277.354	0.196	-0.343
-140.472	588.715	-0.077	0.186
-139.458	326.847	0.266	0.502
-138.443	117.296	0.124	0.150
-137.429	-48.652	-0.432	-0.204
-136.414	155.792	0.111	0.151
-135.399	-97.684	-0.133	0.034
-134.385	81.560	0.181	-0.193
-133.370	-200.000	-0.018	-0.112
-132.356	-0.227	0.101	-0.070
-131.341	-130.716	-0.098	0.013
-130.326	-73.092	0.275	0.099
-129.312	108.682	-0.093	-0.109
-128.297	385.726	-0.011	-0.023
-127.283	282.413	0.125	0.221
-126.268	16.159	0.199	-0.154
-125.253	-166.514	0.203	0.008
-124.239	155.744	0.185	-0.250
-123.224	-78.039	0.124	-0.042
