DTS Sentinel unit serial number:	SN413079Multiplexer serial number:	ORYXHardware model number:	OX4-SRSoftware version number:	ORYX F/W v4.00 Oryx Data Collector v3.7.2.0data status	okinstallation	princeton_trtdifferential loss correction	single-endedforward channel	channel 1reverse channel	N/Adate	2019/09/17time	02:58:35forward acquisition time	60.00reverse acquisition time	0.00gamma	496.2192k internal	0.2323k external	0.2323temperature offset calibration	0.9959default loss term (dB/km)	0.3790temperature slope calibration	1.0000multiplexer offset coefficient	1.0000multiplexer slope coefficient	1.0000fibre end	0.00T internal ref (°C)	29.94T ext. ref 1 (°C)	0.12T ext. ref 2 (°C)	24.88length (m)	temperature (°C)	Stokes	anti-Stokes-747.200	-200.000	0.009	0.072
-746.185	19.841	0.130	0.106
-745.171	-57.017	0.253	0.113
-744.156	450.484	-0.207	0.462
-743.142	708.685	-0.069	-0.185
-742.127	800.000	0.086	-0.245
-741.112	199.241	-0.019	0.029
-740.098	235.397	-0.173	0.289
-739.083	225.223	0.183	0.299
-738.069	-188.847	-0.265	-0.003
-737.054	-129.039	-0.285	0.040
-736.039	-70.093	-0.333	0.128
-735.025	800.000	-0.070	0.224
-734.010	20.733	0.107	-0.087
-732.996	-30.920	-0.309	0.176
-731.981	-30.998	-0.189	-0.108
-730.966	-200.000	-0.010	0.062
-729.952	366.335	0.246	-0.501
-728.937	19.051	-0.087	0.071
-727.923	-29.189	0.197	-0.114
-726.908	800.000	-0.102	-0.295
-725.894	89.101	-0.115	-0.130
-724.879	52.015	-0.338	0.325
-723.864	665.121	-0.069	-0.179
-722.850	21.944	-0.225	-0.185
-721.835	-30.794	-0.078	-0.045
-720.821	800.000	0.035	-0.151
-719.806	-175.663	-0.039	0.001
-718.791	-62.857	0.404	-0.169
-717.777	-115.631	-0.224	0.042
-716.762	-200.000	0.055	-0.358
-715.748	800.000	-0.058	-0.170
-714.733	-26.001	-0.045	-0.027
-713.718	-153.100	0.092	0.007
-712.704	60.259	0.131	-0.131
-711.689	84.736	-0.232	0.256
-710.675	64.712	0.140	0.142
-709.660	-11.381	0.162	-0.107
-708.645	800.000	0.085	0.297
-707.631	99.981	-0.084	-0.098
-706.616	115.539	0.247	-0.305
-705.602	23.175	0.164	0.136
-704.587	-23.790	-0.464	0.280
-703.572	-12.354	-0.178	-0.117
-702.558	75.468	-0.118	0.125
-701.543	-200.000	-0.041	0.238
-700.529	-81.691	-0.353	-0.117
-699.514	-8.559	-0.024	0.016
-698.499	607.099	-0.058	-0.147
-697.485	800.000	0.071	-0.297
-696.470	-73.243	-0.333	0.123
-695.456	-122.608	-0.009	-0.001
-694.441	-195.935	0.193	-0.001
-693.426	210.424	-0.043	0.069
-692.412	-48.045	0.185	0.090
-691.397	15.975	-0.240	-0.191
-690.383	-173.259	0.296	-0.009
-689.368	42.230	0.309	-0.283
-688.354	800.000	-0.049	-0.184
-687.339	800.000	0.024	-0.098
-686.324	68.084	-0.178	-0.183
-685.310	407.620	0.047	0.100
-684.295	-22.950	0.109	0.066
-683.281	5.331	-0.260	0.193
-682.266	43.861	-0.196	0.181
-681.251	-112.319	-0.263	-0.053
-680.237	-18.600	0.248	0.156
-679.222	-101.001	-0.117	-0.029
-678.208	58.185	0.023	-0.022
-677.193	-46.297	-0.153	-0.076
-676.178	-200.000	-0.049	-0.335
-675.164	-200.000	-0.025	-0.339
-674.149	800.000	-0.070	-0.282
-673.135	800.000	-0.044	-0.191
-672.120	210.403	-0.132	-0.208
-671.105	-37.942	-0.176	-0.094
-670.091	-200.000	0.002	0.062
-669.076	800.000	-0.116	-0.357
-668.062	-75.685	0.135	0.048
-667.047	100.661	-0.011	-0.013
-666.032	118.373	0.067	-0.083
-665.018	-137.342	-0.139	0.016
-664.003	-200.000	0.063	0.284
-662.989	29.356	0.134	-0.115
-661.974	-153.556	0.343	0.024
-660.959	-200.000	0.063	-0.447
-659.945	-200.000	-0.058	-0.297
-658.930	-96.350	0.330	0.088
-657.916	-47.844	-0.382	0.186
-656.901	20.026	-0.169	-0.137
-655.886	800.000	-0.050	0.142
-654.872	60.825	0.100	0.100
-653.857	-17.934	0.207	0.131
-652.843	800.000	-0.062	0.188
-651.828	372.289	-0.132	0.271
-650.814	-31.533	-0.396	-0.224
-649.799	-14.626	-0.255	-0.165
-648.784	800.000	0.076	-0.256
-647.770	-31.838	0.173	0.098
-646.755	-200.000	-0.027	0.297
-645.741	129.856	0.128	0.164
-644.726	-129.446	0.190	-0.027
-643.711	-123.353	-0.279	-0.045
-642.697	256.869	-0.148	-0.255
-641.682	134.034	0.263	-0.342
-640.668	374.611	-0.109	-0.223
-639.653	621.841	0.086	-0.217
-638.638	-35.910	0.188	0.102
-637.624	65.366	0.196	-0.200
-636.609	-6.330	-0.145	0.100
-635.595	800.000	-0.077	0.269
-634.580	-200.000	-0.008	-0.271
-633.565	-6.725	0.344	0.235
-632.551	-16.169	-0.085	-0.054
-631.536	-47.807	0.080	0.039
-630.522	-71.486	0.169	0.063
-629.507	28.654	-0.078	0.066
-628.492	-105.187	-0.253	0.058
-627.478	800.000	0.075	0.303
-626.463	115.268	0.198	0.243
-625.449	-170.084	-0.028	0.001
-624.434	133.573	0.181	-0.236
-623.419	29.981	0.052	-0.044
-622.405	-37.162	0.246	-0.132
-621.390	433.704	-0.042	-0.092
-620.376	-200.000	0.051	-0.435
-619.361	800.000	0.104	-0.349
-618.346	-200.000	-0.031	0.356
-617.332	352.617	-0.035	0.070
-616.317	-200.000	-0.086	0.509
-615.303	-42.091	-0.188	0.097
-614.288	215.266	-0.259	0.414
-613.273	-131.210	0.340	0.045
-612.259	-200.000	0.016	-0.255
-611.244	-55.986	0.430	-0.193
-610.230	-19.037	-0.073	-0.046
-609.215	-73.858	-0.211	-0.077
-608.201	-5.321	-0.161	-0.111
-607.186	-54.429	0.192	-0.088
-606.171	47.796	0.149	0.140
-605.157	-2.102	-0.065	0.046
-604.142	99.381	-0.341	0.397
-603.128	800.000	-0.011	-0.045
-602.113	116.317	-0.188	-0.232
-601.098	77.212	0.077	-0.082
-600.084	-27.039	-0.233	-0.136
-599.069	-167.937	-0.175	-0.007
-598.055	800.000	0.027	-0.113
-597.040	-38.277	0.159	-0.084
-596.025	-95.551	-0.353	0.095
-595.011	-200.000	0.012	-0.071
-593.996	800.000	0.032	-0.098
-592.982	115.275	0.288	-0.354
-591.967	42.459	-0.148	-0.135
-590.952	-200.000	-0.020	-0.193
-589.938	243.865	-0.146	-0.246
-588.923	204.574	0.027	0.042
-587.909	210.402	0.075	-0.118
-586.894	0.422	-0.221	0.158
-585.879	-20.045	-0.159	0.099
-584.865	-138.148	0.188	-0.021
-583.850	15.219	-0.135	-0.106
-582.836	576.440	0.037	-0.090
-581.821	800.000	-0.010	0.043
-580.806	-39.216	-0.037	0.020
-579.792	743.589	0.110	-0.296
-578.777	451.887	0.095	-0.212
-577.763	-95.135	0.149	-0.040
-576.748	11.390	0.310	-0.238
-575.733	114.742	-0.008	0.009
-574.719	-200.000	-0.008	0.060
-573.704	-56.285	0.218	0.097
-572.690	94.229	-0.077	0.088
-571.675	800.000	0.078	-0.318
-570.661	-31.804	-0.148	0.083
-569.646	-14.152	0.125	0.081
-568.631	753.159	-0.095	-0.257
-567.617	-112.968	-0.151	0.030
-566.602	-13.124	0.266	-0.173
-565.588	-17.762	0.118	-0.074
-564.573	-200.000	0.052	-0.337
-563.558	248.920	0.153	-0.260
-562.544	50.668	0.280	-0.266
-561.529	-200.000	-0.039	0.201
-560.515	57.640	-0.038	0.037
-559.500	-128.839	-0.106	0.015
-558.485	-200.000	0.003	-0.236
-557.471	800.000	-0.086	0.263
-556.456	339.768	-0.009	0.018
-555.442	-37.067	-0.094	0.050
-554.427	-18.109	0.177	0.111
-553.412	-200.000	0.005	0.250
-552.398	-119.297	0.086	-0.015
-551.383	800.000	-0.098	-0.271
-550.369	800.000	-0.123	-0.353
-549.354	-136.415	0.469	-0.055
-548.339	-147.589	0.133	-0.011
-547.325	125.359	-0.261	-0.330
-546.310	-181.309	0.403	0.008
-545.296	-97.261	-0.231	-0.060
-544.281	-200.000	0.026	0.165
-543.266	467.995	0.151	-0.338
-542.252	-37.001	-0.194	0.104
-541.237	-105.101	0.290	-0.066
-540.223	-91.915	-0.499	-0.142
-539.208	-101.925	-0.061	0.015
-538.193	378.799	-0.017	-0.035
-537.179	-118.278	-0.266	-0.047
-536.164	-151.327	-0.272	0.020
-535.150	-200.000	0.003	0.091
-534.135	-112.233	-0.360	0.072
-533.121	29.549	0.139	-0.118
-532.106	71.932	0.043	-0.044
-531.091	-64.791	0.348	-0.141
-530.077	-200.000	-0.028	0.215
-529.062	139.597	-0.065	0.085
-528.048	-50.071	0.517	-0.245
-527.033	-200.000	-0.174	0.000
-526.018	-113.415	0.170	-0.033
-525.004	70.030	-0.082	-0.084
-523.989	349.176	-0.121	-0.240
-522.975	-200.000	-0.014	-0.111
-521.960	84.436	0.123	-0.135
-520.945	-200.000	-0.012	-0.217
-519.931	-76.532	0.168	0.059
-518.916	70.762	-0.362	-0.375
-517.902	-200.000	0.032	-0.160
-516.887	-200.000	0.008	0.077
-515.872	-200.000	-0.051	-0.281
-514.858	25.473	-0.097	0.081
-513.843	800.000	0.051	-0.218
-512.829	-67.875	0.136	0.053
-511.814	-200.000	-0.062	0.290
-510.799	19.057	0.197	0.158
-509.785	-59.982	0.224	0.096
-508.770	213.623	0.036	0.057
-507.756	203.213	0.064	-0.100
-506.741	66.896	0.099	0.101
-505.726	-74.272	-0.225	0.081
-504.712	77.976	0.194	-0.207
-503.697	-56.423	-0.211	-0.094
-502.683	94.362	-0.223	-0.253
-501.668	87.395	-0.136	0.151
-500.653	75.802	-0.130	-0.138
-499.639	65.338	-0.288	0.292
-498.624	55.637	0.199	-0.192
-497.610	131.865	0.053	-0.068
-496.595	-200.000	-0.030	-0.373
-495.581	9.196	-0.095	-0.071
-494.566	18.604	0.355	-0.284
-493.551	-118.659	-0.249	-0.044
-492.537	170.185	0.061	-0.087
-491.522	384.244	0.100	0.206
-490.508	-45.788	0.120	-0.059
-489.493	-52.690	0.148	-0.068
-488.478	-36.838	0.232	-0.125
-487.464	95.972	-0.160	0.183
-486.449	-26.700	0.132	0.077
-485.435	124.223	-0.196	0.247
-484.420	-200.000	0.102	0.000
-483.405	313.887	-0.111	-0.209
-482.391	163.278	-0.167	0.235
-481.376	197.959	-0.116	-0.178
-480.362	145.892	0.137	-0.184
-479.347	51.757	-0.127	0.121
-478.332	-137.470	0.021	0.002
-477.318	-114.674	-0.207	0.040
-476.303	-200.000	-0.005	0.091
-475.289	-56.464	0.187	0.083
-474.274	800.000	0.067	0.263
-473.259	197.350	0.293	-0.446
-472.245	4.719	-0.223	0.163
-471.230	-21.392	0.104	-0.063
-470.216	800.000	-0.102	0.315
-469.201	152.189	-0.180	0.246
-468.186	-200.000	-0.040	0.184
-467.172	80.796	-0.139	-0.150
-466.157	-142.282	-0.125	0.012
-465.143	615.821	-0.274	0.687
-464.128	-200.000	0.009	-0.396
-463.113	-148.485	-0.439	0.036
-462.099	142.541	-0.113	-0.150
-461.084	-78.733	-0.216	-0.074
-460.070	99.131	0.211	0.243
-459.055	-200.000	0.023	0.319
-458.040	800.000	0.069	0.259
-457.026	-200.000	-0.020	0.227
-456.011	-152.964	0.198	0.014
-454.997	-42.745	0.260	-0.132
-453.982	383.313	0.099	0.203
-452.968	-97.675	0.199	-0.052
-451.953	122.588	0.018	0.023
-450.938	-69.593	-0.133	0.051
-449.924	-39.127	0.286	0.150
-448.909	-73.504	-0.163	-0.059
-447.895	800.000	0.013	0.037
-446.880	318.412	-0.080	-0.152
-445.865	-111.246	0.350	0.071
-444.851	30.609	-0.036	0.030
-443.836	-40.333	0.323	0.168
-442.822	263.588	0.064	0.112
-441.807	-111.974	-0.237	0.048
-440.792	-200.000	-0.012	0.245
-439.778	-200.000	-0.006	0.130
-438.763	-147.801	0.115	0.010
-437.749	500.961	-0.021	0.048
-436.734	-91.870	0.246	-0.070
-435.719	97.497	-0.214	-0.245
-434.705	-53.827	-0.038	-0.017
-433.690	800.000	0.111	-0.333
-432.676	419.521	0.102	-0.217
-431.661	-67.804	0.360	0.141
-430.646	147.643	-0.078	0.105
-429.632	800.000	-0.030	0.101
-428.617	800.000	-0.174	0.535
-427.603	-108.463	-0.151	-0.032
-426.588	289.721	0.099	0.179
-425.573	366.015	0.211	0.425
-424.559	-200.000	-0.020	-0.374
-423.544	-200.000	-0.009	-0.212
-422.530	-119.443	0.204	-0.035
-421.515	-65.041	0.165	0.066
-420.500	-72.839	-0.266	0.098
-419.486	-87.893	-0.200	0.060
-418.471	81.096	-0.123	-0.133
-417.457	68.942	0.090	0.092
-416.442	-66.984	-0.413	0.163
-415.428	-86.937	0.107	0.033
-414.413	-93.270	-0.064	0.018
-413.398	171.969	0.047	-0.067
-412.384	-200.000	0.016	-0.131
-411.369	-200.000	-0.020	0.146
-410.355	-86.194	0.063	-0.020
-409.340	-59.318	-0.104	0.045
-408.325	-109.473	-0.515	-0.108
-407.311	36.478	-0.158	0.139
-406.296	9.846	0.310	-0.235
-405.282	800.000	0.126	-0.394
-404.267	-28.080	-0.113	-0.065
-403.252	-5.584	0.241	-0.165
-402.238	-200.000	-0.022	0.149
-401.223	-200.000	-0.028	-0.264
-400.209	-30.785	-0.164	-0.092
-399.194	175.598	-0.059	-0.086
-398.179	-11.851	0.157	0.102
-397.165	-107.696	-0.134	-0.029
-396.150	-33.074	-0.022	-0.012
-395.136	-200.000	-0.056	0.284
-394.121	150.879	-0.070	-0.095
-393.106	578.884	-0.050	-0.123
-392.092	20.061	-0.124	-0.100
-391.077	-121.452	0.203	-0.034
-390.063	-149.601	-0.143	0.011
-389.048	159.064	-0.116	0.161
-388.033	67.006	-0.030	0.030
-387.019	601.342	-0.039	0.098
-386.004	776.532	0.096	0.261
-384.990	-122.214	0.046	-0.008
-383.975	-90.459	-0.320	-0.092
-382.960	-107.858	0.094	0.020
-381.946	-200.000	-0.019	0.226
-380.931	248.031	0.088	0.148
-379.917	-53.404	-0.176	0.080
-378.902	-86.819	0.176	-0.054
-377.888	226.594	0.058	0.094
-376.873	-200.000	0.026	0.274
-375.858	314.479	0.216	0.404
-374.844	-12.437	0.058	-0.037
-373.829	5.075	0.080	0.059
-372.815	-38.003	0.404	0.214
-371.800	-200.000	-0.016	-0.123
-370.785	-146.180	0.441	-0.039
-369.771	254.925	-0.064	-0.109
-368.756	-200.000	-0.031	0.464
-367.742	-154.501	0.451	-0.030
-366.727	44.990	-0.232	0.213
-365.712	-126.567	0.338	0.050
-364.698	21.910	0.069	-0.056
-363.683	406.484	0.069	-0.145
-362.669	-143.995	-0.288	0.027
-361.654	-200.000	-0.034	-0.157
-360.639	133.243	-0.247	0.318
-359.625	-60.031	-0.188	0.080
-358.610	55.481	0.239	-0.230
-357.596	114.210	0.156	0.189
-356.581	-200.000	-0.018	0.331
-355.566	800.000	-0.035	-0.141
-354.552	139.222	-0.170	0.223
-353.537	-200.000	0.014	-0.157
-352.523	-68.446	0.313	0.121
-351.508	-31.465	-0.283	-0.158
-350.493	-91.060	-0.244	0.070
-349.479	300.857	0.037	0.068
-348.464	-200.000	0.017	-0.195
-347.450	-126.651	0.421	-0.062
-346.435	-116.062	0.109	0.020
-345.420	-45.017	-0.090	-0.044
-344.406	-27.247	0.229	-0.132
-343.391	171.066	-0.193	-0.275
-342.377	-186.098	-0.244	-0.004
-341.362	800.000	0.069	-0.206
-340.348	800.000	0.056	0.194
-339.333	614.843	-0.060	0.149
-338.318	-200.000	-0.031	0.403
-337.304	167.911	-0.058	0.083
-336.289	800.000	0.125	0.399
-335.275	145.473	-0.088	-0.117
-334.260	-200.000	-0.018	-0.233
-333.245	-103.065	0.108	0.026
-332.231	-154.710	0.184	-0.012
-331.216	-47.162	0.099	-0.048
-330.202	531.645	0.030	0.071
-329.187	-67.601	-0.456	0.177
-328.172	800.000	-0.104	0.320
-327.158	428.311	0.199	-0.428
-326.143	-95.848	-0.229	0.061
-325.129	-51.859	0.311	0.144
-324.114	-53.621	-0.366	0.166
-323.099	31.579	0.172	0.147
-322.085	-200.000	-0.010	-0.210
-321.070	-36.843	0.194	0.103
-320.056	-59.723	-0.344	-0.146
-319.041	12.407	0.100	0.076
-318.026	700.996	0.068	-0.177
-317.012	80.289	0.267	-0.286
-315.997	96.791	-0.096	-0.109
-314.983	-32.895	0.097	0.053
-313.968	211.883	-0.094	0.147
-312.953	-161.017	-0.161	-0.008
-311.939	52.631	-0.271	-0.257
-310.924	-200.000	0.017	0.209
-309.910	117.713	-0.098	-0.120
-308.895	-32.422	-0.186	0.103
-307.880	11.411	0.221	-0.168
-306.866	-41.777	-0.369	-0.188
-305.851	448.523	-0.041	0.090
-304.837	162.229	0.165	0.230
-303.822	-32.367	-0.130	0.072
-302.807	-24.689	-0.409	0.242
-301.793	-149.538	-0.308	-0.024
-300.778	800.000	0.023	-0.091
-299.764	15.374	0.156	-0.122
-298.749	-68.494	0.496	-0.191
-297.735	-14.038	0.163	0.104
-296.720	800.000	0.066	-0.256
-295.705	-200.000	0.264	0.001
-294.691	9.309	-0.363	0.273
-293.676	-200.000	-0.001	0.145
-292.662	-26.069	-0.347	0.203
-291.647	-36.839	0.122	-0.065
-290.632	-56.250	0.207	-0.091
-289.618	-118.791	-0.118	0.021
-288.603	12.997	0.113	0.087
-287.589	-200.000	-0.025	-0.171
-286.574	248.393	-0.171	-0.286
-285.559	652.209	-0.118	0.299
-284.545	-106.243	-0.172	0.038
-283.530	127.839	0.042	0.053
-282.516	-200.000	0.013	0.085
-281.501	-200.000	-0.011	-0.078
-280.486	162.701	-0.043	-0.060
-279.472	80.918	0.041	-0.044
-278.457	-136.409	-0.127	0.015
-277.443	-30.184	-0.010	0.006
-276.428	-47.393	0.277	-0.134
-275.413	436.477	0.095	-0.206
-274.399	79.216	0.195	-0.207
-273.384	40.177	0.180	-0.161
-272.370	503.382	0.126	0.289
-271.355	-200.000	0.006	0.216
-270.340	-57.572	-0.144	0.062
-269.326	-200.000	-0.149	0.000
-268.311	-34.012	0.333	0.181
-267.297	-134.264	-0.029	0.004
-266.282	-72.805	0.380	0.139
-265.267	0.225	-0.146	-0.104
-264.253	389.767	-0.050	0.102
-263.238	-58.431	0.331	-0.143
-262.224	-95.719	0.176	-0.047
-261.209	-200.000	-0.031	-0.310
-260.195	-118.105	0.202	-0.036
-259.180	-6.770	0.161	-0.108
-258.165	17.993	0.120	-0.095
-257.151	800.000	0.047	-0.187
-256.136	207.287	-0.194	0.300
-255.122	-11.350	-0.243	-0.158
-254.107	800.000	0.036	0.097
-253.092	328.578	-0.098	-0.187
-252.078	39.190	0.121	0.107
-251.063	54.925	-0.097	0.093
-250.049	274.039	0.085	0.148
-249.034	-57.936	-0.199	-0.086
-248.019	-111.463	-0.545	-0.110
-247.005	-200.000	-0.016	0.104
-245.990	-200.000	0.020	0.247
-244.976	800.000	-0.151	0.526
-243.961	126.593	0.209	-0.262
-242.946	-111.697	-0.119	-0.024
-241.932	147.443	-0.196	-0.261
-240.917	800.000	0.085	0.291
-239.903	-60.574	0.112	-0.047
-238.888	800.000	-0.042	0.163
-237.873	85.097	-0.220	0.239
-236.859	-119.991	-0.403	0.068
-235.844	103.903	0.031	-0.036
-234.830	132.153	0.129	0.164
-233.815	88.688	0.172	0.189
-232.800	-200.000	0.019	0.135
-231.786	225.700	-0.187	0.300
-230.771	-125.810	0.115	-0.017
-229.757	-5.792	-0.148	-0.100
-228.742	7.278	-0.195	0.144
-227.727	-200.000	0.018	-0.146
-226.713	-9.504	-0.174	-0.115
-225.698	-92.272	-0.247	0.069
-224.684	35.847	-0.055	-0.048
-223.669	3.556	-0.115	-0.083
-222.655	-200.000	0.004	0.031
-221.640	294.979	0.146	0.265
-220.625	182.409	-0.156	-0.228
-219.611	-29.085	0.077	-0.044
-218.596	-113.147	-0.240	-0.047
-217.582	130.748	0.128	-0.162
-216.567	-36.930	-0.094	0.050
-215.552	-23.449	0.230	0.136
-214.538	-8.697	-0.213	-0.142
-213.523	-200.000	0.059	-0.356
-212.509	800.000	-0.083	-0.293
-211.494	145.799	0.111	0.148
-210.479	17.261	-0.188	0.148
-209.465	-200.000	0.002	0.121
-208.450	58.231	-0.405	0.393
-207.436	-71.870	-0.035	0.013
-206.421	-63.140	0.107	0.044
-205.406	87.391	0.233	0.255
-204.392	243.061	-0.139	0.231
-203.377	-90.752	0.072	0.021
-202.363	-200.000	0.045	-0.314
-201.348	-147.059	-0.083	-0.007
-200.333	800.000	0.055	-0.191
-199.319	76.359	-0.338	-0.354
-198.304	85.341	0.076	-0.082
-197.290	-200.000	-0.020	-0.132
-196.275	-200.000	0.011	-0.110
-195.260	-160.482	0.057	-0.003
-194.246	-22.929	0.189	-0.113
-193.231	14.685	-0.138	0.107
-192.217	-200.000	-0.014	-0.093
-191.202	108.886	0.202	0.239
-190.187	134.811	-0.040	-0.051
-189.173	-35.996	-0.086	-0.046
-188.158	-77.530	0.140	-0.048
-187.144	800.000	0.098	0.399
-186.129	-144.272	-0.129	0.012
-185.114	475.413	0.036	-0.080
-184.100	-164.857	0.161	-0.007
-183.085	-134.521	-0.385	-0.047
-182.071	-200.000	0.017	-0.216
-181.056	-160.732	-0.251	0.013
-180.042	-200.000	-0.087	0.445
-179.027	-200.000	0.003	0.055
-178.012	204.202	0.125	-0.192
-176.998	-200.000	0.029	-0.161
-175.983	-200.000	-0.001	0.254
-174.969	114.277	0.052	0.062
-173.954	-70.832	-0.174	0.065
-172.939	32.722	0.338	0.289
-171.925	-56.623	0.438	-0.191
-170.910	-80.151	-0.208	0.069
-169.896	366.021	0.063	-0.125
-168.881	201.717	0.187	0.284
-167.866	800.000	0.058	0.239
-166.852	-179.831	-0.114	-0.002
-165.837	62.130	0.189	0.186
-164.823	145.583	-0.185	-0.245
-163.808	-200.000	0.019	0.128
-162.793	-179.985	-0.129	-0.003
-161.779	800.000	-0.031	0.109
-160.764	147.676	-0.235	0.312
-159.750	-70.093	-0.032	0.012
-158.735	-48.806	-0.141	-0.067
-157.720	53.716	0.248	-0.235
-156.706	-200.000	0.008	-0.084
-155.691	800.000	0.021	0.078
-154.677	316.142	-0.106	-0.198
-153.662	-37.905	0.216	-0.113
-152.647	17.407	0.402	0.315
-151.633	-136.897	-0.246	-0.028
-150.618	-108.891	0.243	0.051
-149.604	-124.501	0.274	0.042
-148.589	-106.124	0.154	-0.034
-147.574	-23.621	-0.170	0.101
-146.560	68.516	0.172	0.174
-145.545	154.442	0.103	-0.140
-144.531	24.313	-0.079	-0.065
-143.516	215.498	-0.055	-0.087
-142.502	-16.445	-0.118	0.074
-141.487	-21.624	-0.222	0.133
-140.472	-56.009	0.177	-0.078
-139.458	-200.000	0.013	-0.087
-138.443	800.000	0.037	-0.107
-137.429	-77.374	0.116	0.040
-136.414	-200.000	-0.018	0.114
-135.399	-160.993	-0.135	0.007
-134.385	-74.952	-0.169	0.060
-133.370	130.982	-0.127	0.161
-132.356	395.454	-0.032	0.066
-131.341	-119.572	-0.091	0.016
-130.326	321.099	-0.136	-0.255
-129.312	-106.074	-0.231	0.051
-128.297	-32.005	-0.318	-0.175
-127.283	-200.000	-0.024	0.280
-126.268	-58.260	-0.230	-0.099
-125.253	-85.510	-0.202	0.062
-124.239	89.596	-0.083	-0.091
-123.224	-128.754	-0.089	-0.012
-122.210	-7.429	0.195	0.130
-121.195	155.920	0.094	-0.128
