DTS Sentinel unit serial number:	SN413079Multiplexer serial number:	ORYXHardware model number:	OX4-SRSoftware version number:	ORYX F/W v4.00 Oryx Data Collector v3.7.2.0data status	okinstallation	princeton_trtdifferential loss correction	single-endedforward channel	channel 1reverse channel	N/Adate	2019/09/18time	03:02:35forward acquisition time	60.00reverse acquisition time	0.00gamma	496.2192k internal	0.2341k external	0.2341temperature offset calibration	0.9976default loss term (dB/km)	0.3790temperature slope calibration	1.0000multiplexer offset coefficient	1.0000multiplexer slope coefficient	1.0000fibre end	0.00T internal ref (°C)	22.75T ext. ref 1 (°C)	0.17T ext. ref 2 (°C)	16.99length (m)	temperature (°C)	Stokes	anti-Stokes-747.200	224.915	0.131	0.213
-746.185	-200.000	-0.007	0.362
-745.171	-14.104	-0.214	0.139
-744.156	48.231	0.199	-0.187
-743.142	-1.265	0.110	0.078
-742.127	-90.377	-0.244	0.071
-741.112	-117.224	-0.130	0.024
-740.098	90.906	-0.093	-0.105
-739.083	-34.282	0.203	-0.112
-738.069	-22.875	0.253	0.153
-737.054	800.000	0.082	0.251
-736.039	34.028	-0.047	-0.041
-735.025	-79.099	0.343	0.117
-734.010	-196.490	-0.223	0.002
-732.996	39.033	-0.191	-0.171
-731.981	-115.553	-0.319	-0.060
-730.966	-37.207	-0.276	-0.148
-729.952	29.473	-0.199	0.170
-728.937	-98.105	-0.118	0.030
-727.923	-200.000	0.042	0.182
-726.908	-200.000	0.080	-0.465
-725.894	-153.761	0.056	-0.004
-724.879	-200.000	-0.047	-0.248
-723.864	-200.000	-0.025	0.364
-722.850	-72.135	-0.006	0.002
-721.835	-200.000	0.032	-0.224
-720.821	800.000	-0.055	-0.205
-719.806	-76.994	0.158	-0.055
-718.791	-200.000	0.007	-0.276
-717.777	-200.000	0.012	-0.185
-716.762	-125.515	-0.093	-0.014
-715.748	-62.962	-0.349	-0.144
-714.733	68.045	0.075	0.077
-713.718	111.865	-0.136	0.165
-712.704	-56.159	-0.264	0.117
-711.689	11.788	-0.022	-0.017
-710.675	181.732	0.183	0.269
-709.660	-47.866	-0.165	0.080
-708.645	58.611	-0.045	-0.045
-707.631	325.690	-0.056	-0.107
-706.616	-200.000	-0.052	-0.454
-705.602	33.602	0.244	-0.212
-704.587	-200.000	0.009	-0.087
-703.572	-187.515	0.076	-0.001
-702.558	-105.839	0.190	-0.043
-701.543	15.931	0.264	0.208
-700.529	800.000	-0.111	-0.439
-699.514	281.728	-0.076	0.136
-698.499	166.920	0.172	-0.244
-697.485	-200.000	0.001	-0.232
-696.470	194.299	0.262	-0.397
-695.456	352.963	0.012	-0.023
-694.441	-1.046	0.174	0.123
-693.426	578.447	0.106	0.259
-692.412	732.388	0.049	-0.131
-691.397	-106.877	-0.196	0.043
-690.383	-101.323	0.153	-0.037
-689.368	201.128	0.184	0.283
-688.354	101.484	0.242	-0.282
-687.339	666.535	-0.133	-0.344
-686.324	-32.501	-0.337	0.188
-685.310	-123.695	0.254	0.040
-684.295	-118.671	-0.091	-0.016
-683.281	49.690	0.221	0.208
-682.266	73.738	-0.350	-0.367
-681.251	-101.129	0.232	0.057
-680.237	-97.217	0.120	0.031
-679.222	-52.606	-0.242	0.112
-678.208	171.914	0.212	-0.305
-677.193	-63.075	-0.122	-0.050
-676.178	-200.000	0.039	-0.312
-675.164	240.067	0.185	0.307
-674.149	103.269	-0.076	-0.089
-673.135	-32.224	0.141	-0.079
-672.120	14.907	0.261	0.204
-671.105	800.000	0.048	0.186
-670.091	-128.232	-0.505	-0.072
-669.076	215.126	-0.135	-0.214
-668.062	-10.769	0.248	-0.164
-667.047	274.137	0.151	-0.267
-666.032	-200.000	0.055	-0.479
-665.018	362.896	0.166	0.334
-664.003	800.000	-0.034	0.118
-662.989	98.561	-0.196	-0.226
-661.974	-125.226	0.293	-0.045
-660.959	-57.564	-0.257	0.112
-659.945	-44.157	0.317	0.159
-658.930	-87.665	-0.084	0.025
-657.916	451.558	-0.046	0.102
-656.901	-80.155	0.164	0.055
-655.886	-185.916	0.171	-0.003
-654.872	-108.860	-0.284	-0.061
-653.857	800.000	-0.099	-0.359
-652.843	800.000	0.035	0.123
-651.828	545.361	0.104	-0.248
-650.814	-116.588	0.500	-0.092
-649.799	259.452	0.061	0.105
-648.784	36.567	-0.121	0.106
-647.770	153.278	0.122	0.166
-646.755	248.128	0.099	-0.168
-645.741	-130.930	0.186	-0.025
-644.726	46.639	0.093	-0.086
-643.711	-87.580	-0.404	0.122
-642.697	-54.259	0.346	-0.157
-641.682	-73.005	0.160	0.059
-640.668	76.446	-0.228	0.241
-639.653	113.427	0.216	-0.262
-638.638	-169.067	0.296	0.011
-637.624	168.998	-0.101	-0.144
-636.609	-200.000	0.055	-0.316
-635.595	-200.000	-0.021	-0.338
-634.580	-48.644	-0.211	0.101
-633.565	83.032	-0.183	-0.199
-632.551	-151.512	-0.231	0.017
-631.536	-158.617	-0.411	-0.024
-630.522	-200.000	0.006	0.100
-629.507	-82.158	0.509	-0.166
-628.492	325.518	0.194	0.370
-627.478	-132.292	-0.244	-0.031
-626.463	-37.900	0.235	0.125
-625.449	-200.000	0.031	0.334
-624.434	-200.000	-0.034	0.488
-623.419	-109.552	-0.220	-0.046
-622.405	-200.000	0.026	0.321
-621.390	-200.000	-0.032	0.210
-620.376	-200.000	-0.028	0.205
-619.361	-200.000	-0.005	-0.258
-618.346	54.107	-0.123	-0.118
-617.332	-200.000	0.049	-0.257
-616.317	-77.095	0.220	-0.077
-615.303	-72.113	0.186	0.069
-614.288	-137.774	0.122	0.014
-613.273	-65.338	-0.336	0.135
-612.259	107.329	-0.136	-0.161
-611.244	800.000	-0.087	0.250
-610.230	19.307	-0.099	0.079
-609.215	-45.041	-0.175	-0.087
-608.201	-29.527	-0.179	-0.102
-607.186	631.958	0.106	-0.266
-606.171	-200.000	-0.018	-0.205
-605.157	-153.797	0.224	-0.015
-604.142	-123.087	0.335	0.054
-603.128	84.762	0.117	-0.128
-602.113	-200.000	0.011	-0.155
-601.098	15.360	-0.224	-0.175
-600.084	-83.512	-0.303	-0.097
-599.069	-40.122	-0.154	0.080
-598.055	-10.604	-0.031	0.020
-597.040	250.454	-0.041	-0.070
-596.025	-169.585	0.073	-0.003
-595.011	-200.000	-0.028	-0.329
-593.996	-122.079	-0.057	0.009
-592.982	-140.507	-0.239	-0.025
-591.967	-144.086	0.244	0.023
-590.952	149.441	0.150	-0.202
-589.938	-101.243	-0.260	-0.063
-588.923	262.940	-0.199	-0.344
-587.909	-101.714	-0.116	0.028
-586.894	-200.000	-0.017	-0.300
-585.879	-39.141	-0.253	-0.132
-584.865	-90.675	-0.115	-0.033
-583.850	381.505	0.042	-0.086
-582.836	408.013	0.064	-0.135
-581.821	343.863	-0.223	0.436
-580.806	-200.000	-0.076	-0.342
-579.792	-77.981	-0.340	-0.117
-578.777	-148.737	0.400	0.032
-577.763	193.902	-0.164	-0.248
-576.748	244.061	0.048	0.080
-575.733	104.557	0.252	0.295
-574.719	800.000	-0.116	-0.461
-573.704	-86.097	-0.044	0.013
-572.690	-56.786	0.424	-0.187
-571.675	76.536	-0.249	0.263
-570.661	636.623	-0.094	0.239
-569.646	94.564	0.197	0.222
-568.631	-162.268	0.141	-0.007
-567.617	-200.000	0.008	-0.196
-566.602	-200.000	-0.032	0.150
-565.588	231.033	0.232	0.378
-564.573	249.474	-0.247	-0.416
-563.558	124.715	0.104	-0.131
-562.544	23.603	-0.139	-0.114
-561.529	509.438	-0.148	-0.342
-560.515	-200.000	-0.014	-0.215
-559.500	6.840	-0.178	0.132
-558.485	401.297	-0.032	-0.068
-557.471	-96.792	-0.357	0.093
-556.456	-84.793	-0.100	0.031
-555.442	-3.297	0.059	-0.041
-554.427	49.110	-0.073	0.069
-553.412	485.288	-0.126	-0.285
-552.398	-21.702	-0.329	-0.199
-551.383	-160.231	0.274	0.015
-550.369	29.741	-0.074	0.063
-549.354	800.000	0.064	0.248
-548.339	-28.155	0.424	0.244
-547.325	416.242	0.211	0.447
-546.310	84.853	0.160	-0.174
-545.296	44.409	-0.257	0.235
-544.281	-128.755	0.038	0.005
-543.266	-136.261	-0.267	-0.031
-542.252	637.995	-0.083	0.210
-541.237	15.535	-0.122	0.095
-540.223	-98.364	0.330	-0.084
-539.208	199.924	0.209	-0.319
-538.193	-128.384	0.403	0.057
-537.179	-90.409	-0.065	-0.019
-536.164	-159.235	0.221	-0.012
-535.150	58.901	0.338	-0.330
-534.135	800.000	0.101	0.392
-533.121	448.486	0.071	0.155
-532.106	184.396	-0.109	-0.161
-531.091	227.787	0.055	-0.089
-530.077	-200.000	0.026	0.218
-529.062	35.006	0.347	-0.302
-528.048	1.687	-0.131	0.094
-527.033	40.463	-0.084	0.075
-526.018	778.529	0.079	0.213
-525.004	-196.029	0.259	0.002
-523.989	800.000	0.088	0.284
-522.975	-65.427	0.142	0.057
-521.960	800.000	0.111	-0.433
-520.945	243.755	-0.040	-0.066
-519.931	-200.000	0.022	-0.113
-518.916	-200.000	0.044	0.410
-517.902	380.500	-0.129	0.263
-516.887	22.779	-0.104	0.085
-515.872	26.873	0.325	0.271
-514.858	554.319	-0.073	-0.174
-513.843	-56.581	-0.196	0.086
-512.829	-19.151	0.386	-0.238
-511.814	-3.583	0.182	0.125
-510.799	-91.289	0.108	0.031
-509.785	-25.888	0.249	0.146
-508.770	800.000	-0.059	0.194
-507.756	-200.000	0.029	0.260
-506.741	-200.000	-0.021	0.163
-505.726	79.062	-0.323	0.343
-504.712	-49.835	-0.096	-0.045
-503.697	-108.027	-0.332	0.071
-502.683	-138.419	-0.170	0.019
-501.668	-200.000	0.029	-0.147
-500.653	512.542	-0.060	0.139
-499.639	-23.366	0.070	0.042
-498.624	611.256	0.085	-0.210
-497.610	55.379	0.077	0.074
-496.595	-200.000	-0.006	0.077
-495.581	-200.000	0.023	-0.121
-494.566	148.690	0.047	-0.063
-493.551	-21.938	0.010	-0.006
-492.537	-11.119	-0.196	0.128
-491.522	-45.350	-0.081	0.040
-490.508	-200.000	-0.035	0.285
-489.493	548.349	-0.132	0.314
-488.478	-106.891	-0.043	0.009
-487.464	260.008	0.006	-0.010
-486.449	30.509	0.177	-0.150
-485.435	80.758	0.097	-0.103
-484.420	-200.000	0.003	-0.070
-483.405	14.813	0.135	0.105
-482.391	-200.000	-0.021	-0.546
-481.376	800.000	0.075	-0.281
-480.362	-49.184	0.183	-0.087
-479.347	77.459	0.172	0.182
-478.332	800.000	0.070	-0.210
-477.318	-158.749	0.178	-0.010
-476.303	-200.000	-0.016	0.120
-475.289	14.042	0.354	0.273
-474.274	-130.681	0.138	0.018
-473.259	423.196	-0.112	0.238
-472.245	-30.361	-0.266	0.150
-471.230	243.925	-0.087	0.145
-470.216	800.000	-0.049	0.195
-469.201	-96.616	0.064	-0.017
-468.186	-126.106	-0.152	0.023
-467.172	12.759	-0.317	0.243
-466.157	37.283	0.286	0.251
-465.143	103.000	-0.114	-0.132
-464.128	79.533	-0.324	0.345
-463.113	747.686	0.073	-0.195
-462.099	62.327	-0.193	-0.191
-461.084	2.827	0.135	-0.097
-460.070	155.425	0.104	-0.143
-459.055	-200.000	-0.038	-0.171
-458.040	614.732	-0.078	-0.194
-457.026	-67.178	-0.302	-0.118
-456.011	148.157	-0.060	-0.080
-454.997	800.000	0.037	-0.117
-453.982	350.181	-0.111	-0.218
-452.968	-200.000	-0.016	0.147
-451.953	800.000	0.020	0.081
-450.938	-43.260	-0.412	0.207
-449.924	9.410	0.162	-0.122
-448.909	-59.235	0.115	0.049
-447.895	-14.324	-0.218	-0.139
-446.880	276.655	-0.021	0.037
-445.865	16.181	0.274	0.214
-444.851	-159.762	-0.324	-0.018
-443.836	-200.000	-0.014	-0.220
-442.822	-200.000	0.023	0.134
-441.807	131.106	-0.114	0.145
-440.792	-78.613	0.070	-0.024
-439.778	2.893	0.062	0.045
-438.763	-62.542	0.304	0.125
-437.749	302.483	-0.078	-0.143
-436.734	-22.352	0.266	-0.160
-435.719	-44.363	-0.232	-0.115
-434.705	221.442	-0.277	-0.440
-433.690	11.543	0.135	0.102
-432.676	-200.000	0.001	0.297
-431.661	8.573	0.046	0.034
-430.646	263.729	0.030	0.051
-429.632	347.245	0.118	-0.229
-428.617	-75.100	-0.253	-0.089
-427.603	202.855	-0.059	-0.090
-426.588	296.156	-0.062	-0.112
-425.573	407.274	0.104	-0.217
-424.559	-156.171	0.093	-0.006
-423.544	40.873	0.197	-0.176
-422.530	-32.966	-0.025	-0.014
-421.515	-1.027	0.199	0.139
-420.500	14.339	0.311	0.240
-419.486	-20.989	-0.258	0.156
-418.471	-95.066	0.283	-0.076
-417.457	800.000	-0.041	-0.154
-416.442	194.079	0.138	0.206
-415.428	-200.000	-0.294	-0.001
-414.413	48.684	-0.220	0.204
-413.398	156.525	-0.127	-0.174
-412.384	-67.365	-0.264	0.103
-411.369	67.388	0.398	-0.401
-410.355	-200.000	0.046	0.337
-409.340	18.670	0.201	-0.159
-408.325	-200.000	-0.003	-0.095
-407.311	86.498	-0.241	0.262
-406.296	524.598	0.092	0.214
-405.282	-42.015	-0.060	-0.031
-404.267	123.012	-0.122	-0.151
-403.252	782.692	0.096	0.260
-402.238	398.243	0.126	-0.261
-401.223	-147.417	0.190	0.016
-400.209	-88.171	-0.043	-0.013
-399.194	286.115	0.122	0.217
-398.179	348.499	0.099	-0.193
-397.165	-28.953	-0.100	-0.057
-396.150	220.559	0.132	0.209
-395.136	-200.000	-0.019	0.096
-394.121	-200.000	0.042	-0.209
-393.106	-200.000	0.013	-0.247
-392.092	-84.933	-0.133	-0.041
-391.077	-200.000	0.019	0.272
-390.063	-200.000	0.023	0.172
-389.048	3.892	0.219	0.158
-388.033	-200.000	-0.010	-0.187
-387.019	-75.417	-0.151	-0.053
-386.004	477.583	0.238	-0.532
-384.990	84.779	-0.019	-0.020
-383.975	-200.000	0.029	-0.238
-382.960	18.478	-0.248	-0.196
-381.946	41.491	-0.135	-0.121
-380.931	-173.035	-0.175	-0.005
-379.917	-184.020	0.323	0.005
-378.902	685.623	0.050	0.129
-377.888	565.897	0.132	0.316
-376.873	461.072	-0.027	-0.060
-375.858	-94.967	-0.208	0.056
-374.844	-200.000	-0.005	0.146
-373.829	34.474	-0.289	-0.249
-372.815	-59.578	0.179	-0.076
-371.800	-137.987	-0.339	0.037
-370.785	-70.796	-0.270	-0.101
-369.771	-79.017	0.124	0.042
-368.756	-114.440	0.238	-0.045
-367.742	-140.402	0.127	-0.013
-366.727	-11.396	-0.391	-0.254
-365.712	-71.525	0.254	-0.094
-364.698	298.276	0.127	0.231
-363.683	-90.926	0.124	0.035
-362.669	800.000	-0.005	0.020
-361.654	-200.000	0.004	-0.016
-360.639	-77.188	-0.335	-0.115
-359.625	775.062	-0.072	0.195
-358.610	172.501	0.068	0.097
-357.596	-131.805	0.121	-0.016
-356.581	-190.468	0.261	-0.003
-355.566	-200.000	-0.025	0.220
-354.552	-88.960	0.182	0.053
-353.537	-34.612	-0.038	0.021
-352.523	-63.238	-0.275	-0.112
-351.508	800.000	-0.042	0.133
-350.493	92.380	-0.380	0.422
-349.479	-183.983	-0.323	0.005
-348.464	-142.854	0.177	0.017
-347.450	103.530	-0.204	-0.236
-346.435	110.645	0.176	0.208
-345.420	178.444	-0.135	0.195
-344.406	-70.674	-0.116	0.043
-343.391	-153.558	0.311	0.021
-342.377	20.294	0.141	0.112
-341.362	-200.000	0.010	0.399
-340.348	-200.000	-0.032	0.240
-339.333	31.408	-0.329	0.279
-338.318	-200.000	0.001	-0.143
-337.304	2.194	0.197	0.140
-336.289	800.000	0.072	0.196
-335.275	275.600	-0.020	0.035
-334.260	310.621	-0.047	-0.086
-333.245	228.331	0.095	0.152
-332.231	218.890	0.192	0.303
-331.216	-182.861	-0.009	-0.000
-330.202	349.664	-0.093	0.181
-329.187	178.827	0.125	-0.180
-328.172	-200.000	0.022	-0.249
-327.158	-45.599	-0.150	-0.073
-326.143	-157.999	0.381	-0.022
-325.129	-21.068	-0.169	0.102
-324.114	435.708	-0.032	0.069
-323.099	-127.254	-0.332	0.048
-322.085	-29.797	-0.133	-0.075
-321.070	-200.000	-0.004	0.023
-320.056	377.862	0.108	0.218
-319.041	-25.507	-0.105	-0.061
-318.026	439.581	0.132	-0.284
-317.012	125.344	0.029	-0.036
-315.997	-200.000	0.091	0.403
-314.983	-79.112	0.086	-0.029
-313.968	220.728	-0.186	-0.295
-312.953	-200.000	0.038	0.316
-311.939	-175.690	-0.396	-0.011
-310.924	-200.000	-0.012	-0.394
-309.910	20.383	0.180	-0.143
-308.895	-200.000	0.005	0.175
-307.880	20.282	0.151	-0.120
-306.866	-10.242	0.263	0.172
-305.851	-124.595	-0.275	-0.042
-304.837	-200.000	0.036	-0.169
-303.822	-86.514	0.373	0.113
-302.807	-45.541	0.431	0.210
-301.793	-54.309	-0.210	-0.094
-300.778	800.000	0.018	0.070
-299.764	40.292	0.159	-0.141
-298.749	-85.094	-0.173	-0.053
-297.735	-100.846	-0.042	0.010
-296.720	-130.113	-0.186	-0.025
-295.705	50.878	-0.275	0.257
-294.691	100.240	0.239	-0.273
-293.676	800.000	-0.107	-0.338
-292.662	-55.923	-0.179	-0.079
-291.647	-24.688	-0.325	0.190
-290.632	17.959	-0.228	0.179
-289.618	-117.454	-0.142	0.025
-288.603	123.619	-0.173	0.214
-287.589	227.194	0.059	-0.095
-286.574	-112.849	-0.081	-0.016
-285.559	-64.059	0.171	0.069
-284.545	53.023	0.150	-0.142
-283.530	-142.613	-0.058	-0.006
-282.516	-103.758	-0.164	0.038
-281.501	-200.000	0.031	0.167
-280.486	-85.782	-0.320	-0.098
-279.472	-200.000	0.001	0.156
-278.457	-200.000	-0.003	0.151
-277.443	-39.202	-0.307	-0.159
-276.428	44.419	0.077	-0.069
-275.413	-100.942	-0.154	0.037
-274.399	760.518	0.093	-0.248
-273.384	47.902	-0.071	-0.065
-272.370	148.568	-0.131	0.174
-271.355	614.132	0.168	0.414
-270.340	-29.490	0.207	0.117
-269.326	-2.142	0.219	0.151
-268.311	-75.907	0.164	-0.057
-267.297	228.612	-0.191	-0.306
-266.282	-82.880	-0.202	0.064
-265.267	80.613	-0.022	0.023
-264.253	-200.000	0.002	-0.162
-263.238	227.615	0.246	-0.393
-262.224	-147.009	-0.269	0.023
-261.209	472.028	0.147	0.326
-260.195	-20.109	-0.188	0.114
-259.180	445.546	-0.133	-0.288
-258.165	-62.174	0.377	-0.155
-257.151	-200.000	-0.023	-0.256
-256.136	800.000	0.055	-0.151
-255.122	107.283	0.168	0.197
-254.107	-16.235	0.158	0.099
-253.092	-173.597	0.187	0.006
-252.078	133.135	-0.129	0.164
-251.063	4.809	0.417	-0.302
-250.049	-200.000	0.024	-0.183
-249.034	-200.000	0.011	-0.262
-248.019	466.407	0.028	-0.063
-247.005	84.752	-0.098	-0.105
-245.990	104.959	0.264	0.306
-244.976	-4.307	-0.158	-0.107
-243.961	16.472	0.284	0.221
-242.946	-200.000	0.023	0.185
-241.932	145.168	-0.124	0.163
-240.917	-80.546	0.177	-0.058
-239.903	110.846	0.061	0.072
-238.888	-200.000	0.024	0.127
-237.873	-67.945	0.172	0.066
-236.859	161.274	0.157	-0.216
-235.844	211.695	0.355	0.549
-234.830	113.719	-0.269	-0.322
-233.815	-200.000	0.015	-0.194
-232.800	71.324	-0.098	0.100
-231.786	-200.000	-0.004	-0.131
-230.771	21.374	0.190	0.152
-229.757	-9.706	-0.151	-0.099
-228.742	184.435	-0.043	-0.062
-227.727	-200.000	0.007	-0.252
-226.713	800.000	-0.073	0.201
-225.698	673.247	0.006	0.014
-224.684	-65.967	-0.081	0.032
-223.669	98.669	0.125	-0.141
-222.655	560.532	-0.057	-0.135
-221.640	-80.730	-0.116	0.038
-220.625	88.921	-0.111	-0.121
-219.611	-200.000	-0.061	0.271
-218.596	-17.151	0.217	-0.135
-217.582	-200.000	-0.029	-0.140
-216.567	440.609	0.030	-0.065
-215.552	-69.208	-0.112	0.042
-214.538	-158.986	-0.326	0.018
-213.523	551.317	0.130	-0.305
-212.509	-96.122	-0.025	0.007
-211.494	89.181	0.134	-0.147
-210.479	800.000	-0.061	-0.205
-209.465	-185.975	0.410	-0.006
-208.450	-27.693	0.185	0.105
-207.436	-200.000	-0.025	0.165
-206.421	237.601	0.174	-0.284
-205.406	-64.668	0.187	0.074
-204.392	10.715	-0.094	0.070
-203.377	-200.000	-0.037	0.163
-202.363	-150.661	-0.179	0.013
-201.348	562.491	-0.085	0.202
-200.333	-54.354	0.181	-0.080
-199.319	-56.612	-0.233	-0.101
-198.304	427.397	-0.089	0.189
-197.290	-200.000	0.032	0.204
-196.275	23.193	0.119	0.096
-195.260	-200.000	0.004	0.154
-194.246	227.292	0.086	0.138
-193.231	108.325	-0.130	-0.152
-192.217	630.590	-0.120	-0.298
-191.202	77.770	0.186	0.195
-190.187	-175.139	-0.589	-0.016
-189.173	-168.101	0.101	-0.004
-188.158	245.277	0.162	-0.267
-187.144	174.618	-0.252	-0.358
-186.129	-50.376	0.194	0.090
-185.114	-200.000	0.014	-0.366
-184.100	-200.000	0.034	0.252
-183.085	550.931	0.140	-0.330
-182.071	-200.000	0.029	-0.334
-181.056	-23.291	-0.235	0.139
-180.042	-200.000	-0.006	0.062
-179.027	-76.330	-0.258	0.089
-178.012	-200.000	-0.005	0.233
-176.998	410.391	-0.117	-0.243
-175.983	-200.000	-0.017	0.377
-174.969	800.000	-0.119	0.347
-173.954	37.089	0.170	-0.147
-172.939	-120.096	-0.185	0.031
-171.925	-132.467	-0.094	0.012
-170.910	800.000	-0.026	0.097
-169.896	-80.402	0.136	0.044
-168.881	-55.389	-0.101	-0.045
-167.866	-200.000	-0.021	0.291
-166.852	236.874	-0.245	-0.397
-165.837	222.412	-0.135	-0.213
-164.823	105.561	0.186	0.216
-163.808	61.019	0.249	0.242
-162.793	-142.720	0.099	-0.010
-161.779	115.390	0.038	-0.045
-160.764	-200.000	0.004	-0.120
-159.750	-200.000	0.032	-0.215
-158.735	-91.761	-0.317	-0.088
-157.720	-59.809	0.284	-0.119
-156.706	-178.503	0.216	-0.005
-155.691	178.897	-0.027	-0.039
-154.677	136.050	-0.115	0.147
-153.662	500.316	-0.066	-0.149
-152.647	262.646	0.146	-0.248
-151.633	800.000	-0.033	0.108
-150.618	-200.000	0.026	-0.275
-149.604	-200.000	-0.012	-0.198
-148.589	800.000	0.043	-0.173
-147.574	-200.000	0.014	0.080
-146.560	-200.000	-0.031	-0.228
-145.545	33.846	0.200	0.170
-144.531	-148.762	0.249	0.020
-143.516	-43.310	-0.151	-0.075
-142.502	800.000	-0.020	0.063
-141.487	-82.695	0.231	-0.073
-140.472	168.933	-0.115	-0.161
-139.458	7.684	-0.285	0.209
-138.443	-86.345	0.420	0.126
-137.429	-179.444	0.257	0.006
-136.414	658.217	-0.063	0.159
-135.399	-160.090	-0.343	-0.018
-134.385	-200.000	0.012	-0.316
-133.370	-72.416	-0.485	0.176
-132.356	134.728	-0.042	-0.053
-131.341	151.161	-0.083	-0.111
-130.326	86.951	0.211	-0.228
-129.312	-200.000	0.021	0.172
-128.297	-1.666	-0.087	0.060
-127.283	-46.228	0.163	0.079
-126.268	-13.820	0.111	-0.070
-125.253	-133.243	0.225	0.028
-124.239	461.529	-0.107	-0.233
-123.224	75.893	0.133	0.138
-122.210	168.745	0.075	-0.105
-121.195	-109.055	0.227	-0.047
