DTS Sentinel unit serial number:	SN413079Multiplexer serial number:	ORYXHardware model number:	OX4-SRSoftware version number:	ORYX F/W v4.00 Oryx Data Collector v3.7.2.0data status	okinstallation	princeton_trtdifferential loss correction	single-endedforward channel	channel 1reverse channel	N/Adate	2019/09/18time	22:26:35forward acquisition time	60.00reverse acquisition time	0.00gamma	496.2192k internal	0.2341k external	0.2341temperature offset calibration	1.0014default loss term (dB/km)	0.3790temperature slope calibration	1.0000multiplexer offset coefficient	1.0000multiplexer slope coefficient	1.0000fibre end	0.00T internal ref (°C)	24.27T ext. ref 1 (°C)	0.79T ext. ref 2 (°C)	17.95length (m)	temperature (°C)	Stokes	anti-Stokes-747.200	144.973	-0.158	0.212
-746.185	443.617	0.068	0.150
-745.171	173.201	-0.091	-0.131
-744.156	-129.039	0.201	-0.028
-743.142	26.248	0.055	-0.046
-742.127	-76.591	-0.255	0.090
-741.112	-60.577	0.386	0.164
-740.098	-113.143	0.093	-0.018
-739.083	-200.000	0.016	-0.099
-738.069	186.822	0.094	-0.141
-737.054	468.730	0.061	-0.138
-736.039	-14.324	-0.531	-0.343
-735.025	180.822	0.047	0.070
-734.010	-200.000	-0.007	0.133
-732.996	17.685	0.080	0.064
-731.981	-158.768	0.139	0.008
-730.966	39.016	-0.215	-0.193
-729.952	426.508	0.046	-0.100
-728.937	-93.112	0.342	0.095
-727.923	89.434	-0.035	-0.039
-726.908	-200.000	-0.037	-0.186
-725.894	405.629	-0.176	-0.372
-724.879	278.832	-0.073	0.131
-723.864	30.890	0.230	0.198
-722.850	224.700	-0.173	-0.279
-721.835	800.000	0.060	-0.185
-720.821	-9.016	-0.068	-0.045
-719.806	-200.000	0.011	-0.111
-718.791	52.494	-0.240	-0.230
-717.777	85.327	0.239	-0.262
-716.762	-200.000	-0.002	-0.073
-715.748	800.000	-0.051	0.184
-714.733	176.008	-0.075	0.108
-713.718	-44.731	-0.205	0.102
-712.704	39.135	0.122	-0.110
-711.689	705.852	0.063	-0.167
-710.675	-104.990	-0.236	-0.054
-709.660	800.000	0.048	0.184
-708.645	-106.897	-0.075	-0.017
-707.631	126.987	0.172	-0.218
-706.616	-56.507	0.274	0.122
-705.602	-200.000	-0.010	0.109
-704.587	-55.710	-0.082	-0.037
-703.572	479.564	0.137	-0.311
-702.558	-8.796	-0.260	-0.174
-701.543	-177.025	-0.286	-0.007
-700.529	800.000	-0.082	-0.232
-699.514	-167.670	-0.121	-0.005
-698.499	5.617	0.262	-0.194
-697.485	-77.571	0.058	0.020
-696.470	125.097	-0.054	0.068
-695.456	-200.000	-0.005	0.160
-694.441	413.889	-0.194	0.412
-693.426	-25.235	-0.081	0.048
-692.412	49.206	-0.160	-0.151
-691.397	-146.024	-0.211	0.019
-690.383	-130.693	-0.332	0.045
-689.368	-64.755	-0.032	-0.013
-688.354	-99.764	-0.220	-0.055
-687.339	742.274	-0.109	0.294
-686.324	167.044	-0.185	0.263
-685.310	-78.878	0.161	0.055
-684.295	87.315	-0.086	-0.095
-683.281	-200.000	-0.018	0.242
-682.266	31.376	-0.101	0.087
-681.251	32.076	0.295	0.254
-680.237	99.772	-0.073	-0.084
-679.222	-144.652	0.178	0.016
-678.208	-200.000	0.069	0.346
-677.193	-99.690	-0.241	0.060
-676.178	-57.436	-0.124	-0.055
-675.164	86.360	0.081	0.089
-674.149	-80.722	-0.218	-0.072
-673.135	-136.423	0.314	0.036
-672.120	8.316	-0.103	0.077
-671.105	-18.360	-0.245	-0.153
-670.091	-200.000	-0.003	0.224
-669.076	-200.000	-0.004	-0.082
-668.062	800.000	-0.020	0.064
-667.047	-200.000	-0.036	-0.201
-666.032	179.879	0.053	-0.078
-665.018	-67.420	-0.291	0.114
-664.003	96.459	0.127	-0.145
-662.989	-148.690	-0.074	-0.006
-661.974	355.966	-0.091	-0.182
-660.959	-200.000	0.041	-0.376
-659.945	102.576	-0.023	0.027
-658.930	204.701	-0.064	0.099
-657.916	272.881	-0.115	0.203
-656.901	93.089	0.054	-0.061
-655.886	-81.125	-0.195	0.064
-654.872	-162.064	-0.519	0.026
-653.857	-134.381	0.075	0.009
-652.843	95.771	-0.128	0.146
-651.828	-47.057	0.140	-0.068
-650.814	-116.731	-0.416	-0.076
-649.799	56.740	0.278	-0.270
-648.784	800.000	-0.067	-0.277
-647.770	258.307	-0.086	-0.147
-646.755	171.504	0.138	-0.197
-645.741	-11.751	0.141	-0.093
-644.726	432.592	0.050	-0.108
-643.711	-125.702	-0.211	0.032
-642.697	800.000	0.028	0.096
-641.682	145.975	0.194	0.259
-640.668	800.000	0.101	0.333
-639.653	90.173	-0.132	-0.148
-638.638	-74.253	0.115	0.041
-637.624	-140.461	-0.109	0.011
-636.609	800.000	0.098	0.341
-635.595	800.000	-0.058	0.237
-634.580	800.000	-0.094	-0.319
-633.565	226.750	-0.210	0.340
-632.551	-5.059	-0.100	0.069
-631.536	-165.977	-0.297	-0.013
-630.522	800.000	-0.074	0.239
-629.507	-0.432	0.139	-0.098
-628.492	114.691	0.151	-0.184
-627.478	212.884	0.150	-0.237
-626.463	36.172	-0.105	0.092
-625.449	157.298	-0.153	0.211
-624.434	800.000	-0.062	0.171
-623.419	595.974	0.140	-0.347
-622.405	23.024	0.238	0.195
-621.390	452.694	-0.054	-0.120
-620.376	568.991	0.013	0.032
-619.361	163.646	0.280	-0.393
-618.346	800.000	-0.081	-0.336
-617.332	-145.678	-0.226	-0.020
-616.317	-57.754	-0.246	0.108
-615.303	-122.209	-0.400	-0.065
-614.288	-94.562	0.253	0.069
-613.273	-200.000	-0.033	-0.284
-612.259	-1.226	-0.415	0.292
-611.244	183.831	-0.024	0.036
-610.230	-114.376	-0.167	-0.032
-609.215	44.034	-0.163	0.149
-608.201	-34.397	-0.197	0.108
-607.186	800.000	-0.056	-0.203
-606.171	-151.772	-0.028	0.002
-605.157	-200.000	0.003	0.128
-604.142	-17.142	-0.099	0.062
-603.128	-148.724	0.118	-0.010
-602.113	799.705	0.127	0.349
-601.098	-50.027	0.046	-0.022
-600.084	46.661	-0.214	0.198
-599.069	800.000	0.012	0.035
-598.055	800.000	-0.020	0.075
-597.040	42.990	0.085	0.077
-596.025	-116.272	-0.270	-0.050
-595.011	-42.553	-0.188	0.095
-593.996	-77.535	0.261	-0.090
-592.982	92.923	0.053	0.060
-591.967	800.000	-0.062	0.196
-590.952	-121.542	-0.166	-0.028
-589.938	-60.815	0.150	-0.063
-588.923	-67.302	0.236	-0.092
-587.909	376.452	0.083	-0.170
-586.894	7.071	0.052	0.039
-585.879	-72.262	-0.466	-0.172
-584.865	-200.000	0.039	0.257
-583.850	-127.738	0.229	0.033
-582.836	-200.000	-0.007	0.278
-581.821	190.693	0.090	0.135
-580.806	16.831	-0.117	0.092
-579.792	-48.864	-0.486	-0.232
-578.777	233.736	0.184	-0.302
-577.763	-200.000	0.018	-0.195
-576.748	-195.140	0.205	-0.002
-575.733	-114.705	-0.139	0.027
-574.719	-39.753	-0.273	0.142
-573.704	-126.017	0.469	0.070
-572.690	29.562	-0.241	0.204
-571.675	52.235	0.122	0.115
-570.661	530.855	-0.084	0.197
-569.646	176.759	0.174	-0.252
-568.631	-78.166	-0.284	-0.097
-567.617	-200.000	0.004	-0.203
-566.602	414.980	-0.075	0.158
-565.588	353.879	0.057	0.112
-564.573	161.575	0.140	-0.196
-563.558	-200.000	-0.016	0.214
-562.544	-41.226	0.090	-0.046
-561.529	-200.000	-0.013	-0.100
-560.515	-161.522	-0.390	0.020
-559.500	377.127	0.223	-0.452
-558.485	157.977	-0.068	0.093
-557.471	53.781	0.089	0.085
-556.456	-200.000	-0.003	-0.361
-555.442	9.200	0.088	-0.066
-554.427	169.372	-0.320	0.454
-553.412	-112.199	0.480	0.096
-552.398	17.076	-0.326	0.257
-551.383	202.270	-0.089	0.137
-550.369	-200.000	0.020	-0.223
-549.354	-88.934	0.280	-0.082
-548.339	-200.000	0.004	-0.400
-547.325	-200.000	-0.059	-0.270
-546.310	60.357	-0.220	-0.217
-545.296	-160.785	-0.177	0.009
-544.281	800.000	0.025	-0.107
-543.266	800.000	-0.035	0.131
-542.252	800.000	-0.080	0.299
-541.237	9.379	-0.217	0.163
-540.223	-56.287	0.295	0.130
-539.208	-200.000	-0.016	-0.084
-538.193	93.067	-0.238	-0.268
-537.179	90.461	0.144	-0.160
-536.164	-200.000	0.013	-0.196
-535.150	185.796	-0.275	0.406
-534.135	800.000	0.035	0.139
-533.121	340.898	-0.094	0.183
-532.106	-138.986	-0.192	-0.021
-531.091	-127.529	0.145	0.021
-530.077	287.908	-0.112	0.202
-529.062	70.067	0.216	0.221
-528.048	800.000	0.096	0.307
-527.033	59.299	0.070	-0.068
-526.018	-200.000	0.002	-0.261
-525.004	158.363	0.210	-0.289
-523.989	105.433	0.086	-0.101
-522.975	-200.000	-0.003	0.023
-521.960	800.000	-0.113	0.378
-520.945	-124.339	0.355	-0.055
-519.931	-62.572	-0.549	-0.226
-518.916	188.006	-0.185	-0.275
-517.902	-17.221	0.140	0.088
-516.887	759.088	0.091	0.246
-515.872	-187.263	0.128	0.002
-514.858	785.578	-0.088	-0.240
-513.843	4.281	-0.017	0.012
-512.829	-200.000	-0.024	0.449
-511.814	161.658	0.044	-0.061
-510.799	-179.465	-0.066	0.001
-509.785	606.245	0.074	-0.184
-508.770	-200.000	0.104	-0.463
-507.756	245.532	0.172	-0.288
-506.741	-200.000	-0.012	-0.292
-505.726	-200.000	0.076	-0.600
-504.712	-28.889	0.237	-0.135
-503.697	233.629	-0.070	-0.114
-502.683	-77.333	-0.444	-0.153
-501.668	-200.000	-0.006	0.112
-500.653	-65.251	-0.211	-0.084
-499.639	150.302	0.100	0.135
-498.624	37.684	0.111	-0.098
-497.610	-108.245	-0.365	0.078
-496.595	-70.051	0.342	-0.129
-495.581	19.393	-0.222	0.177
-494.566	-147.271	0.089	0.008
-493.551	-121.190	-0.099	-0.016
-492.537	-175.024	0.213	0.006
-491.522	28.341	-0.214	0.179
-490.508	31.868	-0.144	0.123
-489.493	-84.305	0.061	-0.019
-488.478	-100.245	-0.212	0.052
-487.464	-134.784	-0.327	-0.039
-486.449	-9.697	-0.080	-0.053
-485.435	-150.373	-0.174	0.013
-484.420	-76.490	-0.442	-0.154
-483.405	113.532	-0.213	0.256
-482.391	492.563	-0.151	-0.343
-481.376	-193.392	0.265	-0.002
-480.362	-122.377	0.181	0.029
-479.347	-200.000	-0.004	-0.218
-478.332	-117.147	0.311	-0.056
-477.318	203.406	-0.113	0.174
-476.303	-103.651	0.161	0.037
-475.289	526.365	-0.025	-0.059
-474.274	-200.000	-0.027	0.158
-473.259	221.003	0.077	0.123
-472.245	45.637	0.178	0.163
-471.230	800.000	-0.084	-0.318
-470.216	-114.417	0.102	0.019
-469.201	-102.168	0.124	0.030
-468.186	74.455	0.107	0.111
-467.172	-42.164	-0.283	0.143
-466.157	108.999	0.053	0.063
-465.143	31.208	-0.153	-0.130
-464.128	-95.153	-0.449	0.120
-463.113	-12.933	0.215	0.139
-462.099	278.476	-0.125	0.222
-461.084	13.947	0.215	-0.166
-460.070	-176.569	-0.091	0.002
-459.055	-59.561	0.089	-0.038
-458.040	-23.438	-0.162	-0.096
-457.026	800.000	0.029	0.101
-456.011	-3.434	-0.109	-0.075
-454.997	-200.000	0.023	0.185
-453.982	40.995	0.273	-0.244
-452.968	738.783	0.031	0.082
-451.953	-70.566	0.322	-0.121
-450.938	-106.567	0.033	-0.007
-449.924	373.796	0.131	0.264
-448.909	800.000	-0.003	-0.008
-447.895	-200.000	-0.594	0.003
-446.880	-144.100	-0.194	0.018
-445.865	75.713	-0.067	0.070
-444.851	9.176	0.277	-0.208
-443.836	-112.107	0.281	-0.056
-442.822	-81.497	0.057	-0.018
-441.807	-200.000	-0.004	0.238
-440.792	-8.252	-0.287	0.192
-439.778	-150.909	0.083	0.006
-438.763	119.405	0.097	-0.119
-437.749	16.413	0.108	0.084
-436.734	-105.482	0.224	0.050
-435.719	-200.000	-0.035	0.207
-434.705	9.048	0.163	-0.122
-433.690	-200.000	-0.029	0.333
-432.676	-200.000	0.023	0.104
-431.661	-65.739	0.189	0.075
-430.646	-200.000	0.050	0.355
-429.632	68.091	-0.486	0.493
-428.617	146.734	-0.045	0.060
-427.603	-70.638	0.473	-0.177
-426.588	206.881	0.090	-0.138
-425.573	-36.898	-0.063	-0.033
-424.559	309.783	-0.065	0.121
-423.544	-76.082	-0.105	0.037
-422.530	-59.700	-0.262	-0.111
-421.515	-6.990	0.104	0.070
-420.500	275.884	0.033	0.058
-419.486	-77.769	0.272	-0.093
-418.471	800.000	-0.103	0.291
-417.457	762.547	0.125	-0.336
-416.442	14.801	0.158	-0.122
-415.428	-15.862	0.217	-0.137
-414.413	-200.000	-0.008	0.101
-413.398	-79.557	-0.254	-0.085
-412.384	230.863	-0.106	-0.172
-411.369	-51.436	0.438	-0.202
-410.355	-26.412	0.292	0.170
-409.340	-135.411	-0.180	-0.021
-408.325	-95.771	-0.424	0.112
-407.311	-78.294	0.101	-0.034
-406.296	-200.000	0.003	0.242
-405.282	6.648	-0.126	0.092
-404.267	-158.739	-0.177	-0.010
-403.252	-91.374	-0.116	-0.033
-402.238	-8.158	-0.079	-0.053
-401.223	120.580	-0.174	-0.214
-400.209	-34.598	0.037	0.020
-399.194	-136.591	0.196	-0.022
-398.179	9.403	-0.099	0.074
-397.165	155.201	0.120	-0.163
-396.150	643.861	0.191	0.482
-395.136	67.040	-0.063	0.063
-394.121	670.783	-0.064	-0.164
-393.106	-28.956	0.044	0.025
-392.092	800.000	-0.094	-0.354
-391.077	800.000	0.041	0.121
-390.063	800.000	0.027	-0.078
-389.048	-140.081	0.052	-0.005
-388.033	-108.717	-0.370	0.078
-387.019	-81.844	-0.074	0.024
-386.004	73.674	0.124	-0.128
-384.990	178.415	-0.030	-0.043
-383.975	-149.330	0.114	0.009
-382.960	-119.518	0.025	0.004
-381.946	24.857	0.366	0.300
-380.931	27.214	0.167	0.139
-379.917	255.067	-0.014	0.023
-378.902	530.823	-0.020	-0.047
-377.888	-100.133	0.294	0.072
-376.873	-200.000	0.037	0.212
-375.858	800.000	-0.014	0.051
-374.844	72.155	-0.124	-0.127
-373.829	18.455	0.101	0.080
-372.815	-200.000	0.009	-0.100
-371.800	800.000	-0.068	-0.229
-370.785	-200.000	0.024	-0.310
-369.771	117.702	0.028	0.034
-368.756	-92.730	-0.195	0.054
-367.742	56.589	-0.198	0.191
-366.727	29.220	-0.104	0.087
-365.712	-55.426	-0.184	0.082
-364.698	688.880	-0.025	0.065
-363.683	800.000	0.037	-0.126
-362.669	-163.416	0.132	0.006
-361.654	800.000	-0.103	0.282
-360.639	315.535	0.008	0.014
-359.625	-81.555	-0.106	-0.034
-358.610	519.910	-0.065	-0.151
-357.596	-200.000	0.038	-0.190
-356.581	-109.264	-0.092	-0.019
-355.566	-97.449	0.426	-0.109
-354.552	68.397	0.155	-0.156
-353.537	5.513	0.269	0.196
-352.523	-86.073	0.143	0.043
-351.508	-78.265	-0.148	0.050
-350.493	-65.192	-0.180	0.072
-349.479	47.958	0.088	0.081
-348.464	72.517	0.202	0.208
-347.450	800.000	0.077	-0.251
-346.435	-58.063	-0.394	-0.170
-345.420	-20.610	-0.329	-0.199
-344.406	-199.362	-0.191	0.001
-343.391	-200.000	0.073	-0.376
-342.377	-97.299	-0.119	0.031
-341.362	391.282	-0.065	-0.133
-340.348	39.480	-0.055	0.048
-339.333	181.442	0.108	-0.157
-338.318	595.957	0.103	-0.252
-337.304	800.000	-0.014	-0.050
-336.289	-34.446	-0.117	-0.063
-335.275	-200.000	0.007	0.160
-334.260	64.867	0.230	-0.229
-333.245	-200.000	-0.005	-0.115
-332.231	232.507	-0.177	-0.287
-331.216	-67.286	-0.346	0.134
-330.202	-109.387	-0.128	0.027
-329.187	-107.628	0.243	0.052
-328.172	-200.000	0.001	-0.047
-327.158	7.755	-0.382	-0.282
-326.143	245.692	0.219	-0.363
-325.129	800.000	-0.012	0.042
-324.114	443.444	0.075	-0.162
-323.099	-125.817	-0.042	0.006
-322.085	-88.569	-0.145	0.043
-321.070	97.403	-0.269	-0.305
-320.056	800.000	0.049	0.199
-319.041	134.661	0.151	-0.194
-318.026	102.221	-0.139	-0.160
-317.012	-55.237	-0.162	-0.072
-315.997	-26.186	-0.312	-0.181
-314.983	-57.932	-0.268	0.115
-313.968	-14.786	-0.111	0.070
-312.953	-2.545	0.157	0.108
-311.939	380.943	-0.051	0.102
-310.924	-1.998	-0.022	0.015
-309.910	-115.249	0.183	0.034
-308.895	-155.022	0.173	-0.011
-307.880	22.650	0.206	0.166
-306.866	-200.000	0.046	0.348
-305.851	269.052	-0.070	0.120
-304.837	273.762	-0.077	0.134
-303.822	-19.393	0.059	0.036
-302.807	-141.170	0.185	-0.019
-301.793	-30.063	0.126	0.071
-300.778	-200.000	0.017	0.271
-299.764	-73.570	0.428	0.154
-298.749	-156.712	-0.125	-0.008
-297.735	198.064	0.092	-0.138
-296.720	800.000	0.089	0.255
-295.705	40.931	0.236	-0.210
-294.691	758.674	0.039	-0.104
-293.676	-109.632	-0.266	-0.055
-292.662	52.660	0.278	0.262
-291.647	147.427	-0.062	0.082
-290.632	19.826	-0.184	-0.146
-289.618	-200.000	0.067	-0.294
-288.603	-153.774	0.232	-0.016
-287.589	800.000	0.076	0.239
-286.574	-158.271	0.304	0.017
-285.559	-21.809	-0.371	-0.222
-284.545	112.804	0.116	0.138
-283.530	-109.331	0.230	-0.048
-282.516	35.347	0.076	0.066
-281.501	298.097	0.119	0.215
-280.486	136.368	0.187	-0.240
-279.472	341.446	0.052	0.101
-278.457	-89.186	0.173	-0.050
-277.443	317.514	0.132	-0.245
-276.428	-200.000	0.127	-0.000
-275.413	-200.000	-0.013	0.134
-274.399	470.853	0.116	0.258
-273.384	-200.000	-0.047	-0.213
-272.370	-55.188	-0.206	-0.091
-271.355	-65.185	-0.033	0.013
-270.340	-60.867	0.308	-0.128
-269.326	-200.000	-0.019	-0.122
-268.311	-67.103	-0.141	0.055
-267.297	33.253	0.027	-0.023
-266.282	-200.000	0.031	0.261
-265.267	-186.180	0.214	0.003
-264.253	-104.228	0.227	0.052
-263.238	-43.621	-0.098	0.048
-262.224	18.869	-0.308	-0.243
-261.209	84.614	-0.280	0.301
-260.195	800.000	0.094	-0.337
-259.180	-43.518	0.063	0.031
-258.165	-158.430	-0.181	-0.010
-257.151	-67.070	-0.309	-0.120
-256.136	100.830	0.171	0.196
-255.122	-138.569	0.160	-0.017
-254.107	-200.000	-0.040	0.286
-253.092	140.068	-0.139	-0.180
-252.078	800.000	0.048	-0.186
-251.063	-62.285	-0.522	-0.214
-250.049	-138.029	0.211	-0.023
-249.034	-7.901	0.112	0.074
-248.019	-200.000	0.031	0.330
-247.005	-65.771	-0.077	0.030
-245.990	-78.329	-0.084	0.028
-244.976	474.883	-0.162	0.360
-243.961	800.000	0.052	-0.189
-242.946	-35.013	0.194	0.104
-241.932	-27.981	0.144	-0.082
-240.917	-30.442	-0.209	0.117
-239.903	52.265	0.220	0.206
-238.888	-200.000	0.014	-0.134
-237.873	352.867	0.015	-0.030
-236.859	-200.000	0.067	-0.321
-235.844	35.891	0.164	0.142
-234.830	53.439	-0.166	0.156
-233.815	-87.067	0.590	-0.176
-232.800	-160.072	0.206	-0.011
-231.786	-200.000	-0.000	-0.051
-230.771	-21.032	-0.325	0.196
-229.757	800.000	0.053	0.201
-228.742	510.871	0.103	-0.236
-227.727	-200.000	-0.019	-0.266
-226.713	31.638	-0.364	-0.308
-225.698	12.060	0.091	-0.069
-224.684	133.956	-0.048	-0.062
-223.669	-32.175	0.201	-0.110
-222.655	-200.000	-0.052	0.284
-221.640	-194.669	0.165	0.001
-220.625	315.938	-0.134	-0.248
-219.611	-129.182	0.185	-0.025
-218.596	800.000	-0.096	0.290
-217.582	62.906	0.070	0.069
-216.567	538.095	-0.065	-0.152
-215.552	95.476	0.248	-0.278
-214.538	68.075	0.139	0.140
-213.523	188.589	-0.107	-0.156
-212.509	-79.664	0.293	-0.097
-211.494	-24.436	-0.218	-0.127
-210.479	-115.474	-0.204	0.038
-209.465	-200.000	-0.048	0.245
-208.450	-75.541	0.150	0.052
-207.436	-200.000	-0.074	-0.349
-206.421	617.995	-0.114	0.280
-205.406	-138.570	0.316	-0.034
-204.392	-200.000	-0.012	0.122
-203.377	-200.000	0.008	-0.222
-202.363	97.697	0.296	-0.334
-201.348	-200.000	0.010	-0.227
-200.333	-200.000	-0.038	0.225
-199.319	-170.665	-0.120	-0.004
-198.304	-157.476	0.090	0.005
-197.290	1.675	-0.138	-0.097
-196.275	94.552	0.038	0.042
-195.260	124.552	-0.150	0.185
-194.246	69.790	0.111	0.112
-193.231	800.000	0.080	-0.238
-192.217	20.165	-0.296	-0.234
-191.202	-172.912	-0.305	0.009
-190.187	-96.706	-0.136	-0.035
-189.173	116.348	-0.188	-0.226
-188.158	386.793	-0.124	0.252
-187.144	5.375	-0.064	0.046
-186.129	-200.000	0.015	-0.162
-185.114	135.977	0.275	-0.351
-184.100	-200.000	0.056	0.389
-183.085	152.030	0.157	-0.209
-182.071	-200.000	0.039	0.197
-181.056	-200.000	0.076	0.470
-180.042	-89.032	0.322	0.093
-179.027	-93.187	0.075	-0.021
-178.012	-45.933	0.089	-0.043
-176.998	-200.000	0.004	0.109
-175.983	-200.000	0.017	-0.149
-174.969	-131.913	0.179	-0.023
-173.954	-81.051	-0.042	0.014
-172.939	-36.058	0.342	-0.181
-171.925	-200.000	-0.028	0.264
-170.910	-200.000	0.050	0.393
-169.896	303.264	-0.110	-0.199
-168.881	143.243	-0.238	-0.311
-167.866	12.250	0.145	0.109
-166.852	122.743	0.142	0.174
-165.837	5.276	-0.153	0.110
-164.823	16.384	-0.208	0.161
-163.808	800.000	-0.074	0.209
-162.793	800.000	-0.083	0.258
-161.779	77.138	-0.283	0.294
-160.764	61.436	0.253	-0.247
-159.750	-1.833	0.293	0.202
-158.735	-200.000	-0.061	0.270
-157.720	-200.000	0.033	-0.218
-156.706	799.330	0.044	0.118
-155.691	443.175	-0.135	-0.290
-154.677	38.625	0.280	0.244
-153.662	-62.217	0.231	0.094
-152.647	228.056	-0.122	0.194
-151.633	587.067	0.018	0.043
-150.618	-11.885	-0.029	0.019
-149.604	-21.757	-0.023	-0.014
-148.589	800.000	-0.010	-0.030
-147.574	696.648	0.113	-0.290
-146.560	-30.735	0.068	0.038
-145.545	276.639	-0.149	0.259
-144.531	-125.860	-0.048	-0.007
-143.516	299.624	-0.086	0.155
-142.502	800.000	0.051	0.147
-141.487	-200.000	-0.001	0.206
-140.472	130.549	-0.188	0.236
-139.458	-30.038	0.494	-0.275
-138.443	571.983	0.079	-0.188
-137.429	254.100	-0.062	-0.103
-136.414	374.422	-0.175	0.349
-135.399	156.984	-0.165	0.224
-134.385	-81.265	-0.140	0.045
-133.370	-200.000	0.330	0.001
-132.356	-200.000	0.025	-0.106
-131.341	-101.845	-0.353	0.083
-130.326	-24.090	0.190	0.111
-129.312	-71.778	0.386	0.141
-128.297	-139.387	-0.104	0.011
-127.283	-59.533	0.198	0.083
-126.268	50.144	-0.123	0.114
-125.253	-200.000	0.028	0.199
-124.239	29.816	0.183	-0.152
-123.224	-61.763	0.268	-0.110
-122.210	-84.434	-0.068	0.021
-121.195	-156.732	-0.119	-0.007
-120.180	-200.000	-0.006	0.223
