DTS Sentinel unit serial number:	SN413079Multiplexer serial number:	ORYXHardware model number:	OX4-SRSoftware version number:	ORYX F/W v4.00 Oryx Data Collector v3.7.2.0data status	okinstallation	princeton_trtdifferential loss correction	single-endedforward channel	channel 1reverse channel	N/Adate	2019/09/14time	00:30:35forward acquisition time	60.00reverse acquisition time	0.00gamma	496.2192k internal	0.2337k external	0.2337temperature offset calibration	1.0077default loss term (dB/km)	0.3790temperature slope calibration	1.0000multiplexer offset coefficient	1.0000multiplexer slope coefficient	1.0000fibre end	0.00T internal ref (°C)	26.45T ext. ref 1 (°C)	3.16T ext. ref 2 (°C)	21.18length (m)	temperature (°C)	Stokes	anti-Stokes-747.200	-200.000	-0.024	0.401
-746.185	424.247	-0.172	0.372
-745.171	-122.460	0.250	-0.041
-744.156	-113.583	-0.272	-0.053
-743.142	215.043	0.063	0.100
-742.127	47.799	-0.372	-0.349
-741.112	150.590	0.086	0.117
-740.098	800.000	-0.019	0.063
-739.083	-78.201	-0.048	-0.017
-738.069	559.323	0.124	0.301
-737.054	800.000	-0.039	-0.124
-736.039	4.804	0.223	-0.165
-735.025	-121.349	-0.112	0.019
-734.010	198.848	0.087	-0.134
-732.996	88.117	0.135	-0.150
-731.981	468.023	0.098	-0.220
-730.966	800.000	0.079	-0.337
-729.952	-41.971	-0.068	-0.035
-728.937	-200.000	0.051	-0.274
-727.923	-38.910	0.165	0.087
-726.908	-21.868	-0.177	-0.108
-725.894	160.481	-0.076	0.106
-724.879	800.000	-0.034	0.108
-723.864	-200.000	0.008	-0.297
-722.850	-108.008	0.290	0.063
-721.835	-52.598	-0.069	-0.032
-720.821	139.505	-0.066	0.087
-719.806	-200.000	-0.001	0.150
-718.791	-75.259	-0.139	-0.050
-717.777	51.346	0.122	0.116
-716.762	28.561	0.110	-0.093
-715.748	-200.000	0.071	-0.415
-714.733	54.206	-0.069	-0.067
-713.718	800.000	-0.166	-0.594
-712.704	146.837	-0.112	-0.151
-711.689	800.000	-0.015	0.061
-710.675	258.975	0.104	0.179
-709.660	225.129	0.105	-0.171
-708.645	139.378	-0.145	-0.191
-707.631	-155.935	0.291	-0.019
-706.616	65.035	-0.019	-0.020
-705.602	-200.000	0.017	-0.134
-704.587	-15.224	-0.266	-0.170
-703.572	232.763	0.118	0.195
-702.558	-2.268	-0.178	-0.125
-701.543	-94.959	-0.370	-0.100
-700.529	-122.265	-0.295	0.048
-699.514	-200.000	-0.006	-0.282
-698.499	-200.000	-0.043	0.309
-697.485	-200.000	-0.102	0.487
-696.470	-200.000	0.094	-0.441
-695.456	418.679	-0.142	0.305
-694.441	-6.008	0.105	0.072
-693.426	-33.138	0.089	0.049
-692.412	-144.970	-0.199	0.018
-691.397	-184.064	-0.290	-0.005
-690.383	82.369	-0.127	-0.138
-689.368	-125.589	0.086	-0.013
-688.354	-81.199	0.309	-0.102
-687.339	-29.047	-0.112	0.065
-686.324	-200.000	-0.006	0.235
-685.310	800.000	-0.029	-0.096
-684.295	183.692	0.075	-0.112
-683.281	53.017	-0.083	0.080
-682.266	148.185	-0.185	-0.251
-681.251	179.177	-0.130	0.190
-680.237	-180.937	0.165	-0.003
-679.222	-200.000	-0.030	0.378
-678.208	-122.426	-0.475	-0.077
-677.193	-25.370	-0.237	0.140
-676.178	572.099	-0.170	-0.414
-675.164	-89.978	-0.096	-0.028
-674.149	-200.000	-0.022	-0.265
-673.135	70.092	0.054	-0.056
-672.120	44.242	-0.295	-0.271
-671.105	-200.000	-0.039	0.235
-670.091	-98.287	-0.281	-0.072
-669.076	72.048	-0.212	0.221
-668.062	-200.000	-0.011	0.065
-667.047	-200.000	-0.060	-0.362
-666.032	800.000	0.144	-0.407
-665.018	-64.050	0.374	-0.153
-664.003	-20.950	-0.334	-0.205
-662.989	-200.000	-0.223	0.001
-661.974	-176.255	-0.310	0.008
-660.959	-86.310	-0.398	0.122
-659.945	736.853	0.053	-0.141
-658.930	-87.688	-0.204	0.062
-657.916	800.000	0.078	0.314
-656.901	419.976	-0.078	-0.166
-655.886	-109.426	0.145	0.031
-654.872	-32.566	-0.219	0.122
-653.857	800.000	0.016	0.049
-652.843	-18.617	0.197	0.123
-651.828	63.351	0.158	0.158
-650.814	800.000	0.050	0.156
-649.799	1.425	0.133	-0.096
-648.784	-153.193	0.237	-0.017
-647.770	93.896	-0.125	0.142
-646.755	-45.123	0.058	-0.029
-645.741	24.406	-0.100	0.082
-644.726	-132.676	-0.069	-0.009
-643.711	5.401	0.041	-0.030
-642.697	111.275	-0.067	-0.080
-641.682	-68.343	0.170	-0.066
-640.668	-42.859	-0.222	-0.113
-639.653	-72.539	0.178	-0.066
-638.638	800.000	-0.047	0.154
-637.624	800.000	0.059	-0.196
-636.609	-96.432	0.331	-0.087
-635.595	402.564	0.117	-0.245
-634.580	759.416	-0.039	0.106
-633.565	580.494	-0.214	-0.523
-632.551	-78.252	-0.210	0.072
-631.536	-93.194	0.167	0.046
-630.522	-22.686	0.162	0.098
-629.507	1.467	0.061	-0.044
-628.492	800.000	0.089	-0.247
-627.478	66.172	-0.101	0.102
-626.463	-33.226	-0.043	-0.024
-625.449	-147.779	-0.189	0.016
-624.434	85.186	-0.326	-0.357
-623.419	-200.000	-0.002	-0.028
-622.405	-151.848	0.068	-0.005
-621.390	80.315	0.207	-0.223
-620.376	-200.000	-0.021	-0.170
-619.361	-114.410	0.084	0.016
-618.346	800.000	0.057	-0.222
-617.332	-200.000	-0.040	-0.195
-616.317	800.000	-0.094	-0.342
-615.303	-130.344	0.102	0.014
-614.288	-21.702	0.075	-0.046
-613.273	800.000	-0.093	-0.275
-612.259	-189.852	0.123	0.001
-611.244	-5.166	-0.016	-0.011
-610.230	-35.207	0.067	0.036
-609.215	-63.258	0.271	-0.111
-608.201	87.846	-0.026	0.029
-607.186	-200.000	0.029	0.239
-606.171	-200.000	-0.039	0.261
-605.157	-71.027	-0.192	-0.072
-604.142	-5.043	0.211	-0.145
-603.128	-20.931	0.254	-0.156
-602.113	3.650	0.263	0.192
-601.098	-54.482	-0.225	0.102
-600.084	742.264	-0.084	0.225
-599.069	-145.805	-0.114	-0.010
-598.055	-112.371	0.197	0.039
-597.040	-200.000	-0.001	0.096
-596.025	4.483	0.079	0.058
-595.011	-159.701	0.320	0.018
-593.996	66.895	0.117	0.119
-592.982	10.919	-0.190	0.145
-591.967	4.091	-0.202	0.147
-590.952	-132.725	-0.148	-0.019
-589.938	-50.108	0.237	-0.112
-588.923	-128.913	0.304	-0.043
-587.909	-48.056	0.198	-0.095
-586.894	800.000	0.072	-0.210
-585.879	161.268	0.046	-0.064
-584.865	46.798	0.124	0.115
-583.850	-200.000	0.005	-0.406
-582.836	12.381	-0.119	-0.091
-581.821	-92.965	0.240	-0.067
-580.806	-119.679	0.293	-0.050
-579.792	-57.485	-0.302	-0.132
-578.777	133.606	-0.106	0.137
-577.763	-6.575	-0.050	-0.034
-576.748	-41.121	0.383	0.197
-575.733	25.857	-0.207	0.172
-574.719	-72.236	-0.131	0.048
-573.704	-200.000	0.021	0.215
-572.690	-200.000	0.022	-0.192
-571.675	800.000	0.031	-0.117
-570.661	2.644	0.095	0.068
-569.646	-79.782	-0.052	0.018
-568.631	258.352	-0.042	0.072
-567.617	800.000	-0.037	0.126
-566.602	175.479	-0.051	-0.074
-565.588	-200.000	0.047	-0.345
-564.573	-82.218	-0.096	-0.031
-563.558	-200.000	-0.068	-0.307
-562.544	76.068	0.231	0.244
-561.529	-200.000	0.007	0.403
-560.515	-165.748	0.044	0.002
-559.500	800.000	0.058	-0.209
-558.485	-160.333	-0.110	0.006
-557.471	-200.000	-0.006	0.172
-556.456	50.472	0.213	0.201
-555.442	0.155	-0.311	-0.221
-554.427	27.715	-0.159	-0.134
-553.412	800.000	-0.052	0.157
-552.398	-200.000	-0.021	-0.233
-551.383	-53.550	-0.077	0.035
-550.369	150.081	-0.152	-0.205
-549.354	800.000	0.045	0.140
-548.339	-200.000	0.067	0.304
-547.325	74.125	-0.272	0.284
-546.310	21.830	-0.147	0.119
-545.296	158.865	0.132	0.183
-544.281	-0.685	-0.198	-0.140
-543.266	-46.119	-0.050	-0.024
-542.252	-59.117	0.060	-0.026
-541.237	-37.639	0.117	0.062
-540.223	76.179	-0.021	-0.022
-539.208	-200.000	-0.038	0.173
-538.193	526.780	-0.054	0.128
-537.179	-200.000	-0.053	0.291
-536.164	-103.483	-0.078	0.018
-535.150	-144.985	0.333	-0.030
-534.135	-200.000	-0.013	0.069
-533.121	571.223	0.040	-0.097
-532.106	302.537	0.068	-0.125
-531.091	139.862	0.176	-0.231
-530.077	354.485	-0.168	-0.332
-529.062	25.931	-0.079	-0.065
-528.048	48.744	-0.097	-0.091
-527.033	-200.000	-0.005	0.087
-526.018	743.422	0.071	-0.190
-525.004	-200.000	0.039	-0.192
-523.989	98.685	0.037	-0.043
-522.975	-101.034	-0.320	0.078
-521.960	-21.106	-0.072	-0.044
-520.945	83.689	0.238	-0.259
-519.931	562.551	-0.117	-0.282
-518.916	-155.140	-0.250	0.016
-517.902	-83.309	-0.190	-0.061
-516.887	-159.574	-0.536	0.030
-515.872	800.000	-0.054	-0.153
-514.858	5.735	-0.066	-0.048
-513.843	-26.855	0.116	-0.068
-512.829	-200.000	-0.040	-0.422
-511.814	-200.000	-0.018	0.321
-510.799	-58.684	-0.167	0.072
-509.785	120.740	0.111	-0.137
-508.770	794.323	-0.165	-0.453
-507.756	69.096	0.212	-0.217
-506.741	-200.000	0.006	-0.160
-505.726	48.821	-0.219	-0.204
-504.712	-112.200	0.111	-0.022
-503.697	9.354	0.197	0.148
-502.683	457.786	-0.030	0.066
-501.668	5.378	-0.127	-0.093
-500.653	-175.999	0.257	-0.007
-499.639	208.878	0.090	0.140
-498.624	86.614	-0.154	0.169
-497.610	513.166	-0.029	-0.067
-496.595	-200.000	-0.019	-0.402
-495.581	169.816	0.044	0.062
-494.566	238.959	0.084	-0.140
-493.551	164.726	0.148	0.208
-492.537	-172.283	0.134	-0.004
-491.522	-101.780	-0.245	-0.059
-490.508	186.959	-0.134	-0.198
-489.493	-134.873	0.122	0.015
-488.478	16.015	-0.275	-0.215
-487.464	0.788	-0.185	0.132
-486.449	-103.740	-0.101	-0.024
-485.435	-200.000	0.024	0.217
-484.420	-49.801	-0.170	0.080
-483.405	38.886	-0.397	0.353
-482.391	-96.221	0.247	0.065
-481.376	331.262	0.152	0.290
-480.362	755.604	-0.029	0.077
-479.347	21.124	-0.075	0.061
-478.332	181.077	-0.143	-0.208
-477.318	-200.000	0.008	0.085
-476.303	800.000	0.057	-0.204
-475.289	800.000	-0.030	-0.085
-474.274	-200.000	-0.029	-0.184
-473.259	-200.000	-0.017	-0.104
-472.245	800.000	-0.087	0.250
-471.230	-100.942	0.281	-0.069
-470.216	-1.246	0.077	-0.054
-469.201	193.216	-0.109	-0.163
-468.186	-135.592	0.203	-0.024
-467.172	-2.495	0.241	0.168
-466.157	60.055	-0.106	0.104
-465.143	-29.823	0.084	0.048
-464.128	-59.106	0.153	-0.065
-463.113	-130.882	-0.461	0.061
-462.099	196.224	0.170	0.256
-461.084	364.997	-0.153	0.306
-460.070	193.676	-0.104	0.157
-459.055	428.883	0.044	-0.094
-458.040	10.980	-0.097	0.074
-457.026	800.000	0.026	0.070
-456.011	253.165	0.202	-0.342
-454.997	60.202	-0.133	-0.130
-453.982	38.227	0.113	0.099
-452.968	-200.000	-0.031	0.215
-451.953	800.000	0.088	0.256
-450.938	220.789	-0.059	0.093
-449.924	248.258	0.208	-0.350
-448.909	-32.456	-0.099	-0.055
-447.895	-4.785	0.087	-0.060
-446.880	-175.277	-0.116	-0.003
-445.865	126.923	-0.267	0.335
-444.851	-200.000	0.011	-0.266
-443.836	55.678	0.192	0.185
-442.822	409.004	-0.127	-0.267
-441.807	-174.085	-0.222	0.006
-440.792	-200.000	0.052	-0.327
-439.778	412.577	-0.018	0.038
-438.763	-66.868	0.146	-0.057
-437.749	-164.200	0.119	-0.005
-436.734	-61.327	-0.129	0.054
-435.719	800.000	-0.048	-0.138
-434.705	-107.977	0.205	0.044
-433.690	-17.960	-0.245	0.152
-432.676	-200.000	0.010	-0.277
-431.661	-58.231	-0.173	0.075
-430.646	76.199	-0.189	-0.199
-429.632	-200.000	0.013	-0.122
-428.617	142.024	0.035	-0.046
-427.603	800.000	-0.080	-0.266
-426.588	-200.000	-0.010	0.319
-425.573	-23.807	-0.250	0.149
-424.559	649.717	-0.155	0.394
-423.544	-11.892	0.024	-0.015
-422.530	65.756	-0.276	-0.278
-421.515	-71.223	-0.284	-0.106
-420.500	157.140	0.162	0.221
-419.486	-67.333	-0.129	0.050
-418.471	133.722	0.155	0.199
-417.457	800.000	-0.128	-0.398
-416.442	-61.408	0.275	0.115
-415.428	-200.000	-0.050	0.258
-414.413	-200.000	0.024	0.188
-413.398	429.591	-0.124	0.265
-412.384	94.298	-0.127	-0.142
-411.369	-200.000	-0.039	0.235
-410.355	28.282	-0.133	0.112
-409.340	-122.757	-0.148	0.024
-408.325	-88.212	-0.567	-0.168
-407.311	241.602	0.144	0.239
-406.296	175.107	-0.093	-0.134
-405.282	-80.744	-0.433	0.143
-404.267	203.175	0.167	-0.255
-403.252	105.232	0.239	-0.279
-402.238	35.560	-0.391	0.340
-401.223	35.616	0.152	0.132
-400.209	352.451	0.142	0.280
-399.194	-200.000	0.015	0.173
-398.179	270.665	0.269	-0.468
-397.165	800.000	-0.042	-0.177
-396.150	-137.728	-0.161	0.018
-395.136	-155.581	-0.057	-0.004
-394.121	-41.372	0.273	0.139
-393.106	-182.942	0.123	-0.002
-392.092	-200.000	-0.037	-0.170
-391.077	800.000	0.066	-0.218
-390.063	-200.000	-0.079	0.350
-389.048	288.083	0.190	0.340
-388.033	526.660	0.088	0.204
-387.019	521.005	-0.046	0.106
-386.004	-200.000	-0.049	-0.216
-384.990	-129.006	-0.186	-0.026
-383.975	386.741	-0.112	-0.230
-382.960	-114.973	0.216	-0.041
-381.946	-16.475	0.214	-0.134
-380.931	-27.264	0.067	0.039
-379.917	-99.758	-0.164	-0.041
-378.902	74.090	0.073	0.075
-377.888	602.876	0.046	0.113
-376.873	-120.319	-0.411	-0.069
-375.858	-200.000	0.021	-0.214
-374.844	206.641	0.066	-0.102
-373.829	-47.734	0.230	-0.110
-372.815	-115.731	0.160	0.030
-371.800	110.433	0.116	-0.138
-370.785	-11.015	0.141	-0.092
-369.771	-56.055	0.258	-0.114
-368.756	-6.496	0.094	0.063
-367.742	614.446	-0.022	0.055
-366.727	-200.000	-0.058	0.369
-365.712	-43.073	-0.150	-0.075
-364.698	-186.419	0.150	0.002
-363.683	-130.950	-0.157	0.021
-362.669	800.000	-0.111	-0.353
-361.654	-200.000	0.019	-0.145
-360.639	800.000	-0.076	0.295
-359.625	-84.162	0.112	0.035
-358.610	-108.108	-0.070	-0.015
-357.596	69.624	-0.211	-0.215
-356.581	-200.000	0.008	-0.165
-355.566	-200.000	0.010	-0.137
-354.552	293.988	-0.142	0.256
-353.537	-200.000	-0.041	-0.247
-352.523	679.513	0.047	0.122
-351.508	63.414	0.209	0.207
-350.493	161.419	0.074	0.103
-349.479	-200.000	-0.037	0.443
-348.464	42.709	-0.197	0.177
-347.450	800.000	-0.033	-0.133
-346.435	248.338	-0.146	0.244
-345.420	500.600	-0.057	0.129
-344.406	-200.000	0.028	0.177
-343.391	-138.918	-0.117	0.013
-342.377	-93.121	0.290	-0.080
-341.362	-200.000	0.009	0.096
-340.348	-140.385	0.331	0.034
-339.333	-29.970	0.461	-0.260
-338.318	-200.000	-0.001	0.012
-337.304	-63.084	0.125	-0.051
-336.289	-200.000	0.006	0.138
-335.275	-200.000	0.044	0.226
-334.260	-200.000	0.027	0.384
-333.245	22.323	0.150	-0.121
-332.231	800.000	0.020	-0.084
-331.216	-200.000	-0.030	-0.363
-330.202	-18.951	0.039	-0.024
-329.187	-75.651	0.392	-0.138
-328.172	-177.437	0.157	-0.004
-327.158	-31.566	0.046	0.025
-326.143	7.075	-0.283	0.209
-325.129	800.000	0.054	0.223
-324.114	800.000	0.035	0.146
-323.099	85.224	-0.183	0.198
-322.085	-178.967	-0.424	-0.009
-321.070	-200.000	-0.069	-0.476
-320.056	-83.842	0.234	-0.074
-319.041	-105.766	-0.207	-0.046
-318.026	-83.894	0.238	0.075
-317.012	800.000	-0.141	0.449
-315.997	112.551	0.231	-0.276
-314.983	-30.412	0.106	0.060
-313.968	167.733	-0.144	0.202
-312.953	-23.727	0.226	-0.134
-311.939	-28.718	0.069	0.039
-310.924	3.029	-0.205	-0.147
-309.910	-200.000	-0.030	0.265
-308.895	-83.402	0.255	-0.081
-307.880	22.863	0.117	0.094
-306.866	-3.183	-0.086	0.059
-305.851	-138.823	0.063	-0.007
-304.837	800.000	0.135	-0.442
-303.822	-122.747	-0.346	-0.055
-302.807	23.750	0.324	0.263
-301.793	-50.771	-0.484	0.225
-300.778	687.291	0.111	0.286
-299.764	-132.111	0.720	0.092
-298.749	679.237	-0.057	-0.147
-297.735	118.883	0.161	-0.196
-296.720	-38.834	0.135	-0.070
-295.705	-200.000	0.006	-0.241
-294.691	16.195	-0.179	-0.139
-293.676	-143.626	-0.060	-0.006
-292.662	-3.166	-0.080	0.055
-291.647	-200.000	-0.020	-0.184
-290.632	-115.865	0.231	0.043
-289.618	218.338	0.054	0.085
-288.603	-145.940	0.220	-0.019
-287.589	-2.896	0.076	-0.052
-286.574	73.424	0.062	0.064
-285.559	25.273	-0.306	0.251
-284.545	-200.000	0.004	-0.123
-283.530	-200.000	0.018	-0.187
-282.516	-44.757	-0.157	-0.077
-281.501	205.873	-0.058	0.089
-280.486	-118.920	-0.227	-0.039
-279.472	153.144	0.187	-0.252
-278.457	240.806	0.090	0.148
-277.443	548.001	0.154	0.363
-276.428	110.930	-0.219	0.260
-275.413	263.435	0.023	-0.040
-274.399	223.863	-0.159	-0.253
-273.384	421.103	0.055	-0.116
-272.370	-96.993	-0.139	0.036
-271.355	291.527	0.192	-0.345
-270.340	32.591	0.232	-0.198
-269.326	346.493	0.088	0.171
-268.311	282.551	0.109	0.192
-267.297	-200.000	-0.016	0.074
-266.282	176.124	-0.077	0.110
-265.267	-34.637	-0.054	-0.029
-264.253	800.000	0.040	0.119
-263.238	39.629	0.165	0.145
-262.224	-120.526	0.098	-0.016
-261.209	-177.083	0.136	-0.003
-260.195	800.000	-0.035	0.121
-259.180	-200.000	-0.076	0.370
-258.165	-30.800	-0.279	0.156
-257.151	4.910	0.119	-0.086
-256.136	37.558	-0.038	0.033
-255.122	-16.939	-0.266	0.166
-254.107	-75.171	0.344	0.121
-253.092	-38.949	0.259	-0.134
-252.078	800.000	0.021	0.083
-251.063	279.142	0.267	-0.470
-250.049	-169.672	-0.526	-0.019
-249.034	92.690	-0.065	0.072
-248.019	-17.877	-0.344	0.212
-247.005	-18.449	-0.193	0.119
-245.990	263.710	0.076	-0.131
-244.976	59.308	-0.078	-0.076
-243.961	-6.094	0.059	0.040
-242.946	-200.000	-0.016	0.082
-241.932	16.320	0.078	0.061
-240.917	-45.269	0.058	0.028
-239.903	800.000	-0.025	0.075
-238.888	-59.650	0.012	0.005
-237.873	-183.511	0.012	-0.000
-236.859	800.000	-0.030	-0.119
-235.844	427.475	-0.092	-0.196
-234.830	25.131	-0.085	0.069
-233.815	26.390	0.296	-0.243
-232.800	-6.361	0.377	-0.253
-231.786	123.832	0.094	0.116
-230.771	-200.000	0.060	0.264
-229.757	16.663	0.038	0.030
-228.742	38.037	-0.124	-0.108
-227.727	-58.444	-0.065	-0.028
-226.713	26.463	0.258	0.213
-225.698	-42.805	-0.239	-0.120
-224.684	95.315	-0.069	-0.077
-223.669	-200.000	-0.023	0.153
-222.655	-97.168	0.500	-0.129
-221.640	800.000	-0.070	0.236
-220.625	-200.000	-0.024	0.503
-219.611	-200.000	-0.010	0.192
-218.596	123.893	-0.263	-0.325
-217.582	14.874	0.244	-0.187
-216.567	800.000	-0.080	0.280
-215.552	173.836	-0.027	0.038
-214.538	93.228	-0.221	-0.246
-213.523	-68.142	0.311	0.119
-212.509	800.000	-0.048	-0.188
-211.494	-44.868	0.300	0.147
-210.479	27.922	-0.118	-0.098
-209.465	800.000	-0.025	-0.094
-208.450	370.456	0.124	-0.247
-207.436	735.546	-0.033	-0.086
-206.421	138.061	-0.150	0.194
-205.406	-52.973	0.175	-0.079
-204.392	-200.000	0.023	0.478
-203.377	146.631	0.204	0.270
-202.363	-60.375	-0.279	0.117
-201.348	16.288	-0.076	0.059
-200.333	-110.925	-0.072	0.014
-199.319	-200.000	0.244	-0.001
-198.304	-144.833	0.235	0.021
-197.290	62.517	-0.158	-0.156
-196.275	332.160	-0.027	0.051
-195.260	81.546	-0.077	-0.082
-194.246	-200.000	-0.033	-0.402
-193.231	78.233	-0.106	0.111
-192.217	-136.800	0.161	-0.018
-191.202	232.734	0.067	0.108
-190.187	-200.000	-0.024	0.194
-189.173	35.799	-0.200	-0.173
-188.158	-27.005	-0.069	-0.039
-187.144	-138.814	0.081	-0.009
-186.129	309.998	0.067	-0.123
-185.114	-200.000	-0.057	0.461
-184.100	731.931	0.048	-0.125
-183.085	60.398	0.085	-0.082
-182.071	-38.304	0.298	-0.155
-181.056	-136.656	-0.241	-0.027
-180.042	68.966	-0.367	-0.370
-179.027	-200.000	-0.000	0.066
-178.012	-156.168	0.062	-0.004
-176.998	-44.129	-0.287	0.141
-175.983	-115.007	0.326	0.061
-174.969	655.763	0.078	0.198
-173.954	-63.304	-0.117	-0.047
-172.939	-200.000	0.040	0.231
-171.925	-70.547	0.198	0.074
-170.910	-200.000	-0.020	-0.238
-169.896	-18.319	-0.188	-0.115
-168.881	503.794	-0.055	-0.124
-167.866	284.480	-0.294	0.519
-166.852	-200.000	-0.033	0.233
-165.837	33.843	0.085	-0.073
-164.823	-82.387	-0.245	0.078
-163.808	40.351	0.221	-0.195
-162.793	54.788	0.185	-0.175
-161.779	800.000	-0.058	-0.232
-160.764	40.771	-0.394	0.349
-159.750	-33.297	0.104	0.056
-158.735	-161.672	-0.482	0.024
-157.720	-200.000	-0.012	-0.193
-156.706	-52.203	0.401	0.183
-155.691	-77.402	-0.384	0.131
-154.677	132.428	-0.176	0.223
-153.662	-200.000	0.100	0.526
-152.647	12.121	0.219	0.165
-151.633	602.612	-0.193	-0.472
-150.618	-5.322	0.124	0.084
-149.604	-187.414	-0.207	0.003
-148.589	-35.582	0.309	0.164
-147.574	-51.364	-0.159	-0.073
-146.560	-72.976	0.208	-0.075
-145.545	800.000	0.148	0.558
-144.531	800.000	-0.127	-0.348
-143.516	240.329	0.106	0.173
-142.502	-200.000	0.023	0.113
-141.487	-200.000	-0.044	0.238
-140.472	-200.000	0.010	0.207
-139.458	-150.780	-0.071	-0.005
-138.443	-24.967	0.153	0.089
-137.429	-92.997	0.214	-0.059
-136.414	800.000	0.127	-0.452
-135.399	-200.000	0.029	-0.377
-134.385	-61.133	0.216	0.089
-133.370	71.136	0.075	-0.076
-132.356	-200.000	-0.024	-0.450
-131.341	-75.686	-0.109	-0.038
-130.326	27.458	-0.158	-0.131
-129.312	336.289	0.086	0.163
-128.297	-31.416	0.015	-0.008
-127.283	-50.264	0.259	0.120
-126.268	173.862	0.263	-0.372
-125.253	91.934	-0.080	0.089
-124.239	162.127	-0.278	0.382
-123.224	-11.073	-0.023	-0.015
-122.210	-162.097	-0.120	0.006
-121.195	-182.770	0.137	0.002
