DTS Sentinel unit serial number:	SN413079Multiplexer serial number:	ORYXHardware model number:	OX4-SRSoftware version number:	ORYX F/W v4.00 Oryx Data Collector v3.7.2.0data status	okinstallation	princeton_trtdifferential loss correction	single-endedforward channel	channel 1reverse channel	N/Adate	2019/09/13time	14:02:35forward acquisition time	60.00reverse acquisition time	0.00gamma	496.2192k internal	0.2302k external	0.2302temperature offset calibration	1.0159default loss term (dB/km)	0.3790temperature slope calibration	1.0000multiplexer offset coefficient	1.0000multiplexer slope coefficient	1.0000fibre end	0.00T internal ref (°C)	35.25T ext. ref 1 (°C)	4.60T ext. ref 2 (°C)	31.87length (m)	temperature (°C)	Stokes	anti-Stokes-747.200	-200.000	0.048	-0.245
-746.185	800.000	0.038	-0.122
-745.171	-200.000	0.040	0.416
-744.156	800.000	0.064	-0.239
-743.142	800.000	-0.028	0.121
-742.127	-200.000	-0.014	0.194
-741.112	800.000	-0.021	0.071
-740.098	300.398	-0.128	-0.240
-739.083	800.000	-0.083	0.345
-738.069	-200.000	0.009	0.046
-737.054	-154.903	0.157	0.011
-736.039	-140.903	-0.144	0.015
-735.025	-144.912	-0.240	-0.022
-734.010	-70.521	-0.278	0.107
-732.996	536.977	0.086	0.209
-731.981	112.107	-0.135	-0.166
-730.966	198.660	-0.210	-0.328
-729.952	573.462	-0.128	-0.319
-728.937	-112.589	0.252	0.051
-727.923	-68.859	0.148	0.058
-726.908	54.262	-0.256	-0.250
-725.894	-60.587	0.253	-0.109
-724.879	800.000	-0.126	-0.412
-723.864	800.000	-0.163	-0.573
-722.850	-130.100	-0.204	0.028
-721.835	-200.000	0.030	0.156
-720.821	346.122	0.152	0.304
-719.806	101.865	0.095	0.113
-718.791	-72.676	-0.101	-0.038
-717.777	-32.768	0.303	-0.172
-716.762	247.593	-0.114	-0.197
-715.748	-200.000	-0.029	-0.188
-714.733	-142.885	-0.086	0.008
-713.718	32.187	-0.116	0.102
-712.704	-81.100	-0.252	0.085
-711.689	-200.000	0.019	-0.198
-710.675	457.816	0.096	0.218
-709.660	-56.667	0.192	0.086
-708.645	-66.159	0.099	-0.040
-707.631	-73.548	0.252	-0.093
-706.616	-126.286	-0.304	-0.046
-705.602	223.273	-0.207	-0.340
-704.587	-46.229	0.184	-0.092
-703.572	-100.543	0.186	-0.047
-702.558	800.000	0.025	-0.082
-701.543	72.781	0.143	-0.151
-700.529	-200.000	0.021	-0.268
-699.514	-116.071	0.116	0.022
-698.499	409.019	-0.058	-0.125
-697.485	-117.528	-0.147	-0.027
-696.470	-132.409	-0.138	0.018
-695.456	29.711	0.095	0.083
-694.441	-200.000	0.012	0.114
-693.426	800.000	0.133	0.375
-692.412	-179.173	0.136	-0.003
-691.397	-161.841	-0.243	0.013
-690.383	-200.000	-0.067	-0.351
-689.368	-90.194	-0.214	-0.063
-688.354	714.867	-0.041	-0.112
-687.339	-34.660	-0.176	0.098
-686.324	-53.535	-0.099	0.046
-685.310	-119.578	-0.113	0.020
-684.295	-146.986	-0.266	0.023
-683.281	24.863	-0.334	-0.281
-682.266	-112.379	-0.143	0.029
-681.251	-200.000	-0.011	-0.155
-680.237	-47.459	-0.257	-0.127
-679.222	182.358	0.106	0.159
-678.208	-18.542	0.174	0.110
-677.193	111.970	-0.117	0.144
-676.178	-200.000	0.002	-0.334
-675.164	82.738	-0.261	-0.288
-674.149	-95.269	0.353	0.097
-673.135	-54.377	-0.193	0.089
-672.120	-13.989	0.108	0.071
-671.105	418.865	0.056	0.121
-670.091	-77.830	-0.359	-0.126
-669.076	-174.565	-0.668	0.019
-668.062	16.311	0.298	-0.239
-667.047	-78.484	0.076	-0.026
-666.032	24.994	0.068	-0.058
-665.018	-136.494	-0.259	-0.030
-664.003	-56.156	0.077	0.035
-662.989	800.000	0.058	0.253
-661.974	-155.949	0.080	-0.005
-660.959	-40.697	0.088	0.046
-659.945	86.224	-0.251	0.280
-658.930	800.000	-0.073	-0.217
-657.916	14.425	0.156	-0.124
-656.901	-95.263	-0.252	0.069
-655.886	34.002	-0.224	0.199
-654.872	-174.769	0.438	0.013
-653.857	4.420	0.270	0.201
-652.843	761.269	0.077	0.211
-651.828	-159.326	0.318	-0.018
-650.814	-27.609	-0.218	0.129
-649.799	-200.000	0.020	0.093
-648.784	-111.963	-0.149	-0.030
-647.770	70.052	-0.171	-0.179
-646.755	-80.258	-0.270	-0.092
-645.741	-200.000	-0.029	0.139
-644.726	800.000	0.035	-0.153
-643.711	542.036	-0.068	-0.164
-642.697	233.871	0.030	-0.050
-641.682	-200.000	0.007	0.190
-640.668	133.845	0.179	-0.235
-639.653	225.416	-0.085	0.139
-638.638	-200.000	-0.019	-0.215
-637.624	687.111	-0.047	0.126
-636.609	-153.042	0.219	-0.016
-635.595	-60.998	-0.148	-0.064
-634.580	-104.688	-0.408	0.095
-633.565	88.200	-0.086	-0.097
-632.551	-11.018	-0.134	-0.090
-631.536	-72.677	-0.238	-0.089
-630.522	-200.000	-0.046	-0.271
-629.507	-25.926	-0.388	-0.231
-628.492	69.908	-0.120	0.126
-627.478	-200.000	0.021	-0.124
-626.463	-200.000	0.010	0.090
-625.449	118.816	0.059	0.074
-624.434	792.677	0.045	0.124
-623.419	-70.596	0.158	-0.061
-622.405	521.033	-0.127	0.301
-621.390	800.000	0.053	0.223
-620.376	-21.266	0.115	-0.071
-619.361	288.081	-0.089	0.163
-618.346	64.439	0.101	0.103
-617.332	-200.000	-0.015	-0.203
-616.317	-109.555	0.072	-0.015
-615.303	-200.000	-0.030	-0.147
-614.288	-8.462	-0.387	0.264
-613.273	175.549	0.084	-0.123
-612.259	-43.058	-0.358	-0.184
-611.244	646.656	-0.034	0.088
-610.230	-200.000	-0.070	0.395
-609.215	-200.000	-0.032	-0.267
-608.201	16.399	0.180	0.144
-607.186	800.000	-0.023	0.070
-606.171	800.000	0.050	0.171
-605.157	-55.285	0.225	0.103
-604.142	-121.324	0.057	-0.010
-603.128	800.000	-0.059	-0.188
-602.113	-200.000	-0.031	0.293
-601.098	-116.987	0.281	-0.052
-600.084	-9.874	-0.228	-0.154
-599.069	-200.000	-0.051	-0.457
-598.055	305.546	-0.062	-0.117
-597.040	55.638	0.120	0.117
-596.025	119.913	-0.296	-0.372
-595.011	87.372	0.101	0.113
-593.996	164.502	-0.145	0.208
-592.982	-85.017	0.055	0.017
-591.967	-28.175	0.212	0.124
-590.952	7.958	-0.187	0.142
-589.938	-37.993	0.337	0.181
-588.923	1.153	0.189	-0.138
-587.909	473.412	-0.104	-0.237
-586.894	-107.226	0.348	-0.078
-585.879	800.000	0.071	0.296
-584.865	19.137	-0.102	0.083
-583.850	-113.219	0.043	-0.009
-582.836	800.000	-0.043	0.143
-581.821	112.908	0.024	0.029
-580.806	-38.874	-0.172	0.092
-579.792	94.860	-0.138	0.159
-578.777	-139.755	0.350	0.038
-577.763	-102.396	-0.209	-0.051
-576.748	424.014	-0.141	-0.307
-575.733	800.000	-0.030	0.123
-574.719	-200.000	0.011	-0.110
-573.704	8.527	-0.073	-0.055
-572.690	495.123	-0.155	-0.360
-571.675	-200.000	0.027	-0.266
-570.661	800.000	0.051	-0.176
-569.646	-163.528	0.187	-0.009
-568.631	-36.275	0.315	-0.172
-567.617	-113.696	-0.137	0.027
-566.602	-200.000	-0.006	-0.122
-565.588	-132.555	-0.115	-0.015
-564.573	425.943	0.056	-0.121
-563.558	-65.365	0.328	0.133
-562.544	-13.095	-0.127	0.084
-561.529	-102.887	-0.107	-0.026
-560.515	-163.754	-0.456	-0.022
-559.500	165.462	-0.035	-0.050
-558.485	323.564	-0.117	0.226
-557.471	-200.000	0.058	-0.289
-556.456	-6.775	-0.168	-0.116
-555.442	154.749	0.085	0.118
-554.427	49.095	-0.119	-0.114
-553.412	-200.000	-0.026	-0.198
-552.398	228.751	0.198	0.326
-551.383	-57.766	0.096	0.043
-550.369	-6.679	-0.128	0.088
-549.354	358.146	-0.118	-0.238
-548.339	2.884	0.079	0.058
-547.325	102.597	0.025	-0.029
-546.310	-6.937	-0.289	-0.199
-545.296	-200.000	0.007	0.184
-544.281	96.787	0.086	-0.099
-543.266	-200.000	0.060	0.265
-542.252	99.467	0.038	-0.045
-541.237	-200.000	-0.034	-0.266
-540.223	-200.000	0.028	-0.237
-539.208	-37.657	-0.168	0.090
-538.193	46.355	0.204	-0.191
-537.179	-48.683	-0.220	0.107
-536.164	43.082	-0.122	-0.113
-535.150	-200.000	-0.011	-0.126
-534.135	-113.997	0.148	0.029
-533.121	-85.059	-0.019	0.006
-532.106	496.546	-0.150	-0.349
-531.091	-115.368	-0.237	-0.045
-530.077	12.318	-0.161	0.125
-529.062	59.568	0.094	0.094
-528.048	77.938	0.188	-0.202
-527.033	-150.553	-0.370	0.029
-526.018	57.757	-0.109	0.107
-525.004	4.060	0.112	-0.083
-523.989	-137.031	-0.122	0.014
-522.975	282.982	0.096	-0.174
-521.960	90.383	0.112	-0.127
-520.945	-118.713	-0.316	0.056
-519.931	135.215	-0.050	0.066
-518.916	-127.020	0.147	-0.022
-517.902	2.709	-0.183	0.134
-516.887	800.000	0.051	0.178
-515.872	125.757	0.105	0.133
-514.858	586.041	0.121	-0.301
-513.843	-28.858	0.224	0.130
-512.829	10.127	0.110	-0.084
-511.814	-38.254	-0.080	-0.043
-510.799	-200.000	0.017	0.105
-509.785	-200.000	0.019	-0.134
-508.770	80.331	0.253	0.275
-507.756	-105.668	-0.143	-0.033
-506.741	287.572	0.141	0.257
-505.726	-200.000	0.064	0.353
-504.712	159.684	-0.065	0.091
-503.697	549.656	0.068	-0.165
-502.683	800.000	-0.053	-0.222
-501.668	-68.890	-0.371	0.145
-500.653	-73.556	0.211	-0.078
-499.639	-75.102	0.319	-0.115
-498.624	-119.986	0.354	0.061
-497.610	-36.857	0.235	0.127
-496.595	-200.000	0.061	0.360
-495.581	100.933	-0.267	0.314
-494.566	57.025	-0.089	-0.088
-493.551	222.216	0.037	0.060
-492.537	-78.565	0.173	-0.060
-491.522	342.279	0.043	-0.085
-490.508	-80.390	0.318	0.107
-489.493	-56.913	-0.055	0.025
-488.478	800.000	-0.018	0.055
-487.464	-200.000	0.046	-0.263
-486.449	270.822	0.083	-0.147
-485.435	-65.984	-0.572	0.230
-484.420	-115.980	0.216	-0.041
-483.405	-30.537	0.387	0.221
-482.391	-75.573	0.173	-0.062
-481.376	-26.438	-0.290	0.171
-480.362	-150.015	-0.167	-0.013
-479.347	126.529	-0.036	0.045
-478.332	800.000	-0.068	-0.256
-477.318	155.757	0.091	-0.126
-476.303	145.660	-0.115	0.155
-475.289	-200.000	-0.038	-0.240
-474.274	30.327	0.263	-0.226
-473.259	-46.014	-0.442	0.220
-472.245	290.279	0.025	-0.046
-471.230	125.007	0.268	0.340
-470.216	421.382	0.215	0.465
-469.201	-109.025	0.068	-0.015
-468.186	-36.952	-0.267	-0.145
-467.172	14.808	0.249	-0.197
-466.157	-91.397	0.037	-0.011
-465.143	-111.116	0.140	0.029
-464.128	237.377	-0.041	-0.069
-463.113	-21.529	0.186	-0.114
-462.099	-123.280	-0.308	0.050
-461.084	228.629	-0.160	-0.263
-460.070	800.000	-0.133	-0.405
-459.055	-135.172	0.279	-0.034
-458.040	548.726	-0.130	0.314
-457.026	12.221	0.255	-0.198
-456.011	-60.867	-0.294	0.125
-454.997	-108.424	0.062	0.014
-453.982	-200.000	-0.001	0.063
-452.968	-200.000	-0.468	-0.000
-451.953	-132.261	0.104	-0.014
-450.938	-5.200	-0.144	0.100
-449.924	800.000	0.067	-0.268
-448.909	0.383	-0.123	-0.088
-447.895	-93.618	0.136	-0.038
-446.880	-182.468	0.234	0.004
-445.865	800.000	-0.034	-0.112
-444.851	202.548	0.187	-0.290
-443.836	8.984	0.311	0.237
-442.822	800.000	0.068	0.224
-441.807	-28.110	0.163	-0.095
-440.792	-95.276	0.174	0.047
-439.778	-80.742	-0.101	0.034
-438.763	800.000	0.027	0.087
-437.749	-128.560	0.221	0.032
-436.734	-78.849	-0.312	0.107
-435.719	-104.529	-0.189	0.044
-434.705	-200.000	0.001	0.006
-433.690	74.225	-0.162	0.171
-432.676	-132.080	-0.252	0.033
-431.661	-7.605	-0.249	0.170
-430.646	158.779	-0.125	0.174
-429.632	26.108	0.147	0.123
-428.617	623.502	0.059	0.150
-427.603	206.507	-0.175	0.275
-426.588	-94.121	-0.220	0.061
-425.573	84.847	-0.128	0.141
-424.559	-200.000	0.019	0.184
-423.544	-200.000	-0.007	-0.089
-422.530	-200.000	-0.055	-0.365
-421.515	308.773	0.056	-0.105
-420.500	496.809	-0.019	-0.045
-419.486	117.410	0.165	0.204
-418.471	-140.386	0.167	0.018
-417.457	109.120	-0.250	-0.301
-416.442	300.022	0.126	0.233
-415.428	800.000	-0.029	0.089
-414.413	621.771	-0.139	0.352
-413.398	-92.600	-0.249	0.070
-412.384	223.977	-0.130	-0.211
-411.369	171.154	-0.209	-0.301
-410.355	53.901	-0.056	0.054
-409.340	-117.181	0.447	-0.082
-408.325	-43.399	0.272	-0.138
-407.311	-161.290	-0.235	0.012
-406.296	3.940	-0.029	0.021
-405.282	402.889	-0.149	0.315
-404.267	291.460	0.077	0.140
-403.252	79.994	-0.101	-0.110
-402.238	-59.266	-0.155	0.067
-401.223	-103.621	-0.313	-0.074
-400.209	-119.921	0.347	0.060
-399.194	-24.513	-0.308	-0.184
-398.179	143.140	0.081	-0.109
-397.165	-81.341	-0.137	0.045
-396.150	-184.207	0.007	-0.000
-395.136	442.093	0.054	0.119
-394.121	254.124	0.072	0.124
-393.106	349.843	-0.122	0.242
-392.092	155.775	-0.151	-0.209
-391.077	-83.328	0.040	-0.013
-390.063	638.536	0.044	0.112
-389.048	-200.000	-0.010	-0.138
-388.033	-173.129	-0.225	-0.007
-387.019	-48.077	0.328	0.159
-386.004	-119.986	-0.198	0.034
-384.990	518.866	-0.066	-0.156
-383.975	202.681	0.158	-0.245
-382.960	38.651	0.108	-0.097
-381.946	32.486	-0.385	-0.334
-380.931	-60.255	-0.158	-0.068
-379.917	-60.445	0.056	-0.024
-378.902	-139.034	-0.251	0.027
-377.888	106.894	0.180	0.214
-376.873	430.607	0.074	0.161
-375.858	-200.000	-0.013	-0.312
-374.844	11.182	-0.119	-0.092
-373.829	29.355	-0.114	-0.098
-372.815	286.225	-0.122	-0.221
-371.800	-200.000	-0.005	-0.128
-370.785	800.000	0.013	-0.052
-369.771	20.394	-0.205	-0.166
-368.756	800.000	0.046	-0.163
-367.742	43.279	0.138	0.126
-366.727	289.507	0.170	-0.309
-365.712	-86.009	-0.067	0.021
-364.698	-200.000	0.004	0.174
-363.683	787.708	0.086	0.238
-362.669	240.165	-0.033	0.054
-361.654	459.655	0.038	-0.084
-360.639	-181.764	0.351	0.007
-359.625	800.000	0.022	0.073
-358.610	800.000	-0.021	0.058
-357.596	-3.745	-0.185	0.129
-356.581	-53.211	0.332	-0.153
-355.566	-200.000	-0.023	0.277
-354.552	-200.000	-0.011	0.074
-353.537	-13.286	-0.407	0.265
-352.523	127.182	-0.140	-0.178
-351.508	287.371	-0.121	-0.219
-350.493	-154.656	-0.259	0.017
-349.479	64.854	-0.231	-0.234
-348.464	377.502	0.094	0.192
-347.450	-170.803	-0.246	0.008
-346.435	800.000	0.031	0.119
-345.420	-80.088	-0.210	0.071
-344.406	800.000	0.026	0.108
-343.391	-79.270	0.063	0.021
-342.377	-131.204	-0.291	-0.039
-341.362	-170.588	0.302	-0.011
-340.348	531.783	0.019	-0.045
-339.333	-44.184	0.149	-0.075
-338.318	-200.000	-0.025	-0.138
-337.304	-104.939	0.455	-0.105
-336.289	-159.132	0.366	0.021
-335.275	421.462	-0.180	0.386
-334.260	-139.106	0.211	-0.023
-333.245	800.000	0.136	-0.452
-332.231	43.385	-0.076	-0.069
-331.216	-200.000	-0.005	-0.289
-330.202	-53.622	0.231	0.106
-329.187	22.548	0.199	-0.164
-328.172	95.126	-0.248	0.283
-327.158	-109.889	0.408	0.086
-326.143	16.633	-0.098	0.077
-325.129	-33.831	0.184	-0.101
-324.114	198.687	0.165	0.254
-323.099	134.611	0.115	0.150
-322.085	31.009	0.122	0.104
-321.070	130.626	0.091	-0.118
-320.056	-200.000	0.007	0.250
-319.041	800.000	0.040	0.159
-318.026	33.178	-0.116	0.101
-317.012	290.013	0.113	0.206
-315.997	186.967	0.128	0.191
-314.983	125.284	-0.100	-0.127
-313.968	509.527	-0.020	-0.046
-312.953	-19.982	0.285	-0.176
-311.939	81.315	-0.101	0.110
-310.924	-101.574	0.212	0.052
-309.910	52.849	-0.087	0.083
-308.895	-114.250	0.292	0.056
-307.880	-172.916	0.145	-0.005
-306.866	503.586	0.057	-0.133
-305.851	-7.677	-0.194	0.131
-304.837	-137.804	0.159	0.018
-303.822	218.277	-0.106	-0.170
-302.807	-112.130	0.501	-0.101
-301.793	-101.605	-0.344	-0.084
-300.778	123.600	0.101	-0.127
-299.764	502.922	0.049	-0.113
-298.749	-122.652	-0.278	-0.045
-297.735	-60.365	0.271	0.115
-296.720	112.760	0.267	0.324
-295.705	-134.476	0.372	0.046
-294.691	-200.000	0.012	-0.168
-293.676	-9.074	-0.097	0.065
-292.662	297.939	-0.074	-0.136
-291.647	-127.460	0.234	0.034
-290.632	-200.000	0.009	-0.280
-289.618	-200.000	0.004	-0.306
-288.603	-200.000	0.002	0.495
-287.589	-200.000	-0.009	0.046
-286.574	34.686	-0.026	0.022
-285.559	108.773	0.245	-0.293
-284.545	381.794	-0.057	0.118
-283.530	-80.316	0.345	-0.116
-282.516	-200.000	0.038	0.293
-281.501	148.086	-0.084	0.113
-280.486	-7.290	-0.252	-0.171
-279.472	451.103	0.119	0.262
-278.457	-89.320	-0.158	-0.046
-277.443	-76.163	0.133	0.047
-276.428	48.259	-0.164	0.154
-275.413	-147.267	0.186	0.016
-274.399	-28.502	0.268	0.155
-273.384	-57.616	0.111	0.048
-272.370	154.850	0.053	0.074
-271.355	2.745	0.309	0.224
-270.340	91.132	0.109	0.123
-269.326	388.746	-0.153	-0.317
-268.311	-113.430	-0.287	0.056
-267.297	119.669	0.030	0.038
-266.282	-134.293	-0.181	0.022
-265.267	9.292	0.260	0.196
-264.253	-156.135	-0.058	-0.004
-263.238	372.997	0.093	-0.189
-262.224	800.000	-0.059	-0.204
-261.209	-52.950	-0.183	-0.084
-260.195	61.153	-0.183	0.182
-259.180	69.458	0.099	-0.102
-258.165	-54.520	-0.371	-0.168
-257.151	800.000	0.077	0.231
-256.136	514.512	0.098	0.229
-255.122	-71.106	0.109	0.041
-254.107	101.140	0.240	0.279
-253.092	-52.866	-0.111	-0.051
-252.078	-144.195	-0.146	-0.014
-251.063	-74.784	0.224	0.080
-250.049	-200.000	-0.053	-0.310
-249.034	800.000	-0.045	-0.150
-248.019	107.642	-0.182	0.216
-247.005	432.836	-0.076	0.165
-245.990	-61.379	-0.220	-0.092
-244.976	-16.929	0.179	-0.113
-243.961	-21.432	-0.338	-0.206
-242.946	639.557	-0.123	0.312
-241.932	264.027	0.105	0.183
-240.917	8.081	0.292	0.219
-239.903	-200.000	-0.057	-0.355
-238.888	81.500	0.158	-0.171
-237.873	167.468	-0.153	-0.217
-236.859	-200.000	0.021	0.135
-235.844	-200.000	0.002	0.152
-234.830	80.139	-0.094	-0.101
-233.815	-200.000	0.014	-0.252
-232.800	284.016	0.168	0.301
-231.786	14.457	-0.070	-0.055
-230.771	-200.000	-0.029	-0.182
-229.757	-54.701	-0.049	-0.022
-228.742	304.218	0.110	0.204
-227.727	-42.113	0.208	0.106
-226.713	198.647	0.156	0.238
-225.698	379.909	-0.161	0.330
-224.684	-200.000	-0.006	-0.251
-223.669	-200.000	0.014	0.144
-222.655	527.230	0.063	0.149
-221.640	354.646	0.165	0.327
-220.625	-200.000	-0.002	-0.152
-219.611	168.714	0.038	-0.055
-218.596	-13.238	0.265	-0.172
-217.582	-95.916	-0.032	0.009
-216.567	-200.000	0.001	-0.198
-215.552	507.905	0.050	0.116
-214.538	-141.751	-0.262	0.026
-213.523	40.770	-0.316	0.285
-212.509	5.251	-0.031	-0.023
-211.494	689.360	0.067	-0.175
-210.479	800.000	0.043	-0.137
-209.465	317.208	0.191	0.361
-208.450	143.123	0.095	-0.126
-207.436	418.185	-0.115	-0.246
-206.421	-200.000	-0.018	-0.079
-205.406	94.113	0.199	-0.225
-204.392	75.256	-0.072	0.076
-203.377	800.000	-0.039	0.168
-202.363	-36.350	-0.479	0.257
-201.348	-29.432	0.378	0.215
-200.333	-95.253	0.127	-0.034
-199.319	-147.170	-0.200	-0.017
-198.304	49.244	0.244	0.229
-197.290	-200.000	-0.008	0.081
-196.275	261.559	-0.244	0.422
-195.260	22.057	0.206	0.168
-194.246	-110.499	0.294	0.061
-193.231	-44.630	-0.058	0.029
-192.217	307.515	-0.076	-0.141
-191.202	-200.000	0.023	-0.216
-190.187	69.074	-0.162	-0.167
-189.173	-48.342	0.217	0.104
-188.158	-200.000	-0.004	-0.339
-187.144	-77.633	-0.439	-0.151
-186.129	800.000	-0.052	-0.158
-185.114	-200.000	-0.014	0.163
-184.100	117.630	0.042	-0.051
-183.085	-200.000	0.051	-0.256
-182.071	-108.617	-0.320	0.068
-181.056	47.529	0.107	0.100
-180.042	-174.498	-0.222	0.006
-179.027	-200.000	-0.002	-0.086
-178.012	125.758	0.334	-0.420
-176.998	237.323	0.061	0.102
-175.983	-41.313	0.519	-0.266
-174.969	800.000	0.032	-0.109
-173.954	-54.969	-0.459	-0.206
-172.939	-100.220	0.278	0.069
-171.925	-32.338	0.174	0.097
-170.910	289.815	-0.070	0.127
-169.896	-151.103	-0.457	-0.034
-168.881	800.000	0.092	-0.288
-167.866	161.033	0.212	-0.295
-166.852	110.132	0.112	0.134
-165.837	715.571	-0.053	-0.141
-164.823	71.150	-0.124	0.128
-163.808	22.438	0.079	-0.064
-162.793	77.579	0.025	0.026
-161.779	-119.276	-0.434	0.075
-160.764	178.727	0.070	0.102
-159.750	-125.650	-0.202	0.031
-158.735	-200.000	-0.033	0.377
-157.720	-200.000	0.009	-0.045
-156.706	352.035	0.155	0.305
-155.691	-36.047	0.449	-0.242
-154.677	-77.115	0.076	-0.026
-153.662	66.598	-0.260	-0.264
-152.647	195.389	0.213	-0.322
-151.633	-68.445	-0.173	-0.067
-150.618	33.449	0.046	-0.040
-149.604	-91.303	0.356	0.102
-148.589	-49.804	0.111	-0.053
-147.574	-140.319	-0.090	-0.009
-146.560	493.268	0.039	0.089
-145.545	-143.226	0.047	0.005
-144.531	92.351	-0.178	-0.199
-143.516	800.000	-0.018	-0.071
-142.502	-0.301	-0.119	0.084
-141.487	1.134	-0.189	-0.135
-140.472	121.642	0.125	0.155
-139.458	-16.001	-0.375	0.238
-138.443	-118.013	0.200	-0.036
-137.429	800.000	-0.039	-0.169
-136.414	800.000	0.064	0.210
-135.399	-99.061	0.222	0.056
-134.385	-91.762	-0.115	0.032
-133.370	170.554	-0.143	-0.203
-132.356	50.596	0.086	0.081
-131.341	157.508	0.172	0.237
-130.326	188.100	0.121	-0.179
-129.312	284.424	0.200	-0.357
-128.297	429.140	-0.029	-0.062
-127.283	-29.304	0.037	0.021
-126.268	-200.000	-0.010	0.138
-125.253	800.000	0.137	-0.453
-124.239	-73.258	-0.034	0.012
-123.224	800.000	0.035	0.135
-122.210	193.136	-0.151	0.228
-121.195	-148.952	0.130	-0.010
-120.180	68.707	0.232	0.237
