DTS Sentinel unit serial number:	SN413079Multiplexer serial number:	ORYXHardware model number:	OX4-SRSoftware version number:	ORYX F/W v4.00 Oryx Data Collector v3.7.2.0data status	okinstallation	princeton_trtdifferential loss correction	single-endedforward channel	channel 1reverse channel	N/Adate	2019/09/16time	15:54:35forward acquisition time	60.00reverse acquisition time	0.00gamma	496.2192k internal	0.2292k external	0.2292temperature offset calibration	0.9955default loss term (dB/km)	0.3790temperature slope calibration	1.0000multiplexer offset coefficient	1.0000multiplexer slope coefficient	1.0000fibre end	0.00T internal ref (°C)	41.06T ext. ref 1 (°C)	14.85T ext. ref 2 (°C)	35.72length (m)	temperature (°C)	Stokes	anti-Stokes-747.200	-43.542	-0.090	0.046
-746.185	-200.000	-0.038	-0.291
-745.171	-47.439	0.224	-0.112
-744.156	800.000	-0.075	0.330
-743.142	-66.172	0.119	0.048
-742.127	800.000	-0.059	0.176
-741.112	-200.000	0.024	0.254
-740.098	-1.751	-0.205	-0.148
-739.083	-19.475	0.191	-0.121
-738.069	364.802	-0.290	0.597
-737.054	800.000	0.041	-0.152
-736.039	-139.318	-0.442	-0.049
-735.025	800.000	0.100	0.293
-734.010	-112.081	-0.307	0.063
-732.996	-47.644	0.085	-0.042
-731.981	267.191	0.041	-0.073
-730.966	187.766	0.176	-0.268
-729.952	-188.078	0.089	0.001
-728.937	61.030	0.301	-0.306
-727.923	-149.966	0.134	-0.011
-726.908	-34.487	-0.270	-0.151
-725.894	-72.727	-0.117	0.044
-724.879	-148.389	-0.440	-0.037
-723.864	-47.374	-0.094	0.047
-722.850	-76.105	-0.116	0.042
-721.835	-168.904	0.193	0.007
-720.821	-174.237	0.330	-0.010
-719.806	143.353	-0.065	0.088
-718.791	-200.000	0.008	0.110
-717.777	111.010	0.151	0.186
-716.762	-200.000	0.060	-0.306
-715.748	70.071	0.144	0.152
-714.733	-113.628	-0.168	0.034
-713.718	212.661	-0.126	-0.204
-712.704	-200.000	-0.026	-0.279
-711.689	-75.407	0.021	-0.008
-710.675	-68.872	-0.287	-0.113
-709.660	-63.382	-0.352	-0.148
-708.645	-75.743	-0.124	0.045
-707.631	674.352	0.065	0.173
-706.616	-124.247	-0.118	-0.019
-705.602	276.805	-0.025	-0.045
-704.587	-200.000	-0.060	-0.377
-703.572	-200.000	0.006	0.050
-702.558	-7.454	0.134	0.092
-701.543	800.000	-0.063	-0.217
-700.529	-39.710	-0.052	0.028
-699.514	143.369	-0.032	0.044
-698.499	724.475	0.052	-0.142
-697.485	-191.063	-0.198	-0.002
-696.470	45.429	0.240	0.226
-695.456	800.000	0.045	0.151
-694.441	-140.715	0.306	0.032
-693.426	46.537	0.063	-0.059
-692.412	279.086	0.198	-0.361
-691.397	274.083	-0.040	-0.072
-690.383	158.446	-0.055	-0.078
-689.368	-86.741	0.233	0.073
-688.354	728.404	-0.058	-0.159
-687.339	471.133	-0.152	0.348
-686.324	-189.989	0.116	0.001
-685.310	70.610	-0.278	-0.294
-684.295	800.000	-0.019	0.073
-683.281	-75.136	0.182	0.066
-682.266	-77.585	0.174	0.061
-681.251	-111.910	-0.131	-0.027
-680.237	315.144	-0.070	-0.134
-679.222	489.014	-0.075	-0.174
-678.208	800.000	0.041	-0.128
-677.193	396.870	-0.120	0.256
-676.178	259.855	-0.088	0.155
-675.164	523.317	-0.028	0.067
-674.149	-110.506	-0.296	-0.063
-673.135	82.640	-0.155	-0.172
-672.120	309.160	0.044	0.084
-671.105	50.499	-0.122	-0.118
-670.091	-83.672	-0.157	-0.051
-669.076	-8.712	-0.333	0.228
-668.062	-53.872	-0.102	-0.047
-667.047	443.925	0.138	-0.310
-666.032	-62.235	-0.503	-0.214
-665.018	-79.563	-0.124	0.043
-664.003	44.401	-0.197	-0.184
-662.989	141.234	-0.125	0.168
-661.974	338.457	-0.048	0.095
-660.959	296.145	0.154	-0.288
-659.945	102.012	-0.041	0.049
-658.930	-56.627	0.130	0.059
-657.916	-161.129	0.120	0.006
-656.901	-200.000	-0.087	-0.488
-655.886	-66.828	-0.188	0.076
-654.872	-200.000	-0.047	-0.636
-653.857	-70.702	0.188	0.072
-652.843	50.073	0.148	0.142
-651.828	0.441	0.153	-0.111
-650.814	800.000	-0.096	-0.360
-649.799	298.301	0.108	-0.203
-648.784	697.009	-0.107	0.287
-647.770	800.000	0.026	-0.090
-646.755	463.943	-0.091	-0.208
-645.741	612.684	-0.079	-0.201
-644.726	103.863	-0.177	-0.212
-643.711	-106.187	0.230	-0.053
-642.697	-200.000	-0.058	0.357
-641.682	65.862	0.191	-0.197
-640.668	-65.226	0.022	0.009
-639.653	-48.547	0.465	-0.228
-638.638	240.823	-0.120	-0.204
-637.624	133.794	-0.071	0.093
-636.609	-200.000	-0.013	0.167
-635.595	542.404	0.085	-0.206
-634.580	81.564	-0.064	0.071
-633.565	-58.589	-0.138	-0.061
-632.551	-180.202	-0.098	-0.002
-631.536	-200.000	-0.040	-0.288
-630.522	-200.000	-0.039	-0.242
-629.507	-97.772	0.216	-0.057
-628.492	27.670	-0.283	-0.243
-627.478	-45.947	-0.387	-0.195
-626.463	-25.388	0.058	0.035
-625.449	-200.000	-0.014	0.062
-624.434	-65.986	-0.099	0.040
-623.419	-200.000	0.054	-0.392
-622.405	-34.826	0.279	0.155
-621.390	-65.032	-0.311	-0.128
-620.376	221.069	0.131	-0.214
-619.361	-97.475	-0.208	-0.055
-618.346	-200.000	0.032	0.176
-617.332	58.006	-0.147	0.147
-616.317	-50.546	0.103	0.049
-615.303	-200.000	-0.287	-0.001
-614.288	366.668	0.079	-0.162
-613.273	-200.000	0.020	-0.120
-612.259	-88.753	0.171	0.052
-611.244	800.000	0.043	-0.157
-610.230	-200.000	-0.024	0.158
-609.215	-26.130	-0.138	0.083
-608.201	-200.000	-0.005	-0.308
-607.186	-192.967	0.323	0.003
-606.171	46.602	0.125	0.118
-605.157	-166.047	-0.442	-0.019
-604.142	-200.000	-0.078	-0.457
-603.128	424.400	0.046	-0.101
-602.113	-30.861	0.086	-0.049
-601.098	800.000	-0.067	-0.263
-600.084	28.595	0.172	-0.148
-599.069	-200.000	-0.018	0.100
-598.055	107.302	-0.082	0.099
-597.040	424.709	0.047	-0.102
-596.025	216.219	-0.148	-0.239
-595.011	800.000	-0.052	0.230
-593.996	43.168	-0.091	0.085
-592.982	-57.630	0.290	0.129
-591.967	-200.000	-0.027	-0.285
-590.952	397.851	-0.147	-0.313
-589.938	-200.000	-0.049	-0.305
-588.923	-101.891	-0.448	0.110
-587.909	-200.000	0.022	0.148
-586.894	-63.406	-0.102	-0.042
-585.879	14.467	0.228	0.181
-584.865	400.698	0.066	-0.141
-583.850	-112.372	-0.271	-0.055
-582.836	-172.820	0.174	-0.006
-581.821	63.312	-0.273	0.279
-580.806	-177.228	0.165	-0.004
-579.792	-200.000	0.034	-0.282
-578.777	30.087	-0.160	-0.139
-577.763	800.000	0.028	0.097
-576.748	-110.251	0.074	0.016
-575.733	69.927	-0.324	-0.340
-574.719	800.000	0.033	-0.125
-573.704	800.000	0.081	0.342
-572.690	-49.707	-0.146	-0.071
-571.675	-124.778	-0.251	0.039
-570.661	108.396	-0.189	-0.229
-569.646	156.459	-0.097	-0.136
-568.631	-200.000	0.017	-0.508
-567.617	-95.988	0.192	-0.052
-566.602	-62.561	0.123	0.052
-565.588	-200.000	-0.003	-0.124
-564.573	-78.560	0.082	0.028
-563.558	-91.083	0.289	-0.084
-562.544	21.729	0.270	0.223
-561.529	-77.244	0.159	-0.056
-560.515	-200.000	0.013	-0.080
-559.500	800.000	0.023	0.083
-558.485	-200.000	-0.041	0.312
-557.471	49.652	-0.096	0.092
-556.456	-84.725	0.114	0.037
-555.442	-200.000	0.030	0.370
-554.427	-200.000	-0.017	0.438
-553.412	-200.000	-0.043	-0.242
-552.398	100.322	0.208	-0.245
-551.383	-200.000	0.006	0.149
-550.369	-200.000	-0.009	-0.086
-549.354	-65.156	0.115	0.047
-548.339	-124.458	0.207	0.033
-547.325	-56.903	0.162	0.073
-546.310	-127.980	-0.264	0.038
-545.296	343.154	0.101	0.202
-544.281	-200.000	-0.018	0.158
-543.266	-112.310	0.178	-0.036
-542.252	-51.562	0.134	-0.064
-541.237	40.323	0.268	-0.245
-540.223	50.804	0.101	-0.097
-539.208	800.000	0.027	0.092
-538.193	133.351	0.134	0.176
-537.179	-166.830	-0.166	0.007
-536.164	217.379	0.187	-0.302
-535.150	667.459	-0.078	-0.206
-534.135	271.792	0.100	0.178
-533.121	29.600	-0.120	-0.104
-532.106	-163.440	-0.219	-0.011
-531.091	3.916	-0.197	-0.146
-530.077	165.375	0.117	-0.168
-529.062	269.742	0.090	0.160
-528.048	-15.320	-0.247	0.160
-527.033	-200.000	-0.016	-0.141
-526.018	73.994	-0.058	0.062
-525.004	257.849	0.119	0.207
-523.989	-67.880	-0.181	-0.072
-522.975	-200.000	0.001	-0.075
-521.960	-200.000	0.038	-0.286
-520.945	-200.000	0.017	-0.180
-519.931	800.000	0.051	-0.210
-518.916	83.608	0.225	-0.249
-517.902	25.266	-0.115	-0.097
-516.887	177.860	-0.283	0.419
-515.872	515.649	0.015	0.037
-514.858	-200.000	-0.018	0.186
-513.843	-171.176	0.278	-0.010
-512.829	747.119	0.010	0.027
-511.814	-152.601	-0.285	0.021
-510.799	429.752	-0.100	-0.220
-509.785	-200.000	0.023	0.368
-508.770	-53.937	0.353	-0.163
-507.756	91.357	-0.102	0.116
-506.741	-51.158	-0.262	-0.124
-505.726	-63.222	-0.079	-0.033
-504.712	800.000	-0.088	-0.255
-503.697	-168.949	0.055	0.002
-502.683	215.783	-0.158	0.254
-501.668	-1.834	0.203	0.145
-500.653	-200.000	0.008	-0.235
-499.639	-71.457	0.127	-0.048
-498.624	-15.541	0.325	0.211
-497.610	-200.000	0.020	0.197
-496.595	112.287	0.124	0.152
-495.581	26.410	-0.076	0.064
-494.566	-200.000	-0.008	-0.137
-493.551	198.032	0.261	-0.405
-492.537	-104.892	0.221	-0.051
-491.522	-81.340	-0.092	-0.031
-490.508	-106.162	-0.101	-0.023
-489.493	-200.000	0.028	-0.161
-488.478	639.056	0.061	0.156
-487.464	23.566	-0.310	0.258
-486.449	-133.485	-0.116	-0.015
-485.435	149.365	-0.093	-0.128
-484.420	-49.176	-0.114	0.055
-483.405	675.827	-0.034	0.089
-482.391	549.279	0.107	0.260
-481.376	82.703	0.023	0.026
-480.362	85.907	0.204	-0.227
-479.347	-200.000	0.042	-0.234
-478.332	-106.819	0.162	-0.036
-477.318	-116.214	0.077	0.015
-476.303	800.000	-0.088	-0.270
-475.289	204.850	-0.176	0.277
-474.274	-152.826	-0.095	-0.007
-473.259	-70.579	-0.033	0.013
-472.245	800.000	0.086	-0.277
-471.230	-48.690	-0.217	0.105
-470.216	-37.609	0.263	0.142
-469.201	72.914	-0.236	-0.249
-468.186	-88.859	0.041	0.012
-467.172	-130.027	0.109	-0.015
-466.157	79.460	0.062	0.067
-465.143	163.377	0.330	-0.470
-464.128	-147.890	0.143	-0.012
-463.113	11.702	0.057	-0.045
-462.099	-75.324	-0.137	-0.049
-461.084	214.309	0.067	-0.107
-460.070	-200.000	-0.034	-0.151
-459.055	8.893	-0.300	0.229
-458.040	175.484	0.149	0.218
-457.026	90.334	-0.102	0.116
-456.011	2.931	0.057	0.042
-454.997	118.231	-0.094	-0.118
-453.982	-200.000	0.226	0.001
-452.968	-73.161	0.178	0.066
-451.953	-200.000	0.016	-0.094
-450.938	137.074	0.185	-0.244
-449.924	-154.573	0.367	0.025
-448.909	-78.704	-0.186	-0.064
-447.895	7.123	-0.240	0.181
-446.880	-147.011	-0.447	0.039
-445.865	143.249	0.201	-0.270
-444.851	-119.960	0.268	-0.046
-443.836	100.473	-0.095	0.112
-442.822	-200.000	-0.054	-0.265
-441.807	800.000	0.071	0.221
-440.792	443.357	-0.065	0.145
-439.778	-18.496	0.304	-0.192
-438.763	-95.788	-0.085	0.023
-437.749	204.238	0.213	-0.333
-436.734	-17.735	0.225	0.143
-435.719	419.669	0.041	0.089
-434.705	-101.323	-0.267	-0.066
-433.690	-154.819	-0.169	-0.011
-432.676	71.920	0.270	-0.284
-431.661	-27.536	-0.366	-0.215
-430.646	-39.636	0.294	-0.155
-429.632	252.388	-0.072	0.124
-428.617	219.554	0.195	0.315
-427.603	7.755	-0.275	-0.208
-426.588	-200.000	-0.310	0.001
-425.573	-96.493	0.167	0.045
-424.559	109.063	0.213	0.257
-423.544	207.044	-0.112	0.177
-422.530	-53.911	0.091	0.042
-421.515	-5.142	-0.265	0.185
-420.500	375.747	-0.167	-0.344
-419.486	-106.354	0.235	-0.053
-418.471	-73.978	-0.349	-0.128
-417.457	121.437	0.006	0.008
-416.442	-18.212	-0.310	-0.196
-415.428	50.412	0.223	0.213
-414.413	-9.095	0.193	0.130
-413.398	-112.134	0.092	-0.019
-412.384	206.366	-0.110	0.173
-411.369	-107.436	-0.034	-0.008
-410.355	169.933	-0.110	0.158
-409.340	-200.000	0.022	0.167
-408.325	530.890	-0.061	0.145
-407.311	-160.532	0.264	0.014
-406.296	-200.000	0.038	-0.185
-405.282	75.319	-0.196	0.208
-404.267	-149.999	0.045	0.004
-403.252	-15.348	0.432	-0.279
-402.238	163.462	0.195	0.276
-401.223	-200.000	0.028	-0.176
-400.209	16.141	-0.216	0.172
-399.194	-200.000	0.027	0.165
-398.179	-200.000	-0.002	-0.031
-397.165	-6.263	-0.213	0.147
-396.150	-172.861	0.184	0.006
-395.136	123.590	0.115	-0.145
-394.121	303.991	-0.097	-0.181
-393.106	800.000	-0.014	0.057
-392.092	-200.000	-0.032	-0.372
-391.077	-92.207	0.343	0.098
-390.063	-86.448	0.232	0.072
-389.048	-153.935	-0.325	0.022
-388.033	-161.171	0.161	0.008
-387.019	-45.609	-0.072	-0.036
-386.004	-200.000	0.009	0.116
-384.990	-200.000	-0.032	0.187
-383.975	-96.329	0.136	-0.036
-382.960	120.340	0.183	-0.230
-381.946	-200.000	0.037	0.240
-380.931	35.171	0.089	-0.078
-379.917	11.716	-0.142	0.110
-378.902	-155.204	-0.228	-0.015
-377.888	-43.485	-0.299	0.152
-376.873	800.000	-0.113	0.374
-375.858	-174.726	0.213	-0.006
-374.844	800.000	-0.074	-0.289
-373.829	-200.000	0.000	0.213
-372.815	-200.000	0.006	-0.030
-371.800	672.324	-0.106	-0.276
-370.785	-144.351	0.207	0.019
-369.771	800.000	-0.087	-0.265
-368.756	-102.221	0.096	-0.023
-367.742	-200.000	-0.022	0.290
-366.727	-142.596	-0.148	-0.015
-365.712	433.280	-0.077	-0.168
-364.698	45.600	-0.054	0.050
-363.683	-200.000	0.024	-0.398
-362.669	-200.000	-0.012	0.376
-361.654	-200.000	-0.010	0.043
-360.639	-47.125	0.192	0.095
-359.625	220.879	-0.177	-0.286
-358.610	66.878	-0.080	-0.083
-357.596	346.614	0.120	0.239
-356.581	-200.000	-0.013	0.092
-355.566	-45.601	0.075	-0.037
-354.552	-127.012	-0.275	0.041
-353.537	7.662	0.148	-0.111
-352.523	-78.099	0.129	-0.045
-351.508	18.828	-0.015	0.012
-350.493	435.514	0.080	0.175
-349.479	14.858	-0.334	0.264
-348.464	-12.892	0.223	-0.146
-347.450	-7.130	0.263	0.180
-346.435	-122.934	-0.507	0.082
-345.420	-127.424	-0.261	0.038
-344.406	-69.764	0.289	0.111
-343.391	392.276	0.059	-0.124
-342.377	-81.470	0.129	0.043
-341.362	-173.221	0.280	-0.009
-340.348	800.000	0.054	-0.175
-339.333	-20.719	-0.071	0.044
-338.318	143.036	0.038	0.051
-337.304	83.513	-0.331	0.363
-336.289	323.063	-0.092	0.177
-335.275	-64.681	0.135	-0.055
-334.260	426.039	-0.032	0.071
-333.245	-86.649	0.376	-0.116
-332.231	-200.000	-0.062	-0.314
-331.216	-200.000	0.022	0.552
-330.202	-73.116	-0.044	0.016
-329.187	-123.666	0.131	0.021
-328.172	174.814	-0.183	-0.266
-327.158	190.560	0.018	0.027
-326.143	515.826	-0.026	-0.061
-325.129	-200.000	0.038	-0.232
-324.114	-139.917	-0.143	-0.015
-323.099	173.598	0.188	0.272
-322.085	386.683	0.088	-0.182
-321.070	-149.373	-0.284	-0.023
-320.056	348.843	0.091	0.181
-319.041	-200.000	-0.008	0.072
-318.026	-100.805	-0.267	-0.066
-317.012	-86.219	0.190	-0.059
-315.997	-200.000	-0.015	0.145
-314.983	-98.702	0.227	0.058
-313.968	800.000	0.103	0.289
-312.953	55.411	-0.106	-0.103
-311.939	-28.028	0.355	0.207
-310.924	-200.000	0.017	-0.163
-309.910	175.565	-0.193	0.281
-308.895	-200.000	0.034	0.334
-307.880	-24.385	-0.200	-0.120
-306.866	-78.055	0.146	0.050
-305.851	461.812	-0.041	-0.092
-304.837	800.000	-0.143	-0.422
-303.822	800.000	0.049	-0.211
-302.807	-178.397	0.183	0.004
-301.793	-156.392	0.130	-0.008
-300.778	-27.895	0.065	0.038
-299.764	158.826	-0.125	-0.175
-298.749	-119.476	-0.138	-0.024
-297.735	-133.292	-0.173	0.022
-296.720	-200.000	-0.040	-0.263
-295.705	-200.000	-0.046	0.300
-294.691	-97.012	-0.168	-0.044
-293.676	467.505	0.079	0.178
-292.662	-19.642	-0.246	0.153
-291.647	-171.743	-0.148	0.005
-290.632	-60.589	0.105	-0.045
-289.618	361.056	0.059	-0.119
-288.603	573.413	0.104	0.254
-287.589	800.000	-0.065	-0.193
-286.574	-147.916	-0.282	-0.024
-285.559	800.000	0.072	0.240
-284.545	-38.211	0.255	-0.136
-283.530	-18.207	-0.322	0.202
-282.516	571.673	0.105	0.258
-281.501	-135.283	0.240	0.029
-280.486	800.000	-0.051	0.226
-279.472	-200.000	-0.024	-0.215
-278.457	-73.726	0.246	-0.090
-277.443	110.501	-0.182	0.220
-276.428	-76.556	0.289	0.102
-275.413	-200.000	-0.017	-0.353
-274.399	431.586	-0.076	-0.165
-273.384	114.170	-0.154	-0.188
-272.370	-22.148	0.394	0.240
-271.355	-200.000	0.000	0.273
-270.340	712.164	0.084	0.224
-269.326	357.032	0.040	-0.081
-268.311	-177.405	0.163	-0.004
-267.297	59.492	-0.222	-0.220
-266.282	-183.587	-0.370	-0.006
-265.267	-124.287	-0.161	-0.025
-264.253	738.938	0.061	-0.165
-263.238	118.401	0.156	0.193
-262.224	-200.000	0.007	-0.126
-261.209	800.000	0.123	0.455
-260.195	-82.370	-0.130	0.042
-259.180	-200.000	-0.006	-0.037
-258.165	-136.404	0.120	-0.014
-257.151	-138.644	0.369	-0.041
-256.136	32.400	0.109	0.094
-255.122	2.902	-0.152	0.111
-254.107	-4.346	-0.106	-0.074
-253.092	162.216	-0.160	0.226
-252.078	-1.054	-0.127	0.090
-251.063	-85.235	-0.200	-0.063
-250.049	-200.000	0.036	-0.217
-249.034	385.288	0.101	0.208
-248.019	-200.000	0.037	-0.261
-247.005	-185.475	0.127	-0.002
-245.990	800.000	-0.087	0.267
-244.976	184.756	0.122	0.181
-243.961	50.306	0.044	-0.041
-242.946	517.698	-0.078	0.184
-241.932	-50.382	0.161	0.076
-240.917	181.546	-0.063	-0.093
-239.903	8.621	0.047	0.035
-238.888	-156.412	0.194	0.012
-237.873	82.809	-0.238	0.260
-236.859	37.733	0.209	0.186
-235.844	108.569	-0.066	-0.079
-234.830	11.559	-0.314	-0.241
-233.815	-200.000	-0.030	-0.321
-232.800	-4.650	0.235	-0.162
-231.786	-3.289	0.132	-0.092
-230.771	-200.000	-0.018	-0.088
-229.757	-59.399	-0.263	0.114
-228.742	-200.000	-0.044	0.266
-227.727	99.310	-0.083	0.096
-226.713	191.311	0.082	-0.124
-225.698	800.000	-0.038	-0.148
-224.684	-85.472	0.077	-0.024
-223.669	350.757	-0.058	-0.115
-222.655	800.000	-0.020	0.076
-221.640	-107.032	0.149	0.033
-220.625	-91.421	-0.046	-0.013
-219.611	59.325	0.351	0.346
-218.596	-94.860	0.153	0.042
-217.582	-131.187	0.079	-0.011
-216.567	-27.563	-0.271	-0.158
-215.552	-121.753	0.196	-0.033
-214.538	482.348	-0.134	0.306
-213.523	-96.484	-0.417	-0.110
-212.509	-200.000	-0.000	-0.117
-211.494	178.416	-0.174	0.254
-210.479	-87.120	0.323	-0.099
-209.465	66.925	-0.131	-0.134
-208.450	-200.000	0.003	-0.236
-207.436	-200.000	-0.002	0.091
-206.421	-95.802	0.125	0.034
-205.406	800.000	-0.093	-0.288
-204.392	-189.731	-0.144	-0.002
-203.377	-200.000	0.004	0.122
-202.363	-113.661	0.310	-0.061
-201.348	367.130	0.122	0.247
-200.333	300.795	-0.073	0.134
-199.319	581.572	0.031	0.076
-198.304	26.079	-0.082	-0.069
-197.290	63.540	-0.064	-0.064
-196.275	289.898	-0.127	-0.231
-195.260	74.439	0.224	0.236
-194.246	-55.541	0.224	-0.101
-193.231	31.635	0.088	-0.076
-192.217	-94.338	-0.407	0.111
-191.202	339.883	-0.256	0.499
-190.187	800.000	-0.050	0.144
-189.173	-200.000	0.016	-0.139
-188.158	-154.766	-0.206	-0.014
-187.144	39.787	0.142	-0.128
-186.129	69.672	-0.061	0.063
-185.114	-35.395	-0.240	0.131
-184.100	368.545	0.101	-0.205
-183.085	-200.000	-0.029	-0.385
-182.071	-24.854	-0.244	-0.145
-181.056	-108.710	0.377	-0.081
-180.042	800.000	-0.074	-0.321
-179.027	-200.000	-0.024	0.186
-178.012	-16.377	-0.300	0.191
-176.998	-157.921	0.078	-0.005
-175.983	-157.916	0.120	0.007
-174.969	-67.844	-0.164	0.064
-173.954	-200.000	-0.020	-0.171
-172.939	800.000	-0.116	0.367
-171.925	-23.245	0.040	0.024
-170.910	-200.000	-0.041	0.265
-169.896	717.665	-0.146	-0.388
-168.881	-97.395	-0.234	0.061
-167.866	-200.000	0.100	0.470
-166.852	73.686	0.162	0.170
-165.837	256.295	-0.061	-0.105
-164.823	-62.222	-0.130	0.054
-163.808	-42.140	-0.172	0.088
-162.793	80.018	0.070	0.076
-161.779	-117.608	0.192	0.035
-160.764	800.000	-0.039	0.144
-159.750	173.061	-0.048	0.069
-158.735	-200.000	0.027	0.347
-157.720	-200.000	-0.113	0.544
-156.706	70.425	0.157	0.162
-155.691	-168.774	-0.162	-0.006
-154.677	800.000	0.106	0.356
-153.662	-13.641	0.162	-0.105
-152.647	26.863	-0.170	0.142
-151.633	-86.743	0.023	0.007
-150.618	-200.000	-0.037	-0.333
-149.604	-151.808	-0.415	-0.030
-148.589	-132.666	-0.250	0.032
-147.574	272.856	-0.113	0.199
-146.560	43.662	-0.193	0.177
-145.545	-134.126	-0.141	0.017
-144.531	610.512	-0.108	-0.269
-143.516	-28.135	-0.171	-0.099
-142.502	165.434	-0.160	0.227
-141.487	2.981	0.171	-0.124
-140.472	143.338	-0.066	-0.088
-139.458	-11.024	-0.134	-0.088
-138.443	-20.929	-0.249	-0.152
-137.429	-15.094	0.134	-0.086
-136.414	-70.109	0.157	-0.060
-135.399	90.060	-0.032	-0.036
-134.385	-92.046	-0.157	-0.044
-133.370	800.000	-0.104	-0.332
-132.356	-200.000	-0.021	-0.209
-131.341	800.000	0.153	-0.453
-130.326	-200.000	0.023	-0.280
-129.312	403.127	-0.189	-0.397
-128.297	-200.000	-0.072	0.332
-127.283	800.000	0.113	0.339
-126.268	-200.000	0.002	-0.079
-125.253	-200.000	0.003	0.115
-124.239	285.068	0.053	0.095
-123.224	-55.554	-0.254	-0.113
