DTS Sentinel unit serial number:	SN413079Multiplexer serial number:	ORYXHardware model number:	OX4-SRSoftware version number:	ORYX F/W v4.00 Oryx Data Collector v3.7.2.0data status	okinstallation	princeton_trtdifferential loss correction	single-endedforward channel	channel 1reverse channel	N/Adate	2019/09/13time	20:38:35forward acquisition time	60.00reverse acquisition time	0.00gamma	496.2192k internal	0.2331k external	0.2331temperature offset calibration	1.0087default loss term (dB/km)	0.3790temperature slope calibration	1.0000multiplexer offset coefficient	1.0000multiplexer slope coefficient	1.0000fibre end	0.00T internal ref (°C)	28.94T ext. ref 1 (°C)	3.18T ext. ref 2 (°C)	23.58length (m)	temperature (°C)	Stokes	anti-Stokes-747.200	-66.093	-0.173	0.069
-746.185	-200.000	-0.033	0.453
-745.171	-200.000	0.007	0.157
-744.156	80.061	-0.287	-0.310
-743.142	121.424	0.103	-0.129
-742.127	-95.704	-0.170	0.046
-741.112	510.344	0.027	-0.064
-740.098	29.099	0.109	0.093
-739.083	332.612	0.038	-0.075
-738.069	-24.338	0.086	0.052
-737.054	-78.560	0.294	0.101
-736.039	-177.835	-0.467	0.011
-735.025	574.407	0.097	0.239
-734.010	145.386	-0.118	0.159
-732.996	46.513	-0.046	0.043
-731.981	153.560	-0.114	-0.157
-730.966	83.209	-0.141	0.154
-729.952	113.924	-0.145	0.178
-728.937	-83.172	0.171	0.055
-727.923	372.691	0.013	0.027
-726.908	114.392	-0.188	0.230
-725.894	486.839	-0.149	-0.343
-724.879	520.357	-0.106	-0.249
-723.864	0.837	-0.379	0.273
-722.850	188.167	-0.125	0.188
-721.835	-200.000	-0.020	0.136
-720.821	506.948	0.112	0.261
-719.806	-20.686	-0.138	0.085
-718.791	-83.675	0.179	-0.057
-717.777	59.880	-0.290	0.287
-716.762	800.000	-0.044	0.128
-715.748	-146.572	0.145	0.013
-714.733	-2.694	-0.280	-0.197
-713.718	401.152	0.064	-0.135
-712.704	-36.212	0.084	-0.046
-711.689	800.000	0.111	-0.317
-710.675	-93.153	-0.064	0.018
-709.660	-200.000	-0.039	-0.335
-708.645	800.000	0.034	-0.102
-707.631	-62.563	-0.326	-0.136
-706.616	-81.137	0.238	-0.079
-705.602	234.486	0.060	-0.099
-704.587	77.057	0.079	0.085
-703.572	-200.000	0.038	-0.402
-702.558	-200.000	0.014	-0.430
-701.543	84.754	0.083	0.091
-700.529	13.356	0.214	-0.167
-699.514	800.000	0.057	0.178
-698.499	253.747	-0.043	0.074
-697.485	246.319	-0.057	0.096
-696.470	163.120	-0.197	0.278
-695.456	-32.470	-0.180	-0.101
-694.441	-200.000	-0.012	-0.121
-693.426	7.339	-0.260	-0.195
-692.412	-153.938	0.191	0.013
-691.397	76.769	0.166	-0.177
-690.383	-154.358	-0.177	0.012
-689.368	80.166	-0.150	0.162
-688.354	-2.088	-0.234	0.165
-687.339	208.995	-0.077	-0.121
-686.324	-1.914	-0.065	-0.046
-685.310	2.119	-0.123	0.089
-684.295	400.467	-0.068	-0.144
-683.281	94.854	-0.208	-0.238
-682.266	-200.000	0.002	-0.174
-681.251	-120.797	-0.130	-0.022
-680.237	109.417	-0.049	-0.059
-679.222	687.593	0.085	-0.222
-678.208	-158.718	-0.046	-0.003
-677.193	530.784	0.033	-0.077
-676.178	205.119	-0.164	0.255
-675.164	92.032	-0.155	0.175
-674.149	66.678	-0.073	0.075
-673.135	301.918	-0.192	-0.357
-672.120	-44.487	-0.205	0.103
-671.105	-200.000	0.039	0.204
-670.091	235.842	0.023	0.038
-669.076	642.939	0.154	-0.395
-668.062	615.643	0.051	0.129
-667.047	-67.046	-0.159	0.063
-666.032	-48.551	-0.238	-0.115
-665.018	74.630	-0.123	-0.130
-664.003	161.985	-0.257	-0.361
-662.989	-115.455	-0.252	0.048
-661.974	800.000	-0.118	0.373
-660.959	-103.728	0.246	-0.058
-659.945	800.000	-0.030	-0.090
-658.930	-200.000	0.001	-0.074
-657.916	-151.155	0.181	-0.014
-656.901	-114.138	0.077	-0.015
-655.886	-200.000	-0.036	-0.360
-654.872	-200.000	0.007	-0.070
-653.857	121.819	0.278	0.348
-652.843	337.345	0.030	-0.059
-651.828	81.124	0.206	0.223
-650.814	800.000	0.066	0.210
-649.799	78.385	-0.154	-0.165
-648.784	-9.889	-0.077	-0.051
-647.770	-200.000	0.032	0.262
-646.755	-200.000	-0.022	-0.219
-645.741	63.975	-0.068	-0.069
-644.726	-145.694	0.268	-0.024
-643.711	-200.000	0.005	0.082
-642.697	-200.000	0.017	0.392
-641.682	-91.205	-0.323	0.093
-640.668	800.000	0.030	0.094
-639.653	-123.583	-0.227	0.036
-638.638	40.834	-0.234	0.211
-637.624	800.000	0.024	0.104
-636.609	267.807	0.044	-0.077
-635.595	449.293	0.061	-0.135
-634.580	108.987	-0.229	-0.275
-633.565	-200.000	0.302	0.001
-632.551	-200.000	0.037	-0.241
-631.536	43.895	0.062	-0.057
-630.522	675.658	-0.257	-0.669
-629.507	573.366	-0.078	-0.191
-628.492	164.869	-0.095	0.134
-627.478	800.000	0.056	-0.157
-626.463	-200.000	0.035	-0.169
-625.449	-178.561	-0.439	0.010
-624.434	714.822	-0.165	0.438
-623.419	165.270	-0.123	0.174
-622.405	222.041	0.067	0.108
-621.390	-109.729	-0.343	0.072
-620.376	496.735	0.089	0.206
-619.361	65.089	0.093	-0.094
-618.346	146.262	0.096	-0.128
-617.332	-200.000	-0.090	-0.399
-616.317	49.532	-0.252	-0.238
-615.303	-62.448	0.156	-0.065
-614.288	232.020	0.090	-0.148
-613.273	-200.000	0.001	-0.150
-612.259	-152.928	0.321	-0.023
-611.244	-100.526	0.137	0.034
-610.230	440.040	0.065	-0.143
-609.215	-26.796	0.329	0.193
-608.201	-102.977	-0.291	0.069
-607.186	-90.174	-0.393	-0.115
-606.171	-200.000	-0.038	-0.177
-605.157	-167.793	0.126	-0.005
-604.142	115.798	-0.107	-0.131
-603.128	-1.812	-0.062	-0.044
-602.113	220.818	0.265	0.425
-601.098	44.066	-0.080	-0.073
-600.084	-45.405	-0.266	-0.132
-599.069	-56.798	0.166	0.073
-598.055	331.595	0.101	-0.195
-597.040	-54.039	-0.044	-0.020
-596.025	108.339	-0.201	0.240
-595.011	-25.346	0.052	-0.031
-593.996	48.338	0.148	-0.139
-592.982	-200.000	0.011	0.175
-591.967	-28.007	0.107	-0.062
-590.952	193.153	-0.040	-0.060
-589.938	408.810	0.052	0.109
-588.923	64.962	-0.035	0.036
-587.909	19.617	-0.176	-0.141
-586.894	87.198	-0.247	0.273
-585.879	140.877	-0.296	-0.391
-584.865	-66.935	-0.249	0.098
-583.850	-171.755	0.117	-0.004
-582.836	-122.321	-0.145	0.024
-581.821	439.928	-0.178	-0.389
-580.806	-122.937	-0.420	-0.068
-579.792	-52.847	-0.272	-0.126
-578.777	-102.103	-0.302	0.073
-577.763	466.609	0.114	0.254
-576.748	-85.738	0.142	0.044
-575.733	-116.852	-0.151	-0.028
-574.719	-148.044	-0.280	0.023
-573.704	277.989	-0.085	-0.152
-572.690	141.588	0.116	0.153
-571.675	-200.000	0.062	0.369
-570.661	-130.775	0.314	0.042
-569.646	541.227	-0.080	-0.191
-568.631	13.834	0.339	-0.264
-567.617	-200.000	-0.026	-0.224
-566.602	147.610	-0.176	0.237
-565.588	10.884	0.159	-0.122
-564.573	-53.742	-0.145	0.066
-563.558	-200.000	0.038	0.171
-562.544	-200.000	0.033	-0.163
-561.529	-158.422	0.592	0.034
-560.515	800.000	0.057	-0.171
-559.500	670.575	-0.048	0.124
-558.485	159.495	-0.039	0.055
-557.471	159.177	0.031	0.043
-556.456	64.423	0.145	-0.146
-555.442	110.912	0.243	-0.292
-554.427	-71.955	0.125	0.046
-553.412	-135.561	0.352	0.042
-552.398	-49.502	0.172	0.082
-551.383	-193.533	-0.516	-0.004
-550.369	-71.155	0.107	0.040
-549.354	330.223	-0.100	0.192
-548.339	141.730	-0.042	0.056
-547.325	800.000	0.080	-0.285
-546.310	-9.775	0.348	0.231
-545.296	-61.196	-0.287	0.121
-544.281	-126.766	-0.288	0.042
-543.266	-200.000	0.020	-0.095
-542.252	-64.719	-0.353	-0.143
-541.237	156.348	-0.165	-0.227
-540.223	-50.608	-0.134	0.063
-539.208	293.432	0.051	-0.093
-538.193	-23.445	0.105	-0.063
-537.179	-200.000	0.024	-0.227
-536.164	800.000	0.114	0.370
-535.150	-131.395	-0.106	0.014
-534.135	-176.426	0.159	-0.004
-533.121	-59.188	-0.239	-0.103
-532.106	-78.169	0.094	-0.032
-531.091	-200.000	-0.014	0.068
-530.077	-87.653	0.232	0.070
-529.062	-200.000	-0.007	-0.123
-528.048	-21.500	0.217	-0.132
-527.033	277.558	0.092	-0.164
-526.018	-95.916	0.320	-0.085
-525.004	-126.642	0.030	-0.004
-523.989	-124.913	0.413	0.064
-522.975	-6.441	-0.053	0.036
-521.960	87.714	0.061	0.067
-520.945	-66.688	0.266	0.105
-519.931	-1.760	0.128	-0.090
-518.916	-200.000	0.002	-0.042
-517.902	356.168	-0.126	-0.250
-516.887	-142.389	0.429	-0.042
-515.872	-96.212	0.084	0.022
-514.858	800.000	0.008	0.026
-513.843	-200.000	-0.059	-0.299
-512.829	88.445	-0.216	-0.239
-511.814	364.943	-0.090	-0.180
-510.799	800.000	-0.035	0.141
-509.785	48.203	-0.200	0.187
-508.770	126.202	-0.088	0.111
-507.756	-98.657	-0.195	-0.050
-506.741	-200.000	-0.013	0.233
-505.726	187.124	-0.180	-0.267
-504.712	82.916	0.139	0.151
-503.697	-200.000	-0.004	0.305
-502.683	132.171	0.088	-0.112
-501.668	-200.000	-0.052	0.438
-500.653	-178.861	0.388	0.009
-499.639	36.303	0.108	-0.095
-498.624	-107.764	0.342	0.074
-497.610	-131.383	-0.221	0.029
-496.595	-48.413	-0.062	0.030
-495.581	-27.137	0.044	0.025
-494.566	-179.688	-0.219	-0.005
-493.551	-200.000	0.055	0.258
-492.537	-31.972	-0.393	0.219
-491.522	-129.728	0.343	-0.047
-490.508	-200.000	0.035	0.214
-489.493	378.511	0.182	0.372
-488.478	488.429	0.136	0.308
-487.464	-67.555	0.270	-0.105
-486.449	800.000	0.075	-0.227
-485.435	229.448	-0.128	0.208
-484.420	-200.000	0.032	0.481
-483.405	-0.764	0.050	0.035
-482.391	-9.653	0.107	0.071
-481.376	-102.494	0.098	0.023
-480.362	-34.628	-0.162	0.088
-479.347	231.932	0.228	-0.372
-478.332	-58.566	-0.250	-0.108
-477.318	-177.277	0.297	0.007
-476.303	439.082	0.104	0.226
-475.289	110.838	-0.181	0.217
-474.274	-59.648	-0.069	0.029
-473.259	-200.000	-0.076	-0.361
-472.245	-148.627	-0.058	-0.005
-471.230	-12.442	-0.225	-0.146
-470.216	-84.779	0.246	-0.077
-469.201	-200.000	0.024	-0.303
-468.186	800.000	-0.045	0.135
-467.172	-187.239	-0.139	-0.002
-466.157	800.000	-0.125	-0.424
-465.143	163.987	0.088	0.123
-464.128	102.353	-0.231	0.268
-463.113	444.611	0.129	-0.281
-462.099	-200.000	0.022	0.202
-461.084	-122.684	-0.126	0.020
-460.070	800.000	-0.074	0.248
-459.055	-95.887	-0.144	-0.038
-458.040	-79.435	0.291	0.098
-457.026	-172.827	0.228	-0.007
-456.011	-88.662	-0.568	-0.168
-454.997	33.302	0.119	0.103
-453.982	8.168	-0.126	0.094
-452.968	-41.936	0.310	-0.158
-451.953	-71.458	-0.206	0.077
-450.938	-200.000	-0.025	0.144
-449.924	171.937	0.155	-0.222
-448.909	-112.453	-0.307	-0.061
-447.895	800.000	0.039	-0.134
-446.880	-200.000	-0.007	0.105
-445.865	-200.000	-0.117	-0.000
-444.851	-200.000	0.003	0.019
-443.836	449.443	0.007	-0.016
-442.822	26.830	0.326	0.272
-441.807	-57.914	-0.132	-0.057
-440.792	-39.278	-0.105	-0.055
-439.778	310.878	0.057	0.105
-438.763	-157.115	-0.470	-0.028
-437.749	311.400	0.200	0.372
-436.734	625.684	0.031	-0.077
-435.719	-136.108	0.358	0.042
-434.705	68.150	-0.201	0.204
-433.690	-128.249	-0.154	0.022
-432.676	445.886	0.072	-0.157
-431.661	2.157	-0.268	0.193
-430.646	-67.285	-0.040	0.016
-429.632	118.956	-0.086	-0.106
-428.617	-94.434	-0.378	-0.102
-427.603	109.567	-0.146	-0.174
-426.588	800.000	-0.024	0.086
-425.573	-200.000	-0.002	-0.036
-424.559	-133.643	0.158	0.020
-423.544	194.177	0.090	-0.135
-422.530	-96.061	0.048	-0.013
-421.515	-200.000	0.000	0.320
-420.500	-27.933	-0.080	0.046
-419.486	242.987	0.055	-0.092
-418.471	60.347	0.094	-0.092
-417.457	-14.213	0.150	-0.096
-416.442	3.847	-0.164	0.119
-415.428	29.990	-0.174	0.147
-414.413	-200.000	-0.018	-0.147
-413.398	-7.302	-0.332	0.223
-412.384	254.678	0.048	0.081
-411.369	66.299	-0.276	-0.278
-410.355	3.436	-0.152	-0.110
-409.340	233.809	-0.093	0.152
-408.325	428.819	-0.224	0.481
-407.311	-17.137	0.136	0.085
-406.296	-13.390	-0.039	-0.025
-405.282	-27.717	-0.081	-0.046
-404.267	129.317	0.127	-0.162
-403.252	219.288	0.045	0.072
-402.238	116.683	0.200	0.243
-401.223	-77.397	-0.352	0.121
-400.209	-149.569	-0.303	0.024
-399.194	-42.811	-0.331	-0.167
-398.179	-68.172	-0.275	-0.106
-397.165	296.770	0.159	-0.290
-396.150	800.000	-0.052	0.196
-395.136	-92.312	0.136	-0.038
-394.121	-12.245	0.187	-0.122
-393.106	111.498	0.102	0.122
-392.092	3.257	0.080	0.057
-391.077	-200.000	-0.017	0.305
-390.063	800.000	-0.053	-0.155
-389.048	-2.301	0.305	-0.212
-388.033	-10.654	-0.209	-0.138
-387.019	182.339	0.087	0.127
-386.004	-122.452	-0.125	0.020
-384.990	-90.162	0.289	0.083
-383.975	800.000	-0.062	-0.193
-382.960	-200.000	-0.004	-0.239
-381.946	783.950	-0.136	-0.371
-380.931	800.000	-0.089	-0.382
-379.917	-2.850	-0.089	-0.062
-378.902	491.764	-0.040	0.091
-377.888	-174.569	-0.243	0.007
-376.873	-80.217	-0.050	-0.017
-375.858	-200.000	-0.012	-0.060
-374.844	-57.254	-0.060	-0.026
-373.829	4.229	-0.272	0.198
-372.815	-200.000	-0.005	0.232
-371.800	-195.963	0.374	-0.003
-370.785	603.194	-0.045	-0.111
-369.771	596.901	0.090	-0.222
-368.756	-145.604	0.249	0.022
-367.742	249.995	0.235	0.395
-366.727	-157.157	0.288	-0.017
-365.712	800.000	-0.058	-0.189
-364.698	34.246	0.141	0.122
-363.683	-200.000	0.043	-0.310
-362.669	-118.680	0.092	0.016
-361.654	11.885	0.072	0.055
-360.639	53.844	0.019	-0.019
-359.625	800.000	-0.019	-0.076
-358.610	-56.206	-0.171	0.075
-357.596	-123.080	-0.237	0.038
-356.581	-92.605	-0.195	-0.054
-355.566	-6.955	0.130	-0.087
-354.552	-59.222	-0.165	0.071
-353.537	187.911	0.130	-0.192
-352.523	-110.896	0.375	0.077
-351.508	-72.712	0.215	0.079
-350.493	219.073	0.024	-0.038
-349.479	-155.686	0.276	0.018
-348.464	58.285	0.153	-0.149
-347.450	216.295	0.167	-0.263
-346.435	394.278	-0.223	-0.461
-345.420	800.000	-0.086	0.306
-344.406	-22.213	-0.263	0.158
-343.391	800.000	0.045	-0.167
-342.377	-200.000	-0.023	-0.103
-341.362	526.935	-0.059	0.137
-340.348	-200.000	0.000	0.433
-339.333	58.176	-0.200	-0.194
-338.318	334.605	-0.010	0.020
-337.304	-111.136	0.146	0.030
-336.289	800.000	0.026	0.113
-335.275	142.932	0.132	0.173
-334.260	-200.000	0.012	-0.130
-333.245	-12.795	0.040	-0.026
-332.231	-128.191	0.141	-0.020
-331.216	734.577	-0.092	-0.244
-330.202	-62.106	0.163	-0.067
-329.187	159.785	0.148	-0.204
-328.172	96.103	0.186	-0.210
-327.158	-200.000	-0.043	-0.200
-326.143	-113.969	0.118	0.023
-325.129	800.000	-0.064	0.209
-324.114	800.000	-0.009	-0.026
-323.099	119.058	0.172	-0.211
-322.085	209.357	-0.059	0.091
-321.070	800.000	0.074	0.264
-320.056	42.560	-0.045	-0.040
-319.041	-120.883	-0.112	0.019
-318.026	516.819	0.053	0.122
-317.012	-200.000	-0.004	-0.044
-315.997	32.523	-0.126	-0.108
-314.983	-83.444	0.107	-0.034
-313.968	413.413	-0.162	-0.342
-312.953	5.875	-0.305	0.224
-311.939	223.059	0.152	-0.242
-310.924	38.601	0.220	0.194
-309.910	183.497	0.181	0.265
-308.895	-9.624	-0.300	-0.198
-307.880	-81.721	-0.324	0.105
-306.866	-75.240	0.436	-0.154
-305.851	72.565	-0.172	-0.177
-304.837	-76.168	0.169	0.059
-303.822	-75.065	0.347	0.123
-302.807	-173.964	0.462	-0.013
-301.793	131.208	0.179	-0.227
-300.778	8.219	0.020	-0.015
-299.764	-200.000	0.309	0.000
-298.749	-200.000	0.023	0.119
-297.735	-135.896	-0.345	0.040
-296.720	-20.466	0.209	0.127
-295.705	-200.000	0.022	-0.119
-294.691	188.134	-0.156	-0.230
-293.676	800.000	-0.069	0.292
-292.662	-156.399	0.283	-0.017
-291.647	-53.888	0.312	0.140
-290.632	298.625	0.084	-0.153
-289.618	143.731	0.081	-0.107
-288.603	-200.000	-0.005	-0.103
-287.589	-200.000	-0.008	0.159
-286.574	-91.438	-0.256	-0.072
-285.559	79.216	0.142	-0.150
-284.545	136.542	-0.099	-0.128
-283.530	52.971	-0.258	-0.244
-282.516	171.809	0.069	0.098
-281.501	168.234	0.081	-0.114
-280.486	143.043	-0.210	-0.276
-279.472	232.057	-0.040	-0.064
-278.457	-138.929	-0.061	0.007
-277.443	316.612	0.081	0.152
-276.428	-37.320	-0.047	0.025
-275.413	120.721	0.010	-0.013
-274.399	-154.514	-0.259	0.017
-273.384	297.510	0.110	0.199
-272.370	-200.000	0.010	0.569
-271.355	-200.000	0.011	0.048
-270.340	-200.000	-0.024	0.137
-269.326	2.256	0.176	0.125
-268.311	-200.000	-0.050	0.266
-267.297	-138.341	0.189	-0.021
-266.282	8.843	0.052	0.038
-265.267	657.450	0.046	-0.116
-264.253	-200.000	0.024	0.278
-263.238	-171.788	-0.096	-0.003
-262.224	-139.009	0.172	0.018
-261.209	787.621	0.061	0.166
-260.195	70.264	0.075	0.076
-259.180	-200.000	-0.034	-0.247
-258.165	-186.904	-0.296	0.004
-257.151	-74.625	0.215	-0.076
-256.136	-101.726	0.165	-0.040
-255.122	-200.000	0.019	0.186
-254.107	-132.490	0.390	0.050
-253.092	-15.380	-0.199	0.126
-252.078	303.736	-0.131	0.239
-251.063	317.276	0.204	0.381
-250.049	13.046	0.188	0.144
-249.034	356.252	0.137	0.269
-248.019	-200.000	0.024	-0.618
-247.005	-144.194	0.415	-0.038
-245.990	47.278	-0.129	-0.119
-244.976	-123.006	-0.270	-0.043
-243.961	-65.835	-0.113	-0.044
-242.946	-200.000	0.043	0.226
-241.932	-32.856	-0.309	0.170
-240.917	20.012	0.376	-0.299
-239.903	83.360	-0.179	0.192
-238.888	-11.024	-0.213	0.139
-237.873	800.000	0.030	0.123
-236.859	-30.502	0.330	0.185
-235.844	298.039	0.118	-0.215
-234.830	13.498	0.162	-0.124
-233.815	-54.640	-0.163	0.073
-232.800	800.000	0.007	0.029
-231.786	-123.874	0.175	-0.027
-230.771	-131.845	0.041	-0.005
-229.757	-200.000	0.004	0.215
-228.742	-54.486	-0.223	0.100
-227.727	242.858	0.152	0.252
-226.713	14.532	-0.070	0.054
-225.698	-7.579	-0.383	-0.256
-224.684	-5.832	-0.211	0.142
-223.669	800.000	0.113	0.487
-222.655	-200.000	0.019	0.255
-221.640	-34.163	-0.332	0.180
-220.625	-200.000	0.006	-0.111
-219.611	800.000	0.037	0.110
-218.596	646.932	0.035	-0.089
-217.582	66.572	-0.136	0.137
-216.567	92.220	0.163	-0.181
-215.552	-200.000	-0.010	0.078
-214.538	71.096	-0.312	0.319
-213.523	-52.874	0.191	0.087
-212.509	295.843	-0.174	0.314
-211.494	-143.041	0.080	-0.008
-210.479	-174.872	0.215	0.006
-209.465	-153.484	0.168	0.011
-208.450	-200.000	-0.015	0.145
-207.436	252.131	0.073	-0.122
-206.421	41.279	0.083	0.074
-205.406	-122.309	0.225	-0.036
-204.392	-47.608	0.225	-0.107
-203.377	261.102	0.116	-0.197
-202.363	-15.905	0.075	-0.047
-201.348	119.870	-0.014	0.018
-200.333	-71.329	-0.111	0.041
-199.319	35.493	0.179	0.155
-198.304	650.548	0.111	-0.281
-197.290	671.094	-0.074	-0.188
-196.275	-71.167	-0.036	-0.013
-195.260	33.941	-0.234	0.201
-194.246	-50.527	0.278	-0.129
-193.231	-101.519	-0.069	-0.016
-192.217	-200.000	0.015	-0.249
-191.202	-200.000	0.051	-0.245
-190.187	18.083	-0.086	-0.067
-189.173	-200.000	0.006	-0.056
-188.158	-50.761	0.133	-0.061
-187.144	-200.000	0.060	-0.306
-186.129	-117.294	0.117	-0.021
-185.114	-169.485	0.183	0.007
-184.100	-122.289	0.253	0.041
-183.085	-34.672	-0.205	-0.110
-182.071	-9.514	0.141	0.092
-181.056	145.399	-0.061	0.080
-180.042	38.653	0.136	0.119
-179.027	-60.533	-0.298	-0.124
-178.012	261.314	-0.024	-0.040
-176.998	-15.349	0.186	-0.117
-175.983	57.046	-0.137	-0.131
-174.969	275.983	-0.024	0.041
-173.954	-133.844	-0.292	0.036
-172.939	89.127	0.094	0.103
-171.925	-171.373	-0.275	-0.009
-170.910	68.206	-0.090	-0.091
-169.896	-95.939	-0.422	0.111
-168.881	-200.000	0.071	-0.309
-167.866	64.073	-0.174	0.172
-166.852	-200.000	0.011	0.160
-165.837	-200.000	-0.012	-0.287
-164.823	-51.773	0.241	0.110
-163.808	52.116	-0.069	0.064
-162.793	313.300	-0.097	-0.179
-161.779	-200.000	-0.033	-0.202
-160.764	-122.575	-0.209	0.033
-159.750	-130.725	0.120	-0.016
-158.735	-137.593	0.202	-0.022
-157.720	180.779	-0.136	0.196
-156.706	208.827	-0.167	-0.257
-155.691	83.411	-0.149	-0.160
-154.677	-58.881	0.186	-0.079
-153.662	-159.771	-0.249	-0.013
-152.647	-200.000	-0.011	0.483
-151.633	-200.000	-0.009	0.053
-150.618	-200.000	0.008	0.148
-149.604	87.918	0.222	-0.242
-148.589	-43.033	-0.147	-0.073
-147.574	-137.939	0.138	-0.015
-146.560	-108.737	-0.183	0.039
-145.545	-135.781	-0.278	0.032
-144.531	105.849	0.049	0.057
-143.516	437.338	0.047	0.100
-142.502	311.125	0.021	0.038
-141.487	-200.000	0.005	-0.207
-140.472	-34.315	0.331	0.178
-139.458	270.257	0.048	0.083
-138.443	-200.000	0.044	0.316
-137.429	-107.128	0.163	-0.035
-136.414	-24.752	-0.128	0.075
-135.399	118.996	-0.226	-0.274
-134.385	14.212	-0.158	0.121
-133.370	-177.393	-0.122	-0.003
-132.356	-200.000	0.004	0.271
-131.341	25.935	0.118	-0.096
-130.326	-200.000	0.014	-0.342
-129.312	-177.127	-0.261	0.006
-128.297	141.331	0.194	0.253
-127.283	-4.459	-0.135	-0.091
-126.268	-84.325	0.161	0.050
-125.253	-154.525	-0.177	0.012
-124.239	125.718	-0.135	0.167
-123.224	-200.000	0.012	0.122
-122.210	794.967	-0.119	0.323
-121.195	-200.000	0.036	-0.181
