DTS Sentinel unit serial number:	SN413079Multiplexer serial number:	ORYXHardware model number:	OX4-SRSoftware version number:	ORYX F/W v4.00 Oryx Data Collector v3.7.2.0data status	okinstallation	princeton_trtdifferential loss correction	single-endedforward channel	channel 1reverse channel	N/Adate	2019/09/12time	18:31:34forward acquisition time	15.00reverse acquisition time	0.00gamma	496.2192k internal	0.2318k external	0.2318temperature offset calibration	1.0102default loss term (dB/km)	0.3790temperature slope calibration	1.0000multiplexer offset coefficient	1.0000multiplexer slope coefficient	1.0000fibre end	0.00T internal ref (°C)	33.25T ext. ref 1 (°C)	2.93T ext. ref 2 (°C)	27.83length (m)	temperature (°C)	Stokes	anti-Stokes-747.200	-148.358	-0.548	-0.046
-746.185	-200.000	0.010	-0.233
-745.171	-6.088	-0.397	-0.274
-744.156	127.322	-0.116	0.148
-743.142	77.721	0.104	-0.112
-742.127	-9.679	-0.690	0.465
-741.112	-49.108	0.094	0.046
-740.098	63.268	0.047	0.047
-739.083	71.920	0.449	0.473
-738.069	431.388	-0.177	0.387
-737.054	-5.158	0.391	0.272
-736.039	15.206	-0.529	-0.420
-735.025	-20.596	-0.077	-0.048
-734.010	800.000	0.215	0.791
-732.996	44.162	-0.297	0.275
-731.981	-34.947	0.441	0.243
-730.966	-200.000	-0.043	0.341
-729.952	-20.322	-0.438	-0.273
-728.937	-68.467	-0.880	-0.345
-727.923	-177.291	0.608	0.015
-726.908	-60.496	-0.339	-0.146
-725.894	-7.972	-0.597	0.407
-724.879	-200.000	-0.050	0.465
-723.864	800.000	0.136	0.542
-722.850	-200.000	-0.112	-0.664
-721.835	81.247	0.643	0.702
-720.821	8.088	-0.797	0.605
-719.806	165.301	-0.174	0.249
-718.791	-10.463	0.320	-0.214
-717.777	-63.465	0.419	-0.174
-716.762	1.798	0.180	0.131
-715.748	670.872	-0.383	1.004
-714.733	100.357	0.608	-0.713
-713.718	-37.937	-0.377	-0.203
-712.704	-149.820	1.189	0.094
-711.689	800.000	0.092	-0.378
-710.675	-8.665	0.489	0.332
-709.660	-22.115	-0.276	0.170
-708.645	97.545	-0.466	0.541
-707.631	-200.000	0.062	-0.650
-706.616	-200.000	-0.028	-0.502
-705.602	195.463	0.390	-0.599
-704.587	-111.818	0.399	-0.082
-703.572	-124.334	0.559	0.088
-702.558	-200.000	0.044	0.405
-701.543	63.924	-0.345	0.350
-700.529	87.924	0.303	0.340
-699.514	179.687	-0.504	-0.745
-698.499	-36.418	0.425	-0.231
-697.485	-200.000	-0.169	-0.774
-696.470	800.000	0.100	0.337
-695.456	-11.393	0.545	-0.363
-694.441	144.242	-0.259	-0.349
-693.426	-29.122	-0.472	-0.273
-692.412	800.000	-0.129	-0.454
-691.397	-83.434	0.174	-0.056
-690.383	-200.000	-0.076	-1.127
-689.368	224.157	-0.461	-0.752
-688.354	-111.783	-0.348	-0.071
-687.339	94.816	-0.205	0.235
-686.324	-200.000	-0.159	0.760
-685.310	-63.747	0.565	-0.234
-684.295	15.475	-0.471	0.373
-683.281	-119.992	0.513	0.089
-682.266	26.877	0.339	-0.287
-681.251	-172.711	-0.141	-0.004
-680.237	53.244	-0.342	0.331
-679.222	22.037	-0.292	-0.241
-678.208	800.000	0.165	0.544
-677.193	122.156	0.456	-0.575
-676.178	800.000	-0.255	-0.980
-675.164	800.000	0.095	-0.364
-674.149	20.690	-0.261	0.213
-673.135	446.105	0.030	-0.065
-672.120	177.765	0.125	-0.184
-671.105	367.001	-0.241	-0.491
-670.091	31.794	-0.732	-0.636
-669.076	-200.000	-0.044	0.194
-668.062	-200.000	0.221	-1.091
-667.047	545.740	0.199	-0.481
-666.032	-33.677	-0.229	-0.127
-665.018	-48.538	-0.436	0.211
-664.003	-55.110	0.184	-0.083
-662.989	-200.000	0.007	0.366
-661.974	-200.000	0.063	0.517
-660.959	-70.750	-0.603	0.229
-659.945	171.618	0.379	0.549
-658.930	213.714	-0.249	0.397
-657.916	-200.000	0.005	-0.455
-656.901	-78.659	0.462	-0.159
-655.886	301.757	0.351	-0.655
-654.872	800.000	-0.083	0.253
-653.857	-200.000	0.063	0.855
-652.843	-58.577	-0.750	0.328
-651.828	323.031	0.092	-0.177
-650.814	-120.130	-0.328	-0.057
-649.799	40.644	0.425	0.386
-648.784	17.133	0.569	0.455
-647.770	291.899	0.182	0.334
-646.755	272.357	0.108	0.191
-645.741	-89.394	-0.449	-0.133
-644.726	-100.035	0.553	-0.139
-643.711	-200.000	0.043	-0.277
-642.697	-101.610	-0.457	-0.112
-641.682	-66.434	0.407	0.163
-640.668	-200.000	0.019	-0.154
-639.653	-95.542	-0.561	-0.152
-638.638	-158.144	0.358	0.021
-637.624	280.091	0.122	0.219
-636.609	83.682	-0.510	-0.560
-635.595	-79.426	-0.303	-0.103
-634.580	-200.000	0.011	-0.187
-633.565	596.131	0.078	0.195
-632.551	564.200	-0.215	0.526
-631.536	22.819	0.099	0.081
-630.522	-160.074	0.919	-0.050
-629.507	-107.170	0.115	0.025
-628.492	-159.215	-0.235	0.013
-627.478	-140.221	0.547	0.058
-626.463	-136.343	-0.728	0.085
-625.449	246.903	0.246	0.418
-624.434	259.466	0.308	-0.535
-623.419	20.954	0.613	-0.500
-622.405	800.000	-0.181	-0.620
-621.390	-200.000	0.042	-0.594
-620.376	-69.482	-0.386	0.149
-619.361	83.783	-0.389	0.428
-618.346	800.000	0.093	0.265
-617.332	-17.300	-0.597	0.379
-616.317	-200.000	-0.030	0.440
-615.303	455.252	0.224	0.500
-614.288	-200.000	0.049	-0.503
-613.273	-154.215	0.361	-0.025
-612.259	676.939	0.270	0.706
-611.244	132.358	-0.242	-0.314
-610.230	-89.894	-0.207	-0.061
-609.215	-139.766	-1.217	0.130
-608.201	59.563	0.227	0.225
-607.186	800.000	0.064	0.210
-606.171	59.051	0.541	-0.536
-605.157	215.779	0.185	0.296
-604.142	-108.002	-0.265	-0.058
-603.128	111.034	-0.351	0.426
-602.113	37.426	-0.212	0.189
-601.098	31.723	0.231	0.200
-600.084	100.156	0.294	-0.343
-599.069	-130.498	-0.377	0.051
-598.055	-137.196	-0.584	0.067
-597.040	91.678	-0.670	0.758
-596.025	-200.000	0.127	0.895
-595.011	463.189	0.472	1.060
-593.996	-153.992	0.727	-0.050
-592.982	800.000	-0.101	0.415
-591.967	413.679	-0.031	0.065
-590.952	-151.712	1.133	-0.084
-589.938	-157.146	-0.749	0.046
-588.923	800.000	0.137	-0.492
-587.909	800.000	-0.132	0.555
-586.894	-11.601	0.513	-0.339
-585.879	-78.615	0.758	0.261
-584.865	-77.793	-0.260	-0.090
-583.850	51.557	0.192	0.184
-582.836	251.932	0.074	-0.127
-581.821	287.657	0.106	-0.193
-580.806	-200.000	0.077	-0.487
-579.792	710.062	-0.231	-0.614
-578.777	-125.662	-0.913	0.139
-577.763	631.572	0.050	0.127
-576.748	304.635	0.293	0.548
-575.733	-200.000	0.001	-0.602
-574.719	-111.819	0.240	-0.049
-573.704	72.472	-0.459	0.481
-572.690	433.231	-0.059	0.129
-571.675	-33.097	0.457	0.255
-570.661	75.697	0.532	0.565
-569.646	-20.969	-0.357	0.220
-568.631	-48.419	0.805	0.389
-567.617	743.962	0.159	-0.430
-566.602	-44.079	0.462	-0.233
-565.588	800.000	0.047	0.159
-564.573	-98.174	-0.833	-0.215
-563.558	-141.454	-0.552	0.056
-562.544	-45.219	0.152	-0.076
-561.529	261.263	-0.259	-0.451
-560.515	326.412	0.531	1.021
-559.500	-148.725	0.319	-0.026
-558.485	32.399	-0.254	0.220
-557.471	-200.000	0.046	-0.287
-556.456	-126.866	0.167	-0.025
-555.442	8.153	-0.409	0.308
-554.427	-127.316	0.598	0.088
-553.412	116.342	-0.521	0.641
-552.398	-98.119	0.759	-0.196
-551.383	385.185	-0.109	-0.225
-550.369	-93.891	-0.384	-0.106
-549.354	39.121	0.380	0.341
-548.339	33.533	-0.622	-0.543
-547.325	258.657	0.296	-0.513
-546.310	-20.421	-0.702	-0.433
-545.296	13.302	-0.844	0.657
-544.281	259.675	0.355	-0.615
-543.266	247.554	0.276	-0.468
-542.252	252.433	0.570	0.976
-541.237	63.712	-0.605	0.610
-540.223	-200.000	-0.056	-0.522
-539.208	-8.430	-0.294	-0.198
-538.193	800.000	0.141	-0.453
-537.179	-200.000	0.007	0.113
-536.164	800.000	-0.045	-0.141
-535.150	-200.000	0.033	-0.512
-534.135	-62.344	-0.499	-0.208
-533.121	800.000	-0.318	-1.073
-532.106	-200.000	-0.163	0.858
-531.091	-9.930	0.354	0.236
-530.077	-200.000	0.021	0.390
-529.062	-61.705	0.891	0.375
-528.048	551.311	-0.305	-0.735
-527.033	-24.023	0.402	0.241
-526.018	800.000	0.079	-0.253
-525.004	800.000	-0.165	-0.519
-523.989	-200.000	-0.144	-1.254
-522.975	8.230	0.369	0.278
-521.960	122.502	0.247	0.310
-520.945	-200.000	0.021	-1.414
-519.931	-200.000	0.062	-0.682
-518.916	-200.000	-0.057	0.322
-517.902	40.753	0.346	0.313
-516.887	16.234	-0.344	0.272
-515.872	-116.567	0.629	0.116
-514.858	-165.771	0.636	0.027
-513.843	-200.000	0.076	0.409
-512.829	24.964	0.081	0.067
-511.814	-56.681	0.437	-0.194
-510.799	120.055	-0.172	0.214
-509.785	800.000	-0.231	-0.738
-508.770	101.481	0.387	-0.452
-507.756	272.407	0.140	-0.247
-506.741	658.330	0.350	0.902
-505.726	-200.000	-0.054	-0.315
-504.712	7.572	-0.379	0.284
-503.697	-14.435	-0.137	0.088
-502.683	-200.000	0.208	-1.024
-501.668	-28.655	-0.106	-0.061
-500.653	-200.000	-0.278	-1.359
-499.639	-200.000	0.067	0.427
-498.624	382.115	0.313	0.646
-497.610	63.643	-0.441	-0.444
-496.595	-38.183	0.809	-0.430
-495.581	-109.201	-0.473	-0.101
-494.566	800.000	-0.061	-0.229
-493.551	-150.673	0.449	-0.034
-492.537	-146.989	-0.892	0.077
-491.522	-109.264	0.191	-0.041
-490.508	-20.053	0.540	0.334
-489.493	15.865	0.254	0.200
-488.478	800.000	-0.309	-0.857
-487.464	-200.000	-0.088	-0.418
-486.449	-67.744	0.181	-0.071
-485.435	-40.608	0.167	-0.087
-484.420	-12.301	-0.154	0.101
-483.405	-165.310	-0.127	0.006
-482.391	-200.000	-0.122	-0.737
-481.376	169.387	-0.175	0.251
-480.362	78.296	0.258	0.276
-479.347	-102.083	0.845	0.204
-478.332	-107.799	-0.701	-0.153
-477.318	13.990	0.637	-0.497
-476.303	-72.683	-0.841	-0.311
-475.289	27.028	0.440	-0.369
-474.274	-200.000	-0.015	-0.203
-473.259	145.380	-0.569	0.762
-472.245	-116.949	-0.444	-0.081
-471.230	-36.606	-0.976	0.526
-470.216	-51.211	-0.934	-0.438
-469.201	-141.256	-0.158	0.016
-468.186	2.066	-0.135	-0.098
-467.172	338.451	-0.080	-0.156
-466.157	-159.034	0.345	-0.020
-465.143	14.853	-0.438	-0.343
-464.128	532.362	-0.114	0.270
-463.113	-164.153	0.104	0.005
-462.099	-10.399	0.486	-0.323
-461.084	-82.484	0.513	-0.167
-460.070	-94.694	-0.242	0.066
-459.055	800.000	0.196	0.744
-458.040	-73.508	-0.408	-0.149
-457.026	167.072	-0.091	0.130
-456.011	-149.614	-0.832	0.066
-454.997	-53.743	0.941	0.430
-453.982	106.994	-0.381	0.453
-452.968	-106.495	-0.453	-0.101
-451.953	-27.524	0.872	0.507
-450.938	762.605	-0.090	-0.244
-449.924	-42.162	-0.488	0.250
-448.909	173.490	-0.151	0.217
-447.895	15.854	-0.129	0.102
-446.880	141.130	-0.421	-0.557
-445.865	-33.358	-1.096	-0.606
-444.851	304.907	-0.177	0.328
-443.836	43.357	0.168	0.154
-442.822	3.757	0.469	-0.342
-441.807	226.335	0.268	0.435
-440.792	-200.000	-0.023	0.166
-439.778	-121.319	0.424	0.071
-438.763	19.634	0.689	0.555
-437.749	-70.965	0.676	-0.254
-436.734	-69.167	-0.816	0.314
-435.719	-124.898	0.529	-0.082
-434.705	-24.948	-0.291	-0.173
-433.690	-200.000	0.106	-0.468
-432.676	-52.611	0.748	-0.345
-431.661	185.636	-0.355	0.527
-430.646	800.000	0.252	0.928
-429.632	-31.574	-0.748	-0.420
-428.617	109.791	0.294	-0.352
-427.603	-200.000	0.030	0.624
-426.588	347.783	-0.061	0.120
-425.573	230.727	0.256	0.419
-424.559	-91.452	-0.475	0.136
-423.544	-63.869	0.890	0.364
-422.530	445.186	0.202	-0.443
-421.515	12.519	-0.187	-0.144
-420.500	-72.432	0.474	-0.175
-419.486	51.699	-0.466	-0.443
-418.471	109.869	-0.492	0.590
-417.457	-112.522	-0.461	-0.092
-416.442	-26.274	0.171	-0.100
-415.428	-62.987	-0.276	-0.114
-414.413	-140.819	-0.841	0.087
-413.398	-102.440	0.175	0.042
-412.384	-122.001	0.504	0.083
-411.369	800.000	-0.130	0.467
-410.355	-200.000	-0.009	-0.364
-409.340	-55.009	-0.617	0.278
-408.325	-200.000	0.056	-0.253
-407.311	-91.500	-0.786	-0.224
-406.296	-139.306	1.476	0.159
-405.282	-98.387	-0.907	-0.232
-404.267	21.770	0.368	0.300
-403.252	-70.339	-0.214	-0.081
-402.238	800.000	-0.166	0.475
-401.223	-17.624	0.333	0.209
-400.209	-123.665	0.675	0.107
-399.194	245.207	-0.531	0.892
-398.179	197.708	-0.205	-0.312
-397.165	-31.583	0.274	0.154
-396.150	-73.219	-0.153	0.056
-395.136	-162.850	1.357	0.066
-394.121	-13.729	0.357	-0.231
-393.106	123.836	0.223	-0.280
-392.092	332.829	0.141	-0.272
-391.077	-18.688	0.642	0.400
-390.063	-113.904	-0.362	-0.070
-389.048	800.000	-0.141	-0.466
-388.033	-64.711	-0.583	-0.236
-387.019	-90.092	0.718	0.209
-386.004	-78.642	0.248	0.085
-384.990	11.585	-0.095	-0.072
-383.975	-44.142	0.266	-0.133
-382.960	-68.764	-0.518	0.200
-381.946	103.579	0.398	-0.466
-380.931	-159.167	0.360	0.020
-379.917	-145.364	-0.393	-0.035
-378.902	320.541	0.144	0.272
-377.888	800.000	-0.045	0.193
-376.873	67.697	0.207	-0.211
-375.858	315.003	-0.226	0.424
-374.844	-142.525	-0.481	-0.047
-373.829	-200.000	0.047	0.246
-372.815	800.000	-0.215	-0.841
-371.800	-200.000	0.022	0.620
-370.785	-1.347	-0.457	-0.322
-369.771	-110.764	0.643	0.132
-368.756	-39.073	0.416	-0.218
-367.742	130.632	0.601	0.768
-366.727	-200.000	-0.065	-0.512
-365.712	-40.232	0.118	0.061
-364.698	-51.460	0.902	-0.420
-363.683	-74.951	-0.603	-0.215
-362.669	69.115	0.211	0.216
-361.654	-152.146	-0.630	0.046
-360.639	-34.507	0.555	0.303
-359.625	-90.877	-0.574	0.165
-358.610	55.929	0.122	0.118
-357.596	-200.000	-0.001	-0.180
-356.581	-94.146	0.581	0.159
-355.566	800.000	-0.184	-0.703
-354.552	-51.969	0.299	-0.138
-353.537	-121.745	-0.497	-0.082
-352.523	-200.000	-0.195	-1.155
-351.508	63.949	-0.531	0.532
-350.493	-99.900	1.176	0.293
-349.479	800.000	-0.185	0.627
-348.464	-134.143	0.734	0.090
-347.450	-200.000	0.031	-0.557
-346.435	-96.868	-0.802	0.210
-345.420	455.440	-0.333	-0.735
-344.406	45.976	0.381	-0.351
-343.391	76.938	0.112	0.118
-342.377	214.687	-0.551	0.870
-341.362	71.163	-0.662	-0.684
-340.348	48.843	0.481	-0.450
-339.333	-22.849	0.860	-0.517
-338.318	67.664	0.417	-0.424
-337.304	542.720	-0.347	0.825
-336.289	-119.279	0.358	0.062
-335.275	475.006	-0.221	-0.497
-334.260	-200.000	-0.055	-0.257
-333.245	-200.000	-0.015	-0.299
-332.231	-152.807	0.615	-0.043
-331.216	-98.765	-0.506	0.128
-330.202	53.087	-0.255	-0.244
-329.187	-106.829	0.053	-0.012
-328.172	-90.162	-0.487	-0.141
-327.158	-200.000	-0.198	0.947
-326.143	384.160	0.379	0.776
-325.129	-63.786	-0.327	-0.133
-324.114	-163.079	-0.465	-0.022
-323.099	51.757	0.707	0.669
-322.085	-60.199	0.692	0.293
-321.070	-200.000	0.030	0.707
-320.056	-200.000	0.014	-0.080
-319.041	-165.432	1.085	0.047
-318.026	-17.510	-0.521	0.326
-317.012	-200.000	0.192	-1.027
-315.997	257.356	0.087	0.150
-314.983	-127.144	-0.835	-0.122
-313.968	-38.934	-0.796	-0.417
-312.953	-200.000	-0.008	0.520
-311.939	-153.404	-0.316	-0.022
-310.924	-54.039	1.100	0.498
-309.910	152.746	0.548	0.745
-308.895	-92.441	1.318	-0.369
-307.880	-129.651	0.527	0.072
-306.866	-200.000	-0.094	-0.638
-305.851	-200.000	0.007	-0.719
-304.837	-6.311	-0.266	0.181
-303.822	-200.000	0.232	1.119
-302.807	-65.311	-0.179	0.072
-301.793	-35.972	-0.577	0.311
-300.778	27.806	-0.317	-0.266
-299.764	-147.198	-0.128	-0.011
-298.749	-18.446	-0.396	0.246
-297.735	-200.000	0.015	0.138
-296.720	8.004	0.495	0.369
-295.705	-82.113	-0.604	0.196
-294.691	800.000	-0.154	-0.603
-293.676	-45.468	0.169	0.083
-292.662	-76.316	-0.813	0.285
-291.647	-200.000	-0.013	0.112
-290.632	44.627	0.509	-0.466
-289.618	-95.092	0.621	0.167
-288.603	-40.300	-0.452	0.234
-287.589	14.813	-0.715	-0.556
-286.574	-200.000	-0.093	0.429
-285.559	-200.000	0.144	0.667
-284.545	177.013	-0.507	0.734
-283.530	571.059	0.338	0.817
-282.516	800.000	0.157	-0.603
-281.501	-42.934	0.120	-0.061
-280.486	800.000	-0.052	-0.201
-279.472	554.484	-0.158	-0.378
-278.457	305.175	-0.376	-0.694
-277.443	-17.533	-0.388	0.242
-276.428	72.480	0.289	0.299
-275.413	171.082	-0.168	0.239
-274.399	710.930	0.306	0.805
-273.384	-200.000	0.025	0.122
-272.370	-195.961	0.939	0.007
-271.355	264.516	-0.060	0.103
-270.340	-38.030	-0.346	-0.182
-269.326	154.243	0.724	-0.986
-268.311	-36.294	0.757	0.406
-267.297	-200.000	0.086	-0.682
-266.282	59.232	-0.404	0.395
-265.267	-142.589	-0.682	0.066
-264.253	142.986	-0.099	-0.131
-263.238	16.740	0.268	-0.211
-262.224	-6.811	0.407	0.275
-261.209	-200.000	-0.003	0.099
-260.195	228.191	0.157	-0.253
-259.180	-45.591	-0.889	-0.437
-258.165	385.329	-0.153	0.313
-257.151	0.703	-0.167	-0.119
-256.136	-50.916	0.697	0.325
-255.122	-200.000	0.003	-0.264
-254.107	-200.000	0.022	0.149
-253.092	-60.600	-0.405	-0.171
-252.078	-200.000	-0.033	0.398
-251.063	-0.719	-0.469	-0.330
-250.049	-66.938	-0.431	-0.169
-249.034	664.125	0.324	-0.831
-248.019	-71.949	0.403	-0.149
-247.005	-130.795	-0.942	0.125
-245.990	27.859	0.423	0.353
-244.976	800.000	0.237	-0.650
-243.961	-53.445	-0.523	-0.238
-242.946	-200.000	-0.068	0.570
-241.932	-98.405	-0.604	-0.153
-240.917	281.341	0.330	0.586
-239.903	61.035	0.030	0.029
-238.888	-18.622	0.201	0.125
-237.873	288.887	0.186	-0.335
-236.859	-100.110	-0.278	0.069
-235.844	-200.000	-0.035	-0.296
-234.830	-200.000	0.070	-0.714
-233.815	34.524	-0.237	-0.206
-232.800	-66.029	0.731	0.289
-231.786	156.706	-0.578	-0.792
-230.771	25.332	-0.304	0.250
-229.757	800.000	-0.301	0.898
-228.742	49.854	-0.218	0.204
-227.727	-200.000	-0.054	-0.341
-226.713	-84.581	0.159	0.050
-225.698	-40.936	0.663	0.340
-224.684	800.000	0.195	-0.583
-223.669	-54.718	0.466	-0.209
-222.655	-200.000	0.155	0.686
-221.640	-151.828	0.559	0.041
-220.625	-104.537	-0.327	0.075
-219.611	-6.113	-0.456	-0.309
-218.596	196.147	0.381	0.575
-217.582	-90.433	-0.846	-0.243
-216.567	-200.000	0.150	-1.068
-215.552	8.219	-0.699	-0.521
-214.538	800.000	0.124	-0.365
-213.523	800.000	-0.036	-0.133
-212.509	-200.000	0.120	0.887
-211.494	7.999	0.391	0.291
-210.479	800.000	-0.188	-0.699
-209.465	800.000	-0.349	-0.973
-208.450	540.722	-0.294	0.693
-207.436	220.960	-0.022	-0.036
-206.421	-200.000	-0.126	0.663
-205.406	-138.309	-0.364	0.040
-204.392	-200.000	-0.608	-0.001
-203.377	-36.145	-0.564	0.302
-202.363	-130.865	0.552	-0.073
-201.348	-84.368	-0.878	-0.275
-200.333	-108.193	0.223	-0.048
-199.319	157.523	-0.933	-1.280
-198.304	117.507	-0.290	0.354
-197.290	-126.510	-0.870	-0.128
-196.275	-77.156	-0.787	-0.272
-195.260	105.970	0.494	-0.579
-194.246	-54.008	-0.221	0.100
-193.231	128.137	-0.138	0.174
-192.217	-200.000	0.021	0.246
-191.202	800.000	-0.315	-0.876
-190.187	28.431	-0.482	-0.404
-189.173	-142.641	-0.730	-0.071
-188.158	135.605	-0.567	0.730
-187.144	-132.797	0.516	-0.065
-186.129	-75.745	0.782	-0.275
-185.114	-200.000	0.043	-0.940
-184.100	-51.354	-0.786	0.364
-183.085	349.824	-0.404	0.791
-182.071	800.000	-0.230	0.725
-181.056	-22.661	-0.197	0.118
-180.042	-200.000	0.062	-0.289
-179.027	80.847	0.091	-0.097
-178.012	47.486	0.076	-0.070
-176.998	-12.405	-0.276	0.179
-175.983	113.925	0.409	-0.492
-174.969	-72.861	0.770	0.280
-173.954	138.051	-0.067	-0.087
-172.939	-125.940	0.661	-0.099
-171.925	800.000	0.058	0.217
-170.910	-116.761	-0.663	0.120
-169.896	122.346	0.429	-0.530
-168.881	272.760	-0.158	-0.275
-167.866	-84.367	0.388	-0.121
-166.852	-116.970	-0.467	0.084
-165.837	173.945	0.494	0.706
-164.823	176.563	0.416	-0.598
-163.808	-200.000	-0.062	0.438
-162.793	421.122	-0.243	0.516
-161.779	-200.000	0.034	-0.440
-160.764	800.000	-0.202	-0.582
-159.750	-200.000	0.147	0.975
-158.735	2.121	0.172	-0.123
-157.720	-200.000	0.113	0.708
-156.706	61.686	0.634	0.624
-155.691	-88.161	0.913	0.270
-154.677	-200.000	-0.006	-0.323
-153.662	272.618	0.499	-0.870
-152.647	685.733	-0.148	0.382
-151.633	-31.557	-0.269	0.149
-150.618	134.094	0.372	-0.477
-149.604	-108.750	-0.541	-0.114
-148.589	-154.986	0.337	-0.022
-147.574	292.246	-0.538	-0.968
-146.560	154.832	-0.168	-0.228
-145.545	197.561	0.350	0.528
-144.531	-200.000	0.041	-0.467
-143.516	51.762	-0.403	-0.379
-142.502	356.452	-0.609	1.198
-141.487	-200.000	-0.064	-0.331
-140.472	-200.000	0.024	-0.333
-139.458	-200.000	-0.049	0.400
-138.443	800.000	0.187	0.636
-137.429	305.008	0.409	0.751
-136.414	-165.187	1.148	0.050
-135.399	-200.000	0.099	0.558
-134.385	436.924	-0.275	0.592
-133.370	-62.913	-0.670	-0.274
-132.356	188.030	0.156	-0.230
-131.341	2.176	0.259	-0.185
-130.326	478.864	0.367	0.822
-129.312	-13.537	0.545	0.349
-128.297	-200.000	0.031	0.412
-127.283	23.772	-0.042	-0.034
-126.268	-103.118	0.341	-0.080
-125.253	21.162	0.302	0.242
-124.239	195.139	0.471	-0.707
-123.224	-200.000	-0.011	0.093
-122.210	800.000	-0.427	-1.179
-121.195	-192.989	0.691	-0.006
