DTS Sentinel unit serial number:	SN413079Multiplexer serial number:	ORYXHardware model number:	OX4-SRSoftware version number:	ORYX F/W v4.00 Oryx Data Collector v3.7.2.0data status	okinstallation	princeton_trtdifferential loss correction	single-endedforward channel	channel 1reverse channel	N/Adate	2019/09/17time	11:38:35forward acquisition time	60.00reverse acquisition time	0.00gamma	496.2192k internal	0.2323k external	0.2323temperature offset calibration	0.9974default loss term (dB/km)	0.3790temperature slope calibration	1.0000multiplexer offset coefficient	1.0000multiplexer slope coefficient	1.0000fibre end	0.00T internal ref (°C)	30.81T ext. ref 1 (°C)	0.38T ext. ref 2 (°C)	26.61length (m)	temperature (°C)	Stokes	anti-Stokes-747.200	800.000	0.003	-0.011
-746.185	-35.618	0.263	0.144
-745.171	256.621	-0.077	-0.134
-744.156	-1.161	0.164	-0.117
-743.142	-67.111	0.319	0.127
-742.127	800.000	0.064	0.251
-741.112	-200.000	-0.001	-0.490
-740.098	-200.000	0.025	-0.122
-739.083	-22.123	0.314	0.193
-738.069	-123.899	-0.331	0.053
-737.054	46.527	0.203	0.190
-736.039	-138.225	-0.468	0.052
-735.025	42.278	-0.194	0.178
-734.010	-33.745	-0.218	0.121
-732.996	800.000	-0.068	-0.197
-731.981	-200.000	-0.008	-0.305
-730.966	-15.673	0.259	-0.167
-729.952	-14.323	-0.265	-0.172
-728.937	603.702	0.087	-0.220
-727.923	800.000	0.057	-0.180
-726.908	539.645	-0.104	-0.250
-725.894	800.000	-0.081	-0.313
-724.879	-32.152	-0.182	-0.103
-723.864	-81.790	-0.473	-0.156
-722.850	-23.655	0.023	-0.014
-721.835	800.000	0.086	0.259
-720.821	355.491	0.082	-0.165
-719.806	800.000	0.068	-0.249
-718.791	-85.707	0.244	0.076
-717.777	19.230	0.132	0.107
-716.762	127.992	0.202	-0.260
-715.748	96.668	0.109	0.126
-714.733	314.235	0.161	-0.307
-713.718	241.881	0.072	-0.121
-712.704	-13.956	-0.110	-0.072
-711.689	-31.279	-0.224	0.127
-710.675	-190.371	-0.336	-0.004
-709.660	28.513	0.127	-0.108
-708.645	151.974	0.117	-0.161
-707.631	-106.867	0.135	0.030
-706.616	-200.000	-0.003	0.079
-705.602	383.176	-0.028	0.058
-704.587	-200.000	-0.006	-0.078
-703.572	398.122	-0.062	0.132
-702.558	-200.000	-0.033	-0.241
-701.543	-118.368	0.102	-0.018
-700.529	466.292	-0.118	-0.267
-699.514	133.318	-0.123	-0.161
-698.499	68.064	0.227	-0.234
-697.485	40.155	0.225	-0.204
-696.470	227.560	-0.129	0.212
-695.456	58.863	0.145	0.144
-694.441	104.688	0.263	-0.312
-693.426	-92.029	-0.524	0.150
-692.412	234.278	-0.077	-0.128
-691.397	800.000	0.025	-0.104
-690.383	697.965	0.101	-0.267
-689.368	-24.490	-0.163	-0.098
-688.354	176.982	0.099	-0.146
-687.339	-200.000	0.028	-0.187
-686.324	-85.334	-0.222	-0.070
-685.310	-152.993	-0.183	0.013
-684.295	-117.837	0.303	0.055
-683.281	-200.000	0.262	-0.000
-682.266	303.932	0.027	-0.050
-681.251	14.090	0.180	-0.142
-680.237	6.948	-0.289	-0.217
-679.222	-200.000	0.017	-0.202
-678.208	28.926	-0.143	-0.122
-677.193	28.015	0.138	0.117
-676.178	-200.000	-0.020	0.155
-675.164	-200.000	-0.005	-0.257
-674.149	-50.055	0.256	0.122
-673.135	800.000	-0.052	-0.152
-672.120	-200.000	-0.018	0.150
-671.105	-200.000	0.037	-0.201
-670.091	-58.032	-0.106	-0.047
-669.076	-52.159	-0.196	0.092
-668.062	-200.000	0.007	-0.122
-667.047	800.000	0.099	-0.317
-666.032	-123.380	-0.071	0.011
-665.018	115.752	0.110	-0.136
-664.003	-101.452	0.065	-0.016
-662.989	50.595	-0.051	-0.048
-661.974	-14.283	-0.272	-0.177
-660.959	-146.097	-0.280	-0.025
-659.945	365.183	0.051	-0.104
-658.930	21.073	-0.183	-0.150
-657.916	671.997	-0.103	-0.269
-656.901	-92.405	0.217	0.062
-655.886	-142.098	0.241	0.024
-654.872	153.000	-0.065	-0.090
-653.857	-200.000	-0.032	-0.198
-652.843	165.028	0.147	-0.210
-651.828	176.806	-0.074	0.108
-650.814	172.447	0.228	0.330
-649.799	61.255	0.234	-0.234
-648.784	-200.000	0.012	-0.069
-647.770	800.000	0.010	0.039
-646.755	13.460	-0.234	-0.182
-645.741	-200.000	-0.022	0.147
-644.726	269.472	-0.012	0.021
-643.711	24.921	0.263	0.219
-642.697	800.000	0.043	-0.149
-641.682	14.723	0.144	-0.113
-640.668	-76.001	-0.115	0.041
-639.653	-16.508	0.067	-0.043
-638.638	-124.362	0.230	0.036
-637.624	-200.000	-0.027	0.281
-636.609	-200.000	0.038	-0.278
-635.595	-27.546	0.191	0.112
-634.580	-200.000	0.006	0.126
-633.565	-200.000	-0.016	-0.408
-632.551	-199.141	-0.316	0.002
-631.536	-54.239	-0.108	-0.049
-630.522	-79.267	-0.184	0.063
-629.507	-122.911	-0.334	0.054
-628.492	420.254	-0.126	-0.271
-627.478	-128.656	0.151	-0.022
-626.463	-118.937	-0.156	-0.028
-625.449	101.895	0.067	0.078
-624.434	170.823	-0.149	0.214
-623.419	-76.036	0.515	-0.183
-622.405	-144.943	-0.368	-0.034
-621.390	-200.000	-0.055	-0.274
-620.376	-200.000	0.029	-0.178
-619.361	800.000	-0.092	0.264
-618.346	-200.000	-0.070	0.375
-617.332	247.131	-0.057	-0.096
-616.317	-136.507	0.283	0.033
-615.303	798.415	-0.182	-0.506
-614.288	-114.437	0.199	-0.038
-613.273	-73.418	-0.093	-0.034
-612.259	407.370	0.107	0.227
-611.244	52.765	-0.239	0.230
-610.230	-200.000	-0.090	-0.522
-609.215	-200.000	-0.012	-0.087
-608.201	742.086	-0.009	0.025
-607.186	75.903	0.133	-0.141
-606.171	126.889	-0.111	0.142
-605.157	-167.250	0.183	0.007
-604.142	-47.826	0.168	-0.082
-603.128	62.918	-0.176	0.177
-602.113	-121.960	-0.188	0.031
-601.098	-116.116	0.124	-0.023
-600.084	-128.016	0.070	0.010
-599.069	243.962	-0.092	-0.156
-598.055	39.825	0.105	0.095
-597.040	101.737	0.229	0.268
-596.025	-54.067	-0.311	0.142
-595.011	58.756	0.346	-0.342
-593.996	512.320	-0.076	0.178
-592.982	53.672	0.128	0.124
-591.967	-176.846	-0.230	0.006
-590.952	219.632	-0.114	-0.182
-589.938	-200.000	0.077	-0.425
-588.923	-169.718	-0.204	-0.007
-587.909	-173.500	-0.056	0.002
-586.894	-27.936	-0.153	-0.089
-585.879	189.560	0.164	0.247
-584.865	714.979	-0.136	0.362
-583.850	-50.744	0.339	0.160
-582.836	-134.603	0.241	0.030
-581.821	-200.000	-0.070	-0.369
-580.806	64.973	0.161	-0.164
-579.792	800.000	-0.012	0.042
-578.777	-0.561	-0.230	0.164
-577.763	800.000	-0.056	-0.169
-576.748	-190.835	-0.126	-0.001
-575.733	19.356	-0.049	-0.040
-574.719	30.397	-0.142	0.122
-573.704	-8.113	0.163	0.110
-572.690	-14.473	0.227	-0.146
-571.675	148.159	-0.197	-0.266
-570.661	24.701	-0.317	-0.263
-569.646	81.638	-0.120	-0.130
-568.631	-34.179	0.244	0.135
-567.617	-133.403	-0.231	0.029
-566.602	74.711	-0.253	0.267
-565.588	800.000	-0.051	0.218
-564.573	50.716	0.139	0.132
-563.558	24.051	0.491	-0.407
-562.544	129.697	-0.142	0.182
-561.529	-49.640	0.112	-0.053
-560.515	52.540	0.026	-0.024
-559.500	-200.000	0.016	0.160
-558.485	213.007	-0.148	-0.234
-557.471	643.032	0.052	0.133
-556.456	800.000	0.032	-0.124
-555.442	-86.882	0.216	0.066
-554.427	283.508	0.172	0.309
-553.412	-63.928	0.302	0.124
-552.398	-60.057	-0.015	-0.007
-551.383	-144.094	0.189	-0.018
-550.369	-34.643	0.191	-0.105
-549.354	31.644	0.158	-0.136
-548.339	79.810	-0.101	0.109
-547.325	-200.000	-0.037	0.289
-546.310	576.978	-0.085	-0.208
-545.296	-13.074	0.213	-0.139
-544.281	-38.490	0.305	-0.161
-543.266	-24.702	-0.053	-0.032
-542.252	60.307	-0.134	-0.133
-541.237	513.671	-0.055	0.129
-540.223	-0.229	-0.307	-0.219
-539.208	-48.941	0.098	0.047
-538.193	-200.000	-0.047	0.327
-537.179	0.760	-0.323	0.232
-536.164	274.893	-0.023	-0.042
-535.150	184.982	0.106	0.158
-534.135	111.946	0.143	-0.173
-533.121	-200.000	-0.043	0.214
-532.106	237.537	0.109	-0.181
-531.091	-38.225	-0.162	0.086
-530.077	-66.076	-0.188	-0.075
-529.062	-200.000	0.031	-0.330
-528.048	-109.210	-0.097	0.021
-527.033	-51.151	0.137	-0.064
-526.018	585.414	0.032	-0.079
-525.004	-82.845	0.129	-0.042
-523.989	32.033	0.223	0.192
-522.975	-114.887	0.179	-0.034
-521.960	-36.119	-0.381	-0.206
-520.945	-200.000	-0.032	0.250
-519.931	117.379	0.086	-0.106
-518.916	354.544	0.060	-0.120
-517.902	637.197	0.111	0.283
-516.887	-89.207	-0.168	0.050
-515.872	-17.327	-0.107	0.068
-514.858	-82.195	0.124	-0.040
-513.843	-132.664	0.286	0.037
-512.829	129.984	0.248	-0.318
-511.814	-50.121	-0.048	-0.023
-510.799	-81.679	-0.377	0.124
-509.785	-200.000	0.045	0.236
-508.770	-200.000	-0.014	-0.130
-507.756	-29.930	-0.169	-0.096
-506.741	-188.691	0.356	-0.004
-505.726	190.957	0.191	-0.287
-504.712	47.759	0.270	-0.252
-503.697	-68.797	-0.181	0.070
-502.683	-94.415	-0.125	0.034
-501.668	800.000	0.113	-0.363
-500.653	-94.480	-0.208	0.057
-499.639	-58.251	-0.406	-0.177
-498.624	800.000	-0.054	-0.185
-497.610	-200.000	-0.020	-0.206
-496.595	555.989	-0.101	0.242
-495.581	-21.028	-0.212	0.130
-494.566	-94.599	0.315	-0.086
-493.551	79.804	-0.151	0.162
-492.537	-62.774	-0.073	-0.030
-491.522	-52.106	0.293	-0.136
-490.508	163.545	0.032	0.045
-489.493	-94.234	-0.496	0.136
-488.478	187.504	-0.178	0.266
-487.464	-200.000	0.015	-0.105
-486.449	-58.828	0.436	0.189
-485.435	-63.427	-0.137	-0.056
-484.420	-78.385	-0.078	-0.027
-483.405	159.175	-0.130	-0.181
-482.391	-129.159	-0.143	-0.020
-481.376	-134.526	0.299	0.037
-480.362	559.534	-0.004	-0.009
-479.347	92.424	-0.108	-0.121
-478.332	-57.337	-0.164	-0.072
-477.318	-152.846	-0.073	-0.005
-476.303	-83.773	-0.133	0.042
-475.289	-200.000	-0.007	-0.233
-474.274	512.774	0.227	0.529
-473.259	-139.943	-0.122	-0.013
-472.245	-200.000	0.011	0.065
-471.230	18.938	0.195	0.156
-470.216	-107.549	0.220	0.048
-469.201	-54.719	-0.157	0.071
-468.186	36.017	0.314	0.276
-467.172	-200.000	-0.005	-0.317
-466.157	-56.940	0.137	0.060
-465.143	445.877	0.148	-0.324
-464.128	313.992	0.047	0.089
-463.113	-102.096	0.431	0.104
-462.099	800.000	0.075	0.303
-461.084	117.221	0.287	-0.353
-460.070	14.671	-0.235	-0.183
-459.055	34.253	0.150	0.131
-458.040	-97.945	-0.127	0.033
-457.026	800.000	0.038	0.151
-456.011	-146.352	0.303	0.027
-454.997	-100.915	-0.079	-0.019
-453.982	-139.682	-0.357	-0.038
-452.968	-162.548	-0.389	-0.019
-451.953	-152.944	0.178	0.013
-450.938	-89.030	-0.265	0.078
-449.924	-171.020	0.370	-0.013
-448.909	-66.770	0.014	0.006
-447.895	233.370	-0.089	0.146
-446.880	-106.156	0.060	0.014
-445.865	632.743	0.062	-0.156
-444.851	-111.935	0.457	0.092
-443.836	-21.025	-0.270	-0.165
-442.822	157.290	-0.079	0.109
-441.807	-153.523	-0.210	-0.014
-440.792	-134.012	0.060	-0.007
-439.778	10.943	-0.188	0.143
-438.763	30.355	0.310	0.265
-437.749	127.954	0.104	0.132
-436.734	-103.429	-0.181	0.043
-435.719	-200.000	-0.055	-0.323
-434.705	26.640	-0.140	-0.117
-433.690	86.188	-0.112	0.123
-432.676	-86.194	-0.243	0.075
-431.661	689.598	0.089	0.233
-430.646	-148.895	-0.280	0.023
-429.632	12.440	-0.219	0.168
-428.617	800.000	0.030	-0.129
-427.603	170.977	-0.204	-0.291
-426.588	-58.326	0.115	-0.050
-425.573	148.782	-0.115	-0.156
-424.559	-58.525	0.367	0.159
-423.544	-113.494	-0.140	-0.027
-422.530	800.000	0.045	0.124
-421.515	800.000	-0.051	-0.160
-420.500	109.583	-0.123	-0.148
-419.486	165.329	-0.104	-0.146
-418.471	703.259	-0.106	0.279
-417.457	298.836	0.078	-0.144
-416.442	-143.930	-0.161	0.015
-415.428	-200.000	-0.031	0.305
-414.413	-200.000	0.006	-0.212
-413.398	-2.381	-0.146	-0.102
-412.384	-74.616	0.394	0.142
-411.369	-118.055	-0.302	0.054
-410.355	800.000	0.045	0.180
-409.340	-91.976	-0.113	0.032
-408.325	-200.000	0.023	-0.292
-407.311	-15.237	-0.161	0.103
-406.296	202.653	-0.208	-0.320
-405.282	800.000	0.098	0.340
-404.267	106.860	-0.152	-0.180
-403.252	-157.968	-0.072	0.004
-402.238	132.376	-0.151	-0.194
-401.223	29.575	0.044	-0.037
-400.209	77.285	0.129	0.137
-399.194	214.291	-0.133	-0.210
-398.179	-200.000	0.000	0.010
-397.165	-66.123	-0.107	-0.042
-396.150	-29.265	0.258	0.147
-395.136	136.183	-0.181	-0.235
-394.121	-138.159	0.226	-0.025
-393.106	-9.249	0.257	0.171
-392.092	287.889	-0.057	0.103
-391.077	800.000	0.161	0.483
-390.063	605.441	-0.204	-0.506
-389.048	-81.520	0.153	-0.050
-388.033	-83.072	-0.222	0.071
-387.019	159.328	0.086	0.119
-386.004	800.000	0.045	0.150
-384.990	57.916	-0.036	-0.035
-383.975	-9.769	-0.261	-0.173
-382.960	800.000	0.039	-0.129
-381.946	520.943	-0.142	-0.332
-380.931	-200.000	0.012	-0.127
-379.917	-35.374	0.043	-0.023
-378.902	1.845	-0.060	-0.043
-377.888	737.528	0.040	-0.107
-376.873	-120.876	-0.060	-0.010
-375.858	800.000	0.030	0.103
-374.844	554.558	0.088	-0.210
-373.829	-200.000	-0.065	0.522
-372.815	800.000	-0.098	0.396
-371.800	144.562	0.197	0.262
-370.785	-31.479	-0.078	0.043
-369.771	-200.000	0.031	0.223
-368.756	-6.508	0.287	-0.195
-367.742	-59.125	0.273	-0.117
-366.727	88.461	-0.050	-0.056
-365.712	-200.000	0.011	0.157
-364.698	-51.361	-0.411	-0.191
-363.683	-200.000	-0.027	0.376
-362.669	-96.898	-0.225	0.059
-361.654	-114.963	0.107	-0.020
-360.639	-54.421	-0.065	0.029
-359.625	252.979	-0.174	0.295
-358.610	-145.989	0.056	0.005
-357.596	181.924	-0.066	0.097
-356.581	800.000	-0.074	-0.256
-355.566	-133.248	-0.176	0.022
-354.552	112.163	0.142	0.171
-353.537	248.672	0.099	0.167
-352.523	27.658	-0.323	-0.271
-351.508	-60.902	0.143	-0.060
-350.493	321.745	0.120	0.228
-349.479	135.415	-0.239	-0.309
-348.464	-81.229	-0.329	-0.108
-347.450	-200.000	0.048	0.223
-346.435	112.908	0.056	0.067
-345.420	237.017	0.157	-0.258
-344.406	279.624	0.156	0.276
-343.391	-200.000	-0.030	-0.161
-342.377	39.676	-0.310	-0.277
-341.362	800.000	-0.083	-0.309
-340.348	-87.463	-0.121	0.036
-339.333	-43.436	0.283	-0.142
-338.318	-97.051	-0.209	-0.054
-337.304	224.437	0.033	-0.054
-336.289	244.942	-0.299	-0.499
-335.275	292.403	0.102	-0.185
-334.260	-145.072	0.048	-0.004
-333.245	-130.151	0.255	-0.035
-332.231	53.783	0.146	0.140
-331.216	800.000	0.025	0.097
-330.202	800.000	-0.076	-0.267
-329.187	-44.827	0.053	0.026
-328.172	252.046	-0.107	0.181
-327.158	294.551	-0.060	0.109
-326.143	-34.003	-0.263	0.144
-325.129	184.085	-0.066	0.097
-324.114	-178.931	0.182	0.004
-323.099	90.432	-0.165	0.183
-322.085	-87.190	-0.276	0.083
-321.070	239.860	0.117	-0.193
-320.056	-67.238	0.347	0.136
-319.041	141.057	0.188	-0.247
-318.026	-113.097	0.191	-0.037
-317.012	517.292	0.014	0.031
-315.997	48.966	-0.036	0.033
-314.983	-200.000	-0.002	0.085
-313.968	-53.291	0.289	0.132
-312.953	-200.000	-0.009	0.237
-311.939	-200.000	0.005	0.084
-310.924	532.463	0.048	0.112
-309.910	694.674	-0.116	0.302
-308.895	-55.673	0.401	0.178
-307.880	50.085	-0.249	0.233
-306.866	-1.550	-0.163	0.114
-305.851	800.000	0.076	-0.256
-304.837	-19.415	0.146	-0.090
-303.822	257.652	0.153	0.262
-302.807	-92.381	0.291	-0.081
-301.793	-148.974	0.142	0.011
-300.778	341.467	-0.122	0.237
-299.764	136.788	0.145	-0.188
-298.749	-100.660	-0.310	0.076
-297.735	102.424	-0.056	-0.065
-296.720	-180.469	-0.238	-0.005
-295.705	775.005	0.103	-0.278
-294.691	79.131	0.178	-0.189
-293.676	-88.017	-0.044	-0.013
-292.662	161.734	0.138	0.192
-291.647	194.520	-0.189	-0.284
-290.632	764.308	0.123	0.331
-289.618	-99.054	-0.218	0.055
-288.603	95.738	-0.165	-0.187
-287.589	-30.445	-0.088	0.050
-286.574	-122.420	-0.249	-0.040
-285.559	800.000	-0.011	0.033
-284.545	110.289	-0.072	-0.086
-283.530	-93.477	0.125	0.034
-282.516	800.000	-0.050	0.161
-281.501	-90.126	0.367	0.106
-280.486	-18.740	-0.203	0.125
-279.472	-145.611	0.083	0.007
-278.457	-5.638	-0.226	-0.154
-277.443	63.062	0.391	-0.388
-276.428	-200.000	0.031	0.271
-275.413	264.630	0.095	-0.164
-274.399	282.036	-0.168	-0.299
-273.384	177.657	-0.111	0.160
-272.370	293.225	-0.009	0.016
-271.355	-111.522	-0.104	0.021
-270.340	-181.213	-0.370	-0.007
-269.326	327.214	0.122	0.231
-268.311	-200.000	0.066	0.395
-267.297	-174.728	0.257	-0.007
-266.282	171.742	-0.060	-0.085
-265.267	-160.624	0.493	0.026
-264.253	-131.523	-0.300	0.039
-263.238	-133.464	0.422	0.052
-262.224	-28.030	-0.083	0.048
-261.209	-133.198	-0.144	0.018
-260.195	238.299	-0.123	-0.202
-259.180	-200.000	0.008	0.062
-258.165	71.134	-0.288	-0.296
-257.151	800.000	-0.115	-0.380
-256.136	190.365	0.218	-0.324
-255.122	-200.000	0.074	0.353
-254.107	800.000	-0.125	0.394
-253.092	-114.119	-0.179	0.034
-252.078	-200.000	-0.007	0.301
-251.063	280.223	0.035	0.062
-250.049	-200.000	-0.009	0.227
-249.034	-65.385	0.130	-0.052
-248.019	233.448	-0.081	0.132
-247.005	-200.000	-0.017	0.343
-245.990	-162.650	0.342	0.017
-244.976	197.586	-0.084	0.127
-243.961	190.194	-0.042	-0.062
-242.946	-103.728	0.196	-0.046
-241.932	-29.129	-0.203	0.115
-240.917	-200.000	-0.043	-0.260
-239.903	368.234	-0.136	-0.272
-238.888	-98.653	0.025	-0.006
-237.873	-46.669	-0.187	0.091
-236.859	-83.146	-0.344	-0.110
-235.844	-52.319	0.370	-0.170
-234.830	-150.920	-0.231	-0.017
-233.815	37.988	-0.141	-0.124
-232.800	47.629	0.219	-0.202
-231.786	26.773	-0.101	0.083
-230.771	800.000	0.096	-0.331
-229.757	-200.000	0.031	0.226
-228.742	321.244	-0.040	-0.075
-227.727	-73.228	0.367	-0.133
-226.713	305.530	-0.077	-0.141
-225.698	-116.868	0.202	-0.037
-224.684	21.852	-0.209	0.168
-223.669	756.406	-0.027	-0.072
-222.655	9.883	0.135	0.102
-221.640	-162.680	0.232	-0.011
-220.625	182.327	0.102	-0.149
-219.611	-200.000	-0.028	0.165
-218.596	-50.468	-0.302	-0.141
-217.582	800.000	-0.061	0.232
-216.567	800.000	0.045	0.128
-215.552	82.756	-0.291	0.313
-214.538	-138.152	0.185	-0.020
-213.523	-102.948	-0.234	0.055
-212.509	-200.000	-0.003	0.258
-211.494	-200.000	0.044	0.288
-210.479	-132.295	0.203	-0.026
-209.465	320.473	0.090	-0.169
-208.450	260.467	-0.120	-0.206
-207.436	-129.755	-0.181	0.025
-206.421	32.074	0.162	-0.138
-205.406	-200.000	0.016	-0.081
-204.392	-200.000	-0.003	-0.023
-203.377	-102.730	0.112	-0.026
-202.363	-51.881	-0.204	0.094
-201.348	-20.360	0.288	-0.175
-200.333	616.946	-0.106	0.263
-199.319	69.307	0.309	0.314
-198.304	-31.477	0.109	-0.060
-197.290	-200.000	-0.004	-0.018
-196.275	-5.939	-0.242	-0.164
-195.260	-200.000	0.008	0.257
-194.246	-105.984	0.393	-0.087
-193.231	725.338	0.033	0.087
-192.217	320.944	0.164	0.308
-191.202	172.294	-0.223	0.318
-190.187	-117.138	0.193	0.035
-189.173	425.146	-0.058	-0.122
-188.158	-174.045	0.525	-0.015
-187.144	800.000	-0.060	0.241
-186.129	-30.718	0.126	0.071
-185.114	98.472	-0.171	0.195
-184.100	90.105	-0.071	0.078
-183.085	-200.000	-0.092	-0.430
-182.071	800.000	0.032	-0.131
-181.056	-200.000	0.020	-0.240
-180.042	201.176	-0.155	0.235
-179.027	-200.000	-0.010	0.199
-178.012	454.069	0.110	0.240
-176.998	135.360	0.153	-0.196
-175.983	145.230	0.073	0.097
-174.969	98.777	0.085	0.097
-173.954	-120.997	-0.184	-0.031
-172.939	-145.410	0.282	-0.025
-171.925	-200.000	0.005	-0.201
-170.910	57.003	0.204	-0.196
-169.896	-22.661	-0.126	-0.075
-168.881	-200.000	0.005	-0.162
-167.866	-41.666	-0.230	0.116
-166.852	14.366	-0.097	0.075
-165.837	8.791	0.138	0.103
-164.823	-51.247	-0.236	-0.109
-163.808	397.403	-0.133	-0.274
-162.793	-132.768	0.149	-0.019
-161.779	-52.120	-0.259	0.119
-160.764	1.543	-0.175	-0.124
-159.750	-47.505	-0.247	0.119
-158.735	0.679	0.187	0.132
-157.720	-200.000	0.005	-0.338
-156.706	-9.040	0.503	-0.333
-155.691	-132.999	-0.254	-0.032
-154.677	-200.000	-0.012	0.306
-153.662	-100.001	0.424	-0.104
-152.647	455.537	-0.046	0.101
-151.633	126.362	0.281	-0.350
-150.618	-7.876	-0.176	0.117
-149.604	9.233	0.146	0.109
-148.589	21.860	0.165	0.133
-147.574	800.000	0.077	-0.253
-146.560	502.442	-0.104	-0.238
-145.545	800.000	-0.130	-0.424
-144.531	707.559	0.095	-0.249
-143.516	-53.717	-0.170	-0.077
-142.502	-127.075	0.186	0.027
-141.487	-73.011	-0.233	-0.084
-140.472	-114.647	0.396	0.075
-139.458	61.802	0.235	-0.231
-138.443	7.235	0.205	0.151
-137.429	-200.000	-0.072	0.335
-136.414	-200.000	-0.018	0.148
-135.399	-122.054	-0.312	0.051
-134.385	800.000	-0.112	-0.411
-133.370	-112.533	0.334	0.066
-132.356	-92.192	0.235	0.065
-131.341	425.591	-0.082	-0.174
-130.326	31.945	-0.032	-0.027
-129.312	1.454	-0.300	0.213
-128.297	377.619	-0.102	-0.206
-127.283	739.288	-0.053	0.139
-126.268	-24.506	-0.044	0.026
-125.253	162.480	0.060	0.083
-124.239	-73.221	0.434	-0.157
-123.224	-171.558	0.311	-0.010
-122.210	-200.000	-0.017	0.164
