DTS Sentinel unit serial number:	SN413079Multiplexer serial number:	ORYXHardware model number:	OX4-SRSoftware version number:	ORYX F/W v4.00 Oryx Data Collector v3.7.2.0data status	okinstallation	princeton_trtdifferential loss correction	single-endedforward channel	channel 1reverse channel	N/Adate	2019/09/17time	06:54:35forward acquisition time	60.00reverse acquisition time	0.00gamma	496.2192k internal	0.2330k external	0.2330temperature offset calibration	0.9969default loss term (dB/km)	0.3790temperature slope calibration	1.0000multiplexer offset coefficient	1.0000multiplexer slope coefficient	1.0000fibre end	0.00T internal ref (°C)	27.62T ext. ref 1 (°C)	0.12T ext. ref 2 (°C)	21.00length (m)	temperature (°C)	Stokes	anti-Stokes-747.200	35.264	0.170	-0.150
-746.185	-1.454	-0.097	0.069
-745.171	12.643	0.302	0.234
-744.156	38.346	-0.145	-0.130
-743.142	-43.837	-0.102	0.052
-742.127	-54.040	-0.151	0.069
-741.112	800.000	-0.105	0.379
-740.098	-54.547	-0.230	0.105
-739.083	-123.470	0.162	-0.026
-738.069	-5.585	-0.050	0.034
-737.054	619.260	0.142	-0.359
-736.039	-120.162	0.101	0.017
-735.025	800.000	0.023	0.095
-734.010	-200.000	-0.063	-0.362
-732.996	-200.000	-0.016	-0.317
-731.981	800.000	0.050	-0.209
-730.966	1.513	-0.353	0.255
-729.952	170.214	0.156	-0.224
-728.937	753.204	-0.098	-0.267
-727.923	80.146	0.089	-0.096
-726.908	58.096	-0.218	-0.215
-725.894	182.426	-0.199	0.295
-724.879	-3.962	0.149	-0.104
-723.864	-126.384	-0.238	0.036
-722.850	392.277	0.129	-0.270
-721.835	-109.802	-0.121	0.026
-720.821	246.967	0.085	0.144
-719.806	161.256	-0.094	0.132
-718.791	9.713	-0.153	0.117
-717.777	-84.487	0.198	0.063
-716.762	153.861	-0.169	-0.233
-715.748	71.911	0.060	0.063
-714.733	41.830	0.139	0.126
-713.718	800.000	-0.096	-0.356
-712.704	-103.541	0.093	-0.022
-711.689	185.012	-0.180	-0.269
-710.675	800.000	0.072	-0.210
-709.660	103.380	0.042	-0.049
-708.645	800.000	-0.027	0.116
-707.631	-53.022	-0.250	0.116
-706.616	575.123	-0.056	-0.137
-705.602	-200.000	0.130	-0.651
-704.587	-116.373	-0.244	0.045
-703.572	-124.843	0.155	0.024
-702.558	-13.955	0.203	0.132
-701.543	-199.429	0.263	-0.001
-700.529	-94.949	0.076	-0.021
-699.514	-13.684	-0.093	-0.061
-698.499	133.390	0.150	-0.195
-697.485	800.000	0.056	0.233
-696.470	-200.000	-0.013	0.294
-695.456	228.589	-0.144	-0.237
-694.441	4.585	0.105	0.078
-693.426	15.663	-0.157	-0.124
-692.412	-85.176	-0.184	-0.058
-691.397	342.555	-0.120	-0.236
-690.383	128.412	-0.250	-0.320
-689.368	163.933	0.090	-0.127
-688.354	625.491	-0.025	-0.065
-687.339	-37.569	-0.159	-0.085
-686.324	689.184	-0.030	-0.079
-685.310	703.391	-0.173	-0.458
-684.295	-200.000	-0.015	0.086
-683.281	343.040	0.146	0.287
-682.266	800.000	0.055	0.169
-681.251	-65.784	-0.189	-0.076
-680.237	-200.000	0.037	-0.343
-679.222	-200.000	-0.030	0.141
-678.208	-88.576	-0.301	0.090
-677.193	57.200	-0.205	-0.201
-676.178	-200.000	0.010	0.057
-675.164	30.471	-0.175	-0.150
-674.149	-18.582	0.089	-0.056
-673.135	23.552	0.210	0.174
-672.120	-200.000	0.023	-0.401
-671.105	800.000	-0.041	-0.128
-670.091	63.467	0.223	-0.225
-669.076	581.749	-0.004	-0.010
-668.062	34.436	0.084	0.074
-667.047	-200.000	-0.007	0.080
-666.032	800.000	0.055	0.172
-665.018	-146.594	-0.166	-0.014
-664.003	-148.198	0.359	-0.030
-662.989	51.659	0.231	-0.220
-661.974	-200.000	0.052	0.323
-660.959	-45.356	0.381	0.189
-659.945	43.656	-0.076	-0.070
-658.930	800.000	-0.074	0.321
-657.916	165.971	-0.056	-0.080
-656.901	-62.800	0.030	-0.013
-655.886	-47.303	0.070	0.034
-654.872	-200.000	-0.013	-0.285
-653.857	124.097	0.120	-0.152
-652.843	379.072	-0.148	-0.303
-651.828	-200.000	-0.007	-0.060
-650.814	800.000	-0.079	-0.282
-649.799	-200.000	-0.032	-0.467
-648.784	156.834	-0.070	-0.097
-647.770	28.230	0.151	-0.128
-646.755	-200.000	-0.007	-0.160
-645.741	-25.531	0.066	-0.039
-644.726	-200.000	-0.003	-0.204
-643.711	512.956	-0.133	0.311
-642.697	525.916	0.123	-0.291
-641.682	800.000	0.098	-0.341
-640.668	-200.000	0.081	-0.397
-639.653	-200.000	0.004	-0.028
-638.638	16.490	0.148	-0.117
-637.624	35.503	-0.115	0.102
-636.609	-200.000	-0.016	-0.146
-635.595	-115.135	0.253	0.048
-634.580	26.963	0.191	0.160
-633.565	79.086	-0.233	0.250
-632.551	120.124	0.146	-0.182
-631.536	-200.000	-0.033	0.217
-630.522	405.958	0.039	-0.083
-629.507	-79.445	-0.253	0.086
-628.492	-139.482	0.322	-0.035
-627.478	-200.000	-0.014	-0.221
-626.463	644.147	0.085	0.217
-625.449	-80.353	-0.271	-0.091
-624.434	-43.134	-0.107	0.054
-623.419	-22.324	-0.100	0.061
-622.405	627.121	-0.085	0.214
-621.390	-1.059	-0.087	0.062
-620.376	25.748	-0.075	-0.063
-619.361	-102.211	0.114	0.027
-618.346	-41.205	-0.209	-0.108
-617.332	-62.660	-0.349	-0.145
-616.317	-146.266	-0.372	-0.033
-615.303	-51.307	0.288	0.135
-614.288	-131.900	0.367	0.048
-613.273	-76.577	0.041	-0.014
-612.259	-103.819	0.233	-0.055
-611.244	-200.000	-0.055	0.306
-610.230	-27.918	0.352	-0.204
-609.215	-63.555	-0.155	-0.064
-608.201	168.939	0.203	0.290
-607.186	-17.283	0.054	0.034
-606.171	-70.031	-0.132	0.050
-605.157	96.235	-0.101	0.116
-604.142	-181.965	-0.271	0.005
-603.128	436.685	-0.129	-0.280
-602.113	800.000	-0.101	-0.330
-601.098	-9.658	-0.096	0.064
-600.084	-200.000	-0.006	0.156
-599.069	226.499	-0.164	-0.266
-598.055	-200.000	0.031	0.143
-597.040	-200.000	0.232	-0.001
-596.025	-76.452	0.378	0.133
-595.011	130.517	0.039	0.050
-593.996	140.202	-0.033	-0.044
-592.982	-200.000	0.023	-0.187
-591.967	-177.426	-0.213	-0.005
-590.952	-22.820	0.074	-0.045
-589.938	15.530	0.262	0.206
-588.923	12.655	-0.189	0.146
-587.909	-11.298	0.038	0.025
-586.894	21.627	-0.025	-0.020
-585.879	-118.554	-0.380	-0.067
-584.865	412.056	-0.115	0.245
-583.850	79.934	-0.127	0.137
-582.836	-66.814	-0.127	-0.050
-581.821	-118.853	0.218	0.038
-580.806	266.602	-0.127	-0.222
-579.792	800.000	-0.071	-0.237
-578.777	-200.000	-0.017	0.229
-577.763	-44.417	0.047	0.023
-576.748	800.000	0.082	-0.255
-575.733	72.701	0.138	0.144
-574.719	71.465	-0.142	0.148
-573.704	73.682	-0.338	0.355
-572.690	252.525	0.159	-0.272
-571.675	-200.000	0.011	0.064
-570.661	45.991	0.134	0.124
-569.646	-39.618	0.021	-0.011
-568.631	800.000	-0.068	-0.240
-567.617	100.548	-0.149	-0.173
-566.602	-50.563	-0.051	0.024
-565.588	184.115	0.185	0.274
-564.573	-102.267	0.124	0.030
-563.558	-40.199	0.262	0.136
-562.544	0.095	0.127	0.091
-561.529	800.000	0.021	-0.088
-560.515	132.927	0.030	0.039
-559.500	149.497	-0.073	0.099
-558.485	537.086	0.065	0.154
-557.471	-200.000	0.012	-0.085
-556.456	-200.000	0.027	0.197
-555.442	181.177	-0.169	0.249
-554.427	-62.728	-0.083	-0.035
-553.412	-200.000	-0.021	-0.396
-552.398	-200.000	0.023	-0.160
-551.383	-163.765	-0.204	-0.010
-550.369	667.126	0.033	-0.087
-549.354	139.464	0.147	0.194
-548.339	800.000	0.133	0.395
-547.325	395.836	0.052	0.109
-546.310	-200.000	-0.001	0.113
-545.296	52.943	0.231	-0.221
-544.281	800.000	0.078	-0.232
-543.266	-200.000	-0.004	0.119
-542.252	-200.000	0.015	-0.143
-541.237	204.529	-0.100	-0.156
-540.223	180.024	0.113	-0.166
-539.208	-35.633	0.269	0.146
-538.193	-152.311	-0.345	-0.025
-537.179	-130.824	-0.293	-0.039
-536.164	-200.000	0.037	0.250
-535.150	-167.885	0.364	-0.014
-534.135	-200.000	0.052	-0.284
-533.121	-135.566	-0.032	-0.004
-532.106	-200.000	-0.020	-0.138
-531.091	-200.000	-0.021	-0.200
-530.077	116.803	0.047	0.058
-529.062	-83.453	0.282	-0.090
-528.048	-118.581	-0.156	0.028
-527.033	92.282	-0.214	-0.241
-526.018	-64.704	-0.256	-0.103
-525.004	-110.230	0.128	0.027
-523.989	113.649	-0.171	0.207
-522.975	-13.882	-0.247	-0.160
-521.960	-37.267	-0.376	0.201
-520.945	-89.164	-0.253	0.075
-519.931	6.913	0.106	-0.079
-518.916	26.701	-0.052	-0.044
-517.902	-132.323	0.346	-0.045
-516.887	116.721	0.128	-0.157
-515.872	800.000	-0.024	0.083
-514.858	-46.491	-0.121	0.059
-513.843	-30.637	0.068	0.038
-512.829	83.811	-0.401	-0.437
-511.814	687.852	-0.040	0.104
-510.799	-200.000	0.008	0.248
-509.785	-92.308	-0.431	0.121
-508.770	-200.000	-0.004	-0.062
-507.756	-82.800	0.158	-0.051
-506.741	-89.596	-0.203	0.059
-505.726	287.176	0.181	-0.327
-504.712	-146.947	0.177	-0.015
-503.697	-200.000	0.011	-0.083
-502.683	-42.429	-0.438	-0.223
-501.668	-105.881	0.416	0.093
-500.653	-200.000	-0.052	-0.226
-499.639	800.000	0.067	0.188
-498.624	-200.000	-0.004	0.143
-497.610	-200.000	-0.042	-0.236
-496.595	-165.035	-0.245	-0.011
-495.581	-90.901	0.076	0.022
-494.566	668.857	-0.027	-0.069
-493.551	-83.056	-0.109	-0.035
-492.537	631.667	0.136	0.342
-491.522	-114.048	-0.188	-0.036
-490.508	-66.132	0.395	-0.157
-489.493	323.556	-0.108	0.206
-488.478	800.000	-0.017	0.052
-487.464	289.165	0.203	0.367
-486.449	-66.141	0.198	0.079
-485.435	-185.420	-0.218	0.003
-484.420	785.076	0.050	-0.137
-483.405	85.854	0.088	-0.096
-482.391	-48.487	-0.324	-0.155
-481.376	800.000	0.071	-0.210
-480.362	586.008	0.080	-0.196
-479.347	-200.000	-0.002	-0.145
-478.332	399.039	-0.103	-0.214
-477.318	800.000	-0.028	-0.112
-476.303	-135.621	-0.395	-0.047
-475.289	-95.708	0.041	0.011
-474.274	-99.864	0.325	-0.081
-473.259	34.749	-0.302	-0.263
-472.245	623.467	0.106	-0.265
-471.230	-200.000	-0.002	-0.059
-470.216	-11.398	-0.122	0.080
-469.201	-38.325	0.199	-0.105
-468.186	800.000	-0.035	-0.113
-467.172	-200.000	0.051	-0.352
-466.157	59.484	0.103	-0.101
-465.143	-37.328	0.165	0.088
-464.128	-160.007	-0.401	0.022
-463.113	-38.996	0.114	0.060
-462.099	618.111	-0.110	-0.275
-461.084	-21.327	-0.179	0.109
-460.070	210.330	0.078	-0.123
-459.055	66.385	0.162	0.164
-458.040	215.536	-0.121	-0.191
-457.026	-70.943	-0.149	0.056
-456.011	-134.641	0.458	-0.056
-454.997	-4.681	-0.198	-0.136
-453.982	-70.007	0.026	-0.010
-452.968	800.000	0.008	0.028
-451.953	-200.000	-0.037	-0.312
-450.938	-105.443	0.299	0.068
-449.924	-88.871	0.130	-0.038
-448.909	72.050	0.045	0.047
-447.895	800.000	-0.059	0.201
-446.880	-200.000	0.018	-0.322
-445.865	-200.000	0.003	0.126
-444.851	-111.066	0.253	0.052
-443.836	800.000	-0.045	0.143
-442.822	104.969	-0.070	0.082
-441.807	-41.231	-0.189	-0.097
-440.792	-17.066	-0.030	0.019
-439.778	-195.691	0.324	0.002
-438.763	83.089	0.176	-0.191
-437.749	273.978	-0.247	0.436
-436.734	328.404	-0.127	0.243
-435.719	10.520	-0.179	-0.136
-434.705	-117.550	0.214	-0.038
-433.690	-170.140	0.066	0.002
-432.676	117.052	0.101	-0.124
-431.661	93.969	0.120	-0.135
-430.646	428.184	-0.179	0.385
-429.632	-84.686	0.167	-0.052
-428.617	-24.035	0.129	-0.077
-427.603	-150.821	0.092	0.007
-426.588	232.320	0.166	-0.271
-425.573	-80.615	-0.353	0.117
-424.559	-200.000	-0.044	0.492
-423.544	-200.000	0.025	-0.227
-422.530	206.049	0.181	-0.281
-421.515	-134.741	0.091	0.011
-420.500	-14.977	-0.132	0.084
-419.486	5.780	0.109	0.080
-418.471	-61.002	0.089	0.037
-417.457	65.159	-0.098	-0.099
-416.442	9.307	0.036	-0.027
-415.428	-64.805	-0.246	0.099
-414.413	-99.935	0.274	0.068
-413.398	296.314	0.121	0.221
-412.384	12.515	-0.132	0.101
-411.369	-61.241	0.224	0.094
-410.355	-166.700	-0.193	0.008
-409.340	12.487	-0.075	0.058
-408.325	-141.764	-0.220	0.022
-407.311	5.464	0.222	-0.163
-406.296	57.408	0.186	0.181
-405.282	-5.162	-0.029	-0.020
-404.267	-200.000	0.015	0.096
-403.252	-137.414	0.371	0.042
-402.238	-1.685	-0.184	-0.128
-401.223	103.193	0.175	-0.203
-400.209	-177.700	-0.145	0.003
-399.194	-112.714	-0.221	0.044
-398.179	56.237	-0.156	-0.151
-397.165	-21.633	-0.363	0.220
-396.150	-7.984	-0.248	0.166
-395.136	135.914	0.278	0.360
-394.121	186.621	0.070	0.104
-393.106	330.149	-0.018	-0.035
-392.092	48.936	-0.055	0.051
-391.077	-153.877	0.343	0.023
-390.063	-102.943	0.232	0.055
-389.048	60.079	0.029	-0.028
-388.033	409.173	-0.046	-0.096
-387.019	-157.538	0.096	-0.006
-386.004	-61.157	0.148	-0.062
-384.990	-148.457	0.143	-0.012
-383.975	-69.010	-0.501	0.192
-382.960	-39.059	-0.222	-0.116
-381.946	88.669	-0.098	-0.108
-380.931	-200.000	0.007	-0.289
-379.917	230.998	-0.178	0.290
-378.902	800.000	-0.092	0.360
-377.888	800.000	-0.078	0.225
-376.873	65.150	-0.212	0.213
-375.858	-106.911	-0.113	-0.025
-374.844	64.152	-0.173	0.173
-373.829	81.310	0.123	0.132
-372.815	664.755	-0.097	0.248
-371.800	-119.416	0.104	-0.018
-370.785	-43.147	-0.251	0.126
-369.771	-200.000	0.024	-0.108
-368.756	-150.647	0.334	-0.025
-367.742	-143.701	-0.009	0.001
-366.727	11.728	-0.428	0.326
-365.712	-52.476	0.350	-0.161
-364.698	37.412	0.022	-0.019
-363.683	578.788	-0.126	0.306
-362.669	-100.360	-0.246	0.060
-361.654	-103.697	0.202	-0.047
-360.639	800.000	0.073	-0.237
-359.625	-100.945	-0.088	-0.021
-358.610	800.000	0.010	0.039
-357.596	490.773	0.049	0.110
-356.581	-132.703	-0.089	-0.011
-355.566	197.489	0.075	0.114
-354.552	80.277	-0.174	0.185
-353.537	156.397	0.084	0.115
-352.523	-200.000	0.023	-0.250
-351.508	157.574	-0.057	-0.079
-350.493	64.289	0.112	0.111
-349.479	194.248	0.034	0.051
-348.464	800.000	0.051	0.190
-347.450	-200.000	0.013	-0.270
-346.435	-97.610	0.320	0.082
-345.420	91.415	0.048	0.054
-344.406	800.000	-0.083	0.239
-343.391	800.000	-0.060	0.248
-342.377	33.146	-0.095	-0.082
-341.362	51.793	0.194	0.183
-340.348	0.985	0.191	0.135
-339.333	-120.114	-0.233	-0.039
-338.318	-86.416	-0.312	-0.095
-337.304	-153.794	-0.119	-0.008
-336.289	-144.390	0.458	0.042
-335.275	-200.000	-0.021	-0.366
-334.260	-86.519	-0.093	0.028
-333.245	-111.768	0.328	-0.066
-332.231	63.182	-0.079	-0.079
-331.216	154.678	-0.085	-0.116
-330.202	-144.714	0.278	0.025
-329.187	-98.093	0.497	-0.127
-328.172	304.078	-0.062	-0.114
-327.158	92.703	-0.277	-0.309
-326.143	-163.936	-0.226	-0.010
-325.129	-80.679	-0.306	-0.101
-324.114	-12.117	-0.268	-0.174
-323.099	-200.000	0.028	-0.191
-322.085	-1.142	0.334	0.234
-321.070	-26.609	-0.354	0.205
-320.056	186.987	0.152	-0.224
-319.041	-200.000	0.027	-0.167
-318.026	-76.497	-0.365	-0.127
-317.012	-126.986	-0.177	0.026
-315.997	-200.000	0.011	0.195
-314.983	215.597	0.093	0.147
-313.968	-200.000	0.050	-0.286
-312.953	-200.000	-0.002	0.026
-311.939	-121.747	-0.577	-0.094
-310.924	-21.853	0.074	-0.045
-309.910	-153.987	0.393	-0.026
-308.895	-200.000	-0.017	-0.250
-307.880	482.836	0.090	0.203
-306.866	545.698	-0.093	0.221
-305.851	-129.644	0.177	0.024
-304.837	800.000	0.015	0.053
-303.822	-72.885	0.042	0.015
-302.807	92.054	-0.157	-0.175
-301.793	800.000	0.008	0.021
-300.778	159.928	-0.047	-0.064
-299.764	-200.000	-0.004	-0.054
-298.749	280.924	-0.079	-0.140
-297.735	-52.079	0.215	0.099
-296.720	-160.611	0.165	0.009
-295.705	257.992	-0.149	-0.254
-294.691	800.000	-0.035	-0.143
-293.676	-0.703	0.215	-0.151
-292.662	-71.413	-0.235	-0.087
-291.647	11.962	0.133	-0.101
-290.632	-160.883	0.605	-0.032
-289.618	800.000	-0.080	-0.257
-288.603	-123.967	-0.081	0.013
-287.589	-82.285	-0.118	-0.038
-286.574	-200.000	0.019	0.174
-285.559	-170.082	0.138	0.005
-284.545	-28.813	-0.229	0.130
-283.530	800.000	0.091	-0.319
-282.516	80.139	0.147	0.156
-281.501	-23.513	-0.237	0.141
-280.486	-50.861	0.143	0.066
-279.472	-25.898	0.264	0.154
-278.457	60.389	0.272	0.266
-277.443	5.995	0.491	0.360
-276.428	-39.776	-0.150	-0.077
-275.413	199.068	-0.041	0.061
-274.399	-31.224	-0.239	0.133
-273.384	553.380	0.052	0.123
-272.370	-65.717	-0.306	-0.121
-271.355	-68.075	0.204	0.079
-270.340	39.256	0.224	0.198
-269.326	-23.543	-0.231	0.137
-268.311	-51.198	0.154	0.071
-267.297	-102.700	-0.183	-0.043
-266.282	-16.052	0.146	0.092
-265.267	-178.288	-0.485	0.011
-264.253	-200.000	0.020	0.132
-263.238	800.000	-0.004	0.011
-262.224	-150.893	0.315	0.024
-261.209	-106.048	-0.244	0.054
-260.195	723.906	-0.099	0.261
-259.180	437.912	-0.111	-0.238
-258.165	-77.793	0.315	-0.107
-257.151	800.000	-0.031	-0.101
-256.136	800.000	-0.116	-0.321
-255.122	491.840	0.239	0.541
-254.107	-109.438	-0.259	-0.054
-253.092	-117.177	-0.115	-0.021
-252.078	51.483	-0.186	-0.174
-251.063	696.791	0.129	0.334
-250.049	5.665	0.284	-0.208
-249.034	-90.810	-0.083	-0.024
-248.019	40.077	0.357	0.317
-247.005	-92.375	-0.135	-0.038
-245.990	-92.518	-0.329	-0.091
-244.976	800.000	-0.080	-0.294
-243.961	-200.000	-0.010	-0.151
-242.946	117.383	0.094	0.114
-241.932	103.166	0.180	0.209
-240.917	-200.000	-0.011	-0.333
-239.903	-8.225	-0.219	0.145
-238.888	-200.000	0.029	0.180
-237.873	-68.073	-0.222	0.085
-236.859	-124.489	-0.106	0.016
-235.844	6.660	0.103	0.076
-234.830	-200.000	-0.119	0.518
-233.815	4.596	-0.135	0.098
-232.800	800.000	-0.070	0.263
-231.786	128.722	0.138	-0.173
-230.771	-200.000	0.021	0.200
-229.757	81.878	0.211	0.226
-228.742	-58.338	0.221	-0.095
-227.727	-30.681	-0.356	-0.199
-226.713	-98.844	0.285	0.071
-225.698	40.842	0.360	-0.320
-224.684	385.485	0.164	0.334
-223.669	370.145	0.092	0.184
-222.655	-133.915	-0.334	-0.041
-221.640	68.002	-0.314	0.317
-220.625	-23.649	0.219	-0.129
-219.611	-52.688	0.118	-0.054
-218.596	180.436	-0.168	0.243
-217.582	-200.000	0.010	0.121
-216.567	231.293	0.135	0.219
-215.552	46.932	-0.023	0.021
-214.538	131.982	0.301	-0.382
-213.523	800.000	0.034	-0.120
-212.509	83.218	-0.045	0.049
-211.494	190.579	0.080	-0.119
-210.479	-35.411	0.284	0.152
-209.465	55.142	0.042	0.040
-208.450	20.987	-0.080	0.064
-207.436	-200.000	-0.015	-0.277
-206.421	-129.254	-0.411	0.056
-205.406	9.886	0.049	-0.037
-204.392	-200.000	0.029	0.157
-203.377	-200.000	0.009	-0.184
-202.363	321.644	-0.059	0.111
-201.348	9.186	0.119	-0.089
-200.333	-33.678	-0.400	-0.218
-199.319	-150.834	0.208	-0.016
-198.304	-20.264	0.101	0.061
-197.290	-200.000	-0.027	0.221
-196.275	-58.354	0.288	0.123
-195.260	53.229	0.043	0.040
-194.246	172.238	-0.317	-0.449
-193.231	628.863	-0.076	-0.188
-192.217	-195.490	0.478	-0.003
-191.202	198.284	0.249	-0.375
-190.187	-119.907	0.400	0.068
-189.173	108.393	-0.142	-0.167
-188.158	-157.912	-0.026	-0.002
-187.144	-200.000	0.009	0.135
-186.129	-200.000	0.026	0.148
-185.114	15.374	-0.211	-0.163
-184.100	226.978	0.174	0.279
-183.085	800.000	-0.063	-0.229
-182.071	800.000	0.075	-0.217
-181.056	42.057	0.138	0.123
-180.042	-200.000	-0.003	-0.033
-179.027	551.844	0.171	-0.404
-178.012	-200.000	-0.046	-0.209
-176.998	-82.555	-0.240	-0.077
-175.983	273.167	0.110	-0.191
-174.969	434.666	-0.136	0.291
-173.954	-74.295	-0.114	-0.041
-172.939	800.000	-0.087	0.257
-171.925	170.454	0.170	-0.240
-170.910	-200.000	0.076	0.431
-169.896	800.000	-0.030	0.101
-168.881	351.124	0.168	-0.327
-167.866	89.355	-0.191	0.210
-166.852	800.000	-0.072	0.202
-165.837	800.000	0.075	0.204
-164.823	167.682	0.133	0.186
-163.808	-153.320	0.224	-0.015
-162.793	-60.817	0.153	-0.064
-161.779	-83.284	-0.244	-0.077
-160.764	-76.588	0.161	-0.055
-159.750	-140.497	-0.384	-0.039
-158.735	-53.618	0.195	0.088
-157.720	-53.848	-0.333	0.149
-156.706	45.112	0.083	0.075
-155.691	-103.632	-0.288	0.066
-154.677	800.000	-0.028	-0.097
-153.662	-200.000	-0.011	-0.274
-152.647	41.561	-0.255	0.227
-151.633	800.000	0.013	0.044
-150.618	-153.111	0.291	0.020
-149.604	-200.000	0.056	-0.307
-148.589	-89.297	-0.305	-0.088
-147.574	40.276	-0.223	0.197
-146.560	-107.781	0.116	-0.025
-145.545	196.043	0.279	-0.418
-144.531	-109.996	0.241	0.050
-143.516	-71.511	0.167	0.061
-142.502	178.499	0.064	0.092
-141.487	-181.242	0.203	0.004
-140.472	211.574	0.141	0.218
-139.458	-200.000	0.056	-0.402
-138.443	-188.009	-0.112	-0.001
-137.429	-200.000	-0.007	0.055
-136.414	-156.709	0.324	0.020
-135.399	800.000	0.054	-0.233
-134.385	800.000	-0.034	0.148
-133.370	0.517	-0.222	0.156
-132.356	-200.000	0.044	0.266
-131.341	-200.000	-0.025	-0.177
-130.326	-118.938	0.148	0.026
-129.312	-87.465	0.183	0.054
-128.297	273.120	0.138	0.239
-127.283	591.780	-0.065	-0.157
-126.268	-137.782	0.381	-0.042
-125.253	-85.460	-0.055	-0.017
-124.239	-133.321	-0.320	-0.040
-123.224	-87.170	0.263	0.079
-122.210	-61.300	0.238	-0.099
-121.195	-156.742	0.074	-0.005
