DTS Sentinel unit serial number:	SN413079Multiplexer serial number:	ORYXHardware model number:	OX4-SRSoftware version number:	ORYX F/W v4.00 Oryx Data Collector v3.7.2.0data status	okinstallation	princeton_trtdifferential loss correction	single-endedforward channel	channel 1reverse channel	N/Adate	2019/09/12time	18:57:34forward acquisition time	15.00reverse acquisition time	0.00gamma	496.2192k internal	0.2319k external	0.2319temperature offset calibration	1.0123default loss term (dB/km)	0.3790temperature slope calibration	1.0000multiplexer offset coefficient	1.0000multiplexer slope coefficient	1.0000fibre end	0.00T internal ref (°C)	32.81T ext. ref 1 (°C)	3.00T ext. ref 2 (°C)	27.35length (m)	temperature (°C)	Stokes	anti-Stokes-747.200	-119.927	0.426	-0.074
-746.185	112.244	0.536	0.656
-745.171	-200.000	-0.018	0.091
-744.156	253.990	0.246	0.426
-743.142	-165.284	0.353	0.016
-742.127	250.014	-0.104	0.178
-741.112	295.923	-0.102	0.188
-740.098	-22.843	0.616	-0.376
-739.083	-105.622	-0.514	-0.118
-738.069	-200.000	-0.049	-0.856
-737.054	12.088	-0.586	0.456
-736.039	-200.000	0.136	0.822
-735.025	178.854	0.253	-0.375
-734.010	800.000	-0.112	0.337
-732.996	800.000	-0.137	-0.428
-731.981	259.415	0.173	-0.302
-730.966	238.360	0.531	-0.892
-729.952	-37.405	0.493	0.266
-728.937	-200.000	-0.384	-0.001
-727.923	-200.000	0.162	-1.050
-726.908	-122.820	-0.741	-0.121
-725.894	-151.726	0.411	-0.031
-724.879	-54.700	-0.108	0.049
-723.864	-49.270	0.315	0.152
-722.850	67.944	0.380	0.393
-721.835	800.000	0.036	-0.160
-720.821	-185.468	-0.592	0.009
-719.806	-8.530	0.651	0.442
-718.791	-159.613	-0.338	-0.019
-717.777	-113.351	-0.765	0.152
-716.762	-200.000	0.007	-0.302
-715.748	2.477	-0.567	-0.415
-714.733	-84.759	-0.535	0.170
-713.718	-89.069	0.488	-0.146
-712.704	-200.000	-0.027	-0.382
-711.689	310.548	-0.369	0.698
-710.675	113.344	0.409	-0.501
-709.660	-200.000	-0.048	-0.520
-708.645	-42.468	0.749	-0.386
-707.631	-137.523	0.591	-0.067
-706.616	-129.041	-0.702	0.099
-705.602	26.531	0.368	0.311
-704.587	-200.000	-0.053	0.291
-703.572	-142.033	-1.028	0.103
-702.558	-77.534	-0.316	0.111
-701.543	800.000	-0.130	0.480
-700.529	-200.000	0.016	-0.665
-699.514	40.187	-0.458	-0.416
-698.499	-46.945	-0.414	0.204
-697.485	-63.161	-0.553	-0.230
-696.470	110.410	0.511	0.620
-695.456	-111.743	0.241	0.049
-694.441	-200.000	0.008	0.428
-693.426	227.867	0.246	-0.404
-692.412	146.940	-0.260	0.353
-691.397	-28.997	-1.262	-0.731
-690.383	-200.000	0.060	-1.100
-689.368	-110.573	0.454	0.095
-688.354	-96.760	0.872	0.231
-687.339	112.829	-0.499	0.611
-686.324	-71.839	0.173	0.065
-685.310	1.826	0.329	0.240
-684.295	-134.665	-0.495	0.061
-683.281	193.847	0.180	0.275
-682.266	5.070	0.474	-0.352
-681.251	800.000	0.112	0.370
-680.237	162.038	-0.348	-0.492
-679.222	-200.000	0.007	0.414
-678.208	-106.540	0.335	0.075
-677.193	800.000	0.066	0.217
-676.178	193.230	-0.244	-0.372
-675.164	-116.993	0.768	0.141
-674.149	-72.728	-0.410	-0.153
-673.135	800.000	-0.157	-0.543
-672.120	0.419	-0.287	-0.207
-671.105	180.789	0.266	0.394
-670.091	-36.855	-0.211	-0.114
-669.076	31.737	-0.469	-0.407
-668.062	-200.000	-0.080	0.424
-667.047	58.090	-0.239	-0.236
-666.032	116.164	-0.032	0.039
-665.018	-146.117	0.426	0.038
-664.003	-200.000	-0.139	1.001
-662.989	392.625	0.413	-0.866
-661.974	6.988	0.740	-0.557
-660.959	-143.187	-0.417	0.040
-659.945	28.599	-0.635	0.542
-658.930	-200.000	-0.077	-0.445
-657.916	-200.000	-0.048	-0.990
-656.901	-36.787	0.543	-0.294
-655.886	-200.000	0.004	0.098
-654.872	125.586	-0.134	-0.170
-653.857	-43.087	-0.209	0.107
-652.843	2.494	0.267	0.195
-651.828	800.000	0.151	-0.530
-650.814	-200.000	0.026	0.231
-649.799	-200.000	0.046	0.432
-648.784	592.722	-0.163	0.406
-647.770	22.763	-0.297	-0.246
-646.755	15.003	-0.903	0.713
-645.741	800.000	-0.207	0.705
-644.726	-97.541	-0.127	0.033
-643.711	-76.752	0.367	-0.130
-642.697	-200.000	-0.092	-0.850
-641.682	-38.411	0.418	0.223
-640.668	80.631	0.302	0.327
-639.653	128.478	-0.648	0.831
-638.638	-97.389	-0.230	-0.060
-637.624	61.693	-0.216	-0.216
-636.609	-25.130	0.878	0.524
-635.595	-70.649	-0.666	0.253
-634.580	-200.000	0.127	0.899
-633.565	360.574	0.107	-0.216
-632.551	800.000	0.066	0.202
-631.536	124.640	-0.315	-0.399
-630.522	382.154	0.373	0.772
-629.507	42.026	0.317	0.289
-628.492	-200.000	-0.009	0.127
-627.478	-200.000	0.160	-1.055
-626.463	-200.000	-0.195	-0.962
-625.449	15.760	-0.264	0.209
-624.434	317.751	-0.116	0.221
-623.419	-11.430	0.774	-0.513
-622.405	3.459	0.505	-0.371
-621.390	53.865	-0.352	0.340
-620.376	76.026	-0.274	0.292
-619.361	-83.421	0.368	0.119
-618.346	-200.000	0.013	0.805
-617.332	-106.828	-0.150	-0.034
-616.317	-158.957	0.545	-0.031
-615.303	-61.930	0.619	-0.260
-614.288	399.616	-0.067	-0.142
-613.273	15.185	-0.102	0.080
-612.259	746.187	-0.143	0.387
-611.244	-148.608	0.166	-0.014
-610.230	-13.264	-0.167	-0.109
-609.215	280.581	0.489	0.880
-608.201	179.720	0.400	0.590
-607.186	-84.975	0.981	-0.310
-606.171	96.615	-0.566	-0.652
-605.157	155.685	0.190	-0.263
-604.142	-7.219	0.087	-0.059
-603.128	79.570	-0.285	0.308
-602.113	-200.000	-0.143	0.825
-601.098	800.000	-0.185	-0.725
-600.084	16.144	0.545	-0.432
-599.069	75.284	0.469	-0.497
-598.055	-17.164	-0.477	-0.303
-597.040	-168.065	0.578	0.023
-596.025	688.798	0.132	0.346
-595.011	-4.918	-0.612	0.424
-593.996	-59.190	0.623	0.270
-592.982	-200.000	0.016	-0.987
-591.967	398.360	0.155	0.326
-590.952	448.586	-0.156	0.346
-589.938	-126.068	0.703	0.106
-588.923	-200.000	0.075	0.509
-587.909	-200.000	0.049	0.504
-586.894	800.000	0.202	-0.757
-585.879	-200.000	0.083	-0.642
-584.865	-200.000	-0.206	-1.190
-583.850	94.658	-0.725	-0.828
-582.836	-200.000	-0.012	-0.670
-581.821	-200.000	-0.059	0.264
-580.806	-200.000	-0.016	0.182
-579.792	-124.997	-0.362	0.056
-578.777	-200.000	0.048	0.314
-577.763	201.817	0.346	0.536
-576.748	800.000	0.258	-0.953
-575.733	-200.000	0.031	-0.560
-574.719	-150.588	1.046	-0.080
-573.704	55.865	-0.233	0.227
-572.690	-20.185	-0.597	0.370
-571.675	-29.106	-0.109	0.063
-570.661	394.886	0.204	0.427
-569.646	-200.000	0.022	-0.438
-568.631	-13.855	0.809	0.526
-567.617	-56.105	-0.503	-0.225
-566.602	-200.000	-0.023	0.264
-565.588	-194.177	0.492	0.004
-564.573	-68.670	-0.516	0.201
-563.558	166.994	0.270	0.384
-562.544	-85.596	0.617	0.193
-561.529	-126.596	-0.214	0.032
-560.515	330.671	-0.358	-0.693
-559.500	125.247	-0.663	-0.839
-558.485	424.354	0.136	0.295
-557.471	-44.504	-0.071	0.036
-556.456	176.343	-0.089	0.129
-555.442	168.868	-0.167	0.240
-554.427	-67.258	-0.525	-0.208
-553.412	41.655	-0.395	0.359
-552.398	250.834	0.434	-0.741
-551.383	800.000	-0.025	0.090
-550.369	679.607	0.107	-0.280
-549.354	-115.415	0.241	-0.046
-548.339	-151.613	0.401	-0.030
-547.325	-200.000	0.045	-0.528
-546.310	800.000	0.107	-0.462
-545.296	-18.857	0.540	-0.338
-544.281	-82.423	-0.542	0.177
-543.266	-200.000	-0.091	0.607
-542.252	-53.794	-0.556	0.255
-541.237	-89.360	-0.162	-0.048
-540.223	16.179	-0.429	0.339
-539.208	-36.967	-0.492	0.264
-538.193	-200.000	0.019	0.314
-537.179	-200.000	0.082	-1.105
-536.164	-146.950	-0.861	-0.074
-535.150	-200.000	-0.145	-1.027
-534.135	800.000	0.128	-0.533
-533.121	-104.097	-0.577	0.135
-532.106	46.646	-0.277	0.258
-531.091	-149.131	0.450	-0.036
-530.077	-200.000	-0.045	0.309
-529.062	-6.162	-0.039	-0.027
-528.048	-200.000	0.014	-0.331
-527.033	39.469	0.299	0.269
-526.018	-24.801	0.481	0.287
-525.004	-200.000	0.177	1.024
-523.989	26.112	-0.165	0.138
-522.975	-200.000	0.135	0.690
-521.960	800.000	0.367	1.205
-520.945	15.569	-0.409	-0.322
-519.931	-83.809	-0.920	0.294
-518.916	790.321	0.099	0.274
-517.902	50.675	-0.353	0.335
-516.887	234.778	-0.160	0.265
-515.872	589.034	-0.200	-0.494
-514.858	261.689	-0.060	-0.105
-513.843	-156.510	-0.573	0.036
-512.829	800.000	-0.141	-0.497
-511.814	466.035	0.203	-0.456
-510.799	159.949	0.124	0.173
-509.785	639.899	0.230	0.586
-508.770	106.250	-0.353	0.419
-507.756	77.265	-0.284	0.303
-506.741	516.097	-0.084	-0.196
-505.726	-140.620	0.664	-0.069
-504.712	138.979	-0.566	0.745
-503.697	479.162	-0.073	0.167
-502.683	-200.000	-0.110	-0.627
-501.668	262.403	0.253	-0.440
-500.653	-200.000	-0.008	0.436
-499.639	91.310	-0.283	-0.318
-498.624	-61.999	0.693	0.290
-497.610	-41.741	0.157	0.081
-496.595	-200.000	0.045	-0.404
-495.581	118.173	-0.381	0.470
-494.566	541.240	0.178	-0.425
-493.551	-128.348	0.701	-0.100
-492.537	-84.157	-0.050	-0.016
-491.522	143.249	-0.106	0.142
-490.508	123.050	0.427	0.536
-489.493	-36.040	0.242	-0.131
-488.478	800.000	0.169	-0.520
-487.464	5.197	-0.215	-0.158
-486.449	25.496	0.564	-0.470
-485.435	82.509	0.338	-0.367
-484.420	-26.633	-0.462	-0.271
-483.405	-25.040	-0.429	0.255
-482.391	-200.000	0.037	0.464
-481.376	-14.737	-0.492	0.316
-480.362	-111.891	-0.491	0.099
-479.347	185.303	0.451	-0.670
-478.332	70.468	-0.679	-0.703
-477.318	-15.928	0.931	0.593
-476.303	-63.964	0.828	-0.339
-475.289	119.031	0.313	-0.387
-474.274	-200.000	0.161	-0.965
-473.259	-200.000	-0.042	0.717
-472.245	31.847	0.334	0.288
-471.230	-132.655	-0.665	0.085
-470.216	555.664	-0.031	-0.076
-469.201	137.971	0.155	0.203
-468.186	112.839	-0.647	0.785
-467.172	800.000	-0.016	-0.052
-466.157	401.669	-0.112	-0.235
-465.143	202.164	0.217	-0.335
-464.128	-185.308	-0.541	-0.008
-463.113	800.000	0.217	-0.654
-462.099	800.000	-0.149	-0.576
-461.084	112.994	-0.224	0.271
-460.070	800.000	0.243	0.925
-459.055	-33.013	0.169	0.094
-458.040	-200.000	0.024	-0.135
-457.026	109.668	-0.350	0.419
-456.011	-91.504	0.900	0.257
-454.997	-76.471	1.086	0.382
-453.982	-131.244	0.413	0.055
-452.968	-200.000	-0.032	-0.367
-451.953	-47.514	0.164	0.080
-450.938	-103.431	-0.654	-0.154
-449.924	231.353	-0.561	-0.919
-448.909	146.292	0.243	0.327
-447.895	39.881	0.076	-0.068
-446.880	63.895	0.366	-0.368
-445.865	-53.357	-0.916	-0.420
-444.851	7.804	-0.384	0.288
-443.836	-155.827	0.579	-0.037
-442.822	-47.282	-0.281	0.137
-441.807	-34.368	0.317	-0.174
-440.792	323.105	0.235	0.448
-439.778	44.091	0.339	0.311
-438.763	-60.761	0.613	0.260
-437.749	-54.029	0.307	-0.140
-436.734	-75.075	-0.507	-0.181
-435.719	353.808	-0.198	-0.392
-434.705	425.334	0.051	0.109
-433.690	-7.109	0.256	-0.174
-432.676	548.689	-0.196	-0.468
-431.661	-90.091	0.606	0.176
-430.646	800.000	-0.100	0.425
-429.632	-111.878	0.365	0.074
-428.617	451.398	-0.190	-0.419
-427.603	87.532	0.032	0.036
-426.588	412.257	-0.172	-0.366
-425.573	-108.046	0.830	-0.180
-424.559	-123.002	-0.241	-0.039
-423.544	43.334	-0.865	-0.789
-422.530	-200.000	0.087	0.840
-421.515	-65.933	0.447	-0.178
-420.500	105.422	0.164	-0.194
-419.486	-142.151	-0.477	0.047
-418.471	-120.431	-0.414	0.070
-417.457	-86.724	0.510	0.156
-416.442	-200.000	0.137	0.637
-415.428	22.190	-0.204	0.166
-414.413	354.035	-0.521	1.033
-413.398	-64.829	-0.505	-0.204
-412.384	-160.120	-0.780	0.042
-411.369	800.000	0.070	0.241
-410.355	-200.000	0.071	-0.457
-409.340	-175.729	-0.203	-0.005
-408.325	-200.000	-0.070	-0.415
-407.311	-200.000	0.127	-0.556
-406.296	82.711	0.720	0.781
-405.282	-200.000	-0.012	-0.463
-404.267	20.357	0.561	0.453
-403.252	-200.000	-0.044	-0.393
-402.238	-143.642	-0.580	-0.055
-401.223	-65.392	0.357	-0.143
-400.209	800.000	-0.192	-0.673
-399.194	-90.673	-0.803	-0.232
-398.179	800.000	0.143	-0.434
-397.165	146.594	-0.576	0.772
-396.150	-84.043	0.660	0.209
-395.136	245.065	0.190	-0.320
-394.121	25.422	-0.372	0.309
-393.106	-200.000	-0.032	0.635
-392.092	546.583	0.380	-0.906
-391.077	800.000	-0.106	0.357
-390.063	14.373	0.124	-0.097
-389.048	55.456	0.619	0.598
-388.033	41.142	0.284	-0.256
-387.019	427.223	0.248	-0.533
-386.004	-200.000	0.144	-0.864
-384.990	-110.074	-0.434	-0.090
-383.975	-199.638	0.433	0.002
-382.960	-97.199	0.049	0.013
-381.946	680.342	0.104	-0.271
-380.931	203.081	-0.410	-0.632
-379.917	295.374	-0.314	0.574
-378.902	110.778	0.756	0.907
-377.888	800.000	0.213	-0.785
-376.873	-200.000	0.024	0.195
-375.858	-157.665	-0.578	0.034
-374.844	285.828	0.455	-0.819
-373.829	9.760	0.533	0.403
-372.815	-172.328	-0.586	-0.019
-371.800	-200.000	-0.032	-0.644
-370.785	-43.476	-0.396	0.199
-369.771	-200.000	-0.144	0.914
-368.756	538.226	0.230	-0.546
-367.742	325.473	0.118	-0.225
-366.727	-200.000	-0.055	0.894
-365.712	74.910	0.109	0.114
-364.698	-200.000	0.041	-0.400
-363.683	-7.982	0.355	0.239
-362.669	-200.000	-0.113	0.702
-361.654	-13.885	0.573	-0.369
-360.639	33.050	-0.309	-0.267
-359.625	472.105	0.243	-0.546
-358.610	-34.489	-0.731	0.399
-357.596	-101.523	-0.664	-0.161
-356.581	237.594	0.424	-0.700
-355.566	-62.145	-0.596	-0.248
-354.552	-200.000	0.007	0.789
-353.537	666.644	0.139	-0.357
-352.523	-19.093	0.524	-0.324
-351.508	800.000	-0.260	-1.075
-350.493	-49.476	-0.788	-0.374
-349.479	800.000	0.141	-0.419
-348.464	-200.000	-0.023	0.361
-347.450	90.738	0.057	-0.063
-346.435	520.489	-0.503	-1.174
-345.420	-59.583	-0.113	-0.048
-344.406	-181.991	-0.161	0.003
-343.391	233.692	-0.279	0.457
-342.377	20.264	-0.341	0.275
-341.362	259.526	-0.101	-0.174
-340.348	132.766	0.224	-0.288
-339.333	-200.000	-0.028	-0.972
-338.318	-192.874	0.250	0.002
-337.304	409.341	0.148	-0.311
-336.289	-50.982	0.066	0.031
-335.275	12.669	-0.317	0.243
-334.260	-110.944	-0.335	0.069
-333.245	739.624	-0.468	-1.252
-332.231	-120.464	0.795	0.135
-331.216	800.000	-0.030	-0.084
-330.202	-40.864	-0.160	-0.082
-329.187	-29.706	0.548	-0.312
-328.172	93.092	0.576	-0.649
-327.158	-167.792	0.816	0.032
-326.143	-34.843	0.190	0.103
-325.129	89.899	-0.274	-0.304
-324.114	14.460	-0.175	-0.136
-323.099	229.111	-0.147	-0.238
-322.085	-36.141	0.750	0.403
-321.070	-200.000	0.136	-1.027
-320.056	35.736	0.250	-0.219
-319.041	-123.218	0.338	0.054
-318.026	17.729	-0.405	0.321
-317.012	-109.327	-0.490	-0.103
-315.997	61.454	0.697	-0.690
-314.983	-114.033	-0.371	0.072
-313.968	250.185	-0.191	0.323
-312.953	582.719	-0.185	-0.451
-311.939	-115.747	-0.520	-0.097
-310.924	-200.000	0.220	1.493
-309.910	401.400	-0.220	0.460
-308.895	494.624	-0.427	0.975
-307.880	-29.118	0.233	-0.133
-306.866	-200.000	0.088	0.919
-305.851	-13.985	0.446	-0.286
-304.837	37.864	-0.563	0.497
-303.822	-77.355	0.143	-0.049
-302.807	-147.846	-0.222	0.018
-301.793	800.000	0.285	1.008
-300.778	-96.203	0.498	-0.131
-299.764	800.000	-0.196	0.678
-298.749	17.862	0.263	-0.208
-297.735	800.000	-0.204	0.795
-296.720	-44.309	0.530	0.264
-295.705	668.154	0.245	-0.631
-294.691	-100.781	0.683	-0.167
-293.676	-98.687	0.978	0.248
-292.662	-154.728	-0.698	0.046
-291.647	-133.881	-0.558	0.069
-290.632	800.000	-0.202	0.644
-289.618	784.054	0.190	0.517
-288.603	800.000	0.067	0.260
-287.589	-88.857	-0.205	-0.060
-286.574	-107.854	1.122	0.243
-285.559	-141.463	0.778	0.078
-284.545	-107.997	0.535	0.116
-283.530	171.340	0.191	0.272
-282.516	-200.000	-0.046	0.631
-281.501	66.428	-0.344	0.347
-280.486	-146.901	-0.182	-0.016
-279.472	216.157	0.577	-0.912
-278.457	-65.397	0.386	-0.154
-277.443	800.000	0.021	-0.059
-276.428	-145.885	-0.419	0.037
-275.413	31.154	-0.355	0.303
-274.399	-126.248	0.369	0.055
-273.384	-163.320	0.179	0.009
-272.370	-170.708	-0.242	-0.008
-271.355	-39.057	-0.884	0.462
-270.340	-200.000	-0.030	0.316
-269.326	34.481	-0.080	-0.070
-268.311	-200.000	-0.063	-0.283
-267.297	106.449	-0.295	-0.348
-266.282	-123.006	-0.480	-0.077
-265.267	587.928	-0.119	0.292
-264.253	-186.125	0.425	-0.006
-263.238	800.000	-0.263	0.835
-262.224	800.000	0.153	0.506
-261.209	37.345	-0.236	0.208
-260.195	442.761	-0.250	0.543
-259.180	57.645	0.324	-0.314
-258.165	-84.477	-0.231	0.072
-257.151	-144.585	0.714	-0.065
-256.136	599.427	-0.225	-0.554
-255.122	68.778	-0.596	-0.608
-254.107	-200.000	0.077	0.427
-253.092	-52.038	0.488	-0.225
-252.078	-200.000	0.034	-1.175
-251.063	243.583	-0.168	0.280
-250.049	-200.000	0.239	1.181
-249.034	800.000	0.074	0.226
-248.019	269.610	-0.576	1.004
-247.005	-96.337	-0.603	0.158
-245.990	65.773	-0.334	0.336
-244.976	-51.590	0.459	-0.213
-243.961	-83.968	-0.650	-0.205
-242.946	-200.000	-0.146	1.204
-241.932	-199.674	-0.282	0.001
-240.917	71.671	0.445	-0.458
-239.903	-94.568	-0.551	-0.149
-238.888	126.225	0.625	0.783
-237.873	31.811	0.476	-0.406
-236.859	-162.855	-0.656	-0.032
-235.844	-116.624	-1.395	0.255
-234.830	800.000	0.172	0.723
-233.815	4.150	-0.141	0.102
-232.800	800.000	-0.134	0.528
-231.786	197.170	-0.346	-0.523
-230.771	48.317	0.383	-0.356
-229.757	281.521	0.157	-0.278
-228.742	800.000	0.412	-1.255
-227.727	-3.183	0.218	-0.151
-226.713	-64.696	-0.646	0.260
-225.698	22.745	0.411	-0.334
-224.684	197.996	0.136	0.206
-223.669	800.000	-0.213	-0.686
-222.655	-21.671	-0.577	0.348
-221.640	-128.006	-0.548	-0.078
-220.625	724.119	-0.246	-0.649
-219.611	443.161	0.037	-0.079
-218.596	800.000	0.249	-0.688
-217.582	800.000	0.400	1.184
-216.567	-151.123	-0.294	-0.022
-215.552	-200.000	0.035	0.499
-214.538	-137.701	0.378	-0.042
-213.523	-71.372	-0.727	-0.270
-212.509	-82.676	-0.680	-0.218
-211.494	-97.206	-0.831	-0.215
-210.479	81.873	-0.083	-0.089
-209.465	-42.052	-0.355	-0.180
-208.450	800.000	-0.105	-0.298
-207.436	104.777	0.400	-0.467
-206.421	800.000	0.140	0.475
-205.406	211.208	-0.149	0.232
-204.392	9.225	-0.184	0.138
-203.377	229.558	-0.316	0.511
-202.363	-200.000	0.073	0.407
-201.348	-200.000	0.046	0.416
-200.333	612.403	0.255	-0.631
-199.319	83.857	0.184	-0.198
-198.304	-104.328	-0.187	-0.043
-197.290	324.446	0.041	-0.077
-196.275	-200.000	0.011	-0.666
-195.260	800.000	0.240	-0.901
-194.246	-73.992	0.237	0.085
-193.231	38.311	0.297	0.262
-192.217	-50.439	-0.291	0.136
-191.202	-112.575	-0.490	-0.097
-190.187	770.991	0.224	-0.605
-189.173	-111.991	0.685	0.137
-188.158	-78.027	0.247	-0.084
-187.144	128.749	-0.263	-0.332
-186.129	-200.000	0.020	-0.288
-185.114	120.712	0.502	-0.618
-184.100	-126.914	0.127	0.019
-183.085	162.963	0.391	0.543
-182.071	-94.850	-0.388	-0.104
-181.056	92.601	0.492	0.549
-180.042	-49.659	0.476	-0.224
-179.027	-172.546	-0.237	-0.007
-178.012	800.000	0.130	-0.550
-176.998	-122.094	-0.179	0.029
-175.983	800.000	0.147	0.428
-174.969	21.733	-0.174	-0.141
-173.954	45.452	0.569	-0.519
-172.939	800.000	-0.167	0.493
-171.925	-155.459	-0.201	-0.013
-170.910	157.576	0.453	-0.620
-169.896	6.571	-0.610	0.449
-168.881	-18.231	-0.387	0.239
-167.866	30.353	-0.265	-0.224
-166.852	71.808	0.467	0.480
-165.837	-33.442	0.143	-0.078
-164.823	80.721	-0.040	-0.042
-163.808	800.000	-0.156	-0.517
-162.793	-99.524	0.293	0.073
-161.779	-18.815	0.536	-0.330
-160.764	-152.417	-0.635	0.045
-159.750	-67.783	0.548	0.212
-158.735	-86.663	0.318	0.096
-157.720	-63.846	-0.712	0.288
-156.706	-66.122	0.463	-0.183
-155.691	-108.378	-0.772	-0.165
-154.677	682.801	-0.363	0.935
-153.662	-114.124	-0.826	-0.158
-152.647	46.605	0.446	-0.410
-151.633	800.000	-0.329	0.985
-150.618	-51.599	-0.504	0.232
-149.604	449.916	0.281	0.612
-148.589	35.113	0.532	-0.461
-147.574	-148.308	0.625	-0.051
-146.560	-200.000	-0.086	-0.521
-145.545	-71.321	-0.755	-0.280
-144.531	-155.002	-0.381	-0.025
-143.516	-141.716	1.014	-0.101
-142.502	800.000	-0.070	0.267
-141.487	33.704	0.313	-0.269
-140.472	-54.746	0.420	0.188
-139.458	800.000	-0.249	-0.803
-138.443	-58.880	0.110	0.047
-137.429	32.577	0.355	-0.303
-136.414	136.460	0.456	-0.588
-135.399	211.638	-0.226	0.351
-134.385	-123.670	-0.113	-0.018
-133.370	-83.873	0.524	0.165
-132.356	-43.155	0.845	0.423
-131.341	-173.595	-0.219	0.007
-130.326	204.979	0.616	0.944
-129.312	2.985	0.521	-0.374
-128.297	-200.000	0.022	0.171
-127.283	83.729	0.589	0.635
-126.268	18.591	0.460	0.364
-125.253	60.818	-0.672	0.658
-124.239	-200.000	0.074	-0.451
-123.224	241.868	-0.424	0.700
-122.210	800.000	-0.166	-0.698
-121.195	-7.593	-0.212	0.141
