DTS Sentinel unit serial number:	SN413079Multiplexer serial number:	ORYXHardware model number:	OX4-SRSoftware version number:	ORYX F/W v4.00 Oryx Data Collector v3.7.2.0data status	okinstallation	princeton_trtdifferential loss correction	single-endedforward channel	channel 1reverse channel	N/Adate	2019/09/12time	17:04:11forward acquisition time	60.00reverse acquisition time	0.00gamma	496.2192k internal	0.2312k external	0.2312temperature offset calibration	1.0100default loss term (dB/km)	0.3790temperature slope calibration	1.0000multiplexer offset coefficient	1.0000multiplexer slope coefficient	1.0000fibre end	0.00T internal ref (°C)	35.59T ext. ref 1 (°C)	2.79T ext. ref 2 (°C)	28.77length (m)	temperature (°C)	Stokes	anti-Stokes-747.200	-166.132	0.324	0.014
-746.185	-113.024	0.417	0.084
-745.171	-200.000	-0.026	-0.174
-744.156	-200.000	0.039	0.359
-743.142	800.000	-0.175	0.494
-742.127	742.825	0.067	0.182
-741.112	10.372	0.286	0.221
-740.098	443.362	0.063	0.141
-739.083	680.549	-0.024	0.064
-738.069	84.704	0.202	0.225
-737.054	124.094	0.120	-0.153
-736.039	-31.626	0.031	-0.017
-735.025	534.492	-0.071	0.172
-734.010	547.530	0.060	-0.145
-732.996	-2.563	-0.314	-0.223
-731.981	-164.582	-0.254	0.012
-730.966	-126.443	-0.182	0.027
-729.952	-40.500	0.126	0.066
-728.937	-60.672	-0.214	-0.092
-727.923	369.721	0.077	0.157
-726.908	136.152	-0.186	0.246
-725.894	-200.000	-0.007	-0.165
-724.879	-178.175	0.113	0.003
-723.864	440.688	0.071	-0.157
-722.850	-145.648	-0.230	-0.021
-721.835	-200.000	-0.030	0.257
-720.821	308.224	0.089	-0.168
-719.806	-200.000	-0.007	0.088
-718.791	94.950	-0.121	0.140
-717.777	208.041	0.087	-0.138
-716.762	-26.361	-0.360	-0.214
-715.748	-200.000	0.024	-0.164
-714.733	-200.000	0.028	0.227
-713.718	4.314	-0.280	-0.208
-712.704	-2.295	-0.345	-0.245
-711.689	-163.601	0.127	0.006
-710.675	-91.608	-0.143	-0.041
-709.660	-200.000	-0.076	0.420
-708.645	-200.000	0.032	-0.336
-707.631	609.951	0.028	0.070
-706.616	28.556	-0.087	0.075
-705.602	-200.000	-0.005	-0.326
-704.587	-95.597	-0.217	0.059
-703.572	466.176	-0.088	-0.201
-702.558	592.013	0.060	0.151
-701.543	-30.214	-0.084	-0.048
-700.529	-176.926	0.065	0.002
-699.514	75.000	-0.171	-0.183
-698.499	-69.544	-0.207	-0.080
-697.485	-100.595	0.141	-0.035
-696.470	-159.487	-0.530	0.030
-695.456	800.000	0.064	0.284
-694.441	116.461	-0.031	-0.039
-693.426	-139.423	-0.035	0.004
-692.412	35.698	0.316	-0.282
-691.397	-67.918	0.331	0.131
-690.383	-200.000	-0.049	-0.339
-689.368	-27.724	-0.300	0.176
-688.354	800.000	0.045	0.163
-687.339	316.292	0.105	-0.200
-686.324	1.865	0.175	-0.128
-685.310	-21.212	-0.148	-0.091
-684.295	-200.000	-0.075	-0.442
-683.281	-10.972	0.071	0.047
-682.266	-103.560	-0.060	-0.014
-681.251	40.940	0.199	-0.182
-680.237	-101.300	0.121	0.030
-679.222	-33.169	0.079	0.045
-678.208	51.079	-0.069	0.066
-677.193	171.185	0.093	-0.135
-676.178	-35.335	0.237	-0.131
-675.164	800.000	-0.040	0.153
-674.149	-49.267	0.236	0.114
-673.135	39.809	0.106	0.097
-672.120	-200.000	0.028	0.152
-671.105	-1.499	-0.065	0.046
-670.091	-99.015	-0.361	0.093
-669.076	121.407	-0.250	-0.315
-668.062	-200.000	-0.017	-0.197
-667.047	478.417	-0.161	-0.370
-666.032	-35.567	0.115	0.063
-665.018	-142.462	0.303	0.030
-664.003	71.571	0.081	-0.085
-662.989	134.559	0.054	0.071
-661.974	-116.509	-0.404	0.075
-660.959	-17.595	0.140	0.089
-659.945	-72.780	0.235	-0.088
-658.930	303.399	-0.167	0.314
-657.916	-16.377	0.122	0.078
-656.901	-8.169	-0.274	-0.187
-655.886	-4.076	-0.058	0.041
-654.872	800.000	0.089	-0.363
-653.857	-24.902	-0.212	-0.127
-652.843	-47.695	-0.153	0.075
-651.828	-83.805	0.166	-0.053
-650.814	800.000	0.060	0.234
-649.799	59.835	0.345	0.344
-648.784	42.941	-0.168	-0.155
-647.770	-22.297	-0.226	-0.139
-646.755	-101.575	-0.162	0.040
-645.741	87.475	-0.218	-0.244
-644.726	0.815	-0.279	0.202
-643.711	96.887	0.099	0.115
-642.697	-47.770	0.094	0.046
-641.682	59.338	-0.105	-0.105
-640.668	-62.302	-0.277	0.117
-639.653	-200.000	0.095	-0.515
-638.638	672.094	-0.128	-0.335
-637.624	800.000	-0.038	0.154
-636.609	-141.557	0.099	0.010
-635.595	182.410	0.212	-0.316
-634.580	-200.000	0.028	-0.297
-633.565	-200.000	-0.076	-0.437
-632.551	178.057	-0.063	-0.093
-631.536	-64.319	-0.158	-0.065
-630.522	-149.776	0.157	0.012
-629.507	-200.000	-0.001	-0.145
-628.492	-46.819	-0.278	0.137
-627.478	695.029	0.068	0.180
-626.463	-200.000	0.002	0.133
-625.449	-200.000	-0.011	0.181
-624.434	123.087	0.237	0.300
-623.419	-98.669	-0.517	-0.133
-622.405	-68.747	-0.215	0.084
-621.390	800.000	0.070	0.278
-620.376	-200.000	-0.001	0.064
-619.361	800.000	-0.072	0.234
-618.346	155.249	0.084	0.117
-617.332	-41.888	-0.538	-0.278
-616.317	-40.881	0.276	-0.144
-615.303	150.923	0.214	-0.294
-614.288	-200.000	0.004	-0.269
-613.273	-89.100	-0.161	-0.048
-612.259	-176.473	0.221	0.006
-611.244	-46.803	-0.201	0.099
-610.230	-55.247	-0.296	0.134
-609.215	800.000	0.027	-0.099
-608.201	-44.538	0.167	-0.084
-607.186	-100.386	-0.064	-0.016
-606.171	644.177	0.121	-0.312
-605.157	123.066	-0.113	0.142
-604.142	218.447	-0.198	0.318
-603.128	121.042	0.272	-0.342
-602.113	-200.000	-0.066	-0.297
-601.098	76.644	0.086	-0.092
-600.084	193.541	0.132	0.202
-599.069	800.000	-0.040	0.175
-598.055	171.492	0.147	0.213
-597.040	83.498	-0.118	-0.129
-596.025	-200.000	0.003	-0.028
-595.011	50.456	-0.073	0.070
-593.996	-31.752	-0.057	-0.032
-592.982	-200.000	0.009	0.110
-591.967	-7.441	-0.106	0.072
-590.952	189.265	0.109	0.164
-589.938	108.686	0.168	-0.203
-588.923	-13.664	0.235	-0.153
-587.909	-200.000	-0.003	0.129
-586.894	74.840	-0.254	-0.270
-585.879	-56.213	0.301	0.135
-584.865	-123.867	0.351	0.056
-583.850	-194.531	-0.076	-0.001
-582.836	82.951	-0.152	0.167
-581.821	72.272	-0.052	-0.055
-580.806	-118.793	-0.131	0.023
-579.792	129.262	0.082	-0.105
-578.777	-200.000	0.000	-0.146
-577.763	800.000	0.045	0.169
-576.748	547.092	0.054	0.130
-575.733	15.748	0.134	0.106
-574.719	-38.241	-0.142	0.076
-573.704	-53.648	-0.304	-0.140
-572.690	34.803	0.088	-0.078
-571.675	245.154	0.071	0.121
-570.661	-200.000	0.006	-0.096
-569.646	130.452	-0.074	0.095
-568.631	-50.312	0.386	0.184
-567.617	-68.322	-0.122	-0.048
-566.602	-172.802	0.353	-0.011
-565.588	211.700	-0.065	-0.103
-564.573	-101.846	-0.309	0.075
-563.558	-200.000	-0.015	-0.314
-562.544	100.480	-0.181	-0.211
-561.529	102.173	0.098	-0.115
-560.515	-200.000	-0.000	-0.411
-559.500	49.386	-0.127	0.120
-558.485	11.771	-0.142	0.110
-557.471	800.000	0.038	0.136
-556.456	165.751	0.181	0.257
-555.442	0.241	0.087	0.062
-554.427	800.000	-0.058	0.226
-553.412	11.028	0.107	-0.083
-552.398	-60.253	0.251	-0.108
-551.383	163.343	-0.012	-0.018
-550.369	-77.275	0.210	0.074
-549.354	424.345	-0.150	-0.325
-548.339	-200.000	0.002	-0.370
-547.325	-200.000	0.027	-0.336
-546.310	735.576	0.136	0.366
-545.296	-30.355	0.231	-0.132
-544.281	167.490	-0.128	-0.184
-543.266	433.071	-0.152	0.333
-542.252	100.278	-0.276	-0.323
-541.237	132.141	-0.006	-0.008
-540.223	-60.011	-0.206	0.089
-539.208	239.899	-0.094	0.158
-538.193	-200.000	0.064	-0.343
-537.179	-34.397	0.137	-0.075
-536.164	-121.712	0.157	0.026
-535.150	219.292	0.157	0.253
-534.135	-144.611	-0.106	0.010
-533.121	-5.428	0.214	0.148
-532.106	800.000	0.033	0.109
-531.091	94.113	0.156	-0.179
-530.077	-200.000	-0.002	-0.057
-529.062	114.092	0.158	-0.193
-528.048	504.033	-0.063	0.146
-527.033	-200.000	0.007	-0.371
-526.018	-200.000	0.008	-0.076
-525.004	-143.063	0.087	-0.008
-523.989	91.589	0.086	-0.097
-522.975	72.109	-0.287	0.300
-521.960	-15.672	0.152	-0.098
-520.945	247.822	0.024	0.042
-519.931	-80.870	-0.066	-0.022
-518.916	213.615	0.047	0.074
-517.902	-200.000	0.012	-0.163
-516.887	120.563	0.062	-0.078
-515.872	53.314	-0.206	-0.198
-514.858	-112.272	0.036	-0.007
-513.843	-103.429	-0.391	0.092
-512.829	251.284	0.149	0.255
-511.814	-142.407	0.095	0.009
-510.799	126.505	0.060	0.077
-509.785	-200.000	-0.013	-0.189
-508.770	-156.483	-0.308	0.019
-507.756	236.070	-0.106	0.177
-506.741	38.441	-0.147	0.131
-505.726	-138.021	0.199	0.022
-504.712	-11.744	-0.228	-0.150
-503.697	-66.667	-0.390	-0.155
-502.683	193.253	0.077	0.118
-501.668	-14.199	0.289	-0.187
-500.653	-128.088	-0.461	-0.066
-499.639	800.000	-0.054	-0.220
-498.624	66.486	-0.134	-0.137
-497.610	268.691	-0.075	0.132
-496.595	15.779	0.199	0.157
-495.581	30.588	0.157	-0.135
-494.566	191.324	0.029	0.043
-493.551	104.841	-0.053	0.062
-492.537	19.348	0.251	0.202
-491.522	-149.383	-0.328	-0.026
-490.508	13.055	-0.085	-0.066
-489.493	-133.597	0.281	-0.035
-488.478	321.177	0.091	-0.174
-487.464	-14.135	-0.077	0.050
-486.449	146.703	0.098	0.132
-485.435	182.316	-0.186	0.275
-484.420	-200.000	-0.012	0.259
-483.405	32.080	0.168	0.146
-482.391	2.398	-0.315	0.229
-481.376	-40.941	0.281	-0.146
-480.362	-132.413	-0.150	-0.019
-479.347	190.512	-0.128	0.194
-478.332	54.961	-0.149	-0.145
-477.318	105.546	0.192	-0.228
-476.303	80.569	0.030	-0.032
-475.289	113.882	0.148	0.181
-474.274	74.213	-0.121	0.128
-473.259	-200.000	0.011	-0.159
-472.245	800.000	-0.076	-0.283
-471.230	546.424	0.101	0.243
-470.216	-200.000	-0.039	0.251
-469.201	37.720	-0.129	-0.115
-468.186	68.761	0.061	-0.063
-467.172	-200.000	0.005	-0.052
-466.157	206.986	0.196	-0.307
-465.143	766.215	0.028	-0.076
-464.128	-185.487	-0.183	0.003
-463.113	-128.241	-0.312	-0.045
-462.099	-200.000	0.066	0.295
-461.084	-3.366	-0.411	-0.287
-460.070	-135.271	0.234	0.028
-459.055	643.286	0.163	-0.418
-458.040	-110.424	-0.114	-0.024
-457.026	800.000	-0.038	0.106
-456.011	-66.785	-0.255	-0.101
-454.997	-131.026	0.267	-0.036
-453.982	800.000	0.024	0.083
-452.968	800.000	-0.028	-0.102
-451.953	151.045	-0.135	-0.184
-450.938	-200.000	0.004	0.070
-449.924	-200.000	-0.013	0.381
-448.909	800.000	0.056	0.219
-447.895	31.178	-0.221	0.190
-446.880	-200.000	-0.026	0.197
-445.865	-119.726	-0.287	0.050
-444.851	313.666	-0.136	-0.257
-443.836	-200.000	-0.010	0.054
-442.822	-60.657	-0.046	0.020
-441.807	10.232	0.517	0.394
-440.792	-131.510	0.103	0.014
-439.778	47.573	-0.173	-0.161
-438.763	61.720	0.185	0.185
-437.749	178.717	-0.099	0.146
-436.734	-86.416	-0.360	-0.111
-435.719	208.767	-0.082	0.129
-434.705	-50.598	-0.107	0.050
-433.690	-38.287	-0.083	-0.044
-432.676	-56.145	0.152	-0.068
-431.661	67.782	-0.178	-0.182
-430.646	-24.223	0.084	0.050
-429.632	47.191	0.059	0.055
-428.617	24.678	-0.269	0.223
-427.603	-121.353	0.327	0.055
-426.588	34.168	-0.123	0.107
-425.573	-138.575	0.410	-0.045
-424.559	-126.087	-0.275	-0.041
-423.544	0.904	-0.234	0.168
-422.530	-137.622	0.292	0.033
-421.515	-91.299	0.096	-0.027
-420.500	52.052	0.067	-0.064
-419.486	-114.255	0.347	0.067
-418.471	800.000	0.102	-0.388
-417.457	349.019	0.147	0.291
-416.442	258.652	-0.204	0.353
-415.428	-200.000	0.036	0.188
-414.413	-200.000	-0.009	-0.119
-413.398	301.456	-0.066	-0.123
-412.384	-80.719	0.099	0.033
-411.369	351.524	0.119	0.235
-410.355	262.022	0.012	0.022
-409.340	36.084	0.133	-0.117
-408.325	800.000	-0.051	0.162
-407.311	-43.723	0.201	-0.102
-406.296	-36.387	-0.322	-0.174
-405.282	137.669	-0.133	0.174
-404.267	-139.623	-0.260	0.028
-403.252	-200.000	0.003	-0.224
-402.238	-110.066	-0.119	0.025
-401.223	-165.643	-0.175	-0.008
-400.209	-43.516	0.208	-0.105
-399.194	800.000	-0.069	-0.201
-398.179	-200.000	0.006	-0.487
-397.165	-200.000	-0.019	-0.088
-396.150	250.481	0.084	0.143
-395.136	90.395	0.079	0.089
-394.121	585.539	-0.110	0.271
-393.106	-35.415	0.379	-0.206
-392.092	-82.231	-0.164	0.054
-391.077	-153.736	-0.410	0.028
-390.063	575.440	-0.072	-0.176
-389.048	-200.000	-0.008	-0.120
-388.033	-200.000	-0.097	-0.551
-387.019	800.000	-0.007	-0.024
-386.004	-85.860	0.330	-0.102
-384.990	-77.706	-0.292	-0.101
-383.975	29.130	0.449	0.381
-382.960	49.599	0.207	-0.195
-381.946	-200.000	0.027	-0.313
-380.931	800.000	0.043	-0.183
-379.917	800.000	-0.103	0.377
-378.902	366.053	0.041	0.083
-377.888	800.000	-0.092	-0.282
-376.873	-35.465	-0.212	-0.115
-375.858	-56.440	-0.048	0.021
-374.844	232.216	0.029	-0.048
-373.829	800.000	0.034	0.144
-372.815	-200.000	-0.002	0.010
-371.800	337.670	-0.039	0.076
-370.785	-22.056	-0.082	-0.050
-369.771	85.743	0.069	-0.076
-368.756	425.325	-0.062	0.133
-367.742	-200.000	-0.027	-0.285
-366.727	800.000	0.072	-0.238
-365.712	800.000	-0.027	0.079
-364.698	-157.966	0.204	-0.012
-363.683	-107.708	0.227	0.050
-362.669	35.910	0.398	0.350
-361.654	11.583	-0.167	-0.128
-360.639	-200.000	0.072	-0.340
-359.625	-56.341	0.107	0.048
-358.610	69.035	-0.024	0.025
-357.596	36.295	0.112	0.099
-356.581	-14.064	0.126	-0.081
-355.566	-109.473	0.253	-0.053
-354.552	-200.000	-0.006	0.220
-353.537	-67.023	-0.151	-0.060
-352.523	-200.000	0.025	-0.353
-351.508	-131.829	0.227	0.030
-350.493	-91.490	-0.351	0.100
-349.479	-3.839	0.068	0.047
-348.464	-114.099	0.265	0.051
-347.450	800.000	0.014	-0.061
-346.435	-200.000	-0.013	-0.382
-345.420	145.524	0.107	-0.143
-344.406	136.537	-0.148	0.193
-343.391	271.592	-0.094	-0.166
-342.377	-2.814	0.212	0.148
-341.362	-84.951	0.213	-0.067
-340.348	29.657	0.195	0.166
-339.333	-200.000	-0.079	0.406
-338.318	61.008	0.128	-0.127
-337.304	-200.000	-0.069	-0.317
-336.289	800.000	-0.048	0.153
-335.275	-58.949	0.100	-0.043
-334.260	-200.000	0.077	0.380
-333.245	800.000	-0.136	0.462
-332.231	-200.000	0.003	0.015
-331.216	-200.000	0.005	-0.414
-330.202	256.086	-0.221	-0.379
-329.187	-115.255	0.240	-0.045
-328.172	70.441	-0.334	0.345
-327.158	-50.030	-0.128	-0.061
-326.143	626.524	0.057	-0.143
-325.129	-200.000	-0.064	0.353
-324.114	205.412	0.125	0.194
-323.099	800.000	0.055	0.175
-322.085	68.418	-0.126	-0.129
-321.070	-200.000	-0.025	0.382
-320.056	206.639	0.156	0.242
-319.041	-39.497	-0.108	0.057
-318.026	238.765	-0.118	0.196
-317.012	-156.581	0.227	-0.014
-315.997	-114.595	0.112	-0.021
-314.983	800.000	0.012	-0.040
-313.968	99.662	-0.186	0.215
-312.953	412.391	-0.107	0.227
-311.939	370.811	0.100	0.203
-310.924	203.459	0.035	0.055
-309.910	25.485	-0.285	-0.236
-308.895	800.000	0.093	-0.285
-307.880	112.354	-0.133	-0.160
-306.866	-200.000	-0.020	0.241
-305.851	299.537	-0.054	0.099
-304.837	37.317	0.467	0.413
-303.822	800.000	0.057	-0.174
-302.807	-113.265	0.235	-0.046
-301.793	5.723	0.170	-0.125
-300.778	42.406	0.279	0.253
-299.764	62.913	-0.109	-0.109
-298.749	59.392	-0.043	-0.042
-297.735	25.163	-0.237	0.196
-296.720	422.985	-0.025	0.053
-295.705	140.914	-0.130	0.172
-294.691	-21.088	-0.019	0.012
-293.676	800.000	-0.028	0.081
-292.662	-200.000	0.002	0.078
-291.647	-110.193	-0.346	-0.072
-290.632	-200.000	0.037	0.243
-289.618	50.611	-0.096	0.090
-288.603	-200.000	0.027	0.208
-287.589	266.208	0.038	-0.067
-286.574	-162.201	0.188	0.009
-285.559	381.942	-0.063	-0.129
-284.545	-45.441	0.300	0.148
-283.530	-147.785	0.144	-0.012
-282.516	-124.823	0.041	0.006
-281.501	-200.000	0.010	-0.256
-280.486	-23.426	-0.100	-0.060
-279.472	-200.000	0.029	0.136
-278.457	236.368	0.090	0.148
-277.443	-30.359	-0.057	-0.033
-276.428	800.000	0.048	0.191
-275.413	-106.783	0.175	0.039
-274.399	-44.517	-0.061	0.030
-273.384	-133.120	0.207	-0.026
-272.370	136.009	-0.157	-0.204
-271.355	138.351	-0.259	-0.338
-270.340	180.985	0.084	0.123
-269.326	11.352	0.137	0.104
-268.311	456.776	0.186	0.411
-267.297	197.651	-0.052	-0.080
-266.282	79.619	-0.032	-0.034
-265.267	135.667	0.056	-0.073
-264.253	-93.240	-0.177	-0.049
-263.238	114.216	-0.182	-0.220
-262.224	-179.895	-0.103	-0.002
-261.209	120.898	-0.129	-0.160
-260.195	-104.905	-0.447	-0.102
-259.180	32.113	0.182	-0.156
-258.165	155.173	-0.041	-0.056
-257.151	268.108	0.101	-0.176
-256.136	2.702	0.288	0.208
-255.122	63.163	-0.264	-0.263
-254.107	125.094	0.156	-0.196
-253.092	700.314	0.115	-0.302
-252.078	71.034	0.054	-0.056
-251.063	-86.723	0.325	0.099
-250.049	-138.657	-0.305	-0.033
-249.034	544.681	-0.096	-0.227
-248.019	-200.000	0.062	-0.321
-247.005	-7.452	-0.222	0.149
-245.990	800.000	-0.068	-0.227
-244.976	-200.000	0.025	0.315
-243.961	-128.999	0.073	-0.010
-242.946	254.971	0.152	0.259
-241.932	54.459	0.027	-0.025
-240.917	-45.439	-0.289	-0.143
-239.903	-200.000	0.029	0.149
-238.888	-131.853	-0.228	0.030
-237.873	-200.000	0.007	0.350
-236.859	-200.000	0.015	0.470
-235.844	-200.000	-0.003	0.460
-234.830	-168.386	0.279	0.011
-233.815	152.955	0.062	0.085
-232.800	87.604	0.197	-0.217
-231.786	800.000	-0.110	-0.359
-230.771	193.860	-0.139	0.210
-229.757	196.622	0.096	-0.145
-228.742	268.200	0.178	0.311
-227.727	-71.877	0.035	0.013
-226.713	-200.000	0.080	0.370
-225.698	144.632	-0.291	0.386
-224.684	-109.326	-0.310	-0.065
-223.669	-154.530	-0.164	0.011
-222.655	800.000	-0.069	0.262
-221.640	800.000	-0.010	0.041
-220.625	800.000	-0.023	-0.088
-219.611	-10.542	-0.091	-0.060
-218.596	-50.268	-0.063	-0.029
-217.582	65.482	0.110	-0.110
-216.567	-158.755	-0.276	0.016
-215.552	369.622	0.126	0.254
-214.538	187.968	-0.187	-0.277
-213.523	761.075	0.061	-0.165
-212.509	38.684	0.110	-0.097
-211.494	-200.000	-0.009	-0.177
-210.479	298.080	-0.070	0.128
-209.465	-200.000	0.017	-0.199
-208.450	-50.869	-0.205	0.096
-207.436	-200.000	0.027	0.231
-206.421	38.808	0.327	-0.290
-205.406	-11.839	-0.115	-0.075
-204.392	461.707	-0.185	-0.410
-203.377	-20.588	-0.331	-0.202
-202.363	14.724	0.176	-0.137
-201.348	-64.491	-0.190	-0.077
-200.333	148.480	-0.117	0.157
-199.319	304.125	0.247	0.454
-198.304	-119.989	-0.199	0.034
-197.290	-23.709	0.370	0.221
-196.275	43.884	0.095	-0.086
-195.260	493.245	-0.058	0.132
-194.246	201.725	0.150	0.230
-193.231	474.279	-0.071	-0.159
-192.217	-200.000	0.047	-0.416
-191.202	-158.891	0.339	0.019
-190.187	-200.000	-0.016	-0.140
-189.173	443.334	-0.078	-0.170
-188.158	-127.323	-0.422	0.061
-187.144	17.852	-0.061	0.049
-186.129	29.049	0.324	-0.273
-185.114	-111.824	-0.200	0.040
-184.100	-114.475	0.217	-0.041
-183.085	-63.926	0.147	0.060
-182.071	800.000	-0.030	-0.126
-181.056	-90.912	-0.209	-0.060
-180.042	-200.000	0.046	0.239
-179.027	-155.509	0.391	-0.025
-178.012	-116.805	0.455	0.083
-176.998	74.572	0.085	0.088
-175.983	-6.537	0.142	0.096
-174.969	166.197	-0.113	-0.159
-173.954	-66.036	-0.255	-0.101
-172.939	371.783	0.161	0.324
-171.925	330.532	0.049	-0.093
-170.910	-92.867	0.191	0.053
-169.896	-200.000	-0.034	0.274
-168.881	-56.648	-0.332	0.146
-167.866	238.141	0.077	0.127
-166.852	-200.000	-0.009	-0.124
-165.837	-200.000	-0.009	-0.386
-164.823	44.052	-0.265	0.241
-163.808	6.879	0.115	0.085
-162.793	77.634	0.092	0.097
-161.779	-30.410	0.221	0.125
-160.764	-8.023	-0.209	0.140
-159.750	-108.324	0.334	0.072
-158.735	-31.798	-0.022	0.012
-157.720	-200.000	0.029	0.174
-156.706	-50.975	0.172	0.080
-155.691	-200.000	-0.061	-0.267
-154.677	128.166	0.105	0.133
-153.662	-45.203	0.151	0.074
-152.647	240.805	-0.109	-0.180
-151.633	392.463	0.118	-0.243
-150.618	800.000	0.022	-0.086
-149.604	116.867	-0.055	-0.067
-148.589	-4.919	-0.226	0.154
-147.574	191.388	0.026	-0.038
-146.560	89.188	0.080	-0.089
-145.545	354.600	-0.050	0.099
-144.531	-42.013	0.238	0.121
-143.516	17.722	-0.066	-0.052
-142.502	-11.282	-0.090	0.059
-141.487	-200.000	0.032	-0.294
-140.472	3.989	0.052	-0.038
-139.458	555.009	-0.088	0.210
-138.443	705.143	0.031	-0.080
-137.429	467.772	0.091	-0.201
-136.414	-200.000	-0.048	-0.301
-135.399	779.299	-0.151	-0.410
-134.385	800.000	0.049	0.141
-133.370	328.838	-0.209	0.397
-132.356	168.870	-0.079	0.112
-131.341	652.887	-0.112	-0.285
-130.326	147.491	-0.201	0.269
-129.312	-52.739	-0.154	-0.070
-128.297	92.202	-0.192	0.214
-127.283	-98.007	0.124	-0.032
-126.268	-63.491	0.200	0.082
-125.253	-200.000	0.035	-0.344
-124.239	-77.637	-0.193	-0.066
-123.224	-107.442	0.230	0.050
-122.210	-200.000	-0.010	0.146
-121.195	-200.000	-0.032	-0.247
-120.180	167.201	-0.184	0.258
