DTS Sentinel unit serial number:	SN413079Multiplexer serial number:	ORYXHardware model number:	OX4-SRSoftware version number:	ORYX F/W v4.00 Oryx Data Collector v3.7.2.0data status	okinstallation	princeton_trtdifferential loss correction	single-endedforward channel	channel 1reverse channel	N/Adate	2019/09/11time	23:16:11forward acquisition time	60.00reverse acquisition time	0.00gamma	496.2192k internal	0.2318k external	0.2318temperature offset calibration	1.0063default loss term (dB/km)	0.3790temperature slope calibration	1.0000multiplexer offset coefficient	1.0000multiplexer slope coefficient	1.0000fibre end	0.00T internal ref (°C)	34.42T ext. ref 1 (°C)	1.87T ext. ref 2 (°C)	28.82length (m)	temperature (°C)	Stokes	anti-Stokes-747.200	-115.500	-0.300	0.057
-746.185	6.863	0.272	0.205
-745.171	17.142	0.235	0.189
-744.156	-31.349	-0.069	-0.039
-743.142	-145.448	-0.255	-0.023
-742.127	-200.000	-0.006	-0.097
-741.112	354.594	0.134	0.269
-740.098	126.949	-0.169	0.217
-739.083	94.119	0.145	0.167
-738.069	-136.228	0.320	0.038
-737.054	368.938	-0.127	0.259
-736.039	-200.000	-0.009	-0.080
-735.025	-200.000	-0.094	0.573
-734.010	-95.928	-0.244	-0.066
-732.996	800.000	-0.077	-0.217
-731.981	173.414	0.085	-0.123
-730.966	-144.551	0.272	0.025
-729.952	101.990	-0.065	0.077
-728.937	-165.212	0.154	-0.007
-727.923	-200.000	0.023	0.140
-726.908	-81.973	-0.203	-0.067
-725.894	26.888	-0.234	-0.198
-724.879	152.886	-0.182	0.251
-723.864	800.000	0.039	0.169
-722.850	800.000	0.027	0.116
-721.835	-200.000	0.028	-0.267
-720.821	-178.148	-0.331	-0.008
-719.806	113.983	-0.132	0.162
-718.791	-200.000	-0.002	0.038
-717.777	-200.000	-0.021	-0.221
-716.762	-142.480	-0.244	-0.024
-715.748	-190.393	0.257	0.003
-714.733	-200.000	0.034	-0.286
-713.718	-200.000	-0.040	-0.330
-712.704	-200.000	0.034	0.321
-711.689	-200.000	-0.016	0.091
-710.675	360.438	0.033	0.067
-709.660	476.998	0.065	-0.148
-708.645	415.171	-0.250	-0.538
-707.631	57.448	-0.123	0.121
-706.616	-99.005	-0.089	-0.023
-705.602	800.000	-0.098	-0.318
-704.587	93.933	0.116	-0.133
-703.572	-102.773	-0.337	0.081
-702.558	-70.385	0.029	-0.011
-701.543	57.622	-0.107	-0.105
-700.529	192.390	0.049	0.074
-699.514	-22.589	0.206	0.126
-698.499	33.750	0.120	0.105
-697.485	18.725	-0.192	-0.155
-696.470	83.146	-0.220	0.242
-695.456	64.121	0.224	-0.228
-694.441	-138.162	0.121	0.014
-693.426	-200.000	0.028	-0.156
-692.412	91.581	-0.170	0.193
-691.397	-49.252	0.384	0.185
-690.383	35.936	-0.137	0.121
-689.368	-137.030	-0.232	-0.027
-688.354	498.138	-0.131	0.304
-687.339	-25.943	-0.235	0.140
-686.324	-5.349	0.164	-0.114
-685.310	-62.479	0.103	-0.043
-684.295	800.000	-0.097	-0.277
-683.281	-81.517	-0.200	-0.066
-682.266	-179.913	0.215	-0.005
-681.251	85.874	-0.088	0.097
-680.237	-200.000	-0.017	-0.180
-679.222	-200.000	-0.018	0.106
-678.208	800.000	-0.054	-0.179
-677.193	31.387	-0.148	-0.129
-676.178	151.743	0.099	-0.136
-675.164	273.730	-0.258	-0.461
-674.149	-200.000	-0.004	0.121
-673.135	-200.000	-0.069	0.313
-672.120	-75.611	0.159	0.057
-671.105	800.000	0.024	0.082
-670.091	21.506	-0.138	-0.113
-669.076	-161.711	-0.325	-0.017
-668.062	-46.678	-0.111	-0.055
-667.047	-200.000	0.001	0.210
-666.032	199.608	-0.067	-0.103
-665.018	-149.599	-0.313	-0.025
-664.003	323.110	-0.233	-0.447
-662.989	145.629	0.080	0.108
-661.974	287.428	-0.056	-0.102
-660.959	-200.000	0.025	0.154
-659.945	50.378	0.233	0.222
-658.930	-47.348	-0.192	0.094
-657.916	-35.861	0.195	-0.107
-656.901	-75.633	0.190	0.068
-655.886	49.836	0.118	0.112
-654.872	495.621	-0.026	0.060
-653.857	526.291	0.070	-0.165
-652.843	-31.845	-0.237	0.134
-651.828	800.000	-0.073	-0.285
-650.814	-49.104	0.359	-0.173
-649.799	3.289	-0.296	0.218
-648.784	-100.817	-0.223	-0.055
-647.770	-70.621	0.246	0.094
-646.755	54.582	0.148	0.144
-645.741	-55.733	0.217	-0.098
-644.726	413.621	0.044	0.094
-643.711	800.000	0.052	-0.197
-642.697	240.873	-0.065	0.109
-641.682	544.660	0.056	-0.135
-640.668	-154.667	0.234	-0.016
-639.653	288.883	0.036	0.065
-638.638	114.388	-0.152	0.186
-637.624	58.885	0.151	-0.149
-636.609	-150.133	0.364	-0.028
-635.595	-30.308	0.337	-0.193
-634.580	800.000	0.033	-0.094
-633.565	-143.646	-0.433	0.041
-632.551	593.240	0.068	-0.170
-631.536	-47.142	0.232	-0.114
-630.522	-21.551	0.164	-0.101
-629.507	59.139	-0.065	0.064
-628.492	-2.533	-0.033	-0.023
-627.478	239.728	0.188	0.316
-626.463	-165.078	-0.159	0.007
-625.449	68.825	-0.179	0.185
-624.434	224.408	-0.238	-0.387
-623.419	-70.351	0.107	-0.041
-622.405	165.046	-0.118	0.169
-621.390	-79.269	-0.065	0.022
-620.376	-200.000	0.032	-0.357
-619.361	200.872	-0.200	-0.310
-618.346	338.531	-0.137	0.270
-617.332	-122.518	0.063	-0.010
-616.317	-173.970	0.365	-0.011
-615.303	-200.000	0.057	-0.338
-614.288	-20.456	-0.217	0.134
-613.273	396.144	-0.128	0.269
-612.259	-200.000	0.024	-0.115
-611.244	-109.925	-0.148	0.031
-610.230	-27.123	-0.191	0.112
-609.215	-154.528	-0.105	0.007
-608.201	7.623	0.298	0.224
-607.186	55.172	-0.119	0.116
-606.171	-68.643	-0.141	-0.055
-605.157	159.202	0.256	0.359
-604.142	-148.417	0.207	0.017
-603.128	-200.000	0.009	0.128
-602.113	-27.432	0.123	0.072
-601.098	-200.000	-0.066	-0.375
-600.084	-113.463	0.269	-0.053
-599.069	800.000	-0.074	-0.265
-598.055	105.141	0.208	-0.247
-597.040	-15.702	0.320	0.206
-596.025	-200.000	0.028	-0.203
-595.011	-118.328	0.296	-0.053
-593.996	-109.343	0.269	-0.057
-592.982	-200.000	-0.059	0.314
-591.967	-200.000	-0.017	-0.128
-590.952	-70.855	-0.204	-0.077
-589.938	84.005	0.188	-0.206
-588.923	76.247	-0.180	-0.192
-587.909	-200.000	-0.020	-0.304
-586.894	413.738	0.099	0.211
-585.879	17.114	-0.195	-0.155
-584.865	199.144	-0.159	0.246
-583.850	-49.418	0.347	-0.166
-582.836	-70.377	-0.257	-0.098
-581.821	-48.132	-0.071	0.034
-580.806	477.138	0.023	0.053
-579.792	122.087	-0.086	-0.108
-578.777	-121.478	-0.222	0.037
-577.763	-200.000	-0.021	-0.163
-576.748	22.211	0.234	-0.192
-575.733	-200.000	-0.006	0.089
-574.719	-200.000	0.020	-0.266
-573.704	-44.467	0.173	0.087
-572.690	-73.091	0.180	0.067
-571.675	-24.454	0.332	-0.199
-570.661	-200.000	0.040	0.454
-569.646	-200.000	0.009	0.360
-568.631	-95.602	0.382	0.103
-567.617	-109.679	-0.242	0.051
-566.602	312.760	-0.135	-0.256
-565.588	800.000	-0.043	0.156
-564.573	204.639	0.115	-0.179
-563.558	106.937	-0.176	-0.211
-562.544	-29.797	-0.148	-0.085
-561.529	800.000	0.050	0.190
-560.515	-64.910	0.153	-0.062
-559.500	691.981	-0.069	0.181
-558.485	602.518	-0.029	-0.072
-557.471	-126.181	0.249	-0.038
-556.456	800.000	-0.042	-0.119
-555.442	-64.419	0.276	0.113
-554.427	-101.954	0.434	-0.105
-553.412	-200.000	-0.062	0.320
-552.398	-200.000	-0.045	0.418
-551.383	-128.352	-0.286	-0.041
-550.369	-200.000	0.019	-0.130
-549.354	-24.925	-0.015	0.009
-548.339	-32.653	-0.420	0.235
-547.325	265.447	-0.075	0.131
-546.310	-151.278	-0.214	-0.016
-545.296	-181.186	0.313	0.006
-544.281	800.000	0.041	-0.169
-543.266	688.756	-0.093	0.243
-542.252	800.000	-0.026	-0.086
-541.237	-109.388	0.292	0.062
-540.223	180.669	-0.052	-0.077
-539.208	234.148	0.197	-0.326
-538.193	57.401	-0.181	-0.177
-537.179	-45.706	0.185	0.092
-536.164	264.975	0.149	0.260
-535.150	-200.000	-0.004	-0.087
-534.135	128.353	-0.223	0.285
-533.121	11.038	-0.350	0.269
-532.106	62.097	0.102	-0.102
-531.091	21.984	-0.231	-0.189
-530.077	-140.574	0.142	0.015
-529.062	52.893	-0.095	0.091
-528.048	152.053	0.124	0.170
-527.033	-61.317	0.191	0.081
-526.018	123.938	-0.088	0.111
-525.004	253.178	-0.116	0.199
-523.989	-30.549	0.069	-0.039
-522.975	-200.000	-0.020	-0.202
-521.960	261.013	0.095	0.166
-520.945	-200.000	-0.016	0.415
-519.931	136.865	-0.210	0.276
-518.916	-190.936	0.253	-0.003
-517.902	-200.000	-0.004	0.087
-516.887	28.275	-0.024	0.020
-515.872	-131.609	-0.159	-0.021
-514.858	-200.000	-0.008	0.198
-513.843	454.973	-0.042	-0.093
-512.829	1.808	-0.137	-0.099
-511.814	157.279	-0.108	0.150
-510.799	436.196	0.078	-0.171
-509.785	-78.336	-0.344	-0.118
-508.770	-72.636	-0.329	0.122
-507.756	-101.272	0.095	0.023
-506.741	579.883	0.079	-0.194
-505.726	47.607	0.168	-0.157
-504.712	24.784	0.080	-0.066
-503.697	486.175	-0.067	0.153
-502.683	224.640	0.240	-0.389
-501.668	56.671	0.055	0.054
-500.653	800.000	-0.068	-0.240
-499.639	-49.251	0.315	-0.151
-498.624	176.530	0.166	0.242
-497.610	-55.277	-0.311	-0.140
-496.595	-200.000	0.014	-0.103
-495.581	232.769	-0.250	-0.412
-494.566	-52.607	-0.130	-0.060
-493.551	129.264	-0.031	0.040
-492.537	544.802	-0.237	-0.567
-491.522	-94.226	0.208	0.057
-490.508	10.348	-0.356	-0.272
-489.493	800.000	-0.092	-0.256
-488.478	183.784	0.179	0.266
-487.464	-130.771	0.447	-0.060
-486.449	162.364	-0.128	-0.179
-485.435	122.457	0.227	-0.284
-484.420	12.136	0.191	-0.147
-483.405	-140.638	-0.378	-0.039
-482.391	49.476	-0.100	0.095
-481.376	-200.000	0.001	-0.058
-480.362	800.000	-0.021	0.068
-479.347	-200.000	-0.058	-0.257
-478.332	-200.000	0.015	-0.364
-477.318	-200.000	-0.008	0.107
-476.303	-25.623	0.123	-0.073
-475.289	-200.000	0.005	-0.140
-474.274	56.560	0.226	-0.220
-473.259	800.000	0.080	0.283
-472.245	-43.255	-0.376	0.191
-471.230	183.073	-0.082	0.121
-470.216	87.656	-0.092	0.102
-469.201	800.000	-0.077	-0.248
-468.186	800.000	0.098	-0.319
-467.172	-14.375	0.300	-0.193
-466.157	45.198	-0.273	0.252
-465.143	800.000	0.022	0.089
-464.128	800.000	-0.095	0.396
-463.113	623.931	0.124	0.314
-462.099	800.000	0.046	0.169
-461.084	800.000	0.002	-0.006
-460.070	29.136	0.190	-0.162
-459.055	800.000	-0.143	0.428
-458.040	-200.000	-0.041	0.206
-457.026	-66.427	0.183	-0.073
-456.011	800.000	0.044	0.139
-454.997	700.553	0.113	-0.296
-453.982	800.000	0.061	-0.183
-452.968	124.781	-0.154	-0.193
-451.953	18.024	0.063	-0.050
-450.938	-124.394	-0.379	0.059
-449.924	-10.555	-0.145	0.096
-448.909	-200.000	0.031	-0.155
-447.895	-130.379	0.125	0.017
-446.880	-136.059	-0.108	0.013
-445.865	-200.000	-0.279	0.000
-444.851	800.000	0.072	-0.245
-443.836	138.169	0.130	-0.170
-442.822	26.301	-0.506	-0.423
-441.807	752.129	0.045	-0.121
-440.792	-17.042	-0.364	-0.230
-439.778	-136.454	0.070	0.008
-438.763	-98.953	0.337	-0.086
-437.749	-80.287	-0.070	0.023
-436.734	-56.560	0.095	0.042
-435.719	-200.000	0.018	0.291
-434.705	-15.885	0.368	-0.234
-433.690	72.069	-0.165	0.172
-432.676	-200.000	0.005	-0.266
-431.661	313.496	0.072	0.136
-430.646	37.207	0.030	-0.027
-429.632	10.899	0.208	0.159
-428.617	100.045	-0.177	-0.205
-427.603	74.545	-0.146	0.153
-426.588	152.903	0.100	0.137
-425.573	9.179	0.118	0.089
-424.559	43.565	-0.152	-0.139
-423.544	56.794	0.295	0.287
-422.530	-84.478	0.152	-0.048
-421.515	36.108	-0.196	-0.173
-420.500	131.758	0.165	-0.213
-419.486	27.550	-0.115	-0.097
-418.471	82.996	0.114	-0.124
-417.457	183.521	-0.068	0.101
-416.442	3.448	-0.139	0.101
-415.428	80.066	0.134	0.143
-414.413	-91.952	-0.089	0.025
-413.398	-115.798	-0.189	0.035
-412.384	32.422	-0.080	-0.069
-411.369	651.878	-0.047	0.121
-410.355	-163.514	-0.021	0.001
-409.340	73.816	-0.120	0.126
-408.325	-160.635	0.297	-0.016
-407.311	214.981	-0.160	-0.254
-406.296	800.000	0.076	-0.326
-405.282	-106.001	-0.226	0.051
-404.267	-117.337	0.338	-0.061
-403.252	-143.526	0.471	0.045
-402.238	-40.543	0.335	0.174
-401.223	400.073	-0.135	-0.283
-400.209	603.023	-0.108	0.268
-399.194	-200.000	0.004	-0.146
-398.179	52.118	-0.193	-0.183
-397.165	-39.488	0.204	-0.106
-396.150	-11.315	-0.234	-0.154
-395.136	-18.502	0.089	-0.056
-394.121	-200.000	-0.039	0.352
-393.106	-36.046	-0.250	-0.135
-392.092	-200.000	0.028	-0.179
-391.077	32.323	-0.148	0.127
-390.063	48.781	-0.109	0.102
-389.048	-31.102	-0.089	0.050
-388.033	14.157	-0.115	-0.090
-387.019	-52.565	0.249	-0.115
-386.004	103.729	0.181	-0.212
-384.990	460.566	0.059	-0.131
-383.975	468.530	-0.224	0.501
-382.960	-25.508	0.387	-0.228
-381.946	205.061	-0.030	-0.046
-380.931	446.138	0.089	-0.195
-379.917	-200.000	-0.025	-0.174
-378.902	800.000	-0.068	0.260
-377.888	176.016	-0.246	0.356
-376.873	82.345	-0.244	0.264
-375.858	98.300	-0.117	0.134
-374.844	-8.271	-0.217	0.146
-373.829	-148.125	0.284	-0.023
-372.815	-200.000	0.026	-0.322
-371.800	-48.779	0.056	-0.027
-370.785	-21.643	-0.354	-0.215
-369.771	161.141	-0.058	0.082
-368.756	-130.845	0.459	-0.061
-367.742	-9.503	-0.062	0.041
-366.727	84.782	-0.052	0.057
-365.712	-200.000	0.052	0.357
-364.698	190.272	-0.154	0.231
-363.683	800.000	0.075	0.209
-362.669	247.381	-0.083	0.140
-361.654	-200.000	0.022	0.333
-360.639	-157.352	-0.187	-0.011
-359.625	-200.000	-0.029	0.194
-358.610	-56.607	-0.238	0.105
-357.596	-10.824	0.184	-0.122
-356.581	800.000	0.038	0.123
-355.566	800.000	-0.058	-0.179
-354.552	58.106	-0.314	-0.307
-353.537	-114.185	-0.308	-0.059
-352.523	800.000	-0.078	0.231
-351.508	660.247	0.045	0.114
-350.493	-104.379	0.210	0.049
-349.479	-200.000	0.027	-0.198
-348.464	-145.975	-0.304	0.027
-347.450	-17.564	-0.182	0.114
-346.435	-44.460	-0.156	-0.078
-345.420	30.675	-0.217	0.185
-344.406	-200.000	-0.011	0.236
-343.391	800.000	0.007	0.022
-342.377	-96.941	0.124	-0.032
-341.362	-70.275	0.121	0.046
-340.348	114.219	-0.155	0.187
-339.333	-143.676	-0.197	-0.019
-338.318	411.606	0.067	0.142
-337.304	-98.164	-0.124	0.032
-336.289	296.638	0.218	0.398
-335.275	-27.678	-0.394	0.228
-334.260	309.771	-0.153	0.285
-333.245	135.623	0.041	0.053
-332.231	-127.713	0.070	0.010
-331.216	-200.000	0.027	0.459
-330.202	800.000	0.073	-0.220
-329.187	-82.883	0.228	0.073
-328.172	-136.592	-0.208	-0.024
-327.158	-1.020	0.200	-0.141
-326.143	177.469	0.161	0.233
-325.129	43.359	-0.031	0.028
-324.114	234.876	0.149	0.244
-323.099	19.758	0.245	-0.196
-322.085	-200.000	0.051	-0.265
-321.070	-200.000	0.008	-0.261
-320.056	-200.000	0.007	-0.226
-319.041	21.771	0.271	0.220
-318.026	-38.139	0.175	0.092
-317.012	800.000	-0.044	0.155
-315.997	438.240	0.107	0.231
-314.983	119.277	-0.034	-0.042
-313.968	11.109	0.130	0.099
-312.953	57.379	0.110	0.107
-311.939	-113.956	-0.388	-0.075
-310.924	-156.977	-0.301	-0.018
-309.910	800.000	-0.155	-0.527
-308.895	-88.048	-0.317	0.095
-307.880	800.000	0.073	-0.289
-306.866	193.492	-0.140	-0.211
-305.851	137.118	0.099	0.128
-304.837	-200.000	-0.076	-0.379
-303.822	-200.000	-0.007	0.109
-302.807	-200.000	0.036	-0.329
-301.793	-53.506	-0.066	0.030
-300.778	-14.406	-0.091	0.059
-299.764	-168.659	-0.129	-0.005
-298.749	651.415	0.013	-0.032
-297.735	800.000	0.093	-0.268
-296.720	-138.935	-0.072	0.008
-295.705	-92.591	0.204	-0.057
-294.691	-200.000	0.022	-0.121
-293.676	800.000	0.031	-0.130
-292.662	-200.000	-0.005	-0.096
-291.647	800.000	0.166	0.555
-290.632	-200.000	0.008	0.180
-289.618	-112.668	-0.289	-0.057
-288.603	46.442	0.154	0.142
-287.589	60.525	-0.064	0.063
-286.574	-151.795	-0.223	0.016
-285.559	-200.000	-0.017	-0.133
-284.545	-200.000	0.001	0.045
-283.530	-39.845	-0.027	-0.014
-282.516	391.840	-0.084	-0.173
-281.501	145.683	-0.081	-0.108
-280.486	537.561	0.062	0.147
-279.472	-200.000	0.011	0.230
-278.457	69.723	0.182	-0.186
-277.443	-200.000	-0.051	-0.318
-276.428	800.000	-0.080	0.229
-275.413	-118.876	-0.221	-0.039
-274.399	332.139	0.145	-0.277
-273.384	-200.000	0.039	0.306
-272.370	249.109	-0.117	0.196
-271.355	70.500	-0.099	0.102
-270.340	166.598	0.067	-0.094
-269.326	-104.388	-0.205	0.047
-268.311	800.000	0.037	-0.115
-267.297	97.103	-0.118	-0.135
-266.282	29.257	-0.254	0.214
-265.267	-116.702	0.094	0.017
-264.253	340.993	-0.062	0.119
-263.238	-93.602	-0.149	-0.041
-262.224	270.493	-0.158	-0.277
-261.209	594.193	0.070	0.172
-260.195	-200.000	-0.007	0.146
-259.180	387.787	-0.090	0.184
-258.165	-4.595	0.153	-0.105
-257.151	-76.798	-0.250	-0.087
-256.136	-44.784	0.252	-0.125
-255.122	-200.000	0.046	0.273
-254.107	-125.845	-0.303	0.045
-253.092	-200.000	-0.055	-0.308
-252.078	184.219	-0.203	-0.298
-251.063	-60.896	0.100	0.042
-250.049	-8.794	0.118	0.078
-249.034	12.895	-0.206	0.158
-248.019	30.347	0.143	0.122
-247.005	52.856	0.068	-0.065
-245.990	-200.000	-0.014	0.288
-244.976	-96.109	0.340	-0.090
-243.961	398.446	-0.156	0.324
-242.946	-155.194	-0.281	-0.018
-241.932	132.581	0.125	-0.161
-240.917	-200.000	-0.030	0.287
-239.903	-156.598	0.314	-0.019
-238.888	129.407	0.212	0.268
-237.873	171.147	0.137	0.196
-236.859	-200.000	0.047	-0.267
-235.844	792.772	0.059	0.161
-234.830	20.446	0.220	0.176
-233.815	258.811	-0.079	-0.135
-232.800	-13.274	0.199	0.128
-231.786	44.797	-0.123	0.113
-230.771	-111.895	-0.168	-0.034
-229.757	730.911	0.099	0.262
-228.742	-45.825	-0.144	0.070
-227.727	-44.053	0.221	0.110
-226.713	-200.000	-0.031	-0.240
-225.698	220.731	-0.177	-0.282
-224.684	108.707	-0.169	-0.200
-223.669	1.756	0.256	-0.183
-222.655	84.839	0.159	0.173
-221.640	-66.645	0.098	0.039
-220.625	-118.272	0.118	0.021
-219.611	-114.065	0.102	0.020
-218.596	382.130	-0.042	0.085
-217.582	-48.229	0.145	0.070
-216.567	412.992	0.088	-0.185
-215.552	-9.154	-0.143	-0.095
-214.538	190.359	-0.062	0.093
-213.523	-200.000	0.019	-0.247
-212.509	-56.357	-0.116	-0.051
-211.494	312.039	0.047	-0.087
-210.479	800.000	0.060	-0.249
-209.465	-200.000	0.006	-0.105
-208.450	-37.325	0.321	0.170
-207.436	340.776	0.098	-0.190
-206.421	-200.000	-0.346	0.001
-205.406	-115.128	-0.112	-0.021
-204.392	-101.343	-0.105	0.025
-203.377	-174.122	0.217	-0.006
-202.363	120.136	-0.157	0.193
-201.348	-168.955	0.254	0.009
-200.333	-47.016	0.068	0.033
-199.319	-121.269	0.017	0.003
-198.304	-200.000	0.020	0.151
-197.290	96.286	0.289	0.327
-196.275	-200.000	0.001	0.058
-195.260	-200.000	-0.009	0.127
-194.246	-200.000	-0.032	0.261
-193.231	37.299	0.299	0.263
-192.217	548.905	-0.162	-0.384
-191.202	-10.814	0.329	0.215
-190.187	800.000	-0.058	-0.198
-189.173	-148.282	0.056	0.005
-188.158	43.109	-0.086	-0.078
-187.144	-74.099	-0.306	-0.110
-186.129	-114.311	0.215	-0.041
-185.114	118.248	-0.134	0.164
-184.100	-200.000	0.010	0.048
-183.085	800.000	0.115	-0.447
-182.071	-45.594	-0.131	0.064
-181.056	68.034	0.159	0.161
-180.042	-200.000	-0.020	0.124
-179.027	800.000	-0.066	0.223
-178.012	-87.703	0.278	0.083
-176.998	481.221	-0.198	0.445
-175.983	-101.518	-0.277	-0.067
-174.969	-85.361	-0.236	-0.073
-173.954	-68.176	0.246	0.095
-172.939	-200.000	-0.017	0.350
-171.925	-200.000	-0.009	-0.557
-170.910	-200.000	-0.039	-0.275
-169.896	9.772	-0.154	-0.116
-168.881	254.697	0.038	0.064
-167.866	27.440	-0.083	-0.069
-166.852	-7.703	-0.139	-0.093
-165.837	-159.638	0.227	-0.012
-164.823	-122.445	-0.270	-0.044
-163.808	111.327	0.264	0.315
-162.793	225.959	-0.234	0.375
-161.779	50.293	0.162	-0.151
-160.764	116.412	-0.154	0.186
-159.750	-114.882	0.388	0.073
-158.735	-105.993	0.326	-0.073
-157.720	188.685	-0.124	-0.184
-156.706	800.000	-0.071	-0.258
-155.691	209.561	0.175	-0.271
-154.677	38.688	0.282	-0.249
-153.662	216.017	-0.199	-0.313
-152.647	-116.102	-0.179	0.033
-151.633	-200.000	0.015	0.138
-150.618	167.814	0.237	0.333
-149.604	-149.810	0.086	-0.007
-148.589	8.946	-0.041	0.030
-147.574	-124.783	0.230	-0.035
-146.560	800.000	0.044	0.125
-145.545	-200.000	0.010	0.057
-144.531	86.604	-0.140	0.153
-143.516	-71.270	0.096	0.036
-142.502	140.859	0.137	-0.179
-141.487	586.163	-0.280	0.680
-140.472	-39.795	0.265	-0.137
-139.458	-77.607	-0.205	0.070
-138.443	170.862	0.220	-0.312
-137.429	253.435	-0.052	0.089
-136.414	-6.254	-0.151	0.102
-135.399	231.751	-0.049	0.080
-134.385	181.337	-0.181	-0.263
-133.370	40.321	0.157	-0.140
-132.356	-141.150	0.265	-0.027
-131.341	-59.221	-0.187	0.080
-130.326	-200.000	-0.018	0.079
-129.312	139.785	0.198	-0.258
-128.297	128.869	0.083	-0.104
-127.283	35.358	0.130	-0.113
-126.268	-200.000	-0.051	0.414
-125.253	535.870	-0.068	0.160
-124.239	800.000	-0.064	0.270
-123.224	190.350	-0.142	0.210
-122.210	294.792	-0.196	0.354
-121.195	263.855	-0.106	0.182
