DTS Sentinel unit serial number:	SN413079Multiplexer serial number:	ORYXHardware model number:	OX4-SRSoftware version number:	ORYX F/W v4.00 Oryx Data Collector v3.7.2.0data status	okinstallation	princeton_trtdifferential loss correction	single-endedforward channel	channel 1reverse channel	N/Adate	2019/09/18time	04:58:35forward acquisition time	60.00reverse acquisition time	0.00gamma	496.2192k internal	0.2339k external	0.2339temperature offset calibration	0.9975default loss term (dB/km)	0.3790temperature slope calibration	1.0000multiplexer offset coefficient	1.0000multiplexer slope coefficient	1.0000fibre end	0.00T internal ref (°C)	23.50T ext. ref 1 (°C)	0.19T ext. ref 2 (°C)	17.91length (m)	temperature (°C)	Stokes	anti-Stokes-747.200	27.098	0.137	-0.116
-746.185	316.939	0.118	0.223
-745.171	165.452	-0.253	-0.358
-744.156	800.000	-0.102	-0.408
-743.142	-18.608	-0.137	0.086
-742.127	3.214	-0.259	0.189
-741.112	800.000	-0.029	-0.084
-740.098	-128.810	-0.270	-0.038
-739.083	268.416	-0.092	-0.161
-738.069	269.041	-0.097	0.171
-737.054	-51.495	-0.247	0.115
-736.039	-83.440	-0.281	-0.090
-735.025	-102.735	0.175	-0.042
-734.010	48.969	-0.062	0.058
-732.996	70.735	-0.057	0.059
-731.981	-77.979	0.229	0.079
-730.966	558.512	0.123	-0.297
-729.952	53.653	0.214	-0.206
-728.937	120.623	-0.209	-0.260
-727.923	3.602	0.163	0.119
-726.908	288.316	0.145	-0.263
-725.894	-85.804	-0.117	-0.036
-724.879	-74.508	-0.174	-0.063
-723.864	-18.040	-0.191	0.120
-722.850	278.464	0.140	-0.251
-721.835	-27.311	-0.111	0.065
-720.821	66.985	0.153	-0.156
-719.806	-200.000	0.036	0.163
-718.791	143.768	0.034	-0.046
-717.777	-118.399	-0.271	0.048
-716.762	-200.000	-0.055	-0.271
-715.748	122.320	0.215	-0.270
-714.733	135.924	0.132	0.173
-713.718	224.588	0.073	0.118
-712.704	547.586	-0.050	0.119
-711.689	351.396	-0.115	-0.228
-710.675	-200.000	-0.016	0.143
-709.660	-200.000	0.000	-0.183
-708.645	-143.158	-0.381	-0.037
-707.631	-200.000	0.056	0.274
-706.616	-162.216	0.196	0.010
-705.602	-125.732	-0.292	0.044
-704.587	289.127	0.184	-0.334
-703.572	551.440	0.060	0.143
-702.558	89.008	0.155	0.173
-701.543	-200.000	-0.024	0.404
-700.529	-111.023	0.262	-0.054
-699.514	0.798	-0.156	0.112
-698.499	52.497	-0.064	-0.062
-697.485	800.000	0.087	-0.243
-696.470	-123.384	-0.366	-0.058
-695.456	114.464	-0.161	0.197
-694.441	105.175	0.152	0.180
-693.426	-80.830	0.106	0.035
-692.412	-42.645	0.056	-0.029
-691.397	-69.854	-0.296	-0.113
-690.383	-94.164	0.132	0.036
-689.368	592.913	-0.088	0.218
-688.354	800.000	-0.056	0.183
-687.339	436.013	0.134	-0.292
-686.324	-78.344	-0.208	0.072
-685.310	-144.520	-0.125	-0.012
-684.295	-200.000	0.014	-0.332
-683.281	800.000	-0.040	-0.112
-682.266	-55.297	-0.155	-0.070
-681.251	-142.036	-0.086	-0.009
-680.237	-100.722	-0.045	-0.011
-679.222	-141.184	-0.113	-0.012
-678.208	-69.411	-0.163	0.062
-677.193	575.695	-0.064	0.157
-676.178	100.990	-0.262	0.304
-675.164	-47.639	-0.200	0.097
-674.149	219.519	0.163	-0.260
-673.135	629.582	0.022	0.056
-672.120	-57.898	0.253	-0.111
-671.105	186.398	-0.166	-0.247
-670.091	800.000	0.043	-0.187
-669.076	-26.088	-0.191	0.112
-668.062	-200.000	0.011	-0.163
-667.047	145.969	0.172	-0.231
-666.032	800.000	0.031	-0.120
-665.018	-46.643	-0.360	-0.176
-664.003	-200.000	0.001	0.063
-662.989	-85.758	-0.191	-0.059
-661.974	25.090	-0.134	0.111
-660.959	309.119	-0.121	-0.225
-659.945	437.818	0.103	-0.224
-658.930	154.140	-0.192	0.263
-657.916	-200.000	-0.038	-0.257
-656.901	17.643	0.121	-0.096
-655.886	355.991	0.055	-0.110
-654.872	356.691	-0.075	-0.150
-653.857	73.556	0.093	0.097
-652.843	52.897	0.244	-0.233
-651.828	-200.000	0.008	-0.087
-650.814	399.662	0.110	-0.230
-649.799	-6.040	0.068	-0.047
-648.784	-46.301	0.249	0.122
-647.770	256.318	-0.085	0.145
-646.755	-200.000	-0.033	0.338
-645.741	800.000	0.174	-0.551
-644.726	-200.000	-0.014	0.233
-643.711	-200.000	0.034	-0.151
-642.697	349.585	-0.078	-0.154
-641.682	-26.504	0.105	0.062
-640.668	800.000	-0.047	-0.192
-639.653	-77.901	0.448	-0.155
-638.638	-73.845	0.057	-0.021
-637.624	27.094	0.098	-0.082
-636.609	-200.000	0.080	-0.368
-635.595	-200.000	-0.010	0.133
-634.580	4.782	-0.204	0.150
-633.565	-200.000	0.002	-0.055
-632.551	800.000	0.066	-0.273
-631.536	100.595	-0.237	0.275
-630.522	-200.000	-0.034	0.650
-629.507	-200.000	0.013	0.325
-628.492	-138.548	0.103	-0.011
-627.478	564.675	0.169	-0.409
-626.463	800.000	0.063	-0.187
-625.449	50.258	-0.037	-0.035
-624.434	-200.000	-0.009	-0.057
-623.419	-200.000	-0.016	0.165
-622.405	-188.765	-0.266	-0.003
-621.390	112.130	-0.085	-0.102
-620.376	-141.932	0.411	0.041
-619.361	-107.716	0.119	0.026
-618.346	-45.506	-0.156	-0.077
-617.332	-18.551	0.027	0.017
-616.317	-54.730	0.207	-0.093
-615.303	146.382	0.064	-0.085
-614.288	-37.841	-0.350	-0.186
-613.273	-100.419	-0.174	-0.043
-612.259	-37.300	-0.378	0.202
-611.244	-51.681	0.025	-0.012
-610.230	-82.930	0.023	0.007
-609.215	327.262	0.155	0.297
-608.201	-193.424	-0.173	0.001
-607.186	-128.695	-0.127	-0.018
-606.171	-52.167	-0.118	0.055
-605.157	675.589	0.092	-0.238
-604.142	800.000	-0.094	-0.286
-603.128	-149.272	-0.424	0.034
-602.113	-139.575	-0.422	-0.045
-601.098	800.000	0.124	-0.457
-600.084	-113.138	0.248	0.049
-599.069	-16.042	-0.204	0.130
-598.055	85.451	-0.250	0.274
-597.040	-58.896	0.319	-0.137
-596.025	248.226	-0.129	0.217
-595.011	10.662	0.300	0.228
-593.996	-23.380	-0.148	-0.089
-592.982	713.868	0.060	0.159
-591.967	106.858	-0.052	-0.062
-590.952	-79.008	0.145	0.049
-589.938	233.381	-0.111	-0.183
-588.923	413.274	0.042	0.089
-587.909	20.736	0.159	-0.128
-586.894	-200.000	-0.031	-0.188
-585.879	-172.251	0.135	0.004
-584.865	-200.000	0.004	0.047
-583.850	-148.473	0.211	-0.017
-582.836	-102.334	-0.157	-0.037
-581.821	-184.880	-0.207	0.003
-580.806	800.000	0.036	0.106
-579.792	135.718	-0.102	0.132
-578.777	352.529	0.083	-0.164
-577.763	98.504	-0.033	0.038
-576.748	-9.140	0.134	0.089
-575.733	-200.000	0.008	0.402
-574.719	-44.349	-0.360	-0.179
-573.704	-33.712	0.169	0.093
-572.690	-57.536	0.084	0.037
-571.675	171.053	0.029	0.042
-570.661	29.947	0.246	0.209
-569.646	-168.506	0.308	0.012
-568.631	98.607	-0.152	-0.175
-567.617	800.000	0.116	-0.441
-566.602	-200.000	-0.016	-0.253
-565.588	-47.582	0.192	0.093
-564.573	-96.411	-0.189	-0.050
-563.558	-42.432	-0.068	-0.035
-562.544	605.621	-0.112	-0.279
-561.529	-150.140	-0.438	0.034
-560.515	-35.999	-0.140	-0.075
-559.500	-22.292	-0.224	-0.135
-558.485	-1.636	0.235	-0.165
-557.471	29.508	0.502	-0.425
-556.456	-46.992	-0.078	-0.038
-555.442	-14.297	0.183	-0.117
-554.427	204.665	0.200	-0.308
-553.412	-40.695	0.262	-0.135
-552.398	460.778	-0.131	0.290
-551.383	-200.000	0.023	0.113
-550.369	149.863	0.111	-0.150
-549.354	387.030	0.123	-0.252
-548.339	-61.957	-0.173	-0.072
-547.325	800.000	-0.059	-0.201
-546.310	216.165	-0.209	-0.331
-545.296	-200.000	0.031	0.328
-544.281	164.202	0.034	0.048
-543.266	-81.665	-0.401	0.131
-542.252	800.000	0.035	-0.107
-541.237	-117.246	0.343	-0.062
-540.223	-41.422	0.166	0.085
-539.208	326.271	0.166	0.316
-538.193	-105.140	0.342	-0.078
-537.179	30.268	-0.260	-0.221
-536.164	166.839	-0.044	-0.062
-535.150	800.000	-0.037	0.112
-534.135	800.000	-0.089	0.326
-533.121	-75.893	0.130	0.046
-532.106	-37.627	0.097	-0.051
-531.091	-156.350	0.033	-0.002
-530.077	-158.418	0.238	-0.014
-529.062	-81.723	-0.235	-0.077
-528.048	92.231	0.152	-0.170
-527.033	322.675	-0.141	-0.267
-526.018	-105.673	0.445	-0.100
-525.004	800.000	-0.083	-0.268
-523.989	46.661	-0.196	0.181
-522.975	397.559	-0.079	-0.163
-521.960	800.000	-0.064	0.255
-520.945	309.396	-0.118	-0.219
-519.931	22.622	0.202	-0.164
-518.916	-200.000	-0.017	0.104
-517.902	-171.791	-0.147	0.005
-516.887	-87.675	-0.277	-0.083
-515.872	800.000	0.040	-0.109
-514.858	162.282	-0.189	-0.263
-513.843	800.000	0.108	-0.342
-512.829	438.369	-0.100	0.216
-511.814	800.000	0.040	-0.128
-510.799	800.000	0.075	-0.264
-509.785	603.284	0.086	-0.213
-508.770	25.689	-0.172	0.142
-507.756	-147.497	0.140	0.012
-506.741	-200.000	-0.006	-0.102
-505.726	-200.000	-0.007	0.133
-504.712	-15.211	-0.077	0.049
-503.697	-16.810	0.095	0.059
-502.683	800.000	0.030	0.102
-501.668	510.378	-0.136	0.315
-500.653	-52.878	0.231	0.106
-499.639	800.000	-0.030	0.098
-498.624	800.000	-0.075	-0.261
-497.610	14.377	-0.112	-0.087
-496.595	14.329	0.053	-0.041
-495.581	0.662	-0.160	-0.114
-494.566	-175.513	0.066	0.002
-493.551	372.005	0.057	-0.114
-492.537	-1.224	-0.258	-0.181
-491.522	205.898	0.199	0.307
-490.508	-200.000	0.013	-0.291
-489.493	211.446	-0.128	0.200
-488.478	109.185	-0.075	-0.089
-487.464	45.060	0.191	-0.174
-486.449	800.000	-0.034	-0.113
-485.435	62.568	-0.125	0.124
-484.420	443.856	0.130	0.284
-483.405	238.804	-0.025	-0.041
-482.391	-96.478	0.057	0.015
-481.376	11.482	-0.400	0.304
-480.362	201.628	-0.104	-0.159
-479.347	-13.057	-0.200	-0.129
-478.332	-34.903	0.059	-0.032
-477.318	-136.647	0.169	-0.019
-476.303	-200.000	0.035	-0.273
-475.289	-200.000	0.000	0.032
-474.274	800.000	-0.021	0.063
-473.259	-200.000	0.102	0.469
-472.245	45.466	-0.123	-0.113
-471.230	-200.000	-0.017	-0.097
-470.216	150.892	-0.119	0.161
-469.201	-185.510	-0.301	-0.005
-468.186	202.306	0.224	0.343
-467.172	-118.599	-0.295	-0.052
-466.157	-200.000	-0.013	-0.321
-465.143	-187.185	-0.117	-0.002
-464.128	300.910	-0.217	-0.396
-463.113	-200.000	0.003	0.199
-462.099	-132.256	0.339	0.043
-461.084	-120.461	-0.329	0.055
-460.070	-128.668	0.320	-0.045
-459.055	701.006	0.035	0.092
-458.040	-140.238	0.332	-0.035
-457.026	-84.589	-0.275	-0.086
-456.011	-167.683	-0.472	0.019
-454.997	-63.765	-0.274	-0.111
-453.982	-96.163	0.260	0.068
-452.968	800.000	-0.160	-0.623
-451.953	-30.539	-0.136	-0.076
-450.938	-200.000	-0.012	-0.122
-449.924	800.000	-0.118	-0.352
-448.909	-127.390	0.213	0.031
-447.895	89.221	0.201	-0.222
-446.880	92.861	-0.244	-0.273
-445.865	97.548	0.172	-0.196
-444.851	14.940	-0.076	-0.059
-443.836	-182.133	0.184	0.003
-442.822	190.193	-0.133	0.198
-441.807	-16.855	-0.321	-0.201
-440.792	-120.155	-0.330	0.056
-439.778	116.309	0.115	0.140
-438.763	-75.867	0.281	0.099
-437.749	36.201	0.212	-0.185
-436.734	461.745	0.039	0.087
-435.719	25.560	0.105	-0.086
-434.705	143.982	-0.176	-0.232
-433.690	-200.000	0.001	0.226
-432.676	-108.637	-0.123	-0.026
-431.661	172.938	0.176	0.251
-430.646	207.696	0.130	-0.201
-429.632	-200.000	0.065	0.343
-428.617	-200.000	-0.002	0.110
-427.603	-200.000	-0.023	0.160
-426.588	-200.000	0.018	-0.202
-425.573	527.950	0.136	0.317
-424.559	680.766	-0.068	0.176
-423.544	-200.000	0.000	-0.032
-422.530	136.212	0.198	-0.256
-421.515	-1.045	0.172	-0.120
-420.500	127.481	0.115	0.145
-419.486	128.469	0.098	0.124
-418.471	800.000	-0.028	0.100
-417.457	10.755	-0.224	-0.170
-416.442	-200.000	0.011	0.061
-415.428	-200.000	-0.014	-0.329
-414.413	404.359	-0.074	-0.155
-413.398	401.472	0.212	0.441
-412.384	-89.233	0.476	0.139
-411.369	162.250	-0.117	-0.162
-410.355	20.697	-0.168	0.135
-409.340	56.440	-0.066	-0.063
-408.325	-38.346	0.137	0.072
-407.311	-167.193	0.185	0.007
-406.296	-96.326	0.203	0.053
-405.282	306.009	-0.069	-0.127
-404.267	-200.000	0.022	0.195
-403.252	-164.083	-0.408	0.019
-402.238	-88.756	0.053	0.016
-401.223	413.646	-0.141	0.297
-400.209	-36.116	0.231	0.124
-399.194	562.997	0.125	0.300
-398.179	330.898	0.108	0.206
-397.165	-7.255	0.204	-0.137
-396.150	-16.466	-0.125	0.079
-395.136	14.075	0.211	0.162
-394.121	-200.000	0.023	0.190
-393.106	800.000	-0.097	-0.347
-392.092	-136.265	0.345	-0.040
-391.077	-63.243	-0.235	0.096
-390.063	-200.000	0.022	0.162
-389.048	800.000	-0.069	0.246
-388.033	-200.000	-0.016	0.090
-387.019	11.738	-0.204	-0.155
-386.004	-200.000	0.034	0.227
-384.990	240.953	-0.066	0.109
-383.975	12.523	0.060	0.046
-382.960	106.875	-0.201	-0.236
-381.946	-1.794	0.126	0.088
-380.931	800.000	-0.083	0.295
-379.917	-154.469	0.105	-0.007
-378.902	-69.032	-0.182	0.069
-377.888	-154.655	0.263	-0.017
-376.873	-123.082	0.246	0.039
-375.858	312.995	0.092	0.171
-374.844	-69.647	-0.122	-0.046
-373.829	-155.791	0.170	0.011
-372.815	352.781	-0.075	-0.148
-371.800	458.757	-0.202	-0.445
-370.785	45.190	0.096	-0.088
-369.771	-200.000	0.026	-0.219
-368.756	-200.000	0.036	0.243
-367.742	-200.000	0.049	0.265
-366.727	-6.908	0.189	-0.127
-365.712	386.844	0.094	-0.192
-364.698	-200.000	0.018	0.128
-363.683	-81.176	-0.296	-0.097
-362.669	-141.128	-0.353	-0.036
-361.654	-87.199	-0.426	0.128
-360.639	-37.893	-0.272	0.143
-359.625	-200.000	-0.000	0.247
-358.610	-138.777	0.180	-0.019
-357.596	-46.132	-0.139	0.067
-356.581	13.453	0.221	-0.169
-355.566	68.300	-0.245	-0.248
-354.552	800.000	0.042	0.175
-353.537	51.276	0.180	-0.168
-352.523	199.780	0.196	-0.297
-351.508	-59.530	0.077	0.033
-350.493	-146.759	0.501	0.043
-349.479	72.665	-0.247	-0.255
-348.464	235.998	0.052	-0.085
-347.450	684.747	0.070	0.179
-346.435	133.866	0.197	-0.252
-345.420	-67.581	0.377	-0.146
-344.406	-120.488	0.073	0.012
-343.391	-153.798	0.432	0.029
-342.377	67.837	-0.134	0.135
-341.362	-200.000	0.054	0.262
-340.348	294.690	0.267	0.483
-339.333	-131.613	-0.236	0.031
-338.318	27.498	0.195	0.162
-337.304	-200.000	0.053	0.279
-336.289	185.176	0.163	0.239
-335.275	800.000	0.164	-0.501
-334.260	-200.000	-0.063	-0.284
-333.245	-182.930	-0.506	0.009
-332.231	-136.265	0.063	-0.007
-331.216	21.645	0.195	-0.157
-330.202	0.949	-0.053	-0.038
-329.187	-0.848	-0.127	0.089
-328.172	12.560	0.343	-0.262
-327.158	-200.000	-0.038	0.210
-326.143	301.006	-0.156	0.285
-325.129	37.373	0.355	0.310
-324.114	800.000	-0.044	-0.186
-323.099	56.753	-0.215	-0.207
-322.085	-127.197	-0.132	-0.019
-321.070	68.808	-0.137	-0.139
-320.056	-128.040	-0.243	-0.034
-319.041	-200.000	0.044	0.259
-318.026	208.697	0.069	-0.107
-317.012	124.883	-0.080	-0.099
-315.997	-34.327	0.470	0.254
-314.983	-57.635	-0.121	0.052
-313.968	-46.691	-0.159	0.077
-312.953	-200.000	-0.014	0.127
-311.939	-108.841	-0.167	-0.035
-310.924	113.921	-0.048	-0.057
-309.910	-26.198	0.255	0.148
-308.895	162.029	-0.280	0.387
-307.880	605.229	0.114	0.281
-306.866	-155.483	-0.221	-0.014
-305.851	-76.094	-0.399	-0.139
-304.837	800.000	-0.044	0.174
-303.822	-200.000	0.032	0.251
-302.807	61.315	0.160	0.157
-301.793	59.331	-0.228	0.221
-300.778	-200.000	0.085	-0.000
-299.764	203.474	-0.037	-0.056
-298.749	-58.834	-0.495	-0.211
-297.735	716.538	0.104	-0.272
-296.720	192.936	0.187	-0.278
-295.705	201.656	-0.129	-0.196
-294.691	1.082	-0.139	-0.098
-293.676	42.023	0.100	-0.090
-292.662	204.806	-0.059	0.091
-291.647	33.454	0.181	-0.155
-290.632	89.536	0.159	0.175
-289.618	-42.072	0.024	-0.012
-288.603	-131.704	-0.287	0.037
-287.589	-36.964	0.271	0.143
-286.574	189.393	0.072	0.107
-285.559	-82.005	0.234	0.075
-284.545	-200.000	-0.028	0.138
-283.530	152.450	-0.099	-0.134
-282.516	-144.635	0.414	-0.038
-281.501	125.969	-0.195	-0.242
-280.486	-100.518	0.107	-0.026
-279.472	-2.281	0.068	0.047
-278.457	-87.327	-0.040	0.012
-277.443	533.678	0.013	0.030
-276.428	135.002	-0.079	-0.101
-275.413	-74.117	0.196	-0.070
-274.399	800.000	0.022	0.088
-273.384	-200.000	-0.008	0.228
-272.370	40.967	-0.114	0.102
-271.355	476.678	0.055	0.123
-270.340	414.968	0.194	-0.406
-269.326	13.862	0.214	-0.164
-268.311	-0.913	-0.198	0.138
-267.297	157.035	0.110	-0.150
-266.282	800.000	-0.119	-0.365
-265.267	472.891	0.035	-0.078
-264.253	-69.556	-0.171	-0.065
-263.238	-26.736	-0.176	0.101
-262.224	726.237	-0.190	-0.499
-261.209	162.655	-0.090	-0.124
-260.195	800.000	0.017	0.048
-259.180	451.231	-0.080	0.175
-258.165	-29.546	0.105	-0.059
-257.151	-46.505	0.096	0.047
-256.136	26.663	0.291	-0.240
-255.122	-200.000	0.050	0.464
-254.107	276.848	0.174	0.304
-253.092	179.983	0.181	0.261
-252.078	65.954	-0.174	0.173
-251.063	-200.000	-0.012	-0.170
-250.049	-200.000	0.072	-0.363
-249.034	13.637	0.163	-0.124
-248.019	-5.796	-0.257	-0.173
-247.005	-184.058	-0.162	-0.003
-245.990	-37.855	0.042	-0.022
-244.976	-137.569	-0.222	0.025
-243.961	-170.670	-0.138	-0.005
-242.946	800.000	0.058	0.177
-241.932	-124.666	0.217	0.033
-240.917	63.457	-0.184	-0.182
-239.903	800.000	-0.051	-0.194
-238.888	-200.000	0.003	-0.124
-237.873	316.592	-0.095	0.177
-236.859	22.712	-0.189	0.152
-235.844	-200.000	0.039	0.381
-234.830	62.574	-0.157	0.154
-233.815	-127.567	-0.394	0.056
-232.800	-139.660	0.088	-0.009
-231.786	68.787	-0.207	-0.209
-230.771	-8.729	0.204	0.135
-229.757	-200.000	-0.051	-0.309
-228.742	5.618	-0.280	0.204
-227.727	144.322	-0.154	-0.202
-226.713	310.960	-0.092	-0.169
-225.698	398.248	-0.020	0.041
-224.684	800.000	0.079	0.240
-223.669	207.314	0.047	-0.072
-222.655	-25.146	-0.318	-0.185
-221.640	21.589	-0.309	-0.247
-220.625	-34.675	-0.041	0.022
-219.611	-200.000	-0.024	0.249
-218.596	229.262	-0.181	0.290
-217.582	-197.450	-0.186	-0.001
-216.567	50.881	-0.121	0.113
-215.552	471.249	0.091	-0.202
-214.538	-64.154	0.064	0.026
-213.523	-200.000	0.077	0.381
-212.509	246.632	0.067	0.110
-211.494	-24.175	0.205	0.120
-210.479	-200.000	0.015	0.164
-209.465	-137.029	-0.052	0.006
-208.450	156.411	-0.076	0.103
-207.436	800.000	0.044	-0.165
-206.421	-9.095	-0.191	0.126
-205.406	-200.000	0.002	-0.140
-204.392	46.841	-0.106	-0.097
-203.377	71.866	-0.185	0.189
-202.363	-53.990	0.107	-0.048
-201.348	-200.000	-0.018	-0.107
-200.333	800.000	-0.048	0.184
-199.319	-200.000	0.015	0.129
-198.304	614.301	0.087	-0.214
-197.290	83.676	0.111	0.119
-196.275	110.178	0.249	0.294
-195.260	422.062	0.135	0.284
-194.246	-120.966	0.298	0.049
-193.231	133.501	-0.221	0.281
-192.217	-58.981	-0.299	-0.127
-191.202	800.000	0.045	0.181
-190.187	-157.061	-0.379	-0.023
-189.173	62.308	-0.296	0.290
-188.158	-200.000	0.012	-0.107
-187.144	-149.318	-0.200	0.016
-186.129	-200.000	-0.006	0.066
-185.114	61.335	0.155	0.151
-184.100	-94.363	-0.303	0.081
-183.085	-147.011	0.212	0.018
-182.071	234.653	0.131	-0.212
-181.056	-111.511	-0.170	-0.034
-180.042	-142.800	0.057	-0.005
-179.027	-60.239	-0.223	0.093
-178.012	-47.995	0.304	-0.144
-176.998	195.067	0.212	-0.316
-175.983	-155.400	0.117	-0.007
-174.969	-200.000	-0.049	0.364
-173.954	-35.041	-0.393	-0.210
-172.939	-200.000	0.021	0.222
-171.925	-133.308	0.206	-0.026
-170.910	-69.365	0.247	-0.093
-169.896	10.406	0.020	-0.015
-168.881	-18.647	-0.116	0.071
-167.866	112.659	0.181	0.215
-166.852	46.761	0.080	0.073
-165.837	-200.000	0.009	-0.132
-164.823	26.947	-0.121	0.099
-163.808	53.258	-0.111	0.104
-162.793	-107.506	0.674	0.145
-161.779	800.000	0.024	-0.086
-160.764	433.336	-0.098	0.209
-159.750	-145.782	0.207	-0.018
-158.735	-123.019	0.194	-0.031
-157.720	178.906	-0.074	0.105
-156.706	800.000	-0.021	-0.082
-155.691	127.685	-0.250	0.311
-154.677	9.855	0.260	-0.193
-153.662	-32.643	-0.089	0.049
-152.647	-104.792	0.205	-0.046
-151.633	29.485	0.236	0.197
-150.618	-154.043	-0.183	0.012
-149.604	259.401	0.025	-0.042
-148.589	-29.814	-0.014	0.008
-147.574	550.357	-0.100	-0.235
-146.560	-87.552	-0.222	0.066
-145.545	800.000	0.018	-0.059
-144.531	800.000	0.083	-0.282
-143.516	-57.967	0.023	0.010
-142.502	1.995	-0.329	0.233
-141.487	-200.000	0.081	0.407
-140.472	800.000	0.080	0.255
-139.458	724.783	-0.071	-0.185
-138.443	-56.469	-0.101	0.044
-137.429	101.424	0.074	-0.085
-136.414	-54.425	0.060	0.027
-135.399	-83.555	0.337	-0.106
-134.385	142.404	0.120	-0.156
-133.370	183.281	0.222	0.321
-132.356	-143.486	0.124	0.012
-131.341	-19.040	0.444	0.270
-130.326	8.151	0.371	0.273
-129.312	220.849	-0.126	0.197
-128.297	-37.636	0.159	0.083
-127.283	-21.770	0.144	0.086
-126.268	-107.217	-0.142	0.031
-125.253	800.000	-0.004	0.012
-124.239	233.022	0.144	0.232
-123.224	800.000	0.042	0.124
-122.210	186.716	-0.175	-0.255
-121.195	-27.167	-0.102	0.058
