DTS Sentinel unit serial number:	SN413079Multiplexer serial number:	ORYXHardware model number:	OX4-SRSoftware version number:	ORYX F/W v4.00 Oryx Data Collector v3.7.2.0data status	okinstallation	princeton_trtdifferential loss correction	single-endedforward channel	channel 1reverse channel	N/Adate	2019/09/16time	11:30:35forward acquisition time	60.00reverse acquisition time	0.00gamma	496.2192k internal	0.2297k external	0.2297temperature offset calibration	0.9964default loss term (dB/km)	0.3790temperature slope calibration	1.0000multiplexer offset coefficient	1.0000multiplexer slope coefficient	1.0000fibre end	0.00T internal ref (°C)	37.66T ext. ref 1 (°C)	12.96T ext. ref 2 (°C)	35.67length (m)	temperature (°C)	Stokes	anti-Stokes-747.200	-80.357	-0.146	0.050
-746.185	800.000	0.025	0.089
-745.171	-52.737	0.152	-0.072
-744.156	-114.210	0.095	-0.019
-743.142	-171.254	-0.238	-0.008
-742.127	105.443	0.229	0.276
-741.112	36.428	0.147	-0.132
-740.098	-40.287	0.109	-0.058
-739.083	165.794	0.023	-0.033
-738.069	-200.000	-0.030	0.199
-737.054	159.939	0.146	0.207
-736.039	-200.000	0.067	0.322
-735.025	-5.819	-0.052	-0.036
-734.010	-200.000	0.016	-0.240
-732.996	-173.313	0.057	0.002
-731.981	184.526	-0.038	0.058
-730.966	41.222	-0.216	0.200
-729.952	44.131	0.390	0.366
-728.937	-75.496	-0.186	-0.068
-727.923	-52.483	-0.356	-0.168
-726.908	-200.000	0.027	-0.318
-725.894	602.518	0.091	0.231
-724.879	217.169	-0.053	0.087
-723.864	34.035	-0.132	0.117
-722.850	-20.750	0.138	-0.087
-721.835	-67.908	0.150	-0.060
-720.821	105.833	-0.080	-0.096
-719.806	73.843	-0.192	-0.205
-718.791	-65.894	-0.130	0.053
-717.777	-170.917	-0.091	-0.003
-716.762	-148.409	0.243	-0.020
-715.748	288.982	0.070	0.129
-714.733	-177.749	0.018	-0.000
-713.718	47.728	0.088	-0.084
-712.704	800.000	0.041	0.128
-711.689	22.813	-0.129	-0.108
-710.675	146.751	-0.164	0.225
-709.660	48.520	0.147	0.141
-708.645	-200.000	0.053	0.439
-707.631	39.816	0.246	-0.225
-706.616	-122.785	-0.091	0.015
-705.602	12.657	-0.257	-0.202
-704.587	559.573	-0.089	0.220
-703.572	-56.804	0.052	0.023
-702.558	-63.077	0.151	0.063
-701.543	-200.000	0.044	0.522
-700.529	800.000	0.078	0.289
-699.514	-47.002	-0.205	0.102
-698.499	675.735	0.110	0.290
-697.485	-15.818	-0.355	0.230
-696.470	73.836	0.058	-0.062
-695.456	-49.104	0.356	0.174
-694.441	-200.000	0.060	-0.297
-693.426	-200.000	0.449	-0.002
-692.412	-200.000	-0.010	-0.213
-691.397	-158.170	0.375	0.022
-690.383	-200.000	-0.036	-0.270
-689.368	53.150	-0.010	0.010
-688.354	-200.000	0.027	0.139
-687.339	-168.852	0.076	0.003
-686.324	-45.473	-0.243	0.123
-685.310	-154.828	-0.098	-0.007
-684.295	506.325	0.041	0.096
-683.281	-165.378	0.254	-0.011
-682.266	-200.000	-0.010	-0.194
-681.251	-49.098	0.173	0.084
-680.237	18.792	-0.084	0.068
-679.222	-49.182	-0.162	-0.079
-678.208	82.863	0.193	0.214
-677.193	-154.307	-0.462	-0.032
-676.178	-63.846	-0.131	0.055
-675.164	-15.092	0.365	-0.238
-674.149	444.436	-0.116	-0.259
-673.135	-9.390	0.224	0.152
-672.120	251.478	0.097	0.167
-671.105	-177.606	-0.122	-0.003
-670.091	-22.276	-0.190	0.117
-669.076	-54.536	0.064	0.029
-668.062	-76.278	-0.123	0.044
-667.047	-164.932	0.115	-0.005
-666.032	21.158	-0.060	0.049
-665.018	102.514	-0.259	-0.309
-664.003	800.000	0.051	0.174
-662.989	57.272	0.232	0.230
-661.974	-52.531	0.212	-0.100
-660.959	-200.000	0.019	0.140
-659.945	-41.809	-0.168	0.088
-658.930	250.506	-0.140	0.242
-657.916	-200.000	-0.005	0.154
-656.901	76.767	0.276	-0.298
-655.886	-135.922	0.061	0.007
-654.872	-200.000	-0.029	-0.150
-653.857	800.000	-0.093	-0.310
-652.843	46.480	-0.233	0.220
-651.828	1.631	-0.080	0.058
-650.814	-200.000	-0.021	0.109
-649.799	-200.000	-0.003	0.347
-648.784	-85.339	-0.185	0.059
-647.770	-200.000	0.044	-0.213
-646.755	-21.382	-0.063	0.039
-645.741	124.595	-0.077	-0.099
-644.726	92.636	-0.200	0.230
-643.711	621.867	-0.070	0.178
-642.697	-33.618	-0.019	-0.010
-641.682	800.000	-0.101	0.292
-640.668	-200.000	-0.004	0.283
-639.653	-48.622	0.075	-0.037
-638.638	-200.000	-0.012	-0.306
-637.624	24.657	0.050	-0.042
-636.609	59.783	-0.080	-0.080
-635.595	300.892	-0.161	0.303
-634.580	48.286	0.127	-0.121
-633.565	-200.000	-0.030	-0.284
-632.551	-200.000	-0.007	-0.176
-631.536	-28.709	-0.290	0.170
-630.522	-200.000	0.061	0.390
-629.507	134.744	-0.215	0.283
-628.492	1.955	-0.042	-0.031
-627.478	-159.752	0.318	0.018
-626.463	-78.153	-0.278	0.097
-625.449	-200.000	0.035	-0.195
-624.434	-7.306	0.272	0.187
-623.419	47.572	-0.216	-0.205
-622.405	-50.375	0.293	0.141
-621.390	-11.113	0.126	0.084
-620.376	33.700	-0.089	0.079
-619.361	-103.423	-0.061	-0.015
-618.346	63.008	-0.094	-0.095
-617.332	800.000	0.166	-0.505
-616.317	253.266	-0.076	0.132
-615.303	-78.789	0.002	0.001
-614.288	-17.214	0.281	0.180
-613.273	-200.000	0.012	0.115
-612.259	800.000	0.038	0.161
-611.244	-84.577	-0.214	0.068
-610.230	229.861	-0.054	0.090
-609.215	-143.121	-0.302	0.030
-608.201	-42.373	0.136	0.070
-607.186	800.000	-0.061	-0.211
-606.171	-200.000	0.036	0.373
-605.157	124.853	-0.180	-0.230
-604.142	-174.478	-0.257	-0.007
-603.128	25.857	0.173	-0.147
-602.113	86.525	-0.157	-0.176
-601.098	757.537	0.116	-0.319
-600.084	-200.000	0.015	-0.307
-599.069	-54.814	0.311	-0.143
-598.055	192.293	-0.214	0.328
-597.040	-142.347	0.116	0.012
-596.025	161.939	0.055	0.078
-595.011	800.000	0.052	0.231
-593.996	-48.884	0.157	-0.076
-592.982	111.660	-0.090	-0.110
-591.967	-78.681	0.252	-0.087
-590.952	125.178	0.152	0.195
-589.938	110.340	0.199	0.242
-588.923	-49.206	-0.187	-0.091
-587.909	800.000	-0.059	-0.178
-586.894	-11.653	0.098	0.065
-585.879	343.269	-0.088	0.174
-584.865	-80.302	0.272	-0.092
-583.850	693.197	0.007	0.019
-582.836	235.308	-0.057	0.096
-581.821	-92.214	-0.370	-0.106
-580.806	-173.306	0.125	-0.004
-579.792	341.926	-0.103	0.205
-578.777	87.513	0.053	0.059
-577.763	617.501	-0.143	-0.365
-576.748	396.360	0.099	-0.211
-575.733	-1.939	-0.088	0.063
-574.719	800.000	0.105	0.318
-573.704	-158.930	-0.326	0.019
-572.690	-108.997	0.220	0.048
-571.675	-17.714	-0.193	-0.123
-570.661	-26.567	-0.309	0.183
-569.646	56.731	-0.269	0.265
-568.631	-24.272	-0.216	0.131
-567.617	148.161	-0.156	0.213
-566.602	-36.006	-0.083	0.046
-565.588	41.623	-0.268	-0.246
-564.573	800.000	0.054	-0.217
-563.558	-94.647	0.173	0.048
-562.544	718.872	-0.126	0.339
-561.529	-175.238	0.124	-0.003
-560.515	148.896	0.052	-0.072
-559.500	87.107	-0.171	-0.192
-558.485	242.899	-0.090	-0.153
-557.471	-29.975	-0.107	0.062
-556.456	-131.934	0.182	0.024
-555.442	209.461	0.230	0.365
-554.427	-200.000	-0.038	0.179
-553.412	-66.666	0.033	0.013
-552.398	331.420	0.120	0.235
-551.383	-74.046	0.066	0.024
-550.369	23.128	-0.205	-0.170
-549.354	246.671	0.204	0.349
-548.339	-86.347	-0.047	-0.015
-547.325	201.870	-0.064	0.100
-546.310	-70.319	-0.543	0.209
-545.296	-194.844	-0.460	-0.004
-544.281	-168.205	-0.212	0.008
-543.266	-200.000	0.006	0.389
-542.252	716.322	0.006	-0.015
-541.237	281.051	-0.173	0.314
-540.223	103.961	0.159	0.190
-539.208	800.000	0.052	-0.159
-538.193	158.575	-0.070	0.098
-537.179	159.874	0.179	-0.253
-536.164	-85.708	0.163	-0.051
-535.150	34.018	0.191	-0.169
-534.135	-184.915	-0.056	-0.001
-533.121	-200.000	0.010	0.103
-532.106	49.723	-0.041	0.039
-531.091	-55.566	-0.143	-0.065
-530.077	-17.170	-0.039	-0.025
-529.062	-200.000	-0.022	-0.199
-528.048	-108.867	-0.279	-0.060
-527.033	-200.000	-0.000	-0.175
-526.018	-200.000	-0.001	0.007
-525.004	90.423	0.221	0.250
-523.989	-200.000	0.027	-0.194
-522.975	38.751	0.214	-0.193
-521.960	17.442	0.136	0.109
-520.945	213.334	-0.065	0.104
-519.931	416.022	0.080	0.172
-518.916	747.004	-0.108	0.294
-517.902	-197.032	0.158	0.001
-516.887	-184.233	-0.252	-0.004
-515.872	380.446	-0.048	-0.100
-514.858	-61.676	0.204	-0.087
-513.843	-78.007	0.502	0.175
-512.829	-200.000	-0.033	0.157
-511.814	-200.000	0.007	-0.082
-510.799	-74.790	-0.222	0.081
-509.785	752.999	0.091	-0.249
-508.770	48.944	0.347	0.330
-507.756	27.324	0.142	0.121
-506.741	149.637	-0.010	-0.014
-505.726	291.529	0.208	-0.383
-504.712	-62.471	-0.086	-0.036
-503.697	133.762	0.243	-0.318
-502.683	-200.000	-0.015	-0.175
-501.668	800.000	0.066	0.252
-500.653	-28.605	0.175	-0.102
-499.639	394.833	0.039	-0.082
-498.624	455.402	-0.037	-0.083
-497.610	65.776	-0.127	-0.130
-496.595	-116.854	-0.026	0.005
-495.581	-90.244	0.066	-0.019
-494.566	-200.000	0.000	-0.085
-493.551	-17.185	-0.277	-0.177
-492.537	161.546	-0.151	0.214
-491.522	-200.000	-0.050	0.275
-490.508	-14.757	0.121	0.079
-489.493	400.057	-0.111	0.235
-488.478	-200.000	0.007	-0.092
-487.464	137.443	0.140	-0.185
-486.449	-10.976	-0.219	0.146
-485.435	800.000	0.117	0.406
-484.420	-23.291	0.155	-0.094
-483.405	371.287	0.059	0.122
-482.391	300.978	0.035	0.066
-481.376	800.000	-0.022	0.088
-480.362	-119.821	0.147	0.026
-479.347	195.735	0.138	0.213
-478.332	-75.610	0.221	0.079
-477.318	-71.094	0.115	-0.044
-476.303	-200.000	0.006	0.190
-475.289	308.942	-0.223	0.421
-474.274	-115.324	-0.578	-0.110
-473.259	-90.754	-0.184	0.054
-472.245	-44.873	-0.090	-0.045
-471.230	-83.723	-0.226	-0.073
-470.216	335.196	0.125	-0.245
-469.201	-200.000	0.078	0.416
-468.186	-142.106	-0.217	0.022
-467.172	18.224	0.104	-0.084
-466.157	227.708	-0.294	-0.484
-465.143	800.000	0.038	-0.166
-464.128	-127.310	-0.120	0.018
-463.113	73.459	-0.112	0.118
-462.099	-166.231	0.106	-0.005
-461.084	-86.353	-0.065	-0.020
-460.070	-124.552	0.071	0.011
-459.055	16.177	0.267	-0.213
-458.040	-200.000	0.036	-0.386
-457.026	263.188	0.188	0.330
-456.011	303.983	-0.082	0.153
-454.997	-77.940	0.128	0.045
-453.982	-91.574	0.211	0.061
-452.968	-200.000	0.007	-0.116
-451.953	153.750	0.115	0.160
-450.938	348.917	0.033	0.065
-449.924	-26.002	0.199	0.118
-448.909	800.000	0.050	0.201
-447.895	-15.552	0.101	0.065
-446.880	-97.004	-0.080	0.021
-445.865	-19.748	-0.286	-0.178
-444.851	-21.110	0.256	-0.158
-443.836	-200.000	0.020	-0.247
-442.822	-118.904	-0.296	0.052
-441.807	800.000	0.036	0.109
-440.792	91.953	-0.038	-0.043
-439.778	83.826	-0.130	0.143
-438.763	-98.938	0.063	0.016
-437.749	-200.000	-0.014	-0.095
-436.734	800.000	-0.031	-0.124
-435.719	-121.198	0.334	-0.056
-434.705	119.373	-0.111	0.138
-433.690	28.025	-0.262	-0.223
-432.676	800.000	0.058	-0.223
-431.661	-74.427	-0.260	-0.095
-430.646	-39.956	0.218	0.115
-429.632	59.044	-0.091	0.090
-428.617	454.053	0.152	-0.339
-427.603	800.000	-0.077	0.325
-426.588	305.484	-0.196	0.368
-425.573	144.033	0.113	0.152
-424.559	642.871	-0.061	0.158
-423.544	627.722	0.059	0.150
-422.530	240.704	0.098	0.166
-421.515	-95.337	0.344	-0.093
-420.500	-5.086	0.093	0.064
-419.486	-97.380	0.091	0.024
-418.471	427.213	0.192	-0.419
-417.457	368.556	0.110	-0.225
-416.442	-46.667	-0.204	-0.101
-415.428	800.000	-0.112	0.377
-414.413	211.396	0.118	0.187
-413.398	-76.940	-0.494	0.174
-412.384	800.000	0.064	-0.193
-411.369	800.000	0.132	-0.375
-410.355	-142.817	0.471	0.046
-409.340	800.000	-0.045	-0.140
-408.325	132.085	-0.144	-0.187
-407.311	-66.116	-0.089	0.036
-406.296	44.286	-0.156	0.144
-405.282	800.000	0.018	0.063
-404.267	-118.718	0.168	0.030
-403.252	-200.000	-0.026	-0.161
-402.238	-200.000	0.050	0.336
-401.223	-200.000	-0.001	0.149
-400.209	-185.660	0.312	0.005
-399.194	-71.256	0.130	0.049
-398.179	-72.179	0.218	-0.081
-397.165	96.543	-0.059	-0.068
-396.150	-82.958	-0.239	-0.078
-395.136	-90.119	0.183	0.054
-394.121	42.733	-0.120	-0.110
-393.106	-37.459	0.379	-0.204
-392.092	198.903	0.155	-0.239
-391.077	-200.000	0.014	-0.220
-390.063	121.676	-0.225	0.282
-389.048	-67.294	0.326	0.129
-388.033	800.000	0.053	-0.177
-387.019	-4.633	0.183	0.127
-386.004	165.409	-0.287	0.408
-384.990	-158.128	0.185	0.011
-383.975	-200.000	-0.043	-0.251
-382.960	50.703	-0.187	-0.178
-381.946	-200.000	-0.001	-0.266
-380.931	-6.109	0.101	-0.070
-379.917	75.357	0.286	-0.303
-378.902	21.755	-0.143	-0.118
-377.888	173.809	0.156	-0.227
-376.873	-75.199	0.095	-0.034
-375.858	-32.017	-0.150	0.085
-374.844	-200.000	0.004	-0.295
-373.829	-165.906	0.069	-0.003
-372.815	140.493	0.154	0.205
-371.800	79.301	-0.224	0.242
-370.785	800.000	0.054	-0.198
-369.771	758.202	-0.057	-0.155
-368.756	227.513	-0.141	0.231
-367.742	16.958	0.078	0.062
-366.727	95.951	-0.106	-0.122
-365.712	-200.000	-0.008	0.436
-364.698	-90.024	0.357	-0.105
-363.683	-118.586	-0.193	0.034
-362.669	39.344	-0.136	0.122
-361.654	-142.805	-0.173	0.017
-360.639	400.303	0.050	-0.105
-359.625	84.800	-0.380	-0.419
-358.610	-116.892	0.193	0.036
-357.596	232.645	0.033	-0.055
-356.581	-105.914	0.013	-0.003
-355.566	187.207	0.019	0.029
-354.552	-32.140	0.157	-0.088
-353.537	198.684	-0.101	0.156
-352.523	-11.609	-0.237	0.157
-351.508	-12.746	-0.340	-0.223
-350.493	-84.663	-0.348	0.110
-349.479	-84.279	-0.492	0.157
-348.464	73.954	-0.187	-0.197
-347.450	478.104	-0.092	0.210
-346.435	-136.568	0.142	0.017
-345.420	111.790	-0.146	-0.177
-344.406	-131.794	-0.462	-0.061
-343.391	59.979	-0.124	-0.123
-342.377	424.980	0.088	-0.190
-341.362	8.711	-0.153	0.116
-340.348	777.460	0.113	0.310
-339.333	-200.000	0.033	0.206
-338.318	3.015	0.107	0.078
-337.304	-19.613	-0.082	0.051
-336.289	340.628	0.091	-0.178
-335.275	-16.228	-0.151	0.096
-334.260	-200.000	0.000	0.033
-333.245	-200.000	0.026	0.152
-332.231	-200.000	-0.001	-0.068
-331.216	62.588	-0.113	0.113
-330.202	455.467	0.164	0.366
-329.187	-139.174	0.257	0.028
-328.172	5.730	-0.276	-0.205
-327.158	-153.203	0.264	-0.019
-326.143	444.991	0.117	0.258
-325.129	-200.000	0.034	0.215
-324.114	800.000	0.061	-0.196
-323.099	-200.000	0.015	-0.142
-322.085	-90.394	0.181	0.053
-321.070	-200.000	0.053	-0.287
-320.056	800.000	-0.127	0.372
-319.041	-4.048	-0.157	-0.109
-318.026	-155.372	0.158	-0.010
-317.012	76.134	0.190	-0.202
-315.997	-129.057	-0.294	0.041
-314.983	136.565	-0.152	-0.199
-313.968	-200.000	0.017	-0.159
-312.953	-87.702	0.024	0.007
-311.939	-55.449	-0.219	-0.099
-310.924	-76.754	-0.236	0.083
-309.910	-90.604	0.250	0.073
-308.895	313.738	-0.150	0.283
-307.880	-55.559	-0.149	0.067
-306.866	271.020	-0.007	0.012
-305.851	800.000	-0.013	0.044
-304.837	800.000	-0.054	0.199
-303.822	-200.000	-0.060	-0.354
-302.807	-89.863	0.139	-0.041
-301.793	-181.823	-0.188	-0.004
-300.778	800.000	0.055	0.199
-299.764	716.377	0.089	0.238
-298.749	-111.639	0.340	-0.069
-297.735	-198.250	-0.136	-0.001
-296.720	113.940	-0.132	0.161
-295.705	-9.546	0.217	-0.145
-294.691	-37.618	-0.227	0.121
-293.676	414.714	-0.077	-0.164
-292.662	800.000	0.066	-0.269
-291.647	-80.247	0.049	-0.016
-290.632	-200.000	-0.063	-0.365
-289.618	66.428	-0.296	-0.302
-288.603	-200.000	-0.044	-0.355
-287.589	-27.558	0.141	-0.082
-286.574	-200.000	-0.042	0.330
-285.559	3.173	0.252	0.184
-284.545	-121.879	0.390	-0.064
-283.530	-123.250	0.396	-0.063
-282.516	487.843	0.048	0.110
-281.501	45.558	-0.241	0.223
-280.486	-200.000	-0.015	0.379
-279.472	6.972	0.108	0.081
-278.457	-122.595	-0.066	-0.011
-277.443	-200.000	-0.022	0.226
-276.428	38.155	0.169	0.151
-275.413	-9.084	0.190	-0.128
-274.399	800.000	0.032	0.113
-273.384	626.708	0.143	0.362
-272.370	-161.778	-0.026	0.001
-271.355	-103.012	0.076	0.018
-270.340	105.542	0.078	0.093
-269.326	299.650	-0.024	-0.043
-268.311	-200.000	-0.009	0.112
-267.297	-33.941	-0.137	-0.075
-266.282	0.341	0.313	-0.224
-265.267	396.990	-0.160	-0.335
-264.253	-88.446	-0.367	0.110
-263.238	22.985	-0.045	0.037
-262.224	356.497	-0.061	-0.121
-261.209	800.000	0.095	0.306
-260.195	800.000	0.071	-0.229
-259.180	127.740	0.207	-0.264
-258.165	-65.048	0.060	0.024
-257.151	-60.103	-0.110	-0.047
-256.136	-30.126	0.111	0.063
-255.122	-200.000	0.012	0.119
-254.107	800.000	-0.041	0.172
-253.092	800.000	0.106	-0.301
-252.078	-113.503	-0.083	0.016
-251.063	498.214	0.030	-0.069
-250.049	25.988	0.165	-0.138
-249.034	-52.518	-0.122	-0.056
-248.019	277.373	0.120	-0.213
-247.005	-183.328	0.190	-0.003
-245.990	351.757	0.133	0.264
-244.976	800.000	-0.071	0.222
-243.961	800.000	0.049	0.140
-242.946	-144.059	0.091	0.009
-241.932	800.000	-0.087	-0.309
-240.917	235.135	-0.023	0.038
-239.903	-61.808	-0.335	-0.141
-238.888	422.181	0.036	-0.077
-237.873	-20.301	-0.123	-0.076
-236.859	26.134	0.065	-0.055
-235.844	265.862	0.053	-0.093
-234.830	483.254	0.072	-0.164
-233.815	336.292	-0.077	0.149
-232.800	800.000	-0.011	-0.036
-231.786	19.161	0.286	-0.230
-230.771	-200.000	-0.009	-0.369
-229.757	123.721	0.131	-0.164
-228.742	172.669	-0.266	-0.384
-227.727	645.988	-0.106	0.270
-226.713	343.510	0.107	-0.211
-225.698	27.918	0.192	0.162
-224.684	-34.183	0.123	0.068
-223.669	49.202	0.168	-0.158
-222.655	132.545	-0.019	0.024
-221.640	-200.000	0.015	-0.220
-220.625	-154.012	0.211	0.014
-219.611	-200.000	0.002	-0.157
-218.596	800.000	-0.047	-0.148
-217.582	-53.540	-0.289	0.132
-216.567	423.116	0.108	0.231
-215.552	408.900	-0.159	0.336
-214.538	389.806	-0.084	-0.175
-213.523	-200.000	0.023	-0.242
-212.509	117.805	0.165	0.203
-211.494	346.244	-0.064	-0.127
-210.479	71.248	-0.234	-0.243
-209.465	297.405	-0.066	0.121
-208.450	-176.773	-0.366	0.009
-207.436	126.671	0.253	-0.321
-206.421	-33.204	0.258	-0.143
-205.406	-200.000	-0.065	-0.294
-204.392	-200.000	-0.006	-0.210
-203.377	226.502	-0.152	-0.246
-202.363	800.000	-0.034	0.132
-201.348	134.652	-0.113	0.147
-200.333	57.099	0.326	0.318
-199.319	-70.565	0.204	-0.077
-198.304	-130.093	-0.386	-0.053
-197.290	67.498	0.149	0.152
-196.275	800.000	-0.041	-0.129
-195.260	800.000	-0.063	-0.214
-194.246	-66.316	-0.226	-0.090
-193.231	-200.000	0.021	-0.259
-192.217	452.457	-0.116	0.256
-191.202	-200.000	-0.052	0.369
-190.187	-16.870	0.097	0.061
-189.173	-200.000	-0.055	-0.256
-188.158	18.784	-0.235	-0.188
-187.144	-61.689	-0.301	0.126
-186.129	59.242	0.105	-0.103
-185.114	-99.287	0.299	-0.075
-184.100	143.134	0.035	0.046
-183.085	-101.823	0.158	-0.038
-182.071	-104.445	0.144	-0.033
-181.056	-200.000	0.014	0.113
-180.042	-54.440	0.335	-0.152
-179.027	-200.000	0.015	0.324
-178.012	-27.754	0.242	0.140
-176.998	800.000	-0.077	-0.238
-175.983	800.000	0.046	-0.132
-174.969	-99.677	-0.257	-0.064
-173.954	87.929	0.122	0.135
-172.939	-17.133	0.244	0.154
-171.925	56.097	-0.105	0.102
-170.910	241.907	0.071	0.118
-169.896	-92.349	0.180	-0.051
-168.881	-2.158	-0.110	0.077
-167.866	-200.000	0.028	-0.186
-166.852	321.986	0.105	-0.200
-165.837	109.708	0.305	-0.365
-164.823	-46.665	0.124	-0.061
-163.808	800.000	0.015	0.044
-162.793	-81.669	-0.258	-0.085
-161.779	48.920	-0.155	0.145
-160.764	-52.503	0.126	-0.058
-159.750	535.687	-0.026	-0.061
-158.735	-63.501	-0.260	0.107
-157.720	-200.000	-0.013	-0.130
-156.706	517.029	0.088	-0.205
-155.691	800.000	-0.071	0.247
-154.677	77.483	0.203	-0.215
-153.662	-118.263	0.196	-0.035
-152.647	800.000	0.077	-0.242
-151.633	-79.073	-0.282	-0.096
-150.618	800.000	0.099	-0.314
-149.604	18.088	0.226	-0.179
-148.589	-67.687	0.174	0.068
-147.574	-200.000	-0.004	-0.049
-146.560	128.295	-0.079	-0.101
-145.545	-200.000	-0.020	0.139
-144.531	-24.932	0.300	0.178
-143.516	95.698	0.145	0.165
-142.502	-118.756	-0.231	0.041
-141.487	222.708	-0.167	-0.268
-140.472	800.000	0.045	0.148
-139.458	-20.003	-0.199	0.122
-138.443	-200.000	-0.022	0.192
-137.429	-200.000	0.012	-0.089
-136.414	-200.000	-0.017	-0.234
-135.399	67.823	0.053	0.054
-134.385	-13.460	0.326	0.211
-133.370	-86.893	0.049	0.015
-132.356	-200.000	-0.009	0.056
-131.341	-64.564	-0.173	0.070
-130.326	47.388	0.149	0.139
-129.312	187.763	-0.094	0.140
-128.297	-200.000	0.005	-0.025
-127.283	-162.807	-0.141	-0.007
-126.268	-118.257	0.193	-0.034
-125.253	-102.083	-0.221	0.053
-124.239	222.385	-0.070	-0.113
-123.224	107.906	0.057	-0.067
-122.210	344.174	-0.057	-0.111
-121.195	800.000	0.057	-0.195
-120.180	155.712	0.184	0.253
