DTS Sentinel unit serial number:	SN413079Multiplexer serial number:	ORYXHardware model number:	OX4-SRSoftware version number:	ORYX F/W v4.00 Oryx Data Collector v3.7.2.0data status	okinstallation	princeton_trtdifferential loss correction	single-endedforward channel	channel 1reverse channel	N/Adate	2019/09/14time	22:30:35forward acquisition time	60.00reverse acquisition time	0.00gamma	496.2192k internal	0.2319k external	0.2319temperature offset calibration	1.0004default loss term (dB/km)	0.3790temperature slope calibration	1.0000multiplexer offset coefficient	1.0000multiplexer slope coefficient	1.0000fibre end	0.00T internal ref (°C)	32.56T ext. ref 1 (°C)	4.68T ext. ref 2 (°C)	27.53length (m)	temperature (°C)	Stokes	anti-Stokes-747.200	164.087	-0.143	0.203
-746.185	-116.799	-0.120	-0.022
-745.171	-200.000	-0.015	-0.166
-744.156	160.656	-0.108	0.153
-743.142	97.950	0.286	0.333
-742.127	62.010	0.260	-0.263
-741.112	596.736	-0.065	-0.164
-740.098	420.190	-0.095	0.206
-739.083	60.340	0.072	0.072
-738.069	800.000	0.051	0.214
-737.054	249.440	0.162	-0.278
-736.039	-200.000	-0.020	0.276
-735.025	-200.000	0.052	0.257
-734.010	-119.414	-0.135	-0.024
-732.996	152.896	0.032	0.044
-731.981	-200.000	-0.003	0.183
-730.966	-200.000	-0.033	-0.303
-729.952	370.166	0.114	-0.233
-728.937	-39.937	0.074	0.039
-727.923	74.207	-0.096	-0.102
-726.908	-127.482	-0.052	-0.008
-725.894	27.839	-0.146	-0.125
-724.879	-200.000	-0.014	-0.221
-723.864	228.121	-0.086	0.142
-722.850	639.660	0.116	-0.299
-721.835	225.929	0.237	-0.388
-720.821	253.482	-0.062	0.107
-719.806	800.000	-0.018	-0.072
-718.791	-66.979	-0.285	-0.114
-717.777	800.000	0.095	-0.290
-716.762	-200.000	0.049	0.317
-715.748	323.673	-0.219	-0.423
-714.733	-200.000	0.031	0.335
-713.718	-39.759	-0.125	-0.066
-712.704	166.832	-0.210	-0.302
-711.689	109.648	0.014	0.017
-710.675	64.294	0.089	0.091
-709.660	-61.927	0.178	-0.075
-708.645	-200.000	-0.005	-0.439
-707.631	-78.568	-0.161	-0.056
-706.616	-200.000	-0.036	-0.365
-705.602	21.593	-0.147	-0.121
-704.587	-200.000	0.000	-0.051
-703.572	15.440	-0.258	0.205
-702.558	149.416	-0.132	0.180
-701.543	-159.700	0.297	-0.017
-700.529	-98.977	0.179	-0.046
-699.514	22.407	-0.164	-0.136
-698.499	-32.637	0.208	0.117
-697.485	257.563	0.100	0.174
-696.470	62.424	-0.186	-0.187
-695.456	-55.900	-0.180	0.081
-694.441	270.456	0.111	-0.197
-693.426	109.171	-0.221	0.267
-692.412	-116.130	0.128	-0.024
-691.397	-5.739	-0.223	-0.154
-690.383	128.580	-0.162	-0.209
-689.368	-166.658	0.162	0.007
-688.354	-49.823	-0.476	-0.228
-687.339	-55.849	-0.015	0.007
-686.324	-15.818	-0.055	-0.035
-685.310	170.108	-0.213	-0.307
-684.295	45.963	0.264	-0.246
-683.281	-50.686	-0.062	-0.029
-682.266	-15.397	-0.181	0.117
-681.251	-85.968	0.198	0.062
-680.237	224.762	0.076	-0.125
-679.222	207.409	-0.221	0.347
-678.208	113.077	0.124	-0.151
-677.193	-79.110	-0.142	-0.049
-676.178	-48.956	0.247	0.119
-675.164	48.670	-0.140	-0.132
-674.149	314.014	-0.095	-0.180
-673.135	-200.000	-0.029	0.130
-672.120	-166.448	0.530	-0.022
-671.105	62.052	-0.205	-0.206
-670.091	-200.000	-0.013	-0.336
-669.076	-200.000	0.020	0.373
-668.062	-200.000	0.028	-0.451
-667.047	-30.891	0.037	-0.021
-666.032	39.213	-0.164	-0.148
-665.018	264.022	0.042	0.073
-664.003	800.000	0.059	-0.253
-662.989	574.544	0.143	-0.351
-661.974	16.555	0.182	0.145
-660.959	106.152	0.076	-0.091
-659.945	89.316	0.178	0.200
-658.930	-95.142	0.099	0.027
-657.916	-124.702	-0.256	-0.040
-656.901	-200.000	0.239	-0.001
-655.886	-117.120	-0.065	0.012
-654.872	85.771	0.054	-0.060
-653.857	-89.749	-0.264	0.078
-652.843	-56.249	0.072	0.032
-651.828	9.884	0.151	-0.116
-650.814	59.193	0.232	0.230
-649.799	-108.213	-0.113	0.025
-648.784	213.452	-0.116	0.185
-647.770	-200.000	-0.013	-0.098
-646.755	800.000	0.024	0.082
-645.741	-61.787	-0.270	-0.114
-644.726	182.066	-0.183	-0.272
-643.711	7.687	-0.148	-0.112
-642.697	-200.000	0.019	0.185
-641.682	-133.387	0.241	-0.031
-640.668	-158.906	0.175	0.010
-639.653	401.307	-0.130	0.275
-638.638	-68.178	0.107	-0.042
-637.624	196.667	-0.049	0.075
-636.609	151.440	0.070	0.096
-635.595	52.376	-0.175	0.169
-634.580	-200.000	-0.081	0.399
-633.565	117.181	0.189	-0.233
-632.551	141.654	0.015	0.020
-631.536	-170.644	-0.121	0.004
-630.522	800.000	-0.080	-0.227
-629.507	-200.000	-0.000	0.103
-628.492	-37.849	0.272	-0.146
-627.478	-200.000	0.019	0.145
-626.463	-200.000	0.081	-0.359
-625.449	248.120	0.158	-0.268
-624.434	22.107	0.203	-0.167
-623.419	111.696	-0.138	0.168
-622.405	800.000	0.106	0.347
-621.390	-56.402	-0.161	0.072
-620.376	-200.000	-0.023	0.144
-619.361	-200.000	0.059	0.385
-618.346	43.130	0.136	-0.125
-617.332	800.000	0.032	-0.136
-616.317	-200.000	-0.011	0.134
-615.303	-200.000	0.006	-0.156
-614.288	15.291	-0.075	0.059
-613.273	-54.168	-0.343	-0.157
-612.259	45.089	0.154	-0.143
-611.244	5.087	-0.277	-0.206
-610.230	-24.570	0.211	-0.126
-609.215	-132.378	-0.464	-0.060
-608.201	-134.197	-0.208	-0.026
-607.186	28.988	0.078	0.066
-606.171	140.402	-0.147	0.196
-605.157	-82.022	0.262	-0.086
-604.142	18.485	-0.183	0.147
-603.128	-75.985	0.183	0.065
-602.113	-126.106	0.308	0.046
-601.098	12.097	0.142	0.110
-600.084	-200.000	-0.047	0.276
-599.069	48.639	-0.291	0.275
-598.055	428.136	-0.012	-0.026
-597.040	348.439	0.122	0.243
-596.025	-113.569	0.192	-0.038
-595.011	-22.697	0.074	-0.045
-593.996	-48.951	-0.115	0.056
-592.982	573.431	-0.014	0.035
-591.967	-111.420	0.117	-0.024
-590.952	96.148	0.096	0.110
-589.938	317.729	0.100	0.190
-588.923	-146.910	-0.364	-0.031
-587.909	-70.101	-0.069	-0.027
-586.894	-86.505	0.230	-0.071
-585.879	532.931	0.011	-0.027
-584.865	75.657	0.213	-0.226
-583.850	62.137	0.213	0.214
-582.836	-81.878	0.161	0.053
-581.821	791.202	0.063	-0.174
-580.806	-187.200	0.198	0.003
-579.792	-30.922	-0.107	0.061
-578.777	-23.693	0.164	0.099
-577.763	800.000	-0.071	-0.262
-576.748	-142.066	0.020	0.002
-575.733	-200.000	0.005	0.161
-574.719	-93.291	0.113	0.032
-573.704	181.276	0.152	-0.225
-572.690	-180.331	-0.168	-0.004
-571.675	800.000	-0.085	0.263
-570.661	-79.330	0.088	-0.030
-569.646	-200.000	0.025	0.165
-568.631	-38.169	-0.035	0.019
-567.617	455.988	-0.093	-0.208
-566.602	-105.981	-0.100	-0.023
-565.588	-200.000	0.033	-0.171
-564.573	-118.344	-0.202	-0.036
-563.558	178.515	-0.041	-0.061
-562.544	8.593	0.033	0.025
-561.529	-135.969	-0.492	-0.058
-560.515	-177.259	0.476	-0.012
-559.500	4.997	0.090	-0.067
-558.485	218.159	-0.184	0.294
-557.471	-200.000	0.030	0.173
-556.456	78.579	-0.290	-0.312
-555.442	79.423	0.150	-0.162
-554.427	37.006	0.227	-0.201
-553.412	-59.108	0.329	0.143
-552.398	397.649	0.082	-0.172
-551.383	-200.000	0.087	-0.494
-550.369	-200.000	-0.018	0.253
-549.354	255.078	-0.123	0.211
-548.339	-107.829	-0.110	0.024
-547.325	-175.949	0.321	0.009
-546.310	-200.000	0.004	0.040
-545.296	29.850	0.236	-0.202
-544.281	-152.472	-0.139	0.010
-543.266	523.663	0.117	0.275
-542.252	-200.000	0.010	0.078
-541.237	360.517	-0.010	-0.020
-540.223	-5.873	-0.176	-0.121
-539.208	23.200	-0.148	0.122
-538.193	800.000	-0.058	-0.206
-537.179	220.284	-0.063	-0.102
-536.164	800.000	0.026	-0.113
-535.150	179.389	0.144	0.211
-534.135	-48.658	0.164	-0.079
-533.121	-147.636	0.140	0.012
-532.106	-6.891	-0.205	-0.140
-531.091	107.068	0.032	-0.039
-530.077	-200.000	0.043	0.372
-529.062	-109.702	-0.095	-0.020
-528.048	131.225	0.072	-0.093
-527.033	-200.000	-0.006	-0.328
-526.018	-113.185	-0.145	0.029
-525.004	-183.970	-0.288	0.005
-523.989	-200.000	0.054	0.314
-522.975	-80.174	0.140	0.047
-521.960	33.035	0.206	0.179
-520.945	-200.000	0.033	-0.150
-519.931	-200.000	0.041	-0.384
-518.916	-200.000	-0.006	-0.257
-517.902	-37.920	0.218	0.116
-516.887	-98.868	-0.315	0.080
-515.872	12.740	0.255	0.197
-514.858	696.128	-0.063	0.167
-513.843	203.764	0.104	-0.162
-512.829	673.328	0.055	-0.144
-511.814	-109.079	-0.091	0.020
-510.799	75.254	0.135	0.143
-509.785	-28.949	0.286	-0.165
-508.770	-152.111	0.105	0.008
-507.756	202.346	-0.138	-0.214
-506.741	800.000	0.080	-0.226
-505.726	109.290	0.101	-0.121
-504.712	474.476	0.171	0.386
-503.697	664.543	0.038	0.098
-502.683	-200.000	0.095	-0.449
-501.668	-200.000	-0.074	-0.497
-500.653	-40.003	0.178	-0.093
-499.639	328.889	0.142	-0.273
-498.624	-200.000	0.072	-0.429
-497.610	137.399	-0.104	-0.137
-496.595	176.054	-0.101	0.147
-495.581	322.476	-0.170	0.324
-494.566	-110.237	0.205	-0.043
-493.551	243.832	-0.175	-0.294
-492.537	-94.378	-0.315	0.086
-491.522	-200.000	-0.024	0.232
-490.508	-1.836	-0.284	-0.200
-489.493	-57.382	0.354	0.156
-488.478	-200.000	-0.011	0.332
-487.464	-200.000	-0.014	-0.168
-486.449	91.829	-0.052	-0.058
-485.435	-89.274	-0.130	-0.038
-484.420	-62.203	0.210	0.088
-483.405	-19.395	0.230	-0.143
-482.391	-30.847	0.236	0.133
-481.376	346.962	-0.064	-0.127
-480.362	-41.713	0.230	0.118
-479.347	-200.000	0.010	-0.137
-478.332	-90.281	0.292	0.085
-477.318	-91.900	-0.107	-0.030
-476.303	-121.258	0.307	0.051
-475.289	-36.502	-0.270	-0.146
-474.274	255.939	0.060	0.102
-473.259	-162.362	0.351	-0.017
-472.245	-71.404	-0.336	-0.126
-471.230	419.536	-0.055	-0.117
-470.216	-200.000	0.043	-0.191
-469.201	-22.434	0.129	0.078
-468.186	3.533	0.298	0.217
-467.172	17.463	0.301	-0.239
-466.157	339.657	0.079	-0.153
-465.143	38.801	-0.169	-0.151
-464.128	800.000	-0.058	0.243
-463.113	-11.506	0.089	-0.059
-462.099	800.000	-0.101	-0.351
-461.084	403.735	-0.083	0.174
-460.070	-27.590	0.311	-0.181
-459.055	-200.000	-0.038	-0.312
-458.040	66.398	-0.225	-0.229
-457.026	-200.000	0.015	-0.250
-456.011	20.947	0.131	0.106
-454.997	114.757	-0.105	-0.128
-453.982	-57.811	-0.106	-0.047
-452.968	-99.212	-0.160	0.040
-451.953	396.551	-0.132	0.275
-450.938	347.066	-0.131	-0.259
-449.924	-149.480	0.084	0.007
-448.909	49.648	0.132	0.124
-447.895	265.988	-0.098	-0.172
-446.880	-109.802	-0.134	0.028
-445.865	-68.635	-0.260	-0.101
-444.851	-104.370	-0.250	0.058
-443.836	800.000	-0.046	-0.136
-442.822	-165.924	0.311	-0.013
-441.807	-64.647	-0.464	-0.188
-440.792	800.000	0.116	-0.343
-439.778	-134.823	0.210	0.025
-438.763	-74.260	-0.121	0.044
-437.749	-200.000	-0.019	-0.182
-436.734	184.127	0.092	-0.136
-435.719	-185.044	-0.174	-0.003
-434.705	-111.256	-0.147	0.030
-433.690	800.000	0.060	0.190
-432.676	-69.187	0.090	0.035
-431.661	153.236	-0.149	-0.203
-430.646	-122.717	-0.188	0.030
-429.632	800.000	0.065	-0.205
-428.617	-43.782	-0.288	0.145
-427.603	800.000	-0.125	0.493
-426.588	-19.987	0.191	0.118
-425.573	478.781	0.084	-0.189
-424.559	522.644	0.068	-0.159
-423.544	800.000	-0.086	0.257
-422.530	800.000	-0.058	-0.176
-421.515	743.381	-0.077	0.207
-420.500	-105.714	-0.308	-0.070
-419.486	800.000	-0.047	-0.185
-418.471	-109.278	0.222	0.047
-417.457	-200.000	-0.004	0.152
-416.442	-182.328	0.190	-0.004
-415.428	72.503	-0.101	-0.105
-414.413	292.349	0.074	0.134
-413.398	-39.080	-0.155	0.082
-412.384	176.201	-0.173	-0.251
-411.369	-46.518	-0.166	-0.081
-410.355	436.368	0.081	-0.176
-409.340	240.167	0.173	0.288
-408.325	15.867	0.170	0.133
-407.311	-76.178	0.316	-0.111
-406.296	210.374	0.097	-0.151
-405.282	-200.000	-0.009	-0.146
-404.267	143.423	0.325	0.432
-403.252	590.449	-0.031	0.076
-402.238	-33.800	0.430	-0.237
-401.223	-196.269	0.142	0.001
-400.209	-98.012	-0.266	-0.068
-399.194	800.000	0.060	-0.224
-398.179	-200.000	-0.003	0.289
-397.165	70.025	0.189	0.194
-396.150	592.748	-0.161	0.397
-395.136	800.000	0.047	0.175
-394.121	-98.994	-0.392	-0.099
-393.106	-17.445	0.159	-0.100
-392.092	-59.732	-0.182	0.078
-391.077	-85.955	0.174	0.054
-390.063	59.251	0.064	0.063
-389.048	-102.927	-0.202	0.048
-388.033	306.538	-0.131	-0.243
-387.019	-31.793	-0.107	-0.060
-386.004	-200.000	0.082	0.644
-384.990	-23.230	0.201	0.121
-383.975	-200.000	-0.057	0.302
-382.960	-200.000	-0.001	0.323
-381.946	-180.636	-0.183	0.004
-380.931	800.000	0.118	-0.377
-379.917	-21.983	-0.175	-0.106
-378.902	138.030	-0.085	0.111
-377.888	82.533	-0.193	-0.209
-376.873	-51.881	0.199	0.092
-375.858	51.646	-0.377	-0.357
-374.844	-200.000	-0.006	0.208
-373.829	187.822	0.128	0.190
-372.815	312.016	-0.095	-0.177
-371.800	-31.798	-0.128	0.071
-370.785	-100.773	0.244	0.060
-369.771	487.725	-0.185	0.421
-368.756	-200.000	-0.003	-0.099
-367.742	800.000	-0.025	0.088
-366.727	-200.000	-0.032	-0.239
-365.712	-71.920	0.319	-0.118
-364.698	541.222	-0.135	-0.321
-363.683	111.012	-0.137	0.165
-362.669	-200.000	0.006	0.214
-361.654	-37.941	0.145	0.077
-360.639	-103.606	-0.080	-0.019
-359.625	595.251	-0.072	0.178
-358.610	-33.799	-0.314	0.172
-357.596	-74.956	-0.088	-0.031
-356.581	800.000	-0.094	0.336
-355.566	211.376	-0.155	-0.242
-354.552	-66.303	-0.257	-0.102
-353.537	-71.670	0.292	-0.109
-352.523	54.887	0.132	0.127
-351.508	-200.000	0.076	-0.436
-350.493	-138.730	0.224	-0.024
-349.479	157.181	0.167	0.229
-348.464	-133.255	0.205	0.026
-347.450	-200.000	0.004	-0.194
-346.435	-84.514	-0.406	-0.128
-345.420	-31.317	-0.299	0.168
-344.406	-19.340	-0.253	0.156
-343.391	74.007	0.061	0.064
-342.377	223.245	0.132	0.212
-341.362	-200.000	-0.024	-0.239
-340.348	800.000	0.037	0.157
-339.333	800.000	0.018	-0.067
-338.318	-7.173	-0.052	0.035
-337.304	-200.000	-0.014	0.081
-336.289	82.199	-0.211	-0.228
-335.275	800.000	0.081	-0.270
-334.260	800.000	-0.028	-0.115
-333.245	124.529	-0.185	0.232
-332.231	407.311	0.106	-0.224
-331.216	-64.364	0.099	0.040
-330.202	-45.801	0.259	-0.127
-329.187	-151.951	-0.342	0.025
-328.172	-41.238	-0.178	0.091
-327.158	-35.379	-0.113	-0.061
-326.143	308.343	-0.044	-0.082
-325.129	282.060	0.097	-0.173
-324.114	-43.466	-0.107	0.054
-323.099	126.903	0.078	0.099
-322.085	-200.000	0.012	0.102
-321.070	91.361	-0.139	0.156
-320.056	10.570	-0.457	0.347
-319.041	-95.741	-0.240	-0.064
-318.026	123.648	-0.027	-0.034
-317.012	-200.000	-0.026	0.160
-315.997	-115.179	-0.181	0.034
-314.983	147.765	-0.017	-0.023
-313.968	482.727	0.079	-0.179
-312.953	-20.958	-0.343	-0.209
-311.939	-117.531	0.118	0.021
-310.924	-155.063	-0.282	-0.018
-309.910	-51.953	-0.106	-0.049
-308.895	-164.568	0.193	-0.009
-307.880	800.000	-0.026	0.107
-306.866	-48.817	-0.235	0.112
-305.851	41.613	0.142	0.128
-304.837	180.898	0.229	-0.335
-303.822	250.160	-0.139	0.235
-302.807	339.470	0.133	0.258
-301.793	-200.000	0.028	0.137
-300.778	61.256	-0.084	0.083
-299.764	414.706	0.090	-0.191
-298.749	58.982	-0.193	0.189
-297.735	111.174	-0.042	0.050
-296.720	104.499	0.129	0.151
-295.705	31.627	0.163	0.139
-294.691	800.000	-0.054	0.181
-293.676	-69.495	0.102	-0.039
-292.662	800.000	0.084	-0.277
-291.647	-0.707	-0.216	-0.152
-290.632	-34.740	0.027	-0.015
-289.618	-22.498	-0.125	-0.075
-288.603	-60.687	0.280	0.118
-287.589	-56.169	0.114	-0.051
-286.574	-200.000	0.010	0.091
-285.559	166.070	-0.147	-0.207
-284.545	-200.000	-0.275	-0.001
-283.530	-106.344	-0.278	-0.062
-282.516	494.430	0.067	0.153
-281.501	-62.866	-0.281	0.116
-280.486	580.803	0.036	0.088
-279.472	-200.000	-0.022	-0.187
-278.457	-200.000	0.014	-0.097
-277.443	381.451	-0.139	0.283
-276.428	-31.800	-0.201	0.112
-275.413	143.679	0.056	-0.075
-274.399	-13.003	0.320	0.207
-273.384	-64.718	0.069	-0.028
-272.370	-200.000	-0.049	-0.399
-271.355	-13.498	0.208	0.134
-270.340	95.182	-0.129	0.146
-269.326	-78.289	-0.038	-0.013
-268.311	121.167	0.180	0.222
-267.297	-52.053	0.139	-0.064
-266.282	123.949	0.042	-0.052
-265.267	767.651	0.131	-0.355
-264.253	39.915	0.321	-0.286
-263.238	46.144	0.067	0.061
-262.224	-3.733	-0.170	0.117
-261.209	-88.589	-0.209	-0.062
-260.195	54.413	-0.140	-0.134
-259.180	-29.676	0.112	0.064
-258.165	800.000	0.062	0.241
-257.151	-76.855	-0.302	0.105
-256.136	-45.627	0.137	0.067
-255.122	800.000	0.109	0.332
-254.107	800.000	0.088	0.381
-253.092	-16.750	0.263	0.165
-252.078	800.000	-0.023	0.089
-251.063	111.038	-0.272	0.325
-250.049	-18.864	0.028	0.017
-249.034	800.000	-0.052	0.169
-248.019	-200.000	-0.040	-0.248
-247.005	-43.183	-0.315	-0.158
-245.990	-58.588	-0.175	0.076
-244.976	120.722	-0.113	-0.140
-243.961	-200.000	0.007	0.043
-242.946	-67.856	0.217	-0.084
-241.932	-106.065	-0.088	0.020
-240.917	-200.000	0.055	-0.254
-239.903	-99.054	0.202	0.051
-238.888	-141.541	0.250	-0.025
-237.873	-88.917	-0.156	-0.046
-236.859	42.151	-0.152	-0.137
-235.844	341.403	-0.059	-0.114
-234.830	14.887	-0.188	-0.146
-233.815	-76.456	-0.230	-0.080
-232.800	-92.699	0.065	-0.018
-231.786	100.624	-0.259	0.299
-230.771	86.334	0.265	0.289
-229.757	-200.000	0.004	0.111
-228.742	91.363	-0.245	0.273
-227.727	-200.000	-0.020	-0.187
-226.713	-154.263	0.274	-0.018
-225.698	800.000	0.094	-0.302
-224.684	-49.328	-0.392	-0.185
-223.669	375.875	-0.135	0.273
-222.655	561.339	0.079	0.189
-221.640	729.483	0.047	0.124
-220.625	800.000	0.131	-0.400
-219.611	-121.566	0.264	-0.043
-218.596	-199.485	0.248	0.001
-217.582	198.323	-0.137	0.208
-216.567	-200.000	0.002	-0.049
-215.552	-200.000	0.073	0.392
-214.538	61.066	0.073	0.072
-213.523	150.255	0.068	-0.091
-212.509	19.229	-0.105	-0.084
-211.494	-11.945	0.170	0.110
-210.479	136.064	0.146	-0.188
-209.465	-97.539	-0.265	0.068
-208.450	-46.566	-0.126	0.061
-207.436	26.401	-0.043	0.036
-206.421	59.548	0.193	-0.189
-205.406	33.168	0.324	-0.278
-204.392	-110.639	-0.465	-0.095
-203.377	89.436	0.204	0.225
-202.363	-31.446	-0.212	0.118
-201.348	-170.115	0.103	0.004
-200.333	-18.132	-0.205	-0.127
-199.319	-200.000	-0.000	-0.113
-198.304	-134.154	0.108	-0.013
-197.290	-200.000	-0.021	-0.093
-196.275	-38.070	0.031	0.016
-195.260	232.554	0.176	0.286
-194.246	-200.000	-0.090	0.419
-193.231	171.513	-0.105	-0.149
-192.217	-72.848	-0.159	0.058
-191.202	800.000	0.124	0.402
-190.187	18.764	0.208	0.165
-189.173	-51.881	0.123	0.057
-188.158	800.000	-0.079	-0.235
-187.144	104.801	0.189	-0.220
-186.129	-10.715	-0.193	0.127
-185.114	-200.000	0.043	0.254
-184.100	190.981	-0.081	-0.121
-183.085	-200.000	-0.004	-0.409
-182.071	337.666	0.043	0.082
-181.056	-200.000	0.037	0.181
-180.042	-151.502	0.207	-0.015
-179.027	186.296	-0.067	0.098
-178.012	83.232	-0.060	-0.064
-176.998	232.879	0.058	-0.094
-175.983	-120.989	-0.216	0.036
-174.969	-165.283	0.432	-0.019
-173.954	-31.852	-0.308	0.171
-172.939	-66.412	0.209	0.082
-171.925	-200.000	-0.035	0.306
-170.910	-55.904	0.242	-0.107
-169.896	-109.119	0.306	-0.064
-168.881	-150.557	-0.124	0.009
-167.866	-200.000	-0.003	-0.036
-166.852	-15.347	0.053	0.034
-165.837	-127.073	-0.129	-0.019
-164.823	800.000	-0.031	0.117
-163.808	-38.049	0.200	-0.105
-162.793	120.595	-0.215	-0.264
-161.779	800.000	0.029	-0.081
-160.764	266.729	0.146	-0.253
-159.750	800.000	0.129	-0.403
-158.735	14.078	0.175	0.134
-157.720	-132.095	0.080	0.010
-156.706	800.000	-0.065	-0.190
-155.691	-16.446	-0.266	-0.166
-154.677	-34.195	0.285	0.155
-153.662	800.000	0.036	0.116
-152.647	405.368	-0.032	0.066
-151.633	228.238	0.042	0.068
-150.618	106.362	0.209	0.245
-149.604	30.381	0.141	0.119
-148.589	-130.538	-0.236	-0.031
-147.574	-200.000	0.058	0.472
-146.560	-200.000	0.029	-0.136
-145.545	616.760	-0.060	0.148
-144.531	237.037	-0.124	0.202
-143.516	82.754	0.136	-0.146
-142.502	-39.538	0.214	-0.111
-141.487	-200.000	0.050	-0.365
-140.472	-149.725	0.290	-0.023
-139.458	525.192	0.058	0.135
-138.443	7.652	-0.224	-0.165
-137.429	-94.030	0.166	0.045
-136.414	46.352	-0.111	0.102
-135.399	257.210	0.104	-0.176
-134.385	-42.216	-0.239	0.121
-133.370	-200.000	-0.007	-0.054
-132.356	5.744	-0.156	0.114
-131.341	383.500	0.069	-0.140
-130.326	-149.946	0.370	0.029
-129.312	190.534	-0.239	-0.355
-128.297	-187.984	0.358	-0.005
-127.283	-84.636	0.257	0.080
-126.268	84.083	0.195	0.211
-125.253	-113.395	0.159	0.031
-124.239	-14.156	-0.241	-0.154
-123.224	147.018	-0.255	-0.339
-122.210	-37.725	0.245	0.129
-121.195	-200.000	-0.195	0.001
