DTS Sentinel unit serial number:	SN413079Multiplexer serial number:	ORYXHardware model number:	OX4-SRSoftware version number:	ORYX F/W v4.00 Oryx Data Collector v3.7.2.0data status	okinstallation	princeton_trtdifferential loss correction	single-endedforward channel	channel 1reverse channel	N/Adate	2019/09/15time	11:22:35forward acquisition time	60.00reverse acquisition time	0.00gamma	496.2192k internal	0.2308k external	0.2308temperature offset calibration	0.9985default loss term (dB/km)	0.3790temperature slope calibration	1.0000multiplexer offset coefficient	1.0000multiplexer slope coefficient	1.0000fibre end	0.00T internal ref (°C)	34.31T ext. ref 1 (°C)	5.01T ext. ref 2 (°C)	29.45length (m)	temperature (°C)	Stokes	anti-Stokes-747.200	29.282	0.054	0.046
-746.185	-200.000	0.055	-0.341
-745.171	-67.976	-0.248	0.098
-744.156	-200.000	0.000	-0.018
-743.142	-200.000	-0.003	-0.142
-742.127	97.549	-0.284	0.332
-741.112	800.000	0.071	-0.208
-740.098	-98.865	0.239	0.062
-739.083	-200.000	0.012	-0.463
-738.069	-11.021	-0.236	0.158
-737.054	570.552	0.040	0.099
-736.039	304.300	-0.122	-0.230
-735.025	800.000	0.053	-0.197
-734.010	-69.867	-0.463	-0.180
-732.996	-200.000	0.004	-0.028
-731.981	-56.064	-0.231	0.105
-730.966	-40.951	-0.131	-0.069
-729.952	-8.332	0.055	-0.038
-728.937	-107.660	-0.418	-0.093
-727.923	800.000	0.077	0.333
-726.908	-96.631	-0.120	0.032
-725.894	-8.379	-0.150	0.102
-724.879	54.632	-0.076	-0.074
-723.864	297.967	-0.041	0.077
-722.850	152.071	-0.180	0.249
-721.835	61.799	0.215	0.218
-720.821	-28.501	-0.259	0.152
-719.806	-99.314	-0.190	-0.049
-718.791	-172.163	0.250	0.008
-717.777	-118.593	0.145	-0.026
-716.762	-116.293	0.391	-0.073
-715.748	-115.758	-0.172	-0.033
-714.733	-200.000	-0.016	-0.077
-713.718	339.442	-0.053	-0.104
-712.704	-94.138	-0.263	-0.073
-711.689	-53.367	0.154	0.072
-710.675	-78.494	-0.173	-0.060
-709.660	-65.576	0.245	-0.100
-708.645	800.000	0.085	0.281
-707.631	150.856	0.046	-0.063
-706.616	0.843	-0.113	0.082
-705.602	73.396	0.138	-0.147
-704.587	-165.964	0.126	0.005
-703.572	-109.430	0.272	-0.058
-702.558	-112.256	0.238	-0.048
-701.543	-55.238	-0.221	-0.101
-700.529	-43.319	0.123	-0.063
-699.514	800.000	-0.059	-0.165
-698.499	-51.926	0.169	-0.080
-697.485	114.678	0.050	0.062
-696.470	-67.489	0.125	0.050
-695.456	-142.535	-0.213	-0.021
-694.441	22.979	0.159	0.133
-693.426	-146.764	0.111	0.010
-692.412	-96.979	-0.086	-0.023
-691.397	139.208	0.136	-0.182
-690.383	38.960	-0.025	0.023
-689.368	-89.003	0.079	0.024
-688.354	-58.698	-0.162	-0.071
-687.339	21.947	0.129	-0.106
-686.324	120.085	-0.143	0.180
-685.310	105.432	0.109	0.131
-684.295	-118.002	-0.243	-0.044
-683.281	2.007	0.148	0.108
-682.266	-37.262	0.081	-0.044
-681.251	171.240	-0.197	-0.286
-680.237	-154.337	0.102	0.007
-679.222	-24.580	-0.213	-0.128
-678.208	-110.725	0.167	0.035
-677.193	-200.000	-0.083	-0.408
-676.178	-144.574	-0.385	0.036
-675.164	-181.010	-0.206	0.004
-674.149	165.049	0.191	0.273
-673.135	800.000	0.017	-0.066
-672.120	380.595	-0.099	0.206
-671.105	173.989	-0.147	-0.216
-670.091	-200.000	-0.023	0.253
-669.076	-174.250	0.239	0.007
-668.062	-200.000	0.013	-0.133
-667.047	-65.918	-0.270	-0.109
-666.032	254.397	0.052	0.090
-665.018	-200.000	-0.035	-0.181
-664.003	180.998	-0.012	-0.018
-662.989	-131.937	0.290	0.038
-661.974	-106.311	-0.299	0.068
-660.959	256.543	-0.092	-0.160
-659.945	-200.000	0.005	-0.303
-658.930	-139.244	0.216	-0.024
-657.916	-87.136	-0.198	0.061
-656.901	-85.956	0.029	-0.009
-655.886	399.485	0.055	0.117
-654.872	1.838	-0.076	-0.056
-653.857	72.556	-0.181	-0.191
-652.843	715.805	-0.213	-0.572
-651.828	-200.000	-0.043	-0.196
-650.814	-182.356	-0.287	0.005
-649.799	-27.369	-0.328	-0.193
-648.784	185.055	0.069	0.104
-647.770	-200.000	0.032	0.247
-646.755	23.927	0.136	-0.113
-645.741	-54.273	0.151	-0.069
-644.726	188.338	0.099	0.149
-643.711	-144.840	-0.122	0.011
-642.697	800.000	0.073	-0.221
-641.682	62.552	-0.134	-0.136
-640.668	236.716	0.145	-0.243
-639.653	-4.682	0.128	-0.090
-638.638	-71.750	-0.082	0.031
-637.624	22.482	-0.168	-0.139
-636.609	626.013	0.034	0.086
-635.595	611.480	0.093	0.235
-634.580	70.889	-0.224	-0.235
-633.565	407.007	0.007	0.014
-632.551	-8.866	-0.329	0.223
-631.536	56.443	-0.244	-0.240
-630.522	-200.000	-0.007	0.055
-629.507	-48.957	0.113	-0.055
-628.492	118.822	0.305	0.381
-627.478	168.129	-0.086	-0.124
-626.463	800.000	0.069	-0.264
-625.449	800.000	-0.099	0.286
-624.434	-200.000	-0.333	0.001
-623.419	-200.000	-0.001	0.043
-622.405	-97.934	-0.330	0.086
-621.390	584.063	-0.141	-0.351
-620.376	7.508	0.291	0.220
-619.361	42.154	0.061	-0.056
-618.346	-0.099	-0.125	-0.090
-617.332	-174.959	-0.320	0.009
-616.317	-52.794	0.110	-0.051
-615.303	-53.967	0.168	0.077
-614.288	800.000	-0.119	-0.342
-613.273	800.000	-0.113	-0.320
-612.259	27.614	0.096	0.082
-611.244	-126.742	0.188	0.028
-610.230	-122.683	0.308	-0.050
-609.215	-107.636	-0.195	0.043
-608.201	-64.347	-0.066	-0.027
-607.186	-200.000	-0.018	-0.428
-606.171	179.173	-0.220	-0.325
-605.157	-106.317	0.081	-0.018
-604.142	-127.257	-0.471	0.070
-603.128	105.579	0.231	0.276
-602.113	64.410	-0.111	-0.113
-601.098	-200.000	-0.018	0.262
-600.084	-200.000	0.014	-0.106
-599.069	367.889	-0.098	0.200
-598.055	-151.592	-0.132	0.010
-597.040	336.851	0.083	0.163
-596.025	500.815	0.023	-0.054
-595.011	26.532	0.193	-0.163
-593.996	12.524	-0.201	-0.157
-592.982	-34.512	-0.258	-0.143
-591.967	-133.168	-0.231	0.030
-590.952	-37.696	-0.046	-0.025
-589.938	-170.030	-0.162	0.006
-588.923	-114.579	-0.298	0.058
-587.909	431.469	0.026	0.056
-586.894	-160.473	-0.269	-0.015
-585.879	-141.110	0.215	0.022
-584.865	-76.911	0.241	-0.085
-583.850	549.067	0.046	0.112
-582.836	-200.000	0.012	-0.056
-581.821	50.334	0.264	-0.252
-580.806	800.000	0.019	0.060
-579.792	-74.653	0.317	-0.115
-578.777	-128.597	0.141	0.020
-577.763	184.617	0.083	0.125
-576.748	234.504	0.118	0.197
-575.733	77.666	0.267	0.287
-574.719	469.049	0.183	-0.414
-573.704	10.196	0.051	0.040
-572.690	420.938	0.068	-0.148
-571.675	-88.916	0.043	-0.013
-570.661	-200.000	-0.025	0.355
-569.646	-200.000	0.001	0.041
-568.631	194.028	0.098	-0.149
-567.617	-32.903	-0.346	-0.194
-566.602	800.000	-0.017	0.066
-565.588	-145.749	-0.360	0.032
-564.573	180.651	0.080	-0.119
-563.558	6.281	-0.018	-0.013
-562.544	-39.307	0.167	-0.088
-561.529	-103.738	0.266	-0.063
-560.515	-119.721	0.163	0.028
-559.500	172.471	0.017	-0.025
-558.485	800.000	0.053	-0.225
-557.471	-179.289	-0.360	0.008
-556.456	-113.496	-0.246	-0.049
-555.442	86.440	0.247	-0.275
-554.427	258.488	-0.082	-0.143
-553.412	288.609	-0.087	-0.160
-552.398	-30.278	-0.100	0.057
-551.383	58.675	0.216	0.214
-550.369	-30.557	-0.181	-0.103
-549.354	25.716	0.206	0.173
-548.339	-31.477	0.241	0.137
-547.325	149.609	0.201	-0.274
-546.310	800.000	-0.050	-0.179
-545.296	104.867	0.099	0.118
-544.281	-175.162	0.048	-0.001
-543.266	-73.160	-0.062	0.023
-542.252	-91.675	-0.056	-0.016
-541.237	-135.776	0.058	-0.007
-540.223	-171.535	0.124	0.004
-539.208	-200.000	0.019	0.234
-538.193	-200.000	-0.023	0.261
-537.179	-76.010	-0.116	-0.041
-536.164	-200.000	0.078	-0.379
-535.150	-108.628	0.170	-0.037
-534.135	58.744	0.312	-0.309
-533.121	-36.589	-0.226	-0.123
-532.106	304.499	0.037	-0.070
-531.091	800.000	0.023	0.073
-530.077	125.721	-0.190	0.242
-529.062	536.768	-0.053	0.127
-528.048	172.404	-0.086	0.125
-527.033	653.183	0.091	-0.235
-526.018	167.285	0.169	-0.242
-525.004	27.796	-0.082	0.070
-523.989	-58.331	-0.251	0.110
-522.975	-200.000	0.036	-0.290
-521.960	333.649	0.202	0.393
-520.945	-86.500	-0.162	-0.050
-519.931	-4.797	-0.115	-0.080
-518.916	-125.439	-0.180	0.028
-517.902	129.323	-0.081	-0.104
-516.887	800.000	0.099	-0.363
-515.872	220.272	0.039	0.063
-514.858	-84.206	-0.283	0.090
-513.843	-20.445	0.077	-0.048
-512.829	-75.849	-0.057	-0.020
-511.814	-58.230	-0.212	0.093
-510.799	-200.000	0.028	0.588
-509.785	-85.462	0.082	0.026
-508.770	-90.287	0.141	-0.041
-507.756	-40.906	0.095	-0.050
-506.741	-200.000	-0.012	-0.110
-505.726	26.788	-0.068	-0.057
-504.712	71.068	0.224	-0.234
-503.697	-200.000	-0.044	-0.205
-502.683	-200.000	-0.005	0.341
-501.668	-200.000	-0.013	-0.227
-500.653	81.989	0.209	-0.228
-499.639	800.000	-0.054	0.159
-498.624	-21.481	-0.108	0.066
-497.610	104.541	0.062	0.074
-496.595	23.746	-0.195	-0.162
-495.581	-55.587	0.198	-0.089
-494.566	40.741	-0.049	-0.044
-493.551	45.529	-0.266	0.247
-492.537	-200.000	0.008	0.229
-491.522	-7.261	0.272	0.186
-490.508	-200.000	0.002	-0.271
-489.493	800.000	-0.022	-0.095
-488.478	210.507	0.040	0.063
-487.464	-45.644	0.083	0.041
-486.449	67.121	-0.044	-0.045
-485.435	318.246	-0.064	-0.123
-484.420	177.666	0.066	-0.097
-483.405	-200.000	-0.054	0.260
-482.391	-200.000	-0.024	0.414
-481.376	-157.601	-0.341	-0.020
-480.362	-130.344	-0.344	0.047
-479.347	-200.000	-0.001	-0.138
-478.332	-114.891	-0.137	0.026
-477.318	74.477	0.157	0.166
-476.303	-137.215	0.150	-0.017
-475.289	-98.177	-0.145	0.037
-474.274	-61.150	0.335	-0.142
-473.259	707.846	-0.124	0.330
-472.245	-136.738	-0.128	-0.015
-471.230	331.067	-0.190	0.368
-470.216	-142.270	-0.047	-0.005
-469.201	455.317	0.060	0.133
-468.186	-56.524	-0.167	0.074
-467.172	-6.173	0.235	0.162
-466.157	600.915	0.038	0.096
-465.143	72.150	-0.144	-0.151
-464.128	-33.977	-0.294	-0.162
-463.113	-103.266	0.183	0.043
-462.099	26.725	-0.022	-0.019
-461.084	-200.000	-0.032	0.219
-460.070	12.785	-0.205	-0.159
-459.055	85.238	-0.207	0.228
-458.040	-123.299	-0.336	-0.054
-457.026	-129.221	-0.403	0.056
-456.011	-13.846	0.116	0.075
-454.997	617.884	0.065	0.165
-453.982	62.653	-0.264	0.265
-452.968	-100.364	0.026	0.006
-451.953	800.000	-0.027	-0.107
-450.938	-7.945	-0.351	-0.238
-449.924	550.106	0.132	0.317
-448.909	-200.000	-0.017	0.127
-447.895	484.746	0.130	0.296
-446.880	800.000	0.037	0.150
-445.865	-125.043	-0.181	-0.028
-444.851	32.536	0.124	0.108
-443.836	-92.294	0.178	0.051
-442.822	280.429	-0.074	-0.133
-441.807	-11.266	0.192	-0.127
-440.792	800.000	0.073	-0.216
-439.778	-20.110	0.320	0.198
-438.763	-129.441	-0.018	0.003
-437.749	113.709	0.270	-0.329
-436.734	418.160	0.140	0.301
-435.719	-7.671	0.132	0.090
-434.705	-57.089	-0.089	0.039
-433.690	50.801	-0.169	0.161
-432.676	30.793	0.136	-0.117
-431.661	800.000	-0.063	-0.204
-430.646	272.677	0.045	-0.079
-429.632	166.836	0.053	-0.075
-428.617	-200.000	-0.058	-0.273
-427.603	761.760	-0.073	-0.198
-426.588	154.845	0.100	0.138
-425.573	800.000	-0.006	-0.022
-424.559	186.930	0.118	-0.177
-423.544	-200.000	-0.002	-0.307
-422.530	112.425	0.173	0.210
-421.515	-85.157	0.105	0.033
-420.500	38.288	0.098	-0.088
-419.486	800.000	0.057	-0.171
-418.471	-200.000	-0.010	0.289
-417.457	-200.000	0.023	0.105
-416.442	-79.584	0.293	0.099
-415.428	-80.494	0.120	0.040
-414.413	41.641	0.414	0.376
-413.398	194.026	0.113	0.172
-412.384	-200.000	-0.010	-0.114
-411.369	-92.625	-0.060	0.017
-410.355	800.000	-0.064	0.197
-409.340	-100.649	0.105	-0.026
-408.325	-56.340	0.209	-0.093
-407.311	-128.980	-0.356	-0.050
-406.296	135.564	-0.043	0.057
-405.282	800.000	0.065	0.186
-404.267	-12.243	0.097	0.064
-403.252	153.182	0.096	0.132
-402.238	-192.084	0.291	0.003
-401.223	-65.425	-0.158	-0.064
-400.209	-111.270	0.236	-0.048
-399.194	-89.128	0.145	-0.043
-398.179	142.579	-0.145	0.193
-397.165	8.342	0.165	-0.125
-396.150	-91.747	-0.135	-0.039
-395.136	15.558	-0.191	-0.150
-394.121	-115.975	-0.200	-0.037
-393.106	800.000	0.044	0.142
-392.092	461.493	-0.138	-0.309
-391.077	245.657	0.066	-0.111
-390.063	-124.053	0.118	0.019
-389.048	-14.462	0.130	0.084
-388.033	-151.327	-0.189	-0.014
-387.019	-85.466	-0.279	0.087
-386.004	640.695	-0.063	-0.162
-384.990	7.664	0.173	0.130
-383.975	-12.531	-0.207	0.135
-382.960	800.000	-0.031	-0.122
-381.946	148.900	0.195	-0.264
-380.931	-117.911	-0.056	0.010
-379.917	-200.000	0.017	0.164
-378.902	-1.209	0.104	-0.073
-377.888	-96.041	-0.240	-0.064
-376.873	187.596	0.154	0.230
-375.858	-61.465	-0.219	0.092
-374.844	-200.000	0.039	0.187
-373.829	387.158	-0.067	-0.139
-372.815	91.046	0.265	0.297
-371.800	-200.000	0.000	0.137
-370.785	517.306	-0.135	-0.315
-369.771	-82.535	0.120	0.039
-368.756	-200.000	-0.009	-0.272
-367.742	-26.346	-0.313	-0.184
-366.727	-39.042	0.148	0.078
-365.712	-67.611	0.113	0.045
-364.698	-67.509	-0.195	-0.076
-363.683	-167.124	0.281	0.011
-362.669	731.748	0.115	0.307
-361.654	-200.000	-0.025	-0.116
-360.639	800.000	0.047	-0.203
-359.625	-93.791	-0.440	0.121
-358.610	-200.000	0.069	-0.450
-357.596	-200.000	0.037	-0.319
-356.581	500.457	-0.010	-0.024
-355.566	51.114	-0.020	0.019
-354.552	-200.000	-0.008	0.271
-353.537	800.000	-0.084	0.289
-352.523	14.011	-0.246	-0.192
-351.508	-200.000	-0.018	-0.283
-350.493	-35.254	-0.032	0.018
-349.479	202.174	-0.139	0.215
-348.464	682.092	-0.110	0.286
-347.450	22.232	0.068	0.055
-346.435	247.716	0.017	0.030
-345.420	-114.301	0.092	-0.018
-344.406	-83.152	-0.135	0.043
-343.391	114.519	-0.293	-0.358
-342.377	-200.000	0.001	-0.054
-341.362	800.000	-0.064	-0.184
-340.348	800.000	-0.100	-0.311
-339.333	336.826	0.067	-0.130
-338.318	246.618	0.077	-0.130
-337.304	44.471	0.240	-0.221
-336.289	-143.381	0.244	0.023
-335.275	663.973	0.025	-0.065
-334.260	78.658	-0.274	0.293
-333.245	-200.000	-0.062	0.323
-332.231	-114.702	0.256	0.049
-331.216	-200.000	0.002	-0.133
-330.202	490.765	0.181	-0.415
-329.187	800.000	0.041	-0.115
-328.172	-3.310	0.395	-0.275
-327.158	-200.000	-0.000	0.268
-326.143	-66.013	-0.061	-0.024
-325.129	113.938	-0.145	-0.176
-324.114	-200.000	-0.012	-0.129
-323.099	9.104	0.129	0.098
-322.085	-89.480	0.102	-0.030
-321.070	-63.263	0.227	-0.094
-320.056	105.330	-0.072	0.086
-319.041	-0.288	-0.127	-0.090
-318.026	-74.869	0.065	0.023
-317.012	800.000	0.111	0.330
-315.997	28.492	0.209	-0.177
-314.983	9.804	-0.398	-0.302
-313.968	257.949	-0.140	-0.241
-312.953	-146.209	0.228	0.020
-311.939	-200.000	0.002	0.086
-310.924	-95.309	0.106	-0.029
-309.910	134.575	0.154	-0.200
-308.895	-32.991	-0.221	-0.123
-307.880	-200.000	0.015	-0.067
-306.866	34.299	0.230	0.201
-305.851	-151.371	-0.388	0.029
-304.837	-153.004	0.291	-0.020
-303.822	-200.000	0.031	0.150
-302.807	-119.341	-0.732	0.127
-301.793	86.097	0.212	0.233
-300.778	800.000	0.111	0.344
-299.764	-200.000	-0.029	-0.343
-298.749	385.139	0.203	0.419
-297.735	800.000	-0.029	0.121
-296.720	148.827	0.040	0.054
-295.705	163.045	-0.048	-0.068
-294.691	-9.092	-0.061	-0.041
-293.676	-200.000	0.072	0.378
-292.662	-132.432	0.112	0.014
-291.647	21.169	-0.363	0.295
-290.632	-129.151	0.092	0.013
-289.618	243.121	-0.054	0.090
-288.603	320.516	0.090	-0.170
-287.589	446.872	-0.017	0.038
-286.574	-200.000	-0.012	0.108
-285.559	-178.438	-0.491	-0.011
-284.545	-200.000	-0.007	-0.245
-283.530	-79.606	-0.238	0.080
-282.516	38.937	-0.035	-0.031
-281.501	-200.000	-0.034	0.161
-280.486	-51.743	0.338	0.157
-279.472	136.002	-0.112	0.146
-278.457	-41.409	0.121	0.062
-277.443	-135.456	0.114	0.014
-276.428	306.444	-0.090	-0.167
-275.413	800.000	-0.027	0.080
-274.399	13.718	-0.092	0.072
-273.384	-172.969	0.153	-0.005
-272.370	87.357	0.197	0.217
-271.355	-200.000	-0.039	-0.253
-270.340	-45.184	-0.202	-0.100
-269.326	120.851	0.092	-0.114
-268.311	800.000	0.048	0.161
-267.297	-183.197	-0.124	-0.002
-266.282	111.541	-0.008	0.009
-265.267	-58.635	0.195	0.084
-264.253	50.518	-0.125	0.118
-263.238	68.896	-0.135	0.138
-262.224	266.236	-0.094	-0.163
-261.209	-43.023	-0.182	-0.092
-260.195	26.545	0.085	-0.071
-259.180	800.000	0.105	-0.395
-258.165	800.000	0.038	-0.106
-257.151	374.294	-0.034	0.069
-256.136	-200.000	0.016	-0.082
-255.122	-32.866	-0.117	0.065
-254.107	183.442	-0.188	0.277
-253.092	-200.000	0.072	0.375
-252.078	-192.909	-0.232	-0.002
-251.063	-125.923	-0.200	-0.030
-250.049	-129.638	0.165	-0.023
-249.034	24.234	0.158	-0.130
-248.019	-55.357	-0.472	-0.211
-247.005	-37.988	-0.094	0.050
-245.990	-72.389	-0.478	-0.176
-244.976	12.386	0.103	0.079
-243.961	800.000	-0.023	-0.098
-242.946	410.965	0.047	-0.099
-241.932	108.359	0.133	0.158
-240.917	-98.562	-0.350	-0.089
-239.903	800.000	-0.026	0.072
-238.888	-141.776	-0.184	-0.018
-237.873	-62.199	-0.339	-0.141
-236.859	-200.000	-0.027	-0.144
-235.844	-42.127	0.206	0.105
-234.830	-122.788	-0.237	0.038
-233.815	800.000	-0.082	-0.253
-232.800	-24.875	-0.210	0.124
-231.786	-200.000	-0.012	-0.082
-230.771	-200.000	-0.090	-0.000
-229.757	-118.801	0.196	0.034
-228.742	370.144	-0.074	0.150
-227.727	-200.000	0.001	-0.289
-226.713	-200.000	-0.094	-0.442
-225.698	-83.113	0.114	0.037
-224.684	-200.000	0.000	-0.039
-223.669	-71.262	0.058	0.022
-222.655	154.175	0.213	0.292
-221.640	800.000	0.006	-0.017
-220.625	82.403	0.043	0.047
-219.611	-23.926	0.232	0.138
-218.596	176.950	-0.022	-0.031
-217.582	-200.000	-0.008	-0.140
-216.567	364.451	-0.114	-0.229
-215.552	-51.213	0.142	0.066
-214.538	75.310	0.109	-0.115
-213.523	121.696	-0.131	-0.163
-212.509	83.977	0.078	0.084
-211.494	-200.000	-0.011	-0.071
-210.479	-42.468	-0.192	-0.098
-209.465	-3.815	-0.189	0.130
-208.450	-88.939	-0.154	0.045
-207.436	37.244	-0.173	0.152
-206.421	5.256	0.173	-0.127
-205.406	-200.000	0.021	-0.098
-204.392	50.067	0.235	-0.220
-203.377	-200.000	-0.016	-0.200
-202.363	-76.190	0.415	0.146
-201.348	290.220	-0.104	0.188
-200.333	-9.009	0.078	0.052
-199.319	-200.000	0.009	0.179
-198.304	-161.284	0.216	0.011
-197.290	40.284	-0.193	0.173
-196.275	-90.619	-0.021	-0.006
-195.260	-200.000	-0.004	-0.032
-194.246	152.007	0.157	-0.213
-193.231	-19.365	0.089	-0.055
-192.217	47.511	0.218	0.202
-191.202	800.000	-0.016	0.057
-190.187	140.618	-0.041	-0.054
-189.173	287.317	0.064	-0.114
-188.158	-200.000	-0.033	-0.203
-187.144	-200.000	0.018	0.248
-186.129	800.000	0.053	-0.178
-185.114	800.000	0.079	-0.233
-184.100	197.530	0.164	-0.249
-183.085	249.294	0.049	-0.083
-182.071	-76.103	-0.150	-0.053
-181.056	245.534	0.066	0.111
-180.042	-200.000	-0.123	-0.000
-179.027	663.894	0.055	-0.142
-178.012	-118.303	0.336	0.059
-176.998	-131.451	0.175	0.023
-175.983	307.926	-0.163	0.302
-174.969	-200.000	-0.026	0.115
-173.954	-80.524	-0.193	-0.064
-172.939	-99.208	0.480	0.121
-171.925	701.698	0.151	0.394
-170.910	371.366	-0.042	0.085
-169.896	727.096	0.099	0.263
-168.881	59.962	-0.087	0.085
-167.866	190.878	0.170	0.254
-166.852	-55.074	0.216	0.097
-165.837	-48.794	0.132	0.063
-164.823	-30.969	0.193	0.108
-163.808	800.000	0.062	0.238
-162.793	800.000	0.099	-0.285
-161.779	800.000	0.075	0.249
-160.764	497.717	0.120	0.275
-159.750	-200.000	0.000	0.060
-158.735	800.000	-0.073	-0.268
-157.720	-200.000	0.012	0.156
-156.706	800.000	0.069	-0.212
-155.691	-200.000	0.005	-0.027
-154.677	800.000	0.014	0.046
-153.662	-200.000	0.005	0.419
-152.647	-61.593	0.310	-0.129
-151.633	377.172	0.117	0.237
-150.618	-28.240	0.230	-0.132
-149.604	-115.856	0.427	0.079
-148.589	76.755	0.190	0.200
-147.574	800.000	-0.131	-0.372
-146.560	-73.072	0.027	-0.010
-145.545	-114.136	0.123	-0.024
-144.531	-49.976	0.252	-0.119
-143.516	-28.786	0.097	0.055
-142.502	27.371	0.040	-0.033
-141.487	233.000	-0.087	-0.142
-140.472	-200.000	0.012	-0.178
-139.458	26.268	0.378	0.313
-138.443	800.000	0.036	-0.110
-137.429	112.686	-0.057	0.069
-136.414	16.421	0.034	0.027
-135.399	-200.000	0.022	-0.156
-134.385	-47.064	0.460	0.223
-133.370	367.866	-0.042	-0.085
-132.356	98.310	0.108	-0.123
-131.341	70.915	0.138	-0.142
-130.326	121.002	-0.112	-0.139
-129.312	-84.325	0.212	0.067
-128.297	68.322	-0.273	0.278
-127.283	-200.000	-0.004	0.227
-126.268	129.998	0.113	0.143
-125.253	277.741	0.111	0.195
-124.239	-81.540	-0.171	0.056
-123.224	143.190	-0.129	-0.171
-122.210	758.337	-0.024	0.065
-121.195	128.723	0.081	0.102
