DTS Sentinel unit serial number:	SN413079Multiplexer serial number:	ORYXHardware model number:	OX4-SRSoftware version number:	ORYX F/W v4.00 Oryx Data Collector v3.7.2.0data status	okinstallation	princeton_trtdifferential loss correction	single-endedforward channel	channel 1reverse channel	N/Adate	2019/09/10time	18:40:11forward acquisition time	60.00reverse acquisition time	0.00gamma	496.2192k internal	0.2309k external	0.2309temperature offset calibration	0.9923default loss term (dB/km)	0.3790temperature slope calibration	1.0000multiplexer offset coefficient	1.0000multiplexer slope coefficient	1.0000fibre end	0.00T internal ref (°C)	35.44T ext. ref 1 (°C)	-0.38T ext. ref 2 (°C)	27.36length (m)	temperature (°C)	Stokes	anti-Stokes-747.200	-35.529	0.089	-0.049
-746.185	130.360	0.092	0.119
-745.171	105.070	0.291	-0.349
-744.156	74.204	0.082	0.088
-743.142	123.828	0.231	0.295
-742.127	252.260	-0.072	0.125
-741.112	-198.455	-0.251	0.001
-740.098	539.416	-0.194	-0.469
-739.083	-100.500	-0.299	-0.075
-738.069	800.000	-0.089	0.323
-737.054	-25.621	0.096	0.057
-736.039	-97.191	-0.356	-0.094
-735.025	341.595	0.128	0.253
-734.010	123.869	0.207	-0.264
-732.996	-12.024	0.188	-0.125
-731.981	-177.295	0.255	0.006
-730.966	-200.000	0.043	-0.324
-729.952	0.214	-0.071	-0.051
-728.937	406.098	-0.135	-0.290
-727.923	-101.822	-0.102	0.025
-726.908	-44.892	-0.290	-0.147
-725.894	-109.253	-0.311	0.067
-724.879	18.722	0.240	0.195
-723.864	-64.864	0.311	-0.128
-722.850	-200.000	0.004	0.023
-721.835	-64.548	0.102	-0.042
-720.821	-22.261	-0.135	0.083
-719.806	800.000	0.068	-0.271
-718.791	190.073	-0.143	-0.217
-717.777	497.728	0.127	-0.298
-716.762	25.594	-0.170	-0.144
-715.748	-13.582	-0.131	-0.086
-714.733	-13.000	0.145	0.096
-713.718	189.650	-0.104	0.158
-712.704	56.428	0.155	-0.153
-711.689	106.331	-0.099	-0.120
-710.675	96.972	0.060	-0.070
-709.660	686.920	-0.102	0.269
-708.645	-200.000	-0.059	-0.453
-707.631	34.636	0.046	-0.041
-706.616	-20.604	-0.134	0.083
-705.602	-6.203	-0.082	-0.057
-704.587	578.492	0.191	-0.473
-703.572	800.000	0.035	-0.109
-702.558	-38.470	-0.009	-0.005
-701.543	-200.000	0.026	0.168
-700.529	3.975	-0.336	0.249
-699.514	-6.292	-0.404	0.280
-698.499	383.827	-0.069	0.144
-697.485	-200.000	-0.305	0.001
-696.470	800.000	-0.063	0.236
-695.456	269.753	0.162	-0.289
-694.441	-40.380	-0.105	-0.056
-693.426	-64.798	0.412	-0.169
-692.412	99.062	-0.138	0.161
-691.397	-189.445	-0.388	-0.005
-690.383	-200.000	0.010	-0.193
-689.368	-83.005	0.255	0.083
-688.354	88.752	-0.081	0.092
-687.339	-88.646	-0.230	0.069
-686.324	142.895	-0.184	0.248
-685.310	-199.229	-0.277	0.001
-684.295	-200.000	0.000	-0.054
-683.281	-25.945	0.258	0.154
-682.266	10.435	-0.132	-0.102
-681.251	35.523	0.063	-0.056
-680.237	6.889	0.266	0.200
-679.222	58.717	-0.109	-0.109
-678.208	-200.000	0.008	-0.386
-677.193	-10.043	-0.140	-0.094
-676.178	21.586	-0.178	0.147
-675.164	-54.525	-0.254	0.117
-674.149	56.568	-0.252	0.248
-673.135	9.518	0.506	0.389
-672.120	-200.000	-0.011	-0.205
-671.105	-122.883	-0.306	-0.050
-670.091	-1.817	-0.128	0.091
-669.076	306.014	0.139	-0.261
-668.062	-105.328	-0.162	-0.037
-667.047	460.842	-0.118	-0.267
-666.032	170.132	-0.284	0.412
-665.018	18.321	0.130	-0.106
-664.003	576.701	-0.036	0.088
-662.989	-138.208	0.106	-0.012
-661.974	-200.000	-0.030	0.183
-660.959	800.000	0.190	-0.595
-659.945	-200.000	0.045	0.249
-658.930	18.463	0.209	0.169
-657.916	-200.000	-0.034	0.150
-656.901	40.118	-0.212	0.193
-655.886	800.000	-0.023	-0.065
-654.872	-139.332	-0.164	-0.018
-653.857	-200.000	0.022	-0.125
-652.843	99.105	0.087	-0.102
-651.828	186.511	-0.153	0.231
-650.814	-62.707	0.168	-0.071
-649.799	-87.433	0.073	-0.022
-648.784	-200.000	0.029	-0.170
-647.770	-125.623	0.240	0.037
-646.755	-16.934	-0.045	-0.028
-645.741	-29.734	0.336	-0.194
-644.726	-45.714	-0.118	-0.059
-643.711	-81.971	0.310	-0.103
-642.697	743.582	0.149	-0.407
-641.682	273.926	0.043	-0.077
-640.668	63.232	0.207	-0.210
-639.653	-91.055	-0.250	0.073
-638.638	118.937	0.263	-0.329
-637.624	-45.337	0.262	0.131
-636.609	-200.000	-0.006	-0.051
-635.595	-200.000	0.009	-0.239
-634.580	234.097	0.110	-0.183
-633.565	41.602	-0.293	0.268
-632.551	173.293	-0.004	-0.007
-631.536	67.654	0.071	-0.073
-630.522	37.126	-0.267	-0.240
-629.507	-143.937	-0.246	0.023
-628.492	135.082	0.203	-0.267
-627.478	35.377	0.122	-0.109
-626.463	-89.154	-0.341	-0.102
-625.449	-200.000	-0.023	-0.149
-624.434	-200.000	0.094	-0.537
-623.419	-200.000	0.071	-0.343
-622.405	18.340	-0.161	-0.130
-621.390	372.000	0.064	-0.131
-620.376	-29.746	0.058	0.034
-619.361	-200.000	-0.018	-0.091
-618.346	166.653	-0.077	0.111
-617.332	-200.000	-0.009	-0.379
-616.317	77.094	-0.175	-0.188
-615.303	-22.585	-0.199	-0.122
-614.288	-156.836	0.207	-0.013
-613.273	-19.418	-0.171	-0.107
-612.259	60.369	-0.326	0.327
-611.244	106.189	-0.239	-0.287
-610.230	64.272	0.135	0.138
-609.215	384.010	0.011	-0.023
-608.201	-40.467	-0.452	-0.237
-607.186	201.230	-0.149	0.231
-606.171	-161.550	-0.155	0.008
-605.157	-34.070	-0.330	0.183
-604.142	25.423	0.039	-0.033
-603.128	800.000	-0.034	-0.108
-602.113	-154.853	0.209	-0.014
-601.098	127.263	-0.160	-0.205
-600.084	34.780	0.073	-0.064
-599.069	-200.000	-0.001	0.211
-598.055	-187.735	-0.359	0.005
-597.040	91.831	0.231	0.263
-596.025	19.677	0.375	-0.305
-595.011	-177.542	-0.414	0.010
-593.996	10.568	-0.092	-0.071
-592.982	-200.000	-0.019	-0.101
-591.967	125.742	-0.185	0.236
-590.952	10.116	-0.259	0.199
-589.938	161.152	0.061	0.086
-588.923	-29.309	0.111	0.064
-587.909	-129.883	-0.315	0.044
-586.894	-200.000	-0.020	0.125
-585.879	-155.225	-0.230	-0.015
-584.865	-200.000	0.004	-0.056
-583.850	332.013	-0.084	0.164
-582.836	-115.797	0.049	0.009
-581.821	-0.852	0.100	0.072
-580.806	800.000	0.045	0.149
-579.792	120.272	-0.197	-0.247
-578.777	-200.000	0.020	-0.118
-577.763	257.749	0.101	0.175
-576.748	74.030	-0.183	0.193
-575.733	254.961	0.101	-0.175
-574.719	-136.185	0.249	-0.029
-573.704	-200.000	0.017	0.085
-572.690	-71.179	-0.087	-0.033
-571.675	-56.093	-0.464	0.208
-570.661	-83.516	0.253	0.082
-569.646	-120.056	0.140	0.024
-568.631	174.136	-0.186	0.272
-567.617	-187.110	0.375	-0.005
-566.602	-0.413	-0.241	-0.173
-565.588	-21.303	-0.339	-0.209
-564.573	-133.500	0.276	-0.035
-563.558	252.573	0.095	0.163
-562.544	-46.255	0.189	0.094
-561.529	-200.000	-0.031	-0.171
-560.515	800.000	-0.014	0.053
-559.500	640.228	0.062	0.160
-558.485	-130.101	-0.298	-0.041
-557.471	800.000	-0.062	-0.211
-556.456	-157.818	0.072	-0.004
-555.442	800.000	0.044	-0.131
-554.427	123.854	-0.046	-0.059
-553.412	800.000	-0.092	0.306
-552.398	-148.223	0.088	-0.007
-551.383	-200.000	-0.032	-0.248
-550.369	87.900	0.127	-0.142
-549.354	-200.000	-0.024	0.165
-548.339	-104.309	-0.161	-0.038
-547.325	250.617	0.245	0.419
-546.310	-115.563	-0.312	-0.059
-545.296	587.970	-0.071	0.175
-544.281	-200.000	-0.023	0.205
-543.266	138.154	0.189	0.249
-542.252	157.981	-0.135	0.189
-541.237	-200.000	0.050	0.228
-540.223	-200.000	0.008	-0.053
-539.208	-66.767	0.178	0.071
-538.193	-200.000	-0.029	-0.312
-537.179	-182.275	0.173	-0.003
-536.164	800.000	0.013	0.050
-535.150	21.342	-0.108	-0.089
-534.135	-47.547	-0.096	-0.047
-533.121	-200.000	-0.008	-0.075
-532.106	-121.062	-0.159	-0.027
-531.091	469.286	0.169	-0.382
-530.077	100.643	-0.010	0.012
-529.062	422.568	-0.071	-0.154
-528.048	-67.274	-0.180	0.071
-527.033	623.504	-0.185	0.469
-526.018	66.163	-0.139	-0.142
-525.004	621.970	0.140	-0.354
-523.989	107.815	-0.210	-0.252
-522.975	-29.877	-0.239	-0.137
-521.960	-23.606	-0.177	0.107
-520.945	172.162	-0.042	-0.061
-519.931	164.032	0.234	-0.332
-518.916	-6.575	-0.118	0.081
-517.902	-181.887	-0.230	0.004
-516.887	-200.000	-0.004	-0.196
-515.872	800.000	-0.053	-0.161
-514.858	-200.000	-0.026	-0.214
-513.843	-200.000	0.027	0.175
-512.829	-175.028	0.238	0.007
-511.814	-36.164	0.270	0.147
-510.799	51.018	0.097	0.093
-509.785	800.000	-0.085	0.312
-508.770	60.607	0.164	0.164
-507.756	-127.203	0.351	-0.052
-506.741	-123.337	-0.094	-0.015
-505.726	800.000	0.028	0.114
-504.712	622.409	0.022	-0.056
-503.697	-200.000	-0.006	-0.298
-502.683	-56.071	-0.106	-0.047
-501.668	800.000	0.142	0.505
-500.653	94.922	0.079	0.090
-499.639	14.235	0.232	0.182
-498.624	-60.781	0.076	-0.032
-497.610	-200.000	-0.003	0.107
-496.595	-119.455	-0.217	-0.038
-495.581	120.232	0.063	-0.079
-494.566	-2.205	0.156	0.110
-493.551	-200.000	-0.048	0.268
-492.537	97.112	-0.149	0.172
-491.522	5.739	-0.120	0.089
-490.508	800.000	-0.064	0.209
-489.493	144.123	0.107	-0.144
-488.478	12.594	0.266	-0.207
-487.464	36.049	-0.198	-0.175
-486.449	-29.139	0.145	-0.084
-485.435	21.954	0.127	-0.104
-484.420	254.269	-0.095	0.163
-483.405	380.383	0.132	0.272
-482.391	-200.000	-0.019	0.143
-481.376	-156.150	0.244	-0.015
-480.362	-200.000	-0.032	-0.374
-479.347	38.093	-0.081	-0.073
-478.332	-143.345	0.089	0.009
-477.318	321.008	0.113	0.216
-476.303	800.000	0.081	0.301
-475.289	266.093	0.126	0.221
-474.274	325.048	-0.204	-0.392
-473.259	-200.000	0.052	-0.284
-472.245	-200.000	-0.040	-0.289
-471.230	-200.000	-0.058	-0.292
-470.216	19.928	0.252	-0.204
-469.201	-125.487	0.194	-0.030
-468.186	-147.238	0.200	0.017
-467.172	0.769	0.094	0.068
-466.157	251.105	0.035	-0.060
-465.143	-11.894	0.163	0.107
-464.128	-138.011	0.044	-0.005
-463.113	121.604	-0.136	-0.171
-462.099	5.014	-0.240	-0.178
-461.084	-43.722	-0.239	-0.121
-460.070	-183.778	-0.051	-0.001
-459.055	552.143	-0.246	0.593
-458.040	14.306	0.279	0.218
-457.026	131.557	0.129	-0.166
-456.011	-90.235	-0.151	0.044
-454.997	-6.746	-0.122	0.084
-453.982	25.305	-0.149	-0.125
-452.968	198.282	0.068	0.104
-451.953	800.000	-0.051	0.181
-450.938	-200.000	-0.009	-0.189
-449.924	800.000	0.080	0.263
-448.909	-71.395	0.065	-0.025
-447.895	5.369	0.178	0.132
-446.880	-11.906	0.152	0.100
-445.865	-200.000	0.027	-0.236
-444.851	-9.345	0.124	-0.083
-443.836	-167.659	-0.172	0.007
-442.822	-80.705	0.108	0.036
-441.807	-97.970	0.250	0.065
-440.792	13.576	0.273	-0.213
-439.778	-90.160	0.162	0.047
-438.763	-85.525	-0.160	0.050
-437.749	135.157	0.183	-0.238
-436.734	-84.163	-0.234	0.075
-435.719	111.085	0.205	0.247
-434.705	-42.723	0.136	0.070
-433.690	498.491	0.060	-0.139
-432.676	-136.472	-0.341	-0.040
-431.661	429.419	-0.094	0.204
-430.646	-200.000	0.025	-0.332
-429.632	800.000	-0.118	-0.332
-428.617	381.337	-0.054	0.112
-427.603	-59.928	0.087	0.037
-426.588	143.001	0.117	0.156
-425.573	-200.000	-0.020	-0.127
-424.559	-32.484	0.169	-0.095
-423.544	83.988	0.206	-0.226
-422.530	683.255	0.067	0.176
-421.515	-200.000	-0.025	-0.217
-420.500	-69.118	-0.114	-0.044
-419.486	-114.077	0.223	-0.043
-418.471	-200.000	-0.019	-0.193
-417.457	60.032	-0.172	0.170
-416.442	800.000	-0.035	-0.107
-415.428	800.000	-0.117	-0.345
-414.413	-62.843	-0.262	0.109
-413.398	-75.396	0.326	-0.116
-412.384	-166.991	-0.300	0.012
-411.369	-80.448	0.238	0.080
-410.355	173.822	0.275	0.398
-409.340	273.396	-0.071	-0.125
-408.325	104.245	-0.026	0.030
-407.311	25.498	0.030	0.025
-406.296	-200.000	0.427	0.001
-405.282	-200.000	-0.045	0.374
-404.267	-48.665	-0.083	-0.040
-403.252	-60.808	0.153	-0.065
-402.238	800.000	0.068	0.240
-401.223	13.017	0.316	-0.245
-400.209	66.749	0.008	-0.008
-399.194	122.351	0.224	-0.281
-398.179	-40.593	-0.266	0.138
-397.165	-200.000	0.004	-0.127
-396.150	-200.000	0.006	0.099
-395.136	800.000	-0.066	0.264
-394.121	26.502	0.081	-0.068
-393.106	155.125	-0.205	0.283
-392.092	258.732	-0.101	0.174
-391.077	-74.871	0.283	-0.102
-390.063	-121.458	0.109	-0.018
-389.048	-200.000	0.054	-0.248
-388.033	183.908	0.060	-0.088
-387.019	800.000	-0.048	-0.205
-386.004	-136.164	0.525	0.062
-384.990	-0.274	-0.202	0.144
-383.975	71.108	0.177	-0.184
-382.960	11.655	0.110	0.085
-381.946	44.152	0.209	0.192
-380.931	116.711	-0.225	-0.277
-379.917	52.577	-0.040	-0.038
-378.902	12.216	0.033	-0.026
-377.888	-3.853	0.080	0.056
-376.873	99.127	0.087	0.101
-375.858	-17.956	0.215	-0.135
-374.844	-200.000	0.069	-0.346
-373.829	-200.000	-0.038	0.175
-372.815	-58.295	0.250	0.109
-371.800	-22.967	0.265	0.160
-370.785	-130.603	0.180	-0.024
-369.771	-200.000	0.039	-0.195
-368.756	-200.000	0.025	-0.126
-367.742	312.805	0.045	-0.085
-366.727	-200.000	0.015	-0.073
-365.712	-200.000	0.056	0.269
-364.698	-200.000	-0.033	0.274
-363.683	28.301	-0.168	0.142
-362.669	681.894	0.156	-0.408
-361.654	164.585	0.131	-0.185
-360.639	423.325	0.114	0.246
-359.625	200.808	0.188	-0.290
-358.610	239.015	0.105	-0.175
-357.596	170.037	-0.111	0.160
-356.581	-200.000	0.011	-0.198
-355.566	-200.000	0.030	-0.237
-354.552	146.974	0.227	0.306
-353.537	-162.409	-0.146	0.007
-352.523	-54.863	-0.297	0.134
-351.508	-200.000	-0.016	-0.098
-350.493	-42.873	-0.290	0.147
-349.479	-51.697	-0.389	0.181
-348.464	-200.000	0.005	0.179
-347.450	217.273	0.323	0.515
-346.435	-145.173	-0.373	-0.034
-345.420	-30.024	-0.125	0.071
-344.406	73.929	-0.084	0.088
-343.391	514.466	-0.062	0.145
-342.377	13.677	0.087	-0.067
-341.362	592.638	-0.129	0.319
-340.348	-49.301	0.300	0.143
-339.333	70.100	-0.216	-0.223
-338.318	-77.572	-0.290	-0.100
-337.304	-73.731	-0.294	0.107
-336.289	-96.259	-0.025	0.007
-335.275	483.989	0.071	0.161
-334.260	-49.751	-0.135	0.064
-333.245	431.911	0.081	-0.175
-332.231	800.000	0.006	0.019
-331.216	-200.000	-0.004	-0.097
-330.202	17.247	-0.053	0.042
-329.187	-100.875	0.026	0.006
-328.172	-200.000	0.014	0.474
-327.158	-200.000	-0.001	0.014
-326.143	-200.000	0.026	-0.121
-325.129	218.137	0.074	-0.118
-324.114	-200.000	-0.003	0.047
-323.099	48.131	-0.261	-0.244
-322.085	-89.154	-0.219	0.065
-321.070	-58.444	-0.460	0.200
-320.056	112.544	-0.154	0.187
-319.041	-93.694	0.085	-0.023
-318.026	524.356	0.038	0.089
-317.012	-126.319	-0.312	-0.046
-315.997	701.266	-0.047	0.123
-314.983	800.000	0.076	-0.241
-313.968	-52.727	0.010	-0.004
-312.953	35.609	-0.089	-0.078
-311.939	60.753	-0.125	0.123
-310.924	-127.441	-0.190	0.028
-309.910	800.000	0.028	0.094
-308.895	48.819	0.175	-0.164
-307.880	-135.410	0.099	-0.012
-306.866	45.554	-0.137	-0.127
-305.851	-161.236	0.131	-0.007
-304.837	48.724	-0.174	0.163
-303.822	74.816	0.390	0.410
-302.807	545.791	0.162	0.387
-301.793	92.050	-0.025	-0.028
-300.778	-93.553	0.316	-0.087
-299.764	-200.000	-0.004	0.054
-298.749	-121.435	0.396	-0.066
-297.735	-200.000	-0.004	0.099
-296.720	-25.386	-0.325	-0.192
-295.705	119.976	0.041	0.051
-294.691	41.750	-0.128	0.116
-293.676	-142.442	0.281	-0.028
-292.662	-84.873	-0.301	-0.094
-291.647	237.536	0.109	-0.180
-290.632	-83.020	0.096	-0.031
-289.618	-200.000	-0.005	0.112
-288.603	305.206	-0.065	-0.120
-287.589	-26.286	-0.361	-0.211
-286.574	-38.179	-0.225	0.119
-285.559	34.317	-0.272	-0.237
-284.545	-28.573	-0.282	0.162
-283.530	-47.969	0.119	0.058
-282.516	-47.881	-0.200	-0.097
-281.501	-52.546	0.330	0.152
-280.486	395.881	-0.040	-0.084
-279.472	103.783	-0.095	-0.111
-278.457	-27.131	-0.128	-0.074
-277.443	44.481	0.185	-0.170
-276.428	-200.000	-0.069	-0.306
-275.413	219.331	0.184	0.293
-274.399	13.346	0.105	-0.082
-273.384	79.652	0.166	0.178
-272.370	-109.394	0.184	-0.039
-271.355	-53.112	-0.271	-0.124
-270.340	800.000	0.076	0.240
-269.326	173.286	0.130	0.187
-268.311	131.159	0.038	-0.048
-267.297	-43.570	-0.548	0.276
-266.282	-198.751	0.166	-0.001
-265.267	-34.500	-0.101	0.055
-264.253	-105.207	0.283	0.065
-263.238	-200.000	-0.009	0.586
-262.224	159.912	0.060	0.084
-261.209	800.000	-0.033	-0.116
-260.195	-124.390	0.273	0.042
-259.180	-144.634	0.120	0.011
-258.165	122.320	0.072	0.089
-257.151	800.000	-0.062	-0.215
-256.136	-111.967	0.340	0.068
-255.122	-65.171	0.390	0.157
-254.107	-200.000	0.010	0.201
-253.092	-82.916	-0.241	0.077
-252.078	-32.802	0.095	0.053
-251.063	-76.196	0.230	-0.081
-250.049	-73.553	-0.211	-0.077
-249.034	-123.442	-0.167	-0.027
-248.019	800.000	0.065	-0.189
-247.005	522.209	-0.126	0.294
-245.990	107.943	0.151	-0.180
-244.976	273.152	0.061	0.107
-243.961	62.995	0.020	0.020
-242.946	157.546	-0.084	-0.116
-241.932	729.654	0.095	0.252
-240.917	780.535	0.079	-0.215
-239.903	-41.455	0.124	-0.064
-238.888	-40.467	-0.286	0.148
-237.873	-140.114	0.207	0.022
-236.859	800.000	-0.035	-0.122
-235.844	-30.172	0.259	-0.147
-234.830	-200.000	-0.018	-0.286
-233.815	240.648	-0.244	-0.405
-232.800	25.960	-0.111	-0.092
-231.786	276.952	0.119	0.211
-230.771	19.614	-0.172	-0.138
-229.757	129.882	-0.097	0.124
-228.742	14.041	0.379	-0.294
-227.727	-200.000	0.039	-0.346
-226.713	-121.378	-0.411	0.068
-225.698	-76.965	0.200	0.069
-224.684	-200.000	-0.023	0.160
-223.669	36.731	0.331	0.291
-222.655	201.218	-0.013	0.020
-221.640	85.771	0.087	0.096
-220.625	-84.442	-0.141	-0.044
-219.611	-28.385	0.079	0.046
-218.596	-200.000	0.290	-0.000
-217.582	27.451	-0.070	0.059
-216.567	800.000	-0.031	0.105
-215.552	-86.122	-0.103	-0.031
-214.538	751.526	-0.116	-0.313
-213.523	-26.678	-0.232	-0.135
-212.509	-112.164	-0.324	0.065
-211.494	-121.360	0.278	-0.046
-210.479	-142.000	-0.159	-0.016
-209.465	800.000	0.035	0.128
-208.450	42.412	-0.148	-0.134
-207.436	-38.593	-0.256	-0.135
-206.421	-196.423	0.155	0.001
-205.406	41.452	-0.122	-0.110
-204.392	800.000	-0.052	0.173
-203.377	-63.131	-0.333	0.137
-202.363	215.709	-0.102	0.162
-201.348	379.987	0.116	0.237
-200.333	399.891	0.089	0.186
-199.319	-200.000	0.001	0.243
-198.304	362.839	-0.017	-0.033
-197.290	-104.007	-0.040	0.009
-196.275	-73.246	-0.273	-0.099
-195.260	-61.707	-0.258	0.108
-194.246	-118.705	-0.053	0.009
-193.231	-122.627	-0.172	-0.028
-192.217	-45.916	-0.159	0.078
-191.202	381.795	0.094	-0.193
-190.187	-200.000	0.037	0.327
-189.173	-159.856	0.055	-0.003
-188.158	-9.024	0.191	-0.127
-187.144	69.161	0.111	0.114
-186.129	-200.000	-0.025	-0.162
-185.114	533.658	-0.049	-0.116
-184.100	162.642	-0.242	0.338
-183.085	6.194	-0.098	-0.072
-182.071	-130.744	0.035	-0.005
-181.056	-33.781	-0.123	0.068
-180.042	5.497	0.267	-0.196
-179.027	436.797	0.172	-0.372
-178.012	121.233	-0.142	0.176
-176.998	800.000	0.035	0.098
-175.983	142.726	-0.058	0.077
-174.969	40.348	0.081	-0.073
-173.954	-200.000	-0.006	0.090
-172.939	-145.949	-0.433	0.038
-171.925	-146.296	0.141	-0.012
-170.910	-74.947	-0.136	-0.049
-169.896	-200.000	0.019	0.245
-168.881	-167.869	0.109	0.004
-167.866	82.098	0.087	0.094
-166.852	-12.640	0.060	-0.039
-165.837	-9.054	-0.305	0.203
-164.823	-83.071	0.091	0.029
-163.808	-173.416	-0.203	0.006
-162.793	141.527	-0.003	-0.003
-161.779	800.000	0.025	-0.097
-160.764	800.000	-0.015	-0.059
-159.750	-95.739	0.256	0.068
-158.735	145.351	0.115	-0.153
-157.720	347.767	0.106	0.206
-156.706	800.000	0.035	-0.142
-155.691	800.000	-0.084	0.351
-154.677	727.290	0.036	-0.094
-153.662	230.146	0.091	0.148
-152.647	-200.000	0.015	0.085
-151.633	-166.389	-0.018	0.001
-150.618	243.213	-0.166	0.276
-149.604	73.527	0.320	0.332
-148.589	31.965	-0.035	-0.030
-147.574	-200.000	-0.038	-0.313
-146.560	-3.992	0.064	0.044
-145.545	196.651	0.157	0.237
-144.531	800.000	-0.060	0.193
-143.516	-200.000	-0.002	-0.021
-142.502	83.654	0.067	-0.072
-141.487	171.262	0.063	0.089
-140.472	-104.606	0.260	0.060
-139.458	-95.226	0.173	-0.046
-138.443	-200.000	0.013	0.112
-137.429	193.743	0.017	0.025
-136.414	212.320	-0.058	0.090
-135.399	-165.229	0.376	-0.016
-134.385	517.573	-0.023	0.054
-133.370	-41.707	0.207	0.106
-132.356	169.804	0.164	0.232
-131.341	184.500	0.036	0.053
-130.326	-89.468	0.208	0.061
-129.312	275.755	-0.139	0.244
-128.297	-92.149	-0.190	0.053
-127.283	133.867	0.108	-0.138
-126.268	13.570	-0.088	0.068
-125.253	358.505	-0.173	0.343
-124.239	-4.281	0.175	-0.120
-123.224	-78.702	0.311	0.105
-122.210	13.922	-0.141	0.109
-121.195	-61.942	-0.191	-0.079
-120.180	-34.600	-0.057	0.031
