DTS Sentinel unit serial number:	SN413079Multiplexer serial number:	ORYXHardware model number:	OX4-SRSoftware version number:	ORYX F/W v4.00 Oryx Data Collector v3.7.2.0data status	okinstallation	princeton_trtdifferential loss correction	single-endedforward channel	channel 1reverse channel	N/Adate	2019/09/17time	05:10:35forward acquisition time	60.00reverse acquisition time	0.00gamma	496.2192k internal	0.2324k external	0.2324temperature offset calibration	0.9965default loss term (dB/km)	0.3790temperature slope calibration	1.0000multiplexer offset coefficient	1.0000multiplexer slope coefficient	1.0000fibre end	0.00T internal ref (°C)	29.42T ext. ref 1 (°C)	0.14T ext. ref 2 (°C)	23.87length (m)	temperature (°C)	Stokes	anti-Stokes-747.200	193.599	-0.057	-0.088
-746.185	800.000	-0.051	0.191
-745.171	-65.062	0.120	-0.049
-744.156	800.000	-0.068	0.279
-743.142	66.846	-0.194	-0.200
-742.127	800.000	-0.070	0.254
-741.112	92.507	-0.149	-0.170
-740.098	93.413	0.120	0.138
-739.083	-200.000	-0.032	0.251
-738.069	800.000	-0.071	0.268
-737.054	15.754	-0.125	0.099
-736.039	-200.000	-0.054	-0.273
-735.025	-139.087	0.190	-0.021
-734.010	-146.847	-0.241	0.021
-732.996	-74.901	-0.254	-0.092
-731.981	-200.000	-0.167	-0.001
-730.966	-134.226	0.189	-0.024
-729.952	-55.300	-0.150	0.068
-728.937	-200.000	0.017	-0.227
-727.923	-200.000	0.008	0.178
-726.908	113.999	-0.159	-0.194
-725.894	-141.424	-0.152	0.016
-724.879	38.052	0.245	-0.220
-723.864	87.643	-0.159	-0.178
-722.850	-86.320	0.192	0.060
-721.835	29.435	-0.279	-0.239
-720.821	-55.992	0.253	-0.114
-719.806	-47.532	0.122	-0.060
-718.791	-2.919	-0.143	-0.101
-717.777	-80.419	0.203	-0.068
-716.762	-138.098	-0.327	0.037
-715.748	209.376	-0.020	0.032
-714.733	215.524	0.116	0.185
-713.718	-70.318	-0.182	0.070
-712.704	394.984	0.104	-0.219
-711.689	35.469	0.047	-0.042
-710.675	-35.631	-0.178	0.097
-709.660	-200.000	-0.010	0.133
-708.645	-200.000	0.021	0.216
-707.631	198.689	-0.127	-0.196
-706.616	-66.164	0.122	-0.049
-705.602	-106.726	0.056	-0.013
-704.587	230.806	-0.162	-0.268
-703.572	113.185	0.146	-0.179
-702.558	-166.142	-0.238	0.010
-701.543	16.261	0.102	-0.081
-700.529	-200.000	0.020	0.277
-699.514	-133.021	0.247	0.032
-698.499	-200.000	0.034	-0.236
-697.485	-70.433	-0.638	-0.244
-696.470	-200.000	-0.091	-0.457
-695.456	-102.953	-0.217	-0.052
-694.441	-98.578	-0.307	0.079
-693.426	16.206	-0.264	0.210
-692.412	-116.078	0.600	-0.112
-691.397	-134.396	-0.155	0.019
-690.383	34.367	-0.266	-0.234
-689.368	-12.860	0.457	-0.300
-688.354	99.663	-0.175	0.204
-687.339	-130.608	0.392	0.053
-686.324	-158.995	-0.162	-0.009
-685.310	-200.000	0.038	-0.285
-684.295	236.727	-0.108	-0.181
-683.281	-200.000	0.009	0.139
-682.266	139.207	-0.046	-0.061
-681.251	-34.963	-0.148	-0.081
-680.237	-67.725	0.360	0.142
-679.222	26.771	0.156	-0.132
-678.208	183.683	0.094	-0.139
-677.193	-45.778	-0.043	-0.021
-676.178	-39.808	-0.182	-0.095
-675.164	800.000	0.102	0.299
-674.149	101.816	-0.221	0.259
-673.135	45.487	0.142	-0.132
-672.120	-27.238	0.034	-0.020
-671.105	-52.347	-0.161	-0.075
-670.091	-147.606	-0.055	0.005
-669.076	-82.462	-0.383	-0.125
-668.062	-107.945	0.149	-0.033
-667.047	-100.804	-0.337	0.083
-666.032	-9.495	0.199	-0.134
-665.018	-200.000	-0.025	0.323
-664.003	40.649	-0.157	0.143
-662.989	-10.149	0.244	0.163
-661.974	665.944	-0.091	-0.238
-660.959	800.000	-0.044	-0.137
-659.945	-83.928	0.211	0.068
-658.930	800.000	-0.075	-0.284
-657.916	-53.139	-0.284	0.131
-656.901	-24.313	0.126	0.076
-655.886	3.699	-0.114	-0.084
-654.872	800.000	-0.067	0.208
-653.857	345.272	0.070	-0.138
-652.843	631.461	-0.043	-0.109
-651.828	-200.000	-0.002	0.043
-650.814	-94.345	0.124	0.034
-649.799	-200.000	-0.002	-0.204
-648.784	-200.000	-0.037	-0.228
-647.770	-114.558	0.237	-0.046
-646.755	-200.000	0.053	-0.245
-645.741	-200.000	0.006	0.085
-644.726	407.543	0.024	0.050
-643.711	800.000	0.045	0.183
-642.697	7.922	-0.093	-0.070
-641.682	3.180	-0.123	0.090
-640.668	800.000	-0.013	0.047
-639.653	294.898	-0.029	0.054
-638.638	4.475	0.287	0.212
-637.624	-55.834	-0.337	-0.151
-636.609	103.473	0.083	-0.098
-635.595	101.962	0.197	0.231
-634.580	186.167	-0.143	-0.214
-633.565	-200.000	-0.014	-0.198
-632.551	55.771	0.055	0.054
-631.536	140.185	0.122	0.162
-630.522	-81.061	-0.161	-0.053
-629.507	800.000	0.220	-0.717
-628.492	-100.228	-0.071	0.018
-627.478	166.793	-0.149	-0.213
-626.463	-200.000	-0.011	-0.285
-625.449	-200.000	-0.070	-0.560
-624.434	-83.279	0.067	-0.022
-623.419	64.571	0.305	-0.308
-622.405	-200.000	-0.062	0.273
-621.390	480.350	0.086	0.196
-620.376	-36.179	0.171	0.093
-619.361	-200.000	-0.009	-0.353
-618.346	156.483	-0.112	0.156
-617.332	643.386	0.031	-0.078
-616.317	-74.887	0.192	0.069
-615.303	272.801	-0.038	0.067
-614.288	34.522	-0.236	0.207
-613.273	800.000	-0.077	-0.248
-612.259	800.000	-0.030	0.088
-611.244	-165.041	0.032	0.001
-610.230	800.000	-0.072	0.229
-609.215	-28.906	-0.309	0.178
-608.201	163.026	-0.179	-0.253
-607.186	800.000	-0.138	-0.393
-606.171	-200.000	0.094	-0.550
-605.157	124.605	0.110	-0.139
-604.142	-200.000	-0.008	-0.063
-603.128	68.868	-0.199	0.205
-602.113	210.994	-0.243	-0.384
-601.098	615.296	-0.162	-0.408
-600.084	-200.000	0.022	-0.148
-599.069	-117.307	-0.130	-0.024
-598.055	-200.000	-0.061	-0.350
-597.040	-76.821	-0.218	0.077
-596.025	-40.909	-0.192	0.100
-595.011	-200.000	-0.021	0.425
-593.996	-188.584	0.191	-0.002
-592.982	610.561	-0.107	-0.269
-591.967	244.202	-0.048	-0.081
-590.952	-200.000	0.012	0.267
-589.938	-51.367	0.301	0.141
-588.923	-46.443	0.228	0.112
-587.909	-83.934	-0.293	0.094
-586.894	-36.143	-0.126	0.069
-585.879	318.460	-0.065	0.124
-584.865	-79.604	-0.150	0.051
-583.850	197.368	-0.150	-0.229
-582.836	83.706	-0.199	0.218
-581.821	151.524	-0.059	0.081
-580.806	53.342	-0.398	0.382
-579.792	4.570	-0.116	0.085
-578.777	-59.898	0.259	-0.111
-577.763	-9.598	-0.323	0.216
-576.748	-200.000	-0.019	0.109
-575.733	256.467	-0.082	-0.140
-574.719	7.375	0.160	-0.120
-573.704	800.000	0.045	0.153
-572.690	-152.994	-0.249	0.018
-571.675	800.000	0.110	-0.324
-570.661	-124.967	-0.178	0.027
-569.646	-11.814	-0.230	0.151
-568.631	800.000	0.026	0.093
-567.617	147.012	-0.056	-0.076
-566.602	-200.000	-0.026	-0.208
-565.588	800.000	0.060	-0.168
-564.573	800.000	0.055	0.167
-563.558	194.291	0.105	-0.160
-562.544	-200.000	0.001	0.033
-561.529	-200.000	-0.036	0.258
-560.515	-200.000	0.022	-0.097
-559.500	-200.000	0.027	-0.312
-558.485	-9.204	0.049	-0.033
-557.471	-113.228	-0.263	0.052
-556.456	-9.883	-0.014	-0.009
-555.442	98.465	-0.197	-0.227
-554.427	-200.000	-0.007	-0.092
-553.412	9.044	-0.237	-0.180
-552.398	-12.774	-0.073	0.048
-551.383	-53.077	0.221	0.102
-550.369	54.214	-0.293	-0.282
-549.354	179.689	0.267	-0.392
-548.339	-40.877	0.056	-0.029
-547.325	-200.000	0.026	-0.121
-546.310	210.717	0.102	0.160
-545.296	-200.000	-0.016	0.078
-544.281	188.453	-0.121	-0.181
-543.266	58.172	-0.140	0.137
-542.252	-200.000	-0.017	0.080
-541.237	9.574	0.130	0.099
-540.223	42.385	0.125	-0.114
-539.208	-94.327	-0.117	0.032
-538.193	800.000	0.031	0.096
-537.179	-161.190	0.509	-0.027
-536.164	800.000	-0.017	0.054
-535.150	-200.000	-0.001	0.158
-534.135	-107.868	0.270	0.059
-533.121	-200.000	-0.007	-0.075
-532.106	-149.001	0.224	0.018
-531.091	107.532	-0.281	-0.335
-530.077	-200.000	0.020	0.361
-529.062	674.370	0.077	0.201
-528.048	-180.575	0.184	0.004
-527.033	186.739	0.176	0.263
-526.018	-200.000	0.012	0.251
-525.004	107.600	0.117	0.139
-523.989	-200.000	-0.019	-0.103
-522.975	222.597	0.078	-0.126
-521.960	62.450	0.176	-0.176
-520.945	-28.601	0.046	0.027
-519.931	-200.000	-0.023	-0.110
-518.916	-165.037	-0.337	0.015
-517.902	-57.807	0.229	-0.100
-516.887	-156.478	0.036	0.002
-515.872	-200.000	0.012	0.277
-514.858	733.480	0.021	0.055
-513.843	-54.754	0.293	-0.133
-512.829	-57.917	0.208	0.091
-511.814	311.607	0.077	-0.145
-510.799	258.887	-0.107	-0.185
-509.785	350.580	-0.147	-0.292
-508.770	10.884	0.124	0.095
-507.756	-103.888	0.268	0.063
-506.741	-80.657	0.316	0.105
-505.726	-94.086	-0.126	0.035
-504.712	682.905	-0.147	0.384
-503.697	-105.335	0.178	0.040
-502.683	-138.064	-0.183	-0.020
-501.668	-72.716	0.236	0.087
-500.653	-52.585	0.155	-0.072
-499.639	-2.867	0.156	0.109
-498.624	77.976	-0.280	0.298
-497.610	15.010	-0.061	0.048
-496.595	-12.719	-0.128	0.084
-495.581	-95.150	0.107	-0.029
-494.566	-200.000	-0.009	0.241
-493.551	468.532	0.027	0.061
-492.537	72.857	0.239	0.249
-491.522	-200.000	-0.021	0.253
-490.508	426.988	0.133	-0.287
-489.493	40.560	-0.076	-0.068
-488.478	-113.967	-0.304	0.059
-487.464	-142.788	-0.234	-0.023
-486.449	-58.712	0.169	-0.073
-485.435	-68.059	0.585	-0.228
-484.420	-200.000	-0.001	-0.037
-483.405	-88.513	-0.124	-0.037
-482.391	800.000	0.045	0.129
-481.376	-140.478	-0.138	0.014
-480.362	-63.409	0.250	-0.103
-479.347	325.302	-0.089	0.170
-478.332	165.822	0.025	-0.035
-477.318	-9.274	0.106	0.071
-476.303	194.113	-0.103	-0.156
-475.289	-81.861	-0.156	-0.051
-474.274	-200.000	-0.028	-0.256
-473.259	-200.000	0.034	-0.344
-472.245	303.531	0.119	-0.220
-471.230	311.319	-0.134	0.252
-470.216	172.419	0.024	-0.035
-469.201	229.546	-0.173	0.281
-468.186	270.958	0.105	0.184
-467.172	498.980	-0.143	-0.329
-466.157	800.000	0.066	-0.198
-465.143	-88.313	-0.213	-0.064
-464.128	-7.071	0.138	-0.094
-463.113	-62.238	-0.153	0.064
-462.099	800.000	-0.061	0.219
-461.084	25.098	-0.226	-0.187
-460.070	-125.209	-0.369	-0.056
-459.055	314.910	-0.072	-0.136
-458.040	-65.554	-0.230	-0.092
-457.026	570.122	0.055	-0.133
-456.011	-56.050	-0.271	0.121
-454.997	-114.950	0.094	-0.018
-453.982	-130.972	0.247	-0.033
-452.968	98.135	-0.197	-0.227
-451.953	-132.147	-0.313	0.041
-450.938	-24.193	0.105	0.062
-449.924	-200.000	-0.040	-0.204
-448.909	-61.700	0.222	-0.093
-447.895	-45.690	-0.062	0.031
-446.880	-89.471	-0.177	0.052
-445.865	50.147	0.050	0.047
-444.851	800.000	-0.087	0.374
-443.836	113.658	-0.095	0.115
-442.822	-15.980	0.325	-0.207
-441.807	203.429	0.090	0.139
-440.792	99.830	-0.165	0.190
-439.778	-119.099	-0.151	-0.026
-438.763	-0.859	0.176	-0.124
-437.749	101.397	0.025	0.029
-436.734	-187.575	0.072	-0.001
-435.719	68.516	-0.200	-0.204
-434.705	-200.000	0.028	0.159
-433.690	-200.000	0.011	-0.080
-432.676	58.964	0.081	-0.079
-431.661	89.647	0.230	0.255
-430.646	13.214	0.276	-0.213
-429.632	436.741	0.111	-0.240
-428.617	245.293	-0.142	0.238
-427.603	-114.496	-0.244	0.047
-426.588	800.000	-0.120	-0.337
-425.573	-200.000	0.008	-0.034
-424.559	-68.485	0.231	-0.089
-423.544	574.248	0.010	0.023
-422.530	107.306	0.207	-0.245
-421.515	-156.722	-0.458	0.028
-420.500	700.836	-0.079	0.207
-419.486	65.833	-0.223	-0.225
-418.471	-200.000	-0.015	-0.076
-417.457	88.364	0.105	-0.116
-416.442	-153.407	-0.202	-0.014
-415.428	-57.312	-0.230	0.101
-414.413	-200.000	-0.100	0.515
-413.398	-132.825	0.321	0.041
-412.384	-31.932	-0.321	0.179
-411.369	-145.440	-0.286	-0.026
-410.355	14.561	0.054	0.042
-409.340	-103.158	0.043	-0.010
-408.325	357.250	-0.099	-0.197
-407.311	800.000	-0.105	-0.361
-406.296	163.111	0.032	-0.045
-405.282	-200.000	-0.056	-0.293
-404.267	-200.000	0.004	0.096
-403.252	483.647	-0.048	-0.108
-402.238	-200.000	-0.016	0.192
-401.223	-62.833	-0.556	0.229
-400.209	273.552	-0.245	-0.431
-399.194	-59.586	0.098	-0.042
-398.179	26.631	0.145	-0.121
-397.165	-64.214	-0.147	-0.060
-396.150	26.736	0.103	0.086
-395.136	-16.793	-0.226	-0.142
-394.121	-31.594	0.048	0.027
-393.106	185.201	-0.028	0.041
-392.092	-200.000	0.011	0.101
-391.077	19.604	0.211	0.169
-390.063	800.000	0.041	-0.116
-389.048	-91.270	-0.085	0.024
-388.033	-163.720	0.081	0.004
-387.019	-109.917	0.135	0.028
-386.004	-81.241	0.165	-0.054
-384.990	-65.862	0.220	0.088
-383.975	-127.338	-0.191	0.028
-382.960	-73.619	0.161	0.058
-381.946	-105.975	0.144	0.032
-380.931	403.589	0.230	0.482
-379.917	33.416	0.312	0.269
-378.902	-200.000	0.013	-0.076
-377.888	461.170	-0.121	0.269
-376.873	363.711	-0.046	-0.092
-375.858	-200.000	-0.017	-0.225
-374.844	-200.000	0.025	-0.322
-373.829	-157.104	-0.236	-0.014
-372.815	-130.294	-0.114	-0.015
-371.800	-200.000	0.029	-0.314
-370.785	800.000	-0.111	-0.466
-369.771	800.000	0.129	0.540
-368.756	800.000	-0.078	-0.331
-367.742	-165.557	0.060	-0.003
-366.727	-41.283	0.049	0.025
-365.712	-108.316	0.186	-0.040
-364.698	25.586	0.150	0.124
-363.683	726.086	-0.019	-0.050
-362.669	-96.273	-0.478	-0.126
-361.654	-26.407	-0.208	-0.121
-360.639	44.464	-0.413	-0.377
-359.625	-175.283	0.165	-0.005
-358.610	424.951	0.095	0.203
-357.596	-103.037	0.294	-0.069
-356.581	-121.398	0.173	-0.029
-355.566	-88.575	-0.118	0.035
-354.552	-53.216	-0.228	0.104
-353.537	91.485	-0.217	0.243
-352.523	-200.000	0.006	0.045
-351.508	264.312	0.176	-0.304
-350.493	9.155	0.118	0.088
-349.479	-138.271	-0.125	0.014
-348.464	800.000	0.048	0.179
-347.450	230.321	0.094	0.153
-346.435	225.202	0.095	-0.153
-345.420	50.604	0.207	0.195
-344.406	176.378	0.127	-0.183
-343.391	-3.754	-0.095	-0.065
-342.377	-90.653	0.304	-0.087
-341.362	-200.000	0.015	-0.072
-340.348	-112.305	0.212	-0.042
-339.333	-200.000	0.014	0.302
-338.318	735.837	0.061	-0.162
-337.304	568.691	0.053	0.129
-336.289	-200.000	-0.001	0.315
-335.275	-70.515	-0.355	0.134
-334.260	76.479	-0.178	-0.188
-333.245	197.477	-0.070	-0.106
-332.231	-174.553	0.387	-0.011
-331.216	188.390	0.073	0.108
-330.202	9.682	0.106	0.080
-329.187	-172.797	0.190	0.006
-328.172	-200.000	-0.052	0.275
-327.158	800.000	-0.118	0.357
-326.143	-200.000	0.022	-0.265
-325.129	-200.000	0.055	0.322
-324.114	79.454	0.124	0.132
-323.099	-70.287	0.462	0.174
-322.085	13.740	0.138	-0.107
-321.070	6.344	0.310	-0.228
-320.056	159.967	-0.242	-0.335
-319.041	-161.770	-0.286	-0.014
-318.026	-10.289	0.112	-0.073
-317.012	233.710	-0.234	0.382
-315.997	0.798	-0.300	0.213
-314.983	-135.059	0.526	0.063
-313.968	-18.025	0.190	0.118
-312.953	800.000	-0.045	-0.149
-311.939	-132.231	0.550	0.071
-310.924	89.431	-0.197	-0.218
-309.910	-63.951	-0.100	-0.040
-308.895	32.233	0.220	0.189
-307.880	44.246	0.302	0.275
-306.866	-81.826	-0.309	-0.100
-305.851	-139.791	-0.032	0.003
-304.837	-190.499	-0.102	-0.001
-303.822	86.817	0.187	0.205
-302.807	62.074	-0.177	-0.175
-301.793	-128.791	-0.250	0.035
-300.778	-144.560	0.169	0.016
-299.764	800.000	-0.067	0.187
-298.749	-162.737	-0.151	-0.007
-297.735	109.390	-0.159	-0.189
-296.720	-103.212	0.144	0.034
-295.705	-129.627	0.142	-0.019
-294.691	-155.414	0.024	-0.002
-293.676	214.009	0.131	0.206
-292.662	4.975	-0.095	0.070
-291.647	100.251	0.139	0.160
-290.632	-200.000	-0.010	0.298
-289.618	282.322	0.101	0.179
-288.603	-114.068	0.174	-0.033
-287.589	800.000	-0.033	-0.113
-286.574	296.902	-0.197	0.358
-285.559	85.964	0.152	-0.166
-284.545	800.000	0.139	-0.428
-283.530	599.546	0.039	-0.095
-282.516	-200.000	0.032	0.143
-281.501	800.000	0.036	0.142
-280.486	495.307	-0.061	0.138
-279.472	-184.775	0.394	-0.006
-278.457	-16.683	0.344	0.216
-277.443	285.602	0.164	0.293
-276.428	510.158	-0.150	0.345
-275.413	168.763	0.053	-0.075
-274.399	153.650	-0.084	0.114
-273.384	-43.440	0.154	0.077
-272.370	231.281	0.023	-0.038
-271.355	-158.404	-0.219	0.013
-270.340	-149.023	-0.187	0.015
-269.326	-200.000	-0.009	-0.173
-268.311	-72.460	-0.210	0.077
-267.297	800.000	-0.043	0.175
-266.282	212.907	-0.114	0.178
-265.267	68.179	0.169	-0.172
-264.253	-28.230	0.205	-0.117
-263.238	158.053	-0.181	0.248
-262.224	-200.000	0.030	-0.295
-261.209	-133.891	-0.240	0.030
-260.195	-200.000	-0.006	-0.245
-259.180	-121.203	-0.157	-0.026
-258.165	-89.569	-0.466	-0.136
-257.151	402.119	-0.154	0.320
-256.136	721.249	-0.148	0.390
-255.122	198.905	-0.136	-0.207
-254.107	615.258	0.186	-0.463
-253.092	800.000	-0.075	0.208
-252.078	-190.914	-0.334	-0.003
-251.063	-41.715	0.172	0.088
-250.049	216.668	-0.067	0.105
-249.034	60.327	0.114	0.111
-248.019	-163.595	0.391	-0.018
-247.005	70.133	-0.279	-0.285
-245.990	27.146	0.129	0.108
-244.976	-10.479	0.330	-0.217
-243.961	-85.873	-0.206	0.063
-242.946	37.234	0.239	-0.210
-241.932	-200.000	0.018	-0.153
-240.917	-200.000	0.210	-0.001
-239.903	-74.255	0.188	0.067
-238.888	14.353	0.172	0.132
-237.873	13.838	0.153	0.118
-236.859	-4.874	0.254	-0.173
-235.844	-188.949	-0.243	0.003
-234.830	252.738	-0.169	-0.285
-233.815	213.258	-0.130	0.204
-232.800	171.623	0.202	0.287
-231.786	-128.957	-0.259	-0.036
-230.771	-14.519	0.367	0.233
-229.757	-200.000	-0.010	-0.112
-228.742	80.855	-0.196	-0.209
-227.727	-61.732	-0.303	-0.125
-226.713	-84.576	0.119	-0.037
-225.698	279.060	-0.091	0.160
-224.684	307.494	0.044	0.081
-223.669	44.699	0.035	0.032
-222.655	154.998	0.178	0.242
-221.640	46.926	0.148	0.136
-220.625	-29.820	-0.376	-0.212
-219.611	-50.655	-0.127	-0.059
-218.596	-169.661	-0.356	-0.013
-217.582	99.453	-0.049	0.056
-216.567	800.000	0.094	0.343
-215.552	19.851	0.128	0.102
-214.538	-200.000	0.026	-0.145
-213.523	800.000	0.136	0.545
-212.509	50.669	0.265	-0.248
-211.494	18.739	-0.259	-0.205
-210.479	-27.762	0.258	0.148
-209.465	16.332	0.248	-0.194
-208.450	-4.796	0.016	0.011
-207.436	-56.285	-0.092	0.040
-206.421	571.839	0.129	0.310
-205.406	-165.637	0.286	0.012
-204.392	-80.861	0.106	-0.035
-203.377	395.711	0.023	0.048
-202.363	113.683	0.207	-0.248
-201.348	18.895	-0.260	0.206
-200.333	-109.087	0.013	0.003
-199.319	-95.391	-0.082	0.022
-198.304	16.610	-0.113	-0.088
-197.290	-9.763	-0.503	-0.331
-196.275	107.999	0.149	-0.176
-195.260	-52.173	0.200	-0.091
-194.246	145.959	-0.140	0.186
-193.231	146.380	-0.037	-0.049
-192.217	-95.660	-0.268	0.071
-191.202	799.662	-0.081	-0.221
-190.187	-136.392	-0.359	0.041
-189.173	-190.196	0.399	-0.004
-188.158	800.000	0.106	0.367
-187.144	-22.680	-0.379	0.226
-186.129	800.000	-0.104	0.373
-185.114	19.684	0.323	-0.257
-184.100	3.159	-0.213	-0.153
-183.085	-115.456	0.059	-0.011
-182.071	79.739	-0.085	0.090
-181.056	340.646	0.112	-0.216
-180.042	-58.554	0.316	0.135
-179.027	-200.000	0.029	-0.215
-178.012	13.640	0.175	0.134
-176.998	-200.000	-0.007	0.231
-175.983	139.927	-0.072	-0.094
-174.969	-102.493	0.235	-0.055
-173.954	603.538	0.028	0.069
-172.939	0.106	0.099	-0.070
-171.925	-200.000	-0.005	0.061
-170.910	-200.000	-0.015	-0.088
-169.896	54.788	-0.273	0.260
-168.881	-120.029	-0.414	-0.070
-167.866	-110.562	0.367	0.075
-166.852	304.663	-0.094	-0.171
-165.837	646.384	-0.106	0.267
-164.823	131.757	-0.237	0.301
-163.808	-64.072	-0.242	-0.097
-162.793	-153.134	0.198	-0.014
-161.779	-2.868	-0.267	-0.184
-160.764	29.219	0.271	0.227
-159.750	-136.958	-0.196	0.022
-158.735	515.653	-0.062	-0.144
-157.720	208.389	0.182	0.281
-156.706	154.845	-0.111	-0.151
-155.691	-102.554	0.476	0.112
-154.677	-65.570	0.479	0.189
-153.662	-200.000	0.039	-0.246
-152.647	800.000	0.138	-0.452
-151.633	418.133	-0.163	0.344
-150.618	238.843	-0.121	-0.198
-149.604	-200.000	-0.010	-0.227
-148.589	151.238	0.118	0.159
-147.574	-65.236	0.197	0.078
-146.560	-22.530	-0.142	0.085
-145.545	-17.261	0.170	0.105
-144.531	9.987	-0.187	-0.140
-143.516	-200.000	-0.017	-0.467
-142.502	800.000	0.033	0.091
-141.487	96.327	0.154	0.174
-140.472	800.000	0.035	0.111
-139.458	-200.000	-0.011	-0.230
-138.443	142.935	0.211	-0.276
-137.429	722.069	0.058	0.152
-136.414	-30.397	0.110	-0.062
-135.399	800.000	-0.082	-0.267
-134.385	143.099	0.184	0.242
-133.370	36.466	-0.247	0.215
-132.356	800.000	-0.109	0.369
-131.341	353.455	0.044	-0.087
-130.326	680.607	-0.025	-0.064
-129.312	-5.759	-0.166	0.112
-128.297	-57.967	-0.258	0.111
-127.283	-184.206	0.091	-0.001
-126.268	-178.939	0.077	0.002
-125.253	337.075	0.038	-0.073
-124.239	-24.947	0.184	-0.108
-123.224	554.403	0.070	-0.166
-122.210	123.284	0.100	0.123
-121.195	237.968	0.135	-0.221
