DTS Sentinel unit serial number:	SN413079Multiplexer serial number:	ORYXHardware model number:	OX4-SRSoftware version number:	ORYX F/W v4.00 Oryx Data Collector v3.7.2.0data status	okinstallation	princeton_trtdifferential loss correction	single-endedforward channel	channel 1reverse channel	N/Adate	2019/09/13time	19:30:35forward acquisition time	60.00reverse acquisition time	0.00gamma	496.2192k internal	0.2327k external	0.2327temperature offset calibration	1.0095default loss term (dB/km)	0.3790temperature slope calibration	1.0000multiplexer offset coefficient	1.0000multiplexer slope coefficient	1.0000fibre end	0.00T internal ref (°C)	30.72T ext. ref 1 (°C)	3.45T ext. ref 2 (°C)	24.46length (m)	temperature (°C)	Stokes	anti-Stokes-747.200	237.687	0.086	-0.144
-746.185	800.000	-0.067	-0.267
-745.171	-98.432	-0.098	-0.025
-744.156	-107.055	-0.156	0.035
-743.142	800.000	0.053	0.212
-742.127	-17.574	0.325	0.206
-741.112	-15.473	-0.284	-0.183
-740.098	116.978	0.255	0.315
-739.083	-200.000	0.017	0.165
-738.069	-35.648	-0.232	-0.127
-737.054	-25.763	0.224	0.133
-736.039	-200.000	-0.014	-0.128
-735.025	-200.000	0.010	-0.060
-734.010	-12.172	-0.134	0.088
-732.996	-20.461	-0.133	-0.083
-731.981	-25.164	-0.139	-0.083
-730.966	-53.356	-0.192	0.089
-729.952	-79.495	-0.174	-0.059
-728.937	58.431	-0.113	-0.111
-727.923	-40.885	-0.322	0.168
-726.908	256.966	0.096	0.166
-725.894	-200.000	0.017	-0.276
-724.879	800.000	-0.075	-0.283
-723.864	800.000	-0.081	0.276
-722.850	800.000	0.071	-0.204
-721.835	49.593	-0.092	-0.087
-720.821	-0.234	-0.098	0.070
-719.806	-200.000	-0.041	-0.394
-718.791	-86.294	-0.166	0.052
-717.777	800.000	0.094	0.287
-716.762	44.699	-0.201	-0.186
-715.748	-200.000	-0.037	-0.389
-714.733	-200.000	0.012	-0.082
-713.718	78.805	0.024	-0.026
-712.704	-17.818	-0.187	0.118
-711.689	-200.000	0.014	-0.288
-710.675	-160.376	-0.207	0.011
-709.660	-200.000	0.000	-0.062
-708.645	-121.559	0.138	-0.023
-707.631	364.767	-0.040	-0.082
-706.616	-134.973	-0.096	0.012
-705.602	124.662	0.142	0.180
-704.587	652.711	0.097	-0.251
-703.572	4.912	-0.192	-0.142
-702.558	-200.000	-0.000	0.050
-701.543	-39.284	0.247	0.131
-700.529	-200.000	-0.104	0.000
-699.514	-200.000	-0.032	0.381
-698.499	-200.000	-0.021	0.264
-697.485	385.429	-0.140	-0.290
-696.470	552.545	0.045	-0.108
-695.456	338.950	-0.137	-0.268
-694.441	-200.000	0.010	0.511
-693.426	4.800	0.316	-0.233
-692.412	122.745	-0.032	0.040
-691.397	95.942	0.212	-0.243
-690.383	-200.000	-0.033	-0.150
-689.368	800.000	0.052	0.151
-688.354	-121.854	0.205	0.034
-687.339	208.098	-0.068	0.107
-686.324	-35.794	-0.106	-0.058
-685.310	-115.366	0.189	0.036
-684.295	800.000	-0.089	0.378
-683.281	385.740	0.080	-0.167
-682.266	138.427	0.056	-0.074
-681.251	-23.995	-0.209	-0.126
-680.237	75.768	-0.348	0.370
-679.222	-121.995	-0.100	0.017
-678.208	-31.531	0.083	-0.047
-677.193	-33.763	0.161	-0.089
-676.178	-139.055	-0.252	0.027
-675.164	615.057	0.073	-0.184
-674.149	93.018	0.186	0.212
-673.135	576.610	-0.106	-0.260
-672.120	-200.000	0.083	-0.389
-671.105	73.634	-0.155	0.164
-670.091	-200.000	-0.002	0.175
-669.076	64.562	-0.084	0.085
-668.062	800.000	-0.049	0.181
-667.047	-200.000	0.024	0.144
-666.032	41.668	0.075	0.068
-665.018	-200.000	0.049	-0.366
-664.003	-111.294	0.131	0.027
-662.989	482.601	-0.086	0.195
-661.974	-62.479	-0.339	-0.142
-660.959	-200.000	-0.029	-0.128
-659.945	-200.000	0.014	-0.279
-658.930	558.917	-0.063	0.152
-657.916	-57.806	0.157	0.069
-656.901	-28.766	-0.210	0.121
-655.886	312.362	0.118	-0.223
-654.872	-137.674	0.095	-0.011
-653.857	-104.585	0.270	-0.062
-652.843	176.571	-0.151	0.221
-651.828	17.577	-0.060	0.048
-650.814	-89.281	0.091	-0.027
-649.799	259.756	0.109	0.189
-648.784	-200.000	0.010	0.400
-647.770	-78.992	0.259	-0.088
-646.755	-122.020	-0.132	-0.022
-645.741	800.000	0.020	0.057
-644.726	683.286	0.070	-0.182
-643.711	22.834	0.114	-0.094
-642.697	-134.595	-0.259	0.032
-641.682	-48.771	0.168	0.081
-640.668	24.902	0.328	-0.273
-639.653	-200.000	0.067	-0.306
-638.638	-200.000	0.043	-0.299
-637.624	-200.000	0.002	0.393
-636.609	-104.080	-0.259	0.061
-635.595	-91.910	-0.141	0.040
-634.580	276.853	0.026	-0.047
-633.565	-73.571	-0.330	-0.121
-632.551	799.361	-0.177	-0.490
-631.536	128.895	0.141	-0.180
-630.522	-89.486	-0.243	-0.072
-629.507	-13.550	0.145	-0.094
-628.492	-91.398	-0.240	-0.069
-627.478	-60.912	0.210	-0.089
-626.463	350.502	0.230	-0.456
-625.449	800.000	-0.092	-0.341
-624.434	-200.000	-0.019	-0.347
-623.419	800.000	0.103	-0.444
-622.405	-130.335	0.186	0.025
-621.390	-200.000	0.032	-0.234
-620.376	83.006	0.243	-0.265
-619.361	24.275	-0.072	-0.060
-618.346	1.384	0.188	0.136
-617.332	800.000	-0.116	-0.325
-616.317	-4.868	0.153	-0.106
-615.303	438.632	0.081	0.178
-614.288	632.947	-0.037	0.094
-613.273	-64.198	0.168	-0.069
-612.259	563.323	0.108	-0.263
-611.244	-104.492	-0.124	-0.029
-610.230	-76.542	-0.229	-0.081
-609.215	-35.694	0.205	0.111
-608.201	-161.224	0.329	-0.017
-607.186	-138.387	-0.070	0.008
-606.171	800.000	-0.062	-0.190
-605.157	-200.000	-0.020	0.299
-604.142	375.589	0.076	0.156
-603.128	-118.579	0.036	0.006
-602.113	-9.354	0.274	0.183
-601.098	-59.235	0.188	0.081
-600.084	-87.046	0.184	0.056
-599.069	172.458	0.067	0.097
-598.055	-168.393	0.423	0.016
-597.040	-200.000	0.007	0.046
-596.025	0.316	0.188	-0.135
-595.011	573.346	0.116	0.284
-593.996	-200.000	0.039	0.271
-592.982	-59.494	0.133	-0.057
-591.967	-124.478	-0.231	-0.036
-590.952	34.861	-0.137	0.121
-589.938	77.069	0.187	-0.200
-588.923	15.782	0.053	-0.042
-587.909	-62.245	0.114	0.048
-586.894	-131.903	-0.107	-0.014
-585.879	65.872	0.184	-0.187
-584.865	-77.132	-0.264	-0.092
-583.850	-98.517	0.169	-0.043
-582.836	-200.000	-0.035	-0.201
-581.821	-77.189	0.205	-0.072
-580.806	-91.180	-0.159	0.046
-579.792	11.535	-0.095	0.073
-578.777	-197.254	0.499	0.003
-577.763	-75.898	0.156	-0.055
-576.748	-79.306	-0.146	-0.050
-575.733	-97.813	-0.246	0.064
-574.719	-67.324	-0.072	0.028
-573.704	-0.318	-0.106	0.075
-572.690	-200.000	0.044	0.437
-571.675	-200.000	-0.023	0.100
-570.661	-200.000	-0.041	-0.302
-569.646	800.000	-0.018	0.067
-568.631	-71.043	-0.298	0.112
-567.617	37.658	-0.163	-0.144
-566.602	392.409	0.017	0.035
-565.588	-200.000	0.044	-0.289
-564.573	212.892	0.116	-0.184
-563.558	-129.030	0.121	-0.017
-562.544	47.540	0.197	0.184
-561.529	-200.000	0.028	-0.261
-560.515	800.000	-0.042	0.138
-559.500	-71.050	-0.202	0.076
-558.485	-200.000	0.015	-0.073
-557.471	-200.000	-0.056	0.327
-556.456	-124.643	0.158	0.025
-555.442	743.307	-0.084	-0.225
-554.427	800.000	-0.050	-0.173
-553.412	-11.880	0.223	0.146
-552.398	66.768	-0.212	-0.216
-551.383	-76.923	-0.295	-0.103
-550.369	-53.543	-0.053	-0.024
-549.354	-141.750	0.153	0.015
-548.339	26.083	0.097	0.081
-547.325	-42.908	-0.165	-0.084
-546.310	635.695	-0.126	-0.320
-545.296	-200.000	0.010	0.195
-544.281	800.000	-0.044	-0.147
-543.266	-83.660	0.278	-0.089
-542.252	800.000	-0.050	0.193
-541.237	-112.865	-0.389	0.077
-540.223	422.180	-0.070	0.151
-539.208	800.000	-0.019	0.083
-538.193	125.812	-0.181	-0.229
-537.179	-84.041	0.304	-0.096
-536.164	-3.930	0.104	0.072
-535.150	-200.000	0.005	0.070
-534.135	-113.136	-0.262	-0.052
-533.121	14.552	0.275	0.215
-532.106	-96.702	-0.198	0.052
-531.091	320.304	-0.162	-0.308
-530.077	800.000	-0.023	0.079
-529.062	-46.280	-0.091	-0.045
-528.048	-29.939	0.113	0.064
-527.033	-200.000	-0.035	0.418
-526.018	-155.267	0.282	-0.018
-525.004	-46.701	0.125	0.061
-523.989	569.321	0.064	0.155
-522.975	133.266	-0.251	-0.324
-521.960	-43.178	0.407	-0.206
-520.945	-89.323	-0.205	-0.060
-519.931	57.354	0.062	0.061
-518.916	302.337	-0.201	-0.372
-517.902	-169.726	-0.154	0.006
-516.887	-200.000	0.019	-0.299
-515.872	-82.593	-0.195	0.063
-514.858	66.428	-0.235	-0.238
-513.843	-22.765	0.166	-0.100
-512.829	-200.000	-0.021	-0.247
-511.814	-200.000	0.029	0.159
-510.799	-151.045	-0.321	0.024
-509.785	-58.902	-0.055	-0.024
-508.770	210.417	0.073	-0.114
-507.756	-200.000	0.007	0.170
-506.741	29.910	-0.275	0.234
-505.726	800.000	0.063	0.258
-504.712	452.849	0.172	-0.379
-503.697	-200.000	-0.062	-0.320
-502.683	-200.000	0.006	-0.174
-501.668	-7.145	0.298	0.202
-500.653	-52.963	-0.221	-0.101
-499.639	-200.000	-0.003	-0.139
-498.624	-107.286	-0.342	-0.075
-497.610	-200.000	0.015	-0.313
-496.595	-200.000	0.014	0.279
-495.581	799.074	0.049	-0.135
-494.566	-200.000	-0.065	0.382
-493.551	-200.000	-0.017	0.082
-492.537	-3.272	0.091	-0.064
-491.522	418.290	-0.082	-0.175
-490.508	506.326	-0.077	0.178
-489.493	-152.782	-0.349	0.025
-488.478	123.222	0.067	0.084
-487.464	1.705	0.070	0.050
-486.449	72.933	0.184	-0.191
-485.435	-200.000	-0.008	-0.330
-484.420	-200.000	-0.003	0.066
-483.405	-43.086	-0.330	-0.167
-482.391	457.562	0.074	0.164
-481.376	-186.888	-0.157	-0.002
-480.362	-200.000	-0.053	0.444
-479.347	-82.707	0.154	0.050
-478.332	119.805	-0.022	-0.027
-477.318	800.000	-0.021	-0.067
-476.303	86.183	-0.112	0.123
-475.289	99.794	0.352	0.406
-474.274	800.000	-0.019	-0.076
-473.259	-54.508	-0.206	-0.093
-472.245	800.000	0.154	0.484
-471.230	-132.625	-0.183	-0.023
-470.216	-200.000	0.022	0.241
-469.201	-14.235	0.175	0.113
-468.186	32.981	-0.129	0.112
-467.172	116.204	-0.103	-0.125
-466.157	-200.000	-0.003	0.095
-465.143	-200.000	-0.017	-0.302
-464.128	194.682	-0.214	-0.323
-463.113	-200.000	0.050	0.334
-462.099	118.755	-0.242	-0.298
-461.084	56.725	-0.127	0.123
-460.070	-200.000	0.053	-0.543
-459.055	-144.317	-0.227	-0.021
-458.040	-149.383	-0.644	0.051
-457.026	6.664	-0.229	-0.170
-456.011	74.528	-0.164	-0.172
-454.997	-65.351	-0.117	0.047
-453.982	-4.048	-0.188	-0.130
-452.968	97.753	-0.063	0.072
-451.953	546.232	-0.090	-0.214
-450.938	800.000	-0.092	-0.291
-449.924	25.437	0.102	-0.084
-448.909	-53.488	0.365	0.167
-447.895	34.780	0.277	0.241
-446.880	-4.208	0.128	0.088
-445.865	-91.548	-0.381	0.108
-444.851	-67.815	-0.176	0.069
-443.836	-3.210	-0.046	-0.032
-442.822	-122.721	-0.398	-0.064
-441.807	-57.508	-0.317	-0.139
-440.792	484.083	-0.016	-0.035
-439.778	170.310	-0.130	0.185
-438.763	-92.411	-0.103	0.029
-437.749	40.392	-0.204	-0.183
-436.734	-200.000	-0.051	0.225
-435.719	800.000	-0.087	0.373
-434.705	-200.000	0.028	0.261
-433.690	-28.774	-0.234	-0.134
-432.676	-2.914	0.251	-0.175
-431.661	215.515	0.080	0.126
-430.646	-200.000	-0.028	-0.137
-429.632	-200.000	-0.036	0.157
-428.617	74.892	0.178	-0.186
-427.603	315.876	-0.082	0.154
-426.588	800.000	0.053	0.221
-425.573	404.545	-0.099	-0.208
-424.559	174.108	0.133	0.191
-423.544	-112.432	-0.063	-0.013
-422.530	60.649	-0.209	0.206
-421.515	44.872	0.125	-0.115
-420.500	-200.000	-0.004	-0.046
-419.486	-143.029	0.174	0.017
-418.471	20.475	-0.088	0.071
-417.457	79.583	-0.059	-0.063
-416.442	-17.625	-0.170	-0.107
-415.428	168.046	0.248	0.352
-414.413	34.662	0.134	0.116
-413.398	180.423	-0.076	-0.110
-412.384	50.193	-0.207	0.195
-411.369	-2.957	0.211	0.147
-410.355	760.516	0.151	0.406
-409.340	-200.000	-0.069	0.341
-408.325	-116.377	0.210	-0.039
-407.311	426.101	-0.072	-0.155
-406.296	39.179	0.258	-0.230
-405.282	-42.734	0.274	-0.139
-404.267	-89.969	-0.127	-0.037
-403.252	279.578	-0.052	0.093
-402.238	-136.120	-0.336	-0.039
-401.223	-78.765	0.180	0.061
-400.209	-200.000	-0.045	-0.305
-399.194	276.707	-0.070	-0.123
-398.179	-23.733	-0.044	-0.026
-397.165	-200.000	0.026	0.508
-396.150	167.736	0.123	0.173
-395.136	-41.896	0.225	0.114
-394.121	-200.000	0.009	-0.043
-393.106	51.643	0.372	-0.352
-392.092	-177.740	0.239	-0.006
-391.077	-5.229	0.148	-0.101
-390.063	-59.635	-0.259	-0.111
-389.048	33.723	-0.048	-0.042
-388.033	267.789	0.161	-0.280
-387.019	76.757	-0.117	-0.124
-386.004	60.011	-0.140	-0.138
-384.990	289.996	-0.058	-0.105
-383.975	-51.257	0.127	-0.059
-382.960	218.216	0.123	-0.195
-381.946	-200.000	-0.086	0.406
-380.931	-104.942	0.324	-0.074
-379.917	-139.458	0.347	-0.037
-378.902	372.588	-0.093	-0.189
-377.888	800.000	0.041	0.146
-376.873	6.801	-0.069	0.051
-375.858	-39.674	-0.415	-0.216
-374.844	-161.431	0.204	-0.010
-373.829	-18.599	0.158	0.098
-372.815	800.000	0.164	0.523
-371.800	800.000	0.044	0.133
-370.785	-129.117	-0.544	-0.076
-369.771	285.027	-0.090	-0.162
-368.756	800.000	0.017	-0.052
-367.742	195.589	0.066	0.099
-366.727	-179.018	0.169	-0.004
-365.712	-200.000	0.005	-0.237
-364.698	800.000	-0.014	-0.049
-363.683	8.624	-0.227	-0.170
-362.669	245.037	-0.008	-0.013
-361.654	40.506	0.016	0.014
-360.639	411.477	0.068	-0.144
-359.625	72.368	-0.038	0.039
-358.610	-174.514	0.331	-0.009
-357.596	800.000	0.153	-0.452
-356.581	800.000	-0.092	0.323
-355.566	-200.000	-0.089	0.471
-354.552	34.879	0.334	0.290
-353.537	-43.651	-0.237	-0.119
-352.523	800.000	-0.040	0.169
-351.508	-139.621	0.232	0.025
-350.493	-34.338	0.305	-0.166
-349.479	-132.435	-0.221	-0.028
-348.464	707.748	-0.027	0.071
-347.450	20.319	-0.200	0.160
-346.435	265.644	0.152	0.263
-345.420	306.025	-0.162	-0.300
-344.406	1.280	0.292	0.208
-343.391	63.491	-0.168	-0.168
-342.377	56.987	-0.116	0.112
-341.362	-152.407	-0.084	0.006
-340.348	33.463	0.144	0.124
-339.333	-112.485	0.195	-0.039
-338.318	-57.199	-0.189	-0.082
-337.304	-74.037	0.084	0.030
-336.289	98.609	-0.156	0.179
-335.275	-200.000	0.027	0.163
-334.260	208.738	0.055	0.085
-333.245	422.185	-0.049	-0.105
-332.231	-55.539	-0.153	-0.068
-331.216	-41.404	0.226	-0.115
-330.202	58.125	-0.109	-0.106
-329.187	-97.876	0.114	-0.029
-328.172	-200.000	0.028	-0.139
-327.158	-65.329	-0.184	-0.073
-326.143	-89.714	0.191	0.056
-325.129	-7.188	-0.161	-0.108
-324.114	287.856	-0.159	0.284
-323.099	-200.000	-0.063	0.445
-322.085	22.985	-0.120	0.097
-321.070	-102.455	-0.438	-0.104
-320.056	119.795	0.228	-0.280
-319.041	66.060	-0.105	-0.105
-318.026	321.507	0.089	-0.168
-317.012	-200.000	-0.056	-0.304
-315.997	-143.826	-0.169	-0.016
-314.983	187.586	0.109	0.161
-313.968	-200.000	-0.055	-0.329
-312.953	382.600	0.017	-0.036
-311.939	11.241	0.146	-0.111
-310.924	-28.472	0.051	-0.029
-309.910	329.373	0.054	0.103
-308.895	629.373	0.197	0.493
-307.880	-98.455	-0.386	0.098
-306.866	-200.000	0.014	-0.109
-305.851	-92.379	0.080	0.022
-304.837	189.660	0.083	-0.123
-303.822	-200.000	-0.196	-0.000
-302.807	-200.000	0.011	-0.147
-301.793	40.935	-0.102	0.091
-300.778	752.473	0.054	0.145
-299.764	-110.870	0.269	0.055
-298.749	-87.575	-0.434	0.130
-297.735	-103.674	-0.181	0.042
-296.720	-149.491	0.175	0.014
-295.705	-95.709	-0.184	-0.049
-294.691	-192.675	0.320	-0.003
-293.676	-71.559	0.131	0.049
-292.662	294.765	0.129	0.234
-291.647	35.683	0.197	0.172
-290.632	-200.000	0.010	0.158
-289.618	78.886	-0.326	0.346
-288.603	276.758	0.054	-0.094
-287.589	-78.963	-0.213	0.072
-286.574	-114.933	0.109	-0.021
-285.559	117.234	0.078	-0.095
-284.545	306.279	0.106	-0.196
-283.530	-117.211	-0.162	0.029
-282.516	-200.000	-0.017	0.330
-281.501	620.554	0.048	-0.119
-280.486	-155.807	0.434	-0.027
-279.472	201.577	0.172	-0.263
-278.457	-126.549	0.041	-0.006
-277.443	23.639	0.353	0.287
-276.428	-68.913	0.292	-0.111
-275.413	-200.000	-0.058	0.328
-274.399	204.693	-0.174	0.267
-273.384	-200.000	0.053	0.415
-272.370	-200.000	-0.001	-0.063
-271.355	-115.156	-0.530	0.099
-270.340	-200.000	-0.063	-0.278
-269.326	800.000	0.053	-0.169
-268.311	-1.641	0.359	0.250
-267.297	14.078	-0.249	0.192
-266.282	-97.260	-0.183	0.047
-265.267	83.510	0.106	0.114
-264.253	-164.623	-0.135	-0.006
-263.238	-58.824	0.192	-0.082
-262.224	-55.433	-0.264	0.117
-261.209	291.677	-0.051	-0.092
-260.195	-14.797	-0.392	-0.249
-259.180	13.186	0.198	-0.152
-258.165	278.439	0.106	-0.187
-257.151	-200.000	0.044	0.251
-256.136	-17.364	-0.149	-0.093
-255.122	-145.689	0.053	0.005
-254.107	10.701	-0.179	0.135
-253.092	20.628	0.157	-0.125
-252.078	-31.455	0.058	-0.032
-251.063	-200.000	-0.005	0.063
-250.049	-38.797	-0.188	0.098
-249.034	-34.810	-0.120	0.065
-248.019	-135.627	0.287	-0.034
-247.005	377.652	-0.109	0.220
-245.990	800.000	0.073	0.311
-244.976	194.403	0.238	-0.357
-243.961	-200.000	0.016	-0.368
-242.946	-151.419	-0.084	0.006
-241.932	264.469	-0.233	-0.400
-240.917	-158.691	-0.274	0.016
-239.903	-69.639	-0.188	0.071
-238.888	58.665	0.276	-0.268
-237.873	-134.771	-0.324	-0.039
-236.859	-200.000	0.015	-0.116
-235.844	26.538	0.297	-0.245
-234.830	-58.065	-0.259	-0.112
-233.815	800.000	-0.038	0.118
-232.800	-200.000	0.006	0.241
-231.786	-200.000	0.011	-0.057
-230.771	-103.152	-0.079	0.019
-229.757	-186.262	-0.055	0.001
-228.742	-50.426	-0.164	0.076
-227.727	-88.791	-0.190	0.056
-226.713	33.808	0.108	-0.093
-225.698	-28.259	0.126	0.072
-224.684	-125.413	0.130	-0.020
-223.669	-200.000	0.007	0.275
-222.655	119.616	-0.042	-0.051
-221.640	-200.000	-0.039	0.215
-220.625	-100.439	0.237	0.058
-219.611	-200.000	-0.009	0.247
-218.596	146.490	0.124	-0.164
-217.582	41.157	0.161	-0.144
-216.567	338.757	-0.022	0.043
-215.552	81.760	-0.252	0.269
-214.538	-52.615	0.270	-0.123
-213.523	800.000	0.019	0.080
-212.509	-79.852	-0.271	-0.090
-211.494	-100.958	0.127	-0.031
-210.479	-180.596	0.151	0.003
-209.465	536.303	0.138	-0.324
-208.450	-21.027	0.146	-0.088
-207.436	-200.000	-0.025	0.279
-206.421	220.409	0.126	0.200
-205.406	-103.902	-0.072	0.017
-204.392	-20.804	0.187	-0.113
-203.377	-32.008	0.189	0.104
-202.363	-200.000	0.028	0.256
-201.348	320.124	0.200	0.374
-200.333	88.050	-0.150	0.164
-199.319	-130.175	0.506	-0.068
-198.304	133.749	-0.127	-0.162
-197.290	-200.000	-0.049	-0.237
-196.275	73.311	0.196	0.203
-195.260	-86.218	0.116	0.035
-194.246	210.505	0.139	0.215
-193.231	-118.002	-0.185	0.033
-192.217	156.938	-0.051	0.070
-191.202	-26.273	0.025	-0.015
-190.187	800.000	-0.056	0.197
-189.173	-200.000	-0.036	0.223
-188.158	800.000	0.088	0.339
-187.144	5.161	-0.117	-0.085
-186.129	-62.015	0.072	-0.030
-185.114	-200.000	-0.070	0.000
-184.100	171.060	0.134	0.190
-183.085	127.341	-0.228	-0.285
-182.071	19.600	-0.091	0.072
-181.056	55.956	0.230	0.221
-180.042	-200.000	-0.028	0.161
-179.027	91.768	0.107	0.119
-178.012	-200.000	0.020	0.095
-176.998	-106.402	-0.299	-0.066
-175.983	44.119	0.069	0.062
-174.969	184.438	-0.116	0.169
-173.954	-200.000	0.003	0.152
-172.939	171.917	-0.065	0.091
-171.925	-200.000	-0.040	-0.215
-170.910	754.964	-0.012	-0.033
-169.896	73.906	-0.103	0.107
-168.881	-31.053	0.218	0.121
-167.866	57.219	0.304	-0.293
-166.852	733.196	-0.078	-0.207
-165.837	468.877	-0.049	0.109
-164.823	-37.411	0.206	-0.109
-163.808	-91.528	0.127	-0.036
-162.793	237.505	0.289	0.473
-161.779	-86.700	-0.248	-0.075
-160.764	528.890	0.046	0.106
-159.750	-200.000	0.020	-0.160
-158.735	56.890	0.133	-0.128
-157.720	48.819	-0.146	0.135
-156.706	-116.654	0.294	-0.053
-155.691	800.000	-0.035	-0.132
-154.677	800.000	-0.028	-0.080
-153.662	271.315	-0.159	-0.276
-152.647	-84.770	-0.140	0.043
-151.633	-77.671	0.035	-0.012
-150.618	-79.464	0.075	0.025
-149.604	-120.805	0.257	-0.043
-148.589	-200.000	0.017	-0.165
-147.574	372.328	0.187	-0.374
-146.560	-38.684	-0.067	-0.035
-145.545	49.203	0.083	-0.077
-144.531	66.939	0.188	0.189
-143.516	800.000	-0.037	-0.112
-142.502	527.173	0.028	0.066
-141.487	800.000	-0.134	0.398
-140.472	-200.000	0.006	-0.224
-139.458	-56.262	0.193	0.084
-138.443	-200.000	-0.006	-0.116
-137.429	360.764	0.064	0.127
-136.414	189.819	0.228	0.337
-135.399	-20.859	-0.355	-0.214
-134.385	-113.901	-0.141	0.027
-133.370	1.114	0.307	0.217
-132.356	-131.444	-0.198	0.026
-131.341	-155.557	-0.182	0.012
-130.326	-84.271	-0.250	0.078
-129.312	62.280	-0.232	-0.228
-128.297	-49.268	0.144	-0.068
-127.283	-137.865	-0.408	0.045
-126.268	-200.000	-0.039	-0.193
-125.253	-29.672	-0.270	-0.152
-124.239	-200.000	-0.044	0.271
-123.224	277.009	-0.197	0.344
-122.210	603.420	0.150	0.368
