DTS Sentinel unit serial number:	SN413079Multiplexer serial number:	ORYXHardware model number:	OX4-SRSoftware version number:	ORYX F/W v4.00 Oryx Data Collector v3.7.2.0data status	okinstallation	princeton_trtdifferential loss correction	single-endedforward channel	channel 1reverse channel	N/Adate	2019/09/12time	14:16:11forward acquisition time	60.00reverse acquisition time	0.00gamma	496.2192k internal	0.2294k external	0.2294temperature offset calibration	1.0058default loss term (dB/km)	0.3790temperature slope calibration	1.0000multiplexer offset coefficient	1.0000multiplexer slope coefficient	1.0000fibre end	0.00T internal ref (°C)	40.25T ext. ref 1 (°C)	2.24T ext. ref 2 (°C)	35.20length (m)	temperature (°C)	Stokes	anti-Stokes-747.200	-120.699	-0.081	0.014
-746.185	800.000	0.151	0.622
-745.171	213.033	-0.104	0.168
-744.156	275.528	0.109	0.198
-743.142	-21.822	0.296	-0.184
-742.127	-200.000	0.062	0.296
-741.112	-200.000	0.039	0.286
-740.098	387.796	-0.092	0.195
-739.083	-200.000	0.008	0.129
-738.069	-200.000	0.014	0.356
-737.054	-0.784	0.093	0.067
-736.039	32.795	-0.287	0.254
-735.025	800.000	0.063	-0.190
-734.010	244.089	-0.124	-0.213
-732.996	-200.000	-0.024	-0.423
-731.981	-118.652	-0.287	-0.052
-730.966	-200.000	-0.025	-0.353
-729.952	-57.195	-0.104	-0.047
-728.937	-51.963	0.136	-0.065
-727.923	-200.000	-0.038	0.341
-726.908	115.081	-0.247	0.308
-725.894	371.029	0.079	-0.163
-724.879	-200.000	-0.030	0.407
-723.864	636.568	-0.087	0.227
-722.850	200.615	-0.095	-0.150
-721.835	142.085	-0.268	-0.363
-720.821	-200.000	-0.002	-0.114
-719.806	-51.055	0.314	-0.150
-718.791	-200.000	-0.044	0.220
-717.777	800.000	0.085	0.247
-716.762	800.000	0.082	-0.288
-715.748	-200.000	-0.073	-0.415
-714.733	-140.326	0.107	0.011
-713.718	57.216	0.037	-0.037
-712.704	166.027	-0.335	0.484
-711.689	-19.941	-0.250	0.158
-710.675	-200.000	0.028	0.200
-709.660	800.000	0.035	-0.135
-708.645	-200.000	0.059	0.324
-707.631	10.200	-0.136	-0.105
-706.616	-32.724	0.223	-0.127
-705.602	90.752	-0.045	0.052
-704.587	-81.125	-0.179	-0.060
-703.572	-101.867	0.201	-0.050
-702.558	-40.628	-0.066	-0.035
-701.543	-82.570	-0.276	0.091
-700.529	-7.953	0.114	-0.079
-699.514	71.583	0.251	-0.266
-698.499	242.749	-0.195	-0.333
-697.485	-51.073	0.021	0.010
-696.470	-178.370	-0.151	-0.004
-695.456	-136.360	0.098	0.012
-694.441	-200.000	-0.003	0.018
-693.426	-133.242	-0.173	-0.022
-692.412	275.873	0.167	-0.303
-691.397	12.264	-0.018	-0.014
-690.383	-84.812	-0.203	-0.065
-689.368	165.389	-0.031	-0.045
-688.354	-119.661	-0.108	-0.019
-687.339	32.737	-0.202	-0.178
-686.324	6.097	-0.221	0.167
-685.310	98.542	-0.281	-0.331
-684.295	111.027	-0.041	0.051
-683.281	-97.726	-0.222	0.059
-682.266	-200.000	-0.035	0.163
-681.251	800.000	0.084	-0.241
-680.237	6.331	0.140	-0.106
-679.222	-112.397	0.154	0.031
-678.208	800.000	-0.060	0.183
-677.193	-200.000	-0.051	-0.265
-676.178	100.733	0.150	0.178
-675.164	-74.416	-0.208	0.076
-674.149	-72.127	-0.188	0.071
-673.135	-15.383	0.114	0.075
-672.120	-42.028	0.066	0.034
-671.105	660.408	0.082	-0.216
-670.091	-200.000	0.048	-0.241
-669.076	-200.000	0.006	0.051
-668.062	445.809	-0.101	0.226
-667.047	-119.953	-0.293	0.051
-666.032	177.717	-0.190	0.282
-665.018	36.264	-0.189	-0.170
-664.003	4.436	0.265	-0.198
-662.989	173.096	0.042	-0.061
-661.974	-92.942	0.210	0.060
-660.959	-73.168	0.209	-0.078
-659.945	-200.000	-0.008	-0.191
-658.930	162.059	-0.049	0.069
-657.916	-17.844	0.208	-0.133
-656.901	-25.006	0.193	-0.117
-655.886	-150.620	-0.160	0.012
-654.872	-131.728	-0.332	-0.044
-653.857	443.875	-0.056	-0.126
-652.843	-200.000	0.018	-0.194
-651.828	97.969	0.126	-0.148
-650.814	-200.000	0.052	0.234
-649.799	-51.833	0.343	0.163
-648.784	46.158	0.042	-0.039
-647.770	-130.921	-0.542	0.074
-646.755	-11.024	-0.163	0.110
-645.741	37.500	0.083	-0.075
-644.726	-170.029	-0.130	-0.005
-643.711	-200.000	0.037	-0.210
-642.697	-108.077	-0.104	0.023
-641.682	-5.803	-0.224	0.156
-640.668	223.488	0.058	-0.096
-639.653	231.711	-0.076	0.128
-638.638	-200.000	0.034	0.214
-637.624	-131.168	0.363	0.049
-636.609	51.015	0.241	-0.233
-635.595	-200.000	-0.018	0.094
-634.580	-23.292	-0.103	-0.063
-633.565	34.843	-0.212	-0.189
-632.551	-1.132	-0.251	0.181
-631.536	165.099	-0.170	0.245
-630.522	-50.824	-0.127	-0.061
-629.507	800.000	0.119	-0.434
-628.492	-36.732	-0.378	-0.207
-627.478	-132.686	0.035	0.005
-626.463	-99.260	0.211	-0.054
-625.449	-200.000	-0.032	0.194
-624.434	-181.683	-0.119	-0.002
-623.419	-200.000	0.029	-0.221
-622.405	167.463	-0.066	0.096
-621.390	76.402	-0.079	0.085
-620.376	93.562	-0.196	0.225
-619.361	-200.000	-0.020	0.252
-618.346	-200.000	-0.009	0.213
-617.332	682.777	0.069	-0.182
-616.317	-132.810	0.363	-0.047
-615.303	-98.795	0.283	0.073
-614.288	129.259	0.054	0.070
-613.273	-200.000	-0.015	-0.218
-612.259	10.383	0.076	-0.059
-611.244	-104.165	-0.452	-0.107
-610.230	15.579	-0.168	0.135
-609.215	-38.420	-0.055	-0.030
-608.201	-200.000	0.042	0.234
-607.186	-104.798	-0.291	0.068
-606.171	800.000	0.053	0.171
-605.157	-200.000	0.042	-0.196
-604.142	-116.141	-0.270	-0.051
-603.128	-153.443	-0.148	-0.010
-602.113	-98.141	0.284	0.074
-601.098	-97.949	0.057	-0.015
-600.084	-96.902	0.149	-0.040
-599.069	-86.060	0.172	0.054
-598.055	-200.000	-0.009	0.206
-597.040	-72.504	-0.220	-0.083
-596.025	257.742	0.128	-0.224
-595.011	50.884	0.165	-0.159
-593.996	-200.000	0.024	-0.297
-592.982	-200.000	-0.004	0.073
-591.967	800.000	-0.027	0.092
-590.952	37.585	0.148	-0.134
-589.938	-72.434	0.493	-0.186
-588.923	-16.883	-0.181	-0.116
-587.909	-39.399	0.177	0.095
-586.894	-96.797	0.067	-0.018
-585.879	-115.611	-0.140	0.027
-584.865	64.353	-0.229	0.235
-583.850	800.000	-0.203	0.572
-582.836	-68.668	-0.188	-0.074
-581.821	357.788	0.130	-0.264
-580.806	194.458	0.111	-0.170
-579.792	243.382	-0.117	-0.199
-578.777	-147.931	0.162	-0.014
-577.763	361.338	-0.034	0.069
-576.748	800.000	-0.031	0.119
-575.733	426.716	0.044	0.096
-574.719	-200.000	0.004	-0.103
-573.704	-60.632	-0.206	-0.089
-572.690	-154.528	0.178	-0.012
-571.675	144.058	-0.087	-0.118
-570.661	99.125	0.057	0.067
-569.646	142.170	0.148	0.200
-568.631	96.366	0.208	0.242
-567.617	-200.000	0.031	0.159
-566.602	94.566	-0.200	-0.231
-565.588	-48.549	-0.168	0.082
-564.573	334.399	-0.086	0.169
-563.558	-163.912	-0.155	0.007
-562.544	800.000	0.026	-0.100
-561.529	800.000	0.083	0.359
-560.515	41.275	-0.080	-0.073
-559.500	-126.652	-0.311	-0.047
-558.485	320.903	0.046	0.090
-557.471	-38.934	-0.182	-0.097
-556.456	-200.000	-0.017	0.156
-555.442	128.617	0.089	0.115
-554.427	-200.000	0.000	-0.024
-553.412	-105.751	0.180	0.041
-552.398	-11.569	-0.278	-0.186
-551.383	800.000	-0.016	-0.046
-550.369	-200.000	0.025	-0.249
-549.354	800.000	0.086	-0.315
-548.339	-200.000	0.014	-0.279
-547.325	800.000	-0.053	-0.193
-546.310	800.000	0.055	-0.178
-545.296	800.000	-0.050	0.159
-544.281	-116.234	0.057	-0.011
-543.266	-200.000	0.061	-0.484
-542.252	-179.324	-0.084	0.002
-541.237	-200.000	-0.002	-0.188
-540.223	-46.246	-0.053	-0.027
-539.208	-200.000	-0.027	0.136
-538.193	-200.000	-0.015	-0.147
-537.179	800.000	0.092	0.352
-536.164	74.442	-0.181	0.193
-535.150	-57.530	-0.149	-0.066
-534.135	-94.324	0.187	0.052
-533.121	800.000	-0.030	0.102
-532.106	-164.068	-0.201	0.009
-531.091	39.913	-0.110	-0.100
-530.077	146.593	0.152	0.207
-529.062	-143.108	0.086	-0.008
-528.048	800.000	-0.183	-0.534
-527.033	407.767	-0.184	-0.395
-526.018	469.022	-0.077	0.175
-525.004	193.463	0.161	0.247
-523.989	198.013	-0.122	0.190
-522.975	33.240	0.269	-0.236
-521.960	800.000	0.082	-0.331
-520.945	800.000	-0.024	-0.084
-519.931	52.506	-0.071	0.069
-518.916	213.370	-0.179	-0.287
-517.902	-84.088	0.070	-0.022
-516.887	-49.275	-0.444	0.215
-515.872	-1.663	-0.312	-0.223
-514.858	-200.000	-0.045	0.226
-513.843	-200.000	0.014	0.321
-512.829	157.165	-0.266	-0.373
-511.814	220.558	0.111	-0.181
-510.799	60.888	-0.146	-0.146
-509.785	-116.673	-0.104	-0.019
-508.770	-146.917	-0.393	-0.034
-507.756	-90.455	0.213	0.063
-506.741	-181.229	0.172	0.003
-505.726	-134.919	-0.199	-0.024
-504.712	168.443	0.088	-0.127
-503.697	-134.549	0.305	-0.038
-502.683	14.219	-0.098	0.078
-501.668	57.705	0.138	-0.137
-500.653	173.496	0.195	0.285
-499.639	90.918	-0.126	-0.143
-498.624	-200.000	-0.019	-0.193
-497.610	-111.831	0.157	-0.032
-496.595	-41.621	0.210	-0.109
-495.581	-156.112	-0.133	-0.009
-494.566	183.300	0.165	0.247
-493.551	495.527	0.046	0.107
-492.537	800.000	-0.019	0.053
-491.522	-163.330	-0.357	-0.017
-490.508	800.000	-0.094	0.265
-489.493	-200.000	0.010	-0.121
-488.478	-126.725	0.285	-0.043
-487.464	-200.000	-0.026	-0.247
-486.449	83.447	0.099	-0.110
-485.435	116.373	0.125	-0.156
-484.420	-81.662	-0.218	-0.073
-483.405	-200.000	-0.028	0.183
-482.391	-89.100	0.113	-0.034
-481.376	-44.542	-0.113	0.057
-480.362	-177.129	0.245	-0.006
-479.347	92.710	-0.063	0.072
-478.332	-99.970	-0.164	0.041
-477.318	187.173	-0.025	-0.038
-476.303	49.132	0.131	0.125
-475.289	73.827	0.341	-0.362
-474.274	511.028	0.142	-0.334
-473.259	-200.000	0.030	0.163
-472.245	-200.000	0.026	0.140
-471.230	-200.000	0.034	-0.258
-470.216	-136.490	0.216	-0.025
-469.201	-81.920	0.055	0.018
-468.186	-196.679	0.104	-0.001
-467.172	-200.000	0.017	0.143
-466.157	266.628	-0.101	-0.178
-465.143	316.586	0.043	0.083
-464.128	111.777	0.156	0.190
-463.113	24.660	0.382	0.320
-462.099	34.283	0.092	0.082
-461.084	27.216	0.065	-0.055
-460.070	-177.988	-0.390	0.009
-459.055	800.000	0.080	0.308
-458.040	36.386	-0.207	-0.185
-457.026	147.862	0.119	0.163
-456.011	215.168	-0.079	0.126
-454.997	135.593	-0.100	-0.131
-453.982	51.848	-0.098	-0.094
-452.968	151.650	-0.227	0.313
-451.953	-44.553	-0.242	-0.122
-450.938	99.926	-0.241	0.283
-449.924	135.487	-0.010	-0.014
-448.909	69.144	-0.100	0.104
-447.895	-200.000	0.034	-0.191
-446.880	-33.652	0.292	0.163
-445.865	111.402	-0.077	0.093
-444.851	-200.000	-0.019	-0.184
-443.836	-126.922	-0.045	-0.007
-442.822	73.608	-0.162	-0.171
-441.807	-56.647	0.331	-0.148
-440.792	145.275	-0.112	-0.152
-439.778	-161.899	-0.178	0.009
-438.763	-7.962	0.074	0.051
-437.749	-179.491	0.240	-0.005
-436.734	113.010	0.094	-0.115
-435.719	601.955	0.051	-0.127
-434.705	570.226	0.149	0.367
-433.690	-200.000	0.000	0.030
-432.676	-141.011	-0.185	0.019
-431.661	99.644	0.149	-0.174
-430.646	-44.641	0.106	0.053
-429.632	-50.563	-0.279	-0.133
-428.617	-200.000	0.039	-0.335
-427.603	191.059	-0.128	0.194
-426.588	72.805	-0.180	-0.190
-425.573	-28.513	0.271	-0.158
-424.559	-137.693	0.257	-0.029
-423.544	799.319	0.078	-0.217
-422.530	-200.000	0.034	-0.232
-421.515	450.389	0.020	0.045
-420.500	102.656	-0.138	-0.163
-419.486	-159.788	0.343	0.019
-418.471	-109.568	0.198	0.042
-417.457	800.000	0.116	-0.438
-416.442	470.460	0.100	0.227
-415.428	-36.607	-0.136	-0.074
-414.413	-120.996	-0.062	0.011
-413.398	-200.000	-0.004	0.041
-412.384	237.132	0.075	-0.126
-411.369	-56.487	-0.228	0.102
-410.355	-200.000	-0.013	-0.371
-409.340	-200.000	-0.005	-0.024
-408.325	-157.579	0.149	0.009
-407.311	505.690	0.137	0.320
-406.296	-200.000	-0.012	0.104
-405.282	-103.196	0.191	-0.046
-404.267	771.012	-0.039	-0.106
-403.252	-90.820	-0.285	0.083
-402.238	385.941	-0.097	-0.202
-401.223	-136.631	-0.136	-0.016
-400.209	800.000	-0.023	-0.086
-399.194	800.000	-0.106	-0.307
-398.179	-200.000	-0.014	-0.101
-397.165	-129.657	-0.090	-0.013
-396.150	133.407	-0.225	-0.293
-395.136	-46.529	-0.116	0.057
-394.121	24.991	-0.203	-0.170
-393.106	-142.620	-0.251	-0.025
-392.092	-200.000	-0.056	-0.276
-391.077	-25.209	0.375	0.224
-390.063	481.472	0.042	0.096
-389.048	-32.737	0.111	-0.062
-388.033	87.661	-0.271	0.303
-387.019	86.773	-0.134	-0.149
-386.004	-3.453	0.082	-0.057
-384.990	-200.000	0.092	0.420
-383.975	-124.036	0.047	0.007
-382.960	800.000	-0.061	0.192
-381.946	-200.000	0.007	-0.063
-380.931	800.000	-0.126	0.431
-379.917	10.490	-0.187	0.144
-378.902	800.000	0.061	0.208
-377.888	275.399	-0.143	0.256
-376.873	-24.730	0.275	-0.165
-375.858	108.452	0.117	0.141
-374.844	800.000	-0.086	-0.259
-373.829	-26.469	-0.219	-0.130
-372.815	25.917	0.118	0.100
-371.800	355.335	-0.192	-0.385
-370.785	215.699	-0.110	0.177
-369.771	598.842	-0.120	0.301
-368.756	-200.000	0.071	0.385
-367.742	199.296	0.031	0.048
-366.727	371.097	0.125	0.256
-365.712	-36.598	-0.174	-0.094
-364.698	-63.395	-0.081	-0.034
-363.683	245.846	0.143	0.242
-362.669	255.029	0.107	0.185
-361.654	800.000	-0.074	0.207
-360.639	33.537	-0.086	0.075
-359.625	17.604	-0.218	0.175
-358.610	-68.211	-0.259	-0.101
-357.596	-200.000	0.004	-0.089
-356.581	-60.280	-0.276	0.118
-355.566	400.522	0.064	-0.135
-354.552	449.476	0.074	0.165
-353.537	-200.000	-0.063	-0.291
-352.523	-161.924	0.229	-0.012
-351.508	-39.066	-0.342	0.181
-350.493	-200.000	-0.012	-0.149
-349.479	-8.646	0.320	0.216
-348.464	144.301	-0.050	0.067
-347.450	55.374	-0.187	0.183
-346.435	-200.000	-0.025	0.444
-345.420	-200.000	-0.028	0.249
-344.406	57.853	-0.159	-0.157
-343.391	-200.000	-0.312	-0.001
-342.377	-114.419	0.228	-0.044
-341.362	800.000	-0.084	-0.354
-340.348	127.386	-0.157	-0.201
-339.333	-137.550	-0.192	0.022
-338.318	800.000	0.081	-0.243
-337.304	138.919	-0.191	0.253
-336.289	215.719	-0.132	0.211
-335.275	290.721	0.154	0.282
-334.260	800.000	-0.028	-0.105
-333.245	259.245	-0.041	0.071
-332.231	800.000	-0.048	-0.190
-331.216	-141.209	0.297	-0.030
-330.202	-200.000	-0.063	0.374
-329.187	-83.907	0.294	-0.094
-328.172	16.096	-0.044	-0.035
-327.158	790.797	0.061	0.168
-326.143	107.268	-0.043	0.051
-325.129	-111.513	0.206	-0.042
-324.114	235.621	0.087	0.145
-323.099	-134.951	0.141	-0.017
-322.085	350.641	-0.110	0.219
-321.070	-200.000	0.013	0.137
-320.056	275.868	-0.082	0.147
-319.041	-147.026	-0.159	-0.014
-318.026	-2.676	-0.400	-0.281
-317.012	-200.000	0.062	-0.377
-315.997	-164.202	0.142	0.007
-314.983	-200.000	-0.033	0.259
-313.968	-152.090	0.149	0.011
-312.953	-24.759	0.394	-0.236
-311.939	-78.244	0.084	-0.029
-310.924	183.345	0.142	-0.211
-309.910	-46.153	0.090	0.044
-308.895	-112.461	-0.315	-0.063
-307.880	-200.000	0.043	-0.201
-306.866	-143.860	0.108	-0.010
-305.851	800.000	0.004	-0.015
-304.837	-200.000	0.050	0.263
-303.822	173.293	0.285	0.414
-302.807	204.389	0.153	-0.238
-301.793	78.687	0.105	-0.113
-300.778	-65.523	0.273	0.110
-299.764	-100.871	0.148	0.037
-298.749	84.996	-0.262	0.289
-297.735	-11.752	0.165	-0.109
-296.720	441.015	0.054	-0.118
-295.705	-17.678	-0.335	0.211
-294.691	123.137	0.133	-0.167
-293.676	-200.000	0.057	-0.482
-292.662	-63.484	-0.109	0.045
-291.647	92.593	0.189	0.214
-290.632	-26.091	0.332	0.196
-289.618	-188.895	0.399	-0.005
-288.603	-20.391	0.087	0.054
-287.589	-200.000	-0.044	0.198
-286.574	-200.000	0.074	0.342
-285.559	248.256	0.112	0.191
-284.545	800.000	-0.055	-0.223
-283.530	-111.705	0.241	-0.049
-282.516	2.788	0.265	0.193
-281.501	-125.885	-0.418	-0.063
-280.486	800.000	-0.046	-0.161
-279.472	216.982	0.076	-0.121
-278.457	-57.313	-0.203	0.090
-277.443	-0.287	0.354	-0.253
-276.428	-200.000	0.012	-0.155
-275.413	-149.812	0.143	-0.011
-274.399	-13.107	0.324	0.212
-273.384	-75.941	0.211	-0.075
-272.370	800.000	-0.008	0.034
-271.355	-13.900	0.100	0.065
-270.340	73.343	-0.237	0.249
-269.326	85.298	-0.052	0.058
-268.311	-200.000	0.001	0.243
-267.297	251.530	0.080	-0.137
-266.282	355.432	0.112	0.224
-265.267	-200.000	-0.010	-0.164
-264.253	303.352	-0.069	0.129
-263.238	-200.000	0.026	-0.216
-262.224	121.502	0.083	0.104
-261.209	-86.173	0.103	-0.032
-260.195	-102.743	0.561	0.134
-259.180	-117.490	0.186	-0.034
-258.165	60.770	-0.186	0.186
-257.151	-170.393	0.069	0.002
-256.136	41.572	0.270	0.245
-255.122	800.000	-0.052	0.151
-254.107	-67.190	-0.150	0.059
-253.092	-158.932	-0.274	0.016
-252.078	-10.118	0.303	0.202
-251.063	-153.930	0.127	0.009
-250.049	99.248	-0.108	0.125
-249.034	800.000	-0.073	-0.212
-248.019	-200.000	0.077	-0.496
-247.005	-96.630	-0.116	0.031
-245.990	220.409	0.213	-0.342
-244.976	442.419	0.075	0.165
-243.961	-200.000	-0.033	-0.177
-242.946	-200.000	0.000	0.028
-241.932	800.000	-0.011	-0.047
-240.917	-66.942	-0.109	-0.043
-239.903	48.789	-0.272	0.256
-238.888	71.661	0.249	-0.259
-237.873	-76.751	0.181	0.064
-236.859	228.742	-0.128	0.208
-235.844	-200.000	0.042	0.239
-234.830	48.044	-0.279	-0.261
-233.815	217.286	0.110	-0.176
-232.800	-6.505	0.114	-0.078
-231.786	-200.000	-0.040	0.436
-230.771	-98.547	-0.239	-0.061
-229.757	800.000	-0.097	-0.302
-228.742	310.151	-0.128	0.240
-227.727	-200.000	-0.027	-0.125
-226.713	800.000	-0.125	0.442
-225.698	680.940	-0.125	-0.326
-224.684	-2.186	0.078	-0.055
-223.669	-200.000	0.084	-0.369
-222.655	171.449	0.091	0.132
-221.640	-194.467	-0.218	0.002
-220.625	-0.388	0.385	0.274
-219.611	-113.353	-0.309	-0.061
-218.596	94.380	0.261	0.297
-217.582	-59.919	0.388	-0.166
-216.567	-200.000	0.058	-0.283
-215.552	-173.641	0.338	-0.010
-214.538	-47.879	0.239	-0.116
-213.523	391.723	-0.158	-0.328
-212.509	645.575	0.146	-0.373
-211.494	-110.831	-0.175	0.036
-210.479	105.109	-0.131	0.155
-209.465	25.390	-0.381	0.317
-208.450	800.000	0.044	-0.125
-207.436	-110.229	0.059	-0.012
-206.421	-48.557	-0.256	-0.123
-205.406	551.558	0.107	-0.257
-204.392	-27.095	-0.115	0.067
-203.377	-200.000	0.016	0.245
-202.363	-200.000	0.027	0.153
-201.348	-200.000	0.017	-0.221
-200.333	3.566	-0.319	-0.233
-199.319	-99.788	0.407	0.102
-198.304	117.928	0.191	0.235
-197.290	45.714	0.294	-0.272
-196.275	-200.000	0.014	0.111
-195.260	-93.843	-0.202	-0.056
-194.246	371.178	-0.045	0.092
-193.231	-99.816	0.245	0.061
-192.217	85.935	-0.148	0.163
-191.202	-200.000	-0.022	0.194
-190.187	-109.198	0.231	-0.049
-189.173	106.258	0.040	-0.047
-188.158	-97.515	0.376	-0.098
-187.144	-70.919	-0.287	0.108
-186.129	366.930	-0.082	-0.165
-185.114	-107.015	-0.032	-0.007
-184.100	459.811	0.082	-0.183
-183.085	800.000	-0.052	0.155
-182.071	499.830	-0.033	0.076
-181.056	69.948	-0.123	0.127
-180.042	-89.939	-0.331	-0.097
-179.027	-200.000	0.014	0.072
-178.012	-130.212	-0.107	-0.015
-176.998	187.305	-0.147	-0.219
-175.983	14.327	-0.196	-0.153
-174.969	339.045	0.053	-0.104
-173.954	-200.000	-0.050	-0.223
-172.939	157.001	0.081	0.112
-171.925	238.453	0.107	-0.178
-170.910	-162.153	0.170	-0.009
-169.896	133.956	-0.022	-0.028
-168.881	688.656	0.068	-0.178
-167.866	-123.980	0.407	0.064
-166.852	-200.000	0.001	0.225
-165.837	203.435	-0.178	-0.275
-164.823	-200.000	-0.039	0.274
-163.808	-24.446	0.063	-0.037
-162.793	-78.839	0.176	0.060
-161.779	-125.178	-0.411	-0.063
-160.764	94.100	-0.231	0.262
-159.750	800.000	-0.092	0.323
-158.735	21.481	0.065	0.053
-157.720	-9.730	0.169	-0.113
-156.706	800.000	0.046	0.152
-155.691	-92.698	-0.216	-0.060
-154.677	510.136	0.102	0.238
-153.662	65.450	-0.276	-0.279
-152.647	-200.000	-0.019	-0.173
-151.633	222.524	0.184	0.296
-150.618	-116.074	-0.240	0.045
-149.604	-58.435	0.200	0.087
-148.589	452.955	-0.145	-0.321
-147.574	43.758	-0.184	-0.168
-146.560	800.000	0.049	0.203
-145.545	-144.569	0.109	-0.010
-144.531	442.625	0.149	-0.325
-143.516	-137.350	-0.585	0.066
-142.502	-200.000	-0.015	0.290
-141.487	-55.929	0.389	0.173
-140.472	80.573	0.023	0.025
-139.458	-30.424	0.119	0.068
-138.443	230.992	-0.101	0.165
-137.429	-6.922	-0.331	0.224
-136.414	-29.763	0.175	0.100
-135.399	-98.175	0.195	-0.050
-134.385	-98.294	0.456	0.117
-133.370	-70.363	-0.024	0.009
-132.356	309.170	0.038	0.070
-131.341	-0.547	0.188	0.133
-130.326	-200.000	0.034	0.166
-129.312	-96.968	-0.233	-0.061
-128.297	-200.000	-0.026	0.182
-127.283	-55.844	-0.156	0.070
-126.268	-200.000	-0.047	0.244
-125.253	21.722	0.102	0.083
-124.239	-81.594	0.112	-0.037
-123.224	154.984	0.149	-0.205
-122.210	-141.892	-0.239	-0.024
