DTS Sentinel unit serial number:	SN413079Multiplexer serial number:	ORYXHardware model number:	OX4-SRSoftware version number:	ORYX F/W v4.00 Oryx Data Collector v3.7.2.0data status	okinstallation	princeton_trtdifferential loss correction	single-endedforward channel	channel 1reverse channel	N/Adate	2019/09/13time	15:06:35forward acquisition time	60.00reverse acquisition time	0.00gamma	496.2192k internal	0.2302k external	0.2302temperature offset calibration	1.0161default loss term (dB/km)	0.3790temperature slope calibration	1.0000multiplexer offset coefficient	1.0000multiplexer slope coefficient	1.0000fibre end	0.00T internal ref (°C)	35.62T ext. ref 1 (°C)	4.71T ext. ref 2 (°C)	30.92length (m)	temperature (°C)	Stokes	anti-Stokes-747.200	154.791	-0.206	0.288
-746.185	153.254	-0.135	0.188
-745.171	-84.630	-0.311	0.100
-744.156	-200.000	0.010	0.167
-743.142	-88.144	0.214	-0.065
-742.127	12.362	0.166	0.130
-741.112	9.028	0.259	-0.199
-740.098	92.725	0.164	-0.189
-739.083	425.165	0.102	0.224
-738.069	134.435	0.116	0.153
-737.054	110.158	-0.243	-0.297
-736.039	-110.420	-0.547	0.116
-735.025	800.000	0.185	0.547
-734.010	-67.094	-0.237	-0.095
-732.996	800.000	-0.078	-0.253
-731.981	-22.187	-0.259	-0.160
-730.966	-99.854	0.173	0.044
-729.952	-168.092	0.303	-0.012
-728.937	-45.172	-0.110	-0.056
-727.923	121.360	0.191	0.242
-726.908	284.863	0.111	0.203
-725.894	540.216	0.050	0.122
-724.879	4.436	-0.112	-0.084
-723.864	-164.243	-0.285	-0.013
-722.850	469.695	0.057	0.130
-721.835	-200.000	-0.013	0.247
-720.821	660.257	0.116	0.304
-719.806	-200.000	-0.005	0.129
-718.791	-36.879	-0.089	0.049
-717.777	2.566	-0.177	0.131
-716.762	113.045	-0.180	-0.222
-715.748	-21.802	0.173	-0.107
-714.733	-5.219	-0.037	0.026
-713.718	-79.501	0.127	-0.044
-712.704	-119.729	0.061	-0.011
-711.689	-132.938	0.214	-0.028
-710.675	218.888	-0.084	-0.136
-709.660	44.464	-0.106	0.099
-708.645	-65.548	0.264	-0.108
-707.631	-200.000	-0.050	-0.287
-706.616	456.097	0.077	0.174
-705.602	0.831	0.026	0.019
-704.587	-98.113	-0.248	0.065
-703.572	800.000	0.082	-0.325
-702.558	-108.993	-0.347	-0.075
-701.543	-200.000	0.038	0.177
-700.529	107.276	-0.119	-0.144
-699.514	-200.000	-0.005	0.099
-698.499	-62.412	-0.064	-0.027
-697.485	-30.582	-0.196	0.113
-696.470	-200.000	0.007	0.386
-695.456	-200.000	0.028	0.178
-694.441	-104.932	0.303	0.071
-693.426	800.000	-0.042	-0.130
-692.412	98.124	0.045	-0.053
-691.397	-16.799	0.114	0.073
-690.383	234.524	-0.086	-0.144
-689.368	-158.481	-0.189	-0.011
-688.354	-200.000	0.005	-0.119
-687.339	138.853	0.162	-0.217
-686.324	153.155	0.132	0.184
-685.310	800.000	0.060	0.187
-684.295	800.000	0.032	-0.092
-683.281	213.912	-0.118	0.189
-682.266	465.672	0.127	-0.290
-681.251	31.832	0.236	-0.207
-680.237	-191.852	0.070	-0.001
-679.222	-76.136	-0.110	-0.040
-678.208	136.827	-0.101	-0.135
-677.193	12.569	-0.246	0.193
-676.178	-143.222	-0.151	0.015
-675.164	77.433	-0.038	-0.041
-674.149	124.212	-0.186	-0.238
-673.135	-200.000	-0.001	-0.071
-672.120	-200.000	0.037	-0.167
-671.105	8.514	0.149	-0.114
-670.091	-200.000	0.030	0.173
-669.076	71.024	-0.058	0.061
-668.062	59.481	0.111	0.111
-667.047	38.223	-0.105	-0.095
-666.032	-84.765	-0.069	-0.022
-665.018	-40.438	0.136	-0.072
-664.003	800.000	0.048	0.162
-662.989	800.000	0.056	-0.211
-661.974	800.000	-0.056	-0.168
-660.959	87.644	0.094	-0.106
-659.945	-78.450	-0.306	-0.106
-658.930	-200.000	-0.041	0.296
-657.916	-72.293	0.177	0.067
-656.901	-200.000	0.060	0.387
-655.886	60.191	0.242	0.243
-654.872	800.000	0.046	0.134
-653.857	15.794	0.112	-0.089
-652.843	19.574	-0.158	-0.129
-651.828	223.487	0.086	0.141
-650.814	800.000	-0.071	0.286
-649.799	81.556	-0.145	0.160
-648.784	0.085	-0.267	0.194
-647.770	-200.000	-0.071	-0.490
-646.755	359.313	-0.111	-0.225
-645.741	-46.229	0.105	-0.053
-644.726	268.582	-0.077	-0.138
-643.711	397.129	0.225	-0.477
-642.697	-200.000	-0.058	-0.293
-641.682	-36.978	0.179	0.098
-640.668	80.035	-0.030	0.033
-639.653	234.278	0.143	0.239
-638.638	41.647	-0.122	0.112
-637.624	-91.592	-0.185	0.054
-636.609	81.615	0.327	-0.359
-635.595	800.000	0.016	-0.054
-634.580	-75.140	-0.164	-0.060
-633.565	-200.000	-0.000	-0.311
-632.551	290.370	0.167	0.307
-631.536	-80.880	0.059	0.020
-630.522	-79.975	0.128	0.044
-629.507	-71.131	0.202	-0.077
-628.492	-89.262	-0.198	0.059
-627.478	-200.000	0.013	-0.688
-626.463	800.000	0.101	-0.340
-625.449	39.531	-0.251	-0.228
-624.434	-59.742	-0.403	-0.175
-623.419	129.297	0.119	0.154
-622.405	429.458	-0.039	0.085
-621.390	-200.000	-0.006	-0.090
-620.376	-200.000	0.012	0.271
-619.361	-97.278	-0.386	0.102
-618.346	-200.000	-0.041	0.348
-617.332	158.409	0.130	-0.182
-616.317	137.884	0.136	0.181
-615.303	309.972	-0.085	0.161
-614.288	-70.052	-0.242	0.093
-613.273	-200.000	-0.030	-0.279
-612.259	800.000	-0.078	-0.293
-611.244	205.173	-0.038	-0.060
-610.230	800.000	-0.049	-0.166
-609.215	-200.000	0.040	0.219
-608.201	636.858	-0.018	0.046
-607.186	361.458	0.090	-0.183
-606.171	-200.000	-0.003	-0.062
-605.157	-60.689	-0.186	-0.080
-604.142	62.078	-0.093	-0.094
-603.128	-200.000	0.007	0.073
-602.113	-138.002	0.120	-0.014
-601.098	-67.081	0.251	-0.100
-600.084	-41.346	0.114	0.060
-599.069	-78.200	0.194	0.068
-598.055	-200.000	0.101	-0.478
-597.040	-200.000	-0.059	-0.365
-596.025	25.609	-0.199	-0.168
-595.011	-153.762	-0.326	-0.023
-593.996	-51.124	-0.245	-0.116
-592.982	166.719	0.099	0.143
-591.967	-57.101	-0.253	-0.113
-590.952	770.562	0.091	-0.251
-589.938	296.999	-0.094	-0.175
-588.923	34.404	-0.210	0.186
-587.909	-62.808	0.168	0.070
-586.894	134.050	-0.118	0.155
-585.879	-200.000	-0.013	-0.109
-584.865	477.346	-0.045	0.103
-583.850	-180.408	0.388	0.008
-582.836	800.000	-0.042	-0.156
-581.821	-200.000	0.002	-0.149
-580.806	-33.625	0.213	-0.119
-579.792	-161.682	-0.313	0.016
-578.777	314.757	0.113	-0.216
-577.763	-200.000	0.004	-0.160
-576.748	479.489	-0.093	-0.213
-575.733	-200.000	-0.022	-0.149
-574.719	-73.083	-0.154	0.057
-573.704	-69.490	-0.137	-0.053
-572.690	-5.357	0.452	-0.314
-571.675	31.755	-0.190	0.165
-570.661	7.129	0.347	0.262
-569.646	161.150	-0.105	0.149
-568.631	-200.000	0.004	-0.146
-567.617	-47.460	-0.106	0.052
-566.602	423.542	-0.062	0.135
-565.588	-65.913	0.243	-0.098
-564.573	198.899	-0.061	-0.095
-563.558	-200.000	-0.039	0.175
-562.544	-173.716	-0.087	-0.003
-561.529	-200.000	0.038	0.312
-560.515	297.498	0.162	-0.301
-559.500	-200.000	0.009	0.225
-558.485	107.779	-0.184	-0.222
-557.471	32.508	0.078	-0.068
-556.456	138.683	-0.089	-0.118
-555.442	800.000	0.030	0.088
-554.427	-101.000	-0.387	-0.096
-553.412	265.489	0.181	-0.319
-552.398	-200.000	0.042	-0.272
-551.383	-95.831	0.327	0.088
-550.369	-147.305	0.034	-0.003
-549.354	126.268	-0.105	0.134
-548.339	-24.730	-0.207	-0.124
-547.325	-111.727	-0.155	0.032
-546.310	241.747	0.105	0.178
-545.296	473.933	0.078	-0.178
-544.281	-117.278	0.174	-0.032
-543.266	-103.494	0.378	0.090
-542.252	-200.000	-0.043	-0.294
-541.237	88.265	0.181	0.203
-540.223	-89.558	0.030	-0.009
-539.208	-20.473	-0.128	-0.080
-538.193	-130.601	-0.056	-0.008
-537.179	800.000	0.019	0.053
-536.164	800.000	0.021	0.083
-535.150	229.535	0.028	0.047
-534.135	46.652	-0.156	-0.146
-533.121	1.207	-0.238	-0.173
-532.106	45.800	-0.134	0.125
-531.091	80.309	-0.116	-0.126
-530.077	-60.893	0.248	0.106
-529.062	-57.579	0.185	-0.082
-528.048	-72.622	-0.093	0.035
-527.033	-17.854	0.101	-0.064
-526.018	-86.417	-0.237	-0.074
-525.004	-95.416	0.108	-0.029
-523.989	80.563	-0.183	0.199
-522.975	29.849	-0.297	0.256
-521.960	-114.896	-0.208	-0.040
-520.945	45.883	-0.071	-0.066
-519.931	-91.648	0.710	0.204
-518.916	-15.552	-0.049	-0.031
-517.902	-200.000	0.028	0.200
-516.887	-200.000	-0.056	0.395
-515.872	-54.940	0.052	0.024
-514.858	-106.709	0.126	-0.028
-513.843	11.028	-0.207	-0.160
-512.829	800.000	0.059	0.187
-511.814	27.889	-0.097	-0.083
-510.799	2.259	0.196	-0.143
-509.785	476.061	-0.168	0.384
-508.770	-200.000	-0.015	-0.266
-507.756	36.681	0.105	0.094
-506.741	800.000	0.070	-0.200
-505.726	-37.148	0.063	-0.034
-504.712	567.308	-0.038	-0.094
-503.697	436.841	0.079	0.174
-502.683	299.972	0.145	-0.270
-501.668	-136.724	0.158	-0.018
-500.653	-20.403	-0.127	-0.079
-499.639	163.868	-0.181	-0.257
-498.624	800.000	0.049	-0.138
-497.610	-200.000	-0.026	0.314
-496.595	23.999	0.089	0.074
-495.581	-200.000	0.013	0.070
-494.566	202.703	0.098	-0.153
-493.551	-200.000	0.007	-0.092
-492.537	-200.000	0.026	0.186
-491.522	800.000	-0.043	-0.165
-490.508	42.045	-0.213	0.195
-489.493	-112.000	-0.275	-0.056
-488.478	-200.000	-0.030	0.175
-487.464	674.345	-0.105	0.275
-486.449	576.209	0.106	-0.262
-485.435	-79.740	-0.189	0.064
-484.420	182.919	0.164	0.245
-483.405	90.837	0.155	0.175
-482.391	110.101	0.129	-0.156
-481.376	800.000	0.076	-0.252
-480.362	-9.651	-0.083	0.056
-479.347	325.707	-0.101	0.196
-478.332	-89.501	-0.169	-0.050
-477.318	-145.301	0.135	-0.012
-476.303	1.102	0.128	-0.093
-475.289	-100.399	0.349	-0.087
-474.274	-200.000	-0.039	-0.297
-473.259	625.102	0.110	0.281
-472.245	289.974	-0.068	-0.124
-471.230	320.967	-0.039	0.074
-470.216	-153.516	-0.404	0.028
-469.201	115.514	-0.145	-0.179
-468.186	-128.099	-0.133	0.019
-467.172	-60.163	0.066	0.028
-466.157	4.740	-0.225	-0.166
-465.143	800.000	0.085	-0.343
-464.128	10.763	-0.129	0.099
-463.113	-37.780	-0.140	0.075
-462.099	-24.107	-0.157	0.095
-461.084	-200.000	0.002	0.042
-460.070	-160.130	-0.657	-0.036
-459.055	-94.832	-0.323	0.088
-458.040	-77.016	0.432	-0.152
-457.026	39.304	-0.065	0.059
-456.011	2.390	-0.310	-0.226
-454.997	-149.593	-0.189	0.015
-453.982	-93.757	-0.335	-0.093
-452.968	-146.208	0.177	0.016
-451.953	-6.239	-0.064	0.044
-450.938	-200.000	-0.001	-0.355
-449.924	-200.000	-0.028	-0.155
-448.909	222.362	-0.153	0.248
-447.895	69.848	0.138	-0.143
-446.880	800.000	-0.110	0.394
-445.865	-171.064	-0.156	0.005
-444.851	-200.000	-0.010	-0.197
-443.836	61.526	-0.193	0.194
-442.822	-134.927	-0.173	-0.021
-441.807	751.182	-0.048	0.132
-440.792	440.749	-0.075	0.165
-439.778	96.054	-0.111	-0.128
-438.763	471.099	0.067	0.152
-437.749	-44.660	0.152	0.076
-436.734	-27.160	-0.091	-0.053
-435.719	-27.642	-0.313	-0.183
-434.705	800.000	0.020	-0.075
-433.690	-173.643	0.123	-0.004
-432.676	305.382	0.037	0.068
-431.661	17.091	-0.180	-0.144
-430.646	-131.395	0.156	-0.021
-429.632	54.593	0.110	-0.107
-428.617	800.000	-0.096	-0.387
-427.603	-122.800	0.513	-0.083
-426.588	-200.000	0.011	0.061
-425.573	71.207	0.162	0.170
-424.559	-200.000	-0.038	-0.230
-423.544	-81.270	0.160	-0.053
-422.530	170.377	-0.288	-0.415
-421.515	-77.892	-0.109	-0.038
-420.500	204.400	-0.074	0.115
-419.486	-200.000	-0.010	0.330
-418.471	21.016	0.149	-0.122
-417.457	-200.000	-0.019	-0.142
-416.442	248.981	0.037	0.062
-415.428	596.428	0.010	0.024
-414.413	-123.596	-0.534	-0.085
-413.398	-52.907	0.266	-0.123
-412.384	199.005	-0.080	0.124
-411.369	-105.410	0.321	-0.073
-410.355	-200.000	-0.026	-0.264
-409.340	-18.338	0.096	0.061
-408.325	48.977	0.189	0.179
-407.311	800.000	-0.036	-0.114
-406.296	800.000	-0.098	-0.369
-405.282	-200.000	0.018	-0.135
-404.267	363.431	-0.116	-0.234
-403.252	119.651	0.157	-0.196
-402.238	349.658	-0.086	0.170
-401.223	-2.715	-0.126	0.089
-400.209	-32.459	-0.106	-0.059
-399.194	43.540	-0.019	0.017
-398.179	141.052	0.068	-0.091
-397.165	-82.152	0.216	-0.071
-396.150	-200.000	0.068	-0.406
-395.136	27.188	0.202	-0.170
-394.121	40.637	-0.406	0.368
-393.106	-184.207	0.241	-0.004
-392.092	-169.194	0.273	0.010
-391.077	213.676	0.098	0.156
-390.063	27.295	-0.088	0.074
-389.048	-79.237	0.166	-0.057
-388.033	99.847	-0.046	-0.053
-387.019	229.228	0.114	-0.187
-386.004	-200.000	-0.035	0.487
-384.990	62.320	-0.081	-0.082
-383.975	629.741	0.142	0.360
-382.960	93.194	-0.168	0.191
-381.946	283.451	-0.108	-0.195
-380.931	800.000	-0.126	0.495
-379.917	-71.053	0.269	-0.102
-378.902	306.241	0.006	-0.012
-377.888	-93.562	0.137	-0.038
-376.873	-32.253	0.241	-0.135
-375.858	-117.595	0.275	0.050
-374.844	-106.071	-0.347	0.078
-373.829	120.411	0.025	0.032
-372.815	800.000	-0.059	-0.181
-371.800	-200.000	0.020	0.282
-370.785	800.000	-0.077	0.222
-369.771	-176.511	0.145	0.004
-368.756	-86.308	-0.195	0.060
-367.742	22.329	-0.207	-0.170
-366.727	72.588	-0.214	0.225
-365.712	-162.578	0.139	0.007
-364.698	86.786	0.185	0.205
-363.683	164.834	0.067	0.095
-362.669	30.465	-0.045	0.039
-361.654	446.521	-0.049	-0.108
-360.639	-21.279	-0.067	0.041
-359.625	-200.000	0.017	-0.222
-358.610	-43.335	0.173	0.088
-357.596	36.575	-0.115	-0.102
-356.581	606.936	0.045	0.113
-355.566	-17.763	-0.218	0.137
-354.552	-16.226	0.144	0.092
-353.537	-144.853	0.085	0.008
-352.523	717.828	0.018	-0.049
-351.508	-200.000	0.015	-0.084
-350.493	199.198	0.077	-0.119
-349.479	-99.663	-0.192	0.048
-348.464	241.336	0.066	0.111
-347.450	185.636	0.110	0.164
-346.435	800.000	-0.078	-0.299
-345.420	-16.811	0.182	0.115
-344.406	-200.000	-0.024	0.129
-343.391	-24.159	0.064	-0.038
-342.377	-64.242	0.453	-0.185
-341.362	0.846	0.170	-0.122
-340.348	163.351	0.131	0.184
-339.333	-127.285	0.076	-0.011
-338.318	18.033	-0.341	0.272
-337.304	-200.000	-0.014	0.430
-336.289	-11.406	-0.247	-0.163
-335.275	-16.885	0.327	-0.207
-334.260	-138.615	-0.322	-0.035
-333.245	-43.376	0.067	-0.034
-332.231	-118.749	-0.281	0.050
-331.216	-162.285	0.367	-0.018
-330.202	-200.000	0.011	0.215
-329.187	109.929	0.181	-0.218
-328.172	42.634	-0.086	-0.078
-327.158	-3.209	0.075	0.052
-326.143	78.047	-0.228	-0.244
-325.129	800.000	0.027	-0.092
-324.114	-82.582	0.124	-0.040
-323.099	237.109	0.083	0.137
-322.085	-63.767	-0.206	0.085
-321.070	-33.531	-0.194	-0.107
-320.056	-200.000	0.028	-0.406
-319.041	-55.899	0.327	0.146
-318.026	800.000	-0.116	0.332
-317.012	26.257	-0.055	-0.046
-315.997	-48.152	0.347	-0.168
-314.983	-16.482	0.361	-0.229
-313.968	-170.686	0.334	0.012
-312.953	194.416	-0.112	0.171
-311.939	-0.608	-0.170	0.121
-310.924	-75.314	-0.072	0.026
-309.910	372.223	0.056	0.114
-308.895	115.132	0.170	0.209
-307.880	143.673	0.131	0.175
-306.866	800.000	0.089	0.339
-305.851	-122.054	0.111	-0.018
-304.837	-153.652	-0.326	0.022
-303.822	33.679	0.332	-0.289
-302.807	-200.000	0.097	-0.472
-301.793	-45.178	-0.183	0.091
-300.778	89.888	-0.091	-0.102
-299.764	800.000	-0.008	-0.024
-298.749	-16.640	-0.180	-0.114
-297.735	800.000	-0.059	0.186
-296.720	800.000	0.096	0.365
-295.705	-200.000	-0.024	0.318
-294.691	-1.953	0.184	0.129
-293.676	-200.000	-0.043	-0.279
-292.662	-200.000	-0.020	-0.229
-291.647	43.445	0.249	-0.228
-290.632	800.000	-0.038	-0.109
-289.618	-100.689	0.133	0.033
-288.603	-106.673	-0.143	-0.032
-287.589	164.009	-0.111	0.157
-286.574	-41.319	-0.180	0.093
-285.559	-66.630	0.194	-0.077
-284.545	-200.000	-0.104	-0.000
-283.530	-79.673	-0.282	0.095
-282.516	64.495	0.078	-0.079
-281.501	-159.959	0.212	0.012
-280.486	-200.000	0.071	-0.342
-279.472	-76.624	0.312	0.109
-278.457	-79.398	0.214	-0.073
-277.443	73.910	0.171	0.179
-276.428	36.944	0.329	0.292
-275.413	61.361	-0.322	0.320
-274.399	800.000	0.031	-0.120
-273.384	151.653	0.054	-0.074
-272.370	800.000	-0.041	0.159
-271.355	-200.000	-0.009	-0.148
-270.340	-43.132	0.124	0.063
-269.326	-200.000	-0.014	-0.088
-268.311	-200.000	-0.016	0.212
-267.297	334.227	0.093	0.180
-266.282	-200.000	0.010	0.252
-265.267	-79.744	0.182	-0.061
-264.253	467.144	0.068	-0.152
-263.238	-16.501	-0.181	0.115
-262.224	-83.522	-0.153	-0.049
-261.209	800.000	-0.032	0.123
-260.195	-161.751	-0.416	-0.021
-259.180	-102.096	0.293	0.071
-258.165	143.309	-0.046	-0.061
-257.151	800.000	-0.020	0.076
-256.136	-186.594	-0.139	0.002
-255.122	800.000	-0.108	0.371
-254.107	-200.000	0.049	-0.367
-253.092	1.542	-0.031	0.023
-252.078	800.000	0.050	0.201
-251.063	-200.000	-0.036	0.373
-250.049	-10.361	0.133	0.088
-249.034	-29.189	0.106	-0.061
-248.019	-76.124	-0.161	0.057
-247.005	238.095	-0.028	0.047
-245.990	-61.083	0.252	0.107
-244.976	-72.487	-0.175	0.065
-243.961	800.000	-0.095	-0.285
-242.946	96.396	0.243	0.278
-241.932	-156.896	0.096	-0.006
-240.917	-200.000	-0.009	-0.089
-239.903	66.497	-0.170	0.173
-238.888	-200.000	-0.027	-0.122
-237.873	-200.000	0.003	-0.145
-236.859	-120.961	0.317	0.053
-235.844	800.000	0.018	0.054
-234.830	-200.000	0.007	0.294
-233.815	285.225	-0.061	0.109
-232.800	800.000	-0.145	0.458
-231.786	614.797	-0.027	-0.068
-230.771	8.845	0.074	-0.056
-229.757	800.000	-0.037	-0.154
-228.742	620.497	-0.098	-0.247
-227.727	-15.856	-0.125	0.080
-226.713	93.141	0.155	-0.175
-225.698	-107.965	0.362	0.079
-224.684	12.526	0.244	-0.188
-223.669	800.000	0.078	0.259
-222.655	316.975	0.129	-0.243
-221.640	-200.000	0.030	-0.342
-220.625	103.275	0.185	0.217
-219.611	490.543	-0.208	0.476
-218.596	-200.000	0.013	-0.092
-217.582	689.869	0.068	0.177
-216.567	800.000	0.041	-0.150
-215.552	154.144	0.109	0.149
-214.538	800.000	0.018	-0.059
-213.523	20.115	0.019	-0.015
-212.509	800.000	0.071	0.203
-211.494	296.519	0.107	-0.196
-210.479	-200.000	-0.047	-0.249
-209.465	80.614	-0.158	0.169
-208.450	-118.380	-0.257	-0.045
-207.436	21.128	-0.345	0.279
-206.421	123.333	0.040	-0.050
-205.406	-200.000	0.043	0.232
-204.392	632.248	0.050	0.128
-203.377	304.316	0.018	0.033
-202.363	-200.000	0.010	0.179
-201.348	-200.000	-0.007	0.372
-200.333	-154.914	0.291	-0.019
-199.319	58.503	0.074	-0.072
-198.304	-200.000	-0.016	-0.272
-197.290	-200.000	0.038	0.168
-196.275	-48.712	-0.072	-0.034
-195.260	-200.000	-0.003	0.053
-194.246	181.753	-0.155	0.227
-193.231	718.165	0.110	0.293
-192.217	708.074	0.019	0.049
-191.202	-153.516	0.252	0.017
-190.187	32.876	-0.268	-0.232
-189.173	72.590	-0.082	0.085
-188.158	69.791	-0.172	0.177
-187.144	-200.000	0.046	0.203
-186.129	-111.728	-0.331	0.067
-185.114	112.368	-0.168	0.203
-184.100	110.054	-0.213	0.255
-183.085	77.370	-0.125	0.133
-182.071	-178.117	-0.416	-0.010
-181.056	60.211	-0.114	0.113
-180.042	800.000	-0.131	0.387
-179.027	23.863	-0.176	-0.145
-178.012	-106.409	-0.085	-0.019
-176.998	-85.366	0.208	0.065
-175.983	13.753	-0.250	-0.194
-174.969	-200.000	0.010	-0.068
-173.954	-93.971	0.386	0.106
-172.939	-116.001	-0.305	0.057
-171.925	800.000	-0.044	-0.150
-170.910	-200.000	-0.005	0.068
-169.896	154.332	-0.043	0.059
-168.881	74.740	0.090	-0.095
-167.866	-159.126	-0.145	0.008
-166.852	71.706	-0.230	0.238
-165.837	800.000	0.008	0.026
-164.823	-55.500	-0.045	-0.020
-163.808	266.139	0.104	0.180
-162.793	66.086	-0.102	-0.103
-161.779	-95.836	0.146	-0.039
-160.764	-71.908	0.104	-0.039
-159.750	121.259	0.243	-0.302
-158.735	-42.916	0.329	0.166
-157.720	-24.253	0.175	0.104
-156.706	-200.000	-0.003	0.106
-155.691	70.979	0.158	-0.164
-154.677	-62.219	0.344	0.143
-153.662	-60.354	0.427	0.181
-152.647	249.726	-0.085	0.143
-151.633	-149.173	0.138	0.011
-150.618	800.000	-0.068	-0.274
-149.604	-129.817	0.291	0.040
-148.589	13.974	-0.361	0.280
-147.574	-200.000	0.025	0.246
-146.560	-100.203	0.081	-0.020
-145.545	-200.000	-0.037	-0.191
-144.531	70.958	-0.091	0.094
-143.516	189.940	-0.134	0.200
-142.502	-119.433	-0.143	0.025
-141.487	-120.408	-0.217	0.037
-140.472	-28.584	0.226	-0.129
-139.458	-28.571	0.199	0.114
-138.443	-200.000	-0.023	-0.133
-137.429	-64.296	0.087	-0.035
-136.414	-16.378	-0.488	-0.308
-135.399	-106.903	-0.294	0.065
-134.385	-66.951	0.165	-0.065
-133.370	33.311	-0.063	0.055
-132.356	38.483	-0.235	0.209
-131.341	-10.303	0.445	-0.294
-130.326	475.111	0.102	0.229
-129.312	-200.000	-0.055	0.255
-128.297	-11.255	0.013	-0.009
-127.283	-200.000	-0.047	0.269
-126.268	199.397	0.122	0.186
-125.253	800.000	-0.096	-0.287
-124.239	-133.625	-0.077	0.010
-123.224	10.008	-0.291	0.220
-122.210	-86.677	0.131	0.040
-121.195	800.000	0.029	0.080
-120.180	-52.517	0.260	-0.120
