DTS Sentinel unit serial number:	SN413079Multiplexer serial number:	ORYXHardware model number:	OX4-SRSoftware version number:	ORYX F/W v4.00 Oryx Data Collector v3.7.2.0data status	okinstallation	princeton_trtdifferential loss correction	single-endedforward channel	channel 1reverse channel	N/Adate	2019/09/13time	12:22:35forward acquisition time	60.00reverse acquisition time	0.00gamma	496.2192k internal	0.2308k external	0.2308temperature offset calibration	1.0167default loss term (dB/km)	0.3790temperature slope calibration	1.0000multiplexer offset coefficient	1.0000multiplexer slope coefficient	1.0000fibre end	0.00T internal ref (°C)	34.17T ext. ref 1 (°C)	4.62T ext. ref 2 (°C)	31.17length (m)	temperature (°C)	Stokes	anti-Stokes-747.200	-200.000	0.039	0.191
-746.185	-80.116	0.286	-0.097
-745.171	-51.149	0.160	0.076
-744.156	177.257	-0.167	0.248
-743.142	46.902	0.221	-0.209
-742.127	2.247	0.162	-0.119
-741.112	-200.000	0.026	0.571
-740.098	633.479	-0.049	0.125
-739.083	-84.040	0.227	-0.073
-738.069	-200.000	-0.050	0.285
-737.054	99.210	0.041	0.048
-736.039	11.544	-0.256	-0.199
-735.025	541.388	0.060	0.144
-734.010	-200.000	-0.007	-0.130
-732.996	-60.730	0.107	-0.046
-731.981	-40.937	-0.510	-0.268
-730.966	800.000	-0.062	0.212
-729.952	-134.263	0.224	0.028
-728.937	648.155	0.088	-0.228
-727.923	-9.561	-0.134	0.091
-726.908	142.748	0.148	-0.199
-725.894	-72.553	0.253	-0.095
-724.879	213.549	0.146	-0.234
-723.864	-114.332	-0.041	0.008
-722.850	-89.453	-0.176	-0.052
-721.835	-28.751	-0.213	-0.124
-720.821	-33.238	-0.325	-0.183
-719.806	-72.903	-0.134	-0.050
-718.791	123.208	-0.109	0.138
-717.777	282.327	-0.113	-0.206
-716.762	-97.035	-0.247	-0.066
-715.748	317.149	-0.087	-0.167
-714.733	19.300	0.326	-0.265
-713.718	89.410	0.145	0.164
-712.704	123.834	-0.113	-0.144
-711.689	-136.056	-0.094	-0.011
-710.675	-139.104	-0.289	0.032
-709.660	-200.000	-0.050	-0.278
-708.645	77.057	-0.096	0.103
-707.631	-200.000	0.053	0.373
-706.616	119.882	0.225	0.283
-705.602	-46.262	-0.415	-0.207
-704.587	113.320	-0.076	0.094
-703.572	-200.000	0.040	-0.259
-702.558	-100.828	-0.104	-0.026
-701.543	191.816	-0.044	-0.067
-700.529	-32.292	0.205	-0.116
-699.514	-26.765	0.106	-0.063
-698.499	-38.895	0.150	-0.080
-697.485	627.318	-0.111	-0.284
-696.470	540.008	0.091	0.220
-695.456	-12.934	-0.172	-0.113
-694.441	107.498	-0.127	-0.154
-693.426	-172.762	-0.171	-0.005
-692.412	-136.073	-0.148	0.018
-691.397	124.122	0.152	0.193
-690.383	-34.898	-0.243	-0.135
-689.368	-22.345	0.199	0.122
-688.354	-132.573	0.218	0.028
-687.339	-151.622	0.301	0.023
-686.324	-37.534	0.198	-0.107
-685.310	312.856	-0.213	-0.406
-684.295	299.994	0.125	0.234
-683.281	-144.874	0.511	0.047
-682.266	-200.000	-0.000	0.040
-681.251	219.995	-0.215	0.348
-680.237	-200.000	-0.005	-0.074
-679.222	24.341	-0.083	-0.069
-678.208	-48.845	-0.171	0.083
-677.193	-56.329	0.159	-0.072
-676.178	-111.687	0.082	-0.017
-675.164	-200.000	0.030	0.135
-674.149	50.544	-0.081	-0.077
-673.135	-200.000	0.013	0.093
-672.120	-141.868	0.174	0.018
-671.105	-174.045	-0.318	0.009
-670.091	-11.915	-0.125	-0.083
-669.076	440.610	0.063	0.140
-668.062	-200.000	-0.006	-0.504
-667.047	-136.295	-0.299	-0.035
-666.032	139.521	0.049	-0.065
-665.018	-146.470	-0.369	-0.033
-664.003	61.585	-0.305	-0.308
-662.989	316.151	-0.102	0.195
-661.974	28.815	0.222	-0.191
-660.959	130.609	-0.108	-0.140
-659.945	43.085	-0.048	0.045
-658.930	-11.548	-0.170	-0.113
-657.916	288.078	0.069	-0.127
-656.901	545.678	-0.079	0.192
-655.886	-92.475	-0.190	0.054
-654.872	-200.000	0.008	-0.106
-653.857	-69.611	0.421	-0.163
-652.843	116.558	-0.182	0.226
-651.828	142.872	-0.052	0.070
-650.814	-99.765	0.105	0.027
-649.799	-130.810	-0.377	0.051
-648.784	-45.502	0.229	0.115
-647.770	-94.652	-0.178	-0.049
-646.755	-47.960	0.118	-0.058
-645.741	212.474	0.064	-0.102
-644.726	-114.628	0.097	-0.019
-643.711	76.605	-0.098	0.105
-642.697	800.000	0.038	-0.129
-641.682	58.023	0.125	-0.124
-640.668	-100.557	-0.079	0.020
-639.653	800.000	0.048	0.158
-638.638	-101.497	-0.125	0.031
-637.624	-104.432	0.270	0.063
-636.609	-200.000	0.033	0.210
-635.595	172.768	-0.190	-0.277
-634.580	615.089	-0.036	0.092
-633.565	-121.582	0.117	0.020
-632.551	-88.658	0.076	0.023
-631.536	632.407	0.073	0.188
-630.522	13.189	0.200	-0.157
-629.507	-200.000	0.016	0.250
-628.492	-50.853	-0.243	0.115
-627.478	-15.834	-0.184	0.118
-626.463	-200.000	0.038	-0.218
-625.449	186.005	-0.048	-0.073
-624.434	18.097	-0.216	-0.174
-623.419	326.532	-0.086	0.167
-622.405	-60.775	-0.095	-0.041
-621.390	-16.945	-0.115	0.073
-620.376	-14.709	0.156	0.101
-619.361	-200.000	-0.016	0.146
-618.346	-58.162	0.273	0.120
-617.332	800.000	-0.038	0.164
-616.317	101.785	-0.077	-0.091
-615.303	-200.000	-0.025	0.283
-614.288	8.744	-0.259	-0.198
-613.273	-83.988	-0.368	0.118
-612.259	800.000	0.032	-0.110
-611.244	-119.184	-0.420	0.074
-610.230	76.223	0.153	0.164
-609.215	-200.000	0.025	-0.147
-608.201	17.192	-0.465	-0.373
-607.186	107.993	-0.059	-0.071
-606.171	-42.062	0.269	-0.139
-605.157	-200.000	0.043	0.465
-604.142	800.000	-0.086	0.333
-603.128	6.907	-0.051	-0.038
-602.113	800.000	0.033	-0.143
-601.098	255.580	-0.135	0.235
-600.084	-200.000	0.025	-0.116
-599.069	-85.991	0.476	0.149
-598.055	24.792	-0.301	0.252
-597.040	800.000	0.102	-0.381
-596.025	800.000	-0.061	-0.263
-595.011	106.292	-0.149	0.179
-593.996	168.536	0.113	0.163
-592.982	-74.875	-0.228	0.083
-591.967	302.930	-0.120	-0.224
-590.952	-105.621	0.331	-0.076
-589.938	-125.024	-0.108	0.017
-588.923	-149.125	0.173	-0.014
-587.909	218.428	-0.025	-0.040
-586.894	-136.286	0.261	-0.031
-585.879	-39.944	-0.245	0.129
-584.865	226.967	-0.230	-0.377
-583.850	45.588	0.167	0.156
-582.836	-200.000	-0.002	0.263
-581.821	-200.000	0.007	-0.232
-580.806	25.555	0.162	-0.136
-579.792	104.269	-0.114	0.136
-578.777	-200.000	-0.007	-0.169
-577.763	457.358	0.072	0.162
-576.748	-68.852	-0.283	-0.110
-575.733	-151.892	-0.272	-0.020
-574.719	41.405	0.074	-0.068
-573.704	624.363	-0.181	-0.461
-572.690	235.141	0.143	0.238
-571.675	-173.580	0.085	-0.003
-570.661	-3.206	-0.031	0.022
-569.646	-200.000	-0.031	-0.141
-568.631	-200.000	-0.006	-0.154
-567.617	800.000	0.078	0.278
-566.602	-187.117	-0.023	-0.000
-565.588	-38.430	0.079	0.042
-564.573	800.000	-0.077	-0.275
-563.558	-86.048	-0.369	0.115
-562.544	77.720	0.169	0.182
-561.529	-48.322	0.270	-0.131
-560.515	-79.783	0.140	-0.048
-559.500	800.000	0.105	0.405
-558.485	800.000	-0.069	-0.254
-557.471	569.154	-0.048	-0.118
-556.456	800.000	0.074	0.295
-555.442	145.818	0.037	0.050
-554.427	-200.000	-0.026	-0.183
-553.412	-200.000	-0.001	-0.063
-552.398	-144.324	0.281	0.026
-551.383	-130.579	0.148	-0.020
-550.369	-105.366	0.160	-0.037
-549.354	-167.839	0.159	-0.006
-548.339	800.000	-0.041	-0.118
-547.325	800.000	-0.050	0.172
-546.310	60.744	-0.194	-0.194
-545.296	800.000	0.103	-0.360
-544.281	-200.000	0.001	0.195
-543.266	-200.000	-0.012	-0.231
-542.252	133.119	0.102	0.133
-541.237	37.930	-0.053	0.048
-540.223	-40.605	-0.253	0.132
-539.208	-107.141	0.215	-0.048
-538.193	800.000	-0.057	0.237
-537.179	-81.187	-0.286	-0.095
-536.164	33.170	0.299	-0.261
-535.150	57.829	0.114	0.112
-534.135	205.676	-0.129	-0.201
-533.121	-53.247	0.318	0.147
-532.106	800.000	0.050	0.162
-531.091	-91.108	0.278	0.080
-530.077	278.296	-0.044	0.080
-529.062	-200.000	-0.004	-0.520
-528.048	237.594	-0.148	-0.248
-527.033	-133.429	0.105	-0.013
-526.018	-29.624	-0.236	-0.136
-525.004	-97.068	0.316	0.083
-523.989	-200.000	-0.008	-0.088
-522.975	138.263	0.125	0.165
-521.960	762.584	0.046	-0.126
-520.945	127.133	-0.211	0.270
-519.931	20.905	0.239	0.195
-518.916	-147.450	-0.048	-0.004
-517.902	-47.014	-0.217	0.107
-516.887	800.000	0.118	-0.353
-515.872	-114.314	-0.107	0.021
-514.858	800.000	0.032	-0.099
-513.843	800.000	-0.028	0.113
-512.829	299.816	-0.099	0.184
-511.814	-104.356	0.261	0.061
-510.799	481.868	-0.139	-0.318
-509.785	-200.000	0.004	-0.153
-508.770	349.337	0.073	-0.145
-507.756	-180.986	-0.360	-0.007
-506.741	412.749	-0.042	0.090
-505.726	-200.000	-0.084	-0.388
-504.712	-34.295	0.233	-0.129
-503.697	-124.260	-0.139	-0.022
-502.683	-58.812	0.302	-0.132
-501.668	-48.561	-0.259	-0.125
-500.653	243.087	0.177	0.299
-499.639	128.945	0.114	0.146
-498.624	800.000	0.101	0.431
-497.610	615.876	-0.114	-0.288
-496.595	2.468	-0.290	0.212
-495.581	-107.356	0.078	0.017
-494.566	-200.000	0.018	-0.195
-493.551	-200.000	0.038	-0.266
-492.537	-104.005	-0.203	-0.048
-491.522	-116.636	0.215	-0.040
-490.508	-38.066	-0.152	-0.081
-489.493	-96.153	-0.233	0.062
-488.478	800.000	-0.050	0.196
-487.464	235.288	-0.103	-0.171
-486.449	9.552	0.112	-0.085
-485.435	-62.750	-0.034	0.014
-484.420	-49.681	0.135	0.064
-483.405	-125.450	0.402	0.062
-482.391	-200.000	-0.021	0.179
-481.376	205.990	0.177	-0.276
-480.362	1.906	-0.286	0.208
-479.347	43.795	-0.108	-0.099
-478.332	800.000	-0.080	-0.323
-477.318	-200.000	0.033	-0.169
-476.303	-200.000	0.039	0.242
-475.289	-200.000	-0.012	0.233
-474.274	-106.246	-0.275	0.062
-473.259	12.944	-0.208	-0.162
-472.245	-16.764	-0.159	-0.101
-471.230	248.130	0.102	-0.174
-470.216	-34.500	0.068	-0.038
-469.201	-200.000	-0.033	-0.264
-468.186	-200.000	-0.004	-0.108
-467.172	57.536	0.081	0.080
-466.157	-75.848	0.096	-0.034
-465.143	-200.000	-0.017	0.336
-464.128	-200.000	0.016	-0.109
-463.113	800.000	-0.067	-0.219
-462.099	-11.838	-0.175	-0.115
-461.084	65.288	0.024	-0.025
-460.070	27.034	-0.048	-0.040
-459.055	-148.851	0.038	0.003
-458.040	800.000	-0.050	0.200
-457.026	506.133	0.173	0.404
-456.011	104.903	-0.084	-0.099
-454.997	-74.515	-0.129	0.047
-453.982	74.077	0.159	-0.167
-452.968	193.094	-0.103	0.157
-451.953	51.498	0.317	0.302
-450.938	800.000	-0.030	-0.109
-449.924	-15.080	-0.397	0.255
-448.909	23.924	0.052	-0.043
-447.895	145.350	0.070	0.094
-446.880	160.364	0.146	0.204
-445.865	-24.390	0.282	0.169
-444.851	-108.951	-0.403	0.086
-443.836	-114.488	0.164	0.032
-442.822	800.000	-0.042	-0.166
-441.807	-152.205	0.227	-0.017
-440.792	-114.579	0.015	-0.003
-439.778	-200.000	0.004	-0.072
-438.763	-61.983	0.130	0.055
-437.749	134.887	-0.107	-0.140
-436.734	-22.899	0.134	0.081
-435.719	-70.011	-0.099	-0.038
-434.705	-14.710	0.154	0.099
-433.690	-67.770	0.365	0.143
-432.676	280.269	0.102	-0.183
-431.661	-200.000	-0.030	0.167
-430.646	139.972	-0.117	0.155
-429.632	-200.000	-0.033	-0.251
-428.617	158.322	-0.091	0.126
-427.603	-92.581	-0.174	0.049
-426.588	-85.081	0.406	-0.128
-425.573	-34.117	0.232	-0.128
-424.559	-37.806	-0.364	-0.195
-423.544	216.070	-0.133	0.213
-422.530	588.309	0.055	0.135
-421.515	-167.802	-0.265	0.010
-420.500	800.000	-0.081	-0.235
-419.486	89.157	0.137	-0.153
-418.471	143.333	0.140	-0.187
-417.457	-143.869	-0.167	0.016
-416.442	800.000	0.093	-0.377
-415.428	-15.412	-0.360	0.231
-414.413	800.000	0.067	0.240
-413.398	-47.154	-0.060	0.029
-412.384	-200.000	-0.002	0.132
-411.369	-169.049	-0.311	-0.012
-410.355	-152.125	-0.320	0.023
-409.340	-200.000	0.076	0.534
-408.325	189.911	0.222	0.334
-407.311	85.445	-0.212	0.233
-406.296	125.320	0.213	-0.270
-405.282	-200.000	-0.067	0.301
-404.267	-200.000	0.027	0.123
-403.252	438.041	-0.217	0.475
-402.238	-130.097	-0.315	-0.043
-401.223	-28.906	-0.115	0.066
-400.209	-171.839	-0.144	0.005
-399.194	-107.914	0.156	-0.034
-398.179	-10.333	-0.076	-0.051
-397.165	-200.000	-0.006	0.084
-396.150	-200.000	-0.017	0.179
-395.136	256.926	0.171	-0.294
-394.121	296.625	0.069	-0.127
-393.106	800.000	-0.071	-0.245
-392.092	260.105	0.177	0.307
-391.077	-100.696	-0.338	0.084
-390.063	8.001	0.203	-0.153
-389.048	-151.764	-0.191	0.014
-388.033	-200.000	0.034	0.274
-387.019	-88.121	0.237	0.071
-386.004	-4.385	0.189	0.131
-384.990	139.846	-0.085	0.112
-383.975	-200.000	0.037	-0.229
-382.960	-86.833	-0.195	0.060
-381.946	649.030	0.110	-0.282
-380.931	-114.862	0.202	0.039
-379.917	800.000	-0.022	0.061
-378.902	172.681	0.092	-0.133
-377.888	45.935	0.092	-0.085
-376.873	17.022	0.345	-0.274
-375.858	-11.962	-0.215	-0.141
-374.844	53.583	0.060	-0.058
-373.829	-200.000	0.047	-0.228
-372.815	175.088	-0.332	0.482
-371.800	141.452	-0.099	-0.131
-370.785	562.365	0.070	-0.170
-369.771	220.099	-0.234	0.376
-368.756	-140.719	-0.004	0.000
-367.742	128.806	0.165	-0.211
-366.727	-133.471	-0.070	0.009
-365.712	-200.000	-0.025	0.126
-364.698	800.000	0.085	0.321
-363.683	126.308	-0.254	-0.322
-362.669	7.485	-0.333	0.250
-361.654	-200.000	-0.020	0.461
-360.639	-200.000	0.026	0.201
-359.625	800.000	0.084	-0.296
-358.610	-46.290	0.105	0.051
-357.596	27.511	-0.052	-0.044
-356.581	155.449	-0.039	-0.054
-355.566	-77.472	0.120	-0.042
-354.552	-23.051	-0.060	0.036
-353.537	-75.675	0.130	-0.046
-352.523	-114.684	-0.277	-0.053
-351.508	-38.818	0.250	0.132
-350.493	-127.730	0.087	0.013
-349.479	800.000	-0.097	-0.330
-348.464	-88.380	-0.084	0.025
-347.450	41.379	0.089	0.080
-346.435	28.601	0.115	0.097
-345.420	-130.900	0.201	-0.027
-344.406	65.583	-0.132	0.134
-343.391	155.599	-0.019	0.027
-342.377	-125.077	0.333	0.051
-341.362	280.658	-0.035	0.062
-340.348	-45.178	-0.367	-0.182
-339.333	-108.545	-0.128	0.027
-338.318	118.251	0.227	0.280
-337.304	-53.464	0.100	0.046
-336.289	268.532	-0.173	0.303
-335.275	-79.521	-0.066	0.022
-334.260	120.469	0.097	0.120
-333.245	-200.000	0.041	-0.252
-332.231	-200.000	-0.006	0.140
-331.216	-200.000	-0.015	0.284
-330.202	-119.738	0.158	-0.027
-329.187	-200.000	0.043	0.369
-328.172	800.000	0.026	0.104
-327.158	497.753	-0.069	0.158
-326.143	-92.519	0.053	0.015
-325.129	-200.000	0.057	0.340
-324.114	269.902	-0.030	-0.053
-323.099	-138.990	-0.308	0.033
-322.085	-37.741	-0.072	0.038
-321.070	-17.565	0.216	0.136
-320.056	19.829	-0.163	-0.132
-319.041	111.161	-0.179	0.216
-318.026	-33.189	-0.137	-0.076
-317.012	-98.245	0.208	-0.053
-315.997	152.542	0.124	0.169
-314.983	585.196	0.083	0.204
-313.968	-26.692	0.263	-0.154
-312.953	5.098	-0.264	0.194
-311.939	-15.574	0.077	-0.049
-310.924	-27.810	0.447	-0.259
-309.910	9.465	0.002	-0.002
-308.895	800.000	0.062	0.174
-307.880	-110.066	0.312	-0.065
-306.866	4.593	0.172	0.126
-305.851	-200.000	0.014	-0.172
-304.837	255.713	-0.134	-0.229
-303.822	57.240	0.015	0.014
-302.807	-43.852	0.214	-0.108
-301.793	168.948	0.187	-0.266
-300.778	193.021	0.111	0.168
-299.764	-49.452	-0.127	0.060
-298.749	31.355	-0.199	-0.170
-297.735	523.327	-0.051	-0.119
-296.720	800.000	-0.043	0.134
-295.705	-157.754	0.276	-0.016
-294.691	96.792	-0.111	-0.127
-293.676	194.151	-0.155	-0.235
-292.662	-55.678	-0.212	-0.095
-291.647	-137.092	-0.169	-0.019
-290.632	215.681	-0.134	-0.212
-289.618	-161.920	-0.037	-0.002
-288.603	-30.636	-0.240	0.136
-287.589	-93.638	-0.137	-0.038
-286.574	22.242	0.369	0.301
-285.559	-30.340	0.087	-0.049
-284.545	-144.055	0.119	-0.011
-283.530	-88.969	-0.250	-0.074
-282.516	-88.598	0.429	0.128
-281.501	33.939	-0.124	-0.108
-280.486	238.648	-0.104	-0.172
-279.472	-16.891	0.131	-0.082
-278.457	-25.411	-0.182	0.108
-277.443	-200.000	0.019	-0.104
-276.428	-84.160	0.221	-0.070
-275.413	-200.000	-0.011	0.178
-274.399	800.000	-0.068	-0.230
-273.384	73.105	-0.271	-0.283
-272.370	23.780	0.086	-0.071
-271.355	800.000	-0.080	-0.233
-270.340	-200.000	-0.033	-0.194
-269.326	-60.307	0.347	0.147
-268.311	800.000	0.063	0.189
-267.297	665.951	-0.058	-0.150
-266.282	10.338	0.267	-0.203
-265.267	-146.353	-0.157	-0.014
-264.253	-137.048	0.147	0.017
-263.238	-200.000	-0.008	-0.344
-262.224	18.852	0.067	0.053
-261.209	-39.798	-0.095	-0.049
-260.195	800.000	-0.043	-0.164
-259.180	-87.855	-0.170	0.051
-258.165	306.834	0.068	-0.127
-257.151	-200.000	-0.037	-0.225
-256.136	217.834	0.083	0.133
-255.122	-200.000	0.041	-0.399
-254.107	202.123	-0.027	-0.041
-253.092	-17.449	0.156	-0.098
-252.078	-200.000	-0.061	0.442
-251.063	83.878	-0.146	-0.159
-250.049	-200.000	-0.017	0.145
-249.034	424.904	0.044	0.095
-248.019	-200.000	0.022	0.179
-247.005	-76.839	-0.180	0.063
-245.990	-101.990	0.046	-0.011
-244.976	-3.049	-0.207	0.144
-243.961	-200.000	-0.070	-0.463
-242.946	-101.073	0.131	-0.032
-241.932	320.495	0.069	0.131
-240.917	800.000	0.039	-0.131
-239.903	-49.367	-0.122	-0.058
-238.888	275.224	0.032	-0.056
-237.873	267.120	0.153	0.267
-236.859	-68.841	0.235	0.091
-235.844	-23.731	0.382	0.228
-234.830	362.252	0.110	0.220
-233.815	46.919	-0.092	0.085
-232.800	-9.975	-0.301	0.199
-231.786	800.000	-0.048	0.141
-230.771	-169.385	-0.099	-0.004
-229.757	65.684	-0.240	-0.243
-228.742	-61.830	0.474	0.198
-227.727	-163.074	-0.306	-0.015
-226.713	-80.480	0.270	0.090
-225.698	-3.229	-0.361	-0.251
-224.684	-200.000	-0.055	-0.423
-223.669	56.316	0.241	0.234
-222.655	16.293	0.090	-0.071
-221.640	-200.000	-0.032	-0.181
-220.625	800.000	0.056	-0.192
-219.611	-154.222	-0.148	-0.010
-218.596	-88.090	0.125	-0.037
-217.582	68.432	0.085	-0.086
-216.567	126.197	-0.093	0.117
-215.552	489.733	-0.041	0.093
-214.538	-200.000	0.025	-0.121
-213.523	266.771	0.134	-0.233
-212.509	-84.688	-0.173	-0.054
-211.494	282.539	-0.172	-0.307
-210.479	-200.000	0.007	0.064
-209.465	-168.013	0.180	-0.007
-208.450	-200.000	-0.030	-0.319
-207.436	159.717	0.104	0.145
-206.421	-200.000	0.023	0.450
-205.406	-166.991	-0.058	0.002
-204.392	-200.000	0.040	0.260
-203.377	-166.415	-0.324	-0.014
-202.363	-27.374	0.047	0.027
-201.348	-44.734	-0.211	0.105
-200.333	23.972	0.235	0.193
-199.319	-80.235	0.116	-0.039
-198.304	-111.751	-0.247	0.050
-197.290	-28.482	0.262	-0.150
-196.275	150.292	0.163	-0.221
-195.260	-77.029	0.050	-0.017
-194.246	38.918	0.082	-0.073
-193.231	245.889	-0.119	0.200
-192.217	126.503	0.189	-0.238
-191.202	-15.727	-0.277	-0.176
-190.187	800.000	-0.048	-0.141
-189.173	-200.000	0.010	0.207
-188.158	118.140	-0.129	-0.158
-187.144	-5.703	0.244	0.166
-186.129	-200.000	0.017	-0.264
-185.114	-163.964	0.235	-0.011
-184.100	120.174	-0.235	-0.290
-183.085	3.221	0.330	0.239
-182.071	-74.516	0.197	-0.071
-181.056	-200.000	0.024	-0.316
-180.042	131.826	0.247	-0.316
-179.027	-160.024	-0.066	-0.004
-178.012	70.895	0.138	0.142
-176.998	389.068	-0.152	-0.313
-175.983	395.724	-0.142	0.294
-174.969	-200.000	-0.008	0.067
-173.954	179.684	-0.073	-0.107
-172.939	-200.000	-0.009	0.134
-171.925	89.749	-0.057	0.063
-170.910	10.798	-0.148	-0.113
-169.896	63.663	0.116	-0.116
-168.881	584.265	-0.093	-0.228
-167.866	23.648	0.230	0.188
-166.852	86.060	0.156	0.170
-165.837	655.126	0.084	0.215
-164.823	800.000	-0.048	0.190
-163.808	-68.415	-0.242	0.093
-162.793	40.440	-0.052	0.046
-161.779	-99.415	0.255	-0.064
-160.764	39.080	0.030	0.027
-159.750	52.929	-0.168	0.160
-158.735	50.948	-0.044	-0.041
-157.720	36.589	-0.031	-0.027
-156.706	190.292	0.055	-0.081
-155.691	535.103	0.130	-0.306
-154.677	-197.773	-0.127	-0.001
-153.662	140.537	0.226	0.296
-152.647	5.209	-0.294	-0.215
-151.633	366.665	-0.077	0.155
-150.618	147.420	0.047	-0.062
-149.604	-200.000	0.033	-0.243
-148.589	-73.998	0.113	0.041
-147.574	-40.218	-0.185	-0.096
-146.560	-200.000	0.001	-0.078
-145.545	-65.814	0.178	0.071
-144.531	-46.427	-0.260	0.127
-143.516	312.234	-0.106	0.197
-142.502	-61.153	-0.203	-0.085
-141.487	101.868	-0.267	-0.309
-140.472	-73.024	-0.335	-0.122
-139.458	-52.631	-0.185	-0.085
-138.443	-1.621	0.296	-0.207
-137.429	-64.408	-0.372	0.150
-136.414	-11.809	0.348	-0.226
-135.399	-16.489	0.166	0.105
-134.385	-76.365	0.137	0.048
-133.370	-92.224	-0.244	0.068
-132.356	-173.068	0.249	-0.008
-131.341	43.151	0.201	-0.182
-130.326	-62.177	0.171	0.071
-129.312	20.465	0.331	-0.265
-128.297	-75.212	-0.303	-0.108
-127.283	-78.784	0.163	0.055
-126.268	-81.828	-0.247	0.080
-125.253	-200.000	-0.044	-0.373
-124.239	-4.670	-0.040	-0.027
-123.224	-200.000	-0.027	-0.231
-122.210	-12.897	0.037	-0.024
