DTS Sentinel unit serial number:	SN413079Multiplexer serial number:	ORYXHardware model number:	OX4-SRSoftware version number:	ORYX F/W v4.00 Oryx Data Collector v3.7.2.0data status	okinstallation	princeton_trtdifferential loss correction	single-endedforward channel	channel 1reverse channel	N/Adate	2019/09/12time	19:54:34forward acquisition time	15.00reverse acquisition time	0.00gamma	496.2192k internal	0.2324k external	0.2324temperature offset calibration	1.0136default loss term (dB/km)	0.3790temperature slope calibration	1.0000multiplexer offset coefficient	1.0000multiplexer slope coefficient	1.0000fibre end	0.00T internal ref (°C)	31.87T ext. ref 1 (°C)	3.52T ext. ref 2 (°C)	26.42length (m)	temperature (°C)	Stokes	anti-Stokes-747.200	166.778	-0.110	0.157
-746.185	800.000	-0.100	0.398
-745.171	-200.000	-0.049	0.509
-744.156	-39.134	-0.906	0.481
-743.142	10.328	0.269	-0.207
-742.127	362.738	-0.273	0.554
-741.112	-107.395	0.415	-0.092
-740.098	275.892	-0.302	-0.542
-739.083	-200.000	0.035	-0.182
-738.069	-200.000	-0.061	0.864
-737.054	-138.341	-0.231	-0.026
-736.039	60.218	-0.712	-0.711
-735.025	-40.605	-0.343	0.179
-734.010	-120.925	-0.289	0.049
-732.996	69.146	0.195	-0.202
-731.981	-200.000	-0.019	0.199
-730.966	287.995	0.462	-0.844
-729.952	-49.356	-0.278	-0.134
-728.937	19.671	1.006	-0.817
-727.923	32.475	-0.638	-0.556
-726.908	-106.449	0.668	-0.150
-725.894	109.855	-0.157	-0.190
-724.879	-70.296	0.463	0.177
-723.864	-35.809	0.507	0.277
-722.850	-200.000	0.002	0.149
-721.835	641.870	-0.209	0.538
-720.821	-117.568	0.397	0.072
-719.806	48.425	0.191	-0.180
-718.791	-200.000	0.006	-0.703
-717.777	300.060	-0.146	-0.272
-716.762	-70.957	0.580	-0.220
-715.748	419.437	0.325	0.701
-714.733	-6.248	0.424	0.292
-713.718	226.982	-0.388	0.636
-712.704	162.597	-0.133	-0.188
-711.689	-200.000	0.054	-0.341
-710.675	-155.294	0.335	-0.022
-709.660	-125.864	1.141	-0.174
-708.645	-200.000	0.031	0.530
-707.631	181.871	0.163	0.242
-706.616	-200.000	-0.148	-0.876
-705.602	-78.961	0.336	0.115
-704.587	2.528	-0.661	0.483
-703.572	-200.000	-0.005	-0.123
-702.558	-107.538	-0.818	-0.181
-701.543	396.040	0.203	-0.427
-700.529	-60.181	0.393	-0.169
-699.514	-69.412	-0.448	-0.173
-698.499	800.000	0.119	-0.358
-697.485	-70.077	-0.604	0.232
-696.470	-200.000	-0.007	0.654
-695.456	99.546	-0.392	-0.457
-694.441	-101.959	-0.448	0.109
-693.426	-19.417	-0.259	0.162
-692.412	-141.661	-0.882	-0.089
-691.397	-4.268	-0.314	0.219
-690.383	-63.657	0.365	-0.151
-689.368	-3.676	-0.354	-0.248
-688.354	-12.992	-0.192	0.126
-687.339	-77.086	-0.099	-0.035
-686.324	360.581	-0.464	-0.935
-685.310	153.556	-0.555	-0.766
-684.295	800.000	0.138	-0.384
-683.281	22.775	-0.255	-0.210
-682.266	800.000	0.194	0.678
-681.251	-92.835	-0.256	-0.072
-680.237	-200.000	0.012	-0.703
-679.222	-37.492	-0.310	0.167
-678.208	220.650	0.152	0.245
-677.193	127.362	0.405	0.517
-676.178	2.493	-0.941	0.686
-675.164	42.412	-0.515	0.472
-674.149	-109.608	-0.819	-0.174
-673.135	56.980	0.328	-0.321
-672.120	-38.466	0.828	0.441
-671.105	102.834	-0.184	-0.217
-670.091	137.163	-0.168	-0.221
-669.076	800.000	0.240	0.785
-668.062	-200.000	0.079	0.811
-667.047	-200.000	0.008	0.341
-666.032	-131.599	0.410	-0.054
-665.018	-120.865	-0.582	0.099
-664.003	-184.785	1.182	-0.019
-662.989	711.743	-0.137	-0.366
-661.974	-100.425	0.330	-0.082
-660.959	-56.271	-0.256	-0.114
-659.945	78.841	0.259	-0.279
-658.930	37.923	-0.232	0.207
-657.916	565.143	0.325	0.793
-656.901	150.547	0.192	0.262
-655.886	800.000	-0.144	-0.431
-654.872	22.317	0.265	0.218
-653.857	-149.910	0.574	-0.045
-652.843	-102.196	0.609	-0.147
-651.828	800.000	0.225	-0.653
-650.814	203.993	-0.264	-0.412
-649.799	254.004	0.579	-0.996
-648.784	-200.000	0.006	-0.045
-647.770	-200.000	-0.003	0.554
-646.755	370.121	-0.282	0.575
-645.741	-22.450	-0.481	-0.293
-644.726	65.469	-0.210	0.214
-643.711	82.754	-0.083	0.091
-642.697	159.444	0.434	0.608
-641.682	74.566	0.315	-0.333
-640.668	10.177	0.224	0.171
-639.653	-111.907	-0.200	-0.041
-638.638	-142.043	-0.651	0.065
-637.624	-88.880	-0.759	0.226
-636.609	-200.000	0.075	-0.803
-635.595	-170.848	-0.725	-0.025
-634.580	16.765	0.438	-0.349
-633.565	800.000	0.098	0.373
-632.551	202.718	0.227	-0.353
-631.536	-68.993	-0.648	-0.251
-630.522	-86.431	-0.394	0.122
-629.507	135.775	0.024	0.031
-628.492	-154.633	-0.666	0.045
-627.478	-2.224	-0.852	-0.601
-626.463	-119.415	0.096	-0.017
-625.449	800.000	0.070	0.203
-624.434	-101.924	0.288	-0.070
-623.419	-53.506	0.633	0.291
-622.405	-103.924	0.617	0.145
-621.390	-93.265	-0.015	0.004
-620.376	800.000	-0.259	0.783
-619.361	650.985	-0.063	0.161
-618.346	-54.279	-0.266	-0.121
-617.332	-106.578	0.388	-0.087
-616.317	-200.000	0.002	0.432
-615.303	447.176	0.117	0.260
-614.288	800.000	0.231	-0.813
-613.273	-200.000	-0.098	-0.502
-612.259	-200.000	-0.026	-0.300
-611.244	192.441	0.415	-0.630
-610.230	89.054	0.365	0.408
-609.215	56.889	-0.383	0.375
-608.201	800.000	-0.409	-1.326
-607.186	-200.000	0.030	0.522
-606.171	800.000	0.107	0.377
-605.157	295.992	-0.559	1.029
-604.142	-26.121	0.177	0.105
-603.128	-192.251	0.763	-0.007
-602.113	281.586	0.423	-0.762
-601.098	49.920	-0.320	-0.303
-600.084	181.064	0.468	0.690
-599.069	251.006	0.310	0.529
-598.055	-52.481	0.668	0.310
-597.040	233.674	-0.330	0.545
-596.025	28.288	-0.377	0.320
-595.011	-200.000	0.050	-0.503
-593.996	-200.000	0.085	0.627
-592.982	-152.924	-0.113	0.008
-591.967	115.547	0.252	-0.309
-590.952	-191.234	0.837	-0.009
-589.938	432.412	-0.050	-0.108
-588.923	560.233	0.287	-0.695
-587.909	-200.000	0.038	-0.220
-586.894	-200.000	0.038	0.278
-585.879	238.992	-0.296	0.493
-584.865	800.000	-0.207	-0.604
-583.850	800.000	-0.174	0.627
-582.836	-200.000	0.012	-0.105
-581.821	-43.341	0.457	0.232
-580.806	-66.252	0.088	-0.035
-579.792	368.758	0.174	-0.353
-578.777	-200.000	-0.018	0.500
-577.763	315.980	-0.284	-0.538
-576.748	511.562	0.240	-0.560
-575.733	565.927	0.189	0.460
-574.719	800.000	-0.166	0.712
-573.704	-67.113	0.352	0.139
-572.690	-200.000	-0.056	-0.463
-571.675	-58.267	-0.744	-0.325
-570.661	-17.349	0.739	0.467
-569.646	287.393	-0.374	-0.678
-568.631	273.362	-0.456	-0.808
-567.617	-200.000	-0.100	0.473
-566.602	-168.711	-0.595	0.023
-565.588	800.000	0.205	-0.582
-564.573	159.183	0.420	0.585
-563.558	-110.611	-0.503	-0.104
-562.544	-32.900	0.104	0.058
-561.529	-56.841	0.213	-0.094
-560.515	-200.000	0.050	-0.768
-559.500	-90.185	0.404	-0.118
-558.485	-200.000	0.000	0.384
-557.471	-200.000	0.039	0.924
-556.456	65.174	0.129	0.131
-555.442	-148.529	-0.243	-0.020
-554.427	-200.000	-0.146	-0.927
-553.412	96.823	-0.507	-0.582
-552.398	-32.222	-0.411	-0.230
-551.383	-153.601	0.400	0.028
-550.369	732.834	-0.298	0.800
-549.354	-200.000	0.014	-0.410
-548.339	76.547	0.327	-0.348
-547.325	800.000	0.104	0.312
-546.310	154.136	0.406	0.558
-545.296	-37.855	-0.722	-0.385
-544.281	-68.985	0.902	-0.348
-543.266	800.000	0.214	-0.742
-542.252	-155.686	-0.886	0.057
-541.237	-200.000	0.026	0.372
-540.223	800.000	0.190	-0.691
-539.208	-200.000	0.060	0.430
-538.193	-144.146	0.236	-0.022
-537.179	-7.441	-0.564	-0.382
-536.164	-104.384	-1.027	0.238
-535.150	800.000	0.184	0.736
-534.135	-72.560	-0.817	0.302
-533.121	158.677	-0.236	-0.329
-532.106	-139.277	0.319	0.034
-531.091	-24.728	-0.914	0.544
-530.077	60.441	0.657	0.651
-529.062	-3.313	0.735	-0.513
-528.048	-6.744	-0.090	0.061
-527.033	-91.691	-0.803	0.229
-526.018	331.706	0.138	0.266
-525.004	15.783	-0.371	-0.292
-523.989	-115.584	-0.307	0.058
-522.975	15.204	-0.330	-0.259
-521.960	358.329	-0.232	0.463
-520.945	36.014	0.126	-0.111
-519.931	-22.792	-0.319	-0.193
-518.916	431.872	0.502	1.090
-517.902	259.059	0.371	0.641
-516.887	-96.235	0.173	-0.046
-515.872	800.000	-0.139	-0.481
-514.858	-78.113	-0.465	0.160
-513.843	-105.552	0.312	0.071
-512.829	800.000	0.228	-0.730
-511.814	-200.000	0.011	-1.246
-510.799	341.571	-0.094	0.184
-509.785	21.734	-0.078	-0.063
-508.770	-96.754	-1.785	0.470
-507.756	84.071	-0.379	-0.414
-506.741	-95.359	0.534	-0.144
-505.726	168.200	-0.215	0.306
-504.712	-200.000	0.045	-0.332
-503.697	-56.809	-0.187	0.083
-502.683	31.655	-0.216	0.186
-501.668	-200.000	-0.020	0.581
-500.653	8.525	0.342	0.257
-499.639	34.801	-0.689	0.603
-498.624	-41.557	-0.392	-0.202
-497.610	800.000	-0.071	-0.254
-496.595	28.063	0.132	0.111
-495.581	134.037	-0.377	-0.489
-494.566	315.182	0.092	-0.173
-493.551	-123.755	-0.208	-0.033
-492.537	-200.000	-0.143	-0.714
-491.522	263.956	-0.122	0.212
-490.508	-142.638	0.820	-0.080
-489.493	-110.007	-0.453	0.095
-488.478	-200.000	-0.052	0.656
-487.464	-175.358	1.160	-0.032
-486.449	214.036	0.274	-0.434
-485.435	71.526	0.494	0.512
-484.420	-54.478	-0.303	0.137
-483.405	-200.000	0.115	-0.883
-482.391	302.207	-0.403	0.745
-481.376	-30.669	0.065	-0.037
-480.362	-76.470	0.500	0.176
-479.347	-200.000	0.022	0.551
-478.332	116.665	-0.320	0.393
-477.318	5.502	-0.371	-0.274
-476.303	-77.069	-0.418	0.146
-475.289	36.018	-0.511	-0.450
-474.274	-200.000	-0.067	-0.390
-473.259	53.265	-0.918	0.879
-472.245	-154.487	-0.558	-0.037
-471.230	21.221	-0.333	-0.270
-470.216	40.569	-0.362	-0.326
-469.201	517.611	-0.173	0.405
-468.186	-200.000	0.023	-0.099
-467.172	-29.604	0.649	0.370
-466.157	471.568	-0.474	-1.066
-465.143	-3.147	1.113	-0.775
-464.128	86.797	-0.674	-0.743
-463.113	800.000	-0.072	0.214
-462.099	-110.839	0.048	0.010
-461.084	-28.827	-0.460	-0.264
-460.070	177.063	-0.471	-0.684
-459.055	800.000	0.131	-0.398
-458.040	-14.627	0.242	0.155
-457.026	50.511	-0.180	0.170
-456.011	238.780	0.338	0.562
-454.997	-107.233	0.301	0.066
-453.982	-57.054	-0.295	-0.130
-452.968	-145.497	-0.346	0.031
-451.953	-200.000	-0.089	-0.743
-450.938	-200.000	0.181	-0.985
-449.924	-123.871	0.615	0.097
-448.909	-14.124	0.202	-0.130
-447.895	636.180	-0.033	0.083
-446.880	-104.715	-0.373	0.086
-445.865	-144.204	0.802	0.075
-444.851	-200.000	-0.093	0.757
-443.836	800.000	0.089	-0.284
-442.822	97.160	-0.389	0.445
-441.807	261.353	0.598	-1.034
-440.792	-24.572	0.401	-0.238
-439.778	-106.870	-0.519	-0.115
-438.763	-19.501	-0.446	-0.276
-437.749	31.497	0.448	0.384
-436.734	-200.000	0.162	-0.924
-435.719	-18.049	-0.682	0.426
-434.705	-36.478	-1.029	0.552
-433.690	292.239	-0.426	0.774
-432.676	-98.347	0.689	0.176
-431.661	185.967	0.021	0.031
-430.646	-123.511	0.197	-0.031
-429.632	-6.220	-0.313	-0.213
-428.617	113.140	-0.400	0.484
-427.603	139.064	-0.227	0.298
-426.588	80.022	-0.591	0.633
-425.573	-80.973	0.401	-0.132
-424.559	-200.000	0.023	-0.307
-423.544	-117.276	0.551	0.100
-422.530	190.159	-0.575	0.861
-421.515	-38.579	-0.376	-0.198
-420.500	-200.000	-0.004	0.336
-419.486	-9.113	1.472	-0.982
-418.471	305.236	0.124	-0.230
-417.457	800.000	0.088	0.256
-416.442	800.000	-0.016	-0.051
-415.428	535.373	0.486	1.149
-414.413	58.801	-0.250	0.244
-413.398	-2.176	-0.752	0.526
-412.384	15.069	0.687	-0.537
-411.369	270.202	0.252	0.441
-410.355	-123.361	0.544	0.087
-409.340	0.219	-0.295	-0.210
-408.325	679.383	-0.195	0.507
-407.311	-29.896	0.614	-0.349
-406.296	-81.602	-1.045	0.342
-405.282	105.284	0.740	-0.870
-404.267	-115.436	-0.314	0.059
-403.252	128.122	0.369	0.468
-402.238	-166.858	-0.467	0.019
-401.223	-200.000	0.114	0.603
-400.209	67.132	-0.556	0.564
-399.194	-151.937	-0.029	0.002
-398.179	310.883	0.367	-0.684
-397.165	-200.000	-0.007	-0.295
-396.150	-105.235	-0.636	0.145
-395.136	-178.456	0.838	0.019
-394.121	350.994	-0.272	-0.535
-393.106	70.320	0.381	0.392
-392.092	-149.991	0.549	0.043
-391.077	181.646	0.210	0.308
-390.063	-200.000	-0.020	0.413
-389.048	435.416	-0.493	-1.068
-388.033	-200.000	0.007	0.387
-387.019	415.674	0.137	0.292
-386.004	800.000	-0.154	0.509
-384.990	-93.307	0.774	0.214
-383.975	-168.948	-0.288	-0.011
-382.960	-69.886	0.187	-0.071
-381.946	-79.941	-0.434	0.145
-380.931	-53.043	0.046	0.021
-379.917	509.147	-0.258	0.596
-378.902	112.761	-0.417	-0.503
-377.888	-24.796	0.661	0.391
-376.873	-200.000	0.093	0.462
-375.858	196.137	0.038	0.057
-374.844	-95.333	-0.512	-0.137
-373.829	-22.537	-0.451	-0.271
-372.815	-104.891	-1.013	-0.231
-371.800	-200.000	0.063	-0.339
-370.785	160.985	-0.312	-0.434
-369.771	286.178	-0.070	-0.125
-368.756	134.339	0.302	-0.389
-367.742	716.622	-0.140	-0.369
-366.727	-92.528	-0.252	0.070
-365.712	-31.231	0.708	0.397
-364.698	-122.354	-0.192	-0.031
-363.683	338.514	-0.101	-0.196
-362.669	532.703	0.125	0.294
-361.654	112.008	-0.105	0.126
-360.639	-200.000	-0.655	0.001
-359.625	216.804	0.447	-0.707
-358.610	-143.191	-0.206	0.020
-357.596	375.117	0.173	0.351
-356.581	-200.000	0.000	0.630
-355.566	371.541	-0.285	-0.575
-354.552	-97.513	-0.453	-0.117
-353.537	354.385	0.172	0.340
-352.523	-200.000	0.096	0.707
-351.508	354.231	0.146	0.288
-350.493	-46.453	0.373	-0.182
-349.479	800.000	-0.168	0.485
-348.464	162.814	-0.192	-0.268
-347.450	800.000	-0.245	-0.852
-346.435	-139.589	0.438	-0.046
-345.420	800.000	0.094	-0.332
-344.406	240.370	-0.508	-0.842
-343.391	800.000	0.159	-0.498
-342.377	120.420	-0.512	0.631
-341.362	-66.465	-0.831	-0.328
-340.348	68.117	0.688	0.700
-339.333	-102.854	-0.549	-0.130
-338.318	-200.000	-0.064	-0.402
-337.304	-146.316	-1.438	0.125
-336.289	-132.763	0.523	-0.066
-335.275	-99.273	-0.375	-0.094
-334.260	-44.187	0.538	-0.268
-333.245	33.739	0.255	0.220
-332.231	-200.000	-0.026	0.616
-331.216	800.000	0.123	-0.458
-330.202	-107.862	0.744	-0.161
-329.187	-200.000	-0.076	-0.576
-328.172	-6.805	0.460	0.311
-327.158	-82.533	-0.136	-0.044
-326.143	50.857	0.640	0.602
-325.129	746.399	0.220	-0.588
-324.114	48.680	-0.707	-0.658
-323.099	-200.000	-0.079	-1.028
-322.085	-200.000	-0.012	-0.441
-321.070	-55.956	0.839	-0.372
-320.056	-195.127	0.222	0.002
-319.041	32.605	0.188	-0.162
-318.026	16.835	-0.588	-0.462
-317.012	-148.421	0.499	0.041
-315.997	-44.130	0.610	0.304
-314.983	-6.349	-0.638	0.432
-313.968	-33.201	-1.244	0.684
-312.953	92.462	0.397	-0.444
-311.939	-68.030	0.287	-0.111
-310.924	112.172	0.332	0.399
-309.910	212.368	0.492	-0.770
-308.895	800.000	0.260	-0.763
-307.880	-200.000	0.097	0.631
-306.866	-68.366	0.376	-0.145
-305.851	102.821	-0.729	-0.847
-304.837	-75.260	-0.143	0.051
-303.822	800.000	0.219	0.642
-302.807	-27.983	-0.464	-0.266
-301.793	57.716	0.576	0.559
-300.778	-10.333	-1.061	0.698
-299.764	-72.142	-0.198	-0.073
-298.749	307.497	0.180	0.334
-297.735	225.427	0.485	0.780
-296.720	-48.248	-0.306	0.146
-295.705	145.082	-0.414	-0.549
-294.691	12.325	0.194	-0.149
-293.676	390.344	0.262	0.539
-292.662	122.904	0.603	0.748
-291.647	800.000	-0.302	-1.039
-290.632	113.645	0.526	-0.633
-289.618	-137.303	0.574	-0.065
-288.603	-36.341	0.397	0.212
-287.589	-118.911	0.472	0.082
-286.574	-145.026	-0.470	-0.042
-285.559	-200.000	0.072	-0.347
-284.545	-124.612	-0.711	-0.109
-283.530	-115.153	0.748	0.140
-282.516	160.619	0.283	0.392
-281.501	-200.000	0.029	-0.392
-280.486	-49.374	0.235	-0.111
-279.472	-125.749	-0.463	-0.069
-278.457	378.631	0.176	0.358
-277.443	94.214	-0.247	-0.278
-276.428	-200.000	0.011	0.576
-275.413	372.202	0.262	0.528
-274.399	-53.889	0.500	-0.226
-273.384	203.523	-0.320	-0.491
-272.370	-53.178	0.280	-0.127
-271.355	252.699	-0.214	0.361
-270.340	-200.000	0.155	-0.850
-269.326	-150.235	-0.193	-0.015
-268.311	-133.164	1.033	0.130
-267.297	800.000	0.194	-0.744
-266.282	-200.000	-0.092	0.440
-265.267	-135.959	0.551	-0.064
-264.253	-53.532	0.531	0.241
-263.238	-4.416	-0.511	0.350
-262.224	-50.385	0.341	-0.159
-261.209	38.791	-0.251	0.222
-260.195	187.825	0.129	-0.191
-259.180	206.620	-0.362	0.559
-258.165	30.814	0.773	0.656
-257.151	208.895	-0.507	0.785
-256.136	153.548	0.137	0.186
-255.122	-145.678	-0.113	0.010
-254.107	-200.000	0.059	-0.347
-253.092	-98.157	0.574	-0.146
-252.078	-200.000	0.017	-0.299
-251.063	84.381	0.661	0.716
-250.049	-39.586	0.703	-0.364
-249.034	-118.146	0.842	0.149
-248.019	33.726	0.375	0.323
-247.005	-40.220	0.185	0.095
-245.990	-42.703	-0.580	0.292
-244.976	-67.397	0.216	0.084
-243.961	228.948	0.233	0.377
-242.946	111.580	-0.472	0.563
-241.932	81.861	-0.420	0.451
-240.917	674.968	-0.180	-0.463
-239.903	-103.615	0.424	-0.099
-238.888	313.973	0.118	-0.220
-237.873	236.949	-0.352	-0.578
-236.859	352.613	-0.129	0.253
-235.844	12.885	-0.395	0.302
-234.830	4.272	0.839	-0.608
-233.815	-200.000	-0.118	-0.833
-232.800	-49.356	0.477	0.225
-231.786	37.456	-0.369	0.323
-230.771	-145.729	-0.446	0.039
-229.757	105.991	-0.436	0.510
-228.742	800.000	0.203	0.611
-227.727	-158.109	0.477	-0.028
-226.713	-85.195	-0.877	0.271
-225.698	395.285	0.461	0.951
-224.684	355.615	-0.314	0.619
-223.669	136.855	0.398	-0.514
-222.655	213.275	0.230	-0.360
-221.640	-200.000	0.012	-0.160
-220.625	93.720	-0.311	-0.348
-219.611	-159.564	0.576	0.032
-218.596	22.944	-0.713	-0.578
-217.582	-46.023	0.793	-0.386
-216.567	217.960	-0.251	0.396
-215.552	-200.000	-0.015	0.585
-214.538	-200.000	-0.125	0.608
-213.523	106.925	0.401	-0.471
-212.509	326.631	0.231	-0.437
-211.494	117.783	0.663	-0.807
-210.479	-200.000	0.014	0.261
-209.465	-81.460	0.516	-0.168
-208.450	-71.296	0.189	-0.070
-207.436	800.000	0.203	-0.833
-206.421	223.470	-0.156	0.248
-205.406	-113.416	1.178	0.228
-204.392	-14.266	0.580	-0.369
-203.377	8.563	-0.614	-0.457
-202.363	-200.000	0.062	-0.407
-201.348	-200.000	-0.000	-0.463
-200.333	-130.357	-0.124	-0.017
-199.319	800.000	0.206	-0.708
-198.304	-200.000	-0.105	0.523
-197.290	-200.000	-0.061	-0.753
-196.275	-200.000	0.185	-1.231
-195.260	58.590	0.442	-0.429
-194.246	356.591	-0.279	-0.549
-193.231	33.668	-0.478	0.410
-192.217	-15.955	-0.334	-0.210
-191.202	-36.441	-0.312	0.166
-190.187	-82.336	-1.093	-0.351
-189.173	-129.883	-0.245	-0.033
-188.158	28.113	-0.677	-0.564
-187.144	-141.762	-0.342	-0.034
-186.129	-35.137	0.130	-0.070
-185.114	-200.000	-0.047	0.392
-184.100	-200.000	-0.039	0.470
-183.085	-98.964	-0.090	0.023
-182.071	-54.100	-0.858	0.385
-181.056	11.623	-0.283	0.214
-180.042	-150.611	-0.572	-0.043
-179.027	-200.000	-0.018	-0.296
-178.012	396.445	0.419	0.864
-176.998	375.679	-0.197	0.397
-175.983	37.156	-0.256	-0.224
-174.969	232.413	0.048	0.077
-173.954	-200.000	0.002	0.067
-172.939	800.000	0.135	0.564
-171.925	800.000	-0.016	0.051
-170.910	-200.000	0.084	1.372
-169.896	164.546	-0.150	-0.208
-168.881	273.797	0.232	-0.405
-167.866	263.586	0.422	-0.725
-166.852	-200.000	0.033	0.600
-165.837	800.000	0.067	-0.230
-164.823	5.885	0.315	-0.230
-163.808	-112.169	0.499	0.099
-162.793	32.352	-0.719	0.613
-161.779	29.759	-0.375	0.315
-160.764	-76.473	-0.322	0.112
-159.750	-40.085	1.055	0.543
-158.735	-6.871	0.065	0.044
-157.720	-42.003	0.520	0.263
-156.706	-103.656	1.054	0.244
-155.691	58.301	0.550	0.533
-154.677	14.573	0.495	0.382
-153.662	800.000	0.232	-0.768
-152.647	337.150	0.092	-0.177
-151.633	-52.079	-0.291	0.133
-150.618	-104.628	-0.337	-0.077
-149.604	9.435	-0.112	-0.084
-148.589	-200.000	0.000	-0.476
-147.574	-83.073	0.245	0.078
-146.560	50.108	-0.099	-0.092
-145.545	-141.402	0.345	0.035
-144.531	-45.445	-0.100	-0.049
-143.516	-40.436	0.818	-0.419
-142.502	85.268	-0.533	0.576
-141.487	142.580	0.186	0.244
-140.472	-103.996	-0.309	-0.071
-139.458	138.829	0.736	-0.953
-138.443	148.046	0.111	0.148
-137.429	800.000	-0.068	-0.213
-136.414	332.205	0.066	0.125
-135.399	800.000	-0.005	-0.017
-134.385	12.637	0.135	0.103
-133.370	-200.000	0.560	0.003
-132.356	-100.225	0.580	0.142
-131.341	-117.315	0.108	-0.019
-130.326	97.242	0.458	-0.518
-129.312	-200.000	0.212	-1.060
-128.297	15.684	0.282	-0.219
-127.283	-58.923	0.844	-0.360
-126.268	747.889	-0.263	0.699
-125.253	-108.896	0.359	0.076
-124.239	-200.000	0.155	0.001
-123.224	144.485	0.206	0.271
-122.210	-95.560	-0.482	-0.127
-121.195	-13.691	0.981	0.626
