DTS Sentinel unit serial number:	SN413079Multiplexer serial number:	ORYXHardware model number:	OX4-SRSoftware version number:	ORYX F/W v4.00 Oryx Data Collector v3.7.2.0data status	okinstallation	princeton_trtdifferential loss correction	single-endedforward channel	channel 1reverse channel	N/Adate	2019/09/18time	08:38:35forward acquisition time	60.00reverse acquisition time	0.00gamma	496.2192k internal	0.2337k external	0.2337temperature offset calibration	0.9978default loss term (dB/km)	0.3790temperature slope calibration	1.0000multiplexer offset coefficient	1.0000multiplexer slope coefficient	1.0000fibre end	0.00T internal ref (°C)	24.50T ext. ref 1 (°C)	0.22T ext. ref 2 (°C)	20.22length (m)	temperature (°C)	Stokes	anti-Stokes-747.200	52.285	0.095	-0.091
-746.185	-200.000	0.010	-0.073
-745.171	-2.503	-0.091	-0.064
-744.156	57.692	-0.140	0.137
-743.142	-200.000	-0.005	-0.046
-742.127	-200.000	0.022	0.218
-741.112	64.510	-0.266	0.269
-740.098	407.704	0.098	0.207
-739.083	-105.808	0.362	-0.082
-738.069	132.221	-0.357	0.462
-737.054	419.532	-0.036	-0.078
-736.039	544.566	-0.090	-0.217
-735.025	219.381	-0.254	0.408
-734.010	449.305	0.039	-0.087
-732.996	300.369	-0.068	0.126
-731.981	-1.577	0.245	-0.173
-730.966	-63.946	0.117	-0.048
-729.952	0.047	-0.190	0.136
-728.937	-157.861	0.231	0.014
-727.923	-200.000	-0.004	-0.026
-726.908	800.000	0.030	-0.091
-725.894	-87.846	-0.208	-0.063
-724.879	-97.606	-0.123	0.032
-723.864	-61.006	0.087	-0.037
-722.850	-17.543	-0.387	-0.244
-721.835	-116.577	0.061	-0.011
-720.821	-44.674	-0.111	0.056
-719.806	800.000	0.009	0.038
-718.791	-105.457	0.072	-0.016
-717.777	-69.457	-0.109	-0.042
-716.762	-79.855	-0.385	0.130
-715.748	-37.140	-0.311	-0.167
-714.733	-200.000	-0.059	-0.423
-713.718	118.622	0.088	-0.108
-712.704	-200.000	-0.066	0.394
-711.689	90.687	0.267	-0.300
-710.675	800.000	0.050	-0.145
-709.660	-41.114	0.059	0.031
-708.645	800.000	0.083	-0.262
-707.631	105.399	0.190	-0.225
-706.616	42.998	-0.185	0.169
-705.602	78.260	0.109	-0.116
-704.587	800.000	0.053	-0.201
-703.572	402.508	-0.058	0.122
-702.558	-49.371	-0.231	-0.111
-701.543	-69.956	-0.192	0.073
-700.529	800.000	-0.047	-0.178
-699.514	-135.120	-0.105	0.013
-698.499	-200.000	-0.015	-0.266
-697.485	150.007	0.161	0.219
-696.470	-200.000	0.025	0.284
-695.456	-62.988	0.276	0.114
-694.441	-200.000	-0.024	0.267
-693.426	72.161	0.105	0.109
-692.412	-190.379	-0.221	0.002
-691.397	800.000	0.021	0.069
-690.383	18.190	-0.386	0.308
-689.368	-200.000	-0.044	-0.277
-688.354	800.000	0.067	0.280
-687.339	9.151	-0.066	-0.050
-686.324	416.287	-0.055	-0.118
-685.310	-85.600	-0.395	0.123
-684.295	-162.349	0.231	0.011
-683.281	-60.401	-0.092	0.039
-682.266	800.000	0.056	0.155
-681.251	89.740	-0.276	0.308
-680.237	-125.076	-0.108	0.017
-679.222	337.905	-0.029	-0.057
-678.208	800.000	-0.058	0.168
-677.193	-200.000	0.001	0.172
-676.178	-10.025	-0.369	-0.246
-675.164	-5.166	0.209	-0.144
-674.149	119.134	0.244	-0.303
-673.135	102.803	-0.395	-0.463
-672.120	16.659	-0.063	0.050
-671.105	31.449	-0.360	-0.309
-670.091	-147.194	-0.162	0.014
-669.076	-74.429	-0.221	0.080
-668.062	432.816	-0.051	-0.111
-667.047	-15.994	0.234	-0.149
-666.032	142.754	-0.180	-0.240
-665.018	181.208	0.146	-0.215
-664.003	800.000	0.087	-0.300
-662.989	72.758	-0.226	0.236
-661.974	-200.000	0.021	-0.096
-660.959	-83.351	-0.241	0.077
-659.945	-53.617	0.107	-0.049
-658.930	-200.000	0.025	-0.446
-657.916	386.039	-0.221	-0.457
-656.901	-106.882	0.697	0.155
-655.886	-121.359	0.137	-0.023
-654.872	-40.497	-0.264	-0.137
-653.857	800.000	-0.031	-0.120
-652.843	53.678	0.170	0.164
-651.828	-84.598	0.090	-0.028
-650.814	-200.000	0.036	-0.298
-649.799	288.000	-0.111	0.201
-648.784	-70.568	-0.342	0.129
-647.770	-140.809	0.312	-0.032
-646.755	-14.539	-0.245	0.158
-645.741	202.153	-0.112	-0.173
-644.726	800.000	-0.058	0.183
-643.711	393.160	-0.093	0.194
-642.697	-16.863	0.323	-0.204
-641.682	-200.000	-0.019	-0.255
-640.668	-87.734	0.340	0.102
-639.653	-200.000	-0.015	-0.244
-638.638	322.454	0.085	-0.162
-637.624	800.000	-0.069	0.255
-636.609	30.555	0.073	0.063
-635.595	454.938	0.229	-0.507
-634.580	800.000	-0.059	-0.174
-633.565	177.966	-0.092	0.135
-632.551	335.335	-0.220	-0.426
-631.536	-200.000	0.105	-0.000
-630.522	334.950	-0.113	0.218
-629.507	800.000	0.032	-0.124
-628.492	-119.362	0.136	-0.024
-627.478	-109.453	-0.056	0.012
-626.463	-200.000	0.045	0.323
-625.449	-20.309	-0.221	-0.136
-624.434	100.605	-0.168	-0.195
-623.419	-200.000	0.017	0.256
-622.405	-3.282	0.093	0.065
-621.390	-16.297	-0.272	-0.173
-620.376	204.184	-0.338	-0.523
-619.361	-85.767	0.303	0.094
-618.346	-62.546	-0.112	0.047
-617.332	-87.911	0.379	-0.114
-616.317	-30.388	0.112	0.064
-615.303	-6.635	-0.127	0.086
-614.288	100.381	-0.032	-0.037
-613.273	-200.000	0.028	0.260
-612.259	-200.000	-0.015	0.290
-611.244	302.318	0.102	-0.188
-610.230	-200.000	-0.027	-0.359
-609.215	8.225	-0.067	0.050
-608.201	-32.134	0.215	-0.120
-607.186	-148.955	-0.248	0.020
-606.171	28.007	0.112	0.094
-605.157	-200.000	-0.005	-0.050
-604.142	205.827	-0.203	-0.315
-603.128	216.118	0.136	0.216
-602.113	91.978	0.082	-0.092
-601.098	-14.570	-0.333	-0.214
-600.084	-10.380	-0.417	-0.276
-599.069	-47.942	-0.108	0.052
-598.055	-27.575	-0.178	-0.103
-597.040	-200.000	0.013	-0.231
-596.025	376.894	0.043	-0.088
-595.011	-103.973	-0.137	-0.032
-593.996	173.507	0.190	0.274
-592.982	-87.189	-0.027	0.008
-591.967	283.093	0.056	-0.101
-590.952	143.182	0.165	-0.219
-589.938	1.445	-0.208	0.149
-588.923	0.847	0.186	-0.133
-587.909	236.687	-0.102	0.169
-586.894	800.000	0.059	-0.189
-585.879	-69.976	-0.375	0.143
-584.865	740.226	-0.042	0.112
-583.850	243.299	0.108	-0.181
-582.836	-89.524	-0.223	0.065
-581.821	-108.879	-0.199	0.042
-580.806	-200.000	-0.013	-0.061
-579.792	591.976	0.103	0.254
-578.777	-86.498	0.087	-0.027
-577.763	348.341	0.067	-0.131
-576.748	33.698	-0.297	0.257
-575.733	-142.545	0.069	0.007
-574.719	345.597	0.113	-0.221
-573.704	36.529	-0.097	0.085
-572.690	-36.604	0.118	-0.063
-571.675	534.488	0.073	0.173
-570.661	-89.003	0.053	-0.016
-569.646	-200.000	-0.003	-0.195
-568.631	220.227	-0.101	0.161
-567.617	-27.597	0.066	0.038
-566.602	-31.644	0.228	-0.128
-565.588	78.672	-0.102	-0.109
-564.573	800.000	-0.090	-0.311
-563.558	-77.088	0.200	0.069
-562.544	-200.000	0.053	-0.377
-561.529	-137.091	-0.276	-0.031
-560.515	-200.000	-0.016	-0.189
-559.500	-58.199	0.266	0.116
-558.485	-84.339	-0.131	0.041
-557.471	396.032	-0.088	-0.184
-556.456	800.000	0.043	0.157
-555.442	-62.663	0.055	-0.023
-554.427	-168.574	-0.076	0.003
-553.412	800.000	-0.091	0.271
-552.398	-109.382	0.298	0.063
-551.383	303.665	-0.235	0.434
-550.369	136.624	0.024	0.031
-549.354	-57.482	-0.219	-0.096
-548.339	31.029	0.271	-0.231
-547.325	-25.804	-0.264	-0.155
-546.310	-83.701	-0.182	0.058
-545.296	684.872	-0.103	0.268
-544.281	-66.402	-0.298	0.118
-543.266	-200.000	-0.016	-0.157
-542.252	800.000	-0.058	-0.190
-541.237	90.392	0.216	0.241
-540.223	40.915	-0.167	0.151
-539.208	-200.000	0.036	0.201
-538.193	136.511	-0.122	-0.158
-537.179	-19.287	-0.233	-0.144
-536.164	-200.000	0.016	0.297
-535.150	74.603	-0.130	-0.137
-534.135	-46.089	-0.368	-0.180
-533.121	-178.114	-0.067	0.002
-532.106	-125.743	0.141	-0.021
-531.091	284.416	0.140	-0.251
-530.077	36.357	-0.271	-0.238
-529.062	-200.000	-0.023	-0.334
-528.048	469.363	0.099	0.222
-527.033	349.580	0.147	0.289
-526.018	-200.000	0.021	-0.414
-525.004	44.232	0.296	-0.270
-523.989	-10.556	-0.088	-0.058
-522.975	-200.000	-0.002	-0.036
-521.960	800.000	0.019	0.061
-520.945	-143.134	-0.139	0.013
-519.931	124.430	0.038	0.048
-518.916	-51.813	-0.088	0.041
-517.902	257.773	0.177	0.303
-516.887	-40.942	0.218	-0.112
-515.872	180.208	-0.150	0.219
-514.858	800.000	-0.129	-0.376
-513.843	-51.029	0.167	-0.078
-512.829	162.070	0.103	0.144
-511.814	-31.944	0.136	-0.076
-510.799	800.000	-0.145	-0.487
-509.785	-56.765	-0.194	0.085
-508.770	-133.028	-0.424	-0.054
-507.756	-44.215	0.138	0.069
-506.741	-118.321	-0.075	0.013
-505.726	34.293	0.016	-0.014
-504.712	3.517	0.182	-0.132
-503.697	76.524	0.128	0.134
-502.683	-2.718	0.171	-0.119
-501.668	-124.146	-0.157	-0.024
-500.653	62.528	0.110	-0.109
-499.639	-77.453	0.350	0.121
-498.624	-167.838	0.241	-0.009
-497.610	49.395	0.178	0.167
-496.595	800.000	0.062	-0.186
-495.581	-175.373	0.184	-0.005
-494.566	800.000	0.046	-0.134
-493.551	-7.635	0.271	-0.182
-492.537	596.833	-0.011	-0.027
-491.522	28.266	0.252	-0.211
-490.508	-50.905	0.213	-0.099
-489.493	-63.408	-0.333	0.136
-488.478	800.000	-0.024	0.097
-487.464	155.395	0.030	0.041
-486.449	-200.000	-0.044	-0.258
-485.435	48.152	-0.048	-0.044
-484.420	54.041	-0.256	-0.244
-483.405	-103.364	-0.165	0.039
-482.391	-200.000	0.056	-0.374
-481.376	-44.078	0.096	-0.048
-480.362	111.170	-0.213	-0.255
-479.347	238.458	-0.045	0.074
-478.332	-25.670	0.257	-0.150
-477.318	5.289	-0.209	-0.153
-476.303	127.232	-0.079	-0.100
-475.289	-184.306	0.148	0.002
-474.274	124.187	-0.041	-0.051
-473.259	-112.455	0.215	0.043
-472.245	-49.071	-0.292	-0.139
-471.230	171.001	-0.189	-0.269
-470.216	800.000	-0.095	0.290
-469.201	-29.350	0.388	0.221
-468.186	-200.000	-0.003	-0.072
-467.172	-87.250	-0.124	0.037
-466.157	71.471	-0.371	-0.383
-465.143	-8.797	0.263	-0.175
-464.128	96.445	0.178	0.202
-463.113	800.000	0.019	-0.071
-462.099	72.059	0.095	0.099
-461.084	-200.000	0.002	-0.057
-460.070	-138.448	0.242	-0.027
-459.055	29.822	-0.233	-0.197
-458.040	-200.000	-0.012	0.116
-457.026	-42.144	-0.360	-0.183
-456.011	-200.000	0.021	0.396
-454.997	800.000	-0.079	0.282
-453.982	-166.277	-0.222	0.009
-452.968	-193.576	-0.180	0.002
-451.953	-81.190	0.258	0.084
-450.938	169.919	-0.077	-0.110
-449.924	-118.883	0.305	-0.053
-448.909	-90.572	0.370	-0.106
-447.895	-42.363	0.232	0.117
-446.880	-200.000	-0.223	-0.000
-445.865	-78.139	0.183	0.063
-444.851	-22.781	0.186	0.111
-443.836	-13.826	-0.130	0.083
-442.822	-119.155	0.041	0.007
-441.807	-132.636	-0.365	-0.046
-440.792	103.416	0.120	-0.139
-439.778	-96.327	0.081	-0.021
-438.763	-145.792	-0.229	0.020
-437.749	-106.230	-0.223	-0.050
-436.734	-191.116	0.227	-0.002
-435.719	-31.455	0.237	-0.132
-434.705	-129.831	-0.104	-0.014
-433.690	81.686	0.159	0.171
-432.676	103.681	0.136	-0.159
-431.661	-1.107	0.097	0.068
-430.646	78.196	0.188	-0.199
-429.632	54.239	0.283	-0.270
-428.617	-146.262	0.198	-0.017
-427.603	292.923	0.121	0.219
-426.588	-77.032	0.197	-0.068
-425.573	55.291	0.277	0.265
-424.559	-85.846	-0.154	0.047
-423.544	120.291	0.204	0.252
-422.530	-200.000	-0.020	-0.120
-421.515	-200.000	-0.046	-0.267
-420.500	260.461	-0.089	-0.152
-419.486	-51.367	0.212	0.098
-418.471	56.942	0.113	-0.109
-417.457	-48.017	-0.550	0.263
-416.442	329.122	-0.088	0.168
-415.428	-71.715	0.055	0.020
-414.413	800.000	0.036	0.100
-413.398	564.458	0.055	0.133
-412.384	156.415	0.108	-0.148
-411.369	-159.924	-0.193	-0.010
-410.355	-121.041	-0.438	0.073
-409.340	800.000	0.076	-0.316
-408.325	105.725	0.070	-0.082
-407.311	36.869	0.317	-0.278
-406.296	0.301	0.102	0.072
-405.282	-38.060	0.416	0.219
-404.267	139.491	-0.156	0.204
-403.252	140.237	-0.101	-0.133
-402.238	470.129	-0.046	0.103
-401.223	304.902	-0.052	-0.096
-400.209	19.022	0.250	0.199
-399.194	800.000	-0.056	-0.168
-398.179	-20.059	0.165	0.101
-397.165	-200.000	-0.019	0.085
-396.150	-176.527	-0.025	0.001
-395.136	-132.170	0.271	0.035
-394.121	5.094	-0.102	0.074
-393.106	-65.756	-0.262	-0.104
-392.092	-200.000	0.050	0.276
-391.077	50.096	0.302	-0.282
-390.063	800.000	-0.079	-0.289
-389.048	-200.000	-0.029	0.250
-388.033	19.605	0.195	-0.155
-387.019	164.017	0.036	-0.050
-386.004	368.727	0.061	0.122
-384.990	-200.000	0.033	0.184
-383.975	800.000	-0.071	0.263
-382.960	249.474	0.060	0.101
-381.946	-4.725	-0.356	0.243
-380.931	-128.756	-0.205	-0.029
-379.917	744.810	-0.101	0.270
-378.902	-200.000	0.003	0.110
-377.888	-200.000	-0.018	0.367
-376.873	-143.776	-0.228	-0.021
-375.858	62.817	0.065	0.065
-374.844	29.919	-0.095	0.080
-373.829	-80.973	0.061	0.020
-372.815	-200.000	0.031	0.178
-371.800	-65.751	-0.142	0.056
-370.785	-200.000	0.014	0.101
-369.771	-108.858	-0.166	-0.035
-368.756	79.752	0.094	0.100
-367.742	43.402	-0.143	-0.129
-366.727	278.770	0.154	0.271
-365.712	800.000	-0.021	-0.058
-364.698	147.909	0.146	0.194
-363.683	-44.364	-0.078	-0.039
-362.669	-155.018	-0.461	-0.030
-361.654	106.798	-0.190	0.223
-360.639	-65.023	0.340	-0.136
-359.625	66.591	0.078	-0.078
-358.610	210.411	-0.033	-0.051
-357.596	16.236	-0.163	0.127
-356.581	800.000	-0.067	-0.204
-355.566	-200.000	0.026	0.155
-354.552	-200.000	0.023	-0.217
-353.537	-137.436	-0.072	0.008
-352.523	-200.000	0.034	-0.196
-351.508	-200.000	0.028	-0.125
-350.493	-30.302	0.218	0.122
-349.479	67.581	0.247	-0.250
-348.464	13.500	-0.116	-0.089
-347.450	-149.176	0.060	-0.005
-346.435	223.519	0.063	0.100
-345.420	228.659	-0.062	0.100
-344.406	362.617	0.036	-0.072
-343.391	-113.999	0.142	-0.027
-342.377	800.000	0.032	0.091
-341.362	-90.104	0.136	0.039
-340.348	-200.000	-0.025	-0.201
-339.333	-75.657	0.234	-0.082
-338.318	800.000	0.101	0.425
-337.304	64.146	-0.119	-0.119
-336.289	-134.516	-0.239	-0.029
-335.275	-200.000	-0.003	0.221
-334.260	-96.351	-0.106	-0.028
-333.245	475.188	0.088	-0.196
-332.231	465.406	-0.079	-0.174
-331.216	38.791	-0.213	0.188
-330.202	-200.000	0.011	-0.082
-329.187	-200.000	-0.029	-0.156
-328.172	-28.082	-0.323	0.185
-327.158	-161.316	0.220	-0.011
-326.143	136.281	-0.237	0.306
-325.129	-100.438	0.347	0.085
-324.114	800.000	0.027	0.084
-323.099	-109.933	-0.121	0.025
-322.085	-160.567	-0.156	-0.008
-321.070	272.142	-0.145	0.253
-320.056	342.649	-0.197	0.380
-319.041	21.429	-0.069	0.056
-318.026	6.593	-0.117	0.086
-317.012	-200.000	0.016	0.174
-315.997	-25.054	-0.310	-0.181
-314.983	282.012	0.078	-0.138
-313.968	-167.169	-0.010	0.000
-312.953	-200.000	0.021	-0.286
-311.939	-200.000	-0.029	-0.163
-310.924	-126.218	0.236	0.035
-309.910	-200.000	0.045	0.219
-308.895	-131.757	-0.162	0.021
-307.880	45.069	-0.330	-0.300
-306.866	258.518	-0.089	-0.151
-305.851	800.000	-0.071	0.235
-304.837	227.530	-0.231	0.370
-303.822	234.318	0.020	-0.033
-302.807	180.283	0.122	-0.177
-301.793	-200.000	0.014	0.117
-300.778	52.831	0.147	-0.139
-299.764	30.163	-0.150	-0.126
-298.749	71.412	0.065	0.067
-297.735	463.541	-0.092	-0.203
-296.720	-80.975	0.151	0.049
-295.705	-106.127	-0.080	0.018
-294.691	556.420	-0.073	0.174
-293.676	28.728	-0.318	0.266
-292.662	-85.944	0.089	0.027
-291.647	800.000	-0.018	-0.062
-290.632	-102.196	0.302	0.072
-289.618	-105.347	-0.449	0.101
-288.603	361.112	-0.158	0.312
-287.589	-80.728	0.380	0.124
-286.574	-200.000	-0.015	-0.068
-285.559	65.103	0.113	-0.113
-284.545	-200.000	0.023	0.175
-283.530	222.567	0.209	-0.331
-282.516	-21.829	0.378	0.227
-281.501	-135.650	-0.074	0.009
-280.486	-200.000	-0.036	0.339
-279.472	-108.710	-0.042	-0.009
-278.457	-129.676	-0.332	0.045
-277.443	316.550	0.077	0.144
-276.428	-133.233	-0.466	-0.058
-275.413	20.109	0.022	-0.018
-274.399	-113.262	0.325	-0.063
-273.384	-200.000	-0.026	0.169
-272.370	200.335	0.202	0.306
-271.355	-200.000	0.054	0.314
-270.340	-45.944	-0.133	0.065
-269.326	260.043	0.110	-0.187
-268.311	280.842	0.121	0.213
-267.297	5.297	-0.278	0.202
-266.282	-35.866	-0.245	-0.131
-265.267	197.340	0.149	-0.224
-264.253	509.243	0.123	0.282
-263.238	188.872	-0.076	-0.112
-262.224	-74.796	-0.133	-0.047
-261.209	216.666	0.278	-0.436
-260.195	27.810	-0.240	0.199
-259.180	-181.887	0.351	-0.007
-258.165	84.830	-0.066	-0.072
-257.151	-46.997	0.216	-0.104
-256.136	70.990	0.106	0.108
-255.122	217.999	0.052	0.081
-254.107	-200.000	0.001	-0.136
-253.092	130.390	-0.076	0.096
-252.078	800.000	0.033	-0.111
-251.063	-77.601	0.131	0.045
-250.049	274.056	-0.222	-0.388
-249.034	293.240	-0.126	0.227
-248.019	-200.000	-0.073	-0.330
-247.005	800.000	0.077	-0.227
-245.990	-200.000	-0.003	0.093
-244.976	-200.000	0.012	0.309
-243.961	-99.391	0.268	-0.067
-242.946	800.000	0.044	-0.131
-241.932	800.000	0.045	-0.172
-240.917	-14.444	-0.279	0.177
-239.903	-106.872	0.257	0.056
-238.888	-44.515	-0.010	-0.005
-237.873	-200.000	0.005	0.091
-236.859	-200.000	0.188	0.001
-235.844	751.427	-0.083	0.222
-234.830	-115.770	-0.284	-0.052
-233.815	800.000	0.006	-0.024
-232.800	-98.198	-0.167	-0.042
-231.786	800.000	-0.065	0.223
-230.771	-110.962	0.183	0.037
-229.757	97.568	-0.168	-0.190
-228.742	-100.598	-0.231	0.056
-227.727	-64.884	-0.260	0.103
-226.713	-185.771	0.490	0.007
-225.698	205.070	-0.089	0.136
-224.684	42.069	0.049	0.044
-223.669	-51.168	-0.154	-0.071
-222.655	379.580	-0.175	0.352
-221.640	-0.153	-0.239	0.167
-220.625	-63.508	-0.155	0.062
-219.611	-51.806	-0.035	0.016
-218.596	314.635	0.040	0.074
-217.582	203.780	0.101	0.154
-216.567	-73.022	0.161	-0.058
-215.552	106.611	0.090	-0.105
-214.538	600.761	0.043	-0.106
-213.523	-200.000	-0.077	-0.345
-212.509	800.000	-0.033	0.133
-211.494	59.391	0.102	0.099
-210.479	-200.000	0.002	-0.100
-209.465	539.069	0.061	-0.142
-208.450	-200.000	-0.062	0.327
-207.436	-200.000	0.010	0.101
-206.421	-146.084	-0.347	0.030
-205.406	743.608	0.068	-0.180
-204.392	800.000	0.074	0.207
-203.377	-200.000	-0.005	-0.339
-202.363	9.175	0.172	-0.128
-201.348	-200.000	-0.012	0.225
-200.333	-112.307	-0.123	0.024
-199.319	-164.893	0.139	0.006
-198.304	223.789	0.116	-0.183
-197.290	278.695	-0.088	-0.154
-196.275	-85.008	-0.114	0.035
-195.260	-170.975	-0.086	0.003
-194.246	73.316	-0.098	-0.101
-193.231	163.375	-0.174	-0.241
-192.217	72.562	0.188	-0.193
-191.202	37.892	0.083	-0.073
-190.187	151.549	0.048	-0.064
-189.173	-200.000	-0.061	0.410
-188.158	-23.354	-0.070	0.041
-187.144	-161.851	0.177	0.009
-186.129	19.975	-0.305	-0.242
-185.114	-40.481	-0.231	0.118
-184.100	-26.504	-0.349	0.201
-183.085	-132.601	0.142	-0.018
-182.071	-200.000	-0.067	0.363
-181.056	-142.605	0.138	0.013
-180.042	567.464	0.076	-0.181
-179.027	-78.685	0.372	-0.125
-178.012	-135.874	0.141	0.016
-176.998	-127.514	-0.219	0.031
-175.983	800.000	-0.062	-0.199
-174.969	800.000	-0.058	0.199
-173.954	-154.891	0.120	-0.008
-172.939	-104.403	-0.110	-0.025
-171.925	-154.862	-0.198	0.013
-170.910	-17.428	0.311	0.192
-169.896	-26.455	0.434	-0.250
-168.881	800.000	0.060	-0.186
-167.866	-0.378	-0.006	-0.004
-166.852	91.028	-0.104	-0.114
-165.837	56.379	0.195	0.186
-164.823	-76.919	-0.235	-0.081
-163.808	-63.617	0.173	0.070
-162.793	-200.000	-0.019	0.171
-161.779	800.000	0.119	0.357
-160.764	-200.000	0.013	-0.229
-159.750	-169.225	0.354	-0.013
-158.735	612.536	-0.145	0.357
-157.720	-22.092	0.453	0.270
-156.706	20.185	0.284	-0.225
-155.691	75.211	0.412	0.426
-154.677	233.644	-0.136	-0.219
-153.662	-117.663	0.323	-0.057
-152.647	3.824	0.100	-0.072
-151.633	-200.000	-0.023	0.229
-150.618	-94.200	0.218	0.058
-149.604	-200.000	-0.005	-0.396
-148.589	711.512	-0.157	0.407
-147.574	-200.000	-0.012	0.179
-146.560	-171.664	0.153	0.005
-145.545	-186.765	0.017	0.000
-144.531	268.056	0.103	0.177
-143.516	399.356	-0.158	-0.324
-142.502	67.940	0.248	-0.249
-141.487	-17.299	-0.274	0.169
-140.472	-200.000	-0.074	0.431
-139.458	142.603	0.046	0.060
-138.443	-200.000	0.000	0.009
-137.429	272.892	-0.035	0.060
-136.414	14.796	-0.181	0.139
-135.399	-48.154	0.129	-0.061
-134.385	60.025	-0.246	0.238
-133.370	-200.000	-0.003	-0.098
-132.356	-54.798	-0.137	0.061
-131.341	-200.000	0.069	-0.307
-130.326	800.000	0.044	-0.163
-129.312	142.404	-0.182	0.237
-128.297	-200.000	-0.026	0.169
-127.283	-98.234	0.208	0.052
-126.268	116.722	0.172	-0.206
-125.253	-127.381	0.175	-0.025
-124.239	344.397	0.099	-0.190
-123.224	134.515	-0.202	0.256
-122.210	-29.593	0.247	-0.138
-121.195	800.000	-0.050	0.157
