DTS Sentinel unit serial number:	SN413079Multiplexer serial number:	ORYXHardware model number:	OX4-SRSoftware version number:	ORYX F/W v4.00 Oryx Data Collector v3.7.2.0data status	okinstallation	princeton_trtdifferential loss correction	single-endedforward channel	channel 1reverse channel	N/Adate	2019/09/19time	01:42:35forward acquisition time	60.00reverse acquisition time	0.00gamma	496.2192k internal	0.2344k external	0.2344temperature offset calibration	1.0018default loss term (dB/km)	0.3790temperature slope calibration	1.0000multiplexer offset coefficient	1.0000multiplexer slope coefficient	1.0000fibre end	0.00T internal ref (°C)	21.44T ext. ref 1 (°C)	0.69T ext. ref 2 (°C)	14.90length (m)	temperature (°C)	Stokes	anti-Stokes-747.200	-200.000	0.038	0.309
-746.185	-124.232	0.095	-0.015
-745.171	21.212	-0.168	0.136
-744.156	-36.897	-0.351	0.188
-743.142	58.962	-0.100	0.098
-742.127	-200.000	-0.065	0.603
-741.112	85.682	-0.236	-0.259
-740.098	-166.493	-0.331	-0.014
-739.083	800.000	0.063	-0.267
-738.069	1.585	0.168	-0.121
-737.054	-200.000	-0.015	-0.165
-736.039	-42.937	0.174	-0.088
-735.025	-200.000	-0.010	-0.131
-734.010	800.000	0.090	-0.260
-732.996	-200.000	-0.053	-0.336
-731.981	15.186	0.133	0.104
-730.966	800.000	0.064	-0.176
-729.952	-171.220	-0.428	-0.014
-728.937	694.741	0.076	-0.199
-727.923	148.845	-0.135	-0.182
-726.908	411.803	0.077	-0.164
-725.894	39.906	0.053	0.048
-724.879	-200.000	-0.012	-0.149
-723.864	-53.061	0.134	-0.061
-722.850	-167.570	-0.134	0.005
-721.835	-200.000	-0.052	0.294
-720.821	-78.149	-0.136	0.047
-719.806	573.544	0.082	-0.200
-718.791	800.000	0.135	0.420
-717.777	55.813	-0.366	0.354
-716.762	-115.947	0.107	0.020
-715.748	289.378	0.080	-0.146
-714.733	76.593	-0.103	-0.109
-713.718	-123.917	-0.314	-0.049
-712.704	-58.368	0.303	-0.132
-711.689	-102.264	-0.226	-0.054
-710.675	-200.000	-0.020	0.158
-709.660	28.250	0.058	0.049
-708.645	-57.369	0.220	0.097
-707.631	172.088	0.131	0.189
-706.616	21.115	0.166	0.135
-705.602	800.000	0.128	0.396
-704.587	-200.000	-0.013	-0.074
-703.572	264.668	-0.205	0.357
-702.558	-200.000	0.062	-0.375
-701.543	-59.659	0.354	0.152
-700.529	-23.306	-0.073	-0.044
-699.514	-39.649	-0.231	-0.121
-698.499	-42.652	-0.486	0.247
-697.485	-20.884	-0.247	0.151
-696.470	-7.179	0.178	0.121
-695.456	-200.000	-0.032	0.280
-694.441	-156.835	0.113	0.007
-693.426	-81.355	-0.274	-0.090
-692.412	-36.050	0.136	-0.073
-691.397	-171.061	0.047	0.002
-690.383	67.530	-0.213	0.217
-689.368	-49.778	0.087	0.041
-688.354	800.000	-0.075	0.290
-687.339	-200.000	-0.062	-0.307
-686.324	-121.177	-0.304	-0.051
-685.310	598.171	0.030	-0.073
-684.295	800.000	0.075	-0.234
-683.281	75.091	0.168	-0.177
-682.266	-200.000	0.035	-0.234
-681.251	-61.512	-0.072	-0.030
-680.237	-40.959	-0.282	0.146
-679.222	-141.978	-0.141	0.014
-678.208	22.784	-0.099	-0.081
-677.193	393.543	-0.279	-0.579
-676.178	-78.089	0.364	0.125
-675.164	800.000	-0.121	0.364
-674.149	-146.052	0.206	-0.018
-673.135	770.303	0.161	-0.438
-672.120	293.606	0.198	0.361
-671.105	-127.064	-0.158	0.023
-670.091	113.531	-0.176	-0.213
-669.076	448.412	-0.035	-0.077
-668.062	66.701	-0.140	0.142
-667.047	-200.000	0.002	0.097
-666.032	-200.000	-0.003	0.129
-665.018	-145.892	0.350	0.031
-664.003	44.472	-0.053	0.048
-662.989	-39.492	0.491	-0.257
-661.974	237.880	-0.210	-0.348
-660.959	-132.967	-0.314	0.040
-659.945	581.009	0.111	-0.271
-658.930	206.773	-0.201	-0.312
-657.916	186.583	-0.048	-0.071
-656.901	0.947	-0.124	0.089
-655.886	-200.000	0.059	0.307
-654.872	-63.339	-0.162	0.066
-653.857	-146.676	-0.328	0.028
-652.843	-153.655	0.180	-0.012
-651.828	240.379	0.072	0.120
-650.814	-200.000	-0.030	0.340
-649.799	-104.015	-0.082	-0.019
-648.784	484.461	0.055	0.124
-647.770	-200.000	-0.005	-0.212
-646.755	-9.677	0.154	0.102
-645.741	39.622	-0.153	0.137
-644.726	-12.794	-0.256	0.166
-643.711	-104.094	0.115	0.027
-642.697	60.802	-0.382	0.377
-641.682	84.892	-0.128	0.139
-640.668	171.751	0.044	-0.063
-639.653	97.674	0.130	-0.149
-638.638	222.074	-0.025	-0.040
-637.624	-200.000	-0.022	-0.168
-636.609	104.015	0.155	0.182
-635.595	15.635	-0.302	0.236
-634.580	167.364	-0.192	-0.271
-633.565	163.780	-0.053	0.075
-632.551	-92.196	-0.173	0.049
-631.536	232.055	-0.138	-0.225
-630.522	-200.000	0.050	-0.327
-629.507	-200.000	-0.064	0.290
-628.492	324.641	-0.137	0.262
-627.478	-200.000	-0.042	-0.367
-626.463	-200.000	0.017	-0.339
-625.449	114.428	0.073	-0.088
-624.434	129.884	-0.127	-0.162
-623.419	414.077	0.039	-0.082
-622.405	-100.987	0.320	-0.078
-621.390	-97.418	0.126	-0.033
-620.376	-48.998	0.234	0.112
-619.361	-42.853	0.099	-0.050
-618.346	-114.205	-0.113	-0.022
-617.332	52.154	0.378	0.358
-616.317	-167.700	0.057	-0.002
-615.303	174.719	0.031	-0.045
-614.288	72.908	-0.047	-0.049
-613.273	-71.994	0.235	-0.087
-612.259	-200.000	0.029	-0.451
-611.244	298.235	0.046	-0.084
-610.230	-46.543	-0.109	-0.053
-609.215	268.468	-0.122	-0.213
-608.201	48.306	-0.197	0.184
-607.186	104.339	-0.191	0.223
-606.171	-200.000	-0.019	-0.152
-605.157	-132.450	0.217	-0.028
-604.142	-98.017	0.062	-0.016
-603.128	-0.759	-0.241	0.170
-602.113	-74.513	-0.112	0.040
-601.098	800.000	-0.041	0.132
-600.084	103.649	-0.257	0.301
-599.069	392.539	-0.105	0.217
-598.055	197.227	0.105	-0.160
-597.040	-200.000	-0.070	0.318
-596.025	-174.071	0.090	0.003
-595.011	19.277	-0.077	0.062
-593.996	-200.000	-0.000	0.157
-592.982	486.492	0.028	-0.064
-591.967	100.025	-0.331	-0.382
-590.952	35.956	-0.172	0.151
-589.938	-29.224	0.290	0.165
-588.923	-200.000	0.034	0.272
-587.909	-200.000	-0.010	-0.151
-586.894	-145.327	0.350	0.031
-585.879	-30.885	0.072	0.040
-584.865	-200.000	0.004	0.025
-583.850	-145.301	0.416	-0.037
-582.836	427.996	0.105	-0.226
-581.821	-78.102	-0.203	0.069
-580.806	-200.000	0.014	0.070
-579.792	-57.198	0.275	-0.120
-578.777	-91.033	-0.121	-0.034
-577.763	64.849	0.144	0.145
-576.748	99.959	-0.127	-0.147
-575.733	-200.000	0.011	0.172
-574.719	-40.571	0.084	-0.043
-573.704	-200.000	0.031	-0.211
-572.690	-163.884	0.217	0.010
-571.675	371.645	-0.224	0.452
-570.661	55.515	0.308	-0.296
-569.646	-120.244	0.083	0.014
-568.631	-75.033	-0.099	0.035
-567.617	432.759	0.069	0.148
-566.602	-143.453	-0.186	0.018
-565.588	800.000	0.099	0.290
-564.573	800.000	-0.052	-0.152
-563.558	-128.175	0.342	-0.049
-562.544	-135.687	0.295	-0.035
-561.529	248.650	-0.063	0.106
-560.515	3.006	-0.045	0.033
-559.500	-200.000	0.033	-0.179
-558.485	-49.562	0.045	-0.021
-557.471	-8.284	-0.176	0.118
-556.456	-94.985	0.299	0.080
-555.442	-24.425	-0.054	0.032
-554.427	-46.910	-0.048	-0.023
-553.412	94.126	-0.347	0.391
-552.398	571.303	0.117	0.283
-551.383	-61.555	0.038	0.016
-550.369	212.539	-0.122	-0.191
-549.354	-124.121	-0.048	-0.007
-548.339	-88.536	0.279	0.083
-547.325	800.000	0.047	0.181
-546.310	42.938	-0.110	-0.100
-545.296	-97.085	-0.305	0.079
-544.281	755.441	0.116	-0.311
-543.266	64.860	-0.104	-0.104
-542.252	88.700	-0.065	-0.072
-541.237	-75.786	0.192	-0.068
-540.223	185.752	-0.278	-0.410
-539.208	110.817	-0.256	-0.306
-538.193	6.424	-0.086	-0.063
-537.179	-37.448	0.048	-0.025
-536.164	19.195	0.221	0.176
-535.150	73.227	-0.045	-0.047
-534.135	-146.531	0.268	-0.023
-533.121	-107.323	-0.158	0.035
-532.106	-3.301	-0.166	-0.115
-531.091	-38.856	-0.396	-0.207
-530.077	-114.920	0.045	0.009
-529.062	305.343	0.071	-0.130
-528.048	75.981	-0.091	0.095
-527.033	-167.425	0.426	-0.017
-526.018	116.572	-0.024	-0.030
-525.004	322.843	0.094	-0.178
-523.989	636.155	-0.107	-0.269
-522.975	40.887	0.101	0.091
-521.960	800.000	-0.088	-0.331
-520.945	-200.000	-0.040	-0.220
-519.931	37.617	0.056	0.050
-518.916	262.011	-0.073	0.126
-517.902	-103.068	0.264	0.062
-516.887	-154.304	0.216	-0.014
-515.872	191.175	0.150	-0.224
-514.858	-200.000	0.021	0.142
-513.843	133.487	0.115	0.147
-512.829	-198.368	-0.071	0.000
-511.814	-75.448	-0.094	-0.033
-510.799	133.808	-0.054	0.070
-509.785	322.354	0.077	0.145
-508.770	-15.729	-0.072	-0.046
-507.756	-200.000	0.009	0.089
-506.741	240.089	0.019	-0.031
-505.726	136.271	-0.089	0.115
-504.712	-129.065	-0.266	0.037
-503.697	-15.634	0.302	-0.191
-502.683	199.297	0.211	0.321
-501.668	722.264	0.150	-0.395
-500.653	-31.573	0.231	-0.129
-499.639	45.653	-0.271	-0.248
-498.624	-99.540	0.312	-0.078
-497.610	477.204	0.260	0.582
-496.595	29.153	-0.267	-0.224
-495.581	-96.391	-0.091	-0.024
-494.566	113.023	0.088	0.106
-493.551	460.988	-0.121	0.268
-492.537	-13.349	-0.076	0.049
-491.522	-22.795	-0.088	-0.053
-490.508	-146.681	-0.360	-0.031
-489.493	413.077	0.056	0.118
-488.478	800.000	0.074	0.298
-487.464	274.849	-0.207	-0.364
-486.449	36.365	0.082	0.071
-485.435	-21.982	0.267	0.161
-484.420	800.000	0.029	0.121
-483.405	121.432	-0.088	0.108
-482.391	-200.000	-0.062	-0.320
-481.376	-200.000	0.022	0.373
-480.362	592.766	0.065	0.160
-479.347	-30.931	-0.285	-0.160
-478.332	-200.000	-0.005	-0.197
-477.318	-51.553	-0.042	-0.019
-476.303	123.712	-0.080	0.100
-475.289	-200.000	0.032	-0.195
-474.274	239.240	0.146	0.241
-473.259	-0.783	-0.087	0.061
-472.245	800.000	-0.064	0.193
-471.230	3.427	0.236	0.170
-470.216	235.458	0.122	0.199
-469.201	15.895	0.166	-0.130
-468.186	800.000	-0.048	0.164
-467.172	558.741	-0.077	0.184
-466.157	-101.442	-0.169	-0.041
-465.143	-200.000	-0.021	-0.257
-464.128	-124.589	-0.112	-0.017
-463.113	80.357	0.115	-0.122
-462.099	-163.130	-0.260	0.012
-461.084	-91.652	-0.137	0.039
-460.070	93.460	0.065	0.073
-459.055	-200.000	-0.018	0.216
-458.040	62.498	-0.104	0.103
-457.026	51.030	0.097	0.091
-456.011	-140.283	0.304	-0.031
-454.997	320.124	-0.125	0.235
-453.982	19.373	-0.164	0.131
-452.968	-200.000	0.054	-0.242
-451.953	1.950	0.119	0.085
-450.938	-122.787	-0.537	-0.086
-449.924	-79.784	0.068	-0.023
-448.909	47.747	0.078	-0.072
-447.895	230.827	0.058	0.093
-446.880	-21.808	-0.090	0.054
-445.865	-135.002	-0.239	-0.029
-444.851	-149.211	-0.602	-0.048
-443.836	44.954	-0.341	-0.311
-442.822	-108.332	0.161	0.034
-441.807	800.000	-0.046	-0.171
-440.792	2.565	-0.185	-0.133
-439.778	-120.841	0.173	0.029
-438.763	-35.806	0.105	0.056
-437.749	-51.470	0.239	0.111
-436.734	-152.199	0.243	-0.017
-435.719	-197.263	-0.349	0.002
-434.705	-63.011	-0.131	-0.053
-433.690	-200.000	0.001	-0.219
-432.676	-25.330	0.256	-0.150
-431.661	73.389	0.146	-0.151
-430.646	-200.000	0.033	-0.227
-429.632	-118.249	-0.130	0.023
-428.617	-200.000	-0.009	0.145
-427.603	133.204	-0.218	-0.279
-426.588	772.520	0.115	-0.309
-425.573	89.361	-0.214	0.236
-424.559	-200.000	0.023	0.127
-423.544	-111.760	0.046	-0.009
-422.530	140.328	0.158	0.207
-421.515	196.743	0.156	-0.234
-420.500	-47.309	-0.354	-0.170
-419.486	-200.000	0.006	0.051
-418.471	800.000	0.012	0.043
-417.457	-147.441	0.157	-0.013
-416.442	12.081	-0.013	-0.010
-415.428	-200.000	-0.039	0.243
-414.413	186.286	-0.113	0.167
-413.398	-200.000	0.023	0.193
-412.384	108.935	0.204	-0.241
-411.369	26.225	-0.071	-0.058
-410.355	65.198	-0.345	-0.344
-409.340	-16.898	-0.219	-0.137
-408.325	-92.035	0.261	0.073
-407.311	344.311	0.019	0.036
-406.296	10.430	0.344	-0.258
-405.282	72.635	0.098	-0.101
-404.267	329.523	0.026	-0.049
-403.252	-186.689	-0.072	0.001
-402.238	249.090	0.160	-0.268
-401.223	800.000	-0.052	-0.173
-400.209	149.698	-0.084	-0.112
-399.194	-200.000	-0.007	-0.063
-398.179	104.747	-0.104	0.121
-397.165	-50.340	0.175	0.081
-396.150	520.947	-0.096	0.223
-395.136	75.929	-0.020	0.021
-394.121	-111.713	0.214	-0.043
-393.106	-95.099	0.137	-0.037
-392.092	-180.325	-0.166	-0.003
-391.077	47.011	0.052	0.047
-390.063	-55.449	-0.130	-0.057
-389.048	-45.956	-0.289	0.140
-388.033	800.000	-0.021	-0.078
-387.019	426.219	0.064	-0.136
-386.004	-108.273	0.261	-0.056
-384.990	-63.951	-0.009	-0.003
-383.975	505.471	0.007	0.017
-382.960	-111.351	0.251	-0.050
-381.946	-200.000	0.010	0.084
-380.931	-105.476	0.137	0.031
-379.917	-76.916	0.135	0.047
-378.902	-74.316	-0.159	-0.057
-377.888	245.230	0.039	-0.065
-376.873	-200.000	0.007	0.169
-375.858	15.849	0.029	0.022
-374.844	147.527	-0.105	-0.139
-373.829	-121.807	-0.117	0.019
-372.815	92.024	-0.016	-0.017
-371.800	155.894	0.049	-0.067
-370.785	-123.941	0.319	0.050
-369.771	-70.428	0.101	0.038
-368.756	-57.410	-0.142	0.062
-367.742	-200.000	0.006	-0.282
-366.727	-108.145	0.241	-0.052
-365.712	-142.141	-0.164	0.016
-364.698	-166.282	-0.226	-0.009
-363.683	222.642	0.031	0.049
-362.669	695.554	0.093	0.242
-361.654	103.679	0.042	0.048
-360.639	-57.396	0.254	0.110
-359.625	-70.132	-0.342	-0.128
-358.610	-96.506	0.108	-0.028
-357.596	421.487	-0.056	-0.118
-356.581	54.993	0.181	0.172
-355.566	307.635	-0.033	-0.061
-354.552	-162.161	-0.196	-0.010
-353.537	472.317	0.056	-0.124
-352.523	-200.000	0.054	-0.249
-351.508	-135.458	0.199	0.023
-350.493	-34.181	-0.219	-0.118
-349.479	-200.000	0.053	-0.430
-348.464	800.000	0.060	0.217
-347.450	159.949	-0.125	0.172
-346.435	-160.575	0.439	0.023
-345.420	-41.720	0.043	0.022
-344.406	-62.748	-0.325	0.133
-343.391	484.465	0.062	0.139
-342.377	-83.110	-0.232	0.074
-341.362	-109.175	0.115	-0.024
-340.348	-103.836	0.274	0.063
-339.333	150.893	0.186	0.249
-338.318	174.230	-0.179	0.255
-337.304	68.795	-0.084	0.085
-336.289	-112.600	-0.314	0.062
-335.275	-120.130	-0.227	-0.038
-334.260	800.000	0.110	-0.404
-333.245	-13.626	0.211	0.135
-332.231	19.384	0.099	0.078
-331.216	-115.094	-0.183	-0.034
-330.202	-4.441	-0.364	0.248
-329.187	102.379	0.216	-0.249
-328.172	-200.000	0.080	-0.408
-327.158	207.249	-0.149	-0.229
-326.143	-183.530	-0.177	-0.003
-325.129	142.150	-0.153	0.200
-324.114	-117.572	0.308	0.055
-323.099	-193.432	-0.141	-0.001
-322.085	194.329	-0.080	-0.119
-321.070	31.160	-0.097	-0.082
-320.056	-85.112	0.036	0.011
-319.041	-124.470	-0.103	-0.016
-318.026	-200.000	-0.004	-0.129
-317.012	800.000	-0.103	-0.316
-315.997	334.296	0.073	0.139
-314.983	64.947	-0.252	0.250
-313.968	-155.164	-0.118	-0.008
-312.953	92.108	-0.198	-0.220
-311.939	-78.978	0.296	-0.099
-310.924	258.063	-0.257	0.435
-309.910	-52.731	0.244	0.111
-308.895	-73.505	0.122	0.044
-307.880	-15.782	0.077	-0.048
-306.866	115.509	0.090	0.108
-305.851	0.676	0.108	0.076
-304.837	0.126	0.145	-0.102
-303.822	191.337	-0.141	-0.210
-302.807	800.000	-0.015	-0.051
-301.793	485.462	-0.108	0.242
-300.778	147.970	0.080	-0.106
-299.764	-59.270	-0.182	0.077
-298.749	-95.401	0.141	-0.037
-297.735	-66.744	0.222	0.086
-296.720	13.339	-0.271	-0.206
-295.705	291.978	0.048	-0.085
-294.691	34.248	0.271	0.233
-293.676	-32.731	-0.164	-0.090
-292.662	800.000	0.081	-0.303
-291.647	83.705	0.367	-0.393
-290.632	-7.340	0.240	0.160
-289.618	563.550	0.185	0.440
-288.603	-200.000	0.027	0.163
-287.589	151.992	-0.105	0.140
-286.574	-25.577	-0.183	-0.106
-285.559	800.000	0.046	0.151
-284.545	237.648	-0.067	-0.110
-283.530	-97.135	0.320	0.082
-282.516	5.203	0.122	0.088
-281.501	97.586	0.177	-0.200
-280.486	-11.210	-0.225	0.146
-279.472	381.800	0.110	-0.223
-278.457	-31.844	-0.158	0.087
-277.443	49.502	0.274	0.253
-276.428	-129.935	0.176	0.024
-275.413	25.034	-0.159	-0.130
-274.399	800.000	-0.047	-0.134
-273.384	-200.000	0.024	-0.214
-272.370	-200.000	-0.133	-0.635
-271.355	-73.684	0.107	-0.038
-270.340	800.000	0.042	-0.140
-269.326	84.353	-0.105	-0.113
-268.311	120.055	-0.098	0.119
-267.297	-130.260	0.074	-0.010
-266.282	46.402	0.198	-0.181
-265.267	134.739	0.277	-0.353
-264.253	759.403	0.104	0.277
-263.238	-159.222	-0.119	-0.007
-262.224	-100.066	-0.316	0.077
-261.209	800.000	-0.051	-0.186
-260.195	270.461	-0.022	-0.039
-259.180	114.233	-0.131	0.156
-258.165	372.683	-0.042	0.084
-257.151	-200.000	0.053	-0.277
-256.136	477.940	-0.075	-0.168
-255.122	-200.000	-0.009	-0.043
-254.107	-200.000	0.064	-0.330
-253.092	-46.680	0.045	-0.022
-252.078	800.000	-0.074	-0.245
-251.063	-31.078	0.145	-0.080
-250.049	443.237	0.129	0.278
-249.034	40.648	-0.219	0.193
-248.019	-44.072	-0.103	0.051
-247.005	459.838	-0.075	0.163
-245.990	-137.090	0.061	0.007
-244.976	-149.532	0.115	-0.009
-243.961	237.646	0.065	0.106
-242.946	-51.702	-0.126	0.058
-241.932	763.991	-0.084	-0.225
-240.917	-50.207	0.331	-0.154
-239.903	-200.000	0.055	0.258
-238.888	56.908	-0.170	-0.162
-237.873	-200.000	-0.044	0.351
-236.859	800.000	-0.069	-0.202
-235.844	241.008	-0.084	0.137
-234.830	800.000	-0.114	-0.405
-233.815	-200.000	-0.025	0.599
-232.800	436.650	-0.066	-0.142
-231.786	-133.523	0.197	-0.024
-230.771	59.402	0.124	-0.120
-229.757	800.000	-0.098	0.346
-228.742	-129.445	0.050	-0.007
-227.727	2.001	-0.219	-0.155
-226.713	331.454	0.094	-0.179
-225.698	78.416	-0.157	0.165
-224.684	-73.426	-0.034	-0.012
-223.669	-130.623	0.129	0.017
-222.655	11.597	-0.049	0.037
-221.640	-10.991	0.196	0.127
-220.625	-200.000	-0.001	0.033
-219.611	-87.049	0.186	-0.056
-218.596	-200.000	-0.045	0.295
-217.582	-200.000	-0.025	0.133
-216.567	800.000	0.019	-0.067
-215.552	-113.609	-0.116	-0.022
-214.538	107.985	-0.101	0.118
-213.523	-200.000	0.043	0.252
-212.509	527.478	-0.185	0.428
-211.494	-114.890	0.076	-0.014
-210.479	-200.000	-0.067	0.318
-209.465	76.554	-0.089	-0.093
-208.450	-132.184	-0.424	-0.054
-207.436	-200.000	0.008	-0.043
-206.421	-200.000	0.017	-0.129
-205.406	70.585	0.227	-0.230
-204.392	-133.432	-0.410	-0.050
-203.377	128.928	-0.051	0.063
-202.363	-200.000	0.048	-0.212
-201.348	450.734	-0.043	0.092
-200.333	38.428	-0.190	-0.166
-199.319	-101.618	-0.270	-0.064
-198.304	-75.285	0.228	0.080
-197.290	-200.000	-0.005	0.384
-196.275	-200.000	0.025	0.282
-195.260	-200.000	0.014	0.325
-194.246	38.062	-0.183	0.160
-193.231	-200.000	0.019	-0.215
-192.217	93.712	0.129	0.143
-191.202	800.000	-0.063	-0.251
-190.187	394.254	0.164	0.334
-189.173	341.710	0.140	0.268
-188.158	315.768	-0.031	-0.058
-187.144	79.924	-0.203	-0.214
-186.129	-28.734	-0.308	0.173
-185.114	-14.002	0.279	0.176
-184.100	84.622	0.290	-0.310
-183.085	-175.090	-0.208	-0.006
-182.071	-200.000	0.088	-0.380
-181.056	215.746	-0.174	0.271
-180.042	267.394	0.072	0.123
-179.027	-88.460	-0.333	0.097
-178.012	800.000	0.050	-0.188
-176.998	-200.000	-0.037	0.245
-175.983	-164.110	0.430	-0.019
-174.969	-43.289	-0.288	0.142
-173.954	-103.418	-0.172	0.040
-172.939	-121.559	0.204	0.033
-171.925	176.200	0.190	-0.270
-170.910	-196.220	0.414	0.003
-169.896	146.801	-0.144	0.190
-168.881	-200.000	0.041	-0.245
-167.866	-200.000	0.041	-0.245
-166.852	121.691	-0.041	0.050
-165.837	-200.000	-0.025	0.221
-164.823	-30.828	0.237	0.131
-163.808	-118.878	-0.262	-0.045
-162.793	-41.519	0.151	0.076
-161.779	-95.959	0.235	0.061
-160.764	208.731	-0.084	-0.128
-159.750	428.735	-0.057	-0.121
-158.735	110.798	-0.144	0.169
-157.720	0.884	0.233	-0.163
-156.706	-154.383	0.241	0.016
-155.691	-200.000	0.004	0.049
-154.677	-43.819	-0.158	-0.078
-153.662	800.000	0.092	0.335
-152.647	190.874	0.300	0.442
-151.633	13.409	-0.179	-0.136
-150.618	79.940	-0.249	0.262
-149.604	-168.514	0.128	-0.005
-148.589	31.887	-0.128	0.108
-147.574	-200.000	0.004	0.136
-146.560	313.758	0.056	0.103
-145.545	800.000	0.086	0.353
-144.531	-132.435	0.144	-0.018
-143.516	56.387	0.186	0.177
-142.502	-200.000	0.013	-0.328
-141.487	-91.448	0.161	-0.045
-140.472	245.386	0.084	0.138
-139.458	-200.000	-0.014	-0.206
-138.443	-12.301	0.232	0.148
-137.429	-200.000	-0.050	0.224
-136.414	43.760	-0.094	-0.084
-135.399	214.561	0.113	0.174
-134.385	-71.291	0.132	0.048
-133.370	48.613	0.169	-0.155
-132.356	216.424	0.100	0.156
-131.341	24.551	-0.186	0.150
-130.326	199.995	0.168	0.252
-129.312	-120.612	-0.132	0.022
-128.297	-114.520	0.343	0.064
-127.283	82.184	-0.067	-0.071
-126.268	-19.045	0.321	0.195
-125.253	-200.000	-0.005	0.045
-124.239	-114.236	0.178	0.034
-123.224	800.000	-0.057	0.234
-122.210	-16.157	0.047	-0.029
-121.195	253.124	-0.163	-0.272
