DTS Sentinel unit serial number:	SN413079Multiplexer serial number:	ORYXHardware model number:	OX4-SRSoftware version number:	ORYX F/W v4.00 Oryx Data Collector v3.7.2.0data status	okinstallation	princeton_trtdifferential loss correction	single-endedforward channel	channel 1reverse channel	N/Adate	2019/09/15time	08:02:35forward acquisition time	60.00reverse acquisition time	0.00gamma	496.2192k internal	0.2324k external	0.2324temperature offset calibration	0.9997default loss term (dB/km)	0.3790temperature slope calibration	1.0000multiplexer offset coefficient	1.0000multiplexer slope coefficient	1.0000fibre end	0.00T internal ref (°C)	30.80T ext. ref 1 (°C)	4.97T ext. ref 2 (°C)	26.68length (m)	temperature (°C)	Stokes	anti-Stokes-747.200	-87.891	0.208	-0.063
-746.185	800.000	-0.025	-0.082
-745.171	-32.172	0.087	-0.049
-744.156	159.036	-0.217	0.305
-743.142	612.118	0.058	-0.146
-742.127	-174.552	0.188	0.005
-741.112	-104.606	-0.078	0.018
-740.098	-35.598	0.189	0.104
-739.083	-16.620	0.224	0.143
-738.069	-14.601	0.310	0.201
-737.054	-69.218	0.294	0.114
-736.039	-61.890	-0.094	0.040
-735.025	96.610	0.056	0.065
-734.010	-29.767	-0.274	0.158
-732.996	164.600	-0.110	0.156
-731.981	1.494	0.176	-0.127
-730.966	-200.000	-0.022	-0.214
-729.952	636.756	0.081	0.208
-728.937	185.218	-0.029	-0.043
-727.923	-103.208	-0.158	0.038
-726.908	-68.907	0.455	0.177
-725.894	261.857	-0.255	-0.446
-724.879	-20.110	0.073	0.045
-723.864	-89.654	0.116	0.034
-722.850	42.699	-0.227	-0.209
-721.835	192.436	-0.098	0.149
-720.821	-181.589	0.323	0.006
-719.806	2.691	-0.049	-0.036
-718.791	107.399	0.047	-0.057
-717.777	-23.386	-0.083	-0.050
-716.762	-84.769	0.077	-0.025
-715.748	47.244	-0.199	-0.187
-714.733	800.000	-0.026	-0.108
-713.718	-22.519	0.163	-0.100
-712.704	231.743	-0.159	0.264
-711.689	140.349	0.025	-0.033
-710.675	76.889	-0.288	0.308
-709.660	148.019	0.061	-0.083
-708.645	60.604	-0.208	-0.208
-707.631	20.248	0.016	0.013
-706.616	-98.343	0.306	-0.079
-705.602	349.771	-0.051	0.102
-704.587	-7.565	-0.400	-0.273
-703.572	800.000	-0.028	0.107
-702.558	-14.366	-0.121	-0.079
-701.543	800.000	-0.125	-0.380
-700.529	800.000	0.068	-0.193
-699.514	-200.000	-0.030	-0.210
-698.499	-51.253	-0.164	0.077
-697.485	615.384	0.154	0.388
-696.470	-17.407	-0.440	0.279
-695.456	289.551	-0.115	0.210
-694.441	-200.000	-0.046	-0.363
-693.426	800.000	-0.049	-0.169
-692.412	-7.349	0.147	-0.101
-691.397	7.298	0.109	0.082
-690.383	-105.697	-0.260	0.059
-689.368	293.192	-0.125	0.230
-688.354	158.401	0.179	0.250
-687.339	-72.767	-0.419	0.155
-686.324	-132.568	0.135	0.017
-685.310	-122.035	-0.065	0.011
-684.295	26.915	0.167	-0.141
-683.281	-111.466	0.134	-0.028
-682.266	-200.000	0.022	-0.195
-681.251	-92.873	-0.214	-0.060
-680.237	73.556	-0.112	-0.118
-679.222	771.551	0.048	-0.131
-678.208	34.700	-0.302	-0.266
-677.193	800.000	0.060	-0.264
-676.178	-149.780	0.170	-0.013
-675.164	61.421	-0.186	0.186
-674.149	-200.000	-0.043	-0.239
-673.135	-67.949	-0.084	-0.033
-672.120	67.893	-0.203	0.209
-671.105	-0.505	-0.283	-0.202
-670.091	-25.491	-0.071	-0.042
-669.076	800.000	-0.028	-0.108
-668.062	-59.511	-0.017	0.007
-667.047	-200.000	0.026	-0.274
-666.032	-103.216	0.172	0.041
-665.018	-200.000	-0.012	0.250
-664.003	222.251	-0.118	-0.190
-662.989	32.146	0.154	-0.134
-661.974	58.317	0.068	0.068
-660.959	120.502	-0.081	0.101
-659.945	-179.064	-0.102	0.002
-658.930	-137.285	-0.228	0.026
-657.916	167.406	-0.155	0.222
-656.901	-14.994	-0.424	0.274
-655.886	-200.000	-0.003	0.134
-654.872	80.238	0.073	-0.080
-653.857	800.000	-0.092	0.304
-652.843	99.069	0.270	0.314
-651.828	189.285	0.198	-0.298
-650.814	115.852	0.161	0.198
-649.799	800.000	0.085	-0.303
-648.784	800.000	0.080	-0.257
-647.770	-29.984	0.284	-0.162
-646.755	89.371	-0.053	-0.059
-645.741	115.016	-0.114	0.140
-644.726	-200.000	-0.012	0.315
-643.711	182.061	0.027	0.041
-642.697	-137.949	-0.214	0.024
-641.682	-37.722	0.127	-0.068
-640.668	36.846	0.043	0.038
-639.653	-200.000	0.087	0.415
-638.638	763.196	-0.054	-0.148
-637.624	-200.000	0.019	0.100
-636.609	-58.289	0.010	0.005
-635.595	-107.696	-0.388	0.085
-634.580	22.411	0.144	-0.119
-633.565	-33.776	0.158	-0.088
-632.551	483.470	-0.168	-0.385
-631.536	-79.146	0.307	-0.105
-630.522	179.565	-0.205	0.302
-629.507	5.972	-0.178	0.133
-628.492	54.109	-0.110	0.106
-627.478	150.855	-0.198	0.271
-626.463	800.000	0.029	-0.091
-625.449	-200.000	-0.012	-0.284
-624.434	-146.427	-0.084	-0.007
-623.419	-140.792	-0.226	0.023
-622.405	-152.849	0.068	0.005
-621.390	-17.706	0.109	0.069
-620.376	-129.908	0.072	0.010
-619.361	800.000	0.037	-0.112
-618.346	206.535	0.085	0.133
-617.332	-120.529	-0.233	-0.040
-616.317	-31.917	0.114	-0.064
-615.303	800.000	-0.082	-0.298
-614.288	-68.111	0.180	0.070
-613.273	-92.294	-0.047	0.013
-612.259	195.575	-0.029	0.044
-611.244	47.450	-0.083	-0.078
-610.230	-200.000	-0.001	-0.249
-609.215	-15.609	-0.183	0.117
-608.201	-57.434	-0.296	-0.130
-607.186	424.535	0.096	0.206
-606.171	-74.496	-0.325	0.118
-605.157	201.635	0.041	-0.063
-604.142	-200.000	-0.020	-0.200
-603.128	-94.292	-0.214	0.059
-602.113	-43.962	0.338	0.170
-601.098	39.726	-0.154	-0.138
-600.084	-200.000	0.009	-0.272
-599.069	-91.685	-0.103	0.029
-598.055	-86.137	0.258	-0.080
-597.040	117.719	0.171	0.211
-596.025	-52.651	0.078	-0.036
-595.011	-28.584	-0.293	0.170
-593.996	22.952	-0.048	-0.040
-592.982	-200.000	0.056	-0.269
-591.967	-200.000	0.020	-0.179
-590.952	245.769	-0.058	0.098
-589.938	-200.000	0.022	-0.130
-588.923	204.277	-0.261	0.406
-587.909	92.928	-0.147	0.167
-586.894	517.262	0.121	0.283
-585.879	46.253	0.248	-0.230
-584.865	-200.000	0.047	0.206
-583.850	104.885	-0.066	0.078
-582.836	-140.916	0.071	-0.007
-581.821	-123.435	0.233	-0.037
-580.806	-57.533	0.387	0.170
-579.792	-102.044	-0.132	0.032
-578.777	55.764	-0.302	0.294
-577.763	-17.016	0.180	0.114
-576.748	-200.000	-0.017	-0.211
-575.733	-65.978	0.500	-0.200
-574.719	225.575	0.189	0.307
-573.704	-120.399	0.341	0.058
-572.690	-200.000	-0.010	-0.049
-571.675	-19.572	0.183	-0.114
-570.661	800.000	0.028	0.123
-569.646	312.023	0.130	0.245
-568.631	172.792	-0.166	0.240
-567.617	-115.442	-0.305	-0.058
-566.602	73.471	0.221	-0.232
-565.588	611.282	0.099	-0.247
-564.573	-200.000	-0.034	-0.195
-563.558	-94.243	0.148	-0.040
-562.544	-77.488	-0.176	-0.061
-561.529	298.940	0.135	-0.249
-560.515	-200.000	-0.007	-0.211
-559.500	58.542	-0.071	-0.070
-558.485	-200.000	0.029	-0.371
-557.471	314.724	0.193	-0.365
-556.456	203.870	-0.112	-0.174
-555.442	-36.944	0.284	-0.152
-554.427	30.267	0.176	0.151
-553.412	486.269	0.081	-0.185
-552.398	-15.786	0.028	0.018
-551.383	28.963	-0.110	-0.094
-550.369	-66.820	0.238	-0.094
-549.354	-87.938	-0.138	-0.042
-548.339	-155.065	-0.085	-0.006
-547.325	-83.776	0.154	-0.049
-546.310	15.481	-0.245	-0.193
-545.296	261.242	-0.112	0.194
-544.281	246.084	0.049	-0.083
-543.266	99.994	-0.259	-0.300
-542.252	37.955	0.157	0.140
-541.237	800.000	-0.063	-0.200
-540.223	-109.710	-0.222	-0.047
-539.208	38.562	0.173	0.154
-538.193	-200.000	0.041	-0.393
-537.179	-200.000	-0.021	-0.140
-536.164	66.183	-0.128	0.130
-535.150	-120.388	0.201	-0.034
-534.135	-62.493	-0.300	0.125
-533.121	136.656	0.177	-0.232
-532.106	-46.989	-0.343	0.168
-531.091	41.982	-0.145	0.132
-530.077	113.240	0.140	0.170
-529.062	-200.000	-0.004	-0.184
-528.048	-84.411	0.211	-0.067
-527.033	-200.000	0.002	-0.249
-526.018	5.493	-0.130	0.096
-525.004	-200.000	-0.028	0.291
-523.989	-60.100	-0.112	0.048
-522.975	98.719	-0.193	-0.223
-521.960	-200.000	0.013	-0.293
-520.945	-200.000	0.046	-0.365
-519.931	800.000	0.059	-0.187
-518.916	-110.254	0.232	-0.048
-517.902	698.243	0.093	-0.245
-516.887	-200.000	-0.020	-0.174
-515.872	-58.035	-0.312	-0.136
-514.858	-167.518	-0.459	0.018
-513.843	-200.000	-0.012	0.106
-512.829	800.000	-0.084	0.276
-511.814	-200.000	-0.027	0.170
-510.799	-138.678	-0.204	0.022
-509.785	410.354	0.121	-0.256
-508.770	-200.000	0.010	0.253
-507.756	52.159	-0.076	-0.072
-506.741	-200.000	0.021	-0.404
-505.726	-86.633	-0.185	-0.057
-504.712	134.957	-0.263	0.341
-503.697	32.280	0.188	0.162
-502.683	-2.347	-0.205	-0.144
-501.668	89.226	-0.061	-0.068
-500.653	800.000	0.026	0.082
-499.639	-200.000	-0.298	0.000
-498.624	-200.000	-0.014	0.174
-497.610	155.915	0.072	0.099
-496.595	-106.555	0.199	0.044
-495.581	-200.000	-0.030	-0.163
-494.566	1.586	-0.141	0.102
-493.551	-38.754	-0.162	-0.085
-492.537	-7.600	0.107	-0.072
-491.522	96.075	-0.154	-0.175
-490.508	-84.694	0.192	-0.060
-489.493	-57.842	0.113	0.049
-488.478	181.516	-0.192	-0.282
-487.464	-137.428	-0.062	0.007
-486.449	800.000	-0.021	0.079
-485.435	173.339	-0.268	-0.386
-484.420	165.948	-0.195	0.276
-483.405	800.000	0.028	0.085
-482.391	365.442	0.162	-0.327
-481.376	-200.000	-0.074	0.366
-480.362	123.701	0.063	0.079
-479.347	451.411	0.033	-0.073
-478.332	45.858	-0.132	0.122
-477.318	800.000	0.028	-0.085
-476.303	-95.973	-0.222	0.059
-475.289	11.291	0.106	0.081
-474.274	-183.992	0.297	-0.005
-473.259	-22.139	0.129	0.078
-472.245	-53.006	0.212	0.097
-471.230	-200.000	-0.005	-0.193
-470.216	195.128	-0.122	0.185
-469.201	-78.344	0.073	-0.025
-468.186	-200.000	-0.025	-0.141
-467.172	260.803	0.252	-0.436
-466.157	800.000	-0.083	-0.246
-465.143	-158.304	-0.433	-0.025
-464.128	165.587	-0.326	0.461
-463.113	-133.172	0.554	0.070
-462.099	800.000	-0.098	0.286
-461.084	-200.000	0.013	0.342
-460.070	800.000	-0.071	0.286
-459.055	-77.284	0.419	-0.146
-458.040	-200.000	0.004	-0.232
-457.026	134.972	-0.195	0.253
-456.011	11.851	0.126	-0.096
-454.997	-200.000	0.048	-0.348
-453.982	-200.000	-0.009	0.126
-452.968	-200.000	0.076	0.378
-451.953	-130.087	0.223	0.030
-450.938	-99.387	-0.196	0.049
-449.924	-200.000	-0.012	-0.099
-448.909	-13.144	-0.104	-0.067
-447.895	-120.533	0.286	-0.048
-446.880	-97.129	0.403	0.105
-445.865	-79.629	0.058	0.020
-444.851	-24.575	0.161	0.096
-443.836	-200.000	0.007	0.045
-442.822	469.493	-0.086	-0.192
-441.807	706.770	-0.041	-0.107
-440.792	84.216	0.235	0.256
-439.778	-78.303	0.124	-0.043
-438.763	-136.458	0.234	-0.027
-437.749	-200.000	0.009	-0.145
-436.734	44.061	-0.217	-0.198
-435.719	78.575	0.116	-0.124
-434.705	36.010	0.004	0.003
-433.690	308.398	0.072	0.134
-432.676	-165.765	-0.178	-0.008
-431.661	-102.234	-0.584	0.140
-430.646	-146.132	0.188	-0.017
-429.632	-53.910	0.177	-0.080
-428.617	83.611	0.070	0.076
-427.603	-25.228	0.230	0.136
-426.588	3.455	0.160	-0.116
-425.573	150.060	-0.069	0.093
-424.559	800.000	0.109	0.317
-423.544	-19.067	-0.131	0.081
-422.530	39.816	-0.158	0.141
-421.515	474.144	0.036	0.081
-420.500	800.000	-0.075	0.216
-419.486	-200.000	0.094	0.415
-418.471	36.465	0.144	0.127
-417.457	115.001	0.074	0.090
-416.442	-21.395	-0.197	-0.120
-415.428	71.334	-0.154	0.159
-414.413	-200.000	0.019	-0.268
-413.398	456.366	0.073	-0.161
-412.384	800.000	-0.094	-0.288
-411.369	-200.000	0.005	-0.128
-410.355	153.978	-0.166	-0.227
-409.340	-116.310	-0.247	-0.046
-408.325	-52.600	0.327	0.151
-407.311	-200.000	-0.026	0.199
-406.296	274.898	-0.091	0.161
-405.282	202.478	-0.162	-0.249
-404.267	-200.000	-0.088	0.429
-403.252	-200.000	0.051	-0.223
-402.238	565.813	-0.111	0.269
-401.223	-56.536	0.245	0.108
-400.209	-100.084	0.286	0.071
-399.194	-73.438	-0.069	0.025
-398.179	-200.000	0.057	-0.323
-397.165	-112.228	0.200	0.040
-396.150	-134.455	0.224	0.027
-395.136	164.344	-0.100	0.140
-394.121	172.725	-0.229	-0.329
-393.106	108.204	0.014	0.017
-392.092	800.000	-0.057	0.199
-391.077	242.161	0.085	0.142
-390.063	-110.980	-0.270	0.055
-389.048	-200.000	0.037	0.249
-388.033	-67.345	0.100	-0.039
-387.019	-105.095	0.261	0.059
-386.004	-176.775	0.155	-0.004
-384.990	4.083	-0.116	-0.084
-383.975	407.201	-0.058	0.121
-382.960	-148.432	-0.343	-0.028
-381.946	64.222	0.144	-0.144
-380.931	-102.221	0.370	0.089
-379.917	-194.087	0.336	0.003
-378.902	-138.626	0.239	0.026
-377.888	-200.000	0.015	-0.091
-376.873	357.110	-0.056	-0.111
-375.858	-11.643	0.069	-0.045
-374.844	-200.000	0.051	-0.255
-373.829	89.518	0.058	0.064
-372.815	50.542	-0.254	-0.239
-371.800	-64.704	-0.158	0.064
-370.785	19.364	-0.092	0.074
-369.771	319.504	0.151	0.284
-368.756	-62.156	-0.066	0.027
-367.742	-83.887	0.114	-0.036
-366.727	-200.000	0.008	0.062
-365.712	-200.000	-0.042	-0.253
-364.698	-3.836	0.036	0.025
-363.683	-70.699	-0.308	-0.116
-362.669	-200.000	0.013	-0.062
-361.654	414.920	0.065	-0.138
-360.639	2.610	-0.241	-0.174
-359.625	-129.107	0.252	-0.035
-358.610	-130.936	0.289	-0.038
-357.596	21.849	0.085	-0.069
-356.581	102.059	0.222	-0.258
-355.566	800.000	-0.030	0.125
-354.552	-143.604	0.328	0.031
-353.537	408.908	-0.115	-0.242
-352.523	46.425	0.098	-0.090
-351.508	800.000	-0.110	0.411
-350.493	133.073	0.129	0.165
-349.479	-137.419	0.200	0.023
-348.464	-65.755	-0.090	0.036
-347.450	-36.812	-0.263	-0.140
-346.435	246.452	-0.039	-0.065
-345.420	-200.000	0.012	0.290
-344.406	-200.000	0.011	-0.096
-343.391	623.615	-0.146	0.367
-342.377	800.000	-0.067	-0.278
-341.362	-93.763	-0.155	-0.042
-340.348	99.878	-0.182	0.209
-339.333	-200.000	0.061	-0.413
-338.318	132.348	-0.113	-0.145
-337.304	45.483	0.115	0.106
-336.289	-179.666	-0.251	-0.005
-335.275	800.000	0.060	-0.182
-334.260	-131.100	0.029	0.004
-333.245	36.126	-0.202	-0.176
-332.231	-80.999	-0.316	0.104
-331.216	118.986	-0.089	0.110
-330.202	65.786	-0.163	0.164
-329.187	62.902	-0.071	-0.070
-328.172	309.707	0.277	0.515
-327.158	-200.000	-0.002	-0.058
-326.143	-200.000	0.018	-0.156
-325.129	-149.352	-0.193	-0.015
-324.114	-200.000	0.005	-0.085
-323.099	-28.167	0.162	-0.093
-322.085	49.821	-0.234	0.219
-321.070	800.000	-0.060	-0.259
-320.056	-200.000	-0.044	0.438
-319.041	115.015	-0.244	-0.296
-318.026	211.186	0.129	0.201
-317.012	186.304	-0.111	-0.163
-315.997	86.474	-0.024	-0.026
-314.983	-153.188	-0.317	0.022
-313.968	642.207	0.125	-0.317
-312.953	-200.000	-0.073	-0.431
-311.939	-91.718	-0.103	-0.029
-310.924	4.389	0.069	0.050
-309.910	-200.000	0.029	0.238
-308.895	-193.148	-0.077	0.001
-307.880	-167.539	-0.088	-0.003
-306.866	43.946	0.118	-0.107
-305.851	-25.590	-0.195	-0.114
-304.837	83.968	0.203	0.220
-303.822	-95.264	0.094	0.025
-302.807	76.873	0.261	-0.275
-301.793	800.000	0.003	-0.008
-300.778	-11.526	0.092	0.060
-299.764	-77.895	-0.078	0.027
-298.749	800.000	-0.079	-0.289
-297.735	-61.886	-0.332	-0.138
-296.720	27.407	0.060	-0.050
-295.705	-99.983	-0.213	0.053
-294.691	800.000	-0.067	0.191
-293.676	-156.431	-0.236	0.015
-292.662	-108.813	0.194	-0.041
-291.647	270.910	-0.173	0.303
-290.632	-200.000	0.040	0.255
-289.618	-200.000	0.030	0.487
-288.603	-149.875	-0.252	0.020
-287.589	150.907	-0.177	0.239
-286.574	227.212	-0.089	-0.144
-285.559	800.000	-0.120	0.422
-284.545	-162.977	0.156	-0.007
-283.530	-200.000	-0.017	-0.272
-282.516	-200.000	-0.044	-0.197
-281.501	-88.063	0.444	0.132
-280.486	-70.706	-0.049	0.018
-279.472	-17.809	-0.059	0.037
-278.457	800.000	0.014	0.041
-277.443	-200.000	-0.014	0.364
-276.428	-177.102	0.224	-0.006
-275.413	-200.000	0.030	-0.295
-274.399	-95.536	0.233	0.062
-273.384	370.403	-0.088	0.176
-272.370	62.049	-0.308	0.305
-271.355	800.000	-0.052	-0.170
-270.340	-16.843	0.065	0.041
-269.326	-200.000	0.054	0.343
-268.311	800.000	-0.060	0.179
-267.297	-200.000	0.001	0.080
-266.282	-200.000	0.020	-0.220
-265.267	254.476	-0.092	0.155
-264.253	27.752	-0.226	0.188
-263.238	-162.807	-0.097	-0.005
-262.224	47.036	-0.090	-0.083
-261.209	-73.222	0.235	-0.085
-260.195	7.644	0.331	-0.245
-259.180	800.000	-0.006	-0.020
-258.165	-29.958	0.112	0.063
-257.151	-128.281	0.132	-0.019
-256.136	4.465	0.111	0.081
-255.122	58.223	-0.206	-0.200
-254.107	132.385	0.167	0.213
-253.092	13.522	0.118	0.091
-252.078	800.000	-0.056	0.157
-251.063	-84.357	0.259	-0.081
-250.049	23.061	0.221	-0.180
-249.034	6.783	-0.188	-0.138
-248.019	-100.339	0.114	0.028
-247.005	37.268	-0.154	0.135
-245.990	-200.000	-0.015	-0.136
-244.976	-200.000	-0.038	-0.393
-243.961	800.000	-0.098	0.331
-242.946	-200.000	0.016	-0.149
-241.932	73.489	-0.103	-0.107
-240.917	-84.342	-0.512	0.160
-239.903	654.547	-0.101	0.256
-238.888	-20.472	0.155	-0.094
-237.873	85.717	-0.195	0.212
-236.859	-74.088	0.391	0.140
-235.844	302.937	0.128	0.235
-234.830	-132.191	0.069	-0.009
-233.815	-200.000	-0.019	0.358
-232.800	-23.717	-0.235	0.139
-231.786	800.000	0.126	0.390
-230.771	182.684	0.085	-0.124
-229.757	16.861	0.345	0.271
-228.742	251.163	-0.186	0.312
-227.727	-200.000	0.024	0.143
-226.713	671.087	-0.186	-0.475
-225.698	-103.522	-0.052	-0.012
-224.684	20.942	-0.054	-0.043
-223.669	142.602	-0.022	0.029
-222.655	-200.000	-0.009	-0.204
-221.640	689.369	-0.032	-0.082
-220.625	131.355	0.178	-0.226
-219.611	-200.000	0.023	0.216
-218.596	205.314	-0.100	0.153
-217.582	192.628	0.120	-0.180
-216.567	-34.185	0.324	-0.176
-215.552	-43.594	0.418	0.208
-214.538	133.759	0.103	-0.132
-213.523	12.622	-0.184	-0.140
-212.509	79.900	0.118	-0.126
-211.494	-200.000	0.035	0.197
-210.479	800.000	0.084	0.350
-209.465	-35.113	0.218	0.117
-208.450	800.000	-0.078	-0.294
-207.436	-25.806	-0.231	-0.134
-206.421	369.067	-0.092	0.184
-205.406	-200.000	0.010	-0.113
-204.392	-131.605	-0.114	0.015
-203.377	42.894	0.095	-0.085
-202.363	493.722	0.007	-0.016
-201.348	-200.000	-0.016	-0.284
-200.333	-36.953	0.220	0.117
-199.319	-80.334	0.211	-0.070
-198.304	-200.000	-0.011	0.099
-197.290	157.218	0.099	0.136
-196.275	5.441	-0.085	-0.062
-195.260	7.755	-0.100	-0.074
-194.246	-200.000	0.031	-0.189
-193.231	-101.644	-0.122	-0.029
-192.217	42.376	-0.019	0.017
-191.202	19.621	0.122	-0.097
-190.187	-99.911	-0.084	0.021
-189.173	-86.315	0.300	0.091
-188.158	-200.000	-0.008	0.166
-187.144	76.114	-0.315	-0.330
-186.129	-47.682	0.333	0.160
-185.114	-86.575	-0.283	0.086
-184.100	-200.000	0.065	0.308
-183.085	278.543	0.153	-0.269
-182.071	-91.213	-0.137	-0.039
-181.056	-31.236	0.250	0.139
-180.042	167.991	0.175	0.246
-179.027	800.000	-0.014	0.049
-178.012	107.060	-0.138	0.161
-176.998	-139.758	-0.292	-0.031
-175.983	215.537	-0.142	0.223
-174.969	369.141	-0.203	-0.406
-173.954	-80.557	0.249	-0.082
-172.939	800.000	-0.028	0.079
-171.925	-80.792	0.191	0.063
-170.910	800.000	-0.062	0.179
-169.896	-200.000	0.021	-0.148
-168.881	-46.719	0.296	0.143
-167.866	15.322	-0.150	0.117
-166.852	-172.914	0.148	0.005
-165.837	-68.922	-0.107	0.041
-164.823	-125.515	-0.268	0.040
-163.808	-80.543	-0.152	-0.050
-162.793	34.495	-0.179	-0.154
-161.779	183.724	-0.158	-0.231
-160.764	-149.661	-0.163	0.013
-159.750	-87.492	0.116	-0.035
-158.735	11.635	0.095	-0.072
-157.720	-76.219	0.156	-0.054
-156.706	609.969	0.068	-0.167
-155.691	-148.880	0.338	-0.027
-154.677	-18.286	0.142	-0.088
-153.662	19.123	-0.258	0.204
-152.647	-200.000	-0.031	0.158
-151.633	-93.331	-0.083	-0.023
-150.618	37.535	0.229	0.201
-149.604	-167.211	-0.459	-0.018
-148.589	800.000	0.021	-0.063
-147.574	800.000	-0.083	-0.235
-146.560	-114.306	0.203	0.039
-145.545	55.653	0.303	0.289
-144.531	-100.829	0.150	-0.036
-143.516	-90.923	-0.267	-0.076
-142.502	48.180	0.216	-0.199
-141.487	176.655	-0.201	-0.287
-140.472	-200.000	-0.049	-0.280
-139.458	310.992	0.094	0.174
-138.443	-92.449	0.216	0.060
-137.429	441.238	0.026	0.055
-136.414	-28.944	0.291	-0.165
-135.399	120.449	-0.172	0.210
-134.385	-68.846	-0.195	0.074
-133.370	-200.000	0.023	-0.229
-132.356	-167.801	0.254	0.010
-131.341	-200.000	0.023	0.228
-130.326	105.209	0.210	-0.244
-129.312	-99.843	-0.035	-0.009
-128.297	-200.000	0.026	-0.200
-127.283	800.000	-0.138	0.417
-126.268	652.437	-0.111	0.280
-125.253	800.000	0.022	-0.081
-124.239	-200.000	0.073	0.333
-123.224	800.000	0.019	-0.058
-122.210	16.504	0.259	0.201
-121.195	-93.556	-0.283	0.077
