DTS Sentinel unit serial number:	SN413079Multiplexer serial number:	ORYXHardware model number:	OX4-SRSoftware version number:	ORYX F/W v4.00 Oryx Data Collector v3.7.2.0data status	okinstallation	princeton_trtdifferential loss correction	single-endedforward channel	channel 1reverse channel	N/Adate	2019/09/18time	10:10:36forward acquisition time	60.00reverse acquisition time	0.00gamma	496.2192k internal	0.2329k external	0.2329temperature offset calibration	0.9972default loss term (dB/km)	0.3790temperature slope calibration	1.0000multiplexer offset coefficient	1.0000multiplexer slope coefficient	1.0000fibre end	0.00T internal ref (°C)	27.77T ext. ref 1 (°C)	0.32T ext. ref 2 (°C)	24.27length (m)	temperature (°C)	Stokes	anti-Stokes-747.200	-98.020	0.158	0.041
-746.185	-60.084	-0.277	0.119
-745.171	279.256	-0.185	-0.332
-744.156	-9.914	-0.291	-0.195
-743.142	-200.000	0.083	0.436
-742.127	85.471	-0.176	0.195
-741.112	422.025	0.134	-0.289
-740.098	-4.486	-0.275	0.192
-739.083	-108.345	-0.289	0.063
-738.069	-200.000	0.033	0.370
-737.054	-92.990	0.314	0.088
-736.039	46.095	-0.017	-0.016
-735.025	663.686	-0.080	-0.208
-734.010	-114.657	-0.396	0.076
-732.996	269.416	-0.113	-0.199
-731.981	-76.009	-0.059	-0.021
-730.966	-43.418	-0.192	-0.098
-729.952	-11.563	0.117	-0.077
-728.937	-106.317	-0.076	-0.017
-727.923	48.141	-0.233	0.220
-726.908	417.117	-0.090	-0.194
-725.894	-53.130	0.300	0.139
-724.879	-42.451	-0.139	0.071
-723.864	669.411	-0.109	-0.285
-722.850	-12.427	0.208	-0.136
-721.835	96.650	-0.094	-0.108
-720.821	-57.170	0.082	0.036
-719.806	120.178	-0.213	-0.266
-718.791	800.000	-0.098	-0.289
-717.777	-24.090	-0.187	0.112
-716.762	113.293	-0.100	0.122
-715.748	-123.097	0.241	-0.039
-714.733	555.320	0.058	0.140
-713.718	800.000	-0.119	-0.401
-712.704	-60.152	-0.300	0.129
-711.689	309.520	-0.115	0.217
-710.675	124.141	0.120	0.151
-709.660	-3.408	-0.327	0.229
-708.645	71.216	0.134	-0.139
-707.631	-97.116	-0.316	0.083
-706.616	800.000	-0.069	0.253
-705.602	-190.458	-0.220	0.002
-704.587	-195.455	-0.271	0.002
-703.572	-69.910	0.142	0.054
-702.558	363.283	0.089	-0.179
-701.543	-200.000	0.010	-0.264
-700.529	102.960	0.225	-0.265
-699.514	-64.636	-0.142	-0.058
-698.499	-1.087	-0.192	0.136
-697.485	-112.608	-0.280	0.056
-696.470	-200.000	0.012	0.056
-695.456	-200.000	-0.025	-0.236
-694.441	232.641	0.125	-0.207
-693.426	-200.000	-0.016	0.168
-692.412	79.849	-0.132	0.143
-691.397	574.514	0.104	-0.254
-690.383	131.068	-0.155	0.200
-689.368	800.000	0.059	-0.180
-688.354	-22.929	-0.291	0.176
-687.339	-68.806	-0.510	0.198
-686.324	-59.060	0.354	-0.154
-685.310	-160.195	-0.196	-0.011
-684.295	-200.000	-0.007	0.038
-683.281	52.731	0.222	0.213
-682.266	-73.892	0.256	0.093
-681.251	46.753	0.088	0.082
-680.237	153.446	0.020	0.028
-679.222	-170.903	0.029	-0.001
-678.208	-200.000	-0.020	-0.116
-677.193	-200.000	-0.006	-0.167
-676.178	-200.000	0.017	-0.153
-675.164	-93.821	-0.275	-0.076
-674.149	86.492	-0.258	-0.286
-673.135	505.374	0.025	0.059
-672.120	114.299	-0.036	0.044
-671.105	-24.395	-0.162	0.097
-670.091	-81.457	-0.252	-0.083
-669.076	268.480	-0.087	-0.154
-668.062	-200.000	-0.039	-0.365
-667.047	64.687	-0.090	0.091
-666.032	165.837	0.060	-0.085
-665.018	800.000	-0.094	-0.275
-664.003	179.464	0.056	-0.083
-662.989	-200.000	0.011	0.216
-661.974	142.422	0.080	0.107
-660.959	577.968	0.159	-0.389
-659.945	-200.000	0.006	0.084
-658.930	379.056	-0.087	0.178
-657.916	125.456	-0.071	-0.090
-656.901	-39.534	-0.083	0.044
-655.886	-77.058	0.067	-0.023
-654.872	-64.495	-0.096	0.039
-653.857	800.000	0.056	0.180
-652.843	-74.320	-0.178	0.065
-651.828	78.396	-0.188	-0.201
-650.814	-48.036	0.084	-0.041
-649.799	413.199	0.050	0.107
-648.784	-200.000	-0.062	-0.334
-647.770	191.774	-0.219	-0.331
-646.755	100.757	0.082	0.095
-645.741	-37.896	-0.487	0.260
-644.726	-110.367	0.211	-0.044
-643.711	29.584	0.211	-0.180
-642.697	-48.859	0.111	0.053
-641.682	-152.899	0.315	-0.022
-640.668	-106.395	0.154	0.034
-639.653	112.996	-0.182	-0.221
-638.638	-112.467	-0.490	-0.098
-637.624	-137.633	0.170	0.019
-636.609	612.602	-0.071	0.177
-635.595	128.252	-0.102	-0.130
-634.580	800.000	-0.049	-0.163
-633.565	-117.542	-0.076	-0.014
-632.551	-138.180	0.295	-0.033
-631.536	-200.000	0.017	0.000
-630.522	96.127	-0.129	0.148
-629.507	94.862	0.062	0.071
-628.492	-200.000	0.006	-0.276
-627.478	-200.000	-0.052	-0.232
-626.463	10.582	0.266	0.204
-625.449	-200.000	0.016	-0.376
-624.434	-111.896	0.556	-0.112
-623.419	43.131	-0.048	0.044
-622.405	-200.000	-0.063	0.278
-621.390	-1.549	0.194	-0.137
-620.376	26.622	0.141	0.119
-619.361	254.326	0.161	-0.277
-618.346	51.496	-0.270	-0.257
-617.332	-38.601	0.223	-0.118
-616.317	304.087	-0.186	0.345
-615.303	325.532	-0.101	-0.193
-614.288	257.498	0.119	-0.205
-613.273	109.404	0.080	0.096
-612.259	-123.770	0.170	0.027
-611.244	-200.000	0.067	-0.362
-610.230	2.432	0.287	-0.208
-609.215	-200.000	-0.004	0.025
-608.201	111.027	-0.108	0.131
-607.186	377.155	-0.070	0.142
-606.171	313.924	-0.007	0.014
-605.157	-86.325	0.167	0.052
-604.142	-200.000	0.010	0.262
-603.128	589.470	0.111	-0.274
-602.113	800.000	-0.065	-0.198
-601.098	-200.000	-0.085	-0.398
-600.084	-81.213	0.442	0.146
-599.069	-54.437	0.121	0.055
-598.055	800.000	-0.074	-0.235
-597.040	59.668	-0.098	-0.097
-596.025	47.680	-0.159	0.148
-595.011	194.347	-0.112	0.170
-593.996	-156.608	0.175	0.011
-592.982	254.402	0.034	0.058
-591.967	-83.204	-0.030	0.010
-590.952	-47.499	0.162	0.079
-589.938	223.484	-0.103	0.167
-588.923	108.802	0.288	-0.344
-587.909	26.913	0.306	0.257
-586.894	-200.000	-0.031	-0.188
-585.879	606.294	0.017	-0.042
-584.865	-200.000	0.007	0.356
-583.850	365.094	0.125	0.253
-582.836	800.000	0.067	-0.188
-581.821	-200.000	0.043	0.403
-580.806	23.543	-0.116	0.095
-579.792	101.559	0.235	-0.274
-578.777	137.328	-0.207	0.270
-577.763	68.485	-0.214	-0.220
-576.748	-17.970	-0.194	0.122
-575.733	-200.000	-0.017	0.501
-574.719	126.017	0.271	0.342
-573.704	-41.733	-0.142	0.073
-572.690	-146.845	0.238	-0.021
-571.675	-20.768	-0.279	0.171
-570.661	-119.717	0.201	-0.035
-569.646	-200.000	0.016	-0.256
-568.631	495.014	-0.139	-0.320
-567.617	-126.837	-0.104	0.015
-566.602	-0.766	0.059	-0.042
-565.588	2.562	0.263	0.190
-564.573	-101.402	0.529	0.129
-563.558	254.661	-0.316	-0.541
-562.544	-178.867	0.264	-0.006
-561.529	113.367	-0.127	0.154
-560.515	144.229	-0.144	0.192
-559.500	-51.094	0.235	0.110
-558.485	-96.102	0.193	0.051
-557.471	11.982	0.230	0.177
-556.456	-90.821	-0.238	0.069
-555.442	-110.081	0.125	-0.026
-554.427	132.694	0.246	0.318
-553.412	-200.000	0.017	0.118
-552.398	-81.159	0.089	-0.029
-551.383	-16.225	0.073	0.046
-550.369	672.492	-0.220	-0.571
-549.354	60.262	-0.074	-0.073
-548.339	800.000	0.113	0.356
-547.325	-200.000	0.015	-0.118
-546.310	-200.000	0.026	0.288
-545.296	-31.485	0.159	0.090
-544.281	-92.159	-0.140	-0.039
-543.266	29.783	0.343	0.292
-542.252	-200.000	0.053	-0.319
-541.237	-92.817	0.220	-0.062
-540.223	251.956	-0.230	-0.391
-539.208	-180.313	-0.335	0.007
-538.193	-200.000	-0.004	0.104
-537.179	-31.484	-0.020	-0.011
-536.164	55.117	0.276	-0.266
-535.150	187.004	-0.211	-0.315
-534.135	7.808	0.190	-0.142
-533.121	-16.550	-0.027	-0.017
-532.106	-200.000	0.095	-0.488
-531.091	-56.662	-0.258	-0.114
-530.077	341.220	-0.092	0.180
-529.062	91.494	-0.252	-0.283
-528.048	-114.943	0.058	-0.011
-527.033	-113.942	-0.257	-0.050
-526.018	-33.420	-0.083	-0.046
-525.004	-47.579	-0.122	-0.059
-523.989	-38.339	0.265	0.140
-522.975	-30.282	-0.105	0.060
-521.960	-179.746	-0.154	-0.003
-520.945	73.376	-0.188	0.196
-519.931	-200.000	0.055	-0.244
-518.916	-200.000	-0.004	0.413
-517.902	-115.230	-0.269	0.051
-516.887	-36.167	-0.119	-0.064
-515.872	175.727	0.130	0.188
-514.858	-152.551	-0.176	-0.013
-513.843	800.000	0.090	0.256
-512.829	166.327	0.072	0.102
-511.814	149.724	0.162	0.219
-510.799	82.882	-0.278	0.302
-509.785	-87.740	-0.170	0.051
-508.770	481.515	0.006	0.014
-507.756	-200.000	0.013	-0.065
-506.741	-200.000	-0.029	0.146
-505.726	-200.000	0.031	-0.237
-504.712	-91.503	0.184	-0.052
-503.697	-23.261	-0.142	0.085
-502.683	70.088	-0.027	-0.028
-501.668	-145.726	-0.361	0.032
-500.653	582.858	-0.048	0.119
-499.639	-32.659	-0.204	0.113
-498.624	-22.082	-0.182	0.110
-497.610	-111.624	-0.185	0.037
-496.595	411.968	-0.127	0.269
-495.581	-200.000	-0.000	-0.082
-494.566	-135.749	0.150	0.018
-493.551	234.572	-0.047	0.078
-492.537	194.868	0.082	-0.123
-491.522	-86.813	-0.444	0.135
-490.508	-16.791	0.234	0.148
-489.493	-46.042	0.109	0.054
-488.478	-81.956	0.386	-0.126
-487.464	-129.283	-0.249	0.035
-486.449	23.476	-0.252	0.206
-485.435	-200.000	-0.014	-0.228
-484.420	800.000	0.085	0.296
-483.405	46.175	-0.157	0.145
-482.391	-200.000	-0.003	0.096
-481.376	800.000	0.094	-0.344
-480.362	-150.183	0.392	-0.030
-479.347	150.320	-0.122	-0.165
-478.332	-133.736	-0.262	0.033
-477.318	-81.974	-0.064	0.021
-476.303	-30.771	0.240	0.135
-475.289	125.646	-0.133	-0.168
-474.274	-48.261	-0.077	0.037
-473.259	294.932	-0.050	0.090
-472.245	-149.908	-0.085	-0.007
-471.230	330.766	-0.063	0.121
-470.216	-135.031	-0.246	0.030
-469.201	606.428	-0.108	-0.268
-468.186	503.655	0.112	-0.258
-467.172	125.433	-0.107	0.134
-466.157	669.368	0.198	-0.511
-465.143	186.590	0.070	0.104
-464.128	29.169	-0.105	0.089
-463.113	-200.000	-0.031	0.141
-462.099	-154.355	-0.304	0.020
-461.084	-200.000	0.034	-0.254
-460.070	670.096	-0.080	0.206
-459.055	-30.957	-0.368	-0.207
-458.040	-178.560	0.134	-0.003
-457.026	115.550	-0.114	-0.139
-456.011	-106.796	0.330	0.073
-454.997	800.000	-0.031	0.113
-453.982	336.356	0.041	-0.078
-452.968	446.436	-0.176	0.386
-451.953	87.798	-0.164	-0.181
-450.938	-57.550	0.159	0.069
-449.924	359.133	0.051	-0.101
-448.909	220.571	0.193	0.309
-447.895	-21.086	0.107	0.065
-446.880	78.785	-0.110	0.117
-445.865	800.000	0.102	-0.380
-444.851	-70.854	-0.216	-0.081
-443.836	231.221	0.174	-0.283
-442.822	800.000	0.098	0.414
-441.807	707.286	-0.093	-0.246
-440.792	81.641	0.058	-0.062
-439.778	800.000	0.019	0.067
-438.763	-42.240	-0.261	0.132
-437.749	98.158	0.155	-0.177
-436.734	342.267	0.108	0.211
-435.719	-200.000	0.048	0.416
-434.705	71.591	-0.089	0.092
-433.690	32.267	0.137	-0.118
-432.676	47.534	0.105	-0.098
-431.661	-158.425	-0.338	0.019
-430.646	-72.525	-0.268	0.099
-429.632	-142.503	0.456	0.045
-428.617	-200.000	0.079	0.402
-427.603	-80.274	0.311	0.104
-426.588	-55.317	-0.119	-0.053
-425.573	-82.207	0.178	-0.058
-424.559	73.453	0.262	0.273
-423.544	-86.023	-0.310	-0.095
-422.530	720.486	-0.044	0.116
-421.515	800.000	-0.045	0.191
-420.500	-200.000	0.009	-0.107
-419.486	800.000	0.056	0.180
-418.471	-95.445	0.061	-0.016
-417.457	-200.000	-0.041	-0.217
-416.442	0.807	0.011	0.008
-415.428	-200.000	-0.179	0.000
-414.413	74.204	-0.169	-0.176
-413.398	-123.546	0.076	-0.012
-412.384	-31.377	-0.089	-0.050
-411.369	800.000	-0.050	-0.172
-410.355	666.514	-0.063	0.161
-409.340	116.083	-0.241	-0.294
-408.325	-159.133	-0.160	-0.009
-407.311	157.275	-0.125	-0.172
-406.296	35.181	-0.209	-0.182
-405.282	465.847	-0.121	-0.268
-404.267	34.706	0.087	-0.076
-403.252	613.227	0.160	-0.398
-402.238	295.026	-0.184	-0.334
-401.223	285.549	-0.065	-0.116
-400.209	-77.400	0.108	-0.037
-399.194	-107.598	-0.167	-0.036
-398.179	-103.787	0.228	0.053
-397.165	167.960	-0.104	-0.146
-396.150	-200.000	0.009	0.211
-395.136	800.000	0.050	-0.147
-394.121	-42.369	-0.178	0.090
-393.106	14.512	0.115	0.089
-392.092	48.660	-0.082	-0.076
-391.077	402.765	-0.092	-0.192
-390.063	-4.035	-0.069	-0.048
-389.048	3.634	-0.226	0.164
-388.033	309.371	-0.139	0.258
-387.019	-58.075	-0.142	0.062
-386.004	-147.763	-0.117	0.010
-384.990	254.256	0.071	0.121
-383.975	-37.855	0.069	-0.037
-382.960	72.285	-0.257	0.266
-381.946	800.000	0.084	0.240
-380.931	-80.847	-0.155	0.051
-379.917	800.000	0.045	0.163
-378.902	-118.284	-0.255	-0.045
-377.888	-27.658	-0.253	-0.146
-376.873	-200.000	-0.047	0.388
-375.858	-12.051	0.039	-0.025
-374.844	800.000	0.034	-0.094
-373.829	800.000	0.031	-0.104
-372.815	147.385	0.205	0.274
-371.800	-144.912	-0.055	-0.005
-370.785	-200.000	0.012	-0.221
-369.771	800.000	-0.067	0.223
-368.756	-32.553	0.184	-0.102
-367.742	-101.572	0.521	-0.126
-366.727	800.000	0.062	0.233
-365.712	-50.022	-0.275	-0.129
-364.698	83.085	0.118	-0.127
-363.683	800.000	0.029	-0.106
-362.669	71.463	0.082	0.084
-361.654	-200.000	0.027	0.136
-360.639	-176.973	-0.237	-0.006
-359.625	230.221	0.010	0.017
-358.610	-39.436	0.203	-0.106
-357.596	-40.627	0.360	-0.185
-356.581	-8.119	-0.106	0.071
-355.566	428.765	-0.046	0.099
-354.552	226.867	-0.173	-0.278
-353.537	800.000	0.050	-0.205
-352.523	-87.566	0.210	-0.063
-351.508	-151.966	-0.268	0.019
-350.493	83.533	-0.113	0.122
-349.479	153.744	0.178	0.242
-348.464	-10.259	0.124	0.082
-347.450	48.820	0.207	0.193
-346.435	398.243	-0.157	0.326
-345.420	486.048	-0.109	-0.246
-344.406	45.067	0.068	0.062
-343.391	-200.000	0.107	0.506
-342.377	399.546	-0.140	-0.290
-341.362	800.000	-0.055	0.192
-340.348	65.823	-0.042	-0.042
-339.333	4.803	-0.065	-0.047
-338.318	440.653	-0.152	0.329
-337.304	148.656	0.066	0.089
-336.289	800.000	-0.041	-0.134
-335.275	23.141	-0.056	-0.045
-334.260	177.733	-0.043	0.062
-333.245	-57.569	0.011	0.005
-332.231	-200.000	-0.013	-0.194
-331.216	-32.995	-0.160	0.088
-330.202	285.527	0.070	0.125
-329.187	185.799	0.104	-0.152
-328.172	-72.402	-0.409	0.150
-327.158	621.882	-0.085	-0.213
-326.143	-7.545	-0.213	0.143
-325.129	374.063	-0.157	-0.316
-324.114	456.747	-0.156	0.344
-323.099	-96.706	0.189	0.049
-322.085	101.580	-0.037	0.043
-321.070	-112.478	-0.485	0.096
-320.056	-200.000	-0.036	-0.275
-319.041	-159.345	-0.197	-0.011
-318.026	114.507	-0.220	0.265
-317.012	635.432	-0.045	0.113
-315.997	615.771	-0.105	-0.260
-314.983	253.882	0.108	0.183
-313.968	-70.477	-0.270	0.101
-312.953	-200.000	0.060	0.342
-311.939	-113.610	0.293	-0.057
-310.924	-134.446	-0.222	-0.027
-309.910	485.278	-0.051	-0.115
-308.895	105.166	0.170	0.198
-307.880	800.000	-0.019	0.066
-306.866	-122.711	-0.126	-0.020
-305.851	344.750	0.166	-0.322
-304.837	92.325	0.182	-0.203
-303.822	-200.000	0.011	-0.213
-302.807	-38.187	-0.192	-0.101
-301.793	403.679	-0.015	0.031
-300.778	-139.624	-0.248	-0.026
-299.764	-23.252	0.407	0.242
-298.749	50.608	0.372	-0.349
-297.735	92.557	-0.073	-0.082
-296.720	-187.130	0.247	0.003
-295.705	-160.906	0.177	0.009
-294.691	194.487	-0.122	0.182
-293.676	116.132	0.120	0.146
-292.662	400.012	0.096	0.199
-291.647	-25.891	-0.024	-0.014
-290.632	-200.000	-0.003	0.230
-289.618	325.098	-0.131	0.247
-288.603	3.750	0.153	-0.110
-287.589	-200.000	0.037	0.166
-286.574	-19.857	-0.177	0.108
-285.559	-162.575	0.060	-0.003
-284.545	-57.015	0.281	-0.123
-283.530	257.817	0.013	0.023
-282.516	800.000	0.061	0.177
-281.501	251.061	0.110	-0.185
-280.486	-24.871	-0.126	-0.074
-279.472	-133.828	-0.047	0.006
-278.457	800.000	-0.139	-0.401
-277.443	7.587	-0.114	-0.084
-276.428	-54.530	-0.331	0.148
-275.413	-14.834	-0.271	0.172
-274.399	-22.771	0.308	0.184
-273.384	-18.640	-0.200	-0.123
-272.370	-25.908	0.125	-0.073
-271.355	-25.846	-0.209	-0.122
-270.340	-200.000	0.010	-0.214
-269.326	243.961	0.096	0.160
-268.311	497.182	-0.141	-0.320
-267.297	-114.434	-0.145	0.027
-266.282	-69.172	0.286	-0.109
-265.267	-200.000	-0.020	-0.479
-264.253	306.873	-0.122	-0.224
-263.238	-23.021	-0.165	-0.099
-262.224	-200.000	0.023	-0.217
-261.209	-200.000	0.003	-0.095
-260.195	-114.700	0.250	0.047
-259.180	51.289	-0.137	0.129
-258.165	-168.774	-0.089	-0.003
-257.151	315.634	0.080	0.148
-256.136	130.512	-0.064	0.081
-255.122	-46.283	-0.261	-0.127
-254.107	-200.000	-0.013	0.137
-253.092	-200.000	0.034	0.312
-252.078	-86.582	-0.224	0.068
-251.063	-200.000	0.027	-0.204
-250.049	-117.888	0.061	0.011
-249.034	-200.000	-0.043	0.320
-248.019	343.967	-0.172	-0.334
-247.005	-63.585	-0.348	0.141
-245.990	-10.335	0.222	-0.145
-244.976	-116.340	0.401	-0.073
-243.961	18.394	0.134	0.105
-242.946	1.921	0.113	0.080
-241.932	-140.345	-0.061	-0.006
-240.917	227.612	-0.036	-0.058
-239.903	-120.228	-0.455	0.077
-238.888	581.929	-0.062	0.151
-237.873	152.590	0.154	0.208
-236.859	16.006	0.243	-0.189
-235.844	461.884	-0.151	0.332
-234.830	-23.875	0.081	-0.048
-233.815	-109.643	-0.043	0.009
-232.800	-67.161	0.233	-0.091
-231.786	-167.768	0.234	0.009
-230.771	122.908	0.123	-0.152
-229.757	111.373	-0.070	0.083
-228.742	-169.018	-0.185	-0.007
-227.727	-42.184	0.220	0.111
-226.713	12.783	0.130	0.099
-225.698	-200.000	-0.009	0.265
-224.684	-121.330	0.186	0.031
-223.669	-15.009	0.238	0.151
-222.655	189.510	0.106	0.156
-221.640	-36.573	0.194	0.103
-220.625	-170.013	-0.254	0.009
-219.611	-131.581	0.235	0.031
-218.596	-35.315	0.182	0.098
-217.582	-200.000	0.020	-0.112
-216.567	221.544	-0.142	0.225
-215.552	-77.014	0.193	0.067
-214.538	-80.947	-0.124	0.040
-213.523	-124.673	-0.186	-0.028
-212.509	-200.000	0.001	-0.163
-211.494	119.341	0.066	-0.081
-210.479	800.000	-0.020	0.054
-209.465	258.011	0.074	0.125
-208.450	166.316	-0.042	-0.058
-207.436	-20.483	0.119	-0.072
-206.421	-21.274	0.166	-0.100
-205.406	0.890	-0.307	0.217
-204.392	-129.978	0.382	0.052
-203.377	-119.781	-0.330	-0.056
-202.363	21.768	-0.163	-0.131
-201.348	800.000	0.057	-0.155
-200.333	800.000	-0.025	-0.102
-199.319	150.701	0.070	0.094
-198.304	-22.171	-0.228	-0.136
-197.290	-120.941	0.346	-0.057
-196.275	-129.263	0.230	0.032
-195.260	392.832	-0.085	0.174
-194.246	-89.289	-0.291	-0.084
-193.231	-35.947	0.144	0.077
-192.217	800.000	0.176	0.652
-191.202	-7.919	0.346	0.230
-190.187	800.000	-0.026	0.076
-189.173	-16.122	0.293	0.184
-188.158	-108.172	0.398	-0.085
-187.144	-200.000	-0.045	-0.465
-186.129	-1.496	0.296	-0.206
-185.114	14.980	0.168	-0.129
-184.100	-88.831	0.223	-0.065
-183.085	-39.896	-0.167	-0.086
-182.071	-54.790	0.508	-0.226
-181.056	19.935	0.190	0.151
-180.042	406.801	-0.090	-0.187
-179.027	575.181	-0.082	-0.197
-178.012	-200.000	0.028	-0.166
-176.998	-95.366	0.309	-0.082
-175.983	82.497	0.271	0.290
-174.969	800.000	0.015	-0.050
-173.954	-200.000	0.046	-0.281
-172.939	-200.000	0.150	0.000
-171.925	-110.907	0.352	0.071
-170.910	656.423	-0.171	-0.434
-169.896	800.000	-0.149	-0.572
-168.881	218.408	0.046	0.073
-167.866	37.074	0.141	-0.123
-166.852	-200.000	0.024	0.185
-165.837	-66.073	-0.253	0.099
-164.823	-23.844	-0.131	0.077
-163.808	472.540	-0.029	-0.065
-162.793	800.000	-0.061	-0.194
-161.779	-19.466	-0.185	0.113
-160.764	-22.373	-0.121	-0.072
-159.750	8.401	-0.162	0.120
-158.735	-25.245	-0.255	0.149
-157.720	80.605	0.125	-0.133
-156.706	230.689	0.049	0.079
-155.691	-81.773	-0.281	-0.091
-154.677	33.934	0.082	0.070
-153.662	-121.406	-0.350	-0.057
-152.647	73.232	0.055	0.057
-151.633	800.000	0.067	-0.250
-150.618	800.000	-0.049	-0.176
-149.604	11.749	-0.274	0.207
-148.589	423.691	0.124	0.262
-147.574	-56.865	0.297	-0.129
-146.560	394.464	0.113	0.232
-145.545	199.812	0.164	0.247
-144.531	66.630	0.198	0.198
-143.516	-39.977	-0.106	0.054
-142.502	-131.749	-0.193	-0.025
-141.487	103.430	-0.043	0.050
-140.472	-106.216	-0.235	0.052
-139.458	19.744	0.273	-0.216
-138.443	86.001	0.174	0.189
-137.429	282.806	-0.049	-0.087
-136.414	-101.294	-0.143	0.034
-135.399	-1.585	0.249	-0.173
-134.385	-127.418	0.212	0.030
-133.370	259.172	-0.062	-0.105
-132.356	-176.647	0.333	0.008
-131.341	-21.768	0.055	0.033
-130.326	-12.613	0.214	-0.137
-129.312	128.236	0.092	-0.115
-128.297	-78.911	-0.212	0.071
-127.283	276.203	-0.093	-0.162
-126.268	101.044	0.143	0.164
-125.253	-200.000	0.023	-0.279
-124.239	217.393	-0.230	-0.360
-123.224	-4.326	-0.195	-0.132
-122.210	-114.714	0.178	-0.033
-121.195	800.000	0.057	-0.209
