DTS Sentinel unit serial number:	SN413079Multiplexer serial number:	ORYXHardware model number:	OX4-SRSoftware version number:	ORYX F/W v4.00 Oryx Data Collector v3.7.2.0data status	okinstallation	princeton_trtdifferential loss correction	single-endedforward channel	channel 1reverse channel	N/Adate	2019/09/19time	09:02:35forward acquisition time	60.00reverse acquisition time	0.00gamma	496.2192k internal	0.2342k external	0.2342temperature offset calibration	1.0006default loss term (dB/km)	0.3790temperature slope calibration	1.0000multiplexer offset coefficient	1.0000multiplexer slope coefficient	1.0000fibre end	0.00T internal ref (°C)	21.56T ext. ref 1 (°C)	0.60T ext. ref 2 (°C)	18.28length (m)	temperature (°C)	Stokes	anti-Stokes-747.200	-127.913	0.062	0.009
-746.185	-23.235	-0.119	0.071
-745.171	-45.683	0.212	0.105
-744.156	-99.479	-0.270	0.068
-743.142	800.000	0.049	0.172
-742.127	113.145	-0.124	0.150
-741.112	-32.225	0.180	-0.101
-740.098	800.000	0.125	0.359
-739.083	-200.000	-0.016	-0.129
-738.069	91.932	-0.071	-0.080
-737.054	164.386	0.077	-0.108
-736.039	37.275	-0.146	-0.130
-735.025	23.647	0.068	0.056
-734.010	-35.523	-0.154	-0.084
-732.996	-136.180	-0.262	-0.031
-731.981	-92.917	-0.404	-0.113
-730.966	-147.297	0.201	-0.017
-729.952	117.922	-0.118	-0.146
-728.937	4.439	0.175	0.129
-727.923	-39.576	-0.101	-0.053
-726.908	5.461	0.326	-0.241
-725.894	317.502	0.079	-0.150
-724.879	-46.171	0.057	-0.028
-723.864	74.493	-0.130	-0.137
-722.850	800.000	0.060	0.232
-721.835	-51.472	-0.355	0.166
-720.821	-26.682	-0.301	0.176
-719.806	-146.465	-0.189	-0.016
-718.791	-69.765	-0.267	-0.102
-717.777	-108.545	0.188	-0.040
-716.762	-49.607	-0.060	-0.029
-715.748	-12.574	0.094	-0.061
-714.733	-84.028	0.006	0.002
-713.718	233.066	0.118	0.194
-712.704	371.846	-0.055	-0.111
-711.689	-124.027	-0.189	-0.030
-710.675	-101.946	0.328	0.079
-709.660	-57.503	-0.329	-0.144
-708.645	-116.479	-0.382	0.071
-707.631	800.000	0.077	-0.228
-706.616	-38.746	-0.326	-0.172
-705.602	-145.253	0.269	-0.024
-704.587	38.600	0.133	-0.119
-703.572	-55.973	0.237	-0.106
-702.558	-200.000	-0.017	-0.078
-701.543	-40.133	-0.159	0.083
-700.529	140.807	-0.146	-0.193
-699.514	248.526	-0.129	0.218
-698.499	216.836	-0.105	0.166
-697.485	-148.982	0.442	-0.036
-696.470	73.409	-0.191	-0.200
-695.456	-125.589	-0.215	0.033
-694.441	-125.946	-0.205	0.031
-693.426	-36.324	-0.088	0.047
-692.412	533.484	-0.053	0.125
-691.397	-97.116	0.206	0.054
-690.383	800.000	0.055	-0.224
-689.368	-108.797	0.251	-0.054
-688.354	-200.000	0.024	-0.303
-687.339	-1.118	0.329	-0.232
-686.324	-200.000	0.018	-0.203
-685.310	-27.172	0.116	0.068
-684.295	-200.000	-0.056	0.493
-683.281	-200.000	-0.006	0.156
-682.266	42.497	-0.324	-0.295
-681.251	800.000	-0.025	-0.079
-680.237	800.000	-0.032	0.106
-679.222	800.000	0.061	0.196
-678.208	-132.732	0.126	-0.016
-677.193	-200.000	-0.034	-0.215
-676.178	464.011	-0.099	0.221
-675.164	69.209	0.082	0.084
-674.149	-200.000	-0.002	0.039
-673.135	800.000	-0.055	0.175
-672.120	109.298	-0.140	0.167
-671.105	-79.563	0.150	-0.051
-670.091	-78.855	-0.374	0.127
-669.076	368.858	0.067	0.135
-668.062	-200.000	0.092	0.430
-667.047	-86.571	-0.247	-0.076
-666.032	86.304	-0.171	-0.188
-665.018	800.000	0.064	-0.191
-664.003	-45.547	0.081	0.040
-662.989	-8.547	-0.311	0.209
-661.974	-48.776	0.189	0.091
-660.959	76.486	0.285	-0.302
-659.945	99.747	-0.168	-0.194
-658.930	-153.109	-0.201	0.014
-657.916	561.723	-0.189	-0.456
-656.901	148.970	-0.192	-0.259
-655.886	80.464	-0.077	-0.082
-654.872	-125.226	0.192	0.029
-653.857	-200.000	-0.038	-0.226
-652.843	-200.000	0.049	-0.292
-651.828	-200.000	0.007	0.051
-650.814	259.570	-0.265	-0.456
-649.799	800.000	0.054	-0.168
-648.784	204.760	-0.089	0.138
-647.770	-123.404	0.174	-0.028
-646.755	800.000	0.039	-0.143
-645.741	-200.000	-0.013	-0.252
-644.726	379.082	0.127	-0.260
-643.711	800.000	-0.055	-0.166
-642.697	115.341	0.143	0.174
-641.682	2.115	-0.195	-0.140
-640.668	-66.813	0.192	0.076
-639.653	-97.632	-0.410	0.106
-638.638	-200.000	-0.038	-0.173
-637.624	-28.000	0.178	-0.103
-636.609	-67.041	-0.108	-0.043
-635.595	-200.000	0.007	-0.085
-634.580	-99.643	-0.189	-0.047
-633.565	-55.498	-0.211	0.094
-632.551	-160.875	0.322	0.017
-631.536	504.829	-0.165	-0.381
-630.522	420.779	0.078	-0.166
-629.507	-152.607	-0.306	0.022
-628.492	534.423	0.066	-0.155
-627.478	-21.375	0.320	-0.195
-626.463	484.791	0.155	0.352
-625.449	-200.000	-0.016	-0.102
-624.434	-19.864	-0.199	0.123
-623.419	-123.622	0.225	0.036
-622.405	-68.378	-0.224	-0.087
-621.390	108.596	-0.254	-0.302
-620.376	9.987	0.117	0.088
-619.361	696.737	-0.096	-0.252
-618.346	800.000	-0.075	-0.284
-617.332	-113.419	0.238	0.046
-616.317	-33.053	0.196	-0.109
-615.303	75.677	0.144	-0.151
-614.288	17.271	-0.187	-0.148
-613.273	256.163	-0.115	0.197
-612.259	-200.000	0.009	0.209
-611.244	38.819	-0.087	-0.077
-610.230	800.000	0.028	-0.094
-609.215	-107.576	-0.066	-0.014
-608.201	142.799	0.093	-0.123
-607.186	-77.584	-0.139	0.048
-606.171	23.444	-0.131	-0.107
-605.157	-200.000	-0.048	-0.266
-604.142	-93.636	-0.146	-0.040
-603.128	-151.674	0.210	0.015
-602.113	115.050	-0.190	-0.231
-601.098	156.094	-0.196	-0.269
-600.084	-34.129	0.253	-0.139
-599.069	603.538	-0.041	-0.103
-598.055	-200.000	0.013	0.231
-597.040	-92.202	-0.513	0.144
-596.025	-65.896	0.183	-0.073
-595.011	-190.260	0.218	-0.002
-593.996	-108.363	0.184	-0.039
-592.982	800.000	0.105	0.311
-591.967	-45.623	-0.216	0.107
-590.952	-39.590	-0.120	0.063
-589.938	249.967	0.065	0.111
-588.923	343.750	0.057	-0.111
-587.909	10.794	-0.058	-0.044
-586.894	349.540	-0.068	-0.134
-585.879	40.480	0.135	-0.121
-584.865	-200.000	0.017	-0.240
-583.850	800.000	-0.047	-0.132
-582.836	800.000	-0.087	-0.276
-581.821	601.999	0.082	0.202
-580.806	-58.902	0.112	0.048
-579.792	-116.941	-0.413	-0.075
-578.777	67.026	0.107	0.108
-577.763	19.833	-0.141	-0.113
-576.748	-34.133	-0.202	0.110
-575.733	300.883	0.152	0.279
-574.719	-200.000	-0.050	-0.252
-573.704	-18.921	0.116	-0.072
-572.690	-200.000	-0.012	-0.169
-571.675	-200.000	0.050	0.443
-570.661	-129.426	0.075	-0.010
-569.646	-85.503	-0.166	-0.052
-568.631	-72.764	0.247	0.090
-567.617	-200.000	-0.037	0.163
-566.602	-30.299	-0.057	-0.032
-565.588	221.759	0.092	0.147
-564.573	-200.000	0.037	-0.306
-563.558	-74.202	-0.225	-0.081
-562.544	218.413	0.118	-0.187
-561.529	-40.143	0.030	0.015
-560.515	-68.133	0.202	0.078
-559.500	-123.537	0.220	-0.035
-558.485	-128.493	-0.107	0.015
-557.471	-130.871	-0.299	0.040
-556.456	-44.463	0.110	-0.055
-555.442	-16.345	0.126	-0.080
-554.427	182.293	0.167	0.245
-553.412	13.814	-0.112	-0.087
-552.398	800.000	0.049	0.169
-551.383	20.270	-0.050	0.040
-550.369	474.987	-0.137	-0.306
-549.354	-200.000	-0.053	0.430
-548.339	-200.000	-0.019	-0.191
-547.325	-7.097	-0.091	-0.061
-546.310	-200.000	-0.295	0.001
-545.296	-121.174	-0.450	0.075
-544.281	800.000	-0.010	-0.040
-543.266	-20.758	-0.146	0.089
-542.252	-200.000	0.000	0.303
-541.237	-200.000	0.042	-0.229
-540.223	-117.862	0.348	-0.062
-539.208	44.564	-0.055	-0.050
-538.193	-85.683	0.211	-0.065
-537.179	-200.000	-0.093	0.650
-536.164	-193.589	-0.054	-0.000
-535.150	440.286	0.160	-0.348
-534.135	353.548	0.083	-0.163
-533.121	-81.165	0.318	-0.105
-532.106	538.196	0.054	0.127
-531.091	-124.245	-0.144	-0.022
-530.077	457.578	0.103	-0.227
-529.062	-41.938	-0.097	-0.050
-528.048	-84.920	0.234	0.073
-527.033	172.021	-0.110	0.157
-526.018	800.000	-0.017	0.062
-525.004	-33.813	-0.119	-0.065
-523.989	-29.632	0.246	-0.139
-522.975	106.569	-0.237	-0.279
-521.960	84.966	0.105	-0.114
-520.945	62.656	0.142	0.141
-519.931	-45.042	-0.082	0.041
-518.916	-200.000	-0.096	0.447
-517.902	4.150	-0.182	-0.132
-516.887	10.321	0.180	0.136
-515.872	800.000	0.084	0.343
-514.858	-37.146	-0.019	0.010
-513.843	139.610	-0.013	-0.017
-512.829	-200.000	0.013	-0.250
-511.814	-200.000	-0.070	-0.454
-510.799	-110.346	0.045	-0.009
-509.785	328.818	0.090	-0.172
-508.770	88.851	-0.104	-0.114
-507.756	-67.045	-0.169	-0.066
-506.741	800.000	0.065	0.185
-505.726	-200.000	0.039	-0.246
-504.712	-119.394	0.050	-0.009
-503.697	800.000	-0.046	0.164
-502.683	198.996	-0.172	-0.261
-501.668	-31.988	-0.194	-0.108
-500.653	81.812	-0.064	-0.068
-499.639	-147.744	-0.153	0.013
-498.624	800.000	0.091	-0.360
-497.610	-125.484	0.060	-0.009
-496.595	-167.258	-0.152	-0.006
-495.581	-200.000	-0.011	-0.338
-494.566	-200.000	0.007	-0.147
-493.551	-87.394	0.353	-0.106
-492.537	3.335	0.159	-0.115
-491.522	-200.000	-0.012	-0.244
-490.508	58.516	-0.220	-0.214
-489.493	-66.459	0.526	0.207
-488.478	-7.994	-0.226	0.151
-487.464	18.218	0.141	-0.111
-486.449	398.011	-0.024	0.049
-485.435	178.419	-0.180	0.261
-484.420	128.551	0.259	-0.327
-483.405	4.232	0.216	0.157
-482.391	666.603	0.071	0.181
-481.376	1.173	-0.043	0.031
-480.362	36.140	0.152	-0.133
-479.347	-129.232	-0.118	0.016
-478.332	-200.000	0.023	-0.157
-477.318	51.862	-0.116	-0.110
-476.303	-76.550	-0.108	0.037
-475.289	47.871	-0.181	-0.167
-474.274	246.048	0.186	-0.311
-473.259	-40.863	0.158	-0.081
-472.245	-165.381	-0.195	-0.008
-471.230	-92.111	0.229	-0.064
-470.216	-20.384	-0.312	0.191
-469.201	-200.000	-0.035	-0.156
-468.186	-99.320	-0.205	0.051
-467.172	-108.766	-0.317	-0.067
-466.157	-109.706	0.093	-0.019
-465.143	-54.633	-0.303	-0.136
-464.128	-200.000	0.087	-0.461
-463.113	-59.997	-0.165	-0.070
-462.099	-92.855	0.283	-0.078
-461.084	-200.000	0.005	-0.125
-460.070	-200.000	0.071	0.397
-459.055	126.637	-0.207	-0.260
-458.040	-200.000	0.000	0.073
-457.026	-46.855	0.208	-0.101
-456.011	745.087	0.138	-0.369
-454.997	570.522	0.117	-0.282
-453.982	-152.839	0.188	0.013
-452.968	262.329	-0.098	0.168
-451.953	-43.712	0.249	-0.124
-450.938	-83.906	-0.169	0.053
-449.924	-115.689	-0.161	-0.030
-448.909	165.470	0.119	0.166
-447.895	5.789	0.330	0.241
-446.880	-86.300	-0.090	-0.027
-445.865	800.000	0.100	0.366
-444.851	47.512	0.148	0.137
-443.836	-74.872	-0.288	0.102
-442.822	-200.000	-0.020	0.353
-441.807	213.717	-0.080	-0.125
-440.792	-85.075	0.296	0.092
-439.778	-61.469	0.274	0.114
-438.763	24.460	-0.233	-0.191
-437.749	-95.550	0.383	0.102
-436.734	134.922	-0.156	0.200
-435.719	-81.408	0.292	-0.095
-434.705	-111.797	-0.273	-0.055
-433.690	800.000	0.058	-0.209
-432.676	-17.506	0.267	-0.166
-431.661	-200.000	0.045	-0.409
-430.646	53.370	-0.134	0.127
-429.632	224.948	0.090	-0.145
-428.617	-43.387	-0.241	0.121
-427.603	-18.487	0.169	-0.104
-426.588	-64.703	0.466	-0.187
-425.573	-125.796	-0.287	0.043
-424.559	336.405	0.205	0.394
-423.544	310.336	-0.126	-0.233
-422.530	733.718	0.067	0.177
-421.515	800.000	0.050	0.186
-420.500	-200.000	-0.021	-0.156
-419.486	213.419	-0.011	-0.018
-418.471	420.728	-0.086	-0.183
-417.457	743.867	0.147	0.391
-416.442	6.575	-0.172	-0.127
-415.428	800.000	-0.090	-0.269
-414.413	800.000	-0.033	0.102
-413.398	171.885	0.131	-0.187
-412.384	-46.999	-0.054	0.026
-411.369	23.634	-0.299	0.243
-410.355	509.890	0.086	-0.198
-409.340	-200.000	-0.026	0.314
-408.325	135.573	0.134	0.172
-407.311	-200.000	0.008	0.078
-406.296	-200.000	0.034	0.372
-405.282	173.551	-0.187	0.266
-404.267	-186.570	-0.538	0.008
-403.252	-200.000	-0.037	-0.260
-402.238	19.378	-0.130	0.103
-401.223	178.049	0.043	-0.063
-400.209	216.630	0.110	0.173
-399.194	-8.373	0.119	0.079
-398.179	-43.163	-0.183	0.091
-397.165	-103.688	-0.233	-0.054
-396.150	-200.000	-0.085	0.490
-395.136	-191.006	0.215	-0.002
-394.121	-63.655	-0.106	-0.043
-393.106	99.470	0.079	0.090
-392.092	-15.834	0.291	-0.183
-391.077	-74.850	-0.331	-0.117
-390.063	224.933	0.197	0.315
-389.048	-162.972	0.238	-0.011
-388.033	-135.264	-0.178	0.021
-387.019	-75.622	-0.167	-0.059
-386.004	-80.756	-0.249	0.082
-384.990	800.000	0.061	-0.211
-383.975	-155.962	-0.232	0.015
-382.960	-78.765	-0.096	0.032
-381.946	-34.993	0.148	0.080
-380.931	-159.447	0.286	0.016
-379.917	-200.000	-0.013	-0.187
-378.902	-200.000	0.008	-0.172
-377.888	-143.709	0.137	-0.013
-376.873	-21.958	0.337	0.202
-375.858	8.135	-0.156	-0.116
-374.844	78.027	0.232	0.245
-373.829	800.000	0.027	-0.095
-372.815	-200.000	0.009	-0.223
-371.800	-200.000	0.000	0.361
-370.785	-151.400	-0.067	0.005
-369.771	200.627	0.109	-0.165
-368.756	123.529	-0.282	0.350
-367.742	-200.000	0.058	0.332
-366.727	-200.000	0.027	-0.149
-365.712	283.129	0.080	0.142
-364.698	290.427	-0.103	-0.184
-363.683	800.000	-0.078	0.221
-362.669	800.000	0.073	0.289
-361.654	800.000	0.029	-0.119
-360.639	800.000	-0.019	-0.069
-359.625	27.026	-0.144	0.120
-358.610	800.000	0.083	-0.252
-357.596	-9.475	-0.247	0.162
-356.581	800.000	-0.023	-0.094
-355.566	800.000	0.106	-0.367
-354.552	-140.522	0.446	-0.046
-353.537	-90.502	0.098	0.028
-352.523	-4.821	0.126	0.086
-351.508	-27.046	0.264	0.152
-350.493	-80.605	-0.125	-0.041
-349.479	494.288	0.104	-0.236
-348.464	-99.571	0.346	-0.086
-347.450	504.995	-0.084	0.191
-346.435	258.257	-0.058	0.099
-345.420	75.666	-0.219	-0.228
-344.406	152.234	-0.041	-0.055
-343.391	-200.000	0.004	-0.135
-342.377	-155.237	0.069	-0.004
-341.362	-54.173	-0.187	0.084
-340.348	-117.934	-0.035	0.006
-339.333	-200.000	-0.005	0.098
-338.318	-48.887	-0.296	0.140
-337.304	39.802	-0.005	-0.005
-336.289	60.293	0.223	0.217
-335.275	-70.784	-0.050	-0.019
-334.260	60.907	0.181	0.177
-333.245	-200.000	0.043	0.229
-332.231	-61.816	-0.278	-0.115
-331.216	379.914	-0.200	0.405
-330.202	800.000	-0.153	0.512
-329.187	-55.125	0.074	-0.033
-328.172	-200.000	-0.027	0.178
-327.158	-127.122	-0.074	-0.011
-326.143	-168.653	0.187	0.007
-325.129	69.930	-0.249	-0.253
-324.114	-75.314	-0.097	-0.034
-323.099	-79.843	-0.185	-0.061
-322.085	-50.202	-0.242	0.113
-321.070	52.494	0.149	-0.141
-320.056	11.748	0.141	0.106
-319.041	-76.603	0.194	-0.067
-318.026	400.028	-0.113	0.233
-317.012	474.138	-0.129	0.287
-315.997	800.000	-0.032	-0.097
-314.983	-200.000	0.023	0.115
-313.968	-72.071	-0.079	0.029
-312.953	800.000	-0.034	-0.122
-311.939	-74.008	0.296	-0.106
-310.924	420.720	0.076	0.159
-309.910	-38.906	0.115	0.060
-308.895	-3.117	0.141	-0.097
-307.880	-200.000	0.022	-0.479
-306.866	26.056	0.161	0.132
-305.851	445.656	-0.038	0.082
-304.837	264.180	-0.100	-0.172
-303.822	-37.424	0.220	0.116
-302.807	-23.408	0.186	0.110
-301.793	716.972	-0.035	0.092
-300.778	37.343	0.042	-0.036
-299.764	-41.241	-0.280	0.142
-298.749	-200.000	-0.024	0.182
-297.735	-57.489	-0.528	0.228
-296.720	-55.339	0.173	0.076
-295.705	-31.272	-0.143	0.079
-294.691	800.000	-0.125	0.377
-293.676	-15.572	0.202	0.127
-292.662	321.863	0.195	0.365
-291.647	301.624	-0.072	-0.132
-290.632	-115.524	-0.139	0.026
-289.618	-159.011	-0.269	-0.015
-288.603	-3.009	0.232	0.160
-287.589	-74.653	-0.508	-0.180
-286.574	102.237	-0.041	0.048
-285.559	-132.648	0.405	0.051
-284.545	33.805	0.084	0.072
-283.530	-68.582	-0.484	0.185
-282.516	22.444	0.096	-0.077
-281.501	-186.938	-0.164	0.002
-280.486	-200.000	-0.033	0.230
-279.472	-50.362	0.193	0.090
-278.457	-175.499	0.345	-0.009
-277.443	-151.235	0.093	0.007
-276.428	-200.000	0.019	-0.134
-275.413	-200.000	-0.001	-0.154
-274.399	467.153	0.080	-0.175
-273.384	142.781	0.067	0.087
-272.370	-43.690	0.189	0.094
-271.355	475.556	0.064	0.142
-270.340	76.365	-0.088	0.091
-269.326	-87.547	0.297	-0.088
-268.311	-200.000	0.024	-0.137
-267.297	59.667	-0.283	0.274
-266.282	241.034	0.129	0.211
-265.267	-64.926	0.261	-0.104
-264.253	131.652	0.188	0.237
-263.238	-115.832	-0.280	0.052
-262.224	-200.000	0.010	0.104
-261.209	221.627	-0.145	0.229
-260.195	-72.872	-0.189	0.068
-259.180	445.291	0.137	-0.295
-258.165	800.000	-0.055	0.213
-257.151	556.925	0.131	0.310
-256.136	-200.000	-0.024	-0.106
-255.122	167.676	-0.135	-0.189
-254.107	588.962	-0.022	0.054
-253.092	21.727	0.169	0.136
-252.078	-4.648	-0.081	0.055
-251.063	118.403	-0.078	0.095
-250.049	800.000	-0.067	0.223
-249.034	3.214	0.142	0.102
-248.019	800.000	-0.088	-0.356
-247.005	111.036	0.118	-0.139
-245.990	-200.000	0.002	-0.286
-244.976	185.160	0.088	-0.128
-243.961	-200.000	-0.003	-0.169
-242.946	800.000	0.118	0.361
-241.932	-200.000	0.051	0.544
-240.917	112.969	0.128	-0.152
-239.903	-70.961	-0.052	0.019
-238.888	65.143	-0.102	0.101
-237.873	795.870	0.144	0.390
-236.859	11.833	-0.177	0.134
-235.844	85.187	-0.047	0.051
-234.830	78.222	-0.126	0.132
-233.815	-89.381	-0.218	0.063
-232.800	800.000	-0.038	-0.161
-231.786	-121.642	0.181	-0.029
-230.771	135.544	0.232	0.297
-229.757	-140.014	-0.070	-0.007
-228.742	245.674	-0.166	-0.275
-227.727	-70.614	-0.296	0.110
-226.713	-132.595	0.232	0.029
-225.698	-30.744	-0.203	0.113
-224.684	-46.510	0.085	-0.041
-223.669	-200.000	-0.011	-0.270
-222.655	-58.236	-0.297	-0.127
-221.640	800.000	-0.094	0.324
-220.625	84.146	-0.145	-0.156
-219.611	-144.938	0.313	-0.028
-218.596	-24.757	-0.363	0.212
-217.582	-165.516	-0.094	-0.004
-216.567	800.000	0.104	-0.415
-215.552	-14.486	-0.176	-0.111
-214.538	171.033	-0.182	-0.256
-213.523	40.361	0.376	0.332
-212.509	800.000	0.048	0.165
-211.494	193.596	-0.102	0.152
-210.479	61.494	-0.117	0.114
-209.465	-177.420	-0.198	-0.005
-208.450	-200.000	0.056	0.256
-207.436	-55.503	0.121	0.053
-206.421	-132.847	0.275	-0.034
-205.406	-71.181	-0.344	0.127
-204.392	52.338	0.129	-0.121
-203.377	-144.524	-0.183	0.017
-202.363	800.000	-0.136	0.562
-201.348	9.434	0.138	0.102
-200.333	107.836	0.083	-0.097
-199.319	5.423	0.071	0.052
-198.304	-76.184	-0.301	-0.104
-197.290	-23.722	0.122	0.072
-196.275	167.740	0.156	-0.218
-195.260	45.575	0.091	-0.082
-194.246	706.139	-0.128	-0.332
-193.231	-78.095	0.355	-0.120
-192.217	-129.757	0.162	-0.022
-191.202	30.470	-0.081	-0.068
-190.187	-9.213	-0.125	-0.082
-189.173	213.476	0.041	-0.063
-188.158	645.138	-0.098	0.244
-187.144	-18.546	0.105	0.064
-186.129	166.249	-0.087	0.121
-185.114	-156.359	-0.428	0.026
-184.100	-34.880	0.220	0.118
-183.085	-200.000	0.037	-0.232
-182.071	800.000	-0.021	0.083
-181.056	274.138	0.212	-0.368
-180.042	-20.669	0.132	-0.079
-179.027	-200.000	-0.024	0.461
-178.012	-25.353	-0.170	-0.098
-176.998	505.933	-0.074	0.167
-175.983	13.148	0.266	-0.202
-174.969	-84.510	-0.143	0.044
-173.954	-111.982	0.234	0.046
-172.939	69.539	0.320	0.323
-171.925	-124.848	-0.375	-0.057
-170.910	-16.787	0.083	0.051
-169.896	78.335	0.175	0.183
-168.881	-76.372	-0.152	-0.052
-167.866	800.000	0.080	-0.280
-166.852	-130.836	0.373	-0.049
-165.837	800.000	0.027	-0.104
-164.823	180.515	0.154	-0.221
-163.808	800.000	0.064	-0.193
-162.793	800.000	-0.014	-0.044
-161.779	-4.893	0.164	-0.111
-160.764	255.153	-0.216	-0.361
-159.750	-200.000	-0.003	0.085
-158.735	26.538	0.168	0.138
-157.720	-80.183	-0.080	0.026
-156.706	9.757	0.230	0.171
-155.691	-7.477	-0.078	-0.051
-154.677	107.665	-0.337	-0.393
-153.662	-200.000	-0.013	0.138
-152.647	193.465	0.035	-0.052
-151.633	175.438	-0.049	-0.069
-150.618	25.707	0.056	-0.046
-149.604	800.000	0.128	0.535
-148.589	800.000	0.124	-0.373
-147.574	-42.371	-0.252	0.126
-146.560	41.505	-0.336	-0.298
-145.545	-200.000	-0.018	-0.176
-144.531	-90.345	-0.036	-0.010
-143.516	-22.339	0.264	-0.156
-142.502	800.000	-0.042	0.129
-141.487	110.508	0.152	-0.179
-140.472	800.000	-0.066	0.218
-139.458	-49.409	0.275	0.128
-138.443	368.978	-0.262	-0.518
-137.429	-35.506	-0.228	0.121
-136.414	-200.000	0.002	-0.115
-135.399	800.000	0.072	-0.289
-134.385	-200.000	0.108	0.654
-133.370	-200.000	-0.039	0.302
-132.356	-47.383	-0.143	0.068
-131.341	227.289	-0.086	-0.136
-130.326	-200.000	-0.052	-0.289
-129.312	188.188	0.091	-0.133
-128.297	30.384	0.402	-0.336
-127.283	800.000	0.066	0.187
-126.268	-105.340	-0.223	-0.050
-125.253	-200.000	0.095	0.461
-124.239	-33.716	0.042	-0.023
-123.224	-168.141	0.258	-0.010
-122.210	311.062	-0.120	0.220
