DTS Sentinel unit serial number:	SN413079Multiplexer serial number:	ORYXHardware model number:	OX4-SRSoftware version number:	ORYX F/W v4.00 Oryx Data Collector v3.7.2.0data status	okinstallation	princeton_trtdifferential loss correction	single-endedforward channel	channel 1reverse channel	N/Adate	2019/09/11time	03:36:11forward acquisition time	60.00reverse acquisition time	0.00gamma	496.2192k internal	0.2331k external	0.2331temperature offset calibration	0.9929default loss term (dB/km)	0.3790temperature slope calibration	1.0000multiplexer offset coefficient	1.0000multiplexer slope coefficient	1.0000fibre end	0.00T internal ref (°C)	29.50T ext. ref 1 (°C)	-0.28T ext. ref 2 (°C)	23.97length (m)	temperature (°C)	Stokes	anti-Stokes-747.200	-69.064	0.426	-0.165
-746.185	-61.146	-0.169	-0.072
-745.171	-12.240	-0.269	0.177
-744.156	-37.409	-0.123	-0.066
-743.142	84.705	-0.059	0.065
-742.127	-74.915	-0.372	0.134
-741.112	152.655	-0.126	0.173
-740.098	97.112	0.237	0.273
-739.083	-19.143	-0.150	-0.094
-738.069	-44.257	-0.243	0.123
-737.054	277.900	-0.072	0.130
-736.039	39.991	-0.044	0.039
-735.025	-49.576	-0.200	0.096
-734.010	-82.106	-0.345	-0.113
-732.996	-123.507	-0.215	-0.034
-731.981	139.442	-0.048	-0.064
-730.966	-200.000	0.070	-0.348
-729.952	-38.183	0.267	0.143
-728.937	-71.057	-0.208	0.079
-727.923	-89.846	0.300	-0.088
-726.908	-177.493	-0.140	-0.003
-725.894	-200.000	0.044	-0.193
-724.879	-111.455	0.347	-0.071
-723.864	-116.330	0.124	-0.023
-722.850	91.660	0.319	0.361
-721.835	90.693	0.086	-0.097
-720.821	7.409	-0.240	0.181
-719.806	-200.000	0.013	-0.186
-718.791	451.467	0.045	-0.101
-717.777	-200.000	-0.041	-0.270
-716.762	111.859	0.069	0.084
-715.748	50.584	0.121	0.115
-714.733	800.000	0.076	0.226
-713.718	-164.871	0.105	0.005
-712.704	6.009	-0.237	0.176
-711.689	56.238	0.269	-0.263
-710.675	132.696	-0.046	0.060
-709.660	-57.985	0.225	-0.099
-708.645	-200.000	0.001	0.327
-707.631	-1.101	0.065	0.046
-706.616	-200.000	0.015	-0.086
-705.602	-84.232	-0.108	0.034
-704.587	800.000	0.106	0.353
-703.572	-196.615	0.220	0.001
-702.558	333.515	-0.072	0.140
-701.543	-176.227	0.254	0.007
-700.529	294.626	-0.100	-0.183
-699.514	-115.368	0.370	-0.070
-698.499	-100.165	0.080	-0.020
-697.485	-57.396	-0.088	0.039
-696.470	-61.611	-0.173	0.073
-695.456	-199.660	0.144	0.001
-694.441	-200.000	-0.005	-0.032
-693.426	-134.995	0.087	-0.011
-692.412	-80.389	0.132	0.044
-691.397	-200.000	0.036	0.247
-690.383	-51.697	-0.099	0.046
-689.368	-91.087	0.030	-0.009
-688.354	-16.899	-0.318	-0.202
-687.339	800.000	-0.068	-0.281
-686.324	-99.245	0.338	0.086
-685.310	800.000	0.137	0.531
-684.295	237.437	-0.116	0.193
-683.281	-4.244	0.299	-0.208
-682.266	-147.445	-0.152	0.013
-681.251	10.328	-0.242	0.185
-680.237	-3.707	-0.215	0.150
-679.222	70.056	-0.163	-0.169
-678.208	-42.589	0.116	-0.059
-677.193	4.514	-0.024	-0.018
-676.178	-76.090	0.221	-0.078
-675.164	218.790	0.053	-0.084
-674.149	-200.000	0.003	-0.120
-673.135	800.000	0.031	-0.123
-672.120	-72.540	-0.218	-0.081
-671.105	-100.123	-0.106	0.026
-670.091	-200.000	0.008	-0.251
-669.076	-124.886	0.152	0.023
-668.062	-50.483	-0.027	-0.013
-667.047	87.483	0.096	0.106
-666.032	150.953	0.135	0.184
-665.018	-200.000	-0.037	-0.369
-664.003	68.185	-0.210	0.215
-662.989	-167.975	-0.057	0.002
-661.974	-11.501	-0.236	-0.156
-660.959	-74.485	-0.138	0.050
-659.945	-71.403	-0.110	-0.041
-658.930	800.000	-0.038	-0.143
-657.916	-103.013	0.320	0.076
-656.901	-200.000	-0.010	0.299
-655.886	800.000	-0.051	0.204
-654.872	-200.000	0.022	-0.130
-653.857	106.244	-0.310	-0.368
-652.843	74.360	-0.168	-0.177
-651.828	-79.470	0.338	-0.115
-650.814	458.823	-0.149	-0.332
-649.799	-174.079	-0.125	0.004
-648.784	3.762	0.171	0.125
-647.770	619.928	0.156	0.393
-646.755	265.443	0.137	0.239
-645.741	-157.860	-0.116	-0.007
-644.726	800.000	0.051	0.206
-643.711	-200.000	-0.032	-0.314
-642.697	-125.782	-0.369	-0.056
-641.682	800.000	0.012	0.036
-640.668	-185.736	0.247	-0.004
-639.653	411.931	-0.066	-0.140
-638.638	800.000	0.058	0.248
-637.624	-35.307	0.126	0.069
-636.609	-135.859	0.232	0.027
-635.595	11.621	0.245	-0.188
-634.580	71.458	-0.270	0.281
-633.565	474.224	-0.083	0.189
-632.551	-125.485	0.270	0.041
-631.536	-137.617	0.123	-0.014
-630.522	800.000	-0.045	-0.177
-629.507	232.285	0.129	0.212
-628.492	-200.000	-0.019	0.191
-627.478	-200.000	-0.033	-0.295
-626.463	-99.203	-0.225	0.057
-625.449	-90.514	0.204	-0.059
-624.434	800.000	0.036	-0.145
-623.419	-200.000	0.005	0.059
-622.405	-200.000	0.030	0.262
-621.390	-200.000	-0.013	0.117
-620.376	-94.397	0.199	0.054
-619.361	-25.463	0.296	0.175
-618.346	24.394	-0.132	0.110
-617.332	66.030	-0.080	0.081
-616.317	-200.000	0.015	0.067
-615.303	-164.420	-0.279	0.013
-614.288	-74.423	-0.209	-0.075
-613.273	48.846	-0.192	-0.180
-612.259	86.717	-0.124	0.137
-611.244	-26.868	0.189	0.111
-610.230	-200.000	-0.010	-0.139
-609.215	-200.000	-0.010	-0.162
-608.201	-200.000	-0.006	-0.081
-607.186	653.573	0.055	-0.141
-606.171	-200.000	-0.030	-0.187
-605.157	800.000	0.073	-0.206
-604.142	739.981	-0.139	0.374
-603.128	163.072	-0.043	0.061
-602.113	-200.000	0.002	-0.125
-601.098	138.070	0.109	-0.143
-600.084	-200.000	-0.037	0.220
-599.069	-200.000	0.022	0.133
-598.055	7.911	-0.155	0.116
-597.040	60.028	0.161	0.159
-596.025	-48.423	0.126	-0.061
-595.011	290.073	-0.139	-0.253
-593.996	184.958	-0.107	0.159
-592.982	-42.887	-0.148	-0.075
-591.967	800.000	0.139	0.386
-590.952	-28.675	0.279	-0.161
-589.938	-9.690	0.258	-0.172
-588.923	182.568	-0.133	0.196
-587.909	800.000	0.065	-0.231
-586.894	-200.000	-0.010	0.103
-585.879	-93.280	0.345	0.096
-584.865	-49.024	0.065	-0.031
-583.850	-37.099	-0.188	-0.101
-582.836	223.024	-0.236	-0.380
-581.821	-200.000	-0.022	-0.174
-580.806	-200.000	0.011	-0.152
-579.792	-110.450	-0.177	-0.037
-578.777	-200.000	-0.009	-0.185
-577.763	-122.498	0.266	-0.043
-576.748	238.243	-0.081	0.135
-575.733	-122.525	0.029	0.005
-574.719	45.482	-0.222	-0.205
-573.704	-116.140	0.296	-0.055
-572.690	-200.000	0.106	0.539
-571.675	-174.584	0.219	0.006
-570.661	-126.079	0.115	0.017
-569.646	100.574	-0.258	-0.299
-568.631	28.531	-0.075	0.064
-567.617	121.932	0.121	-0.151
-566.602	23.131	0.153	0.126
-565.588	800.000	-0.096	0.273
-564.573	-60.400	0.401	-0.170
-563.558	-122.554	-0.037	0.006
-562.544	-200.000	0.015	-0.408
-561.529	-200.000	-0.009	0.361
-560.515	695.161	-0.049	0.130
-559.500	800.000	-0.015	-0.056
-558.485	-33.010	0.223	-0.124
-557.471	-34.442	-0.123	-0.067
-556.456	93.673	-0.134	0.151
-555.442	34.816	-0.219	-0.192
-554.427	-84.296	0.114	-0.036
-553.412	-164.103	-0.177	-0.008
-552.398	-200.000	-0.005	-0.269
-551.383	-200.000	0.020	-0.140
-550.369	800.000	0.066	0.220
-549.354	-143.240	-0.234	-0.022
-548.339	-200.000	-0.061	0.280
-547.325	208.876	-0.052	0.081
-546.310	-160.923	-0.226	-0.012
-545.296	-59.919	0.201	-0.086
-544.281	94.516	-0.105	-0.119
-543.266	-39.016	0.353	-0.185
-542.252	-99.318	0.045	0.011
-541.237	160.457	0.119	0.166
-540.223	280.919	-0.108	0.192
-539.208	-53.660	0.223	0.102
-538.193	506.023	0.096	0.223
-537.179	190.617	-0.169	-0.254
-536.164	270.424	-0.111	0.195
-535.150	21.883	0.247	0.201
-534.135	350.974	-0.144	-0.284
-533.121	43.236	-0.091	-0.083
-532.106	477.235	0.157	0.355
-531.091	-58.126	-0.273	0.119
-530.077	800.000	0.103	0.333
-529.062	-200.000	-0.016	-0.094
-528.048	147.850	0.147	-0.197
-527.033	163.331	0.273	-0.383
-526.018	-154.209	-0.216	-0.015
-525.004	-49.576	0.095	0.045
-523.989	-10.587	-0.398	-0.263
-522.975	-65.241	0.194	-0.078
-521.960	92.715	-0.016	0.018
-520.945	-69.460	0.313	-0.120
-519.931	150.431	0.129	-0.175
-518.916	-1.009	-0.273	-0.193
-517.902	-72.855	0.195	-0.072
-516.887	40.609	0.289	0.260
-515.872	127.108	0.260	-0.329
-514.858	800.000	-0.106	-0.391
-513.843	221.000	-0.022	0.035
-512.829	-120.701	0.284	-0.048
-511.814	-121.785	0.136	-0.022
-510.799	-200.000	-0.031	-0.337
-509.785	515.975	-0.038	-0.088
-508.770	-142.798	0.217	-0.021
-507.756	-150.727	-0.313	0.024
-506.741	2.269	0.204	0.147
-505.726	-200.000	0.003	-0.156
-504.712	322.682	-0.097	-0.184
-503.697	-71.841	0.181	0.067
-502.683	155.499	0.054	0.074
-501.668	-17.908	0.109	0.068
-500.653	-157.120	0.306	0.019
-499.639	-98.579	-0.203	0.052
-498.624	312.643	-0.111	-0.208
-497.610	306.895	0.203	0.377
-496.595	-200.000	-0.438	-0.000
-495.581	260.043	0.117	-0.202
-494.566	-61.528	0.185	0.078
-493.551	-200.000	-0.027	0.178
-492.537	-56.650	-0.241	0.106
-491.522	-82.049	-0.456	0.148
-490.508	28.718	-0.365	0.308
-489.493	-200.000	0.007	-0.056
-488.478	800.000	0.070	0.258
-487.464	195.917	-0.107	-0.163
-486.449	-70.315	0.239	-0.090
-485.435	-40.317	-0.218	0.113
-484.420	393.989	0.050	0.105
-483.405	387.352	0.150	0.309
-482.391	41.068	0.183	0.165
-481.376	228.871	-0.053	0.086
-480.362	800.000	-0.088	-0.320
-479.347	-200.000	0.003	0.250
-478.332	-79.140	-0.180	0.061
-477.318	-57.427	-0.396	-0.173
-476.303	-122.308	0.249	-0.041
-475.289	28.230	0.067	-0.056
-474.274	681.358	0.135	0.350
-473.259	-4.583	-0.200	0.137
-472.245	800.000	0.059	-0.212
-471.230	-36.830	-0.070	-0.037
-470.216	90.803	-0.175	0.195
-469.201	-200.000	0.018	-0.163
-468.186	-49.027	0.266	-0.127
-467.172	-32.656	0.260	-0.144
-466.157	-200.000	0.008	0.084
-465.143	-137.178	0.155	-0.018
-464.128	-159.502	-0.088	0.005
-463.113	178.473	0.140	0.203
-462.099	-200.000	-0.010	0.210
-461.084	800.000	-0.029	-0.113
-460.070	-200.000	0.027	0.179
-459.055	-160.046	-0.203	-0.011
-458.040	800.000	-0.079	0.313
-457.026	-200.000	0.008	0.254
-456.011	-70.540	-0.114	0.043
-454.997	-13.108	0.298	0.193
-453.982	1.558	-0.293	0.210
-452.968	162.413	-0.033	-0.047
-451.953	67.404	0.118	-0.119
-450.938	95.145	-0.079	-0.090
-449.924	-114.873	-0.187	0.035
-448.909	21.059	-0.072	-0.058
-447.895	44.297	0.133	0.121
-446.880	375.371	-0.079	-0.159
-445.865	-93.974	-0.307	0.084
-444.851	223.238	-0.123	0.197
-443.836	800.000	0.077	-0.220
-442.822	91.812	0.057	-0.063
-441.807	-80.206	-0.045	0.015
-440.792	-109.347	-0.299	0.063
-439.778	229.484	0.170	0.275
-438.763	72.862	0.332	-0.345
-437.749	-51.457	-0.236	0.110
-436.734	302.795	0.115	-0.212
-435.719	-112.959	-0.113	0.022
-434.705	633.114	0.034	-0.085
-433.690	-24.399	0.200	-0.118
-432.676	-113.477	-0.052	0.010
-431.661	-200.000	-0.049	-0.251
-430.646	-115.551	0.389	-0.073
-429.632	53.328	-0.341	0.325
-428.617	-75.346	0.142	-0.050
-427.603	258.739	-0.038	0.064
-426.588	131.598	-0.175	0.224
-425.573	35.016	-0.093	0.081
-424.559	-114.383	0.261	0.050
-423.544	800.000	0.033	-0.115
-422.530	644.407	-0.163	-0.413
-421.515	41.513	-0.248	-0.223
-420.500	-52.986	0.136	-0.062
-419.486	-94.256	-0.135	0.037
-418.471	-200.000	0.008	-0.267
-417.457	88.949	-0.099	0.110
-416.442	195.885	0.129	0.195
-415.428	-200.000	-0.031	-0.259
-414.413	-99.814	-0.256	-0.064
-413.398	-89.130	-0.161	-0.047
-412.384	683.557	0.011	0.028
-411.369	541.953	-0.057	0.135
-410.355	371.897	-0.192	-0.387
-409.340	-95.200	0.133	-0.035
-408.325	-200.000	0.005	-0.040
-407.311	-200.000	0.024	-0.108
-406.296	-200.000	-0.016	0.121
-405.282	324.004	0.099	0.188
-404.267	-68.314	-0.170	0.066
-403.252	-63.874	0.148	-0.060
-402.238	134.899	0.225	0.290
-401.223	-59.035	-0.201	0.086
-400.209	336.524	-0.029	-0.056
-399.194	455.110	0.084	0.184
-398.179	333.178	0.064	-0.122
-397.165	-200.000	-0.072	0.314
-396.150	121.613	-0.157	-0.195
-395.136	518.045	0.056	-0.131
-394.121	-136.877	0.134	-0.015
-393.106	8.561	0.126	-0.094
-392.092	8.327	-0.065	-0.048
-391.077	-62.810	0.267	0.110
-390.063	-76.816	0.133	-0.046
-389.048	-27.368	0.101	-0.058
-388.033	2.202	-0.335	0.240
-387.019	132.454	0.074	-0.095
-386.004	-200.000	-0.022	0.099
-384.990	120.159	0.206	0.254
-383.975	-200.000	-0.050	0.237
-382.960	372.401	-0.274	0.552
-381.946	142.513	0.139	-0.184
-380.931	-12.285	-0.032	0.021
-379.917	579.036	0.136	0.331
-378.902	184.624	0.051	0.075
-377.888	261.118	-0.211	0.363
-376.873	133.332	-0.098	-0.126
-375.858	800.000	-0.138	0.393
-374.844	566.049	-0.054	0.131
-373.829	-45.362	-0.290	-0.143
-372.815	-200.000	0.063	0.450
-371.800	-66.834	-0.401	-0.157
-370.785	105.075	0.126	-0.147
-369.771	2.184	0.054	0.039
-368.756	33.060	-0.084	-0.072
-367.742	-200.000	-0.003	-0.070
-366.727	32.866	0.109	-0.094
-365.712	-4.191	0.227	0.156
-364.698	-200.000	0.028	-0.126
-363.683	-96.150	-0.251	0.066
-362.669	-178.070	-0.499	-0.012
-361.654	338.223	0.118	0.227
-360.639	24.918	-0.049	0.041
-359.625	-200.000	0.007	-0.072
-358.610	-40.287	-0.050	0.026
-357.596	-104.577	0.041	0.009
-356.581	291.435	-0.103	-0.186
-355.566	-200.000	-0.002	0.044
-354.552	800.000	0.037	-0.144
-353.537	128.102	-0.210	0.264
-352.523	-200.000	0.011	0.427
-351.508	65.146	0.081	0.081
-350.493	-48.795	-0.092	0.044
-349.479	800.000	0.011	-0.041
-348.464	-174.892	0.107	-0.003
-347.450	-200.000	0.023	-0.238
-346.435	157.945	-0.151	0.207
-345.420	714.261	-0.026	-0.067
-344.406	186.884	-0.182	-0.268
-343.391	-200.000	-0.060	-0.316
-342.377	-105.632	0.408	-0.092
-341.362	-102.514	-0.333	0.079
-340.348	142.521	0.132	0.173
-339.333	-200.000	0.008	0.052
-338.318	160.539	-0.053	-0.074
-337.304	-60.914	-0.189	-0.079
-336.289	216.925	0.289	0.455
-335.275	-137.122	0.350	-0.040
-334.260	-85.217	-0.353	-0.109
-333.245	356.019	-0.067	0.132
-332.231	-120.738	0.407	-0.068
-331.216	-200.000	-0.074	-0.338
-330.202	-18.311	-0.252	-0.156
-329.187	79.019	0.266	-0.282
-328.172	-46.048	-0.449	0.219
-327.158	1.714	0.204	0.146
-326.143	-31.801	-0.067	0.037
-325.129	800.000	-0.073	0.222
-324.114	428.509	0.082	0.175
-323.099	212.936	-0.106	-0.166
-322.085	178.056	-0.134	-0.194
-321.070	42.645	0.264	-0.238
-320.056	256.201	-0.158	-0.269
-319.041	-200.000	-0.013	-0.090
-318.026	69.708	0.113	-0.115
-317.012	-127.154	-0.209	-0.030
-315.997	-62.174	0.262	-0.108
-314.983	198.213	0.188	0.284
-313.968	-188.861	-0.235	-0.003
-312.953	800.000	0.022	0.079
-311.939	-114.172	-0.166	-0.032
-310.924	-52.558	-0.190	0.087
-309.910	-200.000	0.001	-0.016
-308.895	-19.912	-0.314	-0.192
-307.880	169.823	-0.087	0.124
-306.866	-127.905	-0.311	-0.044
-305.851	-45.417	0.054	0.026
-304.837	-200.000	-0.016	-0.091
-303.822	-200.000	-0.014	0.317
-302.807	-200.000	-0.009	0.075
-301.793	-107.273	-0.205	0.045
-300.778	186.060	-0.108	-0.159
-299.764	-64.321	0.272	0.110
-298.749	-200.000	-0.013	-0.188
-297.735	-107.499	0.166	-0.036
-296.720	4.141	-0.181	0.131
-295.705	129.710	0.150	-0.190
-294.691	-93.485	0.342	-0.094
-293.676	68.896	0.249	-0.253
-292.662	-200.000	-0.024	0.110
-291.647	-200.000	-0.226	-0.000
-290.632	-50.670	0.273	0.127
-289.618	-41.340	-0.171	0.087
-288.603	-133.151	-0.196	-0.025
-287.589	-87.830	-0.068	-0.020
-286.574	-181.614	-0.130	0.002
-285.559	78.269	0.151	-0.159
-284.545	-101.318	-0.029	0.007
-283.530	-119.781	0.060	0.010
-282.516	800.000	-0.098	0.405
-281.501	800.000	0.012	-0.038
-280.486	-151.810	0.167	0.012
-279.472	71.540	0.153	-0.157
-278.457	-126.242	0.366	0.054
-277.443	800.000	-0.078	-0.289
-276.428	-60.701	0.336	-0.141
-275.413	12.723	-0.156	-0.119
-274.399	-14.048	-0.180	-0.115
-273.384	-200.000	0.005	-0.029
-272.370	-15.079	0.138	-0.087
-271.355	116.868	-0.159	-0.193
-270.340	-200.000	-0.016	-0.203
-269.326	2.124	0.091	-0.065
-268.311	-200.000	-0.002	0.048
-267.297	800.000	0.062	-0.226
-266.282	73.774	-0.209	-0.217
-265.267	-39.590	0.326	-0.169
-264.253	-97.249	-0.072	0.019
-263.238	-200.000	-0.032	-0.219
-262.224	800.000	-0.017	-0.071
-261.209	50.290	0.111	0.103
-260.195	68.002	0.019	-0.019
-259.180	579.946	-0.180	-0.436
-258.165	-82.030	0.314	-0.101
-257.151	-155.643	-0.255	-0.016
-256.136	-122.732	-0.114	-0.018
-255.122	-54.611	0.195	0.087
-254.107	314.675	-0.100	-0.186
-253.092	-200.000	0.014	0.091
-252.078	-27.531	0.092	-0.053
-251.063	800.000	0.071	0.281
-250.049	-47.166	0.045	0.022
-249.034	-72.374	-0.317	0.116
-248.019	148.611	0.023	-0.030
-247.005	-200.000	0.009	-0.166
-245.990	-54.676	-0.056	-0.025
-244.976	-144.007	-0.062	0.006
-243.961	213.733	-0.215	-0.336
-242.946	79.906	-0.230	-0.244
-241.932	-200.000	0.003	-0.116
-240.917	736.263	-0.104	-0.276
-239.903	-49.716	0.039	0.018
-238.888	165.694	-0.006	0.009
-237.873	-101.817	-0.262	0.062
-236.859	-200.000	0.018	-0.354
-235.844	71.898	-0.405	0.416
-234.830	-159.567	-0.236	-0.013
-233.815	800.000	-0.082	0.339
-232.800	15.397	0.099	-0.077
-231.786	-73.668	0.234	0.084
-230.771	7.962	0.153	-0.113
-229.757	367.818	0.095	-0.189
-228.742	86.528	0.175	-0.190
-227.727	-117.097	-0.239	0.043
-226.713	190.050	-0.064	-0.094
-225.698	245.284	-0.036	0.060
-224.684	-135.483	0.087	0.010
-223.669	555.162	-0.080	0.190
-222.655	-119.363	-0.143	-0.025
-221.640	678.519	0.061	0.156
-220.625	-157.190	0.285	-0.017
-219.611	800.000	0.113	0.310
-218.596	-1.031	0.006	-0.004
-217.582	47.606	0.205	-0.188
-216.567	-15.573	0.351	-0.221
-215.552	800.000	0.068	0.265
-214.538	800.000	-0.062	-0.201
-213.523	-60.385	0.229	0.096
-212.509	48.087	-0.148	-0.137
-211.494	359.305	-0.118	-0.232
-210.479	315.102	0.089	-0.166
-209.465	678.248	0.040	0.103
-208.450	445.618	0.104	-0.225
-207.436	51.251	-0.159	0.149
-206.421	-200.000	0.070	0.346
-205.406	-111.563	0.345	0.069
-204.392	-63.909	-0.189	0.076
-203.377	800.000	-0.139	0.520
-202.363	-200.000	0.034	0.231
-201.348	59.261	-0.077	0.075
-200.333	-14.997	-0.246	-0.155
-199.319	622.666	-0.071	0.176
-198.304	-200.000	-0.029	0.277
-197.290	-96.684	-0.214	0.056
-196.275	800.000	-0.043	-0.170
-195.260	2.823	-0.032	0.023
-194.246	-69.514	-0.353	0.133
-193.231	-19.285	-0.144	0.088
-192.217	108.914	0.114	0.134
-191.202	-123.159	0.059	0.009
-190.187	-200.000	-0.021	0.104
-189.173	109.828	0.041	-0.049
-188.158	-200.000	-0.000	0.004
-187.144	-69.683	0.239	-0.090
-186.129	800.000	-0.069	0.264
-185.114	120.365	0.102	0.125
-184.100	155.544	0.112	-0.152
-183.085	12.874	0.304	-0.231
-182.071	-200.000	0.012	0.105
-181.056	273.405	0.103	-0.179
-180.042	-11.216	-0.187	0.122
-179.027	6.633	0.062	-0.045
-178.012	355.732	0.064	-0.126
-176.998	540.009	0.013	-0.031
-175.983	19.562	0.526	-0.416
-174.969	-200.000	0.000	-0.090
-173.954	69.621	-0.082	-0.083
-172.939	-82.216	0.127	0.041
-171.925	-75.003	0.094	0.033
-170.910	-24.812	-0.270	0.158
-169.896	-143.890	0.242	-0.022
-168.881	-137.392	0.168	-0.019
-167.866	22.049	-0.064	-0.052
-166.852	0.544	0.133	0.093
-165.837	-50.924	-0.402	-0.186
-164.823	-200.000	0.020	0.100
-163.808	-127.773	-0.097	-0.014
-162.793	-200.000	0.036	-0.168
-161.779	800.000	0.056	-0.160
-160.764	-200.000	0.006	-0.488
-159.750	64.195	-0.034	0.034
-158.735	-50.316	-0.046	0.021
-157.720	36.551	0.301	0.261
-156.706	-154.138	0.510	0.034
-155.691	20.853	-0.130	0.103
-154.677	-34.695	-0.263	-0.142
-153.662	800.000	0.035	0.150
-152.647	138.048	0.072	-0.092
-151.633	-200.000	-0.006	-0.038
-150.618	-172.348	0.155	0.005
-149.604	-200.000	-0.004	-0.143
-148.589	-200.000	-0.002	-0.057
-147.574	354.318	-0.043	-0.084
-146.560	-105.663	-0.296	-0.066
-145.545	-8.687	0.240	-0.159
-144.531	-86.299	-0.133	0.040
-143.516	-200.000	0.007	-0.102
-142.502	-55.395	0.394	0.174
-141.487	44.314	-0.254	0.230
-140.472	726.260	0.117	0.306
-139.458	367.751	0.151	0.301
-138.443	-200.000	-0.095	0.545
-137.429	800.000	-0.064	0.230
-136.414	-200.000	0.002	0.029
-135.399	-200.000	-0.005	0.066
-134.385	-134.772	0.050	-0.006
-133.370	183.941	0.141	0.205
-132.356	-74.744	0.197	-0.070
-131.341	-186.658	0.203	0.003
-130.326	-68.441	-0.364	0.139
-129.312	-115.737	0.269	-0.050
-128.297	128.334	0.189	-0.236
-127.283	56.376	-0.195	0.187
-126.268	207.145	-0.010	0.015
-125.253	-21.600	0.142	-0.085
-124.239	800.000	-0.092	0.297
-123.224	260.747	0.040	0.068
-122.210	86.096	0.239	0.258
-121.195	-160.113	0.081	0.004
