DTS Sentinel unit serial number:	SN413079Multiplexer serial number:	ORYXHardware model number:	OX4-SRSoftware version number:	ORYX F/W v4.00 Oryx Data Collector v3.7.2.0data status	okinstallation	princeton_trtdifferential loss correction	single-endedforward channel	channel 1reverse channel	N/Adate	2019/09/13time	04:54:35forward acquisition time	60.00reverse acquisition time	0.00gamma	496.2192k internal	0.2335k external	0.2335temperature offset calibration	1.0161default loss term (dB/km)	0.3790temperature slope calibration	1.0000multiplexer offset coefficient	1.0000multiplexer slope coefficient	1.0000fibre end	0.00T internal ref (°C)	26.52T ext. ref 1 (°C)	4.05T ext. ref 2 (°C)	20.94length (m)	temperature (°C)	Stokes	anti-Stokes-747.200	32.754	0.226	0.196
-746.185	516.475	0.071	0.167
-745.171	68.272	-0.203	0.209
-744.156	-54.195	-0.159	0.073
-743.142	-200.000	-0.014	-0.076
-742.127	43.772	-0.262	0.241
-741.112	5.205	-0.264	-0.196
-740.098	116.063	0.034	-0.042
-739.083	323.474	-0.058	-0.111
-738.069	102.604	-0.183	0.215
-737.054	134.110	0.111	-0.145
-736.039	-200.000	0.055	0.249
-735.025	32.945	-0.060	-0.052
-734.010	-92.355	-0.114	-0.032
-732.996	227.776	-0.092	0.151
-731.981	-200.000	0.001	0.051
-730.966	-1.123	-0.245	0.174
-729.952	349.623	-0.116	-0.231
-728.937	-200.000	0.036	-0.440
-727.923	-120.954	0.208	0.035
-726.908	-150.318	-0.315	-0.024
-725.894	-71.904	-0.301	0.113
-724.879	56.254	-0.119	-0.116
-723.864	37.558	-0.113	-0.101
-722.850	517.549	0.071	-0.167
-721.835	177.917	0.253	-0.371
-720.821	-87.160	-0.160	-0.049
-719.806	-157.856	-0.027	-0.002
-718.791	176.193	0.201	-0.294
-717.777	263.335	0.067	-0.117
-716.762	209.504	-0.115	-0.181
-715.748	59.511	-0.178	0.176
-714.733	151.560	0.112	-0.153
-713.718	22.272	-0.153	-0.126
-712.704	800.000	0.046	-0.187
-711.689	46.179	0.163	-0.152
-710.675	-66.683	0.058	0.023
-709.660	0.463	-0.115	0.083
-708.645	-200.000	0.045	-0.213
-707.631	-75.688	-0.182	-0.065
-706.616	-200.000	0.017	-0.155
-705.602	39.796	0.256	-0.230
-704.587	107.585	-0.169	-0.202
-703.572	37.041	0.169	0.150
-702.558	800.000	-0.103	0.369
-701.543	-68.151	0.232	0.091
-700.529	800.000	0.017	0.058
-699.514	192.917	-0.162	-0.246
-698.499	93.136	-0.165	-0.188
-697.485	-200.000	0.039	0.234
-696.470	800.000	-0.060	0.175
-695.456	71.315	0.238	0.247
-694.441	-145.005	-0.255	-0.023
-693.426	-37.115	0.119	-0.064
-692.412	-200.000	0.023	0.149
-691.397	800.000	0.011	0.034
-690.383	800.000	-0.035	0.138
-689.368	-71.259	-0.170	0.064
-688.354	83.347	-0.173	-0.189
-687.339	549.713	-0.114	-0.275
-686.324	248.346	-0.062	-0.105
-685.310	-200.000	-0.009	0.207
-684.295	301.633	-0.152	-0.281
-683.281	800.000	-0.104	-0.446
-682.266	431.760	-0.083	-0.180
-681.251	-105.280	-0.183	0.042
-680.237	800.000	-0.107	0.442
-679.222	-200.000	0.008	-0.086
-678.208	800.000	-0.034	-0.110
-677.193	-8.411	-0.386	0.260
-676.178	193.364	-0.025	0.038
-675.164	-157.644	-0.210	-0.013
-674.149	-50.292	0.216	0.102
-673.135	-200.000	-0.038	0.298
-672.120	63.496	-0.034	-0.034
-671.105	-107.860	-0.285	-0.062
-670.091	-98.273	0.167	-0.043
-669.076	-106.640	0.109	0.024
-668.062	-116.320	-0.259	-0.048
-667.047	-62.678	0.305	0.127
-666.032	-200.000	0.009	-0.087
-665.018	-123.086	0.227	-0.036
-664.003	800.000	0.018	0.070
-662.989	-90.837	0.340	0.098
-661.974	-200.000	0.000	-0.221
-660.959	-200.000	-0.014	-0.147
-659.945	-64.156	-0.178	-0.073
-658.930	293.957	0.171	-0.313
-657.916	134.506	0.197	-0.256
-656.901	68.756	0.131	-0.134
-655.886	-200.000	0.034	0.372
-654.872	-97.356	-0.214	0.056
-653.857	800.000	-0.085	-0.356
-652.843	-138.425	-0.288	-0.032
-651.828	-87.671	0.273	-0.083
-650.814	-43.999	-0.205	0.103
-649.799	100.723	-0.168	-0.196
-648.784	493.826	0.174	-0.400
-647.770	392.293	-0.105	-0.219
-646.755	-21.321	0.172	-0.105
-645.741	-51.157	0.275	0.129
-644.726	-141.420	-0.291	-0.030
-643.711	459.160	0.028	-0.062
-642.697	-143.734	0.285	-0.027
-641.682	-41.712	-0.080	0.041
-640.668	326.395	-0.031	0.059
-639.653	13.347	0.269	0.209
-638.638	-98.827	0.154	-0.039
-637.624	-65.633	-0.345	-0.138
-636.609	-200.000	0.023	0.000
-635.595	-111.101	-0.201	-0.041
-634.580	20.832	-0.120	0.098
-633.565	155.525	0.094	0.129
-632.551	63.995	0.159	-0.160
-631.536	325.333	-0.126	-0.241
-630.522	-180.466	0.095	0.002
-629.507	-128.035	0.007	0.001
-628.492	-104.015	0.201	0.047
-627.478	219.155	0.144	-0.231
-626.463	-32.886	-0.270	0.150
-625.449	345.831	0.127	-0.250
-624.434	-200.000	0.026	0.149
-623.419	444.803	-0.044	-0.096
-622.405	110.005	-0.132	0.158
-621.390	800.000	-0.103	-0.320
-620.376	353.881	0.060	-0.118
-619.361	-38.470	0.170	-0.090
-618.346	-197.051	-0.431	-0.003
-617.332	-129.423	-0.224	0.031
-616.317	-1.681	0.161	0.113
-615.303	-50.317	-0.313	-0.148
-614.288	-200.000	-0.015	0.307
-613.273	-81.197	0.151	0.050
-612.259	800.000	0.038	-0.145
-611.244	127.697	-0.124	0.158
-610.230	-52.584	0.054	0.025
-609.215	-57.365	-0.248	-0.109
-608.201	-154.142	-0.129	-0.009
-607.186	71.303	-0.261	0.271
-606.171	-200.000	-0.019	-0.270
-605.157	5.722	0.162	-0.119
-604.142	300.534	-0.045	-0.082
-603.128	-162.670	0.339	0.017
-602.113	-200.000	-0.015	0.080
-601.098	2.384	-0.380	0.275
-600.084	-168.181	0.284	0.011
-599.069	-96.036	0.104	-0.028
-598.055	800.000	0.122	0.454
-597.040	-200.000	0.057	-0.257
-596.025	195.874	0.067	0.102
-595.011	-106.770	0.236	0.052
-593.996	-158.786	-0.393	0.022
-592.982	-81.322	-0.171	-0.056
-591.967	-115.127	0.113	-0.021
-590.952	134.568	0.091	0.118
-589.938	-82.120	0.188	0.061
-588.923	-77.481	-0.097	0.034
-587.909	17.918	-0.151	-0.120
-586.894	-200.000	-0.067	-0.386
-585.879	-29.574	0.379	-0.216
-584.865	-89.666	-0.165	-0.048
-583.850	87.899	-0.072	-0.080
-582.836	318.211	-0.123	0.233
-581.821	-140.948	-0.508	-0.052
-580.806	83.971	-0.216	-0.235
-579.792	555.865	0.108	0.259
-578.777	-97.426	0.309	-0.080
-577.763	800.000	-0.056	-0.197
-576.748	-200.000	0.041	0.413
-575.733	-200.000	0.002	-0.348
-574.719	349.829	-0.078	-0.153
-573.704	-200.000	-0.043	-0.252
-572.690	-110.534	0.093	-0.019
-571.675	118.917	-0.036	0.044
-570.661	-83.548	-0.173	0.055
-569.646	-98.593	0.277	0.071
-568.631	-12.833	0.193	-0.125
-567.617	183.339	0.134	-0.198
-566.602	-200.000	0.024	-0.127
-565.588	-83.992	0.074	-0.023
-564.573	-200.000	-0.009	-0.329
-563.558	69.758	-0.297	-0.305
-562.544	94.010	0.094	0.107
-561.529	334.869	0.061	-0.118
-560.515	-144.568	0.308	-0.028
-559.500	-6.388	0.097	-0.066
-558.485	-200.000	-0.091	-0.436
-557.471	-23.277	-0.347	-0.208
-556.456	-100.988	0.210	0.052
-555.442	-200.000	0.008	0.117
-554.427	26.122	0.172	-0.143
-553.412	373.985	0.024	0.049
-552.398	-54.699	0.154	-0.069
-551.383	-172.646	0.221	-0.007
-550.369	-71.415	0.325	-0.121
-549.354	800.000	0.022	0.065
-548.339	-128.585	-0.230	0.033
-547.325	-124.912	-0.199	-0.031
-546.310	-117.957	-0.337	0.060
-545.296	-200.000	-0.042	0.283
-544.281	-200.000	-0.270	-0.001
-543.266	-200.000	0.038	-0.221
-542.252	-156.366	-0.162	0.010
-541.237	63.859	-0.230	-0.230
-540.223	16.815	0.108	-0.086
-539.208	-122.351	-0.332	0.054
-538.193	-22.674	-0.315	0.190
-537.179	800.000	0.034	-0.127
-536.164	74.501	-0.246	-0.257
-535.150	-48.159	0.185	-0.089
-534.135	8.870	-0.354	-0.266
-533.121	-15.292	0.404	-0.258
-532.106	775.261	-0.051	-0.138
-531.091	138.443	0.093	0.122
-530.077	19.099	0.135	-0.108
-529.062	-200.000	-0.041	0.274
-528.048	-39.281	0.400	0.209
-527.033	301.369	-0.037	-0.068
-526.018	-86.525	0.330	0.101
-525.004	666.278	-0.033	-0.084
-523.989	-75.190	-0.197	0.070
-522.975	26.360	-0.266	0.221
-521.960	41.237	0.273	-0.246
-520.945	-113.520	0.208	-0.041
-519.931	217.424	0.158	0.250
-518.916	-39.387	-0.274	-0.143
-517.902	800.000	-0.077	0.282
-516.887	566.835	-0.067	0.161
-515.872	180.102	-0.038	-0.055
-514.858	98.722	0.060	-0.069
-513.843	-29.867	0.077	-0.044
-512.829	-93.764	-0.293	0.081
-511.814	21.177	0.167	0.135
-510.799	800.000	0.041	0.166
-509.785	-81.447	0.187	-0.061
-508.770	435.175	-0.063	0.136
-507.756	-7.394	0.209	-0.141
-506.741	245.278	-0.088	0.147
-505.726	-24.690	0.134	-0.079
-504.712	105.207	-0.152	-0.178
-503.697	-200.000	-0.061	-0.302
-502.683	-200.000	-0.008	-0.087
-501.668	-200.000	0.513	0.002
-500.653	800.000	-0.061	0.210
-499.639	-80.746	-0.291	0.096
-498.624	-200.000	0.007	-0.312
-497.610	-200.000	-0.006	-0.056
-496.595	-80.215	0.289	0.096
-495.581	-73.694	-0.324	-0.117
-494.566	-188.886	0.163	0.002
-493.551	18.517	-0.298	0.237
-492.537	-87.653	-0.268	0.080
-491.522	800.000	-0.067	0.288
-490.508	-60.631	0.140	0.059
-489.493	-106.767	-0.241	0.053
-488.478	56.498	0.215	0.208
-487.464	-32.212	0.059	-0.033
-486.449	-198.452	-0.216	0.001
-485.435	-20.927	0.252	0.154
-484.420	-21.650	0.025	-0.015
-483.405	56.103	-0.240	-0.232
-482.391	-200.000	0.017	-0.307
-481.376	-174.076	-0.347	-0.010
-480.362	800.000	-0.110	-0.305
-479.347	-60.189	-0.197	0.084
-478.332	-200.000	-0.058	-0.362
-477.318	-2.365	-0.380	-0.265
-476.303	-146.430	0.095	-0.008
-475.289	-200.000	-0.004	0.443
-474.274	38.150	0.104	0.092
-473.259	-102.995	-0.148	-0.035
-472.245	44.160	0.165	0.151
-471.230	-200.000	0.009	0.242
-470.216	-71.955	-0.169	-0.062
-469.201	103.436	-0.089	0.104
-468.186	-36.422	0.430	0.230
-467.172	-200.000	-0.009	-0.046
-466.157	-114.811	0.135	0.026
-465.143	-90.232	0.165	-0.048
-464.128	-97.484	-0.321	0.083
-463.113	-151.752	-0.183	-0.013
-462.099	-45.274	0.110	0.054
-461.084	800.000	-0.087	0.285
-460.070	346.882	0.017	0.034
-459.055	-200.000	-0.034	-0.299
-458.040	-200.000	-0.016	-0.114
-457.026	18.688	0.359	-0.285
-456.011	-101.267	0.179	0.043
-454.997	137.782	-0.056	-0.073
-453.982	-1.834	0.174	-0.122
-452.968	136.552	-0.206	-0.267
-451.953	176.456	-0.060	0.087
-450.938	-148.401	0.164	-0.013
-449.924	-81.591	-0.243	0.079
-448.909	46.607	0.212	-0.195
-447.895	261.608	-0.093	0.160
-446.880	-200.000	0.029	-0.248
-445.865	-200.000	0.042	0.222
-444.851	469.805	-0.018	-0.041
-443.836	252.594	-0.068	0.116
-442.822	-107.636	0.116	0.025
-441.807	73.033	0.213	0.221
-440.792	800.000	-0.030	0.126
-439.778	-11.278	-0.198	-0.129
-438.763	131.934	0.050	-0.063
-437.749	-200.000	0.027	-0.137
-436.734	2.395	0.171	-0.123
-435.719	-38.530	0.238	-0.125
-434.705	760.973	0.093	-0.251
-433.690	-200.000	-0.012	-0.068
-432.676	-200.000	0.074	0.325
-431.661	202.326	-0.059	0.090
-430.646	138.364	0.055	-0.072
-429.632	9.723	-0.153	-0.115
-428.617	43.381	0.187	-0.169
-427.603	19.164	-0.180	0.143
-426.588	-59.235	0.215	0.092
-425.573	138.345	-0.157	0.204
-424.559	800.000	0.009	0.035
-423.544	415.521	-0.085	0.179
-422.530	437.589	0.032	0.070
-421.515	800.000	0.116	-0.325
-420.500	-200.000	0.015	0.081
-419.486	-98.305	0.155	0.040
-418.471	800.000	-0.046	0.159
-417.457	-68.973	0.074	-0.028
-416.442	-51.129	0.245	0.114
-415.428	140.787	-0.155	0.203
-414.413	800.000	0.132	-0.439
-413.398	164.082	0.168	0.234
-412.384	542.888	0.111	0.264
-411.369	-51.420	0.189	-0.088
-410.355	-14.222	-0.192	0.123
-409.340	-200.000	0.013	0.082
-408.325	800.000	0.093	0.322
-407.311	-120.315	0.181	-0.031
-406.296	-198.880	-0.597	0.003
-405.282	-67.488	-0.186	-0.072
-404.267	-200.000	0.009	0.325
-403.252	-122.860	-0.234	-0.037
-402.238	35.664	0.180	-0.157
-401.223	526.026	-0.123	-0.288
-400.209	-147.330	-0.094	-0.008
-399.194	152.793	0.081	-0.110
-398.179	351.617	-0.059	0.116
-397.165	-87.083	-0.197	0.060
-396.150	-104.077	0.293	0.068
-395.136	189.043	0.124	0.184
-394.121	800.000	-0.083	0.239
-393.106	170.692	-0.022	0.031
-392.092	-29.118	-0.098	0.056
-391.077	-200.000	-0.008	-0.162
-390.063	12.357	-0.155	0.118
-389.048	-111.831	0.579	0.116
-388.033	138.903	-0.054	-0.071
-387.019	76.184	-0.085	-0.089
-386.004	117.812	0.178	0.218
-384.990	800.000	0.032	-0.091
-383.975	239.050	-0.265	0.436
-382.960	211.141	-0.166	0.259
-381.946	800.000	0.007	-0.021
-380.931	-81.940	0.140	0.045
-379.917	-185.727	0.141	-0.002
-378.902	-200.000	-0.007	-0.091
-377.888	-86.954	0.055	0.016
-376.873	-145.800	0.128	-0.011
-375.858	-200.000	0.014	-0.165
-374.844	-38.327	-0.105	-0.055
-373.829	128.231	-0.087	0.109
-372.815	30.969	0.172	0.146
-371.800	-59.370	-0.025	0.011
-370.785	220.018	0.141	0.223
-369.771	-26.740	-0.299	0.173
-368.756	3.749	-0.111	-0.081
-367.742	800.000	-0.076	0.315
-366.727	-200.000	0.003	-0.050
-365.712	-200.000	-0.009	-0.201
-364.698	127.354	0.162	0.204
-363.683	376.749	0.026	-0.052
-362.669	121.621	-0.171	-0.210
-361.654	720.279	0.016	-0.042
-360.639	800.000	-0.064	-0.197
-359.625	100.242	-0.112	0.129
-358.610	146.003	0.133	-0.177
-357.596	-22.175	-0.128	0.077
-356.581	745.733	0.023	0.062
-355.566	112.454	0.099	0.119
-354.552	406.274	-0.128	0.267
-353.537	-74.840	-0.253	-0.090
-352.523	-8.324	-0.486	0.323
-351.508	-4.146	0.138	0.095
-350.493	-200.000	0.019	-0.088
-349.479	-114.358	-0.319	0.061
-348.464	86.232	0.067	-0.073
-347.450	75.348	0.118	0.123
-346.435	13.805	-0.285	0.219
-345.420	-41.258	0.317	-0.162
-344.406	-200.000	0.009	-0.211
-343.391	243.083	-0.253	0.419
-342.377	-68.091	0.132	-0.051
-341.362	-113.771	0.430	0.083
-340.348	143.748	-0.146	-0.193
-339.333	-200.000	-0.070	0.321
-338.318	478.432	0.187	0.418
-337.304	53.097	0.154	0.146
-336.289	-2.758	0.210	0.145
-335.275	800.000	-0.113	-0.325
-334.260	63.095	0.070	-0.069
-333.245	178.282	-0.116	0.168
-332.231	0.295	0.200	-0.141
-331.216	-12.728	0.328	-0.211
-330.202	-200.000	-0.017	-0.136
-329.187	-200.000	-0.058	-0.297
-328.172	-14.968	0.216	0.137
-327.158	-200.000	0.002	0.233
-326.143	128.464	-0.115	-0.145
-325.129	199.017	0.248	-0.375
-324.114	800.000	0.044	-0.119
-323.099	-94.386	0.507	0.137
-322.085	433.936	-0.035	-0.074
-321.070	59.723	0.289	-0.282
-320.056	23.602	-0.177	0.144
-319.041	106.580	0.136	-0.160
-318.026	-149.310	-0.062	-0.005
-317.012	-13.720	0.351	-0.224
-315.997	3.885	0.107	-0.077
-314.983	-54.259	-0.186	-0.083
-313.968	451.956	-0.068	-0.148
-312.953	-70.401	-0.089	0.033
-311.939	260.794	0.076	-0.130
-310.924	-200.000	0.007	0.184
-309.910	250.443	-0.058	-0.098
-308.895	-92.188	-0.038	0.011
-307.880	-3.737	0.278	0.191
-306.866	-129.376	0.337	0.046
-305.851	11.721	0.137	-0.104
-304.837	-107.111	-0.208	-0.045
-303.822	-112.239	-0.273	-0.054
-302.807	-200.000	0.018	0.134
-301.793	-179.089	-0.159	-0.004
-300.778	800.000	0.014	-0.053
-299.764	-200.000	-0.008	0.274
-298.749	332.718	0.031	0.060
-297.735	131.112	-0.114	0.145
-296.720	-23.296	0.262	-0.156
-295.705	10.855	0.089	0.067
-294.691	-70.489	-0.243	-0.091
-293.676	209.264	0.126	0.195
-292.662	-134.022	-0.143	0.018
-291.647	800.000	-0.101	-0.293
-290.632	792.575	0.070	-0.190
-289.618	158.891	-0.148	0.204
-288.603	-88.427	0.287	-0.084
-287.589	800.000	0.019	-0.076
-286.574	800.000	0.031	0.097
-285.559	-16.977	-0.065	0.040
-284.545	-200.000	-0.002	-0.085
-283.530	149.945	0.188	0.251
-282.516	800.000	-0.137	0.457
-281.501	148.438	0.110	-0.147
-280.486	-200.000	-0.036	-0.175
-279.472	-55.806	0.233	0.103
-278.457	800.000	-0.059	0.218
-277.443	323.225	-0.137	0.257
-276.428	800.000	-0.011	0.037
-275.413	49.344	0.142	0.132
-274.399	20.891	-0.118	0.094
-273.384	-115.292	-0.444	0.083
-272.370	-119.433	-0.394	-0.067
-271.355	-139.014	-0.254	0.027
-270.340	-119.945	0.243	0.041
-269.326	-200.000	0.001	-0.235
-268.311	23.633	-0.232	-0.188
-267.297	-200.000	0.002	0.439
-266.282	-200.000	0.004	0.134
-265.267	44.620	-0.219	0.198
-264.253	-137.758	-0.309	-0.034
-263.238	-17.281	0.197	0.123
-262.224	70.821	0.070	-0.072
-261.209	-7.598	-0.246	-0.164
-260.195	800.000	0.098	0.365
-259.180	800.000	0.089	0.318
-258.165	-13.878	0.218	0.139
-257.151	-200.000	-0.004	-0.300
-256.136	166.657	-0.100	-0.139
-255.122	-200.000	-0.033	0.144
-254.107	28.913	-0.138	0.115
-253.092	-200.000	0.049	0.276
-252.078	-15.692	-0.263	0.166
-251.063	-75.275	-0.190	0.067
-250.049	-41.882	-0.217	-0.110
-249.034	5.619	0.044	0.032
-248.019	800.000	0.027	0.083
-247.005	-34.490	0.209	-0.113
-245.990	409.163	0.148	0.310
-244.976	-174.877	-0.414	0.011
-243.961	-95.565	-0.152	-0.040
-242.946	-4.691	0.324	-0.220
-241.932	-85.538	0.223	0.068
-240.917	-36.095	0.231	0.123
-239.903	428.241	0.006	-0.012
-238.888	-200.000	0.007	0.160
-237.873	-200.000	0.055	0.335
-236.859	-108.022	0.093	0.020
-235.844	103.026	0.078	0.090
-234.830	344.188	0.121	-0.235
-233.815	-59.196	-0.078	0.033
-232.800	-200.000	0.016	-0.184
-231.786	-116.560	0.166	0.030
-230.771	17.913	0.374	-0.294
-229.757	418.265	-0.038	0.081
-228.742	56.375	-0.200	0.191
-227.727	-55.577	-0.044	0.019
-226.713	800.000	-0.094	-0.304
-225.698	-71.391	-0.192	0.071
-224.684	-30.278	-0.176	0.099
-223.669	-59.200	0.217	0.092
-222.655	800.000	0.126	-0.389
-221.640	797.644	0.106	-0.287
-220.625	-75.823	-0.148	-0.051
-219.611	356.761	-0.097	0.190
-218.596	-200.000	0.022	-0.125
-217.582	100.396	-0.224	0.256
-216.567	15.100	-0.257	0.198
-215.552	-200.000	-0.021	-0.127
-214.538	468.603	-0.105	-0.232
-213.523	200.458	-0.087	-0.132
-212.509	149.193	-0.209	0.278
-211.494	144.385	0.142	0.187
-210.479	800.000	-0.075	0.225
-209.465	800.000	0.022	0.072
-208.450	-129.695	0.225	0.030
-207.436	-200.000	0.008	0.040
-206.421	-200.000	-0.014	-0.068
-205.406	-104.877	-0.137	0.031
-204.392	602.467	-0.119	0.290
-203.377	25.412	0.166	-0.136
-202.363	-72.340	0.373	0.136
-201.348	17.752	-0.191	-0.149
-200.333	394.651	0.013	-0.026
-199.319	-151.325	-0.150	-0.011
-198.304	-200.000	0.012	0.060
-197.290	-200.000	0.031	0.430
-196.275	68.341	0.240	-0.242
-195.260	47.180	-0.118	0.108
-194.246	556.675	-0.123	0.291
-193.231	-43.765	0.269	-0.133
-192.217	-200.000	-0.008	-0.069
-191.202	-200.000	0.084	-0.469
-190.187	-200.000	0.009	-0.085
-189.173	-200.000	0.052	0.379
-188.158	120.391	-0.062	-0.076
-187.144	-123.951	-0.291	0.045
-186.129	-110.078	-0.196	-0.040
-185.114	353.973	0.051	0.100
-184.100	-7.048	-0.155	0.103
-183.085	38.254	0.151	-0.132
-182.071	-200.000	0.009	-0.234
-181.056	-9.321	0.376	-0.247
-180.042	185.130	0.095	-0.139
-179.027	112.668	-0.100	-0.119
-178.012	-200.000	0.035	-0.283
-176.998	81.328	-0.225	0.239
-175.983	-152.007	0.166	0.012
-174.969	-50.877	-0.250	-0.116
-173.954	-200.000	-0.011	-0.115
-172.939	-120.367	0.326	-0.055
-171.925	25.011	0.387	0.316
-170.910	800.000	-0.080	0.223
-169.896	68.689	0.154	-0.156
-168.881	-67.538	-0.027	0.010
-167.866	223.190	0.072	-0.115
-166.852	-180.642	0.220	0.004
-165.837	531.589	-0.098	0.228
-164.823	-200.000	0.034	-0.178
-163.808	-108.801	0.233	0.049
-162.793	-36.730	-0.107	0.057
-161.779	-19.482	-0.200	-0.121
-160.764	62.172	-0.197	-0.193
-159.750	-66.717	-0.257	-0.100
-158.735	-165.317	0.110	-0.005
-157.720	26.895	-0.229	-0.189
-156.706	9.419	0.246	-0.183
-155.691	404.852	-0.048	0.100
-154.677	-200.000	-0.036	-0.184
-153.662	10.615	0.097	-0.073
-152.647	800.000	0.074	-0.276
-151.633	-84.489	-0.074	0.023
-150.618	-86.630	0.330	-0.099
-149.604	-171.634	-0.466	-0.015
-148.589	-110.960	-0.145	0.029
-147.574	-200.000	0.038	0.172
-146.560	55.410	0.178	-0.169
-145.545	-59.206	0.193	-0.082
-144.531	461.818	0.094	0.205
-143.516	652.754	0.056	0.142
-142.502	173.765	0.093	0.131
-141.487	489.108	-0.062	-0.139
-140.472	37.809	0.153	0.134
-139.458	-200.000	0.001	0.084
-138.443	-102.497	-0.111	-0.026
-137.429	125.626	0.127	-0.157
-136.414	-174.682	0.059	-0.002
-135.399	-167.493	-0.306	-0.012
-134.385	108.867	-0.046	0.054
-133.370	-200.000	0.009	0.082
-132.356	66.368	-0.089	0.088
-131.341	309.880	0.105	-0.193
-130.326	-19.138	-0.123	-0.075
-129.312	-39.899	0.241	0.123
-128.297	-80.512	-0.169	-0.055
-127.283	391.234	0.072	0.148
-126.268	-132.294	-0.055	0.007
-125.253	310.599	0.161	0.296
-124.239	173.356	-0.151	0.213
-123.224	-200.000	-0.011	0.204
-122.210	-200.000	0.033	-0.145
-121.195	104.456	-0.331	0.382
