DTS Sentinel unit serial number:	SN413079Multiplexer serial number:	ORYXHardware model number:	OX4-SRSoftware version number:	ORYX F/W v4.00 Oryx Data Collector v3.7.2.0data status	okinstallation	princeton_trtdifferential loss correction	single-endedforward channel	channel 1reverse channel	N/Adate	2019/09/13time	21:22:35forward acquisition time	60.00reverse acquisition time	0.00gamma	496.2192k internal	0.2331k external	0.2331temperature offset calibration	1.0080default loss term (dB/km)	0.3790temperature slope calibration	1.0000multiplexer offset coefficient	1.0000multiplexer slope coefficient	1.0000fibre end	0.00T internal ref (°C)	28.37T ext. ref 1 (°C)	3.11T ext. ref 2 (°C)	22.91length (m)	temperature (°C)	Stokes	anti-Stokes-747.200	-98.747	0.163	0.042
-746.185	14.543	-0.325	0.255
-745.171	-134.134	0.068	0.008
-744.156	-200.000	0.017	0.435
-743.142	236.954	0.037	-0.062
-742.127	161.303	-0.017	-0.024
-741.112	-142.353	-0.254	0.025
-740.098	218.528	0.086	-0.138
-739.083	-94.706	0.124	0.034
-738.069	-135.806	-0.292	-0.035
-737.054	-148.553	-0.134	-0.011
-736.039	-80.215	-0.412	-0.139
-735.025	30.525	0.321	0.276
-734.010	131.653	-0.073	-0.095
-732.996	87.913	-0.100	0.111
-731.981	-200.000	0.003	-0.028
-730.966	-29.639	0.194	-0.111
-729.952	98.495	-0.203	-0.235
-728.937	-46.813	-0.157	-0.077
-727.923	265.095	-0.186	0.327
-726.908	197.371	0.143	0.220
-725.894	25.380	-0.190	-0.159
-724.879	54.958	0.172	0.167
-723.864	-108.655	-0.232	-0.050
-722.850	6.962	0.074	0.055
-721.835	163.061	-0.245	0.346
-720.821	-88.291	-0.172	0.052
-719.806	-32.764	0.128	-0.072
-718.791	-41.907	-0.186	-0.096
-717.777	-200.000	0.001	0.049
-716.762	-46.689	-0.240	0.118
-715.748	-168.595	-0.245	0.009
-714.733	-200.000	-0.006	-0.282
-713.718	800.000	0.028	0.110
-712.704	-69.026	-0.157	-0.061
-711.689	43.696	0.286	0.263
-710.675	155.129	-0.041	0.057
-709.660	-200.000	-0.042	-0.297
-708.645	162.577	0.103	-0.145
-707.631	-17.394	0.248	0.157
-706.616	173.144	0.090	0.130
-705.602	-55.298	0.156	0.070
-704.587	-32.768	-0.183	0.102
-703.572	-67.086	0.425	-0.168
-702.558	-41.597	-0.366	-0.189
-701.543	-200.000	0.027	0.253
-700.529	12.495	0.027	0.021
-699.514	10.882	-0.092	-0.071
-698.499	130.130	-0.042	0.054
-697.485	-200.000	0.048	-0.215
-696.470	-86.314	0.117	0.036
-695.456	40.491	0.145	0.131
-694.441	54.411	-0.168	-0.162
-693.426	151.117	-0.115	-0.158
-692.412	52.681	0.131	-0.126
-691.397	-63.486	0.145	-0.060
-690.383	86.500	0.086	0.096
-689.368	4.938	0.191	0.141
-688.354	-200.000	-0.019	-0.132
-687.339	-152.471	-0.246	0.018
-686.324	144.114	0.065	0.087
-685.310	-73.856	0.144	-0.053
-684.295	-200.000	-0.071	-0.421
-683.281	357.443	-0.223	-0.447
-682.266	-148.311	0.255	-0.021
-681.251	41.432	-0.212	0.192
-680.237	-89.996	-0.131	-0.038
-679.222	-97.585	0.277	-0.072
-678.208	-200.000	-0.047	-0.256
-677.193	44.005	0.153	-0.141
-676.178	800.000	0.082	-0.244
-675.164	-200.000	-0.020	-0.286
-674.149	23.525	-0.338	-0.279
-673.135	213.785	-0.017	-0.028
-672.120	-65.605	-0.086	-0.035
-671.105	296.713	-0.196	-0.360
-670.091	40.967	-0.303	-0.274
-669.076	218.285	0.051	0.082
-668.062	-200.000	0.039	-0.183
-667.047	388.588	-0.047	-0.098
-666.032	-64.072	0.326	-0.133
-665.018	-200.000	-0.049	-0.320
-664.003	-42.308	-0.269	0.138
-662.989	800.000	-0.061	-0.226
-661.974	-200.000	-0.009	-0.194
-660.959	800.000	-0.031	-0.114
-659.945	373.044	-0.217	-0.443
-658.930	390.912	-0.115	-0.239
-657.916	-96.247	-0.242	0.064
-656.901	-200.000	-0.004	-0.176
-655.886	-3.478	-0.143	0.100
-654.872	69.717	0.182	-0.189
-653.857	800.000	0.082	-0.311
-652.843	201.572	-0.085	0.131
-651.828	-150.707	-0.416	-0.032
-650.814	78.066	-0.132	-0.141
-649.799	-147.806	-0.036	0.003
-648.784	-200.000	-0.011	0.171
-647.770	-3.542	-0.083	-0.058
-646.755	-90.854	0.113	-0.033
-645.741	-200.000	0.025	0.221
-644.726	-200.000	-0.036	0.161
-643.711	-58.345	0.217	0.095
-642.697	-101.546	0.298	-0.073
-641.682	800.000	-0.080	0.302
-640.668	500.809	-0.192	-0.444
-639.653	800.000	-0.081	-0.321
-638.638	-146.057	0.468	-0.041
-637.624	-9.449	-0.207	-0.139
-636.609	-110.854	-0.098	-0.020
-635.595	800.000	0.060	-0.214
-634.580	-3.106	-0.290	-0.202
-633.565	250.902	0.024	0.041
-632.551	307.283	-0.187	-0.349
-631.536	358.812	-0.056	-0.112
-630.522	544.095	-0.112	0.267
-629.507	46.457	0.163	-0.152
-628.492	-200.000	-0.046	0.396
-627.478	-23.171	-0.192	-0.116
-626.463	22.508	-0.048	0.039
-625.449	179.322	-0.146	-0.214
-624.434	54.395	0.311	-0.300
-623.419	-67.052	-0.194	0.076
-622.405	-200.000	0.009	-0.208
-621.390	-200.000	0.001	0.181
-620.376	-200.000	-0.012	0.066
-619.361	-50.584	-0.218	-0.103
-618.346	-169.642	-0.134	-0.005
-617.332	800.000	0.080	-0.239
-616.317	-108.014	-0.094	-0.020
-615.303	-52.147	-0.109	-0.050
-614.288	94.497	0.116	-0.132
-613.273	-107.346	0.242	0.053
-612.259	-5.682	-0.312	0.214
-611.244	-146.011	-0.300	0.027
-610.230	-124.229	-0.455	-0.071
-609.215	363.107	-0.091	-0.183
-608.201	-104.830	0.125	0.029
-607.186	300.647	0.089	-0.164
-606.171	-68.765	0.438	-0.170
-605.157	5.854	0.192	-0.142
-604.142	389.243	0.075	-0.155
-603.128	529.801	0.100	-0.237
-602.113	800.000	-0.095	-0.283
-601.098	-200.000	0.075	-0.490
-600.084	-72.288	-0.233	0.086
-599.069	-200.000	0.009	-0.270
-598.055	800.000	-0.080	-0.288
-597.040	312.326	0.155	0.292
-596.025	-161.186	-0.049	0.003
-595.011	307.310	0.077	-0.144
-593.996	-173.128	0.216	-0.007
-592.982	-200.000	-0.057	0.313
-591.967	429.161	-0.065	0.140
-590.952	256.437	0.152	0.262
-589.938	-76.789	0.353	0.124
-588.923	85.103	-0.157	0.172
-587.909	-32.201	0.151	0.085
-586.894	41.713	0.158	0.143
-585.879	189.063	0.095	-0.142
-584.865	-200.000	0.014	-0.358
-583.850	-184.327	-0.133	-0.002
-582.836	-200.000	0.021	0.098
-581.821	-200.000	0.037	0.352
-580.806	-92.663	-0.262	-0.073
-579.792	-147.149	0.070	0.006
-578.777	-93.051	-0.274	0.076
-577.763	-41.903	0.262	-0.134
-576.748	680.300	0.019	-0.049
-575.733	-108.384	0.264	-0.057
-574.719	-128.051	-0.039	-0.006
-573.704	-200.000	-0.000	0.036
-572.690	690.942	-0.128	-0.336
-571.675	382.328	-0.161	-0.331
-570.661	33.342	0.124	0.107
-569.646	-193.923	-0.236	0.002
-568.631	-79.672	0.119	0.040
-567.617	-200.000	0.000	0.051
-566.602	28.655	-0.165	-0.140
-565.588	-200.000	-0.015	0.189
-564.573	48.348	-0.137	-0.129
-563.558	-200.000	0.000	0.382
-562.544	800.000	0.108	-0.417
-561.529	-96.261	-0.350	-0.093
-560.515	120.181	-0.224	-0.277
-559.500	106.790	-0.134	0.159
-558.485	501.187	0.119	0.275
-557.471	800.000	-0.035	-0.103
-556.456	-200.000	0.019	-0.093
-555.442	175.619	0.129	0.186
-554.427	687.808	-0.094	-0.244
-553.412	-72.902	0.097	0.036
-552.398	-200.000	-0.008	-0.098
-551.383	1.522	-0.149	0.107
-550.369	-151.687	0.325	0.024
-549.354	670.410	-0.097	0.251
-548.339	800.000	0.097	0.313
-547.325	34.519	0.270	-0.236
-546.310	800.000	-0.052	-0.156
-545.296	-68.059	-0.196	-0.076
-544.281	800.000	0.041	-0.167
-543.266	-67.531	-0.138	-0.054
-542.252	165.702	0.149	0.210
-541.237	49.627	-0.232	-0.218
-540.223	128.182	-0.111	0.141
-539.208	108.518	0.111	-0.132
-538.193	-11.675	0.028	-0.019
-537.179	-106.807	-0.419	0.093
-536.164	-53.676	0.168	-0.077
-535.150	43.173	-0.185	0.168
-534.135	682.908	-0.057	-0.149
-533.121	800.000	-0.020	-0.066
-532.106	-200.000	0.039	0.348
-531.091	-112.586	-0.187	-0.037
-530.077	800.000	-0.050	-0.187
-529.062	-28.062	0.085	-0.049
-528.048	86.253	0.132	-0.145
-527.033	-17.014	-0.393	0.248
-526.018	-200.000	0.045	0.446
-525.004	800.000	0.046	0.189
-523.989	-45.256	-0.061	-0.030
-522.975	-179.082	0.476	-0.011
-521.960	137.400	0.062	0.080
-520.945	151.043	0.133	-0.180
-519.931	159.440	0.164	0.228
-518.916	649.240	-0.081	-0.206
-517.902	724.883	0.063	-0.168
-516.887	-200.000	-0.076	-0.339
-515.872	800.000	0.014	0.042
-514.858	-200.000	-0.008	0.085
-513.843	-200.000	0.046	-0.223
-512.829	-18.805	-0.436	0.271
-511.814	-79.004	-0.334	0.113
-510.799	125.620	-0.223	0.280
-509.785	605.601	-0.117	0.290
-508.770	400.929	0.083	-0.174
-507.756	-39.882	0.277	-0.144
-506.741	-22.870	-0.068	-0.041
-505.726	-200.000	0.023	-0.381
-504.712	164.123	0.167	0.234
-503.697	-144.975	-0.064	0.006
-502.683	119.581	0.105	0.129
-501.668	-105.810	-0.368	0.083
-500.653	-0.067	0.145	-0.103
-499.639	800.000	0.043	0.138
-498.624	800.000	-0.023	-0.064
-497.610	-200.000	0.005	-0.250
-496.595	-145.498	0.194	0.017
-495.581	174.458	-0.080	0.116
-494.566	-200.000	-0.070	-0.318
-493.551	-117.527	0.022	-0.004
-492.537	501.059	-0.182	0.419
-491.522	8.873	-0.107	0.080
-490.508	-200.000	0.014	-0.343
-489.493	241.240	-0.256	0.426
-488.478	800.000	0.101	0.403
-487.464	732.537	0.129	0.345
-486.449	33.716	-0.087	0.076
-485.435	9.673	-0.091	0.068
-484.420	-120.103	0.240	0.041
-483.405	-200.000	0.025	0.208
-482.391	107.999	-0.155	0.184
-481.376	800.000	-0.019	-0.076
-480.362	394.863	-0.080	-0.167
-479.347	-19.603	0.268	0.166
-478.332	278.992	-0.136	0.242
-477.318	415.824	-0.059	-0.124
-476.303	160.551	0.061	-0.085
-475.289	-151.214	0.161	0.012
-474.274	-133.999	-0.108	-0.013
-473.259	-200.000	0.012	-0.206
-472.245	-46.206	-0.284	-0.139
-471.230	91.784	0.219	-0.246
-470.216	-200.000	0.017	0.432
-469.201	-90.539	-0.229	0.066
-468.186	583.079	0.125	0.305
-467.172	-200.000	-0.025	-0.145
-466.157	571.684	-0.123	-0.298
-465.143	-21.066	0.080	-0.049
-464.128	-63.787	-0.129	-0.053
-463.113	800.000	-0.095	-0.357
-462.099	-94.241	-0.115	0.031
-461.084	-200.000	0.013	0.172
-460.070	-166.413	0.469	-0.020
-459.055	459.596	-0.028	-0.062
-458.040	-34.698	0.077	-0.042
-457.026	280.234	-0.082	0.146
-456.011	800.000	0.097	-0.314
-454.997	269.943	-0.069	0.121
-453.982	-72.820	0.165	-0.061
-452.968	-104.683	-0.392	0.090
-451.953	108.739	-0.192	-0.228
-450.938	800.000	0.014	-0.045
-449.924	33.703	-0.254	-0.220
-448.909	800.000	0.110	0.314
-447.895	-5.030	-0.233	-0.159
-446.880	83.381	-0.160	-0.174
-445.865	-79.456	0.065	-0.022
-444.851	800.000	0.063	0.209
-443.836	1.340	0.126	-0.090
-442.822	-27.046	-0.208	-0.121
-441.807	-10.469	0.155	0.102
-440.792	-42.945	-0.240	0.121
-439.778	-200.000	0.020	-0.093
-438.763	214.883	0.177	-0.279
-437.749	-200.000	0.020	-0.170
-436.734	-160.089	-0.186	-0.010
-435.719	-146.462	0.144	0.013
-434.705	-133.872	0.294	0.036
-433.690	14.346	-0.105	0.081
-432.676	-90.447	0.274	-0.079
-431.661	-33.638	0.191	0.105
-430.646	-122.098	0.152	0.025
-429.632	-6.169	0.012	0.008
-428.617	-53.362	0.227	-0.103
-427.603	-200.000	0.027	0.163
-426.588	-200.000	0.033	-0.420
-425.573	-145.862	0.377	0.033
-424.559	-78.105	-0.078	0.027
-423.544	143.043	-0.257	-0.340
-422.530	16.283	-0.258	0.203
-421.515	64.224	0.288	0.288
-420.500	800.000	-0.092	0.269
-419.486	-103.805	-0.338	0.079
-418.471	-107.509	-0.109	-0.024
-417.457	-78.843	0.197	0.067
-416.442	800.000	0.080	-0.280
-415.428	92.826	0.090	0.101
-414.413	-45.500	0.227	-0.112
-413.398	702.470	-0.077	-0.202
-412.384	-94.965	0.277	-0.075
-411.369	223.622	0.152	0.244
-410.355	459.920	-0.097	0.215
-409.340	-6.866	-0.207	-0.140
-408.325	245.723	0.106	0.177
-407.311	-108.054	-0.282	-0.061
-406.296	386.672	-0.069	0.142
-405.282	36.558	0.070	0.061
-404.267	133.797	-0.067	-0.086
-403.252	91.914	-0.061	0.068
-402.238	-195.997	-0.274	-0.002
-401.223	-34.256	0.178	-0.097
-400.209	-30.041	0.187	-0.106
-399.194	-200.000	0.006	0.128
-398.179	64.662	0.248	-0.249
-397.165	-13.758	-0.201	-0.129
-396.150	-200.000	0.030	0.195
-395.136	-13.446	0.126	-0.081
-394.121	-148.124	0.222	-0.018
-393.106	-200.000	-0.029	0.333
-392.092	571.758	0.117	0.282
-391.077	-73.906	0.131	-0.047
-390.063	-132.047	0.170	0.022
-389.048	800.000	0.068	0.187
-388.033	-56.260	0.169	-0.075
-387.019	-89.439	-0.292	-0.085
-386.004	-20.112	0.134	0.082
-384.990	121.457	0.127	0.157
-383.975	-85.393	-0.371	0.115
-382.960	-133.900	0.088	0.011
-381.946	295.668	0.058	0.106
-380.931	-2.033	0.147	0.103
-379.917	-143.582	0.172	0.016
-378.902	-5.464	0.119	-0.081
-377.888	800.000	0.051	-0.161
-376.873	18.392	0.237	-0.188
-375.858	-200.000	0.001	-0.185
-374.844	-51.219	-0.074	0.034
-373.829	229.432	0.186	0.301
-372.815	-3.661	0.153	0.105
-371.800	-41.130	-0.199	-0.102
-370.785	48.888	-0.089	0.083
-369.771	21.246	0.160	-0.129
-368.756	-107.859	0.421	-0.091
-367.742	3.538	0.186	0.135
-366.727	-200.000	-0.014	0.504
-365.712	800.000	0.111	-0.343
-364.698	536.629	0.116	0.273
-363.683	29.822	0.118	-0.100
-362.669	800.000	-0.007	0.023
-361.654	-200.000	-0.017	-0.104
-360.639	31.652	-0.122	0.104
-359.625	-81.187	0.083	-0.027
-358.610	15.850	-0.364	0.284
-357.596	800.000	0.060	0.238
-356.581	-200.000	0.021	0.103
-355.566	-101.066	-0.152	-0.037
-354.552	-200.000	0.003	-0.143
-353.537	27.224	0.166	0.138
-352.523	760.974	0.077	0.207
-351.508	-200.000	-0.006	0.051
-350.493	730.160	-0.038	-0.100
-349.479	650.299	-0.021	0.053
-348.464	183.542	-0.109	-0.160
-347.450	-6.660	-0.111	-0.075
-346.435	-93.499	0.301	0.083
-345.420	-200.000	-0.010	-0.130
-344.406	178.234	0.125	-0.181
-343.391	280.947	0.078	-0.138
-342.377	-26.398	0.230	-0.134
-341.362	32.890	-0.176	-0.151
-340.348	681.198	-0.064	0.166
-339.333	-200.000	0.014	-0.212
-338.318	-18.108	0.148	0.092
-337.304	-200.000	0.018	-0.178
-336.289	113.382	0.036	-0.044
-335.275	800.000	0.082	-0.315
-334.260	-25.399	-0.178	-0.104
-333.245	-51.341	0.027	0.012
-332.231	101.442	-0.168	-0.194
-331.216	222.199	-0.072	-0.115
-330.202	-200.000	0.022	-0.128
-329.187	408.316	-0.155	0.325
-328.172	-26.501	0.235	0.136
-327.158	465.704	0.209	0.463
-326.143	68.770	0.094	-0.096
-325.129	-63.865	-0.244	0.099
-324.114	6.177	0.268	0.196
-323.099	85.169	-0.172	0.186
-322.085	412.486	0.025	0.053
-321.070	-200.000	0.235	0.000
-320.056	163.960	0.156	0.218
-319.041	74.710	0.159	0.166
-318.026	129.929	-0.283	-0.358
-317.012	-4.701	-0.151	-0.103
-315.997	-200.000	-0.022	-0.153
-314.983	113.384	0.205	0.246
-313.968	-161.536	0.242	-0.012
-312.953	-6.637	-0.029	0.020
-311.939	54.600	-0.192	0.183
-310.924	-200.000	0.017	-0.175
-309.910	-94.383	-0.297	0.080
-308.895	7.897	-0.211	-0.157
-307.880	101.447	0.204	-0.236
-306.866	11.236	-0.096	0.073
-305.851	-128.883	0.093	0.013
-304.837	-56.186	-0.479	0.211
-303.822	283.016	0.097	0.173
-302.807	800.000	0.137	0.386
-301.793	131.448	0.058	-0.073
-300.778	-124.191	0.116	0.018
-299.764	37.495	0.338	-0.297
-298.749	-39.959	-0.140	-0.072
-297.735	182.625	-0.050	0.072
-296.720	648.008	-0.151	0.383
-295.705	-55.256	0.422	-0.187
-294.691	-200.000	0.036	0.186
-293.676	40.494	0.164	0.146
-292.662	-20.484	0.015	0.009
-291.647	692.227	0.094	0.244
-290.632	-170.964	-0.286	-0.010
-289.618	-200.000	0.003	0.103
-288.603	66.079	0.199	-0.200
-287.589	44.298	-0.101	-0.092
-286.574	-79.925	-0.290	-0.096
-285.559	-200.000	0.011	-0.168
-284.545	800.000	0.089	0.294
-283.530	-200.000	0.070	-0.446
-282.516	34.272	-0.237	0.205
-281.501	-16.154	-0.028	0.017
-280.486	25.730	0.069	-0.056
-279.472	167.861	-0.105	-0.148
-278.457	93.475	0.106	0.118
-277.443	-150.218	-0.239	0.018
-276.428	-200.000	-0.061	-0.450
-275.413	-90.357	-0.383	-0.110
-274.399	-54.649	0.149	0.066
-273.384	490.593	0.064	-0.145
-272.370	639.737	-0.044	-0.110
-271.355	98.043	-0.113	-0.128
-270.340	1.161	-0.252	-0.179
-269.326	-42.346	0.107	-0.054
-268.311	276.494	-0.130	0.229
-267.297	-129.778	-0.186	0.025
-266.282	-117.754	-0.068	-0.012
-265.267	-200.000	-0.010	0.249
-264.253	-200.000	-0.009	0.222
-263.238	-85.098	-0.181	0.056
-262.224	334.350	0.052	0.100
-261.209	-96.756	0.235	-0.061
-260.195	316.399	0.208	0.387
-259.180	-200.000	0.001	0.177
-258.165	-129.957	0.349	0.047
-257.151	-13.082	-0.142	0.091
-256.136	22.121	0.192	0.155
-255.122	-200.000	-0.061	0.275
-254.107	-70.077	0.252	0.095
-253.092	-103.481	0.047	0.011
-252.078	-200.000	0.058	0.274
-251.063	127.554	0.212	0.266
-250.049	-2.085	-0.181	0.126
-249.034	583.275	0.037	0.090
-248.019	-85.579	-0.193	-0.059
-247.005	-200.000	0.019	0.398
-245.990	800.000	-0.032	0.111
-244.976	128.033	0.302	0.379
-243.961	-59.219	-0.158	-0.067
-242.946	-200.000	-0.006	-0.293
-241.932	341.502	0.075	0.144
-240.917	103.051	-0.143	0.165
-239.903	153.355	-0.015	0.020
-238.888	-103.665	0.126	-0.029
-237.873	-82.348	0.190	-0.061
-236.859	58.155	-0.297	0.288
-235.844	-18.457	-0.165	0.102
-234.830	-31.048	-0.095	0.053
-233.815	-90.628	-0.550	-0.157
-232.800	-200.000	-0.001	-0.221
-231.786	57.068	0.189	0.181
-230.771	-75.273	0.235	-0.083
-229.757	55.282	-0.063	0.060
-228.742	77.611	0.108	-0.113
-227.727	-200.000	-0.013	0.167
-226.713	-200.000	-0.008	0.121
-225.698	-106.971	-0.216	-0.047
-224.684	166.661	0.049	-0.068
-223.669	-38.102	0.183	-0.096
-222.655	-93.730	-0.160	0.043
-221.640	160.309	-0.118	0.162
-220.625	-200.000	0.045	0.249
-219.611	300.029	-0.101	0.184
-218.596	12.904	-0.057	0.044
-217.582	-200.000	0.018	-0.108
-216.567	-141.380	0.178	0.018
-215.552	154.410	0.275	-0.373
-214.538	-200.000	-0.010	-0.390
-213.523	-200.000	-0.009	-0.090
-212.509	458.847	-0.050	0.110
-211.494	195.372	0.085	-0.128
-210.479	-200.000	0.015	-0.134
-209.465	-93.927	0.080	-0.022
-208.450	800.000	-0.129	-0.418
-207.436	38.268	0.217	-0.190
-206.421	367.860	0.075	0.150
-205.406	322.673	-0.046	-0.087
-204.392	-96.631	-0.266	0.069
-203.377	-1.524	0.185	0.129
-202.363	-83.491	0.543	-0.171
-201.348	800.000	0.021	-0.059
-200.333	800.000	0.068	-0.219
-199.319	481.300	-0.045	0.100
-198.304	-23.783	-0.483	-0.285
-197.290	-200.000	-0.012	-0.316
-196.275	296.570	0.089	0.162
-195.260	800.000	0.045	0.160
-194.246	-61.705	-0.134	-0.055
-193.231	-200.000	0.005	-0.051
-192.217	28.067	-0.181	-0.150
-191.202	800.000	0.066	0.184
-190.187	-118.764	0.286	-0.050
-189.173	800.000	-0.103	-0.295
-188.158	674.803	0.080	0.204
-187.144	9.815	-0.154	-0.115
-186.129	800.000	-0.065	0.232
-185.114	-48.337	0.027	0.013
-184.100	-200.000	-0.013	-0.132
-183.085	-24.452	0.345	-0.202
-182.071	119.550	-0.179	-0.219
-181.056	800.000	0.081	-0.330
-180.042	-140.310	-0.160	0.017
-179.027	-54.722	-0.122	-0.054
-178.012	-143.327	-0.125	0.012
-176.998	37.681	-0.276	-0.242
-175.983	2.394	-0.050	0.036
-174.969	-87.632	-0.063	0.019
-173.954	-7.188	-0.225	-0.150
-172.939	-200.000	0.017	0.190
-171.925	-37.474	0.104	0.054
-170.910	517.924	0.030	-0.070
-169.896	33.011	-0.189	-0.161
-168.881	-200.000	-0.007	-0.145
-167.866	-98.504	-0.265	-0.067
-166.852	86.480	-0.211	0.229
-165.837	29.580	-0.028	0.023
-164.823	442.687	0.146	0.315
-163.808	-200.000	0.015	-0.105
-162.793	139.056	0.098	-0.127
-161.779	64.152	0.136	0.134
-160.764	732.300	0.036	0.095
-159.750	-65.596	-0.173	0.068
-158.735	-200.000	-0.009	0.042
-157.720	521.007	0.051	0.118
-156.706	-20.598	-0.006	0.004
-155.691	137.394	0.265	-0.341
-154.677	800.000	-0.051	0.159
-153.662	136.180	-0.150	0.192
-152.647	-200.000	0.020	0.209
-151.633	221.484	0.111	-0.175
-150.618	723.966	-0.063	0.165
-149.604	800.000	-0.092	-0.277
-148.589	800.000	-0.073	0.231
-147.574	67.175	0.172	0.173
-146.560	41.344	0.132	-0.118
-145.545	311.943	0.079	0.146
-144.531	800.000	-0.059	-0.167
-143.516	-50.223	-0.283	0.132
-142.502	52.566	-0.082	-0.077
-141.487	-135.054	0.169	-0.020
-140.472	800.000	0.096	0.279
-139.458	-172.257	-0.289	0.009
-138.443	67.682	0.221	-0.222
-137.429	-80.316	-0.447	-0.147
-136.414	-167.519	0.284	0.011
-135.399	-79.687	-0.357	0.118
-134.385	-46.190	0.092	0.045
-133.370	147.125	-0.124	0.164
-132.356	168.643	-0.193	0.270
-131.341	-101.598	0.231	0.055
-130.326	-5.128	0.239	0.162
-129.312	-200.000	-0.028	-0.160
-128.297	-24.898	0.162	0.094
-127.283	-200.000	0.031	0.209
-126.268	-200.000	0.039	0.429
-125.253	272.468	-0.265	0.459
-124.239	53.261	-0.213	0.201
-123.224	-200.000	-0.006	-0.030
-122.210	22.900	0.183	-0.148
-121.195	7.764	-0.262	-0.193
-120.180	-69.582	0.132	0.050
