DTS Sentinel unit serial number:	SN413079Multiplexer serial number:	ORYXHardware model number:	OX4-SRSoftware version number:	ORYX F/W v4.00 Oryx Data Collector v3.7.2.0data status	okinstallation	princeton_trtdifferential loss correction	single-endedforward channel	channel 1reverse channel	N/Adate	2019/09/14time	08:10:35forward acquisition time	60.00reverse acquisition time	0.00gamma	496.2192k internal	0.2330k external	0.2330temperature offset calibration	1.0070default loss term (dB/km)	0.3790temperature slope calibration	1.0000multiplexer offset coefficient	1.0000multiplexer slope coefficient	1.0000fibre end	0.00T internal ref (°C)	27.36T ext. ref 1 (°C)	3.58T ext. ref 2 (°C)	26.08length (m)	temperature (°C)	Stokes	anti-Stokes-747.200	800.000	0.035	0.102
-746.185	-92.991	0.099	0.028
-745.171	189.675	-0.105	0.158
-744.156	146.048	-0.191	0.258
-743.142	800.000	0.032	-0.129
-742.127	300.221	-0.161	-0.299
-741.112	-123.083	0.199	-0.032
-740.098	267.172	-0.242	0.425
-739.083	-60.817	0.177	-0.075
-738.069	-50.237	0.103	0.049
-737.054	-46.463	-0.097	-0.048
-736.039	-70.710	0.095	-0.036
-735.025	407.015	0.217	0.462
-734.010	160.185	-0.022	-0.031
-732.996	354.160	-0.121	0.241
-731.981	800.000	-0.021	-0.064
-730.966	-91.432	0.100	0.029
-729.952	-200.000	0.027	-0.142
-728.937	800.000	-0.007	-0.028
-727.923	222.507	-0.130	0.210
-726.908	527.523	-0.024	0.057
-725.894	-126.270	0.251	-0.038
-724.879	47.394	-0.146	-0.137
-723.864	126.134	-0.137	0.174
-722.850	800.000	-0.012	-0.041
-721.835	43.401	-0.274	-0.252
-720.821	-30.462	0.052	0.030
-719.806	800.000	-0.102	-0.364
-718.791	-133.491	0.032	-0.004
-717.777	300.615	0.172	0.319
-716.762	-200.000	0.046	-0.527
-715.748	800.000	-0.062	0.249
-714.733	800.000	0.029	-0.082
-713.718	3.403	0.290	-0.213
-712.704	800.000	-0.048	0.208
-711.689	-64.939	-0.220	-0.089
-710.675	-61.031	0.405	-0.172
-709.660	-143.946	0.212	0.020
-708.645	-200.000	-0.007	0.212
-707.631	-44.270	-0.338	0.171
-706.616	-200.000	0.000	0.279
-705.602	384.779	-0.095	0.197
-704.587	-110.849	-0.322	-0.067
-703.572	-119.535	0.185	0.032
-702.558	66.376	0.224	-0.228
-701.543	-200.000	0.078	-0.498
-700.529	-15.251	-0.321	0.206
-699.514	-200.000	-0.030	0.152
-698.499	-71.194	0.043	0.016
-697.485	391.998	0.114	-0.237
-696.470	593.431	-0.156	-0.388
-695.456	-45.402	0.280	-0.139
-694.441	10.250	0.452	0.345
-693.426	-3.698	0.123	-0.086
-692.412	260.337	-0.153	-0.266
-691.397	-73.318	-0.280	-0.103
-690.383	-62.129	-0.098	-0.041
-689.368	-159.323	0.111	-0.006
-688.354	155.880	0.063	-0.087
-687.339	116.297	-0.223	-0.274
-686.324	800.000	-0.040	0.170
-685.310	65.521	-0.167	-0.170
-684.295	-51.403	0.222	-0.104
-683.281	-24.640	0.105	-0.063
-682.266	116.872	0.061	-0.075
-681.251	121.125	-0.217	0.271
-680.237	36.484	0.162	0.144
-679.222	19.550	-0.221	-0.178
-678.208	189.258	0.108	-0.162
-677.193	-139.899	0.049	0.005
-676.178	14.355	-0.124	-0.097
-675.164	800.000	-0.076	-0.215
-674.149	-32.981	0.142	0.079
-673.135	-31.461	-0.459	0.259
-672.120	429.921	0.059	0.127
-671.105	134.653	-0.172	-0.224
-670.091	86.852	-0.251	-0.278
-669.076	-56.205	-0.455	-0.203
-668.062	-3.614	0.194	0.135
-667.047	-31.933	0.119	0.067
-666.032	-200.000	-0.024	-0.283
-665.018	-200.000	-0.012	-0.069
-664.003	-21.260	-0.249	0.152
-662.989	-200.000	-0.024	0.200
-661.974	-200.000	0.004	-0.302
-660.959	434.740	-0.046	0.100
-659.945	50.056	0.173	-0.164
-658.930	-107.409	0.265	-0.058
-657.916	-121.910	0.314	-0.052
-656.901	-200.000	0.003	-0.238
-655.886	-65.361	0.188	-0.076
-654.872	-200.000	-0.010	-0.280
-653.857	5.922	0.088	0.066
-652.843	-90.297	0.188	-0.055
-651.828	-5.503	-0.145	-0.100
-650.814	-89.028	0.160	0.047
-649.799	515.145	-0.156	-0.366
-648.784	114.909	-0.077	-0.094
-647.770	454.237	0.079	-0.176
-646.755	-20.853	-0.241	-0.148
-645.741	6.646	0.149	0.111
-644.726	-37.208	0.330	0.177
-643.711	33.649	-0.185	-0.161
-642.697	26.369	0.101	-0.085
-641.682	144.932	0.110	0.148
-640.668	604.460	0.146	0.365
-639.653	-22.402	0.273	0.166
-638.638	-200.000	-0.016	0.128
-637.624	-200.000	-0.021	-0.163
-636.609	-200.000	0.022	0.125
-635.595	-200.000	-0.014	0.211
-634.580	53.545	-0.241	-0.232
-633.565	554.225	0.082	-0.199
-632.551	147.815	-0.296	-0.400
-631.536	-60.560	-0.233	0.099
-630.522	-200.000	0.010	-0.563
-629.507	-92.294	-0.097	0.027
-628.492	-200.000	-0.005	-0.087
-627.478	549.211	-0.088	-0.211
-626.463	-153.972	-0.178	-0.012
-625.449	-101.778	0.225	-0.055
-624.434	-200.000	-0.027	-0.223
-623.419	-46.059	-0.181	0.089
-622.405	475.970	-0.103	-0.233
-621.390	-200.000	0.041	0.375
-620.376	24.230	-0.142	-0.117
-619.361	41.232	0.281	-0.255
-618.346	-8.013	-0.219	0.148
-617.332	65.915	-0.194	0.197
-616.317	-178.465	-0.274	-0.006
-615.303	-69.580	-0.246	0.095
-614.288	22.922	-0.058	0.048
-613.273	-63.868	0.231	-0.095
-612.259	131.073	-0.119	-0.153
-611.244	-200.000	-0.023	0.150
-610.230	4.648	-0.176	-0.129
-609.215	800.000	-0.057	-0.204
-608.201	-21.220	-0.346	-0.212
-607.186	-88.750	0.216	0.064
-606.171	-165.011	-0.050	-0.002
-605.157	-138.422	-0.396	-0.044
-604.142	800.000	-0.083	-0.286
-603.128	30.880	-0.120	-0.103
-602.113	-189.600	0.179	-0.002
-601.098	-98.209	0.390	0.100
-600.084	-110.460	0.083	-0.017
-599.069	800.000	-0.037	0.142
-598.055	800.000	-0.043	0.135
-597.040	800.000	-0.072	-0.199
-596.025	-48.580	-0.056	-0.027
-595.011	34.392	-0.328	-0.287
-593.996	-141.534	-0.103	-0.010
-592.982	12.149	-0.338	-0.260
-591.967	-137.188	-0.332	-0.038
-590.952	114.468	-0.144	0.176
-589.938	-61.792	0.285	0.120
-588.923	110.267	-0.223	-0.268
-587.909	-74.080	-0.252	0.092
-586.894	659.745	0.036	0.093
-585.879	377.818	-0.039	-0.080
-584.865	109.992	-0.199	0.239
-583.850	800.000	-0.014	0.043
-582.836	-200.000	0.017	0.086
-581.821	800.000	-0.011	-0.036
-580.806	135.628	0.067	0.087
-579.792	-200.000	-0.014	0.078
-578.777	-48.048	-0.077	0.037
-577.763	-200.000	-0.047	0.320
-576.748	56.470	-0.262	0.254
-575.733	-200.000	0.008	-0.272
-574.719	38.218	0.207	-0.184
-573.704	-56.766	0.235	0.104
-572.690	-136.975	0.255	0.029
-571.675	-58.986	0.455	0.197
-570.661	-109.409	-0.193	0.041
-569.646	478.270	-0.027	0.061
-568.631	-134.942	0.190	0.023
-567.617	-200.000	-0.048	0.377
-566.602	-56.943	0.250	0.110
-565.588	382.198	0.225	0.462
-564.573	-154.156	0.232	-0.016
-563.558	-129.193	-0.261	0.036
-562.544	-15.347	-0.128	0.082
-561.529	14.793	0.177	0.139
-560.515	-77.900	0.264	-0.091
-559.500	-200.000	-0.001	0.088
-558.485	-200.000	-0.005	-0.092
-557.471	46.480	0.074	-0.068
-556.456	-200.000	0.019	0.110
-555.442	62.062	-0.209	0.209
-554.427	-40.443	0.293	0.152
-553.412	211.790	-0.083	-0.131
-552.398	-79.191	-0.045	-0.015
-551.383	800.000	0.050	0.199
-550.369	299.291	-0.116	0.214
-549.354	-4.101	0.246	-0.170
-548.339	43.414	-0.204	-0.186
-547.325	-185.806	-0.368	0.005
-546.310	-111.447	-0.234	0.048
-545.296	-200.000	-0.006	-0.318
-544.281	355.985	-0.122	-0.242
-543.266	-0.789	-0.076	0.054
-542.252	15.704	0.011	-0.009
-541.237	-97.062	0.061	-0.016
-540.223	509.903	0.221	-0.512
-539.208	160.750	-0.036	-0.051
-538.193	424.908	-0.095	0.203
-537.179	-158.334	0.467	-0.027
-536.164	-35.328	0.108	-0.059
-535.150	58.835	0.178	-0.175
-534.135	-150.716	0.094	0.007
-533.121	-200.000	0.005	-0.203
-532.106	-154.429	-0.140	0.009
-531.091	134.916	-0.085	-0.110
-530.077	-200.000	-0.050	0.268
-529.062	-200.000	-0.003	0.130
-528.048	-200.000	-0.004	-0.094
-527.033	29.637	0.061	-0.052
-526.018	2.762	0.274	0.199
-525.004	-200.000	0.043	-0.282
-523.989	7.916	0.121	0.090
-522.975	125.348	-0.136	-0.171
-521.960	-200.000	-0.021	-0.194
-520.945	-24.034	-0.143	-0.085
-519.931	32.975	0.148	-0.128
-518.916	44.855	-0.160	-0.147
-517.902	-200.000	-0.166	0.001
-516.887	297.150	-0.055	0.101
-515.872	356.514	-0.045	0.089
-514.858	-162.584	0.117	-0.006
-513.843	-200.000	-0.059	-0.289
-512.829	142.647	-0.093	-0.124
-511.814	-70.652	-0.270	0.102
-510.799	228.291	0.066	0.107
-509.785	800.000	0.153	0.471
-508.770	5.735	0.072	0.053
-507.756	141.844	0.076	-0.100
-506.741	259.740	0.086	0.147
-505.726	118.361	0.141	-0.174
-504.712	-136.368	0.175	0.020
-503.697	56.560	0.124	-0.120
-502.683	119.060	0.244	0.300
-501.668	-156.815	0.408	-0.025
-500.653	-200.000	-0.002	-0.360
-499.639	-200.000	0.026	0.351
-498.624	541.089	-0.046	-0.110
-497.610	5.177	-0.144	0.106
-496.595	-200.000	-0.060	0.271
-495.581	300.066	-0.084	0.154
-494.566	44.372	-0.186	-0.170
-493.551	-151.314	0.174	0.013
-492.537	-200.000	0.067	0.317
-491.522	273.863	0.042	0.074
-490.508	119.678	0.125	0.154
-489.493	-200.000	-0.019	-0.130
-488.478	-37.871	0.197	-0.104
-487.464	445.308	-0.209	-0.457
-486.449	-166.026	0.223	-0.009
-485.435	9.986	-0.136	0.103
-484.420	-200.000	-0.045	0.382
-483.405	800.000	-0.115	0.367
-482.391	-200.000	0.032	0.264
-481.376	2.862	-0.138	0.100
-480.362	-200.000	-0.078	-0.388
-479.347	322.530	0.203	0.384
-478.332	-38.525	-0.311	0.164
-477.318	341.819	-0.179	0.349
-476.303	729.560	-0.116	0.309
-475.289	-114.256	0.319	0.061
-474.274	523.864	0.062	-0.145
-473.259	3.291	-0.329	-0.239
-472.245	-118.899	-0.397	-0.069
-471.230	800.000	-0.023	-0.086
-470.216	33.021	-0.276	-0.238
-469.201	800.000	0.059	0.240
-468.186	-71.395	-0.144	-0.054
-467.172	457.361	0.104	-0.231
-466.157	800.000	0.028	0.112
-465.143	0.768	-0.169	-0.121
-464.128	800.000	-0.090	0.278
-463.113	5.435	0.070	0.051
-462.099	51.962	0.267	-0.253
-461.084	-130.648	-0.047	0.006
-460.070	-5.895	-0.373	0.254
-459.055	301.165	0.073	0.134
-458.040	104.087	-0.205	0.240
-457.026	-127.109	0.113	-0.016
-456.011	334.516	-0.078	0.150
-454.997	-1.175	-0.164	-0.116
-453.982	-125.380	0.237	0.036
-452.968	160.728	0.036	-0.050
-451.953	-93.911	-0.253	-0.069
-450.938	800.000	0.069	-0.211
-449.924	155.215	-0.080	0.110
-448.909	608.137	0.070	-0.173
-447.895	37.472	0.315	-0.278
-446.880	127.225	0.104	0.131
-445.865	-51.648	-0.144	0.067
-444.851	-27.389	-0.058	-0.033
-443.836	-130.226	0.275	-0.037
-442.822	-200.000	0.012	0.233
-441.807	-200.000	-0.051	0.476
-440.792	643.961	0.195	-0.494
-439.778	-200.000	-0.016	-0.507
-438.763	-101.390	-0.132	0.032
-437.749	-200.000	0.008	0.158
-436.734	-15.860	-0.335	0.212
-435.719	63.659	0.140	0.140
-434.705	-191.879	-0.379	-0.004
-433.690	281.540	0.128	0.229
-432.676	162.320	0.083	-0.116
-431.661	280.630	-0.197	-0.351
-430.646	6.634	-0.220	0.163
-429.632	-200.000	0.000	-0.356
-428.617	-36.903	-0.123	-0.066
-427.603	800.000	-0.044	0.153
-426.588	239.363	-0.034	-0.057
-425.573	151.319	-0.083	-0.113
-424.559	453.438	0.082	-0.181
-423.544	800.000	-0.111	-0.357
-422.530	-114.797	0.101	0.019
-421.515	-200.000	-0.027	0.428
-420.500	53.710	0.280	-0.267
-419.486	19.570	0.155	0.124
-418.471	800.000	-0.037	-0.142
-417.457	-200.000	0.023	0.134
-416.442	-95.989	0.188	0.050
-415.428	-72.314	-0.205	0.076
-414.413	-200.000	0.039	-0.246
-413.398	-56.066	0.113	-0.050
-412.384	45.952	0.129	-0.118
-411.369	274.053	-0.068	-0.120
-410.355	-200.000	-0.024	0.119
-409.340	-200.000	-0.005	-0.114
-408.325	-200.000	-0.066	0.379
-407.311	38.329	0.080	-0.071
-406.296	622.440	-0.066	0.165
-405.282	-95.027	0.260	-0.070
-404.267	800.000	0.102	-0.398
-403.252	-62.756	-0.302	0.124
-402.238	-22.983	0.164	0.098
-401.223	-200.000	-0.035	-0.248
-400.209	-200.000	-0.011	0.190
-399.194	-192.382	0.430	0.004
-398.179	35.242	0.222	0.193
-397.165	553.610	0.082	0.195
-396.150	-138.566	0.142	0.015
-395.136	178.688	-0.176	0.255
-394.121	421.603	-0.154	0.328
-393.106	14.823	-0.128	-0.099
-392.092	99.088	0.172	0.197
-391.077	800.000	-0.037	-0.110
-390.063	-49.738	-0.158	-0.075
-389.048	196.496	-0.244	-0.369
-388.033	-200.000	-0.040	-0.342
-387.019	12.449	-0.256	-0.196
-386.004	204.414	0.113	-0.175
-384.990	53.549	-0.483	0.460
-383.975	9.261	-0.211	-0.158
-382.960	-55.629	0.169	0.075
-381.946	-16.542	0.220	0.138
-380.931	-200.000	0.054	0.281
-379.917	19.469	0.118	-0.094
-378.902	26.234	0.104	0.086
-377.888	-42.344	-0.201	0.102
-376.873	119.069	-0.230	-0.283
-375.858	-200.000	0.012	-0.104
-374.844	-33.772	-0.082	-0.045
-373.829	-26.857	0.286	0.166
-372.815	-83.009	0.461	0.147
-371.800	-147.466	0.215	-0.018
-370.785	-115.559	0.398	-0.074
-369.771	555.420	0.117	0.280
-368.756	800.000	-0.073	-0.291
-367.742	516.579	-0.115	0.267
-366.727	262.205	-0.085	-0.146
-365.712	17.918	-0.093	0.074
-364.698	-200.000	-0.021	0.174
-363.683	13.919	0.219	0.169
-362.669	-128.839	-0.105	-0.015
-361.654	800.000	0.041	-0.159
-360.639	12.195	-0.204	0.156
-359.625	93.215	-0.055	0.061
-358.610	-97.683	0.230	0.059
-357.596	10.594	-0.211	-0.160
-356.581	-200.000	0.038	-0.239
-355.566	-200.000	0.007	-0.037
-354.552	-79.691	0.284	0.095
-353.537	-64.056	0.256	-0.104
-352.523	-54.093	0.477	0.215
-351.508	-105.427	0.114	-0.026
-350.493	-42.451	0.253	0.128
-349.479	-176.214	0.033	-0.001
-348.464	-132.125	0.140	-0.018
-347.450	-106.798	-0.127	0.028
-346.435	504.948	-0.024	0.054
-345.420	-136.345	-0.140	-0.016
-344.406	800.000	-0.047	-0.202
-343.391	-200.000	0.072	0.323
-342.377	-133.762	0.181	-0.022
-341.362	0.038	-0.135	0.095
-340.348	75.354	-0.081	-0.085
-339.333	800.000	0.036	0.130
-338.318	-200.000	0.012	0.130
-337.304	15.480	-0.391	-0.304
-336.289	93.682	0.100	-0.113
-335.275	-22.339	-0.246	-0.147
-334.260	-38.704	0.188	0.098
-333.245	-200.000	-0.030	0.362
-332.231	-200.000	0.010	0.319
-331.216	607.235	-0.021	-0.051
-330.202	-93.683	0.402	0.110
-329.187	-90.946	0.144	0.041
-328.172	800.000	-0.171	0.519
-327.158	-197.438	0.172	0.001
-326.143	36.093	0.167	-0.146
-325.129	-115.206	-0.162	-0.030
-324.114	-200.000	0.020	0.114
-323.099	-24.125	0.418	-0.247
-322.085	-35.284	-0.339	0.182
-321.070	800.000	-0.103	-0.281
-320.056	617.431	-0.135	0.336
-319.041	250.977	0.027	-0.046
-318.026	-91.589	0.326	-0.092
-317.012	-50.918	-0.165	-0.077
-315.997	-115.711	0.097	-0.018
-314.983	-51.368	0.084	-0.039
-313.968	-16.308	-0.321	0.202
-312.953	-80.004	0.337	-0.112
-311.939	221.655	-0.064	0.101
-310.924	-103.600	0.262	-0.061
-309.910	96.909	-0.160	-0.181
-308.895	243.399	0.152	0.252
-307.880	-10.700	-0.104	-0.068
-306.866	-165.410	-0.127	0.006
-305.851	-44.293	0.209	-0.104
-304.837	67.807	0.259	0.262
-303.822	409.720	-0.034	-0.071
-302.807	-70.691	-0.321	-0.120
-301.793	-109.463	0.146	0.031
-300.778	-200.000	0.010	0.367
-299.764	-108.971	-0.395	0.083
-298.749	800.000	0.022	0.074
-297.735	195.893	-0.061	-0.092
-296.720	175.969	0.115	-0.165
-295.705	72.474	0.136	0.141
-294.691	-200.000	0.023	-0.306
-293.676	183.302	0.136	-0.199
-292.662	-57.245	0.117	0.051
-291.647	61.030	-0.097	0.095
-290.632	203.542	0.198	0.304
-289.618	-133.048	-0.203	0.026
-288.603	27.198	0.072	-0.059
-287.589	-200.000	-0.275	-0.000
-286.574	79.810	-0.101	-0.107
-285.559	425.485	-0.039	-0.083
-284.545	655.167	-0.104	0.264
-283.530	-134.309	-0.342	0.042
-282.516	-75.995	0.187	-0.065
-281.501	256.474	-0.154	0.262
-280.486	225.239	0.108	0.173
-279.472	-169.677	-0.078	-0.003
-278.457	-200.000	0.005	-0.110
-277.443	42.871	0.139	0.126
-276.428	43.104	0.121	-0.109
-275.413	-200.000	0.007	-0.305
-274.399	800.000	0.032	-0.125
-273.384	771.157	0.083	0.224
-272.370	41.379	-0.180	0.161
-271.355	172.250	0.283	0.403
-270.340	-128.115	-0.386	0.055
-269.326	-34.224	-0.082	0.045
-268.311	-90.848	-0.310	-0.088
-267.297	-29.602	-0.131	-0.074
-266.282	17.045	0.302	-0.237
-265.267	-7.979	0.228	0.152
-264.253	-200.000	0.000	0.169
-263.238	537.588	0.175	0.412
-262.224	114.316	0.209	-0.252
-261.209	-35.525	0.108	-0.058
-260.195	800.000	0.020	-0.058
-259.180	-36.895	0.074	0.039
-258.165	111.496	0.104	0.124
-257.151	-28.957	0.225	-0.127
-256.136	-200.000	-0.036	0.243
-255.122	-105.112	0.365	0.082
-254.107	163.073	-0.025	-0.034
-253.092	53.721	-0.201	0.190
-252.078	127.212	-0.144	0.181
-251.063	-138.720	-0.162	0.018
-250.049	-124.337	0.356	-0.055
-249.034	800.000	0.109	-0.363
-248.019	453.475	0.040	0.087
-247.005	-178.784	0.217	-0.005
-245.990	800.000	0.029	0.102
-244.976	182.646	0.138	0.202
-243.961	-141.969	-0.017	0.002
-242.946	-200.000	0.002	-0.216
-241.932	168.179	-0.176	0.247
-240.917	524.823	-0.165	-0.382
-239.903	800.000	0.083	-0.307
-238.888	-103.872	0.269	-0.062
-237.873	-127.465	-0.236	0.034
-236.859	166.327	0.072	-0.100
-235.844	-140.099	0.082	0.008
-234.830	462.853	-0.047	-0.103
-233.815	-200.000	-0.072	-0.409
-232.800	182.620	0.047	0.069
-231.786	371.924	-0.127	-0.254
-230.771	-172.051	-0.163	0.005
-229.757	-84.311	0.116	-0.036
-228.742	137.634	-0.015	-0.020
-227.727	-200.000	0.050	-0.328
-226.713	9.411	-0.172	0.128
-225.698	41.445	0.115	-0.102
-224.684	-90.393	-0.079	0.023
-223.669	66.082	0.026	-0.026
-222.655	211.190	-0.191	-0.297
-221.640	-200.000	-0.028	-0.418
-220.625	-200.000	0.000	-0.193
-219.611	-69.443	-0.121	0.046
-218.596	-29.336	0.112	0.063
-217.582	800.000	0.037	0.104
-216.567	800.000	0.007	0.027
-215.552	-27.966	-0.307	-0.175
-214.538	-200.000	0.059	0.347
-213.523	180.181	-0.047	-0.069
-212.509	-200.000	0.070	-0.400
-211.494	76.576	0.056	-0.059
-210.479	-83.636	0.143	0.045
-209.465	-52.460	-0.281	-0.128
-208.450	-200.000	0.451	-0.000
-207.436	331.579	0.060	0.115
-206.421	14.827	0.152	-0.117
-205.406	-140.035	0.142	0.015
-204.392	270.033	0.173	0.300
-203.377	-141.079	-0.262	-0.026
-202.363	84.079	0.094	-0.102
-201.348	-14.283	-0.138	-0.088
-200.333	-21.948	0.397	-0.238
-199.319	-107.691	-0.264	0.057
-198.304	-200.000	-0.016	-0.311
-197.290	107.269	-0.007	-0.009
-196.275	32.577	-0.223	0.190
-195.260	11.566	-0.211	0.159
-194.246	-110.557	-0.201	-0.041
-193.231	-75.264	-0.089	0.031
-192.217	128.402	0.187	0.235
-191.202	800.000	-0.035	-0.144
-190.187	-154.099	-0.246	-0.016
-189.173	43.141	-0.254	-0.228
-188.158	-55.230	0.101	-0.045
-187.144	186.830	-0.064	0.093
-186.129	237.012	-0.091	-0.148
-185.114	-112.196	-0.096	-0.019
-184.100	186.166	0.265	-0.389
-183.085	-104.103	-0.141	-0.032
-182.071	-67.289	0.066	0.026
-181.056	-132.554	0.061	-0.008
-180.042	94.344	-0.193	-0.216
-179.027	-200.000	-0.007	0.148
-178.012	119.775	-0.059	0.072
-176.998	-200.000	0.081	0.509
-175.983	27.869	0.080	0.067
-174.969	413.565	0.139	-0.291
-173.954	800.000	-0.077	-0.210
-172.939	354.093	0.189	-0.370
-171.925	-200.000	0.004	0.329
-170.910	-85.493	-0.247	0.076
-169.896	-99.658	0.165	-0.041
-168.881	800.000	0.086	0.246
-167.866	239.982	-0.192	-0.315
-166.852	-79.694	-0.184	0.061
-165.837	-200.000	0.015	-0.112
-164.823	-130.982	0.279	0.037
-163.808	-200.000	-0.052	-0.305
-162.793	-200.000	-0.037	-0.244
-161.779	-200.000	-0.003	-0.128
-160.764	-200.000	-0.081	0.422
-159.750	-46.922	-0.050	0.024
-158.735	253.510	0.072	0.121
-157.720	-200.000	0.046	0.285
-156.706	-200.000	0.045	0.385
-155.691	800.000	0.076	0.231
-154.677	211.099	-0.106	-0.164
-153.662	-58.126	0.296	-0.127
-152.647	-151.100	0.301	-0.022
-151.633	-81.237	-0.249	-0.081
-150.618	-46.160	0.194	-0.094
-149.604	21.376	0.204	-0.163
-148.589	386.980	0.173	0.352
-147.574	-200.000	0.008	0.243
-146.560	24.841	-0.200	0.163
-145.545	82.979	0.261	-0.279
-144.531	265.979	0.022	0.038
-143.516	-200.000	0.045	0.326
-142.502	800.000	0.030	-0.083
-141.487	800.000	0.038	-0.145
-140.472	-78.052	0.092	-0.031
-139.458	-200.000	-0.025	-0.166
-138.443	-52.922	-0.259	-0.117
-137.429	-200.000	0.045	-0.376
-136.414	-200.000	0.013	0.121
-135.399	-12.511	-0.052	-0.033
-134.385	-21.225	0.160	0.096
-133.370	30.458	-0.247	-0.207
-132.356	747.338	0.186	-0.492
-131.341	231.479	0.073	0.118
-130.326	-37.246	0.229	-0.120
-129.312	14.791	0.099	0.076
-128.297	-108.546	-0.067	0.014
-127.283	-96.999	0.379	0.097
-126.268	800.000	-0.048	-0.202
-125.253	-111.563	0.146	-0.029
-124.239	-83.986	0.235	0.073
-123.224	347.089	0.178	-0.344
-122.210	554.610	-0.157	-0.371
-121.195	445.248	-0.032	0.069
