DTS Sentinel unit serial number:	SN413079Multiplexer serial number:	ORYXHardware model number:	OX4-SRSoftware version number:	ORYX F/W v4.00 Oryx Data Collector v3.7.2.0data status	okinstallation	princeton_trtdifferential loss correction	single-endedforward channel	channel 1reverse channel	N/Adate	2019/09/12time	18:01:34forward acquisition time	15.00reverse acquisition time	0.00gamma	496.2192k internal	0.2318k external	0.2318temperature offset calibration	1.0100default loss term (dB/km)	0.3790temperature slope calibration	1.0000multiplexer offset coefficient	1.0000multiplexer slope coefficient	1.0000fibre end	0.00T internal ref (°C)	33.81T ext. ref 1 (°C)	2.88T ext. ref 2 (°C)	28.24length (m)	temperature (°C)	Stokes	anti-Stokes-747.200	-4.706	-0.698	0.488
-746.185	800.000	-0.194	0.684
-745.171	23.037	-0.335	-0.278
-744.156	-26.857	0.202	0.119
-743.142	-112.828	0.423	-0.085
-742.127	80.588	-1.125	-1.227
-741.112	-29.271	0.345	-0.200
-740.098	186.311	-0.346	-0.521
-739.083	-166.725	0.427	0.018
-738.069	-87.630	-0.841	0.257
-737.054	449.723	0.211	-0.470
-736.039	-68.236	-0.742	-0.292
-735.025	298.933	-0.069	-0.128
-734.010	-56.939	0.229	0.102
-732.996	-31.736	-0.815	0.463
-731.981	-200.000	-0.136	-0.820
-730.966	800.000	0.110	0.321
-729.952	-45.162	-0.776	-0.390
-728.937	-200.000	-0.034	0.621
-727.923	474.734	-0.168	0.384
-726.908	-103.816	-0.523	-0.124
-725.894	-200.000	-0.031	-0.539
-724.879	-200.000	-0.123	-0.875
-723.864	-108.207	0.475	-0.104
-722.850	51.433	0.355	0.341
-721.835	133.950	0.227	0.297
-720.821	-105.182	-0.860	-0.199
-719.806	61.564	-0.112	0.113
-718.791	800.000	0.375	1.225
-717.777	-200.000	-0.049	1.144
-716.762	133.763	-0.293	-0.384
-715.748	-50.953	-0.252	0.120
-714.733	-4.261	-0.285	-0.199
-713.718	402.611	-0.143	-0.304
-712.704	-2.740	-0.441	-0.312
-711.689	-200.000	0.088	0.505
-710.675	-131.161	-0.871	0.117
-709.660	-200.000	-0.166	0.767
-708.645	-47.634	0.286	0.140
-707.631	-176.700	0.194	0.005
-706.616	-70.051	0.530	0.204
-705.602	18.720	0.259	0.210
-704.587	2.754	-0.106	-0.077
-703.572	-200.000	-0.039	-0.250
-702.558	42.174	-0.441	0.405
-701.543	580.685	-0.204	-0.504
-700.529	-31.608	-0.094	-0.053
-699.514	-84.886	0.669	0.212
-698.499	657.138	-0.021	0.055
-697.485	164.685	0.104	0.148
-696.470	182.564	-0.333	0.496
-695.456	-200.000	0.099	-0.585
-694.441	72.021	0.452	-0.475
-693.426	-77.698	-0.594	-0.207
-692.412	-18.584	0.406	-0.256
-691.397	520.686	-0.289	-0.685
-690.383	-154.601	-0.663	-0.045
-689.368	426.926	-0.123	0.268
-688.354	232.010	-0.304	0.504
-687.339	-200.000	0.078	-1.094
-686.324	181.619	0.120	0.178
-685.310	-200.000	0.088	-0.479
-684.295	-95.750	0.546	0.147
-683.281	244.691	-0.106	0.180
-682.266	521.713	-0.044	-0.104
-681.251	10.794	-0.237	0.182
-680.237	500.121	-0.316	0.736
-679.222	758.110	-0.039	-0.107
-678.208	285.669	-0.248	0.451
-677.193	-142.245	-0.522	-0.052
-676.178	-35.308	-0.582	0.319
-675.164	61.164	-0.446	-0.447
-674.149	-200.000	-0.088	-0.845
-673.135	523.105	-0.111	-0.263
-672.120	73.814	-0.322	0.341
-671.105	800.000	-0.210	0.805
-670.091	194.368	0.078	0.120
-669.076	87.672	-0.441	-0.493
-668.062	-89.966	0.491	0.145
-667.047	-103.856	-0.336	-0.079
-666.032	-43.902	-0.696	0.353
-665.018	-179.014	-0.290	-0.007
-664.003	-170.081	0.399	-0.014
-662.989	46.356	-0.121	-0.113
-661.974	133.905	-0.562	0.734
-660.959	387.351	0.237	-0.494
-659.945	-200.000	-0.040	0.402
-658.930	129.644	0.356	0.458
-657.916	-80.203	-0.848	0.287
-656.901	69.999	-0.142	-0.148
-655.886	24.696	-0.423	-0.353
-654.872	-200.000	0.075	-0.631
-653.857	128.052	-0.258	-0.331
-652.843	-43.271	0.731	-0.373
-651.828	-76.380	-0.148	-0.053
-650.814	-200.000	0.043	0.220
-649.799	325.818	0.377	0.728
-648.784	286.805	0.174	0.317
-647.770	-200.000	0.036	-0.448
-646.755	-200.000	-0.117	-0.891
-645.741	175.813	-0.258	0.377
-644.726	800.000	0.237	0.783
-643.711	86.607	-0.524	0.583
-642.697	641.680	-0.384	0.985
-641.682	-50.363	-0.448	0.214
-640.668	-184.305	-0.296	0.005
-639.653	22.892	0.367	-0.303
-638.638	-139.765	0.648	0.069
-637.624	-102.185	-0.382	0.093
-636.609	-101.999	-0.991	-0.241
-635.595	31.191	-0.623	-0.539
-634.580	691.162	-0.141	-0.373
-633.565	-84.597	0.344	-0.109
-632.551	38.135	0.226	-0.202
-631.536	181.246	-0.239	-0.353
-630.522	398.842	-0.162	0.343
-629.507	209.584	-0.360	-0.569
-628.492	-200.000	-0.006	0.075
-627.478	-98.185	0.422	0.109
-626.463	-200.000	-0.027	-0.511
-625.449	652.240	0.042	0.108
-624.434	-48.859	-0.461	0.223
-623.419	160.544	0.321	-0.451
-622.405	-53.182	-0.593	0.274
-621.390	-200.000	0.003	-0.398
-620.376	-110.799	0.623	0.129
-619.361	-114.809	0.499	0.096
-618.346	-125.568	0.680	-0.104
-617.332	800.000	0.052	-0.179
-616.317	-52.971	-0.446	0.207
-615.303	36.555	0.714	-0.635
-614.288	48.887	0.536	-0.507
-613.273	-200.000	0.100	-0.906
-612.259	10.542	0.397	0.304
-611.244	800.000	0.202	-0.662
-610.230	-200.000	0.125	0.890
-609.215	-10.725	-0.650	0.433
-608.201	-200.000	-0.026	-0.256
-607.186	800.000	-0.109	-0.321
-606.171	-200.000	0.018	0.750
-605.157	800.000	-0.140	-0.575
-604.142	36.799	0.243	-0.217
-603.128	34.736	-0.382	0.336
-602.113	649.282	-0.090	-0.232
-601.098	-200.000	-0.016	-0.363
-600.084	-200.000	0.015	0.522
-599.069	-52.639	-0.798	0.371
-598.055	-200.000	-0.075	-0.412
-597.040	-25.821	0.839	-0.498
-596.025	205.981	-0.389	-0.610
-595.011	-75.008	-0.391	0.141
-593.996	-200.000	-0.029	0.368
-592.982	-200.000	0.038	0.431
-591.967	30.444	0.590	-0.508
-590.952	134.885	-0.437	-0.571
-589.938	56.970	-0.417	0.409
-588.923	9.045	0.231	-0.175
-587.909	-200.000	-0.029	-0.665
-586.894	-72.374	0.193	-0.072
-585.879	-2.311	0.111	0.078
-584.865	-200.000	-0.159	-1.061
-583.850	-36.970	0.465	-0.251
-582.836	-1.457	-0.272	-0.193
-581.821	-200.000	0.004	-0.577
-580.806	-200.000	0.004	0.486
-579.792	800.000	-0.117	0.473
-578.777	-100.000	-0.296	-0.074
-577.763	-107.097	-0.883	-0.196
-576.748	17.975	-0.286	0.229
-575.733	-200.000	-0.113	-0.606
-574.719	158.347	0.617	0.861
-573.704	-55.255	0.310	-0.140
-572.690	294.509	0.374	-0.688
-571.675	99.586	-0.311	-0.362
-570.661	343.540	-0.067	0.132
-569.646	-200.000	-0.202	1.153
-568.631	-200.000	-0.062	-0.800
-567.617	800.000	-0.058	-0.177
-566.602	68.570	0.399	-0.411
-565.588	-143.727	-0.414	-0.039
-564.573	-38.652	-0.393	-0.209
-563.558	14.309	0.618	-0.484
-562.544	39.564	0.227	-0.205
-561.529	-200.000	0.046	-0.628
-560.515	-3.137	-0.327	0.229
-559.500	69.934	-0.177	-0.183
-558.485	363.195	0.406	0.819
-557.471	-12.392	0.262	0.172
-556.456	800.000	-0.206	-0.814
-555.442	-200.000	-0.086	-0.843
-554.427	800.000	0.008	0.037
-553.412	-200.000	0.033	-1.016
-552.398	-200.000	0.089	0.497
-551.383	79.916	-0.244	-0.263
-550.369	249.628	-0.324	-0.553
-549.354	-175.146	-0.220	0.006
-548.339	362.662	-0.146	-0.295
-547.325	133.088	-0.099	0.128
-546.310	-2.813	0.842	0.591
-545.296	68.767	-0.192	-0.197
-544.281	230.890	-0.273	0.449
-543.266	-100.298	0.683	0.170
-542.252	89.488	-0.185	-0.207
-541.237	19.156	0.345	-0.278
-540.223	-78.143	0.494	-0.171
-539.208	800.000	0.139	0.563
-538.193	19.869	0.649	-0.525
-537.179	335.981	0.495	-0.965
-536.164	-131.313	-0.799	0.106
-535.150	-126.408	-0.361	-0.054
-534.135	672.445	0.132	-0.344
-533.121	50.534	0.252	-0.239
-532.106	-103.044	0.382	-0.091
-531.091	800.000	0.075	0.307
-530.077	-32.798	-0.613	0.342
-529.062	730.583	-0.223	0.599
-528.048	-141.192	-0.521	-0.053
-527.033	-101.704	0.322	-0.078
-526.018	-128.644	0.764	-0.108
-525.004	-142.389	0.410	0.041
-523.989	16.859	-0.140	-0.111
-522.975	-62.926	-0.563	-0.234
-521.960	132.682	-0.135	-0.174
-520.945	-40.177	0.475	-0.248
-519.931	-200.000	0.005	0.347
-518.916	-102.272	-0.787	0.190
-517.902	-200.000	0.008	-0.071
-516.887	-200.000	0.064	-0.567
-515.872	800.000	0.044	-0.171
-514.858	-122.619	-0.967	0.157
-513.843	158.865	0.398	0.555
-512.829	-40.128	-0.470	-0.245
-511.814	-43.634	0.206	0.104
-510.799	477.823	0.384	-0.871
-509.785	-92.749	0.783	0.220
-508.770	-98.717	-0.756	0.193
-507.756	56.055	0.055	0.053
-506.741	-130.074	-0.598	0.082
-505.726	108.246	0.141	-0.169
-504.712	-200.000	-0.077	-0.599
-503.697	-86.682	0.498	-0.153
-502.683	800.000	0.175	0.528
-501.668	-30.205	-0.227	-0.129
-500.653	189.689	-0.037	0.055
-499.639	-85.470	-0.463	-0.145
-498.624	-200.000	-0.000	-0.189
-497.610	-41.307	-0.730	0.377
-496.595	800.000	0.327	1.247
-495.581	-162.584	-0.870	0.043
-494.566	99.032	-0.377	-0.437
-493.551	-66.572	0.407	-0.162
-492.537	-28.317	0.284	-0.164
-491.522	122.402	-0.458	-0.574
-490.508	-76.457	0.457	0.161
-489.493	-187.360	-0.779	-0.011
-488.478	78.859	0.647	-0.693
-487.464	-200.000	-0.066	-0.341
-486.449	42.390	-0.200	-0.182
-485.435	-14.421	0.375	0.242
-484.420	57.973	0.270	0.265
-483.405	-65.498	-1.078	-0.434
-482.391	429.821	0.219	-0.475
-481.376	800.000	-0.252	-0.857
-480.362	-84.680	-0.574	-0.181
-479.347	-68.721	0.932	-0.361
-478.332	64.733	-0.476	-0.481
-477.318	744.242	-0.346	0.931
-476.303	800.000	0.216	0.672
-475.289	384.044	0.214	0.441
-474.274	244.240	0.353	0.594
-473.259	-92.452	0.957	0.270
-472.245	112.557	0.738	-0.894
-471.230	14.899	0.536	0.420
-470.216	25.184	-0.197	-0.164
-469.201	217.841	-0.292	0.466
-468.186	-38.430	-0.588	0.312
-467.172	81.704	-0.227	0.246
-466.157	-133.274	0.432	-0.055
-465.143	82.853	0.485	-0.527
-464.128	-200.000	-0.037	0.630
-463.113	800.000	0.133	0.410
-462.099	226.496	-0.127	0.206
-461.084	2.332	-0.118	0.085
-460.070	-200.000	-0.188	1.324
-459.055	-119.812	-0.674	-0.116
-458.040	650.896	0.068	-0.174
-457.026	10.907	0.306	-0.234
-456.011	-32.589	0.719	0.401
-454.997	-200.000	-0.116	0.907
-453.982	117.067	-0.294	0.361
-452.968	439.710	-0.132	0.288
-451.953	800.000	0.318	-1.054
-450.938	800.000	0.131	0.506
-449.924	-152.122	0.837	-0.061
-448.909	-94.993	0.768	0.208
-447.895	-144.336	-0.522	0.049
-446.880	71.348	-0.234	0.243
-445.865	-2.702	-0.983	-0.688
-444.851	-91.525	-0.714	0.204
-443.836	188.165	0.416	0.622
-442.822	800.000	0.054	-0.213
-441.807	-96.067	0.552	0.147
-440.792	-82.297	0.382	-0.124
-439.778	-68.460	-0.613	0.238
-438.763	171.459	-0.097	-0.139
-437.749	-200.000	-0.049	0.765
-436.734	800.000	0.183	-0.743
-435.719	183.332	-0.335	0.494
-434.705	50.202	-0.496	0.469
-433.690	-19.049	0.276	-0.172
-432.676	-200.000	0.066	-0.822
-431.661	-97.757	0.095	0.025
-430.646	-56.413	0.832	-0.369
-429.632	373.333	-0.366	-0.744
-428.617	-117.721	0.105	0.019
-427.603	-27.973	0.346	0.200
-426.588	99.736	0.271	-0.314
-425.573	-138.177	-0.369	0.041
-424.559	-48.504	-0.817	-0.393
-423.544	-81.550	-0.407	-0.134
-422.530	100.935	-0.770	0.895
-421.515	-87.953	0.733	-0.220
-420.500	800.000	-0.121	-0.512
-419.486	59.513	0.372	0.367
-418.471	-35.432	0.462	0.251
-417.457	800.000	-0.051	0.208
-416.442	800.000	0.056	0.238
-415.428	583.287	0.107	-0.263
-414.413	34.870	-0.328	0.287
-413.398	-31.325	0.852	0.479
-412.384	525.150	0.071	-0.167
-411.369	-18.699	0.401	-0.250
-410.355	-148.751	0.376	-0.030
-409.340	-200.000	0.019	-0.251
-408.325	-33.015	-0.638	0.354
-407.311	-79.997	0.447	0.150
-406.296	-47.184	-0.583	0.284
-405.282	38.366	-0.429	0.382
-404.267	-151.568	0.334	0.025
-403.252	800.000	-0.178	0.676
-402.238	-25.072	-0.349	0.207
-401.223	260.136	-0.398	-0.687
-400.209	125.430	-0.768	-0.967
-399.194	800.000	-0.125	-0.351
-398.179	-90.493	-0.639	-0.185
-397.165	159.764	-0.213	0.296
-396.150	403.216	0.272	-0.572
-395.136	303.227	-0.114	0.211
-394.121	-47.684	-0.257	-0.125
-393.106	195.025	0.279	-0.422
-392.092	-96.180	0.037	-0.010
-391.077	-200.000	-0.040	-0.247
-390.063	-139.179	0.999	-0.108
-389.048	-200.000	0.064	0.808
-388.033	-144.771	-0.608	0.056
-387.019	-139.281	0.687	-0.074
-386.004	-72.783	-0.300	-0.110
-384.990	1.514	-0.146	-0.105
-383.975	168.158	-0.306	-0.434
-382.960	-200.000	0.059	-0.423
-381.946	628.686	0.405	-1.022
-380.931	-2.644	-0.202	-0.141
-379.917	-200.000	-0.023	-0.638
-378.902	18.943	0.269	-0.215
-377.888	-48.952	0.420	-0.201
-376.873	-200.000	-0.114	0.548
-375.858	-200.000	0.006	-0.597
-374.844	352.858	-0.457	-0.904
-373.829	-21.695	-0.566	-0.344
-372.815	-200.000	0.058	0.298
-371.800	-111.946	0.168	-0.034
-370.785	32.242	-0.395	0.340
-369.771	800.000	-0.147	0.557
-368.756	-19.756	0.687	0.424
-367.742	-32.666	0.222	0.123
-366.727	-25.677	0.235	0.138
-365.712	7.825	0.766	-0.573
-364.698	186.268	-0.112	-0.165
-363.683	135.789	-0.546	-0.709
-362.669	68.802	-0.517	-0.529
-361.654	800.000	0.264	0.755
-360.639	152.640	-0.143	0.195
-359.625	227.346	-0.180	0.292
-358.610	-50.859	0.406	-0.190
-357.596	107.414	0.242	-0.287
-356.581	-200.000	-0.043	0.670
-355.566	-93.856	0.219	-0.060
-354.552	22.207	-0.144	-0.117
-353.537	-200.000	-0.071	0.404
-352.523	464.237	0.158	-0.353
-351.508	49.441	0.471	0.441
-350.493	800.000	0.271	-0.876
-349.479	45.713	0.299	-0.275
-348.464	19.769	-0.733	-0.588
-347.450	-200.000	0.019	-0.390
-346.435	-184.348	-0.157	0.003
-345.420	-92.599	1.004	-0.281
-344.406	-64.287	-0.948	0.385
-343.391	179.275	0.252	0.367
-342.377	-47.666	0.441	0.213
-341.362	261.161	-0.320	-0.552
-340.348	800.000	0.134	0.428
-339.333	-166.000	0.418	-0.018
-338.318	258.503	0.361	-0.619
-337.304	-103.370	0.797	0.187
-336.289	103.322	-0.354	0.414
-335.275	197.907	0.158	-0.240
-334.260	63.464	-0.140	-0.140
-333.245	-200.000	-0.068	0.461
-332.231	350.805	0.442	0.871
-331.216	303.260	0.154	0.284
-330.202	-200.000	0.206	-1.048
-329.187	-200.000	0.091	-0.621
-328.172	726.626	-0.360	-0.955
-327.158	112.133	-0.396	0.477
-326.143	-4.447	0.293	0.202
-325.129	-200.000	-0.021	0.585
-324.114	-116.807	0.955	0.174
-323.099	390.878	-0.213	0.441
-322.085	21.999	0.049	-0.040
-321.070	800.000	0.091	-0.366
-320.056	62.279	0.264	0.262
-319.041	483.270	0.425	0.962
-318.026	-165.027	1.428	0.063
-317.012	-57.833	0.551	0.240
-315.997	64.070	-0.098	0.098
-314.983	457.577	0.175	-0.388
-313.968	-197.077	0.731	-0.005
-312.953	-200.000	0.017	1.047
-311.939	-200.000	0.226	1.061
-310.924	-145.923	-0.933	0.082
-309.910	56.178	0.275	-0.266
-308.895	-200.000	0.136	-0.835
-307.880	-145.296	0.113	-0.010
-306.866	-200.000	0.093	0.529
-305.851	-105.146	-0.622	0.141
-304.837	-48.946	0.479	0.228
-303.822	-144.770	-0.390	-0.036
-302.807	-200.000	-0.007	0.094
-301.793	-142.640	0.448	0.044
-300.778	-200.000	0.084	-0.466
-299.764	-166.728	-0.923	-0.038
-298.749	20.484	0.095	0.076
-297.735	-100.488	0.801	0.197
-296.720	-50.666	-0.389	-0.182
-295.705	249.512	-0.388	-0.655
-294.691	172.222	-0.307	0.439
-293.676	800.000	-0.178	0.655
-292.662	210.338	0.451	-0.705
-291.647	248.963	-0.152	0.256
-290.632	-200.000	-0.013	0.343
-289.618	-200.000	-0.098	-0.490
-288.603	266.090	0.156	0.271
-287.589	-66.438	-0.324	-0.128
-286.574	2.255	-0.234	0.169
-285.559	-200.000	-0.001	0.229
-284.545	-41.906	0.769	-0.392
-283.530	92.232	-0.294	-0.330
-282.516	-59.178	-1.143	-0.490
-281.501	-200.000	0.004	-0.315
-280.486	-200.000	-0.002	0.357
-279.472	145.079	-0.193	0.257
-278.457	14.986	-0.470	0.366
-277.443	-88.823	0.303	-0.089
-276.428	-62.009	-0.182	-0.076
-275.413	527.604	0.080	-0.187
-274.399	-47.188	0.271	-0.131
-273.384	183.406	0.610	-0.896
-272.370	-27.931	0.689	0.396
-271.355	-2.716	-0.711	-0.494
-270.340	-200.000	0.045	0.539
-269.326	44.718	0.201	0.183
-268.311	97.330	-0.244	-0.279
-267.297	-200.000	0.132	0.633
-266.282	5.535	0.299	0.219
-265.267	-96.501	-0.639	0.168
-264.253	104.617	-0.809	0.946
-263.238	-102.358	0.272	0.065
-262.224	32.797	-0.135	-0.116
-261.209	154.619	0.410	-0.560
-260.195	-200.000	0.063	0.508
-259.180	-100.404	0.145	0.036
-258.165	-91.043	-0.677	0.193
-257.151	-200.000	-0.015	-0.407
-256.136	-47.540	-0.580	-0.280
-255.122	132.215	-0.501	0.641
-254.107	6.636	-0.206	0.152
-253.092	146.943	0.499	0.666
-252.078	89.990	0.070	0.078
-251.063	-129.494	-0.301	0.041
-250.049	-200.000	0.080	-0.414
-249.034	30.695	0.931	0.791
-248.019	-95.895	-0.918	0.243
-247.005	-115.704	0.522	0.097
-245.990	-138.982	0.132	0.014
-244.976	800.000	-0.143	-0.406
-243.961	156.635	-0.451	-0.619
-242.946	-127.913	-0.841	0.120
-241.932	-107.309	-0.617	-0.135
-240.917	360.990	0.176	0.349
-239.903	8.223	-0.236	0.176
-238.888	-68.257	-0.386	0.149
-237.873	-49.516	-0.186	0.088
-236.859	-200.000	0.042	0.811
-235.844	161.468	0.464	0.644
-234.830	800.000	-0.044	0.183
-233.815	-19.365	-0.181	0.111
-232.800	520.591	-0.092	-0.213
-231.786	9.978	0.296	0.223
-230.771	-140.220	0.904	0.094
-229.757	90.388	0.831	0.922
-228.742	27.450	-0.208	0.174
-227.727	800.000	0.217	0.908
-226.713	90.726	-0.272	0.303
-225.698	410.082	0.224	0.470
-224.684	59.947	-0.060	0.058
-223.669	-38.033	0.250	0.132
-222.655	-200.000	-0.141	-0.991
-221.640	-137.692	-0.548	0.061
-220.625	-164.939	0.453	0.020
-219.611	170.056	0.243	-0.344
-218.596	-21.471	-0.148	-0.089
-217.582	477.326	-0.193	-0.432
-216.567	31.247	0.994	0.846
-215.552	272.695	-0.410	-0.718
-214.538	265.436	-0.264	0.456
-213.523	-73.800	0.172	-0.062
-212.509	-200.000	0.008	0.424
-211.494	-91.336	0.540	-0.153
-210.479	-59.586	-0.353	0.150
-209.465	-4.227	1.152	0.790
-208.450	741.203	-0.065	-0.172
-207.436	5.400	-0.640	-0.468
-206.421	-129.063	-0.471	0.065
-205.406	44.319	0.763	0.694
-204.392	-146.420	0.646	-0.056
-203.377	-61.798	-0.555	-0.230
-202.363	14.099	0.481	0.371
-201.348	-200.000	-0.014	-0.346
-200.333	3.459	-0.336	0.243
-199.319	-200.000	0.024	0.121
-198.304	800.000	-0.118	-0.371
-197.290	-37.293	-0.193	-0.102
-196.275	-200.000	0.045	0.242
-195.260	-55.907	0.469	-0.207
-194.246	-50.585	-0.967	0.452
-193.231	-200.000	0.062	0.568
-192.217	-125.426	-0.739	-0.112
-191.202	79.078	0.539	-0.572
-190.187	-200.000	0.006	-0.402
-189.173	48.584	-0.761	0.707
-188.158	-40.904	0.566	-0.290
-187.144	202.493	-0.452	0.690
-186.129	100.544	-0.257	-0.296
-185.114	-66.175	0.623	-0.246
-184.100	-20.710	-0.526	-0.319
-183.085	-200.000	-0.033	-0.460
-182.071	764.408	0.208	-0.561
-181.056	-83.037	0.206	-0.066
-180.042	-200.000	-0.038	0.292
-179.027	349.277	0.191	0.373
-178.012	-161.142	-0.259	-0.013
-176.998	-200.000	-0.050	-0.347
-175.983	-101.126	-0.285	0.069
-174.969	-95.424	0.327	-0.087
-173.954	-86.010	0.743	-0.227
-172.939	-111.420	-0.443	0.089
-171.925	-106.194	-1.031	-0.229
-170.910	800.000	-0.081	0.342
-169.896	-59.807	-0.228	0.097
-168.881	-139.607	-0.719	-0.076
-167.866	-121.208	0.189	-0.031
-166.852	107.359	-0.765	0.900
-165.837	-147.992	-0.725	-0.060
-164.823	-200.000	0.031	0.189
-163.808	345.195	-0.550	1.069
-162.793	800.000	-0.096	0.323
-161.779	657.769	-0.070	-0.177
-160.764	-200.000	-0.068	-0.298
-159.750	72.907	-0.325	0.336
-158.735	129.119	0.413	0.521
-157.720	-165.240	0.628	-0.027
-156.706	337.716	0.076	0.145
-155.691	195.606	-0.279	0.419
-154.677	52.118	0.532	0.502
-153.662	-152.732	0.684	0.048
-152.647	-153.391	1.068	-0.073
-151.633	-200.000	-0.007	-0.469
-150.618	-87.311	-0.406	-0.122
-149.604	-200.000	0.047	0.424
-148.589	-200.000	-0.021	0.495
-147.574	-19.224	0.506	-0.311
-146.560	-45.024	0.921	0.453
-145.545	-200.000	0.193	0.853
-144.531	-15.958	-0.312	-0.196
-143.516	35.933	0.928	0.807
-142.502	231.823	0.131	0.213
-141.487	534.320	-0.348	0.815
-140.472	-133.964	0.898	0.110
-139.458	-200.000	0.069	-1.201
-138.443	-43.531	-0.540	0.270
-137.429	68.218	0.408	0.413
-136.414	-200.000	-0.003	-0.127
-135.399	135.752	-0.221	0.284
-134.385	-200.000	0.005	0.189
-133.370	-200.000	0.084	0.499
-132.356	-3.177	0.531	-0.366
-131.341	-156.032	-0.431	0.027
-130.326	-200.000	0.140	0.655
-129.312	-200.000	-0.003	0.411
-128.297	252.943	0.253	0.427
-127.283	-67.950	-0.562	0.217
-126.268	391.553	0.257	0.528
-125.253	-64.649	0.288	0.115
-124.239	-186.454	1.005	0.014
-123.224	-200.000	0.098	0.565
-122.210	117.549	0.130	-0.158
-121.195	-35.809	0.532	-0.285
