DTS Sentinel unit serial number:	SN413079Multiplexer serial number:	ORYXHardware model number:	OX4-SRSoftware version number:	ORYX F/W v4.00 Oryx Data Collector v3.7.2.0data status	okinstallation	princeton_trtdifferential loss correction	single-endedforward channel	channel 1reverse channel	N/Adate	2019/09/11time	09:24:11forward acquisition time	60.00reverse acquisition time	0.00gamma	496.2192k internal	0.2306k external	0.2306temperature offset calibration	0.9951default loss term (dB/km)	0.3790temperature slope calibration	1.0000multiplexer offset coefficient	1.0000multiplexer slope coefficient	1.0000fibre end	0.00T internal ref (°C)	34.56T ext. ref 1 (°C)	0.10T ext. ref 2 (°C)	31.53length (m)	temperature (°C)	Stokes	anti-Stokes-747.200	270.890	0.129	-0.232
-746.185	800.000	0.143	0.476
-745.171	104.561	-0.187	0.224
-744.156	-22.223	0.348	0.214
-743.142	73.066	0.034	-0.036
-742.127	54.901	-0.247	0.243
-741.112	-75.083	0.127	0.046
-740.098	-200.000	-0.006	-0.241
-739.083	527.732	0.102	-0.245
-738.069	-77.539	-0.292	0.103
-737.054	73.948	0.151	0.161
-736.039	-200.000	0.012	-0.251
-735.025	117.367	-0.125	0.156
-734.010	-200.000	-0.066	-0.329
-732.996	-200.000	0.005	0.042
-731.981	-200.000	-0.013	-0.303
-730.966	-139.603	-0.261	-0.028
-729.952	45.106	-0.119	-0.111
-728.937	-116.592	0.080	-0.015
-727.923	12.461	0.055	-0.043
-726.908	-200.000	-0.009	0.302
-725.894	-200.000	0.056	-0.391
-724.879	-96.680	0.126	0.034
-723.864	209.736	-0.042	-0.067
-722.850	-200.000	-0.001	-0.254
-721.835	-48.144	-0.236	-0.116
-720.821	162.889	-0.058	0.083
-719.806	-131.138	-0.119	0.016
-718.791	-91.829	-0.147	-0.042
-717.777	800.000	0.034	-0.121
-716.762	-53.560	0.125	0.058
-715.748	-49.914	-0.131	0.063
-714.733	391.110	-0.016	0.034
-713.718	230.442	-0.045	0.074
-712.704	6.305	-0.077	-0.058
-711.689	-77.457	-0.175	-0.062
-710.675	84.207	-0.110	0.122
-709.660	-200.000	0.012	-0.353
-708.645	-56.355	-0.109	-0.049
-707.631	-200.000	0.006	-0.208
-706.616	-14.115	0.157	-0.103
-705.602	800.000	0.050	-0.155
-704.587	-200.000	-0.001	0.396
-703.572	-1.382	-0.021	0.015
-702.558	-200.000	-0.061	-0.470
-701.543	-36.959	-0.115	-0.063
-700.529	800.000	-0.027	-0.110
-699.514	29.797	0.082	-0.071
-698.499	-183.680	0.143	0.002
-697.485	-133.384	0.133	0.017
-696.470	-91.439	0.121	-0.035
-695.456	-120.510	-0.301	-0.052
-694.441	-200.000	-0.021	-0.332
-693.426	-8.375	-0.191	-0.131
-692.412	-122.550	0.327	0.054
-691.397	115.709	-0.184	-0.228
-690.383	800.000	-0.071	-0.202
-689.368	41.425	-0.176	-0.161
-688.354	320.654	0.195	0.376
-687.339	348.164	-0.167	0.334
-686.324	-200.000	-0.036	0.178
-685.310	-200.000	-0.017	0.128
-684.295	70.512	-0.251	-0.263
-683.281	161.968	-0.113	-0.160
-682.266	-156.349	-0.207	0.013
-681.251	-127.854	-0.357	-0.052
-680.237	284.435	-0.216	0.394
-679.222	-18.779	-0.165	0.104
-678.208	-33.990	0.363	0.202
-677.193	-0.875	-0.330	-0.237
-676.178	762.247	-0.049	-0.135
-675.164	-200.000	0.009	-0.045
-674.149	-93.697	-0.250	-0.070
-673.135	-200.000	-0.007	0.092
-672.120	221.946	-0.052	-0.085
-671.105	-200.000	0.368	-0.001
-670.091	187.379	0.060	-0.091
-669.076	297.656	-0.121	-0.225
-668.062	-200.000	0.073	-0.356
-667.047	52.750	-0.172	-0.167
-666.032	-160.676	-0.141	-0.008
-665.018	-96.007	0.048	0.013
-664.003	-200.000	0.003	0.096
-662.989	-183.684	0.417	0.007
-661.974	180.277	-0.054	0.081
-660.959	-86.119	-0.048	0.015
-659.945	158.178	-0.140	0.197
-658.930	-21.848	-0.278	0.172
-657.916	800.000	0.108	0.408
-656.901	-100.440	-0.283	0.071
-655.886	-134.480	-0.146	-0.018
-654.872	-94.834	0.352	-0.097
-653.857	465.207	-0.031	0.071
-652.843	-200.000	0.068	-0.307
-651.828	-82.203	-0.211	-0.070
-650.814	662.174	-0.100	0.262
-649.799	28.262	-0.116	0.099
-648.784	-23.892	0.327	-0.198
-647.770	-200.000	-0.007	0.293
-646.755	44.711	-0.187	-0.174
-645.741	-136.741	0.184	0.021
-644.726	344.221	0.209	-0.414
-643.711	62.621	0.230	0.233
-642.697	-5.352	0.242	0.168
-641.682	-200.000	-0.007	0.057
-640.668	496.036	-0.089	-0.208
-639.653	40.119	0.161	-0.146
-638.638	10.971	0.113	-0.087
-637.624	-100.076	-0.064	-0.016
-636.609	82.566	0.103	0.114
-635.595	800.000	0.025	0.107
-634.580	77.459	0.142	-0.153
-633.565	-99.421	-0.330	-0.084
-632.551	800.000	-0.111	0.312
-631.536	-101.303	-0.133	0.033
-630.522	-148.046	0.409	-0.034
-629.507	-200.000	-0.003	-0.046
-628.492	-120.805	-0.065	-0.011
-627.478	39.468	-0.166	-0.150
-626.463	-80.761	-0.305	-0.102
-625.449	21.350	-0.054	-0.045
-624.434	226.509	0.041	-0.068
-623.419	-147.480	-0.153	-0.013
-622.405	102.825	-0.082	0.097
-621.390	-62.791	0.195	0.082
-620.376	350.759	-0.098	-0.196
-619.361	-147.882	-0.144	0.012
-618.346	-48.498	0.129	-0.063
-617.332	-200.000	-0.023	0.102
-616.317	-5.754	-0.229	-0.159
-615.303	-96.789	-0.176	-0.047
-614.288	-91.805	0.177	-0.051
-613.273	301.940	-0.117	-0.219
-612.259	-139.158	0.182	-0.020
-611.244	-65.191	-0.174	0.071
-610.230	-122.058	0.289	-0.048
-609.215	800.000	-0.062	0.244
-608.201	-179.825	0.005	0.000
-607.186	-40.032	0.128	-0.068
-606.171	-13.578	0.222	0.145
-605.157	-15.737	-0.104	0.067
-604.142	2.509	-0.157	-0.115
-603.128	800.000	0.057	0.175
-602.113	-90.169	-0.045	-0.013
-601.098	-47.976	0.156	0.076
-600.084	640.449	-0.059	-0.151
-599.069	-200.000	0.085	-0.381
-598.055	97.143	0.142	-0.165
-597.040	-54.764	-0.241	-0.110
-596.025	325.752	0.043	-0.083
-595.011	194.978	-0.088	-0.135
-593.996	800.000	-0.077	-0.241
-592.982	135.927	-0.156	-0.206
-591.967	93.482	0.380	-0.435
-590.952	40.485	-0.181	0.165
-589.938	-200.000	0.012	0.078
-588.923	-127.208	-0.281	-0.042
-587.909	-103.456	-0.248	-0.059
-586.894	-29.156	-0.153	-0.089
-585.879	-130.120	-0.180	-0.025
-584.865	-28.922	-0.266	-0.155
-583.850	-23.273	0.181	-0.110
-582.836	-200.000	-0.041	-0.231
-581.821	-19.982	0.190	0.119
-580.806	-59.113	0.144	-0.063
-579.792	800.000	0.047	-0.146
-578.777	800.000	-0.012	-0.035
-577.763	69.896	-0.126	0.131
-576.748	16.417	-0.256	0.204
-575.733	661.205	-0.022	-0.058
-574.719	-159.631	0.616	-0.034
-573.704	393.048	-0.323	0.679
-572.690	232.290	0.109	0.181
-571.675	-121.585	-0.102	-0.017
-570.661	-37.713	0.034	0.018
-569.646	163.135	-0.026	-0.037
-568.631	66.658	0.289	0.297
-567.617	-137.241	-0.337	0.039
-566.602	-140.043	-0.356	-0.038
-565.588	62.920	-0.018	-0.019
-564.573	-106.811	-0.129	-0.029
-563.558	-200.000	-0.056	0.271
-562.544	119.388	-0.122	-0.152
-561.529	-163.431	-0.387	-0.019
-560.515	86.040	0.125	-0.139
-559.500	16.223	-0.167	0.133
-558.485	262.358	0.230	0.402
-557.471	800.000	-0.010	-0.031
-556.456	-38.393	-0.107	-0.057
-555.442	-132.737	0.477	-0.062
-554.427	-200.000	0.008	-0.174
-553.412	119.084	0.098	-0.122
-552.398	29.689	-0.141	0.121
-551.383	721.571	-0.136	0.364
-550.369	244.572	0.181	-0.306
-549.354	-200.000	-0.040	-0.218
-548.339	112.151	0.042	0.052
-547.325	56.418	-0.270	0.265
-546.310	381.943	0.150	-0.311
-545.296	-102.242	-0.266	-0.064
-544.281	-200.000	-0.080	0.366
-543.266	699.964	0.052	-0.138
-542.252	-110.298	0.295	0.062
-541.237	-100.828	0.026	0.006
-540.223	800.000	-0.045	0.136
-539.208	125.665	-0.044	-0.056
-538.193	-56.088	0.061	0.027
-537.179	271.700	-0.076	0.135
-536.164	-47.069	-0.208	0.103
-535.150	-161.688	-0.362	0.019
-534.135	-200.000	0.011	-0.219
-533.121	-47.280	0.192	0.095
-532.106	800.000	-0.007	0.030
-531.091	-53.371	0.151	0.070
-530.077	-143.101	0.180	-0.018
-529.062	-102.371	0.235	-0.057
-528.048	-30.431	0.121	-0.069
-527.033	-69.146	0.154	0.060
-526.018	-65.778	-0.324	0.131
-525.004	-29.391	0.181	0.104
-523.989	165.470	0.213	-0.303
-522.975	19.458	0.040	-0.032
-521.960	-200.000	0.026	0.244
-520.945	-31.872	0.070	0.040
-519.931	-11.185	0.306	0.204
-518.916	-37.948	-0.074	-0.040
-517.902	-74.796	-0.031	0.011
-516.887	-18.017	-0.288	0.182
-515.872	613.844	0.086	-0.217
-514.858	-123.451	-0.095	0.015
-513.843	800.000	-0.117	-0.419
-512.829	-200.000	-0.031	0.261
-511.814	-12.869	0.326	-0.214
-510.799	800.000	-0.157	-0.665
-509.785	-55.868	-0.234	0.105
-508.770	40.800	0.200	-0.182
-507.756	39.785	0.226	-0.205
-506.741	-200.000	0.029	-0.319
-505.726	206.932	-0.254	0.399
-504.712	-200.000	-0.018	0.213
-503.697	61.137	-0.071	-0.071
-502.683	-200.000	-0.140	-0.000
-501.668	-141.864	0.182	-0.018
-500.653	49.724	0.057	0.054
-499.639	-7.616	0.265	-0.180
-498.624	800.000	-0.146	-0.434
-497.610	-190.097	-0.162	-0.002
-496.595	222.538	0.107	0.173
-495.581	98.750	0.203	0.236
-494.566	-113.047	0.188	-0.037
-493.551	252.685	-0.071	-0.122
-492.537	36.022	0.177	0.157
-491.522	-71.133	0.146	0.055
-490.508	374.581	-0.023	0.047
-489.493	-41.371	0.228	-0.118
-488.478	-200.000	0.043	-0.292
-487.464	244.538	-0.054	0.091
-486.449	171.919	0.092	-0.133
-485.435	15.664	0.072	-0.057
-484.420	-12.708	0.222	-0.146
-483.405	123.252	0.054	0.068
-482.391	-27.476	0.108	0.063
-481.376	800.000	0.037	0.149
-480.362	297.657	-0.024	-0.045
-479.347	479.145	0.117	0.267
-478.332	800.000	0.059	0.168
-477.318	-122.987	0.536	-0.087
-476.303	-200.000	-0.034	-0.273
-475.289	-32.333	-0.171	-0.096
-474.274	-67.915	0.278	0.109
-473.259	-50.341	0.238	-0.113
-472.245	2.596	0.148	-0.108
-471.230	42.426	-0.338	0.309
-470.216	-200.000	-0.035	0.157
-469.201	-105.751	0.249	0.057
-468.186	-199.941	0.110	0.001
-467.172	-148.137	-0.201	0.017
-466.157	262.720	-0.057	0.099
-465.143	-200.000	-0.025	-0.336
-464.128	52.132	0.237	-0.227
-463.113	-108.652	0.328	-0.071
-462.099	-60.263	-0.172	-0.074
-461.084	-30.100	-0.251	-0.144
-460.070	-24.765	0.133	-0.080
-459.055	-12.105	-0.240	-0.158
-458.040	20.246	-0.275	-0.224
-457.026	51.270	-0.079	0.076
-456.011	-98.433	0.060	-0.015
-454.997	150.149	0.084	0.115
-453.982	-24.452	0.245	-0.147
-452.968	-60.165	0.081	-0.035
-451.953	18.558	-0.043	0.035
-450.938	-62.792	-0.119	0.049
-449.924	140.922	0.134	-0.179
-448.909	-200.000	-0.029	0.214
-447.895	-58.946	-0.120	-0.052
-446.880	258.267	-0.102	0.177
-445.865	-200.000	-0.016	0.227
-444.851	68.859	0.267	-0.276
-443.836	-200.000	-0.018	0.082
-442.822	-21.378	0.085	-0.052
-441.807	-38.351	0.140	-0.074
-440.792	-48.878	0.383	-0.185
-439.778	800.000	0.064	-0.196
-438.763	-48.887	0.243	0.117
-437.749	-74.279	-0.149	-0.054
-436.734	77.909	-0.098	-0.105
-435.719	800.000	0.024	-0.078
-434.705	800.000	-0.060	0.263
-433.690	771.273	-0.052	-0.142
-432.676	800.000	-0.104	0.298
-431.661	115.508	0.126	0.155
-430.646	5.367	-0.101	0.075
-429.632	800.000	-0.022	0.074
-428.617	-200.000	0.027	-0.317
-427.603	-200.000	0.062	0.406
-426.588	68.805	-0.108	0.111
-425.573	-18.319	-0.275	-0.173
-424.559	-200.000	-0.011	-0.262
-423.544	-117.045	-0.350	-0.064
-422.530	-200.000	-0.056	-0.394
-421.515	108.465	0.090	-0.108
-420.500	-155.965	0.068	-0.004
-419.486	-200.000	-0.013	0.282
-418.471	800.000	0.066	-0.237
-417.457	-142.107	0.197	-0.020
-416.442	-12.111	-0.079	0.052
-415.428	-99.554	-0.173	0.044
-414.413	-3.777	0.181	-0.126
-413.398	-32.874	0.169	0.094
-412.384	-96.312	0.131	-0.035
-411.369	171.440	0.207	-0.298
-410.355	800.000	-0.050	0.179
-409.340	-200.000	-0.043	-0.200
-408.325	149.222	-0.186	-0.253
-407.311	157.040	0.093	-0.129
-406.296	37.903	0.178	0.159
-405.282	-123.535	-0.290	0.046
-404.267	53.415	0.198	0.191
-403.252	-69.428	-0.318	0.122
-402.238	376.039	0.116	-0.238
-401.223	513.185	0.018	-0.043
-400.209	-200.000	0.048	0.246
-399.194	10.140	0.204	0.156
-398.179	-78.331	0.265	-0.091
-397.165	-200.000	-0.077	0.354
-396.150	-24.749	0.176	0.105
-395.136	-54.575	-0.280	0.127
-394.121	-161.369	-0.330	-0.017
-393.106	-47.258	-0.127	-0.062
-392.092	800.000	-0.061	0.241
-391.077	800.000	0.108	0.344
-390.063	-48.027	-0.210	-0.102
-389.048	395.434	0.117	0.244
-388.033	-121.083	0.137	0.023
-387.019	342.949	0.175	0.344
-386.004	41.274	-0.180	-0.163
-384.990	-121.578	-0.370	-0.062
-383.975	-58.338	-0.134	0.059
-382.960	-200.000	-0.011	0.060
-381.946	-151.248	0.193	-0.014
-380.931	-94.949	-0.336	-0.091
-379.917	-109.314	0.096	0.020
-378.902	312.138	-0.069	0.130
-377.888	-32.594	-0.045	0.025
-376.873	800.000	0.174	-0.629
-375.858	-200.000	0.006	-0.076
-374.844	-200.000	-0.036	0.165
-373.829	-99.255	0.234	-0.059
-372.815	475.896	-0.035	-0.079
-371.800	504.377	0.007	0.017
-370.785	-21.800	-0.029	0.018
-369.771	-200.000	-0.026	0.297
-368.756	800.000	-0.063	-0.231
-367.742	27.365	0.322	-0.271
-366.727	-154.319	-0.371	0.025
-365.712	-118.152	-0.145	-0.026
-364.698	-91.929	0.369	0.105
-363.683	99.515	-0.256	-0.297
-362.669	-47.703	0.226	0.110
-361.654	125.988	-0.167	0.211
-360.639	101.646	0.112	0.131
-359.625	169.951	-0.202	0.289
-358.610	175.952	-0.195	0.283
-357.596	-200.000	-0.024	-0.209
-356.581	83.630	0.438	0.478
-355.566	-9.108	-0.169	0.114
-354.552	-53.874	0.170	-0.078
-353.537	43.695	-0.052	0.048
-352.523	-11.870	-0.199	-0.131
-351.508	4.304	0.124	-0.091
-350.493	293.939	-0.099	0.182
-349.479	-200.000	0.018	0.349
-348.464	-62.360	-0.266	-0.111
-347.450	307.534	0.094	0.176
-346.435	51.101	0.183	-0.174
-345.420	29.944	0.282	0.241
-344.406	48.809	0.040	0.038
-343.391	800.000	0.068	0.244
-342.377	595.825	0.031	0.077
-341.362	-4.868	-0.195	0.135
-340.348	-196.517	0.116	-0.001
-339.333	418.212	0.084	0.181
-338.318	-200.000	-0.008	-0.206
-337.304	-34.136	0.124	-0.068
-336.289	800.000	-0.050	0.175
-335.275	800.000	-0.066	0.199
-334.260	-73.356	-0.546	-0.200
-333.245	-76.966	0.113	0.040
-332.231	800.000	-0.091	0.310
-331.216	-129.489	0.196	0.027
-330.202	53.379	-0.185	-0.178
-329.187	800.000	-0.079	0.292
-328.172	282.637	0.075	-0.135
-327.158	138.293	-0.098	-0.129
-326.143	323.235	0.043	0.081
-325.129	-197.612	-0.452	0.003
-324.114	-200.000	0.032	-0.225
-323.099	-200.000	0.023	0.115
-322.085	677.940	-0.060	-0.156
-321.070	248.420	-0.091	0.154
-320.056	-200.000	0.054	-0.311
-319.041	354.345	-0.081	-0.161
-318.026	-13.392	-0.219	-0.142
-317.012	-152.296	0.345	0.025
-315.997	91.114	-0.268	0.301
-314.983	-200.000	0.042	0.239
-313.968	-200.000	0.008	-0.169
-312.953	27.596	-0.223	-0.188
-311.939	-200.000	0.012	0.054
-310.924	150.852	-0.174	-0.236
-309.910	-156.751	0.030	-0.002
-308.895	-200.000	0.001	0.242
-307.880	-67.182	-0.141	-0.056
-306.866	31.600	-0.119	0.102
-305.851	-161.716	0.225	-0.011
-304.837	-200.000	-0.029	0.261
-303.822	-44.757	-0.286	0.143
-302.807	187.862	-0.037	0.055
-301.793	-182.846	0.163	0.003
-300.778	30.459	-0.177	0.151
-299.764	800.000	-0.040	-0.121
-298.749	155.365	-0.261	-0.359
-297.735	-36.456	0.275	0.148
-296.720	-200.000	0.011	0.089
-295.705	-49.328	-0.114	-0.055
-294.691	-200.000	0.068	0.328
-293.676	-141.727	-0.240	-0.024
-292.662	-5.464	0.209	0.143
-291.647	69.434	-0.033	-0.034
-290.632	800.000	0.026	0.078
-289.618	-43.346	0.132	0.067
-288.603	-200.000	-0.016	-0.080
-287.589	56.944	0.210	0.205
-286.574	-66.547	-0.499	0.198
-285.559	-92.414	-0.095	0.027
-284.545	-118.629	-0.067	0.012
-283.530	-42.355	-0.095	-0.049
-282.516	105.306	-0.164	-0.193
-281.501	-15.992	-0.231	0.147
-280.486	21.083	0.240	-0.195
-279.472	571.251	-0.064	0.156
-278.457	50.059	-0.272	0.257
-277.443	35.535	-0.180	0.158
-276.428	-51.995	-0.239	-0.111
-275.413	-200.000	0.026	0.115
-274.399	48.988	0.191	0.179
-273.384	-167.972	-0.312	-0.012
-272.370	-200.000	-0.059	0.319
-271.355	-151.377	0.454	-0.034
-270.340	800.000	0.020	0.066
-269.326	-200.000	0.044	-0.292
-268.311	88.101	-0.049	-0.054
-267.297	-27.167	0.068	-0.040
-266.282	-200.000	0.020	-0.107
-265.267	77.002	-0.100	0.107
-264.253	-1.793	0.333	-0.234
-263.238	184.275	0.111	0.165
-262.224	-49.079	-0.489	0.233
-261.209	-200.000	0.038	0.187
-260.195	13.809	0.274	0.212
-259.180	-144.769	-0.145	0.013
-258.165	19.358	-0.101	0.081
-257.151	-69.735	0.173	-0.066
-256.136	-102.523	0.235	0.056
-255.122	-200.000	-0.000	-0.006
-254.107	800.000	0.128	-0.376
-253.092	-113.172	-0.081	0.016
-252.078	800.000	-0.083	0.253
-251.063	-200.000	0.222	0.001
-250.049	189.899	0.136	-0.203
-249.034	800.000	-0.032	-0.103
-248.019	-34.594	-0.148	0.081
-247.005	-200.000	-0.024	-0.136
-245.990	32.986	0.223	-0.192
-244.976	365.073	-0.078	-0.156
-243.961	75.734	-0.211	0.223
-242.946	-114.273	0.328	-0.063
-241.932	-96.132	0.357	-0.094
-240.917	-61.800	-0.099	-0.041
-239.903	-200.000	-0.090	-0.404
-238.888	11.174	0.118	-0.090
-237.873	-65.751	0.191	0.076
-236.859	800.000	0.018	0.072
-235.844	-68.158	0.067	-0.026
-234.830	158.622	-0.121	-0.168
-233.815	98.272	0.089	-0.102
-232.800	-141.544	-0.362	-0.036
-231.786	306.821	-0.080	-0.149
-230.771	-72.296	0.246	-0.091
-229.757	48.158	0.081	-0.075
-228.742	800.000	-0.039	-0.113
-227.727	787.237	0.026	-0.070
-226.713	-100.526	0.150	0.037
-225.698	165.462	0.283	0.399
-224.684	112.797	-0.102	0.123
-223.669	-200.000	-0.006	0.061
-222.655	20.058	-0.231	-0.185
-221.640	-200.000	0.016	-0.289
-220.625	-124.318	-0.352	0.055
-219.611	-200.000	0.039	-0.243
-218.596	-145.834	-0.093	0.008
-217.582	222.674	-0.077	-0.123
-216.567	-36.437	-0.115	-0.062
-215.552	-200.000	-0.071	0.477
-214.538	164.132	-0.271	0.380
-213.523	89.519	-0.187	-0.208
-212.509	610.453	0.097	0.242
-211.494	-56.522	-0.179	-0.079
-210.479	-200.000	-0.004	-0.133
-209.465	95.503	0.215	-0.245
-208.450	185.587	0.079	-0.116
-207.436	-156.577	-0.100	0.006
-206.421	800.000	0.092	0.286
-205.406	229.381	0.085	-0.138
-204.392	-134.307	0.172	0.021
-203.377	800.000	0.044	-0.131
-202.363	-200.000	-0.002	0.258
-201.348	-200.000	0.439	-0.000
-200.333	-20.484	-0.408	0.250
-199.319	-42.867	0.303	0.153
-198.304	-114.074	0.113	-0.022
-197.290	-83.756	-0.075	0.024
-196.275	-2.376	-0.264	-0.184
-195.260	-24.629	-0.249	-0.147
-194.246	78.941	-0.065	0.069
-193.231	-198.082	-0.285	-0.002
-192.217	-200.000	0.024	0.174
-191.202	-46.048	-0.231	-0.113
-190.187	-200.000	0.345	0.001
-189.173	-157.202	0.159	0.010
-188.158	83.491	0.095	-0.103
-187.144	204.357	0.011	-0.017
-186.129	-22.392	0.288	0.173
-185.114	107.779	-0.122	0.145
-184.100	800.000	0.067	-0.228
-183.085	-85.330	-0.120	-0.037
-182.071	147.640	0.152	-0.204
-181.056	-9.397	0.110	-0.073
-180.042	-48.007	0.152	0.073
-179.027	8.009	-0.161	0.120
-178.012	-200.000	0.004	0.197
-176.998	800.000	0.076	-0.268
-175.983	75.891	-0.217	0.228
-174.969	22.918	-0.087	-0.071
-173.954	90.214	0.103	0.114
-172.939	-200.000	-0.004	-0.125
-171.925	60.646	0.008	-0.008
-170.910	22.362	0.091	0.074
-169.896	330.533	0.134	0.257
-168.881	-100.826	0.203	-0.050
-167.866	-66.029	-0.121	-0.048
-166.852	71.135	-0.138	0.142
-165.837	-55.475	-0.287	-0.128
-164.823	800.000	-0.091	0.338
-163.808	267.049	0.215	0.374
-162.793	481.406	-0.145	-0.326
-161.779	-71.591	0.208	0.077
-160.764	313.655	-0.193	-0.360
-159.750	33.584	0.231	-0.200
-158.735	-200.000	-0.014	-0.082
-157.720	-33.605	0.451	0.247
-156.706	800.000	-0.053	-0.199
-155.691	-159.124	0.132	0.007
-154.677	361.041	0.040	0.080
-153.662	-136.633	-0.171	0.020
-152.647	358.798	-0.133	-0.264
-151.633	-45.844	-0.197	0.096
-150.618	-77.146	-0.410	0.142
-149.604	-200.000	-0.031	0.334
-148.589	-87.870	0.501	0.150
-147.574	-92.985	-0.168	0.047
-146.560	-82.434	0.097	0.031
-145.545	170.422	0.166	-0.236
-144.531	-200.000	-0.023	0.161
-143.516	-44.412	0.382	0.190
-142.502	9.184	0.144	0.108
-141.487	153.301	0.163	-0.221
-140.472	42.351	-0.147	-0.132
-139.458	-200.000	-0.065	0.430
-138.443	800.000	0.030	0.100
-137.429	219.909	0.150	-0.238
-136.414	-200.000	0.004	-0.181
-135.399	566.723	-0.016	0.038
-134.385	524.706	-0.119	0.277
-133.370	260.062	-0.178	-0.306
-132.356	563.918	-0.076	-0.184
-131.341	-8.356	-0.283	0.189
-130.326	-44.356	0.268	0.133
-129.312	55.612	0.157	0.151
-128.297	-8.425	0.099	-0.066
-127.283	-138.278	0.123	0.013
-126.268	-77.347	0.292	0.101
-125.253	44.657	-0.125	0.114
-124.239	-200.000	-0.036	0.265
-123.224	56.182	0.187	0.180
-122.210	69.217	-0.144	-0.147
