DTS Sentinel unit serial number:	SN413079Multiplexer serial number:	ORYXHardware model number:	OX4-SRSoftware version number:	ORYX F/W v4.00 Oryx Data Collector v3.7.2.0data status	okinstallation	princeton_trtdifferential loss correction	single-endedforward channel	channel 1reverse channel	N/Adate	2019/09/15time	07:22:35forward acquisition time	60.00reverse acquisition time	0.00gamma	496.2192k internal	0.2324k external	0.2324temperature offset calibration	0.9997default loss term (dB/km)	0.3790temperature slope calibration	1.0000multiplexer offset coefficient	1.0000multiplexer slope coefficient	1.0000fibre end	0.00T internal ref (°C)	30.56T ext. ref 1 (°C)	4.86T ext. ref 2 (°C)	25.85length (m)	temperature (°C)	Stokes	anti-Stokes-747.200	166.008	-0.086	-0.124
-746.185	-19.008	-0.160	0.101
-745.171	-72.163	0.102	-0.038
-744.156	400.168	0.082	-0.174
-743.142	23.124	0.169	0.140
-742.127	93.328	0.307	0.351
-741.112	636.106	-0.131	-0.336
-740.098	254.609	0.169	0.292
-739.083	-200.000	0.003	0.171
-738.069	-56.879	0.146	0.065
-737.054	-200.000	0.007	0.149
-736.039	128.073	-0.094	0.120
-735.025	-32.036	0.255	0.144
-734.010	-47.857	-0.429	-0.210
-732.996	-28.844	0.026	-0.015
-731.981	-57.552	-0.239	0.106
-730.966	-98.996	0.170	-0.044
-729.952	212.339	0.098	-0.156
-728.937	0.389	-0.451	-0.325
-727.923	137.951	0.200	-0.265
-726.908	800.000	-0.055	-0.235
-725.894	698.096	-0.051	0.134
-724.879	-200.000	0.015	0.231
-723.864	-0.390	-0.257	-0.184
-722.850	-72.150	0.014	-0.005
-721.835	-98.712	-0.113	0.029
-720.821	462.532	-0.042	0.095
-719.806	-119.530	0.408	-0.071
-718.791	12.426	-0.161	0.125
-717.777	-95.192	-0.254	0.069
-716.762	-200.000	-0.025	0.170
-715.748	-142.658	0.138	-0.014
-714.733	195.897	-0.108	-0.166
-713.718	38.890	0.114	0.103
-712.704	-133.417	-0.176	0.022
-711.689	-188.658	-0.348	0.004
-710.675	193.846	0.098	0.149
-709.660	38.813	-0.140	0.126
-708.645	-35.966	0.252	-0.137
-707.631	-37.142	-0.128	-0.069
-706.616	-200.000	0.048	-0.359
-705.602	137.629	-0.050	0.066
-704.587	-200.000	-0.044	0.224
-703.572	-71.797	0.207	-0.078
-702.558	35.834	0.034	0.030
-701.543	-125.876	-0.246	-0.037
-700.529	800.000	-0.010	-0.031
-699.514	-200.000	-0.002	0.178
-698.499	166.412	-0.117	0.168
-697.485	60.101	0.310	0.309
-696.470	-200.000	-0.012	-0.189
-695.456	-200.000	-0.030	-0.189
-694.441	-29.035	-0.055	0.032
-693.426	198.963	-0.179	-0.276
-692.412	512.792	0.130	-0.305
-691.397	122.025	-0.155	0.195
-690.383	2.739	-0.139	0.102
-689.368	181.904	-0.100	0.149
-688.354	-200.000	-0.006	-0.110
-687.339	47.301	-0.151	0.142
-686.324	-115.288	-0.167	0.032
-685.310	-62.563	0.040	0.017
-684.295	57.205	-0.120	-0.118
-683.281	800.000	0.079	-0.257
-682.266	-200.000	0.054	0.322
-681.251	99.316	-0.282	-0.329
-680.237	-200.000	-0.022	-0.261
-679.222	151.597	0.085	0.117
-678.208	-33.979	-0.390	-0.216
-677.193	143.903	0.083	0.111
-676.178	800.000	-0.127	0.455
-675.164	312.463	-0.084	-0.158
-674.149	-89.560	0.102	0.030
-673.135	-12.182	-0.207	-0.137
-672.120	634.500	-0.042	0.107
-671.105	114.016	-0.173	-0.212
-670.091	-18.423	-0.139	0.088
-669.076	-92.181	-0.289	-0.082
-668.062	-56.608	-0.203	-0.090
-667.047	-127.335	-0.263	0.039
-666.032	-109.380	-0.186	0.040
-665.018	300.507	0.111	-0.206
-664.003	305.323	-0.137	0.257
-662.989	-200.000	-0.071	-0.383
-661.974	-200.000	0.013	-0.092
-660.959	-102.741	0.293	-0.070
-659.945	80.799	0.082	-0.089
-658.930	-112.396	-0.141	-0.028
-657.916	800.000	0.062	0.227
-656.901	800.000	-0.058	0.165
-655.886	-24.354	0.263	-0.158
-654.872	23.682	0.187	-0.154
-653.857	-62.327	-0.231	0.097
-652.843	34.523	-0.160	0.141
-651.828	-200.000	-0.026	-0.146
-650.814	35.422	-0.022	0.019
-649.799	23.841	-0.445	0.369
-648.784	53.464	-0.184	0.178
-647.770	-98.585	0.099	0.025
-646.755	800.000	-0.044	-0.171
-645.741	-193.759	-0.151	0.001
-644.726	-32.142	0.335	-0.188
-643.711	800.000	-0.062	-0.176
-642.697	800.000	0.112	0.421
-641.682	-10.114	0.259	-0.173
-640.668	38.577	0.201	-0.180
-639.653	776.799	-0.079	-0.217
-638.638	-200.000	-0.009	0.068
-637.624	28.485	0.139	-0.118
-636.609	-11.490	-0.136	-0.090
-635.595	103.355	-0.218	-0.257
-634.580	-200.000	0.022	0.167
-633.565	21.079	-0.246	-0.201
-632.551	-93.328	0.337	0.094
-631.536	-192.431	0.451	0.004
-630.522	64.897	0.199	0.202
-629.507	276.102	0.038	0.068
-628.492	23.585	0.125	0.103
-627.478	19.663	-0.227	-0.184
-626.463	-95.444	0.169	0.046
-625.449	105.066	0.311	-0.369
-624.434	-200.000	-0.025	0.329
-623.419	-143.816	0.388	-0.037
-622.405	106.593	0.230	0.274
-621.390	-41.155	-0.387	-0.201
-620.376	-111.601	0.123	-0.025
-619.361	236.682	0.087	-0.144
-618.346	36.245	-0.153	0.135
-617.332	800.000	0.050	-0.203
-616.317	-136.472	-0.048	-0.006
-615.303	-200.000	0.027	-0.333
-614.288	-155.179	-0.215	0.014
-613.273	-101.977	-0.049	-0.012
-612.259	230.228	0.035	0.058
-611.244	800.000	0.139	0.521
-610.230	-200.000	-0.021	-0.194
-609.215	-181.598	0.231	-0.005
-608.201	102.945	0.209	-0.246
-607.186	6.146	-0.118	-0.088
-606.171	-131.288	0.270	-0.036
-605.157	710.027	0.165	0.439
-604.142	-89.489	-0.084	-0.025
-603.128	146.217	0.106	0.143
-602.113	469.986	0.094	-0.211
-601.098	375.939	0.076	-0.155
-600.084	42.443	-0.292	0.266
-599.069	-125.202	-0.555	-0.085
-598.055	338.049	-0.282	-0.550
-597.040	-98.469	0.220	0.056
-596.025	-96.676	-0.282	0.075
-595.011	685.056	0.074	0.194
-593.996	1.930	-0.085	-0.062
-592.982	85.880	-0.204	-0.226
-591.967	410.140	-0.053	0.113
-590.952	800.000	0.101	0.420
-589.938	800.000	-0.010	0.028
-588.923	-68.570	-0.095	-0.037
-587.909	-153.016	-0.248	0.018
-586.894	195.004	0.154	0.234
-585.879	43.380	0.339	0.311
-584.865	-200.000	-0.016	0.235
-583.850	23.204	-0.281	-0.231
-582.836	-200.000	0.036	0.175
-581.821	-85.041	-0.607	0.191
-580.806	-35.955	0.358	0.194
-579.792	-70.971	0.135	-0.051
-578.777	67.719	-0.148	-0.152
-577.763	-49.642	-0.156	0.075
-576.748	-200.000	-0.006	0.082
-575.733	171.755	-0.189	0.272
-574.719	76.304	0.172	-0.183
-573.704	65.089	-0.265	-0.268
-572.690	64.983	0.057	-0.058
-571.675	1.148	0.166	0.120
-570.661	-200.000	-0.012	-0.150
-569.646	800.000	0.062	0.208
-568.631	84.898	-0.048	-0.053
-567.617	234.693	0.102	0.169
-566.602	-177.316	-0.040	0.001
-565.588	-151.634	-0.303	-0.022
-564.573	537.460	-0.026	0.063
-563.558	209.594	0.090	-0.142
-562.544	800.000	-0.083	0.240
-561.529	-139.385	0.341	0.037
-560.515	-19.651	0.279	0.173
-559.500	-71.410	-0.178	-0.067
-558.485	800.000	-0.040	0.156
-557.471	-200.000	-0.024	0.354
-556.456	-26.927	0.285	0.167
-555.442	800.000	0.021	-0.066
-554.427	-79.511	-0.226	-0.077
-553.412	736.577	0.098	0.263
-552.398	554.153	0.082	-0.198
-551.383	-200.000	-0.030	-0.134
-550.369	536.066	0.111	-0.263
-549.354	-200.000	-0.035	0.169
-548.339	-71.663	-0.306	0.115
-547.325	800.000	-0.005	-0.019
-546.310	-200.000	0.047	0.367
-545.296	146.883	-0.041	0.055
-544.281	-18.281	0.036	0.022
-543.266	704.804	-0.035	-0.092
-542.252	800.000	0.058	0.235
-541.237	495.279	-0.116	0.266
-540.223	722.143	0.103	0.275
-539.208	-189.297	-0.166	0.002
-538.193	-147.157	-0.274	0.023
-537.179	-200.000	-0.047	0.303
-536.164	66.411	-0.237	-0.241
-535.150	673.127	-0.218	-0.566
-534.135	-20.692	-0.114	-0.070
-533.121	-35.277	-0.196	-0.107
-532.106	-40.819	0.099	-0.051
-531.091	-126.260	0.162	0.024
-530.077	-136.662	0.330	-0.038
-529.062	-92.507	0.265	0.075
-528.048	115.930	0.187	0.230
-527.033	168.587	0.244	0.347
-526.018	60.744	-0.261	0.259
-525.004	800.000	0.153	0.483
-523.989	-11.826	0.338	-0.222
-522.975	-126.719	-0.105	-0.016
-521.960	-91.474	0.064	-0.018
-520.945	-90.631	-0.104	-0.030
-519.931	-110.314	-0.140	0.029
-518.916	-74.118	-0.224	0.081
-517.902	132.315	0.194	-0.251
-516.887	-104.973	0.345	-0.079
-515.872	161.918	-0.140	-0.196
-514.858	83.038	0.142	0.155
-513.843	-90.997	-0.273	0.078
-512.829	61.473	0.214	0.213
-511.814	157.511	-0.072	0.100
-510.799	-33.100	-0.390	-0.217
-509.785	-58.217	-0.242	0.105
-508.770	-24.293	-0.168	-0.100
-507.756	-143.186	-0.172	0.017
-506.741	53.551	-0.101	-0.097
-505.726	-57.081	0.099	-0.044
-504.712	66.910	-0.238	-0.242
-503.697	-200.000	-0.030	0.177
-502.683	800.000	0.081	0.263
-501.668	71.559	0.236	0.245
-500.653	118.221	0.172	0.213
-499.639	-124.795	-0.249	0.039
-498.624	-200.000	-0.012	0.139
-497.610	-33.726	-0.157	-0.086
-496.595	-98.593	0.050	0.013
-495.581	10.456	-0.417	0.318
-494.566	-149.023	0.320	0.026
-493.551	-30.944	-0.305	-0.172
-492.537	149.754	-0.023	-0.031
-491.522	163.289	0.187	0.262
-490.508	604.873	-0.112	-0.278
-489.493	-68.470	0.172	-0.067
-488.478	-70.797	0.310	-0.117
-487.464	16.797	-0.113	0.089
-486.449	-34.748	-0.298	-0.163
-485.435	-20.381	-0.097	-0.060
-484.420	230.888	0.062	0.101
-483.405	-46.703	-0.262	-0.128
-482.391	-200.000	-0.019	-0.135
-481.376	-105.400	0.286	0.065
-480.362	-200.000	0.049	-0.220
-479.347	-99.419	-0.229	-0.058
-478.332	70.035	0.051	0.052
-477.318	-80.615	0.025	-0.008
-476.303	-187.571	-0.214	0.003
-475.289	-45.455	0.079	0.039
-474.274	-200.000	-0.044	0.400
-473.259	381.299	0.096	-0.196
-472.245	12.475	0.154	-0.118
-471.230	464.806	-0.137	-0.306
-470.216	-23.360	-0.107	0.064
-469.201	-122.043	-0.318	-0.052
-468.186	409.507	0.122	-0.258
-467.172	-62.862	-0.384	0.159
-466.157	-74.877	0.359	0.128
-465.143	207.450	-0.135	-0.210
-464.128	-161.724	-0.105	0.005
-463.113	129.187	0.219	0.279
-462.099	126.736	-0.130	-0.164
-461.084	-10.952	-0.242	-0.160
-460.070	375.869	0.031	-0.063
-459.055	-94.023	-0.099	0.027
-458.040	147.796	-0.110	0.148
-457.026	-200.000	0.055	0.434
-456.011	-27.748	0.266	-0.154
-454.997	-135.497	-0.391	0.047
-453.982	80.876	0.121	0.130
-452.968	-23.096	-0.158	0.095
-451.953	-200.000	0.010	-0.208
-450.938	-61.521	0.235	0.099
-449.924	-47.158	0.027	-0.013
-448.909	-200.000	-0.034	0.482
-447.895	278.038	0.036	-0.063
-446.880	20.957	0.113	0.092
-445.865	99.735	-0.151	-0.175
-444.851	-88.764	-0.286	-0.085
-443.836	-200.000	-0.031	-0.155
-442.822	800.000	-0.045	0.133
-441.807	264.915	0.070	0.122
-440.792	389.414	-0.150	0.311
-439.778	-103.591	0.310	-0.073
-438.763	-135.282	0.255	-0.030
-437.749	-68.048	-0.282	0.110
-436.734	-83.747	-0.138	-0.044
-435.719	300.488	0.072	0.133
-434.705	75.932	0.155	0.164
-433.690	-200.000	-0.037	0.211
-432.676	-114.163	0.141	-0.027
-431.661	-30.459	0.149	-0.084
-430.646	-171.826	-0.293	-0.010
-429.632	-137.344	-0.149	-0.017
-428.617	-119.139	0.231	0.040
-427.603	-111.737	0.203	0.041
-426.588	-8.512	-0.186	0.125
-425.573	800.000	-0.075	0.271
-424.559	94.576	-0.280	0.318
-423.544	287.948	0.064	0.116
-422.530	-154.796	0.156	-0.010
-421.515	330.732	0.071	0.136
-420.500	-175.128	0.159	0.004
-419.486	67.253	-0.202	-0.206
-418.471	-11.436	-0.276	-0.181
-417.457	242.631	-0.099	0.165
-416.442	-200.000	-0.009	0.188
-415.428	774.382	0.010	0.027
-414.413	-115.691	0.355	-0.066
-413.398	-200.000	-0.017	-0.212
-412.384	-200.000	-0.017	0.465
-411.369	800.000	0.036	0.150
-410.355	-200.000	-0.059	0.317
-409.340	-187.324	-0.178	0.002
-408.325	800.000	0.102	-0.303
-407.311	10.142	-0.123	-0.093
-406.296	13.698	-0.123	-0.095
-405.282	36.907	-0.112	-0.098
-404.267	84.632	-0.128	-0.139
-403.252	13.978	-0.222	-0.172
-402.238	183.721	0.237	0.349
-401.223	100.313	0.181	0.209
-400.209	-38.993	0.037	-0.020
-399.194	370.274	-0.108	-0.219
-398.179	800.000	0.116	-0.402
-397.165	-34.605	-0.097	0.053
-396.150	141.554	0.156	0.205
-395.136	-200.000	-0.009	0.177
-394.121	-200.000	-0.008	0.083
-393.106	800.000	-0.066	-0.193
-392.092	-200.000	0.043	0.244
-391.077	800.000	0.089	-0.282
-390.063	-139.075	0.253	0.027
-389.048	286.424	0.163	-0.294
-388.033	-92.819	-0.090	-0.025
-387.019	-61.325	-0.131	0.055
-386.004	239.700	0.172	-0.285
-384.990	-35.581	0.365	-0.197
-383.975	11.400	-0.128	0.098
-382.960	237.671	-0.150	-0.248
-381.946	11.617	-0.265	0.203
-380.931	-47.827	0.087	-0.042
-379.917	-8.822	0.216	-0.144
-378.902	-18.675	0.126	-0.078
-377.888	-130.078	-0.134	-0.018
-376.873	-200.000	0.001	-0.004
-375.858	202.002	0.125	0.192
-374.844	41.347	0.134	0.121
-373.829	-34.451	-0.166	-0.091
-372.815	124.237	-0.108	-0.135
-371.800	481.708	0.083	-0.188
-370.785	294.672	0.024	-0.044
-369.771	-200.000	-0.008	0.092
-368.756	276.107	0.094	0.166
-367.742	18.558	0.178	-0.142
-366.727	256.927	-0.069	0.117
-365.712	-200.000	-0.031	-0.258
-364.698	140.347	0.007	-0.009
-363.683	800.000	-0.069	0.279
-362.669	392.913	0.129	-0.267
-361.654	39.711	0.106	-0.095
-360.639	-15.874	0.344	0.218
-359.625	79.013	-0.131	-0.139
-358.610	99.613	0.188	0.217
-357.596	8.891	0.049	0.037
-356.581	201.926	0.122	-0.186
-355.566	60.344	0.191	0.188
-354.552	163.505	-0.212	-0.297
-353.537	-200.000	-0.041	-0.205
-352.523	-11.747	-0.219	-0.143
-351.508	-134.205	-0.135	0.017
-350.493	-67.730	0.146	-0.057
-349.479	-125.893	-0.153	-0.023
-348.464	800.000	-0.085	-0.243
-347.450	-200.000	0.431	0.000
-346.435	-12.256	0.204	0.133
-345.420	602.431	0.064	0.158
-344.406	192.188	0.090	-0.135
-343.391	-34.543	0.318	-0.173
-342.377	-157.239	0.323	0.019
-341.362	79.867	0.026	-0.028
-340.348	-123.963	-0.387	0.061
-339.333	282.427	-0.080	0.142
-338.318	273.214	0.084	0.148
-337.304	-104.219	0.104	0.024
-336.289	-200.000	0.004	-0.157
-335.275	-10.962	-0.095	-0.063
-334.260	-85.577	-0.214	0.066
-333.245	-170.505	-0.148	0.005
-332.231	800.000	-0.045	-0.177
-331.216	100.206	-0.098	-0.113
-330.202	126.676	0.215	-0.270
-329.187	-48.557	0.129	-0.062
-328.172	-200.000	-0.027	0.215
-327.158	-107.419	-0.135	0.029
-326.143	-9.407	-0.204	-0.135
-325.129	105.347	0.019	-0.022
-324.114	226.057	0.196	-0.315
-323.099	-200.000	0.080	0.367
-322.085	-114.934	-0.346	0.065
-321.070	-200.000	0.007	-0.214
-320.056	-108.032	0.116	-0.025
-319.041	-200.000	0.002	-0.090
-318.026	-105.984	-0.510	-0.114
-317.012	-89.941	-0.089	0.026
-315.997	113.095	0.268	-0.322
-314.983	-200.000	0.018	0.105
-313.968	264.868	-0.179	-0.309
-312.953	-29.750	0.246	-0.139
-311.939	592.003	0.142	-0.348
-310.924	629.102	0.031	0.077
-309.910	4.012	-0.113	-0.082
-308.895	14.789	0.198	-0.154
-307.880	-200.000	0.004	0.165
-306.866	-200.000	0.010	-0.097
-305.851	-200.000	0.013	-0.227
-304.837	68.605	0.249	-0.254
-303.822	333.163	0.051	-0.098
-302.807	113.724	-0.115	0.139
-301.793	-40.356	-0.199	-0.103
-300.778	336.880	0.086	0.166
-299.764	128.601	-0.236	0.298
-298.749	300.055	-0.055	-0.101
-297.735	455.998	0.038	0.083
-296.720	51.397	0.317	0.299
-295.705	59.258	0.245	0.239
-294.691	-200.000	0.026	-0.158
-293.676	-200.000	-0.018	-0.278
-292.662	214.632	-0.226	-0.354
-291.647	-147.775	0.293	-0.024
-290.632	-128.287	-0.087	0.012
-289.618	469.159	0.080	-0.179
-288.603	-45.655	0.343	-0.168
-287.589	490.497	-0.103	0.234
-286.574	26.792	0.232	0.193
-285.559	-200.000	-0.032	-0.152
-284.545	-135.992	-0.127	0.015
-283.530	-14.361	-0.100	-0.064
-282.516	-112.312	0.204	-0.040
-281.501	74.640	-0.169	0.177
-280.486	-79.525	-0.179	0.060
-279.472	800.000	0.110	0.306
-278.457	29.153	-0.263	-0.221
-277.443	-71.674	0.127	0.047
-276.428	509.672	-0.088	0.203
-275.413	27.773	0.148	0.123
-274.399	-68.665	-0.092	-0.035
-273.384	25.055	0.319	0.262
-272.370	353.374	0.051	0.100
-271.355	-110.699	-0.398	-0.081
-270.340	146.921	-0.212	0.283
-269.326	462.351	0.190	0.421
-268.311	56.512	0.208	0.200
-267.297	255.010	0.145	-0.245
-266.282	-3.511	-0.189	-0.130
-265.267	-129.031	0.152	0.021
-264.253	-70.328	-0.187	0.070
-263.238	-80.879	0.169	-0.056
-262.224	261.687	0.113	-0.194
-261.209	-72.972	-0.524	0.191
-260.195	-119.189	0.116	0.020
-259.180	24.359	0.179	0.146
-258.165	-15.957	0.230	0.145
-257.151	-65.928	0.135	-0.053
-256.136	678.049	-0.020	0.050
-255.122	-124.047	0.216	-0.034
-254.107	-13.805	-0.267	-0.171
-253.092	-53.706	0.211	-0.095
-252.078	786.356	-0.050	0.136
-251.063	377.506	0.079	-0.160
-250.049	-108.111	0.291	0.062
-249.034	134.094	0.170	0.218
-248.019	69.199	-0.328	-0.333
-247.005	-77.607	-0.058	0.020
-245.990	-200.000	0.048	0.261
-244.976	-47.186	0.387	0.187
-243.961	311.026	0.082	-0.153
-242.946	541.240	-0.072	-0.169
-241.932	-200.000	0.007	0.040
-240.917	-18.240	-0.298	-0.184
-239.903	-132.432	-0.120	-0.015
-238.888	87.879	-0.114	0.126
-237.873	-9.736	-0.112	0.074
-236.859	800.000	-0.071	0.219
-235.844	62.595	0.285	-0.282
-234.830	266.853	-0.147	-0.253
-233.815	800.000	-0.063	0.266
-232.800	75.408	-0.235	0.245
-231.786	-74.951	-0.328	-0.116
-230.771	-60.774	-0.325	-0.136
-229.757	115.917	0.199	0.241
-228.742	42.422	0.214	0.192
-227.727	-10.815	-0.157	-0.103
-226.713	-171.879	-0.222	0.007
-225.698	289.372	0.096	-0.171
-224.684	-31.123	-0.229	0.128
-223.669	-180.160	0.159	-0.003
-222.655	800.000	0.056	-0.206
-221.640	301.683	0.149	-0.272
-220.625	-200.000	0.009	-0.127
-219.611	-111.706	-0.118	0.024
-218.596	-140.070	0.296	-0.031
-217.582	-49.751	0.315	0.148
-216.567	327.248	-0.150	0.285
-215.552	-200.000	0.114	-0.523
-214.538	800.000	0.044	-0.166
-213.523	-115.351	0.199	-0.037
-212.509	-165.197	-0.295	-0.013
-211.494	800.000	-0.138	-0.473
-210.479	124.341	-0.019	-0.023
-209.465	-32.417	0.066	0.036
-208.450	294.555	0.064	-0.116
-207.436	748.157	-0.081	0.217
-206.421	-163.188	0.129	0.006
-205.406	800.000	-0.151	-0.456
-204.392	276.306	-0.070	-0.123
-203.377	419.050	-0.063	0.134
-202.363	74.642	-0.131	0.136
-201.348	800.000	0.033	-0.105
-200.333	175.126	0.264	-0.377
-199.319	-119.738	0.154	-0.026
-198.304	-190.319	-0.153	0.002
-197.290	-137.109	-0.116	-0.013
-196.275	170.658	0.156	-0.221
-195.260	98.901	0.166	-0.189
-194.246	45.960	-0.060	-0.055
-193.231	5.111	0.271	0.197
-192.217	-121.494	0.294	0.048
-191.202	320.818	0.154	0.289
-190.187	35.455	0.309	-0.268
-189.173	41.770	-0.185	0.166
-188.158	105.269	-0.129	0.151
-187.144	182.639	0.034	-0.050
-186.129	800.000	-0.117	-0.405
-185.114	218.826	0.090	0.142
-184.100	421.253	0.090	-0.191
-183.085	596.786	-0.075	-0.184
-182.071	-59.739	-0.182	0.077
-181.056	-182.630	-0.242	-0.004
-180.042	374.221	0.043	0.086
-179.027	788.552	-0.130	-0.352
-178.012	-15.363	0.360	-0.227
-176.998	-68.287	-0.220	-0.085
-175.983	-33.227	-0.232	-0.127
-174.969	60.395	0.079	-0.077
-173.954	401.184	0.111	0.230
-172.939	-12.142	-0.219	-0.142
-171.925	-75.755	-0.327	0.115
-170.910	9.984	0.181	0.135
-169.896	-200.000	-0.004	0.261
-168.881	800.000	-0.073	-0.266
-167.866	800.000	0.053	0.224
-166.852	25.261	0.218	-0.179
-165.837	800.000	-0.065	0.204
-164.823	76.100	0.077	-0.080
-163.808	-200.000	0.015	0.253
-162.793	-200.000	-0.054	-0.434
-161.779	119.651	-0.166	0.203
-160.764	-106.662	-0.159	-0.035
-159.750	-122.448	0.305	-0.049
-158.735	-2.029	-0.095	0.066
-157.720	-81.896	-0.342	0.110
-156.706	21.153	0.207	-0.166
-155.691	-79.317	0.183	0.061
-154.677	-200.000	-0.005	-0.116
-153.662	800.000	-0.018	0.055
-152.647	132.937	0.054	0.069
-151.633	-92.035	-0.307	-0.086
-150.618	-164.781	-0.045	-0.002
-149.604	-200.000	0.091	0.503
-148.589	800.000	-0.027	0.075
-147.574	800.000	-0.080	0.260
-146.560	-200.000	-0.026	0.283
-145.545	8.146	-0.048	0.035
-144.531	-77.101	0.310	0.107
-143.516	125.935	0.026	-0.032
-142.502	-78.313	0.200	0.068
-141.487	146.161	-0.174	-0.231
-140.472	155.149	0.035	-0.047
-139.458	212.942	0.107	-0.166
-138.443	-200.000	-0.015	-0.152
-137.429	-117.536	-0.356	-0.063
-136.414	-174.860	0.377	-0.010
-135.399	512.878	-0.045	0.104
-134.385	50.336	-0.145	-0.135
-133.370	-77.033	-0.309	0.106
-132.356	-109.976	0.264	-0.054
-131.341	107.404	0.146	0.171
-130.326	-200.000	-0.006	-0.025
-129.312	137.440	-0.224	0.289
-128.297	-149.774	-0.043	0.003
-127.283	0.809	-0.302	-0.213
-126.268	-200.000	-0.007	-0.129
-125.253	800.000	-0.034	-0.120
-124.239	250.176	-0.038	0.063
-123.224	-12.325	0.080	-0.052
-122.210	-200.000	-0.021	-0.140
-121.195	272.660	0.225	-0.391
