DTS Sentinel unit serial number:	SN413079Multiplexer serial number:	ORYXHardware model number:	OX4-SRSoftware version number:	ORYX F/W v4.00 Oryx Data Collector v3.7.2.0data status	okinstallation	princeton_trtdifferential loss correction	single-endedforward channel	channel 1reverse channel	N/Adate	2019/09/16time	09:22:35forward acquisition time	60.00reverse acquisition time	0.00gamma	496.2192k internal	0.2323k external	0.2323temperature offset calibration	0.9971default loss term (dB/km)	0.3790temperature slope calibration	1.0000multiplexer offset coefficient	1.0000multiplexer slope coefficient	1.0000fibre end	0.00T internal ref (°C)	31.47T ext. ref 1 (°C)	12.16T ext. ref 2 (°C)	29.12length (m)	temperature (°C)	Stokes	anti-Stokes-747.200	-17.992	-0.156	-0.099
-746.185	800.000	-0.063	-0.194
-745.171	-200.000	-0.045	0.216
-744.156	-26.159	-0.110	0.065
-743.142	-121.849	-0.226	-0.038
-742.127	800.000	0.084	0.245
-741.112	17.733	-0.110	0.089
-740.098	118.106	0.221	0.275
-739.083	-200.000	0.055	0.269
-738.069	93.794	0.044	-0.050
-737.054	212.268	-0.089	0.141
-736.039	-80.358	-0.247	-0.083
-735.025	-200.000	0.023	0.141
-734.010	280.140	-0.133	0.240
-732.996	114.204	-0.162	-0.199
-731.981	-200.000	-0.268	-0.000
-730.966	-154.625	-0.462	0.031
-729.952	586.117	0.062	0.153
-728.937	-39.213	-0.206	-0.109
-727.923	-168.523	0.066	0.003
-726.908	268.054	-0.179	0.316
-725.894	406.319	-0.069	0.146
-724.879	297.399	-0.071	-0.131
-723.864	-200.000	-0.040	0.288
-722.850	186.761	0.028	-0.043
-721.835	-133.228	0.021	0.003
-720.821	-200.000	0.011	-0.085
-719.806	800.000	-0.055	-0.161
-718.791	-200.000	-0.011	0.073
-717.777	-44.095	-0.218	0.110
-716.762	102.604	-0.289	-0.342
-715.748	-200.000	0.022	0.197
-714.733	-54.351	-0.126	-0.058
-713.718	-200.000	0.007	-0.182
-712.704	-76.229	-0.217	-0.077
-711.689	-131.010	0.163	-0.022
-710.675	-95.661	0.340	-0.092
-709.660	67.723	0.183	0.189
-708.645	-105.164	-0.311	0.072
-707.631	260.098	-0.158	-0.275
-706.616	800.000	-0.072	-0.215
-705.602	417.732	-0.063	-0.137
-704.587	55.964	0.195	0.191
-703.572	224.401	0.070	0.114
-702.558	-22.789	-0.134	-0.082
-701.543	800.000	-0.033	0.139
-700.529	108.662	0.115	-0.138
-699.514	-200.000	-0.004	-0.291
-698.499	-53.389	0.164	0.076
-697.485	-200.000	0.030	0.282
-696.470	86.002	-0.248	0.275
-695.456	-96.827	-0.109	0.029
-694.441	222.875	-0.180	-0.292
-693.426	762.542	-0.058	-0.159
-692.412	-200.000	-0.008	0.142
-691.397	23.994	-0.140	-0.116
-690.383	198.203	-0.169	-0.261
-689.368	152.357	0.194	0.267
-688.354	111.327	-0.034	0.041
-687.339	226.041	0.100	-0.164
-686.324	277.789	0.158	-0.283
-685.310	-200.000	0.022	0.200
-684.295	587.925	-0.094	0.232
-683.281	-191.619	0.327	0.003
-682.266	-125.304	0.162	-0.025
-681.251	-77.432	0.140	-0.049
-680.237	-200.000	-0.025	-0.164
-679.222	162.667	-0.135	-0.191
-678.208	-56.089	-0.278	-0.125
-677.193	242.911	0.062	-0.104
-676.178	197.434	-0.142	0.218
-675.164	-155.734	0.398	0.026
-674.149	-113.977	-0.344	-0.067
-673.135	-11.596	0.205	-0.135
-672.120	-56.533	0.114	0.051
-671.105	-87.218	-0.230	-0.070
-670.091	381.432	-0.134	-0.278
-669.076	604.798	0.021	-0.053
-668.062	455.781	-0.064	0.143
-667.047	-42.723	0.315	-0.161
-666.032	87.303	0.168	-0.188
-665.018	-200.000	0.017	0.167
-664.003	-128.811	0.266	0.038
-662.989	-107.398	-0.104	0.023
-661.974	-200.000	-0.014	0.271
-660.959	-200.000	0.011	0.254
-659.945	-1.213	-0.241	-0.172
-658.930	800.000	0.072	-0.246
-657.916	-30.473	0.220	-0.126
-656.901	-41.583	0.203	-0.105
-655.886	154.573	0.109	0.151
-654.872	108.391	-0.011	0.013
-653.857	-47.703	-0.404	0.197
-652.843	-23.807	-0.230	0.139
-651.828	314.231	-0.112	-0.213
-650.814	-200.000	0.022	-0.184
-649.799	27.743	0.201	0.170
-648.784	-200.000	-0.006	0.085
-647.770	482.651	-0.021	0.048
-646.755	-200.000	0.019	0.202
-645.741	-25.563	0.341	0.203
-644.726	-200.000	-0.019	-0.308
-643.711	12.216	0.266	0.206
-642.697	-114.140	0.208	0.041
-641.682	-200.000	-0.038	0.492
-640.668	-200.000	-0.018	0.156
-639.653	-200.000	0.071	-0.334
-638.638	800.000	-0.085	-0.269
-637.624	133.702	-0.024	0.031
-636.609	432.977	0.056	-0.122
-635.595	-153.463	-0.154	0.011
-634.580	-200.000	0.039	-0.230
-633.565	-137.762	-0.325	-0.037
-632.551	-128.856	-0.233	-0.033
-631.536	-119.138	0.259	-0.046
-630.522	-200.000	-0.029	-0.459
-629.507	800.000	0.069	-0.274
-628.492	109.826	0.147	0.177
-627.478	-200.000	-0.037	-0.180
-626.463	-200.000	-0.009	-0.078
-625.449	-104.096	-0.124	-0.029
-624.434	-29.652	-0.266	-0.153
-623.419	-200.000	0.004	-0.177
-622.405	-200.000	0.016	-0.171
-621.390	-13.835	0.152	0.099
-620.376	-30.827	0.131	0.074
-619.361	-150.243	-0.368	-0.029
-618.346	147.013	-0.225	0.304
-617.332	800.000	-0.049	-0.173
-616.317	36.241	0.191	-0.169
-615.303	-102.975	-0.200	-0.048
-614.288	2.015	-0.097	0.070
-613.273	-59.937	-0.208	-0.089
-612.259	339.596	-0.172	0.337
-611.244	3.865	-0.160	-0.118
-610.230	49.384	0.154	0.146
-609.215	-173.603	0.117	-0.004
-608.201	-60.663	-0.212	-0.090
-607.186	-135.215	-0.086	-0.010
-606.171	-200.000	0.009	-0.058
-605.157	9.290	0.177	0.135
-604.142	32.881	0.288	0.251
-603.128	800.000	-0.042	-0.146
-602.113	357.805	0.088	-0.176
-601.098	23.620	-0.112	-0.092
-600.084	200.744	0.133	-0.205
-599.069	313.180	-0.069	0.130
-598.055	-26.492	0.194	0.114
-597.040	161.338	-0.117	-0.164
-596.025	-200.000	0.028	0.126
-595.011	105.247	0.067	-0.080
-593.996	199.385	-0.117	-0.180
-592.982	-5.113	-0.138	-0.096
-591.967	-200.000	0.043	-0.229
-590.952	-200.000	-0.020	-0.351
-589.938	-16.361	-0.248	-0.158
-588.923	-132.586	-0.411	0.053
-587.909	-200.000	-0.001	-0.088
-586.894	537.172	-0.080	0.190
-585.879	-140.527	0.168	-0.017
-584.865	-12.985	-0.447	0.292
-583.850	800.000	-0.072	0.223
-582.836	800.000	0.006	0.021
-581.821	48.094	-0.216	0.203
-580.806	800.000	0.094	-0.338
-579.792	-137.743	0.108	0.012
-578.777	-200.000	-0.021	0.213
-577.763	239.048	-0.244	0.406
-576.748	356.426	-0.178	0.357
-575.733	800.000	-0.098	-0.290
-574.719	-190.406	-0.194	0.002
-573.704	-177.314	-0.348	0.009
-572.690	800.000	0.100	0.290
-571.675	-63.476	-0.163	-0.067
-570.661	-131.231	0.263	-0.035
-569.646	-160.033	0.160	0.009
-568.631	800.000	0.007	-0.020
-567.617	5.926	0.145	0.107
-566.602	256.469	0.039	0.066
-565.588	189.832	0.029	0.043
-564.573	800.000	0.036	0.159
-563.558	112.473	0.182	0.221
-562.544	-200.000	0.003	-0.338
-561.529	-70.152	-0.341	-0.130
-560.515	-92.423	0.554	0.156
-559.500	68.769	0.232	-0.239
-558.485	192.957	0.330	-0.500
-557.471	-169.782	-0.181	0.007
-556.456	378.995	0.150	-0.308
-555.442	-200.000	-0.014	0.150
-554.427	-156.294	-0.396	-0.025
-553.412	-200.000	-0.032	-0.145
-552.398	-200.000	-0.011	-0.107
-551.383	-96.566	0.305	0.081
-550.369	-200.000	0.021	0.271
-549.354	-8.082	0.185	0.125
-548.339	-200.000	-0.058	-0.329
-547.325	-200.000	0.018	-0.171
-546.310	-33.090	0.239	0.133
-545.296	-81.033	0.183	0.061
-544.281	-52.378	0.292	0.136
-543.266	-200.000	-0.023	-0.304
-542.252	-70.981	-0.178	-0.067
-541.237	439.261	-0.097	-0.213
-540.223	105.744	-0.216	0.256
-539.208	-167.292	0.444	-0.018
-538.193	238.606	0.151	0.251
-537.179	-6.975	-0.136	-0.093
-536.164	317.067	0.094	0.178
-535.150	800.000	-0.061	0.261
-534.135	-91.940	0.086	-0.024
-533.121	74.797	-0.159	0.168
-532.106	101.353	-0.102	-0.119
-531.091	-58.936	0.137	0.059
-530.077	107.165	0.113	-0.135
-529.062	-200.000	0.021	-0.187
-528.048	207.240	0.036	-0.056
-527.033	29.857	-0.146	0.125
-526.018	307.368	0.092	-0.172
-525.004	31.989	-0.048	-0.041
-523.989	-17.655	-0.148	0.093
-522.975	-200.000	-0.020	-0.181
-521.960	29.302	-0.100	-0.085
-520.945	-6.688	0.183	-0.124
-519.931	168.473	0.038	-0.054
-518.916	-97.765	-0.159	-0.041
-517.902	-101.104	-0.211	-0.052
-516.887	150.991	-0.166	-0.226
-515.872	-127.419	0.200	-0.029
-514.858	245.432	0.168	0.282
-513.843	61.298	-0.139	0.138
-512.829	515.367	-0.169	-0.395
-511.814	90.716	-0.259	0.291
-510.799	-124.588	0.084	0.013
-509.785	-129.543	-0.136	0.019
-508.770	-200.000	-0.018	-0.088
-507.756	-111.482	-0.060	-0.012
-506.741	278.119	-0.076	-0.136
-505.726	38.002	0.046	-0.041
-504.712	213.842	-0.063	0.100
-503.697	-21.470	0.138	0.084
-502.683	-105.864	0.252	-0.057
-501.668	-71.919	-0.045	0.017
-500.653	329.992	0.100	-0.193
-499.639	279.897	-0.022	-0.040
-498.624	-16.386	0.162	0.103
-497.610	-69.923	-0.172	-0.066
-496.595	800.000	-0.080	-0.327
-495.581	-200.000	0.018	0.118
-494.566	17.358	0.106	0.084
-493.551	-92.550	0.188	-0.053
-492.537	-164.532	0.408	-0.019
-491.522	-200.000	-0.060	0.345
-490.508	78.497	-0.278	0.297
-489.493	78.617	0.076	0.082
-488.478	-72.100	-0.307	-0.114
-487.464	-18.867	-0.278	-0.173
-486.449	-200.000	-0.008	0.365
-485.435	-200.000	0.015	0.245
-484.420	218.503	-0.020	0.033
-483.405	-95.751	0.384	-0.103
-482.391	-200.000	-0.036	0.213
-481.376	706.146	-0.092	-0.244
-480.362	82.435	0.204	-0.221
-479.347	-148.511	0.220	0.018
-478.332	-168.128	-0.279	0.011
-477.318	102.109	0.105	-0.122
-476.303	-147.905	0.413	-0.034
-475.289	-130.201	0.347	0.047
-474.274	-23.081	0.359	-0.216
-473.259	162.406	0.218	-0.306
-472.245	-200.000	-0.036	-0.162
-471.230	-120.281	-0.206	0.035
-470.216	-200.000	-0.015	0.311
-469.201	-19.409	0.172	-0.107
-468.186	-92.676	0.109	0.031
-467.172	-107.253	-0.326	-0.072
-466.157	0.476	0.029	-0.020
-465.143	455.842	-0.083	-0.183
-464.128	-67.985	0.379	-0.148
-463.113	-126.329	0.069	-0.010
-462.099	800.000	0.053	-0.212
-461.084	-200.000	-0.048	0.212
-460.070	794.550	-0.124	0.340
-459.055	119.673	0.202	0.249
-458.040	-99.372	-0.035	-0.009
-457.026	-82.710	0.151	0.049
-456.011	301.870	0.058	0.107
-454.997	-200.000	0.032	0.142
-453.982	61.279	-0.249	-0.247
-452.968	208.281	-0.028	-0.043
-451.953	78.976	0.051	-0.055
-450.938	-200.000	0.025	0.147
-449.924	-61.565	-0.176	0.074
-448.909	-97.004	0.140	0.037
-447.895	-184.325	0.055	0.001
-446.880	800.000	-0.030	-0.129
-445.865	800.000	0.022	-0.061
-444.851	800.000	-0.024	0.080
-443.836	-200.000	0.012	0.149
-442.822	-81.176	-0.188	0.062
-441.807	121.069	-0.257	0.319
-440.792	62.700	0.371	-0.370
-439.778	48.749	0.096	-0.090
-438.763	-71.522	-0.453	-0.169
-437.749	800.000	-0.008	0.029
-436.734	-200.000	-0.014	0.260
-435.719	-132.422	0.106	0.014
-434.705	2.802	0.103	0.075
-433.690	-200.000	-0.019	-0.206
-432.676	-14.488	-0.155	-0.099
-431.661	-184.797	-0.055	-0.001
-430.646	-70.197	0.196	-0.074
-429.632	-102.534	-0.414	-0.099
-428.617	161.333	0.039	-0.055
-427.603	-20.849	0.147	-0.090
-426.588	-200.000	0.008	0.050
-425.573	-190.532	-0.456	0.005
-424.559	72.594	0.105	0.109
-423.544	-19.335	-0.013	0.008
-422.530	-188.543	0.344	-0.004
-421.515	-48.733	-0.321	0.154
-420.500	800.000	-0.042	0.178
-419.486	-17.939	-0.247	0.155
-418.471	79.587	-0.058	-0.062
-417.457	800.000	-0.048	-0.154
-416.442	363.242	-0.054	-0.109
-415.428	-38.215	0.409	0.216
-414.413	-26.014	-0.140	-0.082
-413.398	-35.557	0.170	0.092
-412.384	-87.987	0.206	0.062
-411.369	-200.000	-0.003	0.151
-410.355	-200.000	0.026	0.223
-409.340	-98.578	0.125	-0.032
-408.325	-123.780	-0.282	0.044
-407.311	154.729	0.097	0.133
-406.296	91.157	-0.292	0.326
-405.282	724.606	0.030	-0.078
-404.267	279.020	-0.134	0.238
-403.252	8.671	-0.099	0.074
-402.238	-77.741	0.222	-0.076
-401.223	-27.751	-0.099	-0.057
-400.209	-110.023	0.146	0.030
-399.194	800.000	-0.072	-0.201
-398.179	5.489	0.186	0.137
-397.165	45.980	-0.066	0.061
-396.150	435.944	0.060	0.130
-395.136	282.507	-0.040	-0.072
-394.121	-79.458	0.286	0.096
-393.106	800.000	-0.036	-0.129
-392.092	347.329	-0.051	0.101
-391.077	800.000	0.043	-0.129
-390.063	111.733	-0.140	0.168
-389.048	214.765	0.110	0.173
-388.033	-200.000	0.003	0.024
-387.019	-71.138	-0.468	-0.175
-386.004	-92.533	-0.059	0.016
-384.990	180.668	0.120	0.175
-383.975	-132.327	-0.060	0.008
-382.960	-87.401	0.264	0.080
-381.946	727.736	0.042	-0.112
-380.931	-7.885	-0.266	0.179
-379.917	-18.691	-0.218	0.135
-378.902	542.694	0.028	-0.067
-377.888	155.462	-0.210	-0.287
-376.873	201.801	0.085	-0.130
-375.858	-85.014	-0.447	0.140
-374.844	-200.000	-0.012	-0.141
-373.829	220.143	0.137	0.218
-372.815	278.799	0.137	0.244
-371.800	-200.000	0.004	-0.105
-370.785	-102.048	0.356	-0.085
-369.771	-164.441	-0.225	-0.010
-368.756	-129.890	-0.214	-0.029
-367.742	-140.649	0.123	-0.013
-366.727	254.209	0.136	0.232
-365.712	-86.838	-0.207	-0.063
-364.698	-25.782	-0.258	0.152
-363.683	-94.484	0.277	-0.075
-362.669	-200.000	0.006	-0.092
-361.654	-200.000	0.028	-0.265
-360.639	188.196	0.052	0.078
-359.625	-172.974	-0.399	-0.012
-358.610	800.000	-0.063	0.205
-357.596	-200.000	-0.021	0.206
-356.581	-68.322	-0.222	-0.086
-355.566	-200.000	-0.137	-0.000
-354.552	38.876	0.365	-0.324
-353.537	-12.607	0.176	-0.114
-352.523	-200.000	0.018	-0.296
-351.508	4.390	0.139	-0.101
-350.493	800.000	0.026	0.089
-349.479	324.026	-0.063	0.120
-348.464	0.348	-0.137	0.097
-347.450	-72.654	-0.035	0.013
-346.435	92.476	0.095	-0.107
-345.420	68.806	-0.114	0.116
-344.406	-200.000	-0.004	0.122
-343.391	-111.466	0.047	-0.010
-342.377	-54.487	-0.455	0.205
-341.362	287.731	-0.127	0.228
-340.348	800.000	-0.064	-0.223
-339.333	-200.000	0.040	0.178
-338.318	144.089	0.047	-0.062
-337.304	36.422	0.227	0.199
-336.289	-131.290	0.144	0.019
-335.275	-74.985	0.153	0.054
-334.260	800.000	0.071	-0.255
-333.245	-200.000	0.027	-0.146
-332.231	-200.000	-0.015	0.238
-331.216	130.623	-0.171	0.217
-330.202	-39.999	-0.178	-0.092
-329.187	-68.379	-0.356	-0.137
-328.172	-41.823	-0.149	0.076
-327.158	-200.000	-0.002	0.017
-326.143	-55.934	0.083	-0.037
-325.129	-200.000	-0.029	0.190
-324.114	522.326	-0.082	0.192
-323.099	75.492	-0.259	0.271
-322.085	183.483	0.033	0.049
-321.070	34.734	0.151	-0.131
-320.056	-4.267	0.321	0.221
-319.041	-200.000	-0.010	-0.242
-318.026	-3.504	-0.180	0.124
-317.012	-27.386	-0.136	-0.078
-315.997	-98.092	-0.189	-0.048
-314.983	800.000	-0.047	-0.163
-313.968	800.000	-0.092	0.307
-312.953	-4.750	-0.136	0.093
-311.939	-44.123	-0.102	-0.051
-310.924	-125.491	-0.155	0.023
-309.910	177.638	-0.116	0.167
-308.895	5.668	0.065	-0.048
-307.880	-82.313	0.161	-0.052
-306.866	-77.855	-0.097	0.033
-305.851	74.428	-0.165	0.172
-304.837	-59.742	0.174	-0.074
-303.822	-200.000	-0.004	-0.020
-302.807	800.000	-0.083	-0.344
-301.793	389.459	-0.092	0.190
-300.778	-67.619	-0.185	-0.072
-299.764	79.407	-0.138	-0.147
-298.749	-3.083	0.119	0.083
-297.735	-59.795	-0.328	0.139
-296.720	-147.407	0.104	-0.009
-295.705	193.199	-0.030	-0.045
-294.691	20.965	-0.261	-0.210
-293.676	-58.352	0.228	-0.098
-292.662	-152.647	0.238	-0.017
-291.647	-98.674	-0.070	-0.018
-290.632	-148.142	0.214	0.018
-289.618	800.000	-0.063	0.271
-288.603	-41.408	0.204	0.104
-287.589	2.160	0.251	0.180
-286.574	431.641	-0.068	-0.145
-285.559	-200.000	0.034	-0.218
-284.545	-143.951	0.189	-0.018
-283.530	-197.083	0.165	0.001
-282.516	-81.781	0.063	-0.021
-281.501	-200.000	0.057	-0.254
-280.486	-92.269	0.097	0.027
-279.472	16.145	-0.121	-0.095
-278.457	-40.575	-0.348	0.179
-277.443	485.124	-0.073	0.165
-276.428	-57.692	0.080	0.035
-275.413	-200.000	-0.020	-0.224
-274.399	-189.937	0.222	-0.002
-273.384	800.000	0.056	0.197
-272.370	18.583	0.111	0.088
-271.355	-179.152	-0.108	0.002
-270.340	12.084	-0.237	-0.181
-269.326	442.677	-0.111	-0.240
-268.311	159.097	-0.067	0.092
-267.297	10.787	0.192	-0.145
-266.282	-200.000	-0.002	-0.013
-265.267	147.765	0.129	-0.173
-264.253	-108.013	-0.157	0.034
-263.238	44.431	0.098	0.089
-262.224	-123.061	0.226	-0.036
-261.209	234.965	-0.066	-0.108
-260.195	800.000	0.094	0.257
-259.180	390.779	-0.185	0.381
-258.165	295.181	0.168	-0.304
-257.151	-24.817	-0.435	0.256
-256.136	-119.428	-0.207	0.036
-255.122	58.628	0.198	0.192
-254.107	-105.011	0.098	-0.022
-253.092	435.410	-0.022	0.048
-252.078	-48.200	-0.030	0.014
-251.063	33.000	0.239	-0.205
-250.049	-73.406	0.400	-0.145
-249.034	-67.990	-0.051	0.020
-248.019	98.852	0.111	0.127
-247.005	-44.538	0.249	0.123
-245.990	-7.336	-0.207	0.139
-244.976	-1.929	0.364	0.253
-243.961	800.000	-0.044	0.176
-242.946	-162.877	-0.139	0.007
-241.932	94.150	0.100	0.113
-240.917	-111.817	-0.189	0.038
-239.903	30.745	0.210	-0.178
-238.888	-140.841	-0.186	-0.019
-237.873	575.258	0.069	0.167
-236.859	800.000	-0.047	0.136
-235.844	-50.713	-0.115	0.054
-234.830	40.063	0.059	0.053
-233.815	163.914	-0.068	-0.095
-232.800	43.228	0.203	-0.183
-231.786	-200.000	-0.007	-0.171
-230.771	-11.304	-0.071	-0.046
-229.757	-73.561	-0.147	-0.053
-228.742	-200.000	-0.014	-0.196
-227.727	-200.000	0.029	-0.151
-226.713	473.685	-0.039	0.086
-225.698	-81.255	0.168	-0.055
-224.684	507.861	0.128	-0.293
-223.669	-99.402	-0.285	0.071
-222.655	-60.348	0.186	0.078
-221.640	800.000	0.099	0.276
-220.625	14.188	0.163	-0.126
-219.611	-108.535	0.314	-0.067
-218.596	-32.828	-0.062	-0.034
-217.582	-81.385	-0.272	0.089
-216.567	156.397	-0.123	-0.169
-215.552	-36.272	0.212	0.113
-214.538	100.015	-0.066	0.076
-213.523	-19.748	0.189	0.116
-212.509	92.286	-0.069	-0.076
-211.494	-200.000	-0.019	0.164
-210.479	-200.000	-0.002	-0.034
-209.465	574.693	-0.055	0.132
-208.450	-6.344	0.113	-0.076
-207.436	-76.571	0.441	-0.153
-206.421	61.924	-0.130	0.129
-205.406	-52.503	-0.182	-0.083
-204.392	800.000	0.102	-0.327
-203.377	438.734	0.063	-0.136
-202.363	-11.960	-0.144	-0.093
-201.348	-133.065	-0.223	0.028
-200.333	-200.000	0.010	0.139
-199.319	156.072	0.106	-0.144
-198.304	-200.000	0.070	-0.370
-197.290	-55.475	-0.264	-0.117
-196.275	800.000	-0.026	-0.104
-195.260	-200.000	-0.000	-0.398
-194.246	-51.543	0.214	-0.099
-193.231	-17.345	0.235	-0.147
-192.217	729.191	-0.081	-0.215
-191.202	-200.000	-0.041	-0.213
-190.187	225.470	0.206	0.330
-189.173	-200.000	-0.017	-0.120
-188.158	165.293	0.075	0.105
-187.144	-26.897	0.376	0.217
-186.129	800.000	-0.052	0.212
-185.114	749.265	-0.033	0.088
-184.100	661.182	0.058	0.147
-183.085	52.698	0.138	-0.131
-182.071	-81.958	0.401	-0.129
-181.056	-116.945	0.084	-0.015
-180.042	63.520	0.121	0.120
-179.027	-121.508	-0.175	-0.029
-178.012	-93.868	0.181	0.049
-176.998	494.095	-0.050	-0.112
-175.983	-146.385	0.165	0.014
-174.969	-140.562	-0.298	-0.031
-173.954	-200.000	-0.026	-0.246
-172.939	-161.826	0.301	-0.015
-171.925	82.419	0.103	-0.110
-170.910	13.520	0.101	-0.077
-169.896	-200.000	-0.022	0.277
-168.881	800.000	-0.040	0.115
-167.866	800.000	-0.042	0.119
-166.852	254.171	0.146	0.247
-165.837	36.208	-0.247	0.215
-164.823	-197.240	-0.149	0.001
-163.808	-45.927	-0.330	-0.161
-162.793	779.318	0.103	0.279
-161.779	-125.095	0.097	0.015
-160.764	35.757	-0.348	-0.302
-159.750	800.000	0.035	0.140
-158.735	-200.000	-0.001	-0.032
-157.720	399.949	-0.046	0.095
-156.706	123.589	-0.164	-0.203
-155.691	113.959	0.095	-0.115
-154.677	-200.000	-0.018	-0.428
-153.662	-200.000	0.076	0.415
-152.647	-125.110	0.085	-0.013
-151.633	77.830	-0.083	-0.088
-150.618	-62.884	0.308	0.126
-149.604	276.318	-0.145	-0.254
-148.589	177.753	-0.106	-0.153
-147.574	169.162	0.271	0.382
-146.560	-132.523	0.220	-0.028
-145.545	177.942	0.071	-0.103
-144.531	-83.671	0.256	-0.081
-143.516	61.329	-0.059	0.058
-142.502	-28.411	0.055	0.031
-141.487	171.675	-0.133	-0.189
-140.472	800.000	-0.107	-0.367
-139.458	-94.796	-0.490	-0.131
-138.443	-164.869	0.310	0.014
-137.429	-200.000	0.061	-0.330
-136.414	293.086	-0.057	0.103
-135.399	-200.000	0.021	0.155
-134.385	365.958	-0.150	0.298
-133.370	800.000	0.015	0.059
-132.356	6.513	-0.187	0.137
-131.341	-87.200	-0.317	-0.095
-130.326	0.142	0.150	0.106
-129.312	-148.645	0.035	0.003
-128.297	-24.627	-0.257	-0.151
-127.283	-131.829	-0.378	0.049
-126.268	-103.256	0.125	-0.029
-125.253	355.020	0.038	0.075
-124.239	156.122	-0.292	0.397
-123.224	-52.724	0.234	0.106
-122.210	58.280	0.223	0.215
