DTS Sentinel unit serial number:	SN413079Multiplexer serial number:	ORYXHardware model number:	OX4-SRSoftware version number:	ORYX F/W v4.00 Oryx Data Collector v3.7.2.0data status	okinstallation	princeton_trtdifferential loss correction	single-endedforward channel	channel 1reverse channel	N/Adate	2019/09/18time	16:58:35forward acquisition time	60.00reverse acquisition time	0.00gamma	496.2192k internal	0.2292k external	0.2292temperature offset calibration	0.9997default loss term (dB/km)	0.3790temperature slope calibration	1.0000multiplexer offset coefficient	1.0000multiplexer slope coefficient	1.0000fibre end	0.00T internal ref (°C)	40.06T ext. ref 1 (°C)	0.86T ext. ref 2 (°C)	35.15length (m)	temperature (°C)	Stokes	anti-Stokes-747.200	275.135	-0.088	0.161
-746.185	800.000	-0.032	0.132
-745.171	-127.163	-0.346	-0.052
-744.156	800.000	0.140	0.555
-743.142	45.613	-0.063	0.059
-742.127	-200.000	0.292	0.000
-741.112	-79.881	0.445	-0.153
-740.098	692.088	0.108	0.289
-739.083	661.720	0.051	0.134
-738.069	-84.747	-0.211	0.068
-737.054	800.000	0.042	-0.171
-736.039	89.073	-0.234	-0.266
-735.025	-200.000	0.068	0.348
-734.010	-200.000	0.010	-0.285
-732.996	-200.000	-0.040	-0.247
-731.981	-197.914	-0.411	-0.003
-730.966	-45.057	-0.310	0.158
-729.952	-167.946	0.356	-0.014
-728.937	103.197	0.098	-0.117
-727.923	164.940	0.190	-0.274
-726.908	589.910	-0.097	-0.244
-725.894	-99.871	0.278	-0.071
-724.879	-59.851	0.458	0.200
-723.864	-98.597	0.059	-0.015
-722.850	46.708	0.174	-0.165
-721.835	-23.482	0.105	-0.064
-720.821	-200.000	0.033	0.305
-719.806	80.557	-0.228	-0.251
-718.791	51.694	-0.102	-0.100
-717.777	-200.000	0.067	0.312
-716.762	-91.330	-0.131	0.038
-715.748	-200.000	0.035	0.248
-714.733	278.988	-0.065	0.119
-713.718	-161.983	0.426	-0.022
-712.704	12.358	-0.211	-0.167
-711.689	339.028	-0.185	-0.368
-710.675	-34.460	0.396	-0.222
-709.660	43.096	0.174	-0.163
-708.645	114.724	-0.071	0.089
-707.631	21.671	0.114	0.095
-706.616	456.952	-0.052	0.118
-705.602	44.516	-0.168	0.157
-704.587	-200.000	0.015	0.069
-703.572	800.000	0.059	0.192
-702.558	199.319	-0.052	0.081
-701.543	800.000	-0.105	-0.315
-700.529	-30.803	0.106	0.061
-699.514	-195.162	-0.191	-0.001
-698.499	682.098	-0.097	-0.258
-697.485	49.797	-0.120	-0.116
-696.470	-164.174	-0.049	-0.002
-695.456	-69.998	0.220	-0.086
-694.441	-200.000	-0.011	0.447
-693.426	73.215	-0.126	-0.135
-692.412	-29.576	-0.043	-0.025
-691.397	800.000	0.081	-0.284
-690.383	-152.325	-0.243	-0.018
-689.368	-200.000	-0.005	0.162
-688.354	305.863	-0.098	0.186
-687.339	-85.518	0.177	-0.056
-686.324	251.767	-0.176	-0.307
-685.310	-43.121	0.067	-0.035
-684.295	54.641	-0.290	0.285
-683.281	-54.967	-0.250	-0.115
-682.266	-173.366	-0.209	0.006
-681.251	236.380	-0.048	0.081
-680.237	-48.406	-0.193	-0.095
-679.222	-75.070	0.206	0.075
-678.208	-26.718	-0.442	0.264
-677.193	350.075	-0.164	-0.331
-676.178	-85.304	-0.260	-0.083
-675.164	-200.000	-0.019	0.145
-674.149	-200.000	0.025	-0.288
-673.135	-96.035	0.159	0.043
-672.120	261.619	-0.180	-0.318
-671.105	180.475	-0.118	-0.177
-670.091	-200.000	0.010	0.059
-669.076	-111.413	0.323	-0.067
-668.062	-136.501	-0.208	0.025
-667.047	800.000	0.039	0.171
-666.032	800.000	-0.031	-0.106
-665.018	-200.000	-0.028	-0.180
-664.003	53.379	-0.203	-0.199
-662.989	-43.451	0.280	0.144
-661.974	-200.000	-0.021	-0.165
-660.959	149.674	-0.110	-0.153
-659.945	-133.129	-0.112	0.014
-658.930	273.909	-0.228	-0.411
-657.916	-117.820	-0.159	-0.029
-656.901	-43.560	0.061	0.031
-655.886	-110.036	0.151	0.032
-654.872	-109.730	-0.108	-0.023
-653.857	800.000	0.051	0.190
-652.843	40.854	-0.243	0.224
-651.828	-34.742	-0.205	0.114
-650.814	122.543	0.023	-0.029
-649.799	19.352	0.371	-0.304
-648.784	-153.155	0.193	0.014
-647.770	-134.046	-0.445	0.056
-646.755	-106.496	0.372	-0.085
-645.741	-200.000	0.046	0.279
-644.726	-101.257	-0.183	0.046
-643.711	-200.000	0.014	-0.063
-642.697	-121.993	-0.224	0.038
-641.682	800.000	-0.058	-0.194
-640.668	132.763	0.175	-0.230
-639.653	-200.000	-0.012	-0.092
-638.638	-200.000	0.016	0.077
-637.624	-194.325	-0.099	0.001
-636.609	-102.647	0.029	-0.007
-635.595	-178.720	-0.188	-0.004
-634.580	256.423	0.145	-0.255
-633.565	-200.000	0.015	0.073
-632.551	95.551	-0.128	-0.149
-631.536	-200.000	-0.045	0.416
-630.522	-36.197	0.082	0.045
-629.507	-34.507	0.171	-0.095
-628.492	66.190	0.065	0.067
-627.478	571.169	-0.051	-0.126
-626.463	744.565	-0.052	-0.141
-625.449	-152.749	-0.216	0.016
-624.434	6.573	-0.051	-0.039
-623.419	98.737	-0.208	0.245
-622.405	-87.020	-0.348	0.108
-621.390	-93.855	0.218	-0.061
-620.376	-200.000	-0.069	-0.520
-619.361	-125.489	-0.294	-0.046
-618.346	-79.860	-0.308	-0.105
-617.332	255.930	-0.044	0.076
-616.317	4.367	-0.187	-0.140
-615.303	203.176	-0.117	-0.185
-614.288	800.000	-0.032	0.106
-613.273	-50.077	0.365	0.176
-612.259	163.983	0.120	0.172
-611.244	157.018	0.346	-0.487
-610.230	214.359	-0.026	-0.042
-609.215	402.794	-0.100	-0.213
-608.201	-114.839	0.043	-0.008
-607.186	-101.128	-0.177	0.044
-606.171	-200.000	-0.287	-0.001
-605.157	148.011	-0.232	-0.318
-604.142	738.310	-0.114	-0.310
-603.128	82.736	0.172	-0.191
-602.113	59.916	0.056	0.056
-601.098	192.366	0.068	-0.104
-600.084	-200.000	0.029	0.207
-599.069	34.388	0.189	-0.168
-598.055	124.048	0.248	0.317
-597.040	-102.869	0.401	0.097
-596.025	-200.000	0.016	-0.141
-595.011	-200.000	-0.020	-0.098
-593.996	22.244	0.077	0.064
-592.982	-123.991	0.281	0.045
-591.967	34.796	0.239	0.213
-590.952	133.199	-0.220	-0.289
-589.938	65.426	-0.278	-0.286
-588.923	-11.274	0.168	-0.112
-587.909	549.896	-0.074	-0.180
-586.894	-89.025	0.176	0.053
-585.879	164.133	0.106	0.152
-584.865	-200.000	0.033	-0.149
-583.850	-200.000	-0.012	-0.138
-582.836	-200.000	0.018	-0.237
-581.821	-96.978	-0.432	-0.115
-580.806	-106.826	-0.284	0.064
-579.792	-200.000	0.038	0.218
-578.777	-200.000	-0.005	-0.081
-577.763	341.783	0.064	0.128
-576.748	-89.675	0.130	-0.039
-575.733	800.000	0.046	-0.181
-574.719	-7.426	0.132	-0.091
-573.704	800.000	0.059	-0.212
-572.690	-200.000	0.017	-0.290
-571.675	31.797	0.086	-0.075
-570.661	800.000	0.090	0.390
-569.646	11.166	-0.069	0.054
-568.631	526.675	-0.080	-0.191
-567.617	800.000	0.031	-0.123
-566.602	167.882	-0.117	0.169
-565.588	46.628	0.145	-0.137
-564.573	52.283	-0.102	0.099
-563.558	-119.824	0.244	0.043
-562.544	100.865	0.210	0.248
-561.529	-200.000	-0.009	0.155
-560.515	800.000	-0.080	-0.344
-559.500	0.826	-0.154	0.112
-558.485	71.906	0.094	-0.100
-557.471	363.940	-0.149	0.305
-556.456	800.000	-0.072	-0.246
-555.442	800.000	0.032	-0.127
-554.427	-122.030	-0.252	0.042
-553.412	41.226	-0.127	-0.117
-552.398	-77.698	-0.112	0.039
-551.383	-94.223	0.350	-0.097
-550.369	-11.325	0.173	-0.116
-549.354	128.098	-0.074	-0.096
-548.339	-8.165	-0.107	-0.073
-547.325	-150.072	0.043	0.003
-546.310	-200.000	-0.018	0.111
-545.296	164.815	-0.087	0.125
-544.281	75.152	-0.038	0.040
-543.266	-110.468	0.294	-0.062
-542.252	241.285	0.160	-0.272
-541.237	246.686	-0.158	0.270
-540.223	773.554	0.046	0.127
-539.208	-56.280	0.310	-0.140
-538.193	-200.000	-0.062	0.633
-537.179	-200.000	0.023	0.167
-536.164	-71.525	0.126	0.048
-535.150	349.016	-0.055	0.110
-534.135	419.827	0.054	-0.118
-533.121	-200.000	-0.006	-0.194
-532.106	28.824	-0.039	0.034
-531.091	17.741	-0.080	0.065
-530.077	143.627	0.129	-0.174
-529.062	-200.000	0.014	0.070
-528.048	207.579	0.068	0.107
-527.033	800.000	0.095	0.268
-526.018	72.013	0.191	0.202
-525.004	-136.579	-0.164	-0.019
-523.989	-75.455	-0.313	0.113
-522.975	-200.000	-0.008	0.263
-521.960	65.157	-0.257	-0.263
-520.945	334.733	0.168	-0.329
-519.931	800.000	0.067	0.197
-518.916	-200.000	0.005	0.206
-517.902	800.000	0.087	0.296
-516.887	30.158	0.042	-0.037
-515.872	-75.632	0.161	0.058
-514.858	-200.000	0.028	0.191
-513.843	-133.029	-0.011	0.001
-512.829	-116.401	0.104	0.019
-511.814	121.034	-0.243	0.306
-510.799	-57.916	0.132	0.058
-509.785	800.000	0.066	0.216
-508.770	-200.000	-0.032	0.193
-507.756	-99.795	0.265	0.067
-506.741	-57.836	-0.206	-0.091
-505.726	64.608	-0.099	0.101
-504.712	-200.000	0.043	-0.242
-503.697	-23.770	0.130	-0.079
-502.683	-137.054	-0.195	0.023
-501.668	-200.000	-0.009	0.122
-500.653	-173.612	-0.264	0.008
-499.639	-98.575	0.474	0.123
-498.624	11.165	0.115	0.089
-497.610	-40.548	-0.301	0.158
-496.595	14.620	0.142	0.112
-495.581	-120.277	0.172	0.030
-494.566	800.000	-0.142	-0.527
-493.551	-101.594	-0.072	-0.018
-492.537	15.657	-0.037	0.030
-491.522	-200.000	-0.023	0.292
-490.508	81.160	-0.090	0.099
-489.493	-133.824	-0.100	-0.013
-488.478	741.171	-0.031	0.085
-487.464	369.507	-0.138	0.282
-486.449	233.406	0.163	0.271
-485.435	-200.000	0.016	0.273
-484.420	84.564	-0.130	0.144
-483.405	463.951	0.057	0.128
-482.391	26.494	-0.273	-0.231
-481.376	-82.225	-0.236	-0.078
-480.362	-200.000	0.058	0.295
-479.347	-7.993	0.222	0.151
-478.332	-12.402	0.233	0.154
-477.318	-200.000	0.039	-0.264
-476.303	153.499	0.303	0.420
-475.289	-104.311	-0.415	0.098
-474.274	63.019	0.273	-0.277
-473.259	232.565	-0.018	0.030
-472.245	209.279	-0.072	-0.115
-471.230	47.647	0.108	0.102
-470.216	-60.254	-0.161	-0.070
-469.201	67.665	-0.078	-0.080
-468.186	800.000	0.078	-0.301
-467.172	166.615	0.080	0.115
-466.157	800.000	-0.077	-0.335
-465.143	-200.000	-0.022	-0.488
-464.128	79.075	-0.136	-0.147
-463.113	194.070	0.117	-0.179
-462.099	433.282	-0.057	0.125
-461.084	61.276	-0.333	0.335
-460.070	101.612	0.130	0.154
-459.055	174.572	-0.137	0.201
-458.040	38.913	0.200	0.181
-457.026	-200.000	0.062	0.411
-456.011	99.096	-0.092	-0.108
-454.997	-92.195	0.595	-0.170
-453.982	-105.305	-0.235	0.054
-452.968	10.082	-0.081	0.062
-451.953	-106.802	0.262	0.059
-450.938	-200.000	-0.028	-0.172
-449.924	128.090	-0.068	0.087
-448.909	-127.293	-0.177	0.026
-447.895	70.622	-0.259	0.271
-446.880	-1.078	0.146	0.104
-445.865	2.471	0.227	-0.166
-444.851	80.662	-0.398	0.434
-443.836	-200.000	-0.016	0.226
-442.822	-153.131	-0.204	-0.014
-441.807	-104.944	-0.207	0.048
-440.792	9.746	-0.168	-0.129
-439.778	-111.793	0.216	-0.044
-438.763	66.683	0.098	-0.101
-437.749	-200.000	0.005	0.106
-436.734	-183.661	0.210	0.004
-435.719	-200.000	0.004	0.295
-434.705	721.029	-0.035	-0.095
-433.690	27.095	-0.182	0.155
-432.676	-118.326	0.215	-0.039
-431.661	-46.407	-0.275	0.136
-430.646	-19.226	-0.297	-0.187
-429.632	-200.000	-0.006	-0.232
-428.617	115.412	-0.277	-0.342
-427.603	-40.911	0.445	0.233
-426.588	-62.960	0.188	-0.078
-425.573	-151.071	0.260	0.020
-424.559	142.707	-0.120	0.161
-423.544	36.760	-0.192	0.171
-422.530	-139.676	-0.334	-0.036
-421.515	-53.060	-0.385	0.179
-420.500	-153.430	0.353	0.025
-419.486	-84.805	0.205	0.065
-418.471	795.053	0.082	0.228
-417.457	-83.821	0.194	-0.063
-416.442	-173.270	-0.374	-0.012
-415.428	-33.607	-0.051	-0.029
-414.413	-84.729	-0.100	0.032
-413.398	-88.067	-0.217	-0.066
-412.384	-180.378	0.413	-0.009
-411.369	-200.000	-0.006	-0.063
-410.355	-27.912	0.156	-0.091
-409.340	-200.000	0.002	0.008
-408.325	-138.797	-0.177	0.020
-407.311	800.000	-0.041	0.127
-406.296	-38.143	0.170	-0.091
-405.282	246.207	-0.214	0.365
-404.267	43.546	0.153	-0.142
-403.252	-200.000	-0.004	-0.091
-402.238	-95.660	0.115	0.031
-401.223	-200.000	0.015	0.101
-400.209	-103.777	-0.246	0.058
-399.194	-41.315	-0.084	-0.044
-398.179	-98.626	-0.382	-0.098
-397.165	76.944	0.274	0.294
-396.150	577.669	0.041	-0.102
-395.136	155.524	0.154	-0.214
-394.121	484.111	0.110	-0.253
-393.106	-141.950	0.591	-0.060
-392.092	-94.240	-0.119	-0.033
-391.077	-117.218	0.040	-0.007
-390.063	47.270	-0.069	0.065
-389.048	-200.000	-0.005	-0.195
-388.033	16.514	0.224	0.178
-387.019	199.480	0.267	-0.414
-386.004	-200.000	-0.031	-0.200
-384.990	676.451	-0.014	0.038
-383.975	-200.000	-0.034	0.198
-382.960	557.937	0.106	0.258
-381.946	-166.092	0.088	0.004
-380.931	152.585	0.058	0.080
-379.917	425.757	0.214	0.464
-378.902	-107.071	0.151	-0.034
-377.888	85.789	0.141	0.157
-376.873	309.145	-0.067	-0.127
-375.858	-200.000	0.017	0.128
-374.844	139.785	-0.155	0.207
-373.829	172.904	0.203	0.295
-372.815	800.000	-0.026	-0.080
-371.800	18.580	-0.068	0.055
-370.785	33.451	-0.162	0.141
-369.771	-101.658	-0.116	-0.028
-368.756	115.206	-0.168	-0.206
-367.742	-42.627	0.219	0.112
-366.727	-57.871	-0.449	0.198
-365.712	-200.000	-0.047	0.231
-364.698	-134.957	-0.232	0.028
-363.683	123.961	0.070	-0.088
-362.669	252.716	0.262	-0.451
-361.654	6.768	-0.210	-0.158
-360.639	5.146	0.046	0.034
-359.625	-12.524	-0.304	-0.200
-358.610	-101.589	0.167	0.041
-357.596	155.664	0.193	0.268
-356.581	214.723	0.175	0.279
-355.566	-84.730	-0.059	0.019
-354.552	-200.000	0.008	-0.061
-353.537	-200.000	0.023	0.416
-352.523	168.818	-0.080	0.114
-351.508	-200.000	0.020	0.118
-350.493	-23.633	0.189	0.114
-349.479	-200.000	0.009	-0.173
-348.464	-66.052	-0.344	-0.138
-347.450	112.661	0.213	-0.260
-346.435	-120.966	0.114	-0.019
-345.420	19.411	0.174	-0.141
-344.406	107.671	0.156	0.188
-343.391	-200.000	0.024	-0.139
-342.377	-15.366	0.342	-0.220
-341.362	405.959	0.136	-0.290
-340.348	-43.566	0.054	0.027
-339.333	12.542	0.214	0.166
-338.318	-92.240	0.218	0.062
-337.304	175.681	0.024	-0.034
-336.289	-200.000	0.009	0.437
-335.275	800.000	-0.059	-0.191
-334.260	-47.943	-0.088	-0.043
-333.245	403.205	-0.204	-0.433
-332.231	-119.540	0.258	-0.045
-331.216	-197.330	0.106	-0.001
-330.202	703.325	-0.062	-0.165
-329.187	142.110	0.079	-0.105
-328.172	-200.000	-0.017	-0.099
-327.158	-200.000	-0.041	0.326
-326.143	75.162	-0.237	-0.252
-325.129	-89.621	0.488	-0.144
-324.114	800.000	-0.059	-0.190
-323.099	-75.483	-0.139	-0.050
-322.085	143.955	-0.078	-0.105
-321.070	-188.461	0.266	-0.003
-320.056	141.757	-0.228	-0.305
-319.041	-88.220	-0.086	0.026
-318.026	-76.007	-0.150	0.053
-317.012	-54.157	0.025	-0.012
-315.997	-77.328	0.313	-0.110
-314.983	-65.267	-0.300	0.122
-313.968	-49.284	-0.252	-0.121
-312.953	-200.000	-0.004	0.041
-311.939	-200.000	0.005	-0.148
-310.924	-123.804	-0.198	-0.031
-309.910	-118.049	0.095	-0.017
-308.895	288.270	-0.033	-0.060
-307.880	-96.059	0.212	0.057
-306.866	206.587	-0.115	-0.180
-305.851	44.373	-0.343	0.317
-304.837	335.039	-0.143	0.278
-303.822	-200.000	0.006	-0.248
-302.807	125.813	0.213	-0.271
-301.793	-75.355	-0.090	-0.032
-300.778	132.338	-0.070	-0.091
-299.764	-7.115	0.269	0.184
-298.749	-133.641	-0.251	-0.032
-297.735	204.842	-0.010	0.016
-296.720	34.735	0.180	-0.158
-295.705	92.135	-0.263	-0.298
-294.691	-167.557	-0.161	-0.006
-293.676	295.721	-0.040	0.074
-292.662	-147.559	-0.045	0.004
-291.647	-27.745	-0.072	0.042
-290.632	800.000	0.061	-0.214
-289.618	-200.000	0.004	-0.095
-288.603	-200.000	-0.001	-0.025
-287.589	404.076	-0.062	-0.132
-286.574	97.983	-0.281	0.325
-285.559	-153.876	-0.227	-0.016
-284.545	-62.306	0.219	-0.091
-283.530	182.889	0.233	-0.346
-282.516	83.184	0.084	-0.092
-281.501	-200.000	0.005	-0.073
-280.486	-50.392	-0.377	-0.179
-279.472	-200.000	0.034	0.344
-278.457	-200.000	0.071	-0.470
-277.443	-2.438	0.108	-0.076
-276.428	-39.308	-0.461	0.243
-275.413	-96.827	-0.013	-0.003
-274.399	-37.540	-0.312	-0.167
-273.384	19.407	-0.197	-0.159
-272.370	-129.746	-0.069	-0.010
-271.355	800.000	-0.069	0.270
-270.340	153.127	-0.045	-0.062
-269.326	-90.911	-0.290	0.084
-268.311	465.999	0.071	-0.159
-267.297	-61.572	0.254	0.107
-266.282	226.982	0.132	-0.216
-265.267	182.570	0.018	-0.026
-264.253	800.000	0.056	-0.211
-263.238	-200.000	0.035	-0.161
-262.224	-200.000	0.037	0.372
-261.209	-113.182	0.116	-0.023
-260.195	560.531	0.040	0.097
-259.180	88.473	0.053	0.059
-258.165	-200.000	0.019	0.113
-257.151	-200.000	0.006	0.058
-256.136	800.000	0.026	-0.080
-255.122	-68.598	-0.207	-0.080
-254.107	131.924	-0.095	0.123
-253.092	-64.343	-0.088	0.036
-252.078	-125.757	-0.311	0.047
-251.063	206.453	0.140	-0.218
-250.049	-200.000	-0.013	0.065
-249.034	336.092	-0.176	0.343
-248.019	-46.520	0.222	0.109
-247.005	-2.458	-0.377	0.265
-245.990	163.019	0.167	0.235
-244.976	-35.779	0.259	0.141
-243.961	2.321	0.127	0.092
-242.946	12.601	-0.119	0.092
-241.932	166.230	-0.213	-0.303
-240.917	-36.432	-0.176	-0.095
-239.903	800.000	-0.061	-0.242
-238.888	67.950	-0.062	-0.064
-237.873	283.126	-0.044	0.079
-236.859	70.442	-0.092	-0.095
-235.844	-130.276	-0.179	-0.024
-234.830	-76.235	0.039	0.014
-233.815	151.836	0.069	0.094
-232.800	-171.967	0.169	0.006
-231.786	-54.723	0.157	-0.071
-230.771	-50.157	-0.092	-0.044
-229.757	177.529	0.180	-0.263
-228.742	536.167	0.079	-0.188
-227.727	104.879	-0.296	0.350
-226.713	-25.942	-0.220	-0.130
-225.698	-191.796	-0.233	0.002
-224.684	-112.338	0.118	0.024
-223.669	-108.547	-0.195	-0.042
-222.655	-200.000	0.011	0.090
-221.640	-200.000	0.039	-0.210
-220.625	-42.577	-0.146	-0.074
-219.611	-15.663	-0.032	0.021
-218.596	-33.489	-0.189	0.104
-217.582	29.753	0.414	0.354
-216.567	54.125	-0.204	0.197
-215.552	-200.000	-0.037	-0.208
-214.538	-17.328	0.159	-0.101
-213.523	45.355	-0.138	-0.128
-212.509	-82.467	0.096	-0.031
-211.494	-200.000	0.004	0.289
-210.479	-31.644	0.439	0.247
-209.465	-80.475	0.253	0.085
-208.450	-73.326	0.052	0.019
-207.436	-113.766	-0.080	-0.016
-206.421	-36.959	0.248	0.133
-205.406	211.132	0.126	0.198
-204.392	-45.012	-0.229	0.114
-203.377	-126.271	0.208	-0.031
-202.363	-86.057	0.495	-0.153
-201.348	208.636	-0.042	-0.067
-200.333	-74.190	-0.277	-0.100
-199.319	-111.058	0.349	-0.072
-198.304	-158.589	-0.085	0.005
-197.290	-22.114	-0.150	0.091
-196.275	-200.000	0.011	-0.188
-195.260	280.884	0.033	-0.060
-194.246	-91.911	0.329	0.093
-193.231	-200.000	0.043	-0.215
-192.217	-200.000	0.066	-0.418
-191.202	-200.000	0.016	-0.438
-190.187	244.999	0.186	0.313
-189.173	284.346	-0.026	0.047
-188.158	136.147	-0.168	-0.219
-187.144	0.936	0.186	-0.133
-186.129	87.837	0.046	-0.051
-185.114	94.952	-0.058	0.067
-184.100	-60.147	-0.179	-0.077
-183.085	-200.000	0.053	0.237
-182.071	-82.429	-0.108	0.035
-181.056	-200.000	0.052	-0.323
-180.042	-131.592	-0.117	0.015
-179.027	-83.266	0.138	0.045
-178.012	117.544	-0.071	0.088
-176.998	586.139	0.020	-0.050
-175.983	-200.000	0.006	-0.287
-174.969	-147.291	0.230	0.020
-173.954	21.711	0.223	-0.181
-172.939	800.000	0.080	0.228
-171.925	-200.000	-0.050	-0.321
-170.910	-200.000	-0.052	0.253
-169.896	227.999	0.143	-0.233
-168.881	425.311	0.099	-0.214
-167.866	-152.074	0.061	0.004
-166.852	-200.000	-0.008	-0.034
-165.837	-200.000	-0.012	0.431
-164.823	195.790	0.105	0.160
-163.808	-200.000	-0.015	0.074
-162.793	-125.679	-0.286	0.043
-161.779	-33.422	0.111	-0.062
-160.764	-59.681	-0.246	0.105
-159.750	-136.550	-0.222	-0.026
-158.735	800.000	-0.081	0.295
-157.720	160.280	-0.121	0.169
-156.706	362.681	0.028	0.056
-155.691	481.242	-0.095	0.215
-154.677	-177.109	-0.116	-0.003
-153.662	-200.000	-0.042	0.194
-152.647	-129.178	-0.070	-0.010
-151.633	-200.000	0.039	-0.233
-150.618	-189.997	0.284	0.003
-149.604	800.000	0.071	0.205
-148.589	157.705	0.293	0.405
-147.574	-62.355	0.179	0.074
-146.560	716.682	0.085	0.225
-145.545	133.218	0.095	-0.123
-144.531	125.251	0.104	-0.131
-143.516	137.684	0.051	0.067
-142.502	-39.549	0.239	-0.125
-141.487	-120.184	-0.553	0.095
-140.472	37.056	0.153	-0.135
-139.458	-119.306	0.113	-0.020
-138.443	76.019	0.194	0.205
-137.429	800.000	0.020	-0.074
-136.414	-137.128	-0.194	-0.022
-135.399	63.819	0.029	-0.029
-134.385	-131.471	0.444	0.059
-133.370	482.864	-0.138	0.314
-132.356	-146.226	-0.197	-0.017
-131.341	244.881	0.087	-0.146
-130.326	-200.000	0.020	0.222
-129.312	-122.408	0.209	0.034
-128.297	-133.822	-0.114	-0.014
-127.283	81.224	0.113	0.121
-126.268	-144.750	-0.146	0.013
-125.253	-111.105	0.265	-0.054
-124.239	41.941	0.206	-0.187
-123.224	-57.523	0.101	-0.044
-122.210	800.000	-0.118	0.327
