DTS Sentinel unit serial number:	SN413079Multiplexer serial number:	ORYXHardware model number:	OX4-SRSoftware version number:	ORYX F/W v4.00 Oryx Data Collector v3.7.2.0data status	okinstallation	princeton_trtdifferential loss correction	single-endedforward channel	channel 1reverse channel	N/Adate	2019/09/10time	17:56:11forward acquisition time	60.00reverse acquisition time	0.00gamma	496.2192k internal	0.2301k external	0.2301temperature offset calibration	0.9928default loss term (dB/km)	0.3790temperature slope calibration	1.0000multiplexer offset coefficient	1.0000multiplexer slope coefficient	1.0000fibre end	0.00T internal ref (°C)	37.28T ext. ref 1 (°C)	-0.34T ext. ref 2 (°C)	29.74length (m)	temperature (°C)	Stokes	anti-Stokes-747.200	800.000	-0.080	-0.236
-746.185	735.360	0.090	-0.245
-745.171	752.175	-0.101	-0.277
-744.156	197.951	0.214	0.333
-743.142	-37.924	0.046	-0.025
-742.127	107.261	-0.047	-0.057
-741.112	-32.229	-0.156	0.089
-740.098	405.847	-0.133	0.287
-739.083	-14.267	-0.076	-0.050
-738.069	323.624	0.087	0.169
-737.054	-7.690	0.139	-0.096
-736.039	-70.291	0.190	-0.073
-735.025	42.493	0.339	0.315
-734.010	-100.565	0.249	-0.063
-732.996	251.060	0.136	0.236
-731.981	-200.000	-0.032	0.238
-730.966	447.469	-0.031	-0.070
-729.952	32.927	-0.365	-0.322
-728.937	-179.912	-0.170	-0.004
-727.923	-90.406	-0.200	0.059
-726.908	172.208	0.153	0.223
-725.894	-43.137	0.100	0.052
-724.879	-96.955	0.424	-0.113
-723.864	-150.704	0.283	-0.022
-722.850	-134.944	0.196	0.024
-721.835	45.367	0.290	-0.272
-720.821	800.000	-0.069	-0.259
-719.806	800.000	-0.072	-0.251
-718.791	23.093	-0.139	0.116
-717.777	-151.769	-0.275	-0.021
-716.762	101.662	0.094	-0.111
-715.748	800.000	0.078	-0.295
-714.733	-39.309	-0.160	-0.086
-713.718	-66.487	0.173	-0.070
-712.704	674.741	0.044	-0.117
-711.689	264.586	-0.202	-0.358
-710.675	-158.702	0.330	-0.019
-709.660	222.046	-0.134	-0.220
-708.645	-17.709	-0.135	0.086
-707.631	120.407	-0.129	-0.162
-706.616	268.329	-0.127	-0.227
-705.602	-200.000	-0.003	-0.040
-704.587	800.000	0.017	-0.052
-703.572	800.000	-0.028	-0.099
-702.558	138.882	-0.085	0.114
-701.543	742.429	-0.042	0.115
-700.529	800.000	0.009	0.033
-699.514	-117.268	0.176	0.033
-698.499	800.000	0.141	-0.402
-697.485	200.738	0.133	-0.209
-696.470	-185.827	-0.207	0.003
-695.456	-140.828	0.402	-0.042
-694.441	-129.982	-0.114	-0.016
-693.426	791.457	0.071	0.198
-692.412	-58.633	0.250	0.110
-691.397	356.866	-0.104	-0.210
-690.383	-18.992	-0.235	0.149
-689.368	63.505	0.104	-0.107
-688.354	-177.963	0.350	0.008
-687.339	161.371	0.062	-0.088
-686.324	130.497	-0.128	0.167
-685.310	37.678	-0.131	-0.118
-684.295	141.818	-0.201	-0.271
-683.281	-153.845	-0.417	0.029
-682.266	-36.417	-0.202	0.111
-681.251	-19.296	0.267	-0.168
-680.237	-7.503	-0.120	-0.082
-679.222	-98.727	0.331	0.086
-678.208	260.831	0.035	-0.061
-677.193	369.932	0.069	-0.142
-676.178	-179.981	-0.177	-0.004
-675.164	-200.000	0.011	0.230
-674.149	-65.791	0.196	-0.080
-673.135	-10.025	-0.180	0.122
-672.120	-200.000	0.001	-0.023
-671.105	82.533	0.100	-0.110
-670.091	-200.000	0.008	0.154
-669.076	800.000	-0.037	0.112
-668.062	800.000	-0.112	-0.368
-667.047	-200.000	0.033	-0.250
-666.032	151.354	-0.061	0.085
-665.018	183.811	0.107	0.161
-664.003	119.175	-0.089	0.112
-662.989	56.050	-0.211	-0.208
-661.974	-42.657	-0.240	-0.124
-660.959	161.853	0.083	0.118
-659.945	426.813	-0.192	0.421
-658.930	-198.765	-0.227	-0.001
-657.916	-71.416	-0.041	0.016
-656.901	180.250	-0.150	-0.224
-655.886	-133.105	-0.282	0.036
-654.872	-160.802	-0.214	0.011
-653.857	678.952	-0.007	0.017
-652.843	-56.149	-0.231	-0.105
-651.828	-200.000	-0.037	-0.235
-650.814	-200.000	-0.011	0.072
-649.799	-29.462	-0.244	0.142
-648.784	-74.276	-0.164	0.060
-647.770	207.458	-0.128	-0.202
-646.755	-151.737	-0.305	0.023
-645.741	-61.192	0.050	-0.021
-644.726	26.537	-0.241	-0.204
-643.711	-87.150	0.252	-0.078
-642.697	292.639	0.101	-0.187
-641.682	-36.968	0.207	0.113
-640.668	68.077	0.127	-0.132
-639.653	0.774	-0.322	0.234
-638.638	-123.632	-0.275	0.044
-637.624	800.000	0.042	0.154
-636.609	385.295	0.180	-0.378
-635.595	61.056	0.195	-0.197
-634.580	526.974	0.150	0.358
-633.565	125.281	0.261	0.334
-632.551	-200.000	0.023	-0.183
-631.536	156.128	0.065	0.091
-630.522	424.444	0.082	-0.180
-629.507	-47.907	-0.200	-0.098
-628.492	-153.238	-0.120	0.009
-627.478	-104.393	-0.309	0.073
-626.463	56.066	0.379	-0.374
-625.449	-200.000	0.008	-0.194
-624.434	49.360	-0.071	0.068
-623.419	705.185	0.069	0.185
-622.405	165.167	0.077	-0.111
-621.390	-200.000	0.015	0.145
-620.376	-164.865	-0.133	-0.006
-619.361	-91.721	0.305	0.088
-618.346	7.458	-0.241	0.183
-617.332	800.000	-0.070	0.204
-616.317	800.000	0.109	0.421
-615.303	-200.000	0.025	0.158
-614.288	-111.172	0.307	-0.064
-613.273	146.368	0.146	0.198
-612.259	-200.000	-0.000	0.504
-611.244	-46.086	-0.337	-0.168
-610.230	298.771	-0.021	-0.038
-609.215	-0.865	0.025	-0.018
-608.201	66.299	-0.122	-0.125
-607.186	-48.322	-0.230	-0.112
-606.171	-200.000	0.012	0.063
-605.157	152.819	0.113	0.156
-604.142	116.193	0.099	0.123
-603.128	-200.000	-0.009	-0.190
-602.113	156.599	0.133	0.186
-601.098	-168.711	-0.181	-0.007
-600.084	15.237	0.109	-0.087
-599.069	-200.000	-0.002	-0.258
-598.055	416.942	-0.130	-0.281
-597.040	-200.000	0.045	-0.449
-596.025	56.311	-0.122	-0.121
-595.011	230.853	0.252	-0.418
-593.996	-200.000	-0.006	-0.225
-592.982	-200.000	0.022	-0.178
-591.967	-200.000	-0.025	-0.294
-590.952	-200.000	-0.036	-0.216
-589.938	-11.300	-0.071	0.048
-588.923	-23.511	-0.184	-0.112
-587.909	-13.572	-0.086	0.057
-586.894	800.000	-0.002	-0.007
-585.879	-6.254	0.168	-0.116
-584.865	-18.300	-0.206	-0.130
-583.850	5.890	0.136	-0.102
-582.836	-200.000	0.003	0.115
-581.821	49.922	0.222	0.212
-580.806	-89.072	-0.242	0.073
-579.792	-32.523	0.287	0.162
-578.777	-10.987	0.125	0.084
-577.763	-30.094	-0.284	0.164
-576.748	44.915	0.143	-0.133
-575.733	11.957	0.102	0.080
-574.719	321.997	-0.076	-0.146
-573.704	-67.946	-0.159	0.063
-572.690	-14.862	0.325	0.211
-571.675	-132.120	-0.418	0.055
-570.661	172.361	0.081	-0.118
-569.646	-108.580	-0.447	-0.097
-568.631	30.152	-0.257	0.222
-567.617	-200.000	-0.019	-0.169
-566.602	-89.373	0.015	0.004
-565.588	78.503	0.050	-0.054
-564.573	-15.102	0.049	0.032
-563.558	-120.116	-0.327	0.057
-562.544	-200.000	-0.001	0.108
-561.529	37.343	0.188	-0.169
-560.515	-200.000	-0.015	-0.207
-559.500	-119.137	-0.283	0.050
-558.485	28.618	-0.157	-0.134
-557.471	-36.638	0.153	0.083
-556.456	-12.758	0.282	-0.186
-555.442	210.897	0.047	-0.075
-554.427	27.593	-0.160	0.137
-553.412	78.870	0.032	-0.034
-552.398	239.783	-0.179	0.302
-551.383	70.373	-0.118	0.124
-550.369	9.193	0.133	0.102
-549.354	21.540	0.121	0.100
-548.339	146.849	-0.129	0.176
-547.325	-186.645	0.089	-0.001
-546.310	73.766	-0.137	-0.145
-545.296	-200.000	-0.010	0.133
-544.281	800.000	-0.059	0.180
-543.266	800.000	-0.028	0.111
-542.252	17.801	-0.076	0.062
-541.237	139.743	-0.054	0.072
-540.223	46.082	-0.068	0.064
-539.208	-65.079	-0.149	0.061
-538.193	-74.407	0.144	0.052
-537.179	-62.441	-0.177	0.074
-536.164	-21.735	0.233	0.143
-535.150	800.000	0.072	0.278
-534.135	-141.756	-0.171	0.017
-533.121	405.079	-0.086	0.184
-532.106	-153.836	-0.221	-0.015
-531.091	-73.266	0.086	-0.032
-530.077	109.896	-0.039	0.047
-529.062	368.893	-0.146	0.298
-528.048	294.310	0.033	-0.060
-527.033	-79.342	-0.205	0.070
-526.018	-200.000	0.036	0.290
-525.004	180.853	0.202	-0.299
-523.989	-123.919	0.391	-0.062
-522.975	-170.512	-0.137	0.005
-521.960	-200.000	0.028	-0.171
-520.945	-95.328	-0.388	-0.106
-519.931	108.538	-0.126	-0.152
-518.916	199.900	-0.141	0.218
-517.902	351.656	0.068	-0.135
-516.887	350.904	0.049	-0.099
-515.872	-11.248	-0.106	-0.070
-514.858	800.000	0.077	-0.304
-513.843	457.554	-0.103	0.231
-512.829	-37.803	0.291	0.156
-511.814	-200.000	-0.025	0.352
-510.799	-200.000	0.003	0.169
-509.785	800.000	-0.085	-0.363
-508.770	800.000	0.051	0.194
-507.756	-142.501	0.221	-0.022
-506.741	-76.525	0.060	-0.021
-505.726	-200.000	0.007	0.069
-504.712	800.000	0.046	0.173
-503.697	-116.714	-0.246	-0.046
-502.683	-126.935	-0.340	-0.051
-501.668	-200.000	-0.063	-0.431
-500.653	-7.272	0.131	-0.089
-499.639	-65.577	0.276	0.112
-498.624	-200.000	0.006	0.156
-497.610	800.000	-0.055	-0.167
-496.595	-80.986	-0.209	-0.070
-495.581	6.266	-0.181	0.135
-494.566	47.738	-0.045	0.043
-493.551	-135.556	-0.130	0.016
-492.537	-200.000	0.009	-0.048
-491.522	-80.773	0.194	-0.065
-490.508	238.177	0.038	-0.063
-489.493	800.000	0.035	0.116
-488.478	-135.686	-0.007	0.001
-487.464	79.974	0.084	-0.091
-486.449	-158.884	-0.234	0.013
-485.435	800.000	-0.019	-0.067
-484.420	-175.605	-0.176	0.005
-483.405	39.987	0.214	0.194
-482.391	477.870	-0.107	-0.245
-481.376	800.000	-0.129	-0.536
-480.362	-174.721	0.159	-0.005
-479.347	744.006	0.061	-0.167
-478.332	800.000	0.038	0.141
-477.318	-88.808	0.136	-0.041
-476.303	-10.173	-0.197	-0.132
-475.289	149.523	-0.210	0.286
-474.274	368.099	-0.063	-0.129
-473.259	6.217	-0.070	-0.053
-472.245	-184.116	0.138	-0.002
-471.230	-34.437	0.143	0.079
-470.216	-200.000	0.053	-0.411
-469.201	-116.464	0.532	-0.099
-468.186	-35.163	-0.339	-0.186
-467.172	-87.377	0.127	-0.039
-466.157	-7.288	-0.073	-0.050
-465.143	185.192	-0.080	0.120
-464.128	-96.259	0.257	0.069
-463.113	800.000	0.155	0.480
-462.099	393.894	0.059	0.124
-461.084	800.000	-0.037	0.136
-460.070	-58.443	-0.127	0.056
-459.055	261.474	-0.084	0.147
-458.040	-94.065	0.080	-0.022
-457.026	-135.115	-0.168	-0.020
-456.011	-88.424	0.387	0.116
-454.997	-153.404	-0.113	0.008
-453.982	23.655	-0.068	-0.057
-452.968	76.783	-0.084	-0.090
-451.953	318.652	0.097	-0.186
-450.938	-42.523	0.186	-0.096
-449.924	800.000	-0.099	0.296
-448.909	120.703	0.084	-0.105
-447.895	-164.963	0.207	-0.009
-446.880	64.115	0.047	0.048
-445.865	800.000	0.116	-0.353
-444.851	-31.315	-0.211	-0.120
-443.836	-58.527	-0.004	0.002
-442.822	650.768	-0.032	0.083
-441.807	-158.792	-0.226	-0.013
-440.792	-116.524	-0.069	-0.013
-439.778	800.000	0.069	0.204
-438.763	26.119	-0.084	-0.071
-437.749	213.961	0.187	0.298
-436.734	-13.567	0.238	0.156
-435.719	200.026	-0.186	-0.287
-434.705	187.577	0.248	-0.372
-433.690	140.423	-0.284	-0.378
-432.676	55.151	0.083	-0.081
-431.661	-80.687	0.037	0.012
-430.646	-109.679	0.088	-0.019
-429.632	-59.947	0.236	-0.101
-428.617	128.959	-0.097	-0.124
-427.603	-200.000	0.015	-0.249
-426.588	-54.903	0.128	-0.058
-425.573	-54.489	0.268	0.122
-424.559	293.860	-0.073	-0.133
-423.544	800.000	-0.048	-0.179
-422.530	800.000	0.056	0.173
-421.515	800.000	-0.082	-0.277
-420.500	21.748	-0.060	0.049
-419.486	87.573	-0.282	0.314
-418.471	-46.424	0.227	0.112
-417.457	29.086	-0.124	0.106
-416.442	95.749	0.128	0.147
-415.428	-116.070	-0.100	-0.019
-414.413	-35.225	-0.258	0.141
-413.398	800.000	0.060	-0.233
-412.384	800.000	-0.149	0.453
-411.369	-200.000	0.018	0.126
-410.355	-158.027	-0.286	-0.017
-409.340	800.000	0.061	0.172
-408.325	-134.308	0.173	-0.021
-407.311	-49.862	-0.133	-0.063
-406.296	-200.000	0.020	0.336
-405.282	37.065	0.177	0.158
-404.267	104.416	-0.196	-0.232
-403.252	-200.000	-0.014	-0.272
-402.238	584.938	0.079	-0.196
-401.223	-91.812	0.140	-0.040
-400.209	-27.609	0.166	0.097
-399.194	-86.132	-0.172	0.053
-398.179	800.000	0.081	0.253
-397.165	-141.669	0.202	0.020
-396.150	-165.014	-0.322	0.014
-395.136	100.285	-0.206	-0.241
-394.121	-200.000	-0.062	0.275
-393.106	800.000	-0.118	-0.444
-392.092	800.000	-0.044	0.138
-391.077	800.000	-0.087	-0.275
-390.063	549.382	-0.095	-0.228
-389.048	-200.000	-0.044	0.221
-388.033	-106.286	-0.127	0.029
-387.019	-79.013	-0.317	-0.108
-386.004	361.064	0.046	-0.094
-384.990	-2.894	-0.121	0.085
-383.975	-200.000	-0.044	0.405
-382.960	411.572	0.217	0.463
-381.946	-0.878	-0.306	0.218
-380.931	3.633	-0.172	0.126
-379.917	-200.000	-0.007	-0.047
-378.902	-133.106	-0.080	0.010
-377.888	-200.000	-0.067	0.298
-376.873	356.804	-0.064	0.128
-375.858	-111.364	-0.240	0.049
-374.844	21.574	-0.201	-0.164
-373.829	-95.600	-0.055	0.015
-372.815	57.795	0.038	-0.037
-371.800	544.376	-0.105	-0.251
-370.785	-96.425	-0.403	-0.107
-369.771	-52.530	-0.128	-0.060
-368.756	-99.642	0.184	-0.046
-367.742	-200.000	0.283	0.001
-366.727	254.904	0.045	-0.077
-365.712	-200.000	0.011	-0.088
-364.698	800.000	-0.042	0.137
-363.683	-115.188	0.208	-0.039
-362.669	111.623	-0.217	-0.263
-361.654	-200.000	0.015	0.235
-360.639	117.592	-0.112	0.139
-359.625	129.683	0.035	-0.045
-358.610	-41.802	0.293	0.151
-357.596	191.348	0.249	-0.377
-356.581	800.000	0.038	0.140
-355.566	800.000	-0.044	-0.133
-354.552	800.000	-0.054	-0.197
-353.537	19.813	0.078	0.063
-352.523	52.563	0.207	-0.198
-351.508	-172.315	-0.185	-0.006
-350.493	-156.969	0.229	-0.014
-349.479	-200.000	-0.011	0.047
-348.464	381.328	-0.028	0.057
-347.450	-200.000	-0.003	0.107
-346.435	800.000	0.124	-0.376
-345.420	123.972	0.133	0.168
-344.406	800.000	-0.029	-0.097
-343.391	473.670	-0.095	0.214
-342.377	-133.415	0.284	-0.036
-341.362	-118.436	-0.043	0.008
-340.348	-69.132	-0.026	-0.010
-339.333	-200.000	0.015	0.087
-338.318	252.637	0.086	-0.147
-337.304	-14.665	0.127	0.082
-336.289	47.359	-0.159	0.148
-335.275	26.728	-0.049	-0.041
-334.260	466.793	-0.058	-0.130
-333.245	228.169	0.064	-0.105
-332.231	-83.842	0.317	0.101
-331.216	127.618	-0.020	-0.025
-330.202	243.590	0.107	-0.180
-329.187	-200.000	0.036	-0.248
-328.172	-147.079	0.243	0.021
-327.158	44.489	-0.165	-0.152
-326.143	13.916	0.183	0.143
-325.129	95.213	0.225	-0.257
-324.114	352.600	0.134	0.267
-323.099	24.430	-0.174	0.144
-322.085	63.873	0.178	0.179
-321.070	-200.000	0.021	0.274
-320.056	15.375	0.269	-0.211
-319.041	-30.812	0.132	0.075
-318.026	-46.864	-0.078	0.038
-317.012	-63.252	0.264	0.109
-315.997	283.252	0.066	-0.118
-314.983	-79.656	-0.137	0.046
-313.968	120.663	-0.153	-0.190
-312.953	800.000	0.121	-0.354
-311.939	-128.569	-0.041	-0.006
-310.924	-49.314	-0.308	0.147
-309.910	-138.798	0.387	-0.042
-308.895	-69.411	0.162	0.062
-307.880	194.177	-0.120	-0.182
-306.866	-200.000	0.042	0.290
-305.851	-200.000	-0.032	0.142
-304.837	-200.000	0.002	0.311
-303.822	-200.000	0.004	0.079
-302.807	-200.000	0.045	-0.214
-301.793	-134.293	0.445	0.055
-300.778	800.000	0.098	0.347
-299.764	47.672	0.165	0.155
-298.749	-93.884	0.209	-0.057
-297.735	-22.402	-0.136	0.083
-296.720	261.801	0.105	-0.182
-295.705	14.321	0.198	-0.155
-294.691	42.663	0.160	-0.146
-293.676	22.882	-0.062	-0.051
-292.662	95.345	0.094	-0.107
-291.647	-50.753	-0.192	0.091
-290.632	-14.981	0.153	0.098
-289.618	800.000	0.143	0.408
-288.603	800.000	-0.047	0.144
-287.589	-102.997	0.189	-0.045
-286.574	-200.000	-0.016	0.209
-285.559	-158.734	-0.227	-0.013
-284.545	35.245	0.034	0.029
-283.530	-141.702	-0.166	-0.017
-282.516	800.000	0.058	0.169
-281.501	-14.236	-0.046	0.030
-280.486	800.000	0.101	-0.418
-279.472	71.433	0.111	0.116
-278.457	-23.601	-0.207	0.124
-277.443	-85.576	-0.357	0.111
-276.428	-200.000	-0.067	-0.466
-275.413	800.000	0.056	-0.206
-274.399	40.507	0.193	-0.174
-273.384	-93.796	-0.233	-0.064
-272.370	145.010	-0.202	-0.270
-271.355	-200.000	0.010	-0.247
-270.340	-28.110	-0.205	-0.119
-269.326	-200.000	0.067	-0.558
-268.311	437.980	0.039	-0.085
-267.297	-134.578	0.146	0.018
-266.282	-63.246	0.116	0.048
-265.267	-95.609	-0.100	-0.027
-264.253	-91.991	-0.193	0.055
-263.238	-200.000	0.007	0.169
-262.224	-33.298	-0.240	-0.133
-261.209	119.323	0.159	-0.197
-260.195	-200.000	-0.033	0.170
-259.180	-200.000	-0.007	0.082
-258.165	-113.770	0.195	0.038
-257.151	-53.654	-0.309	-0.141
-256.136	800.000	-0.030	0.131
-255.122	800.000	0.105	-0.321
-254.107	-200.000	0.007	0.413
-253.092	-94.976	-0.284	0.077
-252.078	800.000	0.092	-0.288
-251.063	-200.000	-0.021	-0.348
-250.049	-118.875	-0.167	-0.029
-249.034	-97.110	-0.254	0.066
-248.019	-5.155	0.108	0.074
-247.005	114.019	0.156	0.189
-245.990	204.824	0.210	0.326
-244.976	117.238	-0.260	0.319
-243.961	-136.846	0.182	-0.021
-242.946	-75.684	0.208	-0.074
-241.932	-50.026	-0.171	0.081
-240.917	-129.371	-0.284	0.039
-239.903	158.304	-0.077	-0.107
-238.888	657.959	-0.137	0.352
-237.873	-23.816	0.198	-0.119
-236.859	142.583	-0.054	-0.071
-235.844	-172.425	0.066	0.002
-234.830	-141.136	0.193	0.020
-233.815	-15.209	-0.248	-0.159
-232.800	-28.861	0.142	-0.082
-231.786	157.643	0.039	0.054
-230.771	124.470	0.213	0.268
-229.757	-57.450	-0.197	-0.086
-228.742	-13.056	0.130	0.085
-227.727	-13.495	-0.148	-0.096
-226.713	-131.933	-0.402	0.052
-225.698	-28.230	-0.265	-0.153
-224.684	-107.446	0.076	-0.017
-223.669	421.348	0.082	-0.176
-222.655	-47.643	0.232	-0.113
-221.640	-30.259	0.125	-0.071
-220.625	178.944	0.178	0.260
-219.611	-185.106	-0.077	0.001
-218.596	-67.682	0.172	-0.067
-217.582	142.657	0.091	-0.121
-216.567	-15.255	0.137	0.087
-215.552	104.003	0.058	0.068
-214.538	104.341	0.173	-0.203
-213.523	800.000	0.117	0.417
-212.509	118.931	-0.142	-0.175
-211.494	-200.000	0.009	-0.226
-210.479	403.431	0.211	0.443
-209.465	156.179	-0.109	0.150
-208.450	-88.787	-0.178	-0.053
-207.436	-200.000	-0.023	-0.292
-206.421	-200.000	0.010	0.124
-205.406	-18.819	-0.350	-0.217
-204.392	800.000	0.019	-0.058
-203.377	206.188	0.177	0.275
-202.363	-200.000	-0.009	0.133
-201.348	-80.850	0.190	-0.063
-200.333	800.000	-0.114	-0.424
-199.319	482.592	0.049	-0.110
-198.304	403.460	-0.022	-0.045
-197.290	-200.000	0.029	-0.248
-196.275	-28.698	-0.186	-0.107
-195.260	-146.464	-0.128	0.011
-194.246	-200.000	-0.021	0.167
-193.231	-108.277	-0.256	0.055
-192.217	-87.051	-0.278	0.085
-191.202	-189.155	0.161	-0.002
-190.187	-200.000	-0.009	0.146
-189.173	-29.443	0.147	0.084
-188.158	-200.000	0.002	0.184
-187.144	31.030	0.321	-0.275
-186.129	-200.000	-0.010	0.119
-185.114	-94.671	0.241	0.065
-184.100	-200.000	-0.009	-0.046
-183.085	-142.613	-0.254	-0.025
-182.071	-78.734	-0.064	0.022
-181.056	196.804	0.067	0.102
-180.042	56.187	0.110	-0.106
-179.027	31.361	0.220	-0.189
-178.012	-200.000	0.009	-0.041
-176.998	-98.896	-0.193	-0.049
-175.983	157.557	0.241	0.333
-174.969	18.089	-0.334	0.265
-173.954	800.000	0.073	0.309
-172.939	-140.793	-0.152	0.016
-171.925	-94.216	0.164	0.045
-170.910	-200.000	-0.021	0.152
-169.896	95.810	0.100	-0.113
-168.881	139.602	0.151	-0.198
-167.866	-17.571	0.240	0.150
-166.852	62.654	-0.227	-0.226
-165.837	-200.000	0.054	0.394
-164.823	-98.141	0.116	-0.030
-163.808	133.929	0.131	-0.169
-162.793	734.471	-0.058	-0.154
-161.779	-200.000	0.072	0.342
-160.764	-157.979	0.167	0.010
-159.750	-109.642	0.135	-0.028
-158.735	800.000	0.113	0.454
-157.720	-119.587	0.160	0.028
-156.706	168.742	0.149	-0.212
-155.691	-70.988	-0.038	0.014
-154.677	-61.530	-0.332	0.139
-153.662	-125.197	0.140	0.021
-152.647	-200.000	-0.012	-0.304
-151.633	637.321	0.041	0.104
-150.618	-139.314	-0.121	-0.013
-149.604	345.727	-0.093	-0.181
-148.589	138.821	0.207	0.271
-147.574	71.357	0.170	0.176
-146.560	-62.638	-0.385	0.159
-145.545	14.400	0.085	-0.066
-144.531	-149.910	0.034	-0.003
-143.516	-16.736	-0.257	-0.162
-142.502	-3.605	-0.096	0.067
-141.487	-200.000	-0.021	-0.365
-140.472	597.802	0.108	-0.267
-139.458	707.110	0.063	-0.165
-138.443	-200.000	0.013	-0.082
-137.429	-200.000	-0.010	-0.060
-136.414	-81.537	-0.115	0.038
-135.399	-117.493	0.194	0.035
-134.385	-99.016	-0.593	-0.150
-133.370	16.234	-0.108	-0.085
-132.356	-200.000	-0.047	0.253
-131.341	116.208	0.177	-0.216
-130.326	336.596	0.109	0.210
-129.312	-200.000	0.002	0.017
-128.297	298.906	-0.053	0.098
-127.283	-160.672	0.068	0.004
-126.268	105.090	-0.155	0.182
-125.253	-78.092	0.109	0.037
-124.239	-4.613	0.307	-0.211
-123.224	-14.696	-0.239	-0.153
-122.210	-107.500	0.049	-0.011
