DTS Sentinel unit serial number:	SN413079Multiplexer serial number:	ORYXHardware model number:	OX4-SRSoftware version number:	ORYX F/W v4.00 Oryx Data Collector v3.7.2.0data status	okinstallation	princeton_trtdifferential loss correction	single-endedforward channel	channel 1reverse channel	N/Adate	2019/09/13time	07:54:35forward acquisition time	60.00reverse acquisition time	0.00gamma	496.2192k internal	0.2333k external	0.2333temperature offset calibration	1.0159default loss term (dB/km)	0.3790temperature slope calibration	1.0000multiplexer offset coefficient	1.0000multiplexer slope coefficient	1.0000fibre end	0.00T internal ref (°C)	26.69T ext. ref 1 (°C)	4.22T ext. ref 2 (°C)	23.20length (m)	temperature (°C)	Stokes	anti-Stokes-747.200	-156.293	0.237	-0.015
-746.185	-200.000	-0.015	0.169
-745.171	95.371	-0.139	-0.160
-744.156	36.909	0.144	0.128
-743.142	116.497	-0.185	-0.228
-742.127	102.711	-0.132	0.155
-741.112	800.000	-0.041	0.118
-740.098	-77.275	-0.159	-0.056
-739.083	-200.000	0.017	0.124
-738.069	206.899	0.068	0.107
-737.054	-200.000	0.039	-0.206
-736.039	69.286	-0.371	-0.384
-735.025	800.000	0.024	0.099
-734.010	29.673	-0.168	0.144
-732.996	335.686	0.102	-0.198
-731.981	-40.672	-0.020	-0.010
-730.966	-13.696	-0.342	-0.222
-729.952	800.000	0.051	0.179
-728.937	-30.385	-0.255	-0.146
-727.923	-200.000	0.041	-0.368
-726.908	-117.362	-0.494	0.090
-725.894	146.797	0.232	-0.314
-724.879	-0.910	0.103	0.073
-723.864	-61.427	-0.237	-0.100
-722.850	39.566	0.074	-0.067
-721.835	779.918	-0.057	-0.158
-720.821	130.009	0.064	-0.083
-719.806	302.133	-0.222	-0.412
-718.791	800.000	0.058	-0.175
-717.777	-52.857	-0.105	-0.048
-716.762	-86.299	-0.275	-0.085
-715.748	-65.689	0.265	0.107
-714.733	-97.457	-0.185	-0.048
-713.718	-28.980	0.163	-0.094
-712.704	-86.925	-0.123	-0.038
-711.689	-200.000	0.044	-0.251
-710.675	22.738	0.194	0.159
-709.660	800.000	-0.114	-0.329
-708.645	-190.789	-0.305	-0.003
-707.631	-64.503	0.260	-0.106
-706.616	-17.046	0.214	0.136
-705.602	645.787	0.065	-0.166
-704.587	-77.987	0.220	-0.076
-703.572	368.437	-0.115	-0.233
-702.558	173.877	0.171	0.248
-701.543	40.341	0.166	0.150
-700.529	-83.459	-0.058	-0.019
-699.514	800.000	0.101	0.308
-698.499	59.905	0.096	0.095
-697.485	-200.000	0.015	0.246
-696.470	-200.000	0.025	-0.122
-695.456	-23.582	-0.235	-0.141
-694.441	195.255	0.085	0.130
-693.426	-200.000	-0.028	0.264
-692.412	40.897	0.044	-0.040
-691.397	185.264	-0.225	0.336
-690.383	-200.000	0.002	0.090
-689.368	92.229	0.241	-0.272
-688.354	-69.662	0.229	-0.088
-687.339	20.332	0.374	-0.303
-686.324	-162.418	-0.090	0.004
-685.310	-200.000	-0.014	-0.110
-684.295	588.597	-0.105	0.260
-683.281	-200.000	-0.011	-0.287
-682.266	-16.957	-0.166	0.105
-681.251	-98.357	-0.128	-0.033
-680.237	211.999	0.124	-0.196
-679.222	-200.000	-0.022	0.101
-678.208	-200.000	-0.027	-0.173
-677.193	-44.296	0.175	0.088
-676.178	-138.050	-0.199	-0.022
-675.164	699.571	0.087	0.231
-674.149	72.730	0.204	0.214
-673.135	-29.098	0.100	0.057
-672.120	425.864	0.064	0.139
-671.105	800.000	-0.019	-0.079
-670.091	800.000	0.047	0.191
-669.076	-200.000	-0.051	-0.356
-668.062	338.409	-0.009	-0.017
-667.047	53.657	0.115	0.110
-666.032	-10.530	-0.232	-0.154
-665.018	800.000	-0.030	0.088
-664.003	261.922	-0.154	-0.267
-662.989	146.264	-0.108	0.145
-661.974	-129.804	0.276	-0.038
-660.959	-181.122	-0.085	0.002
-659.945	-124.082	-0.349	0.055
-658.930	-144.117	0.491	-0.046
-657.916	242.358	-0.215	-0.361
-656.901	-200.000	-0.047	-0.363
-655.886	800.000	0.029	0.125
-654.872	-98.452	0.183	-0.047
-653.857	-127.299	0.077	0.011
-652.843	-158.461	-0.208	0.012
-651.828	144.497	-0.187	-0.250
-650.814	-78.817	0.082	0.028
-649.799	9.755	0.099	-0.075
-648.784	-177.006	0.285	0.007
-647.770	-109.057	0.179	0.038
-646.755	800.000	0.078	-0.296
-645.741	334.942	-0.007	-0.014
-644.726	-126.926	0.224	-0.033
-643.711	-200.000	-0.034	-0.222
-642.697	200.300	-0.169	0.261
-641.682	-124.043	-0.348	-0.055
-640.668	-161.489	0.203	-0.010
-639.653	-69.054	0.077	0.030
-638.638	-82.428	0.247	-0.080
-637.624	-1.185	0.145	-0.102
-636.609	-133.172	0.166	-0.021
-635.595	-87.289	-0.516	-0.157
-634.580	42.604	-0.232	0.211
-633.565	15.835	0.159	-0.125
-632.551	96.788	-0.124	-0.142
-631.536	56.122	0.089	-0.087
-630.522	-156.924	0.211	0.013
-629.507	48.691	0.212	0.199
-628.492	53.928	0.067	0.064
-627.478	-53.674	0.074	0.034
-626.463	55.816	0.262	-0.254
-625.449	-9.867	0.190	0.127
-624.434	132.457	-0.155	0.200
-623.419	800.000	0.035	0.122
-622.405	-102.870	-0.233	0.056
-621.390	-96.263	-0.403	0.107
-620.376	-142.234	-0.131	0.013
-619.361	-61.757	-0.025	-0.011
-618.346	-76.920	0.211	-0.074
-617.332	800.000	-0.121	0.428
-616.317	-28.436	-0.307	-0.177
-615.303	-141.153	-0.283	-0.029
-614.288	738.840	-0.077	-0.208
-613.273	186.367	-0.092	-0.137
-612.259	-81.376	0.284	-0.094
-611.244	-31.288	0.256	-0.144
-610.230	-160.961	-0.165	-0.009
-609.215	800.000	0.062	-0.227
-608.201	64.720	0.131	-0.132
-607.186	-200.000	0.014	-0.169
-606.171	80.924	0.064	-0.069
-605.157	-98.266	0.214	0.055
-604.142	-113.525	-0.331	0.065
-603.128	-200.000	-0.038	0.351
-602.113	-200.000	-0.039	0.220
-601.098	-88.268	-0.400	-0.120
-600.084	-200.000	-0.055	-0.377
-599.069	362.456	-0.128	0.257
-598.055	-90.179	0.041	0.012
-597.040	-135.295	0.187	-0.022
-596.025	-164.907	-0.330	-0.015
-595.011	206.212	-0.100	-0.155
-593.996	-200.000	-0.079	0.404
-592.982	316.379	0.107	0.203
-591.967	-20.178	0.202	-0.124
-590.952	173.429	0.182	0.263
-589.938	-146.226	0.357	0.031
-588.923	-109.963	-0.330	0.069
-587.909	-200.000	0.014	-0.064
-586.894	-43.760	0.299	-0.151
-585.879	-76.229	-0.245	0.086
-584.865	-11.268	-0.189	0.124
-583.850	-66.095	0.378	-0.151
-582.836	-200.000	0.049	0.288
-581.821	567.948	0.148	0.358
-580.806	-137.956	-0.073	0.008
-579.792	-84.752	-0.152	0.048
-578.777	-146.385	-0.068	0.006
-577.763	55.684	-0.200	-0.194
-576.748	-200.000	-0.005	-0.120
-575.733	132.074	0.115	-0.149
-574.719	800.000	0.086	-0.354
-573.704	-200.000	0.021	-0.223
-572.690	267.792	0.132	-0.231
-571.675	-51.880	0.130	0.060
-570.661	-170.469	0.175	0.006
-569.646	79.184	0.182	-0.194
-568.631	-13.388	-0.178	0.115
-567.617	-14.424	0.281	0.181
-566.602	-104.629	-0.062	0.014
-565.588	-97.872	-0.145	0.037
-564.573	-19.231	-0.066	0.041
-563.558	-1.324	0.160	0.113
-562.544	-200.000	-0.040	-0.471
-561.529	-79.405	-0.450	-0.152
-560.515	27.314	0.044	-0.037
-559.500	301.212	0.135	0.248
-558.485	-75.643	0.300	0.107
-557.471	-170.683	-0.286	-0.010
-556.456	-200.000	0.038	0.421
-555.442	-43.664	0.238	-0.120
-554.427	65.472	-0.011	0.011
-553.412	204.387	-0.205	-0.318
-552.398	-200.000	-0.054	-0.493
-551.383	-117.394	0.239	-0.043
-550.369	-68.154	0.450	-0.175
-549.354	204.384	-0.081	-0.125
-548.339	31.004	0.119	-0.102
-547.325	-42.059	0.115	-0.059
-546.310	44.035	0.118	-0.108
-545.296	-82.064	-0.258	0.084
-544.281	195.877	0.158	0.240
-543.266	-200.000	0.054	0.314
-542.252	-24.534	0.204	0.121
-541.237	190.450	-0.076	0.114
-540.223	-98.776	-0.178	0.045
-539.208	-200.000	0.018	0.191
-538.193	-200.000	0.018	-0.167
-537.179	-52.551	-0.194	0.089
-536.164	-111.483	-0.185	-0.038
-535.150	-141.086	-0.197	-0.020
-534.135	251.693	0.147	-0.250
-533.121	-18.547	-0.032	-0.020
-532.106	800.000	-0.124	-0.377
-531.091	-84.143	0.096	-0.030
-530.077	-50.097	0.232	0.110
-529.062	-141.951	-0.101	0.010
-528.048	-200.000	-0.018	-0.169
-527.033	72.352	-0.121	-0.126
-526.018	-102.654	-0.282	-0.067
-525.004	55.135	0.180	0.173
-523.989	412.080	0.152	0.322
-522.975	-200.000	-0.004	-0.062
-521.960	-200.000	0.025	0.140
-520.945	31.195	-0.222	-0.190
-519.931	11.676	0.073	0.056
-518.916	-200.000	-0.021	-0.207
-517.902	107.240	-0.227	0.269
-516.887	365.597	-0.128	-0.257
-515.872	168.686	0.204	0.289
-514.858	3.800	0.260	0.189
-513.843	-200.000	-0.013	-0.165
-512.829	43.361	-0.035	0.032
-511.814	-137.481	0.099	-0.011
-510.799	-70.062	-0.020	0.008
-509.785	-200.000	0.003	0.115
-508.770	9.840	-0.364	-0.276
-507.756	-85.254	0.211	-0.066
-506.741	106.781	0.092	0.108
-505.726	-160.386	0.263	0.014
-504.712	218.785	-0.189	-0.301
-503.697	-146.370	-0.253	-0.022
-502.683	-83.844	-0.202	-0.064
-501.668	-150.202	-0.052	-0.004
-500.653	-109.569	0.323	0.068
-499.639	61.182	-0.088	0.087
-498.624	-82.685	-0.100	-0.032
-497.610	505.086	0.048	-0.111
-496.595	-200.000	-0.009	-0.154
-495.581	87.142	0.090	-0.099
-494.566	-5.593	0.282	0.193
-493.551	-7.163	-0.188	-0.127
-492.537	105.320	0.260	0.306
-491.522	42.918	-0.255	-0.232
-490.508	-61.137	0.096	-0.040
-489.493	-126.205	-0.044	-0.007
-488.478	-200.000	0.022	0.330
-487.464	41.291	0.151	0.136
-486.449	67.603	-0.113	-0.115
-485.435	-138.478	-0.120	-0.013
-484.420	-22.250	0.217	0.131
-483.405	394.661	0.144	0.299
-482.391	-86.809	-0.157	0.048
-481.376	132.836	-0.190	0.244
-480.362	18.378	-0.307	-0.244
-479.347	800.000	0.037	-0.103
-478.332	352.847	-0.089	-0.176
-477.318	800.000	-0.066	-0.184
-476.303	429.574	-0.045	-0.097
-475.289	-87.969	-0.130	0.039
-474.274	-125.782	-0.032	-0.005
-473.259	-5.450	0.121	-0.083
-472.245	184.400	0.121	0.179
-471.230	48.590	-0.153	-0.143
-470.216	-22.368	0.231	-0.139
-469.201	-88.985	0.294	-0.087
-468.186	110.421	0.064	0.077
-467.172	-130.081	-0.262	-0.036
-466.157	-75.469	-0.043	-0.015
-465.143	-2.824	0.120	-0.083
-464.128	-200.000	-0.023	-0.211
-463.113	-200.000	0.007	0.132
-462.099	-77.829	0.048	0.016
-461.084	170.529	0.181	0.258
-460.070	-200.000	-0.033	-0.211
-459.055	-200.000	-0.019	-0.103
-458.040	609.700	0.117	-0.291
-457.026	190.042	0.073	-0.109
-456.011	-173.307	0.399	0.012
-454.997	-200.000	-0.021	0.273
-453.982	244.298	0.067	-0.111
-452.968	-105.930	0.102	-0.023
-451.953	-200.000	-0.004	0.198
-450.938	-137.648	-0.447	0.050
-449.924	-200.000	0.016	0.170
-448.909	800.000	-0.037	-0.112
-447.895	-200.000	0.008	-0.072
-446.880	-83.594	-0.337	-0.107
-445.865	-200.000	-0.035	-0.228
-444.851	-1.691	0.114	0.080
-443.836	-200.000	0.003	0.288
-442.822	-54.603	0.130	0.059
-441.807	800.000	-0.072	0.201
-440.792	723.723	-0.178	-0.470
-439.778	244.246	0.013	-0.021
-438.763	74.181	-0.213	-0.222
-437.749	-106.096	0.202	-0.045
-436.734	-2.646	0.207	0.144
-435.719	800.000	0.049	0.138
-434.705	-83.749	-0.066	-0.021
-433.690	28.761	0.119	-0.100
-432.676	16.943	0.159	0.125
-431.661	146.869	0.091	0.122
-430.646	153.575	-0.083	0.112
-429.632	140.281	-0.029	0.037
-428.617	800.000	-0.065	0.182
-427.603	-153.046	0.169	-0.012
-426.588	-57.306	0.364	0.159
-425.573	-46.325	0.117	0.057
-424.559	-46.837	0.133	0.064
-423.544	291.718	-0.137	-0.248
-422.530	500.180	0.053	0.123
-421.515	59.951	-0.031	-0.031
-420.500	-200.000	-0.017	-0.127
-419.486	-29.074	0.160	-0.091
-418.471	433.266	-0.081	-0.175
-417.457	98.637	-0.240	0.274
-416.442	-57.574	-0.226	-0.098
-415.428	449.676	-0.075	-0.163
-414.413	130.519	-0.073	0.093
-413.398	-72.859	-0.393	0.144
-412.384	20.537	-0.137	-0.110
-411.369	198.392	-0.068	0.103
-410.355	37.465	0.020	-0.017
-409.340	-81.087	-0.209	-0.069
-408.325	-141.762	0.264	0.026
-407.311	-43.620	0.200	-0.100
-406.296	-200.000	0.034	0.200
-405.282	-62.272	0.166	0.069
-404.267	-40.178	-0.310	-0.160
-403.252	-200.000	-0.001	0.020
-402.238	44.005	0.176	0.160
-401.223	800.000	-0.063	0.262
-400.209	-64.269	-0.259	-0.105
-399.194	-108.754	-0.219	0.047
-398.179	800.000	-0.067	0.203
-397.165	800.000	-0.036	-0.148
-396.150	336.073	0.137	0.264
-395.136	-59.713	0.316	0.134
-394.121	275.745	0.105	-0.186
-393.106	800.000	-0.096	-0.335
-392.092	571.586	-0.139	-0.336
-391.077	-78.234	-0.256	0.087
-390.063	11.537	-0.236	-0.180
-389.048	800.000	-0.034	-0.146
-388.033	105.596	0.250	0.293
-387.019	146.937	0.312	0.416
-386.004	40.115	0.077	0.069
-384.990	-8.999	-0.073	0.048
-383.975	-94.372	-0.163	0.044
-382.960	341.774	-0.116	0.224
-381.946	-166.906	-0.245	0.010
-380.931	800.000	-0.039	0.145
-379.917	-0.718	0.122	0.085
-378.902	-94.947	0.035	0.009
-377.888	-200.000	-0.014	0.244
-376.873	140.475	0.012	-0.016
-375.858	800.000	-0.075	0.261
-374.844	-115.999	-0.200	-0.037
-373.829	-96.288	0.264	0.069
-372.815	-200.000	0.012	0.214
-371.800	2.678	0.082	0.059
-370.785	93.731	0.259	-0.291
-369.771	800.000	0.105	-0.305
-368.756	85.050	-0.197	-0.214
-367.742	221.068	0.091	0.144
-366.727	74.755	0.156	-0.162
-365.712	374.377	0.088	-0.178
-364.698	-37.676	0.188	-0.099
-363.683	-200.000	0.028	0.231
-362.669	-94.361	-0.198	-0.053
-361.654	637.310	-0.074	0.186
-360.639	-43.271	-0.070	0.035
-359.625	-200.000	0.009	0.169
-358.610	-104.445	0.199	0.046
-357.596	-102.591	0.114	-0.027
-356.581	227.729	0.244	0.393
-355.566	-29.372	-0.415	-0.235
-354.552	-183.366	-0.407	0.007
-353.537	-5.336	0.154	0.105
-352.523	20.680	-0.293	-0.235
-351.508	226.395	-0.143	0.229
-350.493	164.569	-0.218	0.304
-349.479	-163.252	-0.182	0.009
-348.464	-64.228	-0.106	-0.043
-347.450	-200.000	0.009	-0.070
-346.435	242.443	-0.083	0.137
-345.420	-200.000	-0.041	0.273
-344.406	308.875	-0.091	0.169
-343.391	-200.000	-0.054	0.234
-342.377	-71.560	-0.133	0.049
-341.362	-18.933	0.101	-0.062
-340.348	140.508	0.187	-0.244
-339.333	396.373	-0.038	-0.078
-338.318	104.388	-0.047	-0.054
-337.304	-176.248	0.314	-0.008
-336.289	-60.098	-0.009	0.004
-335.275	603.836	-0.111	-0.272
-334.260	-9.127	-0.114	-0.075
-333.245	197.032	-0.083	-0.125
-332.231	-9.223	-0.230	-0.152
-331.216	2.366	0.312	0.223
-330.202	130.484	0.035	-0.044
-329.187	800.000	-0.046	-0.136
-328.172	185.230	-0.136	-0.200
-327.158	-127.725	-0.132	0.019
-326.143	74.986	-0.165	-0.172
-325.129	800.000	-0.080	0.219
-324.114	4.332	0.157	-0.114
-323.099	-40.125	0.376	-0.194
-322.085	-200.000	-0.015	-0.329
-321.070	-139.926	-0.343	-0.036
-320.056	-200.000	-0.002	0.121
-319.041	-25.412	0.143	0.084
-318.026	-90.710	0.099	0.028
-317.012	-38.240	-0.222	-0.116
-315.997	-200.000	-0.009	0.302
-314.983	-70.190	0.324	0.122
-313.968	-27.741	-0.100	0.057
-312.953	31.682	-0.095	-0.081
-311.939	-200.000	-0.015	-0.167
-310.924	-200.000	-0.006	0.526
-309.910	-94.154	0.147	-0.040
-308.895	-200.000	-0.021	-0.167
-307.880	120.788	0.107	-0.132
-306.866	-186.161	-0.369	-0.005
-305.851	800.000	-0.043	0.169
-304.837	448.607	-0.133	0.289
-303.822	-129.109	-0.303	0.042
-302.807	6.748	-0.150	-0.110
-301.793	72.458	-0.180	-0.185
-300.778	-69.850	0.078	0.029
-299.764	-29.321	0.172	-0.097
-298.749	-200.000	0.029	-0.342
-297.735	-51.004	0.139	0.064
-296.720	-105.404	0.195	-0.044
-295.705	618.136	-0.132	-0.327
-294.691	66.123	0.308	-0.309
-293.676	70.185	-0.180	0.184
-292.662	-2.660	-0.179	0.124
-291.647	-40.249	0.103	-0.053
-290.632	-112.419	-0.242	-0.048
-289.618	800.000	-0.061	-0.262
-288.603	40.617	0.155	-0.138
-287.589	-119.241	0.213	0.037
-286.574	172.998	-0.057	-0.081
-285.559	2.503	-0.021	-0.015
-284.545	113.605	0.006	0.007
-283.530	461.844	-0.041	0.090
-282.516	-22.062	-0.079	0.047
-281.501	56.421	-0.175	-0.168
-280.486	12.753	0.088	0.067
-279.472	135.310	-0.160	-0.205
-278.457	13.823	0.257	0.197
-277.443	-200.000	-0.011	0.053
-276.428	-97.646	-0.155	-0.040
-275.413	55.527	0.220	0.210
-274.399	9.252	-0.316	0.236
-273.384	-119.515	0.176	-0.030
-272.370	-31.569	-0.228	0.126
-271.355	2.447	-0.145	0.104
-270.340	265.839	0.176	0.304
-269.326	64.600	-0.135	0.134
-268.311	800.000	-0.073	-0.254
-267.297	118.761	-0.091	0.111
-266.282	-200.000	0.002	-0.436
-265.267	-104.205	-0.112	-0.026
-264.253	61.882	-0.121	-0.119
-263.238	159.219	-0.184	0.252
-262.224	-79.362	0.242	0.081
-261.209	-200.000	0.054	0.321
-260.195	332.048	-0.149	-0.284
-259.180	348.685	-0.144	0.281
-258.165	-120.467	-0.220	-0.037
-257.151	90.873	0.031	-0.034
-256.136	200.365	0.227	0.345
-255.122	740.259	0.032	0.085
-254.107	-40.415	0.170	-0.087
-253.092	97.007	-0.231	0.262
-252.078	800.000	-0.130	0.388
-251.063	800.000	0.116	-0.370
-250.049	-131.881	-0.303	0.039
-249.034	208.354	-0.183	0.282
-248.019	-19.005	0.315	-0.193
-247.005	-200.000	-0.032	-0.302
-245.990	800.000	-0.059	-0.223
-244.976	171.316	0.089	0.125
-243.961	494.498	-0.131	0.297
-242.946	-131.362	0.192	-0.025
-241.932	-49.012	-0.136	0.064
-240.917	-200.000	0.068	0.349
-239.903	-90.559	-0.140	-0.040
-238.888	233.284	0.084	0.136
-237.873	5.877	0.019	0.014
-236.859	-170.505	0.278	0.010
-235.844	396.487	-0.081	0.167
-234.830	-151.938	0.339	-0.024
-233.815	209.551	-0.012	0.018
-232.800	-119.916	-0.363	0.061
-231.786	106.526	0.113	-0.133
-230.771	800.000	-0.028	-0.120
-229.757	377.407	0.172	-0.346
-228.742	-88.386	-0.344	-0.101
-227.727	-200.000	0.040	-0.183
-226.713	190.412	0.063	0.093
-225.698	-200.000	-0.078	0.390
-224.684	416.640	-0.074	0.155
-223.669	-129.684	0.248	-0.034
-222.655	191.359	0.237	-0.351
-221.640	-200.000	-0.009	-0.100
-220.625	800.000	-0.092	-0.274
-219.611	-163.979	-0.119	-0.005
-218.596	-136.206	-0.338	0.039
-217.582	165.837	0.083	0.116
-216.567	-134.582	0.503	-0.060
-215.552	800.000	0.089	-0.253
-214.538	-142.869	-0.145	-0.014
-213.523	-105.673	0.322	-0.072
-212.509	-200.000	0.056	0.408
-211.494	675.148	0.054	-0.137
-210.479	800.000	0.139	0.410
-209.465	-39.839	0.116	0.060
-208.450	-63.203	0.124	0.050
-207.436	85.434	-0.078	0.084
-206.421	-36.687	-0.156	-0.083
-205.406	-9.939	0.215	0.141
-204.392	64.925	0.104	0.103
-203.377	563.691	0.050	-0.120
-202.363	-120.643	-0.090	0.015
-201.348	-89.997	-0.152	0.044
-200.333	-47.578	0.197	-0.094
-199.319	204.996	0.058	-0.088
-198.304	-9.977	-0.098	0.064
-197.290	82.870	0.193	0.206
-196.275	43.904	-0.156	0.141
-195.260	-200.000	0.019	-0.388
-194.246	-88.346	0.192	0.057
-193.231	416.172	0.050	-0.105
-192.217	-151.748	0.440	-0.032
-191.202	8.007	-0.231	0.170
-190.187	-23.381	0.153	0.090
-189.173	107.919	-0.160	0.188
-188.158	326.626	-0.032	0.060
-187.144	-170.566	-0.125	-0.004
-186.129	-42.567	0.026	0.013
-185.114	-103.773	0.077	0.018
-184.100	4.940	0.136	-0.099
-183.085	434.156	0.173	-0.370
-182.071	-129.237	-0.069	0.009
-181.056	196.787	0.021	-0.032
-180.042	82.801	0.098	0.105
-179.027	-200.000	0.048	0.386
-178.012	-41.611	0.126	0.064
-176.998	-200.000	0.093	0.420
-175.983	-40.449	-0.227	-0.116
-174.969	336.610	0.095	-0.181
-173.954	-26.391	-0.211	0.122
-172.939	-57.453	0.092	-0.040
-171.925	-200.000	0.042	-0.264
-170.910	-200.000	-0.079	-0.390
-169.896	-5.015	-0.102	-0.069
-168.881	-200.000	0.068	-0.348
-167.866	-200.000	0.005	0.320
-166.852	-30.237	-0.086	0.048
-165.837	-15.289	0.159	0.100
-164.823	173.463	0.161	0.229
-163.808	-140.460	0.259	-0.026
-162.793	-200.000	0.004	-0.347
-161.779	-153.053	-0.063	0.004
-160.764	112.603	0.027	0.032
-159.750	51.204	0.103	-0.097
-158.735	-57.947	-0.021	0.009
-157.720	-77.410	0.289	0.099
-156.706	-200.000	0.006	-0.201
-155.691	578.404	-0.075	-0.179
-154.677	-118.118	-0.230	0.040
-153.662	-95.634	-0.229	-0.060
-152.647	-1.286	-0.243	0.169
-151.633	60.529	0.154	-0.150
-150.618	-42.647	-0.375	0.188
-149.604	150.041	-0.233	0.311
-148.589	-200.000	0.012	-0.185
-147.574	800.000	0.041	-0.134
-146.560	141.305	-0.232	0.301
-145.545	-200.000	-0.043	-0.199
-144.531	-60.039	-0.142	-0.060
-143.516	179.226	0.077	-0.111
-142.502	-200.000	0.001	0.277
-141.487	80.781	0.135	-0.144
-140.472	-179.150	0.197	0.004
-139.458	14.559	0.361	-0.277
-138.443	-200.000	0.028	-0.225
-137.429	-46.387	-0.249	0.120
-136.414	-103.321	0.304	0.070
-135.399	86.015	-0.185	-0.200
-134.385	-22.986	-0.229	-0.136
-133.370	-200.000	-0.001	0.029
-132.356	-200.000	-0.037	-0.170
-131.341	-15.296	-0.276	-0.173
-130.326	72.068	0.125	0.128
-129.312	120.674	-0.063	-0.077
-128.297	-200.000	0.013	-0.188
-127.283	134.404	-0.257	-0.327
-126.268	800.000	-0.050	-0.186
-125.253	800.000	0.085	0.329
-124.239	-83.974	-0.154	-0.048
-123.224	-96.616	0.220	-0.057
-122.210	-165.001	0.132	-0.006
-121.195	194.798	0.319	0.475
