DTS Sentinel unit serial number:	SN413079Multiplexer serial number:	ORYXHardware model number:	OX4-SRSoftware version number:	ORYX F/W v4.00 Oryx Data Collector v3.7.2.0data status	okinstallation	princeton_trtdifferential loss correction	single-endedforward channel	channel 1reverse channel	N/Adate	2019/09/18time	09:10:35forward acquisition time	60.00reverse acquisition time	0.00gamma	496.2192k internal	0.2336k external	0.2336temperature offset calibration	0.9970default loss term (dB/km)	0.3790temperature slope calibration	1.0000multiplexer offset coefficient	1.0000multiplexer slope coefficient	1.0000fibre end	0.00T internal ref (°C)	25.50T ext. ref 1 (°C)	0.25T ext. ref 2 (°C)	22.81length (m)	temperature (°C)	Stokes	anti-Stokes-747.200	528.273	-0.189	0.448
-746.185	621.814	-0.092	0.232
-745.171	-103.581	-0.110	0.026
-744.156	251.205	-0.091	-0.155
-743.142	-200.000	0.024	-0.244
-742.127	-27.968	-0.350	0.203
-741.112	-10.941	0.064	-0.043
-740.098	105.717	-0.041	-0.049
-739.083	328.265	0.077	0.148
-738.069	-49.489	-0.294	0.141
-737.054	129.369	-0.076	0.097
-736.039	-117.136	0.282	0.052
-735.025	-117.711	0.205	-0.037
-734.010	-104.639	-0.191	-0.044
-732.996	800.000	-0.070	-0.228
-731.981	85.823	0.075	-0.083
-730.966	-103.620	-0.265	0.062
-729.952	702.127	-0.097	0.256
-728.937	-71.896	0.240	-0.089
-727.923	113.110	-0.149	0.182
-726.908	-186.122	-0.323	-0.005
-725.894	-51.228	-0.278	-0.131
-724.879	-72.142	0.085	-0.032
-723.864	171.862	-0.262	0.378
-722.850	96.976	0.052	0.059
-721.835	140.138	-0.153	0.202
-720.821	-3.698	-0.220	0.153
-719.806	-200.000	0.025	-0.196
-718.791	-109.444	-0.239	0.051
-717.777	-200.000	0.036	0.167
-716.762	237.804	-0.027	0.045
-715.748	13.892	0.175	-0.137
-714.733	-7.754	-0.594	0.402
-713.718	800.000	0.042	-0.174
-712.704	166.018	0.070	0.100
-711.689	133.007	-0.161	-0.208
-710.675	200.766	-0.112	0.173
-709.660	-200.000	0.344	0.000
-708.645	-84.738	-0.318	0.100
-707.631	281.789	0.056	0.101
-706.616	-112.130	0.277	-0.056
-705.602	-200.000	-0.004	-0.303
-704.587	-45.689	0.124	-0.062
-703.572	-80.787	-0.150	-0.050
-702.558	33.743	0.186	-0.162
-701.543	-200.000	0.010	0.179
-700.529	-66.866	0.228	0.090
-699.514	-5.421	0.121	-0.083
-698.499	49.861	-0.188	-0.178
-697.485	-91.518	0.240	0.069
-696.470	800.000	-0.107	-0.306
-695.456	28.320	0.238	-0.201
-694.441	-200.000	-0.005	-0.133
-693.426	138.465	-0.080	0.105
-692.412	84.135	-0.154	-0.169
-691.397	171.142	0.043	0.061
-690.383	-145.308	-0.208	0.019
-689.368	-13.320	0.082	0.053
-688.354	72.330	-0.116	-0.122
-687.339	-40.401	-0.085	0.044
-686.324	1.597	-0.246	-0.178
-685.310	-48.646	0.432	-0.208
-684.295	-200.000	-0.003	-0.044
-683.281	-25.796	-0.265	-0.156
-682.266	46.845	-0.186	0.173
-681.251	474.104	0.053	-0.119
-680.237	-200.000	0.010	0.171
-679.222	380.218	-0.071	-0.146
-678.208	281.766	0.097	-0.175
-677.193	533.730	-0.054	-0.128
-676.178	-200.000	-0.035	0.219
-675.164	-200.000	-0.046	-0.237
-674.149	-200.000	-0.053	-0.359
-673.135	800.000	0.048	-0.159
-672.120	800.000	-0.095	0.309
-671.105	237.929	-0.187	0.310
-670.091	-200.000	0.058	0.295
-669.076	-135.317	0.375	0.045
-668.062	3.026	-0.256	0.186
-667.047	800.000	-0.100	-0.318
-666.032	188.917	-0.141	-0.211
-665.018	123.777	-0.285	0.358
-664.003	293.343	0.091	-0.165
-662.989	-35.904	0.097	-0.052
-661.974	-148.960	-0.136	-0.011
-660.959	39.238	0.225	0.202
-659.945	800.000	-0.057	0.194
-658.930	-200.000	0.000	0.154
-657.916	62.703	0.206	-0.206
-656.901	-39.446	-0.176	-0.093
-655.886	-200.000	0.018	0.283
-654.872	-200.000	0.029	-0.266
-653.857	84.418	-0.062	0.068
-652.843	-61.533	-0.147	0.062
-651.828	-200.000	0.014	-0.253
-650.814	-25.042	-0.128	-0.076
-649.799	210.338	0.019	-0.029
-648.784	-133.720	0.161	0.020
-647.770	-200.000	0.034	-0.346
-646.755	779.823	0.026	0.072
-645.741	-62.716	0.074	0.031
-644.726	-200.000	-0.023	0.218
-643.711	800.000	-0.037	0.108
-642.697	-200.000	0.042	-0.376
-641.682	800.000	-0.073	-0.239
-640.668	-200.000	0.046	0.399
-639.653	58.490	-0.156	-0.153
-638.638	362.936	-0.083	0.167
-637.624	-62.137	-0.194	0.081
-636.609	-130.249	0.283	-0.039
-635.595	-94.933	-0.331	-0.090
-634.580	166.871	0.153	-0.218
-633.565	272.117	0.046	-0.080
-632.551	-200.000	-0.046	-0.320
-631.536	530.715	-0.036	-0.085
-630.522	323.332	0.062	0.118
-629.507	-30.520	0.213	0.121
-628.492	350.933	-0.102	0.202
-627.478	-84.941	0.206	-0.065
-626.463	-3.109	-0.187	0.130
-625.449	-140.220	0.053	0.006
-624.434	-2.074	-0.118	-0.083
-623.419	-200.000	0.022	0.100
-622.405	-82.933	-0.382	0.123
-621.390	-64.698	0.175	-0.071
-620.376	-136.561	0.219	0.025
-619.361	800.000	-0.034	0.111
-618.346	-73.384	-0.213	0.078
-617.332	201.947	0.178	-0.274
-616.317	85.670	-0.168	-0.184
-615.303	-176.770	0.146	0.004
-614.288	218.562	0.148	0.236
-613.273	221.257	0.119	-0.191
-612.259	180.933	-0.141	-0.206
-611.244	-200.000	0.015	-0.224
-610.230	-101.482	0.139	-0.034
-609.215	677.657	0.069	-0.178
-608.201	339.533	0.022	0.043
-607.186	-131.107	-0.330	0.044
-606.171	-200.000	-0.000	0.272
-605.157	59.365	0.082	-0.081
-604.142	-112.281	0.241	-0.048
-603.128	157.060	-0.219	-0.302
-602.113	-200.000	0.086	-0.386
-601.098	562.681	0.101	-0.243
-600.084	-163.205	0.153	-0.007
-599.069	703.333	0.104	-0.273
-598.055	800.000	0.005	0.020
-597.040	220.415	-0.033	0.053
-596.025	-103.487	-0.010	0.002
-595.011	-57.441	0.205	0.090
-593.996	-114.884	0.089	0.017
-592.982	-64.109	0.394	-0.161
-591.967	-123.204	-0.095	0.015
-590.952	-106.544	-0.306	-0.068
-589.938	-200.000	0.042	0.266
-588.923	-36.416	-0.210	-0.113
-587.909	350.285	-0.195	-0.385
-586.894	-5.777	-0.053	-0.036
-585.879	20.109	0.105	-0.084
-584.865	-172.694	-0.171	0.005
-583.850	800.000	-0.055	-0.193
-582.836	753.189	0.070	0.190
-581.821	24.776	-0.062	0.052
-580.806	800.000	-0.031	0.112
-579.792	-200.000	0.086	-0.450
-578.777	-158.030	0.437	-0.026
-577.763	-31.834	-0.181	0.101
-576.748	141.572	-0.289	0.383
-575.733	-200.000	0.018	-0.169
-574.719	-41.022	0.160	0.082
-573.704	-146.424	0.296	-0.026
-572.690	-101.532	0.203	0.049
-571.675	196.629	0.126	-0.191
-570.661	46.041	-0.212	0.195
-569.646	4.487	0.304	-0.223
-568.631	-107.472	-0.112	-0.024
-567.617	-40.818	0.092	-0.048
-566.602	41.736	-0.076	-0.069
-565.588	4.860	0.100	0.074
-564.573	-7.052	0.080	0.054
-563.558	328.488	-0.074	0.141
-562.544	-200.000	0.015	-0.355
-561.529	-111.707	-0.274	0.055
-560.515	-200.000	-0.049	-0.241
-559.500	-94.677	-0.101	0.027
-558.485	24.647	0.295	-0.243
-557.471	182.244	-0.109	0.159
-556.456	77.329	-0.118	0.125
-555.442	-76.300	-0.170	0.060
-554.427	95.420	0.148	-0.168
-553.412	-200.000	-0.010	-0.166
-552.398	-79.326	-0.313	0.106
-551.383	-200.000	0.009	0.159
-550.369	800.000	-0.029	-0.093
-549.354	-70.067	0.085	-0.032
-548.339	-57.098	-0.228	-0.100
-547.325	675.827	-0.015	-0.038
-546.310	270.827	-0.076	-0.133
-545.296	-200.000	-0.016	-0.129
-544.281	-52.498	-0.091	-0.042
-543.266	-200.000	0.121	0.569
-542.252	-1.251	0.124	-0.087
-541.237	-123.586	-0.089	-0.014
-540.223	109.450	0.191	-0.228
-539.208	214.405	0.064	-0.101
-538.193	-200.000	0.016	-0.227
-537.179	-200.000	-0.014	-0.101
-536.164	96.315	-0.177	-0.202
-535.150	-200.000	0.042	-0.216
-534.135	800.000	-0.101	-0.292
-533.121	-200.000	0.002	-0.343
-532.106	243.909	-0.126	-0.210
-531.091	109.082	-0.171	0.204
-530.077	-200.000	-0.033	-0.284
-529.062	-29.728	-0.091	0.052
-528.048	-159.992	-0.177	-0.010
-527.033	800.000	-0.075	-0.212
-526.018	125.032	0.047	-0.059
-525.004	106.856	-0.142	0.168
-523.989	-200.000	0.011	-0.082
-522.975	-200.000	-0.004	-0.062
-521.960	-78.537	-0.107	0.036
-520.945	47.205	0.134	0.124
-519.931	188.114	-0.078	-0.116
-518.916	-121.033	0.358	-0.060
-517.902	800.000	-0.019	0.062
-516.887	10.888	-0.422	-0.321
-515.872	-72.469	0.052	-0.019
-514.858	606.535	0.131	0.325
-513.843	-78.349	0.058	0.020
-512.829	-32.940	0.314	0.173
-511.814	-200.000	0.005	-0.070
-510.799	-35.055	0.142	-0.077
-509.785	-97.205	-0.323	-0.084
-508.770	36.627	-0.131	0.115
-507.756	9.366	-0.151	0.114
-506.741	515.053	0.030	0.071
-505.726	-27.227	0.160	-0.092
-504.712	65.927	-0.152	0.154
-503.697	-167.810	-0.152	0.006
-502.683	53.607	-0.232	-0.222
-501.668	-200.000	-0.025	-0.177
-500.653	-200.000	0.002	0.125
-499.639	-58.973	-0.336	-0.144
-498.624	-61.507	0.393	0.164
-497.610	-92.671	-0.037	-0.010
-496.595	-108.678	-0.426	-0.091
-495.581	-145.713	0.097	-0.009
-494.566	-103.133	-0.221	0.052
-493.551	98.475	-0.238	0.273
-492.537	13.137	0.083	-0.064
-491.522	189.124	0.078	0.116
-490.508	-111.313	-0.169	0.034
-489.493	-200.000	-0.003	0.099
-488.478	51.250	-0.218	0.206
-487.464	452.875	0.070	-0.155
-486.449	-200.000	0.024	0.131
-485.435	211.926	0.131	-0.205
-484.420	-53.725	0.252	-0.115
-483.405	-173.133	-0.107	0.003
-482.391	-200.000	0.005	0.053
-481.376	186.406	0.243	-0.360
-480.362	-71.752	-0.145	0.054
-479.347	-200.000	0.007	0.339
-478.332	-155.050	0.236	0.015
-477.318	-200.000	-0.004	-0.066
-476.303	-30.560	0.141	-0.080
-475.289	-118.486	0.195	0.034
-474.274	-200.000	-0.014	-0.266
-473.259	57.866	-0.211	0.205
-472.245	-200.000	-0.015	-0.183
-471.230	-78.075	0.210	-0.072
-470.216	504.082	-0.120	-0.276
-469.201	-200.000	-0.011	-0.187
-468.186	174.482	0.110	0.159
-467.172	-200.000	-0.004	0.074
-466.157	563.569	0.048	-0.116
-465.143	-66.190	-0.228	0.090
-464.128	-71.974	-0.262	0.097
-463.113	-64.084	0.257	-0.104
-462.099	728.807	-0.100	0.265
-461.084	-88.226	-0.191	-0.057
-460.070	-200.000	0.047	0.419
-459.055	-60.030	0.160	0.068
-458.040	75.376	0.343	-0.360
-457.026	-200.000	-0.033	0.289
-456.011	86.845	0.157	-0.172
-454.997	-38.335	-0.016	-0.008
-453.982	-200.000	-0.054	-0.264
-452.968	-43.757	-0.283	-0.141
-451.953	-200.000	0.003	-0.113
-450.938	-200.000	-0.008	0.084
-449.924	-106.175	0.156	0.035
-448.909	-129.667	-0.207	-0.028
-447.895	-74.111	-0.214	-0.077
-446.880	-147.839	-0.381	0.032
-445.865	410.530	0.089	-0.188
-444.851	-200.000	0.002	-0.119
-443.836	191.107	0.116	-0.173
-442.822	800.000	-0.059	0.226
-441.807	-117.445	-0.128	0.023
-440.792	800.000	0.050	-0.203
-439.778	-175.916	-0.188	0.005
-438.763	21.609	-0.037	-0.030
-437.749	574.606	-0.053	0.130
-436.734	800.000	-0.111	0.413
-435.719	244.760	-0.123	0.204
-434.705	-177.434	0.147	0.004
-433.690	-135.973	0.190	0.022
-432.676	165.330	-0.112	0.157
-431.661	700.493	0.106	0.278
-430.646	35.764	0.195	0.170
-429.632	-106.846	-0.262	-0.058
-428.617	-87.245	0.339	0.102
-427.603	427.917	-0.186	-0.399
-426.588	-47.415	0.188	0.091
-425.573	-107.434	-0.307	-0.067
-424.559	15.847	0.232	-0.181
-423.544	-110.387	0.087	-0.018
-422.530	183.675	0.163	-0.239
-421.515	218.234	-0.082	0.129
-420.500	24.394	0.161	-0.132
-419.486	184.662	0.113	-0.167
-418.471	-84.317	-0.072	-0.023
-417.457	43.337	0.035	-0.032
-416.442	42.503	-0.193	0.174
-415.428	561.674	0.073	-0.175
-414.413	-200.000	-0.005	0.109
-413.398	2.910	0.369	-0.266
-412.384	385.115	0.043	0.087
-411.369	-200.000	-0.201	0.000
-410.355	73.158	0.124	0.128
-409.340	-28.851	0.194	-0.111
-408.325	-147.611	-0.094	0.008
-407.311	204.542	-0.131	-0.201
-406.296	32.252	0.090	-0.077
-405.282	363.054	-0.098	-0.196
-404.267	800.000	-0.067	-0.280
-403.252	-125.837	-0.045	0.007
-402.238	-130.148	0.165	-0.022
-401.223	-142.735	-0.153	-0.015
-400.209	-182.096	0.191	0.004
-399.194	-156.605	-0.252	-0.016
-398.179	-59.151	0.176	0.075
-397.165	-185.726	-0.424	0.006
-396.150	24.325	0.102	0.084
-395.136	-41.687	0.163	-0.083
-394.121	194.550	-0.063	-0.094
-393.106	-200.000	-0.056	-0.249
-392.092	2.624	0.070	-0.050
-391.077	183.452	-0.074	0.108
-390.063	-29.652	-0.121	0.068
-389.048	-200.000	-0.020	0.160
-388.033	464.351	-0.176	0.390
-387.019	195.312	0.048	0.072
-386.004	800.000	-0.088	-0.271
-384.990	-200.000	0.012	0.098
-383.975	-200.000	-0.001	-0.056
-382.960	33.833	0.131	-0.113
-381.946	800.000	-0.068	-0.266
-380.931	-200.000	-0.046	-0.245
-379.917	166.202	0.197	-0.276
-378.902	258.526	-0.034	-0.058
-377.888	-48.110	-0.288	-0.138
-376.873	-200.000	0.075	-0.375
-375.858	627.615	0.107	0.267
-374.844	800.000	-0.138	0.432
-373.829	151.029	-0.103	0.138
-372.815	-135.153	-0.140	-0.017
-371.800	800.000	-0.085	-0.345
-370.785	-7.842	0.104	0.070
-369.771	-59.924	0.057	-0.024
-368.756	-88.843	0.518	0.152
-367.742	-1.806	-0.127	0.089
-366.727	7.758	0.038	0.028
-365.712	-133.158	-0.187	-0.023
-364.698	-134.628	0.108	0.013
-363.683	201.002	-0.147	0.223
-362.669	-127.847	-0.364	0.052
-361.654	-121.898	0.197	-0.032
-360.639	105.758	0.093	-0.109
-359.625	88.222	-0.156	0.171
-358.610	800.000	-0.023	0.073
-357.596	-61.744	0.212	0.088
-356.581	800.000	-0.117	-0.349
-355.566	800.000	0.075	-0.262
-354.552	-200.000	0.051	-0.251
-353.537	800.000	0.103	0.364
-352.523	-86.389	0.164	-0.050
-351.508	800.000	-0.036	-0.137
-350.493	184.634	-0.310	-0.454
-349.479	-90.557	-0.514	0.147
-348.464	-200.000	-0.021	0.243
-347.450	163.450	0.124	0.172
-346.435	-2.676	0.065	-0.045
-345.420	-130.865	0.340	0.045
-344.406	229.905	0.118	-0.191
-343.391	-200.000	0.005	-0.110
-342.377	-14.903	-0.107	0.068
-341.362	214.991	0.208	-0.326
-340.348	800.000	0.059	0.233
-339.333	800.000	0.110	0.384
-338.318	447.766	0.165	0.360
-337.304	-90.299	-0.323	0.093
-336.289	-41.349	-0.199	-0.101
-335.275	68.957	0.225	0.229
-334.260	102.006	-0.092	0.106
-333.245	99.834	0.202	-0.231
-332.231	-35.309	0.329	0.177
-331.216	282.461	-0.122	0.216
-330.202	-79.176	-0.179	0.060
-329.187	-200.000	-0.007	0.266
-328.172	257.109	0.106	-0.180
-327.158	-42.322	0.057	0.029
-326.143	20.603	0.327	-0.262
-325.129	57.730	-0.305	-0.294
-324.114	800.000	0.021	-0.059
-323.099	-105.178	0.351	0.079
-322.085	378.641	-0.068	-0.137
-321.070	-8.572	-0.250	0.166
-320.056	-55.055	-0.287	0.128
-319.041	-114.258	0.055	0.010
-318.026	800.000	0.075	0.254
-317.012	134.796	0.209	-0.269
-315.997	-200.000	0.047	-0.296
-314.983	-200.000	-0.012	0.078
-313.968	800.000	0.063	0.194
-312.953	800.000	0.063	0.191
-311.939	117.131	0.123	-0.149
-310.924	-9.033	0.311	-0.206
-309.910	220.278	0.162	-0.257
-308.895	-51.209	-0.097	0.045
-307.880	73.832	0.227	-0.235
-306.866	11.347	-0.224	-0.170
-305.851	327.122	-0.141	0.267
-304.837	34.592	0.163	-0.140
-303.822	-45.454	0.206	0.101
-302.807	400.446	0.089	-0.185
-301.793	800.000	0.024	0.088
-300.778	-138.386	0.213	0.023
-299.764	-3.875	0.190	-0.130
-298.749	595.298	-0.051	-0.124
-297.735	-200.000	0.015	-0.295
-296.720	-25.154	0.195	-0.114
-295.705	4.931	-0.225	0.164
-294.691	-96.628	-0.218	0.057
-293.676	-200.000	-0.043	-0.669
-292.662	32.145	0.246	0.209
-291.647	23.383	-0.408	0.331
-290.632	-157.716	-0.308	0.018
-289.618	800.000	-0.072	0.290
-288.603	-158.234	0.685	-0.039
-287.589	70.630	-0.260	-0.265
-286.574	239.031	0.074	0.122
-285.559	248.761	-0.081	0.135
-284.545	63.486	0.212	0.210
-283.530	-200.000	0.019	0.197
-282.516	475.747	0.084	0.188
-281.501	165.286	-0.374	0.522
-280.486	-200.000	-0.005	0.157
-279.472	246.684	-0.097	0.161
-278.457	247.052	-0.162	-0.269
-277.443	800.000	0.070	-0.228
-276.428	-200.000	-0.016	0.121
-275.413	132.310	0.055	-0.070
-274.399	262.703	0.185	-0.316
-273.384	-10.850	-0.118	-0.077
-272.370	800.000	0.069	0.230
-271.355	800.000	-0.148	-0.455
-270.340	800.000	-0.148	0.416
-269.326	-102.231	-0.222	-0.053
-268.311	-23.150	-0.192	-0.114
-267.297	22.508	-0.133	0.107
-266.282	-200.000	-0.042	0.387
-265.267	-117.169	0.028	-0.005
-264.253	-131.555	-0.131	-0.017
-263.238	-135.084	-0.316	0.037
-262.224	64.332	0.055	-0.055
-261.209	800.000	0.020	-0.072
-260.195	-20.694	-0.274	-0.166
-259.180	284.043	0.198	-0.351
-258.165	14.076	-0.175	0.134
-257.151	-70.801	-0.101	0.037
-256.136	-200.000	-0.080	0.506
-255.122	19.944	-0.325	0.258
-254.107	375.939	0.038	-0.075
-253.092	225.921	0.105	0.167
-252.078	123.474	0.195	-0.241
-251.063	-7.103	0.056	-0.037
-250.049	199.056	-0.059	0.089
-249.034	547.990	-0.126	0.298
-248.019	-200.000	0.018	0.242
-247.005	69.901	0.129	-0.131
-245.990	-39.300	0.251	0.130
-244.976	-200.000	0.011	0.083
-243.961	231.519	-0.273	-0.440
-242.946	-200.000	-0.064	-0.279
-241.932	-42.969	0.160	0.080
-240.917	-200.000	-0.034	0.294
-239.903	82.109	0.223	0.238
-238.888	35.180	-0.219	0.189
-237.873	788.744	-0.120	0.325
-236.859	334.846	-0.015	0.028
-235.844	18.273	0.215	-0.169
-234.830	294.254	0.146	0.263
-233.815	800.000	0.033	-0.089
-232.800	-186.050	-0.077	-0.001
-231.786	-84.598	-0.411	0.128
-230.771	-200.000	0.002	-0.116
-229.757	-150.867	0.080	-0.006
-228.742	47.437	-0.106	0.097
-227.727	-200.000	-0.007	-0.304
-226.713	261.822	0.090	-0.154
-225.698	-200.000	-0.066	0.312
-224.684	591.169	0.120	0.291
-223.669	-75.212	-0.136	0.048
-222.655	-200.000	-0.046	-0.198
-221.640	-177.649	0.249	0.006
-220.625	-200.000	0.050	0.386
-219.611	-200.000	0.000	-0.011
-218.596	800.000	0.061	-0.207
-217.582	-200.000	0.001	0.259
-216.567	470.123	-0.054	0.120
-215.552	226.592	0.024	0.038
-214.538	-162.671	-0.115	-0.006
-213.523	-189.550	0.312	-0.004
-212.509	62.701	0.264	0.259
-211.494	-66.350	-0.094	-0.037
-210.479	-108.480	-0.089	0.019
-209.465	-200.000	0.029	0.301
-208.450	65.963	-0.165	0.165
-207.436	133.368	0.140	0.178
-206.421	-24.680	0.123	-0.072
-205.406	-29.574	0.061	0.034
-204.392	59.363	-0.284	0.275
-203.377	260.919	-0.113	-0.193
-202.363	800.000	0.072	0.214
-201.348	-99.344	-0.245	-0.061
-200.333	-200.000	0.044	0.296
-199.319	-200.000	0.009	0.061
-198.304	-66.991	0.258	-0.100
-197.290	-62.531	-0.321	-0.131
-196.275	587.952	0.078	0.189
-195.260	1.759	-0.111	0.079
-194.246	-200.000	-0.015	0.128
-193.231	-51.630	-0.069	-0.031
-192.217	-127.371	0.190	-0.027
-191.202	-200.000	0.008	0.188
-190.187	51.833	-0.195	0.182
-189.173	-55.375	0.114	-0.050
-188.158	103.497	0.113	0.131
-187.144	603.754	0.076	0.186
-186.129	-136.216	0.144	0.017
-185.114	-200.000	-0.005	-0.123
-184.100	-26.389	-0.180	0.104
-183.085	131.861	-0.131	0.166
-182.071	159.880	-0.097	0.133
-181.056	-119.088	-0.437	-0.075
-180.042	15.404	0.400	-0.309
-179.027	-200.000	0.039	0.208
-178.012	-54.879	-0.421	-0.187
-176.998	-70.262	-0.122	0.046
-175.983	428.015	0.016	0.034
-174.969	-109.310	0.058	-0.012
-173.954	800.000	-0.044	0.172
-172.939	-52.231	0.267	0.121
-171.925	-92.429	0.204	-0.056
-170.910	671.363	0.133	0.338
-169.896	-174.379	0.380	0.011
-168.881	-42.265	-0.227	0.114
-167.866	-113.894	0.168	0.032
-166.852	233.005	0.141	-0.228
-165.837	3.893	0.427	0.306
-164.823	422.893	-0.130	0.275
-163.808	-142.049	-0.195	-0.019
-162.793	-15.795	-0.323	0.202
-161.779	-111.440	0.191	-0.038
-160.764	800.000	0.047	0.148
-159.750	25.961	0.369	0.302
-158.735	-150.774	-0.141	-0.011
-157.720	800.000	0.046	0.187
-156.706	-200.000	-0.005	0.467
-155.691	-81.236	0.395	-0.128
-154.677	-139.965	0.282	-0.029
-153.662	34.494	0.098	-0.084
-152.647	21.431	0.285	-0.228
-151.633	-200.000	0.004	0.137
-150.618	800.000	0.055	0.165
-149.604	63.833	-0.264	0.260
-148.589	-81.942	-0.402	-0.129
-147.574	16.551	-0.172	0.133
-146.560	800.000	0.067	-0.187
-145.545	-200.000	-0.015	-0.256
-144.531	28.000	0.108	-0.089
-143.516	55.089	-0.165	-0.156
-142.502	37.978	0.063	0.055
-141.487	-66.660	0.325	0.126
-140.472	-200.000	-0.013	-0.074
-139.458	137.004	0.245	0.314
-138.443	-63.965	0.167	0.067
-137.429	-58.922	0.399	0.169
-136.414	3.257	-0.139	-0.099
-135.399	-10.659	-0.376	0.244
-134.385	-119.419	-0.043	-0.007
-133.370	-200.000	0.032	-0.302
-132.356	-121.744	0.104	0.017
-131.341	250.672	0.072	0.121
-130.326	27.262	-0.284	-0.234
-129.312	-29.580	-0.268	0.150
-128.297	-193.775	0.091	0.001
-127.283	800.000	0.023	-0.096
-126.268	-200.000	0.006	0.407
-125.253	-171.599	-0.190	0.006
-124.239	-200.000	-0.078	-0.485
-123.224	-38.921	0.143	0.074
-122.210	-38.712	0.084	0.043
-121.195	-12.477	-0.204	0.131
