DTS Sentinel unit serial number:	SN413079Multiplexer serial number:	ORYXHardware model number:	OX4-SRSoftware version number:	ORYX F/W v4.00 Oryx Data Collector v3.7.2.0data status	okinstallation	princeton_trtdifferential loss correction	single-endedforward channel	channel 1reverse channel	N/Adate	2019/09/12time	15:16:11forward acquisition time	60.00reverse acquisition time	0.00gamma	496.2192k internal	0.2292k external	0.2292temperature offset calibration	1.0055default loss term (dB/km)	0.3790temperature slope calibration	1.0000multiplexer offset coefficient	1.0000multiplexer slope coefficient	1.0000fibre end	0.00T internal ref (°C)	40.75T ext. ref 1 (°C)	2.38T ext. ref 2 (°C)	38.01length (m)	temperature (°C)	Stokes	anti-Stokes-747.200	-42.959	0.135	-0.070
-746.185	800.000	-0.116	0.353
-745.171	-200.000	-0.032	-0.248
-744.156	-200.000	-0.030	0.190
-743.142	-14.450	-0.337	-0.222
-742.127	-24.868	-0.331	0.201
-741.112	-68.668	0.273	-0.108
-740.098	-97.016	-0.776	-0.208
-739.083	41.842	-0.053	0.049
-738.069	-41.868	0.244	0.128
-737.054	159.097	0.173	0.246
-736.039	53.430	-0.222	-0.217
-735.025	74.061	0.236	-0.253
-734.010	-200.000	-0.036	-0.198
-732.996	-200.000	-0.093	-0.451
-731.981	30.042	-0.118	0.103
-730.966	89.604	-0.113	-0.129
-729.952	114.313	-0.255	0.318
-728.937	800.000	0.056	0.167
-727.923	-36.789	0.183	0.100
-726.908	170.806	0.076	-0.111
-725.894	-66.166	-0.131	0.053
-724.879	15.066	0.047	0.037
-723.864	242.138	-0.153	-0.262
-722.850	-109.147	-0.126	-0.027
-721.835	-79.272	0.357	0.124
-720.821	-91.626	-0.336	-0.098
-719.806	560.907	0.025	-0.061
-718.791	624.891	0.128	-0.329
-717.777	218.282	-0.058	-0.094
-716.762	-200.000	0.011	-0.279
-715.748	800.000	-0.032	-0.095
-714.733	800.000	-0.119	-0.365
-713.718	-41.222	0.155	0.082
-712.704	111.016	-0.162	0.200
-711.689	-200.000	-0.046	-0.217
-710.675	432.207	0.151	-0.335
-709.660	38.302	-0.194	-0.177
-708.645	800.000	-0.062	0.213
-707.631	109.114	-0.323	-0.394
-706.616	706.074	-0.047	0.126
-705.602	-118.044	0.205	0.037
-704.587	521.553	0.056	0.133
-703.572	509.005	0.091	0.216
-702.558	168.652	-0.210	0.306
-701.543	602.971	0.105	0.266
-700.529	-24.169	0.076	-0.046
-699.514	104.806	-0.132	0.159
-698.499	800.000	-0.042	0.156
-697.485	346.833	0.141	0.283
-696.470	-200.000	-0.044	0.378
-695.456	800.000	0.044	-0.162
-694.441	800.000	0.071	0.302
-693.426	453.988	-0.100	-0.227
-692.412	-39.620	-0.142	-0.076
-691.397	155.953	0.101	0.142
-690.383	-9.539	-0.251	0.171
-689.368	-68.753	0.160	0.063
-688.354	27.156	0.096	-0.082
-687.339	-28.450	-0.135	0.079
-686.324	-137.019	-0.427	-0.050
-685.310	-200.000	-0.096	0.000
-684.295	-106.260	0.289	0.066
-683.281	-17.429	0.346	-0.222
-682.266	100.274	0.153	-0.181
-681.251	-2.625	-0.116	-0.083
-680.237	106.326	-0.130	-0.157
-679.222	47.578	0.037	-0.035
-678.208	-40.664	-0.037	0.020
-677.193	-116.579	-0.400	-0.075
-676.178	57.154	0.142	-0.141
-675.164	2.200	0.101	0.075
-674.149	375.980	0.134	-0.279
-673.135	160.906	0.164	0.234
-672.120	329.383	-0.186	-0.364
-671.105	7.304	0.042	-0.032
-670.091	43.105	-0.120	-0.112
-669.076	-70.026	0.069	0.027
-668.062	-81.923	-0.095	0.032
-667.047	45.643	0.155	-0.146
-666.032	800.000	0.034	-0.140
-665.018	-65.470	0.008	-0.003
-664.003	-200.000	-0.026	-0.397
-662.989	-35.249	0.076	-0.042
-661.974	-26.485	0.278	0.166
-660.959	16.910	0.192	0.155
-659.945	64.786	0.286	0.295
-658.930	800.000	-0.067	-0.253
-657.916	-56.165	-0.154	0.070
-656.901	157.239	-0.242	-0.342
-655.886	-200.000	-0.004	-0.206
-654.872	271.406	-0.177	-0.319
-653.857	-200.000	0.027	-0.245
-652.843	-49.361	-0.142	0.069
-651.828	-13.156	0.323	0.214
-650.814	-125.562	0.259	-0.040
-649.799	435.631	-0.064	-0.142
-648.784	82.474	0.298	0.330
-647.770	-23.579	-0.210	0.129
-646.755	227.901	-0.081	0.134
-645.741	151.556	0.101	-0.140
-644.726	287.967	0.197	-0.364
-643.711	53.287	-0.151	-0.148
-642.697	526.216	0.078	0.188
-641.682	-177.814	0.281	0.007
-640.668	-200.000	0.005	0.132
-639.653	19.493	-0.161	-0.132
-638.638	124.338	-0.090	0.115
-637.624	-6.312	0.229	-0.159
-636.609	150.280	0.210	-0.291
-635.595	298.002	-0.096	-0.179
-634.580	-104.371	0.060	-0.014
-633.565	-200.000	0.014	0.148
-632.551	128.228	0.037	0.048
-631.536	-200.000	-0.037	0.232
-630.522	-200.000	0.317	0.000
-629.507	-25.035	0.140	-0.085
-628.492	-38.106	-0.458	-0.247
-627.478	-154.389	0.214	0.015
-626.463	800.000	-0.023	0.094
-625.449	-200.000	-0.027	-0.224
-624.434	27.766	-0.273	-0.235
-623.419	-200.000	-0.052	0.333
-622.405	17.956	-0.312	0.253
-621.390	-200.000	0.037	-0.368
-620.376	301.056	-0.105	-0.197
-619.361	-200.000	0.015	0.072
-618.346	-131.308	-0.158	0.021
-617.332	354.406	-0.125	0.253
-616.317	18.730	0.073	-0.059
-615.303	-200.000	0.019	0.111
-614.288	-121.725	-0.211	0.036
-613.273	-200.000	-0.005	0.074
-612.259	-200.000	0.036	0.209
-611.244	80.947	-0.181	-0.199
-610.230	11.047	0.161	-0.126
-609.215	-200.000	-0.013	0.122
-608.201	-83.412	0.140	-0.046
-607.186	47.731	0.188	-0.179
-606.171	-200.000	0.025	-0.309
-605.157	350.103	0.115	-0.231
-604.142	-200.000	-0.018	-0.213
-603.128	-200.000	-0.220	0.001
-602.113	-17.133	0.031	-0.020
-601.098	-10.064	0.053	-0.036
-600.084	-65.530	-0.105	0.043
-599.069	-34.328	-0.085	0.047
-598.055	-200.000	0.019	0.093
-597.040	151.697	-0.022	0.030
-596.025	-32.552	-0.260	0.148
-595.011	-137.939	0.047	-0.005
-593.996	-200.000	0.005	0.256
-592.982	-3.073	0.244	-0.173
-591.967	-48.124	-0.083	0.041
-590.952	-105.185	-0.146	-0.034
-589.938	-25.123	0.389	-0.234
-588.923	800.000	0.017	0.077
-587.909	-32.546	0.104	-0.059
-586.894	-157.560	-0.398	0.024
-585.879	42.654	-0.085	-0.079
-584.865	-87.529	0.260	-0.080
-583.850	-194.126	-0.150	-0.001
-582.836	-120.932	0.477	-0.082
-581.821	-200.000	0.018	0.256
-580.806	301.668	-0.143	-0.268
-579.792	6.151	-0.147	-0.111
-578.777	106.152	-0.273	0.328
-577.763	-200.000	-0.040	-0.419
-576.748	-110.136	0.190	-0.040
-575.733	-0.754	0.193	-0.139
-574.719	-112.211	-0.172	0.035
-573.704	428.593	-0.065	-0.143
-572.690	657.959	0.113	-0.295
-571.675	-122.041	-0.153	-0.026
-570.661	-9.693	-0.333	-0.226
-569.646	-60.577	0.499	-0.215
-568.631	-87.654	-0.266	0.082
-567.617	-63.911	0.332	0.138
-566.602	-200.000	-0.040	-0.508
-565.588	166.154	-0.278	-0.399
-564.573	22.856	0.299	0.249
-563.558	-42.949	-0.165	-0.085
-562.544	462.223	-0.046	-0.103
-561.529	64.298	-0.300	0.306
-560.515	122.636	-0.079	0.100
-559.500	82.665	0.158	0.174
-558.485	800.000	0.017	0.069
-557.471	14.407	-0.236	0.187
-556.456	800.000	0.034	-0.097
-555.442	160.391	0.161	-0.229
-554.427	-200.000	0.023	-0.337
-553.412	-25.877	-0.183	0.110
-552.398	84.860	0.073	0.081
-551.383	378.238	-0.080	0.167
-550.369	81.729	-0.044	0.048
-549.354	49.857	0.097	0.093
-548.339	67.127	-0.149	-0.154
-547.325	1.015	-0.179	-0.130
-546.310	-43.738	0.338	0.173
-545.296	-86.205	-0.223	-0.070
-544.281	-83.697	0.400	-0.130
-543.266	-10.824	-0.025	0.017
-542.252	610.552	-0.116	0.294
-541.237	278.046	-0.058	0.105
-540.223	90.337	0.193	0.219
-539.208	30.056	0.090	0.078
-538.193	-111.765	-0.081	-0.017
-537.179	-200.000	-0.019	-0.162
-536.164	-169.999	-0.134	-0.005
-535.150	654.722	0.066	0.172
-534.135	-98.979	-0.095	0.024
-533.121	86.107	0.067	-0.075
-532.106	64.827	0.078	-0.080
-531.091	800.000	-0.042	-0.179
-530.077	-45.303	-0.139	-0.070
-529.062	800.000	-0.020	0.071
-528.048	800.000	0.039	-0.127
-527.033	-200.000	0.022	0.225
-526.018	-177.677	0.137	-0.003
-525.004	539.356	0.067	0.161
-523.989	-200.000	-0.026	0.226
-522.975	-86.433	0.126	-0.039
-521.960	72.908	-0.118	-0.125
-520.945	-200.000	-0.001	-0.016
-519.931	-16.808	0.245	0.157
-518.916	45.895	0.079	0.074
-517.902	-128.141	-0.059	-0.009
-516.887	-98.873	0.314	0.081
-515.872	-32.390	0.224	0.127
-514.858	-123.894	-0.023	-0.004
-513.843	800.000	-0.074	-0.283
-512.829	24.533	-0.187	0.157
-511.814	548.677	0.087	0.211
-510.799	-200.000	0.008	-0.180
-509.785	-83.530	-0.388	-0.126
-508.770	56.836	-0.064	-0.063
-507.756	66.308	-0.144	0.149
-506.741	-16.570	0.110	-0.071
-505.726	-78.041	-0.062	0.022
-504.712	-104.803	0.274	0.064
-503.697	-200.000	-0.015	-0.122
-502.683	567.424	-0.131	-0.323
-501.668	-200.000	0.013	-0.061
-500.653	-68.076	-0.111	-0.044
-499.639	-56.885	-0.064	-0.029
-498.624	454.368	-0.118	0.265
-497.610	800.000	0.097	0.327
-496.595	-30.753	0.216	-0.124
-495.581	800.000	-0.109	-0.379
-494.566	520.265	-0.084	-0.199
-493.551	-2.712	0.226	-0.160
-492.537	-156.215	-0.560	0.036
-491.522	800.000	-0.025	-0.105
-490.508	300.232	-0.105	-0.197
-489.493	-62.641	0.204	0.086
-488.478	24.737	-0.161	0.135
-487.464	-77.795	0.237	-0.083
-486.449	-75.180	-0.233	0.084
-485.435	800.000	-0.124	-0.349
-484.420	-200.000	-0.012	0.464
-483.405	800.000	-0.071	-0.305
-482.391	-74.919	0.052	0.019
-481.376	217.533	0.163	-0.264
-480.362	800.000	-0.078	-0.233
-479.347	-200.000	0.048	-0.276
-478.332	-106.421	0.100	0.023
-477.318	800.000	-0.102	-0.286
-476.303	382.318	-0.137	0.285
-475.289	-200.000	0.040	0.242
-474.274	-85.285	0.149	0.047
-473.259	800.000	-0.022	0.068
-472.245	-169.991	0.257	0.009
-471.230	800.000	-0.025	-0.103
-470.216	-171.979	0.165	0.005
-469.201	50.143	-0.046	-0.044
-468.186	800.000	0.068	-0.266
-467.172	-109.304	0.530	-0.114
-466.157	800.000	0.024	0.088
-465.143	-200.000	0.018	0.323
-464.128	-16.103	0.202	-0.130
-463.113	-80.414	-0.246	-0.083
-462.099	800.000	0.031	-0.101
-461.084	-54.571	0.080	0.037
-460.070	76.908	-0.167	0.179
-459.055	800.000	-0.040	0.164
-458.040	-127.382	-0.189	-0.028
-457.026	-30.316	-0.358	-0.206
-456.011	800.000	-0.094	-0.387
-454.997	-113.501	0.135	-0.027
-453.982	3.296	0.087	0.064
-452.968	-21.680	-0.251	-0.155
-451.953	-29.961	0.208	0.120
-450.938	-200.000	0.013	0.084
-449.924	375.759	-0.119	-0.246
-448.909	-200.000	0.014	0.112
-447.895	-75.858	-0.207	0.074
-446.880	-184.973	0.183	-0.003
-445.865	40.740	0.140	-0.128
-444.851	-50.636	-0.120	-0.057
-443.836	800.000	0.045	-0.155
-442.822	21.954	-0.136	-0.112
-441.807	108.090	-0.050	-0.060
-440.792	341.457	0.027	0.053
-439.778	251.017	-0.148	0.255
-438.763	-178.975	0.492	-0.011
-437.749	250.472	-0.115	-0.198
-436.734	344.250	-0.106	-0.210
-435.719	171.499	-0.058	0.084
-434.705	88.529	-0.311	-0.349
-433.690	145.448	0.077	-0.105
-432.676	800.000	-0.041	-0.155
-431.661	-42.009	0.040	-0.021
-430.646	800.000	-0.109	0.399
-429.632	289.208	-0.096	0.176
-428.617	247.755	0.059	-0.101
-427.603	0.483	-0.242	-0.175
-426.588	53.531	0.100	0.097
-425.573	-37.706	-0.342	-0.184
-424.559	-200.000	-0.002	0.055
-423.544	107.575	0.264	-0.317
-422.530	191.593	-0.078	-0.119
-421.515	-200.000	0.016	-0.132
-420.500	180.126	-0.083	-0.123
-419.486	-27.929	0.139	0.081
-418.471	299.987	0.088	-0.163
-417.457	-135.398	-0.247	0.030
-416.442	-52.078	-0.297	0.140
-415.428	-81.079	0.128	0.043
-414.413	-121.226	-0.342	-0.058
-413.398	-37.588	-0.054	-0.029
-412.384	-200.000	-0.048	-0.294
-411.369	800.000	-0.056	-0.212
-410.355	-16.591	-0.299	0.191
-409.340	800.000	0.036	0.125
-408.325	-56.284	0.076	0.034
-407.311	-95.753	0.161	-0.044
-406.296	-116.493	-0.112	0.021
-405.282	-200.000	0.028	0.324
-404.267	800.000	-0.045	0.166
-403.252	-93.072	-0.257	-0.072
-402.238	426.280	0.184	0.400
-401.223	-200.000	0.031	0.223
-400.209	-90.315	-0.414	-0.121
-399.194	246.091	0.065	0.110
-398.179	-68.247	0.179	0.070
-397.165	-62.283	-0.278	0.117
-396.150	-141.458	-0.316	0.032
-395.136	86.707	0.112	-0.125
-394.121	75.248	0.126	-0.134
-393.106	-31.225	0.225	0.128
-392.092	79.934	0.041	0.045
-391.077	16.351	-0.200	0.159
-390.063	800.000	-0.081	0.254
-389.048	-39.070	-0.301	-0.160
-388.033	-121.996	-0.103	0.017
-387.019	-133.757	0.075	-0.009
-386.004	23.496	-0.226	-0.188
-384.990	-142.540	0.236	-0.023
-383.975	299.848	-0.106	0.197
-382.960	-22.595	0.272	0.166
-381.946	-112.462	0.285	0.058
-380.931	-143.148	0.218	0.021
-379.917	800.000	0.015	-0.047
-378.902	15.587	-0.159	-0.126
-377.888	-114.776	0.161	0.031
-376.873	-147.620	0.218	-0.018
-375.858	-123.605	-0.324	0.052
-374.844	-200.000	0.003	-0.046
-373.829	-200.000	0.035	-0.289
-372.815	-200.000	0.006	0.072
-371.800	79.261	-0.050	-0.054
-370.785	238.613	-0.132	-0.220
-369.771	-200.000	0.022	0.116
-368.756	348.737	0.074	-0.147
-367.742	800.000	0.099	0.277
-366.727	800.000	-0.002	-0.008
-365.712	-200.000	0.037	0.390
-364.698	-200.000	0.023	0.205
-363.683	800.000	0.081	-0.246
-362.669	25.624	0.186	0.156
-361.654	-35.236	-0.129	0.071
-360.639	-0.531	-0.227	0.162
-359.625	-36.203	-0.150	-0.082
-358.610	-200.000	0.001	-0.158
-357.596	-189.314	-0.180	0.002
-356.581	684.165	0.034	-0.089
-355.566	800.000	0.006	0.025
-354.552	-105.466	-0.295	0.068
-353.537	344.820	0.091	0.181
-352.523	-200.000	0.015	0.269
-351.508	-114.957	-0.292	-0.056
-350.493	74.870	-0.099	0.105
-349.479	9.381	0.048	0.036
-348.464	-200.000	0.001	0.070
-347.450	-69.509	-0.288	0.111
-346.435	800.000	0.126	0.393
-345.420	268.856	0.163	-0.288
-344.406	164.362	0.164	-0.232
-343.391	3.301	0.195	0.143
-342.377	67.862	-0.122	0.126
-341.362	159.384	-0.162	-0.227
-340.348	548.848	0.082	0.198
-339.333	57.727	-0.269	0.265
-338.318	-2.355	0.168	-0.119
-337.304	237.759	-0.023	0.038
-336.289	-200.000	0.009	-0.067
-335.275	-1.631	0.213	-0.151
-334.260	-67.603	-0.204	-0.081
-333.245	800.000	-0.136	0.384
-332.231	-154.203	-0.330	-0.022
-331.216	-52.507	0.153	0.071
-330.202	73.353	0.017	0.018
-329.187	52.212	-0.074	0.071
-328.172	497.248	-0.093	-0.215
-327.158	148.674	0.209	0.284
-326.143	800.000	0.125	0.398
-325.129	-32.544	-0.185	0.104
-324.114	-21.995	0.260	0.159
-323.099	627.127	0.051	0.129
-322.085	630.537	0.083	0.212
-321.070	647.780	0.036	0.093
-320.056	166.760	-0.006	-0.009
-319.041	800.000	0.118	-0.375
-318.026	-159.256	-0.072	0.004
-317.012	174.280	-0.209	-0.304
-315.997	800.000	0.035	0.103
-314.983	47.196	0.137	0.129
-313.968	157.859	-0.172	0.239
-312.953	-143.423	-0.170	0.016
-311.939	-200.000	-0.030	0.167
-310.924	143.220	-0.159	-0.213
-309.910	-67.693	0.222	-0.088
-308.895	-194.029	0.220	0.002
-307.880	-102.982	0.204	0.049
-306.866	-106.676	0.224	0.050
-305.851	-19.876	0.097	0.060
-304.837	90.495	-0.138	0.155
-303.822	-78.988	-0.243	-0.083
-302.807	-106.553	0.106	0.024
-301.793	-75.751	0.216	0.077
-300.778	-101.974	0.110	0.027
-299.764	328.289	-0.108	-0.209
-298.749	31.322	0.110	-0.095
-297.735	337.100	-0.126	0.247
-296.720	72.564	0.105	0.110
-295.705	-60.774	-0.203	-0.087
-294.691	-200.000	-0.003	-0.165
-293.676	-90.807	0.023	-0.007
-292.662	-197.867	-0.132	0.001
-291.647	-24.635	0.258	-0.155
-290.632	268.369	-0.116	0.205
-289.618	9.445	-0.068	0.052
-288.603	-94.508	-0.084	-0.023
-287.589	-39.446	0.363	0.191
-286.574	111.320	0.060	-0.072
-285.559	800.000	0.007	0.028
-284.545	131.742	0.038	-0.050
-283.530	800.000	0.109	0.438
-282.516	-9.314	-0.314	0.211
-281.501	141.964	0.054	-0.072
-280.486	229.116	0.137	0.225
-279.472	800.000	-0.065	-0.241
-278.457	-200.000	-0.001	-0.068
-277.443	-157.922	0.194	-0.011
-276.428	800.000	0.031	0.119
-275.413	-147.139	-0.356	0.031
-274.399	110.136	0.155	0.187
-273.384	212.555	-0.132	0.209
-272.370	-7.153	-0.198	0.135
-271.355	-95.467	0.257	0.069
-270.340	102.620	-0.122	0.144
-269.326	800.000	-0.007	0.027
-268.311	-147.446	0.140	0.012
-267.297	24.701	-0.158	0.132
-266.282	51.501	-0.077	-0.073
-265.267	-107.127	0.197	-0.044
-264.253	669.280	0.131	0.339
-263.238	-42.703	0.160	-0.082
-262.224	-142.911	0.172	-0.017
-261.209	-132.015	0.155	0.020
-260.195	220.113	-0.098	0.158
-259.180	211.805	0.195	-0.308
-258.165	-200.000	-0.009	-0.229
-257.151	200.555	-0.048	0.074
-256.136	-200.000	0.005	0.239
-255.122	-112.663	-0.084	-0.017
-254.107	-200.000	-0.015	0.295
-253.092	-41.417	-0.033	0.017
-252.078	705.605	0.136	0.360
-251.063	26.358	-0.267	0.224
-250.049	29.019	0.184	0.157
-249.034	-200.000	0.058	0.325
-248.019	356.579	0.089	-0.179
-247.005	-200.000	0.005	0.061
-245.990	-142.177	0.129	-0.013
-244.976	-10.473	-0.285	0.190
-243.961	-79.951	-0.156	0.053
-242.946	-33.947	0.122	0.067
-241.932	-200.000	0.023	-0.343
-240.917	97.864	-0.103	-0.119
-239.903	490.314	0.148	-0.340
-238.888	-143.927	0.358	0.034
-237.873	-200.000	0.011	-0.134
-236.859	-36.173	0.288	-0.156
-235.844	84.158	0.234	-0.257
-234.830	310.639	-0.126	-0.237
-233.815	649.575	0.055	0.141
-232.800	-20.317	0.114	0.070
-231.786	-200.000	0.027	0.231
-230.771	51.051	-0.055	0.053
-229.757	-191.363	0.330	-0.003
-228.742	-200.000	-0.013	-0.082
-227.727	68.028	0.054	0.055
-226.713	230.487	0.179	-0.294
-225.698	-200.000	-0.038	0.261
-224.684	186.967	-0.096	0.143
-223.669	800.000	0.036	-0.157
-222.655	6.646	0.213	-0.159
-221.640	306.057	-0.092	-0.172
-220.625	-200.000	0.008	-0.171
-219.611	297.453	0.066	-0.122
-218.596	18.602	-0.113	-0.091
-217.582	-98.737	0.254	0.065
-216.567	117.001	-0.280	-0.345
-215.552	-200.000	0.015	0.434
-214.538	152.207	-0.075	-0.103
-213.523	-200.000	0.025	0.290
-212.509	74.788	0.154	-0.163
-211.494	102.915	0.164	-0.192
-210.479	236.362	-0.073	-0.122
-209.465	-87.902	0.199	-0.060
-208.450	89.282	0.207	-0.232
-207.436	489.428	-0.172	-0.393
-206.421	329.456	-0.063	-0.122
-205.406	-91.047	0.221	0.063
-204.392	108.128	0.107	-0.128
-203.377	800.000	0.029	-0.097
-202.363	130.830	-0.110	0.141
-201.348	-21.064	0.170	0.104
-200.333	185.821	-0.084	-0.125
-199.319	217.425	-0.071	-0.114
-198.304	800.000	0.081	-0.226
-197.290	225.817	0.160	-0.260
-196.275	29.982	0.140	0.120
-195.260	309.866	-0.187	0.351
-194.246	-200.000	-0.020	0.392
-193.231	-200.000	0.056	0.320
-192.217	5.988	0.233	0.173
-191.202	-22.802	-0.292	-0.177
-190.187	-44.428	0.150	-0.075
-189.173	-114.623	-0.190	0.036
-188.158	800.000	0.033	0.128
-187.144	-18.827	0.065	0.040
-186.129	176.855	-0.139	0.202
-185.114	-200.000	-0.000	0.100
-184.100	2.327	-0.314	-0.227
-183.085	53.439	-0.229	-0.220
-182.071	800.000	0.120	0.391
-181.056	55.962	0.166	-0.161
-180.042	-151.988	-0.188	0.014
-179.027	13.526	-0.062	0.048
-178.012	-152.386	-0.387	0.028
-176.998	-200.000	-0.013	0.342
-175.983	-73.278	0.191	-0.070
-174.969	655.258	-0.127	0.327
-173.954	-200.000	0.014	0.153
-172.939	800.000	0.060	-0.183
-171.925	177.438	0.279	0.407
-170.910	-200.000	0.016	0.292
-169.896	-61.551	-0.056	0.024
-168.881	-66.684	0.338	0.134
-167.866	-94.255	-0.105	-0.029
-166.852	694.562	0.103	0.272
-165.837	-62.362	0.277	-0.115
-164.823	199.565	-0.037	0.056
-163.808	727.966	-0.151	-0.404
-162.793	-21.304	-0.357	-0.218
-161.779	50.518	0.127	-0.120
-160.764	306.162	0.138	-0.257
-159.750	-200.000	-0.254	-0.000
-158.735	252.511	-0.101	-0.173
-157.720	40.149	-0.026	-0.023
-156.706	-200.000	-0.023	-0.181
-155.691	-3.750	0.157	-0.109
-154.677	-200.000	0.013	0.171
-153.662	472.952	0.080	-0.181
-152.647	74.336	0.172	0.180
-151.633	124.308	0.032	-0.041
-150.618	-149.610	-0.372	-0.029
-149.604	-200.000	-0.007	0.192
-148.589	488.436	0.050	0.115
-147.574	59.306	0.194	-0.191
-146.560	-17.701	-0.190	-0.119
-145.545	43.268	0.077	-0.070
-144.531	-32.725	0.393	0.219
-143.516	-182.407	0.342	0.006
-142.502	226.317	0.073	0.118
-141.487	-153.681	0.353	-0.024
-140.472	224.694	-0.071	-0.115
-139.458	-45.413	0.159	-0.079
-138.443	46.634	0.131	0.121
-137.429	800.000	-0.023	-0.089
-136.414	120.082	0.165	-0.204
-135.399	800.000	0.155	0.547
-134.385	-16.389	0.090	-0.057
-133.370	91.653	0.189	-0.212
-132.356	147.771	-0.194	-0.261
-131.341	-45.439	0.304	0.151
-130.326	800.000	0.037	-0.116
-129.312	138.222	0.214	0.280
-128.297	331.495	0.100	0.192
-127.283	173.328	-0.192	-0.276
-126.268	-95.809	0.104	0.028
-125.253	-157.114	0.253	0.015
-124.239	-183.186	0.402	-0.007
-123.224	800.000	0.054	-0.174
-122.210	-84.425	-0.203	-0.064
-121.195	-200.000	0.009	0.258
-120.180	-69.102	-0.249	0.096
