DTS Sentinel unit serial number:	SN413079Multiplexer serial number:	ORYXHardware model number:	OX4-SRSoftware version number:	ORYX F/W v4.00 Oryx Data Collector v3.7.2.0data status	okinstallation	princeton_trtdifferential loss correction	single-endedforward channel	channel 1reverse channel	N/Adate	2019/09/17time	16:30:35forward acquisition time	60.00reverse acquisition time	0.00gamma	496.2192k internal	0.2292k external	0.2292temperature offset calibration	0.9954default loss term (dB/km)	0.3790temperature slope calibration	1.0000multiplexer offset coefficient	1.0000multiplexer slope coefficient	1.0000fibre end	0.00T internal ref (°C)	41.56T ext. ref 1 (°C)	0.37T ext. ref 2 (°C)	38.31length (m)	temperature (°C)	Stokes	anti-Stokes-747.200	800.000	0.082	-0.355
-746.185	299.946	0.144	0.272
-745.171	99.051	-0.306	0.362
-744.156	687.704	0.096	0.257
-743.142	-82.588	0.271	0.090
-742.127	212.825	0.083	0.134
-741.112	-76.348	-0.043	-0.015
-740.098	7.975	0.202	0.155
-739.083	-200.000	0.040	-0.313
-738.069	-138.197	0.264	0.030
-737.054	-200.000	0.050	-0.377
-736.039	-30.365	0.127	-0.074
-735.025	-200.000	-0.006	0.142
-734.010	224.203	-0.112	0.185
-732.996	-64.030	-0.215	0.090
-731.981	40.653	-0.168	0.154
-730.966	43.956	0.214	-0.201
-729.952	-27.584	-0.244	0.145
-728.937	800.000	0.064	0.279
-727.923	-71.592	0.198	-0.076
-726.908	-200.000	-0.056	-0.255
-725.894	-73.267	0.147	-0.055
-724.879	-12.889	-0.190	-0.127
-723.864	-200.000	-0.010	-0.126
-722.850	266.567	-0.189	-0.337
-721.835	800.000	-0.087	0.306
-720.821	23.900	-0.114	-0.096
-719.806	-200.000	-0.089	-0.486
-718.791	800.000	-0.137	0.389
-717.777	260.231	0.006	-0.011
-716.762	245.924	0.092	0.159
-715.748	190.264	0.102	0.157
-714.733	800.000	-0.007	0.028
-713.718	-49.543	0.287	0.140
-712.704	125.090	0.190	-0.245
-711.689	800.000	0.075	-0.299
-710.675	-104.361	0.252	0.060
-709.660	-67.449	-0.124	-0.050
-708.645	-200.000	-0.030	0.262
-707.631	16.749	0.421	0.341
-706.616	-200.000	-0.015	0.146
-705.602	-141.665	0.262	-0.027
-704.587	230.339	-0.132	-0.220
-703.572	-51.142	0.296	-0.142
-702.558	-103.310	0.098	-0.024
-701.543	-8.610	-0.027	0.018
-700.529	9.787	-0.122	0.094
-699.514	156.782	0.082	-0.116
-698.499	228.812	0.074	-0.124
-697.485	-94.373	-0.193	-0.054
-696.470	-61.955	0.095	0.041
-695.456	-105.739	0.371	0.086
-694.441	169.950	0.108	-0.158
-693.426	736.070	-0.090	-0.245
-692.412	800.000	-0.040	-0.131
-691.397	800.000	0.063	0.254
-690.383	-22.087	-0.182	0.113
-689.368	-124.561	0.224	-0.036
-688.354	-54.968	0.247	0.114
-687.339	35.853	0.179	-0.160
-686.324	33.021	0.171	0.152
-685.310	733.445	-0.084	0.230
-684.295	69.538	-0.079	-0.084
-683.281	-138.896	0.044	-0.005
-682.266	32.982	0.135	-0.120
-681.251	-98.249	-0.077	0.020
-680.237	-146.293	-0.070	0.006
-679.222	1.767	0.184	0.135
-678.208	-101.592	-0.065	0.016
-677.193	-2.231	0.216	0.155
-676.178	800.000	-0.075	0.245
-675.164	211.349	0.073	-0.118
-674.149	-125.614	0.165	0.026
-673.135	-12.731	0.098	-0.065
-672.120	-200.000	0.050	0.331
-671.105	740.686	0.007	0.019
-670.091	-15.435	-0.224	0.146
-669.076	-73.780	0.049	0.018
-668.062	-22.784	-0.292	-0.180
-667.047	-118.952	-0.155	-0.028
-666.032	-121.686	-0.318	-0.054
-665.018	86.941	-0.026	-0.029
-664.003	43.300	-0.178	-0.166
-662.989	-136.787	0.239	0.028
-661.974	800.000	-0.029	-0.101
-660.959	624.269	0.108	0.278
-659.945	23.785	-0.025	0.021
-658.930	260.883	-0.178	0.314
-657.916	-91.092	0.165	0.048
-656.901	-200.000	-0.046	-0.286
-655.886	223.237	-0.180	0.297
-654.872	-139.338	-0.016	-0.002
-653.857	171.302	-0.060	-0.089
-652.843	800.000	-0.082	-0.311
-651.828	-200.000	0.001	0.320
-650.814	-154.895	0.409	-0.027
-649.799	-54.363	0.295	0.136
-648.784	169.143	-0.065	-0.094
-647.770	36.625	0.196	-0.176
-646.755	-102.186	0.197	-0.048
-645.741	62.507	0.066	0.067
-644.726	-54.716	0.338	-0.156
-643.711	-143.151	0.133	-0.013
-642.697	-91.462	0.066	-0.019
-641.682	-200.000	0.351	-0.002
-640.668	-78.672	-0.203	-0.071
-639.653	328.385	0.102	-0.199
-638.638	-8.685	0.327	-0.224
-637.624	-200.000	0.012	-0.377
-636.609	-200.000	-0.003	0.038
-635.595	164.639	0.134	-0.192
-634.580	-200.000	-0.020	0.316
-633.565	-93.233	-0.077	0.022
-632.551	52.266	0.081	0.079
-631.536	-200.000	0.000	0.128
-630.522	800.000	0.096	0.360
-629.507	-82.014	-0.321	0.107
-628.492	34.161	-0.214	-0.190
-627.478	-56.148	0.081	0.037
-626.463	800.000	-0.040	0.165
-625.449	-95.546	-0.286	-0.078
-624.434	800.000	0.108	-0.373
-623.419	-3.600	0.172	0.122
-622.405	-152.453	-0.225	-0.016
-621.390	800.000	-0.031	-0.093
-620.376	-200.000	0.043	-0.297
-619.361	-4.401	0.249	-0.176
-618.346	-5.898	-0.102	0.071
-617.332	-132.582	0.308	-0.040
-616.317	2.669	-0.279	-0.206
-615.303	73.382	0.110	-0.118
-614.288	800.000	0.129	-0.379
-613.273	-200.000	-0.007	0.101
-612.259	800.000	-0.053	-0.181
-611.244	800.000	0.115	0.437
-610.230	800.000	0.027	-0.076
-609.215	-150.520	-0.259	-0.020
-608.201	563.406	0.083	0.204
-607.186	800.000	0.012	-0.039
-606.171	-200.000	0.005	-0.024
-605.157	-143.825	-0.215	0.021
-604.142	-200.000	-0.025	0.223
-603.128	-77.147	0.145	0.051
-602.113	661.491	-0.127	-0.332
-601.098	-11.930	0.124	0.083
-600.084	-200.000	0.029	0.323
-599.069	-200.000	-0.133	-0.001
-598.055	-76.037	-0.211	-0.076
-597.040	-116.517	-0.170	0.032
-596.025	-114.365	0.309	0.060
-595.011	173.248	0.096	0.141
-593.996	-200.000	0.002	-0.097
-592.982	-74.977	0.415	0.151
-591.967	-71.945	-0.254	0.096
-590.952	237.508	-0.012	-0.020
-589.938	-6.952	0.287	-0.199
-588.923	800.000	0.031	0.101
-587.909	97.763	0.161	0.188
-586.894	5.329	0.074	-0.056
-585.879	306.296	0.059	0.112
-584.865	-200.000	-0.003	-0.158
-583.850	800.000	-0.083	0.290
-582.836	117.167	-0.036	0.045
-581.821	-46.127	0.292	0.146
-580.806	-82.050	0.181	-0.060
-579.792	-200.000	-0.002	0.208
-578.777	604.654	-0.053	-0.135
-577.763	15.170	-0.202	-0.161
-576.748	-200.000	0.002	0.040
-575.733	-200.000	0.018	0.264
-574.719	-118.282	0.181	-0.033
-573.704	-39.170	-0.068	0.036
-572.690	-168.187	-0.193	0.008
-571.675	800.000	-0.027	0.118
-570.661	480.575	0.098	-0.227
-569.646	-3.520	-0.176	0.125
-568.631	800.000	0.034	-0.135
-567.617	272.647	-0.104	-0.186
-566.602	-42.675	0.217	0.112
-565.588	69.726	-0.107	-0.112
-564.573	-200.000	0.005	-0.035
-563.558	-200.000	0.015	-0.113
-562.544	254.410	0.124	-0.215
-561.529	210.704	-0.132	-0.210
-560.515	-200.000	-0.005	0.043
-559.500	683.091	-0.083	-0.220
-558.485	-55.062	0.074	-0.034
-557.471	-184.290	-0.187	-0.003
-556.456	-0.739	-0.319	-0.230
-555.442	-43.595	-0.226	-0.116
-554.427	-36.320	-0.094	-0.052
-553.412	-16.695	0.146	-0.094
-552.398	-107.225	0.140	0.031
-551.383	105.127	0.143	-0.172
-550.369	-113.382	-0.233	-0.046
-549.354	2.958	0.030	-0.022
-548.339	651.631	-0.090	-0.235
-547.325	-200.000	0.015	-0.096
-546.310	-72.808	-0.315	-0.118
-545.296	114.225	-0.122	-0.151
-544.281	-123.524	-0.101	-0.016
-543.266	-100.516	-0.073	-0.018
-542.252	-100.297	-0.220	0.055
-541.237	-2.484	0.155	0.110
-540.223	94.261	-0.120	-0.139
-539.208	490.269	0.058	0.135
-538.193	122.308	0.113	-0.144
-537.179	-122.321	-0.233	-0.039
-536.164	-146.352	0.151	0.013
-535.150	800.000	0.055	0.155
-534.135	-133.576	-0.355	-0.045
-533.121	800.000	0.024	0.106
-532.106	-136.370	0.208	-0.025
-531.091	-71.133	0.073	-0.028
-530.077	53.846	0.016	0.016
-529.062	-200.000	0.065	-0.608
-528.048	113.483	0.111	0.137
-527.033	94.632	-0.050	-0.057
-526.018	184.610	0.071	-0.107
-525.004	477.885	0.071	-0.163
-523.989	83.241	-0.108	0.119
-522.975	-47.446	0.015	0.008
-521.960	-103.823	0.242	-0.057
-520.945	100.609	-0.099	-0.117
-519.931	-7.577	-0.354	0.243
-518.916	535.986	-0.025	0.061
-517.902	-167.079	0.159	0.007
-516.887	800.000	-0.094	0.284
-515.872	197.319	0.120	0.185
-514.858	-200.000	-0.025	0.230
-513.843	-103.443	0.166	0.040
-512.829	-4.617	0.175	0.123
-511.814	-57.487	-0.188	-0.084
-510.799	-23.450	-0.232	-0.141
-509.785	-200.000	0.002	-0.158
-508.770	747.390	0.058	0.158
-507.756	499.315	0.072	-0.168
-506.741	51.925	0.062	-0.060
-505.726	-200.000	0.041	-0.376
-504.712	73.724	-0.095	0.101
-503.697	192.949	0.085	-0.130
-502.683	-48.432	-0.328	-0.160
-501.668	56.251	-0.122	-0.120
-500.653	458.335	0.141	0.319
-499.639	-123.304	0.216	0.035
-498.624	70.143	-0.119	-0.124
-497.610	-200.000	-0.014	0.121
-496.595	-200.000	-0.000	0.168
-495.581	15.758	-0.309	0.246
-494.566	-200.000	-0.054	0.277
-493.551	43.455	-0.220	0.204
-492.537	21.723	0.162	0.134
-491.522	8.956	-0.443	0.339
-490.508	-115.541	-0.363	0.069
-489.493	-200.000	0.011	0.172
-488.478	-147.392	-0.135	-0.012
-487.464	-200.000	0.008	-0.174
-486.449	-79.577	-0.194	0.066
-485.435	140.490	0.209	-0.279
-484.420	-92.090	0.246	0.070
-483.405	168.965	0.069	-0.100
-482.391	-122.292	-0.039	0.006
-481.376	743.754	-0.039	-0.107
-480.362	800.000	0.015	0.054
-479.347	-36.845	-0.110	-0.060
-478.332	-33.137	0.368	-0.206
-477.318	435.262	0.077	0.170
-476.303	-200.000	0.057	0.258
-475.289	-200.000	0.000	0.193
-474.274	-63.120	0.182	0.076
-473.259	97.542	0.043	-0.050
-472.245	490.313	-0.038	-0.089
-471.230	800.000	-0.111	-0.365
-470.216	125.425	-0.068	0.086
-469.201	332.188	-0.054	-0.106
-468.186	800.000	0.087	0.298
-467.172	-52.144	-0.160	0.075
-466.157	663.807	-0.024	-0.063
-465.143	-200.000	-0.018	0.124
-464.128	-73.434	0.283	0.105
-463.113	-59.429	0.310	0.135
-462.099	800.000	0.072	-0.276
-461.084	-110.128	0.113	-0.024
-460.070	121.326	-0.080	0.101
-459.055	58.295	-0.298	0.296
-458.040	-3.781	-0.079	-0.055
-457.026	-125.576	0.230	0.035
-456.011	-46.495	-0.104	-0.052
-454.997	-35.672	-0.178	0.098
-453.982	94.995	-0.042	0.049
-452.968	-200.000	0.010	-0.119
-451.953	7.505	-0.165	-0.125
-450.938	800.000	-0.123	-0.409
-449.924	-86.636	-0.216	-0.067
-448.909	-73.548	-0.190	-0.070
-447.895	-63.089	0.185	0.077
-446.880	800.000	-0.093	0.263
-445.865	-122.012	-0.244	0.041
-444.851	547.808	-0.164	-0.398
-443.836	-91.672	-0.261	0.075
-442.822	-64.037	-0.259	0.107
-441.807	-200.000	0.061	-0.330
-440.792	800.000	-0.112	-0.460
-439.778	-191.055	0.198	0.002
-438.763	800.000	-0.074	-0.241
-437.749	20.404	0.132	0.108
-436.734	-120.649	-0.164	-0.028
-435.719	-200.000	0.035	-0.195
-434.705	-24.415	0.176	0.106
-433.690	-121.983	-0.313	-0.052
-432.676	39.752	0.183	-0.166
-431.661	-75.068	0.057	0.020
-430.646	65.551	-0.154	-0.158
-429.632	257.465	0.082	0.143
-428.617	-77.715	0.101	-0.035
-427.603	354.481	-0.042	0.083
-426.588	87.068	0.132	-0.147
-425.573	-119.223	-0.218	0.038
-424.559	800.000	0.122	-0.408
-423.544	-172.022	-0.191	-0.006
-422.530	-52.306	0.114	0.053
-421.515	-19.328	-0.072	-0.045
-420.500	-200.000	0.011	-0.102
-419.486	-77.940	-0.170	0.059
-418.471	-74.620	-0.072	0.026
-417.457	170.036	0.101	0.145
-416.442	129.205	-0.136	0.176
-415.428	74.644	0.275	-0.292
-414.413	-200.000	0.015	0.247
-413.398	800.000	0.025	0.075
-412.384	97.146	0.124	-0.144
-411.369	-1.381	-0.005	-0.004
-410.355	26.594	-0.075	-0.064
-409.340	-29.035	0.203	0.118
-408.325	-99.772	0.191	-0.048
-407.311	-200.000	0.042	0.217
-406.296	26.748	-0.166	-0.141
-405.282	-114.767	-0.196	0.038
-404.267	800.000	0.029	0.088
-403.252	595.366	0.121	0.303
-402.238	340.233	-0.097	0.192
-401.223	-126.644	0.448	-0.067
-400.209	203.655	-0.142	0.223
-399.194	800.000	-0.066	0.215
-398.179	316.608	-0.103	0.197
-397.165	76.113	-0.109	0.116
-396.150	-200.000	-0.009	-0.082
-395.136	158.127	-0.023	0.032
-394.121	-48.646	-0.295	0.143
-393.106	79.562	0.108	0.117
-392.092	101.228	0.147	-0.173
-391.077	-200.000	0.012	-0.130
-390.063	157.181	-0.104	-0.145
-389.048	800.000	-0.080	0.262
-388.033	174.577	-0.084	-0.122
-387.019	-21.203	0.288	-0.178
-386.004	-165.983	0.296	-0.013
-384.990	800.000	0.021	-0.069
-383.975	143.620	0.022	-0.030
-382.960	-114.098	0.122	-0.024
-381.946	237.870	0.187	0.313
-380.931	-200.000	-0.024	-0.152
-379.917	-165.476	0.023	-0.001
-378.902	428.503	0.054	-0.118
-377.888	133.825	0.181	-0.237
-376.873	-18.392	0.084	-0.053
-375.858	-200.000	-0.009	0.221
-374.844	-45.707	-0.116	0.058
-373.829	-73.121	-0.297	-0.110
-372.815	-67.335	-0.057	0.023
-371.800	-200.000	-0.023	-0.206
-370.785	-70.905	-0.238	-0.090
-369.771	134.036	0.071	-0.092
-368.756	217.807	0.059	0.096
-367.742	-200.000	0.004	-0.138
-366.727	-66.922	-0.122	-0.049
-365.712	89.095	-0.047	-0.052
-364.698	83.756	0.180	0.198
-363.683	-200.000	0.052	-0.253
-362.669	184.821	0.015	-0.022
-361.654	800.000	-0.016	0.060
-360.639	-24.538	-0.077	-0.046
-359.625	-200.000	-0.039	0.326
-358.610	283.668	0.054	0.097
-357.596	22.641	0.362	-0.299
-356.581	-159.404	0.066	-0.004
-355.566	61.250	0.083	-0.083
-354.552	68.461	0.238	-0.246
-353.537	800.000	0.080	-0.298
-352.523	-152.861	0.133	0.010
-351.508	800.000	-0.057	0.211
-350.493	402.836	-0.150	-0.317
-349.479	-5.539	0.187	-0.129
-348.464	0.005	0.099	0.071
-347.450	7.404	0.043	-0.032
-346.435	703.387	0.148	-0.392
-345.420	800.000	-0.071	0.225
-344.406	-40.778	-0.093	0.048
-343.391	104.797	-0.149	-0.177
-342.377	-200.000	0.013	0.121
-341.362	-117.881	-0.260	-0.047
-340.348	-121.236	-0.060	0.010
-339.333	581.595	0.070	-0.172
-338.318	613.001	-0.128	-0.324
-337.304	-200.000	-0.036	0.000
-336.289	329.125	-0.123	0.238
-335.275	26.393	-0.071	-0.060
-334.260	55.830	-0.062	-0.060
-333.245	-141.264	-0.184	-0.019
-332.231	101.616	-0.219	0.258
-331.216	-68.673	-0.336	0.131
-330.202	800.000	0.068	0.195
-329.187	800.000	0.109	0.347
-328.172	-57.058	0.176	-0.078
-327.158	167.957	-0.146	-0.210
-326.143	800.000	0.030	0.086
-325.129	27.576	0.160	0.136
-324.114	-88.615	0.085	0.025
-323.099	-193.469	0.191	0.002
-322.085	-66.422	0.382	0.153
-321.070	-200.000	0.190	-0.001
-320.056	16.552	-0.126	-0.100
-319.041	135.990	0.115	0.150
-318.026	-32.323	-0.116	-0.065
-317.012	578.618	-0.070	0.171
-315.997	-200.000	-0.069	0.414
-314.983	800.000	0.037	0.156
-313.968	-6.569	-0.221	0.152
-312.953	800.000	-0.015	0.057
-311.939	-88.220	-0.523	0.158
-310.924	3.390	0.035	0.026
-309.910	22.751	0.076	0.063
-308.895	-200.000	-0.013	0.064
-307.880	-200.000	0.060	0.313
-306.866	1.663	0.154	0.112
-305.851	800.000	0.062	0.180
-304.837	-11.720	-0.114	0.075
-303.822	-38.809	0.211	-0.112
-302.807	366.930	-0.077	0.157
-301.793	-125.755	0.132	0.020
-300.778	-200.000	-0.032	-0.150
-299.764	84.019	0.189	0.208
-298.749	-117.729	-0.135	0.024
-297.735	800.000	-0.029	-0.087
-296.720	-118.813	0.460	-0.081
-295.705	218.047	0.156	-0.250
-294.691	56.830	-0.168	0.164
-293.676	-107.598	0.147	0.032
-292.662	461.456	-0.111	-0.248
-291.647	800.000	-0.048	-0.140
-290.632	159.499	-0.113	-0.158
-289.618	-115.083	0.192	-0.037
-288.603	204.635	0.141	-0.220
-287.589	34.618	-0.378	-0.332
-286.574	215.156	-0.052	0.082
-285.559	220.013	-0.065	0.105
-284.545	-59.766	-0.057	-0.025
-283.530	23.193	0.231	-0.191
-282.516	-36.394	0.235	0.127
-281.501	149.346	0.046	0.063
-280.486	481.587	-0.043	0.098
-279.472	-200.000	-0.036	-0.179
-278.457	800.000	-0.068	-0.293
-277.443	-52.840	0.240	0.111
-276.428	800.000	0.119	0.479
-275.413	-137.500	-0.395	0.045
-274.399	800.000	0.054	0.165
-273.384	-32.685	-0.039	-0.022
-272.370	-175.389	-0.222	0.006
-271.355	-49.370	0.153	0.073
-270.340	800.000	-0.076	0.326
-269.326	-200.000	0.018	0.381
-268.311	-104.392	0.144	0.033
-267.297	-15.410	0.214	-0.138
-266.282	-200.000	-0.068	0.462
-265.267	800.000	0.042	-0.122
-264.253	-85.824	-0.145	-0.045
-263.238	-92.111	-0.279	-0.079
-262.224	800.000	0.064	-0.252
-261.209	-67.930	-0.100	-0.039
-260.195	185.622	-0.115	0.171
-259.180	-20.494	-0.107	0.066
-258.165	-108.250	-0.079	0.017
-257.151	-200.000	-0.015	0.179
-256.136	-129.594	0.216	0.030
-255.122	19.851	0.206	0.166
-254.107	194.879	0.138	0.210
-253.092	-59.824	0.234	-0.101
-252.078	-200.000	0.148	0.001
-251.063	-176.918	0.211	0.005
-250.049	-200.000	0.003	0.062
-249.034	-200.000	-0.012	-0.101
-248.019	-78.779	-0.143	-0.049
-247.005	268.114	-0.095	-0.167
-245.990	-127.845	-0.207	0.030
-244.976	-142.653	0.250	-0.025
-243.961	-200.000	-0.004	0.272
-242.946	-24.175	0.383	-0.230
-241.932	-200.000	-0.010	-0.173
-240.917	800.000	-0.022	-0.085
-239.903	39.243	0.191	0.171
-238.888	89.522	-0.048	0.053
-237.873	-87.060	0.388	-0.119
-236.859	107.453	0.197	-0.236
-235.844	-17.822	0.322	-0.203
-234.830	-25.046	-0.232	-0.138
-233.815	3.927	-0.134	-0.099
-232.800	-115.723	-0.242	-0.045
-231.786	800.000	-0.015	0.047
-230.771	55.096	0.050	-0.049
-229.757	76.283	-0.009	-0.009
-228.742	-200.000	0.063	0.283
-227.727	145.143	0.090	0.120
-226.713	-200.000	-0.052	-0.277
-225.698	131.962	-0.126	0.163
-224.684	200.730	-0.101	0.156
-223.669	-200.000	0.003	0.121
-222.655	80.047	-0.122	-0.131
-221.640	509.473	0.012	0.029
-220.625	-154.128	-0.490	0.033
-219.611	-60.183	-0.064	0.028
-218.596	31.131	-0.206	-0.177
-217.582	-48.884	-0.033	-0.016
-216.567	-29.699	-0.279	-0.160
-215.552	-124.333	-0.206	0.032
-214.538	800.000	0.058	-0.160
-213.523	-200.000	0.007	-0.076
-212.509	-200.000	0.014	-0.413
-211.494	-200.000	-0.051	-0.296
-210.479	-200.000	-0.062	-0.384
-209.465	-198.115	0.323	-0.002
-208.450	-192.871	0.098	0.001
-207.436	-157.132	-0.109	-0.007
-206.421	-165.174	-0.231	0.010
-205.406	800.000	0.053	0.177
-204.392	221.215	0.098	-0.158
-203.377	-98.998	-0.182	0.046
-202.363	-23.031	-0.122	-0.074
-201.348	-20.469	0.137	0.084
-200.333	134.719	-0.121	0.158
-199.319	152.377	-0.151	-0.207
-198.304	55.090	0.422	0.409
-197.290	-105.879	0.282	0.064
-196.275	275.013	0.014	-0.025
-195.260	-200.000	-0.010	-0.085
-194.246	-200.000	-0.052	-0.429
-193.231	146.177	0.221	-0.297
-192.217	131.298	-0.111	0.143
-191.202	-98.534	-0.530	0.136
-190.187	217.187	0.167	0.266
-189.173	-200.000	0.035	0.235
-188.158	0.500	0.129	-0.093
-187.144	400.931	0.049	0.102
-186.129	-63.194	0.336	-0.139
-185.114	355.275	0.108	0.215
-184.100	72.078	0.230	0.240
-183.085	211.630	0.038	-0.060
-182.071	-2.345	0.402	-0.282
-181.056	-200.000	0.040	0.209
-180.042	-200.000	0.015	-0.301
-179.027	-54.805	0.154	-0.069
-178.012	-48.401	-0.409	-0.197
-176.998	800.000	-0.062	0.216
-175.983	55.317	-0.149	0.144
-174.969	-200.000	0.025	0.212
-173.954	77.688	0.185	0.198
-172.939	-162.186	-0.349	-0.018
-171.925	800.000	-0.080	0.312
-170.910	-96.622	-0.381	0.101
-169.896	-200.000	-0.033	0.215
-168.881	670.128	0.058	0.149
-167.866	547.504	-0.035	0.084
-166.852	-47.317	-0.173	0.084
-165.837	102.895	-0.143	0.167
-164.823	-200.000	-0.016	0.146
-163.808	138.582	0.203	0.267
-162.793	800.000	-0.032	-0.108
-161.779	800.000	0.055	-0.234
-160.764	-126.360	0.261	-0.039
-159.750	167.065	-0.163	0.231
-158.735	-25.423	0.061	-0.036
-157.720	-182.812	-0.050	-0.001
-156.706	800.000	-0.047	0.159
-155.691	-96.633	-0.201	-0.053
-154.677	-200.000	0.036	0.262
-153.662	178.717	0.029	-0.042
-152.647	-184.657	-0.186	0.003
-151.633	219.048	0.124	0.199
-150.618	-200.000	-0.038	0.193
-149.604	-114.514	0.541	0.104
-148.589	-145.111	-0.244	0.022
-147.574	729.793	0.035	-0.093
-146.560	800.000	-0.056	-0.169
-145.545	-200.000	0.017	0.223
-144.531	-34.345	-0.143	0.078
-143.516	-115.877	0.158	0.030
-142.502	-200.000	0.018	-0.163
-141.487	47.663	-0.225	-0.210
-140.472	209.632	0.123	-0.192
-139.458	-137.989	0.139	-0.015
-138.443	-69.312	-0.100	-0.038
-137.429	800.000	0.068	0.289
-136.414	81.698	0.180	0.195
-135.399	7.641	0.290	-0.217
-134.385	196.233	0.261	-0.397
-133.370	-50.295	-0.194	0.092
-132.356	-200.000	0.003	0.050
-131.341	388.595	-0.140	-0.289
-130.326	-37.723	0.164	-0.087
-129.312	-67.088	0.311	-0.122
-128.297	61.427	0.132	0.132
-127.283	12.722	-0.215	0.166
-126.268	-200.000	0.055	-0.274
-125.253	-94.443	-0.312	0.085
-124.239	-115.350	0.422	-0.080
-123.224	-20.092	-0.070	0.043
-122.210	52.402	-0.106	-0.101
-121.195	371.558	-0.095	0.194
