DTS Sentinel unit serial number:	SN413079Multiplexer serial number:	ORYXHardware model number:	OX4-SRSoftware version number:	ORYX F/W v4.00 Oryx Data Collector v3.7.2.0data status	okinstallation	princeton_trtdifferential loss correction	single-endedforward channel	channel 1reverse channel	N/Adate	2019/09/19time	06:18:35forward acquisition time	60.00reverse acquisition time	0.00gamma	496.2192k internal	0.2342k external	0.2342temperature offset calibration	1.0020default loss term (dB/km)	0.3790temperature slope calibration	1.0000multiplexer offset coefficient	1.0000multiplexer slope coefficient	1.0000fibre end	0.00T internal ref (°C)	19.06T ext. ref 1 (°C)	0.58T ext. ref 2 (°C)	12.76length (m)	temperature (°C)	Stokes	anti-Stokes-747.200	-200.000	-0.037	-0.302
-746.185	-56.046	-0.419	0.187
-745.171	33.680	-0.106	-0.092
-744.156	-200.000	-0.042	0.199
-743.142	-60.765	-0.066	0.028
-742.127	800.000	0.058	0.176
-741.112	-200.000	-0.050	-0.289
-740.098	62.388	-0.461	0.461
-739.083	229.872	0.025	0.040
-738.069	-95.955	-0.388	0.104
-737.054	167.055	-0.146	0.207
-736.039	185.883	-0.084	0.125
-735.025	445.940	0.269	0.591
-734.010	800.000	0.062	-0.237
-732.996	-120.954	0.248	-0.042
-731.981	-132.605	0.208	0.027
-730.966	-8.880	-0.236	0.159
-729.952	-191.742	-0.276	-0.003
-728.937	-122.969	-0.291	0.047
-727.923	800.000	0.093	0.258
-726.908	219.788	-0.091	-0.146
-725.894	800.000	-0.150	0.510
-724.879	-101.310	-0.355	-0.087
-723.864	800.000	0.093	-0.402
-722.850	-13.471	0.187	0.121
-721.835	-200.000	0.009	0.205
-720.821	8.452	0.197	-0.149
-719.806	-69.973	-0.346	-0.132
-718.791	-21.409	-0.286	-0.174
-717.777	132.993	-0.200	0.259
-716.762	-200.000	0.001	0.307
-715.748	800.000	0.050	-0.157
-714.733	-30.263	0.037	0.021
-713.718	-26.322	-0.127	0.075
-712.704	-13.530	0.348	0.225
-711.689	207.470	-0.069	-0.107
-710.675	522.895	0.090	-0.212
-709.660	-47.844	0.216	-0.105
-708.645	410.307	0.082	-0.175
-707.631	99.765	0.111	-0.128
-706.616	-74.439	0.144	-0.052
-705.602	111.139	0.127	0.153
-704.587	-200.000	0.042	-0.220
-703.572	364.820	0.060	0.122
-702.558	94.648	0.119	0.136
-701.543	-36.110	-0.176	-0.095
-700.529	65.158	0.257	-0.259
-699.514	-35.595	0.377	-0.204
-698.499	-200.000	-0.048	-0.383
-697.485	-83.481	0.308	0.099
-696.470	526.460	-0.076	-0.179
-695.456	-7.224	-0.043	-0.029
-694.441	-61.005	-0.216	-0.091
-693.426	235.254	0.136	0.225
-692.412	-1.310	-0.245	0.173
-691.397	-28.053	0.113	0.065
-690.383	30.036	-0.210	0.179
-689.368	-123.970	-0.392	0.062
-688.354	800.000	0.096	0.348
-687.339	-200.000	-0.026	0.223
-686.324	-88.860	0.182	-0.054
-685.310	136.332	0.270	-0.352
-684.295	80.222	-0.147	-0.158
-683.281	-140.876	-0.112	-0.011
-682.266	-65.165	0.323	-0.130
-681.251	74.818	-0.122	-0.128
-680.237	110.446	-0.141	-0.170
-679.222	-2.504	0.129	0.090
-678.208	183.229	-0.098	-0.145
-677.193	354.002	-0.049	-0.097
-676.178	29.113	0.064	-0.054
-675.164	174.571	-0.154	-0.223
-674.149	-23.536	-0.124	-0.074
-673.135	-71.603	-0.101	-0.038
-672.120	800.000	0.027	-0.110
-671.105	135.215	0.109	-0.142
-670.091	-111.935	-0.372	-0.075
-669.076	-200.000	0.022	-0.329
-668.062	-200.000	-0.013	0.693
-667.047	62.809	-0.030	0.030
-666.032	800.000	-0.093	-0.270
-665.018	67.712	0.170	-0.173
-664.003	42.511	0.258	0.234
-662.989	800.000	0.045	0.194
-661.974	-83.862	-0.131	-0.042
-660.959	488.701	-0.146	-0.334
-659.945	-200.000	0.018	-0.174
-658.930	-52.346	-0.071	-0.033
-657.916	-104.202	0.172	0.040
-656.901	270.598	-0.068	0.119
-655.886	800.000	-0.070	-0.201
-654.872	28.212	0.402	-0.339
-653.857	149.304	0.110	0.148
-652.843	-74.116	0.213	0.077
-651.828	-58.573	-0.395	-0.171
-650.814	72.427	0.304	-0.316
-649.799	364.518	-0.117	0.234
-648.784	128.182	-0.238	0.302
-647.770	31.276	-0.276	-0.237
-646.755	-47.187	0.228	0.111
-645.741	-31.353	0.210	-0.118
-644.726	-4.087	0.186	-0.129
-643.711	-106.826	-0.342	-0.076
-642.697	-66.450	-0.132	0.052
-641.682	-128.330	-0.446	-0.063
-640.668	12.122	-0.184	-0.141
-639.653	-62.525	-0.141	-0.059
-638.638	50.159	-0.297	-0.280
-637.624	3.029	-0.267	0.193
-636.609	-46.713	0.386	-0.188
-635.595	-72.447	0.225	-0.083
-634.580	108.406	-0.188	-0.224
-633.565	-32.975	0.199	0.110
-632.551	13.758	-0.048	-0.037
-631.536	-99.520	-0.060	-0.015
-630.522	92.358	0.120	-0.135
-629.507	-62.063	0.194	0.081
-628.492	-48.118	0.153	0.074
-627.478	-92.589	-0.343	-0.096
-626.463	185.621	0.248	0.367
-625.449	-49.442	-0.054	0.026
-624.434	-200.000	-0.016	-0.250
-623.419	-100.895	-0.225	0.055
-622.405	-200.000	0.011	-0.123
-621.390	-56.401	0.182	0.080
-620.376	-58.928	0.081	-0.035
-619.361	-200.000	0.020	0.329
-618.346	153.008	0.101	-0.138
-617.332	-38.123	-0.250	-0.132
-616.317	-17.795	-0.279	0.175
-615.303	-79.299	0.134	-0.045
-614.288	59.485	-0.035	0.035
-613.273	99.699	0.192	-0.222
-612.259	-145.021	-0.295	0.027
-611.244	-133.994	0.164	-0.020
-610.230	800.000	-0.044	-0.178
-609.215	-200.000	-0.025	-0.131
-608.201	184.745	-0.198	-0.293
-607.186	33.977	-0.146	-0.126
-606.171	422.303	0.146	-0.312
-605.157	-27.644	-0.142	0.082
-604.142	-124.715	-0.082	-0.013
-603.128	-200.000	0.002	0.110
-602.113	159.140	0.051	0.071
-601.098	548.975	-0.114	-0.272
-600.084	230.201	-0.135	-0.220
-599.069	273.035	0.066	0.117
-598.055	369.051	-0.157	-0.317
-597.040	124.160	-0.132	-0.166
-596.025	-159.066	-0.339	0.019
-595.011	-179.761	0.357	-0.008
-593.996	800.000	-0.073	0.267
-592.982	-74.516	0.028	-0.010
-591.967	332.079	0.157	-0.302
-590.952	-47.206	-0.146	-0.071
-589.938	-200.000	-0.053	0.288
-588.923	-5.750	0.016	0.011
-587.909	150.600	-0.066	0.090
-586.894	-200.000	-0.006	-0.242
-585.879	73.595	0.151	-0.157
-584.865	-200.000	0.044	-0.243
-583.850	-58.261	-0.163	0.071
-582.836	-118.973	-0.156	0.027
-581.821	-200.000	-0.004	0.202
-580.806	370.506	0.085	-0.172
-579.792	-120.379	-0.361	-0.061
-578.777	132.561	0.253	-0.324
-577.763	-103.556	0.346	-0.081
-576.748	800.000	-0.090	-0.297
-575.733	-40.357	-0.082	-0.042
-574.719	6.475	0.233	0.172
-573.704	-0.388	-0.118	-0.083
-572.690	-60.717	-0.048	-0.020
-571.675	-59.159	-0.136	0.058
-570.661	-22.892	0.073	0.044
-569.646	47.409	-0.060	-0.055
-568.631	800.000	0.043	-0.148
-567.617	72.494	-0.027	0.028
-566.602	-53.654	-0.275	0.125
-565.588	-37.322	-0.112	0.059
-564.573	102.574	-0.087	0.101
-563.558	-50.236	-0.038	-0.018
-562.544	-126.169	-0.037	0.006
-561.529	147.385	0.188	0.251
-560.515	800.000	0.108	-0.349
-559.500	120.807	-0.129	-0.160
-558.485	78.864	0.230	-0.245
-557.471	-200.000	-0.038	-0.285
-556.456	176.563	-0.142	-0.206
-555.442	-88.786	0.177	-0.052
-554.427	421.908	-0.123	0.262
-553.412	-80.457	-0.077	-0.026
-552.398	-23.704	0.212	-0.126
-551.383	-19.965	0.384	0.236
-550.369	-200.000	-0.061	-0.309
-549.354	-200.000	0.008	0.226
-548.339	341.569	0.056	0.109
-547.325	-200.000	0.004	-0.054
-546.310	-132.303	0.467	-0.060
-545.296	-58.308	-0.266	-0.115
-544.281	161.362	0.202	-0.281
-543.266	-88.922	0.324	-0.095
-542.252	-32.553	-0.238	0.132
-541.237	-200.000	-0.029	-0.234
-540.223	60.794	0.228	-0.224
-539.208	344.521	-0.089	-0.173
-538.193	-149.910	-0.303	-0.024
-537.179	175.925	-0.125	-0.180
-536.164	216.585	0.178	-0.281
-535.150	-200.000	-0.065	-0.475
-534.135	62.920	0.045	-0.045
-533.121	-200.000	-0.005	-0.425
-532.106	156.789	0.203	0.279
-531.091	-188.341	-0.277	-0.003
-530.077	-65.981	-0.220	-0.087
-529.062	-200.000	0.040	0.186
-528.048	-64.873	-0.233	0.093
-527.033	37.009	0.195	-0.172
-526.018	-200.000	0.016	-0.179
-525.004	226.353	0.095	0.152
-523.989	13.053	-0.183	0.140
-522.975	-27.800	-0.162	-0.093
-521.960	800.000	-0.098	-0.386
-520.945	-200.000	-0.004	0.380
-519.931	89.538	-0.056	0.062
-518.916	33.256	-0.176	0.151
-517.902	51.514	-0.082	0.077
-516.887	-51.249	0.340	-0.158
-515.872	-18.426	-0.053	-0.033
-514.858	28.955	0.217	0.183
-513.843	90.767	-0.195	-0.216
-512.829	-200.000	-0.014	-0.270
-511.814	-144.109	-0.158	-0.015
-510.799	-10.521	-0.156	-0.102
-509.785	800.000	0.062	-0.258
-508.770	173.913	-0.138	0.197
-507.756	800.000	-0.008	-0.023
-506.741	68.560	0.088	0.089
-505.726	114.134	0.163	0.197
-504.712	-6.132	0.379	-0.257
-503.697	-19.750	-0.143	-0.088
-502.683	490.027	0.113	0.257
-501.668	304.285	0.149	0.274
-500.653	-200.000	0.008	0.371
-499.639	330.055	-0.050	-0.095
-498.624	236.772	0.077	-0.127
-497.610	373.657	0.122	-0.245
-496.595	50.321	-0.167	-0.156
-495.581	-183.841	0.271	-0.005
-494.566	-123.182	0.199	0.032
-493.551	800.000	-0.065	0.268
-492.537	-120.571	0.021	-0.003
-491.522	7.005	-0.165	-0.122
-490.508	-153.374	-0.445	0.031
-489.493	110.256	-0.101	0.120
-488.478	178.808	-0.130	0.189
-487.464	-200.000	0.001	0.020
-486.449	276.431	-0.035	0.062
-485.435	-200.000	-0.020	-0.142
-484.420	-200.000	-0.007	-0.054
-483.405	-55.966	-0.095	-0.042
-482.391	-2.848	-0.020	-0.014
-481.376	-200.000	0.003	-0.219
-480.362	34.545	-0.378	-0.327
-479.347	-200.000	-0.004	-0.348
-478.332	-75.526	-0.222	-0.078
-477.318	687.743	-0.203	0.527
-476.303	514.816	0.147	-0.340
-475.289	-147.656	-0.069	-0.006
-474.274	800.000	0.070	0.245
-473.259	-200.000	-0.017	-0.251
-472.245	-158.795	0.308	0.017
-471.230	-55.213	0.337	0.150
-470.216	-65.334	-0.266	0.106
-469.201	-132.750	0.499	-0.063
-468.186	230.241	-0.044	0.071
-467.172	194.856	0.084	-0.126
-466.157	-7.908	0.474	0.317
-465.143	-200.000	-0.017	-0.224
-464.128	344.626	-0.080	0.155
-463.113	-134.183	0.218	0.027
-462.099	-21.039	-0.096	-0.058
-461.084	-51.683	0.023	0.011
-460.070	800.000	-0.028	-0.108
-459.055	-92.480	-0.298	0.083
-458.040	198.895	0.163	0.247
-457.026	258.600	-0.171	0.292
-456.011	139.159	-0.153	-0.200
-454.997	800.000	-0.037	0.139
-453.982	208.468	-0.052	0.080
-452.968	-54.882	0.125	0.056
-451.953	66.620	-0.288	0.290
-450.938	41.770	-0.039	0.035
-449.924	-39.313	0.151	0.079
-448.909	97.805	-0.301	-0.343
-447.895	-14.933	0.125	-0.079
-446.880	-94.056	-0.050	-0.014
-445.865	126.990	-0.055	-0.069
-444.851	96.440	-0.157	0.178
-443.836	-200.000	0.139	-0.001
-442.822	-200.000	-0.036	0.164
-441.807	-200.000	-0.010	-0.204
-440.792	209.963	0.142	-0.221
-439.778	-200.000	0.060	-0.470
-438.763	228.424	0.103	-0.166
-437.749	14.059	0.167	0.128
-436.734	15.906	0.201	0.156
-435.719	-8.373	-0.206	0.137
-434.705	800.000	0.060	-0.218
-433.690	800.000	0.035	0.146
-432.676	-200.000	-0.033	0.303
-431.661	1.985	-0.076	0.055
-430.646	-83.812	0.114	0.036
-429.632	83.037	-0.307	-0.330
-428.617	92.912	0.264	-0.295
-427.603	-22.296	0.106	-0.063
-426.588	-31.844	0.245	-0.136
-425.573	-135.159	0.234	-0.028
-424.559	9.283	-0.148	0.111
-423.544	-62.014	-0.201	-0.083
-422.530	-127.427	0.322	-0.046
-421.515	95.478	-0.134	-0.151
-420.500	604.927	-0.074	-0.182
-419.486	-183.790	0.445	-0.007
-418.471	-39.081	0.204	0.106
-417.457	-200.000	-0.015	0.199
-416.442	-95.326	-0.056	-0.015
-415.428	64.129	-0.186	-0.185
-414.413	-189.867	-0.287	-0.003
-413.398	16.723	0.120	0.094
-412.384	-103.436	0.104	0.024
-411.369	53.474	0.068	-0.064
-410.355	800.000	0.130	0.362
-409.340	266.117	-0.157	-0.270
-408.325	-200.000	0.040	-0.282
-407.311	-98.563	0.427	-0.108
-406.296	251.558	-0.116	-0.196
-405.282	164.531	0.185	0.257
-404.267	-37.246	0.105	0.055
-403.252	52.202	-0.114	0.107
-402.238	5.343	-0.250	-0.182
-401.223	-200.000	0.005	-0.121
-400.209	-200.000	-0.003	-0.084
-399.194	-200.000	0.017	-0.240
-398.179	-58.099	-0.108	0.047
-397.165	-50.184	-0.088	0.041
-396.150	-101.483	0.455	0.109
-395.136	283.780	0.038	-0.067
-394.121	-104.747	-0.397	-0.090
-393.106	362.072	-0.141	-0.280
-392.092	-117.108	0.055	0.010
-391.077	-200.000	0.052	0.349
-390.063	-200.000	-0.035	0.188
-389.048	-200.000	0.005	0.028
-388.033	-4.721	0.232	0.158
-387.019	-123.987	0.342	-0.053
-386.004	-8.256	-0.105	-0.070
-384.990	255.132	0.151	0.256
-383.975	59.312	0.178	-0.173
-382.960	-200.000	-0.026	-0.126
-381.946	588.955	-0.057	-0.139
-380.931	143.066	0.315	-0.413
-379.917	-5.628	0.106	0.072
-378.902	-111.726	-0.311	0.062
-377.888	-36.389	0.119	0.063
-376.873	-200.000	0.014	0.316
-375.858	3.530	-0.351	0.252
-374.844	119.498	0.141	-0.172
-373.829	-90.506	0.065	0.019
-372.815	54.595	-0.127	-0.121
-371.800	-113.443	0.141	-0.027
-370.785	244.498	-0.013	0.022
-369.771	557.010	-0.169	0.402
-368.756	113.166	0.176	0.211
-367.742	-200.000	-0.066	0.439
-366.727	-197.326	0.205	0.001
-365.712	-141.191	-0.123	-0.012
-364.698	-200.000	-0.010	0.047
-363.683	-52.225	-0.105	0.048
-362.669	-106.974	0.179	0.039
-361.654	-122.109	0.181	0.029
-360.639	78.937	0.157	0.166
-359.625	8.806	-0.283	0.210
-358.610	-40.891	-0.293	-0.150
-357.596	20.934	-0.168	0.134
-356.581	-191.632	0.115	0.001
-355.566	-168.471	0.191	-0.007
-354.552	-200.000	0.028	0.216
-353.537	251.647	0.100	0.168
-352.523	651.262	0.198	-0.501
-351.508	61.147	0.080	0.079
-350.493	-113.823	0.359	0.069
-349.479	85.297	0.343	-0.371
-348.464	-133.286	0.192	0.024
-347.450	357.536	-0.065	-0.129
-346.435	-200.000	0.007	-0.063
-345.420	-131.451	0.342	-0.044
-344.406	77.183	-0.023	-0.025
-343.391	800.000	-0.079	0.311
-342.377	-200.000	0.021	0.244
-341.362	-63.627	-0.479	0.194
-340.348	-156.732	0.230	-0.014
-339.333	231.079	0.103	0.166
-338.318	96.576	0.089	0.101
-337.304	-24.419	0.134	0.079
-336.289	-200.000	0.015	-0.191
-335.275	27.728	-0.029	0.024
-334.260	-14.202	-0.389	-0.248
-333.245	125.615	-0.096	-0.120
-332.231	-35.595	-0.082	0.044
-331.216	2.551	-0.103	-0.073
-330.202	-42.909	0.221	0.111
-329.187	368.047	-0.162	-0.323
-328.172	-200.000	-0.035	0.256
-327.158	-20.552	-0.104	0.063
-326.143	6.666	-0.089	-0.065
-325.129	238.308	-0.030	-0.050
-324.114	800.000	0.054	0.184
-323.099	-85.496	0.519	0.159
-322.085	-68.298	-0.342	0.131
-321.070	800.000	0.112	0.372
-320.056	59.369	0.174	0.169
-319.041	65.617	-0.075	0.075
-318.026	-39.185	0.222	-0.115
-317.012	800.000	-0.043	-0.185
-315.997	-171.611	-0.317	0.010
-314.983	-200.000	0.039	-0.230
-313.968	800.000	0.025	0.078
-312.953	-105.500	0.167	-0.037
-311.939	591.608	0.045	-0.110
-310.924	266.925	0.113	-0.194
-309.910	-120.734	-0.259	-0.043
-308.895	-200.000	-0.033	0.226
-307.880	800.000	-0.042	-0.148
-306.866	-50.434	0.441	-0.205
-305.851	82.599	-0.207	-0.221
-304.837	27.317	0.101	-0.084
-303.822	800.000	-0.065	0.229
-302.807	-3.376	-0.126	-0.087
-301.793	133.588	-0.089	0.114
-300.778	537.072	0.089	0.208
-299.764	-82.028	-0.288	0.093
-298.749	-150.521	-0.168	0.013
-297.735	-117.116	-0.605	0.108
-296.720	230.486	-0.108	-0.174
-295.705	-27.504	0.210	0.120
-294.691	206.346	-0.074	0.114
-293.676	291.436	0.073	0.130
-292.662	53.517	-0.143	0.135
-291.647	-124.094	0.121	0.019
-290.632	-200.000	0.022	0.119
-289.618	-84.394	0.056	-0.017
-288.603	-74.556	-0.366	-0.130
-287.589	29.393	0.061	0.051
-286.574	-200.000	0.004	-0.026
-285.559	-145.375	-0.058	-0.005
-284.545	117.831	-0.097	0.117
-283.530	-200.000	0.021	0.307
-282.516	-200.000	-0.055	-0.391
-281.501	-140.360	0.319	-0.033
-280.486	-59.863	-0.292	-0.123
-279.472	-200.000	0.023	0.377
-278.457	66.694	-0.190	0.190
-277.443	-115.837	-0.226	0.042
-276.428	-6.816	-0.071	0.047
-275.413	520.613	0.153	-0.354
-274.399	-106.091	0.368	0.081
-273.384	-142.455	-0.277	0.027
-272.370	-200.000	0.009	0.143
-271.355	217.927	0.100	0.156
-270.340	-33.028	-0.185	0.101
-269.326	51.794	-0.114	-0.106
-268.311	-107.297	0.156	0.034
-267.297	800.000	0.088	0.297
-266.282	-68.190	0.074	0.028
-265.267	188.754	-0.218	0.321
-264.253	-136.773	0.099	-0.011
-263.238	-72.837	-0.161	0.058
-262.224	-70.217	-0.140	-0.052
-261.209	800.000	-0.049	-0.162
-260.195	1.092	-0.226	-0.160
-259.180	-45.536	0.173	0.084
-258.165	243.616	0.148	0.245
-257.151	-200.000	0.040	0.290
-256.136	30.598	-0.018	-0.016
-255.122	-28.598	0.088	-0.050
-254.107	-51.625	0.400	0.183
-253.092	69.099	0.228	-0.230
-252.078	800.000	0.102	0.333
-251.063	-5.970	0.239	0.160
-250.049	-83.392	-0.176	0.056
-249.034	159.089	0.126	0.172
-248.019	-175.852	-0.336	0.009
-247.005	369.037	-0.144	-0.286
-245.990	398.803	0.083	0.170
-244.976	530.390	-0.133	0.309
-243.961	-65.250	0.237	0.094
-242.946	75.573	0.082	0.085
-241.932	79.596	-0.174	-0.183
-240.917	-16.385	0.144	0.090
-239.903	-48.585	0.275	-0.130
-238.888	466.659	-0.030	0.067
-237.873	136.305	0.020	0.025
-236.859	-200.000	-0.024	0.153
-235.844	-200.000	-0.016	0.183
-234.830	76.998	-0.166	0.173
-233.815	-123.409	0.409	-0.064
-232.800	199.153	-0.145	-0.218
-231.786	296.250	0.167	-0.301
-230.771	211.394	0.151	0.233
-229.757	-134.769	0.178	0.021
-228.742	-12.805	0.108	0.069
-227.727	481.651	-0.196	0.437
-226.713	546.215	0.080	-0.188
-225.698	-159.429	0.153	0.008
-224.684	290.693	0.066	-0.117
-223.669	-128.267	0.247	-0.035
-222.655	3.350	0.148	-0.105
-221.640	800.000	0.094	0.293
-220.625	-179.769	-0.283	-0.006
-219.611	39.317	-0.210	0.185
-218.596	18.913	-0.337	0.265
-217.582	122.558	0.136	-0.167
-216.567	-26.972	0.183	-0.105
-215.552	800.000	-0.036	-0.117
-214.538	-111.119	0.281	0.056
-213.523	45.861	0.216	0.196
-212.509	-137.207	-0.222	-0.025
-211.494	-43.011	-0.210	0.104
-210.479	463.935	-0.083	0.181
-209.465	-200.000	0.042	0.561
-208.450	0.864	-0.216	0.152
-207.436	-131.301	-0.189	-0.025
-206.421	701.194	0.067	0.173
-205.406	544.091	-0.157	-0.368
-204.392	-18.695	0.086	-0.052
-203.377	-159.323	-0.096	-0.005
-202.363	-30.946	-0.161	-0.089
-201.348	359.271	-0.088	-0.172
-200.333	800.000	0.065	-0.189
-199.319	800.000	0.075	0.295
-198.304	-17.937	0.200	-0.123
-197.290	800.000	0.032	-0.105
-196.275	422.035	-0.023	0.048
-195.260	-127.705	0.083	-0.012
-194.246	474.066	0.088	0.195
-193.231	333.655	-0.008	0.016
-192.217	39.278	0.134	0.117
-191.202	301.848	0.079	0.144
-190.187	-173.860	-0.249	0.007
-189.173	63.776	0.075	-0.074
-188.158	-50.978	0.353	0.163
-187.144	-11.080	0.227	0.147
-186.129	-49.551	-0.201	-0.094
-185.114	-200.000	-0.039	-0.199
-184.100	-200.000	0.034	0.154
-183.085	2.484	-0.348	0.247
-182.071	310.566	0.101	-0.186
-181.056	-69.028	-0.255	0.096
-180.042	101.186	0.274	0.313
-179.027	1.521	0.109	-0.077
-178.012	680.434	-0.096	-0.245
-176.998	30.354	0.098	0.082
-175.983	83.655	-0.158	0.169
-174.969	210.526	-0.220	0.339
-173.954	-19.618	0.137	-0.083
-172.939	80.194	0.070	-0.074
-171.925	-98.498	0.215	-0.054
-170.910	63.346	-0.167	0.164
-169.896	392.565	-0.110	-0.223
-168.881	236.093	0.027	-0.044
-167.866	800.000	-0.078	-0.257
-166.852	-106.742	-0.122	-0.027
-165.837	-200.000	-0.032	0.317
-164.823	800.000	-0.023	0.083
-163.808	-200.000	-0.006	0.304
-162.793	156.580	-0.146	-0.198
-161.779	-200.000	-0.003	-0.303
-160.764	-143.137	-0.425	0.040
-159.750	332.983	-0.100	0.189
-158.735	800.000	-0.067	0.204
-157.720	-25.685	0.078	-0.045
-156.706	-19.426	0.138	-0.084
-155.691	-98.031	-0.165	0.042
-154.677	122.844	0.127	0.155
-153.662	-200.000	-0.045	-0.303
-152.647	-197.889	0.371	-0.002
-151.633	34.852	0.103	0.088
-150.618	-200.000	-0.056	0.259
-149.604	-125.759	-0.231	0.034
-148.589	-200.000	0.022	0.274
-147.574	-200.000	0.310	0.001
-146.560	81.506	0.049	-0.052
-145.545	-144.039	-0.287	-0.026
-144.531	97.695	0.204	-0.229
-143.516	800.000	-0.086	0.312
-142.502	126.417	-0.076	0.094
-141.487	-137.706	0.280	0.031
-140.472	-200.000	0.032	-0.384
-139.458	-100.687	-0.268	-0.065
-138.443	145.171	-0.177	0.232
-137.429	237.981	0.138	0.224
-136.414	-132.146	0.096	0.012
-135.399	120.224	0.143	0.173
-134.385	117.052	0.201	-0.241
-133.370	30.330	0.111	-0.092
-132.356	79.117	0.053	0.055
-131.341	-158.189	-0.128	-0.007
-130.326	800.000	0.030	-0.083
-129.312	-48.590	0.159	0.075
-128.297	-58.751	-0.173	-0.073
-127.283	-52.347	0.207	0.094
-126.268	-54.729	-0.251	0.111
-125.253	-136.242	0.528	0.060
-124.239	681.545	-0.060	0.152
-123.224	320.958	0.073	-0.136
-122.210	-150.730	0.184	0.014
-121.195	117.593	0.234	0.281
-120.180	-40.919	0.296	-0.150
