DTS Sentinel unit serial number:	SN413079Multiplexer serial number:	ORYXHardware model number:	OX4-SRSoftware version number:	ORYX F/W v4.00 Oryx Data Collector v3.7.2.0data status	okinstallation	princeton_trtdifferential loss correction	single-endedforward channel	channel 1reverse channel	N/Adate	2019/09/17time	03:26:35forward acquisition time	60.00reverse acquisition time	0.00gamma	496.2192k internal	0.2323k external	0.2323temperature offset calibration	0.9959default loss term (dB/km)	0.3790temperature slope calibration	1.0000multiplexer offset coefficient	1.0000multiplexer slope coefficient	1.0000fibre end	0.00T internal ref (°C)	30.00T ext. ref 1 (°C)	0.13T ext. ref 2 (°C)	24.75length (m)	temperature (°C)	Stokes	anti-Stokes-747.200	800.000	-0.044	-0.177
-746.185	53.776	-0.342	0.332
-745.171	74.340	0.097	-0.103
-744.156	38.709	-0.123	-0.111
-743.142	479.746	0.063	0.144
-742.127	-58.103	-0.249	0.110
-741.112	-200.000	0.085	-0.440
-740.098	-71.154	-0.381	0.145
-739.083	20.476	0.117	-0.096
-738.069	93.622	0.145	0.166
-737.054	-5.530	0.153	0.106
-736.039	206.929	-0.094	-0.149
-735.025	-200.000	0.017	-0.099
-734.010	-136.710	0.124	-0.014
-732.996	-200.000	-0.008	-0.047
-731.981	489.521	-0.098	0.226
-730.966	-97.415	0.200	0.053
-729.952	186.432	-0.196	0.295
-728.937	-200.000	0.024	0.288
-727.923	52.126	0.246	-0.236
-726.908	307.559	-0.217	-0.408
-725.894	84.628	-0.122	-0.135
-724.879	95.224	-0.092	0.106
-723.864	-170.983	-0.196	0.007
-722.850	-14.707	-0.106	-0.069
-721.835	701.711	0.035	0.094
-720.821	-18.607	-0.319	0.201
-719.806	150.502	-0.152	-0.208
-718.791	-59.380	0.151	-0.066
-717.777	800.000	0.057	-0.215
-716.762	800.000	0.162	-0.496
-715.748	198.386	0.129	-0.199
-714.733	24.243	-0.016	-0.013
-713.718	151.516	0.086	-0.118
-712.704	-31.377	-0.112	-0.064
-711.689	747.164	0.082	-0.222
-710.675	132.094	0.164	0.213
-709.660	-121.194	-0.168	-0.028
-708.645	-0.659	-0.271	-0.194
-707.631	-12.897	0.384	-0.252
-706.616	34.530	0.082	-0.072
-705.602	-200.000	0.008	0.063
-704.587	-112.288	0.117	-0.024
-703.572	-200.000	-0.005	0.087
-702.558	-200.000	0.008	-0.366
-701.543	-105.622	0.131	0.030
-700.529	800.000	-0.004	-0.016
-699.514	800.000	-0.055	0.186
-698.499	-128.165	0.140	-0.020
-697.485	706.390	-0.042	0.111
-696.470	-167.095	0.293	-0.012
-695.456	-191.665	-0.142	-0.001
-694.441	800.000	0.089	0.257
-693.426	271.456	0.162	0.288
-692.412	-85.751	0.297	-0.093
-691.397	12.820	-0.062	-0.048
-690.383	43.730	0.125	0.115
-689.368	-25.676	-0.084	-0.050
-688.354	-200.000	0.021	0.185
-687.339	-200.000	0.002	0.104
-686.324	-135.568	0.129	0.015
-685.310	-200.000	-0.007	0.134
-684.295	-200.000	-0.008	-0.043
-683.281	-112.050	0.305	0.062
-682.266	-69.097	0.029	0.011
-681.251	200.420	-0.078	-0.121
-680.237	800.000	-0.076	-0.213
-679.222	-48.064	0.055	0.027
-678.208	-114.095	-0.255	0.050
-677.193	625.806	0.131	-0.332
-676.178	800.000	-0.069	-0.244
-675.164	-159.271	0.051	0.003
-674.149	109.047	0.122	-0.147
-673.135	-49.644	0.338	0.162
-672.120	-32.718	-0.246	0.138
-671.105	50.466	0.327	0.312
-670.091	-23.233	-0.110	0.067
-669.076	-66.807	-0.364	-0.145
-668.062	-189.496	0.026	-0.000
-667.047	-91.651	-0.335	0.096
-666.032	92.401	-0.279	-0.316
-665.018	-200.000	0.051	0.235
-664.003	-200.000	0.074	-0.359
-662.989	36.796	-0.068	-0.061
-661.974	-17.212	0.117	0.074
-660.959	-3.929	-0.065	-0.046
-659.945	-200.000	-0.298	0.001
-658.930	-200.000	-0.059	-0.373
-657.916	38.665	-0.131	0.118
-656.901	551.000	-0.257	-0.621
-655.886	-200.000	0.013	0.119
-654.872	495.927	-0.157	0.364
-653.857	132.819	0.062	-0.081
-652.843	800.000	-0.083	-0.271
-651.828	93.029	0.135	0.153
-650.814	800.000	-0.016	-0.068
-649.799	419.836	0.033	-0.070
-648.784	-29.954	-0.236	-0.135
-647.770	-200.000	-0.017	-0.142
-646.755	-94.972	-0.486	0.132
-645.741	-118.277	0.248	-0.044
-644.726	-200.000	0.032	-0.274
-643.711	58.394	-0.088	-0.087
-642.697	-131.609	0.392	-0.052
-641.682	305.647	-0.209	-0.391
-640.668	-200.000	-0.032	-0.226
-639.653	800.000	0.048	-0.155
-638.638	-200.000	-0.013	-0.115
-637.624	-165.158	0.277	-0.012
-636.609	-200.000	-0.014	0.210
-635.595	-13.306	0.169	0.110
-634.580	800.000	-0.050	0.159
-633.565	227.945	-0.252	0.413
-632.551	280.796	0.039	-0.070
-631.536	394.140	0.113	-0.236
-630.522	256.605	-0.091	0.158
-629.507	800.000	0.082	0.237
-628.492	-47.813	0.252	0.123
-627.478	161.249	0.162	0.227
-626.463	-66.109	-0.072	0.029
-625.449	-22.644	-0.262	0.159
-624.434	-200.000	-0.007	-0.277
-623.419	-46.656	-0.345	-0.170
-622.405	-123.334	-0.204	-0.033
-621.390	-124.085	0.209	0.033
-620.376	800.000	-0.099	0.285
-619.361	-95.816	-0.221	0.059
-618.346	26.931	0.012	0.010
-617.332	-35.704	-0.166	0.090
-616.317	58.076	-0.104	0.103
-615.303	-192.723	-0.243	-0.002
-614.288	-115.757	-0.063	0.012
-613.273	32.301	0.186	0.161
-612.259	56.586	-0.158	-0.154
-611.244	-12.174	0.068	0.044
-610.230	-60.565	0.215	-0.092
-609.215	70.630	0.018	0.019
-608.201	364.574	-0.203	-0.410
-607.186	-134.789	-0.491	0.060
-606.171	210.242	0.119	-0.188
-605.157	-16.910	-0.019	-0.012
-604.142	-118.606	-0.506	0.090
-603.128	594.053	-0.066	0.164
-602.113	306.429	0.037	-0.069
-601.098	800.000	0.035	-0.119
-600.084	131.924	-0.088	0.114
-599.069	-143.128	0.100	-0.010
-598.055	800.000	0.141	-0.418
-597.040	-174.127	-0.329	-0.010
-596.025	800.000	0.019	0.084
-595.011	800.000	-0.066	0.195
-593.996	800.000	0.055	-0.187
-592.982	-166.656	0.125	-0.005
-591.967	2.606	0.217	-0.158
-590.952	118.824	-0.059	-0.073
-589.938	-200.000	0.017	0.159
-588.923	-178.959	-0.255	0.006
-587.909	323.679	0.020	-0.039
-586.894	-69.647	-0.062	-0.024
-585.879	252.971	-0.156	-0.266
-584.865	-200.000	-0.024	-0.244
-583.850	-43.281	0.157	-0.080
-582.836	-167.904	-0.219	-0.009
-581.821	-96.362	0.191	0.051
-580.806	-108.000	-0.191	-0.042
-579.792	202.189	0.091	0.141
-578.777	800.000	-0.099	-0.354
-577.763	197.703	0.041	0.063
-576.748	-200.000	-0.009	0.059
-575.733	56.239	-0.216	-0.210
-574.719	129.328	0.059	0.076
-573.704	-115.809	-0.246	0.046
-572.690	-59.016	-0.203	-0.088
-571.675	85.183	0.200	0.220
-570.661	-100.350	0.202	0.050
-569.646	352.941	-0.179	0.357
-568.631	157.085	0.238	0.330
-567.617	-185.068	-0.213	-0.003
-566.602	-70.981	0.355	0.134
-565.588	-200.000	0.011	0.049
-564.573	163.379	0.183	0.258
-563.558	-86.871	0.060	-0.018
-562.544	-33.022	0.051	0.028
-561.529	-200.000	-0.026	0.442
-560.515	800.000	-0.065	0.198
-559.500	-200.000	0.044	0.227
-558.485	-120.565	-0.138	0.023
-557.471	103.021	-0.113	-0.133
-556.456	-117.476	-0.453	-0.082
-555.442	-56.596	0.184	0.082
-554.427	-124.757	-0.152	0.024
-553.412	-200.000	0.016	0.180
-552.398	63.913	0.172	-0.174
-551.383	-200.000	0.012	-0.102
-550.369	-151.455	0.092	-0.007
-549.354	206.568	-0.081	-0.127
-548.339	-6.516	0.287	0.196
-547.325	220.538	0.163	-0.263
-546.310	-200.000	-0.031	-0.245
-545.296	108.174	0.127	-0.152
-544.281	52.973	0.263	-0.252
-543.266	-33.344	-0.215	-0.119
-542.252	677.641	-0.102	-0.267
-541.237	-92.177	0.284	-0.080
-540.223	61.826	-0.139	-0.139
-539.208	-200.000	-0.021	-0.286
-538.193	-84.488	-0.139	-0.044
-537.179	800.000	-0.061	-0.216
-536.164	-157.251	0.105	-0.006
-535.150	-103.620	0.333	0.078
-534.135	48.572	0.140	-0.132
-533.121	402.996	-0.116	0.244
-532.106	-200.000	0.015	0.214
-531.091	-200.000	0.027	0.203
-530.077	685.349	-0.121	0.317
-529.062	74.134	-0.061	-0.064
-528.048	-200.000	-0.023	-0.129
-527.033	135.906	-0.045	0.059
-526.018	100.759	0.231	-0.269
-525.004	800.000	-0.064	0.276
-523.989	-13.177	0.034	-0.022
-522.975	468.932	-0.115	0.259
-521.960	-177.969	-0.229	0.005
-520.945	-62.702	0.117	-0.049
-519.931	-128.701	-0.060	-0.008
-518.916	-8.700	-0.130	0.087
-517.902	-128.971	-0.117	0.016
-516.887	37.065	0.223	0.197
-515.872	287.019	0.026	-0.046
-514.858	-34.340	-0.060	0.033
-513.843	-61.040	-0.214	-0.090
-512.829	214.307	-0.082	-0.130
-511.814	-62.167	-0.250	0.104
-510.799	-62.790	0.218	-0.090
-509.785	-200.000	-0.036	0.165
-508.770	-200.000	0.019	-0.139
-507.756	330.007	-0.034	-0.065
-506.741	-200.000	-0.024	-0.185
-505.726	-102.415	0.243	0.058
-504.712	31.459	-0.161	0.138
-503.697	-25.661	-0.286	0.169
-502.683	800.000	0.059	0.193
-501.668	800.000	0.084	0.301
-500.653	-160.595	0.071	0.004
-499.639	93.596	0.126	-0.143
-498.624	-137.173	-0.344	0.039
-497.610	-176.192	-0.243	0.006
-496.595	184.920	0.071	0.106
-495.581	661.648	0.034	-0.088
-494.566	-200.000	0.036	-0.246
-493.551	-200.000	-0.001	0.229
-492.537	424.613	-0.094	0.203
-491.522	-127.201	-0.153	0.022
-490.508	-200.000	-0.001	-0.351
-489.493	-200.000	-0.055	0.286
-488.478	-66.121	-0.203	0.081
-487.464	691.199	0.057	-0.148
-486.449	58.872	-0.303	-0.298
-485.435	429.067	0.084	0.181
-484.420	26.432	-0.116	0.097
-483.405	154.624	0.121	-0.166
-482.391	-200.000	-0.058	-0.476
-481.376	-76.272	-0.169	0.060
-480.362	6.099	0.114	0.084
-479.347	-79.413	0.186	-0.063
-478.332	-200.000	-0.016	0.226
-477.318	260.943	-0.170	-0.295
-476.303	-18.662	-0.106	-0.066
-475.289	-23.422	-0.366	0.220
-474.274	-27.314	-0.277	0.161
-473.259	-101.485	-0.034	0.008
-472.245	-134.683	0.121	0.015
-471.230	-82.254	-0.269	0.088
-470.216	44.235	0.096	-0.088
-469.201	11.902	0.073	-0.056
-468.186	-200.000	0.009	-0.123
-467.172	34.719	-0.100	0.087
-466.157	22.786	0.307	0.252
-465.143	-50.696	0.331	-0.155
-464.128	800.000	0.054	0.180
-463.113	238.334	0.157	-0.261
-462.099	-116.037	-0.151	0.028
-461.084	-171.092	-0.198	-0.007
-460.070	54.250	0.184	-0.177
-459.055	573.891	0.118	-0.287
-458.040	-37.296	-0.109	-0.058
-457.026	6.484	-0.211	-0.157
-456.011	-56.723	0.221	-0.098
-454.997	-33.577	0.059	-0.033
-453.982	17.328	-0.204	-0.162
-452.968	97.998	-0.159	0.183
-451.953	506.936	-0.038	-0.088
-450.938	-11.854	0.061	0.040
-449.924	269.076	-0.101	-0.177
-448.909	800.000	0.015	0.054
-447.895	-127.943	0.149	0.021
-446.880	-82.823	0.296	0.095
-445.865	2.637	-0.283	0.205
-444.851	-200.000	0.002	-0.441
-443.836	-146.664	-0.248	0.021
-442.822	584.345	0.126	0.310
-441.807	-200.000	-0.007	0.095
-440.792	-48.531	0.295	-0.142
-439.778	-47.872	0.251	0.121
-438.763	237.530	-0.144	-0.239
-437.749	-19.665	-0.050	-0.031
-436.734	-45.219	0.225	-0.112
-435.719	-36.347	-0.269	0.145
-434.705	-200.000	-0.052	0.247
-433.690	800.000	0.067	-0.221
-432.676	77.483	0.156	-0.166
-431.661	-72.718	-0.040	0.015
-430.646	790.328	-0.054	0.148
-429.632	-24.986	-0.303	0.179
-428.617	62.751	0.211	0.211
-427.603	-200.000	-0.073	-0.379
-426.588	-31.775	0.348	0.195
-425.573	-200.000	0.005	-0.202
-424.559	209.656	-0.109	0.171
-423.544	553.790	0.144	-0.344
-422.530	-22.383	0.154	0.093
-421.515	-167.553	0.274	-0.011
-420.500	29.517	-0.318	-0.270
-419.486	-200.000	0.028	0.466
-418.471	256.562	-0.135	-0.231
-417.457	8.137	-0.218	-0.163
-416.442	339.939	0.119	0.232
-415.428	-200.000	0.027	-0.324
-414.413	-2.579	0.155	0.108
-413.398	-31.061	-0.312	-0.175
-412.384	-49.471	-0.044	-0.021
-411.369	-74.670	-0.151	0.054
-410.355	-200.000	-0.019	0.127
-409.340	60.015	0.119	-0.117
-408.325	258.615	-0.069	-0.119
-407.311	220.008	-0.024	-0.038
-406.296	-200.000	-0.017	-0.095
-405.282	800.000	0.084	-0.251
-404.267	218.933	-0.063	0.100
-403.252	-200.000	0.019	0.394
-402.238	473.877	0.022	-0.048
-401.223	-65.682	0.258	-0.103
-400.209	-200.000	-0.060	-0.428
-399.194	800.000	-0.004	0.018
-398.179	-99.175	0.422	0.106
-397.165	-200.000	0.008	-0.072
-396.150	30.093	-0.067	-0.057
-395.136	-63.846	0.236	-0.096
-394.121	-200.000	-0.009	0.132
-393.106	112.530	0.195	-0.236
-392.092	-200.000	-0.097	-0.525
-391.077	284.650	-0.129	0.231
-390.063	-200.000	-0.008	0.295
-389.048	77.303	0.142	0.151
-388.033	800.000	0.144	0.419
-387.019	-35.199	-0.067	0.037
-386.004	-94.030	-0.237	-0.065
-384.990	-88.768	0.391	0.116
-383.975	800.000	0.054	0.207
-382.960	-61.856	0.359	-0.149
-381.946	72.546	0.115	0.119
-380.931	-46.692	0.147	-0.072
-379.917	-99.057	0.203	0.051
-378.902	-200.000	-0.003	-0.339
-377.888	118.475	0.182	-0.223
-376.873	-200.000	-0.033	0.180
-375.858	-24.286	0.323	-0.192
-374.844	204.199	-0.096	-0.148
-373.829	-99.754	0.256	0.064
-372.815	-108.742	-0.355	-0.076
-371.800	651.476	0.171	0.435
-370.785	-200.000	-0.028	-0.154
-369.771	-83.037	0.118	0.038
-368.756	369.819	0.050	0.101
-367.742	800.000	-0.051	-0.218
-366.727	129.221	-0.147	-0.187
-365.712	1.926	-0.116	-0.083
-364.698	729.892	-0.026	0.068
-363.683	164.156	-0.069	0.096
-362.669	-76.125	-0.202	-0.071
-361.654	-28.309	0.057	-0.033
-360.639	-158.587	0.275	0.016
-359.625	29.066	-0.079	-0.066
-358.610	-70.404	-0.283	-0.107
-357.596	-127.771	-0.166	0.024
-356.581	204.775	-0.089	-0.137
-355.566	-84.791	0.201	0.063
-354.552	-104.840	0.144	-0.033
-353.537	102.628	0.076	-0.089
-352.523	-47.958	0.274	-0.132
-351.508	-90.671	-0.292	0.084
-350.493	-59.878	0.339	-0.144
-349.479	60.232	-0.080	-0.079
-348.464	-60.350	-0.339	0.144
-347.450	-200.000	0.026	-0.161
-346.435	-175.461	0.124	-0.003
-345.420	-200.000	0.026	0.302
-344.406	-92.394	-0.296	0.083
-343.391	-81.556	0.125	0.041
-342.377	43.855	0.189	0.172
-341.362	92.412	0.242	-0.271
-340.348	-118.153	0.409	-0.072
-339.333	-172.903	-0.390	-0.012
-338.318	156.301	0.127	-0.174
-337.304	13.160	-0.221	-0.170
-336.289	647.690	0.089	0.225
-335.275	484.920	-0.135	-0.305
-334.260	-5.818	0.241	-0.164
-333.245	27.319	0.207	-0.173
-332.231	-80.328	0.036	-0.012
-331.216	-126.613	0.329	-0.049
-330.202	-158.530	0.374	-0.021
-329.187	49.041	-0.280	0.262
-328.172	-17.949	-0.041	-0.025
-327.158	-127.068	0.069	-0.010
-326.143	-200.000	-0.020	0.169
-325.129	800.000	0.032	0.104
-324.114	-48.584	0.066	0.031
-323.099	184.233	0.070	-0.102
-322.085	9.669	0.167	-0.126
-321.070	-200.000	-0.008	0.213
-320.056	-111.140	-0.235	0.048
-319.041	75.727	-0.224	0.235
-318.026	183.734	-0.236	0.347
-317.012	-61.804	0.211	-0.088
-315.997	342.077	-0.128	0.249
-314.983	771.664	0.069	-0.186
-313.968	800.000	0.059	0.169
-312.953	800.000	-0.104	0.369
-311.939	800.000	-0.085	0.248
-310.924	-200.000	-0.015	0.085
-309.910	66.581	-0.136	0.137
-308.895	128.918	0.163	0.206
-307.880	7.350	0.119	-0.088
-306.866	255.596	0.084	-0.142
-305.851	-136.636	-0.249	0.029
-304.837	-0.112	-0.231	0.163
-303.822	-103.325	0.138	0.032
-302.807	-24.652	-0.320	0.189
-301.793	-23.797	0.161	0.096
-300.778	-85.065	0.211	-0.066
-299.764	-137.506	0.322	-0.036
-298.749	320.520	-0.075	0.141
-297.735	126.971	-0.113	-0.142
-296.720	-200.000	0.009	-0.182
-295.705	128.773	-0.214	0.270
-294.691	-130.014	-0.291	0.039
-293.676	520.669	0.086	0.201
-292.662	524.059	-0.060	-0.139
-291.647	58.540	-0.068	0.067
-290.632	379.751	0.066	0.134
-289.618	128.851	-0.099	0.125
-288.603	443.603	0.071	0.154
-287.589	-7.917	0.010	-0.007
-286.574	-101.574	-0.300	0.072
-285.559	-153.353	0.025	-0.002
-284.545	15.149	0.109	0.085
-283.530	123.416	0.077	0.096
-282.516	-26.983	0.204	0.118
-281.501	138.618	0.177	-0.230
-280.486	580.774	0.083	-0.201
-279.472	-52.651	0.138	0.063
-278.457	593.620	0.028	0.070
-277.443	800.000	0.072	-0.239
-276.428	-61.633	-0.319	0.133
-275.413	-158.936	0.296	-0.017
-274.399	-200.000	-0.002	0.163
-273.384	800.000	0.110	0.368
-272.370	172.121	0.319	0.455
-271.355	492.253	0.044	-0.101
-270.340	-41.162	-0.178	0.091
-269.326	-116.243	0.108	-0.020
-268.311	-4.214	0.280	0.192
-267.297	-200.000	-0.024	0.258
-266.282	555.836	-0.144	-0.344
-265.267	-99.829	0.227	-0.056
-264.253	800.000	0.107	-0.380
-263.238	-15.368	0.090	-0.057
-262.224	578.681	0.102	0.248
-261.209	-200.000	-0.037	0.185
-260.195	684.753	-0.075	-0.194
-259.180	-111.112	-0.263	0.053
-258.165	34.670	0.080	-0.069
-257.151	-20.304	-0.253	-0.154
-256.136	673.934	0.084	-0.216
-255.122	-200.000	0.010	-0.264
-254.107	-43.821	-0.106	-0.053
-253.092	-105.679	-0.330	-0.074
-252.078	-41.470	0.136	-0.070
-251.063	-200.000	0.031	-0.192
-250.049	-200.000	-0.091	0.000
-249.034	-128.819	-0.208	0.029
-248.019	800.000	0.078	-0.306
-247.005	137.897	-0.079	0.102
-245.990	-178.356	0.302	-0.007
-244.976	189.934	0.162	0.241
-243.961	800.000	-0.013	-0.041
-242.946	800.000	-0.111	-0.393
-241.932	-39.647	0.048	0.025
-240.917	107.843	-0.244	-0.287
-239.903	-169.304	-0.256	-0.009
-238.888	444.148	-0.104	0.225
-237.873	92.171	-0.118	0.132
-236.859	-200.000	-0.015	0.176
-235.844	36.074	-0.061	-0.053
-234.830	-64.744	0.217	0.087
-233.815	135.840	-0.096	-0.124
-232.800	-200.000	0.007	-0.258
-231.786	383.331	0.131	0.267
-230.771	-153.254	0.068	-0.005
-229.757	-200.000	-0.059	-0.288
-228.742	-200.000	0.070	0.491
-227.727	-3.489	0.138	0.095
-226.713	800.000	0.109	0.333
-225.698	128.053	0.220	0.278
-224.684	200.597	-0.052	-0.078
-223.669	229.778	-0.127	-0.205
-222.655	-112.120	0.187	0.037
-221.640	-1.372	-0.222	0.155
-220.625	-200.000	-0.001	0.285
-219.611	-200.000	0.023	0.141
-218.596	90.057	-0.147	-0.163
-217.582	63.679	-0.112	-0.111
-216.567	-200.000	0.025	-0.199
-215.552	2.213	0.210	0.150
-214.538	54.015	0.283	0.269
-213.523	-90.841	-0.132	0.038
-212.509	-116.310	0.259	-0.047
-211.494	-18.691	-0.082	0.051
-210.479	-113.932	-0.251	-0.048
-209.465	28.233	-0.256	0.214
-208.450	0.752	0.187	0.132
-207.436	247.217	0.208	-0.347
-206.421	800.000	-0.126	-0.363
-205.406	-114.856	-0.374	-0.070
-204.392	800.000	-0.036	-0.098
-203.377	-31.081	0.298	-0.166
-202.363	-125.972	0.206	0.031
-201.348	-200.000	-0.056	-0.285
-200.333	-200.000	-0.285	-0.000
-199.319	800.000	0.089	-0.375
-198.304	-15.020	-0.057	-0.036
-197.290	123.582	0.267	-0.332
-196.275	79.718	-0.143	-0.151
-195.260	745.472	0.189	0.503
-194.246	800.000	-0.048	0.181
-193.231	143.297	0.067	-0.088
-192.217	-89.015	-0.263	0.077
-191.202	-200.000	-0.038	0.168
-190.187	-113.502	-0.120	0.023
-189.173	93.932	-0.122	0.136
-188.158	-15.062	0.249	0.158
-187.144	9.681	0.080	-0.060
-186.129	207.673	0.232	-0.358
-185.114	-99.608	-0.301	0.075
-184.100	800.000	0.089	0.368
-183.085	-159.948	-0.170	-0.009
-182.071	-80.111	-0.185	0.061
-181.056	419.659	-0.052	-0.110
-180.042	800.000	0.031	0.122
-179.027	-55.559	-0.223	-0.099
-178.012	50.713	-0.128	-0.120
-176.998	-200.000	-0.060	0.457
-175.983	88.464	0.178	-0.196
-174.969	-26.155	0.288	0.167
-173.954	-200.000	0.006	0.136
-172.939	-200.000	-0.009	-0.344
-171.925	800.000	0.066	0.214
-170.910	671.931	-0.041	0.106
-169.896	-13.856	0.031	0.020
-168.881	-200.000	-0.008	-0.102
-167.866	-78.557	-0.168	-0.057
-166.852	-167.884	0.111	0.004
-165.837	83.372	-0.147	0.158
-164.823	800.000	0.057	-0.165
-163.808	-200.000	-0.038	-0.268
-162.793	550.264	-0.074	-0.176
-161.779	116.755	-0.076	0.092
-160.764	-121.968	-0.164	-0.027
-159.750	16.773	-0.434	0.339
-158.735	-145.220	0.436	0.039
-157.720	-69.334	0.235	0.089
-156.706	-200.000	0.205	0.000
-155.691	-181.852	0.279	0.005
-154.677	-74.737	0.316	-0.112
-153.662	-200.000	0.031	0.310
-152.647	800.000	-0.041	-0.136
-151.633	-43.346	0.259	-0.129
-150.618	-11.978	0.181	-0.117
-149.604	-77.273	0.219	-0.075
-148.589	-51.644	0.080	-0.037
-147.574	307.891	0.111	-0.205
-146.560	550.979	0.069	0.164
-145.545	121.697	0.016	-0.020
-144.531	70.768	0.139	-0.142
-143.516	-58.738	-0.114	-0.049
-142.502	281.604	0.131	-0.232
-141.487	-12.991	-0.037	0.024
-140.472	-200.000	0.017	-0.152
-139.458	-200.000	0.003	-0.159
-138.443	144.203	0.232	0.306
-137.429	132.068	0.197	-0.250
-136.414	800.000	0.040	-0.151
-135.399	140.168	-0.232	0.301
-134.385	-200.000	0.044	0.399
-133.370	-23.108	-0.180	0.107
-132.356	-147.744	-0.225	-0.019
-131.341	800.000	-0.007	-0.030
-130.326	51.884	-0.246	-0.231
-129.312	659.446	-0.138	-0.350
-128.297	800.000	0.065	-0.183
-127.283	800.000	0.068	0.268
-126.268	-157.549	0.130	0.008
-125.253	-145.038	-0.106	0.010
-124.239	-81.462	-0.269	0.087
-123.224	-187.245	-0.195	-0.003
-122.210	617.754	0.095	0.236
