DTS Sentinel unit serial number:	SN413079Multiplexer serial number:	ORYXHardware model number:	OX4-SRSoftware version number:	ORYX F/W v4.00 Oryx Data Collector v3.7.2.0data status	okinstallation	princeton_trtdifferential loss correction	single-endedforward channel	channel 1reverse channel	N/Adate	2019/09/13time	01:54:35forward acquisition time	60.00reverse acquisition time	0.00gamma	496.2192k internal	0.2330k external	0.2330temperature offset calibration	1.0149default loss term (dB/km)	0.3790temperature slope calibration	1.0000multiplexer offset coefficient	1.0000multiplexer slope coefficient	1.0000fibre end	0.00T internal ref (°C)	27.64T ext. ref 1 (°C)	3.83T ext. ref 2 (°C)	22.29length (m)	temperature (°C)	Stokes	anti-Stokes-747.200	51.593	0.137	0.131
-746.185	-200.000	-0.025	0.234
-745.171	-52.678	0.131	0.061
-744.156	56.880	-0.291	0.285
-743.142	23.355	0.284	0.235
-742.127	800.000	0.055	0.170
-741.112	335.190	-0.057	-0.112
-740.098	19.623	0.047	-0.038
-739.083	20.121	-0.153	-0.124
-738.069	-200.000	0.050	0.336
-737.054	800.000	-0.057	-0.192
-736.039	-200.000	0.027	-0.324
-735.025	-86.793	0.627	0.193
-734.010	133.180	-0.216	-0.281
-732.996	-64.285	-0.201	0.082
-731.981	-200.000	0.033	0.154
-730.966	269.035	-0.119	-0.211
-729.952	-200.000	-0.001	-0.037
-728.937	-29.962	0.079	0.045
-727.923	-15.347	0.055	-0.035
-726.908	294.016	-0.053	-0.097
-725.894	84.991	0.111	-0.122
-724.879	-57.367	-0.410	-0.181
-723.864	217.160	-0.183	-0.292
-722.850	-14.792	0.209	-0.135
-721.835	-145.970	0.206	0.018
-720.821	-35.506	0.220	-0.120
-719.806	-127.998	-0.320	0.046
-718.791	-200.000	0.036	-0.359
-717.777	-183.675	0.252	-0.004
-716.762	-139.337	-0.389	-0.042
-715.748	-200.000	-0.019	-0.167
-714.733	-106.252	-0.218	0.049
-713.718	-175.836	0.313	0.008
-712.704	53.728	-0.126	-0.122
-711.689	-171.349	-0.131	0.004
-710.675	-200.000	-0.055	0.248
-709.660	-200.000	-0.011	0.119
-708.645	-160.823	-0.196	-0.010
-707.631	-200.000	-0.029	0.462
-706.616	-38.670	0.320	0.170
-705.602	689.841	-0.086	0.225
-704.587	-32.472	-0.145	0.081
-703.572	800.000	-0.023	0.096
-702.558	226.770	0.167	-0.272
-701.543	365.104	-0.042	0.084
-700.529	800.000	0.027	-0.095
-699.514	-180.733	-0.074	-0.002
-698.499	14.670	0.153	-0.120
-697.485	-139.332	-0.199	0.021
-696.470	-193.842	-0.230	-0.002
-695.456	-105.770	-0.099	-0.023
-694.441	-200.000	-0.042	0.398
-693.426	-163.642	0.248	-0.012
-692.412	800.000	-0.071	-0.221
-691.397	800.000	-0.134	-0.399
-690.383	324.021	0.077	0.148
-689.368	1.058	0.130	-0.094
-688.354	-200.000	0.039	0.171
-687.339	-200.000	0.142	0.665
-686.324	-72.068	0.438	0.163
-685.310	-8.117	-0.220	-0.149
-684.295	98.523	-0.072	-0.083
-683.281	-48.990	-0.132	-0.064
-682.266	-200.000	0.006	-0.362
-681.251	-118.815	0.055	-0.010
-680.237	-200.000	0.006	0.275
-679.222	162.322	0.047	0.067
-678.208	-49.031	-0.091	0.044
-677.193	330.743	-0.096	0.185
-676.178	77.270	-0.069	0.073
-675.164	574.341	0.067	-0.164
-674.149	800.000	-0.097	0.326
-673.135	-71.672	0.273	-0.102
-672.120	-53.227	-0.197	-0.091
-671.105	5.733	-0.260	-0.193
-670.091	656.736	0.076	-0.196
-669.076	223.569	-0.089	0.144
-668.062	-12.318	-0.183	-0.120
-667.047	36.772	-0.364	0.323
-666.032	-120.764	0.101	-0.017
-665.018	-200.000	-0.005	-0.284
-664.003	20.440	0.129	0.105
-662.989	314.313	-0.126	-0.238
-661.974	-58.180	0.056	-0.024
-660.959	-3.893	-0.166	0.116
-659.945	-200.000	0.034	0.380
-658.930	-200.000	-0.045	-0.223
-657.916	-153.480	0.442	-0.031
-656.901	-40.702	0.037	0.019
-655.886	800.000	-0.060	-0.230
-654.872	-32.056	-0.319	-0.179
-653.857	800.000	0.014	0.049
-652.843	159.214	-0.095	-0.133
-651.828	108.764	-0.129	0.155
-650.814	221.002	0.134	0.215
-649.799	-39.501	-0.083	-0.044
-648.784	42.268	-0.380	-0.346
-647.770	47.665	-0.119	-0.111
-646.755	-52.890	0.206	-0.095
-645.741	306.701	-0.125	0.234
-644.726	-127.032	-0.285	0.042
-643.711	330.830	-0.042	0.081
-642.697	800.000	0.013	0.040
-641.682	163.889	0.092	0.129
-640.668	-200.000	0.039	-0.183
-639.653	314.902	-0.118	-0.223
-638.638	800.000	-0.011	0.034
-637.624	-200.000	0.077	-0.448
-636.609	30.148	-0.049	0.042
-635.595	-200.000	-0.049	-0.294
-634.580	323.645	-0.154	0.295
-633.565	-200.000	-0.025	0.275
-632.551	33.700	0.060	-0.053
-631.536	640.265	-0.102	0.260
-630.522	298.204	-0.061	0.112
-629.507	-59.425	0.285	-0.123
-628.492	-127.711	-0.104	0.015
-627.478	-200.000	0.003	-0.200
-626.463	-24.287	-0.189	0.113
-625.449	800.000	-0.096	-0.394
-624.434	-200.000	0.051	-0.234
-623.419	-200.000	0.006	-0.384
-622.405	40.081	0.160	-0.144
-621.390	-24.423	0.178	0.106
-620.376	86.776	-0.145	0.160
-619.361	-200.000	0.014	0.066
-618.346	-13.045	-0.162	0.105
-617.332	156.184	0.109	0.151
-616.317	-44.231	0.328	-0.165
-615.303	89.880	0.181	0.202
-614.288	628.275	-0.089	0.225
-613.273	123.659	-0.182	-0.229
-612.259	-107.963	0.448	-0.097
-611.244	-200.000	0.018	0.258
-610.230	-200.000	0.030	-0.183
-609.215	-200.000	0.009	-0.045
-608.201	-45.416	0.232	0.115
-607.186	-155.302	0.064	0.004
-606.171	220.849	-0.055	0.088
-605.157	-92.963	0.257	-0.072
-604.142	-46.594	-0.154	0.076
-603.128	14.702	-0.172	0.135
-602.113	207.102	0.056	0.088
-601.098	-98.700	-0.166	0.042
-600.084	48.997	0.164	-0.154
-599.069	-102.721	0.194	-0.046
-598.055	463.418	-0.081	-0.182
-597.040	503.818	0.145	0.336
-596.025	-200.000	0.042	-0.363
-595.011	800.000	0.069	0.251
-593.996	-193.316	-0.292	-0.003
-592.982	89.431	0.270	-0.301
-591.967	-49.867	-0.140	0.067
-590.952	-86.884	0.138	-0.042
-589.938	-200.000	-0.014	-0.065
-588.923	563.959	0.079	0.191
-587.909	26.973	0.198	0.166
-586.894	-117.856	0.259	0.047
-585.879	-44.815	-0.137	-0.068
-584.865	111.579	0.108	-0.130
-583.850	-200.000	-0.003	0.184
-582.836	12.754	-0.134	0.103
-581.821	-200.000	-0.003	0.059
-580.806	-78.711	0.066	-0.023
-579.792	77.064	0.360	-0.382
-578.777	-200.000	0.096	-0.465
-577.763	800.000	0.071	-0.212
-576.748	800.000	-0.108	-0.423
-575.733	3.935	-0.385	0.282
-574.719	-139.113	-0.140	-0.015
-573.704	-200.000	0.002	-0.064
-572.690	800.000	0.142	-0.518
-571.675	143.344	-0.124	0.165
-570.661	-158.506	0.180	-0.010
-569.646	208.661	-0.200	0.313
-568.631	74.369	0.177	0.186
-567.617	9.605	0.122	0.093
-566.602	800.000	0.043	-0.179
-565.588	-200.000	0.045	0.501
-564.573	12.607	0.109	-0.084
-563.558	-139.455	-0.163	-0.017
-562.544	394.249	-0.102	0.213
-561.529	-107.747	-0.206	0.045
-560.515	-200.000	-0.021	0.146
-559.500	386.033	-0.107	-0.220
-558.485	26.143	-0.303	-0.253
-557.471	-129.539	-0.128	-0.018
-556.456	-200.000	0.017	0.115
-555.442	-200.000	-0.018	0.156
-554.427	204.229	0.198	-0.306
-553.412	-200.000	0.022	-0.304
-552.398	-121.457	0.192	-0.032
-551.383	-200.000	0.027	0.288
-550.369	-200.000	-0.057	-0.260
-549.354	133.224	0.318	0.410
-548.339	116.543	-0.054	-0.067
-547.325	-55.079	-0.164	0.074
-546.310	58.629	0.072	-0.071
-545.296	800.000	0.071	-0.223
-544.281	-109.331	0.273	0.058
-543.266	-129.328	-0.403	0.056
-542.252	-2.346	0.186	0.131
-541.237	-74.861	0.205	-0.073
-540.223	-28.725	0.077	0.044
-539.208	1.611	0.181	0.130
-538.193	249.561	-0.087	0.147
-537.179	-136.284	0.042	-0.005
-536.164	-34.488	0.147	0.081
-535.150	800.000	-0.143	0.402
-534.135	-73.329	-0.093	0.034
-533.121	-171.378	-0.314	0.010
-532.106	800.000	-0.091	-0.267
-531.091	479.650	-0.144	-0.325
-530.077	124.178	0.093	0.117
-529.062	132.160	-0.118	0.152
-528.048	8.306	-0.159	0.119
-527.033	-61.865	-0.066	-0.027
-526.018	-118.207	0.436	-0.077
-525.004	-91.202	-0.131	-0.038
-523.989	-184.584	0.284	0.005
-522.975	-200.000	0.022	-0.153
-521.960	585.087	0.040	0.097
-520.945	124.630	0.168	-0.211
-519.931	-200.000	0.002	0.081
-518.916	-82.265	-0.279	-0.091
-517.902	-200.000	-0.008	0.048
-516.887	113.262	0.064	-0.077
-515.872	10.694	-0.322	0.245
-514.858	-132.841	0.161	-0.021
-513.843	76.923	-0.164	-0.174
-512.829	714.232	0.083	0.220
-511.814	-35.785	0.471	0.255
-510.799	189.163	-0.079	0.118
-509.785	-86.597	-0.220	0.067
-508.770	152.740	0.113	-0.154
-507.756	-58.861	-0.301	0.130
-506.741	-107.958	0.256	0.055
-505.726	-133.514	-0.093	-0.012
-504.712	-69.975	0.315	0.120
-503.697	546.001	-0.052	-0.123
-502.683	-19.227	0.259	-0.160
-501.668	45.570	0.170	0.156
-500.653	-51.988	0.176	0.082
-499.639	-200.000	-0.018	0.250
-498.624	-200.000	0.028	-0.237
-497.610	-200.000	-0.060	-0.336
-496.595	15.601	0.113	0.088
-495.581	-141.629	-0.232	0.023
-494.566	-200.000	-0.005	-0.224
-493.551	164.266	0.042	-0.059
-492.537	19.859	-0.256	0.206
-491.522	227.702	-0.070	-0.113
-490.508	-200.000	-0.032	0.150
-489.493	302.894	0.236	0.435
-488.478	245.139	0.170	-0.286
-487.464	-71.604	-0.205	-0.076
-486.449	3.702	0.109	0.079
-485.435	-42.363	-0.054	0.027
-484.420	-64.476	0.330	0.134
-483.405	303.941	0.080	0.148
-482.391	-200.000	0.035	-0.358
-481.376	98.419	-0.086	-0.098
-480.362	-121.475	-0.125	0.021
-479.347	179.306	0.138	0.201
-478.332	-200.000	0.000	-0.116
-477.318	-200.000	0.011	0.305
-476.303	634.071	-0.085	0.215
-475.289	-54.590	-0.250	-0.113
-474.274	-200.000	-0.241	0.000
-473.259	-8.983	-0.222	0.148
-472.245	-37.201	0.224	0.119
-471.230	147.646	0.046	0.061
-470.216	51.765	-0.145	-0.137
-469.201	-106.442	-0.257	0.057
-468.186	302.477	0.054	-0.100
-467.172	22.245	0.185	-0.150
-466.157	-200.000	0.067	-0.457
-465.143	-200.000	-0.012	0.273
-464.128	-51.703	0.138	0.064
-463.113	-132.102	0.316	0.041
-462.099	-47.111	0.269	-0.130
-461.084	-200.000	0.008	-0.191
-460.070	-62.112	0.154	-0.064
-459.055	-200.000	0.000	-0.086
-458.040	-200.000	-0.021	-0.215
-457.026	127.277	-0.112	0.141
-456.011	-39.882	-0.222	-0.115
-454.997	-200.000	-0.028	-0.214
-453.982	800.000	-0.122	-0.525
-452.968	-132.386	-0.361	-0.046
-451.953	147.277	0.166	-0.222
-450.938	38.287	-0.105	-0.093
-449.924	-114.656	0.233	0.044
-448.909	48.651	-0.158	-0.147
-447.895	109.789	-0.046	0.055
-446.880	-63.670	0.124	0.051
-445.865	800.000	0.075	-0.277
-444.851	108.688	-0.050	0.059
-443.836	556.194	-0.043	-0.103
-442.822	-30.668	-0.385	-0.217
-441.807	-110.617	-0.229	-0.047
-440.792	574.958	0.099	-0.240
-439.778	800.000	0.087	-0.247
-438.763	112.581	0.066	0.079
-437.749	-143.947	0.098	0.009
-436.734	-200.000	-0.009	-0.040
-435.719	359.465	-0.065	-0.128
-434.705	-200.000	-0.024	0.167
-433.690	-16.414	-0.124	0.078
-432.676	-115.766	-0.161	-0.030
-431.661	-200.000	-0.034	-0.282
-430.646	-150.075	-0.541	0.042
-429.632	365.837	-0.133	0.266
-428.617	89.504	-0.236	0.262
-427.603	313.121	0.118	-0.221
-426.588	-123.119	-0.290	0.046
-425.573	-200.000	0.009	-0.047
-424.559	-82.115	-0.230	0.075
-423.544	2.507	-0.313	-0.225
-422.530	-48.166	-0.184	0.088
-421.515	-89.762	0.165	0.048
-420.500	-60.114	0.113	0.048
-419.486	97.735	0.454	0.519
-418.471	48.460	-0.095	-0.089
-417.457	-93.689	-0.138	0.038
-416.442	-140.472	-0.248	-0.026
-415.428	800.000	-0.011	0.049
-414.413	800.000	0.039	0.157
-413.398	-67.266	-0.141	-0.055
-412.384	266.016	-0.116	0.202
-411.369	142.408	0.096	0.126
-410.355	-64.336	0.355	0.144
-409.340	-150.810	-0.172	-0.013
-408.325	-47.689	-0.157	-0.076
-407.311	800.000	-0.054	-0.207
-406.296	-135.186	-0.524	0.063
-405.282	-160.296	0.222	-0.012
-404.267	274.166	-0.058	0.103
-403.252	-53.575	0.385	-0.175
-402.238	453.062	-0.025	0.056
-401.223	190.481	0.106	0.158
-400.209	-200.000	0.023	0.313
-399.194	-78.509	-0.124	0.042
-398.179	-64.540	-0.157	0.063
-397.165	-22.860	-0.285	-0.171
-396.150	-15.110	0.395	0.251
-395.136	-46.032	0.464	0.227
-394.121	765.550	-0.042	-0.112
-393.106	13.295	0.370	-0.285
-392.092	28.611	-0.210	0.177
-391.077	-88.181	-0.247	0.074
-390.063	9.686	-0.026	0.019
-389.048	22.849	0.175	-0.143
-388.033	293.072	-0.147	-0.266
-387.019	49.363	0.144	-0.134
-386.004	429.537	0.094	-0.203
-384.990	-78.880	-0.321	-0.108
-383.975	-143.225	0.163	-0.016
-382.960	-53.128	0.133	0.061
-381.946	800.000	0.040	0.144
-380.931	5.320	-0.194	0.142
-379.917	34.834	-0.342	0.297
-378.902	305.796	0.106	-0.196
-377.888	136.111	-0.127	0.164
-376.873	353.382	0.030	0.059
-375.858	-61.823	0.296	-0.123
-374.844	177.211	0.119	0.172
-373.829	-18.633	-0.187	-0.115
-372.815	242.403	0.067	-0.111
-371.800	67.325	-0.068	-0.068
-370.785	-200.000	-0.052	-0.423
-369.771	800.000	-0.082	-0.226
-368.756	3.180	-0.153	0.111
-367.742	284.209	-0.032	0.057
-366.727	-0.768	0.172	0.121
-365.712	-200.000	-0.002	-0.275
-364.698	-5.371	-0.227	-0.154
-363.683	5.631	-0.046	0.034
-362.669	-18.866	-0.295	-0.182
-361.654	-200.000	0.032	-0.254
-360.639	-75.158	0.184	0.065
-359.625	800.000	-0.035	0.130
-358.610	-62.834	0.168	-0.069
-357.596	-81.789	0.183	-0.059
-356.581	10.791	0.097	-0.073
-355.566	174.162	0.110	0.157
-354.552	371.955	-0.133	0.268
-353.537	641.772	-0.154	0.389
-352.523	800.000	0.014	-0.061
-351.508	800.000	0.078	-0.322
-350.493	191.808	0.146	0.218
-349.479	800.000	0.113	0.350
-348.464	-200.000	0.003	-0.142
-347.450	-42.623	0.142	-0.072
-346.435	-52.817	-0.297	0.136
-345.420	-129.274	-0.233	0.032
-344.406	-134.335	-0.133	0.016
-343.391	-72.057	0.215	0.079
-342.377	800.000	-0.050	-0.155
-341.362	155.524	0.103	-0.140
-340.348	81.119	-0.108	-0.115
-339.333	386.971	-0.137	0.281
-338.318	-200.000	-0.003	0.346
-337.304	-200.000	0.026	-0.331
-336.289	171.435	-0.013	0.019
-335.275	-192.348	-0.208	-0.002
-334.260	-21.433	-0.335	0.202
-333.245	-99.478	0.251	-0.062
-332.231	-153.665	-0.270	-0.018
-331.216	78.706	0.244	-0.259
-330.202	193.435	-0.184	0.276
-329.187	-200.000	-0.035	-0.204
-328.172	-200.000	0.028	-0.492
-327.158	588.219	-0.094	-0.228
-326.143	-200.000	0.021	-0.153
-325.129	67.572	-0.226	0.229
-324.114	-27.269	0.263	-0.152
-323.099	-21.694	-0.224	-0.135
-322.085	286.823	0.206	0.368
-321.070	-110.055	0.276	-0.057
-320.056	45.395	0.202	0.185
-319.041	216.685	-0.094	0.148
-318.026	-200.000	0.024	-0.171
-317.012	-200.000	0.004	0.051
-315.997	-75.773	-0.410	-0.144
-314.983	-133.928	0.541	0.066
-313.968	-79.357	0.234	-0.078
-312.953	-162.142	-0.461	-0.023
-311.939	800.000	-0.095	-0.290
-310.924	34.242	0.195	-0.169
-309.910	800.000	-0.056	-0.218
-308.895	-119.658	0.171	-0.029
-307.880	127.779	0.061	0.076
-306.866	-200.000	0.001	-0.277
-305.851	-64.746	0.095	0.038
-304.837	-125.028	-0.377	0.057
-303.822	30.329	0.118	-0.100
-302.807	-120.504	-0.166	0.028
-301.793	-132.605	-0.316	0.040
-300.778	-82.687	-0.056	0.018
-299.764	-30.278	0.089	-0.050
-298.749	-130.619	-0.179	0.024
-297.735	29.031	-0.113	-0.095
-296.720	-0.923	-0.193	0.135
-295.705	-116.559	-0.219	0.040
-294.691	44.650	-0.138	-0.126
-293.676	0.013	0.244	-0.172
-292.662	800.000	-0.044	0.177
-291.647	-200.000	-0.003	0.017
-290.632	-200.000	0.013	-0.157
-289.618	206.670	-0.077	-0.118
-288.603	-116.119	0.497	0.091
-287.589	-86.497	-0.433	0.132
-286.574	100.102	-0.160	0.184
-285.559	583.627	-0.008	-0.020
-284.545	-112.657	0.365	-0.072
-283.530	-2.119	0.166	-0.115
-282.516	-70.102	0.064	0.024
-281.501	-132.587	0.043	0.005
-280.486	-178.539	0.129	0.003
-279.472	-31.248	0.308	0.171
-278.457	-77.423	-0.366	0.126
-277.443	-93.724	-0.052	0.014
-276.428	-99.317	0.169	0.042
-275.413	513.072	0.119	0.274
-274.399	-34.635	-0.091	0.049
-273.384	-200.000	0.010	0.215
-272.370	800.000	-0.103	-0.314
-271.355	-200.000	0.053	0.369
-270.340	-149.669	0.175	0.014
-269.326	800.000	-0.044	0.130
-268.311	67.959	-0.087	0.088
-267.297	-16.612	-0.271	0.170
-266.282	-54.928	0.145	0.065
-265.267	708.751	-0.093	-0.243
-264.253	-7.930	0.056	0.037
-263.238	-58.674	0.114	-0.049
-262.224	308.210	0.117	-0.216
-261.209	-87.603	-0.145	0.043
-260.195	-43.858	-0.161	-0.080
-259.180	56.690	-0.118	0.114
-258.165	55.240	0.111	0.106
-257.151	660.765	0.073	0.186
-256.136	-200.000	-0.083	0.405
-255.122	-141.484	0.095	-0.010
-254.107	-77.149	-0.150	-0.052
-253.092	0.869	0.131	0.093
-252.078	273.128	0.243	0.424
-251.063	-200.000	0.030	0.313
-250.049	19.850	0.203	0.162
-249.034	60.880	-0.250	0.245
-248.019	-47.997	0.275	0.131
-247.005	800.000	0.088	0.275
-245.990	61.604	0.104	-0.102
-244.976	624.817	0.128	0.319
-243.961	-13.406	0.134	-0.086
-242.946	-200.000	0.048	0.398
-241.932	-200.000	-0.023	0.244
-240.917	-200.000	0.064	-0.473
-239.903	-92.568	0.273	0.076
-238.888	-47.566	-0.358	-0.172
-237.873	-200.000	0.039	-0.327
-236.859	-200.000	0.026	0.143
-235.844	393.283	-0.136	-0.278
-234.830	-200.000	0.040	-0.250
-233.815	-16.952	0.226	0.141
-232.800	33.217	-0.118	0.101
-231.786	-41.194	-0.207	0.105
-230.771	54.178	0.400	0.380
-229.757	106.550	0.025	0.029
-228.742	800.000	-0.093	-0.290
-227.727	-200.000	-0.039	0.188
-226.713	57.940	0.115	0.112
-225.698	28.934	-0.158	0.132
-224.684	28.538	0.122	0.101
-223.669	-63.331	0.244	-0.099
-222.655	324.886	0.093	0.175
-221.640	-75.727	-0.427	-0.149
-220.625	-8.458	0.417	0.276
-219.611	-125.481	-0.083	-0.012
-218.596	195.399	-0.101	-0.151
-217.582	-34.093	-0.029	-0.016
-216.567	16.884	0.124	0.097
-215.552	352.865	0.060	0.117
-214.538	90.080	0.260	-0.286
-213.523	-159.707	0.229	-0.012
-212.509	5.830	-0.084	0.062
-211.494	-8.981	-0.042	0.028
-210.479	383.184	-0.043	-0.087
-209.465	-200.000	-0.025	0.388
-208.450	21.882	-0.107	0.086
-207.436	800.000	0.089	0.299
-206.421	-105.166	-0.177	0.040
-205.406	-158.047	0.095	-0.006
-204.392	143.979	0.127	0.166
-203.377	-64.633	-0.098	0.039
-202.363	180.367	-0.123	0.179
-201.348	-155.329	-0.193	-0.012
-200.333	800.000	-0.014	0.051
-199.319	585.577	0.080	-0.195
-198.304	800.000	0.060	-0.175
-197.290	-98.049	0.235	-0.060
-196.275	-84.700	-0.220	-0.068
-195.260	-200.000	-0.053	0.295
-194.246	-196.866	0.476	0.003
-193.231	800.000	0.090	-0.298
-192.217	-82.657	-0.153	0.049
-191.202	636.253	-0.080	-0.201
-190.187	109.741	-0.125	-0.148
-189.173	-200.000	0.042	0.267
-188.158	521.632	0.089	0.206
-187.144	546.725	-0.040	-0.093
-186.129	619.456	-0.045	0.113
-185.114	-200.000	-0.043	-0.203
-184.100	-200.000	-0.044	-0.349
-183.085	81.558	0.183	0.195
-182.071	-4.886	0.340	0.231
-181.056	46.871	0.095	0.087
-180.042	-114.513	-0.323	0.061
-179.027	-200.000	-0.004	-0.253
-178.012	-170.017	0.206	0.007
-176.998	-200.000	0.002	-0.142
-175.983	-106.631	-0.307	-0.067
-174.969	75.339	-0.051	0.053
-173.954	-107.160	0.169	0.037
-172.939	21.753	-0.256	-0.205
-171.925	-91.337	0.044	0.012
-170.910	-200.000	0.142	-0.706
-169.896	-57.427	-0.311	0.134
-168.881	-66.653	0.228	0.089
-167.866	-158.346	-0.196	0.011
-166.852	-34.329	-0.259	-0.140
-165.837	-125.699	-0.292	0.044
-164.823	-134.225	0.205	0.025
-163.808	-200.000	-0.022	0.242
-162.793	-86.736	0.101	-0.030
-161.779	68.591	-0.107	-0.108
-160.764	-56.845	0.107	-0.047
-159.750	-78.586	-0.083	-0.028
-158.735	399.937	0.126	-0.261
-157.720	-200.000	-0.032	0.153
-156.706	-19.422	0.222	0.135
-155.691	-112.091	0.267	0.053
-154.677	-104.736	-0.484	0.110
-153.662	-120.264	0.402	-0.068
-152.647	-73.427	0.284	-0.102
-151.633	-200.000	-0.195	-0.001
-150.618	437.383	0.049	-0.105
-149.604	-200.000	-0.044	-0.435
-148.589	-200.000	-0.006	-0.086
-147.574	-200.000	-0.078	0.403
-146.560	-72.058	-0.322	0.117
-145.545	-9.372	0.139	-0.091
-144.531	73.612	0.047	0.048
-143.516	-104.414	-0.112	-0.025
-142.502	-200.000	0.011	0.105
-141.487	43.523	0.181	-0.163
-140.472	694.994	-0.054	0.140
-139.458	26.774	0.306	-0.252
-138.443	-84.536	-0.146	-0.045
-137.429	235.159	0.090	0.146
-136.414	-200.000	0.054	0.281
-135.399	-135.598	0.304	0.036
-134.385	334.734	-0.095	0.180
-133.370	800.000	-0.006	-0.027
-132.356	-182.249	0.187	-0.003
-131.341	375.514	-0.045	-0.090
-130.326	13.536	0.161	0.123
-129.312	256.327	0.147	0.249
-128.297	-112.438	-0.066	-0.013
-127.283	101.231	0.224	0.256
-126.268	94.579	-0.258	-0.289
-125.253	-68.776	0.165	0.063
-124.239	-124.113	0.235	-0.036
-123.224	-200.000	-0.012	0.107
-122.210	-58.739	-0.112	0.048
-121.195	332.635	0.074	0.141
