DTS Sentinel unit serial number:	SN413079Multiplexer serial number:	ORYXHardware model number:	OX4-SRSoftware version number:	ORYX F/W v4.00 Oryx Data Collector v3.7.2.0data status	okinstallation	princeton_trtdifferential loss correction	single-endedforward channel	channel 1reverse channel	N/Adate	2019/09/15time	20:02:35forward acquisition time	60.00reverse acquisition time	0.00gamma	496.2192k internal	0.2315k external	0.2315temperature offset calibration	0.9955default loss term (dB/km)	0.3790temperature slope calibration	1.0000multiplexer offset coefficient	1.0000multiplexer slope coefficient	1.0000fibre end	0.00T internal ref (°C)	35.53T ext. ref 1 (°C)	7.57T ext. ref 2 (°C)	26.25length (m)	temperature (°C)	Stokes	anti-Stokes-747.200	-49.749	0.056	0.027
-746.185	-4.195	0.268	0.188
-745.171	-134.325	-0.234	0.029
-744.156	4.461	0.157	-0.117
-743.142	-200.000	0.057	0.366
-742.127	-200.000	0.058	0.392
-741.112	787.733	0.091	-0.254
-740.098	9.574	-0.220	-0.169
-739.083	171.643	0.183	-0.267
-738.069	35.248	-0.080	0.071
-737.054	85.999	-0.136	0.152
-736.039	23.491	-0.038	0.031
-735.025	800.000	-0.029	0.128
-734.010	-20.378	-0.265	-0.165
-732.996	90.262	-0.385	-0.436
-731.981	-73.409	-0.335	-0.124
-730.966	-200.000	0.044	0.220
-729.952	608.171	-0.109	0.275
-728.937	-77.384	-0.304	0.107
-727.923	800.000	-0.052	0.212
-726.908	6.513	-0.135	0.101
-725.894	-34.767	-0.326	0.180
-724.879	-103.821	-0.309	0.073
-723.864	800.000	-0.096	0.293
-722.850	-117.154	-0.339	-0.063
-721.835	135.158	0.057	0.076
-720.821	48.596	0.238	0.226
-719.806	-4.576	-0.212	0.148
-718.791	-94.148	-0.088	0.024
-717.777	-39.566	0.166	-0.088
-716.762	98.297	-0.276	0.322
-715.748	-156.848	-0.246	0.015
-714.733	167.757	0.068	-0.098
-713.718	-58.909	0.143	0.063
-712.704	-200.000	-0.039	-0.295
-711.689	-200.000	0.065	-0.327
-710.675	800.000	0.016	-0.066
-709.660	-112.747	-0.301	0.061
-708.645	188.544	0.202	-0.306
-707.631	117.779	-0.176	-0.220
-706.616	-200.000	0.022	-0.203
-705.602	-24.195	-0.302	0.183
-704.587	110.816	0.076	0.092
-703.572	60.725	-0.289	-0.290
-702.558	134.732	-0.073	-0.096
-701.543	-174.242	-0.131	0.004
-700.529	-60.902	-0.254	-0.109
-699.514	-86.195	0.096	0.030
-698.499	-71.807	-0.204	-0.077
-697.485	-92.426	-0.142	0.040
-696.470	-200.000	-0.011	-0.152
-695.456	-200.000	-0.046	0.250
-694.441	-147.278	0.038	-0.003
-693.426	-148.227	-0.274	-0.023
-692.412	-200.000	-0.031	0.301
-691.397	606.147	-0.107	0.269
-690.383	117.648	-0.163	-0.202
-689.368	-25.187	-0.144	0.086
-688.354	136.054	0.029	0.039
-687.339	800.000	0.042	-0.154
-686.324	-200.000	0.000	-0.265
-685.310	-200.000	-0.025	-0.200
-684.295	800.000	0.041	-0.141
-683.281	-145.473	-0.191	0.017
-682.266	-111.274	-0.183	-0.038
-681.251	152.571	-0.256	-0.353
-680.237	800.000	0.085	-0.269
-679.222	800.000	-0.064	-0.261
-678.208	800.000	0.052	0.146
-677.193	-200.000	0.007	0.075
-676.178	27.183	-0.108	0.092
-675.164	-62.516	0.179	0.075
-674.149	-42.883	-0.288	0.148
-673.135	544.862	0.045	-0.108
-672.120	291.800	-0.091	0.167
-671.105	90.759	-0.107	-0.121
-670.091	63.966	-0.028	-0.029
-669.076	-200.000	0.004	0.158
-668.062	-103.955	-0.110	-0.026
-667.047	-176.272	-0.213	-0.006
-666.032	-55.977	0.150	0.068
-665.018	-71.169	-0.201	-0.076
-664.003	-132.550	0.166	0.022
-662.989	800.000	-0.065	-0.198
-661.974	-125.006	0.280	-0.043
-660.959	-52.202	-0.177	0.083
-659.945	252.950	-0.119	-0.206
-658.930	-200.000	0.132	-0.000
-657.916	-54.024	-0.035	-0.016
-656.901	478.239	-0.107	0.244
-655.886	232.193	-0.132	0.219
-654.872	26.307	-0.104	0.088
-653.857	40.083	-0.083	-0.076
-652.843	230.898	-0.182	0.302
-651.828	-200.000	-0.068	0.612
-650.814	381.131	0.115	-0.238
-649.799	-52.098	0.183	-0.086
-648.784	-108.361	-0.300	-0.065
-647.770	681.398	0.046	-0.121
-646.755	173.425	-0.093	-0.136
-645.741	208.054	0.133	-0.209
-644.726	-24.620	-0.233	0.140
-643.711	-200.000	0.166	0.000
-642.697	-81.303	-0.175	-0.058
-641.682	155.129	-0.228	-0.317
-640.668	-43.743	-0.594	0.302
-639.653	-200.000	0.005	-0.182
-638.638	13.044	-0.184	0.144
-637.624	150.051	-0.117	0.160
-636.609	-101.092	-0.218	-0.054
-635.595	267.224	-0.062	0.109
-634.580	-96.406	-0.142	0.038
-633.565	494.998	0.122	-0.282
-632.551	374.617	0.178	-0.365
-631.536	-19.255	-0.049	0.031
-630.522	743.055	-0.119	-0.322
-629.507	-200.000	0.010	-0.126
-628.492	-17.387	-0.158	-0.100
-627.478	-138.623	0.195	0.022
-626.463	-56.107	0.178	0.080
-625.449	-22.123	-0.441	0.270
-624.434	47.954	-0.176	0.166
-623.419	-200.000	-0.004	-0.160
-622.405	-114.748	-0.152	0.029
-621.390	800.000	0.031	0.125
-620.376	-13.212	0.233	0.153
-619.361	-200.000	-0.006	-0.173
-618.346	-158.672	-0.166	-0.010
-617.332	174.881	0.073	-0.107
-616.317	-200.000	-0.052	-0.384
-615.303	-26.459	-0.411	-0.243
-614.288	-107.836	-0.434	-0.095
-613.273	-200.000	0.003	0.263
-612.259	40.295	-0.203	-0.184
-611.244	10.608	-0.054	0.042
-610.230	330.328	-0.196	-0.380
-609.215	-109.525	0.135	0.029
-608.201	-112.860	-0.373	-0.075
-607.186	43.530	0.103	-0.095
-606.171	-127.964	0.302	-0.044
-605.157	-14.062	-0.285	0.185
-604.142	-33.774	0.219	-0.122
-603.128	-200.000	-0.004	0.170
-602.113	-75.574	0.324	0.116
-601.098	593.120	-0.035	0.088
-600.084	-99.975	0.211	0.053
-599.069	-12.993	0.185	-0.121
-598.055	250.566	-0.066	-0.113
-597.040	800.000	-0.114	0.354
-596.025	-96.411	-0.288	-0.077
-595.011	35.612	-0.251	-0.222
-593.996	-29.530	0.043	-0.024
-592.982	-115.301	-0.186	-0.035
-591.967	-200.000	-0.052	-0.249
-590.952	227.073	-0.227	0.372
-589.938	-75.892	0.268	-0.096
-588.923	-166.963	-0.032	-0.001
-587.909	-0.375	0.191	-0.136
-586.894	73.649	0.218	0.230
-585.879	-200.000	0.006	0.047
-584.865	474.082	-0.058	-0.131
-583.850	800.000	-0.016	0.057
-582.836	-200.000	0.005	-0.136
-581.821	-200.000	-0.007	0.206
-580.806	-134.927	0.212	0.026
-579.792	-200.000	0.005	0.122
-578.777	59.473	0.040	0.040
-577.763	27.897	0.290	-0.246
-576.748	800.000	-0.064	0.231
-575.733	191.606	-0.174	0.264
-574.719	800.000	0.054	0.193
-573.704	547.757	0.055	0.132
-572.690	-200.000	-0.039	-0.223
-571.675	534.852	-0.099	-0.236
-570.661	266.402	0.093	0.164
-569.646	800.000	-0.066	-0.207
-568.631	-35.266	0.505	0.276
-567.617	316.499	0.108	-0.205
-566.602	258.954	0.143	0.248
-565.588	116.685	-0.194	0.239
-564.573	746.861	-0.095	-0.256
-563.558	-177.028	0.123	-0.003
-562.544	-200.000	0.017	-0.304
-561.529	33.344	0.207	0.180
-560.515	-26.492	-0.191	0.112
-559.500	408.235	-0.035	-0.074
-558.485	21.617	-0.232	0.190
-557.471	-136.999	-0.148	0.017
-556.456	485.119	0.128	-0.293
-555.442	800.000	-0.091	-0.281
-554.427	91.970	-0.298	-0.338
-553.412	-124.293	0.129	-0.020
-552.398	-200.000	0.043	0.290
-551.383	-200.000	-0.062	0.358
-550.369	800.000	-0.057	-0.184
-549.354	-171.977	-0.245	-0.008
-548.339	800.000	-0.071	-0.300
-547.325	7.040	0.246	0.184
-546.310	-200.000	0.005	-0.188
-545.296	-170.783	0.184	0.006
-544.281	142.525	-0.008	-0.011
-543.266	-64.141	-0.047	-0.019
-542.252	48.115	0.131	0.123
-541.237	-200.000	-0.024	0.111
-540.223	-170.895	-0.307	0.011
-539.208	-68.855	0.246	0.096
-538.193	-56.257	-0.318	0.142
-537.179	641.224	0.035	-0.089
-536.164	800.000	0.070	0.235
-535.150	570.997	0.177	-0.434
-534.135	-23.271	-0.167	0.101
-533.121	2.774	-0.220	0.161
-532.106	-117.503	-0.081	0.015
-531.091	-200.000	0.006	0.308
-530.077	-54.976	0.157	0.071
-529.062	-200.000	-0.022	0.099
-528.048	-27.068	0.379	-0.222
-527.033	-33.537	0.278	-0.154
-526.018	-200.000	0.015	0.115
-525.004	201.132	0.249	0.385
-523.989	57.440	-0.148	0.145
-522.975	-97.414	0.148	0.039
-521.960	69.793	-0.064	0.066
-520.945	153.550	0.064	-0.088
-519.931	449.484	0.148	0.328
-518.916	-143.506	0.076	0.007
-517.902	-51.158	0.320	-0.151
-516.887	490.049	-0.058	-0.134
-515.872	107.466	-0.251	-0.300
-514.858	-8.795	0.248	0.167
-513.843	800.000	0.015	0.062
-512.829	-200.000	0.006	0.098
-511.814	-49.416	0.342	-0.164
-510.799	-200.000	0.013	-0.101
-509.785	420.749	0.123	-0.266
-508.770	-7.916	0.215	-0.145
-507.756	-200.000	-0.007	0.055
-506.741	-200.000	0.005	0.224
-505.726	-52.911	-0.221	0.102
-504.712	-163.689	0.251	-0.012
-503.697	-159.195	-0.247	0.014
-502.683	-200.000	-0.021	0.111
-501.668	-118.092	-0.174	-0.031
-500.653	90.608	-0.060	0.068
-499.639	26.621	-0.019	-0.016
-498.624	-200.000	0.054	0.303
-497.610	-122.512	-0.119	0.019
-496.595	195.700	0.272	-0.415
-495.581	132.861	-0.105	-0.136
-494.566	800.000	0.060	-0.179
-493.551	-200.000	-0.000	-0.067
-492.537	-200.000	0.040	0.236
-491.522	113.980	-0.099	-0.121
-490.508	777.481	0.096	-0.262
-489.493	8.628	0.428	0.323
-488.478	-200.000	0.013	0.097
-487.464	27.642	0.182	0.154
-486.449	103.193	0.272	-0.320
-485.435	-200.000	-0.037	0.231
-484.420	-22.608	-0.181	0.110
-483.405	-115.431	0.088	0.017
-482.391	-200.000	0.021	0.095
-481.376	504.530	-0.133	0.310
-480.362	93.804	0.129	0.146
-479.347	-200.000	-0.040	-0.230
-478.332	-1.079	0.154	-0.109
-477.318	800.000	-0.068	-0.202
-476.303	-39.483	-0.098	-0.051
-475.289	-63.281	-0.257	-0.106
-474.274	149.450	-0.232	-0.315
-473.259	-200.000	0.022	0.292
-472.245	-158.674	-0.325	-0.019
-471.230	800.000	0.118	-0.351
-470.216	-200.000	-0.028	0.236
-469.201	103.817	0.069	-0.081
-468.186	-96.776	-0.059	0.016
-467.172	800.000	0.089	-0.371
-466.157	-200.000	0.063	0.427
-465.143	-3.977	-0.142	0.099
-464.128	112.936	-0.132	0.161
-463.113	-92.018	-0.122	0.035
-462.099	468.044	0.067	0.152
-461.084	-123.682	-0.172	0.027
-460.070	-45.102	0.256	0.128
-459.055	-200.000	0.028	-0.253
-458.040	800.000	-0.015	-0.043
-457.026	-200.000	-0.073	0.396
-456.011	-115.639	0.103	-0.019
-454.997	-130.591	0.168	0.023
-453.982	500.871	-0.160	0.369
-452.968	800.000	-0.036	-0.122
-451.953	-79.977	-0.172	-0.058
-450.938	-126.708	-0.295	-0.044
-449.924	-150.327	-0.169	-0.013
-448.909	-2.696	-0.158	0.111
-447.895	-37.542	-0.359	-0.192
-446.880	-142.575	-0.284	0.028
-445.865	-163.553	0.272	-0.013
-444.851	-200.000	0.014	0.192
-443.836	800.000	-0.054	0.232
-442.822	-200.000	0.078	-0.401
-441.807	122.667	0.118	0.147
-440.792	-93.948	0.299	0.082
-439.778	713.464	-0.028	0.073
-438.763	-36.939	-0.091	0.049
-437.749	-94.490	0.216	-0.059
-436.734	280.090	0.207	0.370
-435.719	-13.730	-0.303	0.197
-434.705	-92.197	0.119	0.034
-433.690	800.000	0.073	-0.262
-432.676	-8.279	-0.125	0.084
-431.661	-103.793	-0.278	-0.065
-430.646	-200.000	-0.006	-0.156
-429.632	134.121	0.165	-0.213
-428.617	-37.041	0.145	-0.078
-427.603	-111.172	-0.282	0.058
-426.588	-137.033	0.362	0.041
-425.573	46.738	0.037	-0.034
-424.559	3.884	-0.184	0.134
-423.544	-200.000	0.011	0.067
-422.530	-104.442	0.350	0.081
-421.515	33.021	-0.277	0.240
-420.500	-200.000	-0.048	0.427
-419.486	800.000	0.083	-0.269
-418.471	-200.000	-0.001	-0.187
-417.457	154.032	-0.104	-0.143
-416.442	-200.000	-0.028	0.260
-415.428	-200.000	-0.027	0.126
-414.413	800.000	0.051	0.219
-413.398	128.320	0.204	0.260
-412.384	134.181	-0.194	0.252
-411.369	800.000	0.030	-0.124
-410.355	-111.664	0.229	-0.046
-409.340	104.356	-0.144	0.169
-408.325	545.399	-0.010	-0.025
-407.311	247.176	-0.108	0.183
-406.296	-145.795	0.198	-0.018
-405.282	740.218	0.038	-0.103
-404.267	-200.000	0.005	-0.311
-403.252	-44.110	-0.208	-0.104
-402.238	475.971	0.116	0.261
-401.223	-91.299	0.330	0.094
-400.209	-173.606	0.100	0.003
-399.194	12.645	0.047	0.036
-398.179	-200.000	-0.004	-0.056
-397.165	734.160	0.017	0.046
-396.150	-84.770	0.359	-0.113
-395.136	-68.180	-0.193	-0.075
-394.121	34.073	-0.182	-0.158
-393.106	-89.534	0.400	-0.117
-392.092	-200.000	-0.012	0.368
-391.077	-18.341	0.101	0.063
-390.063	-200.000	0.024	-0.173
-389.048	285.289	-0.046	-0.083
-388.033	-183.512	0.113	0.002
-387.019	283.766	-0.062	-0.111
-386.004	-32.359	-0.232	-0.129
-384.990	487.655	-0.125	-0.286
-383.975	-125.114	0.564	0.086
-382.960	47.783	0.284	-0.264
-381.946	800.000	0.051	-0.209
-380.931	235.978	-0.090	-0.148
-379.917	-42.539	0.334	-0.170
-378.902	800.000	0.056	0.162
-377.888	-142.539	0.043	0.004
-376.873	-110.443	0.245	0.051
-375.858	-31.190	0.302	0.170
-374.844	138.390	0.159	0.209
-373.829	160.376	-0.195	0.272
-372.815	560.578	0.074	0.179
-371.800	168.282	-0.242	-0.344
-370.785	-200.000	-0.029	-0.165
-369.771	-73.445	-0.159	0.058
-368.756	681.554	-0.007	-0.019
-367.742	-128.341	-0.117	-0.017
-366.727	-104.012	-0.098	0.023
-365.712	-200.000	0.033	-0.207
-364.698	-91.286	-0.137	-0.039
-363.683	361.869	-0.092	0.184
-362.669	-200.000	0.028	-0.149
-361.654	-200.000	0.021	0.209
-360.639	800.000	0.104	0.324
-359.625	-148.011	-0.158	0.013
-358.610	-26.204	0.217	0.127
-357.596	91.089	0.208	0.233
-356.581	402.187	-0.035	0.074
-355.566	-59.973	-0.294	0.125
-354.552	800.000	-0.044	-0.188
-353.537	58.895	-0.068	0.067
-352.523	270.060	0.122	-0.215
-351.508	88.290	0.301	0.334
-350.493	-57.525	0.164	-0.072
-349.479	-200.000	0.011	-0.277
-348.464	800.000	-0.057	0.171
-347.450	33.417	0.131	0.113
-346.435	-99.514	-0.311	-0.078
-345.420	225.681	-0.039	-0.063
-344.406	310.248	-0.118	-0.221
-343.391	-108.801	0.174	-0.037
-342.377	509.059	0.101	0.235
-341.362	245.033	-0.139	-0.234
-340.348	42.006	-0.279	-0.253
-339.333	46.721	0.026	0.024
-338.318	165.055	0.149	0.210
-337.304	-46.848	-0.245	0.120
-336.289	-20.275	-0.306	-0.188
-335.275	-17.732	-0.280	0.175
-334.260	-143.990	-0.112	-0.011
-333.245	114.613	-0.130	0.159
-332.231	29.767	-0.233	-0.198
-331.216	-200.000	0.009	-0.072
-330.202	800.000	-0.027	0.107
-329.187	-38.705	0.251	-0.132
-328.172	-200.000	-0.005	0.157
-327.158	278.960	-0.092	0.163
-326.143	-82.161	0.295	-0.096
-325.129	800.000	-0.079	-0.261
-324.114	247.036	-0.093	0.156
-323.099	-103.263	0.103	0.024
-322.085	800.000	-0.013	0.049
-321.070	199.946	-0.179	-0.274
-320.056	262.686	-0.116	0.200
-319.041	118.789	-0.031	-0.038
-318.026	-200.000	-0.044	0.341
-317.012	340.530	0.074	-0.145
-315.997	-200.000	0.003	-0.051
-314.983	-61.463	0.038	0.016
-313.968	-145.318	0.186	-0.017
-312.953	-109.964	0.176	0.037
-311.939	-148.219	0.074	-0.006
-310.924	-120.657	-0.223	-0.038
-309.910	-102.546	0.024	-0.006
-308.895	387.271	-0.121	-0.249
-307.880	159.912	0.108	0.149
-306.866	64.733	-0.070	0.070
-305.851	-200.000	-0.068	-0.558
-304.837	-71.045	-0.069	0.026
-303.822	27.851	0.037	0.031
-302.807	342.197	0.148	-0.288
-301.793	-200.000	0.034	0.159
-300.778	-200.000	0.002	0.178
-299.764	-34.051	-0.422	0.231
-298.749	-89.325	0.191	-0.056
-297.735	139.994	0.142	0.187
-296.720	-200.000	0.004	0.191
-295.705	-50.317	0.226	-0.106
-294.691	72.820	0.183	0.191
-293.676	-13.829	0.328	-0.211
-292.662	46.878	-0.332	-0.307
-291.647	800.000	-0.052	0.156
-290.632	-71.577	0.303	-0.113
-289.618	800.000	0.128	-0.402
-288.603	-46.003	-0.053	0.026
-287.589	-156.154	0.234	-0.015
-286.574	-171.389	-0.415	0.014
-285.559	-110.924	0.147	0.030
-284.545	-70.884	-0.096	-0.036
-283.530	10.618	0.187	-0.142
-282.516	-35.967	-0.389	0.209
-281.501	-103.815	-0.108	-0.025
-280.486	-59.095	0.432	0.185
-279.472	423.850	-0.015	0.032
-278.457	81.708	-0.212	-0.229
-277.443	-200.000	0.012	-0.072
-276.428	-9.612	0.146	0.097
-275.413	-167.633	0.356	0.014
-274.399	-80.678	-0.108	-0.036
-273.384	21.852	0.279	-0.226
-272.370	-83.888	0.303	-0.096
-271.355	-200.000	-0.047	0.282
-270.340	-200.000	-0.016	0.144
-269.326	-157.189	-0.356	0.022
-268.311	-200.000	0.061	-0.318
-267.297	179.402	0.120	-0.175
-266.282	-60.933	0.319	-0.134
-265.267	45.594	-0.139	-0.128
-264.253	-47.671	-0.273	0.132
-263.238	331.858	0.159	-0.305
-262.224	-93.935	-0.244	0.067
-261.209	-200.000	0.089	0.423
-260.195	6.040	0.089	0.066
-259.180	-91.041	-0.166	0.047
-258.165	-74.503	-0.260	0.093
-257.151	180.719	-0.100	-0.146
-256.136	74.341	0.126	0.132
-255.122	-17.824	0.121	0.076
-254.107	377.723	-0.053	0.108
-253.092	211.416	-0.191	0.299
-252.078	-100.580	-0.053	0.013
-251.063	87.176	-0.122	-0.135
-250.049	-13.328	-0.324	0.209
-249.034	196.510	-0.009	0.014
-248.019	-18.029	0.101	0.063
-247.005	-36.694	0.197	0.105
-245.990	256.145	-0.025	-0.043
-244.976	-200.000	-0.006	-0.275
-243.961	323.339	0.130	0.247
-242.946	-200.000	0.042	0.215
-241.932	800.000	0.048	-0.191
-240.917	691.850	0.096	-0.249
-239.903	523.489	0.147	-0.344
-238.888	-88.397	0.107	-0.032
-237.873	800.000	-0.044	-0.186
-236.859	-200.000	0.000	-0.016
-235.844	162.295	-0.074	-0.104
-234.830	-126.899	-0.516	0.075
-233.815	-156.398	-0.163	0.010
-232.800	159.651	-0.062	-0.086
-231.786	349.696	-0.069	-0.136
-230.771	-200.000	-0.007	0.126
-229.757	-111.523	0.241	-0.049
-228.742	800.000	0.068	0.241
-227.727	-200.000	-0.011	-0.107
-226.713	710.620	0.127	0.333
-225.698	-200.000	0.035	0.327
-224.684	-183.070	0.168	0.003
-223.669	-126.935	0.534	0.078
-222.655	-200.000	0.025	0.411
-221.640	-142.708	0.196	0.019
-220.625	-200.000	0.045	-0.197
-219.611	78.199	-0.406	-0.430
-218.596	-200.000	0.017	-0.182
-217.582	25.750	0.145	-0.120
-216.567	53.833	-0.097	-0.093
-215.552	-165.507	-0.120	0.005
-214.538	-200.000	0.005	-0.062
-213.523	768.717	-0.081	-0.218
-212.509	129.631	-0.165	0.210
-211.494	-47.747	0.129	0.062
-210.479	389.546	0.068	0.140
-209.465	-90.700	-0.010	0.003
-208.450	167.728	0.055	0.077
-207.436	-44.168	0.192	-0.095
-206.421	-88.132	0.282	-0.084
-205.406	-196.448	0.179	0.001
-204.392	265.928	0.075	-0.129
-203.377	42.922	0.099	0.090
-202.363	63.207	-0.319	0.317
-201.348	-99.469	0.306	-0.077
-200.333	289.748	-0.039	0.071
-199.319	221.712	-0.111	-0.177
-198.304	50.155	0.067	0.063
-197.290	286.366	-0.114	-0.204
-196.275	223.826	0.108	0.173
-195.260	-160.186	-0.406	0.022
-194.246	-23.606	-0.072	0.043
-193.231	402.062	0.040	-0.083
-192.217	-153.330	0.352	-0.024
-191.202	-71.609	-0.334	0.124
-190.187	346.577	0.079	0.154
-189.173	-200.000	0.042	0.272
-188.158	-27.488	-0.271	-0.156
-187.144	-116.738	0.144	0.026
-186.129	-200.000	0.046	0.467
-185.114	389.504	0.059	-0.120
-184.100	-200.000	-0.031	-0.418
-183.085	149.466	-0.082	-0.110
-182.071	-48.173	-0.133	-0.064
-181.056	-200.000	0.027	0.135
-180.042	-131.640	0.208	0.027
-179.027	800.000	-0.018	-0.054
-178.012	-44.167	0.209	-0.104
-176.998	-200.000	-0.004	-0.077
-175.983	164.798	-0.039	0.054
-174.969	597.904	-0.095	0.233
-173.954	154.515	-0.101	-0.138
-172.939	800.000	0.076	-0.211
-171.925	364.454	0.123	-0.244
-170.910	-12.947	-0.215	0.139
-169.896	-150.447	-0.129	-0.010
-168.881	449.989	-0.113	0.247
-167.866	-200.000	0.016	0.205
-166.852	800.000	0.082	0.251
-165.837	-63.332	-0.483	-0.197
-164.823	-82.273	0.295	-0.095
-163.808	-43.634	0.094	0.047
-162.793	-200.000	0.025	-0.229
-161.779	-95.845	0.141	-0.037
-160.764	-87.761	0.339	-0.101
-159.750	-56.707	-0.215	0.094
-158.735	81.908	0.059	0.063
-157.720	162.379	-0.081	-0.113
-156.706	161.698	0.107	-0.149
-155.691	205.488	0.192	-0.296
-154.677	-200.000	0.026	0.128
-153.662	107.011	-0.112	0.131
-152.647	-196.723	-0.252	0.002
-151.633	22.704	-0.301	-0.244
-150.618	174.630	0.103	0.148
-149.604	541.831	0.017	0.040
-148.589	-66.552	-0.228	-0.089
-147.574	62.749	-0.381	0.377
-146.560	-64.139	0.077	-0.031
-145.545	-45.600	-0.055	-0.027
-144.531	213.700	0.034	0.053
-143.516	-5.200	0.106	-0.072
-142.502	-37.127	-0.030	-0.016
-141.487	90.342	-0.080	-0.088
-140.472	143.395	-0.159	-0.209
-139.458	-19.668	-0.217	-0.133
-138.443	800.000	-0.038	-0.117
-137.429	-62.853	-0.190	-0.078
-136.414	277.951	-0.043	0.075
-135.399	198.872	0.128	0.193
-134.385	-200.000	0.002	-0.017
-133.370	-200.000	0.013	-0.107
-132.356	800.000	-0.026	0.111
-131.341	336.671	0.040	-0.077
-130.326	-123.044	0.064	-0.010
-129.312	800.000	-0.035	0.124
-128.297	-200.000	0.008	-0.227
-127.283	-200.000	0.005	-0.042
-126.268	112.545	0.383	-0.458
-125.253	-70.746	-0.369	-0.138
-124.239	-108.470	-0.229	0.049
-123.224	20.240	0.150	-0.120
