DTS Sentinel unit serial number:	SN413079Multiplexer serial number:	ORYXHardware model number:	OX4-SRSoftware version number:	ORYX F/W v4.00 Oryx Data Collector v3.7.2.0data status	okinstallation	princeton_trtdifferential loss correction	single-endedforward channel	channel 1reverse channel	N/Adate	2019/09/19time	06:30:35forward acquisition time	60.00reverse acquisition time	0.00gamma	496.2192k internal	0.2342k external	0.2342temperature offset calibration	1.0022default loss term (dB/km)	0.3790temperature slope calibration	1.0000multiplexer offset coefficient	1.0000multiplexer slope coefficient	1.0000fibre end	0.00T internal ref (°C)	19.00T ext. ref 1 (°C)	0.56T ext. ref 2 (°C)	12.79length (m)	temperature (°C)	Stokes	anti-Stokes-747.200	-162.670	0.159	-0.008
-746.185	130.879	-0.107	0.138
-745.171	53.571	0.145	-0.139
-744.156	11.693	-0.155	-0.119
-743.142	-51.655	0.123	0.057
-742.127	316.908	-0.020	0.037
-741.112	-68.351	-0.048	-0.019
-740.098	-162.527	-0.359	0.018
-739.083	10.709	-0.235	0.179
-738.069	800.000	-0.061	0.238
-737.054	-200.000	-0.035	-0.178
-736.039	800.000	-0.100	-0.405
-735.025	800.000	0.053	0.173
-734.010	-114.159	0.203	-0.039
-732.996	0.383	-0.220	0.157
-731.981	-65.704	0.299	-0.120
-730.966	82.508	0.219	0.238
-729.952	-82.762	0.253	-0.082
-728.937	-200.000	-0.040	0.307
-727.923	-115.309	-0.074	-0.014
-726.908	49.176	-0.142	-0.134
-725.894	-37.204	-0.213	-0.114
-724.879	108.425	-0.194	-0.232
-723.864	-35.830	-0.194	-0.105
-722.850	38.662	0.189	-0.168
-721.835	501.910	0.109	0.252
-720.821	134.740	-0.043	0.055
-719.806	-107.895	-0.263	-0.057
-718.791	-200.000	0.051	0.265
-717.777	37.260	0.296	-0.263
-716.762	-1.443	0.149	0.105
-715.748	-200.000	0.082	-0.636
-714.733	800.000	-0.065	0.228
-713.718	800.000	0.065	-0.243
-712.704	601.444	-0.142	0.353
-711.689	-42.266	0.113	0.058
-710.675	-200.000	0.018	0.307
-709.660	144.297	-0.298	0.398
-708.645	6.924	0.282	0.210
-707.631	-3.163	-0.180	0.125
-706.616	-103.812	-0.563	-0.132
-705.602	-200.000	-0.018	0.094
-704.587	787.286	-0.097	0.267
-703.572	697.555	0.032	-0.084
-702.558	-112.639	-0.207	-0.041
-701.543	800.000	-0.077	0.295
-700.529	553.121	-0.133	0.320
-699.514	104.287	0.063	-0.074
-698.499	30.444	-0.066	0.056
-697.485	800.000	-0.048	-0.187
-696.470	800.000	-0.085	0.321
-695.456	800.000	0.055	-0.217
-694.441	11.679	0.130	-0.100
-693.426	-200.000	0.028	0.139
-692.412	-200.000	0.023	-0.150
-691.397	800.000	-0.081	-0.229
-690.383	-53.015	0.230	-0.106
-689.368	153.618	0.085	0.116
-688.354	-114.071	0.206	0.040
-687.339	800.000	-0.127	-0.535
-686.324	-30.396	0.126	0.071
-685.310	800.000	0.120	-0.500
-684.295	178.312	0.225	-0.328
-683.281	-200.000	-0.011	-0.407
-682.266	-90.783	0.187	-0.054
-681.251	-105.209	-0.069	0.016
-680.237	-95.340	-0.087	0.023
-679.222	-16.267	0.329	0.209
-678.208	-200.000	-0.010	0.114
-677.193	-200.000	0.027	-0.228
-676.178	800.000	-0.078	-0.270
-675.164	-145.069	0.415	-0.038
-674.149	241.585	-0.097	-0.161
-673.135	800.000	-0.104	-0.444
-672.120	308.526	0.083	-0.155
-671.105	-67.313	0.160	0.063
-670.091	-122.174	-0.171	-0.028
-669.076	-10.353	0.096	-0.064
-668.062	-10.193	0.176	-0.117
-667.047	800.000	-0.062	-0.257
-666.032	-90.667	-0.283	0.082
-665.018	-26.657	0.108	-0.063
-664.003	-66.071	0.240	0.096
-662.989	-85.760	-0.036	0.011
-661.974	-112.737	-0.116	-0.023
-660.959	277.365	0.186	-0.331
-659.945	74.449	0.318	-0.334
-658.930	-115.252	-0.266	0.050
-657.916	-44.866	-0.036	0.018
-656.901	-28.899	0.169	-0.097
-655.886	51.389	-0.038	0.036
-654.872	-5.037	0.158	-0.108
-653.857	-133.285	-0.156	0.020
-652.843	338.382	0.289	-0.561
-651.828	800.000	0.029	-0.094
-650.814	-20.245	0.308	-0.190
-649.799	-84.662	-0.384	0.121
-648.784	-75.622	-0.103	-0.037
-647.770	280.564	0.017	-0.031
-646.755	157.642	-0.173	0.239
-645.741	-200.000	-0.029	-0.132
-644.726	-28.065	0.185	-0.107
-643.711	684.484	-0.084	0.219
-642.697	332.156	-0.104	-0.200
-641.682	-56.045	0.386	0.171
-640.668	-138.450	-0.168	-0.018
-639.653	-54.305	-0.154	-0.070
-638.638	775.709	-0.126	0.343
-637.624	-127.123	0.067	-0.010
-636.609	118.155	-0.152	-0.186
-635.595	145.541	-0.100	-0.134
-634.580	-51.438	0.248	-0.116
-633.565	-200.000	0.003	-0.087
-632.551	129.262	-0.136	-0.173
-631.536	169.219	0.205	-0.291
-630.522	158.082	-0.130	0.180
-629.507	-105.870	-0.183	-0.041
-628.492	483.554	0.146	0.332
-627.478	137.647	0.163	0.213
-626.463	-122.573	-0.063	0.010
-625.449	-24.025	0.070	0.042
-624.434	657.129	0.098	0.252
-623.419	-32.652	0.343	-0.190
-622.405	160.902	0.149	0.207
-621.390	-200.000	-0.058	-0.378
-620.376	264.426	0.046	-0.080
-619.361	97.571	-0.021	-0.024
-618.346	204.468	0.055	-0.085
-617.332	79.491	0.095	0.102
-616.317	-34.979	0.205	-0.112
-615.303	-151.986	-0.211	0.015
-614.288	-147.155	0.263	0.022
-613.273	800.000	0.070	0.236
-612.259	-130.963	-0.346	0.046
-611.244	-68.930	0.127	0.049
-610.230	20.318	0.148	-0.119
-609.215	800.000	0.094	0.322
-608.201	-102.513	-0.144	-0.034
-607.186	153.082	0.047	0.064
-606.171	114.706	-0.178	-0.216
-605.157	-145.493	0.137	-0.012
-604.142	-78.547	-0.363	0.124
-603.128	364.931	0.068	-0.137
-602.113	507.231	0.111	-0.256
-601.098	26.120	-0.056	-0.047
-600.084	-143.548	-0.254	-0.024
-599.069	-167.627	-0.297	0.012
-598.055	57.458	-0.136	0.132
-597.040	-136.427	-0.224	0.026
-596.025	800.000	0.052	0.185
-595.011	401.273	0.028	0.058
-593.996	-200.000	-0.021	-0.206
-592.982	-100.539	-0.236	0.058
-591.967	-3.948	0.086	0.060
-590.952	-200.000	-0.005	0.303
-589.938	663.792	0.139	0.357
-588.923	-79.956	-0.359	0.120
-587.909	107.463	0.181	0.214
-586.894	-104.028	0.231	0.054
-585.879	-200.000	-0.003	-0.194
-584.865	-71.659	-0.025	-0.009
-583.850	286.492	0.053	-0.095
-582.836	-200.000	0.001	-0.327
-581.821	-127.553	0.200	-0.029
-580.806	-61.256	0.270	-0.113
-579.792	-172.028	0.192	0.006
-578.777	-143.531	0.147	0.014
-577.763	-162.732	-0.231	0.011
-576.748	-200.000	-0.014	-0.092
-575.733	-128.177	-0.120	-0.017
-574.719	106.967	-0.311	0.368
-573.704	-200.000	0.002	0.131
-572.690	409.243	-0.100	-0.210
-571.675	-200.000	-0.015	-0.242
-570.661	-14.397	0.315	0.202
-569.646	-127.089	0.143	-0.021
-568.631	-40.520	0.185	-0.096
-567.617	77.036	-0.146	-0.154
-566.602	-73.910	0.195	0.070
-565.588	-37.114	-0.089	0.047
-564.573	-85.179	0.274	-0.085
-563.558	-30.674	-0.369	-0.208
-562.544	800.000	0.043	0.122
-561.529	-22.472	-0.131	-0.079
-560.515	-131.215	-0.384	-0.051
-559.500	86.416	0.050	-0.055
-558.485	-0.378	-0.265	-0.188
-557.471	19.324	-0.277	-0.221
-556.456	-47.785	0.157	0.076
-555.442	473.782	-0.106	-0.238
-554.427	164.843	0.115	-0.162
-553.412	-200.000	0.014	0.203
-552.398	253.003	0.166	0.281
-551.383	-149.142	0.220	-0.018
-550.369	-69.191	0.118	-0.045
-549.354	-145.046	-0.381	-0.034
-548.339	8.495	-0.151	-0.113
-547.325	-124.368	-0.131	0.020
-546.310	106.079	0.099	0.117
-545.296	134.985	0.060	0.078
-544.281	-200.000	-0.013	-0.312
-543.266	-200.000	-0.020	0.248
-542.252	-200.000	-0.035	-0.164
-541.237	-200.000	0.065	0.387
-540.223	340.591	0.127	0.246
-539.208	-132.568	-0.205	0.026
-538.193	-56.070	0.145	-0.064
-537.179	-160.181	-0.298	-0.016
-536.164	128.293	0.069	0.087
-535.150	800.000	0.007	0.019
-534.135	-51.481	-0.202	-0.094
-533.121	-15.510	0.301	-0.191
-532.106	-146.518	-0.247	0.021
-531.091	-44.181	0.095	-0.048
-530.077	800.000	0.044	-0.137
-529.062	32.228	0.215	0.184
-528.048	-79.754	-0.253	-0.085
-527.033	-46.645	0.258	-0.125
-526.018	-54.122	0.128	0.058
-525.004	-102.855	-0.339	-0.080
-523.989	-200.000	0.026	0.261
-522.975	-200.000	-0.020	0.308
-521.960	-3.943	-0.249	-0.171
-520.945	-55.546	-0.092	0.041
-519.931	-148.126	-0.133	-0.011
-518.916	25.691	-0.290	0.240
-517.902	-200.000	0.027	-0.379
-516.887	-141.162	-0.302	-0.031
-515.872	189.105	-0.009	-0.013
-514.858	193.529	0.157	-0.236
-513.843	735.024	0.209	0.557
-512.829	800.000	-0.082	-0.244
-511.814	-200.000	0.000	-0.132
-510.799	301.465	0.046	-0.085
-509.785	800.000	0.053	-0.197
-508.770	91.438	0.170	-0.189
-507.756	523.255	-0.023	-0.054
-506.741	152.324	-0.141	0.191
-505.726	580.173	0.033	-0.079
-504.712	168.960	0.242	0.342
-503.697	-6.318	0.321	0.217
-502.683	-23.178	0.293	-0.175
-501.668	-173.410	0.123	-0.004
-500.653	-112.732	-0.115	0.023
-499.639	-200.000	-0.017	0.330
-498.624	-200.000	0.012	0.140
-497.610	389.234	0.117	-0.241
-496.595	-18.096	0.078	-0.048
-495.581	162.309	-0.185	0.258
-494.566	177.783	0.146	-0.211
-493.551	160.210	0.135	0.187
-492.537	156.933	0.048	-0.066
-491.522	-18.142	0.169	-0.105
-490.508	-80.035	-0.120	0.040
-489.493	180.159	0.152	-0.221
-488.478	-200.000	0.023	0.206
-487.464	95.644	-0.164	-0.186
-486.449	49.133	-0.023	0.022
-485.435	-159.967	-0.134	-0.007
-484.420	209.553	-0.272	0.422
-483.405	-0.226	-0.322	-0.227
-482.391	-89.323	0.157	0.046
-481.376	-200.000	-0.032	-0.262
-480.362	-113.112	-0.229	-0.045
-479.347	-200.000	0.032	-0.181
-478.332	800.000	0.074	-0.270
-477.318	91.975	0.095	0.106
-476.303	697.692	-0.020	-0.052
-475.289	800.000	-0.074	-0.275
-474.274	351.338	0.058	-0.115
-473.259	800.000	-0.036	0.109
-472.245	222.016	-0.175	-0.280
-471.230	800.000	0.047	-0.154
-470.216	-200.000	0.006	-0.142
-469.201	-59.901	0.378	0.160
-468.186	-61.175	0.272	-0.114
-467.172	109.292	0.138	-0.164
-466.157	-200.000	-0.010	0.086
-465.143	-95.111	-0.189	-0.051
-464.128	-66.441	-0.185	-0.073
-463.113	79.552	-0.107	0.114
-462.099	94.017	0.198	0.222
-461.084	-81.647	-0.276	-0.090
-460.070	72.371	0.074	0.076
-459.055	-47.449	0.364	-0.175
-458.040	245.113	-0.140	0.233
-457.026	-112.470	-0.071	-0.014
-456.011	8.964	0.104	0.078
-454.997	-153.994	-0.363	-0.024
-453.982	-200.000	-0.010	0.187
-452.968	-3.072	-0.335	0.232
-451.953	-72.707	0.132	0.048
-450.938	-200.000	-0.091	-0.406
-449.924	-122.373	-0.137	-0.022
-448.909	800.000	0.061	0.220
-447.895	155.372	0.165	0.225
-446.880	-14.617	0.288	0.184
-445.865	800.000	0.061	0.203
-444.851	-173.652	-0.260	-0.008
-443.836	-125.311	0.272	-0.041
-442.822	800.000	0.050	0.204
-441.807	60.737	-0.273	-0.268
-440.792	-200.000	0.040	0.359
-439.778	10.921	-0.069	0.052
-438.763	569.465	-0.112	0.269
-437.749	-48.224	0.156	-0.075
-436.734	-121.076	0.435	0.072
-435.719	137.030	-0.065	-0.084
-434.705	-200.000	-0.028	0.147
-433.690	-44.137	-0.249	-0.124
-432.676	83.234	0.120	0.129
-431.661	418.636	-0.127	0.269
-430.646	175.771	-0.074	0.106
-429.632	-109.657	0.193	-0.040
-428.617	182.700	0.140	0.204
-427.603	-4.309	0.119	0.081
-426.588	638.890	-0.112	-0.283
-425.573	-16.203	0.299	-0.188
-424.559	-65.402	0.120	-0.048
-423.544	725.291	-0.113	0.298
-422.530	67.047	-0.063	-0.064
-421.515	-200.000	0.008	0.294
-420.500	800.000	0.095	0.360
-419.486	32.235	0.056	0.047
-418.471	37.979	-0.073	-0.065
-417.457	-200.000	-0.005	-0.195
-416.442	-56.176	0.167	0.073
-415.428	-2.457	-0.207	0.144
-414.413	-200.000	-0.047	-0.234
-413.398	77.487	-0.198	-0.208
-412.384	-148.473	-0.171	0.014
-411.369	361.954	-0.096	-0.190
-410.355	800.000	0.009	-0.039
-409.340	52.788	0.318	-0.301
-408.325	-85.550	-0.456	0.140
-407.311	137.547	-0.081	-0.104
-406.296	-102.672	-0.180	0.042
-405.282	-14.213	-0.180	0.115
-404.267	800.000	0.108	-0.430
-403.252	-200.000	0.043	0.187
-402.238	30.241	-0.261	0.220
-401.223	761.471	0.064	0.171
-400.209	-65.758	0.147	-0.058
-399.194	292.111	-0.067	-0.121
-398.179	-64.518	-0.121	0.049
-397.165	176.556	-0.116	0.166
-396.150	43.369	-0.179	0.162
-395.136	-200.000	0.026	-0.121
-394.121	46.861	0.299	0.275
-393.106	-200.000	-0.002	-0.229
-392.092	535.664	0.124	-0.292
-391.077	329.048	-0.139	-0.265
-390.063	800.000	0.033	0.093
-389.048	-88.848	-0.245	0.072
-388.033	66.111	-0.205	0.206
-387.019	-23.988	0.110	0.065
-386.004	0.148	0.161	-0.113
-384.990	-200.000	-0.070	-0.307
-383.975	-200.000	-0.109	0.578
-382.960	236.153	-0.033	-0.055
-381.946	-92.590	0.221	0.061
-380.931	-200.000	-0.006	0.151
-379.917	169.968	-0.133	0.187
-378.902	5.262	-0.190	0.139
-377.888	-200.000	0.034	0.479
-376.873	85.175	0.125	0.135
-375.858	-58.315	-0.057	-0.024
-374.844	-17.836	-0.199	0.123
-373.829	497.872	-0.166	-0.377
-372.815	-107.408	0.259	0.056
-371.800	-43.855	-0.265	0.132
-370.785	-94.429	0.153	-0.041
-369.771	-118.374	0.133	0.023
-368.756	-67.499	-0.262	-0.102
-367.742	-168.095	-0.216	-0.008
-366.727	-108.465	-0.311	0.066
-365.712	-76.530	0.192	0.067
-364.698	-200.000	0.013	-0.248
-363.683	38.928	0.180	0.159
-362.669	-105.840	-0.220	0.049
-361.654	-200.000	0.031	-0.263
-360.639	-114.129	-0.042	0.008
-359.625	701.074	-0.022	-0.056
-358.610	475.104	0.169	0.377
-357.596	128.637	-0.206	0.259
-356.581	-53.570	0.073	0.033
-355.566	69.428	0.204	0.207
-354.552	278.456	0.272	0.478
-353.537	-45.961	0.194	-0.094
-352.523	64.114	-0.084	-0.083
-351.508	32.154	0.176	0.149
-350.493	-200.000	0.010	0.048
-349.479	251.930	-0.131	0.220
-348.464	223.461	0.079	0.125
-347.450	-99.288	-0.398	0.099
-346.435	-14.477	0.339	0.215
-345.420	800.000	-0.094	-0.312
-344.406	-50.072	0.155	0.072
-343.391	-74.972	-0.327	-0.115
-342.377	211.785	-0.194	-0.302
-341.362	-135.672	0.123	0.014
-340.348	-200.000	0.027	0.182
-339.333	-200.000	0.033	0.152
-338.318	800.000	0.018	-0.055
-337.304	297.618	0.092	0.167
-336.289	643.374	0.030	0.074
-335.275	800.000	-0.189	-0.613
-334.260	109.970	-0.180	0.212
-333.245	406.399	-0.192	-0.399
-332.231	-81.181	-0.099	0.032
-331.216	-68.885	0.464	0.177
-330.202	408.752	0.116	0.243
-329.187	-109.207	0.210	0.044
-328.172	-105.529	0.457	-0.102
-327.158	-200.000	0.017	-0.265
-326.143	-192.308	0.186	0.002
-325.129	15.516	0.224	0.173
-324.114	-105.830	-0.347	-0.077
-323.099	359.687	-0.129	-0.254
-322.085	-6.884	0.189	-0.126
-321.070	-75.187	0.171	0.060
-320.056	744.313	0.053	-0.140
-319.041	91.133	0.158	-0.174
-318.026	-54.362	-0.221	0.099
-317.012	263.797	0.103	-0.176
-315.997	-15.209	-0.299	0.189
-314.983	32.849	0.136	-0.116
-313.968	477.503	-0.092	0.205
-312.953	46.344	0.067	0.062
-311.939	81.789	0.113	-0.121
-310.924	-172.634	0.363	-0.011
-309.910	-200.000	0.002	-0.152
-308.895	-200.000	-0.012	0.321
-307.880	19.271	-0.149	-0.118
-306.866	-179.462	-0.129	-0.003
-305.851	66.614	0.286	0.287
-304.837	-40.582	-0.254	-0.130
-303.822	2.534	-0.106	-0.076
-302.807	-200.000	0.016	0.150
-301.793	468.244	-0.005	-0.012
-300.778	-24.193	-0.202	0.119
-299.764	-200.000	0.033	0.181
-298.749	110.959	-0.109	-0.130
-297.735	238.566	0.215	0.352
-296.720	-200.000	-0.024	0.269
-295.705	-157.350	0.506	0.030
-294.691	71.746	-0.241	0.247
-293.676	-200.000	0.012	-0.082
-292.662	644.804	-0.173	-0.433
-291.647	-65.750	0.379	-0.150
-290.632	-110.398	0.245	-0.050
-289.618	107.888	-0.198	0.232
-288.603	679.069	-0.033	0.085
-287.589	48.389	-0.101	0.093
-286.574	-20.936	-0.015	0.009
-285.559	101.759	0.165	-0.189
-284.545	-132.945	0.229	-0.029
-283.530	800.000	-0.019	-0.062
-282.516	-200.000	0.003	0.260
-281.501	800.000	-0.180	-0.534
-280.486	-62.750	-0.027	0.011
-279.472	6.493	-0.299	-0.218
-278.457	-130.929	0.167	-0.022
-277.443	239.236	-0.343	-0.562
-276.428	-117.544	0.073	-0.013
-275.413	800.000	0.081	-0.298
-274.399	-200.000	-0.065	-0.398
-273.384	65.115	0.080	-0.079
-272.370	-74.177	0.307	0.109
-271.355	7.468	-0.219	-0.161
-270.340	-111.498	-0.087	0.017
-269.326	330.677	0.066	-0.125
-268.311	0.195	-0.212	-0.149
-267.297	31.972	0.100	0.085
-266.282	84.923	-0.323	0.348
-265.267	14.840	0.092	-0.071
-264.253	108.423	0.263	-0.308
-263.238	800.000	-0.013	-0.036
-262.224	89.146	0.068	-0.074
-261.209	15.032	0.295	0.227
-260.195	-200.000	-0.018	0.249
-259.180	-117.249	-0.390	0.070
-258.165	800.000	-0.049	-0.186
-257.151	11.493	-0.028	0.021
-256.136	-121.174	0.197	-0.032
-255.122	-15.348	0.261	0.164
-254.107	-88.104	-0.176	-0.052
-253.092	17.558	-0.208	-0.162
-252.078	-119.360	0.300	-0.051
-251.063	179.976	0.159	-0.229
-250.049	-200.000	-0.011	-0.192
-249.034	79.784	0.080	-0.084
-248.019	5.570	0.328	-0.238
-247.005	702.755	0.123	0.318
-245.990	-200.000	0.048	0.216
-244.976	-200.000	0.031	0.138
-243.961	705.609	-0.011	0.029
-242.946	-147.447	0.248	0.021
-241.932	-200.000	0.017	0.320
-240.917	-200.000	0.019	-0.146
-239.903	-137.247	-0.224	-0.025
-238.888	92.290	-0.107	-0.118
-237.873	39.289	0.097	-0.085
-236.859	154.599	0.113	-0.152
-235.844	-200.000	-0.026	0.273
-234.830	800.000	-0.025	-0.086
-233.815	-55.147	-0.267	-0.118
-232.800	-76.554	0.247	-0.085
-231.786	62.753	-0.328	-0.322
-230.771	-76.612	0.236	-0.081
-229.757	-107.280	-0.283	0.061
-228.742	300.118	-0.094	-0.169
-227.727	48.190	-0.059	0.054
-226.713	399.690	-0.172	0.355
-225.698	-200.000	0.005	-0.219
-224.684	-200.000	0.001	-0.251
-223.669	388.194	0.161	-0.327
-222.655	-169.806	-0.175	0.006
-221.640	-200.000	-0.010	0.132
-220.625	-58.705	-0.134	0.057
-219.611	-200.000	-0.037	0.167
-218.596	90.945	0.177	-0.194
-217.582	746.329	-0.088	0.232
-216.567	72.591	0.224	-0.229
-215.552	-19.423	0.156	-0.095
-214.538	-95.116	0.406	0.108
-213.523	-48.125	-0.057	0.027
-212.509	-180.118	-0.345	-0.007
-211.494	800.000	-0.093	-0.276
-210.479	-113.538	-0.265	-0.051
-209.465	180.614	0.113	0.163
-208.450	-70.506	-0.278	0.103
-207.436	-200.000	0.003	-0.037
-206.421	14.332	0.196	0.150
-205.406	59.870	-0.216	-0.209
-204.392	-89.438	0.382	-0.110
-203.377	-61.007	-0.199	-0.082
-202.363	351.422	0.068	-0.133
-201.348	374.168	-0.087	-0.173
-200.333	258.759	0.114	0.193
-199.319	800.000	0.076	0.248
-198.304	-124.944	-0.173	0.026
-197.290	-93.101	0.206	-0.056
-196.275	-123.658	0.112	-0.017
-195.260	-75.030	-0.087	-0.031
-194.246	-200.000	0.024	0.318
-193.231	-200.000	-0.046	-0.275
-192.217	-6.640	0.062	0.041
-191.202	79.949	0.064	-0.068
-190.187	329.541	-0.065	0.123
-189.173	-125.035	-0.121	-0.018
-188.158	-13.387	-0.167	0.106
-187.144	32.677	0.251	-0.213
-186.129	580.515	-0.025	0.059
-185.114	512.098	-0.090	0.205
-184.100	-70.300	0.231	-0.086
-183.085	-87.651	0.287	0.085
-182.071	12.782	-0.179	0.135
-181.056	-125.551	0.196	0.029
-180.042	-91.388	-0.156	0.044
-179.027	-200.000	0.041	0.363
-178.012	-167.377	0.123	0.005
-176.998	143.514	0.136	0.177
-175.983	-200.000	-0.012	-0.139
-174.969	28.881	0.268	-0.223
-173.954	-10.817	-0.173	-0.112
-172.939	112.533	0.116	0.137
-171.925	-53.802	0.235	-0.105
-170.910	147.716	-0.159	0.210
-169.896	12.786	0.220	-0.166
-168.881	6.538	-0.219	-0.160
-167.866	85.592	-0.093	-0.100
-166.852	2.971	-0.046	0.033
-165.837	49.609	0.139	0.128
-164.823	800.000	-0.208	-0.645
-163.808	-85.319	0.140	0.043
-162.793	-75.390	-0.162	-0.056
-161.779	-200.000	0.005	0.040
-160.764	-200.000	0.022	0.269
-159.750	35.377	-0.207	-0.177
-158.735	-200.000	-0.002	0.019
-157.720	-82.223	0.237	-0.075
-156.706	721.211	-0.084	-0.219
-155.691	-6.446	0.177	-0.118
-154.677	-200.000	0.003	-0.072
-153.662	8.193	-0.295	0.217
-152.647	-200.000	0.004	0.125
-151.633	6.610	0.199	-0.145
-150.618	589.776	-0.057	0.138
-149.604	28.226	0.055	-0.045
-148.589	63.478	0.163	-0.160
-147.574	35.860	-0.265	-0.228
-146.560	-200.000	0.008	0.115
-145.545	-80.159	0.352	0.115
-144.531	7.759	-0.098	-0.072
-143.516	382.876	-0.093	0.188
-142.502	12.739	0.025	0.019
-141.487	-200.000	-0.006	-0.253
-140.472	-152.508	0.402	0.028
-139.458	-88.944	0.450	0.131
-138.443	19.779	0.245	-0.193
-137.429	-132.172	-0.193	-0.025
-136.414	671.054	-0.165	0.417
-135.399	214.261	-0.097	-0.150
-134.385	-200.000	-0.026	-0.160
-133.370	800.000	0.074	0.292
-132.356	-200.000	-0.032	-0.227
-131.341	616.289	0.159	-0.390
-130.326	-3.287	-0.190	-0.129
-129.312	201.203	0.134	-0.201
-128.297	41.231	0.102	-0.090
-127.283	9.702	-0.256	0.190
-126.268	78.877	0.173	-0.181
-125.253	-106.835	0.324	0.070
-124.239	288.115	-0.063	-0.111
-123.224	-10.312	-0.128	0.083
-122.210	-67.916	0.206	0.079
-121.195	252.297	0.159	0.265
