DTS Sentinel unit serial number:	SN413079Multiplexer serial number:	ORYXHardware model number:	OX4-SRSoftware version number:	ORYX F/W v4.00 Oryx Data Collector v3.7.2.0data status	okinstallation	princeton_trtdifferential loss correction	single-endedforward channel	channel 1reverse channel	N/Adate	2019/09/11time	09:56:11forward acquisition time	60.00reverse acquisition time	0.00gamma	496.2192k internal	0.2302k external	0.2302temperature offset calibration	0.9953default loss term (dB/km)	0.3790temperature slope calibration	1.0000multiplexer offset coefficient	1.0000multiplexer slope coefficient	1.0000fibre end	0.00T internal ref (°C)	35.25T ext. ref 1 (°C)	0.14T ext. ref 2 (°C)	32.77length (m)	temperature (°C)	Stokes	anti-Stokes-747.200	-200.000	0.063	-0.306
-746.185	-200.000	0.023	0.181
-745.171	146.857	-0.222	-0.304
-744.156	314.925	-0.223	0.428
-743.142	-36.040	0.232	-0.128
-742.127	371.913	-0.114	0.236
-741.112	-4.401	0.220	0.155
-740.098	800.000	-0.034	0.137
-739.083	-200.000	-0.003	0.042
-738.069	108.720	-0.180	0.219
-737.054	-76.653	0.237	0.085
-736.039	-100.799	-0.326	0.082
-735.025	800.000	0.046	-0.183
-734.010	-84.392	-0.262	-0.084
-732.996	-200.000	-0.001	0.062
-731.981	-159.171	0.195	0.011
-730.966	-56.033	-0.161	-0.073
-729.952	800.000	-0.019	-0.054
-728.937	-3.162	0.432	-0.307
-727.923	-200.000	0.005	-0.121
-726.908	-200.000	0.015	-0.425
-725.894	263.215	-0.027	-0.048
-724.879	-200.000	0.004	-0.088
-723.864	429.958	-0.111	-0.245
-722.850	-200.000	-0.004	0.019
-721.835	-123.175	-0.204	0.033
-720.821	22.980	-0.434	-0.363
-719.806	-200.000	0.022	-0.290
-718.791	-16.450	0.102	0.066
-717.777	-51.941	-0.222	0.105
-716.762	-115.202	0.237	0.046
-715.748	702.777	-0.025	-0.067
-714.733	-116.852	-0.057	-0.011
-713.718	771.887	0.057	0.157
-712.704	148.971	-0.164	-0.226
-711.689	116.924	-0.155	-0.194
-710.675	618.125	-0.081	-0.207
-709.660	-200.000	0.030	0.154
-708.645	-66.894	0.145	-0.058
-707.631	-61.171	0.219	-0.094
-706.616	-200.000	0.012	-0.274
-705.602	-9.217	0.053	0.036
-704.587	-8.631	-0.036	0.025
-703.572	-144.788	-0.119	-0.011
-702.558	-87.282	0.212	-0.065
-701.543	-200.000	0.011	-0.060
-700.529	130.482	0.096	0.125
-699.514	-154.697	-0.078	0.005
-698.499	56.550	-0.168	-0.166
-697.485	-200.000	0.060	-0.310
-696.470	800.000	-0.071	-0.215
-695.456	35.141	0.089	0.080
-694.441	112.188	-0.156	0.192
-693.426	-200.000	-0.269	-0.001
-692.412	587.305	0.081	-0.203
-691.397	-71.749	-0.352	0.134
-690.383	-37.981	-0.180	0.097
-689.368	-110.013	-0.132	-0.028
-688.354	-170.859	-0.388	-0.014
-687.339	-114.948	0.204	-0.039
-686.324	-200.000	-0.050	-0.278
-685.310	362.449	-0.123	0.251
-684.295	-98.402	0.283	-0.074
-683.281	250.396	-0.133	-0.229
-682.266	-200.000	0.070	-0.334
-681.251	800.000	0.037	0.158
-680.237	800.000	0.016	-0.051
-679.222	3.216	0.289	0.214
-678.208	-148.686	0.140	-0.012
-677.193	547.367	-0.134	0.326
-676.178	-185.134	0.160	0.003
-675.164	333.103	0.180	0.355
-674.149	-97.120	-0.444	-0.118
-673.135	125.339	0.093	-0.119
-672.120	-121.761	-0.332	0.056
-671.105	-171.238	0.188	0.006
-670.091	-138.694	0.456	0.051
-669.076	-35.744	-0.216	-0.119
-668.062	-66.169	0.148	-0.060
-667.047	183.399	0.094	-0.141
-666.032	179.968	0.099	-0.147
-665.018	134.171	0.226	-0.297
-664.003	331.761	0.073	0.143
-662.989	65.096	0.143	0.147
-661.974	349.779	-0.190	0.382
-660.959	-200.000	-0.001	-0.199
-659.945	108.329	-0.135	0.163
-658.930	-25.431	-0.138	0.083
-657.916	440.686	-0.111	-0.246
-656.901	-152.725	-0.139	0.010
-655.886	9.332	-0.118	-0.090
-654.872	129.112	0.059	0.076
-653.857	800.000	0.069	0.230
-652.843	-97.262	0.194	-0.051
-651.828	196.796	-0.187	0.289
-650.814	36.797	-0.165	0.148
-649.799	-200.000	-0.044	-0.343
-648.784	124.729	0.127	-0.162
-647.770	-200.000	-0.046	-0.292
-646.755	-46.368	0.158	-0.079
-645.741	149.220	-0.101	-0.139
-644.726	-200.000	0.008	-0.098
-643.711	303.060	0.198	0.372
-642.697	-200.000	-0.002	0.148
-641.682	-39.334	-0.213	0.113
-640.668	-200.000	0.008	-0.046
-639.653	34.803	0.091	-0.081
-638.638	800.000	-0.057	0.223
-637.624	23.777	-0.327	-0.274
-636.609	-109.473	-0.273	-0.058
-635.595	-76.403	0.401	0.143
-634.580	11.508	-0.293	-0.228
-633.565	-200.000	-0.073	0.365
-632.551	-44.070	0.185	0.094
-631.536	523.121	0.133	0.318
-630.522	472.296	0.069	-0.157
-629.507	800.000	-0.132	-0.403
-628.492	-148.682	0.136	-0.011
-627.478	-83.499	0.162	0.053
-626.463	220.565	-0.045	0.073
-625.449	-13.844	0.283	-0.186
-624.434	-163.599	-0.382	0.018
-623.419	-200.000	-0.020	-0.209
-622.405	375.817	0.043	-0.090
-621.390	-27.632	-0.140	0.082
-620.376	800.000	0.015	0.054
-619.361	800.000	-0.023	0.097
-618.346	-200.000	0.006	-0.132
-617.332	16.455	-0.162	0.130
-616.317	-130.779	0.134	-0.018
-615.303	50.153	-0.153	-0.146
-614.288	69.984	-0.233	-0.243
-613.273	-114.324	-0.230	-0.045
-612.259	-96.923	-0.257	-0.068
-611.244	71.442	-0.086	-0.090
-610.230	3.186	-0.074	-0.055
-609.215	-180.483	0.311	-0.007
-608.201	91.162	0.209	-0.238
-607.186	-122.813	0.251	-0.041
-606.171	26.750	0.145	0.123
-605.157	-93.363	-0.082	-0.023
-604.142	-96.146	-0.222	0.060
-603.128	800.000	-0.073	0.251
-602.113	259.731	0.102	-0.179
-601.098	-122.856	0.132	0.022
-600.084	52.809	-0.157	0.152
-599.069	-200.000	-0.005	-0.137
-598.055	193.434	-0.166	-0.254
-597.040	-117.144	-0.175	-0.032
-596.025	-13.873	-0.103	0.067
-595.011	286.208	-0.163	-0.298
-593.996	800.000	0.006	0.017
-592.982	-135.057	-0.394	-0.048
-591.967	-200.000	-0.004	0.179
-590.952	658.842	-0.090	0.235
-589.938	800.000	0.051	-0.179
-588.923	-200.000	-0.097	-0.511
-587.909	-140.132	-0.202	0.021
-586.894	0.326	0.094	0.068
-585.879	404.761	0.074	0.158
-584.865	-147.760	0.240	0.020
-583.850	-81.949	0.153	0.051
-582.836	-146.645	-0.068	0.006
-581.821	-200.000	0.072	0.361
-580.806	135.986	-0.114	0.151
-579.792	-144.162	0.211	0.020
-578.777	800.000	0.047	-0.186
-577.763	800.000	-0.020	0.080
-576.748	-200.000	-0.031	-0.289
-575.733	501.061	-0.057	-0.134
-574.719	-127.346	0.268	0.040
-573.704	-80.458	-0.165	-0.056
-572.690	-61.636	-0.229	-0.097
-571.675	-165.943	0.215	-0.009
-570.661	-200.000	-0.009	-0.116
-569.646	184.330	0.141	0.211
-568.631	475.855	-0.152	0.348
-567.617	-88.845	0.103	0.031
-566.602	736.915	0.049	-0.134
-565.588	-17.509	0.035	0.022
-564.573	800.000	-0.120	0.423
-563.558	243.833	0.043	0.073
-562.544	-87.686	0.107	-0.033
-561.529	800.000	0.022	-0.073
-560.515	-0.390	-0.291	-0.209
-559.500	5.099	-0.216	0.161
-558.485	79.195	-0.249	-0.270
-557.471	181.895	0.084	0.125
-556.456	-59.138	-0.190	-0.083
-555.442	-83.309	-0.121	0.039
-554.427	524.779	-0.080	-0.190
-553.412	-18.538	-0.268	-0.169
-552.398	55.532	-0.148	0.145
-551.383	-103.509	0.238	-0.057
-550.369	199.586	-0.102	0.158
-549.354	9.222	-0.089	-0.068
-548.339	-57.800	-0.191	-0.084
-547.325	20.182	-0.261	-0.213
-546.310	291.127	0.090	-0.166
-545.296	-13.318	0.126	0.083
-544.281	-117.433	0.282	0.052
-543.266	-200.000	0.007	-0.240
-542.252	502.457	0.097	0.227
-541.237	-200.000	0.038	-0.182
-540.223	606.318	-0.044	-0.111
-539.208	-200.000	0.028	0.140
-538.193	155.849	-0.154	-0.214
-537.179	-27.404	0.294	-0.173
-536.164	800.000	-0.085	-0.279
-535.150	-200.000	-0.043	0.326
-534.135	-34.895	0.092	-0.051
-533.121	800.000	0.059	0.213
-532.106	111.222	-0.159	-0.194
-531.091	800.000	-0.121	-0.430
-530.077	250.089	0.037	0.063
-529.062	10.617	0.212	0.163
-528.048	171.985	-0.136	-0.197
-527.033	143.471	0.028	0.038
-526.018	-200.000	0.059	0.268
-525.004	-200.000	0.033	0.251
-523.989	-200.000	-0.004	-0.048
-522.975	-200.000	0.019	-0.196
-521.960	-175.291	0.294	-0.008
-520.945	-100.464	-0.405	0.101
-519.931	-108.259	-0.112	0.024
-518.916	378.643	-0.089	-0.183
-517.902	-200.000	0.052	-0.382
-516.887	228.435	-0.031	-0.052
-515.872	571.612	0.040	0.099
-514.858	800.000	0.112	-0.456
-513.843	199.822	0.058	0.090
-512.829	-68.144	-0.179	-0.070
-511.814	-96.161	-0.274	0.074
-510.799	-117.069	0.072	-0.013
-509.785	332.033	0.101	0.197
-508.770	122.412	-0.189	0.238
-507.756	-200.000	0.049	0.265
-506.741	-200.000	0.027	-0.257
-505.726	-176.134	-0.128	-0.003
-504.712	-48.567	-0.219	0.106
-503.697	-59.405	-0.189	0.082
-502.683	-170.310	0.068	0.002
-501.668	-200.000	0.047	0.370
-500.653	5.814	-0.072	-0.054
-499.639	800.000	0.039	0.156
-498.624	-89.693	0.464	0.137
-497.610	74.304	-0.121	-0.129
-496.595	-200.000	-0.036	0.205
-495.581	-200.000	0.019	0.088
-494.566	-200.000	-0.066	-0.416
-493.551	-200.000	-0.003	-0.120
-492.537	800.000	-0.050	0.214
-491.522	800.000	0.089	-0.338
-490.508	145.513	0.030	-0.040
-489.493	112.380	-0.109	0.134
-488.478	59.421	-0.076	0.075
-487.464	-200.000	0.015	0.138
-486.449	-82.110	0.211	0.070
-485.435	-82.841	-0.169	0.055
-484.420	138.878	0.103	0.137
-483.405	-200.000	-0.004	0.218
-482.391	-106.264	-0.334	-0.075
-481.376	22.588	0.143	0.118
-480.362	687.184	-0.163	0.429
-479.347	-121.470	0.164	-0.027
-478.332	304.687	-0.107	0.201
-477.318	-105.012	0.213	-0.049
-476.303	-1.530	-0.237	0.169
-475.289	-200.000	0.016	0.264
-474.274	-131.994	-0.118	0.016
-473.259	-5.133	0.206	-0.143
-472.245	-72.615	0.071	-0.026
-471.230	89.813	0.135	-0.152
-470.216	216.554	0.098	0.158
-469.201	-123.267	0.280	0.045
-468.186	-109.944	0.091	-0.019
-467.172	-45.533	0.243	0.121
-466.157	121.057	0.219	-0.275
-465.143	94.595	-0.177	0.203
-464.128	800.000	0.094	-0.269
-463.113	-123.177	-0.188	-0.030
-462.099	264.313	0.153	0.269
-461.084	31.592	0.251	-0.218
-460.070	-19.120	0.160	-0.100
-459.055	263.956	-0.052	-0.091
-458.040	159.292	0.132	-0.184
-457.026	313.999	0.218	0.413
-456.011	-134.164	-0.081	-0.010
-454.997	-200.000	0.016	-0.287
-453.982	-92.405	0.364	-0.103
-452.968	158.115	-0.213	0.298
-451.953	-16.087	-0.333	-0.214
-450.938	-70.892	-0.276	-0.105
-449.924	26.876	0.049	-0.041
-448.909	56.561	-0.191	-0.188
-447.895	348.887	-0.047	-0.093
-446.880	-36.939	-0.186	0.101
-445.865	-114.131	0.180	-0.035
-444.851	501.446	0.086	-0.201
-443.836	37.116	-0.092	0.082
-442.822	-200.000	0.085	-0.604
-441.807	-147.835	-0.336	0.028
-440.792	-200.000	0.016	-0.230
-439.778	124.522	0.156	-0.198
-438.763	-200.000	-0.031	0.384
-437.749	-125.141	0.305	-0.047
-436.734	394.515	-0.081	-0.170
-435.719	-77.136	-0.191	0.067
-434.705	-174.307	0.092	0.003
-433.690	-200.000	-0.005	0.334
-432.676	135.824	0.065	0.086
-431.661	800.000	-0.069	0.269
-430.646	-72.522	0.286	-0.106
-429.632	34.058	0.218	0.191
-428.617	800.000	0.039	0.162
-427.603	-200.000	0.002	-0.094
-426.588	30.994	0.177	0.153
-425.573	554.958	0.046	0.111
-424.559	138.834	-0.108	-0.142
-423.544	-82.246	0.229	0.075
-422.530	-200.000	0.003	0.221
-421.515	-54.499	0.172	0.078
-420.500	769.426	0.017	-0.046
-419.486	563.423	-0.066	0.161
-418.471	-200.000	0.010	-0.135
-417.457	90.441	0.173	-0.195
-416.442	-200.000	-0.017	-0.093
-415.428	-64.456	-0.187	0.077
-414.413	12.841	0.229	0.178
-413.398	225.514	-0.024	-0.040
-412.384	178.455	-0.160	0.235
-411.369	-43.263	0.310	0.158
-410.355	606.480	0.089	-0.224
-409.340	154.669	0.150	0.207
-408.325	-57.102	0.138	0.061
-407.311	-2.905	-0.192	-0.135
-406.296	101.960	-0.046	0.054
-405.282	192.017	0.144	-0.219
-404.267	1.671	0.276	0.200
-403.252	-108.442	0.067	-0.015
-402.238	-200.000	0.027	-0.146
-401.223	-167.098	-0.307	-0.013
-400.209	-200.000	0.043	0.239
-399.194	-7.838	-0.145	-0.098
-398.179	-200.000	0.015	0.119
-397.165	70.241	-0.067	-0.070
-396.150	168.061	-0.074	-0.106
-395.136	-94.670	-0.260	-0.071
-394.121	427.614	-0.052	-0.113
-393.106	538.896	-0.132	0.314
-392.092	-148.204	-0.107	-0.009
-391.077	154.615	-0.155	0.214
-390.063	204.104	-0.176	0.274
-389.048	800.000	-0.122	-0.451
-388.033	-200.000	0.011	-0.124
-387.019	-200.000	-0.017	0.250
-386.004	-200.000	0.064	-0.398
-384.990	444.022	-0.066	-0.145
-383.975	-62.802	-0.234	0.097
-382.960	299.692	-0.105	-0.194
-381.946	-200.000	-0.082	-0.383
-380.931	800.000	0.069	-0.222
-379.917	800.000	-0.019	0.080
-378.902	175.946	-0.109	-0.159
-377.888	27.746	-0.155	-0.131
-376.873	-64.625	0.009	0.004
-375.858	800.000	0.080	-0.343
-374.844	-65.413	-0.242	0.098
-373.829	-51.210	-0.157	0.074
-372.815	-83.788	0.109	-0.035
-371.800	800.000	0.077	-0.266
-370.785	-200.000	-0.017	0.250
-369.771	-200.000	-0.014	-0.254
-368.756	105.434	0.113	-0.134
-367.742	-200.000	-0.016	-0.170
-366.727	18.045	0.060	-0.048
-365.712	-200.000	0.006	-0.190
-364.698	278.824	-0.190	-0.340
-363.683	46.585	0.095	0.088
-362.669	-30.712	0.246	0.140
-361.654	-143.239	-0.202	0.019
-360.639	418.501	0.049	-0.105
-359.625	-92.211	-0.255	0.072
-358.610	-91.484	-0.030	0.009
-357.596	-200.000	-0.011	0.170
-356.581	-0.032	-0.047	-0.033
-355.566	261.019	0.125	0.218
-354.552	118.626	0.089	0.110
-353.537	-74.795	0.360	0.130
-352.523	-33.387	-0.174	-0.097
-351.508	-104.700	-0.203	0.047
-350.493	800.000	0.115	0.412
-349.479	33.522	0.181	-0.158
-348.464	27.497	0.235	0.198
-347.450	222.405	-0.036	-0.058
-346.435	15.728	-0.052	0.041
-345.420	-58.860	-0.081	-0.035
-344.406	800.000	0.077	0.255
-343.391	-99.555	-0.239	0.060
-342.377	-200.000	-0.011	-0.178
-341.362	-8.339	0.180	-0.122
-340.348	-200.000	0.060	0.444
-339.333	800.000	0.055	-0.188
-338.318	304.451	0.041	-0.076
-337.304	-46.028	0.262	-0.130
-336.289	-161.841	0.141	0.007
-335.275	-200.000	-0.015	0.221
-334.260	-69.857	-0.272	-0.104
-333.245	800.000	-0.033	-0.136
-332.231	800.000	0.057	0.205
-331.216	-95.457	-0.102	0.028
-330.202	-109.394	0.235	0.050
-329.187	67.602	0.052	-0.053
-328.172	-200.000	0.003	-0.329
-327.158	-120.051	0.139	0.024
-326.143	127.642	0.164	-0.209
-325.129	800.000	-0.085	-0.263
-324.114	398.418	0.047	-0.099
-323.099	-138.354	0.373	-0.041
-322.085	-200.000	0.007	0.489
-321.070	-56.161	-0.269	-0.120
-320.056	101.365	0.114	0.133
-319.041	-162.823	-0.228	-0.011
-318.026	-168.198	-0.273	0.011
-317.012	127.078	-0.160	-0.203
-315.997	221.144	0.140	0.226
-314.983	-28.690	-0.179	0.103
-313.968	-200.000	-0.063	0.299
-312.953	23.705	-0.112	0.092
-311.939	-75.248	-0.101	0.036
-310.924	229.683	-0.177	-0.289
-309.910	800.000	0.017	-0.060
-308.895	172.366	0.175	-0.253
-307.880	-117.024	0.160	0.029
-306.866	79.352	-0.191	0.205
-305.851	600.166	-0.059	0.148
-304.837	800.000	0.038	-0.114
-303.822	-200.000	0.001	-0.024
-302.807	-82.583	0.219	0.071
-301.793	-83.942	-0.424	0.135
-300.778	-200.000	0.000	0.183
-299.764	163.578	0.098	0.139
-298.749	-81.202	-0.038	-0.012
-297.735	140.122	0.079	0.104
-296.720	-200.000	-0.004	-0.073
-295.705	-200.000	-0.066	-0.347
-294.691	800.000	0.077	-0.220
-293.676	41.280	0.076	0.069
-292.662	800.000	-0.166	0.467
-291.647	-200.000	0.051	0.334
-290.632	-157.083	-0.258	-0.016
-289.618	-200.000	0.043	-0.212
-288.603	-179.240	-0.333	-0.007
-287.589	-66.926	0.015	-0.006
-286.574	64.084	0.199	-0.201
-285.559	-68.932	0.104	-0.040
-284.545	228.284	0.179	-0.292
-283.530	-120.702	0.079	-0.013
-282.516	-200.000	0.018	-0.223
-281.501	19.434	-0.097	-0.078
-280.486	147.753	0.202	0.273
-279.472	-50.735	-0.160	0.076
-278.457	-117.986	0.212	0.038
-277.443	-200.000	0.083	0.640
-276.428	800.000	0.081	0.287
-275.413	49.342	0.264	0.248
-274.399	-93.820	-0.093	0.026
-273.384	-200.000	-0.011	0.159
-272.370	-133.714	-0.153	-0.019
-271.355	-200.000	-0.012	-0.223
-270.340	800.000	0.044	0.147
-269.326	-164.106	0.140	-0.006
-268.311	146.294	0.051	0.069
-267.297	68.986	0.219	-0.225
-266.282	79.827	-0.059	0.063
-265.267	48.412	0.328	-0.308
-264.253	20.479	0.211	0.171
-263.238	-71.593	-0.125	0.047
-262.224	111.470	0.283	0.341
-261.209	-94.061	-0.176	-0.048
-260.195	627.041	-0.119	0.301
-259.180	-63.557	0.285	-0.117
-258.165	-200.000	-0.013	0.228
-257.151	-200.000	-0.035	-0.166
-256.136	682.357	0.117	-0.305
-255.122	176.767	0.122	0.178
-254.107	-134.800	-0.108	-0.013
-253.092	-200.000	-0.055	0.246
-252.078	-200.000	-0.026	-0.262
-251.063	178.869	-0.250	-0.366
-250.049	14.352	0.054	0.042
-249.034	-85.390	-0.133	-0.042
-248.019	-126.645	0.510	0.075
-247.005	49.850	-0.094	-0.089
-245.990	-112.348	-0.286	-0.057
-244.976	167.238	-0.070	0.099
-243.961	-150.082	0.218	-0.017
-242.946	800.000	0.029	0.085
-241.932	-185.965	0.112	0.002
-240.917	15.575	0.199	-0.156
-239.903	27.216	0.109	0.092
-238.888	-51.418	-0.350	-0.163
-237.873	-15.022	-0.268	-0.172
-236.859	198.153	0.159	-0.243
-235.844	-139.242	-0.059	-0.006
-234.830	784.534	0.034	-0.094
-233.815	-112.777	-0.362	-0.072
-232.800	-121.543	-0.316	-0.052
-231.786	-5.663	-0.280	0.192
-230.771	-70.288	0.256	0.097
-229.757	-53.423	0.191	0.087
-228.742	-200.000	-0.023	-0.373
-227.727	48.364	0.252	0.236
-226.713	16.111	0.113	-0.089
-225.698	367.087	0.143	0.289
-224.684	-134.979	-0.377	0.046
-223.669	-130.745	-0.084	-0.011
-222.655	-200.000	0.004	-0.100
-221.640	-2.938	-0.052	-0.037
-220.625	-5.538	0.174	0.119
-219.611	-91.704	0.448	0.127
-218.596	-186.956	0.165	0.002
-217.582	29.540	-0.054	-0.046
-216.567	564.616	0.145	0.350
-215.552	-200.000	0.015	-0.299
-214.538	-180.453	-0.239	0.005
-213.523	-200.000	0.010	0.148
-212.509	87.728	0.102	-0.113
-211.494	-24.816	0.336	0.199
-210.479	39.374	-0.299	0.268
-209.465	800.000	0.135	0.435
-208.450	-65.161	-0.079	0.032
-207.436	-102.504	-0.468	0.112
-206.421	-103.418	-0.118	-0.028
-205.406	-69.017	-0.461	-0.177
-204.392	-188.163	0.148	-0.002
-203.377	-54.764	0.070	0.031
-202.363	379.662	0.097	0.197
-201.348	-97.869	0.294	-0.076
-200.333	75.483	-0.037	-0.039
-199.319	-63.530	0.239	-0.098
-198.304	-194.569	-0.138	0.001
-197.290	187.281	0.124	-0.184
-196.275	248.737	0.107	-0.180
-195.260	565.358	0.156	0.376
-194.246	-81.069	0.134	-0.044
-193.231	-111.516	-0.133	0.027
-192.217	-177.721	-0.103	-0.002
-191.202	234.625	-0.116	-0.190
-190.187	173.575	0.063	0.090
-189.173	76.620	0.144	0.152
-188.158	-200.000	-0.007	-0.111
-187.144	-114.028	-0.158	0.031
-186.129	-200.000	-0.063	-0.316
-185.114	800.000	0.051	-0.190
-184.100	-128.764	-0.217	-0.031
-183.085	200.215	0.140	0.214
-182.071	-25.385	0.165	-0.098
-181.056	49.127	0.079	-0.074
-180.042	-104.114	0.295	0.068
-179.027	184.317	-0.169	0.249
-178.012	-23.474	-0.240	-0.144
-176.998	22.211	0.123	0.100
-175.983	-173.660	-0.327	-0.010
-174.969	96.716	-0.084	-0.096
-173.954	-136.287	0.277	-0.032
-172.939	-74.601	0.403	0.145
-171.925	-117.298	0.296	-0.054
-170.910	800.000	-0.048	0.201
-169.896	-117.758	-0.069	0.012
-168.881	14.970	0.116	0.091
-167.866	-200.000	0.034	0.392
-166.852	-58.840	0.118	0.051
-165.837	-53.752	0.191	-0.087
-164.823	178.924	0.131	-0.190
-163.808	-200.000	0.016	0.075
-162.793	-200.000	-0.202	0.000
-161.779	-34.741	-0.144	0.079
-160.764	-200.000	-0.048	0.243
-159.750	-29.855	-0.235	-0.133
-158.735	58.053	-0.319	0.312
-157.720	-200.000	-0.107	0.511
-156.706	-101.628	0.280	-0.068
-155.691	390.683	0.172	-0.356
-154.677	-28.739	0.051	-0.029
-153.662	-200.000	0.035	-0.291
-152.647	561.392	-0.125	0.300
-151.633	-200.000	-0.021	-0.270
-150.618	800.000	-0.067	-0.211
-149.604	-44.827	0.328	-0.163
-148.589	-104.882	-0.480	-0.110
-147.574	-32.555	-0.109	0.061
-146.560	127.762	-0.266	-0.337
-145.545	-40.730	-0.160	-0.083
-144.531	-200.000	0.012	-0.106
-143.516	429.363	-0.069	-0.149
-142.502	-200.000	-0.033	-0.152
-141.487	-67.709	0.047	-0.018
-140.472	336.474	-0.179	-0.346
-139.458	-81.356	-0.088	-0.029
-138.443	800.000	-0.060	0.254
-137.429	57.328	-0.118	-0.115
-136.414	-30.494	-0.021	-0.012
-135.399	-36.311	-0.085	-0.046
-134.385	150.279	0.056	0.076
-133.370	0.533	0.125	0.089
-132.356	171.653	0.029	-0.041
-131.341	20.294	-0.214	-0.172
-130.326	-10.971	-0.083	-0.055
-129.312	64.070	-0.072	-0.072
-128.297	371.390	0.146	0.295
-127.283	186.157	0.131	0.194
-126.268	-200.000	-0.003	0.021
-125.253	119.784	-0.082	0.101
-124.239	-145.648	0.493	-0.044
-123.224	41.327	0.012	0.011
