DTS Sentinel unit serial number:	SN413079Multiplexer serial number:	ORYXHardware model number:	OX4-SRSoftware version number:	ORYX F/W v4.00 Oryx Data Collector v3.7.2.0data status	okinstallation	princeton_trtdifferential loss correction	single-endedforward channel	channel 1reverse channel	N/Adate	2019/09/11time	13:24:11forward acquisition time	60.00reverse acquisition time	0.00gamma	496.2192k internal	0.2294k external	0.2294temperature offset calibration	0.9984default loss term (dB/km)	0.3790temperature slope calibration	1.0000multiplexer offset coefficient	1.0000multiplexer slope coefficient	1.0000fibre end	0.00T internal ref (°C)	41.94T ext. ref 1 (°C)	0.81T ext. ref 2 (°C)	36.66length (m)	temperature (°C)	Stokes	anti-Stokes-747.200	-156.194	0.257	-0.017
-746.185	800.000	0.054	0.234
-745.171	800.000	0.068	-0.276
-744.156	-59.730	0.200	0.088
-743.142	-165.164	0.166	-0.007
-742.127	-173.677	0.129	0.004
-741.112	-148.501	0.420	-0.035
-740.098	-45.526	0.047	-0.024
-739.083	-200.000	-0.012	-0.239
-738.069	-200.000	-0.022	0.223
-737.054	345.983	0.081	0.163
-736.039	-51.578	0.065	-0.031
-735.025	800.000	-0.050	0.195
-734.010	112.010	-0.165	0.203
-732.996	181.703	-0.099	-0.148
-731.981	-200.000	0.032	-0.319
-730.966	-38.434	0.168	-0.091
-729.952	-43.182	-0.059	0.031
-728.937	23.573	-0.336	-0.283
-727.923	-200.000	0.005	0.356
-726.908	-200.000	-0.032	0.183
-725.894	638.079	-0.071	-0.183
-724.879	41.191	-0.074	-0.068
-723.864	502.251	0.171	0.404
-722.850	521.041	-0.110	0.263
-721.835	-127.036	-0.298	-0.045
-720.821	441.178	-0.070	-0.156
-719.806	343.922	0.070	-0.141
-718.791	800.000	0.122	0.406
-717.777	-17.948	-0.176	0.113
-716.762	-200.000	-0.006	-0.101
-715.748	-183.782	-0.116	-0.002
-714.733	-200.000	0.037	0.177
-713.718	381.217	0.087	-0.182
-712.704	12.538	0.169	0.133
-711.689	488.835	0.065	0.151
-710.675	-200.000	-0.008	0.051
-709.660	96.956	0.159	0.186
-708.645	226.767	-0.102	0.170
-707.631	179.850	0.064	0.096
-706.616	-200.000	0.026	-0.176
-705.602	-30.460	0.086	0.050
-704.587	-162.576	-0.093	0.005
-703.572	88.056	0.082	0.093
-702.558	-78.596	0.160	-0.056
-701.543	800.000	-0.058	0.260
-700.529	-200.000	0.008	-0.211
-699.514	-5.380	0.322	-0.225
-698.499	-5.389	-0.165	-0.116
-697.485	-66.528	0.120	-0.049
-696.470	-200.000	-0.059	0.408
-695.456	28.949	0.219	0.189
-694.441	554.933	0.034	-0.083
-693.426	-76.134	0.470	-0.169
-692.412	-200.000	-0.016	0.151
-691.397	-105.217	-0.292	-0.068
-690.383	-17.021	-0.159	-0.103
-689.368	-109.736	-0.283	0.061
-688.354	515.462	-0.081	-0.192
-687.339	263.146	0.126	0.223
-686.324	183.157	-0.194	0.292
-685.310	-200.000	0.055	-0.349
-684.295	-49.820	-0.098	0.047
-683.281	-33.506	-0.125	0.070
-682.266	-52.356	0.307	0.145
-681.251	-200.000	-0.007	-0.054
-680.237	682.867	0.053	-0.140
-679.222	800.000	0.079	-0.294
-678.208	149.178	-0.092	-0.127
-677.193	-60.705	0.272	0.118
-676.178	-105.984	-0.312	0.072
-675.164	-200.000	-0.053	0.292
-674.149	-183.604	-0.292	-0.005
-673.135	413.880	-0.077	-0.166
-672.120	446.033	0.077	-0.173
-671.105	151.681	0.110	0.152
-670.091	69.103	-0.222	-0.233
-669.076	-128.796	-0.340	-0.049
-668.062	1.303	0.153	-0.112
-667.047	52.416	-0.211	-0.205
-666.032	12.109	-0.076	-0.060
-665.018	231.428	-0.173	-0.289
-664.003	513.213	-0.059	-0.141
-662.989	-168.941	-0.048	0.002
-661.974	-66.047	-0.055	-0.022
-660.959	-128.723	-0.133	-0.019
-659.945	-32.773	-0.248	0.140
-658.930	-200.000	0.029	-0.158
-657.916	-161.380	0.275	0.014
-656.901	299.369	-0.085	0.159
-655.886	-200.000	-0.006	0.220
-654.872	70.946	-0.105	0.111
-653.857	-5.887	-0.219	-0.153
-652.843	-163.571	-0.282	0.014
-651.828	-91.944	-0.307	-0.089
-650.814	-29.826	-0.066	0.038
-649.799	-200.000	-0.012	-0.093
-648.784	2.717	0.167	0.123
-647.770	-75.842	-0.242	0.087
-646.755	480.396	-0.100	0.231
-645.741	405.594	0.156	-0.336
-644.726	-148.878	0.225	-0.018
-643.711	229.988	0.059	0.099
-642.697	55.441	0.142	0.140
-641.682	33.410	-0.205	-0.182
-640.668	800.000	0.031	0.115
-639.653	274.790	0.101	-0.183
-638.638	124.684	-0.195	0.250
-637.624	-45.710	0.179	0.090
-636.609	402.455	0.102	-0.218
-635.595	800.000	-0.038	-0.130
-634.580	-105.965	-0.344	-0.079
-633.565	743.227	-0.072	-0.197
-632.551	-200.000	-0.038	-0.246
-631.536	-119.117	-0.109	0.019
-630.522	800.000	-0.031	-0.136
-629.507	98.761	-0.213	0.251
-628.492	98.235	0.121	0.142
-627.478	69.409	-0.109	-0.114
-626.463	-90.999	-0.384	-0.112
-625.449	-41.882	0.138	0.072
-624.434	-23.429	0.222	0.136
-623.419	260.691	0.111	0.195
-622.405	-118.175	-0.644	0.117
-621.390	-138.576	0.299	-0.033
-620.376	-200.000	0.029	-0.162
-619.361	137.643	0.043	0.057
-618.346	-106.578	0.232	-0.053
-617.332	-31.925	0.501	-0.285
-616.317	228.557	0.050	-0.083
-615.303	640.929	0.070	0.181
-614.288	-200.000	-0.037	0.322
-613.273	55.881	-0.253	0.250
-612.259	800.000	-0.080	0.257
-611.244	-129.526	0.208	-0.029
-610.230	-33.015	0.068	-0.038
-609.215	66.711	0.195	0.202
-608.201	-174.054	-0.242	-0.007
-607.186	110.737	-0.102	0.125
-606.171	-114.357	-0.182	0.036
-605.157	-200.000	-0.028	0.145
-604.142	-200.000	0.035	0.296
-603.128	-18.142	0.138	-0.088
-602.113	169.458	-0.085	-0.123
-601.098	-200.000	0.043	0.326
-600.084	374.683	0.088	0.183
-599.069	16.974	0.157	-0.126
-598.055	-70.298	0.150	-0.058
-597.040	-20.660	0.202	0.126
-596.025	-71.262	0.341	0.130
-595.011	-178.971	-0.223	-0.005
-593.996	-200.000	-0.043	-0.224
-592.982	-200.000	-0.014	-0.254
-591.967	-114.081	-0.107	0.021
-590.952	80.287	-0.101	-0.111
-589.938	-71.894	-0.175	0.066
-588.923	-200.000	0.054	0.268
-587.909	-125.094	0.139	-0.022
-586.894	-200.000	0.009	-0.238
-585.879	-87.622	0.078	-0.024
-584.865	-142.048	-0.196	0.020
-583.850	-90.444	-0.249	0.073
-582.836	-200.000	-0.034	-0.191
-581.821	-117.903	-0.009	-0.002
-580.806	2.016	0.249	0.182
-579.792	10.809	0.196	0.152
-578.777	-107.106	0.270	0.061
-577.763	-164.848	0.168	0.008
-576.748	154.398	0.201	-0.281
-575.733	-200.000	0.022	0.338
-574.719	134.661	-0.197	0.260
-573.704	-200.000	0.002	0.279
-572.690	800.000	-0.038	0.163
-571.675	224.757	0.103	-0.169
-570.661	-63.335	0.147	-0.061
-569.646	-28.308	0.194	0.114
-568.631	-144.497	0.094	-0.009
-567.617	-200.000	0.020	0.435
-566.602	-200.000	-0.028	-0.126
-565.588	118.182	-0.309	-0.386
-564.573	106.733	-0.131	-0.158
-563.558	800.000	-0.091	0.363
-562.544	-97.488	0.199	0.052
-561.529	611.599	-0.023	0.059
-560.515	54.586	0.085	-0.083
-559.500	26.218	0.077	-0.065
-558.485	800.000	0.085	0.346
-557.471	800.000	0.121	-0.425
-556.456	148.957	-0.086	-0.119
-555.442	-105.897	-0.109	0.025
-554.427	-200.000	-0.006	0.212
-553.412	-15.987	0.191	0.124
-552.398	313.071	0.120	-0.229
-551.383	181.808	0.014	-0.020
-550.369	134.312	-0.115	0.151
-549.354	-35.149	-0.128	-0.071
-548.339	-35.660	-0.220	0.121
-547.325	-200.000	0.019	0.085
-546.310	-4.020	-0.412	-0.289
-545.296	573.196	0.099	0.246
-544.281	-108.490	-0.164	-0.036
-543.266	174.857	-0.127	0.187
-542.252	175.635	-0.042	-0.062
-541.237	417.050	-0.063	-0.137
-540.223	800.000	-0.040	0.112
-539.208	-119.808	0.230	-0.040
-538.193	-75.129	-0.356	0.129
-537.179	351.111	-0.158	-0.317
-536.164	-140.562	-0.310	-0.033
-535.150	-108.853	-0.106	0.023
-534.135	-200.000	0.004	-0.148
-533.121	-200.000	0.093	-0.419
-532.106	-200.000	0.014	0.375
-531.091	-200.000	-0.001	-0.058
-530.077	-49.204	0.123	0.060
-529.062	-48.433	-0.069	-0.033
-528.048	-126.844	-0.038	-0.006
-527.033	25.523	0.052	0.044
-526.018	-60.351	0.102	0.044
-525.004	-200.000	0.046	-0.299
-523.989	-32.557	-0.216	0.122
-522.975	151.828	0.191	0.263
-521.960	-200.000	-0.029	-0.245
-520.945	62.005	0.191	-0.193
-519.931	211.651	0.160	0.256
-518.916	-118.607	0.286	-0.051
-517.902	-71.668	0.078	-0.029
-516.887	42.828	-0.147	0.135
-515.872	-103.233	-0.422	0.101
-514.858	154.809	-0.132	0.184
-513.843	223.663	0.080	0.131
-512.829	622.620	-0.078	0.199
-511.814	-60.060	0.196	0.085
-510.799	109.407	-0.029	-0.035
-509.785	-13.786	0.265	-0.174
-508.770	-166.157	-0.261	0.011
-507.756	800.000	-0.043	0.130
-506.741	599.373	0.123	0.308
-505.726	-200.000	0.013	0.174
-504.712	-1.953	0.095	0.067
-503.697	-134.929	-0.300	-0.037
-502.683	83.043	-0.073	0.081
-501.668	-200.000	-0.015	0.153
-500.653	800.000	0.116	0.344
-499.639	800.000	0.073	-0.275
-498.624	800.000	0.012	-0.035
-497.610	-53.155	0.308	0.143
-496.595	-200.000	-0.013	-0.056
-495.581	71.402	0.180	0.189
-494.566	-200.000	0.048	-0.441
-493.551	-200.000	0.026	-0.243
-492.537	18.553	-0.062	-0.050
-491.522	37.512	-0.122	0.110
-490.508	-120.243	0.045	-0.008
-489.493	192.628	0.013	0.021
-488.478	-127.371	0.091	-0.013
-487.464	-49.866	-0.201	0.096
-486.449	-119.420	0.038	-0.007
-485.435	-200.000	0.015	-0.228
-484.420	-33.348	0.171	-0.096
-483.405	-142.620	-0.119	-0.012
-482.391	275.926	-0.079	-0.142
-481.376	412.107	-0.185	0.398
-480.362	541.769	-0.124	-0.299
-479.347	595.252	0.069	-0.174
-478.332	-33.317	0.068	-0.038
-477.318	-140.480	0.128	0.013
-476.303	-130.828	0.172	-0.023
-475.289	-39.264	0.224	-0.119
-474.274	-158.354	-0.347	-0.020
-473.259	274.743	0.092	-0.165
-472.245	-45.310	-0.170	0.085
-471.230	672.830	-0.162	0.426
-470.216	94.674	-0.080	0.092
-469.201	75.086	0.065	-0.069
-468.186	800.000	0.031	0.112
-467.172	-132.290	-0.081	-0.011
-466.157	410.987	0.057	0.123
-465.143	260.678	-0.168	0.295
-464.128	111.429	-0.163	0.199
-463.113	-54.912	-0.063	-0.029
-462.099	-149.692	-0.284	0.023
-461.084	447.762	0.103	0.228
-460.070	31.254	-0.168	0.146
-459.055	-93.773	-0.203	-0.056
-458.040	127.045	-0.197	0.253
-457.026	138.096	-0.212	0.281
-456.011	-135.726	-0.061	0.007
-454.997	800.000	-0.064	0.235
-453.982	206.048	0.082	0.129
-452.968	13.204	-0.170	-0.133
-451.953	42.444	-0.145	0.133
-450.938	-200.000	-0.028	-0.229
-449.924	-200.000	-0.007	0.053
-448.909	-153.315	-0.326	-0.023
-447.895	254.277	0.227	0.392
-446.880	605.689	-0.054	0.135
-445.865	177.585	-0.033	0.048
-444.851	63.635	0.120	0.122
-443.836	-100.865	-0.129	0.032
-442.822	768.911	0.029	0.081
-441.807	98.885	0.087	-0.101
-440.792	-133.048	-0.187	-0.024
-439.778	-200.000	-0.006	0.052
-438.763	723.217	-0.148	0.397
-437.749	-76.871	0.142	0.050
-436.734	-28.248	-0.288	-0.168
-435.719	86.497	-0.084	-0.094
-434.705	-200.000	0.008	-0.041
-433.690	-2.790	-0.255	0.180
-432.676	343.105	0.129	-0.256
-431.661	-116.704	0.151	-0.028
-430.646	142.719	0.051	0.069
-429.632	800.000	-0.067	-0.206
-428.617	-118.432	-0.260	-0.047
-427.603	28.477	-0.182	-0.156
-426.588	-9.980	0.084	-0.056
-425.573	-149.890	0.087	0.007
-424.559	-61.790	-0.210	-0.089
-423.544	-200.000	0.007	-0.124
-422.530	-200.000	0.005	-0.172
-421.515	180.784	0.062	0.092
-420.500	800.000	0.039	0.143
-419.486	-128.874	-0.274	0.039
-418.471	88.006	-0.155	-0.174
-417.457	-200.000	0.023	-0.135
-416.442	-26.081	0.080	0.048
-415.428	64.118	0.164	0.167
-414.413	228.853	-0.205	0.337
-413.398	-122.314	0.196	-0.032
-412.384	-167.372	0.156	0.006
-411.369	512.510	0.097	0.228
-410.355	-200.000	-0.005	-0.050
-409.340	93.209	-0.212	0.242
-408.325	51.674	-0.228	0.219
-407.311	-200.000	0.004	-0.319
-406.296	-87.706	0.225	-0.068
-405.282	81.098	-0.174	-0.189
-404.267	55.798	-0.013	-0.013
-403.252	158.230	0.210	-0.294
-402.238	41.635	0.171	-0.156
-401.223	-200.000	-0.013	-0.113
-400.209	-79.123	-0.112	-0.039
-399.194	-200.000	0.000	0.135
-398.179	-90.196	0.330	0.097
-397.165	118.750	0.249	0.311
-396.150	-63.306	-0.279	-0.116
-395.136	-37.300	0.141	-0.076
-394.121	-125.456	0.135	0.021
-393.106	-96.775	-0.167	-0.044
-392.092	12.988	0.186	-0.145
-391.077	27.536	-0.038	0.032
-390.063	136.639	0.076	-0.101
-389.048	121.048	-0.176	0.220
-388.033	354.474	-0.099	-0.198
-387.019	760.627	0.099	-0.270
-386.004	-200.000	0.002	-0.145
-384.990	137.903	0.055	-0.073
-383.975	-83.449	0.187	-0.061
-382.960	-200.000	-0.006	-0.245
-381.946	-114.381	-0.297	-0.058
-380.931	-47.228	-0.091	-0.045
-379.917	-1.665	-0.141	-0.100
-378.902	-135.565	0.180	-0.022
-377.888	-43.338	0.185	-0.095
-376.873	-172.062	0.071	-0.002
-375.858	-200.000	0.049	-0.228
-374.844	769.715	0.044	0.121
-373.829	69.972	-0.120	0.125
-372.815	800.000	-0.092	-0.301
-371.800	-200.000	0.008	-0.129
-370.785	-146.611	0.162	0.014
-369.771	142.799	-0.134	0.179
-368.756	80.402	-0.134	-0.145
-367.742	80.476	0.113	0.123
-366.727	181.093	0.082	0.122
-365.712	161.875	0.107	0.150
-364.698	-90.434	0.275	0.080
-363.683	-200.000	0.002	-0.187
-362.669	-150.338	0.075	0.006
-361.654	-200.000	0.006	0.098
-360.639	-85.642	-0.227	0.071
-359.625	-76.679	-0.271	0.096
-358.610	-121.939	-0.150	0.025
-357.596	322.801	0.150	0.289
-356.581	-88.623	-0.196	0.059
-355.566	352.130	0.125	0.249
-354.552	-167.850	0.268	-0.011
-353.537	-200.000	-0.030	0.206
-352.523	799.348	0.089	0.247
-351.508	800.000	-0.077	-0.225
-350.493	800.000	0.070	-0.260
-349.479	25.266	-0.095	0.080
-348.464	-103.452	-0.224	-0.053
-347.450	-200.000	-0.026	-0.258
-346.435	-98.086	-0.247	0.064
-345.420	-200.000	-0.019	-0.104
-344.406	12.424	-0.198	0.154
-343.391	54.432	-0.166	-0.161
-342.377	-200.000	0.014	0.119
-341.362	-153.048	0.232	0.016
-340.348	12.783	-0.062	0.048
-339.333	-91.444	-0.152	0.044
-338.318	-56.178	-0.044	-0.020
-337.304	463.551	0.035	0.078
-336.289	-109.282	0.207	-0.044
-335.275	-36.317	-0.306	-0.166
-334.260	-132.305	-0.136	-0.018
-333.245	-20.923	0.181	0.112
-332.231	-200.000	-0.025	-0.368
-331.216	167.867	-0.064	-0.091
-330.202	-2.337	0.263	0.185
-329.187	157.311	0.126	-0.175
-328.172	800.000	0.030	-0.111
-327.158	-157.903	-0.213	-0.013
-326.143	160.973	-0.107	0.151
-325.129	800.000	-0.035	-0.144
-324.114	-56.984	0.235	-0.104
-323.099	-10.231	0.119	-0.080
-322.085	140.546	0.094	0.125
-321.070	800.000	0.090	-0.265
-320.056	-200.000	-0.016	-0.133
-319.041	245.325	0.134	-0.228
-318.026	259.022	-0.107	-0.186
-317.012	-200.000	0.017	-0.178
-315.997	-35.747	0.380	0.207
-314.983	67.651	-0.033	-0.034
-313.968	-28.100	-0.064	0.037
-312.953	-119.059	0.281	0.049
-311.939	215.925	-0.174	-0.279
-310.924	104.515	0.134	-0.159
-309.910	-200.000	-0.018	-0.081
-308.895	-200.000	0.014	-0.089
-307.880	310.368	-0.045	0.084
-306.866	95.033	0.048	-0.055
-305.851	-200.000	-0.058	-0.267
-304.837	-6.802	0.389	0.266
-303.822	-170.001	0.052	-0.002
-302.807	137.391	0.145	-0.191
-301.793	520.683	-0.025	0.058
-300.778	41.525	0.232	-0.211
-299.764	219.176	0.151	-0.243
-298.749	7.806	-0.141	0.106
-297.735	800.000	-0.020	0.060
-296.720	380.298	-0.066	0.136
-295.705	-61.904	0.092	0.039
-294.691	145.829	0.216	0.291
-293.676	800.000	0.079	0.302
-292.662	375.004	-0.090	0.185
-291.647	1.131	0.012	0.009
-290.632	-7.578	0.160	-0.109
-289.618	325.071	0.089	0.171
-288.603	23.871	0.298	-0.247
-287.589	-73.235	0.146	0.054
-286.574	585.154	-0.057	-0.141
-285.559	-200.000	-0.038	-0.479
-284.545	-110.644	0.166	0.035
-283.530	268.805	0.279	-0.492
-282.516	51.974	-0.088	-0.084
-281.501	-66.224	0.232	-0.093
-280.486	143.318	0.153	-0.205
-279.472	83.057	0.177	-0.194
-278.457	278.561	0.035	-0.063
-277.443	-200.000	0.033	-0.333
-276.428	-145.809	0.209	-0.019
-275.413	191.539	-0.129	0.194
-274.399	-114.795	-0.053	-0.010
-273.384	800.000	0.019	-0.059
-272.370	-81.217	-0.077	0.026
-271.355	285.465	-0.189	-0.343
-270.340	-2.632	-0.192	-0.135
-269.326	262.814	-0.091	-0.158
-268.311	50.574	0.168	0.160
-267.297	-28.164	-0.058	-0.034
-266.282	-103.854	-0.321	0.075
-265.267	83.696	-0.219	0.240
-264.253	-114.172	0.201	-0.039
-263.238	78.285	-0.161	0.173
-262.224	124.615	-0.165	0.208
-261.209	-32.694	-0.181	0.101
-260.195	-200.000	-0.002	0.194
-259.180	-193.681	0.443	0.004
-258.165	231.411	-0.030	-0.049
-257.151	-200.000	-0.024	0.221
-256.136	55.020	-0.172	0.167
-255.122	414.960	0.112	-0.239
-254.107	304.116	0.080	-0.148
-253.092	-94.070	0.215	0.059
-252.078	216.653	0.102	0.162
-251.063	52.620	-0.069	-0.066
-250.049	76.536	0.180	-0.192
-249.034	800.000	0.059	-0.221
-248.019	-108.367	-0.319	0.069
-247.005	800.000	0.070	0.209
-245.990	-68.439	0.191	-0.074
-244.976	-154.079	0.178	-0.012
-243.961	800.000	-0.025	-0.105
-242.946	-17.569	-0.144	-0.091
-241.932	63.238	-0.152	-0.153
-240.917	297.827	0.129	-0.239
-239.903	-200.000	0.036	0.376
-238.888	800.000	0.153	-0.434
-237.873	-200.000	-0.010	-0.170
-236.859	194.310	-0.066	-0.100
-235.844	-200.000	-0.026	-0.148
-234.830	359.364	0.149	0.299
-233.815	160.104	-0.127	0.178
-232.800	-26.568	-0.007	-0.004
-231.786	-99.479	0.143	0.036
-230.771	-51.387	-0.236	-0.111
-229.757	-200.000	-0.007	0.371
-228.742	375.914	-0.096	0.196
-227.727	-200.000	-0.022	-0.186
-226.713	-76.679	-0.147	0.052
-225.698	-51.908	-0.174	-0.081
-224.684	252.727	-0.226	0.386
-223.669	-110.657	-0.147	0.030
-222.655	800.000	-0.079	-0.299
-221.640	-134.198	0.069	-0.009
-220.625	-71.218	0.311	-0.117
-219.611	373.086	0.106	-0.216
-218.596	25.843	-0.032	0.027
-217.582	-69.585	-0.205	-0.079
-216.567	-200.000	0.061	-0.345
-215.552	-119.649	0.223	0.039
-214.538	-156.118	0.048	-0.003
-213.523	413.343	-0.034	-0.072
-212.509	-200.000	-0.014	-0.089
-211.494	-200.000	-0.025	-0.255
-210.479	-200.000	-0.034	-0.212
-209.465	800.000	0.029	-0.106
-208.450	-139.010	-0.168	-0.018
-207.436	-22.120	0.325	0.197
-206.421	-129.004	0.211	-0.030
-205.406	422.016	-0.079	-0.169
-204.392	-24.476	-0.297	-0.177
-203.377	111.486	-0.013	0.016
-202.363	453.841	0.033	0.073
-201.348	146.413	0.210	-0.282
-200.333	-22.966	-0.193	-0.116
-199.319	-200.000	0.045	0.331
-198.304	800.000	0.038	0.134
-197.290	12.988	0.182	-0.141
-196.275	-39.825	0.068	-0.036
-195.260	6.498	-0.206	-0.153
-194.246	-64.111	-0.211	0.086
-193.231	-172.297	-0.156	0.005
-192.217	-35.941	0.210	0.114
-191.202	-22.422	0.199	0.121
-190.187	-57.281	0.059	0.026
-189.173	-190.877	-0.162	-0.002
-188.158	718.470	0.052	0.139
-187.144	-144.721	0.172	0.016
-186.129	-200.000	-0.039	-0.268
-185.114	-200.000	-0.015	0.264
-184.100	6.809	-0.171	0.128
-183.085	-14.907	0.041	-0.026
-182.071	-200.000	0.015	0.198
-181.056	-89.942	0.065	0.019
-180.042	58.502	0.280	0.275
-179.027	-152.442	-0.061	-0.004
-178.012	79.037	-0.275	-0.295
-176.998	-77.623	-0.115	0.040
-175.983	-111.834	-0.086	0.017
-174.969	-168.808	-0.215	-0.008
-173.954	-38.556	0.285	-0.150
-172.939	-59.347	0.204	-0.088
-171.925	109.655	-0.077	-0.092
-170.910	-83.194	0.159	-0.051
-169.896	-80.462	-0.095	0.032
-168.881	-200.000	-0.001	0.249
-167.866	-68.967	-0.128	-0.049
-166.852	-71.376	-0.049	-0.018
-165.837	-200.000	0.001	-0.104
-164.823	71.569	-0.214	0.222
-163.808	-30.989	-0.224	-0.126
-162.793	0.587	-0.187	-0.134
-161.779	-175.250	0.278	-0.008
-160.764	-200.000	-0.008	0.098
-159.750	800.000	0.045	0.169
-158.735	-200.000	-0.065	-0.338
-157.720	800.000	-0.055	0.156
-156.706	92.236	0.212	0.239
-155.691	163.162	0.125	-0.175
-154.677	-114.814	0.067	-0.013
-153.662	-200.000	-0.007	0.269
-152.647	335.358	-0.060	-0.115
-151.633	800.000	0.080	0.277
-150.618	-200.000	-0.026	0.332
-149.604	-200.000	-0.026	0.135
-148.589	1.081	-0.169	-0.121
-147.574	334.429	-0.154	-0.298
-146.560	-74.172	0.195	0.070
-145.545	241.258	-0.139	-0.232
-144.531	-39.277	-0.056	-0.030
-143.516	98.125	0.205	0.236
-142.502	-100.453	0.298	-0.074
-141.487	-161.484	-0.255	0.013
-140.472	800.000	-0.027	-0.078
-139.458	125.961	-0.080	0.101
-138.443	-38.759	0.137	0.072
-137.429	148.339	-0.146	0.197
-136.414	800.000	0.157	0.506
-135.399	290.658	-0.064	-0.117
-134.385	48.715	0.254	0.238
-133.370	3.921	-0.179	0.131
-132.356	106.841	-0.084	-0.100
-131.341	407.978	-0.072	-0.151
-130.326	-139.950	-0.319	0.034
-129.312	388.408	0.048	0.099
-128.297	-125.189	0.332	-0.051
-127.283	154.114	-0.217	-0.297
-126.268	180.801	-0.148	0.217
-125.253	-89.582	-0.459	0.135
-124.239	330.816	0.075	0.144
-123.224	-200.000	0.016	-0.237
