DTS Sentinel unit serial number:	SN413079Multiplexer serial number:	ORYXHardware model number:	OX4-SRSoftware version number:	ORYX F/W v4.00 Oryx Data Collector v3.7.2.0data status	okinstallation	princeton_trtdifferential loss correction	single-endedforward channel	channel 1reverse channel	N/Adate	2019/09/11time	05:16:11forward acquisition time	60.00reverse acquisition time	0.00gamma	496.2192k internal	0.2331k external	0.2331temperature offset calibration	0.9927default loss term (dB/km)	0.3790temperature slope calibration	1.0000multiplexer offset coefficient	1.0000multiplexer slope coefficient	1.0000fibre end	0.00T internal ref (°C)	29.44T ext. ref 1 (°C)	-0.25T ext. ref 2 (°C)	23.35length (m)	temperature (°C)	Stokes	anti-Stokes-747.200	-23.146	0.210	0.127
-746.185	-46.301	-0.189	0.093
-745.171	-77.349	0.239	0.083
-744.156	87.509	-0.132	0.147
-743.142	184.574	-0.231	-0.345
-742.127	262.739	-0.169	0.295
-741.112	6.473	0.212	0.159
-740.098	-71.468	0.165	-0.062
-739.083	-200.000	0.032	-0.182
-738.069	92.811	-0.285	0.323
-737.054	-12.048	0.063	-0.041
-736.039	-186.752	-0.261	0.004
-735.025	168.784	0.228	0.327
-734.010	-30.607	-0.125	-0.071
-732.996	-106.837	0.195	0.044
-731.981	59.128	0.074	-0.073
-730.966	800.000	-0.074	-0.224
-729.952	31.089	-0.211	-0.182
-728.937	4.566	-0.221	-0.163
-727.923	120.366	-0.059	-0.074
-726.908	-123.620	0.251	0.040
-725.894	183.862	-0.164	0.244
-724.879	82.504	-0.269	0.294
-723.864	-200.000	0.030	0.138
-722.850	-121.682	-0.084	-0.014
-721.835	78.571	0.048	-0.051
-720.821	-200.000	-0.007	-0.240
-719.806	24.661	-0.249	-0.207
-718.791	-14.061	0.173	0.112
-717.777	154.639	0.227	-0.314
-716.762	800.000	-0.030	-0.090
-715.748	-200.000	0.057	-0.282
-714.733	126.962	0.112	-0.143
-713.718	800.000	0.066	-0.287
-712.704	-103.945	-0.059	-0.014
-711.689	-200.000	-0.032	-0.267
-710.675	-28.663	-0.034	-0.020
-709.660	508.855	-0.150	0.351
-708.645	252.988	-0.098	-0.168
-707.631	-27.000	-0.051	0.030
-706.616	-147.595	-0.200	-0.017
-705.602	98.248	-0.266	0.308
-704.587	-69.215	0.244	-0.094
-703.572	-116.143	-0.124	0.023
-702.558	145.436	0.094	-0.127
-701.543	-200.000	0.020	-0.095
-700.529	-140.103	-0.274	0.029
-699.514	289.004	0.185	-0.337
-698.499	-94.702	-0.329	-0.090
-697.485	-121.649	-0.102	-0.017
-696.470	-23.238	0.397	-0.240
-695.456	180.714	-0.185	-0.272
-694.441	21.378	-0.098	0.080
-693.426	46.476	-0.148	0.138
-692.412	58.312	0.196	0.193
-691.397	14.256	0.218	-0.171
-690.383	800.000	0.051	0.144
-689.368	-79.003	-0.191	0.065
-688.354	45.025	-0.196	0.181
-687.339	-200.000	-0.017	-0.091
-686.324	-143.426	0.132	0.013
-685.310	-5.864	-0.119	-0.082
-684.295	97.994	-0.155	0.179
-683.281	-137.283	-0.149	0.017
-682.266	-200.000	-0.063	0.304
-681.251	-200.000	-0.034	0.493
-680.237	84.392	0.100	-0.109
-679.222	729.670	0.114	0.306
-678.208	800.000	-0.050	0.211
-677.193	-91.534	-0.308	-0.088
-676.178	-143.124	-0.437	-0.042
-675.164	419.040	-0.074	-0.159
-674.149	-23.423	0.248	0.149
-673.135	-73.022	-0.115	-0.042
-672.120	-99.069	-0.321	-0.081
-671.105	-153.487	0.103	-0.007
-670.091	252.199	0.110	-0.188
-669.076	-11.007	-0.239	0.158
-668.062	-200.000	0.073	0.344
-667.047	-141.816	0.064	-0.006
-666.032	800.000	0.043	-0.142
-665.018	624.155	-0.128	0.322
-664.003	-1.602	-0.296	0.210
-662.989	800.000	0.043	0.120
-661.974	15.593	-0.315	0.249
-660.959	-200.000	0.033	0.458
-659.945	65.503	-0.031	0.032
-658.930	-200.000	-0.005	-0.295
-657.916	-87.546	0.136	0.041
-656.901	-19.973	0.220	-0.136
-655.886	24.666	0.031	0.026
-654.872	-40.765	-0.251	0.131
-653.857	8.417	-0.217	-0.164
-652.843	405.019	-0.008	-0.018
-651.828	-100.190	-0.267	-0.066
-650.814	214.293	-0.198	-0.315
-649.799	-110.478	0.123	-0.026
-648.784	356.439	0.067	-0.134
-647.770	-200.000	0.034	-0.229
-646.755	24.912	-0.258	-0.215
-645.741	-200.000	-0.016	-0.368
-644.726	-80.573	0.204	0.068
-643.711	-200.000	0.026	-0.173
-642.697	543.156	-0.032	-0.076
-641.682	17.086	-0.236	0.188
-640.668	-114.266	-0.114	0.022
-639.653	-200.000	-0.035	0.243
-638.638	800.000	-0.075	-0.294
-637.624	800.000	0.091	-0.388
-636.609	160.281	0.215	0.300
-635.595	318.743	-0.139	0.264
-634.580	50.767	0.076	0.072
-633.565	-150.865	-0.345	0.026
-632.551	237.746	-0.023	-0.038
-631.536	-200.000	0.011	0.143
-630.522	117.777	-0.198	0.245
-629.507	206.401	0.205	-0.320
-628.492	98.248	0.177	-0.205
-627.478	493.786	-0.173	0.397
-626.463	-200.000	0.057	-0.320
-625.449	38.045	0.207	-0.185
-624.434	59.967	0.128	-0.127
-623.419	293.782	0.094	-0.172
-622.405	-68.740	0.381	-0.147
-621.390	7.293	-0.038	0.029
-620.376	-37.697	0.026	0.014
-619.361	-136.064	0.080	0.009
-618.346	-1.185	-0.273	0.193
-617.332	29.550	-0.296	-0.253
-616.317	-200.000	-0.039	-0.350
-615.303	114.015	-0.201	-0.245
-614.288	153.391	-0.065	0.089
-613.273	-43.181	-0.427	-0.217
-612.259	-200.000	-0.008	0.081
-611.244	-200.000	-0.006	0.125
-610.230	-200.000	0.013	-0.239
-609.215	110.237	0.142	0.171
-608.201	80.346	0.176	0.189
-607.186	-95.332	-0.210	0.056
-606.171	277.198	0.052	0.093
-605.157	-82.587	-0.164	0.053
-604.142	-156.124	-0.167	0.011
-603.128	293.096	-0.077	-0.140
-602.113	169.406	0.079	-0.112
-601.098	-154.353	-0.192	-0.013
-600.084	800.000	-0.063	-0.228
-599.069	487.177	-0.072	-0.165
-598.055	800.000	0.056	0.160
-597.040	370.937	0.061	0.123
-596.025	-200.000	0.038	-0.378
-595.011	109.263	0.056	-0.067
-593.996	-129.970	0.323	-0.044
-592.982	-33.188	0.365	0.202
-591.967	632.556	-0.031	0.078
-590.952	-200.000	0.001	0.079
-589.938	-200.000	-0.050	-0.318
-588.923	123.671	0.237	-0.297
-587.909	-38.388	-0.128	0.068
-586.894	-180.634	-0.230	-0.005
-585.879	-4.033	-0.228	0.158
-584.865	800.000	0.079	-0.334
-583.850	475.860	0.090	-0.203
-582.836	-57.879	0.106	0.046
-581.821	566.983	-0.053	0.128
-580.806	-33.936	-0.279	-0.154
-579.792	191.067	-0.110	-0.165
-578.777	4.789	-0.114	-0.084
-577.763	-1.435	-0.222	-0.156
-576.748	-62.711	-0.404	0.167
-575.733	-51.398	-0.074	-0.035
-574.719	100.728	-0.092	-0.107
-573.704	339.485	0.105	-0.204
-572.690	-28.154	-0.233	-0.135
-571.675	-88.230	0.064	-0.019
-570.661	164.774	-0.091	-0.129
-569.646	-200.000	-0.036	0.167
-568.631	-22.320	-0.258	-0.156
-567.617	-200.000	0.060	0.278
-566.602	-120.034	-0.091	-0.016
-565.588	-85.254	-0.074	-0.023
-564.573	-40.284	0.221	0.115
-563.558	-84.239	-0.093	-0.030
-562.544	-200.000	-0.029	0.195
-561.529	-56.249	-0.078	-0.035
-560.515	-18.272	-0.153	0.096
-559.500	-156.895	-0.373	-0.023
-558.485	-61.386	-0.166	0.070
-557.471	64.464	0.110	-0.111
-556.456	-200.000	0.083	0.474
-555.442	301.902	0.200	0.370
-554.427	-107.154	0.067	0.015
-553.412	-131.521	-0.336	0.044
-552.398	800.000	-0.075	-0.266
-551.383	-84.027	0.310	0.098
-550.369	146.986	0.134	-0.181
-549.354	-98.833	0.189	0.048
-548.339	63.409	-0.106	0.106
-547.325	464.172	-0.058	0.130
-546.310	-200.000	0.028	-0.177
-545.296	148.584	-0.164	0.221
-544.281	178.764	0.138	-0.201
-543.266	-50.698	-0.193	-0.091
-542.252	121.061	-0.099	0.123
-541.237	-200.000	0.028	-0.325
-540.223	434.085	-0.108	-0.235
-539.208	800.000	0.075	0.241
-538.193	-51.349	-0.243	-0.114
-537.179	-68.782	0.142	-0.055
-536.164	-97.664	0.384	-0.099
-535.150	-200.000	0.015	0.220
-534.135	-70.613	0.367	0.139
-533.121	-111.108	-0.322	-0.066
-532.106	-200.000	0.052	0.317
-531.091	145.539	-0.168	-0.224
-530.077	179.976	-0.156	0.229
-529.062	-98.267	-0.264	0.068
-528.048	15.981	0.328	-0.257
-527.033	-111.759	0.256	-0.052
-526.018	-200.000	0.000	-0.197
-525.004	-52.308	-0.150	0.069
-523.989	-43.380	-0.176	0.089
-522.975	800.000	0.059	-0.255
-521.960	475.766	0.159	0.359
-520.945	23.578	-0.122	-0.100
-519.931	-92.960	0.350	-0.097
-518.916	-68.338	-0.168	0.065
-517.902	-100.005	-0.174	-0.043
-516.887	-170.663	-0.456	0.016
-515.872	141.455	-0.058	-0.076
-514.858	-144.033	0.294	-0.027
-513.843	-200.000	0.006	0.119
-512.829	-200.000	0.010	0.075
-511.814	-57.849	-0.100	0.044
-510.799	92.912	-0.123	0.139
-509.785	150.042	-0.097	0.131
-508.770	-60.540	0.270	0.114
-507.756	-200.000	-0.020	-0.193
-506.741	-47.609	0.183	0.089
-505.726	-50.343	-0.155	-0.073
-504.712	245.113	-0.155	0.260
-503.697	-200.000	-0.001	0.163
-502.683	7.987	0.180	-0.134
-501.668	-158.409	-0.064	-0.004
-500.653	-29.661	-0.024	-0.014
-499.639	-200.000	0.071	0.366
-498.624	-200.000	0.009	-0.054
-497.610	-83.693	0.376	0.120
-496.595	307.192	-0.112	-0.208
-495.581	-133.928	0.097	0.012
-494.566	-47.096	-0.195	0.095
-493.551	-200.000	-0.005	-0.163
-492.537	-200.000	0.009	0.045
-491.522	-110.991	0.278	-0.057
-490.508	800.000	-0.048	-0.182
-489.493	-167.342	-0.289	0.012
-488.478	63.585	0.009	-0.009
-487.464	-200.000	0.044	0.205
-486.449	800.000	0.058	0.213
-485.435	680.298	-0.062	-0.160
-484.420	476.341	0.063	-0.141
-483.405	69.736	-0.234	0.241
-482.391	-82.037	-0.125	0.041
-481.376	-131.210	-0.135	0.018
-480.362	-200.000	-0.009	-0.162
-479.347	15.726	0.178	-0.139
-478.332	-75.888	0.093	-0.033
-477.318	-200.000	0.033	0.196
-476.303	168.777	0.058	-0.083
-475.289	-200.000	-0.040	-0.196
-474.274	-109.858	-0.321	-0.067
-473.259	-112.403	-0.159	-0.032
-472.245	800.000	-0.055	0.192
-471.230	-71.873	-0.085	0.032
-470.216	289.656	0.025	-0.046
-469.201	-79.480	0.225	-0.076
-468.186	497.231	-0.158	-0.362
-467.172	-149.296	0.247	-0.020
-466.157	-76.506	-0.150	0.052
-465.143	-200.000	-0.046	-0.233
-464.128	-84.774	-0.220	0.069
-463.113	12.848	0.215	-0.166
-462.099	-159.556	-0.245	-0.014
-461.084	-72.031	0.205	-0.076
-460.070	128.454	0.181	-0.230
-459.055	110.056	0.065	0.078
-458.040	287.193	-0.104	0.187
-457.026	385.905	-0.087	0.178
-456.011	377.961	-0.056	0.114
-454.997	-107.608	0.152	-0.033
-453.982	-200.000	-0.050	-0.375
-452.968	-36.270	0.220	-0.118
-451.953	-200.000	-0.004	-0.181
-450.938	-136.689	-0.076	0.009
-449.924	-110.274	-0.401	0.083
-448.909	-178.012	-0.150	-0.004
-447.895	800.000	0.047	0.161
-446.880	-200.000	0.026	0.159
-445.865	800.000	0.022	0.062
-444.851	-48.020	-0.261	-0.126
-443.836	800.000	-0.059	-0.199
-442.822	0.016	0.206	0.146
-441.807	-82.446	0.349	-0.113
-440.792	-62.295	0.211	-0.088
-439.778	-200.000	0.039	0.247
-438.763	415.033	-0.094	0.200
-437.749	-200.000	-0.022	0.307
-436.734	-200.000	-0.047	-0.236
-435.719	361.257	-0.159	-0.316
-434.705	-79.231	-0.162	0.055
-433.690	508.298	-0.045	0.105
-432.676	28.911	-0.174	-0.146
-431.661	206.512	0.058	0.089
-430.646	312.079	-0.093	-0.173
-429.632	45.918	0.159	0.147
-428.617	800.000	-0.044	0.143
-427.603	145.427	0.172	-0.229
-426.588	-70.333	-0.090	-0.034
-425.573	-128.189	-0.172	0.024
-424.559	-160.606	0.303	0.016
-423.544	140.645	0.127	-0.167
-422.530	-200.000	0.012	0.152
-421.515	800.000	-0.077	-0.263
-420.500	418.682	0.014	0.030
-419.486	-6.934	0.212	-0.143
-418.471	800.000	-0.034	-0.100
-417.457	579.579	-0.048	-0.116
-416.442	800.000	-0.097	0.280
-415.428	-14.697	-0.116	-0.074
-414.413	-81.023	-0.297	-0.098
-413.398	-168.910	0.310	0.012
-412.384	138.103	0.184	-0.240
-411.369	-72.151	-0.351	-0.129
-410.355	235.631	0.154	-0.252
-409.340	-200.000	0.022	-0.157
-408.325	-37.349	-0.098	0.052
-407.311	16.048	0.107	0.084
-406.296	-200.000	0.004	-0.023
-405.282	78.859	-0.135	0.143
-404.267	148.206	0.057	0.077
-403.252	-85.090	-0.277	0.086
-402.238	37.961	-0.053	-0.047
-401.223	19.311	-0.163	-0.130
-400.209	-28.234	-0.213	-0.122
-399.194	310.945	-0.029	-0.055
-398.179	215.724	0.032	0.050
-397.165	12.187	-0.338	0.258
-396.150	800.000	-0.095	0.385
-395.136	-127.757	-0.049	-0.007
-394.121	690.853	-0.065	0.170
-393.106	5.604	0.098	0.072
-392.092	-39.854	-0.076	-0.039
-391.077	-117.349	0.173	0.031
-390.063	-78.074	-0.181	-0.062
-389.048	8.653	0.362	0.270
-388.033	192.607	-0.147	-0.221
-387.019	480.586	0.071	0.159
-386.004	-79.926	-0.257	0.086
-384.990	-163.096	0.086	0.004
-383.975	-159.489	-0.191	0.011
-382.960	800.000	-0.048	0.158
-381.946	-200.000	0.001	0.014
-380.931	-27.918	-0.222	0.128
-379.917	-59.963	0.302	-0.128
-378.902	182.281	-0.157	0.230
-377.888	-96.168	-0.246	-0.065
-376.873	377.756	-0.044	-0.090
-375.858	800.000	-0.095	0.313
-374.844	-200.000	-0.005	-0.079
-373.829	2.970	-0.053	0.038
-372.815	-64.672	0.212	-0.085
-371.800	-4.839	0.120	-0.082
-370.785	-125.308	-0.148	0.022
-369.771	711.030	-0.048	-0.125
-368.756	118.454	0.211	0.259
-367.742	-71.512	0.106	-0.039
-366.727	-38.392	0.192	-0.101
-365.712	-77.442	0.083	0.029
-364.698	-11.598	0.071	0.046
-363.683	-94.427	-0.121	0.033
-362.669	228.563	0.076	0.123
-361.654	-136.323	0.460	-0.053
-360.639	771.745	0.143	-0.386
-359.625	800.000	0.018	-0.063
-358.610	-94.547	0.308	-0.083
-357.596	800.000	0.085	-0.362
-356.581	-123.379	0.157	-0.025
-355.566	800.000	0.092	-0.285
-354.552	-155.150	-0.378	-0.025
-353.537	-131.868	0.375	-0.049
-352.523	-30.871	0.182	0.102
-351.508	800.000	-0.046	-0.142
-350.493	445.503	-0.057	0.124
-349.479	-98.889	0.111	-0.028
-348.464	-27.304	-0.157	0.091
-347.450	-200.000	-0.045	-0.297
-346.435	142.101	-0.003	-0.004
-345.420	120.504	0.114	-0.141
-344.406	117.778	-0.056	-0.068
-343.391	-200.000	-0.030	0.304
-342.377	800.000	0.131	0.409
-341.362	170.068	-0.140	0.198
-340.348	-63.243	-0.123	-0.050
-339.333	348.131	-0.109	0.213
-338.318	-24.703	-0.329	-0.194
-337.304	800.000	0.113	0.461
-336.289	106.176	0.078	0.091
-335.275	-200.000	0.036	-0.362
-334.260	126.571	-0.259	-0.325
-333.245	-200.000	-0.019	0.248
-332.231	-96.085	-0.148	0.039
-331.216	-200.000	-0.005	-0.331
-330.202	800.000	-0.079	-0.259
-329.187	800.000	-0.049	-0.158
-328.172	120.830	0.161	-0.198
-327.158	229.666	-0.058	-0.093
-326.143	-128.763	-0.018	0.003
-325.129	800.000	0.052	-0.189
-324.114	229.986	-0.176	0.285
-323.099	-114.040	-0.078	-0.015
-322.085	800.000	0.029	-0.089
-321.070	-121.428	-0.220	0.036
-320.056	604.254	0.034	0.085
-319.041	99.962	0.281	0.322
-318.026	-127.780	-0.264	0.038
-317.012	-200.000	-0.070	-0.455
-315.997	800.000	-0.023	-0.064
-314.983	-100.679	-0.022	-0.005
-313.968	-2.522	0.063	0.043
-312.953	-73.522	-0.244	0.088
-311.939	144.121	-0.075	-0.099
-310.924	374.566	0.077	0.155
-309.910	-51.006	-0.186	0.086
-308.895	-200.000	0.042	0.300
-307.880	-142.250	-0.402	-0.039
-306.866	-52.949	-0.268	0.122
-305.851	-172.035	0.069	0.002
-304.837	413.331	0.108	-0.227
-303.822	651.857	-0.061	-0.156
-302.807	259.861	0.052	0.089
-301.793	-61.540	0.289	0.120
-300.778	234.192	-0.108	-0.176
-299.764	113.373	0.242	-0.290
-298.749	123.115	-0.019	0.024
-297.735	-200.000	0.039	-0.300
-296.720	393.132	0.097	-0.200
-295.705	420.178	-0.049	0.104
-294.691	111.681	-0.139	-0.166
-293.676	-200.000	0.062	0.319
-292.662	316.470	-0.084	0.156
-291.647	-200.000	-0.005	-0.186
-290.632	-200.000	-0.013	0.116
-289.618	617.480	0.078	-0.193
-288.603	26.419	-0.200	0.165
-287.589	55.195	0.205	0.196
-286.574	-200.000	0.064	0.404
-285.559	115.275	-0.062	0.074
-284.545	138.880	0.093	0.121
-283.530	161.722	0.040	-0.056
-282.516	-43.280	0.446	-0.223
-281.501	665.940	0.106	0.272
-280.486	549.671	-0.077	0.183
-279.472	-84.997	-0.266	-0.083
-278.457	-12.956	0.106	-0.068
-277.443	575.841	-0.074	0.179
-276.428	89.821	-0.181	0.200
-275.413	38.197	0.358	-0.314
-274.399	-200.000	0.021	-0.114
-273.384	-200.000	0.095	0.420
-272.370	-21.675	-0.229	-0.138
-271.355	-53.391	-0.279	0.126
-270.340	800.000	0.036	-0.127
-269.326	-200.000	-0.002	-0.065
-268.311	-190.053	0.257	0.003
-267.297	-64.917	0.377	0.151
-266.282	205.589	-0.132	0.203
-265.267	-116.595	0.456	0.083
-264.253	248.657	-0.111	-0.185
-263.238	288.521	0.017	-0.030
-262.224	22.547	-0.192	-0.155
-261.209	198.437	0.160	0.241
-260.195	-169.385	0.058	0.002
-259.180	282.231	0.055	-0.098
-258.165	800.000	-0.043	0.146
-257.151	-159.552	0.157	-0.009
-256.136	109.041	0.164	0.194
-255.122	31.629	-0.081	0.069
-254.107	89.379	0.125	0.138
-253.092	-200.000	-0.019	-0.104
-252.078	-200.000	-0.023	0.340
-251.063	208.971	0.092	0.143
-250.049	-126.717	0.142	0.021
-249.034	-122.284	-0.280	-0.045
-248.019	-23.012	0.161	0.095
-247.005	128.827	0.161	0.203
-245.990	0.191	-0.189	0.133
-244.976	45.912	0.359	0.328
-243.961	72.588	0.145	-0.149
-242.946	-69.235	-0.295	-0.112
-241.932	405.806	-0.035	-0.072
-240.917	-200.000	-0.052	0.322
-239.903	0.479	0.182	0.128
-238.888	39.426	-0.199	-0.176
-237.873	-116.931	-0.313	0.056
-236.859	800.000	-0.114	0.398
-235.844	-55.245	-0.341	-0.151
-234.830	800.000	0.041	-0.140
-233.815	100.995	-0.192	-0.221
-232.800	362.436	0.245	-0.486
-231.786	-64.282	0.087	-0.035
-230.771	-124.941	-0.274	-0.042
-229.757	5.316	-0.150	-0.109
-228.742	-105.721	0.198	0.044
-227.727	-112.812	0.212	-0.042
-226.713	215.265	0.068	0.107
-225.698	-150.179	0.379	0.029
-224.684	76.155	0.241	-0.251
-223.669	9.713	0.093	-0.070
-222.655	31.490	-0.034	-0.029
-221.640	800.000	-0.065	0.260
-220.625	97.477	0.113	-0.128
-219.611	-83.494	0.133	-0.042
-218.596	44.936	-0.259	-0.235
-217.582	800.000	-0.051	-0.181
-216.567	-42.901	-0.234	0.117
-215.552	23.188	-0.143	-0.116
-214.538	-44.523	-0.065	0.032
-213.523	-80.310	0.072	-0.024
-212.509	-121.033	0.181	0.030
-211.494	71.970	0.092	-0.094
-210.479	-115.903	0.315	-0.058
-209.465	-76.473	0.339	-0.117
-208.450	165.596	-0.237	-0.331
-207.436	-200.000	0.015	0.111
-206.421	160.068	-0.081	-0.112
-205.406	800.000	-0.070	-0.222
-204.392	-73.829	0.211	0.075
-203.377	99.920	0.055	-0.063
-202.363	-132.850	-0.286	0.036
-201.348	136.478	0.128	-0.165
-200.333	255.268	-0.077	0.131
-199.319	-198.861	-0.215	-0.001
-198.304	488.654	0.046	0.104
-197.290	19.644	0.400	0.317
-196.275	-88.081	-0.160	0.047
-195.260	-129.882	0.086	0.012
-194.246	-88.335	0.323	0.095
-193.231	-164.926	0.142	0.006
-192.217	-200.000	0.068	0.400
-191.202	800.000	0.072	0.311
-190.187	-122.936	0.241	-0.038
-189.173	-200.000	0.119	-0.563
-188.158	-151.080	0.189	-0.014
-187.144	800.000	-0.101	0.385
-186.129	75.319	-0.088	0.092
-185.114	14.180	0.178	0.136
-184.100	-200.000	0.036	0.183
-183.085	-200.000	-0.040	0.237
-182.071	683.074	-0.135	0.346
-181.056	800.000	0.042	0.171
-180.042	362.723	-0.151	0.299
-179.027	-87.333	0.165	0.049
-178.012	-38.482	0.158	0.082
-176.998	282.289	0.137	0.241
-175.983	74.485	0.200	0.207
-174.969	-200.000	0.021	-0.145
-173.954	-200.000	0.013	-0.112
-172.939	-114.518	0.299	-0.056
-171.925	696.190	-0.047	-0.122
-170.910	-59.780	0.207	-0.087
-169.896	-97.184	0.182	-0.047
-168.881	-41.858	-0.236	0.119
-167.866	164.122	0.164	-0.228
-166.852	283.852	-0.138	-0.244
-165.837	-200.000	0.026	-0.114
-164.823	256.433	0.075	0.127
-163.808	366.278	0.031	0.062
-162.793	800.000	-0.082	0.251
-161.779	-200.000	-0.038	0.345
-160.764	-200.000	0.026	0.283
-159.750	-29.656	0.197	0.111
-158.735	262.942	0.141	0.241
-157.720	-200.000	-0.018	-0.319
-156.706	800.000	0.117	0.325
-155.691	13.112	0.207	-0.157
-154.677	33.517	-0.234	0.200
-153.662	-117.933	0.260	0.046
-152.647	-64.038	0.251	0.101
-151.633	-20.483	0.196	0.119
-150.618	237.064	-0.062	0.101
-149.604	-200.000	-0.128	0.633
-148.589	-6.411	0.279	-0.187
-147.574	505.954	0.110	0.250
-146.560	-200.000	0.017	0.076
-145.545	82.914	-0.120	0.129
-144.531	-98.740	0.142	0.036
-143.516	92.902	-0.129	-0.144
-142.502	43.974	-0.105	-0.094
-141.487	401.865	-0.083	0.170
-140.472	800.000	0.058	0.171
-139.458	-200.000	-0.020	-0.171
-138.443	-1.724	-0.052	0.036
-137.429	133.667	-0.172	0.218
-136.414	585.045	0.158	0.382
-135.399	-36.573	-0.336	-0.177
-134.385	6.209	0.275	-0.200
-133.370	800.000	0.037	0.110
-132.356	-90.244	-0.381	-0.109
-131.341	-138.288	-0.315	0.034
-130.326	-200.000	-0.053	-0.250
-129.312	800.000	-0.053	-0.174
-128.297	526.262	-0.012	-0.027
-127.283	-200.000	-0.028	0.352
-126.268	451.920	-0.162	0.351
-125.253	-10.952	0.207	0.134
-124.239	258.378	0.041	0.069
-123.224	-88.415	-0.376	0.110
-122.210	302.712	0.088	0.160
