DTS Sentinel unit serial number:	SN413079Multiplexer serial number:	ORYXHardware model number:	OX4-SRSoftware version number:	ORYX F/W v4.00 Oryx Data Collector v3.7.2.0data status	okinstallation	princeton_trtdifferential loss correction	single-endedforward channel	channel 1reverse channel	N/Adate	2019/09/15time	05:54:35forward acquisition time	60.00reverse acquisition time	0.00gamma	496.2192k internal	0.2325k external	0.2325temperature offset calibration	1.0000default loss term (dB/km)	0.3790temperature slope calibration	1.0000multiplexer offset coefficient	1.0000multiplexer slope coefficient	1.0000fibre end	0.00T internal ref (°C)	30.62T ext. ref 1 (°C)	4.86T ext. ref 2 (°C)	25.41length (m)	temperature (°C)	Stokes	anti-Stokes-747.200	-3.636	0.315	0.221
-746.185	65.120	-0.214	0.218
-745.171	83.886	0.045	-0.050
-744.156	-137.523	-0.356	-0.041
-743.142	800.000	0.039	-0.149
-742.127	800.000	-0.053	0.233
-741.112	95.497	0.241	-0.278
-740.098	280.676	0.157	0.283
-739.083	510.921	0.133	0.312
-738.069	54.865	-0.275	0.267
-737.054	65.112	-0.281	0.286
-736.039	-27.519	-0.417	0.244
-735.025	800.000	-0.024	-0.078
-734.010	37.945	0.149	-0.134
-732.996	198.483	-0.275	0.424
-731.981	-87.263	0.335	0.103
-730.966	-129.186	-0.312	0.044
-729.952	-200.000	0.033	-0.351
-728.937	-57.718	-0.181	-0.080
-727.923	60.080	0.319	-0.318
-726.908	1.456	-0.197	0.143
-725.894	363.155	-0.142	-0.288
-724.879	800.000	-0.090	0.266
-723.864	504.456	-0.085	-0.199
-722.850	190.488	0.162	0.246
-721.835	689.917	-0.061	-0.160
-720.821	-169.741	-0.363	-0.013
-719.806	-200.000	-0.004	-0.384
-718.791	-112.476	-0.178	0.036
-717.777	21.258	-0.352	-0.288
-716.762	-59.844	0.212	-0.091
-715.748	711.521	0.067	0.178
-714.733	-74.405	-0.137	0.050
-713.718	-53.311	0.251	-0.116
-712.704	-200.000	-0.053	-0.282
-711.689	328.403	0.156	-0.302
-710.675	-75.837	0.199	0.071
-709.660	85.643	0.046	-0.051
-708.645	319.179	-0.048	0.092
-707.631	506.965	-0.018	-0.042
-706.616	-200.000	0.050	-0.242
-705.602	7.480	-0.370	0.279
-704.587	800.000	-0.176	-0.597
-703.572	800.000	0.036	0.141
-702.558	-96.850	0.046	0.012
-701.543	-200.000	-0.003	-0.217
-700.529	800.000	0.027	0.096
-699.514	-83.254	0.348	-0.113
-698.499	-116.417	-0.281	0.052
-697.485	-200.000	0.014	0.248
-696.470	800.000	-0.047	0.164
-695.456	144.835	0.090	0.122
-694.441	-81.289	-0.196	-0.065
-693.426	-200.000	-0.003	0.291
-692.412	-200.000	0.088	0.450
-691.397	-200.000	0.029	0.364
-690.383	-52.296	-0.036	-0.017
-689.368	-200.000	0.029	0.136
-688.354	-200.000	-0.007	0.129
-687.339	-0.798	-0.040	0.028
-686.324	119.828	0.098	-0.122
-685.310	-103.880	0.322	0.076
-684.295	-200.000	-0.002	-0.162
-683.281	1.213	-0.079	0.057
-682.266	800.000	-0.068	-0.207
-681.251	221.011	0.038	-0.062
-680.237	800.000	-0.053	0.222
-679.222	247.740	-0.040	0.068
-678.208	35.233	-0.274	-0.242
-677.193	-200.000	-0.006	-0.465
-676.178	-0.918	0.277	-0.197
-675.164	-200.000	-0.076	0.508
-674.149	-200.000	-0.007	0.179
-673.135	50.162	-0.054	-0.051
-672.120	-41.831	-0.221	-0.114
-671.105	547.649	0.087	-0.208
-670.091	-127.007	0.072	-0.011
-669.076	263.753	-0.044	0.077
-668.062	-81.264	0.198	-0.066
-667.047	800.000	-0.055	-0.205
-666.032	800.000	-0.032	-0.113
-665.018	84.467	0.034	-0.038
-664.003	-42.687	0.150	-0.077
-662.989	106.710	-0.277	-0.330
-661.974	-200.000	0.050	-0.251
-660.959	27.033	-0.049	-0.042
-659.945	230.760	-0.105	0.173
-658.930	131.626	-0.182	-0.235
-657.916	-200.000	-0.037	-0.203
-656.901	-87.884	0.147	0.045
-655.886	-79.629	-0.234	-0.079
-654.872	-82.083	-0.044	0.014
-653.857	-200.000	-0.010	-0.162
-652.843	-200.000	0.033	0.170
-651.828	82.731	-0.315	0.345
-650.814	800.000	0.043	-0.164
-649.799	800.000	0.068	0.285
-648.784	-11.305	-0.073	0.048
-647.770	800.000	-0.071	-0.286
-646.755	-141.330	-0.375	0.038
-645.741	-200.000	-0.043	0.283
-644.726	76.667	-0.085	-0.091
-643.711	-117.158	0.429	-0.079
-642.697	-200.000	0.027	-0.135
-641.682	-108.766	0.066	-0.014
-640.668	76.718	-0.060	0.064
-639.653	-200.000	0.008	0.043
-638.638	-110.325	-0.187	0.039
-637.624	68.045	0.177	-0.182
-636.609	-4.515	-0.222	-0.154
-635.595	-29.670	-0.263	0.151
-634.580	-200.000	-0.022	0.324
-633.565	121.388	-0.146	0.183
-632.551	8.713	-0.178	-0.135
-631.536	-158.395	0.303	0.018
-630.522	-74.927	0.280	0.101
-629.507	180.581	0.120	-0.178
-628.492	-200.000	0.054	-0.483
-627.478	-97.911	0.386	0.100
-626.463	-89.893	0.082	0.024
-625.449	164.009	0.144	-0.204
-624.434	245.384	-0.115	0.194
-623.419	252.248	-0.142	0.243
-622.405	34.176	0.224	0.197
-621.390	-40.313	0.252	0.132
-620.376	140.545	0.178	0.237
-619.361	-200.000	0.188	0.000
-618.346	-200.000	-0.043	-0.212
-617.332	-76.028	-0.103	0.037
-616.317	-192.624	-0.146	-0.001
-615.303	-31.828	0.081	0.046
-614.288	800.000	0.108	-0.464
-613.273	160.505	0.062	0.087
-612.259	-82.543	0.197	-0.064
-611.244	7.762	0.300	-0.226
-610.230	-103.300	0.024	0.006
-609.215	10.360	-0.235	0.180
-608.201	139.884	-0.300	0.397
-607.186	543.835	-0.118	-0.283
-606.171	-12.554	0.167	0.110
-605.157	18.086	0.088	0.071
-604.142	571.424	0.094	-0.230
-603.128	-200.000	0.014	-0.286
-602.113	14.946	0.061	-0.048
-601.098	-163.140	-0.319	0.015
-600.084	-26.484	0.267	0.157
-599.069	59.861	-0.114	-0.113
-598.055	-166.243	0.197	-0.008
-597.040	348.312	0.132	-0.260
-596.025	800.000	0.084	0.338
-595.011	328.034	-0.154	-0.297
-593.996	-13.895	0.209	-0.136
-592.982	331.819	0.088	0.170
-591.967	-77.428	-0.107	-0.037
-590.952	-57.423	-0.344	0.151
-589.938	800.000	-0.058	0.207
-588.923	53.555	-0.292	0.281
-587.909	215.818	-0.247	0.393
-586.894	-3.296	-0.025	0.017
-585.879	89.627	0.095	-0.106
-584.865	35.909	-0.103	-0.091
-583.850	3.316	-0.224	-0.163
-582.836	-200.000	-0.004	0.048
-581.821	-107.967	-0.437	-0.095
-580.806	189.152	0.144	-0.216
-579.792	-51.002	-0.101	-0.048
-578.777	-81.380	0.117	0.039
-577.763	200.978	-0.041	0.063
-576.748	-76.572	-0.127	-0.045
-575.733	-200.000	-0.046	-0.312
-574.719	-103.101	0.114	0.027
-573.704	17.230	-0.244	-0.194
-572.690	-141.372	0.193	0.020
-571.675	-21.103	0.112	-0.068
-570.661	-124.775	0.284	-0.044
-569.646	-160.770	0.179	-0.010
-568.631	-200.000	-0.001	-0.264
-567.617	722.510	-0.130	-0.346
-566.602	-122.491	-0.203	-0.033
-565.588	579.658	-0.026	-0.065
-564.573	135.963	-0.153	0.200
-563.558	-63.429	-0.227	0.093
-562.544	-51.363	0.180	0.084
-561.529	-14.806	0.153	-0.098
-560.515	-200.000	-0.032	0.212
-559.500	-49.657	-0.160	0.076
-558.485	-124.883	0.338	-0.052
-557.471	-44.544	0.234	0.117
-556.456	-149.377	0.041	-0.003
-555.442	34.531	0.163	0.142
-554.427	102.420	0.152	0.178
-553.412	800.000	-0.091	-0.300
-552.398	-169.787	-0.107	-0.004
-551.383	-33.914	0.168	-0.092
-550.369	27.758	0.224	0.189
-549.354	-84.721	0.220	-0.069
-548.339	221.040	0.131	0.210
-547.325	800.000	-0.033	-0.128
-546.310	542.958	-0.070	-0.168
-545.296	-57.075	-0.167	-0.074
-544.281	800.000	0.019	-0.070
-543.266	-200.000	0.049	0.220
-542.252	113.395	0.132	0.161
-541.237	229.509	-0.081	-0.132
-540.223	-134.809	0.067	0.008
-539.208	-105.575	-0.221	0.050
-538.193	-177.684	0.349	-0.008
-537.179	-74.720	0.147	0.053
-536.164	800.000	0.083	0.347
-535.150	-200.000	-0.141	-0.000
-534.135	-23.788	-0.066	0.039
-533.121	113.148	0.224	-0.272
-532.106	-200.000	-0.077	0.360
-531.091	-114.206	0.107	-0.021
-530.077	-108.943	-0.304	0.065
-529.062	56.734	0.230	-0.224
-528.048	-53.777	0.173	-0.079
-527.033	217.661	-0.104	-0.166
-526.018	-200.000	-0.084	-0.410
-525.004	-200.000	-0.008	0.114
-523.989	-200.000	-0.023	0.176
-522.975	-200.000	-0.036	-0.158
-521.960	-144.391	0.086	-0.008
-520.945	800.000	-0.041	-0.174
-519.931	-92.481	-0.211	0.059
-518.916	-142.633	-0.020	-0.002
-517.902	587.272	0.137	-0.338
-516.887	-90.829	0.112	0.032
-515.872	-200.000	-0.006	0.035
-514.858	29.626	-0.129	-0.109
-513.843	-44.837	-0.277	0.138
-512.829	43.345	0.070	0.064
-511.814	88.437	0.157	-0.174
-510.799	100.466	-0.280	0.325
-509.785	-6.515	-0.191	0.130
-508.770	-21.179	-0.206	-0.126
-507.756	-48.497	0.126	0.061
-506.741	-48.887	0.141	0.067
-505.726	-3.475	0.153	-0.107
-504.712	-200.000	0.042	-0.239
-503.697	-7.696	-0.199	-0.134
-502.683	-137.432	-0.089	-0.010
-501.668	-200.000	0.029	0.373
-500.653	149.181	-0.120	0.163
-499.639	78.186	-0.147	0.156
-498.624	146.595	0.172	0.231
-497.610	-200.000	-0.007	0.195
-496.595	-101.215	-0.188	-0.046
-495.581	45.173	-0.277	-0.255
-494.566	-180.547	-0.244	0.005
-493.551	-29.817	-0.104	0.059
-492.537	380.350	-0.111	-0.228
-491.522	800.000	0.043	0.168
-490.508	106.059	0.161	-0.190
-489.493	174.811	0.109	0.157
-488.478	-200.000	-0.018	-0.329
-487.464	-29.087	0.541	-0.310
-486.449	64.584	0.122	0.123
-485.435	-153.571	-0.600	0.041
-484.420	127.013	0.176	-0.223
-483.405	-200.000	-0.044	-0.276
-482.391	3.931	0.045	0.033
-481.376	318.819	-0.083	0.157
-480.362	29.295	-0.164	-0.140
-479.347	-102.173	0.130	-0.031
-478.332	78.628	0.086	-0.092
-477.318	62.373	0.160	-0.160
-476.303	800.000	-0.078	-0.288
-475.289	133.828	0.078	-0.101
-474.274	-105.961	0.104	0.023
-473.259	89.224	-0.069	0.076
-472.245	42.526	0.164	0.149
-471.230	800.000	0.079	0.317
-470.216	-41.819	0.125	-0.064
-469.201	-35.015	-0.239	-0.130
-468.186	-128.802	0.157	0.022
-467.172	179.651	-0.037	0.054
-466.157	-8.157	-0.115	0.077
-465.143	-163.816	0.165	-0.008
-464.128	-19.747	0.084	0.052
-463.113	800.000	0.061	0.178
-462.099	-78.702	-0.102	0.035
-461.084	-22.209	-0.381	0.231
-460.070	30.873	0.373	0.319
-459.055	-0.290	-0.202	-0.143
-458.040	-118.388	-0.209	0.037
-457.026	149.744	-0.077	-0.104
-456.011	109.666	0.214	0.256
-454.997	-52.866	-0.197	0.090
-453.982	28.154	-0.258	-0.217
-452.968	145.175	0.059	0.079
-451.953	579.632	-0.058	-0.141
-450.938	274.605	-0.134	-0.236
-449.924	-112.106	-0.159	-0.032
-448.909	-93.266	-0.184	0.051
-447.895	-82.052	-0.173	0.056
-446.880	-113.212	0.149	-0.029
-445.865	-81.532	0.114	0.037
-444.851	363.598	0.183	-0.366
-443.836	-200.000	0.029	-0.138
-442.822	-200.000	0.017	-0.130
-441.807	-48.735	-0.289	0.138
-440.792	800.000	-0.018	0.066
-439.778	234.441	-0.048	-0.080
-438.763	-31.799	-0.110	0.062
-437.749	-200.000	0.048	-0.274
-436.734	-126.984	0.177	-0.026
-435.719	107.615	-0.181	-0.215
-434.705	-200.000	-0.015	0.263
-433.690	-67.209	-0.266	-0.104
-432.676	-55.710	-0.237	-0.106
-431.661	-200.000	0.033	0.208
-430.646	8.031	-0.344	-0.257
-429.632	313.028	-0.080	-0.150
-428.617	-43.863	0.275	-0.138
-427.603	-25.657	-0.145	0.085
-426.588	-151.077	0.438	-0.033
-425.573	96.623	-0.232	0.265
-424.559	53.156	0.166	0.159
-423.544	-200.000	-0.032	0.161
-422.530	22.705	-0.177	-0.144
-421.515	-200.000	-0.034	0.269
-420.500	529.952	-0.067	-0.158
-419.486	1.704	-0.287	-0.206
-418.471	-200.000	-0.004	0.185
-417.457	-6.801	-0.101	0.069
-416.442	12.026	-0.100	-0.077
-415.428	-200.000	-0.016	-0.263
-414.413	-26.518	-0.237	0.139
-413.398	8.501	-0.194	0.145
-412.384	60.011	-0.133	0.130
-411.369	-167.848	0.181	0.007
-410.355	-71.296	-0.128	-0.048
-409.340	205.303	-0.202	-0.312
-408.325	34.825	0.084	0.073
-407.311	-57.609	-0.150	0.066
-406.296	-36.866	0.136	-0.073
-405.282	156.718	-0.142	-0.196
-404.267	-200.000	-0.011	-0.132
-403.252	23.609	0.152	0.125
-402.238	-26.069	0.103	-0.060
-401.223	-28.194	0.077	0.044
-400.209	-31.472	-0.145	-0.081
-399.194	-200.000	-0.015	-0.088
-398.179	5.299	0.229	0.168
-397.165	800.000	0.070	0.302
-396.150	-148.072	0.288	-0.024
-395.136	800.000	0.049	0.161
-394.121	42.386	-0.105	0.095
-393.106	800.000	0.110	0.372
-392.092	-200.000	0.008	0.210
-391.077	94.995	-0.129	0.146
-390.063	-200.000	0.130	-0.001
-389.048	11.364	0.367	-0.280
-388.033	-178.423	0.276	0.006
-387.019	-200.000	0.008	-0.372
-386.004	13.157	0.133	-0.103
-384.990	185.482	-0.113	0.167
-383.975	81.917	0.078	0.084
-382.960	251.685	0.068	0.115
-381.946	-139.495	-0.279	-0.030
-380.931	82.269	0.234	0.253
-379.917	-97.696	-0.168	0.043
-378.902	117.228	0.221	-0.271
-377.888	-135.218	-0.450	0.054
-376.873	-84.436	0.048	-0.015
-375.858	-194.969	-0.253	0.002
-374.844	17.691	-0.189	-0.149
-373.829	10.365	0.062	0.047
-372.815	-96.741	0.031	-0.008
-371.800	134.033	-0.295	-0.380
-370.785	9.761	-0.027	-0.021
-369.771	94.978	-0.301	0.341
-368.756	-42.756	-0.139	0.070
-367.742	-3.774	-0.252	-0.174
-366.727	-83.307	0.197	0.063
-365.712	305.279	0.080	0.148
-364.698	68.760	0.137	0.139
-363.683	-52.345	-0.126	-0.058
-362.669	800.000	0.088	0.248
-361.654	-200.000	-0.006	0.310
-360.639	-26.171	-0.231	0.135
-359.625	-168.919	-0.163	0.006
-358.610	-128.654	0.034	0.005
-357.596	218.193	0.017	0.027
-356.581	-155.911	-0.205	-0.013
-355.566	-106.562	-0.277	-0.061
-354.552	32.398	-0.220	-0.189
-353.537	800.000	-0.056	-0.164
-352.523	-48.686	-0.213	-0.102
-351.508	147.610	0.202	-0.271
-350.493	-64.631	0.132	-0.053
-349.479	288.854	-0.108	-0.195
-348.464	-66.800	0.316	-0.124
-347.450	-200.000	0.023	0.340
-346.435	800.000	0.018	-0.057
-345.420	-200.000	-0.036	-0.205
-344.406	154.032	-0.076	0.104
-343.391	-115.465	-0.145	0.027
-342.377	5.551	0.083	0.061
-341.362	800.000	0.023	0.075
-340.348	-116.346	-0.223	-0.041
-339.333	-57.513	0.160	-0.070
-338.318	-7.370	0.320	-0.215
-337.304	-200.000	0.027	-0.499
-336.289	194.347	0.068	0.102
-335.275	50.476	0.208	0.195
-334.260	-90.327	0.149	0.043
-333.245	107.406	-0.132	-0.156
-332.231	-171.177	0.266	-0.009
-331.216	435.273	-0.119	-0.257
-330.202	91.883	0.225	0.251
-329.187	-23.875	0.152	0.090
-328.172	-76.510	-0.193	0.067
-327.158	328.146	-0.228	0.434
-326.143	51.344	0.056	-0.053
-325.129	-1.639	-0.086	0.060
-324.114	298.359	-0.314	0.572
-323.099	75.585	-0.193	0.203
-322.085	800.000	0.104	0.294
-321.070	-134.587	0.134	-0.016
-320.056	27.779	0.104	0.087
-319.041	-200.000	0.045	0.254
-318.026	139.330	-0.164	-0.215
-317.012	619.609	-0.081	0.201
-315.997	-10.875	-0.043	0.028
-314.983	751.694	-0.038	-0.102
-313.968	-114.242	0.357	-0.068
-312.953	-200.000	-0.114	0.000
-311.939	-119.300	-0.158	0.027
-310.924	800.000	-0.021	0.075
-309.910	-63.616	0.440	-0.179
-308.895	0.654	0.227	0.161
-307.880	800.000	0.047	0.142
-306.866	-57.990	0.155	0.067
-305.851	538.130	-0.118	0.278
-304.837	6.823	0.235	0.173
-303.822	-86.175	0.264	-0.081
-302.807	412.430	-0.058	-0.122
-301.793	-101.021	-0.246	0.060
-300.778	121.729	-0.326	-0.404
-299.764	-59.110	-0.201	-0.086
-298.749	1.945	-0.097	0.069
-297.735	-63.197	-0.135	-0.055
-296.720	13.693	-0.124	-0.095
-295.705	83.176	0.060	-0.065
-294.691	-200.000	0.008	-0.186
-293.676	-154.123	-0.179	-0.012
-292.662	208.112	0.262	-0.405
-291.647	-109.236	0.152	-0.032
-290.632	-7.702	-0.327	-0.219
-289.618	338.808	0.163	0.314
-288.603	-139.076	0.284	0.030
-287.589	-0.505	0.128	0.090
-286.574	101.055	0.203	0.235
-285.559	-200.000	-0.060	-0.276
-284.545	-153.072	0.411	0.029
-283.530	-4.233	0.073	-0.050
-282.516	-54.013	-0.293	-0.132
-281.501	47.726	0.273	-0.252
-280.486	-10.030	0.056	0.037
-279.472	-8.838	0.151	0.100
-278.457	-45.130	0.030	0.015
-277.443	16.290	-0.287	0.224
-276.428	-63.404	0.110	0.045
-275.413	-200.000	0.009	-0.047
-274.399	800.000	0.064	0.246
-273.384	-126.485	0.219	-0.032
-272.370	-200.000	-0.051	-0.232
-271.355	-200.000	0.013	-0.261
-270.340	140.467	-0.085	0.112
-269.326	208.642	-0.248	0.385
-268.311	587.217	0.072	0.175
-267.297	-102.555	0.040	-0.010
-266.282	4.000	-0.059	0.043
-265.267	72.892	-0.059	0.061
-264.253	-200.000	-0.070	0.429
-263.238	-200.000	0.011	0.295
-262.224	-200.000	-0.038	-0.278
-261.209	-2.016	0.121	-0.084
-260.195	-200.000	-0.001	0.117
-259.180	7.583	-0.113	0.084
-258.165	4.443	0.202	0.147
-257.151	-83.231	-0.015	-0.005
-256.136	30.657	0.254	-0.215
-255.122	55.463	0.060	-0.057
-254.107	-200.000	0.002	-0.462
-253.092	-200.000	0.063	-0.287
-252.078	47.192	-0.068	0.063
-251.063	14.291	0.260	0.201
-250.049	31.733	0.008	-0.007
-249.034	-93.405	0.118	0.032
-248.019	-97.301	-0.125	0.032
-247.005	21.079	0.087	0.070
-245.990	-84.352	0.293	0.092
-244.976	-132.830	0.263	-0.033
-243.961	800.000	0.032	-0.103
-242.946	-68.011	-0.334	-0.129
-241.932	344.469	0.152	-0.296
-240.917	-71.429	-0.467	0.173
-239.903	800.000	0.130	-0.543
-238.888	-160.774	-0.252	0.013
-237.873	-129.965	0.173	-0.023
-236.859	-200.000	0.057	0.262
-235.844	79.139	0.042	-0.045
-234.830	-19.883	-0.170	0.104
-233.815	-200.000	-0.016	-0.119
-232.800	-46.046	-0.231	-0.113
-231.786	44.140	-0.232	-0.210
-230.771	347.289	0.047	-0.092
-229.757	123.187	0.072	-0.089
-228.742	229.109	0.254	0.410
-227.727	-177.831	-0.125	-0.003
-226.713	292.343	-0.050	0.091
-225.698	-33.083	-0.135	-0.074
-224.684	14.833	0.225	0.174
-223.669	246.100	0.110	0.184
-222.655	-69.850	-0.379	-0.143
-221.640	-48.542	0.058	0.027
-220.625	-200.000	0.051	-0.326
-219.611	391.406	-0.017	-0.034
-218.596	-121.572	0.067	-0.011
-217.582	401.298	-0.098	0.204
-216.567	-48.146	0.233	0.111
-215.552	17.776	0.221	0.174
-214.538	800.000	0.109	0.360
-213.523	-77.422	0.466	-0.160
-212.509	-93.622	-0.197	0.054
-211.494	-200.000	0.009	-0.049
-210.479	-164.393	-0.200	0.009
-209.465	105.123	-0.248	-0.289
-208.450	215.634	-0.030	-0.047
-207.436	-200.000	0.001	0.182
-206.421	265.561	-0.055	-0.095
-205.406	44.745	-0.158	-0.144
-204.392	98.485	-0.142	-0.162
-203.377	43.524	-0.321	-0.290
-202.363	-57.416	-0.100	-0.043
-201.348	-7.267	-0.066	0.044
-200.333	-138.961	-0.107	-0.011
-199.319	-200.000	-0.050	0.279
-198.304	800.000	0.101	0.317
-197.290	-55.639	-0.028	0.012
-196.275	558.438	0.184	-0.438
-195.260	-200.000	-0.012	0.148
-194.246	418.481	-0.054	-0.114
-193.231	-200.000	0.053	0.286
-192.217	-200.000	-0.007	0.157
-191.202	692.782	0.032	-0.082
-190.187	217.706	-0.153	0.240
-189.173	-154.408	0.177	-0.012
-188.158	276.899	-0.128	0.224
-187.144	-83.259	-0.339	0.108
-186.129	576.094	-0.151	-0.365
-185.114	-145.882	-0.254	-0.022
-184.100	53.641	0.045	-0.042
-183.085	-54.420	0.341	-0.153
-182.071	-136.494	-0.061	0.007
-181.056	-131.921	-0.188	0.024
-180.042	20.422	0.230	0.183
-179.027	-200.000	-0.031	0.358
-178.012	-63.286	0.342	0.139
-176.998	58.803	0.114	-0.110
-175.983	-63.749	0.134	-0.054
-174.969	189.395	0.078	0.116
-173.954	339.234	-0.064	-0.123
-172.939	380.652	-0.049	0.098
-171.925	112.803	0.149	0.178
-170.910	97.082	-0.051	-0.057
-169.896	-200.000	0.034	0.150
-168.881	-104.840	0.317	-0.072
-167.866	-200.000	-0.016	0.107
-166.852	556.649	-0.074	-0.176
-165.837	-125.309	-0.278	-0.042
-164.823	-97.246	-0.205	-0.053
-163.808	-92.254	0.292	-0.081
-162.793	-200.000	-0.015	0.238
-161.779	208.084	0.177	-0.273
-160.764	79.115	-0.126	0.133
-159.750	-69.495	0.434	0.164
-158.735	-79.757	0.336	-0.111
-157.720	-19.070	0.287	-0.176
-156.706	67.217	-0.077	-0.077
-155.691	-60.071	0.292	-0.123
-154.677	18.714	0.119	-0.094
-153.662	-177.095	-0.090	0.002
-152.647	77.278	0.110	0.115
-151.633	-200.000	-0.002	-0.095
-150.618	144.167	-0.118	-0.155
-149.604	469.848	-0.048	0.106
-148.589	-200.000	-0.006	0.047
-147.574	102.133	0.027	0.032
-146.560	62.507	-0.267	-0.263
-145.545	32.761	0.157	0.134
-144.531	-76.390	-0.194	0.067
-143.516	-69.426	-0.136	-0.052
-142.502	-200.000	-0.002	0.084
-141.487	-105.106	-0.149	0.034
-140.472	-82.809	0.475	-0.151
-139.458	-2.618	-0.118	-0.081
-138.443	-200.000	-0.019	-0.283
-137.429	-200.000	0.026	0.159
-136.414	148.271	0.188	0.250
-135.399	60.834	-0.091	-0.089
-134.385	-65.083	-0.114	0.045
-133.370	-25.704	0.148	-0.086
-132.356	-168.203	-0.292	0.011
-131.341	30.973	-0.179	0.151
-130.326	-28.132	-0.134	0.076
-129.312	-57.546	0.347	0.150
-128.297	800.000	-0.029	-0.115
-127.283	-200.000	0.048	0.262
-126.268	244.754	-0.069	0.114
-125.253	-200.000	-0.004	0.142
-124.239	-5.788	-0.231	0.156
-123.224	-135.327	-0.250	0.030
-122.210	9.384	-0.164	-0.122
-121.195	364.770	-0.088	0.174
-120.180	-101.050	-0.104	0.025
