DTS Sentinel unit serial number:	SN413079Multiplexer serial number:	ORYXHardware model number:	OX4-SRSoftware version number:	ORYX F/W v4.00 Oryx Data Collector v3.7.2.0data status	okinstallation	princeton_trtdifferential loss correction	single-endedforward channel	channel 1reverse channel	N/Adate	2019/09/12time	13:04:11forward acquisition time	60.00reverse acquisition time	0.00gamma	496.2192k internal	0.2291k external	0.2291temperature offset calibration	1.0036default loss term (dB/km)	0.3790temperature slope calibration	1.0000multiplexer offset coefficient	1.0000multiplexer slope coefficient	1.0000fibre end	0.00T internal ref (°C)	40.98T ext. ref 1 (°C)	2.00T ext. ref 2 (°C)	36.52length (m)	temperature (°C)	Stokes	anti-Stokes-747.200	-14.225	0.147	-0.097
-746.185	-200.000	-0.016	-0.225
-745.171	426.417	-0.112	-0.246
-744.156	-171.452	-0.126	0.004
-743.142	-175.673	0.043	-0.001
-742.127	-26.873	-0.208	0.125
-741.112	149.640	-0.060	0.083
-740.098	61.535	-0.038	0.039
-739.083	-128.563	-0.110	-0.016
-738.069	-200.000	-0.023	0.379
-737.054	248.849	0.167	-0.290
-736.039	-100.918	-0.142	-0.036
-735.025	-200.000	-0.007	0.248
-734.010	-37.519	-0.392	-0.214
-732.996	-200.000	-0.006	-0.088
-731.981	185.591	0.106	0.161
-730.966	152.010	-0.125	0.174
-729.952	800.000	-0.035	-0.141
-728.937	-89.480	0.156	-0.047
-727.923	25.667	-0.201	0.171
-726.908	-136.733	-0.479	0.057
-725.894	-101.533	0.053	0.013
-724.879	-35.435	-0.329	0.183
-723.864	266.294	0.023	0.042
-722.850	-200.000	-0.003	0.096
-721.835	-42.012	-0.130	0.068
-720.821	38.721	-0.236	-0.216
-719.806	-61.516	0.161	-0.069
-718.791	-200.000	0.059	-0.269
-717.777	-35.338	0.156	-0.087
-716.762	71.599	-0.092	0.097
-715.748	463.130	0.088	0.200
-714.733	-26.891	-0.151	0.090
-713.718	-200.000	-0.024	-0.278
-712.704	129.041	0.047	-0.062
-711.689	-52.450	-0.152	0.072
-710.675	379.458	-0.101	0.211
-709.660	93.234	0.019	0.022
-708.645	-84.540	0.136	0.044
-707.631	-200.000	0.012	-0.161
-706.616	197.605	-0.195	-0.305
-705.602	-132.706	0.090	0.012
-704.587	-19.703	-0.185	0.117
-703.572	83.746	-0.028	0.031
-702.558	-99.007	-0.293	0.076
-701.543	-77.367	0.268	-0.095
-700.529	182.312	0.048	-0.072
-699.514	30.208	0.315	-0.275
-698.499	-200.000	-0.005	0.091
-697.485	-38.123	-0.124	-0.067
-696.470	119.598	0.214	0.271
-695.456	511.227	-0.184	-0.438
-694.441	-19.022	0.410	-0.261
-693.426	138.604	0.113	0.152
-692.412	168.801	0.075	-0.109
-691.397	-159.578	0.162	-0.009
-690.383	170.654	0.028	-0.041
-689.368	-109.075	-0.490	0.107
-688.354	87.225	-0.116	0.131
-687.339	80.222	-0.043	0.047
-686.324	-200.000	-0.039	-0.197
-685.310	-42.261	0.096	0.050
-684.295	408.196	-0.014	-0.030
-683.281	-200.000	-0.017	0.180
-682.266	-156.566	-0.271	0.017
-681.251	-89.273	-0.027	0.008
-680.237	73.695	-0.098	-0.105
-679.222	17.100	-0.165	-0.133
-678.208	215.645	0.055	-0.088
-677.193	-200.000	0.024	-0.266
-676.178	-68.649	-0.327	0.129
-675.164	-78.611	-0.084	-0.029
-674.149	6.430	0.144	0.109
-673.135	-144.324	-0.290	-0.028
-672.120	-200.000	0.032	-0.252
-671.105	332.928	0.051	-0.101
-670.091	-149.026	0.074	-0.006
-669.076	-200.000	-0.025	-0.277
-668.062	-164.968	-0.385	0.018
-667.047	-55.536	-0.277	0.127
-666.032	-200.000	-0.028	0.179
-665.018	-138.400	0.108	-0.012
-664.003	-200.000	0.001	0.390
-662.989	800.000	-0.182	0.563
-661.974	368.678	0.023	0.048
-660.959	103.546	0.141	0.169
-659.945	-118.067	-0.177	0.032
-658.930	-200.000	0.001	0.107
-657.916	-105.333	-0.158	-0.037
-656.901	-61.082	-0.177	-0.076
-655.886	800.000	-0.043	0.143
-654.872	28.712	-0.107	-0.093
-653.857	-40.347	-0.047	-0.025
-652.843	-65.259	0.130	-0.053
-651.828	48.073	-0.162	0.154
-650.814	724.840	-0.030	-0.082
-649.799	269.616	-0.115	-0.207
-648.784	281.449	-0.227	-0.414
-647.770	428.154	0.025	0.055
-646.755	-200.000	0.036	-0.239
-645.741	35.882	-0.125	-0.112
-644.726	-165.062	0.317	-0.014
-643.711	630.288	0.026	-0.067
-642.697	-75.505	0.206	0.075
-641.682	-119.044	0.200	0.036
-640.668	-110.222	0.086	0.018
-639.653	800.000	0.047	0.183
-638.638	-90.525	-0.328	-0.097
-637.624	-96.932	0.094	-0.025
-636.609	-13.326	0.253	0.167
-635.595	160.305	-0.269	0.383
-634.580	-165.977	-0.184	-0.008
-633.565	262.742	-0.034	0.060
-632.551	29.141	-0.085	-0.074
-631.536	-200.000	0.029	-0.137
-630.522	165.696	0.157	0.226
-629.507	-200.000	0.027	-0.177
-628.492	-41.650	-0.137	0.072
-627.478	297.068	-0.172	0.322
-626.463	800.000	-0.035	0.128
-625.449	320.804	0.145	0.281
-624.434	-83.268	-0.289	-0.095
-623.419	-45.670	-0.231	0.116
-622.405	173.851	0.223	-0.329
-621.390	-71.732	0.193	-0.073
-620.376	-200.000	0.024	0.329
-619.361	800.000	0.042	0.181
-618.346	37.606	-0.075	0.068
-617.332	-200.000	0.039	-0.195
-616.317	1.443	-0.171	-0.125
-615.303	-98.078	0.427	-0.112
-614.288	800.000	-0.075	0.213
-613.273	-200.000	0.027	-0.131
-612.259	-22.663	0.340	-0.209
-611.244	-40.551	0.206	0.109
-610.230	800.000	0.016	0.051
-609.215	-45.261	-0.291	0.147
-608.201	-138.218	0.108	-0.012
-607.186	25.201	-0.118	-0.100
-606.171	800.000	-0.130	-0.388
-605.157	-166.914	-0.216	-0.009
-604.142	800.000	-0.034	-0.121
-603.128	-41.653	-0.108	0.057
-602.113	-19.455	0.100	0.063
-601.098	-177.405	-0.362	0.009
-600.084	-65.470	0.064	-0.026
-599.069	-89.905	0.127	0.038
-598.055	-90.640	-0.059	0.017
-597.040	-200.000	0.025	0.141
-596.025	-72.654	0.341	0.128
-595.011	-100.624	0.256	-0.064
-593.996	-111.829	0.318	-0.065
-592.982	-55.754	-0.057	-0.026
-591.967	-200.000	-0.011	0.092
-590.952	800.000	-0.092	0.334
-589.938	-27.189	-0.128	-0.076
-588.923	140.576	0.092	-0.123
-587.909	-36.753	0.169	-0.093
-586.894	-98.033	0.199	-0.052
-585.879	-200.000	0.048	0.285
-584.865	69.119	0.111	-0.116
-583.850	-144.355	0.365	0.035
-582.836	-18.785	-0.083	-0.053
-581.821	6.649	0.082	-0.062
-580.806	-200.000	-0.013	-0.132
-579.792	57.775	-0.162	-0.162
-578.777	212.738	0.080	-0.128
-577.763	152.428	0.197	0.273
-576.748	-128.164	-0.173	-0.025
-575.733	-21.974	0.270	-0.167
-574.719	197.723	-0.130	0.201
-573.704	800.000	-0.098	-0.391
-572.690	-200.000	-0.015	-0.077
-571.675	75.398	-0.224	-0.241
-570.661	800.000	0.075	0.217
-569.646	350.782	0.033	0.066
-568.631	290.679	-0.127	0.234
-567.617	552.745	0.163	0.398
-566.602	800.000	0.111	-0.422
-565.588	55.288	0.015	0.015
-564.573	-175.177	-0.074	-0.002
-563.558	113.429	0.299	0.369
-562.544	610.747	0.091	-0.231
-561.529	8.685	0.089	-0.068
-560.515	-123.401	-0.471	-0.076
-559.500	-5.642	-0.105	0.073
-558.485	-200.000	0.010	-0.210
-557.471	800.000	-0.042	0.148
-556.456	184.259	-0.199	0.299
-555.442	-53.575	0.338	-0.157
-554.427	-6.118	-0.112	-0.078
-553.412	61.295	-0.190	0.191
-552.398	424.271	-0.129	0.281
-551.383	-200.000	0.021	0.192
-550.369	66.389	-0.039	-0.040
-549.354	-76.799	-0.298	0.106
-548.339	350.448	-0.149	0.300
-547.325	-189.356	-0.112	-0.001
-546.310	-15.215	-0.312	0.203
-545.296	440.787	-0.081	-0.179
-544.281	-169.187	-0.256	-0.010
-543.266	155.677	-0.156	-0.218
-542.252	121.808	-0.046	-0.059
-541.237	-34.648	-0.215	0.120
-540.223	-13.240	0.090	0.060
-539.208	-200.000	0.029	0.356
-538.193	726.731	0.099	-0.268
-537.179	-82.354	-0.134	0.044
-536.164	-146.495	0.450	0.040
-535.150	800.000	0.105	0.327
-534.135	-103.012	0.482	0.116
-533.121	-42.400	-0.171	0.089
-532.106	14.125	0.155	-0.123
-531.091	761.918	-0.178	0.490
-530.077	40.885	-0.056	-0.051
-529.062	-200.000	-0.026	-0.252
-528.048	133.180	-0.113	-0.148
-527.033	-162.321	-0.279	0.014
-526.018	-128.651	0.131	0.019
-525.004	-200.000	0.005	-0.153
-523.989	-66.426	0.188	0.076
-522.975	-200.000	0.007	0.125
-521.960	71.028	-0.316	-0.332
-520.945	-57.957	0.417	-0.185
-519.931	-147.350	-0.238	0.020
-518.916	227.572	-0.107	-0.177
-517.902	800.000	0.052	-0.147
-516.887	-94.666	-0.288	-0.080
-515.872	52.363	0.096	-0.093
-514.858	800.000	-0.062	0.175
-513.843	-148.555	0.269	-0.022
-512.829	-78.494	-0.185	0.064
-511.814	-26.044	0.177	-0.105
-510.799	99.726	0.060	0.071
-509.785	10.534	0.040	-0.031
-508.770	-156.504	0.075	-0.005
-507.756	389.381	-0.077	0.163
-506.741	123.010	0.190	-0.241
-505.726	-200.000	0.028	-0.155
-504.712	-200.000	-0.028	-0.171
-503.697	-200.000	0.037	-0.358
-502.683	61.982	0.179	-0.181
-501.668	800.000	0.030	0.095
-500.653	85.804	-0.126	0.140
-499.639	-128.790	0.134	-0.019
-498.624	-130.574	-0.283	-0.039
-497.610	70.303	0.086	0.090
-496.595	334.947	-0.045	0.088
-495.581	11.283	0.026	-0.020
-494.566	162.882	0.079	0.112
-493.551	-200.000	0.005	-0.083
-492.537	-36.124	0.121	0.066
-491.522	-67.123	0.099	-0.039
-490.508	80.281	0.240	0.262
-489.493	99.733	0.023	-0.027
-488.478	-30.851	0.234	0.134
-487.464	-120.473	-0.348	0.060
-486.449	272.479	-0.092	0.164
-485.435	-122.616	0.111	0.018
-484.420	-156.941	0.174	-0.011
-483.405	-121.896	0.239	-0.040
-482.391	-85.978	-0.214	0.067
-481.376	-200.000	-0.009	0.086
-480.362	-61.912	0.329	0.139
-479.347	182.738	0.073	-0.109
-478.332	-155.241	-0.279	0.018
-477.318	-200.000	-0.009	-0.063
-476.303	14.811	-0.233	-0.184
-475.289	-200.000	-0.017	0.128
-474.274	95.704	0.109	0.127
-473.259	-200.000	0.015	0.367
-472.245	-200.000	0.061	-0.316
-471.230	800.000	0.037	0.134
-470.216	-57.745	0.279	-0.124
-469.201	212.124	0.022	-0.035
-468.186	11.071	-0.138	-0.107
-467.172	38.225	-0.189	0.171
-466.157	-79.225	-0.194	-0.066
-465.143	-200.000	-0.001	-0.198
-464.128	152.533	-0.092	0.127
-463.113	49.764	0.051	-0.049
-462.099	-200.000	0.005	-0.414
-461.084	-195.481	0.098	-0.001
-460.070	728.091	0.094	0.255
-459.055	106.203	0.206	0.247
-458.040	-128.584	0.371	0.053
-457.026	187.785	-0.087	0.131
-456.011	-116.987	-0.292	0.054
-454.997	181.543	0.053	0.079
-453.982	-104.104	0.277	0.065
-452.968	66.756	0.125	0.129
-451.953	-200.000	0.037	-0.173
-450.938	762.051	0.042	-0.115
-449.924	-35.284	0.066	-0.037
-448.909	112.507	0.228	0.279
-447.895	800.000	-0.009	0.038
-446.880	-11.355	-0.370	0.247
-445.865	-200.000	0.080	-0.365
-444.851	-200.000	-0.027	-0.235
-443.836	133.061	-0.083	-0.108
-442.822	56.078	0.172	-0.169
-441.807	-200.000	0.018	-0.193
-440.792	-200.000	0.021	0.157
-439.778	-36.977	0.134	-0.073
-438.763	-37.415	-0.337	0.182
-437.749	605.688	0.067	0.169
-436.734	-106.726	0.042	0.009
-435.719	-200.000	-0.007	-0.310
-434.705	-118.739	0.274	-0.049
-433.690	-200.000	0.021	0.194
-432.676	-111.282	-0.202	-0.042
-431.661	92.574	-0.412	-0.470
-430.646	-200.000	-0.053	-0.409
-429.632	-127.741	-0.157	-0.023
-428.617	-110.624	0.410	-0.086
-427.603	-39.852	0.203	0.107
-426.588	282.355	0.103	0.186
-425.573	71.488	-0.088	0.093
-424.559	15.143	-0.188	-0.149
-423.544	-124.895	-0.286	0.045
-422.530	-165.220	-0.056	-0.003
-421.515	-200.000	0.007	0.034
-420.500	-160.187	-0.241	-0.013
-419.486	-163.537	0.133	-0.006
-418.471	-105.881	-0.030	-0.007
-417.457	174.659	0.119	0.174
-416.442	-75.892	-0.179	-0.064
-415.428	-200.000	0.001	-0.043
-414.413	-108.702	0.192	-0.042
-413.398	800.000	0.041	-0.136
-412.384	-79.699	0.260	-0.089
-411.369	-47.777	0.136	-0.067
-410.355	255.003	0.101	-0.176
-409.340	-200.000	0.040	0.358
-408.325	15.775	0.343	0.272
-407.311	-200.000	0.004	-0.454
-406.296	-157.759	-0.138	-0.008
-405.282	-61.603	0.231	-0.098
-404.267	260.916	-0.140	-0.244
-403.252	433.890	0.147	0.323
-402.238	199.745	0.104	0.162
-401.223	-200.000	0.006	-0.366
-400.209	159.568	-0.084	-0.118
-399.194	42.926	-0.141	0.130
-398.179	-200.000	0.026	-0.389
-397.165	212.839	0.082	-0.130
-396.150	-200.000	0.055	-0.315
-395.136	800.000	0.075	0.238
-394.121	-76.537	0.315	-0.112
-393.106	411.829	0.147	-0.316
-392.092	800.000	0.012	-0.043
-391.077	-127.957	-0.121	-0.018
-390.063	-200.000	-0.054	0.239
-389.048	37.004	-0.167	0.150
-388.033	6.550	-0.026	-0.020
-387.019	-200.000	-0.027	0.149
-386.004	800.000	-0.008	0.024
-384.990	247.098	-0.166	0.283
-383.975	800.000	0.047	-0.202
-382.960	209.452	0.052	0.083
-381.946	-1.921	0.151	-0.107
-380.931	11.684	-0.150	-0.116
-379.917	269.011	0.149	0.264
-378.902	-62.788	-0.462	0.193
-377.888	741.172	0.108	0.292
-376.873	10.939	-0.221	0.170
-375.858	800.000	0.059	-0.193
-374.844	68.388	-0.159	0.164
-373.829	115.012	0.026	-0.032
-372.815	-200.000	-0.015	0.258
-371.800	-8.991	-0.204	0.138
-370.785	-32.823	-0.048	0.027
-369.771	-31.300	-0.159	0.090
-368.756	-200.000	-0.084	0.432
-367.742	-107.773	-0.453	-0.100
-366.727	63.490	-0.321	0.325
-365.712	289.620	-0.129	-0.235
-364.698	292.292	-0.085	0.156
-363.683	-66.977	-0.199	0.079
-362.669	97.619	-0.020	0.023
-361.654	-200.000	0.000	-0.011
-360.639	-200.000	-0.015	0.236
-359.625	-8.348	0.112	-0.076
-358.610	-113.522	-0.241	0.048
-357.596	-24.598	-0.289	0.173
-356.581	34.028	-0.094	-0.083
-355.566	-200.000	0.037	-0.200
-354.552	-200.000	-0.024	-0.235
-353.537	-171.416	0.247	-0.008
-352.523	74.348	-0.064	0.068
-351.508	-187.360	0.208	0.003
-350.493	-129.572	-0.143	-0.020
-349.479	168.146	-0.154	0.222
-348.464	94.208	-0.068	-0.077
-347.450	416.373	-0.094	0.201
-346.435	-31.598	0.369	0.209
-345.420	506.772	0.033	-0.078
-344.406	99.394	0.090	0.105
-343.391	-158.445	-0.170	-0.010
-342.377	-200.000	-0.050	-0.251
-341.362	-66.876	0.228	-0.091
-340.348	-200.000	-0.012	-0.281
-339.333	224.654	0.147	-0.240
-338.318	-200.000	-0.021	-0.138
-337.304	-44.805	-0.069	-0.035
-336.289	67.968	-0.191	-0.197
-335.275	-174.826	0.204	-0.006
-334.260	-200.000	-0.002	0.108
-333.245	800.000	-0.061	0.188
-332.231	-94.412	-0.284	-0.078
-331.216	450.048	0.050	0.111
-330.202	96.129	0.208	0.239
-329.187	800.000	0.098	0.347
-328.172	685.733	0.096	-0.253
-327.158	-200.000	0.035	-0.164
-326.143	43.737	0.186	-0.171
-325.129	-146.148	0.154	-0.014
-324.114	-38.535	-0.190	-0.101
-323.099	-165.706	-0.276	-0.012
-322.085	-200.000	0.002	0.146
-321.070	800.000	0.152	0.564
-320.056	-48.536	0.151	0.073
-319.041	-200.000	0.005	-0.259
-318.026	800.000	0.047	-0.129
-317.012	697.897	0.100	0.264
-315.997	-65.404	0.286	-0.116
-314.983	-136.649	0.075	0.009
-313.968	-131.354	0.081	0.011
-312.953	-185.517	0.096	-0.001
-311.939	-76.012	-0.244	-0.087
-310.924	23.377	-0.139	-0.115
-309.910	-153.689	-0.159	-0.011
-308.895	195.442	-0.032	0.049
-307.880	-178.758	0.136	-0.003
-306.866	653.926	0.083	-0.214
-305.851	-107.760	0.166	-0.037
-304.837	353.829	-0.089	0.178
-303.822	-200.000	-0.038	0.222
-302.807	-45.663	-0.054	-0.027
-301.793	471.813	-0.040	-0.091
-300.778	-55.597	-0.026	0.012
-299.764	156.681	0.076	0.106
-298.749	400.042	0.066	-0.139
-297.735	800.000	0.086	0.257
-296.720	199.151	-0.115	-0.177
-295.705	-200.000	-0.021	0.141
-294.691	-119.598	0.326	-0.057
-293.676	370.286	-0.094	-0.192
-292.662	68.735	-0.044	0.045
-291.647	731.870	0.053	-0.143
-290.632	91.082	-0.230	0.260
-289.618	-53.570	-0.101	0.046
-288.603	-44.008	-0.091	0.046
-287.589	-54.074	-0.146	0.067
-286.574	191.565	-0.123	0.186
-285.559	-102.502	-0.096	-0.023
-284.545	-127.191	-0.290	0.043
-283.530	-0.274	0.127	0.091
-282.516	-200.000	-0.069	-0.318
-281.501	800.000	0.097	-0.288
-280.486	687.620	0.151	0.396
-279.472	-163.557	-0.103	0.005
-278.457	-200.000	-0.041	-0.373
-277.443	-116.165	0.073	0.014
-276.428	-115.149	0.208	0.040
-275.413	481.300	-0.048	-0.110
-274.399	-200.000	0.039	0.303
-273.384	-120.113	-0.218	0.038
-272.370	-200.000	-0.021	-0.231
-271.355	-6.642	-0.290	-0.199
-270.340	-36.310	-0.185	-0.100
-269.326	46.152	0.135	0.125
-268.311	224.564	0.110	0.178
-267.297	136.677	-0.133	0.174
-266.282	-84.754	0.280	0.089
-265.267	270.042	0.101	0.179
-264.253	-78.859	-0.140	0.048
-263.238	-152.191	0.088	-0.006
-262.224	-142.171	-0.192	0.019
-261.209	-200.000	-0.031	-0.145
-260.195	242.809	0.161	-0.271
-259.180	-83.373	0.309	0.100
-258.165	505.497	-0.112	-0.262
-257.151	-200.000	0.007	-0.152
-256.136	257.855	0.167	-0.289
-255.122	-200.000	0.023	0.251
-254.107	-200.000	-0.006	-0.241
-253.092	-54.753	-0.241	-0.109
-252.078	800.000	-0.102	-0.329
-251.063	230.425	0.146	-0.240
-250.049	-157.440	-0.218	-0.013
-249.034	174.404	0.060	0.088
-248.019	800.000	0.116	0.322
-247.005	591.919	-0.020	0.049
-245.990	-96.961	0.078	0.020
-244.976	-113.189	-0.111	0.022
-243.961	-200.000	-0.009	-0.109
-242.946	388.589	0.141	-0.294
-241.932	-113.631	-0.363	0.071
-240.917	99.897	-0.051	0.059
-239.903	271.534	0.118	-0.209
-238.888	-7.485	0.189	-0.128
-237.873	246.804	-0.064	0.108
-236.859	-200.000	-0.001	0.064
-235.844	-39.003	0.172	0.091
-234.830	32.891	0.277	-0.241
-233.815	-104.797	-0.142	-0.033
-232.800	-121.107	-0.270	0.045
-231.786	252.102	-0.106	0.181
-230.771	-162.278	-0.095	-0.005
-229.757	800.000	0.050	-0.197
-228.742	107.552	-0.218	0.261
-227.727	71.237	-0.057	0.059
-226.713	800.000	0.036	0.128
-225.698	-6.379	-0.316	-0.216
-224.684	-200.000	0.021	-0.183
-223.669	-47.293	-0.334	-0.163
-222.655	314.294	0.251	0.475
-221.640	487.846	0.038	0.088
-220.625	-0.605	0.250	0.178
-219.611	-43.823	-0.249	0.126
-218.596	-89.417	-0.199	-0.059
-217.582	11.383	-0.211	-0.162
-216.567	-119.455	0.477	0.083
-215.552	-79.475	-0.151	-0.051
-214.538	-200.000	0.000	-0.231
-213.523	171.849	0.089	-0.128
-212.509	217.058	-0.189	-0.301
-211.494	-144.881	-0.137	-0.013
-210.479	800.000	-0.030	0.102
-209.465	-200.000	-0.015	0.106
-208.450	152.861	0.106	-0.146
-207.436	-92.417	0.067	-0.019
-206.421	-155.519	-0.135	0.009
-205.406	800.000	0.016	-0.068
-204.392	-91.675	-0.295	-0.084
-203.377	-153.782	-0.201	0.014
-202.363	800.000	0.027	0.112
-201.348	214.738	0.149	0.237
-200.333	-10.018	-0.077	0.051
-199.319	-132.619	0.156	-0.020
-198.304	-173.022	0.154	-0.005
-197.290	-200.000	0.012	0.472
-196.275	512.838	-0.105	-0.245
-195.260	800.000	0.053	-0.152
-194.246	-12.664	0.227	-0.148
-193.231	79.830	-0.059	-0.064
-192.217	-200.000	0.024	0.323
-191.202	437.140	-0.166	0.363
-190.187	-200.000	-0.021	0.091
-189.173	116.929	0.226	-0.278
-188.158	6.578	0.101	0.075
-187.144	753.117	-0.049	0.132
-186.129	-66.389	-0.127	-0.051
-185.114	-3.344	0.271	0.189
-184.100	-113.344	-0.346	-0.068
-183.085	-6.206	0.207	-0.142
-182.071	206.831	-0.025	0.038
-181.056	-200.000	0.021	-0.100
-180.042	187.183	-0.066	-0.098
-179.027	-145.267	0.125	0.011
-178.012	-53.449	0.123	0.056
-176.998	590.589	-0.138	0.341
-175.983	-200.000	0.002	-0.250
-174.969	163.099	0.055	0.077
-173.954	-200.000	0.011	-0.052
-172.939	281.898	-0.192	0.344
-171.925	800.000	0.056	-0.173
-170.910	-200.000	-0.023	-0.244
-169.896	-98.413	0.265	0.068
-168.881	-200.000	0.070	-0.333
-167.866	-125.930	-0.246	0.037
-166.852	-195.432	0.041	0.000
-165.837	56.737	0.022	-0.021
-164.823	-63.837	0.194	-0.080
-163.808	181.656	-0.082	-0.121
-162.793	-200.000	-0.032	-0.177
-161.779	-162.007	0.338	-0.017
-160.764	-7.483	-0.159	0.108
-159.750	-200.000	0.010	-0.205
-158.735	-21.553	0.196	0.119
-157.720	-160.604	0.298	-0.016
-156.706	-69.077	-0.116	-0.045
-155.691	-147.865	0.020	-0.002
-154.677	171.526	0.098	0.141
-153.662	209.414	-0.129	-0.203
-152.647	217.676	0.115	0.184
-151.633	-200.000	-0.034	0.214
-150.618	-178.639	0.213	-0.005
-149.604	207.971	0.014	0.022
-148.589	-56.655	-0.202	0.089
-147.574	89.549	-0.214	-0.238
-146.560	-200.000	0.000	-0.196
-145.545	-80.661	-0.205	0.068
-144.531	-23.428	0.356	0.214
-143.516	89.951	-0.186	0.207
-142.502	-200.000	0.038	0.170
-141.487	103.130	-0.198	0.232
-140.472	-200.000	0.029	0.178
-139.458	-200.000	-0.396	0.001
-138.443	800.000	-0.087	-0.242
-137.429	43.311	-0.100	-0.091
-136.414	22.516	-0.115	0.094
-135.399	102.173	0.066	0.077
-134.385	16.890	0.329	0.261
-133.370	56.809	0.100	-0.097
-132.356	-1.103	0.109	-0.077
-131.341	-200.000	-0.021	0.095
-130.326	215.999	-0.066	0.105
-129.312	800.000	-0.019	-0.080
-128.297	128.153	-0.076	-0.096
-127.283	-56.681	0.181	0.080
-126.268	-18.038	0.046	0.029
-125.253	-73.191	-0.123	0.045
-124.239	800.000	0.015	-0.064
-123.224	-101.840	-0.096	-0.023
