DTS Sentinel unit serial number:	SN413079Multiplexer serial number:	ORYXHardware model number:	OX4-SRSoftware version number:	ORYX F/W v4.00 Oryx Data Collector v3.7.2.0data status	okinstallation	princeton_trtdifferential loss correction	single-endedforward channel	channel 1reverse channel	N/Adate	2019/09/15time	19:02:36forward acquisition time	60.00reverse acquisition time	0.00gamma	496.2192k internal	0.2292k external	0.2292temperature offset calibration	0.9953default loss term (dB/km)	0.3790temperature slope calibration	1.0000multiplexer offset coefficient	1.0000multiplexer slope coefficient	1.0000fibre end	0.00T internal ref (°C)	41.89T ext. ref 1 (°C)	7.04T ext. ref 2 (°C)	31.36length (m)	temperature (°C)	Stokes	anti-Stokes-747.200	-64.372	0.194	-0.081
-746.185	84.686	0.155	0.173
-745.171	726.521	-0.069	0.187
-744.156	800.000	-0.031	-0.091
-743.142	-122.949	-0.170	-0.028
-742.127	-111.604	0.397	0.083
-741.112	67.150	-0.337	-0.352
-740.098	-200.000	-0.026	0.374
-739.083	-200.000	-0.008	-0.152
-738.069	122.287	-0.103	0.131
-737.054	-18.222	-0.150	-0.096
-736.039	-102.680	-0.273	-0.067
-735.025	189.203	-0.259	0.398
-734.010	252.844	-0.162	0.283
-732.996	-69.294	0.235	-0.092
-731.981	-117.855	-0.172	-0.032
-730.966	294.874	-0.077	-0.145
-729.952	53.824	0.086	0.084
-728.937	141.396	-0.036	0.049
-727.923	165.968	-0.147	-0.213
-726.908	29.442	0.157	0.136
-725.894	375.251	-0.054	-0.113
-724.879	245.085	0.056	0.096
-723.864	89.574	-0.171	-0.196
-722.850	591.185	0.024	0.061
-721.835	10.307	-0.078	0.061
-720.821	262.936	-0.061	-0.108
-719.806	86.015	-0.157	-0.177
-718.791	18.443	-0.126	-0.103
-717.777	81.313	0.143	0.158
-716.762	-50.355	-0.128	-0.062
-715.748	-200.000	-0.030	-0.368
-714.733	-200.000	0.290	0.000
-713.718	83.273	0.198	0.220
-712.704	-170.406	0.221	-0.008
-711.689	-148.386	0.348	-0.029
-710.675	-200.000	0.004	0.057
-709.660	420.944	-0.048	0.105
-708.645	-200.000	0.067	0.301
-707.631	374.593	0.098	0.203
-706.616	-139.376	0.213	-0.023
-705.602	-77.506	0.194	-0.069
-704.587	-56.613	-0.285	0.129
-703.572	-66.335	0.166	-0.067
-702.558	105.520	0.244	-0.295
-701.543	-164.062	0.092	0.004
-700.529	458.215	-0.200	-0.454
-699.514	-200.000	0.005	-0.187
-698.499	-200.000	-0.047	-0.300
-697.485	367.450	-0.129	-0.266
-696.470	460.585	-0.052	0.119
-695.456	-81.459	0.368	-0.124
-694.441	86.424	-0.169	0.191
-693.426	10.649	0.164	0.128
-692.412	-200.000	0.027	-0.134
-691.397	800.000	0.107	0.403
-690.383	1.443	0.059	-0.044
-689.368	-200.000	-0.007	-0.215
-688.354	-3.749	0.215	-0.152
-687.339	240.750	0.148	0.252
-686.324	-200.000	-0.001	0.151
-685.310	-42.507	-0.202	-0.105
-684.295	-69.714	-0.068	0.027
-683.281	-151.284	0.195	0.015
-682.266	-200.000	0.017	-0.284
-681.251	221.240	0.049	-0.081
-680.237	-116.769	0.253	0.047
-679.222	94.350	0.159	-0.184
-678.208	-94.286	-0.245	0.068
-677.193	-74.895	-0.433	0.158
-676.178	341.021	0.125	0.249
-675.164	78.908	-0.052	0.057
-674.149	-80.049	0.259	0.089
-673.135	800.000	-0.040	0.124
-672.120	-143.578	0.155	-0.015
-671.105	-96.907	-0.100	0.027
-670.091	131.911	-0.239	0.315
-669.076	99.805	0.045	0.053
-668.062	19.618	-0.096	0.079
-667.047	17.722	-0.406	0.330
-666.032	800.000	-0.064	-0.241
-665.018	45.960	-0.294	-0.277
-664.003	134.613	-0.117	0.155
-662.989	-200.000	-0.003	-0.137
-661.974	-200.000	0.043	-0.196
-660.959	-56.771	-0.200	-0.090
-659.945	-160.948	-0.225	-0.012
-658.930	-89.112	0.342	0.103
-657.916	-51.605	0.108	0.051
-656.901	-194.953	-0.261	-0.002
-655.886	-115.769	-0.130	0.025
-654.872	-125.393	0.272	0.042
-653.857	105.635	-0.062	-0.075
-652.843	239.812	-0.171	0.290
-651.828	800.000	-0.066	0.187
-650.814	410.490	-0.093	0.201
-649.799	-58.886	0.020	0.009
-648.784	67.183	0.058	-0.060
-647.770	-76.132	0.272	0.098
-646.755	-3.850	-0.097	-0.069
-645.741	26.568	-0.152	0.130
-644.726	129.101	0.048	0.062
-643.711	-200.000	-0.093	0.465
-642.697	225.655	0.164	0.270
-641.682	93.828	0.065	0.075
-640.668	66.778	-0.175	0.182
-639.653	100.379	-0.109	-0.129
-638.638	-27.392	-0.399	0.237
-637.624	207.289	0.077	-0.123
-636.609	722.037	0.070	0.190
-635.595	320.876	0.107	-0.207
-634.580	175.737	0.142	-0.210
-633.565	-37.028	-0.148	-0.081
-632.551	-140.282	0.277	0.030
-631.536	-81.692	-0.106	-0.035
-630.522	196.418	0.209	-0.325
-629.507	-200.000	0.071	0.356
-628.492	-139.198	-0.200	0.022
-627.478	-154.933	0.235	-0.016
-626.463	-142.733	0.215	0.021
-625.449	-121.102	0.161	0.027
-624.434	-80.731	-0.435	0.147
-623.419	-45.689	0.123	-0.062
-622.405	-200.000	0.037	-0.248
-621.390	-200.000	0.034	0.253
-620.376	-13.991	0.217	0.143
-619.361	72.351	-0.031	0.033
-618.346	-200.000	0.037	-0.275
-617.332	78.467	0.182	0.198
-616.317	800.000	0.070	0.248
-615.303	-200.000	-0.006	0.204
-614.288	-22.734	0.076	0.047
-613.273	-200.000	0.001	-0.150
-612.259	800.000	-0.076	0.228
-611.244	27.497	-0.298	-0.256
-610.230	-18.861	-0.521	0.331
-609.215	29.942	0.080	-0.069
-608.201	37.765	-0.085	0.077
-607.186	-200.000	-0.243	0.000
-606.171	80.336	-0.031	-0.034
-605.157	306.717	0.012	-0.022
-604.142	-145.423	-0.051	0.005
-603.128	465.219	0.050	-0.114
-602.113	-200.000	-0.001	0.114
-601.098	-34.740	0.208	-0.116
-600.084	-200.000	-0.001	0.234
-599.069	79.521	-0.228	-0.249
-598.055	-29.589	-0.143	0.083
-597.040	-117.764	-0.173	0.032
-596.025	96.293	-0.124	0.144
-595.011	-18.618	0.111	-0.070
-593.996	231.831	-0.044	-0.074
-592.982	-51.120	-0.338	0.161
-591.967	-103.784	-0.305	-0.073
-590.952	-151.201	0.075	0.006
-589.938	-11.558	-0.192	-0.129
-588.923	22.559	0.224	0.186
-587.909	-200.000	-0.000	-0.027
-586.894	-200.000	0.015	0.406
-585.879	-197.520	-0.065	-0.000
-584.865	-152.595	0.134	0.010
-583.850	-147.606	0.162	0.014
-582.836	800.000	0.042	0.149
-581.821	800.000	-0.042	-0.136
-580.806	-70.576	0.250	0.096
-579.792	-200.000	-0.000	0.083
-578.777	-122.890	-0.347	0.057
-577.763	-55.879	-0.180	-0.082
-576.748	250.936	0.061	-0.105
-575.733	800.000	-0.093	-0.279
-574.719	-107.633	-0.157	0.035
-573.704	-200.000	-0.038	0.204
-572.690	-67.750	-0.219	0.087
-571.675	-39.418	0.312	0.166
-570.661	800.000	-0.058	0.251
-569.646	231.113	-0.195	-0.325
-568.631	800.000	0.126	0.378
-567.617	752.676	-0.047	-0.130
-566.602	-10.013	0.356	0.240
-565.588	-134.302	0.069	0.009
-564.573	-2.312	-0.143	-0.102
-563.558	18.694	0.475	-0.386
-562.544	-104.747	0.302	-0.071
-561.529	38.820	0.038	0.035
-560.515	44.993	0.120	0.112
-559.500	14.104	0.195	-0.154
-558.485	633.762	0.090	0.232
-557.471	221.875	0.240	-0.392
-556.456	186.333	0.217	0.328
-555.442	-68.818	0.240	0.094
-554.427	-200.000	0.005	-0.388
-553.412	-65.142	-0.370	0.152
-552.398	-200.000	-0.013	-0.096
-551.383	-32.131	0.147	-0.083
-550.369	52.181	0.174	-0.169
-549.354	-21.973	-0.109	-0.067
-548.339	34.699	-0.110	0.098
-547.325	-200.000	-0.054	0.440
-546.310	-200.000	-0.047	0.255
-545.296	70.687	-0.051	0.053
-544.281	-1.098	-0.120	0.086
-543.266	-116.952	-0.112	-0.021
-542.252	-21.244	-0.207	0.129
-541.237	-134.446	-0.221	-0.027
-540.223	-76.903	0.255	0.091
-539.208	800.000	0.058	0.197
-538.193	-155.052	0.192	-0.013
-537.179	11.807	-0.147	0.115
-536.164	-124.434	-0.063	-0.010
-535.150	-91.290	-0.204	-0.059
-534.135	214.993	0.086	-0.139
-533.121	131.662	-0.126	0.165
-532.106	541.153	0.111	-0.268
-531.091	800.000	0.117	-0.392
-530.077	800.000	0.109	-0.344
-529.062	3.764	-0.057	0.042
-528.048	348.235	-0.030	0.061
-527.033	-186.293	0.104	0.002
-526.018	34.483	0.065	-0.058
-525.004	-200.000	0.001	0.060
-523.989	-200.000	0.029	0.384
-522.975	24.263	0.106	0.089
-521.960	-112.045	-0.134	0.027
-520.945	361.958	0.091	0.186
-519.931	622.259	-0.112	-0.286
-518.916	-24.579	0.133	0.080
-517.902	-108.839	0.086	-0.019
-516.887	-52.291	0.041	0.019
-515.872	800.000	0.021	0.072
-514.858	-98.689	-0.027	-0.007
-513.843	-103.071	-0.078	-0.019
-512.829	-48.669	-0.231	-0.113
-511.814	800.000	0.089	0.250
-510.799	-8.186	-0.407	0.278
-509.785	116.679	-0.222	0.276
-508.770	800.000	-0.084	0.263
-507.756	-134.869	-0.300	-0.037
-506.741	-200.000	0.035	-0.157
-505.726	-146.262	-0.296	-0.026
-504.712	-200.000	0.035	0.257
-503.697	-31.173	0.235	-0.134
-502.683	641.814	0.054	-0.140
-501.668	23.630	-0.063	0.053
-500.653	-200.000	0.000	0.048
-499.639	-46.574	-0.079	-0.039
-498.624	49.517	-0.124	-0.118
-497.610	-200.000	-0.026	0.183
-496.595	71.315	-0.050	0.052
-495.581	149.232	-0.077	0.106
-494.566	-200.000	0.007	-0.230
-493.551	41.768	0.208	-0.191
-492.537	-200.000	0.006	-0.245
-491.522	5.908	0.170	-0.128
-490.508	-21.926	0.146	-0.090
-489.493	446.615	0.086	-0.192
-488.478	494.128	-0.089	-0.207
-487.464	22.912	-0.125	-0.104
-486.449	-200.000	-0.022	-0.240
-485.435	-200.000	0.028	0.209
-484.420	-200.000	-0.012	-0.140
-483.405	-200.000	0.015	0.190
-482.391	-167.535	0.197	-0.008
-481.376	5.223	-0.214	-0.160
-480.362	-115.825	-0.292	0.055
-479.347	-20.958	0.124	-0.077
-478.332	668.510	-0.101	0.265
-477.318	-200.000	-0.001	0.156
-476.303	185.168	-0.114	0.172
-475.289	-120.570	0.175	-0.030
-474.274	78.539	0.207	0.224
-473.259	47.999	-0.321	-0.303
-472.245	800.000	-0.017	-0.059
-471.230	40.725	0.019	-0.017
-470.216	63.356	0.048	0.049
-469.201	-190.313	-0.111	-0.001
-468.186	-16.288	-0.147	0.095
-467.172	-200.000	0.031	-0.230
-466.157	-39.935	0.254	-0.134
-465.143	315.902	0.117	-0.223
-464.128	-200.000	0.002	-0.091
-463.113	-24.132	0.201	0.122
-462.099	800.000	0.011	0.044
-461.084	-59.503	0.105	0.046
-460.070	44.904	-0.222	0.207
-459.055	53.994	0.098	0.095
-458.040	-121.692	0.211	0.035
-457.026	203.360	0.082	-0.129
-456.011	-200.000	0.003	0.039
-454.997	142.565	0.330	-0.443
-453.982	37.289	0.165	-0.148
-452.968	-83.945	0.167	-0.054
-451.953	340.962	-0.126	-0.249
-450.938	696.090	0.105	0.278
-449.924	146.491	-0.156	0.213
-448.909	49.773	-0.042	0.040
-447.895	-143.056	-0.230	0.022
-446.880	-181.493	0.206	-0.004
-445.865	-186.152	0.410	-0.006
-444.851	135.067	0.027	-0.035
-443.836	411.775	-0.087	0.187
-442.822	96.327	-0.076	0.087
-441.807	341.583	0.135	-0.268
-440.792	-67.995	-0.083	0.033
-439.778	27.001	-0.192	-0.163
-438.763	-78.725	0.102	0.035
-437.749	-149.046	-0.321	-0.026
-436.734	-200.000	0.005	0.059
-435.719	30.268	0.172	-0.149
-434.705	413.707	-0.053	0.114
-433.690	378.718	-0.163	0.337
-432.676	-200.000	0.001	-0.048
-431.661	-138.129	-0.291	-0.033
-430.646	415.540	-0.040	-0.086
-429.632	359.063	-0.061	0.123
-428.617	620.517	0.179	0.455
-427.603	348.216	-0.099	0.197
-426.588	23.809	-0.152	-0.126
-425.573	-14.705	-0.070	-0.045
-424.559	313.837	0.026	-0.050
-423.544	173.140	-0.150	0.219
-422.530	-200.000	0.038	-0.266
-421.515	-200.000	0.003	0.129
-420.500	-73.309	-0.028	0.010
-419.486	111.551	-0.211	-0.258
-418.471	-200.000	-0.003	-0.142
-417.457	513.233	-0.111	0.261
-416.442	264.417	-0.070	-0.123
-415.428	-105.355	0.259	-0.060
-414.413	-200.000	-0.013	0.292
-413.398	215.268	0.081	-0.130
-412.384	438.006	0.137	-0.302
-411.369	-36.717	-0.100	-0.054
-410.355	-200.000	0.029	0.141
-409.340	-200.000	0.051	-0.271
-408.325	800.000	0.135	0.384
-407.311	318.703	-0.074	-0.142
-406.296	-12.124	0.164	-0.109
-405.282	337.611	-0.101	0.199
-404.267	-105.919	-0.303	-0.069
-403.252	-9.831	-0.062	0.042
-402.238	800.000	-0.077	0.247
-401.223	86.390	-0.107	-0.120
-400.209	-154.088	-0.181	0.012
-399.194	126.237	-0.154	-0.197
-398.179	24.292	-0.488	-0.407
-397.165	44.543	-0.095	-0.088
-396.150	-61.140	-0.187	-0.079
-395.136	156.744	0.151	-0.210
-394.121	-145.286	0.157	-0.014
-393.106	525.275	-0.141	-0.335
-392.092	800.000	0.056	-0.195
-391.077	-200.000	-0.033	-0.167
-390.063	-28.416	0.224	0.130
-389.048	-25.581	-0.297	-0.177
-388.033	24.163	-0.237	-0.197
-387.019	223.597	0.207	0.338
-386.004	78.254	-0.069	0.074
-384.990	254.903	-0.152	-0.263
-383.975	-200.000	0.021	0.184
-382.960	224.505	-0.057	0.093
-381.946	-200.000	-0.002	-0.101
-380.931	-97.937	-0.289	0.075
-379.917	-200.000	0.009	-0.119
-378.902	121.544	0.270	-0.340
-377.888	-35.542	-0.211	0.115
-376.873	-135.709	0.167	-0.020
-375.858	800.000	-0.079	-0.302
-374.844	-94.426	-0.328	0.090
-373.829	-11.230	0.205	-0.136
-372.815	800.000	0.006	0.022
-371.800	-12.813	0.159	-0.105
-370.785	-123.646	-0.270	0.043
-369.771	212.735	0.014	-0.022
-368.756	800.000	-0.038	0.111
-367.742	-63.278	-0.226	0.094
-366.727	800.000	-0.126	0.373
-365.712	-9.302	-0.148	0.100
-364.698	26.485	0.253	-0.213
-363.683	-10.703	-0.293	0.195
-362.669	10.763	-0.086	-0.066
-361.654	-200.000	0.022	-0.192
-360.639	292.665	0.123	0.226
-359.625	800.000	-0.056	0.228
-358.610	-115.970	-0.135	0.025
-357.596	-86.808	-0.261	0.080
-356.581	197.470	-0.040	-0.061
-355.566	-140.415	-0.389	-0.041
-354.552	-96.865	0.081	-0.021
-353.537	76.046	0.192	0.205
-352.523	42.414	0.081	-0.074
-351.508	-24.756	0.193	0.116
-350.493	-175.460	0.050	0.001
-349.479	-115.093	0.160	0.031
-348.464	406.642	0.027	-0.058
-347.450	-52.597	-0.258	-0.120
-346.435	-79.898	-0.145	0.049
-345.420	469.902	-0.061	-0.138
-344.406	-180.542	-0.180	0.004
-343.391	507.389	-0.102	0.238
-342.377	-200.000	0.014	0.226
-341.362	584.265	-0.144	0.357
-340.348	-200.000	-0.053	-0.375
-339.333	-104.562	-0.107	-0.025
-338.318	107.098	0.270	0.324
-337.304	-3.935	0.074	-0.052
-336.289	-200.000	0.024	-0.338
-335.275	-74.750	-0.175	-0.063
-334.260	11.083	-0.190	0.146
-333.245	-200.000	0.004	0.305
-332.231	447.131	0.135	0.298
-331.216	12.819	-0.143	0.112
-330.202	-159.968	0.088	-0.005
-329.187	-113.131	-0.115	0.023
-328.172	379.871	-0.066	0.137
-327.158	90.862	0.293	0.331
-326.143	70.403	0.087	0.091
-325.129	-113.855	-0.558	-0.109
-324.114	64.275	-0.144	0.146
-323.099	117.151	-0.143	0.177
-322.085	82.857	0.052	0.057
-321.070	800.000	-0.058	-0.174
-320.056	-194.446	-0.410	0.003
-319.041	-87.022	0.279	-0.086
-318.026	-200.000	0.048	-0.213
-317.012	361.190	0.142	-0.287
-315.997	-70.930	-0.101	-0.038
-314.983	-29.911	-0.347	-0.199
-313.968	627.662	-0.083	-0.211
-312.953	398.672	0.069	0.146
-311.939	184.466	0.219	0.326
-310.924	545.302	-0.055	-0.131
-309.910	-93.001	0.413	0.116
-308.895	4.623	-0.115	0.085
-307.880	149.381	-0.195	-0.266
-306.866	-66.104	0.216	0.087
-305.851	446.413	0.055	-0.121
-304.837	51.891	-0.102	0.098
-303.822	-60.839	-0.032	-0.014
-302.807	-129.750	0.273	-0.038
-301.793	345.317	0.101	0.199
-300.778	-200.000	-0.012	0.129
-299.764	-200.000	0.004	-0.169
-298.749	-56.728	0.193	0.086
-297.735	390.439	0.094	0.196
-296.720	800.000	0.057	-0.217
-295.705	-85.309	0.477	0.150
-294.691	645.415	0.052	-0.133
-293.676	800.000	-0.027	0.101
-292.662	800.000	0.027	-0.077
-291.647	-79.673	0.322	-0.109
-290.632	-20.390	-0.244	-0.151
-289.618	-83.389	0.448	-0.144
-288.603	-200.000	0.010	-0.396
-287.589	-33.747	0.130	0.072
-286.574	-200.000	-0.039	0.200
-285.559	-76.797	0.453	-0.159
-284.545	-99.882	0.199	-0.050
-283.530	-184.698	0.380	0.006
-282.516	343.043	-0.119	-0.235
-281.501	54.736	-0.300	-0.291
-280.486	-141.724	-0.352	0.036
-279.472	-133.809	0.123	0.015
-278.457	43.805	-0.024	0.022
-277.443	800.000	0.038	-0.108
-276.428	-5.718	-0.100	-0.069
-275.413	140.789	0.126	-0.167
-274.399	-200.000	0.031	0.242
-273.384	-177.147	-0.390	-0.010
-272.370	-200.000	0.075	-0.332
-271.355	-200.000	-0.003	-0.162
-270.340	108.241	-0.064	0.076
-269.326	37.229	-0.034	-0.030
-268.311	-4.471	0.086	0.060
-267.297	-200.000	0.016	0.095
-266.282	-200.000	0.002	-0.262
-265.267	-11.378	0.102	-0.068
-264.253	201.132	0.041	0.063
-263.238	-120.406	0.165	0.028
-262.224	-187.542	0.292	-0.004
-261.209	-152.692	-0.150	0.011
-260.195	-121.774	0.213	0.035
-259.180	-73.473	-0.090	0.033
-258.165	-164.847	-0.253	0.011
-257.151	41.501	-0.119	-0.109
-256.136	-200.000	0.004	0.093
-255.122	96.608	0.028	0.032
-254.107	119.235	-0.117	-0.146
-253.092	-171.861	-0.246	0.008
-252.078	800.000	0.029	0.095
-251.063	-162.856	0.319	0.016
-250.049	-11.433	-0.184	0.122
-249.034	-157.909	0.286	0.017
-248.019	-122.808	0.139	0.023
-247.005	-0.997	0.132	0.094
-245.990	800.000	-0.151	0.501
-244.976	-139.297	-0.040	0.004
-243.961	505.844	0.084	-0.196
-242.946	-48.817	0.224	-0.108
-241.932	800.000	0.092	-0.270
-240.917	-200.000	-0.004	-0.448
-239.903	-127.388	0.402	-0.059
-238.888	800.000	0.128	0.361
-237.873	263.139	-0.181	0.316
-236.859	-64.683	0.271	-0.110
-235.844	-200.000	0.028	-0.175
-234.830	16.771	0.131	0.104
-233.815	222.711	-0.060	-0.098
-232.800	-200.000	0.010	-0.181
-231.786	-31.461	0.098	0.055
-230.771	513.871	-0.167	0.390
-229.757	-96.170	0.112	-0.030
-228.742	800.000	-0.114	-0.316
-227.727	-73.172	-0.262	-0.096
-226.713	-28.730	-0.152	-0.088
-225.698	800.000	-0.032	0.113
-224.684	98.754	0.096	0.111
-223.669	492.318	0.095	-0.218
-222.655	-29.930	-0.118	0.068
-221.640	-20.081	-0.251	-0.155
-220.625	388.657	-0.233	0.484
-219.611	-125.389	-0.118	0.018
-218.596	187.233	0.050	0.074
-217.582	117.480	-0.181	-0.223
-216.567	-66.725	-0.069	-0.027
-215.552	-70.162	0.217	0.083
-214.538	-190.476	0.072	0.001
-213.523	52.341	-0.044	0.043
-212.509	93.808	0.149	-0.169
-211.494	800.000	0.036	0.133
-210.479	158.665	0.125	-0.174
-209.465	280.339	0.031	0.056
-208.450	119.799	0.078	-0.096
-207.436	345.659	-0.099	-0.194
-206.421	-12.827	0.289	0.189
-205.406	-200.000	-0.013	0.114
-204.392	-148.223	0.306	0.025
-203.377	-120.946	0.220	0.037
-202.363	-162.664	-0.223	-0.011
-201.348	-107.426	-0.137	0.030
-200.333	-52.248	-0.289	-0.134
-199.319	205.848	-0.163	-0.254
-198.304	-200.000	-0.002	0.116
-197.290	-183.746	-0.075	0.001
-196.275	-85.831	-0.365	-0.113
-195.260	-200.000	-0.014	-0.425
-194.246	84.689	0.231	0.254
-193.231	-134.119	0.272	0.034
-192.217	-83.391	-0.084	-0.027
-191.202	38.697	0.144	0.129
-190.187	-70.314	0.208	0.079
-189.173	800.000	-0.032	0.096
-188.158	-66.570	-0.131	-0.052
-187.144	800.000	0.084	-0.365
-186.129	35.382	0.201	-0.177
-185.114	-114.210	0.066	-0.013
-184.100	-32.319	0.132	-0.074
-183.085	-182.593	0.141	-0.003
-182.071	-0.424	0.338	-0.241
-181.056	-39.056	0.173	-0.091
-180.042	-3.978	0.302	-0.210
-179.027	-78.566	0.317	-0.108
-178.012	-23.900	-0.191	0.114
-176.998	-200.000	0.022	-0.225
-175.983	189.123	0.160	-0.241
-174.969	37.044	0.288	0.255
-173.954	758.222	0.033	0.088
-172.939	41.511	-0.080	-0.072
-171.925	800.000	-0.064	-0.223
-170.910	99.093	-0.133	-0.153
-169.896	800.000	0.046	0.198
-168.881	800.000	0.047	0.194
-167.866	800.000	0.079	0.282
-166.852	-200.000	0.008	0.310
-165.837	13.326	-0.135	-0.105
-164.823	-32.739	0.337	0.188
-163.808	88.024	-0.064	0.071
-162.793	-66.201	-0.341	-0.136
-161.779	-13.948	-0.353	0.228
-160.764	173.017	-0.143	-0.206
-159.750	-69.492	-0.038	0.015
-158.735	800.000	0.115	-0.354
-157.720	83.545	0.144	0.157
-156.706	-109.166	0.139	0.029
-155.691	-122.685	0.519	0.084
-154.677	-53.676	-0.345	-0.158
-153.662	-63.943	0.059	0.024
-152.647	800.000	0.040	0.119
-151.633	-4.369	0.095	-0.065
-150.618	800.000	-0.172	0.505
-149.604	265.088	0.087	0.151
-148.589	454.386	0.063	0.141
-147.574	155.391	0.013	-0.018
-146.560	312.952	0.037	-0.070
-145.545	800.000	0.137	0.469
-144.531	93.150	-0.091	0.103
-143.516	749.182	-0.073	-0.196
-142.502	646.617	-0.027	0.069
-141.487	-8.241	0.204	0.138
-140.472	-200.000	0.009	-0.229
-139.458	-66.774	-0.179	0.071
-138.443	545.170	0.165	0.395
-137.429	-141.699	-0.113	0.011
-136.414	87.152	0.169	0.187
-135.399	34.638	-0.046	-0.040
-134.385	-200.000	0.014	0.124
-133.370	-200.000	0.004	-0.117
-132.356	-200.000	-0.085	-0.375
-131.341	142.118	-0.064	-0.085
-130.326	-200.000	0.011	0.331
-129.312	-23.828	-0.483	0.289
-128.297	-200.000	-0.003	-0.060
-127.283	-200.000	0.016	0.153
-126.268	153.950	0.119	0.162
-125.253	-12.475	-0.270	-0.176
-124.239	453.930	-0.064	0.141
-123.224	41.536	-0.362	-0.328
-122.210	-25.747	-0.093	-0.055
-121.195	-200.000	0.017	0.164
