DTS Sentinel unit serial number:	SN413079Multiplexer serial number:	ORYXHardware model number:	OX4-SRSoftware version number:	ORYX F/W v4.00 Oryx Data Collector v3.7.2.0data status	okinstallation	princeton_trtdifferential loss correction	single-endedforward channel	channel 1reverse channel	N/Adate	2019/09/11time	23:08:11forward acquisition time	60.00reverse acquisition time	0.00gamma	496.2192k internal	0.2317k external	0.2317temperature offset calibration	1.0062default loss term (dB/km)	0.3790temperature slope calibration	1.0000multiplexer offset coefficient	1.0000multiplexer slope coefficient	1.0000fibre end	0.00T internal ref (°C)	34.52T ext. ref 1 (°C)	1.84T ext. ref 2 (°C)	29.09length (m)	temperature (°C)	Stokes	anti-Stokes-747.200	67.800	0.144	-0.149
-746.185	-200.000	0.002	0.162
-745.171	-200.000	-0.037	-0.304
-744.156	16.337	-0.172	0.137
-743.142	-99.944	0.108	0.027
-742.127	130.837	0.154	0.201
-741.112	-103.835	-0.086	0.020
-740.098	800.000	-0.097	-0.300
-739.083	552.303	0.119	0.289
-738.069	39.174	0.163	0.148
-737.054	800.000	-0.031	0.086
-736.039	25.343	-0.382	0.321
-735.025	-73.129	0.329	0.122
-734.010	46.425	-0.245	0.230
-732.996	224.070	-0.113	-0.185
-731.981	-200.000	-0.052	0.271
-730.966	9.008	-0.035	0.026
-729.952	199.273	-0.153	0.237
-728.937	800.000	-0.071	-0.314
-727.923	-81.467	0.171	0.057
-726.908	-200.000	0.034	-0.367
-725.894	-35.666	-0.082	-0.045
-724.879	62.882	0.144	-0.145
-723.864	-155.323	-0.445	-0.029
-722.850	-87.812	0.187	0.057
-721.835	-47.164	-0.034	-0.017
-720.821	800.000	-0.066	0.289
-719.806	-200.000	-0.006	0.159
-718.791	-105.883	-0.360	0.082
-717.777	-88.936	0.174	0.052
-716.762	74.009	-0.392	0.416
-715.748	-200.000	0.036	-0.198
-714.733	-182.874	-0.144	-0.003
-713.718	32.363	-0.171	-0.149
-712.704	-74.992	0.273	-0.099
-711.689	783.925	0.074	0.204
-710.675	-80.561	0.496	0.167
-709.660	-78.708	-0.102	0.035
-708.645	170.178	-0.089	0.128
-707.631	800.000	-0.049	0.166
-706.616	-200.000	0.019	0.118
-705.602	-131.934	0.267	-0.035
-704.587	-106.116	-0.436	0.099
-703.572	800.000	-0.020	0.077
-702.558	-200.000	-0.023	0.164
-701.543	-45.327	0.182	0.091
-700.529	-200.000	-0.018	0.128
-699.514	404.352	-0.090	-0.193
-698.499	-144.995	-0.167	-0.015
-697.485	800.000	0.055	0.241
-696.470	170.443	0.144	-0.209
-695.456	21.375	-0.106	0.087
-694.441	-9.628	-0.356	0.240
-693.426	290.224	-0.181	-0.333
-692.412	-200.000	-0.007	-0.116
-691.397	208.248	0.101	-0.160
-690.383	711.145	-0.139	-0.372
-689.368	-61.931	0.045	0.019
-688.354	36.866	0.224	0.200
-687.339	800.000	0.064	-0.235
-686.324	107.382	0.079	-0.095
-685.310	179.267	0.325	0.480
-684.295	55.857	0.166	-0.163
-683.281	-200.000	-0.014	-0.144
-682.266	-200.000	0.018	0.098
-681.251	800.000	-0.047	0.145
-680.237	142.432	0.220	-0.295
-679.222	-103.904	0.088	-0.021
-678.208	-200.000	0.013	0.408
-677.193	-180.736	0.058	-0.001
-676.178	-163.008	0.120	-0.006
-675.164	-33.464	-0.180	-0.100
-674.149	-27.943	-0.239	0.140
-673.135	-35.004	0.186	0.102
-672.120	-200.000	0.028	0.134
-671.105	-127.668	0.097	-0.014
-670.091	-95.490	-0.170	-0.046
-669.076	390.788	-0.157	-0.329
-668.062	800.000	0.038	-0.120
-667.047	-85.200	0.206	0.065
-666.032	-96.741	0.184	-0.049
-665.018	-40.222	-0.174	0.092
-664.003	80.844	-0.080	0.087
-662.989	433.422	0.168	-0.368
-661.974	-117.352	-0.291	-0.053
-660.959	-181.449	-0.270	0.005
-659.945	-43.534	0.226	-0.115
-658.930	-35.789	0.201	0.110
-657.916	697.819	0.140	0.373
-656.901	800.000	-0.039	0.129
-655.886	-200.000	-0.062	-0.287
-654.872	-200.000	0.005	-0.045
-653.857	223.476	0.104	0.170
-652.843	-200.000	0.039	-0.206
-651.828	377.996	-0.109	0.225
-650.814	113.868	0.155	0.190
-649.799	-61.401	-0.239	-0.101
-648.784	800.000	0.053	-0.191
-647.770	293.617	-0.149	-0.273
-646.755	-200.000	-0.017	-0.267
-645.741	43.057	-0.195	-0.180
-644.726	52.436	-0.235	0.227
-643.711	-200.000	-0.069	0.375
-642.697	800.000	0.040	-0.126
-641.682	499.358	0.036	-0.085
-640.668	15.341	-0.056	-0.044
-639.653	800.000	-0.028	-0.083
-638.638	-51.934	0.040	-0.019
-637.624	-40.033	0.137	-0.072
-636.609	-19.995	0.052	-0.032
-635.595	-35.213	0.180	0.099
-634.580	-38.177	-0.044	0.024
-633.565	-15.779	0.249	0.160
-632.551	-159.353	0.108	0.006
-631.536	54.769	-0.141	-0.137
-630.522	-89.103	0.207	0.062
-629.507	800.000	0.040	-0.127
-628.492	800.000	0.053	-0.171
-627.478	-30.853	0.233	0.132
-626.463	256.964	0.138	0.239
-625.449	56.938	0.248	-0.244
-624.434	40.452	0.097	-0.088
-623.419	-50.936	0.225	0.106
-622.405	171.688	-0.097	0.140
-621.390	677.282	-0.035	0.091
-620.376	-76.018	-0.322	-0.115
-619.361	-44.994	-0.209	-0.105
-618.346	-88.843	0.337	0.101
-617.332	105.321	-0.109	-0.130
-616.317	708.134	-0.096	-0.255
-615.303	270.581	0.106	0.188
-614.288	-35.888	-0.236	-0.129
-613.273	-186.824	0.142	0.002
-612.259	-115.379	-0.064	0.012
-611.244	-193.966	0.329	-0.003
-610.230	-77.965	-0.238	-0.083
-609.215	113.733	-0.057	0.070
-608.201	-139.952	-0.103	-0.011
-607.186	800.000	0.090	0.297
-606.171	-118.005	-0.325	0.059
-605.157	800.000	-0.035	-0.099
-604.142	130.584	-0.211	-0.272
-603.128	-123.722	-0.221	-0.035
-602.113	324.484	-0.111	-0.213
-601.098	-65.340	-0.191	0.077
-600.084	-78.488	0.186	0.064
-599.069	-200.000	-0.002	0.391
-598.055	69.050	0.180	0.186
-597.040	366.615	0.113	0.229
-596.025	211.868	0.035	0.056
-595.011	-108.282	-0.337	0.073
-593.996	537.941	0.072	-0.171
-592.982	-2.531	-0.237	-0.167
-591.967	800.000	-0.073	0.299
-590.952	-85.984	0.136	-0.042
-589.938	-173.713	0.287	-0.009
-588.923	-200.000	-0.010	-0.152
-587.909	130.257	-0.040	-0.051
-586.894	800.000	-0.007	0.030
-585.879	20.913	0.333	-0.272
-584.865	213.188	-0.203	0.322
-583.850	20.154	0.187	-0.152
-582.836	-48.663	0.451	0.218
-581.821	84.198	0.134	0.148
-580.806	-55.016	-0.097	-0.044
-579.792	388.726	0.176	-0.367
-578.777	-200.000	0.020	0.124
-577.763	210.816	0.206	-0.325
-576.748	49.054	-0.043	0.041
-575.733	-136.514	-0.182	0.021
-574.719	117.580	0.020	0.025
-573.704	268.271	0.126	-0.222
-572.690	556.406	0.095	-0.229
-571.675	456.764	-0.100	0.223
-570.661	87.727	-0.083	0.093
-569.646	-97.518	0.181	0.047
-568.631	-169.883	0.130	-0.005
-567.617	340.611	-0.098	-0.192
-566.602	73.919	-0.158	-0.166
-565.588	150.084	-0.176	0.240
-564.573	9.016	-0.048	-0.036
-563.558	650.547	-0.156	-0.401
-562.544	260.674	0.012	0.020
-561.529	-98.052	0.291	0.075
-560.515	724.249	-0.042	0.112
-559.500	791.494	0.065	-0.180
-558.485	800.000	-0.022	0.063
-557.471	235.033	0.223	-0.369
-556.456	-56.276	-0.143	-0.064
-555.442	-190.678	-0.374	-0.004
-554.427	525.306	0.020	0.048
-553.412	82.894	0.104	-0.114
-552.398	-0.300	0.086	0.062
-551.383	376.340	0.085	-0.175
-550.369	-55.566	-0.576	-0.259
-549.354	-200.000	0.002	-0.100
-548.339	190.001	0.053	-0.080
-547.325	-89.731	0.088	-0.026
-546.310	48.031	0.146	-0.137
-545.296	-60.479	-0.041	-0.017
-544.281	-13.815	-0.180	0.117
-543.266	458.885	-0.162	0.361
-542.252	-200.000	0.025	-0.297
-541.237	-100.593	-0.209	0.052
-540.223	-135.383	0.182	-0.022
-539.208	-200.000	0.037	0.264
-538.193	342.198	0.133	0.262
-537.179	-150.963	-0.327	-0.025
-536.164	-88.114	0.080	-0.024
-535.150	-1.965	-0.323	-0.228
-534.135	800.000	0.106	0.435
-533.121	298.340	0.021	-0.039
-532.106	-15.548	-0.207	-0.133
-531.091	800.000	-0.115	0.374
-530.077	33.113	-0.208	0.181
-529.062	158.882	0.054	0.076
-528.048	731.648	0.078	0.210
-527.033	-200.000	0.016	-0.110
-526.018	-200.000	0.031	0.188
-525.004	-36.588	0.138	-0.075
-523.989	800.000	-0.106	-0.368
-522.975	-32.384	-0.252	-0.141
-521.960	-1.661	-0.227	-0.161
-520.945	-128.422	0.139	-0.020
-519.931	800.000	0.070	-0.229
-518.916	-58.113	-0.109	0.047
-517.902	-79.715	0.218	-0.074
-516.887	-200.000	-0.032	-0.179
-515.872	387.971	0.099	-0.206
-514.858	404.051	-0.065	-0.138
-513.843	-200.000	0.003	-0.098
-512.829	-91.143	-0.316	-0.091
-511.814	-97.346	0.160	0.042
-510.799	800.000	0.082	0.282
-509.785	659.391	-0.063	0.163
-508.770	-164.594	0.235	0.011
-507.756	-71.945	-0.129	0.048
-506.741	-200.000	0.023	0.106
-505.726	-26.234	0.283	-0.167
-504.712	115.646	0.115	0.141
-503.697	132.166	-0.081	-0.104
-502.683	257.273	-0.171	0.295
-501.668	82.436	0.066	-0.071
-500.653	-37.739	0.346	0.185
-499.639	-186.362	-0.068	-0.001
-498.624	123.676	0.193	0.243
-497.610	-172.474	0.025	0.001
-496.595	176.322	0.226	0.329
-495.581	-200.000	-0.044	-0.203
-494.566	-95.367	0.208	-0.056
-493.551	800.000	-0.059	-0.251
-492.537	-106.451	0.418	0.094
-491.522	-70.327	-0.079	-0.030
-490.508	-12.921	-0.054	0.035
-489.493	64.318	-0.249	-0.251
-488.478	166.683	0.119	0.169
-487.464	-39.161	-0.267	-0.141
-486.449	259.318	0.148	0.255
-485.435	-62.320	-0.060	-0.025
-484.420	-91.805	-0.072	0.021
-483.405	-200.000	0.009	-0.187
-482.391	800.000	0.029	-0.122
-481.376	-143.342	0.035	0.003
-480.362	800.000	-0.026	-0.111
-479.347	-62.818	-0.232	-0.096
-478.332	-161.709	-0.377	0.019
-477.318	730.577	0.085	0.228
-476.303	-107.434	0.317	-0.070
-475.289	-13.321	-0.304	0.198
-474.274	576.583	0.109	0.268
-473.259	-90.141	-0.238	-0.070
-472.245	-89.337	-0.137	-0.041
-471.230	-29.549	0.225	0.129
-470.216	-83.608	-0.273	0.087
-469.201	-59.312	0.115	-0.049
-468.186	337.000	-0.166	-0.323
-467.172	656.044	-0.059	-0.153
-466.157	132.847	0.227	-0.294
-465.143	-200.000	0.068	0.319
-464.128	-74.056	-0.573	-0.208
-463.113	-85.402	0.143	0.045
-462.099	-200.000	0.021	-0.186
-461.084	173.263	-0.233	0.337
-460.070	-182.605	0.186	0.003
-459.055	-117.830	-0.077	-0.014
-458.040	800.000	-0.102	-0.299
-457.026	8.932	-0.082	0.062
-456.011	99.987	0.077	-0.089
-454.997	-50.812	-0.151	-0.071
-453.982	-200.000	0.039	-0.241
-452.968	-75.126	-0.187	-0.067
-451.953	-200.000	-0.001	-0.394
-450.938	800.000	0.117	-0.478
-449.924	-84.792	0.058	0.018
-448.909	-200.000	-0.012	-0.192
-447.895	-75.422	-0.145	-0.052
-446.880	800.000	0.064	-0.267
-445.865	163.859	-0.113	0.159
-444.851	89.372	0.268	0.299
-443.836	-30.707	-0.238	-0.135
-442.822	-200.000	0.017	0.192
-441.807	6.445	-0.167	-0.124
-440.792	-142.916	0.164	0.016
-439.778	-200.000	0.003	0.029
-438.763	1.682	0.092	-0.067
-437.749	-51.293	-0.068	0.032
-436.734	28.241	-0.132	0.112
-435.719	-200.000	0.094	0.575
-434.705	172.502	0.076	-0.110
-433.690	11.512	0.218	0.167
-432.676	-141.661	0.291	0.029
-431.661	-95.264	0.103	-0.028
-430.646	223.027	0.116	-0.187
-429.632	-200.000	0.015	-0.124
-428.617	800.000	-0.036	0.107
-427.603	237.069	0.093	0.154
-426.588	-102.632	0.427	-0.102
-425.573	144.637	0.119	0.159
-424.559	-98.090	-0.024	-0.006
-423.544	-71.307	-0.396	0.148
-422.530	645.969	-0.019	-0.048
-421.515	-54.513	-0.166	0.075
-420.500	-35.933	0.230	0.124
-419.486	800.000	-0.033	0.123
-418.471	27.159	0.125	-0.105
-417.457	800.000	0.020	0.076
-416.442	-115.475	-0.299	0.056
-415.428	800.000	0.048	-0.204
-414.413	-200.000	0.011	0.056
-413.398	-61.109	-0.332	-0.140
-412.384	4.048	0.123	0.090
-411.369	-122.089	0.051	-0.008
-410.355	491.941	0.085	0.196
-409.340	800.000	-0.120	-0.401
-408.325	-41.746	0.469	-0.241
-407.311	-12.263	0.169	0.111
-406.296	-81.376	-0.095	-0.031
-405.282	-47.566	0.049	-0.024
-404.267	-39.982	0.152	0.079
-403.252	231.501	-0.107	-0.175
-402.238	800.000	-0.053	-0.149
-401.223	75.902	0.148	-0.156
-400.209	197.076	-0.094	0.144
-399.194	-102.920	0.265	0.063
-398.179	99.530	-0.240	-0.277
-397.165	-200.000	0.001	0.006
-396.150	-200.000	0.005	-0.036
-395.136	-179.335	-0.088	-0.002
-394.121	-200.000	0.019	0.282
-393.106	-141.118	0.177	-0.018
-392.092	78.618	-0.116	-0.124
-391.077	268.179	-0.049	0.085
-390.063	-95.338	-0.312	0.084
-389.048	800.000	0.062	-0.193
-388.033	-75.481	-0.173	-0.061
-387.019	-200.000	0.032	-0.173
-386.004	-86.933	-0.281	0.086
-384.990	-200.000	0.014	-0.195
-383.975	-123.254	-0.195	-0.031
-382.960	442.141	-0.024	0.052
-381.946	800.000	-0.017	-0.072
-380.931	6.786	0.093	-0.069
-379.917	-92.155	-0.080	0.023
-378.902	100.921	-0.082	0.095
-377.888	-200.000	-0.056	-0.406
-376.873	-145.791	-0.242	0.022
-375.858	-82.777	-0.199	-0.064
-374.844	-39.540	-0.382	-0.199
-373.829	800.000	0.058	-0.213
-372.815	6.387	0.327	-0.242
-371.800	235.102	0.052	-0.085
-370.785	183.584	0.029	0.042
-369.771	-116.051	-0.153	0.028
-368.756	8.801	-0.205	0.154
-367.742	800.000	-0.098	0.308
-366.727	-200.000	-0.036	0.205
-365.712	212.446	0.260	0.410
-364.698	-44.404	0.234	-0.117
-363.683	714.864	-0.138	-0.365
-362.669	-146.583	0.192	-0.017
-361.654	620.128	0.178	-0.446
-360.639	-88.951	0.142	-0.042
-359.625	-9.294	-0.083	-0.055
-358.610	225.003	-0.060	0.097
-357.596	-200.000	-0.014	-0.176
-356.581	38.282	-0.089	-0.079
-355.566	8.005	-0.019	0.014
-354.552	-37.303	0.100	-0.053
-353.537	800.000	0.017	0.073
-352.523	800.000	-0.088	0.252
-351.508	-126.907	0.217	0.032
-350.493	67.179	-0.356	0.362
-349.479	-73.658	-0.216	-0.078
-348.464	-115.863	-0.395	0.074
-347.450	67.904	0.039	-0.040
-346.435	800.000	0.027	0.114
-345.420	-200.000	-0.006	0.050
-344.406	800.000	-0.098	-0.322
-343.391	79.742	0.148	-0.158
-342.377	-200.000	-0.013	-0.134
-341.362	185.157	-0.077	0.114
-340.348	69.273	-0.233	0.239
-339.333	75.863	-0.096	0.102
-338.318	-64.279	-0.070	-0.029
-337.304	-109.167	-0.054	-0.011
-336.289	-11.813	-0.055	-0.036
-335.275	-172.068	-0.067	-0.002
-334.260	140.283	-0.084	-0.110
-333.245	-163.756	0.039	0.002
-332.231	-74.164	-0.126	0.046
-331.216	-99.670	0.056	-0.014
-330.202	-200.000	-0.005	0.041
-329.187	-179.621	-0.106	0.002
-328.172	-66.905	0.051	0.020
-327.158	-200.000	0.008	0.273
-326.143	-141.518	-0.263	-0.026
-325.129	-172.957	0.065	-0.002
-324.114	-30.238	0.252	0.143
-323.099	316.219	0.123	-0.232
-322.085	304.784	-0.105	-0.194
-321.070	123.279	-0.218	0.272
-320.056	-41.688	0.034	-0.018
-319.041	-112.572	0.249	-0.050
-318.026	283.898	0.178	0.319
-317.012	-74.790	0.138	0.049
-315.997	-200.000	-0.021	-0.105
-314.983	123.749	-0.046	-0.058
-313.968	-200.000	-0.040	0.240
-312.953	-130.545	0.039	0.005
-311.939	348.031	0.042	-0.082
-310.924	-45.559	-0.260	0.128
-309.910	-55.679	0.663	0.295
-308.895	-64.553	0.151	0.061
-307.880	12.860	0.347	-0.267
-306.866	-9.539	-0.042	-0.028
-305.851	-41.708	0.141	0.072
-304.837	-200.000	-0.044	0.411
-303.822	-105.991	-0.164	0.037
-302.807	-8.033	-0.054	-0.036
-301.793	65.056	0.223	0.224
-300.778	-59.286	0.285	-0.122
-299.764	85.615	-0.200	-0.218
-298.749	-4.172	0.292	0.201
-297.735	-200.000	-0.085	0.423
-296.720	-200.000	0.024	-0.197
-295.705	-44.642	-0.420	-0.209
-294.691	80.370	0.355	-0.381
-293.676	800.000	-0.047	0.166
-292.662	256.395	0.027	-0.046
-291.647	359.937	0.168	0.334
-290.632	-50.854	-0.293	0.137
-289.618	800.000	-0.098	0.335
-288.603	-164.935	0.152	-0.007
-287.589	-129.369	0.147	-0.020
-286.574	-124.722	-0.274	0.042
-285.559	230.648	-0.071	0.115
-284.545	-126.837	-0.252	0.037
-283.530	4.314	0.230	-0.168
-282.516	-100.298	-0.393	-0.097
-281.501	46.686	0.160	-0.148
-280.486	475.015	-0.114	-0.255
-279.472	14.926	-0.093	-0.072
-278.457	688.524	-0.112	-0.291
-277.443	129.196	0.211	0.267
-276.428	20.964	0.123	0.099
-275.413	-40.718	-0.049	-0.025
-274.399	-22.361	-0.165	0.099
-273.384	-102.590	0.109	0.026
-272.370	346.226	-0.189	-0.369
-271.355	-200.000	-0.020	-0.261
-270.340	285.332	0.171	-0.307
-269.326	-143.651	0.143	-0.014
-268.311	-137.341	0.168	-0.019
-267.297	-57.760	0.067	0.029
-266.282	-200.000	0.011	0.314
-265.267	-123.770	-0.108	0.017
-264.253	137.673	0.303	-0.394
-263.238	-200.000	0.049	-0.254
-262.224	-121.334	0.077	-0.013
-261.209	-200.000	0.008	-0.118
-260.195	310.595	-0.133	0.247
-259.180	-171.396	-0.058	0.002
-258.165	-200.000	-0.021	-0.209
-257.151	-26.452	-0.344	0.200
-256.136	-200.000	-0.029	-0.498
-255.122	210.292	-0.139	-0.217
-254.107	-200.000	0.047	-0.345
-253.092	317.823	0.176	-0.330
-252.078	-192.606	-0.136	0.001
-251.063	-9.558	-0.179	0.119
-250.049	179.503	-0.132	0.192
-249.034	23.276	0.053	0.043
-248.019	395.956	-0.193	-0.399
-247.005	-14.123	-0.079	0.051
-245.990	65.503	-0.198	0.199
-244.976	-7.465	0.132	-0.088
-243.961	-63.118	0.186	-0.076
-242.946	800.000	0.096	0.402
-241.932	-22.000	-0.107	0.064
-240.917	-88.129	-0.422	-0.126
-239.903	-135.550	0.167	-0.020
-238.888	-22.420	-0.178	-0.107
-237.873	142.010	0.125	-0.165
-236.859	-200.000	0.032	-0.142
-235.844	-200.000	0.092	0.618
-234.830	-200.000	-0.025	0.311
-233.815	-171.825	0.058	-0.002
-232.800	-148.255	0.100	-0.008
-231.786	-13.286	0.100	-0.064
-230.771	31.365	0.193	0.164
-229.757	41.077	-0.122	0.109
-228.742	-22.204	0.262	-0.157
-227.727	800.000	-0.022	0.082
-226.713	-57.438	0.287	0.125
-225.698	-200.000	-0.066	0.383
-224.684	800.000	-0.096	0.283
-223.669	-44.593	0.112	-0.055
-222.655	-7.563	-0.256	-0.172
-221.640	501.812	0.183	0.418
-220.625	800.000	-0.045	-0.171
-219.611	-200.000	-0.035	0.366
-218.596	-117.391	-0.210	0.038
-217.582	619.456	0.127	0.317
-216.567	-29.035	0.016	0.009
-215.552	800.000	0.056	-0.227
-214.538	-200.000	-0.037	0.493
-213.523	614.937	0.048	0.118
-212.509	-165.893	-0.185	-0.008
-211.494	-200.000	-0.024	0.156
-210.479	-82.883	0.169	0.054
-209.465	3.469	-0.177	-0.128
-208.450	11.625	-0.293	0.223
-207.436	-200.000	-0.044	0.225
-206.421	-49.418	-0.104	-0.049
-205.406	-91.455	0.283	0.080
-204.392	-89.772	-0.294	-0.085
-203.377	179.350	0.014	-0.020
-202.363	186.481	0.126	-0.186
-201.348	-200.000	0.077	0.366
-200.333	89.614	-0.249	0.275
-199.319	-148.231	-0.315	-0.026
-198.304	-92.307	0.345	0.096
-197.290	-31.299	-0.072	0.040
-196.275	742.702	-0.117	-0.311
-195.260	706.464	-0.062	0.163
-194.246	248.020	0.038	-0.064
-193.231	-200.000	0.023	0.325
-192.217	169.832	-0.067	-0.095
-191.202	-166.434	-0.187	0.008
-190.187	-16.976	-0.063	-0.039
-189.173	800.000	-0.036	-0.113
-188.158	-200.000	-0.033	0.160
-187.144	21.659	0.116	0.093
-186.129	76.617	0.133	-0.139
-185.114	-200.000	0.028	-0.212
-184.100	352.781	0.115	-0.227
-183.085	-55.714	-0.165	0.073
-182.071	378.295	0.041	0.084
-181.056	144.837	0.120	0.159
-180.042	800.000	-0.045	0.149
-179.027	-200.000	0.059	0.513
-178.012	182.986	-0.080	0.116
-176.998	-56.759	0.192	-0.084
-175.983	-15.328	0.180	-0.114
-174.969	-152.597	0.240	-0.017
-173.954	-129.533	-0.098	-0.013
-172.939	349.354	0.140	0.274
-171.925	-200.000	0.023	0.216
-170.910	256.810	0.070	-0.119
-169.896	89.964	0.132	0.146
-168.881	83.095	0.177	-0.191
-167.866	-200.000	0.007	0.033
-166.852	-200.000	-0.057	0.254
-165.837	27.726	0.214	0.178
-164.823	331.842	-0.054	0.103
-163.808	789.062	0.046	0.125
-162.793	-73.538	0.048	0.017
-161.779	293.317	0.169	0.305
-160.764	-45.725	0.189	-0.092
-159.750	-92.951	-0.098	-0.027
-158.735	-200.000	-0.017	-0.103
-157.720	-16.354	0.214	-0.134
-156.706	-74.314	0.126	-0.045
-155.691	-41.669	0.183	-0.093
-154.677	-62.584	0.331	-0.136
-153.662	-45.504	0.219	0.107
-152.647	60.617	-0.052	-0.051
-151.633	800.000	0.076	0.254
-150.618	249.899	0.045	0.076
-149.604	-200.000	0.006	0.062
-148.589	191.309	-0.047	0.070
-147.574	197.510	-0.236	-0.357
-146.560	34.250	-0.137	-0.118
-145.545	196.283	-0.104	0.157
-144.531	-200.000	-0.012	0.187
-143.516	39.081	0.238	-0.211
-142.502	800.000	0.096	0.404
-141.487	65.745	0.150	0.150
-140.472	121.545	-0.116	-0.142
-139.458	-64.993	0.244	-0.098
-138.443	71.394	0.101	0.104
-137.429	11.279	0.220	0.167
-136.414	135.815	0.100	0.129
-135.399	800.000	0.124	-0.360
-134.385	-19.020	-0.258	-0.159
-133.370	-87.449	0.136	-0.041
-132.356	-137.495	0.179	0.020
-131.341	77.093	0.271	0.285
-130.326	-160.701	0.259	-0.014
-129.312	26.650	-0.146	0.121
-128.297	-14.973	0.295	0.187
-127.283	-61.436	0.459	0.191
-126.268	-200.000	0.061	-0.311
-125.253	152.931	0.134	0.180
-124.239	9.420	0.072	-0.054
-123.224	-128.098	0.086	-0.012
-122.210	72.065	0.119	0.123
-121.195	427.800	-0.108	-0.230
