DTS Sentinel unit serial number:	SN413079Multiplexer serial number:	ORYXHardware model number:	OX4-SRSoftware version number:	ORYX F/W v4.00 Oryx Data Collector v3.7.2.0data status	okinstallation	princeton_trtdifferential loss correction	single-endedforward channel	channel 1reverse channel	N/Adate	2019/09/15time	23:22:35forward acquisition time	60.00reverse acquisition time	0.00gamma	496.2192k internal	0.2332k external	0.2332temperature offset calibration	0.9970default loss term (dB/km)	0.3790temperature slope calibration	1.0000multiplexer offset coefficient	1.0000multiplexer slope coefficient	1.0000fibre end	0.00T internal ref (°C)	28.27T ext. ref 1 (°C)	9.12T ext. ref 2 (°C)	22.09length (m)	temperature (°C)	Stokes	anti-Stokes-747.200	-117.443	0.106	0.019
-746.185	-44.507	-0.315	0.158
-745.171	-123.887	0.114	0.018
-744.156	-47.477	0.269	0.131
-743.142	108.478	0.116	-0.139
-742.127	88.886	-0.172	0.193
-741.112	60.700	-0.139	0.139
-740.098	800.000	0.069	0.199
-739.083	108.736	-0.074	-0.089
-738.069	131.529	0.249	0.322
-737.054	-200.000	-0.041	0.299
-736.039	-129.112	-0.062	0.009
-735.025	687.646	0.123	0.323
-734.010	215.189	-0.117	-0.186
-732.996	-76.243	-0.089	-0.031
-731.981	-85.223	-0.319	-0.100
-730.966	7.545	0.196	0.148
-729.952	-81.449	0.179	0.059
-728.937	87.256	-0.296	-0.329
-727.923	-200.000	0.050	-0.286
-726.908	193.437	-0.235	-0.357
-725.894	-45.015	-0.435	-0.218
-724.879	-69.502	-0.217	-0.084
-723.864	-200.000	0.028	-0.140
-722.850	161.608	-0.169	-0.238
-721.835	481.521	-0.067	0.153
-720.821	-123.739	-0.199	-0.032
-719.806	-200.000	0.018	-0.218
-718.791	56.208	-0.236	-0.231
-717.777	24.179	-0.027	-0.023
-716.762	59.873	-0.155	-0.154
-715.748	-200.000	0.014	0.156
-714.733	-48.984	-0.166	0.080
-713.718	246.157	-0.094	0.159
-712.704	-177.837	-0.541	0.013
-711.689	-136.452	0.251	-0.029
-710.675	800.000	0.095	0.340
-709.660	-56.742	0.250	-0.111
-708.645	-200.000	-0.025	-0.128
-707.631	-200.000	-0.003	-0.145
-706.616	-151.099	-0.450	0.034
-705.602	-200.000	-0.013	0.109
-704.587	-18.575	-0.216	0.135
-703.572	-200.000	0.037	-0.307
-702.558	800.000	-0.061	-0.224
-701.543	118.748	0.108	0.134
-700.529	-89.718	-0.273	0.080
-699.514	-144.777	-0.379	-0.035
-698.499	74.192	0.054	-0.057
-697.485	-200.000	-0.049	0.225
-696.470	800.000	-0.028	-0.086
-695.456	60.367	-0.219	-0.217
-694.441	-10.965	-0.139	0.092
-693.426	-36.513	0.290	-0.157
-692.412	125.988	-0.303	0.385
-691.397	-200.000	-0.020	0.340
-690.383	-116.650	-0.317	-0.059
-689.368	57.808	-0.104	0.102
-688.354	190.337	-0.107	-0.162
-687.339	54.227	0.263	0.254
-686.324	-200.000	-0.021	0.206
-685.310	266.985	0.108	-0.189
-684.295	57.278	0.176	0.173
-683.281	-200.000	0.047	0.223
-682.266	206.067	0.167	-0.260
-681.251	-61.982	0.044	-0.018
-680.237	120.803	-0.163	-0.204
-679.222	-200.000	-0.029	0.185
-678.208	-47.179	-0.156	0.076
-677.193	53.212	-0.173	-0.166
-676.178	212.824	-0.101	0.159
-675.164	199.429	-0.226	0.347
-674.149	393.276	0.030	0.062
-673.135	-109.334	0.139	-0.030
-672.120	-139.397	-0.214	-0.023
-671.105	17.726	0.131	0.104
-670.091	-94.091	-0.204	-0.056
-669.076	-99.026	0.021	-0.005
-668.062	-139.995	-0.088	-0.009
-667.047	623.641	0.204	0.514
-666.032	78.781	0.249	0.268
-665.018	-96.572	0.419	-0.111
-664.003	33.131	-0.100	0.087
-662.989	294.366	-0.151	-0.277
-661.974	-2.838	0.096	-0.067
-660.959	52.334	0.238	-0.228
-659.945	-200.000	0.013	0.074
-658.930	615.908	-0.162	0.408
-657.916	-200.000	-0.034	-0.175
-656.901	-200.000	0.034	-0.233
-655.886	53.999	0.141	0.136
-654.872	11.942	-0.207	-0.160
-653.857	-126.955	-0.284	0.042
-652.843	-200.000	0.019	-0.091
-651.828	-200.000	-0.017	0.167
-650.814	234.530	0.093	-0.155
-649.799	10.867	0.094	-0.072
-648.784	34.875	0.316	-0.277
-647.770	698.582	0.078	-0.206
-646.755	-153.255	-0.264	-0.018
-645.741	800.000	0.021	0.089
-644.726	-200.000	-0.025	0.493
-643.711	-11.912	-0.132	0.087
-642.697	218.304	-0.124	-0.199
-641.682	-200.000	-0.041	-0.294
-640.668	800.000	0.013	-0.043
-639.653	65.638	0.236	-0.240
-638.638	-131.126	-0.214	0.029
-637.624	106.779	-0.133	0.159
-636.609	-12.373	-0.164	0.108
-635.595	132.168	0.082	-0.106
-634.580	800.000	0.037	0.150
-633.565	362.642	0.127	0.255
-632.551	-200.000	0.015	0.225
-631.536	-200.000	0.006	-0.110
-630.522	-30.538	-0.027	0.015
-629.507	-44.627	-0.201	-0.101
-628.492	-137.554	-0.030	-0.003
-627.478	91.582	0.220	-0.248
-626.463	152.798	0.152	0.208
-625.449	32.004	0.153	0.132
-624.434	80.458	-0.145	-0.157
-623.419	49.913	-0.298	0.282
-622.405	186.345	0.184	-0.273
-621.390	160.954	-0.112	0.156
-620.376	-200.000	-0.072	-0.360
-619.361	16.162	0.149	-0.117
-618.346	-200.000	0.001	0.011
-617.332	-200.000	-0.021	-0.123
-616.317	-174.674	-0.202	-0.006
-615.303	123.704	-0.108	0.136
-614.288	51.010	0.217	-0.206
-613.273	-45.517	-0.119	0.059
-612.259	-90.953	-0.297	0.085
-611.244	261.709	-0.037	-0.065
-610.230	38.709	0.255	-0.228
-609.215	568.910	0.076	0.185
-608.201	-1.063	-0.454	0.322
-607.186	-115.144	-0.272	0.052
-606.171	-38.545	-0.279	0.148
-605.157	107.475	-0.151	-0.180
-604.142	311.130	0.143	-0.267
-603.128	-200.000	0.026	-0.208
-602.113	210.357	0.043	-0.068
-601.098	226.068	-0.028	0.045
-600.084	19.733	0.068	-0.054
-599.069	-162.837	0.131	-0.006
-598.055	-147.144	0.080	0.007
-597.040	-9.252	-0.243	0.162
-596.025	385.896	0.060	0.123
-595.011	65.079	0.123	0.124
-593.996	-169.648	0.063	0.002
-592.982	125.955	0.076	-0.096
-591.967	98.298	-0.103	-0.119
-590.952	-45.187	-0.288	0.143
-589.938	-30.889	-0.064	-0.036
-588.923	128.443	0.085	0.108
-587.909	-200.000	-0.046	-0.429
-586.894	-200.000	0.059	0.394
-585.879	-180.851	-0.302	0.006
-584.865	293.151	-0.086	-0.156
-583.850	126.178	0.261	0.331
-582.836	-31.743	-0.085	-0.048
-581.821	-94.980	-0.213	-0.058
-580.806	-154.438	-0.288	0.019
-579.792	554.293	-0.102	-0.246
-578.777	402.944	-0.134	-0.281
-577.763	-200.000	0.038	0.181
-576.748	470.971	-0.114	-0.257
-575.733	-200.000	-0.004	-0.056
-574.719	-17.132	0.147	-0.093
-573.704	376.182	-0.033	0.067
-572.690	-111.192	0.099	0.020
-571.675	304.410	0.102	-0.189
-570.661	118.018	0.180	0.222
-569.646	-8.826	-0.084	-0.056
-568.631	485.881	-0.015	0.035
-567.617	-51.932	-0.162	-0.075
-566.602	-152.069	-0.416	-0.030
-565.588	800.000	-0.075	-0.269
-564.573	-200.000	0.028	-0.142
-563.558	800.000	0.028	0.083
-562.544	800.000	0.122	-0.356
-561.529	170.437	-0.171	0.244
-560.515	142.609	-0.133	-0.177
-559.500	-52.591	-0.208	0.096
-558.485	18.329	-0.318	-0.254
-557.471	-74.892	-0.344	0.123
-556.456	436.806	-0.076	0.165
-555.442	164.378	0.177	-0.250
-554.427	338.565	-0.095	-0.185
-553.412	800.000	-0.033	0.124
-552.398	-21.080	0.166	-0.101
-551.383	-200.000	-0.002	-0.069
-550.369	604.143	-0.106	-0.262
-549.354	288.854	0.171	-0.310
-548.339	-200.000	0.015	-0.221
-547.325	-200.000	-0.005	0.045
-546.310	-0.937	-0.369	-0.261
-545.296	-85.435	-0.275	-0.086
-544.281	-139.229	0.106	-0.011
-543.266	-20.467	-0.394	0.242
-542.252	11.424	0.069	0.053
-541.237	-200.000	0.264	0.000
-540.223	800.000	0.033	-0.136
-539.208	0.229	0.057	0.041
-538.193	-87.430	-0.304	-0.092
-537.179	-200.000	-0.041	-0.305
-536.164	-76.510	0.208	-0.073
-535.150	227.511	-0.040	-0.066
-534.135	4.879	0.087	-0.064
-533.121	-74.469	-0.107	0.038
-532.106	26.714	0.240	-0.201
-531.091	5.614	-0.183	0.135
-530.077	322.789	-0.101	0.193
-529.062	800.000	0.062	0.257
-528.048	-65.099	-0.079	0.032
-527.033	187.985	0.110	-0.164
-526.018	33.101	0.189	0.163
-525.004	168.426	0.199	-0.283
-523.989	-91.884	-0.108	0.030
-522.975	-200.000	0.011	-0.373
-521.960	-130.160	0.165	-0.022
-520.945	-23.160	-0.091	0.055
-519.931	-77.808	0.293	-0.101
-518.916	-99.470	0.151	0.038
-517.902	-24.268	0.102	-0.061
-516.887	-200.000	-0.172	-0.001
-515.872	-78.905	0.021	-0.007
-514.858	-26.958	0.073	0.043
-513.843	-92.154	0.079	0.022
-512.829	-6.034	0.192	0.131
-511.814	231.219	-0.092	0.150
-510.799	-125.634	0.329	0.050
-509.785	16.366	0.097	0.076
-508.770	69.527	0.153	-0.157
-507.756	662.310	0.101	-0.259
-506.741	81.875	-0.121	-0.131
-505.726	-200.000	-0.005	-0.100
-504.712	92.858	0.161	0.181
-503.697	764.963	0.071	-0.192
-502.683	-104.550	0.138	0.032
-501.668	-173.166	0.306	0.009
-500.653	444.149	0.129	-0.282
-499.639	328.555	-0.181	-0.346
-498.624	-11.726	-0.134	-0.088
-497.610	-51.863	-0.406	0.188
-496.595	-200.000	-0.001	-0.082
-495.581	-200.000	-0.015	-0.210
-494.566	-103.881	0.312	0.073
-493.551	33.743	-0.066	0.058
-492.537	-91.694	0.130	0.037
-491.522	-68.043	-0.372	-0.144
-490.508	-131.662	0.307	-0.040
-489.493	139.456	-0.061	-0.080
-488.478	-200.000	0.008	-0.141
-487.464	800.000	-0.057	0.220
-486.449	-61.723	-0.370	-0.154
-485.435	-42.236	-0.053	0.027
-484.420	-22.521	0.179	-0.108
-483.405	-44.204	0.056	-0.028
-482.391	-200.000	0.004	0.197
-481.376	-194.571	-0.262	-0.002
-480.362	-37.337	-0.136	-0.072
-479.347	177.008	0.060	0.088
-478.332	128.222	-0.255	0.323
-477.318	-200.000	-0.052	0.246
-476.303	-39.393	0.321	-0.168
-475.289	-200.000	-0.029	0.202
-474.274	477.028	0.057	0.129
-473.259	271.248	-0.089	0.155
-472.245	-200.000	-0.260	0.000
-471.230	-53.084	-0.149	0.068
-470.216	800.000	0.066	-0.208
-469.201	-200.000	-0.031	-0.168
-468.186	282.865	-0.173	0.309
-467.172	-115.699	-0.460	-0.086
-466.157	11.924	-0.190	-0.145
-465.143	108.779	0.211	-0.250
-464.128	-135.472	0.315	-0.037
-463.113	-83.538	0.068	-0.022
-462.099	-200.000	0.043	0.230
-461.084	420.602	0.088	-0.188
-460.070	-67.588	-0.354	0.138
-459.055	-200.000	0.026	0.210
-458.040	238.308	-0.127	0.210
-457.026	-200.000	0.020	0.206
-456.011	-200.000	0.043	0.543
-454.997	-12.171	0.069	-0.045
-453.982	-200.000	-0.001	0.077
-452.968	-74.161	-0.198	-0.071
-451.953	215.625	-0.076	0.120
-450.938	58.927	0.271	0.265
-449.924	-24.855	0.128	-0.076
-448.909	800.000	-0.086	0.267
-447.895	-195.379	-0.255	-0.002
-446.880	-120.579	-0.320	0.054
-445.865	96.672	-0.070	0.080
-444.851	800.000	0.062	-0.172
-443.836	106.248	-0.270	-0.318
-442.822	-55.026	0.279	0.125
-441.807	178.140	0.086	0.125
-440.792	-157.537	0.090	0.005
-439.778	493.668	-0.160	0.366
-438.763	-58.388	-0.189	0.082
-437.749	-92.636	-0.395	0.110
-436.734	-115.357	-0.104	0.020
-435.719	34.128	-0.244	0.211
-434.705	-200.000	-0.037	0.361
-433.690	42.169	0.143	-0.129
-432.676	-163.191	-0.308	0.015
-431.661	752.089	-0.042	0.113
-430.646	154.372	-0.055	-0.076
-429.632	232.428	0.012	-0.019
-428.617	-82.024	0.133	-0.043
-427.603	707.649	-0.107	-0.280
-426.588	30.932	0.199	-0.170
-425.573	-109.668	-0.172	-0.036
-424.559	-40.494	-0.206	0.107
-423.544	-112.721	-0.120	0.024
-422.530	-100.406	0.376	-0.093
-421.515	472.936	0.144	-0.323
-420.500	-200.000	0.009	0.056
-419.486	275.439	-0.141	0.249
-418.471	198.423	-0.059	0.090
-417.457	726.775	-0.053	-0.141
-416.442	353.157	-0.196	-0.387
-415.428	709.908	-0.095	-0.251
-414.413	26.363	-0.310	-0.257
-413.398	-89.741	0.125	-0.036
-412.384	-200.000	0.007	0.069
-411.369	-159.220	-0.351	0.020
-410.355	181.616	-0.154	-0.226
-409.340	800.000	0.090	-0.272
-408.325	-200.000	0.023	0.180
-407.311	-145.853	0.291	0.026
-406.296	-146.515	-0.319	-0.028
-405.282	-125.899	0.269	0.040
-404.267	109.145	0.222	0.264
-403.252	-125.754	-0.345	-0.052
-402.238	-9.777	0.164	-0.109
-401.223	-200.000	-0.019	-0.247
-400.209	20.592	-0.142	0.114
-399.194	800.000	0.031	-0.126
-398.179	99.860	0.110	0.126
-397.165	800.000	-0.084	-0.276
-396.150	-200.000	0.035	-0.227
-395.136	145.688	-0.235	-0.313
-394.121	297.478	0.082	-0.150
-393.106	-71.862	0.083	-0.031
-392.092	16.519	0.029	0.023
-391.077	441.166	-0.067	0.145
-390.063	213.523	-0.116	0.181
-389.048	800.000	-0.066	-0.221
-388.033	450.957	0.111	-0.243
-387.019	-26.855	-0.199	0.115
-386.004	-200.000	-0.036	-0.314
-384.990	157.276	-0.059	-0.081
-383.975	-200.000	-0.036	0.172
-382.960	-89.451	0.527	-0.154
-381.946	-14.042	0.340	-0.217
-380.931	-5.429	0.160	-0.109
-379.917	593.526	0.080	0.195
-378.902	-200.000	-0.010	-0.088
-377.888	-73.316	0.345	-0.125
-376.873	21.578	-0.126	0.101
-375.858	8.110	0.260	-0.193
-374.844	-200.000	-0.005	0.106
-373.829	-10.964	-0.189	-0.124
-372.815	800.000	-0.069	0.192
-371.800	-126.607	0.256	-0.038
-370.785	168.223	0.100	0.141
-369.771	-156.312	-0.155	0.010
-368.756	-105.159	-0.201	0.046
-367.742	-83.301	0.116	-0.037
-366.727	511.684	0.217	-0.501
-365.712	-200.000	0.034	0.159
-364.698	157.131	0.119	-0.163
-363.683	730.999	0.091	-0.241
-362.669	203.168	0.162	0.249
-361.654	181.535	0.207	0.302
-360.639	-74.199	-0.257	-0.092
-359.625	140.983	-0.098	-0.128
-358.610	-63.887	0.223	-0.091
-357.596	800.000	-0.011	0.039
-356.581	60.971	0.124	0.122
-355.566	90.924	0.163	0.181
-354.552	-29.954	0.110	0.062
-353.537	-62.514	0.043	0.018
-352.523	66.832	0.188	0.190
-351.508	105.157	0.052	0.061
-350.493	-75.940	-0.230	-0.081
-349.479	-32.428	-0.301	0.166
-348.464	44.634	0.228	0.207
-347.450	-200.000	0.025	-0.217
-346.435	-70.558	-0.167	0.063
-345.420	-85.228	0.253	-0.078
-344.406	592.844	-0.111	0.272
-343.391	-200.000	0.001	0.467
-342.377	380.055	-0.112	0.227
-341.362	-23.051	0.121	0.072
-340.348	-143.094	-0.463	0.044
-339.333	-177.146	-0.325	0.008
-338.318	-97.012	-0.115	-0.030
-337.304	273.408	0.118	0.207
-336.289	-17.399	-0.184	-0.115
-335.275	366.567	-0.154	-0.308
-334.260	114.125	0.203	-0.244
-333.245	-200.000	-0.042	0.258
-332.231	16.996	0.125	-0.098
-331.216	800.000	-0.025	-0.105
-330.202	-76.727	0.131	-0.045
-329.187	-139.350	0.494	0.053
-328.172	-122.959	0.349	0.056
-327.158	399.006	0.018	0.036
-326.143	495.990	0.036	-0.082
-325.129	86.462	-0.083	-0.091
-324.114	109.352	-0.269	-0.319
-323.099	38.889	0.236	0.208
-322.085	616.272	-0.076	0.188
-321.070	-1.349	-0.055	-0.038
-320.056	344.317	0.080	-0.156
-319.041	-200.000	0.041	0.190
-318.026	-104.046	-0.101	-0.023
-317.012	5.726	0.192	0.141
-315.997	211.660	0.077	0.120
-314.983	-200.000	-0.011	-0.209
-313.968	-46.384	0.279	0.136
-312.953	470.831	-0.171	0.381
-311.939	274.708	0.059	0.103
-310.924	-200.000	-0.048	0.211
-309.910	-125.055	-0.227	0.034
-308.895	29.587	-0.298	0.251
-307.880	-200.000	-0.085	0.437
-306.866	-200.000	-0.000	0.186
-305.851	-200.000	0.045	0.331
-304.837	210.821	-0.021	-0.033
-303.822	-79.726	-0.241	0.080
-302.807	158.388	0.197	-0.271
-301.793	-164.794	0.225	0.010
-300.778	-81.858	0.289	0.093
-299.764	-122.182	-0.217	0.035
-298.749	45.917	-0.097	0.089
-297.735	461.704	-0.143	0.315
-296.720	800.000	-0.110	0.438
-295.705	87.693	0.115	-0.125
-294.691	-200.000	0.030	0.243
-293.676	-128.756	-0.213	-0.030
-292.662	-200.000	0.019	0.224
-291.647	388.341	0.162	0.331
-290.632	172.812	0.154	0.219
-289.618	-63.988	-0.045	-0.018
-288.603	-200.000	0.012	0.061
-287.589	9.216	0.454	0.339
-286.574	-14.719	0.061	-0.039
-285.559	-102.175	-0.121	-0.029
-284.545	-61.113	-0.271	-0.113
-283.530	-49.596	-0.133	0.063
-282.516	-47.354	-0.359	0.173
-281.501	490.882	0.015	-0.034
-280.486	-200.000	0.006	0.065
-279.472	163.539	-0.114	0.158
-278.457	-200.000	0.010	-0.069
-277.443	-96.315	-0.255	-0.067
-276.428	-87.836	0.154	-0.046
-275.413	-45.117	0.233	0.115
-274.399	202.964	0.082	-0.125
-273.384	57.474	-0.064	-0.062
-272.370	-88.224	-0.150	-0.044
-271.355	-3.525	0.203	-0.139
-270.340	354.777	0.096	-0.188
-269.326	86.434	-0.158	0.172
-268.311	15.074	0.083	0.064
-267.297	-130.074	0.072	0.010
-266.282	84.596	-0.266	0.288
-265.267	-200.000	0.041	0.189
-264.253	-37.721	0.264	-0.139
-263.238	800.000	0.008	0.033
-262.224	220.152	-0.144	-0.228
-261.209	-108.918	0.138	0.029
-260.195	297.214	0.138	0.250
-259.180	-200.000	0.084	0.484
-258.165	800.000	0.042	-0.174
-257.151	-200.000	0.034	-0.505
-256.136	-4.916	-0.343	-0.233
-255.122	26.832	-0.131	-0.109
-254.107	-38.058	-0.131	0.069
-253.092	-81.125	0.292	-0.095
-252.078	-200.000	-0.003	0.018
-251.063	-89.329	0.558	-0.162
-250.049	800.000	0.083	-0.307
-249.034	89.868	0.128	0.141
-248.019	800.000	0.036	0.136
-247.005	-74.125	0.084	-0.030
-245.990	58.246	0.083	-0.080
-244.976	-200.000	0.023	0.131
-243.961	-34.466	0.129	-0.070
-242.946	800.000	0.026	0.091
-241.932	8.857	0.074	-0.055
-240.917	-72.912	0.160	0.058
-239.903	36.144	0.152	-0.132
-238.888	190.639	0.108	0.160
-237.873	-85.822	0.234	0.072
-236.859	-119.924	-0.055	-0.009
-235.844	-42.375	-0.254	0.128
-234.830	-126.938	-0.126	0.018
-233.815	-25.506	-0.014	0.008
-232.800	-200.000	-0.006	0.137
-231.786	563.655	0.149	0.355
-230.771	-72.364	0.206	-0.075
-229.757	14.972	-0.159	0.122
-228.742	130.550	-0.069	-0.087
-227.727	-200.000	0.035	-0.192
-226.713	-136.219	-0.208	-0.024
-225.698	-200.000	-0.002	-0.120
-224.684	-109.281	-0.126	0.026
-223.669	369.982	-0.123	0.245
-222.655	-200.000	0.045	0.217
-221.640	542.106	0.096	0.227
-220.625	-14.926	0.236	0.149
-219.611	-79.412	0.396	0.132
-218.596	-121.779	0.277	-0.045
-217.582	74.921	0.218	0.226
-216.567	210.399	-0.234	0.362
-215.552	-200.000	-0.003	0.096
-214.538	800.000	0.093	-0.361
-213.523	-105.465	0.126	-0.028
-212.509	18.534	-0.035	0.028
-211.494	20.618	-0.332	-0.265
-210.479	-143.818	0.340	-0.032
-209.465	-39.698	0.201	-0.104
-208.450	103.608	-0.161	-0.186
-207.436	116.654	-0.218	-0.263
-206.421	-95.052	0.091	-0.024
-205.406	338.309	-0.101	0.194
-204.392	13.522	-0.369	-0.282
-203.377	29.519	0.099	-0.083
-202.363	290.625	-0.116	0.208
-201.348	-128.682	-0.172	0.024
-200.333	-14.816	0.308	0.195
-199.319	800.000	0.036	-0.100
-198.304	-92.321	0.045	0.012
-197.290	-82.946	0.310	0.098
-196.275	-200.000	-0.013	-0.451
-195.260	284.937	-0.142	0.251
-194.246	-132.215	0.081	0.010
-193.231	152.755	0.149	0.201
-192.217	-128.351	0.134	0.019
-191.202	800.000	-0.016	0.068
-190.187	498.638	0.060	0.135
-189.173	-51.075	-0.178	0.082
-188.158	-200.000	-0.021	-0.102
-187.144	-98.971	0.256	-0.064
-186.129	-200.000	0.002	-0.081
-185.114	-146.085	0.125	0.011
-184.100	-150.307	-0.288	-0.022
-183.085	-13.876	-0.061	0.039
-182.071	-200.000	0.011	-0.099
-181.056	-119.831	-0.279	-0.047
-180.042	38.769	0.279	0.245
-179.027	800.000	0.033	-0.127
-178.012	-200.000	-0.034	0.230
-176.998	-78.921	0.017	-0.006
-175.983	282.003	0.156	-0.275
-174.969	-140.149	-0.472	-0.049
-173.954	93.401	-0.142	-0.159
-172.939	608.454	0.074	-0.181
-171.925	-142.281	0.363	-0.035
-170.910	800.000	-0.080	-0.277
-169.896	-84.517	0.165	-0.051
-168.881	-115.062	-0.043	-0.008
-167.866	-76.505	0.128	0.044
-166.852	49.091	0.069	0.063
-165.837	-200.000	-0.058	-0.277
-164.823	-81.562	0.189	-0.061
-163.808	-93.955	0.221	0.060
-162.793	-88.455	0.327	-0.096
-161.779	-125.132	-0.067	-0.010
-160.764	-110.048	0.413	-0.085
-159.750	2.852	0.123	0.088
-158.735	-200.000	0.007	0.049
-157.720	-25.435	0.130	0.076
-156.706	-200.000	-0.003	0.113
-155.691	-107.196	0.220	0.048
-154.677	136.047	-0.159	0.204
-153.662	289.088	-0.081	-0.144
-152.647	-20.653	0.239	-0.144
-151.633	101.545	0.098	0.112
-150.618	-10.301	0.127	0.083
-149.604	112.973	-0.316	-0.377
-148.589	-75.905	0.460	-0.160
-147.574	384.367	0.055	-0.111
-146.560	-110.686	0.300	0.061
-145.545	21.259	0.128	-0.102
-144.531	-200.000	0.013	-0.061
-143.516	-113.653	-0.288	0.055
-142.502	17.944	0.012	-0.010
-141.487	-200.000	0.034	0.189
-140.472	-108.175	-0.389	0.083
-139.458	-98.565	-0.226	-0.057
-138.443	153.713	-0.168	0.226
-137.429	-179.384	0.155	-0.003
-136.414	-76.365	-0.297	-0.103
-135.399	571.226	-0.046	-0.111
-134.385	87.543	-0.163	-0.177
-133.370	-104.716	0.223	-0.051
-132.356	-200.000	-0.003	0.118
-131.341	-103.077	0.115	-0.027
-130.326	-200.000	-0.015	-0.105
-129.312	125.375	-0.100	0.124
-128.297	114.461	-0.092	0.111
-127.283	-200.000	0.034	-0.151
-126.268	-200.000	-0.026	0.206
-125.253	-62.426	0.318	0.130
-124.239	-142.807	0.200	0.019
-123.224	83.593	0.172	0.184
-122.210	-62.917	0.319	0.130
-121.195	582.316	-0.099	-0.238
