DTS Sentinel unit serial number:	SN413079Multiplexer serial number:	ORYXHardware model number:	OX4-SRSoftware version number:	ORYX F/W v4.00 Oryx Data Collector v3.7.2.0data status	okinstallation	princeton_trtdifferential loss correction	single-endedforward channel	channel 1reverse channel	N/Adate	2019/09/14time	04:22:35forward acquisition time	60.00reverse acquisition time	0.00gamma	496.2192k internal	0.2334k external	0.2334temperature offset calibration	1.0074default loss term (dB/km)	0.3790temperature slope calibration	1.0000multiplexer offset coefficient	1.0000multiplexer slope coefficient	1.0000fibre end	0.00T internal ref (°C)	26.75T ext. ref 1 (°C)	3.33T ext. ref 2 (°C)	21.91length (m)	temperature (°C)	Stokes	anti-Stokes-747.200	-6.129	0.089	0.061
-746.185	-75.783	0.254	0.091
-745.171	-181.608	-0.256	-0.005
-744.156	-27.940	-0.263	0.153
-743.142	213.821	0.122	0.194
-742.127	6.980	-0.282	0.211
-741.112	307.554	0.052	0.098
-740.098	-101.782	0.367	0.089
-739.083	-200.000	0.000	0.036
-738.069	-200.000	0.001	-0.151
-737.054	-199.040	-0.016	0.000
-736.039	-13.861	-0.041	0.027
-735.025	-200.000	0.012	0.251
-734.010	-94.889	-0.327	-0.089
-732.996	82.939	-0.122	-0.133
-731.981	601.457	-0.142	0.354
-730.966	-162.816	-0.256	0.013
-729.952	-79.465	-0.146	-0.050
-728.937	-29.789	-0.105	-0.060
-727.923	612.168	-0.089	0.224
-726.908	-132.299	-0.241	-0.031
-725.894	431.403	0.095	-0.207
-724.879	-93.068	0.329	0.092
-723.864	174.624	-0.028	0.040
-722.850	164.294	-0.224	0.317
-721.835	-165.345	0.277	-0.012
-720.821	200.352	-0.188	-0.290
-719.806	-65.694	-0.195	-0.078
-718.791	-200.000	-0.031	0.179
-717.777	50.668	-0.096	0.091
-716.762	800.000	-0.017	-0.065
-715.748	72.763	0.250	-0.262
-714.733	-200.000	-0.023	0.218
-713.718	33.265	0.166	0.144
-712.704	337.066	-0.130	-0.255
-711.689	26.218	-0.198	-0.166
-710.675	-35.426	0.135	-0.074
-709.660	-192.535	0.344	0.003
-708.645	-24.950	0.390	-0.232
-707.631	135.950	0.149	-0.194
-706.616	56.608	0.121	0.118
-705.602	-72.023	0.093	0.035
-704.587	-26.341	0.358	-0.211
-703.572	-146.944	-0.134	0.012
-702.558	-125.803	0.275	-0.042
-701.543	105.113	-0.234	-0.277
-700.529	209.403	-0.090	-0.142
-699.514	-52.277	0.186	-0.086
-698.499	51.307	0.110	0.104
-697.485	-13.995	-0.166	-0.108
-696.470	135.916	0.133	-0.173
-695.456	29.019	0.448	0.381
-694.441	-137.027	0.185	-0.021
-693.426	64.174	-0.214	-0.216
-692.412	-70.244	-0.198	0.076
-691.397	800.000	0.064	0.241
-690.383	800.000	-0.054	-0.183
-689.368	298.847	0.055	0.102
-688.354	-200.000	0.035	0.169
-687.339	31.898	0.213	0.184
-686.324	245.028	-0.078	-0.131
-685.310	-42.804	0.107	0.054
-684.295	-56.263	-0.096	-0.043
-683.281	-127.514	-0.257	-0.037
-682.266	-68.178	-0.101	0.040
-681.251	29.135	0.131	-0.112
-680.237	-121.811	0.333	-0.055
-679.222	10.192	-0.122	-0.093
-678.208	22.527	-0.291	0.238
-677.193	800.000	0.110	0.338
-676.178	-3.499	-0.383	0.267
-675.164	-200.000	0.029	0.216
-674.149	20.155	0.207	-0.167
-673.135	-26.051	0.129	-0.076
-672.120	-87.890	0.274	-0.083
-671.105	800.000	-0.110	-0.385
-670.091	-85.280	0.161	0.050
-669.076	161.755	0.239	-0.336
-668.062	-84.200	-0.125	0.040
-667.047	800.000	-0.025	-0.090
-666.032	6.328	0.254	0.189
-665.018	373.188	0.109	-0.223
-664.003	40.376	0.185	0.167
-662.989	-145.710	-0.251	-0.022
-661.974	35.859	0.160	0.141
-660.959	65.397	-0.230	0.233
-659.945	114.671	0.151	-0.185
-658.930	800.000	-0.062	-0.191
-657.916	73.645	-0.153	0.160
-656.901	-156.839	-0.112	-0.007
-655.886	-76.403	0.202	0.071
-654.872	100.684	-0.204	-0.237
-653.857	-171.272	0.227	0.008
-652.843	-92.181	-0.128	0.036
-651.828	-26.861	-0.041	0.024
-650.814	114.615	0.092	-0.113
-649.799	-200.000	-0.001	-0.199
-648.784	-200.000	0.013	-0.163
-647.770	238.541	-0.217	0.361
-646.755	-96.041	0.093	-0.025
-645.741	-123.807	-0.242	-0.038
-644.726	-133.260	0.541	0.068
-643.711	28.362	-0.214	-0.181
-642.697	-200.000	-0.024	-0.127
-641.682	-115.926	0.190	0.036
-640.668	800.000	-0.034	-0.106
-639.653	800.000	0.062	-0.172
-638.638	-200.000	0.037	-0.332
-637.624	-200.000	-0.009	-0.322
-636.609	108.716	0.247	-0.296
-635.595	-60.105	0.214	0.092
-634.580	-116.062	-0.033	0.006
-633.565	-200.000	0.068	-0.520
-632.551	477.108	0.172	-0.389
-631.536	-200.000	0.055	-0.278
-630.522	-3.288	0.164	-0.115
-629.507	-131.926	0.141	-0.018
-628.492	-55.604	0.323	0.145
-627.478	-101.616	-0.201	-0.049
-626.463	182.822	-0.186	-0.275
-625.449	-200.000	-0.013	-0.130
-624.434	800.000	-0.062	-0.270
-623.419	-78.744	-0.231	0.079
-622.405	155.875	-0.230	0.317
-621.390	-146.304	0.167	0.015
-620.376	-200.000	-0.011	-0.119
-619.361	52.943	0.124	0.119
-618.346	412.407	-0.094	0.201
-617.332	181.980	-0.079	0.116
-616.317	33.137	-0.081	-0.070
-615.303	-44.953	-0.165	-0.082
-614.288	-104.489	0.071	-0.016
-613.273	-189.350	-0.362	-0.004
-612.259	41.400	-0.198	-0.179
-611.244	45.533	0.074	0.068
-610.230	-88.956	0.206	0.061
-609.215	-47.824	0.330	0.160
-608.201	800.000	0.053	-0.170
-607.186	73.279	-0.467	-0.489
-606.171	-200.000	0.041	-0.295
-605.157	149.070	0.062	-0.084
-604.142	293.984	-0.211	-0.386
-603.128	-150.666	0.122	-0.009
-602.113	140.744	-0.141	-0.186
-601.098	38.652	0.289	-0.258
-600.084	-87.218	-0.273	0.083
-599.069	39.117	0.149	-0.134
-598.055	-200.000	0.017	-0.272
-597.040	-38.151	-0.297	0.158
-596.025	386.243	0.226	0.466
-595.011	88.043	0.191	-0.211
-593.996	107.841	-0.163	0.194
-592.982	19.632	0.371	0.298
-591.967	595.039	0.117	-0.290
-590.952	191.983	0.103	-0.155
-589.938	-68.182	0.215	0.084
-588.923	446.826	0.067	0.148
-587.909	-47.871	0.226	-0.110
-586.894	-2.560	0.086	-0.060
-585.879	800.000	0.043	0.173
-584.865	-156.003	-0.599	0.038
-583.850	-200.000	-0.029	-0.131
-582.836	-49.967	-0.235	-0.111
-581.821	343.696	-0.030	0.059
-580.806	-75.833	0.184	-0.065
-579.792	-200.000	0.067	-0.414
-578.777	52.355	-0.459	-0.437
-577.763	-200.000	-0.031	-0.175
-576.748	160.205	-0.175	-0.243
-575.733	-94.830	-0.136	0.037
-574.719	527.125	0.144	0.338
-573.704	126.988	-0.236	-0.298
-572.690	-200.000	0.044	-0.259
-571.675	-155.069	0.022	0.001
-570.661	151.191	0.145	0.196
-569.646	-95.623	0.110	-0.029
-568.631	-81.914	0.246	-0.080
-567.617	4.729	0.144	0.106
-566.602	-200.000	0.032	0.227
-565.588	102.959	0.283	0.331
-564.573	259.765	-0.133	-0.230
-563.558	68.653	-0.174	0.178
-562.544	-200.000	-0.066	0.426
-561.529	-22.214	-0.115	0.070
-560.515	-200.000	0.039	0.315
-559.500	533.659	0.051	-0.120
-558.485	-200.000	-0.017	-0.115
-557.471	566.778	0.159	0.385
-556.456	325.199	-0.126	0.241
-555.442	19.817	0.199	-0.160
-554.427	4.826	-0.114	0.084
-553.412	-110.019	0.349	-0.073
-552.398	800.000	0.031	0.110
-551.383	146.323	-0.219	0.293
-550.369	608.948	-0.049	-0.123
-549.354	250.902	-0.026	0.043
-548.339	79.499	-0.059	-0.064
-547.325	-200.000	-0.016	-0.205
-546.310	-43.662	-0.175	-0.088
-545.296	125.637	-0.072	0.090
-544.281	-66.803	-0.515	0.203
-543.266	79.166	-0.032	-0.034
-542.252	-200.000	-0.013	0.112
-541.237	-200.000	-0.092	0.436
-540.223	-200.000	0.050	-0.279
-539.208	-81.626	-0.115	0.038
-538.193	-33.757	0.157	0.086
-537.179	12.823	0.135	0.104
-536.164	-34.209	-0.436	-0.238
-535.150	1.852	-0.104	-0.075
-534.135	-82.027	0.428	-0.139
-533.121	-183.298	0.063	-0.001
-532.106	-46.100	-0.171	0.084
-531.091	372.494	0.068	-0.138
-530.077	800.000	0.052	-0.188
-529.062	109.895	0.069	0.082
-528.048	-59.470	0.176	-0.075
-527.033	190.270	-0.202	-0.303
-526.018	23.929	0.187	0.154
-525.004	-59.835	0.116	0.050
-523.989	13.837	0.198	-0.153
-522.975	78.789	0.055	0.058
-521.960	-93.527	-0.373	0.103
-520.945	64.783	0.172	0.173
-519.931	2.113	-0.223	-0.160
-518.916	-200.000	0.006	0.053
-517.902	346.230	0.096	-0.188
-516.887	153.516	0.151	-0.206
-515.872	-25.599	-0.322	0.190
-514.858	-153.027	-0.209	0.015
-513.843	-53.689	0.443	0.201
-512.829	800.000	-0.039	0.117
-511.814	-76.613	-0.091	0.032
-510.799	3.468	-0.136	-0.098
-509.785	-52.684	-0.364	-0.167
-508.770	115.328	-0.125	-0.152
-507.756	-129.443	-0.186	0.026
-506.741	-162.668	0.323	-0.016
-505.726	-200.000	0.007	-0.117
-504.712	-103.116	-0.013	0.003
-503.697	-73.591	0.148	0.054
-502.683	-200.000	-0.030	-0.315
-501.668	800.000	-0.032	-0.118
-500.653	-200.000	0.009	-0.106
-499.639	150.370	0.095	-0.128
-498.624	-97.786	0.381	-0.098
-497.610	164.758	0.123	0.172
-496.595	23.900	-0.201	0.165
-495.581	36.642	-0.010	-0.009
-494.566	-56.140	0.187	0.083
-493.551	-46.809	-0.038	0.019
-492.537	-104.271	-0.203	-0.047
-491.522	-155.423	0.077	0.005
-490.508	-200.000	-0.011	0.088
-489.493	645.034	0.052	-0.132
-488.478	124.168	0.094	-0.118
-487.464	610.571	0.079	-0.196
-486.449	-200.000	-0.013	-0.134
-485.435	800.000	-0.062	0.224
-484.420	800.000	0.022	0.079
-483.405	116.376	0.135	0.164
-482.391	-55.191	0.201	-0.090
-481.376	286.501	-0.140	0.252
-480.362	-56.771	-0.046	0.020
-479.347	-47.186	-0.392	0.190
-478.332	-117.154	-0.403	-0.073
-477.318	24.993	0.087	0.071
-476.303	-64.177	0.174	0.070
-475.289	9.561	-0.231	-0.174
-474.274	547.281	0.092	-0.220
-473.259	800.000	-0.122	0.337
-472.245	800.000	-0.085	-0.241
-471.230	44.964	-0.080	0.073
-470.216	-200.000	-0.012	-0.294
-469.201	-200.000	-0.072	-0.470
-468.186	10.651	-0.237	-0.180
-467.172	263.622	0.029	0.050
-466.157	79.517	0.167	-0.178
-465.143	-115.423	0.305	0.057
-464.128	20.896	0.288	0.232
-463.113	-106.800	-0.299	-0.066
-462.099	-128.358	-0.139	0.020
-461.084	-200.000	-0.006	0.190
-460.070	-82.903	0.255	0.082
-459.055	-28.515	0.222	-0.127
-458.040	-28.621	0.178	0.102
-457.026	-200.000	0.002	0.359
-456.011	399.597	-0.074	0.155
-454.997	713.905	0.044	-0.115
-453.982	800.000	-0.068	0.234
-452.968	94.785	-0.107	0.121
-451.953	92.158	0.143	-0.160
-450.938	-174.853	-0.411	0.011
-449.924	-200.000	0.011	0.171
-448.909	36.431	0.191	-0.167
-447.895	-200.000	-0.003	0.106
-446.880	144.158	0.070	-0.093
-445.865	-18.298	0.372	0.231
-444.851	-126.110	0.098	0.015
-443.836	220.498	-0.124	0.197
-442.822	-200.000	0.003	-0.295
-441.807	-31.004	0.139	-0.078
-440.792	800.000	-0.078	-0.218
-439.778	19.955	-0.089	0.071
-438.763	64.791	-0.072	-0.072
-437.749	161.172	0.164	-0.227
-436.734	-39.563	-0.021	-0.011
-435.719	114.422	-0.106	0.129
-434.705	92.053	0.016	0.018
-433.690	-73.763	-0.305	0.110
-432.676	62.851	0.157	-0.156
-431.661	-52.001	-0.299	0.138
-430.646	-93.453	0.147	-0.040
-429.632	31.180	0.072	0.061
-428.617	150.892	-0.267	-0.360
-427.603	-110.468	-0.243	0.050
-426.588	-69.633	0.185	0.070
-425.573	-1.065	-0.131	0.092
-424.559	-126.163	-0.330	-0.049
-423.544	-127.684	0.068	0.010
-422.530	-47.452	0.122	0.059
-421.515	-200.000	-0.005	0.092
-420.500	379.172	-0.090	-0.183
-419.486	154.331	-0.137	0.187
-418.471	-85.146	-0.029	0.009
-417.457	-49.652	-0.018	-0.009
-416.442	-166.841	0.292	0.012
-415.428	-52.237	-0.176	-0.081
-414.413	303.524	0.118	0.218
-413.398	-32.397	-0.302	0.167
-412.384	-200.000	0.032	0.314
-411.369	-200.000	0.001	0.199
-410.355	-89.464	-0.275	0.080
-409.340	122.517	0.165	0.204
-408.325	-131.026	0.134	-0.018
-407.311	-55.983	-0.155	0.069
-406.296	-111.038	0.386	-0.079
-405.282	800.000	0.038	0.112
-404.267	-200.000	0.057	0.313
-403.252	-94.484	0.185	0.050
-402.238	304.259	0.076	0.139
-401.223	-156.888	0.306	-0.019
-400.209	35.105	-0.230	0.200
-399.194	228.493	-0.141	-0.228
-398.179	95.158	0.151	-0.170
-397.165	800.000	0.109	-0.326
-396.150	800.000	-0.093	0.337
-395.136	-81.821	-0.222	-0.072
-394.121	525.220	0.071	0.165
-393.106	-64.372	0.138	0.055
-392.092	65.173	0.229	-0.229
-391.077	16.984	-0.078	-0.062
-390.063	-24.936	0.133	0.078
-389.048	800.000	-0.100	0.314
-388.033	-29.898	-0.156	-0.088
-387.019	-200.000	-0.037	-0.212
-386.004	-130.491	-0.249	0.033
-384.990	-101.569	-0.179	0.043
-383.975	-66.906	-0.219	0.086
-382.960	-106.210	0.109	0.024
-381.946	8.790	-0.248	0.186
-380.931	-42.999	-0.305	-0.153
-379.917	336.035	-0.064	-0.124
-378.902	-110.781	-0.475	0.097
-377.888	-200.000	-0.021	0.275
-376.873	203.694	0.149	0.229
-375.858	-90.879	0.320	-0.091
-374.844	-103.073	-0.104	0.024
-373.829	-148.946	0.408	0.033
-372.815	-80.184	-0.257	-0.085
-371.800	-200.000	-0.022	0.415
-370.785	211.467	-0.134	-0.208
-369.771	588.528	-0.090	-0.219
-368.756	51.242	-0.087	0.081
-367.742	-97.292	0.234	-0.061
-366.727	276.240	-0.104	-0.184
-365.712	36.066	0.238	-0.207
-364.698	776.354	0.036	0.099
-363.683	-97.014	0.104	0.027
-362.669	-200.000	-0.051	0.313
-361.654	-119.302	0.457	-0.079
-360.639	27.643	0.266	-0.221
-359.625	718.918	-0.031	-0.081
-358.610	-16.907	0.288	-0.180
-357.596	-127.361	0.097	0.014
-356.581	160.612	-0.037	0.052
-355.566	88.291	-0.043	0.048
-354.552	-200.000	0.074	-0.322
-353.537	-2.409	0.113	-0.078
-352.523	-200.000	-0.031	0.280
-351.508	-145.084	-0.107	-0.010
-350.493	86.016	0.447	-0.487
-349.479	-200.000	0.014	-0.266
-348.464	-200.000	-0.021	-0.119
-347.450	41.920	-0.164	-0.147
-346.435	-132.130	0.140	-0.018
-345.420	272.975	0.091	0.159
-344.406	410.146	-0.056	0.117
-343.391	12.502	-0.310	-0.237
-342.377	800.000	0.092	0.312
-341.362	-200.000	-0.037	0.181
-340.348	800.000	0.041	0.135
-339.333	-22.715	-0.184	0.110
-338.318	67.500	0.192	-0.194
-337.304	777.333	-0.066	0.178
-336.289	3.816	-0.118	-0.085
-335.275	-54.815	0.099	-0.044
-334.260	-78.532	0.341	0.115
-333.245	-120.450	-0.274	0.046
-332.231	-137.412	0.139	0.016
-331.216	710.393	0.031	-0.080
-330.202	-115.248	-0.089	-0.017
-329.187	157.609	0.125	-0.171
-328.172	247.417	0.081	0.135
-327.158	800.000	-0.197	0.557
-326.143	-165.176	0.144	-0.006
-325.129	110.439	-0.092	-0.109
-324.114	800.000	-0.119	0.330
-323.099	-200.000	0.035	-0.248
-322.085	19.300	-0.047	-0.037
-321.070	197.943	-0.059	-0.090
-320.056	800.000	0.107	-0.324
-319.041	800.000	-0.080	-0.221
-318.026	409.527	-0.095	-0.200
-317.012	-120.834	-0.077	0.013
-315.997	66.626	0.090	0.091
-314.983	-164.534	0.401	0.018
-313.968	415.753	-0.103	-0.216
-312.953	587.302	-0.126	0.308
-311.939	48.852	0.045	-0.042
-310.924	-18.668	0.130	-0.080
-309.910	66.693	-0.186	-0.187
-308.895	142.871	-0.096	-0.126
-307.880	-121.088	0.160	0.027
-306.866	-200.000	0.018	0.116
-305.851	800.000	0.071	-0.248
-304.837	370.378	-0.092	0.183
-303.822	5.065	-0.281	0.204
-302.807	258.329	-0.027	-0.046
-301.793	37.438	-0.073	-0.064
-300.778	-15.375	-0.188	0.119
-299.764	-52.386	-0.116	-0.053
-298.749	6.798	0.224	0.165
-297.735	130.877	0.117	0.149
-296.720	-153.863	-0.140	-0.009
-295.705	37.037	-0.323	0.282
-294.691	146.218	0.221	0.293
-293.676	69.869	0.185	-0.188
-292.662	131.507	0.090	-0.114
-291.647	358.705	0.008	-0.016
-290.632	87.146	0.099	-0.108
-289.618	800.000	-0.078	0.239
-288.603	660.952	0.092	0.233
-287.589	-200.000	-0.013	0.097
-286.574	-25.298	0.104	0.061
-285.559	212.577	0.189	0.295
-284.545	-92.001	-0.150	-0.042
-283.530	119.759	0.037	0.045
-282.516	800.000	-0.086	-0.235
-281.501	252.870	-0.243	-0.409
-280.486	-200.000	0.030	0.300
-279.472	-51.640	-0.168	-0.077
-278.457	-200.000	0.034	-0.213
-277.443	189.061	0.151	0.224
-276.428	-36.638	0.268	0.142
-275.413	-200.000	-0.005	0.194
-274.399	105.646	-0.182	-0.212
-273.384	-35.424	0.223	0.120
-272.370	-200.000	-0.038	0.379
-271.355	-200.000	0.007	0.109
-270.340	-86.400	0.062	-0.019
-269.326	71.796	0.254	-0.260
-268.311	-7.340	-0.139	-0.093
-267.297	23.967	-0.063	0.051
-266.282	545.010	-0.097	-0.229
-265.267	-57.613	0.164	0.071
-264.253	-200.000	0.077	0.365
-263.238	59.413	0.258	0.251
-262.224	800.000	-0.035	0.128
-261.209	176.305	0.084	-0.121
-260.195	-200.000	-0.051	0.260
-259.180	256.396	0.154	0.261
-258.165	261.163	-0.046	0.078
-257.151	-200.000	0.045	0.295
-256.136	145.195	0.140	-0.185
-255.122	106.801	0.173	-0.203
-254.107	800.000	-0.088	-0.365
-253.092	-200.000	0.020	-0.089
-252.078	17.222	0.035	0.027
-251.063	-27.893	-0.421	-0.240
-250.049	-184.071	0.247	0.004
-249.034	800.000	-0.072	0.246
-248.019	-200.000	0.001	-0.064
-247.005	-200.000	0.008	-0.184
-245.990	-20.129	-0.242	0.147
-244.976	-116.445	0.215	0.039
-243.961	194.970	0.206	0.308
-242.946	-96.728	-0.343	-0.089
-241.932	-84.327	0.091	0.028
-240.917	-41.160	-0.162	0.082
-239.903	-200.000	-0.022	-0.104
-238.888	66.649	-0.126	0.126
-237.873	-200.000	-0.029	0.417
-236.859	290.194	-0.104	-0.186
-235.844	15.580	-0.037	0.029
-234.830	800.000	0.041	0.142
-233.815	-122.934	0.148	-0.024
-232.800	501.616	0.046	0.104
-231.786	270.470	0.090	-0.155
-230.771	-67.816	-0.239	0.092
-229.757	-152.992	0.277	-0.019
-228.742	29.821	0.377	0.316
-227.727	800.000	0.081	-0.267
-226.713	149.832	-0.173	-0.231
-225.698	53.707	-0.314	0.297
-224.684	-200.000	-0.020	0.211
-223.669	-11.050	0.146	0.095
-222.655	-81.003	0.409	-0.133
-221.640	-98.245	0.182	-0.046
-220.625	800.000	-0.060	0.256
-219.611	-92.011	0.220	0.061
-218.596	542.408	-0.132	0.310
-217.582	-71.517	0.214	0.079
-216.567	-200.000	0.004	-0.136
-215.552	-79.142	-0.200	0.067
-214.538	314.771	0.078	0.144
-213.523	-62.501	0.220	0.090
-212.509	59.771	-0.235	0.229
-211.494	132.607	-0.070	0.089
-210.479	-129.891	-0.304	0.041
-209.465	202.751	0.179	-0.272
-208.450	48.799	-0.095	0.088
-207.436	-86.433	-0.015	0.005
-206.421	-200.000	-0.065	-0.302
-205.406	20.066	-0.289	-0.229
-204.392	149.547	0.088	-0.118
-203.377	-95.059	-0.280	0.074
-202.363	81.344	0.113	0.120
-201.348	-132.709	0.274	0.035
-200.333	216.965	-0.084	0.132
-199.319	30.551	0.117	0.099
-198.304	-80.442	-0.349	-0.115
-197.290	160.923	0.140	-0.193
-196.275	-54.301	-0.181	0.081
-195.260	102.837	0.031	0.036
-194.246	597.059	0.055	-0.133
-193.231	-44.196	0.059	-0.029
-192.217	28.101	0.414	0.344
-191.202	51.369	0.212	0.198
-190.187	-35.829	-0.177	0.094
-189.173	35.436	0.207	0.179
-188.158	-75.863	-0.129	0.045
-187.144	-26.838	0.164	-0.094
-186.129	466.464	-0.069	0.152
-185.114	184.061	0.017	-0.025
-184.100	217.068	0.156	0.244
-183.085	123.073	0.063	0.078
-182.071	-55.211	-0.203	0.090
-181.056	-146.637	0.034	0.003
-180.042	800.000	-0.065	-0.213
-179.027	516.273	-0.113	-0.260
-178.012	122.518	-0.118	-0.145
-176.998	652.481	-0.192	-0.484
-175.983	-51.093	-0.230	-0.106
-174.969	110.763	0.163	0.193
-173.954	-84.929	-0.033	-0.010
-172.939	21.438	-0.359	-0.287
-171.925	-200.000	-0.039	0.207
-170.910	44.085	-0.056	0.050
-169.896	22.624	0.089	-0.071
-168.881	13.692	-0.093	-0.071
-167.866	767.309	-0.179	-0.478
-166.852	-91.802	0.146	-0.041
-165.837	-111.357	-0.105	0.021
-164.823	-99.241	-0.206	0.051
-163.808	800.000	0.023	-0.099
-162.793	-104.939	-0.199	-0.045
-161.779	800.000	0.120	-0.332
-160.764	34.600	-0.045	0.039
-159.750	-12.961	-0.226	-0.144
-158.735	-89.978	0.117	-0.034
-157.720	181.864	0.086	0.124
-156.706	-200.000	-0.037	0.210
-155.691	85.452	-0.191	0.206
-154.677	332.081	0.136	0.258
-153.662	-89.121	0.106	-0.031
-152.647	79.590	-0.107	0.113
-151.633	800.000	0.160	0.545
-150.618	-200.000	-0.024	0.265
-149.604	800.000	-0.052	-0.192
-148.589	-137.291	0.147	-0.016
-147.574	-200.000	0.027	-0.216
-146.560	-200.000	-0.018	-0.233
-145.545	-133.919	0.096	0.012
-144.531	18.891	-0.009	0.007
-143.516	-200.000	-0.012	0.273
-142.502	18.936	0.091	0.072
-141.487	135.254	0.175	-0.223
-140.472	459.380	-0.140	-0.305
-139.458	-12.867	-0.276	0.176
-138.443	83.851	-0.365	-0.391
-137.429	800.000	-0.028	0.109
-136.414	44.117	-0.069	0.062
-135.399	-200.000	-0.001	-0.203
-134.385	22.697	0.157	-0.126
-133.370	-112.176	-0.322	0.064
-132.356	408.667	-0.078	-0.163
-131.341	-117.626	0.313	-0.055
-130.326	-182.942	-0.257	0.005
-129.312	96.114	0.008	0.009
-128.297	28.031	0.196	0.162
-127.283	214.514	0.100	-0.155
-126.268	64.540	0.119	-0.118
-125.253	-72.081	-0.178	-0.065
-124.239	-80.056	-0.331	-0.109
-123.224	-111.670	0.074	-0.015
-122.210	-200.000	0.026	0.173
-121.195	56.741	0.112	-0.107
-120.180	-27.109	0.098	-0.056
