DTS Sentinel unit serial number:	SN413079Multiplexer serial number:	ORYXHardware model number:	OX4-SRSoftware version number:	ORYX F/W v4.00 Oryx Data Collector v3.7.2.0data status	okinstallation	princeton_trtdifferential loss correction	single-endedforward channel	channel 1reverse channel	N/Adate	2019/09/10time	17:36:11forward acquisition time	60.00reverse acquisition time	0.00gamma	496.2192k internal	0.2299k external	0.2299temperature offset calibration	0.9932default loss term (dB/km)	0.3790temperature slope calibration	1.0000multiplexer offset coefficient	1.0000multiplexer slope coefficient	1.0000fibre end	0.00T internal ref (°C)	37.62T ext. ref 1 (°C)	-0.31T ext. ref 2 (°C)	31.43length (m)	temperature (°C)	Stokes	anti-Stokes-747.200	108.071	0.077	0.094
-746.185	96.016	0.139	0.162
-745.171	249.340	0.056	0.097
-744.156	800.000	-0.118	0.365
-743.142	-200.000	-0.029	-0.134
-742.127	-150.901	0.063	-0.005
-741.112	-171.583	0.163	-0.006
-740.098	11.722	0.195	0.153
-739.083	800.000	0.085	-0.286
-738.069	-77.970	-0.241	0.085
-737.054	-200.000	-0.009	-0.069
-736.039	-76.377	-0.290	0.104
-735.025	24.891	0.243	-0.206
-734.010	800.000	0.023	-0.102
-732.996	316.431	0.210	-0.405
-731.981	-200.000	0.082	-0.547
-730.966	-98.193	0.452	0.119
-729.952	279.507	-0.171	0.311
-728.937	-133.587	0.245	0.031
-727.923	-158.529	-0.192	0.011
-726.908	62.971	-0.137	-0.140
-725.894	-7.777	0.168	0.116
-724.879	404.788	-0.126	-0.271
-723.864	77.632	0.166	-0.180
-722.850	-200.000	0.045	-0.291
-721.835	-156.921	-0.266	0.017
-720.821	593.007	-0.098	-0.246
-719.806	-200.000	-0.088	0.397
-718.791	96.331	-0.105	0.122
-717.777	83.196	-0.202	-0.224
-716.762	-72.455	0.097	0.037
-715.748	-200.000	-0.014	-0.503
-714.733	121.535	0.099	-0.126
-713.718	250.157	-0.249	0.430
-712.704	643.353	0.043	0.111
-711.689	-200.000	0.013	-0.186
-710.675	65.903	0.074	0.077
-709.660	800.000	-0.039	-0.118
-708.645	-30.782	0.052	-0.030
-707.631	-200.000	-0.013	-0.138
-706.616	-200.000	0.064	-0.481
-705.602	284.797	0.053	-0.097
-704.587	-200.000	0.012	0.372
-703.572	696.181	-0.067	0.180
-702.558	257.961	0.070	-0.123
-701.543	-200.000	-0.010	-0.186
-700.529	-122.214	0.405	-0.068
-699.514	-85.334	-0.431	0.137
-698.499	746.998	-0.060	0.165
-697.485	47.059	-0.057	0.054
-696.470	531.388	0.108	-0.260
-695.456	-200.000	-0.001	0.366
-694.441	-53.016	0.236	0.110
-693.426	800.000	0.090	0.275
-692.412	-59.080	-0.214	-0.094
-691.397	-3.849	-0.126	0.089
-690.383	-200.000	-0.015	0.078
-689.368	800.000	0.085	-0.329
-688.354	-138.727	-0.115	-0.013
-687.339	-33.102	0.318	0.179
-686.324	800.000	0.100	0.376
-685.310	800.000	0.066	0.230
-684.295	202.457	-0.163	0.257
-683.281	-112.966	-0.167	0.034
-682.266	27.595	-0.105	-0.090
-681.251	-200.000	0.009	0.064
-680.237	-200.000	0.009	0.201
-679.222	-70.914	-0.164	-0.063
-678.208	64.037	-0.264	-0.270
-677.193	-1.110	-0.090	-0.065
-676.178	-200.000	0.050	0.326
-675.164	-135.516	-0.510	0.062
-674.149	800.000	0.109	-0.324
-673.135	-63.059	-0.086	-0.036
-672.120	-84.352	0.158	0.051
-671.105	-200.000	-0.041	-0.227
-670.091	800.000	-0.054	-0.194
-669.076	-53.325	0.224	0.105
-668.062	-132.881	0.606	0.079
-667.047	-60.454	0.121	-0.052
-666.032	191.927	-0.235	-0.360
-665.018	-154.201	0.369	-0.025
-664.003	221.758	0.134	-0.219
-662.989	-1.658	0.114	-0.081
-661.974	241.423	0.075	-0.128
-660.959	-200.000	0.009	-0.375
-659.945	-36.644	-0.267	-0.146
-658.930	-85.682	-0.278	0.088
-657.916	11.554	-0.196	-0.153
-656.901	-31.094	0.260	0.149
-655.886	676.812	-0.151	-0.398
-654.872	-109.828	0.130	0.028
-653.857	800.000	0.122	-0.369
-652.843	5.314	-0.097	-0.073
-651.828	800.000	0.082	-0.251
-650.814	69.483	-0.051	0.053
-649.799	-88.613	0.123	-0.037
-648.784	-43.651	-0.195	0.100
-647.770	-152.823	-0.089	-0.006
-646.755	800.000	0.067	0.215
-645.741	-94.709	0.311	0.086
-644.726	680.492	-0.152	-0.402
-643.711	800.000	-0.063	-0.279
-642.697	-159.283	0.187	-0.011
-641.682	800.000	-0.131	-0.470
-640.668	102.462	0.112	-0.133
-639.653	-85.712	0.392	-0.124
-638.638	47.599	-0.115	-0.109
-637.624	386.133	-0.061	-0.129
-636.609	-200.000	-0.038	-0.315
-635.595	-90.491	0.498	-0.146
-634.580	-139.591	-0.383	-0.042
-633.565	-200.000	-0.033	0.196
-632.551	800.000	0.155	-0.501
-631.536	-200.000	0.011	0.104
-630.522	326.430	-0.145	0.283
-629.507	-97.413	0.362	-0.096
-628.492	800.000	-0.010	0.042
-627.478	422.136	0.037	0.080
-626.463	-138.822	0.313	0.035
-625.449	307.786	0.035	-0.067
-624.434	-200.000	-0.052	-0.457
-623.419	50.334	0.196	-0.188
-622.405	318.574	-0.028	-0.055
-621.390	55.670	-0.055	0.054
-620.376	800.000	-0.039	-0.146
-619.361	-200.000	-0.006	0.224
-618.346	521.987	-0.059	-0.140
-617.332	16.552	0.133	0.107
-616.317	-200.000	0.005	0.170
-615.303	-40.683	-0.105	-0.056
-614.288	13.793	0.279	-0.220
-613.273	236.128	-0.069	-0.115
-612.259	-9.508	-0.215	0.146
-611.244	163.890	-0.115	0.164
-610.230	-200.000	0.285	0.001
-609.215	-200.000	0.017	-0.237
-608.201	684.739	-0.069	-0.182
-607.186	-21.490	-0.475	-0.294
-606.171	2.962	-0.031	0.023
-605.157	11.416	-0.260	0.202
-604.142	-200.000	-0.018	0.255
-603.128	16.987	-0.046	0.037
-602.113	751.631	-0.015	0.041
-601.098	200.903	0.019	-0.030
-600.084	-200.000	-0.010	0.053
-599.069	263.033	-0.097	0.171
-598.055	196.257	-0.013	0.020
-597.040	-80.260	0.042	-0.014
-596.025	55.893	0.269	-0.264
-595.011	-115.255	-0.345	0.066
-593.996	68.647	0.169	0.175
-592.982	206.865	-0.266	-0.421
-591.967	-31.090	-0.159	-0.091
-590.952	-200.000	0.022	0.192
-589.938	75.674	-0.361	0.387
-588.923	-84.807	0.241	0.077
-587.909	-200.000	-0.080	-0.390
-586.894	-88.084	0.268	0.082
-585.879	-200.000	0.076	0.385
-584.865	-24.675	-0.227	0.137
-583.850	-14.096	-0.333	0.218
-582.836	4.436	0.272	0.202
-581.821	603.491	0.044	0.110
-580.806	462.211	0.059	0.134
-579.792	-70.273	0.123	0.048
-578.777	-200.000	0.029	-0.153
-577.763	-134.936	0.218	-0.027
-576.748	-74.713	-0.364	0.133
-575.733	101.210	0.261	0.308
-574.719	552.560	-0.033	-0.081
-573.704	-18.462	0.152	-0.096
-572.690	66.825	0.148	-0.153
-571.675	-152.575	0.224	0.016
-570.661	125.832	-0.139	-0.178
-569.646	-200.000	0.079	-0.411
-568.631	-200.000	-0.010	-0.168
-567.617	-74.412	-0.218	0.080
-566.602	-109.289	0.267	-0.057
-565.588	-200.000	-0.389	0.000
-564.573	-101.454	-0.392	-0.097
-563.558	-160.230	0.262	-0.014
-562.544	-200.000	0.036	0.252
-561.529	332.542	0.128	0.251
-560.515	241.738	0.213	-0.361
-559.500	-73.661	-0.451	-0.166
-558.485	61.414	-0.087	-0.088
-557.471	-162.473	0.227	-0.011
-556.456	111.100	-0.203	0.248
-555.442	121.952	0.283	0.358
-554.427	-97.178	-0.294	-0.078
-553.412	-43.805	0.146	0.074
-552.398	-61.729	-0.139	-0.059
-551.383	-144.345	-0.494	-0.047
-550.369	-52.271	0.124	0.058
-549.354	-85.405	0.497	0.157
-548.339	21.301	-0.435	0.358
-547.325	-106.270	0.179	0.041
-546.310	46.342	0.308	-0.289
-545.296	800.000	-0.048	0.198
-544.281	130.666	-0.145	-0.189
-543.266	-51.514	-0.299	-0.141
-542.252	-59.285	-0.204	0.089
-541.237	-200.000	0.047	0.265
-540.223	-122.492	0.143	0.024
-539.208	633.298	0.065	0.166
-538.193	-200.000	-0.057	0.311
-537.179	-200.000	-0.017	-0.436
-536.164	-135.424	0.184	-0.022
-535.150	-9.063	-0.042	-0.028
-534.135	518.985	0.019	-0.044
-533.121	304.887	-0.163	0.306
-532.106	-120.043	-0.097	-0.017
-531.091	-200.000	-0.038	-0.312
-530.077	-129.351	-0.204	-0.029
-529.062	101.155	-0.043	0.050
-528.048	457.549	0.144	0.325
-527.033	-186.682	0.044	0.001
-526.018	689.722	0.014	-0.036
-525.004	49.697	0.133	-0.127
-523.989	-99.828	-0.412	-0.104
-522.975	122.921	0.106	-0.135
-521.960	-200.000	0.052	-0.300
-520.945	58.421	-0.047	-0.046
-519.931	-200.000	-0.045	-0.242
-518.916	131.183	-0.173	0.225
-517.902	77.001	-0.128	-0.138
-516.887	62.514	-0.268	0.271
-515.872	633.995	0.038	-0.098
-514.858	194.008	-0.270	0.413
-513.843	-115.337	-0.254	-0.049
-512.829	218.424	0.093	-0.150
-511.814	-109.092	-0.150	0.032
-510.799	-30.991	0.301	0.172
-509.785	412.853	-0.112	-0.240
-508.770	-200.000	-0.003	0.257
-507.756	146.964	0.085	-0.116
-506.741	-70.103	-0.254	-0.098
-505.726	-186.029	-0.208	0.003
-504.712	800.000	0.073	0.246
-503.697	-123.091	-0.272	0.044
-502.683	203.982	-0.124	0.195
-501.668	35.989	0.311	0.277
-500.653	-200.000	-0.017	0.300
-499.639	800.000	-0.064	0.239
-498.624	-33.679	-0.374	0.208
-497.610	-104.490	-0.290	0.068
-496.595	-196.290	0.209	-0.001
-495.581	-78.325	-0.053	-0.018
-494.566	649.491	0.084	0.217
-493.551	-151.795	0.336	0.025
-492.537	-94.862	-0.213	0.058
-491.522	72.629	-0.234	-0.246
-490.508	-16.270	-0.271	0.174
-489.493	212.140	0.205	-0.327
-488.478	800.000	-0.054	-0.181
-487.464	-68.117	0.188	0.074
-486.449	-121.972	-0.320	-0.053
-485.435	800.000	-0.029	0.092
-484.420	-52.484	0.343	-0.160
-483.405	-60.646	-0.481	0.206
-482.391	340.374	0.082	-0.161
-481.376	-89.422	0.056	-0.017
-480.362	142.207	0.148	-0.199
-479.347	-200.000	0.034	-0.258
-478.332	-74.872	0.095	-0.034
-477.318	-200.000	0.008	-0.092
-476.303	-77.517	0.208	0.073
-475.289	-79.661	0.246	0.084
-474.274	-184.513	-0.246	0.004
-473.259	-48.099	-0.144	-0.070
-472.245	-67.604	0.246	-0.097
-471.230	-200.000	-0.001	0.072
-470.216	310.134	-0.101	0.190
-469.201	-200.000	-0.010	-0.053
-468.186	76.280	-0.180	-0.192
-467.172	-53.519	0.166	0.077
-466.157	406.999	0.034	0.073
-465.143	-53.630	0.092	-0.042
-464.128	-28.439	-0.235	-0.137
-463.113	-128.415	0.446	-0.064
-462.099	800.000	-0.094	-0.286
-461.084	400.155	0.212	-0.448
-460.070	71.938	-0.152	0.160
-459.055	160.047	0.047	-0.066
-458.040	-163.454	-0.089	-0.004
-457.026	-50.613	-0.241	-0.115
-456.011	113.088	0.241	0.294
-454.997	119.978	0.052	0.065
-453.982	-200.000	0.044	-0.295
-452.968	484.986	-0.084	0.193
-451.953	3.223	-0.256	-0.188
-450.938	236.031	-0.197	0.328
-449.924	-79.664	-0.178	0.061
-448.909	-66.252	-0.254	0.102
-447.895	104.940	0.301	-0.358
-446.880	-24.119	-0.230	-0.139
-445.865	584.814	0.033	-0.082
-444.851	84.821	0.196	0.217
-443.836	-15.817	-0.173	0.111
-442.822	800.000	0.083	-0.337
-441.807	117.427	-0.095	-0.118
-440.792	800.000	0.046	0.182
-439.778	-157.538	0.020	0.001
-438.763	-200.000	-0.027	0.197
-437.749	800.000	-0.097	0.276
-436.734	-200.000	-0.013	0.079
-435.719	-47.253	0.195	-0.096
-434.705	-200.000	0.029	-0.250
-433.690	-93.759	-0.297	-0.082
-432.676	16.628	0.238	0.190
-431.661	13.581	0.411	0.322
-430.646	-200.000	-0.020	0.193
-429.632	-43.736	-0.220	0.112
-428.617	273.352	-0.024	0.042
-427.603	482.708	0.180	0.411
-426.588	83.920	-0.108	0.119
-425.573	340.614	-0.085	-0.166
-424.559	-154.916	0.382	0.025
-423.544	-52.432	0.155	0.072
-422.530	41.932	-0.141	-0.129
-421.515	-136.992	-0.345	0.040
-420.500	251.359	-0.170	0.292
-419.486	-121.270	-0.248	0.042
-418.471	-124.744	-0.200	-0.031
-417.457	47.889	0.253	0.238
-416.442	-124.284	0.109	-0.017
-415.428	-33.926	0.200	0.111
-414.413	44.373	0.293	0.271
-413.398	-103.672	0.408	0.096
-412.384	-71.656	0.195	-0.073
-411.369	12.692	-0.247	-0.192
-410.355	153.662	-0.127	-0.176
-409.340	-106.722	-0.321	-0.072
-408.325	-62.929	-0.146	0.061
-407.311	-62.457	0.212	-0.089
-406.296	800.000	0.082	0.275
-405.282	36.367	-0.117	-0.104
-404.267	-115.990	0.149	-0.028
-403.252	-200.000	-0.027	0.211
-402.238	800.000	-0.090	0.277
-401.223	292.824	0.026	-0.048
-400.209	-96.468	0.165	-0.044
-399.194	42.512	0.231	-0.212
-398.179	-88.986	-0.342	-0.102
-397.165	-24.470	0.254	0.152
-396.150	114.518	0.314	0.386
-395.136	-52.730	-0.236	-0.110
-394.121	138.027	-0.202	-0.267
-393.106	-65.982	0.034	-0.014
-392.092	50.434	-0.168	0.160
-391.077	-100.171	-0.196	-0.049
-390.063	-23.453	0.140	0.085
-389.048	-146.123	0.380	0.034
-388.033	-170.624	-0.127	0.004
-387.019	-97.563	-0.234	-0.061
-386.004	-54.545	0.055	-0.025
-384.990	-46.731	0.275	-0.135
-383.975	800.000	-0.062	-0.188
-382.960	319.840	-0.237	-0.452
-381.946	264.910	-0.110	-0.192
-380.931	-138.742	0.146	0.016
-379.917	-56.241	0.506	0.226
-378.902	-17.831	0.350	-0.221
-377.888	15.838	-0.242	0.192
-376.873	-11.520	0.152	0.100
-375.858	55.154	0.016	-0.016
-374.844	-200.000	-0.004	0.188
-373.829	-11.389	0.075	-0.050
-372.815	-64.908	-0.123	0.050
-371.800	5.186	-0.144	0.107
-370.785	-20.162	0.270	-0.168
-369.771	800.000	-0.008	0.030
-368.756	-49.988	-0.105	0.050
-367.742	59.132	0.104	0.103
-366.727	-63.695	-0.455	-0.188
-365.712	214.917	0.033	0.053
-364.698	-103.987	-0.363	-0.085
-363.683	800.000	0.110	-0.389
-362.669	-70.483	-0.185	0.071
-361.654	-129.745	-0.111	-0.015
-360.639	-200.000	-0.046	-0.250
-359.625	-138.394	0.082	-0.009
-358.610	-51.954	0.214	-0.100
-357.596	106.227	-0.088	-0.105
-356.581	671.923	0.101	-0.262
-355.566	800.000	0.079	-0.248
-354.552	-200.000	-0.047	-0.280
-353.537	221.136	0.183	0.295
-352.523	-89.607	0.210	-0.062
-351.508	-200.000	0.031	0.194
-350.493	-63.877	0.030	0.012
-349.479	7.526	-0.154	0.116
-348.464	175.830	0.069	0.100
-347.450	392.989	-0.145	0.304
-346.435	365.772	-0.017	0.035
-345.420	537.152	0.077	-0.183
-344.406	-67.539	-0.081	0.032
-343.391	-200.000	0.061	-0.312
-342.377	61.582	0.197	0.196
-341.362	772.001	-0.047	0.128
-340.348	153.935	0.083	0.114
-339.333	80.250	-0.171	0.185
-338.318	-108.986	-0.374	-0.080
-337.304	-17.855	0.183	-0.115
-336.289	40.242	-0.228	-0.206
-335.275	-200.000	-0.031	-0.212
-334.260	-200.000	0.004	-0.035
-333.245	369.949	0.055	0.111
-332.231	-200.000	0.008	-0.090
-331.216	800.000	0.081	-0.292
-330.202	-46.854	-0.162	-0.079
-329.187	-94.025	0.157	-0.043
-328.172	-167.525	0.149	0.006
-327.158	176.711	0.028	-0.041
-326.143	562.693	0.037	-0.091
-325.129	-138.305	-0.277	0.031
-324.114	-200.000	-0.023	-0.171
-323.099	-42.205	0.243	0.125
-322.085	6.984	0.052	0.039
-321.070	12.112	-0.077	0.059
-320.056	503.594	-0.062	-0.145
-319.041	-102.475	0.101	-0.024
-318.026	800.000	0.071	-0.207
-317.012	-182.211	0.165	0.003
-315.997	-200.000	0.025	-0.147
-314.983	-27.757	-0.168	0.098
-313.968	101.466	-0.015	-0.018
-312.953	-107.523	-0.440	0.097
-311.939	-200.000	-0.013	-0.204
-310.924	-200.000	-0.011	-0.216
-309.910	99.974	-0.066	-0.077
-308.895	800.000	-0.080	-0.299
-307.880	-103.557	-0.368	-0.087
-306.866	-89.731	0.270	-0.079
-305.851	-200.000	0.031	-0.320
-304.837	800.000	-0.095	-0.334
-303.822	-200.000	-0.001	0.207
-302.807	-47.769	-0.070	0.034
-301.793	-90.711	0.094	-0.027
-300.778	-117.952	-0.376	-0.068
-299.764	102.247	0.071	0.083
-298.749	389.251	0.175	0.364
-297.735	800.000	-0.081	0.268
-296.720	20.938	0.163	0.132
-295.705	-65.730	-0.120	-0.048
-294.691	30.085	-0.358	-0.306
-293.676	132.857	0.065	0.084
-292.662	-79.650	0.068	0.023
-291.647	-200.000	0.034	0.297
-290.632	-74.024	-0.192	0.070
-289.618	420.180	0.077	0.166
-288.603	128.918	-0.297	0.380
-287.589	800.000	0.143	0.452
-286.574	-34.218	-0.098	-0.054
-285.559	338.126	0.128	-0.249
-284.545	-200.000	0.000	-0.192
-283.530	-200.000	-0.011	0.198
-282.516	41.394	-0.181	-0.164
-281.501	-48.231	0.371	-0.179
-280.486	800.000	0.057	0.213
-279.472	-30.464	-0.222	0.126
-278.457	-161.870	0.350	0.018
-277.443	-9.361	-0.177	-0.119
-276.428	-78.217	0.174	0.060
-275.413	-41.076	-0.133	0.069
-274.399	-140.988	0.300	0.031
-273.384	135.004	0.082	-0.107
-272.370	96.899	-0.202	0.232
-271.355	60.429	0.171	0.170
-270.340	-44.410	0.133	0.067
-269.326	-57.727	-0.083	0.036
-268.311	360.668	-0.080	0.161
-267.297	87.172	-0.285	0.316
-266.282	37.755	-0.211	-0.187
-265.267	-200.000	0.011	-0.209
-264.253	-116.444	0.196	0.036
-263.238	-200.000	0.005	0.066
-262.224	-200.000	0.014	0.146
-261.209	800.000	0.057	0.199
-260.195	111.780	-0.174	-0.210
-259.180	219.520	-0.057	0.092
-258.165	50.411	0.164	-0.155
-257.151	-97.076	0.175	-0.046
-256.136	-94.392	0.063	0.017
-255.122	-189.487	-0.087	-0.001
-254.107	155.568	0.133	-0.183
-253.092	-200.000	0.019	0.222
-252.078	200.682	0.133	0.205
-251.063	-32.126	0.288	-0.161
-250.049	637.907	-0.094	0.240
-249.034	342.779	-0.097	-0.191
-248.019	-37.095	-0.172	0.092
-247.005	-200.000	-0.039	0.183
-245.990	327.313	0.158	0.304
-244.976	-96.984	-0.114	0.030
-243.961	17.671	-0.132	0.105
-242.946	-200.000	0.017	-0.098
-241.932	-112.422	0.255	-0.051
-240.917	-53.583	0.325	0.149
-239.903	60.889	0.081	-0.080
-238.888	-87.135	0.091	-0.028
-237.873	203.779	0.045	-0.070
-236.859	-6.503	-0.237	0.162
-235.844	755.397	-0.055	0.148
-234.830	4.421	-0.138	-0.101
-233.815	-71.749	0.205	-0.076
-232.800	57.443	0.226	-0.220
-231.786	-59.874	0.149	0.064
-230.771	-200.000	0.011	0.206
-229.757	-83.244	0.269	0.086
-228.742	235.088	0.045	0.074
-227.727	139.896	0.082	-0.108
-226.713	559.084	-0.062	0.150
-225.698	-146.578	0.148	0.013
-224.684	426.766	0.043	-0.092
-223.669	-143.044	-0.261	-0.025
-222.655	352.882	-0.119	-0.235
-221.640	800.000	-0.042	-0.125
-220.625	-79.755	-0.169	0.057
-219.611	-82.222	0.152	0.049
-218.596	41.378	0.138	-0.125
-217.582	-200.000	0.101	0.458
-216.567	-200.000	0.025	-0.514
-215.552	128.868	0.150	-0.191
-214.538	800.000	0.016	0.065
-213.523	-51.688	0.226	-0.106
-212.509	-12.034	0.242	-0.158
-211.494	44.897	0.240	0.221
-210.479	-88.999	0.052	0.015
-209.465	800.000	0.014	0.050
-208.450	166.150	0.156	0.221
-207.436	800.000	0.043	0.167
-206.421	177.959	-0.184	-0.269
-205.406	-30.567	-0.110	-0.062
-204.392	201.835	-0.214	0.330
-203.377	-55.954	-0.232	-0.103
-202.363	-102.825	0.460	0.109
-201.348	62.415	0.070	-0.070
-200.333	271.057	0.095	-0.168
-199.319	-90.314	-0.049	-0.014
-198.304	-151.219	0.213	0.016
-197.290	-200.000	-0.034	-0.176
-196.275	-11.882	0.409	0.268
-195.260	-175.372	-0.006	-0.000
-194.246	-129.730	-0.295	0.041
-193.231	-200.000	0.004	-0.069
-192.217	13.988	-0.144	-0.112
-191.202	800.000	-0.062	-0.230
-190.187	-200.000	0.021	0.166
-189.173	-188.410	-0.200	0.003
-188.158	289.743	0.161	-0.291
-187.144	-172.393	0.173	-0.006
-186.129	169.086	-0.109	-0.155
-185.114	-68.340	-0.194	0.075
-184.100	-20.168	0.176	0.108
-183.085	-161.966	0.159	0.008
-182.071	17.839	-0.356	0.283
-181.056	-200.000	-0.023	-0.247
-180.042	-196.050	-0.089	0.001
-179.027	-63.339	-0.147	-0.060
-178.012	-200.000	-0.018	0.219
-176.998	-76.251	-0.027	0.009
-175.983	-2.916	0.190	-0.132
-174.969	-115.829	0.312	-0.058
-173.954	-8.608	0.186	-0.124
-172.939	144.916	-0.155	-0.207
-171.925	8.254	-0.172	-0.129
-170.910	800.000	0.039	-0.141
-169.896	800.000	0.069	-0.208
-168.881	-200.000	-0.005	0.029
-167.866	-11.323	0.093	-0.061
-166.852	-117.262	-0.215	0.039
-165.837	-200.000	-0.022	0.219
-164.823	150.426	0.158	0.214
-163.808	-200.000	0.002	0.060
-162.793	-200.000	0.041	0.188
-161.779	-142.777	-0.263	0.026
-160.764	-200.000	-0.006	0.053
-159.750	-21.658	-0.245	0.149
-158.735	134.557	0.111	-0.144
-157.720	331.799	0.022	0.043
-156.706	63.978	0.039	0.039
-155.691	-94.741	0.276	0.075
-154.677	76.400	0.220	0.232
-153.662	54.683	-0.044	-0.042
-152.647	49.204	-0.168	0.157
-151.633	-146.260	0.287	0.025
-150.618	-200.000	0.025	0.259
-149.604	-43.312	0.237	-0.120
-148.589	-98.480	-0.346	-0.088
-147.574	-86.861	0.240	-0.073
-146.560	-109.942	-0.398	0.083
-145.545	-111.144	0.214	-0.044
-144.531	107.835	-0.189	-0.225
-143.516	284.530	0.129	-0.231
-142.502	-200.000	-0.039	-0.242
-141.487	-200.000	0.025	-0.136
-140.472	86.499	-0.071	-0.078
-139.458	-23.782	0.112	0.067
-138.443	-200.000	-0.009	-0.135
-137.429	78.426	0.074	0.079
-136.414	-85.452	-0.200	-0.062
-135.399	365.346	-0.197	-0.395
-134.385	-99.803	-0.253	0.063
-133.370	358.208	0.188	0.374
-132.356	-110.898	0.279	0.057
-131.341	-200.000	0.006	-0.148
-130.326	-100.905	-0.166	0.041
-129.312	800.000	0.110	-0.368
-128.297	77.988	0.067	-0.071
-127.283	-200.000	-0.001	0.205
-126.268	124.127	0.123	-0.154
-125.253	-200.000	0.003	-0.136
-124.239	-107.348	-0.334	0.073
-123.224	127.936	0.115	-0.146
-122.210	414.902	0.018	-0.038
-121.195	192.871	-0.258	0.388
