DTS Sentinel unit serial number:	SN413079Multiplexer serial number:	ORYXHardware model number:	OX4-SRSoftware version number:	ORYX F/W v4.00 Oryx Data Collector v3.7.2.0data status	okinstallation	princeton_trtdifferential loss correction	single-endedforward channel	channel 1reverse channel	N/Adate	2019/09/15time	17:02:35forward acquisition time	60.00reverse acquisition time	0.00gamma	496.2192k internal	0.2291k external	0.2291temperature offset calibration	0.9932default loss term (dB/km)	0.3790temperature slope calibration	1.0000multiplexer offset coefficient	1.0000multiplexer slope coefficient	1.0000fibre end	0.00T internal ref (°C)	44.52T ext. ref 1 (°C)	5.87T ext. ref 2 (°C)	40.97length (m)	temperature (°C)	Stokes	anti-Stokes-747.200	464.147	-0.026	-0.059
-746.185	-200.000	0.026	0.270
-745.171	800.000	0.015	-0.065
-744.156	202.985	0.147	0.233
-743.142	402.869	-0.043	-0.092
-742.127	-200.000	-0.023	0.237
-741.112	-200.000	-0.054	-0.316
-740.098	-124.051	0.051	0.008
-739.083	389.394	-0.056	-0.120
-738.069	44.639	-0.398	0.374
-737.054	20.379	-0.261	-0.216
-736.039	-139.107	-0.315	0.035
-735.025	266.753	-0.068	-0.122
-734.010	800.000	-0.048	0.137
-732.996	17.106	-0.094	-0.076
-731.981	18.081	-0.336	0.274
-730.966	800.000	0.057	0.178
-729.952	800.000	-0.043	-0.163
-728.937	800.000	-0.036	-0.112
-727.923	800.000	0.033	0.141
-726.908	-200.000	-0.014	0.202
-725.894	57.150	-0.202	0.202
-724.879	-76.432	-0.517	0.186
-723.864	165.896	-0.103	0.148
-722.850	132.004	0.037	0.049
-721.835	65.321	0.187	0.193
-720.821	298.924	-0.141	-0.265
-719.806	-166.425	-0.481	0.021
-718.791	5.694	-0.135	-0.102
-717.777	79.127	0.156	-0.171
-716.762	-107.107	0.081	-0.018
-715.748	219.656	0.088	-0.144
-714.733	-200.000	-0.019	0.304
-713.718	-103.731	0.499	-0.120
-712.704	227.767	0.062	0.103
-711.689	130.228	-0.152	-0.199
-710.675	-200.000	0.034	-0.230
-709.660	-200.000	-0.007	0.180
-708.645	800.000	0.056	0.203
-707.631	-123.814	-0.245	-0.040
-706.616	-13.109	0.154	0.102
-705.602	371.476	0.146	0.303
-704.587	-70.546	-0.218	-0.084
-703.572	148.333	0.087	0.121
-702.558	230.286	-0.036	-0.060
-701.543	-48.380	0.094	0.046
-700.529	-65.078	0.115	0.048
-699.514	31.384	-0.108	-0.095
-698.499	800.000	-0.027	-0.104
-697.485	-57.640	-0.328	-0.147
-696.470	292.606	-0.118	-0.220
-695.456	247.615	-0.069	-0.119
-694.441	-51.316	0.114	-0.054
-693.426	-70.505	-0.463	-0.179
-692.412	800.000	0.086	0.278
-691.397	502.394	-0.191	0.451
-690.383	160.056	0.234	-0.334
-689.368	-19.603	0.137	0.087
-688.354	56.180	0.186	-0.184
-687.339	-50.666	-0.085	-0.041
-686.324	61.021	-0.137	0.139
-685.310	524.070	-0.130	-0.313
-684.295	800.000	0.060	-0.225
-683.281	290.494	-0.030	-0.056
-682.266	-153.225	-0.174	0.012
-681.251	-48.089	-0.147	0.072
-680.237	205.004	-0.239	0.378
-679.222	-54.446	0.120	-0.056
-678.208	-48.916	-0.119	-0.058
-677.193	47.539	0.023	0.022
-676.178	-200.000	0.022	0.275
-675.164	-125.831	-0.310	0.048
-674.149	124.660	-0.168	0.215
-673.135	-44.006	-0.239	0.123
-672.120	-200.000	-0.012	-0.123
-671.105	-200.000	-0.009	-0.145
-670.091	439.260	-0.028	-0.063
-669.076	408.894	0.033	0.072
-668.062	-141.999	-0.148	-0.015
-667.047	39.270	-0.295	-0.270
-666.032	20.957	0.052	-0.043
-665.018	28.390	-0.033	-0.029
-664.003	-200.000	-0.090	0.423
-662.989	114.646	-0.084	0.104
-661.974	104.167	-0.047	0.057
-660.959	483.396	-0.059	0.136
-659.945	-152.005	-0.464	-0.035
-658.930	-143.550	-0.188	-0.018
-657.916	-30.205	-0.364	0.211
-656.901	245.366	-0.121	-0.207
-655.886	594.320	0.035	0.088
-654.872	-200.000	-0.006	0.115
-653.857	158.569	0.286	-0.405
-652.843	-167.616	-0.121	-0.005
-651.828	230.304	-0.132	0.220
-650.814	130.323	-0.181	-0.236
-649.799	-200.000	-0.006	0.118
-648.784	800.000	-0.046	0.156
-647.770	800.000	0.029	0.092
-646.755	-200.000	-0.015	0.191
-645.741	-141.392	0.325	0.034
-644.726	-18.341	0.136	-0.087
-643.711	29.688	0.048	0.042
-642.697	99.670	-0.134	0.158
-641.682	45.108	0.142	0.133
-640.668	-1.645	-0.354	0.254
-639.653	244.392	-0.142	-0.244
-638.638	800.000	-0.073	-0.308
-637.624	-200.000	0.003	-0.085
-636.609	-200.000	-0.007	0.262
-635.595	-43.945	0.047	0.024
-634.580	-132.063	-0.161	-0.021
-633.565	-110.919	-0.194	0.041
-632.551	-127.453	0.222	0.033
-631.536	62.346	-0.184	0.187
-630.522	28.865	-0.062	0.053
-629.507	-200.000	0.028	0.159
-628.492	-200.000	0.060	-0.333
-627.478	39.764	-0.257	0.235
-626.463	130.646	-0.153	-0.200
-625.449	-9.168	-0.215	-0.147
-624.434	548.476	-0.120	0.293
-623.419	17.912	-0.175	-0.142
-622.405	48.045	-0.356	0.339
-621.390	92.476	-0.229	-0.263
-620.376	-98.381	-0.534	-0.139
-619.361	-200.000	-0.009	-0.076
-618.346	11.536	0.194	0.151
-617.332	-200.000	0.026	0.127
-616.317	78.376	-0.109	-0.118
-615.303	-38.582	-0.144	-0.077
-614.288	364.885	0.151	-0.309
-613.273	-60.104	0.150	-0.065
-612.259	553.705	-0.082	-0.201
-611.244	-46.148	-0.151	-0.076
-610.230	800.000	-0.018	-0.067
-609.215	-123.746	-0.272	0.044
-608.201	800.000	-0.068	-0.228
-607.186	271.981	-0.134	0.240
-606.171	-21.765	0.320	0.198
-605.157	-117.009	-0.307	0.057
-604.142	-200.000	-0.022	0.189
-603.128	21.853	-0.204	-0.170
-602.113	226.918	-0.041	0.068
-601.098	-138.493	0.161	0.018
-600.084	800.000	0.051	0.220
-599.069	-19.388	0.074	0.046
-598.055	201.502	-0.058	0.090
-597.040	-200.000	-0.021	0.325
-596.025	-128.593	-0.292	0.042
-595.011	-200.000	0.000	0.173
-593.996	-49.707	0.040	0.019
-592.982	-95.145	0.096	0.026
-591.967	-80.728	0.079	-0.027
-590.952	-121.156	0.247	-0.042
-589.938	800.000	-0.061	0.191
-588.923	-152.512	-0.219	0.016
-587.909	-200.000	0.019	0.109
-586.894	120.178	-0.052	0.066
-585.879	-200.000	0.026	-0.177
-584.865	-67.769	-0.213	0.085
-583.850	335.538	0.070	0.138
-582.836	-80.401	0.129	0.044
-581.821	800.000	-0.019	-0.064
-580.806	-200.000	-0.011	0.320
-579.792	-117.180	0.071	0.013
-578.777	-200.000	0.058	-0.268
-577.763	-0.764	-0.215	0.155
-576.748	65.405	0.184	-0.189
-575.733	785.383	-0.088	-0.245
-574.719	62.960	0.197	-0.201
-573.704	-15.816	0.212	-0.138
-572.690	-118.206	-0.489	-0.089
-571.675	800.000	0.062	-0.219
-570.661	131.965	0.135	0.177
-569.646	-62.214	-0.261	0.111
-568.631	-200.000	-0.056	0.343
-567.617	304.994	0.110	0.208
-566.602	-40.093	-0.262	0.139
-565.588	96.562	-0.066	-0.076
-564.573	-138.418	0.095	0.011
-563.558	90.633	0.081	-0.092
-562.544	-66.026	0.033	-0.013
-561.529	73.074	0.223	-0.237
-560.515	800.000	0.135	0.465
-559.500	459.651	0.128	-0.291
-558.485	51.798	0.280	-0.271
-557.471	-44.590	0.279	-0.142
-556.456	13.790	0.161	-0.127
-555.442	-91.191	-0.390	-0.114
-554.427	790.473	0.036	-0.101
-553.412	-21.074	-0.222	0.138
-552.398	14.215	-0.308	0.244
-551.383	-94.910	-0.254	-0.070
-550.369	-149.908	0.319	-0.025
-549.354	-77.618	0.257	0.090
-548.339	-200.000	0.041	-0.409
-547.325	-179.485	-0.321	-0.007
-546.310	-200.000	-0.061	-0.318
-545.296	3.067	0.172	-0.127
-544.281	34.604	0.139	-0.123
-543.266	-200.000	-0.051	-0.277
-542.252	354.038	-0.109	-0.220
-541.237	83.573	-0.007	0.008
-540.223	222.260	0.133	-0.217
-539.208	47.347	0.032	0.030
-538.193	118.694	-0.076	0.095
-537.179	-200.000	-0.019	0.111
-536.164	102.226	-0.147	0.175
-535.150	382.121	-0.042	-0.089
-534.135	-69.261	0.373	-0.146
-533.121	322.021	-0.085	0.164
-532.106	-128.968	0.078	-0.011
-531.091	207.333	-0.028	-0.044
-530.077	-48.086	0.288	-0.141
-529.062	-200.000	-0.037	-0.364
-528.048	800.000	0.119	-0.432
-527.033	-120.718	-0.216	0.037
-526.018	226.458	-0.143	-0.236
-525.004	47.304	0.137	-0.129
-523.989	16.000	0.061	0.049
-522.975	8.530	-0.212	-0.162
-521.960	20.720	0.238	-0.196
-520.945	93.273	-0.190	-0.218
-519.931	-26.332	-0.062	-0.037
-518.916	23.034	0.378	-0.315
-517.902	-200.000	0.021	0.122
-516.887	309.634	-0.173	0.329
-515.872	-64.481	-0.148	-0.061
-514.858	28.217	0.172	0.147
-513.843	67.258	-0.122	-0.126
-512.829	-200.000	-0.006	0.208
-511.814	34.914	0.321	0.285
-510.799	190.482	0.071	-0.108
-509.785	44.692	0.241	-0.225
-508.770	296.079	-0.096	0.179
-507.756	-200.000	-0.012	0.288
-506.741	-200.000	-0.044	0.234
-505.726	-1.370	0.279	0.200
-504.712	61.589	-0.151	-0.152
-503.697	94.433	0.088	-0.101
-502.683	62.440	0.112	-0.113
-501.668	166.840	-0.280	-0.403
-500.653	-54.077	-0.220	-0.101
-499.639	800.000	-0.013	0.042
-498.624	92.073	0.235	0.268
-497.610	47.464	0.235	-0.222
-496.595	149.134	0.163	-0.223
-495.581	316.989	-0.130	-0.249
-494.566	-92.913	-0.217	-0.061
-493.551	36.857	0.166	0.148
-492.537	77.134	-0.106	0.114
-491.522	629.633	-0.076	-0.194
-490.508	-44.160	0.158	0.080
-489.493	-74.040	0.061	-0.022
-488.478	-200.000	0.086	0.423
-487.464	-83.984	-0.308	-0.099
-486.449	-200.000	0.004	-0.038
-485.435	800.000	0.069	-0.253
-484.420	-4.739	-0.100	-0.070
-483.405	-0.271	-0.187	0.134
-482.391	-21.978	-0.082	-0.050
-481.376	559.803	-0.094	-0.231
-480.362	800.000	-0.044	0.189
-479.347	-200.000	-0.013	0.092
-478.332	-147.527	-0.352	0.030
-477.318	-178.958	0.152	-0.003
-476.303	-34.280	0.290	-0.161
-475.289	-200.000	0.008	-0.146
-474.274	-200.000	0.033	-0.174
-473.259	511.974	0.116	0.274
-472.245	5.490	0.059	0.044
-471.230	-200.000	0.037	0.170
-470.216	800.000	-0.057	0.162
-469.201	-200.000	0.028	-0.270
-468.186	800.000	0.052	0.190
-467.172	3.171	-0.188	0.139
-466.157	-200.000	-0.006	-0.227
-465.143	55.935	0.140	0.138
-464.128	-200.000	-0.019	0.221
-463.113	26.153	-0.159	-0.134
-462.099	146.206	-0.186	0.253
-461.084	-116.038	-0.095	0.018
-460.070	800.000	0.065	-0.262
-459.055	59.247	0.142	-0.142
-458.040	-166.744	-0.134	0.006
-457.026	40.516	-0.103	0.094
-456.011	737.310	0.078	0.211
-454.997	-28.014	0.084	0.049
-453.982	800.000	-0.018	-0.077
-452.968	112.195	-0.027	0.033
-451.953	-200.000	0.014	-0.221
-450.938	-197.431	0.367	0.002
-449.924	800.000	-0.072	0.280
-448.909	290.926	-0.077	0.141
-447.895	-200.000	-0.024	-0.239
-446.880	-84.369	-0.125	-0.040
-445.865	-111.496	0.212	0.044
-444.851	-200.000	0.069	0.489
-443.836	-139.208	0.199	0.022
-442.822	-102.827	-0.204	-0.049
-441.807	-48.616	0.014	0.007
-440.792	-139.946	-0.156	0.017
-439.778	-200.000	0.047	-0.296
-438.763	-43.590	0.325	-0.166
-437.749	-10.178	-0.187	-0.125
-436.734	113.367	0.083	-0.102
-435.719	-51.370	-0.194	-0.092
-434.705	-31.543	-0.025	0.014
-433.690	465.071	0.145	0.329
-432.676	254.806	-0.081	0.141
-431.661	-200.000	0.033	-0.230
-430.646	-105.961	-0.113	0.026
-429.632	665.450	0.046	-0.121
-428.617	-200.000	0.035	-0.161
-427.603	-200.000	0.048	-0.304
-426.588	158.392	-0.093	-0.131
-425.573	-200.000	0.012	0.091
-424.559	642.357	-0.196	0.506
-423.544	-14.597	-0.145	0.094
-422.530	223.286	0.141	0.231
-421.515	277.234	0.139	-0.251
-420.500	-144.973	-0.347	0.032
-419.486	-200.000	0.001	0.115
-418.471	-200.000	-0.006	-0.086
-417.457	-89.875	0.384	-0.113
-416.442	191.565	0.069	-0.105
-415.428	-179.880	-0.136	0.003
-414.413	60.925	-0.102	0.102
-413.398	-200.000	0.064	0.443
-412.384	313.754	-0.048	0.091
-411.369	-154.974	-0.161	-0.011
-410.355	-154.315	0.108	0.007
-409.340	-60.776	0.061	0.026
-408.325	44.034	0.275	0.255
-407.311	-61.701	0.181	-0.077
-406.296	-129.071	0.172	0.024
-405.282	-39.131	0.361	0.192
-404.267	254.159	-0.052	0.090
-403.252	-88.350	-0.458	-0.138
-402.238	-148.560	0.082	-0.007
-401.223	62.826	-0.061	-0.062
-400.209	-200.000	0.000	-0.069
-399.194	-39.747	-0.218	-0.115
-398.179	154.990	-0.152	0.210
-397.165	-200.000	-0.000	0.012
-396.150	160.670	0.090	-0.127
-395.136	48.880	0.286	0.271
-394.121	100.118	-0.159	-0.186
-393.106	686.412	-0.094	-0.249
-392.092	-60.092	-0.175	-0.075
-391.077	298.183	-0.151	-0.281
-390.063	20.302	-0.148	-0.121
-389.048	-170.037	0.351	-0.013
-388.033	192.865	0.127	0.194
-387.019	-200.000	-0.005	-0.170
-386.004	-46.814	-0.079	0.039
-384.990	-200.000	-0.048	0.324
-383.975	-60.561	-0.152	0.065
-382.960	-107.024	-0.203	0.045
-381.946	-55.935	0.176	-0.079
-380.931	800.000	-0.085	-0.320
-379.917	-52.697	0.312	0.145
-378.902	-200.000	0.072	-0.483
-377.888	322.094	0.315	0.605
-376.873	-200.000	-0.002	-0.126
-375.858	-19.868	-0.227	-0.141
-374.844	-58.011	0.287	-0.126
-373.829	222.184	0.049	-0.079
-372.815	233.909	-0.077	0.127
-371.800	-123.009	-0.126	-0.020
-370.785	-39.300	0.067	-0.036
-369.771	215.211	-0.013	0.021
-368.756	-4.626	-0.055	-0.038
-367.742	64.164	-0.309	0.314
-366.727	390.084	0.078	0.163
-365.712	-14.898	-0.077	0.050
-364.698	73.651	0.082	0.087
-363.683	-47.117	-0.247	0.121
-362.669	62.589	0.194	0.195
-361.654	-200.000	0.006	0.211
-360.639	-200.000	-0.005	0.119
-359.625	-29.338	0.158	0.091
-358.610	14.085	0.141	-0.111
-357.596	-43.694	0.148	-0.075
-356.581	-106.665	-0.265	-0.059
-355.566	41.799	-0.097	0.089
-354.552	-200.000	0.066	0.303
-353.537	12.491	0.153	0.119
-352.523	-200.000	-0.066	0.398
-351.508	228.569	-0.027	0.044
-350.493	-124.601	0.194	-0.030
-349.479	101.131	-0.149	0.175
-348.464	-86.546	-0.314	0.097
-347.450	-124.909	0.063	-0.010
-346.435	-79.338	-0.161	0.055
-345.420	0.402	-0.263	-0.189
-344.406	-20.302	0.345	-0.214
-343.391	661.277	-0.071	-0.183
-342.377	391.228	-0.036	0.076
-341.362	-32.636	0.117	-0.066
-340.348	-6.457	-0.234	-0.161
-339.333	1.756	0.153	-0.111
-338.318	-142.987	0.222	0.022
-337.304	-3.034	0.087	0.061
-336.289	-200.000	-0.026	0.283
-335.275	-116.995	0.309	0.057
-334.260	-125.770	0.091	-0.014
-333.245	-56.611	0.091	-0.040
-332.231	123.451	-0.141	0.178
-331.216	-164.331	0.095	0.004
-330.202	-200.000	0.019	-0.122
-329.187	760.544	-0.200	-0.546
-328.172	-64.016	0.049	-0.020
-327.158	800.000	-0.019	0.063
-326.143	18.866	0.240	0.194
-325.129	-200.000	-0.031	0.215
-324.114	800.000	0.051	0.216
-323.099	-81.286	-0.074	-0.025
-322.085	1.364	-0.133	0.096
-321.070	-13.754	-0.334	0.218
-320.056	398.992	0.088	0.185
-319.041	111.060	-0.079	0.096
-318.026	-200.000	-0.045	0.330
-317.012	116.307	0.209	0.258
-315.997	9.030	0.306	-0.233
-314.983	800.000	-0.030	-0.095
-313.968	-24.882	0.099	0.059
-312.953	-176.026	0.063	-0.002
-311.939	-45.343	0.315	-0.157
-310.924	124.758	0.216	0.273
-309.910	168.581	-0.069	0.099
-308.895	-200.000	-0.032	-0.253
-307.880	800.000	-0.126	-0.426
-306.866	-138.230	0.195	0.022
-305.851	55.982	-0.333	0.325
-304.837	184.803	-0.114	0.170
-303.822	-200.000	0.166	0.000
-302.807	800.000	0.070	0.214
-301.793	-74.622	-0.449	0.163
-300.778	-171.491	0.415	0.014
-299.764	-200.000	-0.040	-0.385
-298.749	-200.000	-0.054	-0.290
-297.735	-200.000	0.009	-0.097
-296.720	-200.000	0.027	0.219
-295.705	138.987	-0.160	-0.212
-294.691	-200.000	0.016	-0.391
-293.676	119.006	0.210	-0.261
-292.662	332.447	-0.217	-0.421
-291.647	112.784	-0.028	-0.034
-290.632	783.500	-0.010	-0.026
-289.618	-17.035	0.160	-0.101
-288.603	8.548	-0.091	0.069
-287.589	264.625	-0.104	0.182
-286.574	13.199	-0.133	-0.103
-285.559	-178.968	0.105	-0.002
-284.545	235.245	0.204	0.339
-283.530	-102.355	0.180	-0.043
-282.516	-51.145	-0.188	0.088
-281.501	229.859	-0.134	0.220
-280.486	-153.285	-0.555	-0.039
-279.472	308.913	-0.121	-0.227
-278.457	-112.886	0.159	-0.032
-277.443	84.378	0.071	-0.078
-276.428	163.869	0.204	0.289
-275.413	-200.000	-0.023	-0.139
-274.399	-91.554	-0.111	-0.032
-273.384	-105.447	-0.250	0.057
-272.370	217.429	-0.057	0.091
-271.355	64.517	-0.037	0.037
-270.340	-91.833	-0.252	0.072
-269.326	320.507	0.069	-0.132
-268.311	336.094	-0.060	-0.117
-267.297	132.241	0.183	-0.237
-266.282	622.369	-0.031	0.079
-265.267	-94.902	0.190	-0.052
-264.253	-52.275	0.186	0.087
-263.238	-56.368	-0.330	0.147
-262.224	-159.727	-0.414	-0.023
-261.209	-14.935	0.078	-0.050
-260.195	800.000	0.035	-0.144
-259.180	-108.151	-0.106	0.023
-258.165	-50.752	-0.260	0.123
-257.151	482.008	0.075	0.171
-256.136	-200.000	0.002	0.097
-255.122	-36.358	0.101	0.055
-254.107	-200.000	0.032	0.184
-253.092	-200.000	0.010	0.255
-252.078	-200.000	-0.005	-0.402
-251.063	361.432	-0.062	0.125
-250.049	-112.760	-0.207	-0.041
-249.034	-127.981	-0.079	-0.011
-248.019	2.624	-0.205	-0.149
-247.005	-85.342	0.210	-0.066
-245.990	800.000	0.064	0.261
-244.976	-200.000	0.011	-0.325
-243.961	800.000	0.106	-0.393
-242.946	-138.665	-0.238	-0.026
-241.932	777.447	-0.055	-0.152
-240.917	530.437	0.032	0.077
-239.903	-45.338	0.334	-0.167
-238.888	33.090	-0.068	-0.059
-237.873	-156.493	-0.125	0.008
-236.859	-200.000	-0.002	0.121
-235.844	4.040	-0.163	0.120
-234.830	-120.698	-0.088	0.015
-233.815	-200.000	-0.022	-0.153
-232.800	-200.000	0.024	0.196
-231.786	9.355	0.343	0.261
-230.771	-64.082	0.185	0.076
-229.757	800.000	0.023	0.074
-228.742	-124.702	0.221	-0.034
-227.727	-5.151	0.024	0.016
-226.713	359.846	0.086	0.172
-225.698	-55.353	0.112	0.051
-224.684	-1.179	0.171	0.121
-223.669	-93.064	-0.142	-0.040
-222.655	-56.453	0.368	0.164
-221.640	-200.000	0.003	-0.086
-220.625	-200.000	-0.027	-0.260
-219.611	800.000	-0.060	0.248
-218.596	408.359	0.022	-0.048
-217.582	-200.000	-0.017	-0.116
-216.567	351.896	-0.050	0.098
-215.552	-84.148	0.248	-0.079
-214.538	-200.000	-0.016	0.171
-213.523	-200.000	0.012	-0.094
-212.509	-73.491	-0.362	0.133
-211.494	-200.000	-0.037	0.289
-210.479	233.216	-0.226	0.372
-209.465	-29.791	0.094	-0.054
-208.450	-200.000	0.280	-0.001
-207.436	-106.744	0.034	-0.007
-206.421	3.229	0.171	-0.125
-205.406	-173.364	0.349	-0.011
-204.392	138.316	-0.019	0.025
-203.377	633.305	0.044	0.111
-202.363	-12.432	0.424	0.277
-201.348	-200.000	0.035	-0.264
-200.333	-62.901	-0.165	0.068
-199.319	-45.899	0.098	0.048
-198.304	-131.046	-0.203	-0.027
-197.290	55.977	0.143	0.139
-196.275	800.000	0.085	-0.256
-195.260	-153.550	0.321	0.022
-194.246	-47.887	0.270	-0.131
-193.231	-67.666	0.068	0.027
-192.217	-200.000	-0.021	-0.120
-191.202	-69.031	-0.319	0.123
-190.187	279.877	0.137	-0.245
-189.173	-200.000	-0.049	-0.291
-188.158	-127.509	0.155	0.023
-187.144	-113.829	0.146	0.028
-186.129	18.526	-0.172	0.138
-185.114	74.564	-0.177	-0.186
-184.100	-200.000	0.016	0.208
-183.085	448.742	0.064	0.141
-182.071	584.512	0.080	-0.197
-181.056	162.534	-0.089	0.125
-180.042	120.761	0.257	0.320
-179.027	-167.154	-0.196	0.008
-178.012	371.485	-0.082	-0.167
-176.998	-200.000	0.010	-0.082
-175.983	-200.000	-0.052	-0.459
-174.969	-137.146	-0.208	0.024
-173.954	-200.000	-0.014	-0.085
-172.939	-9.175	-0.235	-0.157
-171.925	-200.000	0.007	0.262
-170.910	-72.840	0.200	-0.074
-169.896	142.466	0.187	0.249
-168.881	58.813	0.320	-0.315
-167.866	65.402	0.044	-0.044
-166.852	-179.433	-0.200	0.004
-165.837	-200.000	0.009	-0.080
-164.823	-44.713	0.203	0.102
-163.808	800.000	-0.125	0.345
-162.793	800.000	-0.072	-0.314
-161.779	800.000	-0.001	0.006
-160.764	25.279	0.209	-0.173
-159.750	800.000	-0.026	0.089
-158.735	111.011	0.038	-0.046
-157.720	82.642	-0.170	-0.185
-156.706	-132.810	-0.151	0.019
-155.691	-132.822	0.282	0.036
-154.677	-200.000	0.008	0.087
-153.662	335.362	-0.091	-0.177
-152.647	-65.134	0.328	-0.132
-151.633	800.000	-0.052	-0.194
-150.618	-50.368	0.170	0.081
-149.604	-200.000	-0.033	0.253
-148.589	-149.212	0.040	0.003
-147.574	-132.649	-0.270	0.035
-146.560	40.826	-0.211	0.191
-145.545	-200.000	0.008	0.072
-144.531	-114.639	0.437	-0.084
-143.516	20.685	0.122	-0.099
-142.502	16.601	0.184	0.145
-141.487	-17.708	0.161	-0.101
-140.472	405.156	-0.165	0.348
-139.458	55.081	0.076	0.074
-138.443	-62.601	-0.488	-0.203
-137.429	196.318	-0.072	0.110
-136.414	0.447	-0.183	-0.130
-135.399	800.000	0.093	0.266
-134.385	24.875	0.217	0.180
-133.370	-67.547	-0.063	-0.025
-132.356	-48.269	0.160	-0.077
-131.341	-40.785	-0.036	-0.019
-130.326	172.865	0.252	-0.363
-129.312	-112.204	0.053	-0.011
-128.297	179.429	-0.239	0.349
-127.283	314.339	0.031	0.058
-126.268	-147.886	0.163	-0.014
-125.253	609.743	-0.030	0.075
-124.239	42.839	-0.118	0.108
-123.224	302.856	-0.126	-0.233
-122.210	-8.229	0.226	-0.152
-121.195	59.867	-0.153	0.151
