DTS Sentinel unit serial number:	SN413079Multiplexer serial number:	ORYXHardware model number:	OX4-SRSoftware version number:	ORYX F/W v4.00 Oryx Data Collector v3.7.2.0data status	okinstallation	princeton_trtdifferential loss correction	single-endedforward channel	channel 1reverse channel	N/Adate	2019/09/15time	14:38:35forward acquisition time	60.00reverse acquisition time	0.00gamma	496.2192k internal	0.2290k external	0.2290temperature offset calibration	0.9954default loss term (dB/km)	0.3790temperature slope calibration	1.0000multiplexer offset coefficient	1.0000multiplexer slope coefficient	1.0000fibre end	0.00T internal ref (°C)	39.56T ext. ref 1 (°C)	4.86T ext. ref 2 (°C)	36.67length (m)	temperature (°C)	Stokes	anti-Stokes-747.200	-49.937	0.330	0.160
-746.185	-75.208	-0.146	0.053
-745.171	-200.000	-0.007	-0.085
-744.156	-116.775	-0.061	-0.012
-743.142	143.589	-0.060	0.082
-742.127	-200.000	0.010	0.252
-741.112	783.453	-0.047	0.131
-740.098	564.795	0.114	0.282
-739.083	194.850	0.130	-0.201
-738.069	-200.000	0.001	0.172
-737.054	-19.606	0.161	0.102
-736.039	-200.000	-0.003	-0.156
-735.025	-200.000	-0.007	0.179
-734.010	-18.159	-0.107	-0.069
-732.996	-126.080	-0.191	-0.029
-731.981	226.970	-0.075	0.125
-730.966	180.207	-0.073	0.110
-729.952	-13.357	-0.243	-0.161
-728.937	297.043	0.084	0.157
-727.923	290.918	0.043	0.080
-726.908	-183.464	-0.357	-0.006
-725.894	-132.181	-0.108	-0.014
-724.879	-96.484	-0.251	-0.068
-723.864	-32.644	0.083	0.047
-722.850	-133.276	-0.260	-0.034
-721.835	328.400	0.118	0.232
-720.821	800.000	0.086	0.256
-719.806	800.000	0.074	0.232
-718.791	443.990	-0.127	0.286
-717.777	145.862	-0.200	-0.274
-716.762	-35.670	-0.335	0.186
-715.748	-79.173	0.081	-0.028
-714.733	224.476	0.180	-0.298
-713.718	91.938	0.100	0.115
-712.704	-72.613	0.309	-0.117
-711.689	75.271	-0.387	-0.418
-710.675	142.475	0.074	-0.101
-709.660	15.459	-0.123	0.099
-708.645	126.293	-0.227	0.294
-707.631	-62.451	0.052	0.022
-706.616	6.455	0.360	0.273
-705.602	-169.261	0.388	-0.015
-704.587	23.123	-0.095	0.080
-703.572	365.131	0.153	0.316
-702.558	87.506	0.189	0.214
-701.543	124.274	0.074	-0.095
-700.529	538.211	0.157	-0.383
-699.514	119.820	0.045	-0.056
-698.499	-166.848	0.199	0.008
-697.485	-142.808	0.449	0.045
-696.470	800.000	-0.037	-0.114
-695.456	305.796	-0.235	-0.446
-694.441	-59.821	-0.031	-0.013
-693.426	453.595	-0.108	0.244
-692.412	80.517	-0.069	0.076
-691.397	340.026	-0.146	0.291
-690.383	-149.404	0.271	0.022
-689.368	-200.000	0.007	0.266
-688.354	22.969	0.131	0.110
-687.339	208.175	0.051	0.082
-686.324	-40.247	0.070	0.037
-685.310	-27.404	0.235	0.140
-684.295	800.000	0.014	0.044
-683.281	64.076	-0.070	-0.071
-682.266	-153.428	-0.365	-0.026
-681.251	-119.258	0.089	0.016
-680.237	-47.665	-0.180	0.089
-679.222	14.456	-0.102	0.081
-678.208	171.165	-0.024	-0.035
-677.193	111.415	0.079	0.098
-676.178	-200.000	0.004	0.231
-675.164	-5.407	-0.056	0.040
-674.149	268.943	0.093	0.167
-673.135	-41.039	-0.131	-0.069
-672.120	-200.000	0.018	-0.221
-671.105	-102.562	-0.466	0.114
-670.091	-200.000	0.016	0.200
-669.076	-63.880	0.273	-0.114
-668.062	-28.267	-0.293	-0.173
-667.047	-108.386	-0.160	-0.035
-666.032	-51.796	-0.506	-0.240
-665.018	800.000	0.112	0.396
-664.003	-200.000	-0.044	0.255
-662.989	-178.044	-0.212	-0.005
-661.974	412.200	0.038	-0.082
-660.959	-200.000	-0.023	0.286
-659.945	-134.870	0.244	-0.030
-658.930	152.469	-0.114	-0.159
-657.916	-155.846	0.234	-0.015
-656.901	338.641	0.025	-0.049
-655.886	-200.000	0.028	0.206
-654.872	8.567	0.373	0.287
-653.857	800.000	0.067	0.235
-652.843	55.946	-0.028	-0.028
-651.828	-200.000	-0.021	-0.418
-650.814	2.193	-0.203	-0.150
-649.799	-200.000	-0.070	-0.414
-648.784	-96.722	-0.329	-0.088
-647.770	800.000	-0.100	-0.427
-646.755	219.904	0.087	-0.142
-645.741	-95.556	0.134	0.037
-644.726	-26.218	-0.104	0.062
-643.711	-113.947	0.180	0.036
-642.697	68.892	-0.121	-0.127
-641.682	52.548	0.174	-0.170
-640.668	649.264	-0.063	-0.164
-639.653	-13.687	-0.372	0.245
-638.638	148.777	0.098	-0.136
-637.624	15.947	-0.375	0.301
-636.609	6.215	0.051	0.038
-635.595	251.836	0.209	-0.362
-634.580	800.000	-0.038	-0.138
-633.565	192.413	-0.115	-0.177
-632.551	-20.371	-0.086	-0.054
-631.536	-40.113	0.169	-0.090
-630.522	800.000	0.048	-0.148
-629.507	-115.502	0.179	-0.034
-628.492	-172.093	-0.100	0.003
-627.478	-120.731	-0.317	-0.055
-626.463	-40.030	0.038	-0.020
-625.449	-124.277	-0.294	-0.047
-624.434	58.242	-0.079	0.079
-623.419	-105.757	0.103	0.024
-622.405	-200.000	0.015	0.265
-621.390	-94.415	0.158	-0.044
-620.376	-87.610	-0.365	-0.112
-619.361	64.655	0.146	0.150
-618.346	-61.811	0.157	-0.067
-617.332	-149.604	0.217	-0.017
-616.317	-200.000	0.042	-0.341
-615.303	549.613	-0.108	0.264
-614.288	305.924	0.067	0.128
-613.273	-24.114	0.119	0.072
-612.259	-8.465	0.150	-0.103
-611.244	129.064	0.259	-0.337
-610.230	243.545	-0.178	0.304
-609.215	800.000	0.032	0.137
-608.201	-93.507	-0.197	-0.055
-607.186	-200.000	0.049	0.660
-606.171	470.307	0.162	-0.371
-605.157	-98.344	0.165	-0.043
-604.142	-200.000	0.001	0.087
-603.128	165.576	0.068	-0.097
-602.113	405.396	0.097	0.208
-601.098	-18.776	0.044	0.028
-600.084	-98.538	0.063	-0.016
-599.069	-81.829	0.049	0.016
-598.055	19.814	-0.110	-0.090
-597.040	248.643	-0.151	-0.260
-596.025	447.416	0.154	-0.346
-595.011	145.501	0.420	-0.573
-593.996	1.385	-0.207	-0.151
-592.982	-107.972	-0.162	0.036
-591.967	76.094	-0.171	-0.184
-590.952	-13.684	-0.048	-0.031
-589.938	545.473	0.131	0.318
-588.923	199.745	0.076	-0.119
-587.909	-125.064	0.235	0.037
-586.894	-157.280	0.233	-0.014
-585.879	37.705	0.231	-0.209
-584.865	-39.842	-0.142	0.075
-583.850	-8.235	-0.121	0.083
-582.836	-23.391	0.197	0.121
-581.821	800.000	0.036	-0.153
-580.806	198.030	0.041	-0.063
-579.792	98.669	-0.262	-0.307
-578.777	-86.769	-0.248	-0.077
-577.763	261.358	0.034	-0.059
-576.748	66.659	0.107	0.111
-575.733	-200.000	0.005	0.077
-574.719	-33.710	0.073	-0.041
-573.704	-155.345	-0.102	0.007
-572.690	-161.025	0.272	-0.014
-571.675	-18.804	-0.249	0.158
-570.661	27.954	0.193	0.165
-569.646	14.335	0.324	0.257
-568.631	23.410	-0.098	-0.082
-567.617	800.000	-0.047	-0.185
-566.602	-200.000	0.045	-0.219
-565.588	-58.033	0.305	0.135
-564.573	-165.513	-0.152	0.007
-563.558	-53.834	-0.058	-0.027
-562.544	800.000	-0.141	-0.499
-561.529	-147.730	0.092	-0.008
-560.515	-42.717	-0.138	-0.071
-559.500	800.000	0.160	-0.452
-558.485	800.000	0.030	-0.094
-557.471	378.716	0.122	0.253
-556.456	86.883	-0.248	-0.279
-555.442	-81.973	-0.176	-0.058
-554.427	241.282	-0.035	-0.060
-553.412	54.333	-0.119	-0.117
-552.398	-86.009	0.196	0.062
-551.383	275.744	0.048	-0.086
-550.369	800.000	-0.034	-0.142
-549.354	-200.000	-0.009	0.050
-548.339	-105.163	-0.385	0.089
-547.325	11.261	-0.203	-0.158
-546.310	-200.000	0.019	-0.099
-545.296	36.625	0.272	0.244
-544.281	80.917	-0.088	0.097
-543.266	90.459	-0.040	0.045
-542.252	399.887	0.129	0.276
-541.237	124.567	0.062	0.080
-540.223	87.021	-0.082	-0.092
-539.208	-67.747	0.173	-0.069
-538.193	22.537	-0.112	0.093
-537.179	-30.315	-0.475	0.274
-536.164	183.376	-0.103	-0.155
-535.150	800.000	0.042	-0.149
-534.135	41.803	0.337	-0.310
-533.121	-200.000	-0.033	0.236
-532.106	-56.987	-0.269	0.120
-531.091	-81.257	-0.218	-0.073
-530.077	44.620	0.176	0.164
-529.062	-200.000	-0.017	0.079
-528.048	-126.432	0.184	-0.028
-527.033	404.671	0.132	-0.283
-526.018	-200.000	0.054	0.325
-525.004	-158.295	-0.172	-0.010
-523.989	92.190	0.162	-0.186
-522.975	-149.002	-0.374	0.031
-521.960	-200.000	-0.016	-0.124
-520.945	-93.152	-0.114	0.032
-519.931	-200.000	0.034	0.190
-518.916	208.774	-0.138	-0.220
-517.902	-32.904	-0.197	0.111
-516.887	-84.717	-0.131	-0.042
-515.872	10.835	0.058	-0.045
-514.858	-34.359	-0.180	0.100
-513.843	-122.937	0.009	-0.001
-512.829	-34.931	-0.131	0.072
-511.814	800.000	-0.058	0.177
-510.799	800.000	-0.009	0.027
-509.785	185.687	0.209	-0.315
-508.770	-27.274	-0.202	-0.119
-507.756	-45.514	0.240	0.121
-506.741	-161.061	0.138	0.007
-505.726	800.000	0.052	-0.198
-504.712	-109.677	-0.150	0.032
-503.697	800.000	0.054	0.180
-502.683	53.015	-0.153	-0.149
-501.668	51.753	-0.169	-0.163
-500.653	81.540	-0.240	0.264
-499.639	-200.000	0.013	0.247
-498.624	554.564	0.156	-0.381
-497.610	74.787	0.266	-0.284
-496.595	-200.000	0.027	-0.268
-495.581	800.000	-0.056	0.212
-494.566	-200.000	0.010	0.048
-493.551	66.035	-0.227	-0.234
-492.537	-142.680	-0.095	0.009
-491.522	-22.090	-0.037	-0.023
-490.508	-90.276	-0.035	-0.010
-489.493	-200.000	0.060	0.496
-488.478	62.732	0.056	-0.056
-487.464	-36.807	-0.130	0.071
-486.449	3.239	0.037	0.027
-485.435	102.143	-0.124	-0.146
-484.420	-140.465	0.483	-0.051
-483.405	-143.077	-0.340	-0.033
-482.391	39.637	-0.201	0.183
-481.376	800.000	-0.036	-0.113
-480.362	-62.997	-0.147	-0.061
-479.347	673.806	-0.076	0.199
-478.332	-125.678	0.204	-0.031
-477.318	7.113	0.150	-0.114
-476.303	-62.472	-0.113	-0.048
-475.289	-21.502	0.268	-0.166
-474.274	219.484	0.183	-0.297
-473.259	21.504	-0.143	0.118
-472.245	12.974	-0.221	0.174
-471.230	207.118	-0.051	-0.080
-470.216	-193.011	0.103	0.001
-469.201	-15.620	-0.109	-0.070
-468.186	747.811	0.016	0.044
-467.172	-70.381	0.061	-0.024
-466.157	-200.000	0.014	0.114
-465.143	421.808	0.041	0.088
-464.128	225.839	-0.017	0.027
-463.113	615.030	0.107	0.272
-462.099	-200.000	-0.026	0.144
-461.084	-174.266	0.362	-0.011
-460.070	219.843	0.066	0.107
-459.055	-200.000	0.000	0.058
-458.040	347.130	-0.127	0.254
-457.026	13.220	-0.120	-0.094
-456.011	-16.729	-0.174	-0.112
-454.997	-66.179	-0.223	-0.090
-453.982	351.338	-0.048	-0.095
-452.968	128.268	0.029	-0.037
-451.953	76.415	0.047	0.050
-450.938	-150.935	-0.092	0.007
-449.924	-110.400	0.164	-0.035
-448.909	-56.282	0.206	-0.093
-447.895	-25.404	-0.295	0.176
-446.880	-126.403	-0.217	0.033
-445.865	454.884	-0.082	-0.184
-444.851	800.000	-0.073	-0.204
-443.836	800.000	-0.041	0.182
-442.822	166.492	0.041	0.059
-441.807	-66.120	0.096	-0.039
-440.792	-59.837	0.250	0.108
-439.778	0.322	0.046	-0.033
-438.763	-130.895	-0.229	0.031
-437.749	-84.388	0.195	0.063
-436.734	266.687	-0.033	-0.059
-435.719	-8.645	0.414	0.281
-434.705	-188.091	0.156	-0.002
-433.690	196.500	-0.214	-0.330
-432.676	247.779	-0.114	-0.194
-431.661	-15.816	-0.088	-0.056
-430.646	-197.948	0.230	0.001
-429.632	224.165	-0.086	0.141
-428.617	344.869	0.076	-0.151
-427.603	9.320	0.095	-0.072
-426.588	800.000	0.051	0.171
-425.573	-200.000	0.031	0.186
-424.559	800.000	0.160	0.556
-423.544	-15.213	0.186	-0.120
-422.530	800.000	-0.055	0.216
-421.515	-200.000	-0.023	0.238
-420.500	800.000	0.047	0.167
-419.486	317.326	0.052	0.099
-418.471	-15.337	-0.129	-0.083
-417.457	172.727	-0.082	0.119
-416.442	-180.224	-0.198	0.004
-415.428	4.642	0.194	0.144
-414.413	460.646	0.031	-0.070
-413.398	-160.287	-0.308	0.017
-412.384	-177.712	-0.253	-0.006
-411.369	-59.132	0.197	-0.086
-410.355	361.200	0.096	-0.194
-409.340	-130.367	0.009	0.001
-408.325	594.840	0.077	-0.193
-407.311	357.618	0.105	-0.211
-406.296	-200.000	-0.054	0.475
-405.282	194.802	0.014	-0.021
-404.267	-200.000	0.000	0.046
-403.252	-158.170	0.141	0.008
-402.238	201.967	-0.226	-0.352
-401.223	-200.000	0.013	0.125
-400.209	78.046	-0.069	0.074
-399.194	800.000	-0.064	0.280
-398.179	208.462	-0.043	-0.069
-397.165	95.385	0.033	-0.038
-396.150	477.093	0.088	0.202
-395.136	196.525	0.116	0.179
-394.121	-200.000	0.071	0.419
-393.106	800.000	-0.075	0.257
-392.092	55.632	0.036	-0.036
-391.077	310.704	-0.136	0.258
-390.063	-135.246	0.091	0.011
-389.048	800.000	0.075	0.279
-388.033	342.693	-0.117	0.232
-387.019	-118.175	-0.071	-0.013
-386.004	342.777	-0.070	-0.138
-384.990	2.679	0.135	-0.098
-383.975	398.238	0.035	0.074
-382.960	-35.992	-0.051	-0.028
-381.946	-90.535	-0.071	-0.021
-380.931	129.584	0.093	-0.120
-379.917	168.798	0.055	0.079
-378.902	-37.488	-0.157	-0.084
-377.888	-38.500	-0.067	0.036
-376.873	426.680	0.071	-0.155
-375.858	-71.955	-0.282	0.106
-374.844	-17.426	-0.306	0.195
-373.829	-200.000	0.012	-0.194
-372.815	-80.094	0.288	-0.098
-371.800	277.005	0.148	-0.266
-370.785	-41.178	0.299	-0.156
-369.771	-153.088	-0.143	0.010
-368.756	-129.200	-0.140	-0.020
-367.742	-200.000	-0.014	0.240
-366.727	36.012	-0.201	0.179
-365.712	-72.199	0.095	-0.036
-364.698	-200.000	0.046	-0.396
-363.683	228.638	0.187	-0.308
-362.669	-200.000	-0.055	0.254
-361.654	800.000	0.040	-0.119
-360.639	276.115	-0.239	-0.428
-359.625	107.249	-0.182	0.219
-358.610	152.123	-0.101	-0.138
-357.596	-200.000	-0.005	-0.393
-356.581	112.575	-0.035	-0.043
-355.566	486.735	0.022	-0.050
-354.552	800.000	0.036	-0.147
-353.537	-13.188	-0.096	0.063
-352.523	61.431	-0.229	0.230
-351.508	-139.385	0.186	0.020
-350.493	-155.875	0.070	0.004
-349.479	-117.840	0.189	-0.034
-348.464	-86.909	-0.154	-0.047
-347.450	-66.963	0.364	-0.145
-346.435	24.778	-0.171	-0.143
-345.420	22.844	-0.327	-0.270
-344.406	800.000	0.092	0.323
-343.391	800.000	0.068	0.192
-342.377	-200.000	-0.022	0.190
-341.362	800.000	-0.088	-0.247
-340.348	800.000	0.027	-0.102
-339.333	38.805	0.214	0.192
-338.318	-118.975	0.093	-0.016
-337.304	112.766	-0.210	0.257
-336.289	-83.047	0.340	-0.111
-335.275	-164.766	-0.028	-0.001
-334.260	-25.695	0.179	-0.106
-333.245	-122.931	0.259	-0.042
-332.231	-200.000	-0.035	0.237
-331.216	340.643	-0.050	0.098
-330.202	42.665	0.092	0.084
-329.187	-200.000	0.018	0.142
-328.172	-19.658	0.072	0.045
-327.158	-19.304	0.235	-0.147
-326.143	51.267	-0.197	-0.189
-325.129	-183.627	-0.149	0.003
-324.114	-200.000	0.004	0.253
-323.099	-3.559	0.054	0.038
-322.085	-81.679	-0.267	-0.088
-321.070	-105.980	-0.150	0.034
-320.056	800.000	0.019	-0.063
-319.041	-0.604	-0.049	0.035
-318.026	-161.083	0.250	-0.013
-317.012	168.561	-0.090	-0.128
-315.997	218.490	-0.085	-0.137
-314.983	685.893	0.070	-0.185
-313.968	47.188	0.149	-0.140
-312.953	-5.219	-0.254	-0.176
-311.939	141.526	-0.129	-0.172
-310.924	-119.944	-0.071	0.012
-309.910	54.582	0.204	0.198
-308.895	-200.000	-0.003	0.107
-307.880	800.000	0.094	0.275
-306.866	186.840	0.050	0.075
-305.851	70.470	-0.134	-0.140
-304.837	-200.000	-0.011	-0.148
-303.822	72.796	-0.040	0.042
-302.807	45.143	-0.166	0.154
-301.793	161.412	0.035	0.050
-300.778	-200.000	-0.003	-0.206
-299.764	-80.707	0.134	-0.045
-298.749	800.000	0.055	-0.225
-297.735	-50.206	0.265	0.126
-296.720	-200.000	-0.021	-0.108
-295.705	-51.497	-0.285	0.134
-294.691	131.986	0.150	0.195
-293.676	-48.657	-0.136	-0.066
-292.662	-19.318	-0.148	0.093
-291.647	-113.688	0.127	-0.025
-290.632	-200.000	0.026	-0.158
-289.618	187.518	-0.132	0.198
-288.603	447.015	-0.078	0.172
-287.589	-31.848	0.287	0.162
-286.574	-147.442	-0.191	0.016
-285.559	-122.235	0.183	0.030
-284.545	169.771	0.194	0.279
-283.530	88.029	0.261	-0.291
-282.516	70.995	0.317	0.330
-281.501	416.309	0.134	0.287
-280.486	-200.000	0.056	0.385
-279.472	32.748	0.032	-0.028
-278.457	-85.919	0.291	0.091
-277.443	-133.301	-0.396	0.050
-276.428	-200.000	0.007	-0.045
-275.413	186.336	0.078	0.117
-274.399	-200.000	-0.008	0.219
-273.384	-29.414	-0.047	-0.027
-272.370	800.000	-0.057	0.175
-271.355	-83.981	-0.213	-0.068
-270.340	112.992	-0.057	0.070
-269.326	46.806	0.106	0.099
-268.311	-200.000	-0.005	0.335
-267.297	80.881	-0.168	0.182
-266.282	-200.000	0.059	0.355
-265.267	-200.000	-0.029	0.301
-264.253	800.000	-0.036	-0.104
-263.238	-128.769	0.419	0.059
-262.224	-200.000	-0.010	0.142
-261.209	-200.000	-0.010	-0.070
-260.195	-118.637	-0.369	0.065
-259.180	117.442	-0.043	-0.054
-258.165	79.603	0.143	-0.154
-257.151	371.408	-0.013	-0.027
-256.136	-44.481	-0.247	-0.124
-255.122	800.000	-0.107	-0.299
-254.107	20.845	-0.152	0.123
-253.092	-200.000	-0.086	0.445
-252.078	800.000	0.154	0.442
-251.063	84.682	0.107	-0.118
-250.049	85.682	-0.048	-0.053
-249.034	-58.008	0.388	-0.170
-248.019	-200.000	0.029	-0.162
-247.005	-200.000	0.001	-0.023
-245.990	-92.612	0.304	-0.086
-244.976	-200.000	0.038	-0.279
-243.961	-141.721	-0.235	-0.024
-242.946	-74.509	-0.333	-0.120
-241.932	379.525	-0.088	0.181
-240.917	-131.727	-0.293	-0.039
-239.903	-98.107	-0.257	0.066
-238.888	-200.000	-0.006	0.385
-237.873	343.019	-0.034	-0.067
-236.859	-48.343	0.078	0.038
-235.844	-1.322	0.240	-0.170
-234.830	-34.415	0.231	-0.127
-233.815	-146.340	-0.175	0.015
-232.800	-200.000	0.133	0.000
-231.786	-100.057	-0.222	-0.056
-230.771	-10.560	-0.267	0.178
-229.757	59.568	0.048	-0.048
-228.742	800.000	0.067	0.188
-227.727	-200.000	0.007	-0.374
-226.713	-77.363	-0.152	-0.053
-225.698	-46.978	-0.144	-0.070
-224.684	-200.000	-0.002	0.245
-223.669	-158.630	0.210	-0.012
-222.655	148.387	0.215	-0.291
-221.640	20.188	-0.205	-0.166
-220.625	70.625	0.098	-0.102
-219.611	-118.975	0.213	-0.037
-218.596	379.931	-0.074	0.151
-217.582	-140.225	-0.268	-0.028
-216.567	-200.000	0.081	0.383
-215.552	-109.784	0.294	-0.062
-214.538	-170.199	0.175	-0.006
-213.523	53.655	-0.171	0.165
-212.509	256.835	0.063	-0.108
-211.494	227.924	-0.137	0.223
-210.479	7.657	-0.188	0.141
-209.465	52.436	-0.193	-0.185
-208.450	-152.619	0.432	0.031
-207.436	-200.000	0.004	0.132
-206.421	464.857	-0.106	-0.237
-205.406	18.114	-0.139	0.111
-204.392	-94.050	-0.236	-0.065
-203.377	268.436	-0.227	-0.399
-202.363	-89.250	0.064	-0.019
-201.348	-77.545	0.392	0.136
-200.333	7.008	-0.143	0.107
-199.319	-126.591	-0.063	0.009
-198.304	370.436	-0.102	0.207
-197.290	-163.358	0.098	-0.005
-196.275	800.000	0.043	-0.166
-195.260	497.769	-0.118	0.272
-194.246	-1.241	0.098	0.069
-193.231	102.169	0.258	0.302
-192.217	201.988	-0.042	0.065
-191.202	-115.896	0.104	-0.019
-190.187	-1.227	0.184	0.130
-189.173	-173.998	0.341	-0.010
-188.158	-60.241	0.286	0.122
-187.144	-123.834	0.190	0.030
-186.129	-84.189	0.370	0.118
-185.114	11.882	0.181	-0.140
-184.100	800.000	0.024	-0.090
-183.085	53.681	-0.177	-0.171
-182.071	-200.000	-0.010	-0.350
-181.056	-157.313	-0.418	-0.025
-180.042	-200.000	0.015	-0.266
-179.027	130.914	0.171	-0.220
-178.012	237.709	0.133	-0.220
-176.998	338.112	0.080	0.156
-175.983	-76.146	0.292	-0.103
-174.969	281.931	-0.051	-0.092
-173.954	-111.083	0.193	-0.040
-172.939	-76.717	-0.120	-0.042
-171.925	-107.207	-0.454	0.100
-170.910	89.849	0.206	-0.231
-169.896	3.280	-0.121	0.088
-168.881	14.396	-0.185	-0.144
-167.866	331.416	0.084	-0.163
-166.852	-164.832	0.121	-0.005
-165.837	800.000	0.030	-0.110
-164.823	137.918	-0.106	-0.139
-163.808	449.593	-0.014	0.030
-162.793	583.466	0.195	0.478
-161.779	-15.809	0.074	0.047
-160.764	-147.306	-0.118	-0.010
-159.750	179.139	0.072	0.106
-158.735	13.178	0.158	0.123
-157.720	123.927	-0.083	-0.104
-156.706	7.098	-0.109	0.081
-155.691	46.565	-0.174	0.162
-154.677	427.354	-0.034	0.072
-153.662	105.875	-0.165	0.195
-152.647	-149.562	-0.316	0.025
-151.633	-49.548	0.286	-0.136
-150.618	170.107	0.055	-0.078
-149.604	164.516	0.101	-0.142
-148.589	-23.252	0.199	0.120
-147.574	578.495	-0.109	0.266
-146.560	-94.940	-0.127	0.034
-145.545	511.092	-0.110	0.256
-144.531	-68.949	-0.116	-0.045
-143.516	583.815	0.013	-0.032
-142.502	800.000	0.144	0.481
-141.487	-18.353	-0.060	-0.037
-140.472	553.683	-0.076	-0.184
-139.458	-127.612	0.142	-0.021
-138.443	800.000	0.031	0.092
-137.429	-47.661	0.242	0.117
-136.414	800.000	-0.044	-0.169
-135.399	-104.340	0.149	0.035
-134.385	-113.887	0.273	0.053
-133.370	-200.000	-0.011	0.235
-132.356	511.542	0.130	-0.303
-131.341	76.484	0.211	-0.224
-130.326	353.105	-0.137	0.272
-129.312	100.657	-0.138	0.161
-128.297	87.210	0.129	0.142
-127.283	-44.078	0.106	-0.053
-126.268	88.653	-0.130	-0.144
-125.253	754.541	-0.024	-0.064
-124.239	503.020	0.048	-0.111
-123.224	-151.289	0.252	-0.019
-122.210	-38.404	0.223	-0.118
-121.195	783.794	-0.114	-0.312
