DTS Sentinel unit serial number:	SN413079Multiplexer serial number:	ORYXHardware model number:	OX4-SRSoftware version number:	ORYX F/W v4.00 Oryx Data Collector v3.7.2.0data status	okinstallation	princeton_trtdifferential loss correction	single-endedforward channel	channel 1reverse channel	N/Adate	2019/09/16time	20:10:35forward acquisition time	60.00reverse acquisition time	0.00gamma	496.2192k internal	0.2322k external	0.2322temperature offset calibration	0.9958default loss term (dB/km)	0.3790temperature slope calibration	1.0000multiplexer offset coefficient	1.0000multiplexer slope coefficient	1.0000fibre end	0.00T internal ref (°C)	33.09T ext. ref 1 (°C)	0.09T ext. ref 2 (°C)	26.65length (m)	temperature (°C)	Stokes	anti-Stokes-747.200	-123.709	0.115	0.018
-746.185	-200.000	0.008	0.080
-745.171	189.325	-0.108	-0.163
-744.156	95.827	-0.200	0.231
-743.142	-187.346	0.141	0.002
-742.127	155.659	-0.441	0.614
-741.112	-20.558	-0.231	0.143
-740.098	-181.868	-0.099	-0.002
-739.083	-83.886	0.042	0.013
-738.069	-200.000	-0.000	-0.062
-737.054	-82.149	-0.101	-0.033
-736.039	-112.359	-0.272	0.055
-735.025	-17.550	0.430	0.273
-734.010	-110.647	-0.256	-0.053
-732.996	104.899	0.018	-0.022
-731.981	-200.000	0.035	0.189
-730.966	-60.828	0.319	0.136
-729.952	49.076	-0.237	-0.225
-728.937	-159.788	-0.328	-0.018
-727.923	-198.599	-0.308	-0.002
-726.908	-56.966	-0.147	-0.066
-725.894	736.380	-0.075	-0.203
-724.879	4.540	-0.152	-0.112
-723.864	209.672	0.171	-0.271
-722.850	-79.003	-0.458	-0.157
-721.835	-78.948	-0.161	0.055
-720.821	81.610	-0.114	-0.125
-719.806	-200.000	0.005	0.050
-718.791	138.596	-0.053	-0.071
-717.777	-200.000	0.001	-0.029
-716.762	68.999	0.073	-0.076
-715.748	62.866	0.313	-0.316
-714.733	-192.249	-0.109	-0.001
-713.718	-200.000	0.002	-0.069
-712.704	-57.218	-0.217	-0.096
-711.689	800.000	0.114	-0.338
-710.675	-162.453	0.291	-0.015
-709.660	-200.000	0.045	0.287
-708.645	47.472	-0.160	0.151
-707.631	-127.686	-0.257	-0.037
-706.616	198.822	0.041	-0.063
-705.602	-114.913	-0.116	-0.022
-704.587	-200.000	0.008	0.164
-703.572	800.000	0.161	-0.464
-702.558	106.825	-0.017	0.020
-701.543	800.000	-0.136	-0.482
-700.529	161.462	0.174	0.245
-699.514	800.000	0.082	0.232
-698.499	34.941	-0.281	0.248
-697.485	-88.331	0.227	0.069
-696.470	57.126	0.151	-0.149
-695.456	-113.408	-0.241	-0.048
-694.441	-111.054	-0.326	-0.067
-693.426	6.111	-0.057	-0.043
-692.412	188.102	0.119	-0.179
-691.397	206.559	0.237	0.372
-690.383	-200.000	-0.008	0.278
-689.368	-200.000	0.014	-0.080
-688.354	-28.636	-0.227	-0.132
-687.339	-200.000	0.007	-0.177
-686.324	-182.477	-0.048	0.001
-685.310	26.330	0.179	0.150
-684.295	168.785	-0.124	0.179
-683.281	597.991	0.101	-0.251
-682.266	204.123	-0.149	-0.233
-681.251	201.748	0.053	-0.082
-680.237	89.673	0.062	-0.070
-679.222	-149.661	-0.127	-0.010
-678.208	-200.000	-0.012	-0.195
-677.193	-87.036	-0.284	-0.087
-676.178	-200.000	-0.003	0.119
-675.164	-200.000	0.032	-0.297
-674.149	-53.207	-0.182	-0.084
-673.135	-200.000	0.004	-0.049
-672.120	97.063	-0.130	0.151
-671.105	10.674	0.133	0.102
-670.091	-91.542	0.377	-0.108
-669.076	800.000	-0.053	-0.219
-668.062	-200.000	-0.076	-0.546
-667.047	109.326	0.087	-0.105
-666.032	-200.000	0.016	0.194
-665.018	-18.596	-0.297	-0.187
-664.003	46.066	-0.253	-0.236
-662.989	45.858	-0.109	-0.101
-661.974	13.268	-0.139	-0.108
-660.959	800.000	-0.108	0.412
-659.945	-59.200	-0.228	-0.099
-658.930	-151.550	0.488	0.036
-657.916	-200.000	0.001	-0.200
-656.901	-200.000	-0.021	0.184
-655.886	800.000	-0.030	-0.128
-654.872	-101.113	-0.231	0.057
-653.857	800.000	0.077	0.227
-652.843	147.358	-0.251	0.340
-651.828	-181.140	-0.037	0.001
-650.814	-200.000	-0.015	-0.312
-649.799	-200.000	-0.058	-0.269
-648.784	-22.659	-0.418	-0.254
-647.770	-200.000	0.017	-0.237
-646.755	630.797	-0.104	0.264
-645.741	-29.258	0.151	0.087
-644.726	-200.000	-0.001	-0.027
-643.711	-34.809	0.286	-0.157
-642.697	-200.000	0.003	-0.122
-641.682	800.000	-0.131	0.407
-640.668	-149.518	0.299	-0.024
-639.653	-200.000	-0.007	0.353
-638.638	139.700	-0.135	0.179
-637.624	-200.000	-0.084	0.492
-636.609	194.528	-0.133	-0.203
-635.595	-71.167	-0.111	0.042
-634.580	-94.208	0.129	-0.036
-633.565	-150.167	-0.232	0.018
-632.551	-149.268	0.202	0.016
-631.536	-172.768	-0.156	-0.005
-630.522	-151.430	-0.052	0.004
-629.507	152.137	0.308	-0.423
-628.492	-107.499	-0.203	0.045
-627.478	42.102	0.088	-0.081
-626.463	-200.000	-0.017	-0.250
-625.449	800.000	0.025	0.084
-624.434	319.146	0.025	-0.048
-623.419	180.318	-0.005	-0.007
-622.405	-200.000	-0.025	0.310
-621.390	621.132	0.086	-0.216
-620.376	-15.047	0.230	0.148
-619.361	-65.973	0.282	0.113
-618.346	-200.000	-0.016	-0.168
-617.332	-200.000	-0.045	-0.317
-616.317	-200.000	-0.004	-0.302
-615.303	-110.550	0.122	0.026
-614.288	-170.417	0.193	-0.007
-613.273	228.782	-0.139	0.228
-612.259	19.960	-0.126	-0.102
-611.244	215.431	-0.183	-0.292
-610.230	-200.000	0.082	-0.487
-609.215	-200.000	0.010	-0.282
-608.201	-3.443	0.087	-0.061
-607.186	-37.544	-0.049	-0.026
-606.171	-200.000	-0.019	-0.155
-605.157	-49.412	-0.269	0.129
-604.142	-29.749	0.239	0.137
-603.128	-200.000	0.060	-0.294
-602.113	-184.198	0.105	-0.002
-601.098	168.350	-0.074	0.105
-600.084	-64.701	0.062	0.025
-599.069	-200.000	0.033	0.236
-598.055	426.659	0.037	-0.079
-597.040	800.000	-0.128	0.459
-596.025	-27.413	0.137	-0.080
-595.011	522.383	0.061	-0.145
-593.996	6.712	-0.406	-0.303
-592.982	800.000	-0.068	-0.241
-591.967	800.000	-0.069	-0.253
-590.952	-200.000	-0.051	0.322
-589.938	-83.434	0.164	-0.053
-588.923	-143.270	-0.435	-0.042
-587.909	-200.000	0.045	0.313
-586.894	-31.359	-0.154	-0.087
-585.879	-133.526	-0.326	-0.041
-584.865	556.564	0.201	0.486
-583.850	-200.000	0.009	-0.076
-582.836	1.396	0.232	-0.167
-581.821	800.000	-0.048	0.190
-580.806	-48.469	-0.023	-0.011
-579.792	-200.000	0.046	0.273
-578.777	-72.911	0.276	0.102
-577.763	-200.000	-0.018	-0.315
-576.748	800.000	-0.095	-0.316
-575.733	168.674	0.030	-0.043
-574.719	571.613	0.102	0.250
-573.704	800.000	-0.098	0.417
-572.690	95.674	-0.120	-0.138
-571.675	-77.211	-0.364	-0.127
-570.661	800.000	-0.102	-0.334
-569.646	-93.961	-0.218	0.060
-568.631	-100.388	-0.234	-0.058
-567.617	-200.000	0.014	0.218
-566.602	800.000	0.083	-0.277
-565.588	-93.587	-0.159	-0.044
-564.573	85.361	-0.178	-0.196
-563.558	-95.973	-0.107	-0.028
-562.544	228.477	-0.227	0.371
-561.529	-200.000	-0.014	0.281
-560.515	48.699	0.144	0.136
-559.500	-21.799	-0.354	0.216
-558.485	-154.054	-0.348	0.024
-557.471	-178.062	-0.269	0.006
-556.456	-58.577	0.128	0.056
-555.442	800.000	-0.084	0.299
-554.427	190.038	-0.171	0.258
-553.412	-60.742	-0.226	0.096
-552.398	-34.516	-0.348	-0.191
-551.383	71.989	-0.269	-0.281
-550.369	-30.916	0.264	-0.149
-549.354	800.000	-0.037	0.131
-548.339	-200.000	-0.019	-0.291
-547.325	-200.000	-0.066	0.396
-546.310	-200.000	-0.014	0.303
-545.296	-200.000	-0.033	-0.294
-544.281	164.952	0.200	0.283
-543.266	37.137	-0.099	-0.088
-542.252	102.740	-0.086	-0.101
-541.237	-73.719	-0.098	0.036
-540.223	23.788	-0.050	0.042
-539.208	15.378	0.211	0.166
-538.193	588.108	0.117	0.289
-537.179	-109.553	0.134	0.028
-536.164	800.000	0.040	-0.152
-535.150	800.000	0.030	0.131
-534.135	-124.242	0.205	0.032
-533.121	247.828	-0.093	-0.157
-532.106	-108.742	0.124	-0.027
-531.091	-68.964	0.081	0.031
-530.077	-79.206	-0.103	0.035
-529.062	-169.067	0.472	-0.018
-528.048	-75.085	0.229	-0.082
-527.033	79.983	-0.220	0.237
-526.018	524.890	-0.057	0.135
-525.004	183.525	-0.089	0.131
-523.989	110.327	0.053	0.064
-522.975	172.140	-0.170	0.244
-521.960	800.000	-0.083	0.248
-520.945	-38.944	-0.128	0.067
-519.931	-164.948	0.156	0.007
-518.916	-175.388	0.069	-0.002
-517.902	35.642	-0.210	0.185
-516.887	800.000	0.039	-0.157
-515.872	-134.911	0.324	-0.039
-514.858	-193.082	0.252	0.002
-513.843	-106.706	-0.145	-0.032
-512.829	-200.000	0.018	0.240
-511.814	800.000	-0.142	0.414
-510.799	238.074	-0.114	0.189
-509.785	-128.062	0.337	0.048
-508.770	274.619	-0.160	0.284
-507.756	800.000	-0.036	-0.134
-506.741	80.966	-0.136	-0.147
-505.726	-97.455	0.134	-0.035
-504.712	-89.791	0.306	-0.090
-503.697	-200.000	0.004	0.140
-502.683	190.801	0.150	-0.225
-501.668	70.371	-0.194	-0.200
-500.653	-200.000	-0.024	-0.189
-499.639	544.210	-0.094	-0.224
-498.624	-114.948	0.318	-0.061
-497.610	-137.211	0.220	-0.025
-496.595	-139.865	0.103	-0.011
-495.581	475.986	0.090	0.204
-494.566	-34.252	-0.037	-0.020
-493.551	-200.000	-0.109	-0.489
-492.537	435.599	0.045	-0.099
-491.522	-200.000	0.020	-0.097
-490.508	199.052	0.189	-0.289
-489.493	131.042	-0.022	-0.028
-488.478	319.091	0.027	-0.051
-487.464	192.801	-0.124	0.187
-486.449	-200.000	0.013	0.202
-485.435	8.364	-0.098	0.074
-484.420	-0.471	0.211	-0.150
-483.405	-104.637	-0.312	0.072
-482.391	-53.333	-0.213	-0.098
-481.376	96.131	-0.164	-0.187
-480.362	-200.000	0.070	-0.318
-479.347	-200.000	0.004	-0.300
-478.332	1.182	0.168	-0.120
-477.318	-5.235	-0.057	-0.039
-476.303	472.676	-0.046	0.105
-475.289	800.000	0.027	-0.104
-474.274	-139.838	-0.148	-0.016
-473.259	-123.438	-0.491	0.078
-472.245	268.861	-0.097	0.170
-471.230	414.290	-0.037	0.078
-470.216	-200.000	0.014	0.137
-469.201	800.000	0.076	0.220
-468.186	237.982	0.069	0.115
-467.172	-200.000	0.050	0.263
-466.157	-62.012	0.287	0.120
-465.143	-73.024	-0.240	0.088
-464.128	65.305	0.170	0.172
-463.113	243.768	-0.174	-0.292
-462.099	85.425	0.110	0.121
-461.084	342.716	0.079	-0.155
-460.070	-88.996	-0.171	-0.051
-459.055	800.000	-0.053	0.216
-458.040	-76.399	0.173	0.061
-457.026	103.654	-0.108	-0.127
-456.011	-113.014	0.140	0.028
-454.997	-72.317	0.172	0.063
-453.982	-200.000	-0.030	-0.137
-452.968	-37.987	0.075	0.040
-451.953	120.791	0.114	0.142
-450.938	-79.357	0.240	-0.081
-449.924	24.783	-0.036	-0.030
-448.909	-120.663	0.090	-0.015
-447.895	-200.000	0.027	0.179
-446.880	800.000	0.033	0.118
-445.865	-26.109	-0.356	-0.209
-444.851	-29.893	-0.115	0.065
-443.836	134.729	0.172	-0.223
-442.822	-52.773	-0.318	-0.147
-441.807	20.549	-0.061	-0.049
-440.792	112.131	0.152	-0.183
-439.778	800.000	-0.117	0.384
-438.763	166.218	-0.106	-0.149
-437.749	85.508	-0.128	0.140
-436.734	-200.000	-0.003	0.079
-435.719	22.288	-0.162	0.132
-434.705	-111.930	-0.186	-0.037
-433.690	-136.938	0.145	0.017
-432.676	471.779	0.098	-0.220
-431.661	-17.061	-0.271	0.171
-430.646	-200.000	-0.008	0.312
-429.632	39.322	0.187	-0.167
-428.617	-56.988	-0.098	-0.043
-427.603	144.652	0.251	-0.335
-426.588	-75.580	-0.260	-0.092
-425.573	126.777	0.110	0.139
-424.559	-200.000	0.018	0.233
-423.544	-185.216	-0.279	0.004
-422.530	-7.191	-0.072	0.048
-421.515	-200.000	0.083	0.434
-420.500	800.000	-0.026	-0.096
-419.486	306.021	0.212	0.394
-418.471	652.520	0.083	0.212
-417.457	-75.161	0.223	-0.079
-416.442	20.697	-0.080	-0.065
-415.428	28.665	0.075	-0.064
-414.413	8.907	-0.237	-0.179
-413.398	610.009	-0.131	-0.327
-412.384	-68.976	-0.167	0.064
-411.369	161.313	0.181	-0.252
-410.355	-172.362	0.117	-0.004
-409.340	-13.441	0.299	-0.193
-408.325	800.000	0.058	-0.205
-407.311	-61.925	-0.249	0.104
-406.296	-85.062	-0.290	-0.090
-405.282	511.220	0.120	0.278
-404.267	-25.505	-0.266	-0.156
-403.252	-16.733	-0.315	-0.199
-402.238	-71.434	0.320	-0.120
-401.223	166.448	-0.125	-0.176
-400.209	-144.535	-0.214	0.020
-399.194	685.279	0.085	-0.222
-398.179	-32.967	0.196	-0.109
-397.165	272.022	0.055	0.097
-396.150	-57.171	-0.096	0.042
-395.136	-16.207	0.124	-0.079
-394.121	131.350	0.040	-0.052
-393.106	-200.000	-0.019	0.173
-392.092	-41.530	0.251	-0.128
-391.077	-171.721	-0.212	-0.007
-390.063	-29.173	-0.405	0.231
-389.048	220.079	0.245	0.391
-388.033	149.605	-0.111	0.149
-387.019	-127.504	0.120	0.017
-386.004	-12.845	0.204	0.133
-384.990	369.838	0.185	-0.373
-383.975	145.379	0.191	0.254
-382.960	-200.000	0.042	-0.228
-381.946	800.000	-0.061	-0.225
-380.931	-115.014	-0.205	-0.039
-379.917	176.582	0.138	-0.201
-378.902	357.693	0.212	-0.422
-377.888	49.622	-0.213	-0.200
-376.873	312.319	0.142	0.265
-375.858	-71.645	0.347	0.129
-374.844	-134.699	0.150	-0.018
-373.829	-177.316	0.373	0.009
-372.815	-61.049	0.286	-0.120
-371.800	-110.242	0.175	0.036
-370.785	38.507	0.082	0.072
-369.771	800.000	-0.104	0.331
-368.756	161.866	0.234	0.327
-367.742	-36.569	0.267	0.143
-366.727	-53.028	-0.189	-0.086
-365.712	-41.007	-0.225	-0.116
-364.698	-54.402	-0.438	0.198
-363.683	387.212	0.035	-0.072
-362.669	343.697	-0.139	0.272
-361.654	73.510	0.106	0.110
-360.639	-47.254	0.257	0.125
-359.625	17.310	-0.187	0.148
-358.610	-57.869	0.256	-0.111
-357.596	82.507	-0.143	0.155
-356.581	162.649	0.102	-0.142
-355.566	-93.446	-0.252	-0.069
-354.552	-75.975	0.068	-0.024
-353.537	-128.214	0.181	-0.026
-352.523	-200.000	0.025	-0.130
-351.508	171.496	-0.301	-0.430
-350.493	-200.000	0.102	-0.546
-349.479	-200.000	0.015	0.238
-348.464	-85.304	0.374	-0.116
-347.450	22.530	0.256	-0.208
-346.435	-95.798	0.111	0.030
-345.420	757.795	0.040	-0.109
-344.406	-132.965	-0.116	0.015
-343.391	-70.324	-0.140	0.053
-342.377	800.000	0.048	0.134
-341.362	-105.460	0.064	-0.015
-340.348	-59.425	-0.304	-0.130
-339.333	-200.000	-0.008	-0.184
-338.318	-200.000	-0.003	-0.194
-337.304	156.457	0.131	-0.179
-336.289	-71.459	-0.095	-0.035
-335.275	226.644	-0.092	-0.149
-334.260	-139.657	-0.222	-0.024
-333.245	-27.542	0.305	-0.176
-332.231	800.000	0.064	0.183
-331.216	57.626	0.041	0.040
-330.202	218.098	-0.062	-0.099
-329.187	159.665	-0.105	-0.145
-328.172	-43.851	-0.347	0.173
-327.158	352.658	0.146	0.288
-326.143	707.005	-0.072	0.188
-325.129	-200.000	0.001	-0.011
-324.114	-84.878	-0.330	-0.103
-323.099	-200.000	0.047	-0.312
-322.085	-56.731	0.052	0.023
-321.070	-77.870	0.265	0.091
-320.056	-86.334	-0.123	0.038
-319.041	208.249	0.110	-0.170
-318.026	303.216	-0.138	-0.254
-317.012	-57.601	0.523	-0.228
-315.997	800.000	0.044	-0.138
-314.983	800.000	-0.087	0.270
-313.968	-46.905	0.152	0.074
-312.953	-5.232	-0.090	-0.061
-311.939	56.322	0.261	-0.252
-310.924	-14.767	-0.028	0.018
-309.910	-53.160	-0.263	-0.120
-308.895	-115.060	-0.271	-0.051
-307.880	92.526	-0.179	0.200
-306.866	-36.217	-0.241	0.129
-305.851	22.831	-0.147	-0.120
-304.837	-64.362	0.171	-0.069
-303.822	-200.000	0.002	-0.015
-302.807	18.986	-0.157	0.125
-301.793	-127.682	0.371	-0.053
-300.778	-163.176	0.165	-0.008
-299.764	15.149	0.096	-0.074
-298.749	24.256	0.115	0.095
-297.735	-60.317	-0.388	-0.164
-296.720	-175.084	0.311	0.009
-295.705	329.597	-0.071	-0.136
-294.691	-77.443	0.360	0.124
-293.676	800.000	0.041	-0.152
-292.662	43.803	0.312	-0.284
-291.647	38.333	0.190	-0.168
-290.632	-55.463	-0.179	0.079
-289.618	-32.072	-0.243	0.135
-288.603	-87.940	0.202	0.060
-287.589	685.077	0.088	0.228
-286.574	42.395	0.109	-0.098
-285.559	-200.000	0.027	0.357
-284.545	-102.531	0.238	-0.056
-283.530	571.024	-0.155	-0.375
-282.516	800.000	0.096	-0.333
-281.501	66.003	0.180	-0.181
-280.486	-57.816	0.076	0.033
-279.472	19.995	-0.206	-0.164
-278.457	800.000	0.010	-0.036
-277.443	639.036	0.084	-0.212
-276.428	-66.219	-0.306	-0.121
-275.413	-61.958	-0.341	0.141
-274.399	-69.463	0.257	0.098
-273.384	58.311	-0.175	-0.170
-272.370	206.366	-0.130	0.201
-271.355	196.746	0.220	0.333
-270.340	-37.386	-0.172	-0.091
-269.326	34.170	0.233	0.201
-268.311	100.460	0.213	0.245
-267.297	-73.488	0.207	0.075
-266.282	-68.925	0.225	0.086
-265.267	800.000	0.082	-0.294
-264.253	800.000	0.075	0.207
-263.238	-79.963	-0.086	-0.029
-262.224	-99.232	0.102	-0.026
-261.209	-200.000	0.014	0.094
-260.195	452.696	-0.103	-0.225
-259.180	-122.722	0.138	0.022
-258.165	108.729	0.057	0.068
-257.151	152.470	-0.120	0.162
-256.136	-115.136	0.130	0.024
-255.122	741.169	0.073	0.195
-254.107	203.416	-0.066	-0.101
-253.092	-53.853	0.214	0.097
-252.078	167.534	-0.153	0.215
-251.063	365.086	0.089	0.178
-250.049	24.126	0.297	-0.243
-249.034	-144.732	0.070	0.006
-248.019	595.163	0.149	0.366
-247.005	-200.000	0.000	0.352
-245.990	-200.000	0.010	0.187
-244.976	215.117	-0.170	0.266
-243.961	184.186	-0.167	0.245
-242.946	-190.151	0.079	-0.001
-241.932	99.713	-0.030	0.034
-240.917	-200.000	0.034	-0.156
-239.903	-75.348	0.249	-0.088
-238.888	-200.000	-0.041	0.197
-237.873	-194.625	-0.209	-0.002
-236.859	22.849	0.164	0.134
-235.844	-200.000	-0.014	-0.097
-234.830	800.000	0.037	0.149
-233.815	-200.000	-0.039	0.173
-232.800	267.957	0.062	-0.108
-231.786	-19.054	0.305	0.188
-230.771	225.636	-0.100	0.161
-229.757	73.227	-0.078	0.081
-228.742	-200.000	0.008	-0.449
-227.727	-75.064	-0.221	0.078
-226.713	61.898	0.045	-0.044
-225.698	161.021	0.305	0.422
-224.684	-98.221	0.332	-0.084
-223.669	47.274	-0.213	-0.197
-222.655	-200.000	-0.004	0.190
-221.640	90.027	0.190	0.210
-220.625	-200.000	-0.020	0.148
-219.611	46.064	-0.281	-0.257
-218.596	-166.507	-0.423	-0.017
-217.582	-132.944	-0.331	0.042
-216.567	26.080	0.095	0.079
-215.552	-130.596	-0.302	-0.040
-214.538	3.568	0.156	-0.113
-213.523	-20.078	0.060	-0.037
-212.509	-200.000	-0.004	-0.161
-211.494	71.320	-0.110	0.113
-210.479	-200.000	-0.028	0.190
-209.465	264.336	-0.166	-0.285
-208.450	-21.576	-0.133	-0.080
-207.436	-200.000	0.038	-0.340
-206.421	-7.734	-0.094	-0.063
-205.406	-163.249	-0.200	-0.009
-204.392	-48.296	0.307	-0.147
-203.377	-200.000	-0.029	0.300
-202.363	-142.038	0.059	0.006
-201.348	-88.790	-0.268	0.079
-200.333	-75.752	0.334	0.117
-199.319	34.472	0.112	0.097
-198.304	-96.815	-0.228	0.059
-197.290	35.858	-0.050	-0.044
-196.275	437.894	-0.068	-0.147
-195.260	124.125	-0.045	-0.055
-194.246	227.884	-0.153	0.246
-193.231	-200.000	0.088	-0.392
-192.217	-13.402	-0.118	-0.076
-191.202	285.252	0.043	-0.077
-190.187	-75.594	-0.340	-0.119
-189.173	-64.136	-0.102	0.041
-188.158	-54.181	0.360	-0.162
-187.144	-200.000	0.032	-0.146
-186.129	800.000	0.019	-0.064
-185.114	68.274	0.250	0.253
-184.100	-103.399	-0.396	0.092
-183.085	374.183	-0.043	0.087
-182.071	-200.000	-0.013	-0.598
-181.056	8.668	0.326	0.242
-180.042	-169.088	-0.178	0.007
-179.027	-55.726	0.212	0.094
-178.012	-106.131	0.182	-0.040
-176.998	216.660	-0.141	-0.222
-175.983	800.000	-0.046	0.145
-174.969	130.551	0.106	-0.134
-173.954	-149.302	0.073	-0.006
-172.939	-129.622	0.051	-0.007
-171.925	182.243	-0.040	0.059
-170.910	-71.538	0.076	-0.028
-169.896	39.337	-0.046	0.041
-168.881	-126.448	-0.283	0.042
-167.866	-166.060	0.214	-0.009
-166.852	88.924	-0.282	0.310
-165.837	-180.514	0.268	-0.005
-164.823	-104.357	0.147	0.034
-163.808	-134.662	-0.510	-0.061
-162.793	800.000	0.050	0.165
-161.779	-200.000	0.040	0.185
-160.764	203.502	0.073	0.112
-159.750	-200.000	0.004	-0.123
-158.735	-113.459	0.276	-0.053
-157.720	-200.000	-0.036	0.184
-156.706	-200.000	0.032	-0.457
-155.691	-8.561	0.244	0.162
-154.677	-41.052	-0.288	-0.147
-153.662	-186.741	-0.287	-0.004
-152.647	-111.940	0.146	0.029
-151.633	-200.000	-0.041	0.270
-150.618	6.503	-0.056	0.041
-149.604	113.336	0.157	-0.188
-148.589	-15.507	-0.209	0.132
-147.574	74.009	0.149	-0.155
-146.560	-184.348	0.320	0.005
-145.545	-200.000	0.016	0.136
-144.531	800.000	-0.059	-0.173
-143.516	208.729	0.096	-0.148
-142.502	10.314	0.292	-0.219
-141.487	800.000	0.042	0.150
-140.472	800.000	-0.040	-0.147
-139.458	469.585	-0.057	-0.127
-138.443	-85.886	0.305	0.093
-137.429	-200.000	0.021	0.221
-136.414	337.441	0.108	0.207
-135.399	-200.000	-0.001	0.168
-134.385	156.375	-0.042	0.057
-133.370	-68.067	-0.142	0.055
-132.356	190.116	-0.092	-0.136
-131.341	-115.736	-0.258	0.048
-130.326	18.130	0.184	0.145
-129.312	-158.397	0.456	-0.026
-128.297	-198.429	-0.183	0.001
-127.283	-200.000	0.033	0.436
-126.268	-73.746	0.206	0.074
-125.253	-101.164	-0.370	-0.089
-124.239	-169.369	0.352	0.013
-123.224	75.242	-0.174	-0.181
