DTS Sentinel unit serial number:	SN413079Multiplexer serial number:	ORYXHardware model number:	OX4-SRSoftware version number:	ORYX F/W v4.00 Oryx Data Collector v3.7.2.0data status	okinstallation	princeton_trtdifferential loss correction	single-endedforward channel	channel 1reverse channel	N/Adate	2019/09/14time	01:22:35forward acquisition time	60.00reverse acquisition time	0.00gamma	496.2192k internal	0.2336k external	0.2336temperature offset calibration	1.0079default loss term (dB/km)	0.3790temperature slope calibration	1.0000multiplexer offset coefficient	1.0000multiplexer slope coefficient	1.0000fibre end	0.00T internal ref (°C)	26.39T ext. ref 1 (°C)	3.19T ext. ref 2 (°C)	21.44length (m)	temperature (°C)	Stokes	anti-Stokes-747.200	800.000	0.059	-0.183
-746.185	-98.508	0.181	0.047
-745.171	-90.446	-0.201	-0.059
-744.156	197.720	0.130	0.200
-743.142	170.936	0.200	-0.287
-742.127	24.068	0.028	0.024
-741.112	769.856	0.078	-0.212
-740.098	800.000	-0.042	0.143
-739.083	507.890	0.018	0.041
-738.069	652.515	-0.126	-0.325
-737.054	49.884	-0.204	0.193
-736.039	-78.573	0.375	0.129
-735.025	-49.254	0.126	-0.060
-734.010	42.022	0.290	0.264
-732.996	-67.494	-0.200	0.079
-731.981	-112.142	0.463	0.093
-730.966	800.000	0.073	-0.316
-729.952	45.050	-0.213	-0.197
-728.937	-92.567	-0.259	0.073
-727.923	-118.552	-0.380	0.067
-726.908	179.754	-0.110	0.162
-725.894	800.000	0.023	0.089
-724.879	46.342	-0.148	-0.138
-723.864	800.000	-0.054	0.163
-722.850	-56.298	0.173	-0.077
-721.835	172.341	-0.135	0.195
-720.821	-16.666	-0.119	-0.075
-719.806	-119.525	0.183	-0.032
-718.791	343.476	-0.075	-0.148
-717.777	800.000	0.083	0.319
-716.762	-64.249	0.196	-0.080
-715.748	62.963	-0.176	-0.176
-714.733	-19.993	0.167	-0.104
-713.718	85.729	-0.134	0.148
-712.704	273.656	0.047	-0.083
-711.689	800.000	0.031	0.132
-710.675	-151.232	0.180	0.014
-709.660	-88.297	-0.253	-0.076
-708.645	-60.861	0.198	0.084
-707.631	175.081	0.063	-0.091
-706.616	-160.756	-0.093	0.005
-705.602	800.000	-0.119	-0.416
-704.587	145.565	0.117	-0.157
-703.572	-175.036	0.085	0.002
-702.558	-200.000	0.039	-0.228
-701.543	-26.506	0.134	0.079
-700.529	-40.074	0.103	-0.054
-699.514	-200.000	-0.015	-0.165
-698.499	677.524	0.050	-0.131
-697.485	-126.283	-0.340	-0.051
-696.470	-110.536	-0.144	0.030
-695.456	271.882	-0.162	-0.287
-694.441	800.000	-0.095	-0.350
-693.426	97.065	-0.218	0.251
-692.412	-96.807	0.270	-0.071
-691.397	-113.662	-0.261	-0.051
-690.383	4.327	-0.096	-0.070
-689.368	97.961	-0.102	0.117
-688.354	348.846	-0.123	0.244
-687.339	800.000	-0.095	0.286
-686.324	-144.734	0.299	-0.028
-685.310	745.685	-0.134	0.360
-684.295	-156.892	-0.160	0.010
-683.281	-15.957	-0.074	0.047
-682.266	-136.250	-0.095	0.011
-681.251	185.648	0.185	-0.275
-680.237	-31.527	0.125	0.070
-679.222	-200.000	0.028	0.160
-678.208	182.271	0.052	0.077
-677.193	632.940	-0.120	-0.305
-676.178	-200.000	0.015	0.107
-675.164	-200.000	-0.027	0.206
-674.149	643.882	0.063	-0.160
-673.135	574.343	0.049	0.119
-672.120	504.138	-0.039	0.091
-671.105	-64.918	-0.507	0.205
-670.091	800.000	0.032	-0.113
-669.076	-168.854	0.413	0.016
-668.062	121.856	-0.225	-0.281
-667.047	38.012	-0.164	0.146
-666.032	83.256	-0.089	-0.097
-665.018	800.000	-0.061	0.258
-664.003	27.123	-0.309	-0.260
-662.989	-81.113	0.250	-0.083
-661.974	-200.000	0.034	0.360
-660.959	800.000	0.027	0.085
-659.945	200.176	0.009	0.013
-658.930	-126.171	0.229	0.034
-657.916	-127.321	-0.307	0.045
-656.901	-87.813	-0.104	-0.031
-655.886	800.000	-0.035	0.127
-654.872	-54.646	-0.142	-0.064
-653.857	-10.047	0.127	-0.085
-652.843	207.554	0.287	-0.449
-651.828	800.000	-0.056	-0.182
-650.814	-200.000	0.014	0.073
-649.799	-85.813	0.191	-0.059
-648.784	800.000	-0.035	-0.139
-647.770	222.304	-0.266	-0.428
-646.755	501.397	0.066	-0.153
-645.741	-200.000	0.023	-0.123
-644.726	65.541	0.049	-0.050
-643.711	246.026	-0.036	-0.060
-642.697	-92.659	0.309	0.087
-641.682	67.251	-0.123	0.125
-640.668	338.020	0.111	-0.216
-639.653	730.391	-0.131	-0.349
-638.638	45.469	-0.245	-0.227
-637.624	-7.247	-0.178	0.120
-636.609	38.742	-0.112	-0.100
-635.595	610.639	-0.051	0.129
-634.580	-152.499	-0.064	-0.005
-633.565	-200.000	0.025	0.207
-632.551	294.602	0.055	-0.100
-631.536	493.950	0.056	-0.127
-630.522	431.924	-0.160	-0.346
-629.507	-200.000	0.019	0.118
-628.492	114.836	0.113	0.138
-627.478	-129.583	0.202	-0.028
-626.463	-200.000	0.011	-0.118
-625.449	239.727	-0.245	-0.409
-624.434	-200.000	-0.009	-0.548
-623.419	107.074	0.239	-0.283
-622.405	11.445	-0.108	0.083
-621.390	-20.202	0.366	0.225
-620.376	629.842	0.083	0.210
-619.361	27.041	-0.255	-0.214
-618.346	-200.000	0.028	-0.567
-617.332	-62.151	-0.148	-0.062
-616.317	-200.000	-0.328	0.000
-615.303	-200.000	0.017	0.136
-614.288	-81.693	-0.146	0.048
-613.273	-200.000	0.017	0.265
-612.259	-200.000	-0.048	0.439
-611.244	-59.299	-0.188	0.081
-610.230	800.000	-0.071	0.231
-609.215	800.000	0.030	0.117
-608.201	33.866	-0.153	-0.133
-607.186	-200.000	-0.021	-0.112
-606.171	-66.163	-0.176	0.070
-605.157	70.932	-0.288	-0.298
-604.142	-200.000	0.007	-0.052
-603.128	541.190	-0.076	-0.180
-602.113	-38.501	-0.262	0.138
-601.098	-119.145	0.110	-0.019
-600.084	-141.869	0.155	-0.015
-599.069	-200.000	0.036	-0.379
-598.055	13.523	0.271	0.210
-597.040	-151.195	-0.183	0.014
-596.025	-172.428	0.136	-0.004
-595.011	-71.692	-0.350	-0.131
-593.996	-200.000	0.061	-0.354
-592.982	-91.598	-0.170	0.048
-591.967	-200.000	-0.019	-0.387
-590.952	175.349	0.163	0.236
-589.938	-44.855	0.210	0.105
-588.923	-92.574	0.093	0.026
-587.909	-200.000	-0.027	-0.408
-586.894	610.046	0.112	-0.280
-585.879	-181.113	0.194	-0.004
-584.865	-144.273	-0.341	-0.032
-583.850	800.000	0.035	0.132
-582.836	-37.738	-0.247	0.131
-581.821	-200.000	0.058	-0.315
-580.806	-90.098	0.141	-0.041
-579.792	62.101	0.175	0.174
-578.777	-200.000	-0.032	-0.175
-577.763	-2.996	-0.108	-0.075
-576.748	-53.336	-0.122	-0.056
-575.733	400.752	0.112	0.234
-574.719	95.475	-0.214	-0.243
-573.704	-83.762	0.208	-0.066
-572.690	-115.138	-0.135	0.026
-571.675	-200.000	0.013	0.149
-570.661	-38.063	0.144	0.076
-569.646	-23.579	-0.123	0.073
-568.631	-76.005	-0.256	-0.090
-567.617	7.877	-0.449	0.336
-566.602	45.788	0.147	0.135
-565.588	3.017	0.154	0.112
-564.573	-97.735	0.212	0.055
-563.558	-128.032	-0.369	0.053
-562.544	51.627	-0.114	-0.108
-561.529	-3.490	-0.297	0.206
-560.515	-68.429	0.254	-0.098
-559.500	667.586	0.094	0.243
-558.485	249.102	0.072	0.122
-557.471	-38.132	-0.167	-0.088
-556.456	387.696	0.120	0.247
-555.442	2.495	-0.268	0.193
-554.427	-200.000	0.003	0.013
-553.412	800.000	-0.111	-0.461
-552.398	19.467	-0.224	-0.179
-551.383	714.879	0.109	0.288
-550.369	-38.460	0.318	0.167
-549.354	1.086	0.199	0.142
-548.339	-200.000	-0.004	0.142
-547.325	-200.000	0.042	-0.283
-546.310	-200.000	-0.021	-0.264
-545.296	-200.000	0.011	0.087
-544.281	57.599	0.150	-0.147
-543.266	-90.639	-0.342	0.099
-542.252	800.000	-0.045	0.171
-541.237	-189.157	-0.176	-0.002
-540.223	-200.000	-0.040	0.268
-539.208	-73.479	-0.144	-0.052
-538.193	-123.835	0.169	0.027
-537.179	-78.246	-0.308	-0.105
-536.164	-200.000	0.011	-0.241
-535.150	-182.468	0.219	-0.004
-534.135	48.502	-0.190	-0.177
-533.121	150.851	0.105	-0.143
-532.106	437.542	-0.114	-0.248
-531.091	318.945	0.144	0.273
-530.077	556.673	0.070	-0.169
-529.062	-200.000	0.028	-0.122
-528.048	-143.767	0.226	-0.021
-527.033	-43.446	-0.093	0.047
-526.018	265.319	-0.105	-0.183
-525.004	-200.000	0.022	0.164
-523.989	-154.566	-0.159	0.011
-522.975	-200.000	-0.104	-0.000
-521.960	-62.768	-0.241	-0.100
-520.945	187.425	0.008	0.012
-519.931	-200.000	-0.027	-0.152
-518.916	-200.000	0.014	0.423
-517.902	-9.756	-0.205	-0.136
-516.887	148.712	-0.128	0.172
-515.872	-136.723	0.310	0.036
-514.858	276.400	0.143	0.253
-513.843	56.568	0.089	0.086
-512.829	-34.036	0.134	-0.073
-511.814	117.859	-0.076	-0.093
-510.799	15.728	-0.216	-0.169
-509.785	-72.269	0.052	-0.019
-508.770	800.000	0.050	-0.182
-507.756	792.372	-0.018	-0.049
-506.741	556.158	-0.026	0.062
-505.726	169.826	0.072	0.102
-504.712	-141.247	-0.050	-0.005
-503.697	56.356	0.215	0.208
-502.683	-76.946	0.092	-0.032
-501.668	156.446	-0.041	-0.056
-500.653	-156.659	-0.231	-0.014
-499.639	388.356	0.077	0.160
-498.624	-200.000	0.005	-0.040
-497.610	35.397	-0.091	-0.079
-496.595	149.433	0.222	-0.299
-495.581	-20.470	0.148	-0.090
-494.566	800.000	0.074	-0.218
-493.551	-168.443	0.280	-0.011
-492.537	-200.000	-0.032	-0.372
-491.522	692.241	0.095	0.248
-490.508	-19.239	0.193	0.119
-489.493	-77.693	-0.278	-0.096
-488.478	8.745	-0.079	0.059
-487.464	-200.000	0.039	-0.286
-486.449	556.615	-0.060	-0.144
-485.435	-97.522	0.092	0.024
-484.420	388.530	0.086	-0.177
-483.405	-39.080	0.309	0.162
-482.391	-200.000	-0.011	0.227
-481.376	-0.341	0.143	0.101
-480.362	800.000	-0.017	-0.059
-479.347	-116.587	0.186	0.034
-478.332	130.758	0.107	-0.136
-477.318	-23.280	-0.274	-0.163
-476.303	82.335	0.242	-0.261
-475.289	-90.728	-0.185	0.053
-474.274	84.562	-0.025	0.027
-473.259	347.218	-0.034	0.067
-472.245	-200.000	-0.031	-0.356
-471.230	-91.476	0.467	0.133
-470.216	-103.604	-0.161	-0.038
-469.201	-25.372	-0.054	-0.032
-468.186	-151.144	0.012	0.001
-467.172	243.752	0.113	0.188
-466.157	2.604	0.105	-0.075
-465.143	-44.009	0.168	0.084
-464.128	-59.854	-0.273	0.116
-463.113	-200.000	-0.022	0.449
-462.099	-200.000	-0.001	-0.014
-461.084	-183.354	0.230	-0.004
-460.070	-169.854	0.150	0.005
-459.055	-8.375	0.161	0.107
-458.040	648.822	-0.114	-0.289
-457.026	-47.077	-0.192	-0.093
-456.011	-179.704	-0.449	-0.010
-454.997	124.590	0.191	0.239
-453.982	-47.427	0.090	0.044
-452.968	800.000	0.049	-0.158
-451.953	76.049	0.095	-0.100
-450.938	145.897	0.020	0.026
-449.924	475.437	-0.045	-0.101
-448.909	-39.110	0.200	-0.105
-447.895	800.000	0.097	0.329
-446.880	-60.336	-0.335	-0.141
-445.865	51.994	0.181	0.171
-444.851	-7.207	-0.198	0.133
-443.836	-157.483	-0.319	0.019
-442.822	-200.000	-0.001	0.023
-441.807	195.754	0.078	-0.118
-440.792	-114.382	0.260	0.050
-439.778	-21.086	-0.177	-0.108
-438.763	-107.761	-0.330	-0.071
-437.749	800.000	-0.034	0.107
-436.734	-200.000	-0.030	0.229
-435.719	232.620	0.144	-0.235
-434.705	17.262	0.239	0.188
-433.690	716.396	-0.061	-0.161
-432.676	88.427	0.135	-0.148
-431.661	615.747	0.070	0.175
-430.646	-200.000	-0.001	-0.088
-429.632	-200.000	-0.016	-0.158
-428.617	-85.866	0.132	-0.041
-427.603	-66.388	0.183	-0.072
-426.588	310.110	-0.043	-0.079
-425.573	-34.070	0.294	-0.160
-424.559	455.470	-0.152	-0.334
-423.544	800.000	0.083	-0.256
-422.530	-149.353	-0.154	-0.012
-421.515	-107.184	0.027	0.006
-420.500	232.106	0.103	-0.168
-419.486	-41.988	-0.313	0.159
-418.471	-129.663	-0.405	0.055
-417.457	92.005	-0.085	0.095
-416.442	133.529	0.022	-0.029
-415.428	126.410	-0.157	-0.197
-414.413	-26.822	-0.171	-0.099
-413.398	800.000	0.012	-0.043
-412.384	-200.000	0.088	0.472
-411.369	-142.105	-0.122	0.012
-410.355	27.607	0.136	0.114
-409.340	-46.714	0.126	0.061
-408.325	46.467	-0.241	-0.221
-407.311	475.207	0.054	-0.121
-406.296	185.168	0.090	0.133
-405.282	800.000	-0.130	-0.356
-404.267	365.564	-0.018	-0.037
-403.252	-200.000	0.012	-0.219
-402.238	-97.991	-0.441	-0.113
-401.223	15.771	-0.090	0.070
-400.209	137.141	0.143	0.185
-399.194	102.835	-0.346	0.401
-398.179	409.231	0.187	0.393
-397.165	-81.809	0.219	0.071
-396.150	800.000	0.019	0.075
-395.136	-132.408	0.202	0.026
-394.121	800.000	0.079	-0.230
-393.106	-200.000	0.025	-0.231
-392.092	-59.965	-0.315	0.133
-391.077	-113.729	0.286	0.055
-390.063	800.000	-0.055	0.174
-389.048	800.000	0.056	0.189
-388.033	-112.918	-0.262	-0.051
-387.019	-200.000	0.032	-0.294
-386.004	-120.959	-0.308	0.051
-384.990	-72.624	0.100	-0.036
-383.975	-14.829	-0.122	-0.077
-382.960	-200.000	0.017	-0.297
-381.946	-65.185	0.181	0.072
-380.931	337.592	-0.234	0.450
-379.917	-200.000	-0.045	-0.271
-378.902	-115.962	0.285	0.053
-377.888	206.076	0.149	0.229
-376.873	-200.000	-0.149	0.695
-375.858	-200.000	0.053	0.303
-374.844	735.327	0.025	0.067
-373.829	-178.740	0.093	0.002
-372.815	138.331	-0.069	0.090
-371.800	-200.000	0.015	-0.196
-370.785	306.216	0.062	-0.115
-369.771	-149.574	-0.412	0.032
-368.756	27.159	0.215	-0.179
-367.742	-81.832	0.244	0.079
-366.727	800.000	0.052	0.153
-365.712	130.423	0.164	-0.208
-364.698	-73.214	-0.138	0.050
-363.683	47.920	0.154	-0.142
-362.669	-176.287	0.305	-0.008
-361.654	-27.715	-0.118	-0.068
-360.639	67.814	0.172	0.174
-359.625	-136.057	-0.285	-0.033
-358.610	167.370	-0.104	0.147
-357.596	458.363	-0.032	-0.070
-356.581	-93.210	0.234	-0.064
-355.566	-35.056	-0.284	0.153
-354.552	-200.000	0.013	-0.059
-353.537	-65.744	-0.287	-0.114
-352.523	-200.000	-0.009	0.118
-351.508	91.860	-0.059	0.065
-350.493	-137.924	0.055	0.006
-349.479	133.128	0.280	0.357
-348.464	-29.872	-0.226	0.128
-347.450	-115.409	-0.093	0.017
-346.435	-200.000	0.004	0.034
-345.420	800.000	-0.106	0.291
-344.406	-200.000	-0.000	-0.004
-343.391	303.216	0.048	-0.088
-342.377	27.124	0.220	0.183
-341.362	149.142	-0.122	0.163
-340.348	-92.833	0.217	0.060
-339.333	-115.844	-0.303	0.056
-338.318	-174.897	-0.235	0.007
-337.304	142.886	0.073	0.096
-336.289	314.584	0.124	0.231
-335.275	157.083	-0.152	-0.208
-334.260	-35.159	-0.161	-0.087
-333.245	185.750	0.084	0.123
-332.231	-200.000	-0.034	0.216
-331.216	-200.000	0.054	-0.370
-330.202	-57.769	0.051	0.022
-329.187	800.000	0.168	0.557
-328.172	-200.000	-0.025	0.262
-327.158	-200.000	0.067	-0.325
-326.143	-200.000	0.052	-0.402
-325.129	-200.000	0.020	-0.116
-324.114	-54.113	0.059	-0.027
-323.099	-82.937	-0.236	-0.075
-322.085	800.000	0.124	-0.358
-321.070	-14.443	-0.282	0.179
-320.056	-100.119	0.512	-0.126
-319.041	-86.098	0.250	0.076
-318.026	21.597	-0.231	0.186
-317.012	-19.412	-0.044	0.027
-315.997	-35.456	-0.083	0.045
-314.983	-200.000	-0.021	-0.195
-313.968	147.674	0.044	0.059
-312.953	-200.000	-0.029	0.197
-311.939	-200.000	-0.024	0.426
-310.924	-10.276	-0.216	-0.142
-309.910	72.413	-0.056	-0.057
-308.895	-83.722	0.051	-0.016
-307.880	800.000	0.049	-0.204
-306.866	800.000	0.042	0.179
-305.851	-93.906	-0.137	-0.037
-304.837	347.032	0.169	-0.329
-303.822	-200.000	-0.038	-0.204
-302.807	-60.868	0.193	0.080
-301.793	337.731	0.156	0.299
-300.778	518.457	-0.034	0.078
-299.764	-78.794	-0.122	-0.041
-298.749	-122.017	0.228	-0.037
-297.735	128.961	0.154	-0.194
-296.720	-59.545	0.428	0.181
-295.705	-49.773	-0.184	0.086
-294.691	663.529	-0.141	0.360
-293.676	-91.717	-0.285	0.080
-292.662	84.674	0.067	-0.073
-291.647	3.688	-0.264	-0.190
-290.632	-200.000	0.004	-0.032
-289.618	5.332	0.143	-0.104
-288.603	-56.761	0.298	-0.130
-287.589	509.511	-0.061	-0.139
-286.574	-126.788	0.300	-0.044
-285.559	73.062	-0.052	0.054
-284.545	-68.453	-0.197	0.076
-283.530	272.554	0.113	-0.197
-282.516	800.000	-0.082	0.245
-281.501	9.654	-0.081	0.060
-280.486	201.024	0.084	-0.127
-279.472	138.353	0.157	0.203
-278.457	-138.251	0.324	0.035
-277.443	10.869	0.137	-0.103
-276.428	20.370	0.228	0.181
-275.413	-153.719	0.120	0.008
-274.399	-89.232	-0.133	-0.039
-273.384	309.156	-0.068	-0.125
-272.370	-200.000	-0.001	-0.048
-271.355	-200.000	-0.042	0.216
-270.340	-142.563	-0.192	-0.019
-269.326	403.847	0.107	-0.223
-268.311	-200.000	0.005	0.065
-267.297	-48.708	0.141	-0.067
-266.282	-112.440	0.198	-0.039
-265.267	40.284	-0.020	0.018
-264.253	800.000	-0.107	-0.456
-263.238	-15.775	0.406	-0.255
-262.224	-200.000	-0.017	0.349
-261.209	3.748	-0.249	-0.179
-260.195	47.831	-0.076	-0.070
-259.180	630.728	0.058	0.146
-258.165	800.000	0.062	0.176
-257.151	47.520	-0.148	-0.136
-256.136	179.099	0.098	0.141
-255.122	-200.000	0.025	0.270
-254.107	-75.098	-0.135	-0.047
-253.092	-117.843	0.361	0.064
-252.078	-4.663	-0.226	0.154
-251.063	-200.000	0.005	-0.061
-250.049	-156.315	-0.165	-0.010
-249.034	-32.330	-0.182	-0.100
-248.019	33.580	-0.193	0.165
-247.005	-129.493	-0.206	0.028
-245.990	457.317	0.238	0.520
-244.976	290.320	-0.070	-0.126
-243.961	234.758	-0.129	0.209
-242.946	569.964	0.059	-0.141
-241.932	88.104	0.262	0.286
-240.917	166.159	-0.161	0.224
-239.903	211.990	0.021	0.032
-238.888	-200.000	-0.023	0.105
-237.873	-35.068	0.223	0.120
-236.859	454.484	-0.176	0.384
-235.844	202.171	0.029	0.044
-234.830	-41.072	0.197	-0.100
-233.815	-57.852	-0.407	-0.175
-232.800	121.095	0.232	0.284
-231.786	-88.279	0.177	-0.052
-230.771	750.405	0.125	0.331
-229.757	16.078	0.116	0.090
-228.742	519.353	-0.123	0.283
-227.727	-200.000	0.004	0.043
-226.713	199.244	0.060	-0.090
-225.698	105.731	-0.302	-0.351
-224.684	-83.554	0.098	-0.031
-223.669	-103.104	0.217	0.050
-222.655	-94.569	0.287	0.077
-221.640	800.000	-0.074	0.280
-220.625	225.406	-0.180	-0.287
-219.611	800.000	-0.087	0.307
-218.596	362.817	-0.044	-0.087
-217.582	-94.720	0.277	-0.074
-216.567	383.323	-0.128	0.259
-215.552	-101.071	0.154	-0.037
-214.538	126.730	0.225	0.280
-213.523	-73.557	0.110	0.039
-212.509	285.082	0.084	0.149
-211.494	-200.000	-0.064	0.374
-210.479	374.833	0.139	0.278
-209.465	-103.981	-0.326	0.075
-208.450	-84.401	-0.097	-0.030
-207.436	-200.000	0.008	-0.195
-206.421	-67.040	0.081	0.031
-205.406	-176.283	-0.426	-0.011
-204.392	-102.675	-0.070	0.016
-203.377	74.141	-0.163	-0.168
-202.363	216.859	0.191	0.298
-201.348	488.576	0.074	-0.166
-200.333	-200.000	-0.041	0.210
-199.319	800.000	0.071	0.293
-198.304	-82.716	-0.231	0.073
-197.290	457.622	0.102	0.223
-196.275	22.257	-0.345	-0.277
-195.260	306.925	0.130	-0.237
-194.246	153.559	0.236	0.317
-193.231	110.746	0.069	0.082
-192.217	31.129	0.159	-0.134
-191.202	-42.053	-0.323	0.162
-190.187	349.075	0.073	0.141
-189.173	-200.000	-0.008	-0.043
-188.158	-49.303	-0.041	0.019
-187.144	-200.000	-0.009	-0.102
-186.129	-200.000	0.020	-0.275
-185.114	-200.000	-0.004	-0.246
-184.100	800.000	-0.033	0.090
-183.085	-151.467	-0.206	0.015
-182.071	-128.188	0.291	0.041
-181.056	-19.770	-0.120	0.073
-180.042	-200.000	-0.027	-0.156
-179.027	187.851	0.090	-0.133
-178.012	169.232	-0.197	0.277
-176.998	36.302	0.329	-0.285
-175.983	800.000	-0.050	0.179
-174.969	-65.532	0.169	-0.067
-173.954	-19.392	-0.140	-0.085
-172.939	297.977	0.099	0.179
-171.925	-174.647	0.027	-0.001
-170.910	-156.531	-0.120	0.007
-169.896	-200.000	-0.060	-0.432
-168.881	202.890	0.090	-0.136
-167.866	-89.763	-0.187	-0.054
-166.852	-137.079	0.287	0.032
-165.837	-200.000	0.050	0.217
-164.823	-200.000	0.042	-0.413
-163.808	-11.440	0.182	-0.117
-162.793	-200.000	0.081	-0.400
-161.779	-27.302	-0.251	0.143
-160.764	320.949	0.093	0.174
-159.750	-58.709	-0.228	0.097
-158.735	262.292	0.114	-0.193
-157.720	-184.783	0.162	-0.003
-156.706	105.711	-0.130	-0.150
-155.691	227.318	-0.016	0.025
-154.677	-146.869	0.243	0.021
-153.662	-200.000	-0.012	0.093
-152.647	11.308	0.240	-0.180
-151.633	-200.000	0.033	-0.206
-150.618	-143.106	-0.102	-0.010
-149.604	-100.300	-0.367	-0.089
-148.589	-200.000	0.007	-0.197
-147.574	-20.570	-0.180	0.109
-146.560	-174.923	0.360	-0.010
-145.545	-5.643	-0.210	0.141
-144.531	-141.526	-0.204	0.020
-143.516	250.372	-0.033	-0.054
-142.502	-77.257	0.131	-0.045
-141.487	-200.000	-0.065	0.280
-140.472	-41.479	-0.270	0.136
-139.458	129.365	-0.256	0.321
-138.443	-200.000	0.002	-0.284
-137.429	-67.466	-0.131	0.050
-136.414	302.495	-0.067	-0.121
-135.399	-18.386	0.108	-0.066
-134.385	800.000	-0.057	-0.195
-133.370	-48.855	0.201	-0.094
-132.356	311.346	-0.075	-0.137
-131.341	-200.000	0.010	0.204
-130.326	150.413	0.068	-0.091
-129.312	257.620	-0.053	0.089
-128.297	238.163	0.197	-0.321
-127.283	-200.000	0.102	-0.444
-126.268	607.553	0.101	-0.247
-125.253	-43.740	0.092	-0.046
-124.239	-200.000	-0.017	0.134
-123.224	-200.000	0.019	-0.114
-122.210	94.747	0.226	0.252
