DTS Sentinel unit serial number:	SN413079Multiplexer serial number:	ORYXHardware model number:	OX4-SRSoftware version number:	ORYX F/W v4.00 Oryx Data Collector v3.7.2.0data status	okinstallation	princeton_trtdifferential loss correction	single-endedforward channel	channel 1reverse channel	N/Adate	2019/09/15time	05:02:35forward acquisition time	60.00reverse acquisition time	0.00gamma	496.2192k internal	0.2325k external	0.2325temperature offset calibration	1.0004default loss term (dB/km)	0.3790temperature slope calibration	1.0000multiplexer offset coefficient	1.0000multiplexer slope coefficient	1.0000fibre end	0.00T internal ref (°C)	30.69T ext. ref 1 (°C)	4.85T ext. ref 2 (°C)	25.13length (m)	temperature (°C)	Stokes	anti-Stokes-747.200	378.806	-0.041	0.085
-746.185	-137.352	-0.059	-0.007
-745.171	467.953	0.102	-0.231
-744.156	-200.000	0.011	0.249
-743.142	39.989	0.158	-0.144
-742.127	-200.000	-0.034	0.222
-741.112	352.991	0.095	0.191
-740.098	527.921	-0.105	0.251
-739.083	-200.000	0.033	0.259
-738.069	-123.803	-0.109	-0.017
-737.054	-135.156	-0.339	0.041
-736.039	2.295	0.112	0.081
-735.025	1.590	0.250	0.181
-734.010	-47.687	-0.283	0.139
-732.996	343.219	-0.205	-0.405
-731.981	19.043	-0.109	-0.088
-730.966	-77.214	-0.244	0.086
-729.952	-43.672	-0.119	-0.061
-728.937	-30.403	-0.203	-0.116
-727.923	800.000	0.117	-0.328
-726.908	-200.000	-0.021	-0.302
-725.894	94.332	-0.157	-0.179
-724.879	79.879	0.113	0.122
-723.864	-81.146	0.227	-0.076
-722.850	-200.000	0.011	0.143
-721.835	303.988	-0.017	-0.031
-720.821	248.067	-0.085	-0.145
-719.806	-195.482	0.307	-0.002
-718.791	-89.084	-0.074	0.022
-717.777	188.218	-0.111	0.168
-716.762	302.630	0.166	0.309
-715.748	-30.926	-0.285	-0.162
-714.733	-82.137	-0.064	0.021
-713.718	-62.127	-0.248	0.104
-712.704	-93.907	0.173	-0.048
-711.689	-200.000	-0.014	-0.066
-710.675	44.364	-0.222	-0.206
-709.660	509.117	0.135	-0.316
-708.645	-200.000	0.021	0.229
-707.631	164.941	-0.087	0.124
-706.616	-122.264	-0.320	0.053
-705.602	-200.000	-0.027	-0.315
-704.587	192.815	-0.215	-0.328
-703.572	-200.000	0.012	0.108
-702.558	10.621	0.193	-0.148
-701.543	135.875	-0.122	-0.160
-700.529	-200.000	-0.028	-0.195
-699.514	446.845	-0.074	-0.163
-698.499	458.659	0.044	0.100
-697.485	240.558	-0.129	0.217
-696.470	-168.186	0.206	0.008
-695.456	-18.304	0.236	0.149
-694.441	10.990	0.232	0.178
-693.426	105.481	0.055	-0.065
-692.412	-200.000	-0.009	-0.106
-691.397	-141.738	0.191	-0.019
-690.383	-200.000	0.019	-0.227
-689.368	-30.138	-0.220	0.126
-688.354	94.550	-0.245	-0.280
-687.339	65.251	-0.177	0.180
-686.324	-200.000	0.040	0.180
-685.310	-10.132	-0.472	0.316
-684.295	61.101	-0.123	0.123
-683.281	204.073	-0.069	0.107
-682.266	1.316	-0.272	0.197
-681.251	11.784	0.087	-0.068
-680.237	-197.499	-0.043	-0.000
-679.222	-80.789	0.049	0.016
-678.208	-61.164	-0.213	-0.091
-677.193	-112.235	0.097	0.020
-676.178	-40.468	-0.405	-0.212
-675.164	-147.480	0.189	-0.016
-674.149	131.725	0.126	0.163
-673.135	180.985	-0.058	0.086
-672.120	-195.346	-0.075	-0.001
-671.105	49.326	0.030	-0.028
-670.091	107.619	0.140	-0.168
-669.076	478.474	-0.020	-0.045
-668.062	113.386	-0.154	0.188
-667.047	-136.724	-0.130	0.015
-666.032	88.392	-0.028	-0.032
-665.018	800.000	0.106	-0.312
-664.003	-200.000	0.002	-0.214
-662.989	-112.784	0.487	0.097
-661.974	248.693	-0.162	-0.275
-660.959	78.384	0.155	0.166
-659.945	-126.057	0.271	0.041
-658.930	105.251	-0.052	0.062
-657.916	-38.679	-0.358	-0.190
-656.901	591.598	0.113	-0.280
-655.886	-200.000	0.026	-0.211
-654.872	50.943	-0.173	-0.165
-653.857	121.522	-0.158	-0.198
-652.843	-32.274	-0.186	-0.105
-651.828	800.000	-0.063	-0.234
-650.814	-200.000	0.012	-0.177
-649.799	-200.000	-0.016	0.186
-648.784	-200.000	-0.046	0.232
-647.770	-200.000	-0.105	0.500
-646.755	-99.674	-0.165	0.042
-645.741	280.379	-0.132	-0.237
-644.726	800.000	0.035	0.114
-643.711	-45.579	-0.034	0.017
-642.697	170.298	0.106	0.152
-641.682	297.701	-0.157	0.291
-640.668	-109.486	-0.225	-0.048
-639.653	89.086	-0.140	-0.157
-638.638	-113.566	-0.157	-0.031
-637.624	125.779	0.293	-0.372
-636.609	800.000	-0.040	-0.162
-635.595	21.071	-0.315	-0.257
-634.580	107.259	0.283	0.338
-633.565	-0.965	-0.191	0.136
-632.551	90.033	0.225	-0.253
-631.536	-200.000	0.024	-0.409
-630.522	-4.414	0.177	-0.123
-629.507	225.750	0.013	0.021
-628.492	-97.406	-0.169	-0.044
-627.478	-73.488	-0.368	-0.135
-626.463	-87.171	-0.081	0.025
-625.449	-43.387	-0.155	-0.078
-624.434	71.542	-0.145	-0.152
-623.419	-200.000	0.018	-0.320
-622.405	46.638	0.263	-0.245
-621.390	-59.793	0.262	0.113
-620.376	-153.510	-0.406	-0.028
-619.361	83.806	-0.167	0.183
-618.346	524.307	-0.081	0.192
-617.332	184.569	-0.169	0.251
-616.317	8.558	-0.115	-0.087
-615.303	-84.947	-0.481	0.152
-614.288	800.000	-0.088	-0.287
-613.273	321.543	-0.120	-0.230
-612.259	-200.000	-0.026	-0.120
-611.244	800.000	-0.022	0.075
-610.230	44.520	-0.200	0.184
-609.215	106.627	0.083	0.099
-608.201	634.177	0.071	-0.181
-607.186	-200.000	0.008	0.059
-606.171	185.976	-0.092	-0.137
-605.157	-108.378	0.078	0.017
-604.142	212.001	0.159	0.251
-603.128	-200.000	-0.000	-0.183
-602.113	321.790	0.098	-0.187
-601.098	688.838	0.058	0.153
-600.084	524.297	0.181	0.428
-599.069	-118.149	-0.314	-0.056
-598.055	373.873	-0.068	-0.139
-597.040	-200.000	-0.009	0.263
-596.025	56.970	-0.164	0.160
-595.011	-200.000	-0.000	-0.114
-593.996	-60.814	-0.258	0.110
-592.982	20.255	0.111	0.090
-591.967	718.251	-0.056	0.148
-590.952	371.156	-0.076	-0.155
-589.938	-86.980	0.243	0.074
-588.923	-200.000	-0.009	-0.137
-587.909	800.000	0.017	-0.050
-586.894	255.276	-0.048	-0.082
-585.879	188.774	-0.091	0.137
-584.865	-47.103	-0.116	-0.057
-583.850	21.499	0.054	-0.044
-582.836	157.328	0.143	-0.199
-581.821	139.320	-0.182	-0.240
-580.806	-95.058	0.042	-0.011
-579.792	107.123	-0.192	-0.228
-578.777	44.499	-0.055	0.051
-577.763	205.875	0.198	-0.308
-576.748	-66.485	-0.202	-0.080
-575.733	-200.000	-0.001	0.138
-574.719	-50.000	0.154	0.073
-573.704	-56.554	-0.015	-0.007
-572.690	-90.174	0.289	-0.084
-571.675	745.221	-0.083	-0.224
-570.661	-102.849	0.164	-0.039
-569.646	-68.668	0.068	0.026
-568.631	800.000	-0.007	-0.027
-567.617	-59.035	0.236	-0.102
-566.602	53.514	-0.175	-0.169
-565.588	326.787	-0.066	-0.128
-564.573	153.312	0.219	0.300
-563.558	85.841	-0.024	0.027
-562.544	-200.000	0.013	0.320
-561.529	78.593	-0.090	-0.097
-560.515	228.221	0.036	-0.059
-559.500	30.568	-0.064	-0.055
-558.485	421.621	0.157	-0.337
-557.471	122.723	0.148	-0.186
-556.456	131.322	0.246	-0.317
-555.442	-14.650	-0.212	-0.136
-554.427	313.768	0.122	0.230
-553.412	-200.000	-0.099	-0.566
-552.398	152.539	-0.146	-0.200
-551.383	170.696	-0.171	0.245
-550.369	14.414	0.269	-0.211
-549.354	-145.513	0.325	0.029
-548.339	183.292	-0.035	-0.052
-547.325	15.712	0.126	-0.099
-546.310	6.754	0.193	-0.144
-545.296	800.000	0.087	0.262
-544.281	-104.524	0.161	0.037
-543.266	162.405	-0.061	-0.085
-542.252	213.616	-0.149	-0.236
-541.237	-39.500	-0.309	0.162
-540.223	-147.846	0.467	0.039
-539.208	314.862	0.113	-0.214
-538.193	9.112	0.258	0.195
-537.179	-134.347	0.550	0.068
-536.164	92.867	0.131	-0.148
-535.150	-20.112	0.037	0.023
-534.135	36.764	-0.363	-0.321
-533.121	183.546	-0.116	0.171
-532.106	-200.000	0.025	-0.171
-531.091	270.277	-0.235	-0.413
-530.077	-165.055	0.221	0.010
-529.062	116.149	-0.075	-0.091
-528.048	-91.087	0.306	0.088
-527.033	-200.000	-0.022	0.265
-526.018	-21.706	0.109	0.067
-525.004	-3.752	-0.187	-0.130
-523.989	51.659	0.048	-0.046
-522.975	88.416	0.181	0.201
-521.960	-78.816	-0.382	0.130
-520.945	373.181	-0.072	0.147
-519.931	142.327	0.203	-0.269
-518.916	-200.000	0.010	-0.356
-517.902	246.387	0.189	-0.319
-516.887	343.309	-0.021	-0.041
-515.872	-200.000	0.003	0.077
-514.858	-67.218	0.282	-0.111
-513.843	800.000	-0.030	0.129
-512.829	-200.000	0.036	0.287
-511.814	-200.000	-0.026	0.187
-510.799	275.664	-0.236	-0.418
-509.785	228.029	0.014	0.023
-508.770	-80.998	-0.487	0.161
-507.756	-45.801	0.344	-0.170
-506.741	-46.166	0.051	-0.025
-505.726	-8.062	-0.079	-0.053
-504.712	-83.713	-0.146	-0.047
-503.697	-200.000	0.004	0.156
-502.683	-200.000	-0.054	-0.317
-501.668	-121.148	-0.127	0.021
-500.653	800.000	-0.085	0.288
-499.639	-82.114	0.123	0.040
-498.624	117.132	0.108	0.132
-497.610	-200.000	-0.057	-0.347
-496.595	-2.545	-0.247	-0.173
-495.581	276.365	-0.061	-0.108
-494.566	712.949	-0.078	-0.206
-493.551	296.591	0.045	0.083
-492.537	-83.304	0.106	0.034
-491.522	-200.000	-0.027	-0.245
-490.508	115.534	0.100	0.123
-489.493	-200.000	-0.020	0.099
-488.478	81.395	0.210	-0.227
-487.464	-200.000	-0.031	-0.141
-486.449	561.728	0.014	-0.035
-485.435	151.063	0.300	0.407
-484.420	-138.706	-0.382	-0.042
-483.405	87.551	0.135	-0.149
-482.391	-200.000	0.003	-0.086
-481.376	800.000	-0.049	0.166
-480.362	-8.934	0.142	0.095
-479.347	-74.626	-0.108	-0.039
-478.332	221.520	-0.128	0.206
-477.318	671.298	0.111	0.288
-476.303	-99.758	0.171	0.043
-475.289	308.765	0.128	-0.239
-474.274	-200.000	0.063	-0.316
-473.259	-185.557	-0.223	-0.003
-472.245	800.000	0.058	-0.185
-471.230	-114.152	0.236	-0.046
-470.216	184.034	-0.169	0.250
-469.201	-200.000	0.004	0.168
-468.186	-188.019	-0.569	-0.007
-467.172	-200.000	0.028	0.217
-466.157	8.932	-0.088	0.066
-465.143	131.688	0.163	-0.210
-464.128	-130.676	-0.308	0.041
-463.113	81.980	-0.106	-0.115
-462.099	-82.339	0.279	-0.091
-461.084	450.374	-0.132	0.291
-460.070	-59.235	-0.298	0.128
-459.055	800.000	-0.105	-0.307
-458.040	-118.145	0.412	-0.073
-457.026	-80.471	0.212	0.071
-456.011	-7.053	0.203	-0.137
-454.997	800.000	-0.109	-0.313
-453.982	165.721	-0.085	-0.120
-452.968	71.247	-0.118	0.122
-451.953	-168.038	0.551	0.021
-450.938	304.719	0.112	-0.207
-449.924	27.140	-0.137	0.115
-448.909	-114.315	-0.441	-0.085
-447.895	269.149	-0.034	0.059
-446.880	23.811	0.194	-0.160
-445.865	800.000	0.040	0.113
-444.851	-79.933	0.108	-0.036
-443.836	-200.000	0.005	0.074
-442.822	14.448	-0.034	-0.026
-441.807	-1.196	-0.291	0.205
-440.792	-200.000	0.051	0.289
-439.778	-133.968	0.058	-0.007
-438.763	-38.231	-0.222	-0.117
-437.749	175.619	0.071	-0.102
-436.734	-58.986	-0.277	-0.119
-435.719	-115.888	0.229	-0.043
-434.705	15.488	0.063	0.049
-433.690	-78.505	-0.402	-0.137
-432.676	800.000	-0.034	-0.118
-431.661	-84.332	0.194	-0.061
-430.646	-68.901	0.137	0.053
-429.632	-48.117	-0.384	0.185
-428.617	126.143	0.120	0.151
-427.603	126.002	-0.193	0.244
-426.588	-200.000	0.028	0.206
-425.573	241.603	0.171	0.286
-424.559	-200.000	0.026	0.247
-423.544	-5.836	0.275	-0.188
-422.530	-200.000	-0.029	-0.164
-421.515	-200.000	-0.018	0.287
-420.500	-66.665	-0.293	-0.116
-419.486	-200.000	0.031	0.150
-418.471	227.123	-0.136	-0.221
-417.457	-200.000	0.042	0.297
-416.442	-17.143	-0.191	0.120
-415.428	-200.000	-0.024	0.356
-414.413	-183.641	-0.036	0.001
-413.398	46.756	-0.049	-0.045
-412.384	-200.000	0.024	0.130
-411.369	-200.000	0.044	-0.341
-410.355	561.134	-0.081	0.196
-409.340	-29.419	-0.247	-0.141
-408.325	-158.441	0.337	0.019
-407.311	691.624	-0.048	0.126
-406.296	-200.000	-0.001	-0.005
-405.282	800.000	-0.024	0.072
-404.267	26.235	0.242	-0.201
-403.252	-140.768	-0.103	-0.011
-402.238	-100.442	0.337	0.083
-401.223	-52.934	0.109	-0.050
-400.209	-87.175	-0.507	-0.153
-399.194	-89.895	0.380	-0.111
-398.179	-138.869	-0.259	-0.028
-397.165	11.512	0.284	-0.217
-396.150	-105.467	-0.130	-0.029
-395.136	304.831	0.166	0.307
-394.121	167.881	0.036	0.050
-393.106	233.627	0.121	-0.197
-392.092	-117.885	0.285	0.051
-391.077	-200.000	0.273	-0.000
-390.063	415.223	-0.037	0.079
-389.048	-124.820	-0.286	0.044
-388.033	-63.524	-0.199	-0.081
-387.019	800.000	0.027	-0.089
-386.004	-72.968	0.247	-0.090
-384.990	3.902	-0.127	-0.092
-383.975	-167.490	-0.318	0.013
-382.960	11.339	-0.106	-0.081
-381.946	-42.196	0.286	-0.145
-380.931	305.932	-0.070	-0.130
-379.917	-29.515	-0.199	0.113
-378.902	800.000	0.041	0.179
-377.888	396.030	0.129	-0.268
-376.873	-46.011	0.285	0.140
-375.858	441.392	0.088	0.190
-374.844	208.642	-0.080	-0.125
-373.829	-139.089	-0.236	-0.025
-372.815	-62.398	-0.320	-0.133
-371.800	16.128	0.160	-0.125
-370.785	-53.760	0.181	-0.082
-369.771	-111.683	-0.244	0.049
-368.756	-49.437	-0.277	-0.131
-367.742	224.452	-0.301	-0.483
-366.727	-136.807	0.178	-0.020
-365.712	644.273	-0.043	0.108
-364.698	176.638	-0.097	-0.141
-363.683	-129.484	-0.183	0.025
-362.669	631.096	0.158	0.398
-361.654	-121.419	0.392	0.065
-360.639	-129.144	0.376	-0.052
-359.625	126.231	-0.219	-0.276
-358.610	426.687	0.137	-0.293
-357.596	-68.142	0.385	0.149
-356.581	-98.875	0.109	0.028
-355.566	67.735	0.259	0.263
-354.552	634.705	0.043	0.109
-353.537	-43.136	-0.103	0.052
-352.523	-75.445	-0.211	0.075
-351.508	800.000	-0.075	0.296
-350.493	800.000	0.038	0.107
-349.479	-200.000	0.051	0.331
-348.464	-57.202	-0.130	0.057
-347.450	-200.000	0.014	0.246
-346.435	800.000	-0.050	-0.187
-345.420	-98.609	-0.142	-0.036
-344.406	800.000	-0.014	-0.049
-343.391	142.119	0.037	0.049
-342.377	-35.073	-0.275	-0.149
-341.362	-72.509	0.266	-0.097
-340.348	-200.000	0.050	0.311
-339.333	128.154	0.159	0.202
-338.318	386.606	0.028	0.057
-337.304	-200.000	0.073	0.515
-336.289	800.000	-0.048	-0.174
-335.275	-104.888	0.222	0.051
-334.260	800.000	0.018	0.060
-333.245	118.012	-0.226	-0.277
-332.231	-126.742	0.121	-0.018
-331.216	58.955	0.049	-0.048
-330.202	96.002	0.087	0.099
-329.187	-99.298	0.075	0.019
-328.172	-33.997	-0.544	0.297
-327.158	20.329	-0.215	0.173
-326.143	-142.224	-0.116	0.011
-325.129	-101.172	0.080	-0.019
-324.114	8.787	0.037	-0.028
-323.099	-106.605	0.349	-0.077
-322.085	-200.000	-0.006	-0.082
-321.070	4.619	-0.129	-0.094
-320.056	-75.330	-0.321	0.113
-319.041	12.352	0.099	-0.076
-318.026	800.000	-0.045	-0.154
-317.012	32.789	-0.127	0.109
-315.997	800.000	0.069	0.273
-314.983	-139.607	-0.412	-0.044
-313.968	27.175	0.312	-0.260
-312.953	198.142	0.186	-0.282
-311.939	-74.846	-0.172	-0.061
-310.924	358.517	-0.047	0.093
-309.910	-143.962	-0.317	0.030
-308.895	-200.000	0.053	0.300
-307.880	183.446	0.188	-0.276
-306.866	-19.928	-0.423	0.259
-305.851	105.615	-0.195	0.228
-304.837	800.000	-0.059	-0.191
-303.822	-153.064	-0.080	0.006
-302.807	-126.202	-0.496	0.074
-301.793	-100.405	-0.400	0.098
-300.778	-200.000	0.057	-0.359
-299.764	-200.000	-0.002	-0.127
-298.749	-200.000	0.040	0.381
-297.735	-200.000	-0.020	0.280
-296.720	49.668	0.072	-0.067
-295.705	-153.691	0.183	-0.013
-294.691	86.168	-0.081	-0.089
-293.676	151.486	-0.038	0.051
-292.662	-124.487	-0.381	-0.059
-291.647	-200.000	0.037	0.161
-290.632	229.450	0.060	-0.097
-289.618	-189.464	-0.428	-0.005
-288.603	-200.000	-0.045	0.242
-287.589	287.932	0.036	0.065
-286.574	-36.322	0.453	-0.242
-285.559	1.709	-0.305	0.218
-284.545	33.617	-0.171	-0.148
-283.530	-200.000	-0.049	-0.251
-282.516	-200.000	0.004	0.269
-281.501	320.327	0.135	0.254
-280.486	84.177	0.143	-0.155
-279.472	-109.431	0.054	0.011
-278.457	-22.901	0.304	-0.181
-277.443	-200.000	-0.026	0.207
-276.428	103.356	0.238	0.277
-275.413	254.810	-0.027	-0.045
-274.399	-27.748	-0.096	-0.055
-273.384	36.602	0.274	0.240
-272.370	-39.054	0.200	-0.104
-271.355	-112.238	0.301	0.060
-270.340	-137.253	-0.307	-0.035
-269.326	403.487	-0.160	0.334
-268.311	-46.308	-0.170	-0.083
-267.297	-200.000	-0.006	-0.222
-266.282	-200.000	0.017	-0.122
-265.267	-110.536	0.322	-0.066
-264.253	84.463	0.262	-0.283
-263.238	-200.000	0.011	0.236
-262.224	66.336	0.079	-0.080
-261.209	2.588	0.154	0.110
-260.195	216.306	0.120	-0.188
-259.180	323.077	0.039	0.073
-258.165	120.139	-0.260	-0.319
-257.151	-107.479	0.178	0.039
-256.136	-44.421	-0.149	-0.074
-255.122	-200.000	0.025	0.213
-254.107	33.628	-0.101	0.087
-253.092	800.000	-0.078	-0.291
-252.078	454.853	0.105	0.230
-251.063	-200.000	-0.003	-0.286
-250.049	-41.570	-0.251	-0.128
-249.034	-123.259	0.204	-0.032
-248.019	-21.127	0.246	-0.149
-247.005	800.000	-0.016	-0.051
-245.990	2.864	0.112	-0.081
-244.976	-110.180	0.062	0.013
-243.961	-67.412	0.077	0.030
-242.946	-200.000	-0.064	0.309
-241.932	-156.024	-0.229	-0.014
-240.917	352.423	0.140	0.274
-239.903	-77.099	0.288	0.099
-238.888	-200.000	0.041	0.199
-237.873	166.284	-0.017	0.023
-236.859	800.000	-0.113	-0.312
-235.844	-200.000	-0.022	-0.436
-234.830	-200.000	-0.002	-0.201
-233.815	15.605	-0.213	0.166
-232.800	-55.774	0.291	0.128
-231.786	-122.523	-0.186	0.030
-230.771	596.155	-0.060	-0.148
-229.757	-175.689	-0.250	-0.007
-228.742	-200.000	0.044	-0.622
-227.727	145.490	-0.074	0.099
-226.713	-43.981	-0.188	-0.094
-225.698	48.496	0.191	-0.177
-224.684	65.736	0.198	0.198
-223.669	-70.478	0.081	0.030
-222.655	-170.024	-0.119	-0.004
-221.640	168.731	0.079	0.111
-220.625	-120.623	-0.162	0.027
-219.611	-0.801	0.028	0.020
-218.596	-83.455	-0.241	0.076
-217.582	-4.929	0.341	0.232
-216.567	297.847	0.089	-0.163
-215.552	420.437	0.172	0.365
-214.538	17.946	-0.082	-0.065
-213.523	397.341	0.063	0.130
-212.509	-29.592	0.160	0.090
-211.494	102.760	0.141	0.163
-210.479	341.986	0.162	0.314
-209.465	231.476	-0.174	0.282
-208.450	-174.909	-0.239	0.007
-207.436	431.187	0.177	0.380
-206.421	-22.825	0.229	-0.137
-205.406	-142.383	0.145	0.014
-204.392	366.730	0.172	0.343
-203.377	140.801	-0.134	0.175
-202.363	800.000	-0.031	0.110
-201.348	-2.331	0.135	-0.093
-200.333	181.555	-0.090	-0.131
-199.319	-200.000	0.001	0.084
-198.304	99.128	0.039	-0.045
-197.290	-200.000	-0.032	0.327
-196.275	-200.000	-0.020	-0.127
-195.260	-200.000	0.254	-0.000
-194.246	-58.233	0.104	-0.045
-193.231	250.550	-0.196	0.329
-192.217	-120.750	0.204	-0.034
-191.202	-200.000	0.003	-0.145
-190.187	102.781	0.238	-0.275
-189.173	425.532	0.069	-0.146
-188.158	156.752	0.112	-0.153
-187.144	-181.967	-0.136	0.003
-186.129	-200.000	0.090	0.402
-185.114	-25.727	-0.086	-0.050
-184.100	358.116	-0.184	-0.362
-183.085	-36.347	0.284	-0.151
-182.071	-5.877	0.082	-0.056
-181.056	-78.889	-0.221	0.074
-180.042	385.426	-0.151	0.306
-179.027	-41.754	0.079	-0.040
-178.012	69.571	0.190	-0.193
-176.998	-146.115	-0.465	-0.040
-175.983	587.083	-0.044	-0.108
-174.969	-74.190	-0.214	-0.077
-173.954	-137.654	0.198	-0.022
-172.939	289.177	-0.066	-0.119
-171.925	138.713	-0.087	0.112
-170.910	100.328	0.269	0.308
-169.896	-200.000	-0.071	-0.319
-168.881	-139.933	0.137	0.014
-167.866	-4.363	0.317	0.216
-166.852	553.894	-0.071	0.168
-165.837	-109.146	0.235	0.049
-164.823	-200.000	0.018	-0.257
-163.808	800.000	-0.072	0.224
-162.793	558.414	0.077	0.183
-161.779	800.000	0.062	0.208
-160.764	3.090	-0.145	0.104
-159.750	-57.600	0.278	-0.120
-158.735	215.133	-0.124	0.193
-157.720	312.691	-0.169	0.312
-156.706	80.635	-0.169	0.180
-155.691	-35.852	0.352	-0.188
-154.677	525.986	0.119	0.276
-153.662	-125.457	0.084	0.013
-152.647	2.785	-0.058	0.041
-151.633	800.000	0.032	0.103
-150.618	-47.182	0.208	0.100
-149.604	-200.000	0.007	-0.039
-148.589	800.000	0.069	-0.294
-147.574	180.355	-0.109	0.158
-146.560	103.802	0.099	-0.114
-145.545	-200.000	-0.052	0.238
-144.531	64.297	-0.025	0.025
-143.516	132.195	0.125	0.158
-142.502	174.917	-0.166	0.236
-141.487	-162.237	-0.122	-0.006
-140.472	-200.000	-0.026	-0.387
-139.458	-200.000	-0.015	-0.305
-138.443	-89.772	-0.233	0.067
-137.429	-131.197	-0.105	-0.014
-136.414	-78.344	0.166	0.056
-135.399	764.803	-0.076	0.203
-134.385	800.000	-0.072	0.297
-133.370	-18.754	-0.301	0.185
-132.356	-36.255	0.269	-0.143
-131.341	-200.000	0.014	0.143
-130.326	-85.317	0.305	-0.094
-129.312	47.822	0.099	0.091
-128.297	800.000	-0.033	-0.100
-127.283	316.809	-0.101	0.188
-126.268	-80.543	-0.225	-0.074
-125.253	113.599	0.146	0.174
-124.239	-200.000	-0.005	0.198
-123.224	625.104	0.076	-0.188
-122.210	-41.676	-0.265	0.134
