DTS Sentinel unit serial number:	SN413079Multiplexer serial number:	ORYXHardware model number:	OX4-SRSoftware version number:	ORYX F/W v4.00 Oryx Data Collector v3.7.2.0data status	okinstallation	princeton_trtdifferential loss correction	single-endedforward channel	channel 1reverse channel	N/Adate	2019/09/17time	16:14:35forward acquisition time	60.00reverse acquisition time	0.00gamma	496.2192k internal	0.2292k external	0.2292temperature offset calibration	0.9952default loss term (dB/km)	0.3790temperature slope calibration	1.0000multiplexer offset coefficient	1.0000multiplexer slope coefficient	1.0000fibre end	0.00T internal ref (°C)	40.77T ext. ref 1 (°C)	0.36T ext. ref 2 (°C)	38.51length (m)	temperature (°C)	Stokes	anti-Stokes-747.200	95.278	0.119	0.139
-746.185	-200.000	0.022	0.221
-745.171	90.487	-0.100	0.115
-744.156	22.618	0.111	0.093
-743.142	-200.000	-0.041	0.361
-742.127	800.000	0.082	0.234
-741.112	-58.383	0.376	-0.167
-740.098	-200.000	-0.014	0.495
-739.083	4.380	0.098	0.073
-738.069	410.054	-0.095	0.207
-737.054	-200.000	0.056	0.414
-736.039	48.699	-0.180	0.173
-735.025	800.000	0.118	-0.356
-734.010	430.126	0.061	0.134
-732.996	137.443	-0.133	0.178
-731.981	800.000	0.039	0.145
-730.966	48.209	0.256	-0.245
-729.952	-124.577	-0.106	-0.017
-728.937	800.000	0.049	0.175
-727.923	-200.000	0.054	0.275
-726.908	-200.000	0.052	0.234
-725.894	-94.956	0.146	0.040
-724.879	-104.055	0.329	-0.078
-723.864	-200.000	0.018	-0.509
-722.850	-200.000	-0.003	0.152
-721.835	184.704	0.191	-0.289
-720.821	-51.088	-0.151	0.073
-719.806	-105.344	-0.246	0.057
-718.791	29.834	0.160	-0.139
-717.777	509.250	-0.120	0.286
-716.762	733.428	-0.058	-0.159
-715.748	-37.827	-0.024	0.013
-714.733	-107.323	-0.345	-0.078
-713.718	-70.126	-0.407	-0.158
-712.704	234.908	-0.183	0.308
-711.689	161.314	0.225	-0.322
-710.675	156.581	-0.018	-0.025
-709.660	323.980	0.148	-0.288
-708.645	155.192	0.089	0.125
-707.631	20.486	0.228	-0.188
-706.616	800.000	-0.093	-0.382
-705.602	-200.000	-0.008	0.451
-704.587	800.000	0.098	0.372
-703.572	1.490	0.142	0.105
-702.558	-22.697	-0.162	-0.100
-701.543	-200.000	0.055	0.288
-700.529	800.000	0.031	0.093
-699.514	372.768	-0.134	0.279
-698.499	189.078	-0.196	0.300
-697.485	-118.145	0.248	0.045
-696.470	-200.000	0.016	-0.143
-695.456	-49.506	-0.222	-0.108
-694.441	-126.417	0.080	0.012
-693.426	56.706	-0.164	0.163
-692.412	221.821	0.031	0.050
-691.397	-200.000	-0.015	0.101
-690.383	-28.612	0.039	0.023
-689.368	-200.000	-0.011	0.272
-688.354	30.752	0.100	-0.088
-687.339	-164.635	0.053	0.002
-686.324	-162.084	0.145	-0.007
-685.310	-102.585	-0.250	0.061
-684.295	-200.000	0.073	-0.432
-683.281	-200.000	-0.006	0.263
-682.266	-200.000	0.079	-0.368
-681.251	-30.225	0.278	-0.161
-680.237	-200.000	0.025	-0.138
-679.222	-75.955	-0.186	-0.067
-678.208	800.000	-0.060	0.173
-677.193	-200.000	-0.049	0.349
-676.178	265.011	0.089	0.159
-675.164	153.736	-0.230	-0.321
-674.149	-144.939	0.339	0.032
-673.135	-70.893	-0.118	0.045
-672.120	314.954	0.115	0.221
-671.105	-121.231	0.098	-0.017
-670.091	106.379	0.212	-0.257
-669.076	-200.000	0.020	0.251
-668.062	259.126	-0.122	0.214
-667.047	-200.000	-0.049	0.344
-666.032	-74.961	0.304	-0.111
-665.018	-108.129	-0.192	-0.042
-664.003	137.467	-0.144	0.192
-662.989	-163.959	0.102	-0.005
-661.974	-29.609	0.099	0.058
-660.959	-7.484	0.483	0.334
-659.945	-129.675	-0.079	-0.011
-658.930	4.321	-0.464	0.347
-657.916	-39.121	0.085	0.046
-656.901	-20.852	0.109	0.068
-655.886	-87.246	0.137	0.043
-654.872	83.573	-0.119	-0.133
-653.857	800.000	0.060	0.256
-652.843	-56.948	-0.154	-0.070
-651.828	63.236	0.339	0.346
-650.814	-148.152	-0.045	-0.004
-649.799	800.000	0.075	-0.308
-648.784	-134.958	0.091	0.011
-647.770	-200.000	-0.024	-0.169
-646.755	-93.336	-0.180	0.051
-645.741	96.791	-0.086	-0.101
-644.726	800.000	-0.075	0.211
-643.711	122.530	-0.264	0.337
-642.697	-200.000	-0.033	0.000
-641.682	-110.519	-0.054	-0.011
-640.668	377.688	-0.119	0.248
-639.653	-43.136	-0.283	-0.146
-638.638	-200.000	0.033	-0.397
-637.624	-200.000	0.020	0.094
-636.609	362.960	-0.048	0.099
-635.595	323.751	0.030	0.057
-634.580	-40.751	-0.221	0.117
-633.565	183.415	-0.035	-0.053
-632.551	-200.000	0.016	0.103
-631.536	-6.349	0.119	0.083
-630.522	162.567	-0.162	-0.232
-629.507	148.135	-0.292	-0.401
-628.492	-36.846	-0.148	0.081
-627.478	219.418	0.182	-0.297
-626.463	-200.000	-0.053	-0.280
-625.449	90.143	-0.145	0.165
-624.434	-200.000	0.020	-0.116
-623.419	-22.994	-0.065	0.040
-622.405	115.739	0.082	-0.102
-621.390	800.000	0.058	0.178
-620.376	-200.000	-0.024	0.175
-619.361	13.232	-0.268	-0.212
-618.346	183.495	-0.136	0.204
-617.332	233.927	0.174	0.292
-616.317	-108.911	0.385	0.084
-615.303	40.492	-0.169	0.155
-614.288	64.483	-0.157	-0.162
-613.273	-158.609	0.207	0.012
-612.259	-200.000	0.028	0.158
-611.244	-35.470	-0.041	0.023
-610.230	9.939	0.214	-0.165
-609.215	32.170	-0.186	0.163
-608.201	606.872	0.122	0.309
-607.186	171.042	-0.070	-0.103
-606.171	-200.000	0.055	-0.380
-605.157	-200.000	-0.047	-0.281
-604.142	48.224	-0.200	0.191
-603.128	3.035	0.125	0.092
-602.113	-200.000	0.037	-0.195
-601.098	-171.524	-0.352	-0.012
-600.084	800.000	-0.046	0.177
-599.069	8.976	-0.409	0.315
-598.055	61.243	-0.185	-0.187
-597.040	-200.000	-0.010	-0.223
-596.025	-153.757	-0.063	-0.004
-595.011	-17.965	-0.137	-0.088
-593.996	800.000	-0.031	-0.132
-592.982	-9.531	-0.111	-0.075
-591.967	-124.957	-0.259	0.041
-590.952	-134.654	0.218	-0.027
-589.938	270.594	0.116	-0.207
-588.923	73.296	-0.159	-0.169
-587.909	-200.000	-0.045	0.282
-586.894	-63.525	-0.122	-0.051
-585.879	781.826	-0.101	-0.281
-584.865	-152.720	-0.285	0.021
-583.850	-136.069	-0.044	-0.005
-582.836	283.284	-0.161	0.294
-581.821	215.676	-0.139	-0.225
-580.806	-54.889	-0.261	-0.120
-579.792	-35.440	-0.226	0.125
-578.777	-148.402	-0.393	0.033
-577.763	800.000	-0.072	-0.228
-576.748	-25.754	-0.319	0.192
-575.733	-200.000	-0.058	-0.273
-574.719	181.090	-0.150	-0.223
-573.704	-200.000	0.000	0.329
-572.690	244.016	0.105	0.179
-571.675	-22.955	-0.157	-0.096
-570.661	40.029	-0.293	0.267
-569.646	-79.650	0.135	-0.046
-568.631	1.905	0.319	-0.234
-567.617	-114.801	0.219	0.043
-566.602	-109.324	-0.150	0.032
-565.588	130.075	0.187	0.243
-564.573	85.949	-0.119	-0.133
-563.558	-200.000	0.036	-0.194
-562.544	-121.510	-0.077	-0.013
-561.529	286.366	0.201	0.368
-560.515	-90.441	0.151	0.045
-559.500	-71.351	-0.413	0.157
-558.485	-52.479	0.286	-0.134
-557.471	-13.735	0.202	-0.133
-556.456	143.654	0.176	0.238
-555.442	-25.926	0.240	-0.143
-554.427	-152.226	0.275	-0.020
-553.412	800.000	0.027	-0.103
-552.398	36.053	-0.134	-0.120
-551.383	17.350	-0.073	0.059
-550.369	-89.391	-0.236	0.071
-549.354	780.997	0.107	-0.297
-548.339	-109.219	0.391	-0.084
-547.325	800.000	0.069	0.259
-546.310	182.698	-0.144	0.215
-545.296	-99.320	-0.399	0.102
-544.281	-93.918	-0.547	-0.153
-543.266	63.041	0.199	-0.203
-542.252	-24.290	-0.283	-0.172
-541.237	377.019	0.105	-0.217
-540.223	-124.545	0.386	0.061
-539.208	217.827	-0.054	0.087
-538.193	-178.414	0.284	-0.007
-537.179	83.006	-0.092	-0.102
-536.164	-100.709	0.263	0.066
-535.150	6.996	0.329	-0.249
-534.135	-200.000	0.009	0.056
-533.121	-98.891	0.418	0.108
-532.106	40.753	0.007	0.007
-531.091	37.006	0.092	-0.082
-530.077	89.382	0.228	-0.258
-529.062	-57.083	0.117	0.052
-528.048	36.930	-0.199	0.179
-527.033	36.449	0.233	-0.209
-526.018	288.846	0.206	-0.378
-525.004	-136.724	0.193	0.023
-523.989	-9.055	-0.260	0.177
-522.975	-45.541	-0.241	0.121
-521.960	80.698	-0.238	0.261
-520.945	-36.937	0.337	0.184
-519.931	-135.078	-0.348	-0.042
-518.916	124.712	0.039	0.049
-517.902	-30.687	0.216	0.124
-516.887	65.017	-0.274	0.281
-515.872	-148.050	0.435	0.037
-514.858	15.463	0.228	-0.182
-513.843	-200.000	-0.038	-0.300
-512.829	277.972	0.185	0.335
-511.814	267.447	0.214	-0.379
-510.799	-119.958	0.281	-0.049
-509.785	800.000	0.050	-0.218
-508.770	-200.000	-0.008	-0.071
-507.756	355.914	0.110	-0.223
-506.741	-200.000	0.029	-0.276
-505.726	800.000	-0.074	0.277
-504.712	-200.000	0.008	-0.089
-503.697	-91.735	0.183	0.053
-502.683	12.160	-0.068	-0.053
-501.668	-200.000	0.019	-0.307
-500.653	33.001	-0.130	-0.114
-499.639	-200.000	0.041	-0.302
-498.624	-87.054	0.030	-0.009
-497.610	800.000	-0.117	-0.383
-496.595	800.000	0.118	-0.392
-495.581	30.469	0.207	-0.179
-494.566	800.000	0.022	-0.092
-493.551	769.908	0.021	-0.059
-492.537	-69.044	0.332	0.130
-491.522	800.000	-0.058	-0.248
-490.508	-34.567	-0.109	0.060
-489.493	800.000	-0.042	0.117
-488.478	111.220	0.152	0.185
-487.464	-128.645	-0.200	0.029
-486.449	-88.739	0.135	-0.041
-485.435	-200.000	-0.012	0.060
-484.420	217.217	-0.176	0.284
-483.405	-118.265	0.356	-0.064
-482.391	-200.000	-0.021	-0.093
-481.376	11.607	-0.070	-0.054
-480.362	-80.493	-0.174	0.059
-479.347	-23.253	0.242	-0.148
-478.332	3.228	0.085	0.063
-477.318	683.559	0.100	0.263
-476.303	87.600	-0.087	-0.097
-475.289	-52.678	-0.191	0.089
-474.274	-200.000	-0.024	0.211
-473.259	-68.977	0.463	-0.181
-472.245	-45.359	0.193	0.097
-471.230	150.998	-0.142	-0.196
-470.216	-84.942	-0.216	-0.069
-469.201	60.638	0.255	0.256
-468.186	-117.281	-0.182	-0.033
-467.172	-33.799	-0.141	0.079
-466.157	-132.562	-0.298	-0.039
-465.143	-65.983	0.138	0.056
-464.128	9.612	-0.204	-0.157
-463.113	-200.000	-0.062	0.368
-462.099	318.699	0.142	-0.273
-461.084	800.000	-0.086	-0.248
-460.070	-148.127	-0.283	-0.024
-459.055	-74.619	0.105	-0.038
-458.040	133.472	0.111	-0.145
-457.026	172.021	0.112	0.163
-456.011	-179.730	-0.533	-0.012
-454.997	336.184	-0.067	-0.132
-453.982	-166.820	0.198	0.008
-452.968	151.401	0.151	-0.207
-451.953	220.209	0.089	0.144
-450.938	-84.696	0.065	0.021
-449.924	6.437	0.123	0.092
-448.909	-138.818	0.109	-0.012
-447.895	800.000	0.083	0.334
-446.880	-200.000	0.024	0.299
-445.865	800.000	0.058	0.167
-444.851	-77.596	-0.102	0.036
-443.836	74.979	-0.239	-0.255
-442.822	184.049	-0.160	0.240
-441.807	-114.069	0.123	0.024
-440.792	-6.463	0.174	-0.120
-439.778	800.000	0.082	-0.238
-438.763	119.745	0.216	-0.270
-437.749	22.338	0.229	-0.189
-436.734	-6.992	-0.074	-0.051
-435.719	-200.000	0.071	-0.348
-434.705	35.030	-0.007	0.006
-433.690	23.403	0.166	0.138
-432.676	139.825	-0.251	-0.335
-431.661	-152.185	0.254	0.019
-430.646	220.087	-0.030	0.048
-429.632	3.921	-0.269	-0.199
-428.617	-200.000	0.011	-0.138
-427.603	702.238	0.110	0.293
-426.588	29.552	0.147	0.127
-425.573	210.092	0.157	0.250
-424.559	-69.895	0.043	-0.017
-423.544	-9.408	-0.332	0.224
-422.530	-200.000	0.037	-0.165
-421.515	6.733	-0.126	-0.095
-420.500	800.000	0.058	0.201
-419.486	-134.200	-0.233	0.029
-418.471	-136.277	0.105	-0.012
-417.457	-91.599	-0.200	-0.058
-416.442	107.497	-0.167	-0.201
-415.428	367.703	0.063	0.128
-414.413	-200.000	-0.010	-0.088
-413.398	-141.502	0.210	0.021
-412.384	-200.000	0.093	0.455
-411.369	0.612	-0.226	0.164
-410.355	-57.854	0.134	0.059
-409.340	-135.403	-0.136	0.016
-408.325	88.641	0.098	-0.110
-407.311	-117.877	-0.227	-0.041
-406.296	-114.193	0.159	-0.031
-405.282	169.681	0.200	0.289
-404.267	-8.746	0.089	0.061
-403.252	800.000	0.048	0.208
-402.238	91.727	-0.247	-0.280
-401.223	-200.000	-0.007	-0.128
-400.209	-105.135	0.223	-0.052
-399.194	-200.000	0.042	0.262
-398.179	800.000	-0.028	-0.088
-397.165	-181.928	-0.182	-0.003
-396.150	608.087	-0.044	-0.112
-395.136	-50.568	0.116	0.055
-394.121	-200.000	0.039	-0.263
-393.106	-200.000	0.009	-0.162
-392.092	-14.972	-0.258	-0.167
-391.077	-200.000	0.005	0.040
-390.063	-31.754	-0.138	-0.078
-389.048	-147.658	-0.214	-0.018
-388.033	-146.569	-0.125	-0.011
-387.019	205.552	-0.113	0.177
-386.004	-28.445	0.163	-0.095
-384.990	40.155	-0.263	-0.239
-383.975	99.784	0.332	-0.388
-382.960	-87.358	0.261	-0.080
-381.946	-200.000	-0.009	0.261
-380.931	800.000	0.101	-0.286
-379.917	-14.026	0.325	0.212
-378.902	-200.000	0.018	0.254
-377.888	260.399	0.107	0.187
-376.873	265.333	0.125	-0.220
-375.858	-200.000	-0.020	0.087
-374.844	-200.000	0.010	-0.111
-373.829	206.139	-0.119	0.187
-372.815	-132.040	-0.019	0.002
-371.800	190.735	0.047	-0.072
-370.785	157.122	-0.188	-0.262
-369.771	-51.320	-0.066	-0.031
-368.756	175.214	0.088	-0.128
-367.742	-88.933	0.167	-0.050
-366.727	39.488	-0.239	-0.216
-365.712	-200.000	0.017	0.344
-364.698	302.113	0.083	0.155
-363.683	-200.000	0.043	0.336
-362.669	-200.000	0.003	-0.147
-361.654	-200.000	0.012	-0.274
-360.639	-198.569	-0.299	0.002
-359.625	480.160	0.039	0.089
-358.610	-200.000	0.071	0.326
-357.596	-174.932	-0.304	0.009
-356.581	44.164	0.037	-0.035
-355.566	192.047	0.083	-0.125
-354.552	372.842	-0.125	-0.257
-353.537	141.604	0.074	-0.099
-352.523	93.823	0.151	0.172
-351.508	12.565	0.189	0.147
-350.493	800.000	0.049	0.148
-349.479	-200.000	0.023	0.133
-348.464	800.000	0.086	-0.250
-347.450	780.907	0.068	-0.187
-346.435	-96.372	-0.197	0.052
-345.420	765.158	0.058	0.160
-344.406	-113.366	-0.220	0.044
-343.391	-62.552	-0.064	0.027
-342.377	452.352	0.111	-0.247
-341.362	56.806	-0.114	0.112
-340.348	148.499	0.117	0.160
-339.333	-26.197	0.046	0.027
-338.318	7.215	0.065	-0.049
-337.304	29.655	-0.177	-0.152
-336.289	-200.000	-0.004	0.121
-335.275	-121.436	-0.299	-0.050
-334.260	-43.210	0.513	-0.262
-333.245	94.866	0.135	-0.155
-332.231	461.787	0.281	0.632
-331.216	-88.783	0.216	0.065
-330.202	-15.447	-0.189	-0.121
-329.187	-200.000	-0.040	0.358
-328.172	-2.436	0.083	0.058
-327.158	4.370	0.310	0.229
-326.143	204.767	-0.086	-0.135
-325.129	800.000	0.068	-0.294
-324.114	62.933	-0.056	-0.057
-323.099	46.043	-0.068	0.064
-322.085	-135.628	-0.302	0.036
-321.070	29.651	0.033	0.028
-320.056	-200.000	0.050	-0.247
-319.041	162.786	0.082	-0.115
-318.026	800.000	0.125	-0.351
-317.012	44.689	0.039	-0.037
-315.997	186.523	-0.027	-0.040
-314.983	-26.396	0.124	-0.073
-313.968	53.392	0.102	-0.098
-312.953	203.850	-0.188	0.294
-311.939	-62.856	-0.094	0.039
-310.924	-18.322	0.332	0.209
-309.910	-200.000	0.028	0.257
-308.895	-111.333	0.155	0.032
-307.880	800.000	-0.073	0.283
-306.866	-200.000	-0.028	-0.256
-305.851	-200.000	-0.028	0.317
-304.837	-72.992	0.068	0.025
-303.822	-178.943	0.186	0.004
-302.807	-200.000	0.000	0.372
-301.793	55.723	0.250	0.243
-300.778	304.340	-0.146	-0.273
-299.764	117.283	-0.066	-0.081
-298.749	23.488	-0.356	0.295
-297.735	-200.000	-0.035	-0.300
-296.720	-50.774	0.131	0.062
-295.705	800.000	0.054	-0.167
-294.691	-115.935	-0.219	0.041
-293.676	-165.363	-0.133	0.006
-292.662	-81.091	0.107	0.036
-291.647	-3.577	-0.084	0.059
-290.632	784.748	-0.061	0.169
-289.618	-179.751	-0.195	-0.004
-288.603	53.828	0.188	0.182
-287.589	800.000	-0.131	0.375
-286.574	-200.000	0.008	0.184
-285.559	41.118	0.420	-0.381
-284.545	-30.259	-0.194	0.111
-283.530	-0.029	0.268	-0.192
-282.516	-200.000	-0.023	0.285
-281.501	81.315	-0.105	-0.114
-280.486	-200.000	-0.027	-0.232
-279.472	-45.595	-0.171	0.085
-278.457	74.072	-0.099	0.105
-277.443	-200.000	-0.012	-0.408
-276.428	12.544	-0.261	0.203
-275.413	238.216	-0.112	0.187
-274.399	96.228	-0.117	-0.135
-273.384	679.908	0.084	-0.220
-272.370	-51.363	-0.188	-0.088
-271.355	-94.882	-0.288	0.078
-270.340	-1.062	-0.123	-0.087
-269.326	-12.129	0.456	-0.300
-268.311	133.630	-0.138	0.179
-267.297	206.218	-0.156	-0.243
-266.282	56.284	0.086	-0.083
-265.267	271.452	0.085	-0.150
-264.253	-17.814	0.412	-0.260
-263.238	101.182	-0.237	0.277
-262.224	-200.000	-0.024	-0.164
-261.209	-96.708	-0.120	0.032
-260.195	-109.836	-0.219	0.046
-259.180	-4.718	0.159	0.110
-258.165	329.964	-0.050	0.096
-257.151	258.516	0.093	0.161
-256.136	800.000	0.043	-0.173
-255.122	182.162	-0.156	-0.230
-254.107	-43.240	0.355	0.181
-253.092	-40.813	-0.084	0.044
-252.078	-200.000	0.025	-0.131
-251.063	800.000	-0.041	0.172
-250.049	-7.252	-0.259	-0.176
-249.034	110.114	-0.147	0.177
-248.019	376.092	-0.079	-0.162
-247.005	-36.627	-0.441	-0.238
-245.990	88.692	0.073	0.081
-244.976	-52.708	0.140	-0.065
-243.961	-200.000	-0.004	-0.142
-242.946	-200.000	-0.030	0.444
-241.932	-9.040	-0.286	0.192
-240.917	-127.334	-0.215	-0.031
-239.903	-139.761	0.343	-0.037
-238.888	352.071	0.097	0.194
-237.873	124.068	-0.091	0.115
-236.859	-200.000	-0.020	-0.112
-235.844	7.448	0.236	-0.177
-234.830	-20.252	-0.087	0.054
-233.815	-154.499	0.300	0.020
-232.800	-66.935	0.346	0.137
-231.786	-200.000	0.042	0.212
-230.771	190.263	-0.039	-0.058
-229.757	-112.588	-0.133	-0.027
-228.742	47.034	-0.076	0.071
-227.727	-200.000	0.032	0.174
-226.713	238.933	0.160	-0.267
-225.698	-200.000	0.013	-0.140
-224.684	-8.522	-0.119	0.080
-223.669	23.964	0.075	0.062
-222.655	120.816	-0.299	0.373
-221.640	-200.000	0.007	0.055
-220.625	13.816	0.129	-0.101
-219.611	64.864	0.183	-0.186
-218.596	-140.436	-0.131	-0.014
-217.582	31.543	-0.295	-0.254
-216.567	-22.225	-0.208	-0.127
-215.552	-175.811	-0.220	0.006
-214.538	-12.966	0.245	-0.160
-213.523	-20.083	0.186	0.115
-212.509	-45.305	-0.049	0.024
-211.494	800.000	-0.049	0.149
-210.479	134.957	0.244	0.318
-209.465	309.234	-0.040	0.076
-208.450	226.818	-0.095	-0.154
-207.436	800.000	0.060	-0.244
-206.421	34.293	0.323	-0.282
-205.406	-145.128	-0.195	0.018
-204.392	486.042	-0.242	0.553
-203.377	41.068	0.148	-0.134
-202.363	-200.000	0.005	-0.422
-201.348	-51.203	0.159	-0.075
-200.333	-113.792	0.314	-0.061
-199.319	-95.861	-0.312	-0.083
-198.304	-14.333	0.307	-0.198
-197.290	-160.727	-0.131	0.007
-196.275	238.327	0.264	0.439
-195.260	-200.000	0.003	0.151
-194.246	-48.157	0.199	-0.096
-193.231	-153.959	0.313	-0.021
-192.217	-108.711	-0.270	0.058
-191.202	-200.000	-0.006	0.076
-190.187	397.329	-0.053	-0.111
-189.173	-104.829	-0.200	0.046
-188.158	800.000	0.064	0.205
-187.144	-59.271	0.272	-0.117
-186.129	51.878	0.115	0.109
-185.114	-101.363	-0.068	-0.017
-184.100	-104.934	0.464	0.107
-183.085	313.788	-0.088	0.165
-182.071	-58.964	-0.193	0.084
-181.056	-133.938	-0.177	0.022
-180.042	432.071	-0.084	0.182
-179.027	543.167	-0.132	0.316
-178.012	423.409	-0.142	-0.306
-176.998	88.660	0.251	-0.279
-175.983	-60.163	-0.024	-0.010
-174.969	-41.733	-0.204	-0.105
-173.954	258.730	0.180	0.311
-172.939	49.398	0.245	0.231
-171.925	-103.885	0.208	0.049
-170.910	-51.520	0.029	-0.013
-169.896	-200.000	0.009	-0.046
-168.881	102.982	0.193	0.226
-167.866	-26.082	0.235	-0.138
-166.852	71.284	0.205	0.213
-165.837	-45.550	0.211	0.105
-164.823	163.118	0.099	0.139
-163.808	800.000	-0.006	-0.022
-162.793	-200.000	0.064	0.377
-161.779	-2.304	-0.244	0.171
-160.764	252.776	0.043	0.074
-159.750	-41.899	-0.483	0.248
-158.735	163.568	0.069	0.097
-157.720	-200.000	-0.018	-0.097
-156.706	156.238	-0.111	-0.153
-155.691	-49.714	-0.191	-0.091
-154.677	800.000	0.054	0.156
-153.662	-200.000	0.019	0.363
-152.647	60.499	-0.254	0.252
-151.633	366.404	-0.073	0.146
-150.618	800.000	0.071	-0.242
-149.604	300.166	0.069	0.127
-148.589	4.402	0.131	-0.096
-147.574	-200.000	0.003	0.313
-146.560	-120.710	0.127	-0.021
-145.545	-68.545	0.257	0.100
-144.531	-200.000	-0.044	0.340
-143.516	73.052	0.271	-0.283
-142.502	-27.416	-0.160	-0.093
-141.487	-200.000	-0.024	0.117
-140.472	211.150	0.158	-0.248
-139.458	-83.766	-0.167	-0.053
-138.443	800.000	0.110	-0.464
-137.429	-200.000	-0.054	0.252
-136.414	-200.000	0.019	-0.432
-135.399	176.827	-0.115	-0.167
-134.385	-10.812	0.150	-0.099
-133.370	506.289	0.104	0.240
-132.356	-200.000	-0.008	-0.160
-131.341	-200.000	0.142	-0.001
-130.326	-172.494	0.141	-0.004
-129.312	107.476	-0.192	-0.229
-128.297	147.089	-0.094	-0.126
-127.283	800.000	-0.029	-0.115
-126.268	-22.900	-0.176	-0.106
-125.253	-77.995	-0.243	-0.084
-124.239	273.535	0.203	0.358
-123.224	-89.135	-0.269	0.079
-122.210	-75.514	-0.034	-0.012
-121.195	800.000	0.063	0.226
-120.180	800.000	-0.023	0.072
