DTS Sentinel unit serial number:	SN413079Multiplexer serial number:	ORYXHardware model number:	OX4-SRSoftware version number:	ORYX F/W v4.00 Oryx Data Collector v3.7.2.0data status	okinstallation	princeton_trtdifferential loss correction	single-endedforward channel	channel 1reverse channel	N/Adate	2019/09/14time	10:06:35forward acquisition time	60.00reverse acquisition time	0.00gamma	496.2192k internal	0.2313k external	0.2313temperature offset calibration	1.0065default loss term (dB/km)	0.3790temperature slope calibration	1.0000multiplexer offset coefficient	1.0000multiplexer slope coefficient	1.0000fibre end	0.00T internal ref (°C)	33.45T ext. ref 1 (°C)	4.04T ext. ref 2 (°C)	32.27length (m)	temperature (°C)	Stokes	anti-Stokes-747.200	800.000	-0.051	0.212
-746.185	-200.000	0.064	0.313
-745.171	-200.000	0.007	-0.065
-744.156	282.779	0.073	-0.132
-743.142	800.000	-0.115	-0.329
-742.127	48.651	0.097	0.093
-741.112	35.695	0.358	-0.319
-740.098	-200.000	0.086	0.450
-739.083	-200.000	-0.069	-0.313
-738.069	-200.000	0.004	0.269
-737.054	144.668	-0.091	-0.123
-736.039	-168.987	0.216	0.008
-735.025	-126.183	0.298	0.045
-734.010	-124.155	0.090	-0.014
-732.996	-200.000	0.041	-0.229
-731.981	-200.000	0.021	-0.336
-730.966	132.591	0.142	0.185
-729.952	-0.216	-0.104	-0.075
-728.937	98.207	0.124	-0.145
-727.923	800.000	-0.034	-0.147
-726.908	-96.033	0.154	0.042
-725.894	144.034	-0.176	0.238
-724.879	-200.000	0.053	-0.332
-723.864	-34.712	0.206	-0.114
-722.850	44.367	-0.194	-0.181
-721.835	-60.395	-0.104	-0.045
-720.821	-109.290	-0.436	0.094
-719.806	-32.857	-0.130	-0.073
-718.791	174.410	0.120	-0.176
-717.777	-129.214	-0.374	0.053
-716.762	-200.000	0.065	-0.443
-715.748	155.862	0.053	-0.073
-714.733	56.526	-0.143	-0.141
-713.718	411.999	-0.129	-0.278
-712.704	-80.434	-0.354	-0.120
-711.689	418.475	-0.090	0.194
-710.675	38.319	0.170	0.153
-709.660	136.673	-0.158	-0.209
-708.645	7.894	-0.142	0.108
-707.631	-0.417	0.212	-0.152
-706.616	-200.000	-0.014	0.176
-705.602	11.021	0.150	0.116
-704.587	800.000	-0.012	-0.048
-703.572	800.000	-0.070	0.233
-702.558	101.091	-0.144	0.170
-701.543	-200.000	-0.010	0.367
-700.529	28.355	0.201	-0.172
-699.514	-45.396	0.132	0.067
-698.499	-200.000	0.027	0.254
-697.485	800.000	0.042	-0.144
-696.470	69.838	0.152	-0.159
-695.456	-200.000	-0.044	-0.310
-694.441	26.585	0.084	-0.072
-693.426	102.478	-0.129	0.153
-692.412	195.666	0.079	-0.121
-691.397	-43.293	0.341	-0.175
-690.383	178.808	-0.425	-0.629
-689.368	625.095	-0.132	0.336
-688.354	800.000	-0.064	-0.257
-687.339	-165.205	0.372	0.017
-686.324	-43.572	0.163	0.083
-685.310	202.924	0.106	-0.165
-684.295	-135.768	0.515	0.062
-683.281	-200.000	0.002	-0.188
-682.266	-200.000	-0.035	-0.376
-681.251	150.213	0.180	-0.247
-680.237	-119.879	-0.038	0.007
-679.222	3.494	-0.146	-0.108
-678.208	800.000	-0.056	0.215
-677.193	-90.332	0.036	-0.011
-676.178	-200.000	0.037	-0.260
-675.164	-200.000	0.034	-0.343
-674.149	800.000	0.014	-0.046
-673.135	310.586	-0.046	-0.088
-672.120	800.000	0.048	0.150
-671.105	800.000	0.040	-0.155
-670.091	299.754	0.122	-0.227
-669.076	800.000	-0.060	0.216
-668.062	-50.074	-0.025	0.012
-667.047	-104.503	-0.180	0.042
-666.032	518.597	0.043	-0.102
-665.018	-200.000	-0.020	0.198
-664.003	-200.000	0.040	0.288
-662.989	-101.736	-0.105	0.026
-661.974	240.828	-0.079	-0.134
-660.959	-200.000	-0.038	-0.352
-659.945	-4.028	0.275	0.193
-658.930	-200.000	0.010	0.088
-657.916	-108.250	0.229	0.050
-656.901	-200.000	0.048	0.261
-655.886	88.613	-0.136	-0.152
-654.872	51.266	-0.017	-0.016
-653.857	-25.725	0.267	-0.159
-652.843	-158.918	0.237	-0.014
-651.828	-116.799	-0.268	0.050
-650.814	-40.528	0.069	0.036
-649.799	286.891	0.073	-0.133
-648.784	71.741	-0.191	0.200
-647.770	109.786	-0.149	0.180
-646.755	-99.254	-0.015	-0.004
-645.741	80.659	-0.140	-0.152
-644.726	-83.596	-0.171	-0.055
-643.711	-66.193	0.211	0.085
-642.697	-7.946	-0.250	-0.170
-641.682	-26.969	-0.160	-0.095
-640.668	-81.711	-0.219	-0.073
-639.653	-83.717	0.262	-0.085
-638.638	-200.000	-0.015	0.220
-637.624	70.506	-0.183	-0.192
-636.609	-125.805	0.243	-0.037
-635.595	223.306	0.079	-0.129
-634.580	-128.686	-0.158	0.023
-633.565	294.074	0.232	-0.428
-632.551	44.368	0.150	-0.139
-631.536	800.000	0.038	-0.163
-630.522	-95.218	-0.253	-0.069
-629.507	-123.167	0.205	0.033
-628.492	-75.735	0.196	0.070
-627.478	-101.515	0.303	-0.074
-626.463	285.414	-0.157	-0.286
-625.449	-37.826	-0.282	-0.152
-624.434	800.000	0.054	0.221
-623.419	410.471	-0.064	-0.138
-622.405	-128.543	0.154	0.022
-621.390	-42.455	0.417	0.214
-620.376	-142.326	-0.298	0.030
-619.361	694.989	0.029	-0.077
-618.346	-11.460	0.326	-0.216
-617.332	-106.289	-0.211	-0.048
-616.317	-60.563	-0.246	0.105
-615.303	345.858	0.078	0.155
-614.288	-200.000	-0.055	-0.289
-613.273	-200.000	0.008	0.280
-612.259	-78.871	0.331	0.114
-611.244	141.716	0.083	0.110
-610.230	748.303	-0.110	-0.299
-609.215	-35.160	-0.190	-0.104
-608.201	-134.213	0.195	0.024
-607.186	-156.507	-0.433	0.027
-606.171	613.219	0.123	-0.310
-605.157	-200.000	0.021	0.262
-604.142	200.534	-0.139	-0.215
-603.128	-38.011	0.173	0.093
-602.113	303.828	-0.122	0.228
-601.098	5.477	-0.112	-0.084
-600.084	201.308	0.130	-0.202
-599.069	30.174	-0.158	-0.136
-598.055	-6.870	0.056	0.039
-597.040	-9.912	0.294	0.197
-596.025	-118.884	0.230	-0.041
-595.011	52.037	-0.132	-0.127
-593.996	-88.495	0.159	0.048
-592.982	29.085	-0.153	0.131
-591.967	800.000	-0.061	-0.197
-590.952	100.646	-0.093	-0.108
-589.938	-200.000	0.119	-0.550
-588.923	28.481	-0.054	-0.046
-587.909	800.000	-0.022	-0.078
-586.894	-44.357	0.274	-0.138
-585.879	76.613	0.217	0.232
-584.865	-200.000	0.013	0.185
-583.850	109.801	-0.143	0.172
-582.836	-200.000	0.016	-0.112
-581.821	785.345	0.163	-0.449
-580.806	-70.097	-0.137	-0.053
-579.792	327.534	-0.037	0.072
-578.777	-156.642	-0.067	0.004
-577.763	-66.005	0.354	-0.142
-576.748	25.151	-0.055	0.046
-575.733	-164.363	-0.106	0.005
-574.719	-146.357	-0.460	-0.041
-573.704	800.000	0.050	-0.188
-572.690	-91.024	0.174	-0.050
-571.675	298.519	-0.135	0.250
-570.661	-43.580	-0.145	0.074
-569.646	79.176	-0.063	0.068
-568.631	-200.000	0.031	-0.259
-567.617	-200.000	-0.002	-0.144
-566.602	800.000	-0.055	-0.208
-565.588	800.000	-0.028	0.122
-564.573	800.000	0.016	-0.055
-563.558	-38.404	-0.042	0.022
-562.544	-1.468	0.118	-0.084
-561.529	-59.054	-0.226	0.098
-560.515	127.614	0.060	-0.077
-559.500	800.000	-0.109	0.392
-558.485	31.146	-0.135	0.117
-557.471	37.539	0.284	0.254
-556.456	224.080	-0.026	0.042
-555.442	25.835	0.119	-0.099
-554.427	203.202	0.060	0.093
-553.412	63.491	-0.153	-0.155
-552.398	-99.364	-0.153	-0.039
-551.383	104.854	0.169	0.201
-550.369	229.115	0.070	-0.115
-549.354	-200.000	0.026	-0.174
-548.339	-113.125	0.186	0.037
-547.325	165.666	-0.140	0.199
-546.310	220.675	0.021	0.034
-545.296	-40.189	-0.321	0.168
-544.281	104.339	0.218	0.258
-543.266	589.970	0.143	0.354
-542.252	-39.632	0.478	0.252
-541.237	119.068	-0.096	0.119
-540.223	332.590	0.041	0.080
-539.208	-77.005	0.470	0.165
-538.193	-82.056	-0.243	0.080
-537.179	9.522	-0.112	0.086
-536.164	-181.329	0.209	-0.004
-535.150	514.162	0.042	-0.098
-534.135	800.000	0.058	-0.210
-533.121	40.896	0.231	0.209
-532.106	-200.000	0.020	0.100
-531.091	-43.114	0.274	0.140
-530.077	-42.611	0.346	0.177
-529.062	203.519	-0.077	-0.120
-528.048	343.655	0.071	-0.140
-527.033	252.240	0.167	-0.287
-526.018	-12.725	0.218	0.143
-525.004	34.643	-0.253	0.222
-523.989	-200.000	-0.005	-0.025
-522.975	-61.206	-0.058	0.025
-521.960	-78.039	0.165	0.057
-520.945	-46.548	0.383	-0.189
-519.931	266.118	-0.158	-0.278
-518.916	350.616	-0.139	-0.276
-517.902	-132.189	0.253	0.033
-516.887	800.000	-0.028	0.087
-515.872	46.780	-0.205	-0.191
-514.858	113.182	0.023	0.028
-513.843	275.472	-0.195	-0.348
-512.829	791.049	0.069	-0.191
-511.814	-135.383	-0.486	0.058
-510.799	-69.555	-0.127	0.049
-509.785	800.000	-0.113	0.340
-508.770	569.532	0.009	0.023
-507.756	-117.976	0.123	0.022
-506.741	44.581	-0.135	-0.125
-505.726	-3.429	0.200	0.140
-504.712	-200.000	0.007	0.276
-503.697	800.000	-0.012	0.044
-502.683	-49.608	-0.059	0.028
-501.668	410.971	0.080	-0.171
-500.653	-53.574	-0.225	0.103
-499.639	164.418	0.161	-0.228
-498.624	-159.607	0.016	0.001
-497.610	800.000	-0.072	0.232
-496.595	139.053	-0.173	0.228
-495.581	156.038	-0.122	0.169
-494.566	-100.827	0.156	0.039
-493.551	-102.040	-0.296	0.072
-492.537	-200.000	0.026	-0.147
-491.522	-200.000	-0.024	-0.242
-490.508	227.069	-0.155	-0.253
-489.493	-109.887	0.080	-0.017
-488.478	-12.008	0.218	0.144
-487.464	9.173	-0.210	0.159
-486.449	800.000	0.047	-0.197
-485.435	-28.583	-0.344	-0.199
-484.420	56.332	-0.417	-0.407
-483.405	436.085	0.146	-0.319
-482.391	-32.975	0.224	0.125
-481.376	233.873	-0.067	-0.111
-480.362	25.918	-0.242	0.202
-479.347	-14.068	-0.261	-0.169
-478.332	-141.637	-0.232	-0.023
-477.318	-121.712	0.285	-0.047
-476.303	-200.000	-0.008	-0.168
-475.289	651.735	-0.079	0.202
-474.274	76.405	-0.100	0.106
-473.259	-75.055	0.134	-0.048
-472.245	-80.913	-0.066	-0.022
-471.230	316.165	-0.188	-0.357
-470.216	35.368	0.152	0.133
-469.201	27.315	0.196	0.166
-468.186	83.935	-0.191	0.209
-467.172	-200.000	-0.003	-0.048
-466.157	-71.499	0.172	0.065
-465.143	241.683	0.156	-0.262
-464.128	-200.000	0.044	0.319
-463.113	-153.688	-0.191	-0.013
-462.099	-63.197	-0.192	0.079
-461.084	-182.777	0.286	-0.005
-460.070	137.366	0.233	-0.306
-459.055	-55.792	-0.164	-0.073
-458.040	-200.000	-0.008	0.095
-457.026	99.357	0.180	0.209
-456.011	511.971	0.047	0.109
-454.997	14.913	-0.330	0.259
-453.982	800.000	0.061	0.243
-452.968	-98.129	-0.424	-0.109
-451.953	65.205	-0.081	-0.082
-450.938	-71.438	-0.148	0.055
-449.924	152.764	-0.201	-0.275
-448.909	-22.540	-0.166	-0.101
-447.895	615.724	0.143	0.358
-446.880	97.614	-0.162	0.187
-445.865	249.420	0.119	0.203
-444.851	-133.122	-0.243	0.031
-443.836	109.411	-0.102	-0.122
-442.822	800.000	0.073	-0.285
-441.807	-133.010	-0.252	0.032
-440.792	247.798	0.132	-0.224
-439.778	204.346	0.120	-0.187
-438.763	-48.031	0.481	0.233
-437.749	-200.000	-0.061	-0.270
-436.734	21.124	-0.254	0.207
-435.719	1.256	-0.106	0.076
-434.705	-200.000	-0.022	-0.180
-433.690	-200.000	-0.009	0.251
-432.676	-191.458	0.219	-0.002
-431.661	-200.000	0.043	0.450
-430.646	82.013	0.090	-0.098
-429.632	800.000	0.069	0.208
-428.617	357.540	-0.121	-0.241
-427.603	-200.000	-0.007	0.062
-426.588	-76.658	0.347	0.122
-425.573	-26.036	-0.195	-0.115
-424.559	-152.083	0.375	0.027
-423.544	800.000	0.023	0.097
-422.530	21.119	0.154	-0.125
-421.515	-96.221	-0.342	0.091
-420.500	-200.000	0.002	0.291
-419.486	-193.767	0.051	-0.000
-418.471	193.182	-0.149	0.226
-417.457	-86.672	-0.249	-0.076
-416.442	-113.431	0.099	-0.019
-415.428	59.475	0.222	-0.219
-414.413	-111.476	-0.183	0.037
-413.398	-14.585	-0.098	0.063
-412.384	-52.683	-0.146	0.068
-411.369	-130.564	-0.181	-0.024
-410.355	56.827	-0.096	-0.093
-409.340	800.000	-0.096	0.270
-408.325	-31.263	-0.135	0.076
-407.311	-185.674	0.245	-0.004
-406.296	800.000	0.054	0.200
-405.282	61.235	-0.068	-0.068
-404.267	-154.339	-0.145	-0.010
-403.252	-3.058	0.146	0.102
-402.238	-71.997	-0.442	0.165
-401.223	800.000	-0.069	0.254
-400.209	-29.716	-0.098	-0.056
-399.194	172.308	0.088	0.127
-398.179	-38.468	-0.288	0.152
-397.165	-43.791	0.319	-0.161
-396.150	463.131	-0.052	-0.117
-395.136	800.000	0.075	0.279
-394.121	-72.382	-0.388	-0.144
-393.106	-165.149	-0.312	0.014
-392.092	-121.819	-0.135	-0.022
-391.077	115.553	-0.109	-0.133
-390.063	656.323	0.009	0.024
-389.048	388.870	0.111	-0.229
-388.033	-137.901	-0.280	-0.031
-387.019	-200.000	0.030	-0.183
-386.004	-28.599	-0.126	0.073
-384.990	18.056	0.243	0.194
-383.975	591.403	0.136	0.335
-382.960	800.000	0.069	0.227
-381.946	-110.760	0.224	0.046
-380.931	-89.611	0.254	0.075
-379.917	800.000	0.049	-0.190
-378.902	26.040	-0.297	0.247
-377.888	-4.944	0.003	0.002
-376.873	-34.028	0.198	-0.109
-375.858	-48.598	-0.141	0.068
-374.844	134.855	0.166	-0.215
-373.829	-94.757	0.072	0.020
-372.815	-107.860	0.113	-0.025
-371.800	-93.488	0.363	0.100
-370.785	144.070	0.046	-0.061
-369.771	-200.000	-0.008	0.404
-368.756	2.539	0.279	0.202
-367.742	38.358	-0.087	-0.077
-366.727	-50.651	-0.197	-0.093
-365.712	-200.000	-0.010	0.242
-364.698	800.000	-0.099	0.278
-363.683	-102.700	-0.300	-0.072
-362.669	46.337	-0.253	-0.234
-361.654	-118.604	-0.039	0.007
-360.639	135.162	-0.155	-0.202
-359.625	534.740	0.068	-0.161
-358.610	-200.000	-0.001	-0.243
-357.596	115.025	0.317	-0.387
-356.581	-16.847	-0.131	-0.083
-355.566	84.028	0.160	-0.175
-354.552	143.666	0.138	-0.184
-353.537	-54.540	-0.277	-0.125
-352.523	-40.929	0.093	0.048
-351.508	-200.000	0.022	0.102
-350.493	-157.554	-0.045	0.003
-349.479	53.706	-0.043	0.041
-348.464	97.895	-0.207	0.238
-347.450	207.420	-0.118	0.183
-346.435	97.392	-0.253	-0.290
-345.420	-21.442	0.128	-0.078
-344.406	130.499	0.103	-0.132
-343.391	-200.000	-0.058	0.488
-342.377	-4.101	-0.149	0.103
-341.362	-200.000	0.038	-0.238
-340.348	-108.013	0.135	0.029
-339.333	-200.000	-0.041	0.344
-338.318	35.567	-0.189	0.166
-337.304	-200.000	0.015	0.074
-336.289	86.613	-0.219	-0.242
-335.275	-200.000	-0.004	0.269
-334.260	76.545	-0.213	-0.225
-333.245	800.000	-0.024	-0.091
-332.231	-138.122	0.020	-0.002
-331.216	81.953	-0.077	0.083
-330.202	-69.447	0.262	-0.100
-329.187	-55.027	0.140	-0.063
-328.172	-47.463	0.177	-0.086
-327.158	325.787	-0.017	-0.032
-326.143	-174.471	0.063	0.002
-325.129	-200.000	0.011	-0.144
-324.114	165.229	-0.098	0.138
-323.099	-200.000	-0.023	0.103
-322.085	-109.152	-0.091	-0.019
-321.070	207.951	0.063	0.098
-320.056	-112.062	-0.149	0.030
-319.041	-22.063	0.187	-0.114
-318.026	22.749	0.113	0.092
-317.012	-157.727	0.160	0.010
-315.997	109.096	0.144	0.172
-314.983	417.650	0.078	0.165
-313.968	66.259	0.157	-0.159
-312.953	-110.020	-0.187	0.039
-311.939	-76.018	0.544	-0.192
-310.924	240.269	0.062	-0.104
-309.910	-23.544	-0.058	0.035
-308.895	487.602	-0.087	0.197
-307.880	741.123	-0.111	0.296
-306.866	11.373	-0.038	0.029
-305.851	-128.920	-0.133	0.019
-304.837	90.257	-0.221	0.246
-303.822	800.000	-0.111	-0.440
-302.807	-200.000	-0.054	0.250
-301.793	-200.000	-0.003	-0.043
-300.778	-49.270	-0.152	-0.073
-299.764	168.901	0.109	-0.155
-298.749	-200.000	0.030	0.209
-297.735	-189.819	0.185	0.002
-296.720	425.164	0.045	-0.096
-295.705	575.041	0.057	0.140
-294.691	101.315	0.114	0.132
-293.676	-21.313	0.055	0.034
-292.662	-200.000	0.005	-0.088
-291.647	-77.479	-0.167	0.058
-290.632	57.443	-0.194	-0.189
-289.618	-71.468	0.336	0.125
-288.603	133.686	-0.092	0.118
-287.589	-200.000	0.001	-0.016
-286.574	-17.644	-0.195	-0.122
-285.559	45.174	-0.299	-0.274
-284.545	-85.420	0.375	0.117
-283.530	-59.175	0.179	0.077
-282.516	-200.000	-0.017	-0.255
-281.501	-200.000	-0.017	-0.140
-280.486	8.640	-0.052	0.039
-279.472	516.299	-0.112	0.261
-278.457	-147.814	0.291	0.024
-277.443	-200.000	0.002	-0.041
-276.428	89.040	0.257	0.285
-275.413	-71.967	-0.133	-0.049
-274.399	-35.599	-0.081	0.044
-273.384	38.220	0.044	-0.039
-272.370	185.182	0.213	0.315
-271.355	-120.068	-0.095	0.016
-270.340	-85.089	0.121	0.038
-269.326	-200.000	-0.008	-0.157
-268.311	-112.759	0.253	0.050
-267.297	120.038	0.102	0.125
-266.282	262.909	-0.099	-0.171
-265.267	800.000	0.090	0.371
-264.253	-12.889	0.129	0.083
-263.238	-138.972	0.179	0.019
-262.224	-161.279	-0.063	-0.003
-261.209	-23.385	-0.106	0.064
-260.195	800.000	0.041	0.125
-259.180	99.298	-0.203	-0.233
-258.165	-200.000	0.047	-0.235
-257.151	-146.219	0.126	0.011
-256.136	15.288	0.129	0.101
-255.122	268.825	-0.061	-0.106
-254.107	123.812	0.135	-0.168
-253.092	50.308	0.187	-0.176
-252.078	-109.414	0.234	-0.049
-251.063	800.000	0.013	0.043
-250.049	-200.000	-0.021	-0.096
-249.034	28.280	-0.096	-0.081
-248.019	330.038	-0.051	-0.097
-247.005	-200.000	-0.013	-0.095
-245.990	-142.331	-0.121	-0.012
-244.976	78.909	0.227	-0.241
-243.961	125.966	-0.017	-0.022
-242.946	-5.552	-0.170	0.116
-241.932	749.027	-0.057	-0.152
-240.917	5.232	0.287	-0.210
-239.903	34.966	-0.288	-0.251
-238.888	-152.015	-0.203	0.015
-237.873	-45.625	-0.151	-0.074
-236.859	-200.000	0.075	-0.399
-235.844	800.000	0.057	0.163
-234.830	-159.083	-0.224	-0.013
-233.815	-200.000	0.017	0.314
-232.800	-163.959	0.299	0.014
-231.786	-34.354	-0.269	-0.146
-230.771	68.208	0.211	-0.215
-229.757	122.118	-0.211	-0.262
-228.742	-2.898	-0.248	-0.172
-227.727	432.039	0.019	-0.042
-226.713	-98.136	0.166	-0.042
-225.698	680.071	0.066	-0.172
-224.684	60.489	-0.078	0.077
-223.669	-63.842	0.277	0.113
-222.655	-6.439	-0.267	0.181
-221.640	-133.764	0.191	0.024
-220.625	-200.000	0.090	0.551
-219.611	-56.607	-0.211	0.093
-218.596	478.714	0.108	0.243
-217.582	-53.207	-0.189	0.086
-216.567	307.378	0.119	-0.221
-215.552	-111.975	0.251	0.050
-214.538	-55.515	0.335	0.149
-213.523	90.941	-0.289	-0.322
-212.509	71.870	0.123	-0.127
-211.494	-146.253	-0.221	-0.019
-210.479	321.682	0.039	0.073
-209.465	333.737	-0.038	-0.073
-208.450	-109.031	-0.156	0.033
-207.436	91.143	0.223	-0.249
-206.421	-31.462	0.486	-0.271
-205.406	-63.021	-0.248	-0.102
-204.392	-171.131	-0.304	-0.010
-203.377	800.000	0.008	0.028
-202.363	4.240	-0.454	0.330
-201.348	-130.714	0.137	0.018
-200.333	111.093	0.143	-0.171
-199.319	114.822	0.020	-0.024
-198.304	209.355	-0.114	-0.178
-197.290	-73.082	-0.221	-0.080
-196.275	800.000	0.062	0.223
-195.260	173.999	-0.055	-0.079
-194.246	-29.937	-0.129	-0.073
-193.231	800.000	-0.055	0.210
-192.217	71.144	0.069	-0.071
-191.202	-23.867	0.066	-0.039
-190.187	452.563	0.021	-0.045
-189.173	-200.000	0.010	-0.112
-188.158	800.000	-0.094	0.270
-187.144	502.911	-0.144	0.330
-186.129	-97.076	0.367	0.095
-185.114	-200.000	-0.003	0.413
-184.100	-40.571	-0.309	0.159
-183.085	-200.000	0.057	0.489
-182.071	-200.000	0.041	-0.191
-181.056	132.832	0.160	-0.205
-180.042	-67.965	0.266	0.103
-179.027	-118.195	0.202	-0.036
-178.012	12.932	-0.058	0.045
-176.998	-26.494	0.210	-0.122
-175.983	-82.833	-0.141	-0.045
-174.969	698.599	0.006	-0.017
-173.954	-8.141	-0.041	0.028
-172.939	256.769	-0.027	-0.046
-171.925	-115.265	-0.260	0.049
-170.910	-79.608	-0.220	-0.074
-169.896	-200.000	-0.003	-0.390
-168.881	-2.041	-0.198	-0.138
-167.866	-47.522	-0.054	0.026
-166.852	50.200	0.161	-0.151
-165.837	192.491	0.136	0.204
-164.823	-118.112	0.208	-0.037
-163.808	-200.000	0.042	0.235
-162.793	-103.029	0.162	-0.038
-161.779	800.000	-0.133	-0.398
-160.764	-44.144	0.377	0.188
-159.750	-12.103	0.062	-0.041
-158.735	48.296	0.012	-0.011
-157.720	-80.511	-0.175	0.058
-156.706	517.794	0.087	0.201
-155.691	392.251	-0.079	0.163
-154.677	-117.871	0.360	-0.064
-153.662	38.348	-0.066	0.059
-152.647	800.000	0.077	-0.241
-151.633	-147.593	0.230	0.019
-150.618	-96.327	0.323	0.085
-149.604	-200.000	0.029	-0.226
-148.589	-143.606	-0.364	0.034
-147.574	-200.000	0.042	-0.218
-146.560	-200.000	-0.028	-0.181
-145.545	800.000	0.019	-0.052
-144.531	37.785	0.078	-0.069
-143.516	1.444	0.170	-0.121
-142.502	-108.607	0.426	-0.091
-141.487	97.926	0.170	0.193
-140.472	102.889	0.043	0.050
-139.458	-155.858	0.106	0.007
-138.443	457.091	-0.031	-0.068
-137.429	-200.000	0.058	-0.345
-136.414	33.930	0.074	-0.064
-135.399	800.000	0.122	-0.432
-134.385	33.065	0.265	-0.227
-133.370	800.000	-0.010	-0.040
-132.356	-190.933	-0.230	0.002
-131.341	-96.432	0.386	0.101
-130.326	-128.344	-0.195	0.027
-129.312	314.200	0.087	-0.163
-128.297	-67.349	0.127	0.049
-127.283	100.162	0.220	-0.252
-126.268	-60.272	-0.212	0.089
-125.253	800.000	0.026	-0.082
-124.239	304.570	-0.022	0.040
-123.224	55.224	0.282	-0.270
-122.210	114.283	-0.293	-0.352
-121.195	-115.651	0.401	0.075
