DTS Sentinel unit serial number:	SN413079Multiplexer serial number:	ORYXHardware model number:	OX4-SRSoftware version number:	ORYX F/W v4.00 Oryx Data Collector v3.7.2.0data status	okinstallation	princeton_trtdifferential loss correction	single-endedforward channel	channel 1reverse channel	N/Adate	2019/09/16time	21:06:35forward acquisition time	60.00reverse acquisition time	0.00gamma	496.2192k internal	0.2324k external	0.2324temperature offset calibration	0.9948default loss term (dB/km)	0.3790temperature slope calibration	1.0000multiplexer offset coefficient	1.0000multiplexer slope coefficient	1.0000fibre end	0.00T internal ref (°C)	31.89T ext. ref 1 (°C)	0.05T ext. ref 2 (°C)	25.34length (m)	temperature (°C)	Stokes	anti-Stokes-747.200	46.835	0.250	-0.234
-746.185	-200.000	-0.018	0.339
-745.171	-38.391	0.328	-0.175
-744.156	36.380	0.089	0.079
-743.142	226.446	-0.109	-0.179
-742.127	-49.246	0.134	-0.064
-741.112	-60.905	0.240	0.102
-740.098	25.466	0.176	0.148
-739.083	-116.028	0.298	0.056
-738.069	-200.000	0.018	0.298
-737.054	756.443	0.113	0.308
-736.039	484.601	0.153	-0.351
-735.025	152.611	-0.064	-0.089
-734.010	-37.679	-0.176	-0.095
-732.996	-108.961	-0.056	-0.012
-731.981	150.787	-0.246	0.338
-730.966	752.245	0.031	0.086
-729.952	-115.700	-0.288	0.054
-728.937	8.666	-0.172	-0.130
-727.923	-30.577	-0.193	0.110
-726.908	440.906	-0.096	-0.212
-725.894	229.385	-0.078	-0.128
-724.879	-49.925	-0.311	-0.149
-723.864	296.142	0.062	0.115
-722.850	476.043	0.059	-0.135
-721.835	-170.219	-0.166	0.006
-720.821	-200.000	-0.016	-0.121
-719.806	64.505	-0.112	0.114
-718.791	85.495	0.105	0.116
-717.777	-70.648	0.115	0.044
-716.762	-37.713	-0.256	-0.137
-715.748	-123.738	-0.231	0.037
-714.733	83.745	0.130	0.143
-713.718	-168.945	0.406	-0.015
-712.704	90.826	-0.077	-0.087
-711.689	-8.126	0.143	0.097
-710.675	-101.303	-0.023	0.006
-709.660	23.933	-0.348	0.289
-708.645	-41.985	0.303	-0.156
-707.631	800.000	0.182	-0.692
-706.616	53.880	-0.112	-0.109
-705.602	213.537	-0.120	0.192
-704.587	205.996	-0.144	-0.226
-703.572	770.132	-0.033	0.092
-702.558	-14.883	0.314	-0.203
-701.543	369.517	0.130	-0.265
-700.529	89.189	-0.071	0.080
-699.514	151.208	0.105	-0.144
-698.499	340.808	-0.099	-0.195
-697.485	-200.000	-0.018	0.148
-696.470	800.000	-0.077	-0.265
-695.456	-24.324	0.047	0.028
-694.441	-200.000	-0.044	0.339
-693.426	-2.533	-0.236	0.167
-692.412	-200.000	-0.003	-0.133
-691.397	-6.153	-0.112	0.077
-690.383	-66.714	-0.123	0.049
-689.368	-52.630	-0.163	0.076
-688.354	800.000	-0.052	-0.165
-687.339	133.476	0.182	-0.237
-686.324	104.229	-0.091	0.107
-685.310	-46.083	0.134	0.067
-684.295	-200.000	0.010	0.134
-683.281	-58.330	0.260	-0.114
-682.266	800.000	0.087	0.295
-681.251	-200.000	-0.037	0.299
-680.237	-90.438	0.391	0.114
-679.222	-71.668	0.150	0.056
-678.208	79.036	-0.104	0.112
-677.193	612.103	0.059	-0.149
-676.178	-99.377	0.252	-0.064
-675.164	101.261	0.094	-0.110
-674.149	-200.000	0.030	0.213
-673.135	-119.656	-0.319	0.055
-672.120	113.081	-0.092	-0.112
-671.105	491.429	-0.089	-0.206
-670.091	-200.000	0.045	-0.220
-669.076	30.249	0.044	0.038
-668.062	382.469	0.081	0.168
-667.047	-139.773	0.260	-0.028
-666.032	70.556	-0.175	-0.182
-665.018	-200.000	-0.056	0.309
-664.003	123.091	-0.144	-0.181
-662.989	-49.216	-0.317	-0.153
-661.974	8.967	0.240	-0.182
-660.959	-25.916	0.202	-0.120
-659.945	152.943	-0.140	-0.193
-658.930	437.367	0.143	-0.315
-657.916	-53.218	0.175	0.081
-656.901	24.602	0.136	0.114
-655.886	40.804	-0.298	-0.270
-654.872	-34.344	-0.316	0.174
-653.857	-160.843	0.216	-0.011
-652.843	263.772	-0.152	0.266
-651.828	-109.875	0.274	0.058
-650.814	-172.093	-0.072	0.002
-649.799	95.215	-0.087	0.099
-648.784	-200.000	0.012	-0.171
-647.770	-88.037	-0.347	0.105
-646.755	583.203	-0.098	-0.243
-645.741	292.805	-0.021	0.039
-644.726	105.621	-0.338	0.401
-643.711	-170.967	-0.122	-0.004
-642.697	161.305	0.188	-0.264
-641.682	-68.319	-0.158	0.062
-640.668	194.218	0.145	-0.220
-639.653	-110.213	-0.011	0.002
-638.638	-143.598	-0.180	-0.017
-637.624	-56.742	-0.195	0.087
-636.609	-88.926	0.267	0.080
-635.595	-200.000	-0.018	-0.096
-634.580	-200.000	-0.212	0.001
-633.565	-148.459	0.226	-0.019
-632.551	-21.432	-0.309	-0.190
-631.536	-32.521	-0.364	-0.204
-630.522	-9.301	0.035	0.023
-629.507	121.901	0.136	-0.170
-628.492	-31.819	-0.119	0.067
-627.478	-52.914	0.089	-0.041
-626.463	-200.000	0.027	0.206
-625.449	-53.519	0.241	-0.111
-624.434	47.140	-0.083	-0.078
-623.419	-200.000	-0.036	-0.296
-622.405	-65.091	-0.188	0.076
-621.390	-83.694	0.163	0.052
-620.376	800.000	0.040	0.128
-619.361	800.000	0.094	-0.320
-618.346	-28.748	0.219	-0.127
-617.332	-15.883	0.177	-0.113
-616.317	310.575	-0.027	-0.051
-615.303	263.771	-0.073	0.127
-614.288	-140.255	-0.177	-0.019
-613.273	-102.145	-0.305	-0.074
-612.259	-200.000	0.021	0.151
-611.244	286.468	0.119	0.216
-610.230	-124.546	-0.357	-0.056
-609.215	52.868	0.098	0.094
-608.201	-35.409	-0.023	-0.012
-607.186	22.902	0.051	0.042
-606.171	318.739	-0.164	0.312
-605.157	-200.000	-0.023	-0.129
-604.142	-101.505	-0.159	-0.039
-603.128	221.480	0.085	-0.137
-602.113	48.220	-0.241	0.226
-601.098	21.231	-0.263	-0.215
-600.084	92.188	0.136	0.154
-599.069	1.934	-0.224	-0.162
-598.055	36.779	-0.321	-0.284
-597.040	106.540	0.228	0.272
-596.025	709.936	-0.111	-0.293
-595.011	-200.000	-0.009	-0.318
-593.996	528.648	-0.057	0.135
-592.982	302.375	0.101	-0.188
-591.967	101.771	-0.086	-0.101
-590.952	-63.591	0.084	-0.035
-589.938	401.008	-0.066	-0.140
-588.923	-125.269	0.207	-0.032
-587.909	-144.349	0.041	0.004
-586.894	-135.975	0.214	0.025
-585.879	800.000	-0.113	0.410
-584.865	386.983	0.101	0.210
-583.850	138.440	-0.086	-0.113
-582.836	103.772	0.099	-0.117
-581.821	-200.000	-0.006	-0.303
-580.806	31.301	-0.040	0.034
-579.792	-200.000	-0.007	0.072
-578.777	157.447	0.258	0.358
-577.763	-200.000	-0.003	0.358
-576.748	305.110	-0.089	0.165
-575.733	-10.419	-0.082	-0.055
-574.719	-11.287	0.038	-0.025
-573.704	-24.803	0.095	0.056
-572.690	-200.000	-0.002	-0.164
-571.675	-116.732	0.232	-0.043
-570.661	56.878	0.102	-0.099
-569.646	-27.845	-0.354	0.205
-568.631	130.140	-0.112	0.144
-567.617	-74.069	-0.144	0.052
-566.602	-2.293	0.184	0.129
-565.588	-74.239	-0.149	0.054
-564.573	800.000	-0.026	0.084
-563.558	-200.000	-0.009	0.150
-562.544	175.249	0.061	0.089
-561.529	-15.756	-0.100	-0.064
-560.515	-64.024	0.358	-0.146
-559.500	133.360	-0.057	-0.073
-558.485	800.000	0.036	-0.133
-557.471	-93.833	-0.339	0.094
-556.456	-103.122	0.163	-0.039
-555.442	-200.000	0.014	-0.676
-554.427	154.311	0.037	-0.051
-553.412	-198.183	0.208	-0.001
-552.398	-200.000	0.018	0.102
-551.383	-200.000	0.035	0.347
-550.369	-200.000	0.060	0.406
-549.354	-17.460	-0.130	-0.082
-548.339	-70.359	0.094	-0.036
-547.325	-162.581	-0.120	0.006
-546.310	-200.000	0.045	0.279
-545.296	69.232	-0.174	0.179
-544.281	674.056	0.067	-0.175
-543.266	58.778	-0.152	-0.150
-542.252	-64.039	-0.198	-0.081
-541.237	-200.000	-0.068	0.333
-540.223	-36.638	-0.274	-0.147
-539.208	192.865	-0.168	-0.254
-538.193	-148.627	0.005	0.000
-537.179	207.414	0.154	-0.240
-536.164	362.762	0.038	0.077
-535.150	-170.388	-0.149	-0.005
-534.135	-41.861	0.313	-0.161
-533.121	-83.958	0.197	0.063
-532.106	800.000	-0.049	0.154
-531.091	-89.217	0.362	0.107
-530.077	-33.937	0.271	-0.149
-529.062	-200.000	-0.012	0.108
-528.048	207.797	-0.189	0.295
-527.033	152.341	0.222	-0.303
-526.018	-200.000	-0.014	-0.215
-525.004	-200.000	-0.004	0.084
-523.989	102.555	-0.102	0.119
-522.975	206.175	-0.140	-0.218
-521.960	605.681	0.044	-0.109
-520.945	444.988	0.038	-0.083
-519.931	12.897	0.169	0.130
-518.916	800.000	-0.046	-0.166
-517.902	276.676	0.100	-0.177
-516.887	688.005	0.141	0.370
-515.872	-200.000	-0.094	0.532
-514.858	-84.357	-0.196	-0.062
-513.843	-44.405	0.149	0.075
-512.829	800.000	-0.039	-0.131
-511.814	12.924	0.041	0.032
-510.799	76.072	-0.179	0.189
-509.785	-118.700	0.135	0.024
-508.770	16.151	-0.356	0.280
-507.756	-29.912	-0.099	-0.057
-506.741	-58.065	0.188	-0.082
-505.726	-55.070	-0.183	-0.082
-504.712	59.543	-0.067	-0.066
-503.697	-67.995	0.177	0.069
-502.683	494.499	-0.065	0.150
-501.668	-102.700	0.164	-0.039
-500.653	78.454	0.139	-0.148
-499.639	-200.000	-0.006	0.066
-498.624	-200.000	0.037	-0.195
-497.610	533.330	0.094	-0.222
-496.595	654.766	0.036	-0.092
-495.581	-154.753	0.053	0.004
-494.566	147.922	-0.114	-0.154
-493.551	-16.649	-0.247	0.157
-492.537	8.623	0.119	0.089
-491.522	-19.560	0.201	0.125
-490.508	800.000	0.065	-0.283
-489.493	681.710	0.101	-0.263
-488.478	800.000	0.051	-0.206
-487.464	-200.000	0.008	-0.058
-486.449	70.260	0.130	0.134
-485.435	392.480	-0.025	0.052
-484.420	467.974	-0.105	-0.236
-483.405	-8.191	-0.182	0.122
-482.391	800.000	-0.016	0.050
-481.376	121.300	-0.020	-0.024
-480.362	-98.174	-0.140	0.036
-479.347	-200.000	-0.001	0.307
-478.332	348.963	-0.084	0.165
-477.318	128.760	-0.204	0.260
-476.303	-90.912	0.244	-0.070
-475.289	-40.124	-0.205	-0.107
-474.274	800.000	0.078	-0.257
-473.259	-5.010	-0.343	0.236
-472.245	-141.496	0.130	-0.013
-471.230	-121.433	-0.164	-0.027
-470.216	-200.000	0.070	0.324
-469.201	-36.210	-0.088	-0.048
-468.186	-21.110	-0.230	-0.141
-467.172	800.000	0.092	-0.261
-466.157	8.405	-0.183	-0.137
-465.143	-65.538	-0.067	-0.027
-464.128	-117.380	0.391	0.071
-463.113	-103.720	-0.204	0.048
-462.099	-200.000	-0.007	-0.126
-461.084	428.111	-0.129	-0.278
-460.070	-200.000	-0.013	0.106
-459.055	-126.890	0.020	0.003
-458.040	50.474	-0.216	0.204
-457.026	-36.142	0.129	0.069
-456.011	59.937	-0.165	0.162
-454.997	-10.747	0.072	-0.048
-453.982	84.606	0.092	0.100
-452.968	182.154	0.140	-0.206
-451.953	6.372	-0.197	0.146
-450.938	242.386	0.018	0.030
-449.924	-111.298	-0.152	-0.031
-448.909	27.153	0.176	0.147
-447.895	800.000	0.101	-0.278
-446.880	-200.000	0.034	0.150
-445.865	691.443	-0.046	-0.120
-444.851	554.846	0.127	0.305
-443.836	-98.436	0.032	0.008
-442.822	575.441	0.037	-0.090
-441.807	-200.000	-0.016	-0.157
-440.792	448.085	0.063	-0.139
-439.778	44.581	0.145	-0.133
-438.763	-99.505	-0.065	0.016
-437.749	-200.000	-0.003	0.137
-436.734	-111.137	-0.033	-0.007
-435.719	17.340	0.065	0.052
-434.705	228.276	-0.136	0.220
-433.690	-91.381	0.343	-0.098
-432.676	-200.000	-0.016	0.237
-431.661	55.593	-0.200	-0.194
-430.646	-129.893	-0.241	0.033
-429.632	160.962	0.100	-0.139
-428.617	74.261	0.101	-0.106
-427.603	-14.606	0.283	-0.182
-426.588	80.581	0.238	0.255
-425.573	800.000	-0.047	-0.159
-424.559	204.639	-0.062	-0.096
-423.544	118.072	-0.101	0.124
-422.530	-200.000	-0.030	0.164
-421.515	-54.314	-0.037	-0.017
-420.500	99.482	-0.080	-0.092
-419.486	219.116	-0.065	0.104
-418.471	-200.000	-0.031	0.204
-417.457	-163.398	0.093	0.004
-416.442	-200.000	-0.014	-0.165
-415.428	243.135	-0.303	-0.505
-414.413	45.154	-0.111	0.102
-413.398	259.731	0.115	-0.197
-412.384	-109.527	-0.422	0.089
-411.369	-107.902	0.118	-0.026
-410.355	46.569	0.101	0.093
-409.340	99.256	-0.259	0.298
-408.325	-200.000	-0.013	-0.150
-407.311	180.582	-0.212	0.310
-406.296	-14.868	0.122	-0.078
-405.282	-200.000	-0.007	-0.298
-404.267	508.352	-0.177	0.410
-403.252	108.363	0.055	0.066
-402.238	800.000	0.067	-0.267
-401.223	-111.622	-0.103	-0.021
-400.209	626.691	-0.072	-0.182
-399.194	-26.445	-0.141	-0.082
-398.179	-2.940	0.155	-0.108
-397.165	-154.251	-0.104	-0.007
-396.150	241.179	-0.100	-0.167
-395.136	110.162	0.141	0.168
-394.121	198.795	-0.095	-0.145
-393.106	-116.795	-0.176	0.032
-392.092	-150.553	0.278	0.021
-391.077	-8.297	0.129	-0.087
-390.063	800.000	-0.081	-0.294
-389.048	118.199	0.203	0.249
-388.033	800.000	-0.140	-0.523
-387.019	-33.451	-0.214	-0.118
-386.004	-30.058	0.455	0.258
-384.990	-45.240	0.028	-0.014
-383.975	100.445	0.071	0.083
-382.960	-6.220	0.040	0.027
-381.946	196.569	-0.146	0.222
-380.931	800.000	0.082	0.274
-379.917	116.883	0.152	0.186
-378.902	-200.000	-0.025	-0.193
-377.888	-158.856	0.079	-0.004
-376.873	43.904	0.137	0.125
-375.858	-136.862	0.065	0.007
-374.844	-14.277	0.090	0.058
-373.829	-56.462	-0.145	-0.064
-372.815	-109.770	-0.031	0.007
-371.800	-18.243	0.183	-0.114
-370.785	12.760	-0.165	0.126
-369.771	-200.000	0.040	0.234
-368.756	-200.000	0.021	-0.107
-367.742	-13.023	0.335	0.217
-366.727	-16.599	-0.174	-0.110
-365.712	-200.000	0.029	-0.126
-364.698	-1.171	0.185	0.130
-363.683	133.232	-0.046	-0.060
-362.669	94.976	0.042	0.047
-361.654	-72.481	-0.111	-0.041
-360.639	51.863	0.058	0.054
-359.625	-200.000	-0.012	0.412
-358.610	-55.727	0.168	-0.075
-357.596	-200.000	0.028	0.160
-356.581	752.691	0.160	0.428
-355.566	665.290	-0.053	0.136
-354.552	-77.608	0.107	0.037
-353.537	-200.000	0.001	-0.082
-352.523	800.000	-0.042	-0.165
-351.508	-91.577	0.130	0.037
-350.493	-164.281	0.225	-0.010
-349.479	-200.000	0.035	-0.267
-348.464	686.650	0.104	0.270
-347.450	800.000	-0.075	-0.216
-346.435	315.854	-0.142	0.266
-345.420	-159.274	-0.095	0.005
-344.406	78.737	-0.135	0.144
-343.391	-200.000	0.052	-0.302
-342.377	-133.499	-0.210	-0.026
-341.362	-137.673	0.287	0.032
-340.348	285.197	0.188	0.337
-339.333	177.915	-0.018	0.025
-338.318	365.248	-0.190	-0.381
-337.304	-46.453	-0.070	-0.034
-336.289	9.102	-0.258	-0.193
-335.275	-76.962	0.110	-0.038
-334.260	800.000	0.015	0.053
-333.245	218.051	-0.063	0.100
-332.231	-200.000	-0.010	0.316
-331.216	152.172	-0.041	0.055
-330.202	-164.311	0.235	-0.011
-329.187	-109.640	-0.631	-0.132
-328.172	-102.284	0.264	0.063
-327.158	-65.490	-0.057	-0.023
-326.143	55.265	-0.287	0.275
-325.129	326.316	-0.019	-0.036
-324.114	-200.000	-0.022	0.291
-323.099	800.000	-0.022	0.072
-322.085	-200.000	0.081	0.000
-321.070	-200.000	0.031	0.217
-320.056	800.000	0.056	-0.159
-319.041	-63.528	-0.442	-0.180
-318.026	-18.802	0.135	-0.084
-317.012	-76.780	-0.218	0.076
-315.997	-67.704	-0.280	-0.109
-314.983	-44.921	0.194	0.096
-313.968	49.495	-0.324	0.303
-312.953	37.274	-0.122	0.107
-311.939	-200.000	-0.021	0.140
-310.924	241.779	0.172	0.285
-309.910	-114.393	0.110	-0.021
-308.895	-36.978	-0.057	-0.030
-307.880	-148.902	-0.352	-0.028
-306.866	-17.027	0.231	-0.145
-305.851	-54.676	-0.180	0.081
-304.837	-149.423	0.086	0.007
-303.822	800.000	0.078	-0.270
-302.807	-200.000	0.005	-0.054
-301.793	-154.295	0.200	-0.013
-300.778	43.212	-0.126	-0.114
-299.764	638.896	0.058	-0.146
-298.749	693.852	0.074	-0.193
-297.735	800.000	0.125	-0.379
-296.720	173.637	-0.170	-0.244
-295.705	23.459	0.274	-0.224
-294.691	-80.853	-0.512	0.168
-293.676	414.309	0.093	-0.197
-292.662	622.033	-0.168	-0.418
-291.647	-29.380	0.278	0.158
-290.632	-200.000	0.078	0.502
-289.618	-177.134	0.271	-0.007
-288.603	-116.340	-0.093	0.017
-287.589	732.846	0.140	0.372
-286.574	71.566	-0.084	0.087
-285.559	384.579	-0.101	-0.206
-284.545	-45.147	0.154	-0.076
-283.530	800.000	0.092	0.324
-282.516	-150.314	-0.301	-0.023
-281.501	-200.000	0.089	-0.460
-280.486	-84.749	0.338	-0.105
-279.472	314.401	0.047	0.088
-278.457	114.180	-0.136	-0.163
-277.443	-200.000	-0.015	0.072
-276.428	-35.108	0.252	-0.136
-275.413	244.593	0.159	0.265
-274.399	32.871	-0.222	-0.191
-273.384	-200.000	-0.039	-0.239
-272.370	-200.000	-0.003	0.143
-271.355	50.303	0.062	0.058
-270.340	-200.000	0.002	0.184
-269.326	662.039	-0.046	0.117
-268.311	85.352	0.219	-0.238
-267.297	8.062	0.209	-0.155
-266.282	-87.328	-0.225	-0.068
-265.267	-34.155	0.291	0.159
-264.253	439.270	-0.136	-0.294
-263.238	800.000	0.069	-0.290
-262.224	-103.948	-0.422	0.098
-261.209	75.070	0.201	0.210
-260.195	-116.854	-0.043	-0.008
-259.180	-82.071	0.064	-0.021
-258.165	-200.000	0.040	-0.248
-257.151	24.518	-0.094	-0.077
-256.136	705.466	0.057	-0.149
-255.122	532.844	0.093	0.218
-254.107	-31.862	0.070	0.039
-253.092	-41.546	0.324	0.165
-252.078	-200.000	-0.050	0.299
-251.063	243.594	0.083	-0.138
-250.049	-200.000	-0.009	-0.310
-249.034	127.594	-0.267	-0.335
-248.019	-84.361	-0.121	-0.038
-247.005	-18.880	0.316	-0.195
-245.990	-107.953	0.295	-0.064
-244.976	-28.974	0.221	-0.126
-243.961	800.000	-0.164	-0.452
-242.946	97.452	-0.071	0.081
-241.932	61.966	-0.020	-0.019
-240.917	-79.605	-0.231	0.077
-239.903	5.015	0.089	0.065
-238.888	296.724	0.107	-0.194
-237.873	-180.180	0.293	-0.006
-236.859	-16.180	0.354	0.223
-235.844	-200.000	0.031	0.171
-234.830	-163.785	0.242	0.011
-233.815	-41.239	0.052	-0.027
-232.800	57.793	0.150	-0.145
-231.786	-200.000	-0.008	-0.171
-230.771	-200.000	-0.047	0.221
-229.757	2.123	0.096	0.069
-228.742	-131.800	0.197	-0.026
-227.727	-68.370	-0.398	0.153
-226.713	-49.898	0.068	0.032
-225.698	88.045	-0.338	0.370
-224.684	800.000	0.051	0.207
-223.669	172.258	0.134	-0.190
-222.655	-128.581	-0.148	0.021
-221.640	95.618	-0.116	-0.131
-220.625	800.000	0.110	0.301
-219.611	419.982	0.155	-0.328
-218.596	429.378	0.144	-0.308
-217.582	-119.014	0.249	0.043
-216.567	-30.429	-0.198	0.111
-215.552	-74.301	0.382	0.136
-214.538	9.405	0.253	0.190
-213.523	-200.000	0.023	0.161
-212.509	-200.000	-0.012	-0.180
-211.494	-200.000	-0.013	0.498
-210.479	265.751	0.111	0.192
-209.465	-110.965	0.152	0.031
-208.450	-200.000	0.039	0.286
-207.436	-41.943	-0.143	-0.072
-206.421	800.000	0.028	0.108
-205.406	46.103	-0.203	0.186
-204.392	-31.815	0.361	0.200
-203.377	84.965	-0.079	-0.085
-202.363	-200.000	0.032	-0.230
-201.348	-74.978	-0.066	0.023
-200.333	-200.000	0.007	0.320
-199.319	-200.000	-0.019	-0.161
-198.304	-47.175	0.389	0.187
-197.290	800.000	-0.088	0.331
-196.275	-2.865	-0.127	-0.087
-195.260	50.606	0.091	-0.085
-194.246	288.915	-0.078	0.140
-193.231	-86.619	0.183	0.055
-192.217	-200.000	0.040	-0.212
-191.202	-69.375	-0.263	0.100
-190.187	-143.748	-0.177	0.017
-189.173	-145.616	-0.375	-0.033
-188.158	-60.369	-0.276	-0.116
-187.144	16.938	-0.178	0.139
-186.129	-158.223	0.124	-0.007
-185.114	-80.425	0.153	0.050
-184.100	-1.604	-0.363	-0.253
-183.085	700.138	0.063	0.163
-182.071	-71.661	-0.273	-0.101
-181.056	800.000	-0.048	-0.136
-180.042	-135.085	-0.051	-0.006
-179.027	-122.722	0.096	0.015
-178.012	-57.288	-0.075	-0.032
-176.998	-44.897	0.100	-0.049
-175.983	338.741	-0.063	0.122
-174.969	9.603	0.339	0.254
-173.954	32.737	-0.029	0.025
-172.939	-41.282	0.329	-0.168
-171.925	-12.907	0.257	-0.165
-170.910	-200.000	-0.017	0.202
-169.896	-24.457	-0.090	0.053
-168.881	14.469	-0.085	0.066
-167.866	-57.721	0.319	-0.138
-166.852	800.000	0.031	-0.131
-165.837	-22.067	-0.204	-0.122
-164.823	237.735	-0.248	-0.407
-163.808	85.045	0.216	0.234
-162.793	69.390	-0.085	0.087
-161.779	335.331	-0.166	-0.318
-160.764	347.864	-0.056	0.109
-159.750	-200.000	0.041	0.181
-158.735	-150.088	0.470	0.036
-157.720	9.822	0.226	0.169
-156.706	41.574	-0.192	-0.171
-155.691	-66.647	-0.337	0.132
-154.677	800.000	-0.065	0.193
-153.662	-103.075	0.210	-0.049
-152.647	-101.279	0.136	-0.033
-151.633	-200.000	-0.058	-0.445
-150.618	-200.000	-0.000	0.393
-149.604	100.088	-0.030	0.035
-148.589	104.572	0.072	-0.083
-147.574	-163.314	0.298	0.014
-146.560	27.276	-0.288	-0.238
-145.545	-60.602	-0.240	0.100
-144.531	-34.186	0.267	0.145
-143.516	48.583	-0.122	-0.112
-142.502	-161.474	-0.234	-0.012
-141.487	-49.494	0.307	-0.144
-140.472	-200.000	-0.000	-0.075
-139.458	-40.972	0.294	0.150
-138.443	-143.764	-0.281	0.026
-137.429	-7.317	0.014	0.009
-136.414	-37.591	-0.235	-0.123
-135.399	-200.000	-0.017	-0.086
-134.385	-50.059	-0.177	-0.083
-133.370	-38.971	0.090	-0.047
-132.356	-66.184	0.258	-0.101
-131.341	70.034	0.185	0.188
-130.326	-106.460	0.293	0.064
-129.312	800.000	-0.092	0.326
-128.297	-200.000	-0.007	-0.306
-127.283	90.864	-0.106	-0.117
-126.268	-29.803	0.142	0.080
-125.253	-111.347	0.184	-0.037
-124.239	195.165	0.248	0.370
-123.224	800.000	0.101	0.281
-122.210	-200.000	-0.027	-0.204
-121.195	-200.000	0.022	0.315
