DTS Sentinel unit serial number:	SN413079Multiplexer serial number:	ORYXHardware model number:	OX4-SRSoftware version number:	ORYX F/W v4.00 Oryx Data Collector v3.7.2.0data status	okinstallation	princeton_trtdifferential loss correction	single-endedforward channel	channel 1reverse channel	N/Adate	2019/09/16time	17:30:35forward acquisition time	60.00reverse acquisition time	0.00gamma	496.2192k internal	0.2298k external	0.2298temperature offset calibration	0.9963default loss term (dB/km)	0.3790temperature slope calibration	1.0000multiplexer offset coefficient	1.0000multiplexer slope coefficient	1.0000fibre end	0.00T internal ref (°C)	38.50T ext. ref 1 (°C)	15.47T ext. ref 2 (°C)	32.45length (m)	temperature (°C)	Stokes	anti-Stokes-747.200	419.260	-0.215	0.470
-746.185	30.734	0.093	0.081
-745.171	81.616	0.024	-0.026
-744.156	-120.518	0.222	-0.038
-743.142	800.000	0.036	0.124
-742.127	119.669	0.030	0.038
-741.112	-165.892	0.320	0.014
-740.098	10.007	0.274	0.213
-739.083	120.213	0.286	0.362
-738.069	138.436	-0.056	0.075
-737.054	108.987	-0.076	-0.092
-736.039	800.000	0.031	-0.098
-735.025	800.000	0.053	0.218
-734.010	-113.973	-0.165	0.033
-732.996	-108.416	-0.220	-0.048
-731.981	78.282	-0.053	0.058
-730.966	-163.207	-0.441	-0.022
-729.952	-53.389	-0.043	-0.020
-728.937	-161.549	0.239	0.013
-727.923	-106.554	-0.146	0.033
-726.908	-21.916	-0.247	0.153
-725.894	-183.996	0.396	0.007
-724.879	-82.965	-0.413	0.136
-723.864	-28.456	-0.081	-0.048
-722.850	425.028	0.068	0.150
-721.835	29.386	-0.218	-0.189
-720.821	-200.000	0.016	0.207
-719.806	20.596	0.278	-0.229
-718.791	-90.608	-0.091	0.027
-717.777	-84.309	0.201	-0.065
-716.762	-157.886	0.304	-0.018
-715.748	-4.747	0.237	0.167
-714.733	-200.000	0.068	0.337
-713.718	121.755	0.211	0.269
-712.704	462.390	-0.137	0.312
-711.689	581.931	0.141	-0.352
-710.675	-44.573	0.392	-0.200
-709.660	800.000	0.110	-0.345
-708.645	-158.085	0.313	0.019
-707.631	800.000	-0.053	-0.199
-706.616	105.851	-0.288	-0.348
-705.602	-12.154	0.143	0.095
-704.587	46.515	-0.029	0.028
-703.572	-50.433	-0.130	-0.063
-702.558	-200.000	0.019	-0.123
-701.543	-200.000	-0.046	-0.266
-700.529	800.000	-0.072	-0.261
-699.514	-200.000	-0.110	0.556
-698.499	-28.096	-0.298	0.176
-697.485	800.000	0.032	0.102
-696.470	800.000	-0.146	0.415
-695.456	800.000	0.035	-0.147
-694.441	37.743	-0.282	-0.255
-693.426	92.935	0.089	0.103
-692.412	193.447	0.095	-0.147
-691.397	-161.913	-0.156	-0.008
-690.383	-200.000	-0.022	-0.325
-689.368	350.482	-0.159	0.321
-688.354	-63.035	0.020	0.008
-687.339	-107.510	0.236	-0.053
-686.324	87.041	-0.134	0.151
-685.310	1.796	-0.388	0.285
-684.295	800.000	0.041	0.135
-683.281	83.228	0.076	-0.084
-682.266	-10.143	-0.160	-0.108
-681.251	-74.983	-0.173	-0.063
-680.237	-200.000	0.008	0.192
-679.222	-95.000	0.389	-0.107
-678.208	353.558	0.126	0.255
-677.193	800.000	0.035	0.130
-676.178	37.306	0.132	0.119
-675.164	409.662	0.053	-0.114
-674.149	21.622	-0.344	0.285
-673.135	89.221	-0.109	-0.124
-672.120	-115.960	-0.264	0.050
-671.105	-132.640	0.135	-0.018
-670.091	-200.000	0.005	-0.259
-669.076	-67.496	-0.134	-0.054
-668.062	-200.000	0.005	0.141
-667.047	-200.000	-0.022	-0.114
-666.032	-5.721	-0.255	0.178
-665.018	-200.000	-0.003	-0.301
-664.003	22.872	0.122	-0.102
-662.989	-36.729	-0.246	0.134
-661.974	-32.610	-0.138	0.078
-660.959	20.620	-0.069	-0.057
-659.945	153.174	0.249	-0.347
-658.930	-95.090	-0.285	0.078
-657.916	-38.238	0.360	0.194
-656.901	-178.672	-0.225	-0.005
-655.886	106.449	-0.126	-0.151
-654.872	3.701	-0.161	-0.120
-653.857	1.328	0.306	0.224
-652.843	19.062	-0.094	0.077
-651.828	800.000	0.022	0.072
-650.814	-114.918	-0.086	0.017
-649.799	0.238	0.208	0.151
-648.784	800.000	0.078	0.278
-647.770	-200.000	-0.111	0.521
-646.755	-63.659	0.148	-0.062
-645.741	-54.147	-0.105	0.049
-644.726	-104.951	0.204	-0.048
-643.711	-200.000	0.010	0.169
-642.697	-79.174	0.199	0.069
-641.682	91.465	-0.180	-0.205
-640.668	254.631	0.077	0.134
-639.653	800.000	-0.065	0.249
-638.638	-196.568	0.072	-0.000
-637.624	-62.376	0.036	0.015
-636.609	-153.242	0.111	-0.008
-635.595	-67.273	0.201	-0.080
-634.580	81.230	-0.041	-0.045
-633.565	-200.000	-0.008	-0.209
-632.551	-200.000	0.069	-0.395
-631.536	800.000	-0.037	0.117
-630.522	-23.050	-0.090	0.055
-629.507	-196.810	-0.147	-0.001
-628.492	-32.533	0.234	-0.132
-627.478	-47.154	0.333	-0.165
-626.463	19.540	0.230	-0.188
-625.449	-200.000	0.023	-0.300
-624.434	226.704	0.167	-0.276
-623.419	-161.433	-0.285	-0.015
-622.405	544.686	-0.007	-0.016
-621.390	-200.000	-0.028	0.157
-620.376	323.695	0.110	0.213
-619.361	-13.752	-0.335	-0.220
-618.346	297.589	0.077	-0.144
-617.332	-64.163	0.097	0.040
-616.317	167.335	-0.164	0.237
-615.303	601.418	-0.045	0.114
-614.288	211.297	-0.253	-0.405
-613.273	800.000	0.104	-0.385
-612.259	-133.523	-0.332	-0.042
-611.244	128.777	0.206	0.267
-610.230	800.000	-0.086	0.259
-609.215	-5.037	0.108	-0.075
-608.201	-65.700	-0.223	0.091
-607.186	-79.059	-0.233	-0.081
-606.171	293.204	0.170	0.315
-605.157	-200.000	0.019	-0.236
-604.142	-157.101	0.286	-0.018
-603.128	-69.807	0.241	0.094
-602.113	345.038	0.225	0.448
-601.098	280.252	0.050	0.091
-600.084	489.631	0.098	-0.227
-599.069	384.329	-0.142	-0.297
-598.055	-171.031	0.416	0.014
-597.040	-37.908	-0.184	-0.099
-596.025	45.375	-0.286	0.268
-595.011	-53.090	0.136	0.063
-593.996	14.640	0.051	0.040
-592.982	-143.883	-0.278	0.027
-591.967	-62.113	-0.139	0.059
-590.952	-200.000	0.019	-0.118
-589.938	-13.163	-0.191	0.126
-588.923	-67.342	0.146	0.058
-587.909	-165.322	-0.161	-0.007
-586.894	71.931	0.156	-0.165
-585.879	-19.639	0.161	0.101
-584.865	207.475	0.206	-0.326
-583.850	-136.950	0.481	-0.056
-582.836	-147.338	-0.234	-0.020
-581.821	534.276	-0.086	-0.207
-580.806	16.561	-0.162	0.130
-579.792	25.679	0.295	-0.249
-578.777	-100.765	-0.183	-0.046
-577.763	115.569	-0.228	0.283
-576.748	-47.131	-0.201	0.099
-575.733	321.516	0.058	-0.113
-574.719	-200.000	-0.026	-0.312
-573.704	-200.000	-0.014	0.426
-572.690	800.000	-0.073	0.205
-571.675	-200.000	-0.056	-0.286
-570.661	-147.013	0.135	0.012
-569.646	800.000	0.056	-0.245
-568.631	-162.034	0.608	0.031
-567.617	69.609	-0.194	0.202
-566.602	-119.122	-0.177	-0.031
-565.588	-200.000	-0.014	-0.483
-564.573	701.569	0.033	0.087
-563.558	232.096	-0.141	0.235
-562.544	-120.243	0.150	-0.026
-561.529	-200.000	0.041	-0.257
-560.515	310.127	0.030	0.056
-559.500	-126.367	0.389	0.059
-558.485	84.007	-0.059	-0.065
-557.471	-200.000	-0.029	0.281
-556.456	35.599	-0.198	-0.176
-555.442	8.588	0.370	-0.283
-554.427	99.206	-0.190	-0.223
-553.412	800.000	0.050	-0.165
-552.398	196.239	-0.074	0.114
-551.383	-110.070	-0.017	0.004
-550.369	284.071	0.094	0.171
-549.354	800.000	0.056	0.162
-548.339	72.253	0.162	0.171
-547.325	115.725	-0.165	0.205
-546.310	-104.002	-0.507	0.120
-545.296	-200.000	0.062	0.292
-544.281	-200.000	0.040	0.279
-543.266	800.000	-0.041	-0.137
-542.252	-200.000	0.003	-0.033
-541.237	-200.000	-0.039	-0.306
-540.223	-63.258	-0.245	-0.102
-539.208	-133.241	0.250	-0.032
-538.193	259.150	0.189	0.330
-537.179	106.799	0.201	0.242
-536.164	-200.000	-0.000	0.117
-535.150	78.702	0.098	0.107
-534.135	-3.525	-0.255	0.180
-533.121	27.817	0.157	-0.134
-532.106	427.137	0.013	-0.028
-531.091	800.000	-0.078	-0.298
-530.077	343.861	-0.077	0.152
-529.062	117.524	-0.147	-0.183
-528.048	125.806	0.060	0.076
-527.033	-15.096	-0.255	0.166
-526.018	82.627	0.241	-0.265
-525.004	232.069	0.196	-0.325
-523.989	-39.108	0.183	0.098
-522.975	131.312	-0.190	0.247
-521.960	111.733	0.195	-0.238
-520.945	-129.282	-0.384	-0.054
-519.931	-88.426	-0.025	0.008
-518.916	159.014	-0.144	-0.202
-517.902	7.454	-0.375	0.284
-516.887	97.460	-0.145	-0.169
-515.872	800.000	0.072	-0.316
-514.858	-200.000	0.016	0.210
-513.843	-200.000	-0.018	-0.295
-512.829	14.474	-0.064	-0.051
-511.814	-130.114	-0.254	0.035
-510.799	-3.508	0.166	-0.117
-509.785	-35.787	-0.187	-0.103
-508.770	-200.000	-0.021	-0.263
-507.756	-200.000	0.016	-0.084
-506.741	800.000	-0.099	-0.308
-505.726	-2.263	-0.064	-0.046
-504.712	-61.803	0.095	-0.040
-503.697	800.000	-0.013	-0.039
-502.683	-154.859	0.410	-0.027
-501.668	-84.981	-0.212	-0.067
-500.653	-200.000	-0.003	0.224
-499.639	8.301	-0.201	-0.153
-498.624	-200.000	-0.030	-0.293
-497.610	-103.447	0.262	-0.062
-496.595	-73.332	-0.025	0.009
-495.581	-145.130	0.288	0.026
-494.566	-200.000	-0.004	-0.168
-493.551	-113.461	-0.364	0.072
-492.537	127.631	0.223	-0.286
-491.522	622.504	-0.176	-0.448
-490.508	-164.678	-0.368	-0.017
-489.493	-129.616	-0.227	-0.032
-488.478	73.570	-0.073	-0.077
-487.464	-28.372	-0.276	-0.161
-486.449	457.288	0.121	0.272
-485.435	443.300	0.086	0.190
-484.420	-184.580	0.079	0.001
-483.405	41.686	0.214	-0.196
-482.391	126.829	-0.161	-0.206
-481.376	-200.000	-0.002	-0.058
-480.362	800.000	-0.067	-0.240
-479.347	-200.000	0.006	0.247
-478.332	137.055	-0.180	0.238
-477.318	-14.287	-0.241	0.157
-476.303	-157.888	0.177	-0.011
-475.289	176.698	0.119	-0.176
-474.274	-104.823	0.258	0.060
-473.259	-84.119	-0.327	0.105
-472.245	800.000	0.082	0.308
-471.230	-200.000	0.012	-0.404
-470.216	153.651	0.084	0.116
-469.201	-47.941	0.309	-0.151
-468.186	-176.782	-0.287	0.007
-467.172	397.735	-0.078	0.166
-466.157	117.531	0.083	-0.103
-465.143	-20.509	-0.270	0.167
-464.128	-180.372	0.139	0.003
-463.113	-101.298	0.145	0.036
-462.099	185.886	-0.209	-0.314
-461.084	9.099	-0.322	-0.246
-460.070	407.335	-0.094	-0.200
-459.055	641.699	-0.036	0.092
-458.040	800.000	0.079	0.293
-457.026	800.000	0.003	0.013
-456.011	-200.000	0.017	-0.088
-454.997	-113.245	0.281	-0.056
-453.982	-200.000	-0.027	0.223
-452.968	-126.473	-0.490	-0.074
-451.953	211.433	0.143	0.227
-450.938	800.000	0.054	-0.187
-449.924	-57.292	0.138	0.061
-448.909	389.688	-0.096	0.200
-447.895	448.014	-0.064	0.142
-446.880	-109.627	-0.152	0.032
-445.865	37.530	0.143	0.128
-444.851	10.092	-0.439	-0.337
-443.836	299.276	-0.062	-0.116
-442.822	693.244	0.016	-0.044
-441.807	144.539	0.054	0.073
-440.792	589.391	-0.068	-0.170
-439.778	405.657	-0.027	-0.058
-438.763	39.720	0.307	0.278
-437.749	800.000	0.045	0.180
-436.734	-52.150	-0.188	-0.088
-435.719	-200.000	-0.025	0.263
-434.705	-200.000	-0.022	-0.302
-433.690	75.281	-0.165	-0.175
-432.676	-59.373	-0.119	0.052
-431.661	-119.300	0.120	0.021
-430.646	-200.000	0.014	0.084
-429.632	56.288	-0.117	0.114
-428.617	108.451	0.069	0.083
-427.603	-101.286	-0.358	-0.088
-426.588	360.962	-0.148	0.298
-425.573	-18.802	0.162	0.101
-424.559	118.108	0.102	-0.127
-423.544	-200.000	-0.021	-0.243
-422.530	-200.000	-0.003	-0.086
-421.515	18.822	0.110	-0.088
-420.500	-200.000	-0.004	0.194
-419.486	-156.966	-0.176	-0.011
-418.471	-72.597	-0.064	-0.024
-417.457	-200.000	0.025	0.283
-416.442	-200.000	0.003	0.181
-415.428	-140.863	0.143	0.015
-414.413	-200.000	-0.030	0.179
-413.398	-200.000	0.027	-0.193
-412.384	-125.245	0.214	-0.033
-411.369	5.452	0.148	-0.110
-410.355	-74.162	-0.056	-0.021
-409.340	-61.668	0.298	-0.126
-408.325	518.570	-0.146	0.345
-407.311	139.830	0.217	0.289
-406.296	-98.181	-0.080	0.021
-405.282	-54.613	-0.136	0.062
-404.267	127.269	-0.117	0.150
-403.252	191.421	-0.157	-0.239
-402.238	-89.835	0.215	-0.063
-401.223	-150.682	0.385	-0.030
-400.209	45.432	-0.121	-0.113
-399.194	96.826	0.116	0.134
-398.179	54.024	0.134	-0.130
-397.165	800.000	-0.027	-0.092
-396.150	-88.953	0.178	0.053
-395.136	-98.861	0.352	0.090
-394.121	-62.018	0.132	-0.055
-393.106	411.320	-0.079	-0.170
-392.092	-16.249	0.073	-0.047
-391.077	209.814	-0.255	-0.402
-390.063	-200.000	-0.018	-0.335
-389.048	-78.246	0.238	-0.082
-388.033	381.484	0.078	0.161
-387.019	89.369	-0.140	-0.158
-386.004	-6.018	0.227	-0.156
-384.990	-200.000	0.016	-0.112
-383.975	-121.237	-0.353	-0.059
-382.960	27.838	0.096	-0.082
-381.946	800.000	0.021	-0.073
-380.931	-200.000	-0.008	-0.064
-379.917	38.017	0.168	0.150
-378.902	382.370	0.139	0.288
-377.888	453.137	0.017	0.037
-376.873	-54.875	0.071	0.032
-375.858	-160.374	0.234	0.013
-374.844	-52.056	-0.223	0.104
-373.829	-89.708	0.370	0.109
-372.815	-49.918	0.135	-0.064
-371.800	-15.433	0.241	0.155
-370.785	232.897	-0.094	0.155
-369.771	-167.803	0.316	0.013
-368.756	-14.011	-0.265	0.172
-367.742	63.800	-0.127	0.128
-366.727	-57.788	0.236	0.104
-365.712	286.908	0.065	0.118
-364.698	-56.597	-0.205	0.092
-363.683	117.187	-0.170	-0.210
-362.669	15.048	-0.137	-0.108
-361.654	-76.535	-0.370	0.131
-360.639	-71.956	-0.255	-0.095
-359.625	292.476	0.139	-0.255
-358.610	184.263	0.098	-0.145
-357.596	800.000	0.026	-0.088
-356.581	472.109	-0.113	0.255
-355.566	88.031	0.088	-0.098
-354.552	800.000	0.081	-0.239
-353.537	181.396	0.180	0.266
-352.523	-52.480	-0.078	-0.036
-351.508	-147.275	0.180	-0.015
-350.493	-81.738	0.076	-0.025
-349.479	26.547	-0.290	-0.244
-348.464	46.085	0.015	0.014
-347.450	43.974	0.163	-0.150
-346.435	-119.730	-0.274	-0.048
-345.420	-200.000	0.026	-0.264
-344.406	705.802	-0.043	0.113
-343.391	-116.172	0.198	-0.037
-342.377	-79.364	0.247	0.084
-341.362	800.000	0.137	0.412
-340.348	65.060	0.146	0.148
-339.333	-80.004	0.076	0.026
-338.318	-200.000	-0.035	0.207
-337.304	-200.000	-0.005	0.066
-336.289	800.000	-0.025	0.090
-335.275	-60.048	0.214	-0.092
-334.260	7.368	0.185	-0.139
-333.245	800.000	-0.076	0.320
-332.231	-31.511	0.209	-0.118
-331.216	-140.650	0.274	0.029
-330.202	-156.284	0.048	-0.003
-329.187	-86.233	0.205	0.064
-328.172	171.091	0.093	0.134
-327.158	49.130	-0.261	0.246
-326.143	800.000	-0.060	-0.192
-325.129	800.000	-0.039	-0.155
-324.114	-200.000	-0.043	-0.229
-323.099	-101.917	0.053	0.013
-322.085	687.156	-0.037	0.098
-321.070	-16.349	0.121	-0.077
-320.056	-129.021	-0.217	-0.030
-319.041	-28.019	-0.190	0.110
-318.026	83.229	-0.050	0.054
-317.012	247.740	-0.117	0.198
-315.997	-193.626	-0.098	0.001
-314.983	-200.000	-0.030	0.174
-313.968	-200.000	0.074	0.352
-312.953	307.950	-0.135	0.253
-311.939	11.461	0.248	-0.191
-310.924	-200.000	-0.014	-0.242
-309.910	38.891	-0.214	0.192
-308.895	-14.922	0.102	-0.066
-307.880	541.968	-0.056	-0.135
-306.866	800.000	0.106	-0.296
-305.851	-42.075	-0.296	-0.152
-304.837	48.802	-0.194	-0.183
-303.822	112.877	0.232	-0.282
-302.807	-200.000	-0.041	-0.302
-301.793	-133.958	0.191	-0.024
-300.778	800.000	0.055	0.166
-299.764	582.727	0.069	-0.170
-298.749	-200.000	-0.046	-0.229
-297.735	-152.904	0.172	-0.012
-296.720	758.101	0.073	-0.197
-295.705	45.829	-0.207	0.192
-294.691	-112.378	-0.165	-0.033
-293.676	-10.088	0.034	0.023
-292.662	24.837	0.124	0.103
-291.647	-76.311	-0.194	0.069
-290.632	-5.799	0.059	0.041
-289.618	-200.000	0.028	-0.185
-288.603	8.386	-0.409	0.309
-287.589	110.196	0.034	0.041
-286.574	122.502	-0.130	-0.162
-285.559	69.956	-0.155	0.160
-284.545	0.697	-0.340	0.244
-283.530	98.351	-0.051	-0.059
-282.516	-116.045	-0.185	-0.035
-281.501	99.514	0.061	-0.071
-280.486	800.000	0.095	0.368
-279.472	78.882	0.118	0.127
-278.457	-142.086	0.224	0.022
-277.443	89.687	-0.112	-0.125
-276.428	800.000	0.141	0.428
-275.413	60.774	0.323	-0.321
-274.399	45.719	0.084	-0.077
-273.384	94.972	-0.180	0.206
-272.370	-96.372	0.182	-0.048
-271.355	100.415	-0.080	0.093
-270.340	-76.051	0.026	-0.009
-269.326	-165.857	-0.140	0.006
-268.311	301.696	0.107	-0.198
-267.297	-112.268	-0.154	0.031
-266.282	-200.000	-0.005	-0.100
-265.267	-86.212	0.021	-0.007
-264.253	-67.498	0.235	-0.093
-263.238	-68.365	-0.101	0.039
-262.224	-101.973	0.252	0.061
-261.209	186.537	0.244	0.364
-260.195	36.007	-0.105	0.093
-259.180	69.050	-0.176	0.181
-258.165	700.337	0.077	0.203
-257.151	396.316	-0.045	0.094
-256.136	13.634	0.080	-0.063
-255.122	-164.670	0.032	0.001
-254.107	290.210	-0.224	0.408
-253.092	-19.715	-0.277	-0.171
-252.078	-43.938	0.117	0.059
-251.063	379.445	-0.174	-0.357
-250.049	34.862	0.135	-0.118
-249.034	-37.479	-0.363	-0.194
-248.019	800.000	-0.026	0.111
-247.005	-200.000	-0.003	0.096
-245.990	207.519	0.344	0.538
-244.976	394.225	-0.070	-0.146
-243.961	-200.000	0.015	0.353
-242.946	-155.227	-0.236	0.015
-241.932	152.652	-0.107	0.147
-240.917	-108.695	0.168	0.036
-239.903	379.496	-0.068	0.140
-238.888	800.000	0.105	0.315
-237.873	70.255	0.094	-0.098
-236.859	-140.552	-0.462	-0.048
-235.844	2.914	-0.129	-0.094
-234.830	-129.250	-0.194	-0.027
-233.815	-172.244	-0.243	-0.008
-232.800	-200.000	0.057	0.287
-231.786	-136.507	-0.167	-0.019
-230.771	-200.000	0.020	0.157
-229.757	-23.912	-0.055	0.033
-228.742	-200.000	0.056	-0.286
-227.727	800.000	-0.045	-0.127
-226.713	-17.722	0.314	0.197
-225.698	200.014	-0.131	0.201
-224.684	159.650	-0.109	0.152
-223.669	240.595	0.148	-0.247
-222.655	-138.832	0.207	0.023
-221.640	16.239	-0.174	-0.137
-220.625	-85.700	-0.359	0.112
-219.611	-26.121	0.289	-0.170
-218.596	-200.000	-0.515	0.000
-217.582	144.201	0.118	0.157
-216.567	-126.709	-0.159	0.024
-215.552	800.000	0.096	-0.285
-214.538	-13.760	-0.063	0.040
-213.523	-185.232	0.217	-0.003
-212.509	-55.428	0.238	0.107
-211.494	77.361	0.255	0.271
-210.479	240.743	0.070	0.117
-209.465	-23.880	-0.059	-0.035
-208.450	37.319	-0.150	0.132
-207.436	28.041	0.050	0.042
-206.421	74.293	-0.088	-0.093
-205.406	18.407	0.230	0.183
-204.392	-200.000	0.059	0.351
-203.377	-33.010	-0.299	0.166
-202.363	-200.000	-0.036	0.190
-201.348	217.651	0.022	-0.035
-200.333	800.000	-0.052	0.147
-199.319	31.340	0.220	0.189
-198.304	-33.131	0.041	0.023
-197.290	-7.571	-0.126	-0.085
-196.275	22.641	0.105	0.086
-195.260	286.264	0.068	0.122
-194.246	-35.134	-0.117	-0.064
-193.231	37.580	-0.180	-0.160
-192.217	-92.674	0.078	-0.022
-191.202	-49.359	0.325	-0.155
-190.187	800.000	-0.068	0.216
-189.173	6.396	-0.076	-0.056
-188.158	-21.830	-0.283	-0.172
-187.144	-142.107	0.288	-0.029
-186.129	33.634	-0.072	-0.063
-185.114	-200.000	0.011	0.112
-184.100	77.985	-0.057	-0.060
-183.085	-31.656	0.249	-0.140
-182.071	-68.103	-0.111	0.043
-181.056	-200.000	0.002	-0.230
-180.042	168.536	-0.160	-0.227
-179.027	-75.045	-0.172	-0.061
-178.012	381.432	-0.011	0.023
-176.998	219.854	0.080	0.128
-175.983	201.641	-0.235	-0.361
-174.969	800.000	-0.139	-0.460
-173.954	473.462	0.071	0.159
-172.939	-112.588	-0.027	-0.005
-171.925	-200.000	0.020	0.255
-170.910	-66.496	-0.075	0.030
-169.896	-200.000	-0.348	-0.001
-168.881	-65.511	0.097	0.039
-167.866	-65.810	0.224	0.089
-166.852	-14.116	-0.171	-0.110
-165.837	45.923	0.126	0.116
-164.823	161.348	0.065	0.091
-163.808	-110.756	0.205	-0.042
-162.793	15.487	0.032	-0.025
-161.779	-65.513	0.175	-0.070
-160.764	65.374	0.179	-0.181
-159.750	-111.945	-0.293	-0.059
-158.735	-78.391	-0.309	0.106
-157.720	99.849	0.132	-0.153
-156.706	566.939	0.081	0.196
-155.691	-74.152	0.185	-0.067
-154.677	-177.511	0.235	-0.006
-153.662	-106.573	0.201	-0.045
-152.647	-200.000	0.018	-0.153
-151.633	-149.354	-0.115	-0.009
-150.618	-200.000	-0.014	0.219
-149.604	-200.000	0.024	0.199
-148.589	-140.546	-0.155	0.016
-147.574	-75.885	-0.163	-0.057
-146.560	28.857	0.104	-0.088
-145.545	-88.586	0.256	-0.076
-144.531	-73.501	-0.143	-0.052
-143.516	800.000	0.053	0.199
-142.502	-200.000	-0.009	0.131
-141.487	-200.000	-0.006	0.096
-140.472	-200.000	-0.019	-0.453
-139.458	-0.684	0.261	-0.184
-138.443	-200.000	0.054	-0.301
-137.429	-200.000	0.001	0.178
-136.414	27.469	0.129	-0.108
-135.399	87.569	0.206	0.227
-134.385	595.315	0.084	0.206
-133.370	-200.000	0.008	0.195
-132.356	69.000	0.083	-0.085
-131.341	-200.000	-0.013	-0.157
-130.326	-200.000	-0.007	-0.120
-129.312	800.000	0.064	0.196
-128.297	153.421	-0.088	0.121
-127.283	-79.770	-0.188	0.063
-126.268	-0.535	-0.244	-0.172
-125.253	68.163	-0.307	0.313
-124.239	375.618	0.099	0.200
-123.224	374.399	-0.068	-0.138
-122.210	-61.137	-0.595	-0.250
-121.195	27.849	0.047	-0.040
-120.180	460.396	0.119	-0.265
