DTS Sentinel unit serial number:	SN413079Multiplexer serial number:	ORYXHardware model number:	OX4-SRSoftware version number:	ORYX F/W v4.00 Oryx Data Collector v3.7.2.0data status	okinstallation	princeton_trtdifferential loss correction	single-endedforward channel	channel 1reverse channel	N/Adate	2019/09/15time	19:18:35forward acquisition time	60.00reverse acquisition time	0.00gamma	496.2192k internal	0.2297k external	0.2297temperature offset calibration	0.9957default loss term (dB/km)	0.3790temperature slope calibration	1.0000multiplexer offset coefficient	1.0000multiplexer slope coefficient	1.0000fibre end	0.00T internal ref (°C)	40.06T ext. ref 1 (°C)	7.18T ext. ref 2 (°C)	29.34length (m)	temperature (°C)	Stokes	anti-Stokes-747.200	189.561	-0.093	0.143
-746.185	-115.568	-0.260	0.050
-745.171	81.668	-0.127	0.141
-744.156	600.887	0.108	0.275
-743.142	540.654	-0.103	-0.250
-742.127	234.304	-0.164	0.275
-741.112	-94.825	0.328	-0.091
-740.098	270.844	0.078	0.141
-739.083	800.000	0.041	0.127
-738.069	65.262	-0.097	0.101
-737.054	800.000	0.064	-0.226
-736.039	-95.652	-0.093	-0.025
-735.025	-200.000	0.005	0.095
-734.010	-200.000	-0.068	0.367
-732.996	40.873	0.101	-0.093
-731.981	-19.872	-0.234	-0.148
-730.966	-28.541	-0.164	-0.097
-729.952	-89.486	-0.066	-0.020
-728.937	-200.000	-0.020	0.477
-727.923	-2.151	0.076	-0.054
-726.908	-57.079	-0.132	0.060
-725.894	194.281	-0.006	-0.009
-724.879	-200.000	-0.025	-0.199
-723.864	-42.630	-0.213	0.111
-722.850	141.924	-0.214	-0.290
-721.835	505.073	-0.071	-0.167
-720.821	-154.226	-0.223	-0.015
-719.806	104.647	-0.128	-0.154
-718.791	-197.241	0.260	0.002
-717.777	368.696	-0.053	-0.109
-716.762	-163.527	-0.539	-0.026
-715.748	177.315	-0.196	0.291
-714.733	-35.495	-0.241	-0.133
-713.718	-72.171	0.103	-0.039
-712.704	800.000	-0.026	-0.116
-711.689	405.277	0.100	-0.215
-710.675	318.826	0.101	-0.195
-709.660	255.032	0.079	-0.137
-708.645	41.099	0.188	-0.173
-707.631	-89.507	-0.058	0.017
-706.616	99.372	-0.268	-0.316
-705.602	-200.000	-0.098	-0.489
-704.587	190.403	0.106	0.162
-703.572	-117.811	-0.340	0.062
-702.558	-131.796	-0.119	0.016
-701.543	243.830	0.058	0.100
-700.529	-49.022	0.231	-0.113
-699.514	469.414	-0.044	0.100
-698.499	26.710	-0.195	-0.167
-697.485	-40.237	0.337	-0.179
-696.470	70.443	0.057	-0.060
-695.456	-107.506	0.111	0.025
-694.441	181.640	0.079	-0.118
-693.426	-71.590	-0.406	-0.154
-692.412	146.293	-0.112	-0.153
-691.397	108.918	-0.119	-0.145
-690.383	34.402	-0.302	-0.269
-689.368	-70.248	0.195	0.076
-688.354	-149.404	-0.162	0.013
-687.339	210.829	-0.188	-0.301
-686.324	103.059	0.323	0.386
-685.310	800.000	-0.012	0.045
-684.295	15.662	-0.211	-0.169
-683.281	471.820	0.090	-0.206
-682.266	-5.236	0.355	0.249
-681.251	17.104	-0.165	-0.134
-680.237	649.354	-0.032	-0.084
-679.222	377.881	0.150	-0.312
-678.208	81.604	-0.129	-0.142
-677.193	769.522	-0.131	0.362
-676.178	26.089	-0.022	-0.019
-675.164	297.071	-0.222	0.415
-674.149	-189.152	0.102	0.001
-673.135	59.782	-0.203	0.204
-672.120	-61.187	0.155	-0.067
-671.105	-200.000	-0.010	0.159
-670.091	223.627	0.109	0.180
-669.076	6.332	-0.112	0.084
-668.062	-200.000	0.046	-0.385
-667.047	-200.000	0.002	-0.225
-666.032	800.000	-0.068	-0.194
-665.018	-185.526	-0.169	0.003
-664.003	-200.000	-0.025	-0.151
-662.989	606.250	-0.043	0.110
-661.974	-159.850	0.113	-0.006
-660.959	-48.481	-0.186	0.091
-659.945	-26.020	-0.257	0.154
-658.930	-45.555	-0.236	0.119
-657.916	-87.540	0.114	0.035
-656.901	-75.197	-0.177	0.065
-655.886	-200.000	0.004	-0.043
-654.872	26.864	-0.156	-0.133
-653.857	45.645	0.198	-0.186
-652.843	-200.000	-0.008	0.072
-651.828	19.602	0.070	-0.057
-650.814	1.699	-0.201	-0.148
-649.799	213.198	-0.205	-0.330
-648.784	-167.577	0.035	0.001
-647.770	510.664	-0.118	0.280
-646.755	-200.000	0.011	0.232
-645.741	601.378	-0.088	0.221
-644.726	154.547	-0.190	-0.266
-643.711	-15.926	0.177	-0.115
-642.697	-200.000	0.009	-0.186
-641.682	-74.948	0.241	-0.088
-640.668	-63.743	-0.104	-0.043
-639.653	482.339	0.085	-0.197
-638.638	-25.973	-0.453	-0.271
-637.624	-200.000	0.112	0.000
-636.609	473.048	-0.102	0.233
-635.595	-56.099	-0.442	-0.200
-634.580	133.706	-0.133	-0.175
-633.565	-40.354	0.290	-0.153
-632.551	-200.000	-0.004	-0.172
-631.536	800.000	0.078	-0.224
-630.522	-130.429	0.035	-0.005
-629.507	83.538	-0.098	-0.109
-628.492	-174.423	0.095	0.003
-627.478	-86.519	-0.097	0.030
-626.463	125.885	-0.115	0.148
-625.449	-84.096	0.066	-0.021
-624.434	-97.428	0.213	0.056
-623.419	480.902	-0.115	0.265
-622.405	-39.522	0.280	0.149
-621.390	160.086	-0.106	0.150
-620.376	800.000	-0.030	-0.116
-619.361	102.814	0.019	0.023
-618.346	-200.000	0.037	0.210
-617.332	396.431	0.094	0.199
-616.317	-0.650	-0.121	0.087
-615.303	280.701	0.098	-0.178
-614.288	-200.000	0.043	-0.365
-613.273	63.847	-0.193	-0.197
-612.259	-69.570	0.147	0.057
-611.244	-6.954	0.178	-0.123
-610.230	-200.000	-0.006	-0.272
-609.215	75.387	-0.083	0.089
-608.201	495.368	0.061	-0.142
-607.186	-5.552	0.139	-0.097
-606.171	-200.000	0.013	-0.085
-605.157	800.000	0.079	-0.242
-604.142	68.708	-0.113	0.118
-603.128	78.489	0.241	-0.262
-602.113	-1.498	-0.122	-0.087
-601.098	120.824	0.132	0.166
-600.084	-102.325	-0.253	-0.062
-599.069	-43.440	-0.421	-0.216
-598.055	-34.455	-0.171	-0.095
-597.040	511.872	0.043	-0.103
-596.025	675.641	-0.109	-0.288
-595.011	503.523	-0.154	-0.363
-593.996	38.193	-0.123	0.111
-592.982	-79.397	-0.426	-0.146
-591.967	800.000	0.035	-0.127
-590.952	371.432	-0.197	-0.405
-589.938	-84.455	0.286	-0.092
-588.923	-104.130	-0.084	-0.020
-587.909	232.419	-0.085	-0.142
-586.894	-200.000	-0.049	0.282
-585.879	297.077	0.148	0.276
-584.865	-200.000	0.028	0.186
-583.850	-200.000	0.009	-0.182
-582.836	-200.000	0.010	0.197
-581.821	-80.342	0.011	-0.004
-580.806	-1.127	0.133	-0.096
-579.792	800.000	0.019	-0.067
-578.777	33.520	0.046	0.041
-577.763	-179.734	-0.226	-0.005
-576.748	-200.000	0.020	-0.101
-575.733	-118.663	0.122	-0.022
-574.719	332.302	-0.128	-0.250
-573.704	800.000	0.058	0.177
-572.690	-200.000	-0.013	0.212
-571.675	-185.004	-0.202	0.003
-570.661	-200.000	-0.003	0.375
-569.646	84.518	-0.300	0.333
-568.631	-162.117	0.040	-0.002
-567.617	250.613	-0.007	-0.011
-566.602	97.051	-0.147	-0.171
-565.588	-3.150	0.358	0.253
-564.573	-27.108	0.067	0.040
-563.558	48.682	0.109	0.104
-562.544	311.903	0.165	0.313
-561.529	238.537	-0.199	-0.336
-560.515	-70.138	-0.230	0.089
-559.500	-200.000	0.051	0.272
-558.485	-90.072	0.243	0.072
-557.471	266.245	-0.150	0.266
-556.456	-200.000	-0.003	-0.020
-555.442	800.000	0.025	0.105
-554.427	-110.833	0.081	-0.017
-553.412	-100.182	0.302	-0.076
-552.398	-200.000	-0.027	-0.275
-551.383	-200.000	0.002	0.070
-550.369	61.196	-0.051	0.051
-549.354	800.000	-0.114	-0.351
-548.339	96.945	0.221	-0.257
-547.325	800.000	0.049	-0.167
-546.310	351.831	-0.073	-0.147
-545.296	-200.000	0.012	-0.375
-544.281	-200.000	0.021	-0.239
-543.266	-56.554	-0.271	-0.122
-542.252	800.000	-0.090	0.252
-541.237	-170.837	0.104	-0.004
-540.223	-104.259	-0.137	0.032
-539.208	-23.152	-0.082	0.050
-538.193	-125.206	0.414	-0.064
-537.179	245.834	0.110	0.188
-536.164	114.401	0.196	-0.242
-535.150	48.500	0.088	0.083
-534.135	-92.832	-0.107	0.030
-533.121	155.314	0.113	-0.157
-532.106	363.959	0.151	-0.307
-531.091	379.125	-0.158	-0.327
-530.077	21.805	-0.183	-0.151
-529.062	99.210	0.271	-0.317
-528.048	267.844	0.091	-0.161
-527.033	167.729	-0.312	-0.449
-526.018	-118.704	-0.034	0.006
-525.004	-36.970	-0.232	0.126
-523.989	-200.000	0.105	0.497
-522.975	-143.343	0.264	0.026
-521.960	462.611	0.127	-0.287
-520.945	-112.523	0.215	0.043
-519.931	-192.563	-0.243	0.002
-518.916	-27.047	-0.221	-0.130
-517.902	97.740	-0.127	0.148
-516.887	800.000	0.017	0.049
-515.872	150.063	-0.241	-0.330
-514.858	-150.980	0.284	-0.022
-513.843	-49.292	-0.110	-0.053
-512.829	116.959	0.106	0.132
-511.814	531.215	0.055	0.132
-510.799	-15.831	-0.243	0.156
-509.785	597.535	0.123	0.309
-508.770	-67.017	0.002	0.001
-507.756	-156.648	-0.091	0.006
-506.741	50.837	-0.124	0.119
-505.726	-200.000	-0.036	0.211
-504.712	14.922	-0.270	-0.214
-503.697	482.266	-0.077	0.176
-502.683	37.975	0.250	0.225
-501.668	-200.000	-0.008	-0.057
-500.653	142.444	-0.129	0.173
-499.639	739.160	-0.093	-0.252
-498.624	-63.074	-0.343	0.143
-497.610	-200.000	0.030	-0.309
-496.595	-200.000	0.013	-0.083
-495.581	-74.984	-0.210	0.076
-494.566	442.883	0.085	0.187
-493.551	-200.000	0.027	-0.151
-492.537	14.232	-0.146	0.115
-491.522	87.016	0.154	-0.172
-490.508	118.050	0.260	-0.324
-489.493	-39.059	0.063	-0.034
-488.478	-73.136	-0.132	0.049
-487.464	50.216	0.183	-0.175
-486.449	18.804	-0.250	-0.202
-485.435	-23.956	-0.232	0.140
-484.420	-92.093	0.247	-0.071
-483.405	401.636	0.143	0.305
-482.391	-62.349	-0.228	-0.096
-481.376	78.085	0.095	0.103
-480.362	262.078	0.144	0.252
-479.347	39.269	-0.191	0.173
-478.332	800.000	-0.056	-0.215
-477.318	13.854	0.088	0.069
-476.303	-46.608	-0.043	-0.021
-475.289	800.000	0.050	-0.151
-474.274	38.208	-0.188	-0.169
-473.259	51.971	-0.173	0.166
-472.245	-156.476	0.361	-0.023
-471.230	-92.618	0.211	-0.060
-470.216	-37.747	-0.208	-0.112
-469.201	38.362	0.123	-0.110
-468.186	-61.296	0.069	-0.029
-467.172	-120.480	-0.121	0.021
-466.157	413.145	-0.163	0.351
-465.143	-101.677	-0.057	0.014
-464.128	195.670	0.179	0.276
-463.113	-146.861	0.098	0.009
-462.099	1.173	-0.064	-0.046
-461.084	227.609	0.146	0.239
-460.070	-200.000	-0.038	-0.229
-459.055	-109.267	-0.237	-0.051
-458.040	138.691	0.050	0.066
-457.026	56.440	-0.085	-0.084
-456.011	170.142	0.087	0.126
-454.997	161.285	0.124	0.175
-453.982	800.000	-0.028	0.116
-452.968	175.954	0.066	0.096
-451.953	-15.341	0.177	0.114
-450.938	-102.507	0.230	-0.055
-449.924	126.617	-0.202	0.258
-448.909	207.448	0.162	-0.256
-447.895	-200.000	-0.013	0.098
-446.880	109.821	-0.093	0.113
-445.865	-153.942	0.232	0.016
-444.851	435.093	-0.090	-0.197
-443.836	215.640	-0.101	0.162
-442.822	-48.580	0.049	-0.024
-441.807	8.018	-0.191	-0.145
-440.792	45.472	-0.358	0.334
-439.778	-168.518	-0.411	0.016
-438.763	800.000	-0.052	0.150
-437.749	-200.000	-0.016	-0.188
-436.734	2.188	0.174	0.127
-435.719	74.877	-0.154	-0.164
-434.705	423.723	0.177	0.385
-433.690	-24.180	0.111	-0.067
-432.676	155.994	0.097	-0.136
-431.661	-110.462	-0.147	-0.031
-430.646	-200.000	-0.015	0.222
-429.632	-44.613	0.252	-0.127
-428.617	-33.167	-0.369	-0.206
-427.603	-91.991	-0.189	-0.054
-426.588	800.000	-0.033	0.100
-425.573	254.860	-0.132	-0.228
-424.559	-27.529	-0.096	-0.056
-423.544	-123.035	-0.273	-0.044
-422.530	800.000	-0.018	-0.056
-421.515	592.012	0.139	-0.346
-420.500	-89.790	-0.111	0.033
-419.486	92.155	-0.087	-0.099
-418.471	-95.804	-0.069	-0.019
-417.457	43.206	0.091	-0.083
-416.442	-150.452	0.327	-0.025
-415.428	-196.519	0.291	-0.002
-414.413	102.548	-0.042	0.049
-413.398	392.022	-0.126	0.265
-412.384	95.155	0.282	0.323
-411.369	-67.699	0.151	0.060
-410.355	-16.033	-0.245	-0.157
-409.340	199.315	-0.041	-0.063
-408.325	-200.000	-0.018	0.132
-407.311	800.000	0.099	-0.300
-406.296	-11.282	0.020	-0.014
-405.282	6.304	-0.143	-0.107
-404.267	-96.695	-0.089	-0.024
-403.252	-79.262	-0.153	-0.052
-402.238	-123.679	-0.187	0.030
-401.223	-38.975	-0.353	-0.187
-400.209	-84.737	0.369	0.117
-399.194	246.278	-0.097	0.165
-398.179	135.613	0.036	0.048
-397.165	127.779	0.171	0.219
-396.150	-11.233	-0.143	0.095
-395.136	-200.000	0.053	0.321
-394.121	-106.679	0.224	-0.050
-393.106	-30.210	0.188	0.108
-392.092	-200.000	-0.014	-0.278
-391.077	-44.656	0.110	0.055
-390.063	-103.411	0.249	0.059
-389.048	-100.185	0.418	0.105
-388.033	-200.000	0.010	0.104
-387.019	-6.597	-0.173	-0.119
-386.004	511.076	0.059	-0.138
-384.990	-4.913	0.079	0.055
-383.975	-200.000	0.023	-0.120
-382.960	59.054	0.081	0.081
-381.946	800.000	-0.099	-0.343
-380.931	10.630	-0.511	-0.392
-379.917	-133.229	0.154	-0.020
-378.902	244.992	-0.048	-0.081
-377.888	-125.345	0.231	-0.035
-376.873	-126.151	-0.074	-0.011
-375.858	201.791	0.173	0.268
-374.844	800.000	0.021	0.064
-373.829	6.834	-0.131	-0.098
-372.815	664.556	-0.040	-0.104
-371.800	215.426	-0.099	-0.159
-370.785	-200.000	-0.068	-0.304
-369.771	169.168	-0.106	-0.152
-368.756	-137.892	-0.234	0.026
-367.742	31.726	0.116	0.101
-366.727	-200.000	0.015	-0.109
-365.712	-104.870	0.482	0.111
-364.698	800.000	-0.027	0.115
-363.683	-124.579	0.309	0.048
-362.669	15.077	-0.222	0.175
-361.654	-200.000	-0.059	-0.319
-360.639	-200.000	-0.006	0.210
-359.625	563.449	0.208	-0.507
-358.610	800.000	-0.089	0.254
-357.596	73.619	-0.122	0.129
-356.581	91.915	0.118	0.133
-355.566	800.000	-0.130	-0.381
-354.552	-31.202	0.362	0.205
-353.537	113.675	0.160	-0.196
-352.523	-192.015	-0.341	-0.003
-351.508	-22.308	-0.160	0.098
-350.493	-57.319	-0.105	0.047
-349.479	-200.000	-0.012	0.441
-348.464	-27.335	0.251	0.147
-347.450	-103.092	-0.058	0.014
-346.435	-178.281	0.307	0.007
-345.420	64.570	0.103	-0.105
-344.406	-144.980	0.077	-0.007
-343.391	800.000	0.059	0.240
-342.377	-83.910	-0.079	-0.025
-341.362	-5.956	-0.286	-0.197
-340.348	-62.174	-0.205	-0.086
-339.333	-101.621	-0.029	0.007
-338.318	-50.273	0.571	0.271
-337.304	-19.030	0.058	-0.036
-336.289	-23.649	0.215	0.130
-335.275	121.552	0.146	0.183
-334.260	-200.000	-0.047	0.236
-333.245	-200.000	0.011	-0.111
-332.231	-200.000	0.056	-0.295
-331.216	-125.984	-0.185	0.028
-330.202	44.278	-0.132	-0.122
-329.187	-28.636	0.227	-0.131
-328.172	-30.061	0.106	0.061
-327.158	-69.041	0.241	-0.093
-326.143	2.256	0.145	-0.105
-325.129	-200.000	-0.042	0.300
-324.114	800.000	-0.142	-0.415
-323.099	118.812	-0.364	-0.452
-322.085	271.025	0.112	-0.198
-321.070	335.460	0.113	0.220
-320.056	703.252	0.082	-0.217
-319.041	465.523	-0.077	0.174
-318.026	387.376	0.035	-0.072
-317.012	-200.000	-0.071	0.334
-315.997	77.271	-0.090	-0.096
-314.983	800.000	0.051	-0.196
-313.968	20.615	-0.062	-0.050
-312.953	-149.920	0.122	0.010
-311.939	412.537	0.097	0.206
-310.924	336.689	-0.079	-0.153
-309.910	141.429	0.149	-0.198
-308.895	-85.663	-0.034	0.011
-307.880	-200.000	-0.039	-0.193
-306.866	-107.220	0.586	0.130
-305.851	13.409	-0.206	0.160
-304.837	191.448	-0.121	-0.183
-303.822	-94.514	-0.339	-0.093
-302.807	-115.588	-0.161	-0.030
-301.793	146.225	-0.085	0.114
-300.778	-191.773	0.355	-0.004
-299.764	367.499	-0.066	0.134
-298.749	184.066	-0.121	0.179
-297.735	272.839	0.072	-0.127
-296.720	242.424	0.256	0.430
-295.705	-44.699	-0.095	-0.047
-294.691	800.000	-0.024	0.066
-293.676	-0.322	0.366	-0.261
-292.662	387.177	0.218	-0.452
-291.647	411.800	-0.054	-0.116
-290.632	-200.000	0.015	-0.443
-289.618	703.636	0.153	0.405
-288.603	-46.750	0.364	0.179
-287.589	132.338	0.166	0.214
-286.574	-15.474	0.126	0.081
-285.559	6.069	0.146	-0.109
-284.545	-83.745	-0.149	-0.048
-283.530	-200.000	0.008	-0.314
-282.516	247.229	0.104	0.176
-281.501	-65.163	0.364	-0.147
-280.486	105.671	-0.296	-0.351
-279.472	-52.738	-0.144	-0.067
-278.457	144.720	0.169	-0.226
-277.443	364.113	-0.093	-0.188
-276.428	-162.901	-0.145	-0.007
-275.413	-200.000	-0.013	-0.113
-274.399	-69.072	-0.200	-0.077
-273.384	55.702	-0.176	0.171
-272.370	342.796	-0.070	-0.137
-271.355	-200.000	0.028	0.187
-270.340	-36.484	0.108	0.058
-269.326	-24.972	-0.240	0.143
-268.311	-200.000	-0.026	-0.186
-267.297	-200.000	-0.041	-0.196
-266.282	84.697	0.038	0.042
-265.267	-27.828	0.160	0.093
-264.253	615.912	0.150	0.378
-263.238	-200.000	-0.036	-0.374
-262.224	620.549	-0.099	-0.248
-261.209	-55.977	0.174	-0.078
-260.195	496.135	-0.101	0.232
-259.180	-186.785	0.250	0.004
-258.165	800.000	0.009	0.026
-257.151	121.697	-0.206	-0.257
-256.136	-133.604	0.106	-0.013
-255.122	81.554	-0.105	0.114
-254.107	-56.171	0.224	-0.100
-253.092	266.974	0.151	0.264
-252.078	-200.000	0.019	0.219
-251.063	222.968	0.147	0.238
-250.049	800.000	-0.001	-0.003
-249.034	-167.692	0.118	0.005
-248.019	-17.693	0.110	-0.069
-247.005	-71.263	-0.276	-0.104
-245.990	53.659	0.226	0.218
-244.976	-137.346	0.139	-0.016
-243.961	-70.604	0.132	0.050
-242.946	-200.000	0.060	0.264
-241.932	144.975	-0.116	0.156
-240.917	420.809	-0.156	0.335
-239.903	-22.753	-0.104	0.063
-238.888	800.000	-0.099	0.335
-237.873	32.081	-0.097	0.084
-236.859	-122.028	0.260	0.043
-235.844	122.145	-0.060	0.074
-234.830	-0.302	-0.210	0.149
-233.815	777.739	0.068	0.187
-232.800	-20.706	-0.098	-0.060
-231.786	267.019	-0.184	-0.321
-230.771	101.783	0.116	-0.135
-229.757	800.000	0.069	-0.264
-228.742	375.999	0.116	-0.236
-227.727	-200.000	-0.002	-0.100
-226.713	-30.448	-0.235	0.133
-225.698	-22.685	-0.218	-0.132
-224.684	129.151	0.016	-0.020
-223.669	-110.398	-0.193	-0.040
-222.655	800.000	0.033	0.094
-221.640	-200.000	0.020	0.309
-220.625	800.000	-0.058	0.211
-219.611	-113.649	0.066	0.013
-218.596	288.196	0.196	0.355
-217.582	-78.406	-0.200	0.069
-216.567	-22.559	0.253	0.153
-215.552	-200.000	-0.024	0.226
-214.538	-200.000	-0.008	0.380
-213.523	340.761	0.187	0.365
-212.509	800.000	0.112	0.397
-211.494	-117.334	-0.531	0.096
-210.479	87.898	0.203	-0.225
-209.465	800.000	-0.023	0.089
-208.450	457.102	0.087	0.193
-207.436	-153.607	-0.203	0.014
-206.421	-200.000	0.002	-0.078
-205.406	-83.509	0.183	0.059
-204.392	197.279	-0.070	0.107
-203.377	108.615	-0.237	-0.283
-202.363	49.326	-0.180	-0.169
-201.348	98.140	-0.077	0.089
-200.333	-5.112	-0.196	0.135
-199.319	226.208	0.207	0.335
-198.304	162.630	-0.135	0.189
-197.290	168.722	-0.154	0.219
-196.275	214.843	-0.073	-0.115
-195.260	530.161	0.022	0.053
-194.246	-35.240	0.326	0.177
-193.231	-104.077	-0.323	-0.075
-192.217	-52.566	0.020	0.009
-191.202	800.000	0.067	0.266
-190.187	-87.143	0.116	-0.035
-189.173	-67.219	0.174	0.069
-188.158	515.710	0.077	-0.179
-187.144	800.000	-0.103	0.357
-186.129	-133.484	-0.146	-0.018
-185.114	65.217	-0.068	-0.068
-184.100	40.589	-0.120	0.108
-183.085	800.000	-0.042	0.179
-182.071	-200.000	0.039	0.332
-181.056	651.245	0.073	-0.186
-180.042	-200.000	0.209	0.001
-179.027	372.763	-0.096	-0.195
-178.012	38.344	-0.085	-0.076
-176.998	-15.318	-0.193	0.124
-175.983	133.597	-0.009	-0.011
-174.969	95.788	-0.207	-0.236
-173.954	-164.289	-0.160	-0.007
-172.939	-149.316	0.280	0.022
-171.925	193.346	0.162	0.245
-170.910	-34.963	-0.375	0.204
-169.896	-68.861	-0.149	0.058
-168.881	-58.258	-0.071	0.031
-167.866	-129.811	0.207	-0.028
-166.852	457.996	-0.033	0.074
-165.837	-114.616	0.331	0.063
-164.823	-200.000	-0.027	-0.183
-163.808	68.132	-0.103	0.105
-162.793	254.018	0.042	-0.071
-161.779	-119.907	0.264	-0.045
-160.764	800.000	0.023	0.092
-159.750	-138.022	0.265	0.029
-158.735	387.135	-0.140	0.289
-157.720	-173.480	-0.154	-0.005
-156.706	297.514	-0.172	0.316
-155.691	-200.000	-0.194	0.001
-154.677	10.144	0.208	0.158
-153.662	-74.569	0.314	-0.113
-152.647	712.701	-0.062	-0.163
-151.633	-110.889	0.261	0.054
-150.618	-151.406	0.219	0.016
-149.604	-66.774	0.186	-0.073
-148.589	-122.826	0.237	-0.038
-147.574	-32.216	-0.107	0.060
-146.560	-200.000	0.354	-0.000
-145.545	375.746	-0.140	0.286
-144.531	-16.850	-0.195	0.123
-143.516	800.000	0.047	-0.195
-142.502	89.005	0.102	0.114
-141.487	187.990	-0.088	0.131
-140.472	-94.544	0.210	-0.057
-139.458	6.916	0.367	0.272
-138.443	-10.519	0.191	-0.126
-137.429	249.161	-0.071	-0.119
-136.414	-131.269	0.309	0.041
-135.399	175.061	0.077	0.111
-134.385	144.613	0.056	0.075
-133.370	397.735	-0.123	0.257
-132.356	555.516	-0.081	-0.195
-131.341	2.457	-0.085	-0.062
-130.326	-131.094	-0.097	0.013
-129.312	426.494	-0.206	0.444
-128.297	82.531	0.244	-0.264
-127.283	310.990	0.251	0.469
-126.268	800.000	0.032	-0.096
-125.253	-100.865	-0.281	0.069
-124.239	428.707	0.078	-0.167
-123.224	800.000	0.042	0.137
-122.210	351.115	-0.204	0.403
-121.195	146.333	-0.110	-0.147
