DTS Sentinel unit serial number:	SN413079Multiplexer serial number:	ORYXHardware model number:	OX4-SRSoftware version number:	ORYX F/W v4.00 Oryx Data Collector v3.7.2.0data status	okinstallation	princeton_trtdifferential loss correction	single-endedforward channel	channel 1reverse channel	N/Adate	2019/09/16time	12:06:35forward acquisition time	60.00reverse acquisition time	0.00gamma	496.2192k internal	0.2296k external	0.2296temperature offset calibration	0.9963default loss term (dB/km)	0.3790temperature slope calibration	1.0000multiplexer offset coefficient	1.0000multiplexer slope coefficient	1.0000fibre end	0.00T internal ref (°C)	38.83T ext. ref 1 (°C)	13.20T ext. ref 2 (°C)	35.96length (m)	temperature (°C)	Stokes	anti-Stokes-747.200	-22.537	0.278	-0.172
-746.185	46.432	-0.112	0.107
-745.171	522.351	0.097	0.233
-744.156	626.317	-0.025	-0.064
-743.142	-200.000	0.005	0.134
-742.127	-39.196	0.180	-0.096
-741.112	-11.085	-0.264	-0.178
-740.098	-10.142	0.087	-0.059
-739.083	-112.823	0.384	0.078
-738.069	-200.000	-0.005	0.184
-737.054	518.115	0.125	-0.299
-736.039	-130.759	-0.401	-0.055
-735.025	800.000	0.038	0.108
-734.010	12.775	-0.126	0.100
-732.996	17.408	0.358	-0.290
-731.981	-200.000	-0.037	-0.173
-730.966	800.000	0.050	-0.160
-729.952	-200.000	0.069	-0.330
-728.937	700.188	0.094	0.254
-727.923	51.556	0.353	0.342
-726.908	100.530	-0.152	0.180
-725.894	-193.395	0.290	-0.003
-724.879	5.513	-0.235	0.177
-723.864	-200.000	-0.032	0.194
-722.850	-162.182	0.086	0.004
-721.835	800.000	0.034	0.120
-720.821	266.486	0.095	-0.169
-719.806	-13.745	-0.146	0.096
-718.791	-200.000	-0.002	-0.255
-717.777	475.197	0.061	-0.142
-716.762	-70.794	0.166	-0.064
-715.748	-85.103	0.167	0.053
-714.733	-200.000	-0.008	-0.148
-713.718	-37.963	0.205	0.111
-712.704	-111.662	-0.087	0.018
-711.689	-17.646	-0.366	-0.234
-710.675	-127.025	0.341	-0.051
-709.660	-200.000	-0.006	-0.133
-708.645	-82.221	0.274	0.091
-707.631	-17.115	-0.201	0.129
-706.616	800.000	-0.038	0.110
-705.602	75.519	-0.260	-0.280
-704.587	6.996	0.128	-0.097
-703.572	-139.822	0.158	-0.017
-702.558	-200.000	0.014	-0.078
-701.543	104.229	-0.070	-0.084
-700.529	340.632	0.120	-0.239
-699.514	-200.000	0.005	-0.106
-698.499	-73.517	0.264	-0.098
-697.485	-91.445	-0.124	-0.036
-696.470	-6.947	0.200	-0.139
-695.456	-71.733	-0.217	0.082
-694.441	-181.550	0.132	0.003
-693.426	95.708	0.127	0.148
-692.412	50.576	-0.145	-0.140
-691.397	71.037	0.159	-0.168
-690.383	27.469	0.174	-0.149
-689.368	-200.000	-0.033	-0.197
-688.354	-102.951	0.134	-0.032
-687.339	-159.211	0.253	0.014
-686.324	66.430	0.204	0.211
-685.310	256.549	-0.158	-0.277
-684.295	-200.000	0.045	0.439
-683.281	6.988	-0.059	-0.045
-682.266	-136.664	-0.279	-0.033
-681.251	-127.795	-0.053	0.008
-680.237	-73.715	0.077	-0.029
-679.222	-17.320	0.179	-0.115
-678.208	-90.200	0.307	-0.091
-677.193	-47.367	0.114	0.057
-676.178	48.387	-0.079	-0.075
-675.164	104.397	-0.221	-0.265
-674.149	337.687	0.118	0.234
-673.135	-34.926	-0.180	0.100
-672.120	1.863	0.183	-0.134
-671.105	174.885	0.076	0.112
-670.091	800.000	-0.135	-0.402
-669.076	-200.000	-0.028	0.177
-668.062	73.265	-0.230	-0.245
-667.047	151.316	-0.264	-0.366
-666.032	800.000	0.056	-0.186
-665.018	-39.593	0.162	0.087
-664.003	-200.000	0.023	-0.223
-662.989	143.223	-0.201	-0.272
-661.974	666.583	-0.047	0.124
-660.959	-23.065	-0.292	-0.179
-659.945	4.977	0.176	0.132
-658.930	-93.829	-0.123	0.034
-657.916	-47.498	-0.079	0.039
-656.901	-0.076	-0.265	0.192
-655.886	800.000	0.062	-0.195
-654.872	31.764	0.161	-0.141
-653.857	480.914	-0.118	-0.273
-652.843	-80.451	-0.443	-0.150
-651.828	-48.667	-0.160	0.078
-650.814	800.000	-0.073	0.288
-649.799	55.076	-0.091	0.090
-648.784	30.267	-0.042	-0.036
-647.770	-200.000	-0.025	0.119
-646.755	-117.937	0.113	-0.021
-645.741	-148.163	-0.020	-0.002
-644.726	-98.794	-0.200	0.052
-643.711	230.463	0.206	0.343
-642.697	-139.779	-0.272	0.029
-641.682	-117.980	-0.439	-0.080
-640.668	-22.218	0.428	0.264
-639.653	-102.461	-0.106	-0.026
-638.638	410.068	-0.094	-0.202
-637.624	800.000	0.061	0.213
-636.609	-48.496	-0.229	0.112
-635.595	178.399	0.082	-0.121
-634.580	105.598	-0.313	-0.376
-633.565	-81.838	-0.455	0.152
-632.551	-178.600	0.192	-0.005
-631.536	-164.440	0.149	0.007
-630.522	-100.514	-0.118	-0.030
-629.507	-19.863	-0.508	-0.319
-628.492	9.375	0.130	-0.100
-627.478	275.808	-0.049	-0.088
-626.463	-89.331	-0.089	0.027
-625.449	-56.797	-0.282	0.127
-624.434	-157.756	0.073	0.004
-623.419	516.037	0.027	-0.065
-622.405	87.193	0.255	0.286
-621.390	-101.480	-0.296	0.073
-620.376	-76.825	0.292	-0.104
-619.361	-88.253	-0.211	-0.064
-618.346	-34.046	0.205	-0.114
-617.332	525.266	-0.090	0.214
-616.317	425.884	-0.142	-0.311
-615.303	-193.733	0.109	-0.001
-614.288	-142.241	-0.110	0.011
-613.273	-200.000	0.015	-0.273
-612.259	198.669	0.274	0.426
-611.244	114.123	0.135	0.166
-610.230	-32.413	-0.226	0.128
-609.215	-200.000	-0.012	0.156
-608.201	24.478	-0.214	0.180
-607.186	-158.577	0.210	0.012
-606.171	-113.840	-0.289	0.057
-605.157	17.504	-0.230	0.186
-604.142	800.000	-0.051	0.156
-603.128	18.139	-0.362	-0.294
-602.113	83.838	-0.130	0.144
-601.098	42.158	-0.202	-0.187
-600.084	-79.580	0.038	0.013
-599.069	202.298	0.055	0.085
-598.055	-61.956	-0.274	0.116
-597.040	-78.801	0.173	0.060
-596.025	-200.000	-0.010	-0.405
-595.011	36.673	0.179	-0.160
-593.996	-139.543	0.283	0.031
-592.982	683.300	-0.084	0.224
-591.967	-105.445	-0.218	0.050
-590.952	138.323	0.146	-0.194
-589.938	-191.857	-0.100	0.001
-588.923	-141.473	-0.253	-0.026
-587.909	-84.064	-0.166	0.054
-586.894	-71.398	0.430	0.163
-585.879	-134.847	-0.085	0.010
-584.865	-200.000	-0.069	0.360
-583.850	-28.426	0.283	0.166
-582.836	-145.365	-0.173	0.016
-581.821	61.122	-0.245	0.247
-580.806	-142.522	0.033	-0.003
-579.792	-200.000	-0.009	0.049
-578.777	235.033	-0.041	-0.069
-577.763	800.000	-0.060	-0.250
-576.748	-120.418	-0.100	0.017
-575.733	-19.657	-0.191	0.120
-574.719	64.022	0.087	-0.088
-573.704	498.733	-0.042	-0.097
-572.690	-200.000	-0.004	-0.108
-571.675	-134.709	0.157	0.019
-570.661	125.703	0.017	0.022
-569.646	-113.468	0.232	0.046
-568.631	-40.295	-0.237	-0.125
-567.617	-200.000	0.020	0.133
-566.602	106.537	-0.165	-0.198
-565.588	-200.000	-0.025	-0.196
-564.573	-200.000	-0.018	-0.430
-563.558	508.429	0.057	0.134
-562.544	-163.902	-0.246	-0.012
-561.529	53.409	-0.123	0.119
-560.515	65.053	-0.159	-0.163
-559.500	-200.000	0.024	-0.213
-558.485	12.732	0.113	-0.089
-557.471	348.521	0.068	0.137
-556.456	218.657	0.182	0.296
-555.442	298.585	0.068	0.127
-554.427	-140.047	-0.080	0.009
-553.412	-16.618	-0.351	-0.225
-552.398	455.621	-0.060	-0.135
-551.383	-45.295	0.057	0.029
-550.369	413.956	-0.118	-0.255
-549.354	800.000	-0.048	-0.140
-548.339	335.354	0.059	0.117
-547.325	-200.000	-0.012	-0.088
-546.310	-200.000	0.038	-0.225
-545.296	144.406	0.169	0.229
-544.281	-24.112	-0.126	0.076
-543.266	-200.000	-0.152	0.681
-542.252	411.434	0.215	0.462
-541.237	-98.682	0.038	-0.010
-540.223	-13.559	-0.200	-0.131
-539.208	800.000	0.083	-0.296
-538.193	800.000	0.041	-0.174
-537.179	-113.583	0.266	-0.053
-536.164	-145.236	0.151	-0.014
-535.150	-200.000	0.034	0.209
-534.135	585.932	-0.134	0.334
-533.121	-200.000	-0.090	-0.416
-532.106	-16.053	0.296	0.191
-531.091	16.012	0.114	-0.091
-530.077	-69.218	-0.071	-0.028
-529.062	-116.761	-0.294	-0.055
-528.048	800.000	-0.087	-0.325
-527.033	148.870	0.165	-0.226
-526.018	-31.874	0.115	-0.065
-525.004	-114.072	0.248	0.049
-523.989	-177.076	0.209	0.005
-522.975	-23.948	-0.295	-0.179
-521.960	32.425	0.255	-0.223
-520.945	-46.775	-0.199	-0.098
-519.931	-180.450	-0.174	0.004
-518.916	156.895	-0.102	-0.143
-517.902	-200.000	0.040	-0.275
-516.887	800.000	-0.054	0.156
-515.872	58.892	-0.047	-0.047
-514.858	82.623	0.208	0.229
-513.843	27.469	-0.053	-0.045
-512.829	-200.000	0.029	0.224
-511.814	191.096	0.251	-0.382
-510.799	124.019	0.132	0.167
-509.785	800.000	0.071	0.280
-508.770	-200.000	-0.044	-0.421
-507.756	-72.914	-0.220	0.082
-506.741	-48.345	0.253	0.123
-505.726	140.384	-0.113	0.150
-504.712	800.000	-0.094	-0.283
-503.697	80.837	0.055	-0.060
-502.683	13.444	0.249	-0.195
-501.668	-200.000	0.004	-0.385
-500.653	800.000	-0.090	-0.344
-499.639	-100.777	-0.292	0.073
-498.624	124.476	-0.144	0.184
-497.610	-200.000	0.175	-0.000
-496.595	66.377	-0.266	0.274
-495.581	-200.000	0.040	0.190
-494.566	-6.383	0.122	-0.084
-493.551	-130.259	0.340	-0.047
-492.537	208.131	-0.233	-0.368
-491.522	-200.000	-0.082	-0.409
-490.508	-8.032	-0.266	0.181
-489.493	-37.350	0.314	0.170
-488.478	-50.513	0.079	0.038
-487.464	-200.000	-0.000	-0.107
-486.449	-200.000	-0.036	0.172
-485.435	206.498	-0.078	-0.122
-484.420	9.208	0.127	-0.097
-483.405	800.000	-0.094	-0.325
-482.391	-200.000	-0.017	-0.284
-481.376	257.611	-0.108	-0.188
-480.362	198.482	0.148	0.229
-479.347	-32.020	0.185	0.105
-478.332	-200.000	0.027	-0.288
-477.318	-28.050	0.048	-0.028
-476.303	-81.507	-0.149	-0.049
-475.289	-200.000	-0.033	0.237
-474.274	-67.969	-0.162	-0.064
-473.259	-200.000	0.045	0.561
-472.245	115.224	-0.054	0.067
-471.230	344.816	-0.140	0.278
-470.216	93.817	-0.146	-0.167
-469.201	21.553	0.088	-0.072
-468.186	132.417	0.032	0.042
-467.172	-153.627	0.355	0.025
-466.157	533.558	0.146	0.350
-465.143	-22.535	0.230	-0.140
-464.128	-4.113	-0.159	-0.111
-463.113	-135.046	0.231	-0.028
-462.099	800.000	-0.059	-0.227
-461.084	800.000	-0.034	-0.113
-460.070	-200.000	0.044	-0.285
-459.055	-116.346	0.229	-0.043
-458.040	729.090	-0.077	-0.206
-457.026	475.144	0.100	-0.229
-456.011	56.064	-0.165	0.162
-454.997	44.641	-0.111	0.103
-453.982	-200.000	0.006	-0.058
-452.968	800.000	-0.062	-0.178
-451.953	297.496	-0.070	0.129
-450.938	800.000	-0.122	-0.439
-449.924	186.766	-0.146	-0.220
-448.909	-161.992	0.139	0.007
-447.895	169.502	-0.236	0.341
-446.880	-104.125	-0.347	0.082
-445.865	-200.000	0.004	-0.374
-444.851	-200.000	0.032	-0.185
-443.836	800.000	-0.073	-0.223
-442.822	-72.776	-0.021	-0.008
-441.807	-149.015	0.111	0.009
-440.792	54.931	-0.148	0.145
-439.778	-164.882	-0.163	0.007
-438.763	270.312	0.153	-0.272
-437.749	-25.034	0.331	0.198
-436.734	-200.000	0.011	0.159
-435.719	83.521	-0.079	0.087
-434.705	217.384	-0.084	-0.135
-433.690	-109.102	0.138	-0.030
-432.676	180.779	-0.099	-0.146
-431.661	-2.659	0.231	0.163
-430.646	80.880	-0.135	0.147
-429.632	209.153	0.024	-0.039
-428.617	641.502	0.089	-0.229
-427.603	-200.000	0.007	-0.321
-426.588	-4.404	-0.122	0.085
-425.573	-166.147	0.255	0.011
-424.559	-31.734	0.187	0.106
-423.544	-200.000	-0.036	-0.223
-422.530	261.128	0.146	-0.255
-421.515	-104.587	0.171	0.040
-420.500	-18.024	0.368	0.233
-419.486	-79.282	0.240	-0.082
-418.471	-91.064	-0.010	-0.003
-417.457	644.620	0.116	0.299
-416.442	105.602	0.104	-0.123
-415.428	770.275	0.098	0.270
-414.413	490.660	-0.016	-0.038
-413.398	18.849	-0.168	0.136
-412.384	350.322	-0.021	0.042
-411.369	278.074	-0.056	0.101
-410.355	-200.000	0.003	-0.188
-409.340	800.000	-0.109	-0.329
-408.325	473.872	0.041	0.094
-407.311	-6.413	-0.053	-0.037
-406.296	-5.485	-0.220	0.152
-405.282	197.273	0.110	0.170
-404.267	-37.346	0.239	0.129
-403.252	339.406	-0.250	0.490
-402.238	31.099	0.184	-0.159
-401.223	-150.137	0.275	0.021
-400.209	-200.000	0.024	-0.192
-399.194	-98.747	-0.189	-0.048
-398.179	-21.688	-0.163	0.100
-397.165	-34.217	0.334	0.185
-396.150	-200.000	-0.004	0.133
-395.136	-200.000	0.002	0.020
-394.121	-21.522	-0.149	0.091
-393.106	-125.580	0.341	0.052
-392.092	-83.508	-0.210	0.068
-391.077	39.903	-0.071	0.064
-390.063	1.139	-0.252	0.182
-389.048	182.477	0.155	0.231
-388.033	109.451	-0.087	-0.105
-387.019	-170.685	0.300	-0.010
-386.004	-200.000	-0.003	-0.085
-384.990	-70.368	0.210	-0.080
-383.975	-150.262	-0.184	-0.014
-382.960	101.424	-0.152	0.178
-381.946	1.108	0.182	-0.132
-380.931	-200.000	0.026	-0.179
-379.917	-72.212	0.220	-0.082
-378.902	-104.129	-0.236	-0.055
-377.888	52.273	0.173	-0.166
-376.873	31.948	0.177	0.154
-375.858	-153.889	0.193	-0.013
-374.844	362.954	-0.143	-0.290
-373.829	87.089	0.214	0.238
-372.815	-200.000	0.021	0.297
-371.800	331.981	-0.128	0.248
-370.785	34.573	0.114	0.100
-369.771	-31.136	0.232	-0.132
-368.756	-134.653	0.343	-0.042
-367.742	-89.841	-0.251	-0.074
-366.727	800.000	-0.047	0.139
-365.712	70.186	0.113	-0.117
-364.698	-123.847	0.206	-0.033
-363.683	-69.812	-0.220	0.084
-362.669	-145.994	-0.270	0.024
-361.654	540.106	-0.062	-0.149
-360.639	-200.000	0.012	-0.172
-359.625	800.000	-0.067	0.241
-358.610	34.113	0.273	-0.240
-357.596	320.838	-0.083	-0.160
-356.581	46.246	0.132	0.123
-355.566	129.230	-0.027	0.034
-354.552	-82.252	0.146	-0.048
-353.537	45.320	-0.007	-0.007
-352.523	-62.597	-0.280	-0.117
-351.508	-2.544	0.176	-0.124
-350.493	-78.914	-0.148	-0.051
-349.479	800.000	-0.047	-0.170
-348.464	-167.147	-0.161	-0.007
-347.450	-57.532	0.195	0.086
-346.435	-33.284	-0.119	0.066
-345.420	-38.906	0.235	-0.124
-344.406	-78.517	0.096	0.033
-343.391	800.000	0.067	0.207
-342.377	-200.000	-0.025	-0.253
-341.362	-200.000	-0.042	-0.393
-340.348	-105.716	-0.092	0.021
-339.333	22.401	0.315	0.259
-338.318	-71.852	0.311	0.117
-337.304	-200.000	-0.035	0.205
-336.289	-28.136	0.203	-0.118
-335.275	-108.658	-0.103	0.022
-334.260	800.000	0.064	-0.234
-333.245	-200.000	0.002	-0.138
-332.231	-61.580	0.217	-0.092
-331.216	-178.916	0.244	-0.006
-330.202	800.000	-0.047	-0.192
-329.187	354.426	0.050	0.100
-328.172	438.494	-0.029	0.064
-327.158	800.000	0.058	0.191
-326.143	94.099	-0.102	-0.116
-325.129	-88.173	-0.129	-0.039
-324.114	54.713	-0.136	-0.132
-323.099	-90.462	0.191	0.055
-322.085	433.075	0.074	0.161
-321.070	110.605	-0.219	0.264
-320.056	-173.765	0.091	-0.003
-319.041	-147.385	0.224	-0.019
-318.026	-200.000	-0.003	-0.132
-317.012	-127.246	0.260	-0.038
-315.997	76.276	-0.110	0.117
-314.983	-51.713	0.110	0.051
-313.968	-200.000	-0.048	-0.307
-312.953	510.410	0.198	-0.464
-311.939	790.140	-0.161	-0.445
-310.924	-200.000	-0.023	-0.268
-309.910	-200.000	-0.018	-0.113
-308.895	239.337	-0.076	-0.128
-307.880	-97.176	0.140	-0.037
-306.866	800.000	-0.158	0.455
-305.851	-146.955	-0.164	-0.014
-304.837	-200.000	0.080	0.449
-303.822	750.748	-0.009	0.024
-302.807	-200.000	-0.017	0.148
-301.793	216.087	0.058	0.093
-300.778	-121.495	0.330	-0.055
-299.764	8.524	-0.248	0.188
-298.749	-200.000	0.008	-0.267
-297.735	-200.000	0.000	-0.019
-296.720	39.846	-0.163	-0.147
-295.705	-62.497	0.608	-0.253
-294.691	-54.584	-0.262	-0.119
-293.676	-89.781	-0.073	-0.021
-292.662	-97.900	0.111	0.029
-291.647	-131.779	-0.024	-0.003
-290.632	-28.191	0.185	-0.107
-289.618	-11.572	0.132	0.087
-288.603	-200.000	-0.012	0.156
-287.589	-137.194	-0.267	-0.030
-286.574	-130.888	0.422	-0.057
-285.559	73.425	0.265	0.278
-284.545	189.097	-0.025	0.038
-283.530	-200.000	-0.030	0.255
-282.516	100.021	0.109	0.126
-281.501	-40.180	-0.196	-0.102
-280.486	-124.804	0.139	0.021
-279.472	-42.598	0.231	-0.118
-278.457	378.550	0.141	0.289
-277.443	422.360	-0.077	0.167
-276.428	-112.325	0.067	0.013
-275.413	-41.568	-0.165	0.085
-274.399	-200.000	-0.019	0.093
-273.384	-68.705	0.143	-0.056
-272.370	-200.000	0.010	0.088
-271.355	7.899	-0.010	-0.008
-270.340	612.753	-0.089	-0.223
-269.326	-103.978	-0.124	0.029
-268.311	-131.459	0.154	-0.020
-267.297	18.198	-0.231	0.185
-266.282	-107.263	0.154	0.034
-265.267	-200.000	-0.035	-0.219
-264.253	100.622	-0.357	0.416
-263.238	313.389	-0.049	0.092
-262.224	-67.702	0.099	0.039
-261.209	800.000	-0.073	0.272
-260.195	-118.425	0.153	-0.027
-259.180	130.768	-0.156	-0.201
-258.165	-148.024	0.049	0.004
-257.151	800.000	-0.089	0.268
-256.136	-77.742	0.260	0.090
-255.122	-200.000	0.047	0.257
-254.107	-52.894	-0.188	0.087
-253.092	-127.793	-0.226	-0.033
-252.078	-69.962	0.126	-0.048
-251.063	-200.000	-0.013	0.264
-250.049	-86.463	-0.096	0.030
-249.034	-200.000	0.029	0.178
-248.019	-151.645	0.302	-0.022
-247.005	-8.681	-0.064	-0.043
-245.990	32.770	0.127	0.110
-244.976	-141.688	-0.062	-0.006
-243.961	-154.411	-0.113	-0.008
-242.946	-67.404	0.406	0.160
-241.932	-43.631	0.092	-0.046
-240.917	111.988	-0.096	-0.116
-239.903	-53.873	0.154	0.070
-238.888	51.886	0.122	0.116
-237.873	800.000	0.129	-0.429
-236.859	-135.656	0.218	0.026
-235.844	-19.448	-0.162	0.101
-234.830	-58.134	0.152	-0.066
-233.815	-200.000	0.021	0.145
-232.800	52.167	-0.059	-0.056
-231.786	142.487	-0.152	0.202
-230.771	105.668	-0.079	0.093
-229.757	-200.000	-0.050	0.246
-228.742	112.537	0.267	-0.323
-227.727	92.415	0.029	0.033
-226.713	523.849	-0.065	-0.154
-225.698	186.488	0.162	-0.241
-224.684	-151.004	0.135	0.010
-223.669	800.000	0.059	0.185
-222.655	-200.000	0.020	0.356
-221.640	-29.356	-0.341	0.196
-220.625	17.668	0.224	0.179
-219.611	-200.000	-0.001	0.161
-218.596	-58.623	-0.109	0.047
-217.582	-19.848	-0.159	-0.098
-216.567	-171.872	0.312	0.010
-215.552	-77.377	0.323	-0.112
-214.538	-82.445	0.177	0.058
-213.523	-60.911	-0.422	0.179
-212.509	69.812	-0.183	-0.189
-211.494	432.039	0.135	-0.293
-210.479	-200.000	-0.025	0.226
-209.465	-200.000	0.031	0.225
-208.450	-73.478	0.131	0.048
-207.436	181.707	0.111	-0.163
-206.421	288.223	-0.076	-0.137
-205.406	-200.000	0.025	-0.130
-204.392	-111.683	-0.495	0.100
-203.377	800.000	0.056	0.235
-202.363	477.036	0.055	-0.126
-201.348	-38.944	-0.264	-0.139
-200.333	520.612	-0.049	-0.116
-199.319	-27.055	-0.180	-0.105
-198.304	800.000	0.025	-0.108
-197.290	175.027	0.022	0.032
-196.275	800.000	-0.035	-0.112
-195.260	-200.000	0.026	-0.138
-194.246	-84.964	-0.275	-0.086
-193.231	-65.595	0.137	-0.055
-192.217	17.638	0.220	0.175
-191.202	-161.949	-0.098	-0.005
-190.187	-146.127	-0.392	-0.034
-189.173	15.778	-0.375	0.295
-188.158	50.306	0.138	-0.130
-187.144	-200.000	-0.020	-0.352
-186.129	140.374	0.091	0.120
-185.114	298.439	-0.120	0.221
-184.100	2.764	-0.160	0.116
-183.085	-200.000	0.048	-0.294
-182.071	-200.000	0.061	-0.366
-181.056	249.435	0.064	0.108
-180.042	62.867	-0.174	-0.174
-179.027	190.038	-0.175	0.262
-178.012	800.000	0.086	-0.243
-176.998	-156.511	-0.216	-0.013
-175.983	-26.966	-0.134	-0.078
-174.969	47.000	-0.225	0.209
-173.954	1.359	-0.172	0.123
-172.939	-200.000	-0.025	0.221
-171.925	-77.911	-0.138	0.048
-170.910	-131.546	-0.102	0.013
-169.896	800.000	-0.046	0.196
-168.881	-45.302	-0.181	-0.090
-167.866	-200.000	0.008	0.051
-166.852	-44.194	-0.177	0.089
-165.837	-200.000	0.133	0.001
-164.823	229.839	0.051	-0.084
-163.808	-200.000	0.070	0.521
-162.793	-137.690	0.054	0.006
-161.779	800.000	-0.043	0.183
-160.764	-195.561	-0.379	0.003
-159.750	220.312	-0.089	0.142
-158.735	-67.140	0.051	0.020
-157.720	-27.808	0.274	-0.158
-156.706	-200.000	0.057	0.321
-155.691	-47.046	-0.273	-0.133
-154.677	-28.735	0.060	-0.035
-153.662	564.901	-0.028	-0.067
-152.647	0.460	-0.199	0.142
-151.633	-88.057	0.513	-0.154
-150.618	-79.073	-0.187	0.063
-149.604	116.351	-0.152	-0.186
-148.589	-50.242	0.122	0.058
-147.574	-51.413	-0.215	-0.100
-146.560	-5.130	0.088	0.060
-145.545	-90.423	0.194	0.056
-144.531	25.431	0.222	0.184
-143.516	-77.599	0.253	-0.087
-142.502	86.427	-0.038	0.042
-141.487	800.000	0.089	0.376
-140.472	-30.033	0.117	-0.067
-139.458	8.975	-0.153	-0.115
-138.443	-49.395	-0.368	0.175
-137.429	86.936	0.170	-0.187
-136.414	106.491	0.102	-0.121
-135.399	253.197	0.080	0.136
-134.385	-143.620	-0.227	0.021
-133.370	42.446	0.117	0.106
-132.356	-200.000	0.019	0.295
-131.341	-168.737	-0.127	-0.005
-130.326	800.000	-0.084	0.362
-129.312	-39.100	-0.152	0.080
-128.297	-75.530	-0.438	0.156
-127.283	76.260	-0.054	0.057
-126.268	-200.000	-0.004	-0.198
-125.253	-39.801	0.186	-0.097
-124.239	50.356	-0.084	-0.079
-123.224	-102.932	-0.115	-0.027
-122.210	632.166	0.033	0.082
