DTS Sentinel unit serial number:	SN413079Multiplexer serial number:	ORYXHardware model number:	OX4-SRSoftware version number:	ORYX F/W v4.00 Oryx Data Collector v3.7.2.0data status	okinstallation	princeton_trtdifferential loss correction	single-endedforward channel	channel 1reverse channel	N/Adate	2019/09/16time	16:54:35forward acquisition time	60.00reverse acquisition time	0.00gamma	496.2192k internal	0.2296k external	0.2296temperature offset calibration	0.9960default loss term (dB/km)	0.3790temperature slope calibration	1.0000multiplexer offset coefficient	1.0000multiplexer slope coefficient	1.0000fibre end	0.00T internal ref (°C)	39.45T ext. ref 1 (°C)	15.25T ext. ref 2 (°C)	33.75length (m)	temperature (°C)	Stokes	anti-Stokes-747.200	60.206	-0.135	0.136
-746.185	105.372	-0.014	0.016
-745.171	-68.837	0.350	-0.138
-744.156	-200.000	0.014	-0.306
-743.142	-74.073	-0.184	0.068
-742.127	188.386	-0.204	0.311
-741.112	-200.000	-0.014	-0.291
-740.098	-44.789	-0.340	0.173
-739.083	-165.986	0.152	0.007
-738.069	60.821	-0.377	0.382
-737.054	608.172	-0.085	-0.217
-736.039	-114.527	-0.065	-0.013
-735.025	-200.000	0.005	0.127
-734.010	800.000	-0.065	-0.189
-732.996	50.611	0.151	0.145
-731.981	193.345	0.084	0.129
-730.966	-128.080	0.242	-0.035
-729.952	-200.000	-0.171	0.000
-728.937	39.740	-0.245	0.224
-727.923	106.687	0.179	0.217
-726.908	-200.000	-0.022	0.241
-725.894	-164.195	-0.268	-0.013
-724.879	-200.000	0.020	-0.390
-723.864	800.000	-0.028	-0.118
-722.850	747.887	-0.036	-0.099
-721.835	202.794	-0.284	-0.448
-720.821	-21.408	-0.354	-0.221
-719.806	36.063	0.130	0.117
-718.791	-37.248	0.324	-0.177
-717.777	108.376	0.215	0.261
-716.762	800.000	0.102	-0.345
-715.748	-148.800	-0.415	0.034
-714.733	-200.000	0.013	-0.091
-713.718	-99.051	0.146	0.038
-712.704	197.573	0.171	-0.267
-711.689	800.000	-0.065	0.202
-710.675	169.398	0.033	0.048
-709.660	116.592	-0.068	-0.085
-708.645	-24.147	-0.066	-0.040
-707.631	800.000	0.003	0.009
-706.616	-41.695	0.164	-0.086
-705.602	-200.000	0.043	-0.193
-704.587	-200.000	0.022	-0.199
-703.572	710.129	-0.046	-0.124
-702.558	4.245	0.312	0.233
-701.543	-37.918	-0.292	0.158
-700.529	-111.451	-0.251	-0.052
-699.514	375.942	-0.072	-0.149
-698.499	-81.787	0.168	-0.056
-697.485	800.000	0.064	0.262
-696.470	-79.025	-0.435	0.151
-695.456	-97.632	0.176	-0.046
-694.441	157.135	0.127	-0.179
-693.426	515.904	0.060	0.144
-692.412	-133.632	-0.139	0.018
-691.397	-136.862	0.015	-0.002
-690.383	36.478	-0.181	0.163
-689.368	219.962	-0.128	0.208
-688.354	800.000	0.014	0.062
-687.339	-200.000	-0.015	-0.144
-686.324	214.399	0.037	-0.060
-685.310	-200.000	-0.042	0.205
-684.295	150.650	0.056	-0.078
-683.281	428.483	0.063	0.138
-682.266	-200.000	0.032	-0.220
-681.251	-200.000	-0.000	0.214
-680.237	215.349	0.106	-0.171
-679.222	-111.630	-0.401	-0.083
-678.208	105.341	0.230	-0.277
-677.193	-22.936	0.198	0.122
-676.178	-131.973	0.234	0.031
-675.164	287.991	-0.072	0.132
-674.149	170.776	0.215	-0.313
-673.135	242.893	0.125	0.214
-672.120	800.000	0.121	0.348
-671.105	-200.000	-0.006	-0.167
-670.091	-41.214	0.037	-0.019
-669.076	177.234	-0.080	-0.119
-668.062	182.808	0.209	-0.314
-667.047	-200.000	-0.032	-0.367
-666.032	497.383	0.084	-0.197
-665.018	-199.074	-0.376	0.002
-664.003	800.000	-0.046	-0.160
-662.989	-149.014	-0.245	-0.020
-661.974	-108.902	-0.304	0.066
-660.959	-53.951	-0.292	0.136
-659.945	-54.871	0.292	-0.134
-658.930	0.866	-0.089	-0.065
-657.916	620.062	0.074	-0.188
-656.901	-180.249	-0.195	-0.004
-655.886	-106.967	0.157	-0.035
-654.872	-141.778	-0.144	0.015
-653.857	-200.000	-0.063	0.326
-652.843	800.000	-0.011	0.037
-651.828	-17.217	-0.317	-0.203
-650.814	-131.270	-0.104	0.014
-649.799	112.733	0.287	-0.353
-648.784	211.748	0.206	-0.330
-647.770	217.138	0.095	-0.153
-646.755	19.513	-0.112	0.092
-645.741	-31.003	-0.078	0.045
-644.726	800.000	-0.099	-0.423
-643.711	32.012	-0.102	0.089
-642.697	151.080	0.041	0.057
-641.682	800.000	-0.109	0.429
-640.668	-96.245	-0.082	0.022
-639.653	19.807	-0.176	-0.144
-638.638	4.530	-0.233	0.174
-637.624	182.642	-0.083	0.124
-636.609	-29.955	-0.364	0.211
-635.595	-16.995	0.387	-0.249
-634.580	398.320	0.154	-0.327
-633.565	206.573	0.056	-0.088
-632.551	-64.558	0.078	0.032
-631.536	-200.000	-0.013	-0.235
-630.522	-83.364	0.334	0.109
-629.507	-52.169	0.119	-0.056
-628.492	-11.145	-0.326	-0.219
-627.478	19.288	-0.014	0.012
-626.463	152.473	-0.032	0.044
-625.449	-200.000	-0.009	-0.216
-624.434	272.842	-0.260	0.467
-623.419	215.397	-0.167	0.269
-622.405	167.787	0.075	0.109
-621.390	310.983	0.154	-0.294
-620.376	-200.000	-0.049	0.265
-619.361	58.044	-0.120	0.120
-618.346	645.710	0.094	0.244
-617.332	498.958	-0.096	0.226
-616.317	20.184	0.314	0.257
-615.303	526.214	-0.059	0.142
-614.288	-159.993	-0.150	-0.008
-613.273	185.808	-0.124	0.188
-612.259	800.000	-0.076	-0.318
-611.244	123.058	0.035	0.045
-610.230	27.266	0.354	0.302
-609.215	-126.612	-0.089	-0.013
-608.201	-200.000	0.035	-0.180
-607.186	-200.000	-0.032	-0.264
-606.171	184.827	-0.064	-0.096
-605.157	-24.102	-0.054	-0.033
-604.142	-15.997	-0.218	-0.141
-603.128	-7.107	-0.246	-0.170
-602.113	-38.713	0.010	0.005
-601.098	235.073	-0.070	0.117
-600.084	436.018	-0.010	0.021
-599.069	384.480	0.018	0.037
-598.055	261.693	-0.151	0.265
-597.040	-200.000	-0.022	0.283
-596.025	296.085	-0.064	-0.120
-595.011	-3.531	0.186	-0.132
-593.996	-99.401	0.323	-0.083
-592.982	-4.281	-0.258	-0.181
-591.967	-147.804	-0.148	0.013
-590.952	-200.000	-0.017	0.116
-589.938	-200.000	0.058	-0.448
-588.923	-200.000	0.003	0.030
-587.909	-31.089	0.292	0.167
-586.894	29.454	-0.066	-0.057
-585.879	-200.000	-0.049	-0.221
-584.865	180.724	0.186	-0.278
-583.850	800.000	-0.038	0.118
-582.836	-173.733	0.247	-0.007
-581.821	-69.167	0.067	0.026
-580.806	-157.775	0.301	-0.018
-579.792	57.768	-0.298	0.296
-578.777	800.000	-0.040	-0.118
-577.763	151.335	-0.045	-0.062
-576.748	-200.000	-0.044	-0.293
-575.733	-108.301	0.251	-0.055
-574.719	-154.949	-0.198	-0.013
-573.704	-118.106	-0.096	-0.017
-572.690	-109.744	-0.080	-0.017
-571.675	50.360	-0.116	-0.112
-570.661	120.302	0.175	-0.221
-569.646	-85.497	-0.403	-0.127
-568.631	-138.725	-0.113	0.013
-567.617	262.341	-0.102	-0.180
-566.602	-133.184	-0.245	0.031
-565.588	68.901	-0.131	-0.136
-564.573	14.567	0.166	-0.131
-563.558	286.896	0.139	-0.255
-562.544	800.000	0.094	0.309
-561.529	645.063	0.100	-0.258
-560.515	126.590	-0.059	0.076
-559.500	-38.240	-0.423	0.227
-558.485	-200.000	0.001	0.106
-557.471	-156.790	-0.081	-0.005
-556.456	266.195	0.125	-0.221
-555.442	-176.134	0.106	-0.003
-554.427	38.614	0.196	0.178
-553.412	266.273	0.080	-0.141
-552.398	361.556	0.151	-0.306
-551.383	-88.592	0.117	0.035
-550.369	-71.300	0.149	-0.057
-549.354	-144.005	-0.159	0.015
-548.339	-200.000	0.017	-0.205
-547.325	83.113	0.118	0.130
-546.310	-102.807	0.276	0.066
-545.296	800.000	0.088	0.252
-544.281	74.339	-0.135	-0.144
-543.266	303.947	0.027	0.051
-542.252	98.374	-0.026	-0.030
-541.237	-200.000	-0.008	0.245
-540.223	147.233	0.098	0.133
-539.208	-2.533	-0.485	0.344
-538.193	199.971	0.054	0.085
-537.179	210.158	0.116	-0.184
-536.164	31.073	0.275	0.239
-535.150	-40.694	-0.141	0.074
-534.135	-98.907	-0.161	-0.041
-533.121	177.025	-0.094	-0.138
-532.106	281.722	-0.108	-0.196
-531.091	-59.847	-0.142	-0.061
-530.077	74.457	-0.154	0.164
-529.062	75.466	-0.079	0.084
-528.048	-192.017	0.420	0.004
-527.033	-200.000	-0.028	0.157
-526.018	573.350	0.198	-0.490
-525.004	39.436	0.269	-0.244
-523.989	-109.652	0.062	0.013
-522.975	178.542	-0.116	-0.172
-521.960	-21.170	0.164	-0.102
-520.945	-200.000	-0.057	-0.319
-519.931	800.000	-0.064	0.191
-518.916	-60.678	0.095	-0.041
-517.902	-169.240	-0.132	-0.005
-516.887	-200.000	-0.013	-0.110
-515.872	-83.958	0.167	-0.054
-514.858	-160.485	-0.312	-0.017
-513.843	316.701	-0.048	-0.092
-512.829	14.902	0.215	0.170
-511.814	-120.862	-0.193	-0.033
-510.799	800.000	0.041	-0.123
-509.785	-200.000	0.070	0.367
-508.770	170.535	-0.030	-0.043
-507.756	558.819	-0.014	0.033
-506.741	-169.905	0.234	-0.008
-505.726	-94.446	-0.132	-0.037
-504.712	-2.767	0.178	-0.126
-503.697	514.380	-0.206	0.486
-502.683	546.580	-0.106	0.258
-501.668	-47.725	0.115	0.057
-500.653	-200.000	0.074	-0.410
-499.639	247.490	0.013	-0.023
-498.624	98.486	-0.071	-0.083
-497.610	39.861	0.046	0.041
-496.595	-175.520	0.103	-0.003
-495.581	103.527	-0.266	0.316
-494.566	-200.000	0.050	0.301
-493.551	-200.000	-0.017	0.247
-492.537	642.222	-0.088	-0.228
-491.522	-18.472	-0.187	0.118
-490.508	-173.238	0.241	-0.007
-489.493	-44.590	-0.044	0.022
-488.478	279.066	0.159	-0.287
-487.464	-37.266	0.163	0.088
-486.449	620.153	-0.145	-0.368
-485.435	-200.000	-0.014	-0.170
-484.420	-144.679	-0.466	-0.043
-483.405	-200.000	-0.038	0.193
-482.391	-40.166	-0.162	-0.085
-481.376	68.111	0.167	-0.173
-480.362	-200.000	-0.018	-0.215
-479.347	-200.000	0.002	-0.081
-478.332	87.124	-0.088	-0.099
-477.318	800.000	-0.017	-0.052
-476.303	133.579	-0.080	-0.105
-475.289	43.491	0.034	0.031
-474.274	800.000	0.042	-0.160
-473.259	-105.404	-0.111	-0.026
-472.245	-200.000	-0.012	0.158
-471.230	-48.899	0.189	0.092
-470.216	-112.666	0.128	0.026
-469.201	65.675	0.096	-0.098
-468.186	-200.000	-0.031	-0.177
-467.172	-200.000	-0.034	0.153
-466.157	-200.000	0.024	0.185
-465.143	389.035	0.186	-0.390
-464.128	-50.807	-0.372	-0.177
-463.113	499.653	-0.113	0.263
-462.099	-200.000	-0.019	0.225
-461.084	200.807	-0.191	0.297
-460.070	181.663	-0.167	0.249
-459.055	-117.300	-0.527	-0.097
-458.040	298.690	-0.129	-0.241
-457.026	88.664	0.110	0.123
-456.011	498.342	-0.102	0.238
-454.997	-128.347	0.162	0.023
-453.982	75.971	-0.199	0.213
-452.968	147.654	0.071	0.097
-451.953	167.215	0.160	0.230
-450.938	-149.647	0.249	-0.020
-449.924	-151.187	0.287	-0.022
-448.909	-128.773	-0.249	-0.035
-447.895	-23.238	-0.306	-0.186
-446.880	-45.499	-0.285	0.142
-445.865	-80.519	-0.448	0.151
-444.851	-47.335	-0.215	-0.106
-443.836	-60.683	0.051	0.022
-442.822	-54.499	0.262	0.120
-441.807	-104.593	-0.268	-0.062
-440.792	-200.000	-0.062	0.302
-439.778	-113.510	0.258	-0.051
-438.763	-44.698	-0.357	0.180
-437.749	-200.000	0.013	-0.099
-436.734	800.000	0.072	0.288
-435.719	139.383	-0.122	-0.162
-434.705	-49.279	0.088	-0.042
-433.690	-133.063	0.126	0.016
-432.676	24.711	-0.191	-0.160
-431.661	800.000	0.056	-0.159
-430.646	-200.000	-0.009	0.064
-429.632	472.987	-0.110	-0.251
-428.617	-118.812	0.254	0.045
-427.603	-134.345	0.124	-0.015
-426.588	-71.999	-0.214	-0.080
-425.573	-151.752	-0.108	0.008
-424.559	12.579	-0.090	0.070
-423.544	61.858	-0.256	0.257
-422.530	-1.226	0.346	0.247
-421.515	338.559	0.165	0.324
-420.500	113.275	0.174	0.213
-419.486	571.324	-0.059	0.144
-418.471	-200.000	-0.038	0.239
-417.457	157.927	0.052	0.072
-416.442	800.000	0.049	0.176
-415.428	-45.437	-0.088	-0.044
-414.413	644.717	0.093	0.239
-413.398	-26.700	0.167	0.099
-412.384	289.511	0.068	0.124
-411.369	111.628	-0.203	0.247
-410.355	451.788	-0.163	0.364
-409.340	-97.461	0.241	-0.063
-408.325	85.872	-0.095	0.105
-407.311	-0.003	0.227	0.163
-406.296	180.087	0.198	0.292
-405.282	637.686	0.140	0.359
-404.267	152.587	0.228	0.314
-403.252	110.931	-0.104	-0.127
-402.238	426.754	0.088	-0.192
-401.223	-200.000	0.008	-0.207
-400.209	-140.165	-0.346	-0.037
-399.194	-200.000	0.001	0.171
-398.179	-200.000	0.003	-0.147
-397.165	-44.034	-0.079	0.040
-396.150	-200.000	-0.024	-0.152
-395.136	-124.317	0.062	0.010
-394.121	800.000	0.045	-0.174
-393.106	44.188	0.218	0.202
-392.092	800.000	-0.095	0.344
-391.077	25.419	0.087	-0.073
-390.063	-130.279	0.236	0.032
-389.048	-31.770	-0.080	0.045
-388.033	800.000	0.109	-0.445
-387.019	63.472	-0.039	0.039
-386.004	800.000	-0.082	-0.322
-384.990	-200.000	-0.006	0.105
-383.975	-9.417	0.095	-0.064
-382.960	800.000	-0.055	-0.238
-381.946	-200.000	0.014	0.254
-380.931	137.873	-0.107	0.141
-379.917	89.138	-0.311	-0.349
-378.902	800.000	-0.066	0.242
-377.888	-36.644	0.150	-0.081
-376.873	-84.930	-0.106	-0.033
-375.858	-200.000	0.018	0.159
-374.844	-200.000	0.000	0.022
-373.829	800.000	-0.028	0.097
-372.815	-103.377	0.050	0.012
-371.800	-200.000	0.109	-0.501
-370.785	25.818	-0.047	-0.040
-369.771	19.898	-0.295	-0.239
-368.756	114.503	-0.037	-0.045
-367.742	-104.349	0.104	0.024
-366.727	751.140	-0.093	-0.253
-365.712	-200.000	-0.027	-0.303
-364.698	365.426	0.086	0.175
-363.683	800.000	-0.091	-0.317
-362.669	-200.000	-0.012	-0.252
-361.654	132.997	-0.104	0.135
-360.639	-200.000	-0.002	0.093
-359.625	11.492	-0.378	0.291
-358.610	156.820	-0.052	-0.072
-357.596	408.211	0.087	-0.186
-356.581	-200.000	0.026	0.144
-355.566	-38.708	0.219	0.116
-354.552	6.772	0.069	0.052
-353.537	355.435	-0.027	0.055
-352.523	-66.047	-0.175	-0.070
-351.508	67.452	-0.144	-0.147
-350.493	-142.033	0.345	0.035
-349.479	-44.887	0.199	0.100
-348.464	237.943	-0.094	0.158
-347.450	-88.160	0.073	-0.022
-346.435	800.000	0.057	0.171
-345.420	-96.843	-0.172	0.046
-344.406	-59.401	0.086	-0.037
-343.391	-114.724	-0.465	0.089
-342.377	-121.586	0.119	0.020
-341.362	689.197	0.054	0.142
-340.348	800.000	-0.037	-0.147
-339.333	-44.401	-0.070	0.035
-338.318	190.024	-0.094	-0.142
-337.304	-31.205	-0.154	0.087
-336.289	-114.758	0.047	-0.009
-335.275	-17.270	0.197	-0.125
-334.260	10.209	0.086	0.066
-333.245	111.990	-0.156	0.190
-332.231	-54.940	0.118	0.053
-331.216	397.204	-0.059	0.125
-330.202	-123.786	0.166	0.026
-329.187	94.848	0.143	-0.164
-328.172	96.671	0.221	-0.254
-327.158	571.054	-0.069	0.169
-326.143	800.000	-0.051	0.183
-325.129	118.060	0.072	-0.090
-324.114	44.652	0.193	-0.179
-323.099	-200.000	0.020	-0.175
-322.085	-200.000	0.030	-0.290
-321.070	246.526	-0.165	0.280
-320.056	87.674	-0.215	0.240
-319.041	102.229	0.020	-0.023
-318.026	5.950	-0.291	-0.217
-317.012	-46.620	0.101	-0.050
-315.997	-200.000	0.044	-0.241
-314.983	61.384	-0.176	0.175
-313.968	800.000	0.094	0.311
-312.953	-95.294	0.066	0.018
-311.939	800.000	0.166	0.568
-310.924	-200.000	-0.020	-0.130
-309.910	800.000	-0.061	0.203
-308.895	-181.368	0.438	-0.009
-307.880	166.777	0.198	-0.283
-306.866	42.731	-0.288	0.263
-305.851	133.912	0.160	-0.208
-304.837	800.000	-0.048	0.145
-303.822	-69.500	0.287	-0.110
-302.807	800.000	-0.077	-0.213
-301.793	-200.000	-0.169	0.000
-300.778	-136.525	0.247	0.029
-299.764	-121.013	0.565	-0.095
-298.749	-200.000	0.054	-0.305
-297.735	2.629	0.119	-0.086
-296.720	-121.958	0.025	0.004
-295.705	-0.361	0.264	-0.188
-294.691	127.040	-0.214	0.272
-293.676	12.296	0.164	-0.127
-292.662	-200.000	0.014	-0.233
-291.647	200.133	-0.135	0.209
-290.632	23.978	-0.055	-0.046
-289.618	800.000	0.057	0.211
-288.603	-68.270	-0.354	-0.138
-287.589	305.905	-0.057	-0.106
-286.574	-119.711	0.182	0.032
-285.559	-200.000	-0.051	0.375
-284.545	800.000	-0.057	0.247
-283.530	-200.000	-0.003	-0.163
-282.516	40.174	-0.139	0.125
-281.501	338.168	0.065	-0.126
-280.486	-129.746	0.197	-0.027
-279.472	-123.586	0.391	-0.062
-278.457	204.354	0.149	-0.231
-277.443	-200.000	0.033	-0.194
-276.428	250.763	0.083	-0.141
-275.413	800.000	-0.048	0.186
-274.399	39.732	-0.211	0.190
-273.384	-200.000	-0.022	-0.299
-272.370	196.701	0.245	-0.374
-271.355	528.259	0.154	0.364
-270.340	50.051	-0.129	0.122
-269.326	-200.000	-0.013	0.296
-268.311	298.589	0.109	-0.202
-267.297	-200.000	-0.006	-0.055
-266.282	171.337	-0.192	-0.276
-265.267	363.391	0.051	0.103
-264.253	-200.000	0.075	-0.365
-263.238	181.108	0.162	-0.238
-262.224	2.275	0.256	0.186
-261.209	82.828	-0.148	0.162
-260.195	-120.820	0.248	-0.042
-259.180	-15.364	0.279	0.179
-258.165	-200.000	-0.056	0.251
-257.151	144.829	0.198	-0.266
-256.136	-27.390	0.070	0.041
-255.122	-76.043	-0.083	-0.029
-254.107	-200.000	-0.022	-0.135
-253.092	-200.000	-0.003	0.117
-252.078	-10.638	-0.223	-0.148
-251.063	-66.541	-0.177	-0.070
-250.049	-77.065	-0.046	0.016
-249.034	-200.000	0.025	-0.230
-248.019	141.364	0.157	-0.208
-247.005	-163.629	-0.085	-0.004
-245.990	-200.000	-0.011	-0.270
-244.976	-125.381	-0.193	0.030
-243.961	77.508	-0.355	0.379
-242.946	-113.869	0.235	-0.046
-241.932	724.191	-0.039	0.104
-240.917	-200.000	-0.063	-0.368
-239.903	35.323	-0.175	0.154
-238.888	-200.000	0.001	0.094
-237.873	236.788	0.123	0.203
-236.859	160.911	-0.179	-0.250
-235.844	103.745	0.196	0.231
-234.830	53.594	-0.046	0.045
-233.815	-80.359	0.095	0.032
-232.800	-110.762	-0.317	0.065
-231.786	-200.000	-0.015	-0.094
-230.771	63.067	0.104	0.104
-229.757	-148.779	-0.149	-0.012
-228.742	-56.829	0.106	0.047
-227.727	72.219	0.154	-0.161
-226.713	58.879	0.291	-0.286
-225.698	20.611	-0.126	0.102
-224.684	-17.093	-0.147	-0.093
-223.669	-132.433	-0.313	0.040
-222.655	88.001	-0.075	-0.084
-221.640	12.045	0.376	0.289
-220.625	202.667	-0.205	0.317
-219.611	-112.774	-0.137	-0.027
-218.596	-107.578	-0.157	0.034
-217.582	-188.778	-0.464	-0.006
-216.567	-36.943	-0.436	-0.234
-215.552	800.000	0.086	-0.260
-214.538	800.000	0.116	0.324
-213.523	-152.017	0.249	-0.018
-212.509	-98.638	0.294	0.075
-211.494	-200.000	-0.016	-0.264
-210.479	-162.834	-0.125	0.006
-209.465	-200.000	0.031	0.233
-208.450	693.311	-0.101	-0.266
-207.436	674.899	0.136	-0.354
-206.421	3.673	0.184	0.134
-205.406	-101.668	-0.073	0.018
-204.392	-200.000	0.022	0.528
-203.377	-127.548	-0.141	0.020
-202.363	4.178	0.017	0.012
-201.348	-200.000	0.030	0.276
-200.333	18.980	0.291	-0.233
-199.319	621.404	-0.062	-0.155
-198.304	17.294	-0.034	-0.027
-197.290	-98.018	0.178	0.046
-196.275	29.003	-0.177	0.150
-195.260	-16.470	0.104	-0.066
-194.246	-117.823	0.092	0.016
-193.231	-68.880	-0.376	-0.145
-192.217	11.261	-0.065	-0.050
-191.202	800.000	-0.040	-0.128
-190.187	163.963	-0.244	-0.343
-189.173	22.035	0.363	0.296
-188.158	73.035	-0.126	-0.132
-187.144	-200.000	-0.046	-0.213
-186.129	800.000	0.039	-0.120
-185.114	-89.149	-0.216	-0.064
-184.100	-128.479	-0.057	-0.008
-183.085	195.987	0.172	0.261
-182.071	-86.293	0.218	0.067
-181.056	800.000	0.089	-0.339
-180.042	800.000	0.092	0.301
-179.027	800.000	0.097	0.322
-178.012	241.804	0.147	0.245
-176.998	458.034	0.176	-0.390
-175.983	800.000	-0.066	0.260
-174.969	433.476	0.066	-0.144
-173.954	220.536	0.117	-0.188
-172.939	194.380	0.071	-0.108
-171.925	-113.428	0.412	0.081
-170.910	31.385	0.235	0.201
-169.896	72.499	0.228	0.238
-168.881	-200.000	-0.040	-0.361
-167.866	-200.000	-0.003	-0.029
-166.852	-39.560	-0.162	0.085
-165.837	-61.573	-0.121	-0.051
-164.823	670.906	0.089	0.230
-163.808	-200.000	-0.007	0.158
-162.793	-200.000	-0.017	0.200
-161.779	800.000	0.031	-0.109
-160.764	-116.637	-0.091	-0.017
-159.750	-6.513	-0.175	0.119
-158.735	-108.069	-0.226	-0.049
-157.720	-86.786	0.150	0.046
-156.706	-200.000	-0.006	-0.311
-155.691	-64.680	0.093	0.038
-154.677	-25.713	0.279	0.164
-153.662	-200.000	0.017	0.248
-152.647	-200.000	0.015	-0.440
-151.633	-52.392	-0.207	-0.096
-150.618	116.736	-0.069	-0.085
-149.604	-103.344	0.184	-0.043
-148.589	-200.000	-0.038	0.293
-147.574	-200.000	-0.014	0.103
-146.560	44.362	-0.173	0.159
-145.545	-77.530	0.457	-0.158
-144.531	798.569	-0.037	-0.103
-143.516	-200.000	0.020	0.114
-142.502	-155.864	-0.433	-0.028
-141.487	11.656	0.175	0.134
-140.472	-3.274	-0.195	0.136
-139.458	203.093	-0.078	0.121
-138.443	-200.000	-0.014	0.111
-137.429	-36.219	-0.050	0.027
-136.414	773.764	-0.150	0.409
-135.399	235.022	-0.087	0.143
-134.385	313.892	-0.099	0.185
-133.370	-138.834	0.239	-0.026
-132.356	-200.000	-0.022	-0.271
-131.341	-45.419	0.315	0.156
-130.326	0.394	-0.021	-0.015
-129.312	-200.000	0.131	0.599
-128.297	360.405	0.090	0.180
-127.283	-167.207	-0.143	0.006
-126.268	137.433	-0.121	0.158
-125.253	-39.854	-0.267	0.139
-124.239	-52.441	0.030	0.014
-123.224	95.818	0.042	0.048
-122.210	-191.812	0.338	-0.003
