DTS Sentinel unit serial number:	SN413079Multiplexer serial number:	ORYXHardware model number:	OX4-SRSoftware version number:	ORYX F/W v4.00 Oryx Data Collector v3.7.2.0data status	okinstallation	princeton_trtdifferential loss correction	single-endedforward channel	channel 1reverse channel	N/Adate	2019/09/16time	22:34:35forward acquisition time	60.00reverse acquisition time	0.00gamma	496.2192k internal	0.2324k external	0.2324temperature offset calibration	0.9954default loss term (dB/km)	0.3790temperature slope calibration	1.0000multiplexer offset coefficient	1.0000multiplexer slope coefficient	1.0000fibre end	0.00T internal ref (°C)	30.73T ext. ref 1 (°C)	0.08T ext. ref 2 (°C)	24.41length (m)	temperature (°C)	Stokes	anti-Stokes-747.200	-55.685	0.094	-0.042
-746.185	684.848	0.098	0.258
-745.171	-53.596	0.114	0.053
-744.156	85.557	-0.106	0.117
-743.142	800.000	0.082	0.349
-742.127	-200.000	-0.017	0.111
-741.112	800.000	0.099	0.364
-740.098	-87.791	0.173	0.053
-739.083	0.424	0.275	0.198
-738.069	-200.000	0.076	0.442
-737.054	58.379	0.320	0.317
-736.039	22.067	-0.273	-0.225
-735.025	800.000	0.025	-0.089
-734.010	44.481	-0.103	-0.095
-732.996	60.645	0.081	-0.081
-731.981	800.000	-0.086	0.263
-730.966	-3.709	-0.190	0.133
-729.952	-170.432	-0.156	0.006
-728.937	-107.856	-0.095	-0.021
-727.923	-121.333	-0.177	0.030
-726.908	63.588	-0.122	0.123
-725.894	81.253	-0.153	-0.167
-724.879	39.395	0.194	-0.175
-723.864	129.417	-0.176	-0.227
-722.850	-154.725	-0.357	-0.024
-721.835	20.857	-0.309	-0.252
-720.821	-200.000	0.048	-0.273
-719.806	-2.406	-0.157	-0.111
-718.791	-200.000	-0.088	-0.487
-717.777	-47.341	-0.090	0.044
-716.762	283.242	0.061	-0.110
-715.748	-91.252	0.147	0.042
-714.733	82.146	0.076	-0.083
-713.718	57.157	-0.128	0.126
-712.704	-85.967	0.455	0.142
-711.689	225.818	0.104	-0.170
-710.675	108.775	0.054	0.065
-709.660	800.000	-0.049	-0.149
-708.645	-117.991	-0.193	-0.035
-707.631	479.159	0.074	0.169
-706.616	744.496	0.042	0.113
-705.602	-200.000	0.005	0.128
-704.587	-136.792	0.300	-0.035
-703.572	-132.250	-0.167	0.022
-702.558	-126.441	-0.295	0.044
-701.543	4.171	-0.146	-0.107
-700.529	-28.816	0.123	0.071
-699.514	-200.000	-0.013	0.114
-698.499	-31.014	-0.051	-0.029
-697.485	135.537	-0.028	0.036
-696.470	560.714	0.089	0.216
-695.456	-200.000	-0.048	0.239
-694.441	68.058	-0.189	-0.195
-693.426	-48.033	0.105	0.051
-692.412	100.542	-0.172	-0.201
-691.397	-200.000	-0.002	0.210
-690.383	103.174	-0.241	-0.285
-689.368	-151.371	0.330	-0.025
-688.354	31.178	0.222	-0.192
-687.339	59.401	-0.238	0.237
-686.324	31.039	0.319	-0.275
-685.310	-157.807	-0.219	0.013
-684.295	-13.033	-0.106	-0.069
-683.281	-200.000	-0.035	-0.253
-682.266	353.840	0.118	0.235
-681.251	321.367	-0.167	0.319
-680.237	62.873	0.194	0.195
-679.222	427.861	0.221	-0.480
-678.208	800.000	0.070	-0.248
-677.193	-200.000	0.002	0.118
-676.178	-122.993	-0.396	0.064
-675.164	-62.296	-0.068	-0.028
-674.149	197.331	-0.139	0.214
-673.135	-18.592	0.084	0.053
-672.120	-93.964	-0.157	-0.044
-671.105	509.401	-0.165	-0.386
-670.091	445.638	0.095	0.211
-669.076	130.930	0.024	-0.031
-668.062	182.731	-0.054	-0.080
-667.047	-26.964	-0.066	0.039
-666.032	-5.726	0.221	-0.153
-665.018	-114.553	-0.312	0.060
-664.003	-200.000	0.004	0.146
-662.989	4.768	0.181	-0.134
-661.974	-49.965	0.092	0.044
-660.959	59.817	-0.181	0.179
-659.945	-145.966	0.397	0.035
-658.930	-200.000	-0.007	-0.060
-657.916	-126.302	0.200	-0.030
-656.901	-185.551	-0.058	-0.001
-655.886	800.000	-0.045	-0.156
-654.872	146.358	0.121	-0.164
-653.857	-68.573	-0.106	0.041
-652.843	-200.000	0.011	0.216
-651.828	-3.398	-0.282	0.197
-650.814	328.764	0.027	-0.052
-649.799	-44.685	-0.185	0.093
-648.784	-200.000	0.027	0.127
-647.770	-200.000	-0.006	-0.108
-646.755	710.480	-0.059	-0.156
-645.741	14.167	-0.229	0.180
-644.726	-200.000	0.008	0.323
-643.711	-62.898	0.290	-0.120
-642.697	82.927	-0.170	-0.185
-641.682	168.807	-0.171	-0.245
-640.668	-200.000	0.023	-0.303
-639.653	-53.041	0.187	-0.086
-638.638	-150.240	-0.137	-0.011
-637.624	413.040	0.016	-0.034
-636.609	-200.000	-0.022	0.124
-635.595	-94.297	-0.336	-0.092
-634.580	-200.000	-0.049	-0.234
-633.565	88.302	-0.194	-0.217
-632.551	-200.000	0.026	0.159
-631.536	-112.498	-0.229	-0.046
-630.522	-200.000	-0.014	-0.111
-629.507	93.586	0.064	0.073
-628.492	-124.105	0.399	0.063
-627.478	-105.319	0.134	-0.031
-626.463	357.580	-0.035	-0.071
-625.449	41.373	0.162	0.147
-624.434	125.902	-0.108	0.137
-623.419	185.519	0.072	0.107
-622.405	152.196	0.057	0.078
-621.390	1.439	0.214	-0.155
-620.376	800.000	0.065	-0.243
-619.361	-200.000	-0.031	0.185
-618.346	450.298	0.032	0.070
-617.332	-138.687	0.204	0.022
-616.317	-124.502	0.159	-0.025
-615.303	650.159	0.122	-0.313
-614.288	-171.123	-0.262	-0.009
-613.273	800.000	-0.049	-0.161
-612.259	800.000	0.059	0.215
-611.244	-110.556	0.413	0.086
-610.230	-171.747	-0.108	-0.004
-609.215	645.603	0.055	-0.141
-608.201	-31.130	0.349	0.197
-607.186	42.843	-0.137	0.126
-606.171	161.037	0.063	-0.089
-605.157	-84.757	-0.129	0.041
-604.142	-39.178	-0.401	-0.212
-603.128	108.210	0.133	0.159
-602.113	404.525	-0.073	0.154
-601.098	73.682	0.255	0.268
-600.084	249.449	-0.097	-0.166
-599.069	-87.448	0.294	-0.089
-598.055	118.452	-0.183	-0.227
-597.040	-200.000	-0.005	-0.220
-596.025	-200.000	-0.020	0.088
-595.011	-200.000	-0.027	0.284
-593.996	-200.000	0.060	0.320
-592.982	-114.141	-0.087	-0.017
-591.967	-5.285	-0.102	-0.070
-590.952	131.444	-0.028	0.037
-589.938	300.623	-0.128	-0.236
-588.923	328.802	-0.105	-0.203
-587.909	-200.000	-0.025	-0.178
-586.894	-99.936	0.115	0.029
-585.879	-75.492	0.210	-0.075
-584.865	36.090	0.094	-0.083
-583.850	-56.507	0.183	-0.081
-582.836	4.705	-0.224	-0.165
-581.821	-119.219	0.120	-0.021
-580.806	800.000	0.061	0.171
-579.792	141.035	0.023	-0.031
-578.777	97.642	-0.239	-0.275
-577.763	240.515	-0.195	-0.326
-576.748	-52.266	-0.102	-0.048
-575.733	-23.538	0.117	-0.070
-574.719	268.486	-0.159	-0.279
-573.704	139.605	-0.013	0.018
-572.690	125.974	-0.123	-0.156
-571.675	285.473	-0.157	0.283
-570.661	-96.008	-0.466	-0.124
-569.646	-181.371	0.127	-0.003
-568.631	-122.704	-0.309	0.050
-567.617	7.287	-0.122	0.092
-566.602	96.323	-0.152	0.175
-565.588	-77.134	-0.497	-0.174
-564.573	800.000	0.026	0.086
-563.558	-53.437	-0.099	-0.045
-562.544	368.512	0.025	0.051
-561.529	13.033	0.258	-0.200
-560.515	-73.326	0.211	0.078
-559.500	-20.751	-0.319	0.196
-558.485	-131.110	-0.460	0.061
-557.471	-200.000	0.012	-0.152
-556.456	551.922	0.070	0.169
-555.442	164.231	0.112	-0.158
-554.427	29.276	-0.123	0.105
-553.412	143.833	0.138	-0.185
-552.398	67.056	0.026	0.027
-551.383	-79.288	-0.271	-0.092
-550.369	627.270	0.017	-0.044
-549.354	-8.473	0.245	0.165
-548.339	35.593	-0.297	0.261
-547.325	-200.000	-0.023	0.365
-546.310	800.000	0.022	-0.071
-545.296	-40.053	-0.258	0.135
-544.281	-200.000	0.004	-0.117
-543.266	173.869	-0.017	-0.025
-542.252	-189.808	-0.301	-0.003
-541.237	-49.793	-0.198	-0.094
-540.223	35.588	-0.103	-0.091
-539.208	-182.149	-0.252	-0.005
-538.193	-100.049	0.090	-0.023
-537.179	92.844	0.067	-0.076
-536.164	-200.000	-0.015	-0.073
-535.150	800.000	-0.099	0.308
-534.135	129.082	-0.073	0.094
-533.121	-157.611	0.457	-0.027
-532.106	-154.248	-0.086	0.006
-531.091	-69.858	-0.286	0.109
-530.077	-200.000	-0.001	-0.101
-529.062	-84.696	0.089	-0.028
-528.048	-184.609	0.083	-0.001
-527.033	-102.202	0.202	0.049
-526.018	116.948	0.224	0.275
-525.004	-200.000	0.050	0.349
-523.989	800.000	-0.023	0.068
-522.975	47.402	-0.310	0.289
-521.960	-200.000	-0.071	-0.526
-520.945	94.566	0.213	-0.242
-519.931	-151.268	-0.070	-0.005
-518.916	-56.878	0.490	0.217
-517.902	800.000	-0.137	0.484
-516.887	98.607	-0.188	0.217
-515.872	-11.911	-0.168	0.110
-514.858	41.013	-0.283	0.255
-513.843	-200.000	0.009	0.525
-512.829	-200.000	-0.008	-0.237
-511.814	-52.029	0.200	0.093
-510.799	-24.323	0.127	-0.076
-509.785	757.247	-0.050	-0.136
-508.770	-147.402	-0.268	0.023
-507.756	236.594	-0.090	0.149
-506.741	-134.082	-0.286	0.035
-505.726	162.900	0.141	0.197
-504.712	747.680	0.035	0.095
-503.697	-200.000	0.040	-0.175
-502.683	800.000	0.018	0.059
-501.668	800.000	0.057	0.170
-500.653	800.000	-0.076	-0.236
-499.639	36.399	0.362	-0.319
-498.624	352.061	-0.098	0.193
-497.610	-200.000	0.099	0.503
-496.595	-69.841	-0.127	0.049
-495.581	-123.102	-0.560	0.090
-494.566	-53.941	-0.283	-0.129
-493.551	-200.000	0.062	-0.391
-492.537	129.763	-0.146	-0.186
-491.522	-76.930	0.061	0.021
-490.508	-100.748	0.051	0.013
-489.493	-57.352	0.052	0.023
-488.478	-117.688	-0.254	-0.046
-487.464	246.291	-0.065	0.110
-486.449	655.188	-0.087	-0.224
-485.435	-52.851	-0.297	0.137
-484.420	-200.000	-0.006	0.033
-483.405	-200.000	0.018	0.116
-482.391	171.933	0.159	-0.228
-481.376	-77.419	-0.166	-0.058
-480.362	526.739	-0.060	-0.141
-479.347	437.305	-0.017	0.037
-478.332	115.346	0.062	-0.076
-477.318	111.568	0.227	0.273
-476.303	-111.173	-0.232	0.048
-475.289	47.190	0.108	-0.101
-474.274	-200.000	0.009	-0.104
-473.259	768.997	0.034	0.091
-472.245	784.794	0.112	-0.308
-471.230	-65.546	-0.228	0.091
-470.216	800.000	-0.068	-0.233
-469.201	-173.723	-0.100	-0.003
-468.186	161.887	-0.265	0.370
-467.172	-200.000	0.045	0.284
-466.157	53.239	-0.230	-0.220
-465.143	365.769	0.081	0.162
-464.128	-17.928	0.384	-0.240
-463.113	118.458	0.100	-0.124
-462.099	800.000	-0.042	0.141
-461.084	-200.000	0.070	0.333
-460.070	599.644	-0.080	0.199
-459.055	800.000	-0.086	-0.311
-458.040	800.000	-0.031	0.102
-457.026	-146.328	-0.243	-0.021
-456.011	800.000	-0.039	-0.133
-454.997	-76.234	0.155	-0.055
-453.982	-127.569	-0.327	0.047
-452.968	250.416	0.078	-0.131
-451.953	341.616	-0.110	0.215
-450.938	-200.000	0.013	-0.173
-449.924	-67.230	-0.177	-0.069
-448.909	-200.000	0.023	-0.175
-447.895	-200.000	0.015	0.076
-446.880	-55.076	0.234	-0.105
-445.865	800.000	-0.075	-0.244
-444.851	-13.100	0.164	0.107
-443.836	800.000	0.043	0.128
-442.822	293.432	-0.040	-0.073
-441.807	0.539	0.156	-0.111
-440.792	212.115	-0.150	0.235
-439.778	-87.064	-0.231	-0.070
-438.763	-53.467	0.219	0.100
-437.749	-153.008	0.070	-0.005
-436.734	-159.163	0.095	-0.005
-435.719	31.457	0.138	0.119
-434.705	-200.000	0.013	0.304
-433.690	-200.000	-0.078	0.384
-432.676	51.991	0.074	-0.071
-431.661	-16.971	0.326	0.205
-430.646	425.711	0.076	0.163
-429.632	717.585	0.031	0.082
-428.617	-200.000	0.039	0.185
-427.603	98.417	-0.211	-0.242
-426.588	-66.236	-0.114	0.045
-425.573	-200.000	0.078	0.363
-424.559	237.949	-0.113	-0.186
-423.544	182.796	-0.120	0.176
-422.530	737.194	-0.043	0.115
-421.515	-48.655	0.206	-0.099
-420.500	-85.197	0.314	-0.098
-419.486	47.850	-0.187	-0.174
-418.471	800.000	-0.059	-0.166
-417.457	225.065	-0.084	0.136
-416.442	147.083	-0.096	0.129
-415.428	-58.880	-0.323	0.139
-414.413	-152.070	-0.270	0.020
-413.398	-200.000	0.094	0.492
-412.384	402.773	0.026	0.054
-411.369	255.246	0.072	0.124
-410.355	100.196	0.379	0.438
-409.340	-200.000	-0.004	0.048
-408.325	334.826	-0.115	-0.222
-407.311	295.063	0.079	0.143
-406.296	-76.815	-0.277	0.097
-405.282	-119.519	-0.344	0.059
-404.267	643.842	-0.019	0.048
-403.252	-200.000	0.034	0.178
-402.238	800.000	-0.087	-0.371
-401.223	-200.000	-0.033	0.221
-400.209	-165.947	0.084	-0.004
-399.194	-111.101	0.150	0.031
-398.179	582.224	-0.089	0.217
-397.165	-37.516	-0.123	-0.065
-396.150	800.000	-0.041	0.119
-395.136	-200.000	-0.028	0.141
-394.121	-140.592	-0.181	0.019
-393.106	248.068	-0.238	0.401
-392.092	-200.000	-0.025	0.186
-391.077	-200.000	-0.020	0.103
-390.063	-0.840	-0.141	-0.100
-389.048	130.706	0.044	0.057
-388.033	147.141	0.086	-0.115
-387.019	800.000	-0.021	0.079
-386.004	-62.160	0.298	-0.124
-384.990	-105.136	0.291	-0.066
-383.975	-90.561	-0.231	-0.066
-382.960	-86.092	-0.208	-0.064
-381.946	602.373	-0.014	0.034
-380.931	66.966	0.104	0.106
-379.917	-173.720	0.205	0.006
-378.902	-100.089	-0.099	-0.025
-377.888	10.501	-0.031	0.023
-376.873	-29.327	0.155	0.089
-375.858	701.645	0.101	-0.264
-374.844	46.304	0.167	-0.154
-373.829	152.029	-0.040	-0.055
-372.815	-90.964	0.404	0.116
-371.800	331.171	0.098	0.188
-370.785	-200.000	0.041	-0.233
-369.771	-111.902	-0.090	-0.018
-368.756	-194.446	0.207	0.002
-367.742	-200.000	0.037	0.196
-366.727	-200.000	0.045	0.242
-365.712	-191.035	-0.243	0.003
-364.698	-124.432	0.232	-0.036
-363.683	-63.028	-0.046	-0.019
-362.669	-200.000	-0.033	0.197
-361.654	228.025	0.057	0.092
-360.639	59.618	0.128	-0.125
-359.625	-87.866	0.351	-0.105
-358.610	-56.296	-0.152	-0.067
-357.596	123.746	-0.088	-0.110
-356.581	-200.000	0.026	-0.211
-355.566	800.000	-0.012	-0.048
-354.552	-158.372	0.106	0.006
-353.537	-200.000	0.021	0.095
-352.523	204.009	0.186	0.286
-351.508	-14.657	0.222	-0.142
-350.493	-133.471	0.307	0.038
-349.479	70.955	0.150	-0.154
-348.464	326.095	0.161	-0.307
-347.450	257.142	-0.198	-0.338
-346.435	-83.465	-0.073	0.023
-345.420	306.415	-0.164	0.304
-344.406	55.233	0.353	0.339
-343.391	-200.000	-0.002	-0.185
-342.377	-98.636	0.312	-0.079
-341.362	-6.730	0.174	-0.118
-340.348	-63.316	0.199	-0.081
-339.333	133.541	-0.139	-0.178
-338.318	-200.000	-0.033	-0.160
-337.304	-155.999	0.214	0.014
-336.289	119.626	-0.356	0.437
-335.275	381.664	0.192	-0.392
-334.260	460.986	0.146	-0.323
-333.245	87.882	-0.186	-0.205
-332.231	87.902	0.096	-0.106
-331.216	52.554	0.067	-0.063
-330.202	233.429	0.121	0.198
-329.187	-27.690	-0.196	0.113
-328.172	23.648	0.245	-0.201
-327.158	451.248	0.039	0.085
-326.143	-29.609	0.209	-0.119
-325.129	800.000	0.131	0.520
-324.114	-200.000	-0.013	0.336
-323.099	-200.000	-0.017	0.257
-322.085	74.710	0.228	-0.238
-321.070	-100.089	0.184	0.045
-320.056	-200.000	-0.111	-0.639
-319.041	-124.242	-0.212	-0.033
-318.026	-110.547	0.068	0.014
-317.012	261.794	0.114	0.196
-315.997	88.703	-0.125	-0.138
-314.983	155.670	-0.173	-0.237
-313.968	-200.000	-0.033	-0.316
-312.953	-29.906	-0.157	-0.089
-311.939	211.615	-0.178	-0.279
-310.924	180.046	-0.071	-0.103
-309.910	235.806	-0.053	-0.087
-308.895	20.564	-0.481	0.386
-307.880	144.284	-0.134	0.177
-306.866	-128.690	-0.295	-0.041
-305.851	-55.884	0.250	0.111
-304.837	-121.769	0.371	0.061
-303.822	-32.180	-0.166	0.092
-302.807	516.551	-0.099	-0.229
-301.793	-6.210	0.207	-0.140
-300.778	40.812	-0.074	-0.067
-299.764	-68.682	-0.272	-0.104
-298.749	0.926	0.275	0.195
-297.735	81.889	0.139	0.150
-296.720	-53.324	0.351	-0.159
-295.705	-114.231	-0.179	-0.034
-294.691	-77.509	0.196	-0.067
-293.676	13.635	0.356	0.274
-292.662	-200.000	0.021	-0.117
-291.647	-200.000	0.024	-0.242
-290.632	9.572	0.209	0.157
-289.618	376.000	-0.119	0.240
-288.603	-47.436	0.221	0.107
-287.589	-167.524	-0.270	-0.011
-286.574	-68.127	0.241	0.093
-285.559	-124.716	0.300	-0.046
-284.545	-116.628	0.166	0.030
-283.530	-200.000	-0.005	0.314
-282.516	800.000	-0.067	-0.210
-281.501	55.628	-0.099	-0.095
-280.486	109.355	0.409	-0.485
-279.472	-9.437	-0.348	-0.230
-278.457	655.811	-0.046	0.117
-277.443	800.000	0.049	0.199
-276.428	243.826	-0.135	-0.225
-275.413	12.707	0.275	0.210
-274.399	-40.753	-0.091	-0.047
-273.384	298.308	0.003	-0.006
-272.370	-114.257	0.216	0.041
-271.355	-21.780	-0.043	-0.026
-270.340	-108.139	0.168	0.036
-269.326	-116.753	0.335	-0.061
-268.311	-104.947	-0.104	0.024
-267.297	50.155	0.254	0.237
-266.282	-79.968	-0.539	-0.179
-265.267	-59.042	-0.225	-0.096
-264.253	91.906	0.143	0.160
-263.238	-46.626	-0.034	-0.016
-262.224	792.892	0.110	-0.301
-261.209	-1.750	0.268	-0.187
-260.195	-200.000	0.033	0.549
-259.180	-104.800	-0.171	-0.039
-258.165	220.732	0.099	-0.157
-257.151	738.372	-0.092	-0.244
-256.136	-200.000	-0.091	-0.450
-255.122	284.611	-0.127	-0.227
-254.107	36.838	-0.101	-0.088
-253.092	188.883	-0.197	-0.291
-252.078	-200.000	-0.026	-0.195
-251.063	-200.000	-0.014	0.066
-250.049	311.406	-0.195	-0.363
-249.034	-200.000	0.004	-0.095
-248.019	284.902	-0.137	-0.244
-247.005	-101.554	0.134	-0.032
-245.990	-200.000	-0.027	0.244
-244.976	-200.000	-0.020	-0.139
-243.961	-80.886	-0.183	-0.060
-242.946	45.361	-0.080	-0.073
-241.932	800.000	-0.051	-0.144
-240.917	192.567	0.167	0.250
-239.903	-31.367	0.317	0.176
-238.888	-200.000	-0.005	-0.107
-237.873	800.000	0.025	0.070
-236.859	-151.757	0.329	0.024
-235.844	-74.142	-0.192	-0.069
-234.830	252.971	-0.122	-0.206
-233.815	673.399	-0.101	0.259
-232.800	-200.000	-0.011	-0.092
-231.786	-27.590	0.317	0.182
-230.771	800.000	-0.044	0.188
-229.757	289.464	0.160	0.287
-228.742	62.969	0.070	-0.070
-227.727	800.000	-0.026	-0.096
-226.713	-151.205	0.666	0.049
-225.698	71.977	-0.160	-0.165
-224.684	-200.000	-0.017	-0.216
-223.669	73.529	-0.030	0.031
-222.655	130.974	0.112	-0.142
-221.640	-200.000	-0.023	-0.363
-220.625	800.000	-0.070	-0.240
-219.611	-200.000	-0.013	0.193
-218.596	48.267	0.197	0.183
-217.582	159.082	-0.107	0.147
-216.567	-97.422	0.155	-0.040
-215.552	-89.455	0.157	0.046
-214.538	-159.997	-0.306	0.016
-213.523	-38.531	0.151	-0.079
-212.509	171.805	-0.118	0.168
-211.494	-147.225	-0.317	0.027
-210.479	-2.274	0.134	-0.093
-209.465	-43.019	-0.132	-0.066
-208.450	350.410	-0.138	0.270
-207.436	342.370	-0.115	-0.223
-206.421	22.312	-0.083	-0.067
-205.406	-184.275	0.292	-0.005
-204.392	-173.461	-0.180	0.005
-203.377	59.869	0.161	0.157
-202.363	93.572	-0.134	0.150
-201.348	466.726	0.058	0.128
-200.333	-200.000	-0.009	-0.241
-199.319	-131.766	-0.154	0.020
-198.304	-30.961	0.415	-0.231
-197.290	462.151	0.128	-0.283
-196.275	-200.000	0.018	0.187
-195.260	-200.000	0.052	0.274
-194.246	-200.000	0.008	-0.167
-193.231	78.152	0.139	0.147
-192.217	165.417	0.122	0.170
-191.202	7.090	0.225	0.165
-190.187	268.885	0.096	0.166
-189.173	-77.644	0.496	-0.169
-188.158	41.315	-0.240	-0.214
-187.144	800.000	-0.110	-0.348
-186.129	10.211	0.190	-0.143
-185.114	-94.065	-0.312	-0.084
-184.100	211.661	0.193	-0.301
-183.085	-200.000	0.001	0.016
-182.071	477.635	-0.176	0.393
-181.056	-93.398	0.041	-0.011
-180.042	-62.764	-0.280	-0.114
-179.027	-103.172	0.319	-0.074
-178.012	-84.886	0.174	0.054
-176.998	39.567	-0.067	0.059
-175.983	-200.000	0.013	-0.170
-174.969	800.000	-0.081	-0.254
-173.954	-200.000	-0.023	0.234
-172.939	35.746	-0.361	0.313
-171.925	-128.487	-0.224	0.031
-170.910	-149.974	0.519	0.040
-169.896	177.257	0.133	-0.191
-168.881	800.000	-0.052	0.145
-167.866	266.642	0.017	0.029
-166.852	-171.266	-0.233	0.008
-165.837	800.000	0.009	0.030
-164.823	160.872	-0.055	-0.076
-163.808	374.169	-0.109	0.219
-162.793	-200.000	0.018	0.226
-161.779	122.514	0.031	-0.039
-160.764	-200.000	-0.017	0.179
-159.750	800.000	-0.024	0.068
-158.735	399.441	-0.023	0.048
-157.720	-200.000	0.003	0.018
-156.706	-200.000	0.031	-0.209
-155.691	184.364	-0.058	-0.084
-154.677	165.226	0.213	-0.297
-153.662	77.016	0.220	0.231
-152.647	97.331	-0.078	0.088
-151.633	-47.726	-0.111	-0.053
-150.618	800.000	0.030	-0.084
-149.604	62.527	-0.166	-0.164
-148.589	181.707	0.234	-0.339
-147.574	-21.516	0.114	-0.068
-146.560	-64.960	-0.421	-0.168
-145.545	-163.942	-0.265	-0.012
-144.531	800.000	-0.036	0.101
-143.516	92.903	-0.260	0.289
-142.502	71.489	-0.235	0.240
-141.487	-200.000	0.046	0.371
-140.472	-148.610	0.351	-0.028
-139.458	47.282	0.182	-0.167
-138.443	424.234	-0.097	-0.206
-137.429	424.303	-0.087	-0.184
-136.414	201.324	0.230	0.350
-135.399	-200.000	-0.024	0.140
-134.385	11.868	-0.222	0.168
-133.370	108.176	0.019	0.022
-132.356	183.790	0.169	0.247
-131.341	-102.214	-0.260	0.062
-130.326	266.730	-0.138	-0.238
-129.312	800.000	-0.084	-0.298
-128.297	800.000	0.102	-0.335
-127.283	123.842	0.111	0.138
-126.268	-200.000	0.031	0.151
-125.253	-49.365	-0.061	-0.029
-124.239	-52.698	-0.091	0.041
-123.224	40.895	0.354	-0.314
-122.210	-200.000	-0.040	0.291
