DTS Sentinel unit serial number:	SN413079Multiplexer serial number:	ORYXHardware model number:	OX4-SRSoftware version number:	ORYX F/W v4.00 Oryx Data Collector v3.7.2.0data status	okinstallation	princeton_trtdifferential loss correction	single-endedforward channel	channel 1reverse channel	N/Adate	2019/09/12time	20:04:34forward acquisition time	15.00reverse acquisition time	0.00gamma	496.2192k internal	0.2323k external	0.2323temperature offset calibration	1.0143default loss term (dB/km)	0.3790temperature slope calibration	1.0000multiplexer offset coefficient	1.0000multiplexer slope coefficient	1.0000fibre end	0.00T internal ref (°C)	31.69T ext. ref 1 (°C)	3.44T ext. ref 2 (°C)	26.31length (m)	temperature (°C)	Stokes	anti-Stokes-747.200	-186.814	-0.650	-0.009
-746.185	-200.000	-0.004	0.432
-745.171	-81.817	-0.165	0.055
-744.156	-73.007	-0.186	-0.069
-743.142	-54.139	0.817	-0.375
-742.127	-139.589	-0.563	0.061
-741.112	7.153	-0.506	-0.381
-740.098	-96.935	0.569	0.151
-739.083	-128.351	0.341	-0.049
-738.069	-77.645	0.609	-0.213
-737.054	-27.147	-0.643	0.378
-736.039	261.008	-0.497	-0.868
-735.025	800.000	-0.220	0.902
-734.010	61.687	-0.146	-0.147
-732.996	800.000	-0.062	-0.264
-731.981	-80.326	-0.958	-0.323
-730.966	-167.854	0.053	-0.002
-729.952	-40.771	-1.148	0.600
-728.937	800.000	0.081	0.350
-727.923	10.590	0.223	0.171
-726.908	-27.565	0.173	0.101
-725.894	800.000	-0.065	0.225
-724.879	6.910	-0.104	0.078
-723.864	-91.863	0.630	-0.180
-722.850	-39.878	0.461	-0.243
-721.835	-200.000	-1.040	0.005
-720.821	7.490	0.427	-0.322
-719.806	800.000	0.179	0.499
-718.791	234.583	0.280	-0.466
-717.777	-77.665	0.782	-0.273
-716.762	800.000	0.051	-0.187
-715.748	-200.000	0.061	-0.592
-714.733	-11.383	-0.480	-0.318
-713.718	-101.956	0.360	0.088
-712.704	18.274	-0.505	0.407
-711.689	20.877	-0.221	-0.180
-710.675	2.485	-0.341	0.249
-709.660	-82.525	-0.296	-0.097
-708.645	-200.000	0.064	-0.825
-707.631	-78.343	0.243	-0.084
-706.616	-101.072	0.788	-0.195
-705.602	423.138	0.115	0.249
-704.587	47.990	1.188	1.119
-703.572	50.327	-0.322	0.307
-702.558	-51.313	0.248	0.117
-701.543	28.641	-0.284	-0.242
-700.529	800.000	0.051	-0.160
-699.514	-38.550	-0.147	-0.078
-698.499	118.816	-0.696	-0.867
-697.485	109.252	-0.430	0.518
-696.470	-200.000	0.030	0.544
-695.456	-200.000	-0.003	0.438
-694.441	266.109	0.405	-0.713
-693.426	193.819	0.407	0.620
-692.412	-200.000	0.063	0.422
-691.397	800.000	-0.052	-0.221
-690.383	-144.982	-1.142	0.105
-689.368	-89.893	-0.332	0.098
-688.354	800.000	-0.267	-1.160
-687.339	-70.464	-0.067	0.026
-686.324	-146.030	0.625	-0.056
-685.310	372.676	0.146	-0.298
-684.295	19.016	-0.269	-0.217
-683.281	221.124	0.352	0.569
-682.266	464.239	0.302	0.681
-681.251	95.642	0.527	0.606
-680.237	-200.000	0.023	-0.119
-679.222	14.197	0.350	0.275
-678.208	58.769	-0.117	-0.116
-677.193	800.000	0.346	1.314
-676.178	89.362	-0.584	0.656
-675.164	-95.847	0.417	-0.112
-674.149	-157.295	0.427	0.026
-673.135	-102.599	-0.208	-0.050
-672.120	-8.011	-0.630	-0.428
-671.105	-59.622	-0.143	-0.062
-670.091	-200.000	-0.078	-0.599
-669.076	445.418	0.072	0.159
-668.062	-15.486	-0.610	0.392
-667.047	800.000	0.268	-0.923
-666.032	-77.047	-0.286	-0.100
-665.018	27.415	0.655	0.554
-664.003	-119.347	-0.988	-0.173
-662.989	-192.209	-0.452	0.004
-661.974	-200.000	-0.012	-0.127
-660.959	57.262	0.121	-0.119
-659.945	-38.531	0.604	-0.322
-658.930	-178.023	-0.298	-0.007
-657.916	161.022	0.568	-0.799
-656.901	800.000	-0.235	0.702
-655.886	-200.000	-0.011	0.207
-654.872	800.000	0.116	-0.488
-653.857	-200.000	-0.009	0.243
-652.843	-200.000	-0.027	-0.441
-651.828	-59.327	0.599	-0.259
-650.814	301.387	0.218	0.405
-649.799	-200.000	-0.071	0.489
-648.784	-56.869	-0.142	-0.063
-647.770	276.527	-0.268	-0.479
-646.755	-92.300	0.743	0.211
-645.741	-200.000	0.066	0.306
-644.726	315.295	-0.280	-0.531
-643.711	219.121	-0.344	0.553
-642.697	7.404	-0.167	0.126
-641.682	-200.000	0.064	-0.307
-640.668	-37.238	-0.603	0.324
-639.653	-200.000	-0.139	0.855
-638.638	-108.829	-0.139	-0.030
-637.624	-110.796	-0.361	0.075
-636.609	65.403	-0.112	0.114
-635.595	123.193	0.073	0.092
-634.580	54.716	-0.472	-0.457
-633.565	800.000	-0.129	-0.370
-632.551	-65.662	-0.542	0.219
-631.536	-77.931	-0.406	-0.141
-630.522	-167.966	-0.424	0.017
-629.507	-200.000	0.107	-0.692
-628.492	-42.758	-0.253	0.129
-627.478	173.249	0.049	0.071
-626.463	-187.928	0.228	-0.003
-625.449	738.725	-0.082	0.222
-624.434	0.345	-1.206	-0.866
-623.419	-200.000	-0.097	0.574
-622.405	800.000	-0.075	0.212
-621.390	-98.305	-0.768	-0.198
-620.376	459.493	-0.114	0.255
-619.361	227.051	-0.506	-0.827
-618.346	21.264	-0.363	-0.296
-617.332	-5.894	0.649	0.446
-616.317	72.815	0.278	0.291
-615.303	800.000	0.102	-0.327
-614.288	-200.000	0.006	-0.124
-613.273	544.679	0.321	-0.769
-612.259	-200.000	-0.167	-0.807
-611.244	-200.000	-0.021	0.312
-610.230	195.071	0.276	0.420
-609.215	105.456	0.669	-0.794
-608.201	54.624	0.153	0.148
-607.186	7.057	-0.426	0.319
-606.171	-42.553	0.567	-0.290
-605.157	-88.647	0.441	0.132
-604.142	-120.037	-1.201	0.207
-603.128	-200.000	0.033	-0.379
-602.113	-35.803	0.843	-0.458
-601.098	126.690	-0.663	-0.843
-600.084	-151.317	-0.037	-0.003
-599.069	800.000	-0.121	-0.373
-598.055	-107.488	-0.492	0.108
-597.040	25.024	-0.751	0.626
-596.025	800.000	-0.189	0.799
-595.011	-180.719	-0.468	0.010
-593.996	7.283	0.211	-0.158
-592.982	17.900	0.182	0.145
-591.967	-85.908	0.344	0.107
-590.952	172.851	-0.212	-0.306
-589.938	369.172	-0.032	-0.065
-588.923	-200.000	-0.086	-0.667
-587.909	-22.343	0.391	0.238
-586.894	4.841	-0.642	-0.474
-585.879	134.291	0.021	0.027
-584.865	-44.707	0.513	0.257
-583.850	-27.598	0.479	-0.279
-582.836	-200.000	-0.034	-0.844
-581.821	71.427	-0.439	-0.457
-580.806	-200.000	0.075	-0.513
-579.792	-200.000	-0.028	0.519
-578.777	800.000	0.237	-0.957
-577.763	64.449	-0.502	-0.507
-576.748	91.945	-0.292	-0.329
-575.733	44.856	0.645	0.596
-574.719	-131.639	0.196	-0.026
-573.704	-125.340	0.749	-0.115
-572.690	-100.104	0.870	0.217
-571.675	-46.800	-1.040	0.510
-570.661	-153.357	0.233	-0.016
-569.646	-155.280	0.433	0.028
-568.631	-121.208	0.656	0.110
-567.617	-65.281	0.372	-0.150
-566.602	-118.482	-0.383	0.068
-565.588	-8.616	-0.308	-0.208
-564.573	-200.000	0.026	-0.596
-563.558	-3.908	-0.757	-0.527
-562.544	610.618	0.303	-0.759
-561.529	43.576	0.294	-0.269
-560.515	214.993	-0.742	1.179
-559.500	-107.003	-0.596	-0.132
-558.485	-85.792	-0.687	-0.213
-557.471	-200.000	-0.019	0.651
-556.456	-116.107	0.299	0.056
-555.442	-146.738	0.570	-0.049
-554.427	-143.673	0.295	0.028
-553.412	800.000	-0.154	-0.495
-552.398	40.599	0.414	0.374
-551.383	800.000	-0.238	-0.673
-550.369	-115.540	-0.367	0.069
-549.354	193.642	0.180	0.273
-548.339	-88.217	-0.381	-0.114
-547.325	68.096	0.149	0.153
-546.310	-200.000	-0.187	-0.912
-545.296	-87.686	0.818	-0.247
-544.281	-200.000	0.005	-0.296
-543.266	-108.117	-0.244	-0.053
-542.252	-200.000	-0.047	0.372
-541.237	-140.618	-0.476	-0.049
-540.223	182.305	-0.103	-0.152
-539.208	-169.376	-0.087	0.003
-538.193	221.469	0.291	-0.468
-537.179	-107.307	-0.846	0.186
-536.164	800.000	-0.076	-0.221
-535.150	660.180	-0.251	-0.646
-534.135	-119.693	-0.632	-0.109
-533.121	-13.966	0.181	-0.117
-532.106	-200.000	0.056	-0.744
-531.091	244.717	-0.352	0.593
-530.077	800.000	0.118	-0.377
-529.062	800.000	-0.066	0.278
-528.048	43.373	0.740	0.677
-527.033	-156.449	-0.156	-0.010
-526.018	800.000	0.207	0.826
-525.004	16.615	0.500	0.396
-523.989	-200.000	-0.105	0.815
-522.975	633.328	-0.108	-0.274
-521.960	-200.000	0.076	-0.937
-520.945	800.000	-0.124	-0.483
-519.931	217.641	-0.144	0.229
-518.916	-200.000	0.021	0.629
-517.902	-200.000	-0.234	1.098
-516.887	-200.000	-0.021	0.105
-515.872	240.010	-0.550	-0.917
-514.858	-200.000	0.037	-0.201
-513.843	-200.000	0.212	-1.020
-512.829	128.606	-0.150	-0.191
-511.814	-200.000	-0.145	-0.968
-510.799	333.622	0.144	-0.278
-509.785	261.833	-0.570	0.989
-508.770	-200.000	0.019	0.514
-507.756	-200.000	0.115	-0.510
-506.741	144.338	0.292	0.390
-505.726	-200.000	-0.059	-0.303
-504.712	-92.936	0.892	0.249
-503.697	246.798	0.407	0.688
-502.683	-43.465	-0.233	-0.118
-501.668	-107.551	0.265	-0.058
-500.653	-45.579	-0.198	0.098
-499.639	-200.000	0.015	0.951
-498.624	-200.000	-0.076	-0.938
-497.610	145.000	0.146	-0.195
-496.595	332.113	0.075	0.145
-495.581	403.442	-0.272	-0.573
-494.566	-2.293	0.628	0.441
-493.551	-200.000	0.062	0.348
-492.537	-200.000	-0.012	0.091
-491.522	-35.343	-0.581	0.316
-490.508	-0.678	-0.692	0.491
-489.493	-61.279	0.743	-0.313
-488.478	376.096	-0.249	0.508
-487.464	-23.629	-0.160	-0.096
-486.449	738.466	-0.444	-1.190
-485.435	57.883	0.917	-0.897
-484.420	-167.212	-0.579	-0.023
-483.405	0.475	-0.118	0.085
-482.391	-45.792	-0.182	0.090
-481.376	268.245	0.773	1.353
-480.362	487.658	0.482	-1.099
-479.347	-89.570	-1.070	0.314
-478.332	256.276	-0.305	0.523
-477.318	-63.902	0.703	-0.288
-476.303	251.094	-0.194	-0.330
-475.289	18.482	0.572	0.457
-474.274	800.000	0.104	0.449
-473.259	-37.307	0.541	0.289
-472.245	68.711	-0.438	0.449
-471.230	-200.000	-0.070	0.315
-470.216	-165.422	0.960	0.042
-469.201	115.535	0.647	-0.790
-468.186	800.000	0.127	-0.532
-467.172	-108.344	0.195	-0.042
-466.157	800.000	0.130	-0.445
-465.143	800.000	0.306	-0.862
-464.128	800.000	0.270	-0.964
-463.113	-200.000	0.003	0.293
-462.099	-200.000	0.079	0.391
-461.084	-183.795	-0.486	0.008
-460.070	407.117	-0.253	-0.534
-459.055	74.810	-0.681	0.716
-458.040	-200.000	0.073	0.608
-457.026	-120.375	-0.467	-0.079
-456.011	-88.954	0.448	0.132
-454.997	-200.000	0.081	0.402
-453.982	-200.000	-0.008	0.612
-452.968	800.000	-0.253	0.953
-451.953	58.530	-1.027	1.006
-450.938	153.571	0.232	-0.318
-449.924	-166.169	0.373	-0.016
-448.909	26.796	-0.185	0.155
-447.895	19.953	0.576	0.463
-446.880	-105.213	-0.468	0.107
-445.865	-91.705	0.545	-0.155
-444.851	800.000	0.103	-0.410
-443.836	25.451	-0.530	-0.440
-442.822	171.236	-0.476	0.681
-441.807	97.779	-0.513	0.589
-440.792	-35.264	0.846	0.459
-439.778	-200.000	0.670	0.002
-438.763	-76.664	0.422	0.148
-437.749	-200.000	0.045	-0.281
-436.734	213.864	-0.271	-0.427
-435.719	356.542	-0.148	-0.294
-434.705	-126.482	0.556	-0.083
-433.690	-51.295	-0.212	0.099
-432.676	86.996	-0.334	-0.368
-431.661	800.000	-0.107	0.362
-430.646	90.105	0.583	-0.650
-429.632	522.899	0.095	-0.223
-428.617	-200.000	0.014	0.632
-427.603	-48.408	-0.464	-0.223
-426.588	-200.000	-0.036	0.640
-425.573	800.000	0.244	0.677
-424.559	47.651	-0.151	-0.141
-423.544	800.000	-0.030	0.133
-422.530	-200.000	-0.142	-0.661
-421.515	34.743	-0.344	0.300
-420.500	166.100	0.697	0.984
-419.486	235.674	-0.178	-0.294
-418.471	-25.119	-0.143	-0.084
-417.457	412.528	-0.244	0.517
-416.442	263.592	-0.200	0.346
-415.428	-146.041	-0.604	0.053
-414.413	-45.125	-0.265	0.131
-413.398	-47.986	0.610	-0.294
-412.384	-122.927	0.460	0.074
-411.369	322.413	-0.336	0.639
-410.355	144.096	-0.232	-0.309
-409.340	99.327	0.920	-1.060
-408.325	57.386	0.442	0.431
-407.311	354.044	-0.239	-0.474
-406.296	-100.687	-0.716	0.176
-405.282	280.489	-0.476	-0.847
-404.267	305.411	-0.034	-0.062
-403.252	43.809	0.685	0.625
-402.238	367.382	0.379	-0.763
-401.223	47.774	0.185	-0.172
-400.209	13.536	-0.672	0.519
-399.194	-6.918	1.190	0.806
-398.179	-17.116	0.845	-0.531
-397.165	-66.766	0.545	-0.215
-396.150	32.403	-0.273	0.235
-395.136	-124.253	-0.351	-0.055
-394.121	-154.229	-0.225	-0.015
-393.106	800.000	-0.272	0.793
-392.092	438.879	0.227	-0.493
-391.077	-85.651	0.059	0.018
-390.063	47.381	0.196	0.182
-389.048	-200.000	-0.066	0.331
-388.033	137.083	0.915	-1.191
-387.019	-77.198	-0.944	0.327
-386.004	343.456	-0.198	0.387
-384.990	550.594	0.025	-0.061
-383.975	101.961	-0.332	-0.385
-382.960	-6.223	-0.515	-0.350
-381.946	-126.271	-0.760	-0.113
-380.931	361.873	-0.171	-0.342
-379.917	436.445	-0.349	0.757
-378.902	-53.105	0.572	-0.261
-377.888	-138.019	-0.779	-0.086
-376.873	141.128	0.169	-0.223
-375.858	36.883	0.247	-0.217
-374.844	-172.544	-0.348	-0.011
-373.829	800.000	-0.080	-0.341
-372.815	253.359	0.415	-0.705
-371.800	800.000	-0.215	-0.739
-370.785	-83.054	0.403	0.129
-369.771	800.000	-0.130	0.429
-368.756	-78.941	0.936	-0.317
-367.742	33.336	-0.225	0.194
-366.727	18.215	0.379	-0.301
-365.712	17.599	-0.631	-0.499
-364.698	-0.840	0.473	0.334
-363.683	235.378	0.210	-0.344
-362.669	-49.219	-0.331	-0.157
-361.654	-131.012	0.759	0.101
-360.639	617.116	-0.093	-0.233
-359.625	-92.248	-0.102	-0.029
-358.610	-200.000	0.061	-1.347
-357.596	0.011	0.470	0.333
-356.581	-200.000	0.035	0.289
-355.566	56.358	0.312	-0.301
-354.552	800.000	-0.023	0.079
-353.537	-32.670	-0.524	0.290
-352.523	-64.333	0.992	-0.401
-351.508	-46.374	0.504	-0.246
-350.493	-200.000	-0.156	-1.130
-349.479	148.979	-0.344	-0.463
-348.464	-143.779	-1.095	-0.103
-347.450	-200.000	0.027	0.606
-346.435	296.822	-0.182	-0.332
-345.420	-74.443	-0.290	-0.104
-344.406	163.382	0.247	0.345
-343.391	-160.945	-0.512	0.027
-342.377	-164.753	0.283	0.013
-341.362	-128.014	0.776	-0.111
-340.348	-81.355	-0.437	-0.143
-339.333	-22.325	0.397	0.239
-338.318	-200.000	-0.005	0.086
-337.304	800.000	0.132	0.441
-336.289	-200.000	-0.123	0.604
-335.275	-175.745	0.684	0.018
-334.260	52.812	-0.564	0.535
-333.245	-55.686	0.504	-0.224
-332.231	-32.352	0.653	-0.362
-331.216	36.140	0.100	-0.087
-330.202	-176.942	-0.451	0.011
-329.187	-85.419	0.197	-0.061
-328.172	26.814	0.931	0.775
-327.158	-57.044	-0.698	0.306
-326.143	201.670	-0.177	0.270
-325.129	-200.000	-0.012	0.326
-324.114	-3.025	-0.574	-0.398
-323.099	-85.471	-0.356	0.110
-322.085	293.067	-0.162	-0.294
-321.070	-200.000	-0.048	-0.858
-320.056	-200.000	-0.082	-0.841
-319.041	-34.853	-1.029	-0.558
-318.026	29.716	0.788	0.667
-317.012	800.000	0.209	0.574
-315.997	66.836	0.506	0.511
-314.983	52.857	-0.109	0.104
-313.968	-200.000	0.058	-0.298
-312.953	785.607	-0.089	0.242
-311.939	46.873	0.544	0.502
-310.924	-107.725	0.379	-0.082
-309.910	477.751	0.015	0.034
-308.895	-200.000	-0.029	-0.190
-307.880	-52.456	-0.519	-0.238
-306.866	-200.000	-0.042	0.322
-305.851	-150.337	0.616	0.047
-304.837	406.619	-0.274	0.574
-303.822	-97.476	0.392	0.101
-302.807	800.000	-0.164	-0.489
-301.793	-20.982	-0.483	0.293
-300.778	-35.380	0.496	0.268
-299.764	-37.787	-0.367	0.194
-298.749	-111.322	-0.836	-0.169
-297.735	101.064	0.355	0.410
-296.720	577.799	0.077	-0.186
-295.705	-172.371	-0.926	-0.029
-294.691	268.253	0.222	0.386
-293.676	-200.000	-0.058	0.438
-292.662	138.431	0.096	-0.126
-291.647	-37.053	-0.476	-0.253
-290.632	-200.000	0.052	-0.603
-289.618	21.084	0.912	0.734
-288.603	-156.754	-0.558	-0.034
-287.589	-133.633	0.453	0.056
-286.574	-31.289	0.254	-0.142
-285.559	-42.123	-0.324	0.164
-284.545	218.280	-0.404	-0.640
-283.530	-200.000	0.023	-0.634
-282.516	84.212	-0.023	0.025
-281.501	-200.000	0.059	0.333
-280.486	378.558	-0.340	-0.690
-279.472	-8.999	-0.475	-0.315
-278.457	-200.000	0.006	0.099
-277.443	80.268	-0.363	0.388
-276.428	-136.057	0.511	0.059
-275.413	-108.050	0.328	0.071
-274.399	284.984	0.111	0.199
-273.384	-119.132	-0.371	0.064
-272.370	800.000	-0.089	-0.383
-271.355	-200.000	0.043	0.429
-270.340	-69.596	0.391	0.148
-269.326	-200.000	0.002	0.167
-268.311	50.481	0.335	0.314
-267.297	77.805	0.345	0.364
-266.282	421.353	0.286	0.607
-265.267	-49.276	-0.563	0.266
-264.253	800.000	0.027	-0.109
-263.238	-200.000	-0.030	0.278
-262.224	152.777	0.245	0.332
-261.209	207.549	0.107	0.165
-260.195	43.755	-0.528	-0.478
-259.180	-144.213	-0.618	0.057
-258.165	35.058	0.200	0.173
-257.151	-143.281	0.584	0.056
-256.136	-7.251	-0.658	0.442
-255.122	800.000	-0.152	-0.434
-254.107	3.487	-0.171	0.123
-253.092	-200.000	0.022	-0.220
-252.078	189.443	0.254	0.377
-251.063	445.809	-0.348	-0.757
-250.049	-29.017	0.439	0.249
-249.034	45.462	0.360	0.329
-248.019	-140.238	-0.310	-0.032
-247.005	40.770	-0.551	0.492
-245.990	-16.794	1.236	0.774
-244.976	-40.171	0.471	-0.243
-243.961	795.692	-0.413	1.125
-242.946	-73.241	-0.618	-0.224
-241.932	132.720	0.341	0.435
-240.917	61.756	0.619	0.611
-239.903	-38.832	-0.515	0.269
-238.888	-94.466	0.873	-0.236
-237.873	-15.423	0.213	0.135
-236.859	-158.919	-0.194	-0.011
-235.844	-200.000	0.023	0.269
-234.830	-200.000	0.099	-0.435
-233.815	-55.294	0.332	-0.147
-232.800	-4.141	0.425	-0.291
-231.786	-26.775	0.300	0.173
-230.771	-45.059	-0.362	0.178
-229.757	800.000	-0.126	-0.484
-228.742	96.992	-0.647	-0.734
-227.727	-200.000	-0.056	1.095
-226.713	-40.610	0.997	0.512
-225.698	-200.000	0.150	0.944
-224.684	800.000	0.138	-0.396
-223.669	593.552	-0.276	0.675
-222.655	-169.030	0.160	-0.006
-221.640	97.602	0.263	0.299
-220.625	141.055	-0.246	0.322
-219.611	800.000	0.152	-0.637
-218.596	40.557	0.468	0.417
-217.582	-70.269	-1.285	-0.483
-216.567	166.691	0.287	0.402
-215.552	-50.514	0.761	0.355
-214.538	-155.774	-0.283	-0.018
-213.523	161.290	0.299	0.413
-212.509	202.740	0.279	0.426
-211.494	-147.424	-0.933	-0.078
-210.479	-89.015	0.202	-0.059
-209.465	-13.835	-1.063	-0.679
-208.450	-140.306	-0.382	0.040
-207.436	-200.000	-0.016	0.969
-206.421	-200.000	0.706	0.001
-205.406	-18.672	0.200	0.123
-204.392	-99.353	0.365	0.091
-203.377	-5.793	0.262	0.177
-202.363	110.595	-0.370	-0.440
-201.348	-200.000	0.161	1.012
-200.333	295.126	-0.228	0.412
-199.319	325.968	-0.151	-0.286
-198.304	558.656	-0.096	-0.229
-197.290	-200.000	-0.200	-1.197
-196.275	157.401	-0.340	0.464
-195.260	-200.000	0.017	-0.086
-194.246	137.992	0.523	0.677
-193.231	67.287	-0.453	-0.457
-192.217	-166.904	-0.351	0.014
-191.202	19.395	0.528	0.420
-190.187	450.804	-0.237	-0.517
-189.173	800.000	-0.048	0.189
-188.158	72.759	0.197	0.203
-187.144	-106.824	-0.151	0.033
-186.129	413.979	0.215	0.453
-185.114	145.743	0.350	0.463
-184.100	-116.845	-0.371	0.067
-183.085	800.000	-0.297	0.916
-182.071	-22.352	0.606	-0.363
-181.056	800.000	0.076	-0.265
-180.042	-200.000	-0.049	-0.257
-179.027	-13.225	-0.443	-0.284
-178.012	-115.997	0.801	0.147
-176.998	-26.468	0.903	-0.523
-175.983	-200.000	0.001	-0.729
-174.969	-160.553	-0.864	-0.046
-173.954	-108.927	-0.718	-0.151
-172.939	-119.469	0.329	0.056
-171.925	-111.193	-0.869	0.176
-170.910	-29.962	-0.454	-0.255
-169.896	-200.000	-0.006	0.461
-168.881	-71.609	1.056	-0.389
-167.866	-140.379	0.447	0.046
-166.852	800.000	0.267	0.833
-165.837	306.374	-0.190	-0.349
-164.823	-50.914	0.770	-0.357
-163.808	-84.580	-0.423	-0.132
-162.793	135.650	-0.374	0.480
-161.779	800.000	-0.106	-0.318
-160.764	46.119	0.324	-0.296
-159.750	72.226	0.261	-0.269
-158.735	-8.677	0.359	-0.238
-157.720	136.187	0.169	0.217
-156.706	103.173	-0.210	-0.243
-155.691	44.250	-0.297	-0.269
-154.677	671.608	0.109	0.279
-153.662	299.535	-0.249	-0.452
-152.647	800.000	0.172	-0.570
-151.633	-138.940	1.317	0.141
-150.618	781.298	-0.210	-0.566
-149.604	255.324	0.347	-0.586
-148.589	81.628	0.404	-0.432
-147.574	137.163	-0.312	-0.402
-146.560	-200.000	0.019	-0.492
-145.545	800.000	-0.006	0.021
-144.531	-181.574	-0.565	0.011
-143.516	-98.771	-0.568	-0.143
-142.502	138.144	-0.329	-0.425
-141.487	-200.000	-0.088	0.380
-140.472	-89.752	0.126	0.036
-139.458	301.962	0.262	-0.479
-138.443	-200.000	0.005	0.207
-137.429	373.942	0.236	-0.473
-136.414	2.708	-0.337	0.241
-135.399	-52.220	0.129	0.059
-134.385	5.369	0.295	-0.214
-133.370	-96.506	-0.109	0.028
-132.356	800.000	0.218	0.785
-131.341	800.000	-0.553	1.510
-130.326	-42.870	0.225	-0.113
-129.312	-200.000	0.036	-0.791
-128.297	-38.040	-0.197	-0.103
-127.283	-85.803	-0.127	0.039
-126.268	-141.520	-0.797	0.079
-125.253	-146.376	0.543	0.047
-124.239	-200.000	0.001	0.544
-123.224	-200.000	-0.011	0.462
-122.210	-200.000	-0.096	-0.648
-121.195	296.340	-0.239	-0.431
