DTS Sentinel unit serial number:	SN413079Multiplexer serial number:	ORYXHardware model number:	OX4-SRSoftware version number:	ORYX F/W v4.00 Oryx Data Collector v3.7.2.0data status	okinstallation	princeton_trtdifferential loss correction	single-endedforward channel	channel 1reverse channel	N/Adate	2019/09/15time	09:30:35forward acquisition time	60.00reverse acquisition time	0.00gamma	496.2192k internal	0.2311k external	0.2311temperature offset calibration	0.9979default loss term (dB/km)	0.3790temperature slope calibration	1.0000multiplexer offset coefficient	1.0000multiplexer slope coefficient	1.0000fibre end	0.00T internal ref (°C)	33.75T ext. ref 1 (°C)	4.95T ext. ref 2 (°C)	30.17length (m)	temperature (°C)	Stokes	anti-Stokes-747.200	-200.000	0.039	-0.204
-746.185	105.707	-0.143	0.172
-745.171	-200.000	0.001	-0.231
-744.156	-140.543	-0.162	-0.017
-743.142	-19.994	-0.450	0.282
-742.127	224.102	-0.053	0.087
-741.112	796.586	0.062	-0.173
-740.098	-38.279	-0.381	0.205
-739.083	245.626	-0.098	-0.167
-738.069	2.949	-0.136	-0.100
-737.054	-200.000	0.017	-0.152
-736.039	336.612	-0.093	0.183
-735.025	-184.836	-0.427	-0.007
-734.010	-13.502	-0.166	-0.109
-732.996	-6.819	-0.460	0.317
-731.981	207.641	-0.169	-0.267
-730.966	-2.798	-0.136	0.096
-729.952	77.950	-0.287	-0.310
-728.937	-115.670	-0.163	-0.031
-727.923	175.148	0.136	-0.199
-726.908	669.444	0.038	-0.099
-725.894	18.271	-0.287	-0.232
-724.879	262.400	0.095	0.168
-723.864	73.413	-0.122	0.130
-722.850	-149.247	-0.294	-0.024
-721.835	133.699	-0.059	0.077
-720.821	48.222	-0.202	0.191
-719.806	-126.235	0.073	-0.011
-718.791	719.083	-0.169	0.455
-717.777	-200.000	0.006	0.052
-716.762	-200.000	0.007	0.074
-715.748	-153.385	0.196	0.014
-714.733	43.825	0.317	0.294
-713.718	8.774	-0.282	-0.216
-712.704	-41.725	-0.166	-0.086
-711.689	-24.454	0.077	-0.047
-710.675	800.000	0.039	0.122
-709.660	297.161	-0.082	-0.153
-708.645	-200.000	0.017	0.206
-707.631	-200.000	-0.036	-0.231
-706.616	-200.000	-0.108	0.510
-705.602	-146.275	0.085	0.008
-704.587	13.426	-0.215	0.169
-703.572	200.820	0.196	0.305
-702.558	45.103	0.312	-0.291
-701.543	17.305	-0.105	-0.084
-700.529	-107.229	0.113	0.025
-699.514	-200.000	0.004	-0.231
-698.499	800.000	-0.037	0.138
-697.485	252.479	-0.139	0.239
-696.470	-113.313	0.102	-0.020
-695.456	8.998	0.098	0.075
-694.441	195.812	0.285	-0.440
-693.426	-200.000	-0.035	-0.307
-692.412	81.541	-0.063	0.069
-691.397	419.453	-0.191	-0.414
-690.383	75.848	0.216	-0.232
-689.368	-200.000	-0.020	0.096
-688.354	-102.762	0.065	-0.016
-687.339	-148.104	0.232	-0.019
-686.324	-58.561	0.085	-0.037
-685.310	800.000	0.024	-0.090
-684.295	-200.000	0.013	-0.146
-683.281	-153.168	-0.255	-0.018
-682.266	227.812	0.074	-0.122
-681.251	8.361	-0.195	-0.149
-680.237	800.000	-0.072	-0.255
-679.222	-61.710	-0.186	0.079
-678.208	10.335	-0.094	0.073
-677.193	-162.070	-0.161	-0.008
-676.178	-173.505	0.114	-0.003
-675.164	720.952	-0.196	-0.527
-674.149	-66.442	-0.014	0.006
-673.135	-78.746	-0.023	0.008
-672.120	-200.000	-0.003	-0.116
-671.105	-200.000	0.020	0.177
-670.091	-174.545	-0.115	-0.003
-669.076	-64.674	-0.235	0.097
-668.062	-82.752	-0.242	0.079
-667.047	-200.000	-0.020	-0.411
-666.032	60.723	0.155	-0.156
-665.018	-200.000	-0.007	-0.075
-664.003	-32.805	-0.271	-0.153
-662.989	58.613	-0.166	-0.165
-661.974	56.524	0.119	-0.117
-660.959	191.395	0.060	0.092
-659.945	174.480	0.025	-0.036
-658.930	-85.916	-0.148	0.046
-657.916	-169.615	-0.179	-0.007
-656.901	6.562	0.118	-0.089
-655.886	109.129	-0.026	0.031
-654.872	-200.000	0.005	-0.193
-653.857	351.245	-0.028	-0.056
-652.843	-7.811	0.127	0.087
-651.828	-108.108	-0.216	-0.047
-650.814	-26.966	-0.157	-0.093
-649.799	-31.810	0.214	0.121
-648.784	-91.762	0.474	-0.136
-647.770	-200.000	0.020	-0.269
-646.755	153.347	-0.254	-0.351
-645.741	27.805	-0.362	-0.308
-644.726	800.000	0.050	-0.193
-643.711	800.000	-0.086	-0.250
-642.697	-46.879	-0.148	0.073
-641.682	-200.000	-0.037	0.164
-640.668	800.000	0.107	0.391
-639.653	800.000	0.115	-0.332
-638.638	82.015	0.101	0.111
-637.624	0.893	0.073	0.053
-636.609	-200.000	-0.035	0.210
-635.595	-182.610	0.101	0.002
-634.580	800.000	0.086	0.314
-633.565	83.500	0.119	-0.131
-632.551	-200.000	-0.003	-0.100
-631.536	-43.761	0.194	-0.099
-630.522	-34.709	0.102	-0.056
-629.507	532.740	-0.097	-0.233
-628.492	800.000	-0.046	-0.169
-627.478	-200.000	-0.009	-0.224
-626.463	-200.000	0.003	0.020
-625.449	-200.000	-0.008	0.138
-624.434	-82.851	0.356	0.116
-623.419	109.130	0.109	-0.132
-622.405	392.252	0.145	0.306
-621.390	61.306	0.240	0.241
-620.376	-177.628	0.496	-0.012
-619.361	800.000	0.104	0.297
-618.346	-200.000	0.028	0.281
-617.332	-200.000	0.008	0.132
-616.317	65.247	0.250	0.256
-615.303	800.000	0.019	0.074
-614.288	-58.404	-0.412	0.181
-613.273	608.373	0.069	0.174
-612.259	-200.000	0.013	-0.109
-611.244	8.815	-0.157	0.120
-610.230	-93.652	-0.248	0.069
-609.215	781.413	0.077	0.213
-608.201	35.521	-0.096	-0.085
-607.186	-70.804	0.207	-0.079
-606.171	-127.973	0.232	0.034
-605.157	-110.043	-0.120	-0.025
-604.142	-200.000	-0.021	0.261
-603.128	680.198	-0.080	0.210
-602.113	54.300	-0.180	-0.175
-601.098	-52.533	-0.134	-0.062
-600.084	127.980	0.128	0.164
-599.069	-200.000	-0.096	0.436
-598.055	66.967	0.111	-0.114
-597.040	-181.463	0.184	-0.004
-596.025	-35.831	0.312	-0.170
-595.011	-200.000	-0.034	-0.372
-593.996	-10.573	0.333	-0.222
-592.982	25.352	-0.344	-0.289
-591.967	-70.043	0.131	-0.050
-590.952	579.381	-0.046	-0.113
-589.938	800.000	0.079	-0.222
-588.923	-200.000	-0.013	-0.198
-587.909	-200.000	0.039	-0.336
-586.894	458.114	-0.124	0.278
-585.879	800.000	0.031	0.098
-584.865	12.437	0.123	-0.096
-583.850	-27.078	0.055	-0.032
-582.836	350.870	0.155	0.309
-581.821	58.894	-0.091	-0.091
-580.806	30.805	-0.214	0.185
-579.792	46.354	-0.112	-0.105
-578.777	9.231	0.154	-0.117
-577.763	-200.000	-0.018	-0.127
-576.748	49.947	0.142	-0.135
-575.733	-51.689	0.236	0.111
-574.719	800.000	0.064	0.205
-573.704	97.675	0.160	0.186
-572.690	-200.000	-0.015	0.291
-571.675	-188.283	-0.175	-0.002
-570.661	259.433	-0.021	0.036
-569.646	-48.783	-0.364	-0.176
-568.631	-7.286	-0.083	0.057
-567.617	111.095	0.177	0.215
-566.602	84.312	0.159	-0.175
-565.588	-0.589	-0.100	-0.071
-564.573	54.416	-0.054	-0.053
-563.558	800.000	0.054	0.158
-562.544	-39.367	0.359	0.190
-561.529	-130.626	0.056	-0.008
-560.515	-200.000	-0.019	-0.347
-559.500	-53.533	-0.420	0.194
-558.485	-200.000	0.010	0.099
-557.471	-66.007	-0.043	0.017
-556.456	-53.565	-0.327	-0.151
-555.442	124.250	-0.055	-0.069
-554.427	129.077	0.154	0.197
-553.412	418.692	-0.060	-0.130
-552.398	84.085	0.117	-0.129
-551.383	-200.000	0.012	-0.141
-550.369	-200.000	-0.004	0.200
-549.354	-200.000	-0.020	-0.140
-548.339	-122.132	-0.363	0.060
-547.325	-77.303	0.148	0.052
-546.310	800.000	-0.099	-0.299
-545.296	-101.971	-0.392	0.095
-544.281	74.929	-0.221	0.234
-543.266	331.056	0.083	-0.161
-542.252	-25.159	0.118	-0.070
-541.237	-102.698	0.151	0.036
-540.223	-59.954	-0.066	-0.029
-539.208	273.975	-0.057	0.102
-538.193	-200.000	-0.101	0.527
-537.179	487.367	-0.048	-0.111
-536.164	-95.857	0.097	0.026
-535.150	-200.000	0.005	0.080
-534.135	77.076	0.050	0.054
-533.121	-77.521	-0.075	-0.026
-532.106	-9.113	-0.120	0.081
-531.091	-145.756	-0.257	-0.023
-530.077	-75.065	-0.206	-0.074
-529.062	-161.464	-0.438	0.023
-528.048	-57.047	-0.323	0.143
-527.033	-77.072	-0.165	-0.058
-526.018	-90.741	-0.248	0.072
-525.004	-200.000	0.045	0.301
-523.989	800.000	-0.065	-0.195
-522.975	-57.797	0.016	0.007
-521.960	-200.000	-0.026	0.146
-520.945	196.606	-0.108	0.166
-519.931	242.366	0.177	-0.298
-518.916	342.504	0.159	0.313
-517.902	-200.000	0.032	-0.202
-516.887	295.242	0.185	-0.341
-515.872	-38.875	-0.359	0.191
-514.858	268.981	0.122	-0.216
-513.843	-102.369	0.264	0.064
-512.829	159.539	-0.055	-0.077
-511.814	-200.000	-0.028	-0.130
-510.799	-200.000	0.482	-0.000
-509.785	59.620	-0.103	0.102
-508.770	-200.000	0.050	-0.348
-507.756	134.917	0.158	-0.206
-506.741	-58.494	0.314	-0.137
-505.726	141.735	-0.126	-0.167
-504.712	237.561	-0.066	-0.110
-503.697	81.393	-0.105	-0.114
-502.683	331.532	-0.042	-0.082
-501.668	-0.376	0.139	-0.099
-500.653	162.346	0.015	-0.022
-499.639	-89.587	-0.330	-0.097
-498.624	87.402	-0.177	-0.197
-497.610	-41.960	-0.122	-0.063
-496.595	-59.105	0.190	-0.082
-495.581	132.407	-0.265	-0.343
-494.566	372.451	0.057	-0.116
-493.551	21.398	0.251	0.205
-492.537	-42.752	-0.158	0.081
-491.522	308.639	-0.107	0.200
-490.508	-200.000	-0.039	0.182
-489.493	590.084	-0.060	-0.148
-488.478	477.662	0.090	-0.204
-487.464	-123.581	0.118	-0.019
-486.449	-133.988	0.130	-0.016
-485.435	131.335	0.136	-0.176
-484.420	10.559	0.061	0.047
-483.405	-100.878	-0.310	0.077
-482.391	-200.000	0.023	-0.198
-481.376	64.801	0.385	-0.390
-480.362	45.787	-0.161	0.150
-479.347	79.123	0.059	-0.064
-478.332	-64.025	-0.255	-0.105
-477.318	-41.665	-0.255	0.132
-476.303	82.682	0.091	0.099
-475.289	-56.457	0.106	-0.047
-474.274	84.445	0.123	-0.136
-473.259	-44.953	0.206	-0.103
-472.245	78.347	0.025	0.026
-471.230	162.735	-0.158	-0.223
-470.216	22.266	-0.265	0.217
-469.201	-200.000	0.002	-0.133
-468.186	-45.908	-0.153	-0.076
-467.172	20.378	-0.119	-0.096
-466.157	-200.000	0.022	-0.116
-465.143	-60.379	-0.398	-0.170
-464.128	482.236	-0.057	0.130
-463.113	9.769	-0.246	0.187
-462.099	-143.924	-0.179	-0.017
-461.084	-136.144	-0.359	0.042
-460.070	-200.000	0.019	0.158
-459.055	-160.619	-0.259	-0.014
-458.040	800.000	0.045	0.185
-457.026	-200.000	-0.055	-0.275
-456.011	7.894	0.345	0.260
-454.997	800.000	-0.090	-0.322
-453.982	55.778	-0.203	-0.198
-452.968	66.472	-0.054	-0.055
-451.953	333.144	-0.146	-0.284
-450.938	93.978	0.220	-0.250
-449.924	-200.000	-0.056	-0.414
-448.909	-97.846	0.240	0.062
-447.895	466.045	0.156	0.351
-446.880	245.225	0.045	0.077
-445.865	90.247	0.044	0.049
-444.851	196.629	0.052	0.079
-443.836	-101.000	0.084	-0.021
-442.822	89.022	-0.103	-0.115
-441.807	750.246	-0.077	0.209
-440.792	-200.000	0.020	-0.162
-439.778	-200.000	-0.018	-0.105
-438.763	-39.687	-0.330	-0.173
-437.749	68.400	-0.099	0.102
-436.734	800.000	-0.048	-0.137
-435.719	-52.634	0.306	0.142
-434.705	-200.000	0.001	0.343
-433.690	8.651	-0.126	0.095
-432.676	-129.987	-0.159	0.022
-431.661	-200.000	-0.031	-0.176
-430.646	-58.329	0.181	0.079
-429.632	159.204	0.149	-0.208
-428.617	-3.124	0.080	0.056
-427.603	117.762	-0.096	0.119
-426.588	-200.000	0.015	0.368
-425.573	800.000	-0.123	0.356
-424.559	-33.470	0.102	0.056
-423.544	-61.751	-0.184	0.077
-422.530	75.429	-0.178	0.188
-421.515	256.710	-0.166	-0.285
-420.500	57.537	-0.069	-0.068
-419.486	-112.366	-0.176	0.035
-418.471	163.175	-0.193	0.272
-417.457	66.882	0.109	-0.112
-416.442	800.000	-0.044	-0.184
-415.428	-86.712	-0.134	-0.041
-414.413	-200.000	-0.004	-0.056
-413.398	58.973	-0.145	-0.143
-412.384	160.971	-0.051	-0.072
-411.369	800.000	-0.060	-0.227
-410.355	100.887	-0.131	0.153
-409.340	11.024	0.192	0.147
-408.325	125.783	-0.178	0.225
-407.311	-200.000	-0.048	0.420
-406.296	-200.000	-0.026	-0.223
-405.282	45.853	0.214	0.198
-404.267	-200.000	0.011	0.145
-403.252	-200.000	0.035	0.282
-402.238	-49.005	0.180	-0.086
-401.223	-148.342	0.128	-0.011
-400.209	-103.194	-0.319	0.076
-399.194	-200.000	-0.064	0.298
-398.179	-150.611	0.057	0.004
-397.165	21.792	0.051	0.041
-396.150	800.000	0.077	0.225
-395.136	-200.000	0.029	0.262
-394.121	800.000	-0.113	-0.371
-393.106	-142.790	0.338	0.033
-392.092	156.325	-0.091	0.126
-391.077	-200.000	-0.046	0.266
-390.063	197.793	-0.100	-0.153
-389.048	-130.482	0.283	-0.038
-388.033	252.532	-0.244	0.416
-387.019	71.390	0.149	-0.155
-386.004	-200.000	-0.003	0.068
-384.990	800.000	-0.156	-0.441
-383.975	-114.245	0.303	0.059
-382.960	-200.000	-0.056	0.432
-381.946	288.009	0.146	0.264
-380.931	134.473	-0.009	0.012
-379.917	-200.000	-0.003	0.153
-378.902	118.724	0.049	-0.060
-377.888	-120.670	0.270	0.046
-376.873	-200.000	0.049	-0.241
-375.858	132.750	-0.088	-0.113
-374.844	358.918	-0.159	0.317
-373.829	11.218	0.209	0.160
-372.815	-56.028	-0.330	-0.147
-371.800	-123.861	0.298	-0.047
-370.785	-38.535	0.057	-0.030
-369.771	-6.729	0.230	-0.157
-368.756	-160.463	0.363	-0.019
-367.742	3.814	-0.131	0.096
-366.727	-200.000	-0.024	0.146
-365.712	-128.698	0.184	-0.026
-364.698	-170.654	0.137	0.005
-363.683	-32.583	0.147	-0.082
-362.669	269.196	0.042	-0.074
-361.654	-79.149	-0.239	0.081
-360.639	37.082	-0.219	-0.193
-359.625	539.439	0.068	-0.161
-358.610	725.951	-0.047	0.125
-357.596	134.509	0.167	0.217
-356.581	-200.000	-0.038	-0.246
-355.566	-200.000	0.025	-0.236
-354.552	-109.919	0.415	0.087
-353.537	297.430	0.145	0.267
-352.523	-86.442	0.145	0.045
-351.508	-74.074	0.201	-0.073
-350.493	366.735	0.071	0.143
-349.479	-98.197	0.127	-0.033
-348.464	67.693	0.126	-0.129
-347.450	800.000	0.031	0.099
-346.435	-200.000	0.003	0.129
-345.420	800.000	-0.021	0.091
-344.406	-34.663	-0.392	-0.215
-343.391	160.441	0.168	-0.234
-342.377	22.525	0.183	0.150
-341.362	-91.681	-0.245	-0.070
-340.348	-118.931	0.351	-0.062
-339.333	306.644	-0.066	0.123
-338.318	149.472	0.219	0.297
-337.304	-61.411	0.141	-0.059
-336.289	-63.696	0.216	0.088
-335.275	13.762	0.121	-0.094
-334.260	-200.000	-0.018	-0.199
-333.245	-132.147	0.381	0.049
-332.231	-89.540	0.093	0.027
-331.216	-173.518	-0.175	-0.005
-330.202	-94.917	-0.176	0.048
-329.187	800.000	0.103	-0.299
-328.172	-34.102	0.203	0.111
-327.158	-20.015	-0.133	-0.082
-326.143	6.229	-0.233	0.173
-325.129	-15.300	-0.054	-0.035
-324.114	800.000	0.103	0.338
-323.099	800.000	-0.022	0.072
-322.085	302.515	-0.164	0.303
-321.070	62.401	-0.124	0.124
-320.056	-179.460	-0.128	0.003
-319.041	49.341	-0.091	0.086
-318.026	-112.642	-0.200	0.040
-317.012	64.448	-0.015	0.016
-315.997	-200.000	-0.010	-0.239
-314.983	32.820	0.090	-0.078
-313.968	48.366	-0.205	0.191
-312.953	513.033	0.048	0.111
-311.939	58.799	0.101	0.099
-310.924	74.794	0.163	0.171
-309.910	299.680	0.140	-0.257
-308.895	-73.388	0.125	-0.045
-307.880	300.092	0.054	-0.099
-306.866	147.805	0.104	-0.140
-305.851	7.292	-0.110	-0.082
-304.837	-40.165	-0.319	-0.166
-303.822	800.000	0.059	0.250
-302.807	800.000	0.036	0.126
-301.793	800.000	-0.118	0.352
-300.778	-200.000	0.026	0.139
-299.764	-44.641	-0.102	0.051
-298.749	211.550	0.145	0.227
-297.735	-104.552	-0.208	-0.048
-296.720	94.347	0.240	0.272
-295.705	-64.619	0.250	-0.101
-294.691	-15.826	-0.163	0.104
-293.676	-65.376	0.115	-0.046
-292.662	-200.000	-0.020	0.229
-291.647	-60.649	-0.106	0.045
-290.632	-3.488	-0.191	-0.132
-289.618	-27.094	-0.054	0.032
-288.603	-15.549	0.123	-0.078
-287.589	-135.467	0.300	-0.036
-286.574	8.269	0.280	-0.210
-285.559	-28.094	-0.251	0.145
-284.545	167.478	0.113	0.160
-283.530	-29.601	-0.302	-0.172
-282.516	14.831	0.177	-0.138
-281.501	800.000	0.097	0.294
-280.486	-200.000	-0.041	0.268
-279.472	-172.905	0.298	-0.009
-278.457	198.523	0.069	-0.106
-277.443	800.000	-0.053	-0.149
-276.428	-101.889	0.461	-0.111
-275.413	-80.508	-0.257	0.086
-274.399	800.000	0.021	-0.076
-273.384	-93.701	0.198	0.054
-272.370	142.612	0.088	-0.117
-271.355	-53.177	0.077	-0.035
-270.340	-200.000	0.001	0.172
-269.326	59.793	0.336	0.331
-268.311	-48.429	-0.086	-0.041
-267.297	309.826	-0.019	0.035
-266.282	-66.923	0.163	0.064
-265.267	143.312	-0.053	0.070
-264.253	-73.940	-0.222	0.080
-263.238	136.810	-0.159	-0.207
-262.224	436.594	0.115	0.250
-261.209	-100.585	-0.320	0.079
-260.195	-142.547	-0.180	0.018
-259.180	-200.000	0.032	-0.294
-258.165	800.000	0.011	0.036
-257.151	-182.970	0.091	0.002
-256.136	91.033	0.194	-0.217
-255.122	36.896	-0.035	-0.031
-254.107	-64.868	-0.288	0.116
-253.092	1.326	-0.246	-0.176
-252.078	77.397	-0.111	0.118
-251.063	-128.452	-0.127	-0.018
-250.049	10.242	0.117	-0.089
-249.034	146.153	0.103	-0.138
-248.019	-200.000	0.020	0.364
-247.005	-169.401	0.077	-0.003
-245.990	2.799	-0.212	-0.153
-244.976	-31.769	0.119	-0.066
-243.961	349.850	0.061	-0.120
-242.946	-29.486	-0.207	-0.118
-241.932	-200.000	-0.004	0.069
-240.917	-18.288	-0.036	0.023
-239.903	-81.262	0.204	-0.067
-238.888	800.000	-0.016	-0.050
-237.873	-107.705	0.009	0.002
-236.859	800.000	-0.026	-0.083
-235.844	210.883	-0.054	-0.085
-234.830	132.265	-0.102	-0.131
-233.815	-124.011	-0.334	0.052
-232.800	-200.000	-0.051	-0.248
-231.786	800.000	-0.047	-0.156
-230.771	-85.909	-0.188	0.058
-229.757	-200.000	0.103	0.000
-228.742	216.199	-0.058	0.092
-227.727	-114.500	0.129	0.025
-226.713	-9.167	0.073	0.048
-225.698	-142.276	-0.090	-0.009
-224.684	-159.293	-0.199	0.011
-223.669	-200.000	0.027	-0.230
-222.655	-73.461	-0.114	-0.042
-221.640	420.866	0.144	-0.308
-220.625	353.980	-0.170	-0.336
-219.611	-83.722	-0.220	-0.070
-218.596	-109.424	0.076	-0.016
-217.582	-60.072	-0.213	-0.091
-216.567	-97.893	-0.143	-0.037
-215.552	-200.000	-0.002	-0.183
-214.538	73.175	-0.138	-0.143
-213.523	-85.464	0.135	0.042
-212.509	390.409	0.089	-0.183
-211.494	83.216	-0.151	0.163
-210.479	248.724	0.108	0.181
-209.465	-112.359	-0.088	-0.018
-208.450	-45.058	-0.152	-0.075
-207.436	-166.184	0.160	-0.007
-206.421	38.932	-0.157	-0.139
-205.406	-200.000	-0.011	0.051
-204.392	-100.210	-0.217	-0.054
-203.377	384.214	0.089	-0.182
-202.363	-200.000	0.013	0.094
-201.348	-200.000	-0.068	-0.302
-200.333	562.055	-0.126	-0.304
-199.319	800.000	0.027	-0.083
-198.304	2.988	-0.069	-0.050
-197.290	36.892	0.152	-0.134
-196.275	-71.526	-0.069	0.026
-195.260	-200.000	0.005	-0.049
-194.246	55.380	0.207	0.199
-193.231	179.611	-0.188	0.273
-192.217	-70.964	0.260	-0.097
-191.202	-200.000	-0.002	-0.053
-190.187	-75.824	-0.202	0.071
-189.173	766.572	-0.027	0.074
-188.158	-200.000	0.030	-0.434
-187.144	48.721	0.192	0.179
-186.129	182.673	0.134	0.197
-185.114	-200.000	-0.005	0.098
-184.100	-7.715	0.262	-0.176
-183.085	544.654	0.060	-0.142
-182.071	-127.912	0.299	0.043
-181.056	-84.814	0.074	-0.023
-180.042	121.806	0.283	-0.351
-179.027	-81.932	0.146	0.047
-178.012	-72.873	0.273	0.100
-176.998	161.332	-0.152	0.212
-175.983	-65.227	-0.137	-0.055
-174.969	-200.000	-0.025	-0.376
-173.954	-200.000	0.025	0.478
-172.939	13.196	0.227	-0.174
-171.925	643.295	-0.080	-0.202
-170.910	179.021	-0.204	0.296
-169.896	87.251	-0.062	-0.068
-168.881	-61.006	0.420	0.176
-167.866	-200.000	-0.005	-0.143
-166.852	-200.000	-0.011	0.115
-165.837	-73.172	-0.328	-0.119
-164.823	36.771	0.147	0.129
-163.808	-52.968	0.205	0.094
-162.793	-16.828	-0.117	-0.073
-161.779	115.215	-0.083	-0.100
-160.764	800.000	-0.027	-0.084
-159.750	-140.762	-0.461	-0.047
-158.735	319.273	0.138	0.260
-157.720	4.790	-0.189	0.138
-156.706	800.000	-0.106	0.345
-155.691	-200.000	-0.034	0.228
-154.677	1.686	0.048	-0.034
-153.662	71.079	-0.304	-0.313
-152.647	642.576	0.045	0.114
-151.633	-200.000	0.028	0.188
-150.618	177.526	-0.036	0.052
-149.604	-144.979	-0.400	0.036
-148.589	270.322	0.121	0.212
-147.574	-200.000	-0.013	-0.093
-146.560	3.444	-0.308	-0.223
-145.545	-33.632	-0.183	-0.100
-144.531	59.876	0.112	-0.109
-143.516	245.474	0.038	-0.063
-142.502	144.603	-0.394	0.523
-141.487	381.976	0.037	-0.076
-140.472	-200.000	0.023	-0.116
-139.458	289.201	-0.097	-0.174
-138.443	-200.000	0.029	-0.189
-137.429	-200.000	0.059	-0.426
-136.414	-102.031	-0.218	-0.052
-135.399	-31.745	0.224	-0.125
-134.385	542.211	-0.185	0.436
-133.370	-25.862	0.294	-0.172
-132.356	190.023	0.047	0.070
-131.341	-94.997	-0.214	0.057
-130.326	-63.800	0.076	-0.031
-129.312	800.000	-0.100	-0.392
-128.297	1.938	0.076	-0.054
-127.283	-159.091	-0.305	-0.017
-126.268	-69.199	-0.225	0.086
-125.253	26.637	0.115	0.095
-124.239	-200.000	-0.018	0.179
-123.224	-171.916	-0.276	0.009
-122.210	-16.594	-0.344	0.216
-121.195	304.062	0.194	-0.357
