DTS Sentinel unit serial number:	SN413079Multiplexer serial number:	ORYXHardware model number:	OX4-SRSoftware version number:	ORYX F/W v4.00 Oryx Data Collector v3.7.2.0data status	okinstallation	princeton_trtdifferential loss correction	single-endedforward channel	channel 1reverse channel	N/Adate	2019/09/12time	22:54:35forward acquisition time	60.00reverse acquisition time	0.00gamma	496.2192k internal	0.2327k external	0.2327temperature offset calibration	1.0145default loss term (dB/km)	0.3790temperature slope calibration	1.0000multiplexer offset coefficient	1.0000multiplexer slope coefficient	1.0000fibre end	0.00T internal ref (°C)	29.37T ext. ref 1 (°C)	3.71T ext. ref 2 (°C)	23.95length (m)	temperature (°C)	Stokes	anti-Stokes-747.200	66.681	0.146	0.149
-746.185	115.616	0.127	0.157
-745.171	-162.749	0.122	-0.006
-744.156	11.970	0.136	0.105
-743.142	319.051	-0.073	-0.139
-742.127	37.183	0.101	-0.090
-741.112	-200.000	0.011	0.143
-740.098	-33.288	-0.473	0.264
-739.083	-200.000	0.001	0.242
-738.069	-27.269	0.220	0.129
-737.054	285.964	-0.152	-0.276
-736.039	291.182	-0.245	-0.450
-735.025	800.000	0.165	0.506
-734.010	23.758	0.181	0.150
-732.996	-78.301	-0.172	0.060
-731.981	-123.349	0.201	-0.032
-730.966	35.665	0.241	-0.214
-729.952	-38.398	-0.077	-0.041
-728.937	-80.694	-0.220	0.074
-727.923	35.351	-0.108	-0.095
-726.908	800.000	0.032	0.103
-725.894	130.312	0.099	0.128
-724.879	-129.747	0.258	0.036
-723.864	-200.000	0.018	0.148
-722.850	783.665	-0.082	-0.227
-721.835	366.133	-0.070	0.142
-720.821	-200.000	-0.019	-0.141
-719.806	-71.935	-0.183	0.068
-718.791	71.408	0.181	0.189
-717.777	-200.000	0.032	-0.146
-716.762	-200.000	-0.016	-0.083
-715.748	-14.180	-0.224	-0.146
-714.733	-62.921	-0.186	0.078
-713.718	297.344	0.146	0.270
-712.704	372.608	-0.194	-0.397
-711.689	-77.446	-0.249	-0.087
-710.675	133.973	0.171	0.223
-709.660	-200.000	-0.033	-0.197
-708.645	643.495	0.088	-0.225
-707.631	-92.241	0.154	-0.044
-706.616	-123.019	0.169	0.027
-705.602	112.383	-0.120	0.146
-704.587	643.334	-0.034	0.086
-703.572	800.000	-0.091	-0.384
-702.558	-58.079	0.085	-0.037
-701.543	87.995	0.078	-0.087
-700.529	-200.000	0.071	0.000
-699.514	76.685	0.086	0.092
-698.499	-14.356	0.058	0.038
-697.485	-39.096	0.161	0.085
-696.470	296.899	-0.140	-0.258
-695.456	-200.000	0.012	0.100
-694.441	735.460	0.023	0.062
-693.426	-130.208	0.229	0.031
-692.412	-200.000	0.012	0.121
-691.397	67.835	-0.154	0.158
-690.383	-50.132	-0.201	-0.096
-689.368	147.992	-0.209	-0.283
-688.354	-200.000	0.008	0.276
-687.339	42.772	0.087	0.079
-686.324	58.174	-0.109	-0.108
-685.310	-200.000	-0.020	0.218
-684.295	800.000	0.078	0.332
-683.281	133.507	0.227	-0.295
-682.266	444.589	-0.075	-0.167
-681.251	13.620	-0.206	-0.161
-680.237	138.893	-0.150	-0.199
-679.222	-40.082	0.084	0.044
-678.208	-200.000	-0.011	-0.211
-677.193	126.310	0.128	-0.162
-676.178	-106.567	-0.044	0.010
-675.164	28.727	0.255	0.217
-674.149	-200.000	0.028	0.322
-673.135	97.220	0.129	-0.149
-672.120	-56.314	0.202	-0.090
-671.105	7.058	0.125	0.094
-670.091	324.981	0.075	0.144
-669.076	-138.777	0.127	0.014
-668.062	-60.813	0.216	-0.092
-667.047	108.184	-0.243	0.291
-666.032	275.301	0.135	0.240
-665.018	5.725	0.060	0.045
-664.003	243.564	-0.064	-0.107
-662.989	74.149	0.114	0.120
-661.974	21.220	0.022	0.018
-660.959	240.565	-0.180	-0.302
-659.945	-140.621	0.059	-0.006
-658.930	-25.336	0.145	-0.086
-657.916	69.053	-0.065	0.067
-656.901	146.419	0.118	0.160
-655.886	374.559	0.120	0.245
-654.872	171.935	-0.162	-0.235
-653.857	91.046	-0.171	-0.193
-652.843	13.384	-0.080	0.062
-651.828	-200.000	0.011	0.079
-650.814	12.669	-0.282	0.219
-649.799	-39.399	0.167	-0.088
-648.784	10.454	0.096	0.073
-647.770	-94.866	-0.176	0.048
-646.755	-90.011	-0.067	-0.020
-645.741	-41.766	-0.243	0.125
-644.726	-196.987	0.253	0.002
-643.711	800.000	-0.011	-0.037
-642.697	50.496	-0.087	-0.082
-641.682	-200.000	-0.038	-0.209
-640.668	19.584	-0.056	-0.045
-639.653	20.044	0.282	0.229
-638.638	-59.132	-0.402	0.174
-637.624	-200.000	0.059	-0.291
-636.609	-106.616	-0.168	0.038
-635.595	99.582	-0.062	-0.072
-634.580	800.000	0.044	-0.144
-633.565	-148.770	-0.227	-0.019
-632.551	-60.738	0.152	-0.065
-631.536	-185.226	0.168	-0.003
-630.522	-200.000	-0.003	0.384
-629.507	800.000	-0.014	0.040
-628.492	-200.000	0.027	-0.143
-627.478	-45.714	-0.127	0.063
-626.463	-88.357	0.100	0.030
-625.449	49.087	0.165	0.156
-624.434	-200.000	0.010	-0.448
-623.419	350.497	-0.160	0.317
-622.405	111.235	-0.167	0.202
-621.390	89.810	0.086	-0.096
-620.376	221.233	0.174	0.281
-619.361	-160.744	-0.227	0.012
-618.346	-200.000	0.022	0.212
-617.332	433.192	-0.014	0.029
-616.317	377.522	-0.154	-0.316
-615.303	-105.024	0.312	0.072
-614.288	117.859	0.073	0.091
-613.273	-200.000	0.001	-0.121
-612.259	-110.866	0.375	0.077
-611.244	-9.558	-0.168	-0.113
-610.230	52.127	0.141	-0.135
-609.215	-122.143	-0.152	-0.025
-608.201	800.000	0.049	-0.142
-607.186	374.812	-0.169	0.345
-606.171	-38.701	-0.108	-0.057
-605.157	35.563	0.069	-0.061
-604.142	800.000	-0.056	-0.175
-603.128	190.841	-0.057	-0.086
-602.113	-195.843	-0.520	0.004
-601.098	-200.000	-0.020	-0.141
-600.084	7.321	0.221	-0.166
-599.069	-200.000	0.032	0.252
-598.055	-29.192	0.223	0.128
-597.040	134.587	0.092	0.120
-596.025	-11.406	-0.112	-0.074
-595.011	-100.729	0.222	0.055
-593.996	-200.000	-0.012	-0.186
-592.982	522.748	-0.137	-0.322
-591.967	-200.000	0.029	-0.277
-590.952	-200.000	-0.007	-0.168
-589.938	-16.108	-0.283	0.180
-588.923	-32.585	0.179	-0.100
-587.909	-200.000	0.016	-0.238
-586.894	683.449	0.070	-0.182
-585.879	-95.914	0.106	0.028
-584.865	188.468	0.054	0.081
-583.850	-107.494	-0.351	-0.077
-582.836	-200.000	-0.023	0.193
-581.821	94.242	-0.147	0.167
-580.806	-200.000	0.060	-0.444
-579.792	115.457	-0.340	0.417
-578.777	204.962	0.064	-0.100
-577.763	676.983	0.102	-0.265
-576.748	-197.092	0.130	-0.001
-575.733	-70.436	0.132	0.050
-574.719	-185.605	0.229	0.003
-573.704	-76.837	-0.241	0.084
-572.690	-93.437	0.136	-0.038
-571.675	-101.000	-0.083	-0.020
-570.661	-39.332	0.257	-0.135
-569.646	556.694	0.073	-0.177
-568.631	-71.628	0.174	-0.065
-567.617	25.396	-0.138	-0.115
-566.602	78.361	-0.130	-0.139
-565.588	432.499	-0.126	-0.273
-564.573	47.957	0.173	-0.162
-563.558	-76.986	-0.318	-0.111
-562.544	781.947	-0.050	-0.138
-561.529	-144.242	0.175	-0.016
-560.515	-15.911	-0.262	0.167
-559.500	-200.000	0.001	-0.057
-558.485	-24.031	0.207	0.124
-557.471	-136.037	0.256	-0.030
-556.456	-48.291	0.091	0.044
-555.442	-155.225	-0.278	0.018
-554.427	74.530	-0.067	-0.070
-553.412	-85.923	0.131	0.041
-552.398	448.076	-0.089	-0.197
-551.383	-100.058	0.135	-0.034
-550.369	800.000	-0.090	-0.254
-549.354	-41.234	-0.183	-0.095
-548.339	146.024	-0.083	0.111
-547.325	-124.162	0.225	0.035
-546.310	115.004	-0.181	-0.220
-545.296	-200.000	-0.010	-0.139
-544.281	-103.101	0.106	0.025
-543.266	202.031	0.085	0.131
-542.252	-200.000	0.109	-0.566
-541.237	-60.916	-0.204	-0.086
-540.223	15.005	0.205	0.161
-539.208	-200.000	-0.030	0.166
-538.193	-116.330	-0.224	-0.041
-537.179	-200.000	-0.003	0.018
-536.164	-55.011	0.307	-0.139
-535.150	-101.235	0.140	-0.034
-534.135	-22.788	-0.173	-0.104
-533.121	11.350	-0.147	0.112
-532.106	800.000	-0.084	0.300
-531.091	572.113	-0.048	-0.117
-530.077	-79.051	-0.181	0.062
-529.062	4.200	-0.189	-0.138
-528.048	52.244	-0.240	-0.229
-527.033	-200.000	0.002	-0.323
-526.018	741.514	-0.125	0.337
-525.004	800.000	-0.022	-0.091
-523.989	-200.000	-0.004	-0.026
-522.975	88.231	0.046	-0.051
-521.960	800.000	-0.019	-0.057
-520.945	-106.657	0.200	-0.045
-519.931	277.632	-0.086	0.153
-518.916	4.792	-0.128	-0.094
-517.902	11.814	0.228	-0.175
-516.887	-65.850	-0.119	0.048
-515.872	1.591	-0.142	0.102
-514.858	18.378	-0.170	-0.136
-513.843	400.997	-0.023	0.049
-512.829	98.256	-0.062	-0.071
-511.814	-200.000	-0.018	-0.261
-510.799	-52.515	-0.332	-0.153
-509.785	-60.969	-0.251	-0.106
-508.770	800.000	0.053	0.223
-507.756	-200.000	0.009	-0.243
-506.741	71.343	0.257	0.266
-505.726	-200.000	-0.011	-0.273
-504.712	706.686	-0.138	0.363
-503.697	120.261	-0.105	-0.130
-502.683	-200.000	-0.039	-0.260
-501.668	186.521	0.076	-0.113
-500.653	440.667	-0.106	0.231
-499.639	-58.479	-0.381	0.165
-498.624	-3.175	-0.164	-0.114
-497.610	-70.376	-0.071	-0.027
-496.595	-200.000	-0.023	0.372
-495.581	51.559	0.103	-0.098
-494.566	276.872	-0.195	0.346
-493.551	-74.945	-0.287	-0.103
-492.537	237.257	-0.161	0.267
-491.522	75.083	0.230	-0.242
-490.508	-200.000	-0.054	-0.287
-489.493	-200.000	0.006	-0.057
-488.478	-2.498	0.110	0.077
-487.464	204.842	0.177	-0.274
-486.449	-200.000	-0.026	-0.176
-485.435	24.811	-0.153	0.126
-484.420	-200.000	-0.013	-0.220
-483.405	119.085	-0.196	-0.242
-482.391	260.393	0.176	0.304
-481.376	70.792	-0.131	0.135
-480.362	345.833	-0.055	0.109
-479.347	-10.549	0.226	0.149
-478.332	-31.849	-0.056	0.031
-477.318	-182.622	-0.239	0.004
-476.303	-200.000	-0.036	0.306
-475.289	143.073	-0.058	0.077
-474.274	82.803	-0.232	-0.251
-473.259	143.493	-0.045	-0.060
-472.245	545.415	0.050	-0.119
-471.230	-56.245	-0.172	0.076
-470.216	-168.231	0.373	-0.014
-469.201	-200.000	-0.003	0.096
-468.186	-34.232	0.057	0.031
-467.172	-124.548	-0.263	-0.041
-466.157	-121.175	0.174	-0.029
-465.143	268.489	-0.086	-0.150
-464.128	-38.286	0.227	0.120
-463.113	-154.350	-0.258	0.017
-462.099	-171.373	-0.219	0.007
-461.084	114.931	0.090	-0.109
-460.070	-200.000	0.035	0.259
-459.055	53.643	0.161	0.154
-458.040	37.202	-0.155	0.137
-457.026	34.713	-0.174	-0.152
-456.011	286.232	-0.056	-0.101
-454.997	800.000	-0.020	0.066
-453.982	70.834	0.493	-0.509
-452.968	136.362	-0.025	-0.032
-451.953	-83.831	0.156	0.050
-450.938	-127.321	-0.198	0.029
-449.924	-174.867	0.185	-0.005
-448.909	-138.417	-0.192	0.021
-447.895	269.430	-0.081	0.142
-446.880	-200.000	-0.031	0.149
-445.865	-89.413	-0.140	-0.041
-444.851	320.386	-0.289	0.546
-443.836	-200.000	-0.006	0.110
-442.822	800.000	-0.055	-0.191
-441.807	234.976	-0.153	-0.252
-440.792	16.097	-0.074	0.058
-439.778	-148.655	0.293	-0.024
-438.763	-200.000	-0.015	-0.290
-437.749	262.085	0.054	0.094
-436.734	103.964	-0.078	0.091
-435.719	-200.000	-0.005	-0.058
-434.705	-51.867	-0.235	0.109
-433.690	454.909	0.050	0.110
-432.676	219.665	0.088	-0.140
-431.661	3.229	0.345	0.250
-430.646	301.025	-0.115	0.212
-429.632	287.541	0.071	0.128
-428.617	554.552	-0.010	0.024
-427.603	-18.480	-0.138	-0.086
-426.588	-93.920	0.433	-0.119
-425.573	501.640	0.073	-0.168
-424.559	86.314	-0.134	-0.147
-423.544	-52.472	0.223	0.103
-422.530	458.539	0.184	-0.406
-421.515	88.903	0.065	-0.072
-420.500	-100.465	0.195	0.048
-419.486	-18.756	0.198	-0.123
-418.471	245.714	-0.137	0.229
-417.457	193.326	-0.216	-0.326
-416.442	411.022	0.053	-0.112
-415.428	800.000	0.057	0.173
-414.413	-200.000	0.008	-0.211
-413.398	-200.000	-0.011	-0.108
-412.384	31.841	-0.199	0.171
-411.369	-200.000	-0.012	0.146
-410.355	724.722	-0.121	0.321
-409.340	199.595	0.154	0.235
-408.325	800.000	0.085	0.258
-407.311	167.268	0.102	-0.144
-406.296	800.000	0.081	-0.231
-405.282	149.119	0.185	0.249
-404.267	-200.000	0.001	-0.013
-403.252	800.000	0.033	0.144
-402.238	182.387	-0.135	0.198
-401.223	498.923	-0.061	0.139
-400.209	-138.959	-0.335	-0.036
-399.194	800.000	-0.022	0.065
-398.179	346.957	-0.137	0.269
-397.165	-39.466	0.118	-0.062
-396.150	90.791	-0.092	0.103
-395.136	375.995	0.181	0.368
-394.121	-76.836	0.132	0.046
-393.106	-56.652	0.318	-0.140
-392.092	800.000	0.009	-0.034
-391.077	-17.910	-0.112	0.070
-390.063	-119.865	0.279	0.048
-389.048	800.000	-0.043	-0.140
-388.033	-147.152	-0.118	-0.010
-387.019	-101.923	0.142	0.034
-386.004	7.675	-0.207	0.154
-384.990	13.497	0.186	-0.143
-383.975	143.772	0.164	0.217
-382.960	-133.912	0.199	0.025
-381.946	-143.010	-0.294	-0.028
-380.931	-55.938	-0.299	-0.133
-379.917	381.903	0.141	-0.288
-378.902	82.106	-0.055	-0.059
-377.888	114.303	0.116	0.141
-376.873	-200.000	-0.006	0.037
-375.858	-7.537	0.140	0.094
-374.844	159.043	0.120	0.165
-373.829	-139.126	0.336	0.036
-372.815	56.650	0.180	-0.174
-371.800	337.323	0.057	-0.110
-370.785	-142.983	-0.104	0.010
-369.771	-200.000	0.024	0.163
-368.756	-200.000	-0.029	-0.155
-367.742	-29.898	0.052	-0.030
-366.727	620.686	0.058	-0.145
-365.712	164.677	0.038	-0.053
-364.698	-58.855	0.272	-0.117
-363.683	335.872	-0.069	0.133
-362.669	800.000	-0.104	0.310
-361.654	188.400	-0.144	0.214
-360.639	-128.223	-0.078	-0.011
-359.625	139.977	0.181	0.237
-358.610	-175.663	0.477	0.013
-357.596	138.168	-0.245	0.319
-356.581	800.000	0.034	-0.099
-355.566	-200.000	-0.045	-0.276
-354.552	188.907	0.125	-0.186
-353.537	-83.622	0.282	-0.089
-352.523	-200.000	0.040	-0.214
-351.508	800.000	0.059	-0.250
-350.493	-79.501	0.173	0.058
-349.479	67.904	-0.253	0.257
-348.464	-82.476	-0.153	0.049
-347.450	23.427	0.043	-0.035
-346.435	51.457	-0.173	-0.163
-345.420	323.692	-0.027	-0.052
-344.406	42.733	0.233	0.211
-343.391	617.443	-0.067	0.166
-342.377	-173.169	-0.430	0.013
-341.362	208.516	0.234	0.364
-340.348	-25.252	-0.172	0.101
-339.333	366.092	-0.081	-0.162
-338.318	-29.628	0.234	-0.132
-337.304	-116.614	0.098	0.018
-336.289	-65.287	0.120	-0.048
-335.275	195.380	-0.020	-0.030
-334.260	-96.923	-0.251	0.065
-333.245	108.679	-0.142	-0.169
-332.231	248.127	0.186	-0.312
-331.216	235.213	0.128	-0.210
-330.202	-200.000	-0.055	0.252
-329.187	-200.000	0.039	-0.170
-328.172	-120.759	0.352	0.059
-327.158	-200.000	-0.005	-0.166
-326.143	-145.373	-0.251	0.022
-325.129	-101.436	-0.201	-0.049
-324.114	-200.000	0.011	0.192
-323.099	-67.674	0.076	-0.029
-322.085	110.409	-0.130	0.155
-321.070	-171.302	0.186	-0.006
-320.056	-129.660	-0.154	-0.021
-319.041	47.984	-0.141	0.131
-318.026	785.832	0.123	0.334
-317.012	-200.000	0.034	0.156
-315.997	800.000	-0.045	-0.186
-314.983	-200.000	-0.025	0.227
-313.968	-200.000	-0.014	0.087
-312.953	-200.000	0.002	0.208
-311.939	332.096	0.188	0.359
-310.924	19.422	-0.201	0.160
-309.910	-125.601	-0.237	0.036
-308.895	26.890	-0.151	-0.125
-307.880	-153.735	-0.236	0.016
-306.866	86.163	0.163	-0.178
-305.851	800.000	-0.016	-0.047
-304.837	166.088	-0.029	0.040
-303.822	-10.823	-0.297	0.195
-302.807	-151.112	-0.141	-0.010
-301.793	4.427	-0.062	-0.045
-300.778	103.655	0.144	-0.168
-299.764	800.000	0.046	0.132
-298.749	-200.000	0.006	0.237
-297.735	-162.155	0.302	-0.015
-296.720	-95.951	-0.180	0.047
-295.705	-92.110	-0.190	0.053
-294.691	800.000	-0.070	0.234
-293.676	85.664	0.054	0.059
-292.662	-200.000	-0.005	-0.123
-291.647	-76.005	-0.248	0.087
-290.632	136.572	-0.264	0.342
-289.618	437.257	0.056	0.120
-288.603	-200.000	-0.022	0.212
-287.589	219.357	0.118	0.188
-286.574	-156.623	0.294	-0.018
-285.559	-200.000	-0.037	-0.238
-284.545	-70.277	0.201	-0.076
-283.530	-39.461	0.102	-0.053
-282.516	106.877	0.144	0.169
-281.501	-58.691	0.248	0.106
-280.486	14.915	-0.169	-0.131
-279.472	-72.886	0.287	0.105
-278.457	222.867	0.127	-0.202
-277.443	-95.010	0.330	0.088
-276.428	174.684	-0.032	-0.046
-275.413	-30.265	-0.239	-0.134
-274.399	227.478	0.053	0.085
-273.384	800.000	0.038	-0.150
-272.370	117.600	-0.189	0.230
-271.355	190.090	-0.255	0.379
-270.340	41.130	-0.047	0.042
-269.326	-123.124	0.123	0.019
-268.311	-49.224	-0.089	0.042
-267.297	-200.000	0.080	0.371
-266.282	-91.118	-0.116	0.033
-265.267	3.142	0.078	-0.056
-264.253	585.746	0.094	-0.228
-263.238	265.570	-0.054	0.094
-262.224	90.202	0.114	0.126
-261.209	-200.000	0.030	-0.221
-260.195	800.000	0.107	-0.384
-259.180	-113.456	-0.119	-0.023
-258.165	-200.000	-0.059	-0.302
-257.151	-31.714	0.298	-0.165
-256.136	800.000	-0.083	0.230
-255.122	-132.546	0.061	0.008
-254.107	-200.000	-0.019	0.091
-253.092	-3.271	0.032	0.022
-252.078	13.992	0.052	0.040
-251.063	800.000	0.101	-0.334
-250.049	-200.000	0.037	0.259
-249.034	-37.567	-0.182	0.096
-248.019	-106.482	-0.248	0.055
-247.005	800.000	-0.087	-0.337
-245.990	-57.693	0.127	-0.055
-244.976	-118.075	-0.100	0.018
-243.961	439.454	0.090	-0.195
-242.946	-19.956	-0.054	-0.033
-241.932	-79.680	-0.040	0.013
-240.917	150.599	0.049	-0.066
-239.903	129.781	-0.222	0.281
-238.888	-63.809	-0.250	0.101
-237.873	-122.792	0.042	0.007
-236.859	-48.152	0.212	-0.101
-235.844	800.000	0.019	-0.077
-234.830	163.359	-0.199	-0.276
-233.815	-200.000	-0.044	-0.359
-232.800	-116.970	0.094	0.017
-231.786	-200.000	0.015	0.265
-230.771	241.736	0.085	0.140
-229.757	69.680	-0.005	-0.005
-228.742	26.687	0.190	-0.157
-227.727	110.623	-0.085	0.101
-226.713	30.160	-0.157	-0.132
-225.698	-104.450	0.324	0.074
-224.684	-82.371	-0.282	0.090
-223.669	189.153	-0.136	-0.202
-222.655	79.972	-0.084	0.089
-221.640	313.110	0.126	-0.233
-220.625	-46.088	-0.117	0.057
-219.611	606.742	-0.041	0.101
-218.596	-22.849	-0.123	-0.073
-217.582	-163.510	0.167	-0.008
-216.567	-35.598	0.218	0.117
-215.552	-68.257	-0.200	-0.077
-214.538	659.016	-0.106	0.270
-213.523	-53.724	0.254	0.115
-212.509	-132.109	-0.132	0.017
-211.494	154.907	0.153	0.207
-210.479	111.722	-0.152	-0.181
-209.465	-45.986	0.134	-0.065
-208.450	-119.739	0.065	0.011
-207.436	-200.000	-0.040	0.279
-206.421	-54.422	0.127	0.057
-205.406	11.715	-0.049	-0.037
-204.392	800.000	-0.061	-0.225
-203.377	154.511	-0.106	0.144
-202.363	4.989	-0.196	0.142
-201.348	202.110	0.102	0.156
-200.333	-73.297	-0.329	-0.119
-199.319	-26.411	-0.244	-0.141
-198.304	-3.036	0.063	-0.043
-197.290	-98.877	0.079	-0.020
-196.275	800.000	0.030	-0.088
-195.260	-72.340	-0.168	0.062
-194.246	47.981	0.123	0.114
-193.231	81.865	0.311	-0.332
-192.217	-42.087	-0.121	0.061
-191.202	88.071	-0.202	-0.221
-190.187	220.146	-0.029	0.046
-189.173	800.000	-0.074	0.233
-188.158	-68.089	-0.164	-0.063
-187.144	-156.428	0.307	0.019
-186.129	719.867	-0.057	-0.150
-185.114	-200.000	-0.035	0.312
-184.100	-88.329	-0.247	-0.073
-183.085	-101.363	0.132	0.032
-182.071	-66.032	-0.118	-0.046
-181.056	-87.795	0.127	0.038
-180.042	287.771	-0.063	-0.112
-179.027	153.318	0.318	0.429
-178.012	800.000	-0.077	-0.230
-176.998	-94.032	0.197	0.053
-175.983	35.567	0.261	-0.226
-174.969	-200.000	0.022	-0.237
-173.954	800.000	0.015	-0.064
-172.939	46.896	-0.132	-0.121
-171.925	-144.255	0.184	0.017
-170.910	-200.000	0.008	-0.067
-169.896	18.300	0.149	0.117
-168.881	-51.897	0.268	0.123
-167.866	23.907	-0.085	0.069
-166.852	46.091	0.121	-0.111
-165.837	800.000	-0.120	0.354
-164.823	-200.000	0.024	0.238
-163.808	255.550	0.168	0.284
-162.793	-63.150	0.208	0.084
-161.779	147.528	-0.040	0.053
-160.764	-106.538	0.485	0.107
-159.750	554.124	-0.059	-0.140
-158.735	8.981	0.138	-0.102
-157.720	24.952	0.251	0.205
-156.706	800.000	0.011	0.047
-155.691	100.450	0.105	-0.121
-154.677	-79.832	0.317	-0.105
-153.662	263.551	-0.156	-0.267
-152.647	23.056	0.186	-0.151
-151.633	-156.664	0.129	0.008
-150.618	345.611	0.144	0.280
-149.604	616.937	-0.043	-0.106
-148.589	-13.870	0.150	-0.096
-147.574	-105.265	0.459	-0.103
-146.560	584.210	-0.021	0.051
-145.545	-48.188	-0.079	0.037
-144.531	800.000	-0.060	-0.228
-143.516	-200.000	-0.021	-0.226
-142.502	-200.000	0.064	0.296
-141.487	24.242	0.140	0.114
-140.472	-30.933	-0.135	-0.075
-139.458	-97.279	-0.219	0.056
-138.443	110.211	-0.225	0.266
-137.429	800.000	-0.080	0.282
-136.414	-200.000	-0.029	0.202
-135.399	4.782	0.129	-0.093
-134.385	-175.870	0.075	0.002
-133.370	-200.000	-0.013	-0.228
-132.356	-85.228	0.281	-0.087
-131.341	-200.000	-0.004	-0.227
-130.326	-47.182	-0.355	0.170
-129.312	-200.000	-0.016	0.337
-128.297	-64.593	0.215	0.086
-127.283	-19.762	0.176	-0.107
-126.268	59.716	0.213	-0.207
-125.253	800.000	-0.025	-0.080
-124.239	-17.687	-0.151	0.093
-123.224	-161.564	0.311	-0.016
-122.210	10.616	-0.052	-0.039
-121.195	-68.343	0.245	0.094
