DTS Sentinel unit serial number:	SN413079Multiplexer serial number:	ORYXHardware model number:	OX4-SRSoftware version number:	ORYX F/W v4.00 Oryx Data Collector v3.7.2.0data status	okinstallation	princeton_trtdifferential loss correction	single-endedforward channel	channel 1reverse channel	N/Adate	2019/09/15time	21:30:35forward acquisition time	60.00reverse acquisition time	0.00gamma	496.2192k internal	0.2329k external	0.2329temperature offset calibration	0.9964default loss term (dB/km)	0.3790temperature slope calibration	1.0000multiplexer offset coefficient	1.0000multiplexer slope coefficient	1.0000fibre end	0.00T internal ref (°C)	30.72T ext. ref 1 (°C)	8.30T ext. ref 2 (°C)	23.68length (m)	temperature (°C)	Stokes	anti-Stokes-747.200	-200.000	-0.010	-0.083
-746.185	376.019	-0.121	0.249
-745.171	-186.421	-0.142	-0.002
-744.156	471.519	-0.014	-0.033
-743.142	-33.501	-0.172	0.096
-742.127	-167.602	-0.013	-0.001
-741.112	800.000	-0.055	0.201
-740.098	166.938	-0.232	0.332
-739.083	8.093	-0.071	0.054
-738.069	613.652	0.050	0.125
-737.054	-121.518	-0.160	-0.027
-736.039	641.874	0.083	0.214
-735.025	-200.000	0.076	0.366
-734.010	-180.753	-0.278	-0.006
-732.996	-45.079	-0.189	0.095
-731.981	214.079	0.119	0.189
-730.966	144.558	0.090	0.120
-729.952	13.524	-0.343	0.268
-728.937	-122.321	0.138	0.023
-727.923	-154.588	-0.220	0.015
-726.908	-197.534	-0.194	0.001
-725.894	-66.713	-0.517	0.206
-724.879	-200.000	-0.004	0.193
-723.864	-48.576	-0.402	-0.195
-722.850	653.298	-0.132	-0.340
-721.835	-131.137	0.182	0.024
-720.821	-143.730	-0.291	0.028
-719.806	-16.290	-0.256	-0.164
-718.791	-125.503	0.096	0.015
-717.777	40.018	-0.101	0.091
-716.762	-126.095	-0.151	0.023
-715.748	44.546	0.236	0.218
-714.733	-47.536	0.196	0.096
-713.718	433.189	-0.088	-0.192
-712.704	108.373	-0.162	-0.195
-711.689	-61.804	0.319	-0.134
-710.675	417.958	0.077	0.165
-709.660	-162.004	0.042	0.002
-708.645	-84.928	0.195	0.061
-707.631	297.124	0.067	0.123
-706.616	76.267	-0.170	-0.181
-705.602	26.608	0.255	0.215
-704.587	-200.000	-0.064	0.416
-703.572	-91.314	-0.363	0.105
-702.558	93.829	-0.228	-0.260
-701.543	-116.595	-0.145	-0.027
-700.529	800.000	-0.022	-0.073
-699.514	-92.039	-0.248	0.071
-698.499	-200.000	0.023	-0.173
-697.485	13.498	0.038	0.030
-696.470	-200.000	0.040	0.279
-695.456	-64.312	-0.328	-0.134
-694.441	-200.000	0.009	-0.108
-693.426	425.084	-0.092	0.200
-692.412	-84.779	-0.160	0.051
-691.397	-104.524	-0.306	-0.071
-690.383	337.040	0.119	0.233
-689.368	109.507	-0.043	-0.052
-688.354	-137.848	0.354	0.040
-687.339	-16.618	-0.234	0.149
-686.324	-200.000	-0.027	-0.263
-685.310	-143.861	0.220	-0.021
-684.295	176.093	0.029	-0.042
-683.281	393.429	0.008	-0.017
-682.266	-5.481	0.070	0.048
-681.251	-117.363	-0.117	-0.021
-680.237	-25.659	-0.106	0.063
-679.222	20.218	-0.281	0.228
-678.208	192.424	-0.041	0.062
-677.193	-103.430	0.152	0.036
-676.178	-200.000	-0.110	0.561
-675.164	-97.848	0.146	0.038
-674.149	-200.000	0.014	-0.342
-673.135	138.060	-0.175	0.230
-672.120	-200.000	0.037	0.227
-671.105	-128.743	-0.106	0.015
-670.091	-104.546	0.217	-0.050
-669.076	544.705	-0.033	-0.079
-668.062	-193.298	-0.149	-0.001
-667.047	-200.000	0.004	-0.154
-666.032	-70.462	0.316	-0.120
-665.018	15.324	-0.091	-0.072
-664.003	130.226	0.105	-0.135
-662.989	79.748	0.061	0.066
-661.974	-102.268	-0.045	-0.011
-660.959	-43.997	0.253	0.128
-659.945	-1.370	0.262	0.186
-658.930	-155.746	0.177	0.011
-657.916	-135.860	-0.193	0.023
-656.901	135.053	0.194	-0.253
-655.886	-119.303	-0.103	0.018
-654.872	800.000	0.087	-0.246
-653.857	-189.248	-0.164	0.002
-652.843	-6.009	0.146	0.100
-651.828	13.183	0.100	-0.078
-650.814	449.834	0.137	-0.304
-649.799	195.522	-0.179	-0.273
-648.784	-200.000	0.004	0.236
-647.770	32.518	-0.068	0.059
-646.755	-71.634	-0.243	-0.091
-645.741	-200.000	0.051	-0.367
-644.726	-36.996	0.206	0.111
-643.711	-200.000	-0.014	-0.089
-642.697	22.731	0.265	0.218
-641.682	570.560	0.195	0.477
-640.668	43.563	-0.169	0.155
-639.653	-77.593	-0.005	-0.002
-638.638	-200.000	-0.004	-0.270
-637.624	-47.910	-0.212	-0.103
-636.609	-140.210	-0.121	-0.013
-635.595	523.746	0.141	-0.332
-634.580	34.969	0.125	-0.110
-633.565	-122.942	-0.193	0.031
-632.551	169.075	0.164	0.235
-631.536	800.000	-0.107	0.305
-630.522	-200.000	-0.007	-0.099
-629.507	-64.970	0.373	-0.151
-628.492	-131.215	-0.095	-0.013
-627.478	381.410	0.094	-0.193
-626.463	800.000	-0.107	0.324
-625.449	135.376	0.181	0.236
-624.434	240.251	-0.045	0.075
-623.419	81.211	-0.143	0.155
-622.405	-141.485	-0.124	0.013
-621.390	800.000	-0.027	0.080
-620.376	138.209	0.031	-0.041
-619.361	-62.530	-0.235	-0.098
-618.346	-18.471	-0.069	-0.043
-617.332	-200.000	0.000	0.070
-616.317	-89.198	0.360	-0.107
-615.303	-152.954	-0.482	-0.034
-614.288	-28.765	-0.163	0.094
-613.273	800.000	-0.004	-0.013
-612.259	574.809	0.050	0.122
-611.244	84.880	-0.097	0.106
-610.230	-200.000	0.010	0.135
-609.215	-77.469	-0.225	0.078
-608.201	-73.764	0.358	-0.130
-607.186	-65.406	-0.053	-0.021
-606.171	337.512	0.046	-0.089
-605.157	-43.634	0.260	0.132
-604.142	-48.889	-0.130	0.063
-603.128	607.229	0.010	0.024
-602.113	589.566	0.081	0.200
-601.098	-53.503	0.277	0.127
-600.084	-118.359	-0.025	-0.004
-599.069	-200.000	0.001	0.102
-598.055	-77.075	-0.525	-0.183
-597.040	7.441	-0.106	-0.079
-596.025	-14.885	0.436	0.280
-595.011	-200.000	0.033	0.245
-593.996	800.000	0.048	-0.202
-592.982	-60.093	0.081	-0.035
-591.967	6.384	0.177	-0.131
-590.952	-122.262	0.312	-0.051
-589.938	109.834	-0.117	0.141
-588.923	151.472	-0.166	0.226
-587.909	44.897	-0.171	-0.157
-586.894	-95.902	0.201	-0.054
-585.879	136.020	0.061	0.080
-584.865	-200.000	-0.017	0.113
-583.850	10.546	-0.369	0.281
-582.836	-200.000	-0.030	-0.330
-581.821	-85.887	0.111	0.034
-580.806	-200.000	-0.026	-0.220
-579.792	-106.857	0.106	-0.024
-578.777	-200.000	0.014	0.180
-577.763	-163.841	0.021	-0.001
-576.748	-114.531	0.168	0.032
-575.733	800.000	-0.055	-0.179
-574.719	-47.223	-0.100	0.049
-573.704	524.604	-0.134	0.316
-572.690	65.273	0.216	0.219
-571.675	-90.210	-0.277	-0.081
-570.661	186.256	0.113	0.168
-569.646	-32.634	-0.334	-0.186
-568.631	13.417	0.123	0.095
-567.617	800.000	-0.066	-0.205
-566.602	-41.589	-0.494	-0.254
-565.588	-73.677	0.188	0.068
-564.573	153.148	0.232	0.317
-563.558	336.401	-0.028	-0.054
-562.544	-200.000	-0.364	0.000
-561.529	-200.000	0.017	0.257
-560.515	800.000	0.035	0.105
-559.500	205.979	0.139	-0.216
-558.485	800.000	-0.072	0.217
-557.471	-200.000	0.081	-0.437
-556.456	16.023	-0.195	0.154
-555.442	46.013	0.221	0.204
-554.427	-43.556	-0.100	0.050
-553.412	-200.000	-0.074	-0.329
-552.398	199.697	-0.020	0.030
-551.383	-115.616	-0.208	0.039
-550.369	305.465	0.092	-0.171
-549.354	-111.819	-0.187	-0.038
-548.339	20.611	0.189	-0.153
-547.325	800.000	0.057	0.218
-546.310	130.859	0.175	0.224
-545.296	346.961	-0.123	-0.242
-544.281	47.291	0.251	0.233
-543.266	-200.000	-0.009	0.112
-542.252	-32.076	0.034	-0.019
-541.237	800.000	0.062	-0.246
-540.223	800.000	-0.037	0.149
-539.208	-200.000	-0.028	0.147
-538.193	800.000	-0.089	-0.309
-537.179	-103.394	-0.357	0.084
-536.164	800.000	-0.140	-0.397
-535.150	294.139	0.058	-0.106
-534.135	601.956	-0.162	0.403
-533.121	-34.140	-0.105	0.058
-532.106	-117.677	0.285	0.051
-531.091	32.956	-0.182	-0.157
-530.077	800.000	-0.062	0.229
-529.062	259.566	0.068	0.117
-528.048	71.615	0.186	0.193
-527.033	-121.721	0.091	-0.015
-526.018	-200.000	-0.012	-0.082
-525.004	133.539	-0.159	0.205
-523.989	-200.000	-0.001	-0.030
-522.975	22.499	0.198	0.162
-521.960	18.716	0.148	0.118
-520.945	104.917	-0.321	0.378
-519.931	506.150	-0.077	0.178
-518.916	46.808	0.215	-0.200
-517.902	-156.766	0.241	0.015
-516.887	-200.000	0.011	-0.312
-515.872	414.994	0.078	-0.167
-514.858	-200.000	-0.054	-0.311
-513.843	-200.000	0.007	0.128
-512.829	-113.958	0.155	-0.030
-511.814	-86.189	0.074	0.023
-510.799	122.247	0.089	-0.111
-509.785	-53.921	0.168	0.077
-508.770	-30.556	-0.262	-0.148
-507.756	-200.000	0.076	-0.352
-506.741	-200.000	-0.006	0.116
-505.726	-89.415	-0.058	-0.017
-504.712	-31.822	0.095	0.053
-503.697	-109.329	0.160	0.034
-502.683	41.778	-0.171	0.155
-501.668	184.887	-0.070	0.103
-500.653	-137.089	0.320	0.036
-499.639	169.696	0.359	0.511
-498.624	-70.810	0.129	0.049
-497.610	800.000	-0.037	0.125
-496.595	420.763	0.062	0.133
-495.581	250.591	0.133	0.226
-494.566	449.607	-0.030	0.065
-493.551	71.969	0.161	-0.167
-492.537	529.233	-0.089	-0.209
-491.522	454.183	0.080	0.178
-490.508	-78.828	0.069	0.023
-489.493	-157.139	-0.178	-0.011
-488.478	-116.084	-0.232	-0.043
-487.464	243.776	-0.061	-0.102
-486.449	-112.306	0.248	0.050
-485.435	81.904	0.154	-0.166
-484.420	-200.000	-0.038	-0.302
-483.405	653.171	-0.058	0.149
-482.391	800.000	0.061	0.225
-481.376	88.431	-0.215	-0.238
-480.362	-200.000	-0.004	-0.243
-479.347	-200.000	-0.026	0.385
-478.332	-125.919	-0.151	0.023
-477.318	-72.289	0.321	-0.119
-476.303	-20.810	-0.043	-0.026
-475.289	-200.000	-0.010	-0.131
-474.274	-129.755	0.070	0.010
-473.259	800.000	-0.081	-0.255
-472.245	-200.000	-0.011	0.232
-471.230	201.411	-0.222	-0.341
-470.216	125.752	0.207	-0.261
-469.201	-179.949	-0.099	0.002
-468.186	-20.149	0.143	0.088
-467.172	235.826	0.166	-0.273
-466.157	-200.000	-0.016	-0.223
-465.143	-134.863	-0.133	0.016
-464.128	-46.022	-0.157	0.077
-463.113	-69.157	-0.095	0.037
-462.099	-101.338	0.109	-0.026
-461.084	-94.551	-0.233	0.063
-460.070	-200.000	-0.015	0.267
-459.055	800.000	0.119	0.482
-458.040	-200.000	-0.067	-0.293
-457.026	-123.172	-0.252	-0.040
-456.011	-200.000	0.007	0.193
-454.997	43.903	-0.235	0.215
-453.982	-200.000	0.014	0.248
-452.968	-167.519	-0.160	-0.006
-451.953	57.751	-0.087	-0.085
-450.938	38.566	0.210	-0.186
-449.924	470.094	0.070	0.156
-448.909	-200.000	-0.001	0.154
-447.895	-104.377	0.123	-0.028
-446.880	96.792	-0.206	0.236
-445.865	151.857	-0.080	-0.108
-444.851	404.130	0.199	-0.418
-443.836	64.441	-0.135	0.135
-442.822	26.582	0.154	-0.128
-441.807	-34.440	0.125	-0.068
-440.792	-102.582	-0.077	0.018
-439.778	-156.856	-0.210	-0.013
-438.763	223.512	-0.207	0.332
-437.749	-192.357	-0.056	0.001
-436.734	800.000	0.072	-0.207
-435.719	418.849	-0.059	0.125
-434.705	149.497	0.203	-0.274
-433.690	-19.195	0.531	0.328
-432.676	-200.000	-0.029	-0.178
-431.661	-200.000	0.044	-0.422
-430.646	280.040	-0.016	-0.028
-429.632	448.665	0.089	-0.194
-428.617	128.251	-0.161	0.204
-427.603	-94.134	0.271	-0.074
-426.588	14.395	-0.074	0.058
-425.573	-94.084	0.232	0.063
-424.559	14.986	-0.309	-0.240
-423.544	-200.000	0.046	-0.367
-422.530	-79.525	0.067	-0.023
-421.515	-200.000	-0.017	0.127
-420.500	-79.449	-0.273	-0.092
-419.486	-45.577	0.150	-0.074
-418.471	394.309	-0.173	0.358
-417.457	-71.164	-0.080	-0.030
-416.442	-12.669	-0.154	-0.100
-415.428	-131.170	0.079	0.010
-414.413	-134.421	-0.213	-0.026
-413.398	364.859	0.074	-0.148
-412.384	-196.143	0.232	-0.002
-411.369	-117.965	0.294	0.052
-410.355	-31.440	0.032	-0.018
-409.340	-17.625	-0.248	-0.155
-408.325	-200.000	-0.269	0.000
-407.311	-200.000	0.023	-0.200
-406.296	357.639	-0.120	-0.237
-405.282	-87.094	0.192	-0.058
-404.267	2.866	0.287	-0.207
-403.252	-9.873	-0.075	-0.050
-402.238	331.635	0.137	0.263
-401.223	319.564	-0.068	-0.129
-400.209	-79.026	0.189	0.064
-399.194	-200.000	-0.064	-0.441
-398.179	753.231	-0.096	-0.257
-397.165	-200.000	-0.023	-0.263
-396.150	-69.699	-0.131	-0.050
-395.136	209.032	-0.069	0.107
-394.121	31.170	-0.361	-0.308
-393.106	0.979	-0.240	0.171
-392.092	-76.585	0.320	-0.112
-391.077	88.921	0.121	0.134
-390.063	102.674	0.120	0.139
-389.048	-200.000	-0.044	-0.218
-388.033	186.433	-0.168	-0.249
-387.019	197.097	-0.029	0.044
-386.004	-81.278	-0.103	0.034
-384.990	184.991	0.245	-0.361
-383.975	-165.294	-0.067	-0.003
-382.960	19.244	-0.049	-0.039
-381.946	79.015	0.309	-0.328
-380.931	800.000	-0.028	0.112
-379.917	-42.708	-0.161	0.081
-378.902	126.660	0.075	0.094
-377.888	800.000	0.051	-0.156
-376.873	103.537	0.056	0.065
-375.858	-121.249	0.058	-0.010
-374.844	-175.502	-0.091	0.002
-373.829	189.919	-0.182	0.271
-372.815	-116.877	-0.431	-0.078
-371.800	359.735	-0.064	0.127
-370.785	800.000	0.083	0.257
-369.771	74.008	-0.089	0.093
-368.756	17.815	0.133	0.105
-367.742	6.278	0.113	0.083
-366.727	-200.000	0.105	-0.469
-365.712	-123.173	-0.052	0.008
-364.698	196.555	-0.079	-0.120
-363.683	-105.374	-0.124	-0.028
-362.669	-15.575	-0.176	0.112
-361.654	-129.434	-0.107	-0.015
-360.639	244.384	0.030	0.051
-359.625	-200.000	-0.011	-0.107
-358.610	-136.065	-0.166	0.019
-357.596	40.072	-0.135	-0.120
-356.581	800.000	0.023	-0.086
-355.566	-126.718	0.187	0.027
-354.552	-143.615	-0.364	-0.034
-353.537	159.264	0.148	-0.204
-352.523	-114.928	-0.216	-0.041
-351.508	800.000	-0.042	-0.133
-350.493	100.843	0.231	0.266
-349.479	156.602	-0.128	-0.175
-348.464	-155.474	-0.256	0.016
-347.450	-200.000	0.017	-0.098
-346.435	800.000	-0.207	0.578
-345.420	190.430	-0.019	-0.028
-344.406	-200.000	0.013	-0.102
-343.391	-1.796	0.214	0.150
-342.377	53.681	0.299	0.284
-341.362	-189.288	-0.188	-0.002
-340.348	800.000	0.050	0.159
-339.333	136.306	-0.029	-0.038
-338.318	-200.000	0.015	-0.082
-337.304	379.131	0.109	-0.221
-336.289	138.751	-0.121	0.158
-335.275	-31.914	-0.134	0.075
-334.260	-33.739	-0.217	-0.118
-333.245	-25.528	0.350	0.205
-332.231	17.668	0.259	0.204
-331.216	148.341	-0.052	0.070
-330.202	518.992	-0.043	-0.100
-329.187	250.475	-0.039	-0.065
-328.172	-131.892	0.012	0.002
-327.158	619.006	0.094	-0.233
-326.143	800.000	-0.074	-0.208
-325.129	48.456	0.154	0.143
-324.114	33.105	0.154	-0.133
-323.099	260.799	-0.028	-0.048
-322.085	-82.027	0.265	-0.086
-321.070	310.425	0.056	0.104
-320.056	37.498	0.079	0.070
-319.041	19.543	0.012	-0.010
-318.026	89.770	0.195	0.215
-317.012	573.111	-0.094	-0.227
-315.997	-192.051	0.256	-0.002
-314.983	57.388	-0.273	-0.264
-313.968	-49.751	-0.312	-0.147
-312.953	-200.000	-0.018	-0.225
-311.939	-128.037	-0.292	-0.041
-310.924	-115.149	0.375	0.070
-309.910	39.483	-0.195	0.173
-308.895	322.996	-0.055	0.105
-307.880	475.595	-0.100	0.223
-306.866	50.824	-0.044	-0.041
-305.851	800.000	0.047	0.176
-304.837	-75.154	-0.450	-0.159
-303.822	-40.380	-0.154	0.079
-302.807	-37.570	0.196	-0.104
-301.793	19.613	0.295	-0.235
-300.778	230.155	-0.120	-0.194
-299.764	-152.895	0.147	-0.010
-298.749	-200.000	0.017	-0.209
-297.735	183.569	-0.126	-0.184
-296.720	-200.000	0.033	-0.191
-295.705	-108.940	-0.184	-0.039
-294.691	800.000	0.025	-0.076
-293.676	-25.336	0.297	0.174
-292.662	-14.407	-0.336	-0.214
-291.647	-175.348	0.353	0.010
-290.632	157.434	0.110	0.151
-289.618	353.499	-0.149	-0.292
-288.603	53.589	-0.106	0.100
-287.589	108.738	0.116	-0.138
-286.574	-29.342	-0.094	0.053
-285.559	634.866	0.099	-0.250
-284.545	800.000	0.079	-0.315
-283.530	52.995	-0.103	0.098
-282.516	-106.099	0.213	-0.047
-281.501	-140.971	-0.274	-0.028
-280.486	-188.451	0.238	-0.003
-279.472	800.000	-0.097	0.357
-278.457	337.465	0.052	-0.100
-277.443	38.315	0.273	0.240
-276.428	68.740	0.205	-0.208
-275.413	320.690	0.076	0.143
-274.399	-50.645	-0.268	-0.125
-273.384	-64.320	-0.221	0.089
-272.370	355.338	-0.097	-0.191
-271.355	80.564	0.171	0.182
-270.340	56.990	0.192	0.185
-269.326	-110.056	0.046	0.009
-268.311	800.000	0.073	0.224
-267.297	68.096	0.064	-0.065
-266.282	59.305	-0.226	0.220
-265.267	-200.000	-0.016	0.086
-264.253	-200.000	-0.027	0.154
-263.238	147.320	-0.046	-0.061
-262.224	-122.367	-0.159	0.026
-261.209	-95.949	-0.199	0.052
-260.195	87.886	-0.214	0.235
-259.180	-87.698	0.071	0.021
-258.165	65.290	-0.076	-0.076
-257.151	-96.361	0.051	0.013
-256.136	-200.000	0.023	-0.108
-255.122	279.772	-0.030	-0.052
-254.107	102.816	0.066	-0.077
-253.092	9.660	0.099	0.074
-252.078	569.900	0.034	0.082
-251.063	-113.411	-0.163	0.032
-250.049	45.543	0.058	-0.053
-249.034	213.010	0.092	0.143
-248.019	78.596	-0.113	-0.119
-247.005	222.432	0.120	0.191
-245.990	-200.000	-0.008	0.095
-244.976	800.000	-0.102	0.337
-243.961	-82.983	0.211	0.067
-242.946	-200.000	-0.076	-0.334
-241.932	-30.610	0.201	-0.112
-240.917	-10.859	-0.070	-0.046
-239.903	13.200	-0.300	-0.229
-238.888	-200.000	0.020	0.227
-237.873	-104.419	0.308	0.070
-236.859	-143.893	-0.222	0.021
-235.844	-90.083	0.265	-0.076
-234.830	39.869	-0.155	-0.137
-233.815	59.948	0.079	-0.077
-232.800	4.979	0.283	0.206
-231.786	572.241	0.079	-0.190
-230.771	-136.501	0.284	0.033
-229.757	-200.000	0.012	0.204
-228.742	70.775	0.130	0.133
-227.727	-200.000	-0.016	0.248
-226.713	-170.707	0.137	0.005
-225.698	800.000	0.043	0.154
-224.684	561.115	0.156	0.373
-223.669	95.793	-0.163	-0.184
-222.655	-74.385	0.210	0.075
-221.640	800.000	-0.097	0.389
-220.625	304.212	0.141	0.259
-219.611	33.378	-0.238	-0.204
-218.596	84.014	-0.078	-0.084
-217.582	265.043	0.079	-0.136
-216.567	-89.563	-0.021	-0.006
-215.552	-6.615	0.177	0.119
-214.538	195.184	-0.206	-0.309
-213.523	-31.866	0.303	0.168
-212.509	-43.154	-0.253	-0.127
-211.494	-41.551	-0.124	0.063
-210.479	247.699	-0.086	-0.144
-209.465	-200.000	0.029	-0.203
-208.450	279.457	0.130	0.228
-207.436	38.174	-0.224	0.196
-206.421	800.000	0.065	0.263
-205.406	-176.863	0.278	-0.007
-204.392	379.273	-0.187	-0.378
-203.377	-62.522	0.134	0.055
-202.363	118.765	0.214	-0.261
-201.348	47.368	-0.120	0.111
-200.333	-40.999	0.075	0.038
-199.319	-79.009	0.162	-0.054
-198.304	-62.706	-0.233	-0.095
-197.290	382.698	-0.070	0.143
-196.275	3.982	-0.233	-0.168
-195.260	731.633	-0.071	0.186
-194.246	-119.881	-0.342	0.058
-193.231	322.272	-0.133	0.250
-192.217	-41.135	-0.262	-0.133
-191.202	240.478	-0.090	-0.149
-190.187	-200.000	-0.020	-0.450
-189.173	-167.459	-0.123	-0.005
-188.158	-200.000	-0.030	-0.162
-187.144	-129.877	0.279	0.038
-186.129	-109.802	-0.341	-0.071
-185.114	-17.487	-0.095	-0.059
-184.100	-164.158	-0.119	0.005
-183.085	-53.890	-0.175	0.078
-182.071	-32.859	0.188	0.103
-181.056	-110.972	0.330	0.067
-180.042	-1.810	0.005	-0.004
-179.027	404.853	0.055	0.114
-178.012	-45.609	-0.112	-0.055
-176.998	71.484	-0.166	-0.170
-175.983	44.894	0.140	-0.127
-174.969	800.000	0.065	0.248
-173.954	800.000	-0.056	-0.166
-172.939	12.463	0.186	0.141
-171.925	800.000	-0.099	-0.290
-170.910	800.000	0.058	0.207
-169.896	3.916	0.213	-0.153
-168.881	59.599	-0.129	0.126
-167.866	-34.028	0.248	-0.134
-166.852	-1.630	0.163	0.113
-165.837	-131.955	0.409	0.053
-164.823	800.000	-0.044	-0.125
-163.808	800.000	0.043	0.154
-162.793	-132.314	0.235	-0.030
-161.779	90.633	-0.180	0.199
-160.764	-200.000	-0.012	-0.074
-159.750	-200.000	0.035	0.369
-158.735	800.000	0.020	-0.058
-157.720	-100.694	0.141	-0.034
-156.706	34.214	-0.127	0.109
-155.691	32.827	0.160	0.137
-154.677	0.228	0.166	-0.117
-153.662	-82.837	-0.184	0.059
-152.647	151.525	-0.144	-0.193
-151.633	117.745	0.173	0.210
-150.618	19.561	-0.141	-0.112
-149.604	800.000	-0.065	0.244
-148.589	102.199	0.232	0.267
-147.574	71.059	-0.080	-0.082
-146.560	70.211	0.163	-0.166
-145.545	800.000	-0.128	-0.360
-144.531	798.836	0.063	-0.171
-143.516	-63.342	0.410	0.166
-142.502	-200.000	0.037	-0.342
-141.487	163.257	0.102	0.142
-140.472	-176.475	0.147	0.004
-139.458	-146.903	0.229	0.019
-138.443	-115.295	-0.366	-0.068
-137.429	-109.554	0.330	0.068
-136.414	800.000	-0.116	-0.333
-135.399	156.267	-0.155	-0.211
-134.385	-77.914	-0.094	-0.032
-133.370	172.865	-0.056	-0.080
-132.356	-200.000	0.023	0.270
-131.341	157.274	0.130	0.176
-130.326	-200.000	0.241	-0.001
-129.312	-200.000	0.058	0.267
-128.297	48.172	0.157	0.144
-127.283	290.263	0.148	0.265
-126.268	-64.627	0.249	-0.100
-125.253	-51.194	-0.333	0.153
-124.239	17.493	0.162	-0.127
-123.224	-21.932	0.165	0.098
-122.210	-85.810	-0.309	0.094
-121.195	123.121	-0.055	-0.068
