DTS Sentinel unit serial number:	SN413079Multiplexer serial number:	ORYXHardware model number:	OX4-SRSoftware version number:	ORYX F/W v4.00 Oryx Data Collector v3.7.2.0data status	okinstallation	princeton_trtdifferential loss correction	single-endedforward channel	channel 1reverse channel	N/Adate	2019/09/18time	19:34:35forward acquisition time	60.00reverse acquisition time	0.00gamma	496.2192k internal	0.2325k external	0.2325temperature offset calibration	1.0026default loss term (dB/km)	0.3790temperature slope calibration	1.0000multiplexer offset coefficient	1.0000multiplexer slope coefficient	1.0000fibre end	0.00T internal ref (°C)	32.48T ext. ref 1 (°C)	1.02T ext. ref 2 (°C)	22.64length (m)	temperature (°C)	Stokes	anti-Stokes-747.200	482.000	0.159	0.365
-746.185	-158.612	-0.224	0.013
-745.171	-95.130	0.118	-0.032
-744.156	-57.104	-0.177	-0.079
-743.142	-200.000	0.014	0.131
-742.127	-200.000	0.026	-0.234
-741.112	-117.846	0.238	-0.043
-740.098	-128.505	0.257	0.037
-739.083	110.869	-0.323	-0.393
-738.069	-200.000	0.006	0.168
-737.054	423.026	-0.137	0.296
-736.039	727.079	-0.057	-0.154
-735.025	-100.421	0.053	0.013
-734.010	-72.457	-0.104	-0.039
-732.996	158.891	-0.022	-0.031
-731.981	-140.998	-0.320	-0.033
-730.966	-74.555	0.124	0.045
-729.952	-200.000	0.076	0.369
-728.937	-78.873	-0.222	-0.076
-727.923	639.009	0.104	-0.268
-726.908	259.450	0.176	-0.307
-725.894	-9.773	-0.141	0.095
-724.879	-200.000	0.008	-0.082
-723.864	-2.520	-0.219	-0.155
-722.850	97.078	-0.118	0.136
-721.835	17.345	0.128	0.102
-720.821	-48.669	-0.256	-0.124
-719.806	19.928	0.153	-0.124
-718.791	147.096	0.127	-0.172
-717.777	369.972	0.068	-0.140
-716.762	-18.746	0.028	0.018
-715.748	800.000	0.020	0.059
-714.733	800.000	-0.035	0.100
-713.718	359.958	-0.110	0.222
-712.704	800.000	0.049	0.161
-711.689	-39.447	0.108	-0.057
-710.675	-200.000	-0.016	-0.081
-709.660	429.382	-0.090	0.196
-708.645	-40.695	-0.326	0.170
-707.631	-200.000	-0.016	0.207
-706.616	800.000	0.047	0.145
-705.602	609.505	0.051	-0.128
-704.587	113.233	-0.044	-0.054
-703.572	-69.463	0.078	-0.030
-702.558	-124.533	-0.205	0.032
-701.543	-6.180	-0.159	0.109
-700.529	46.674	0.053	0.050
-699.514	2.397	-0.528	-0.385
-698.499	645.675	0.038	-0.098
-697.485	-37.212	0.330	-0.178
-696.470	-148.818	0.158	-0.013
-695.456	377.587	-0.075	0.154
-694.441	138.474	-0.105	0.138
-693.426	800.000	0.088	-0.264
-692.412	-72.884	-0.428	-0.158
-691.397	800.000	0.029	-0.097
-690.383	-200.000	0.015	0.216
-689.368	-92.350	-0.117	0.033
-688.354	-200.000	0.015	-0.228
-687.339	-24.456	0.101	0.060
-686.324	741.903	-0.108	-0.294
-685.310	-200.000	-0.007	0.102
-684.295	-25.210	-0.109	-0.065
-683.281	170.622	0.112	-0.162
-682.266	-70.342	-0.183	-0.070
-681.251	52.528	0.137	0.132
-680.237	53.158	-0.103	-0.099
-679.222	-200.000	0.008	0.113
-678.208	207.028	0.027	-0.042
-677.193	67.396	0.350	0.360
-676.178	-200.000	0.011	-0.611
-675.164	222.625	0.082	-0.134
-674.149	70.009	0.177	-0.184
-673.135	-99.257	0.116	-0.029
-672.120	-94.239	0.056	0.015
-671.105	-200.000	-0.055	0.248
-670.091	-30.711	0.189	-0.108
-669.076	-79.168	-0.113	-0.038
-668.062	800.000	-0.122	-0.376
-667.047	-70.907	0.185	-0.070
-666.032	-130.255	-0.143	-0.020
-665.018	800.000	-0.051	0.184
-664.003	-200.000	-0.025	0.483
-662.989	-150.833	-0.303	0.023
-661.974	800.000	-0.044	-0.190
-660.959	-157.262	-0.153	0.009
-659.945	-82.804	-0.137	-0.045
-658.930	-98.485	-0.138	-0.036
-657.916	-134.479	0.059	0.007
-656.901	-200.000	-0.009	0.242
-655.886	245.933	0.112	0.189
-654.872	657.976	0.071	0.182
-653.857	197.015	-0.128	-0.197
-652.843	-80.744	-0.205	-0.068
-651.828	-132.082	-0.404	0.053
-650.814	270.429	-0.150	0.264
-649.799	800.000	0.080	0.224
-648.784	-18.289	-0.185	-0.116
-647.770	-99.102	0.294	-0.075
-646.755	-11.858	-0.205	-0.135
-645.741	-18.755	-0.345	0.216
-644.726	-200.000	0.005	-0.180
-643.711	-200.000	0.050	-0.330
-642.697	-72.116	0.196	0.073
-641.682	-129.322	-0.068	-0.010
-640.668	464.123	-0.058	0.131
-639.653	230.166	-0.168	0.276
-638.638	-200.000	-0.006	0.031
-637.624	183.783	-0.044	-0.065
-636.609	800.000	0.083	-0.354
-635.595	-110.445	-0.194	0.040
-634.580	296.721	0.134	0.247
-633.565	-6.378	0.157	-0.107
-632.551	-200.000	0.023	-0.424
-631.536	123.518	0.136	-0.172
-630.522	54.102	0.168	-0.163
-629.507	-104.552	0.262	0.061
-628.492	-116.468	0.264	-0.049
-627.478	-125.814	-0.157	-0.024
-626.463	-8.071	-0.138	-0.094
-625.449	800.000	-0.040	0.148
-624.434	-52.705	-0.394	0.183
-623.419	-200.000	-0.040	-0.208
-622.405	-200.000	0.000	-0.339
-621.390	-141.582	-0.078	0.008
-620.376	-148.301	0.265	-0.022
-619.361	473.575	-0.040	-0.090
-618.346	-43.941	0.423	-0.213
-617.332	-200.000	-0.001	0.100
-616.317	61.818	-0.100	0.100
-615.303	-200.000	-0.038	0.440
-614.288	-200.000	-0.002	0.161
-613.273	34.101	-0.091	0.080
-612.259	-200.000	0.000	0.085
-611.244	-14.524	-0.031	-0.020
-610.230	-200.000	0.027	0.171
-609.215	-27.382	0.247	-0.144
-608.201	-154.052	-0.495	0.034
-607.186	-200.000	-0.062	0.381
-606.171	309.990	-0.185	0.348
-605.157	-200.000	-0.075	0.403
-604.142	19.762	-0.094	-0.076
-603.128	24.903	-0.122	0.102
-602.113	-112.246	0.175	0.035
-601.098	-168.503	0.147	0.006
-600.084	-200.000	-0.036	-0.260
-599.069	-53.073	-0.207	-0.095
-598.055	36.109	0.074	-0.066
-597.040	-186.235	-0.132	0.002
-596.025	-88.485	-0.108	0.032
-595.011	23.793	-0.255	-0.211
-593.996	581.686	0.049	0.120
-592.982	8.310	0.150	-0.113
-591.967	469.222	-0.064	0.144
-590.952	-89.234	0.120	-0.036
-589.938	85.273	0.230	0.253
-588.923	6.117	-0.201	0.149
-587.909	-65.219	-0.070	-0.028
-586.894	-200.000	0.033	0.187
-585.879	-107.188	0.058	0.013
-584.865	314.131	-0.156	-0.294
-583.850	-200.000	-0.003	0.460
-582.836	-89.223	0.230	0.068
-581.821	-25.504	-0.344	-0.204
-580.806	-115.519	-0.236	0.045
-579.792	469.497	-0.013	-0.028
-578.777	131.404	0.129	-0.166
-577.763	-85.600	-0.166	0.052
-576.748	461.675	-0.128	-0.285
-575.733	-18.624	-0.100	-0.063
-574.719	-200.000	0.016	0.106
-573.704	44.090	0.178	-0.164
-572.690	-119.437	-0.324	0.056
-571.675	670.098	-0.043	0.110
-570.661	-13.183	-0.137	0.089
-569.646	-8.032	-0.246	-0.166
-568.631	-200.000	-0.003	0.193
-567.617	-200.000	0.006	0.231
-566.602	-127.522	0.164	-0.024
-565.588	-79.857	0.167	0.056
-564.573	-62.624	0.107	0.044
-563.558	-200.000	-0.029	-0.322
-562.544	423.906	-0.092	0.199
-561.529	-89.002	-0.376	0.111
-560.515	-18.483	-0.479	-0.299
-559.500	131.807	-0.148	-0.190
-558.485	-10.742	-0.144	0.095
-557.471	-10.003	0.140	-0.094
-556.456	-136.565	-0.242	-0.028
-555.442	25.403	-0.123	-0.102
-554.427	28.246	-0.106	-0.090
-553.412	-43.069	0.093	0.047
-552.398	165.656	-0.169	-0.239
-551.383	-102.935	-0.085	0.020
-550.369	-141.675	-0.066	-0.007
-549.354	-52.011	-0.248	-0.115
-548.339	-200.000	0.012	-0.081
-547.325	-33.726	0.237	-0.131
-546.310	-200.000	0.005	-0.109
-545.296	489.085	0.134	-0.307
-544.281	-130.954	-0.139	-0.019
-543.266	-177.590	-0.162	0.004
-542.252	-200.000	0.043	0.219
-541.237	-41.182	-0.055	-0.028
-540.223	-200.000	0.018	0.095
-539.208	-200.000	0.012	-0.147
-538.193	-141.606	-0.213	0.022
-537.179	-200.000	0.021	-0.153
-536.164	86.650	-0.083	-0.091
-535.150	-117.720	-0.016	-0.003
-534.135	-193.135	-0.184	-0.002
-533.121	233.955	-0.110	0.181
-532.106	101.234	0.067	0.079
-531.091	-164.529	-0.237	0.011
-530.077	-74.268	-0.193	0.070
-529.062	800.000	-0.079	-0.237
-528.048	7.682	-0.089	0.067
-527.033	670.497	-0.093	-0.242
-526.018	-18.288	0.226	0.141
-525.004	-120.354	0.091	-0.015
-523.989	60.395	-0.321	0.318
-522.975	204.074	0.050	-0.077
-521.960	640.272	0.109	-0.278
-520.945	198.135	0.112	-0.171
-519.931	203.929	-0.135	-0.209
-518.916	800.000	-0.080	0.310
-517.902	-124.262	0.479	0.075
-516.887	-116.912	-0.139	-0.025
-515.872	-200.000	0.009	-0.169
-514.858	-65.687	-0.065	-0.026
-513.843	446.313	-0.063	-0.138
-512.829	100.496	-0.333	-0.387
-511.814	-178.405	0.331	0.008
-510.799	-126.215	-0.248	0.037
-509.785	291.372	0.208	-0.378
-508.770	461.646	0.069	-0.153
-507.756	-38.647	-0.364	-0.192
-506.741	800.000	-0.081	-0.307
-505.726	238.740	0.119	-0.198
-504.712	800.000	-0.123	-0.404
-503.697	-153.866	-0.130	-0.009
-502.683	-106.223	0.176	-0.040
-501.668	-200.000	0.007	0.075
-500.653	222.361	0.041	0.066
-499.639	-45.275	0.019	-0.009
-498.624	800.000	0.056	-0.205
-497.610	269.018	-0.133	0.233
-496.595	155.577	0.036	-0.049
-495.581	-83.947	0.251	-0.080
-494.566	800.000	0.121	0.399
-493.551	-27.011	-0.355	0.207
-492.537	646.455	0.080	0.205
-491.522	800.000	0.063	-0.238
-490.508	800.000	-0.073	0.273
-489.493	-72.777	-0.024	0.009
-488.478	-125.109	0.236	-0.036
-487.464	142.553	0.238	0.316
-486.449	-200.000	-0.026	-0.132
-485.435	-200.000	0.021	-0.203
-484.420	11.999	-0.133	0.102
-483.405	385.737	-0.136	0.280
-482.391	-200.000	0.021	-0.173
-481.376	218.621	0.012	-0.020
-480.362	21.037	0.201	-0.163
-479.347	187.376	0.198	-0.294
-478.332	-143.369	-0.116	0.011
-477.318	-52.582	0.140	0.065
-476.303	67.688	0.159	-0.162
-475.289	-200.000	0.048	-0.263
-474.274	800.000	-0.044	-0.126
-473.259	-200.000	0.050	0.346
-472.245	-200.000	-0.006	-0.068
-471.230	685.529	0.020	0.052
-470.216	-152.502	-0.254	0.018
-469.201	-10.903	0.081	-0.054
-468.186	116.183	0.122	-0.149
-467.172	188.152	0.220	0.328
-466.157	-108.350	-0.267	-0.057
-465.143	-200.000	-0.045	-0.213
-464.128	-93.996	0.392	0.108
-463.113	205.579	-0.207	-0.322
-462.099	66.419	-0.167	0.170
-461.084	-141.198	0.124	0.013
-460.070	-200.000	-0.028	-0.431
-459.055	-122.862	-0.148	-0.024
-458.040	-200.000	0.029	-0.131
-457.026	166.803	-0.104	0.147
-456.011	122.509	0.160	0.200
-454.997	-194.364	-0.239	0.002
-453.982	-171.671	-0.328	0.011
-452.968	481.549	0.178	0.403
-451.953	4.859	-0.134	0.098
-450.938	800.000	0.100	-0.343
-449.924	-74.131	0.329	0.119
-448.909	-200.000	-0.071	0.316
-447.895	-86.385	-0.224	0.069
-446.880	84.726	0.034	0.037
-445.865	800.000	0.099	-0.317
-444.851	334.064	-0.130	-0.250
-443.836	47.053	-0.111	-0.103
-442.822	75.934	0.214	0.226
-441.807	-9.533	0.133	-0.089
-440.792	-123.330	-0.249	-0.040
-439.778	-114.508	-0.278	0.053
-438.763	29.776	0.179	0.152
-437.749	-106.849	0.195	-0.043
-436.734	37.485	0.081	0.072
-435.719	112.464	0.103	0.124
-434.705	800.000	-0.039	-0.115
-433.690	81.976	0.034	0.036
-432.676	-115.584	-0.400	-0.075
-431.661	441.704	-0.142	0.309
-430.646	-200.000	-0.018	-0.235
-429.632	-35.050	-0.471	0.256
-428.617	336.155	0.140	0.272
-427.603	102.801	0.253	0.295
-426.588	-184.084	0.294	0.005
-425.573	-99.126	0.165	-0.042
-424.559	-119.529	0.020	0.003
-423.544	-70.954	-0.169	-0.064
-422.530	-135.833	0.313	0.037
-421.515	167.733	-0.115	-0.163
-420.500	558.414	0.275	0.662
-419.486	-200.000	0.011	0.219
-418.471	800.000	-0.095	-0.287
-417.457	22.848	0.153	0.125
-416.442	-96.129	-0.114	-0.030
-415.428	-189.246	0.297	0.004
-414.413	22.115	0.009	0.007
-413.398	-15.006	0.156	-0.100
-412.384	503.637	0.065	0.149
-411.369	-124.727	0.261	0.040
-410.355	-200.000	0.013	-0.192
-409.340	360.638	0.158	-0.315
-408.325	-200.000	-0.001	0.012
-407.311	115.777	-0.343	0.417
-406.296	800.000	0.035	0.115
-405.282	-85.358	0.237	0.074
-404.267	-93.330	-0.371	-0.103
-403.252	188.580	-0.016	0.024
-402.238	370.841	0.148	0.298
-401.223	-39.023	-0.191	0.100
-400.209	403.135	-0.180	-0.378
-399.194	122.561	0.130	0.162
-398.179	-16.746	0.246	-0.155
-397.165	-138.054	-0.198	0.022
-396.150	800.000	-0.074	-0.287
-395.136	205.564	0.075	0.117
-394.121	-200.000	-0.008	-0.086
-393.106	-128.929	-0.041	-0.006
-392.092	88.832	0.142	-0.158
-391.077	-37.430	0.214	-0.114
-390.063	70.137	0.194	-0.199
-389.048	-106.940	-0.202	-0.045
-388.033	108.136	-0.112	0.133
-387.019	-66.397	0.139	0.055
-386.004	-200.000	-0.003	-0.074
-384.990	229.070	-0.042	-0.068
-383.975	246.788	0.159	0.266
-382.960	-109.520	-0.075	0.016
-381.946	588.786	0.124	0.304
-380.931	-200.000	-0.009	0.234
-379.917	179.909	0.056	-0.082
-378.902	800.000	0.039	0.157
-377.888	-138.915	-0.391	-0.042
-376.873	-126.497	0.055	0.008
-375.858	144.484	0.222	0.295
-374.844	80.633	-0.235	0.252
-373.829	295.017	-0.066	0.120
-372.815	-6.057	-0.146	-0.099
-371.800	-143.296	0.384	0.037
-370.785	-32.272	-0.087	0.048
-369.771	-114.021	-0.536	0.103
-368.756	337.526	0.157	0.303
-367.742	746.157	-0.137	0.366
-366.727	174.028	-0.139	0.200
-365.712	-143.799	0.095	0.009
-364.698	-53.529	0.385	0.175
-363.683	-84.284	-0.152	-0.048
-362.669	37.672	-0.166	-0.146
-361.654	-41.313	-0.289	0.148
-360.639	-200.000	0.117	0.001
-359.625	800.000	0.110	-0.346
-358.610	-55.376	-0.142	0.063
-357.596	-62.360	-0.144	-0.059
-356.581	568.012	0.091	0.220
-355.566	-77.527	-0.167	-0.057
-354.552	-200.000	0.024	-0.185
-353.537	-200.000	-0.018	-0.173
-352.523	-40.109	-0.244	0.127
-351.508	800.000	-0.065	-0.278
-350.493	105.687	-0.247	-0.290
-349.479	-149.589	0.083	-0.007
-348.464	373.873	0.145	0.294
-347.450	-149.965	-0.165	0.013
-346.435	-45.575	0.355	-0.175
-345.420	107.714	0.192	-0.227
-344.406	800.000	0.143	-0.515
-343.391	110.243	-0.131	0.156
-342.377	404.512	-0.229	-0.479
-341.362	-29.308	-0.039	-0.022
-340.348	256.828	0.135	0.230
-339.333	109.550	-0.197	0.234
-338.318	-124.211	-0.261	0.041
-337.304	29.884	-0.168	-0.142
-336.289	-200.000	-0.042	-0.249
-335.275	66.161	-0.018	0.018
-334.260	-114.213	-0.274	0.053
-333.245	73.797	-0.419	-0.437
-332.231	101.557	0.068	0.079
-331.216	161.705	-0.148	-0.205
-330.202	-12.855	-0.029	-0.019
-329.187	385.306	0.159	-0.325
-328.172	9.525	0.333	-0.251
-327.158	-32.719	-0.088	0.049
-326.143	-107.204	-0.186	-0.041
-325.129	-200.000	0.042	-0.260
-324.114	134.485	0.056	0.073
-323.099	97.284	-0.116	-0.132
-322.085	291.155	-0.063	-0.114
-321.070	-25.227	0.094	-0.055
-320.056	2.648	-0.028	0.020
-319.041	8.364	-0.402	0.300
-318.026	-134.769	0.353	0.043
-317.012	800.000	0.047	-0.142
-315.997	124.439	-0.214	-0.267
-314.983	-15.413	-0.260	0.165
-313.968	-37.101	0.166	0.088
-312.953	-200.000	-0.042	-0.247
-311.939	720.861	0.070	-0.183
-310.924	-3.280	0.204	0.141
-309.910	-134.371	-0.213	-0.026
-308.895	-67.615	0.111	-0.043
-307.880	-27.423	0.295	0.170
-306.866	-200.000	-0.005	0.052
-305.851	-200.000	0.059	-0.324
-304.837	-200.000	-0.015	-0.136
-303.822	-48.886	0.177	0.084
-302.807	382.682	-0.064	-0.131
-301.793	144.380	0.157	0.207
-300.778	37.999	0.106	0.093
-299.764	-200.000	0.017	-0.155
-298.749	16.713	0.237	0.186
-297.735	-20.940	0.212	0.129
-296.720	240.567	-0.097	0.160
-295.705	800.000	0.061	0.189
-294.691	70.480	0.282	0.289
-293.676	75.549	0.086	0.090
-292.662	-88.012	0.099	-0.029
-291.647	485.237	0.119	0.270
-290.632	-55.794	-0.405	0.179
-289.618	-12.144	-0.271	-0.176
-288.603	-17.994	0.295	-0.183
-287.589	-108.792	0.077	0.016
-286.574	-30.339	0.238	-0.134
-285.559	-55.796	-0.095	-0.042
-284.545	8.396	0.111	-0.083
-283.530	45.755	-0.271	-0.249
-282.516	800.000	0.030	0.087
-281.501	-200.000	0.008	0.269
-280.486	58.971	0.205	0.200
-279.472	-82.683	0.212	0.068
-278.457	-200.000	-0.042	0.241
-277.443	-147.705	0.186	-0.015
-276.428	-93.148	-0.211	-0.058
-275.413	130.648	0.115	-0.146
-274.399	800.000	-0.110	-0.325
-273.384	216.329	-0.117	0.185
-272.370	655.297	0.076	-0.194
-271.355	2.435	-0.158	-0.113
-270.340	-143.982	-0.053	0.005
-269.326	800.000	0.065	-0.212
-268.311	-33.432	0.180	0.099
-267.297	800.000	-0.086	0.279
-266.282	154.061	0.252	0.343
-265.267	-20.186	0.325	0.198
-264.253	800.000	-0.100	0.312
-263.238	800.000	0.058	-0.167
-262.224	-126.661	0.234	0.034
-261.209	107.688	0.045	0.053
-260.195	-200.000	-0.019	-0.142
-259.180	-59.837	0.407	0.172
-258.165	-200.000	-0.007	0.218
-257.151	511.818	0.062	0.142
-256.136	-200.000	-0.018	0.193
-255.122	-200.000	-0.013	0.082
-254.107	-113.281	-0.117	0.023
-253.092	258.524	-0.084	-0.143
-252.078	-56.782	0.166	0.073
-251.063	143.033	-0.091	-0.120
-250.049	-54.523	-0.268	-0.120
-249.034	-32.489	0.069	-0.038
-248.019	608.251	0.076	0.189
-247.005	356.193	-0.019	-0.037
-245.990	141.640	0.278	-0.365
-244.976	-62.279	0.109	-0.045
-243.961	-105.121	0.190	-0.043
-242.946	402.031	0.134	0.279
-241.932	-50.895	0.150	-0.070
-240.917	71.357	0.237	-0.243
-239.903	54.927	-0.090	-0.086
-238.888	-112.866	-0.341	-0.067
-237.873	93.825	0.132	-0.148
-236.859	123.669	-0.168	0.208
-235.844	75.464	0.047	0.049
-234.830	68.313	-0.023	0.024
-233.815	-200.000	0.016	0.124
-232.800	-6.926	-0.373	0.251
-231.786	44.551	-0.119	-0.108
-230.771	123.012	0.119	0.147
-229.757	-134.064	0.228	0.028
-228.742	47.936	-0.069	-0.063
-227.727	-200.000	0.044	-0.217
-226.713	320.198	0.119	0.224
-225.698	130.811	0.325	0.413
-224.684	-73.862	-0.123	-0.044
-223.669	200.641	0.062	0.095
-222.655	117.736	-0.180	0.219
-221.640	-141.784	0.245	0.024
-220.625	347.042	0.084	0.163
-219.611	-200.000	0.040	0.202
-218.596	-80.845	-0.184	-0.060
-217.582	88.493	0.134	-0.148
-216.567	-200.000	0.019	0.098
-215.552	-160.953	0.306	-0.016
-214.538	31.055	-0.188	0.159
-213.523	800.000	0.056	0.186
-212.509	-59.234	0.209	-0.089
-211.494	14.727	0.219	-0.169
-210.479	-101.716	-0.520	0.125
-209.465	518.101	-0.058	0.135
-208.450	104.858	0.292	0.340
-207.436	800.000	0.077	0.224
-206.421	-73.713	0.180	-0.065
-205.406	-136.269	0.284	-0.033
-204.392	-200.000	-0.083	-0.447
-203.377	-200.000	-0.047	-0.322
-202.363	-68.747	0.218	-0.083
-201.348	-174.974	-0.296	-0.008
-200.333	800.000	-0.055	-0.174
-199.319	-11.286	0.102	-0.066
-198.304	-125.855	0.183	-0.027
-197.290	2.171	-0.119	-0.085
-196.275	-71.878	-0.248	-0.091
-195.260	48.147	0.148	-0.137
-194.246	239.853	-0.079	-0.130
-193.231	-107.855	0.164	-0.035
-192.217	61.079	0.166	0.163
-191.202	510.744	-0.092	0.211
-190.187	480.649	0.076	-0.169
-189.173	392.414	-0.011	0.023
-188.158	557.772	0.170	0.405
-187.144	-28.106	0.103	-0.059
-186.129	-48.956	0.145	-0.069
-185.114	-35.613	-0.171	-0.092
-184.100	112.974	0.106	-0.127
-183.085	-41.636	-0.328	-0.167
-182.071	-41.987	0.123	-0.062
-181.056	-9.625	0.235	-0.155
-180.042	-135.390	0.185	-0.022
-179.027	-81.841	0.166	-0.054
-178.012	-4.202	0.083	-0.057
-176.998	800.000	-0.037	0.116
-175.983	150.036	0.109	0.146
-174.969	119.833	0.070	0.085
-173.954	-118.519	-0.359	0.063
-172.939	244.582	-0.146	-0.243
-171.925	-159.169	0.423	0.024
-170.910	-200.000	-0.036	-0.262
-169.896	-134.804	-0.170	-0.020
-168.881	-107.960	0.124	-0.027
-167.866	-200.000	-0.001	0.019
-166.852	-88.410	-0.130	0.038
-165.837	-22.475	0.148	0.088
-164.823	27.939	0.093	-0.077
-163.808	800.000	0.074	0.222
-162.793	3.964	0.211	0.152
-161.779	-62.123	-0.276	0.114
-160.764	-47.639	0.035	0.017
-159.750	-37.456	-0.214	-0.113
-158.735	-81.661	-0.347	0.112
-157.720	-200.000	-0.021	0.248
-156.706	-3.763	0.138	0.095
-155.691	42.095	0.357	0.320
-154.677	44.043	0.201	-0.182
-153.662	155.291	-0.172	-0.233
-152.647	104.360	0.136	0.158
-151.633	800.000	0.058	0.206
-150.618	136.005	-0.060	-0.077
-149.604	-47.354	0.212	-0.102
-148.589	800.000	-0.043	0.138
-147.574	-20.731	0.189	-0.114
-146.560	-75.483	0.214	0.075
-145.545	-55.170	0.346	0.154
-144.531	78.157	0.220	0.232
-143.516	-200.000	0.020	-0.259
-142.502	106.596	0.051	-0.060
-141.487	-200.000	0.102	-0.447
-140.472	-101.404	-0.072	0.017
-139.458	358.855	0.089	0.175
-138.443	-148.232	-0.246	0.020
-137.429	-101.121	-0.137	-0.033
-136.414	-107.663	-0.322	0.069
-135.399	298.846	-0.038	-0.069
-134.385	-99.452	0.112	-0.028
-133.370	117.297	-0.101	-0.122
-132.356	-162.380	-0.115	-0.006
-131.341	-200.000	0.019	0.174
-130.326	-200.000	-0.025	-0.143
-129.312	317.577	0.136	0.254
-128.297	645.754	-0.015	-0.037
-127.283	-39.915	0.205	-0.105
-126.268	52.241	-0.208	-0.195
-125.253	-86.507	-0.200	-0.060
-124.239	-51.165	0.077	-0.036
-123.224	-82.692	-0.110	-0.035
-122.210	-28.690	0.029	0.016
