DTS Sentinel unit serial number:	SN413079Multiplexer serial number:	ORYXHardware model number:	OX4-SRSoftware version number:	ORYX F/W v4.00 Oryx Data Collector v3.7.2.0data status	okinstallation	princeton_trtdifferential loss correction	single-endedforward channel	channel 1reverse channel	N/Adate	2019/09/13time	18:02:35forward acquisition time	60.00reverse acquisition time	0.00gamma	496.2192k internal	0.2308k external	0.2308temperature offset calibration	1.0142default loss term (dB/km)	0.3790temperature slope calibration	1.0000multiplexer offset coefficient	1.0000multiplexer slope coefficient	1.0000fibre end	0.00T internal ref (°C)	34.87T ext. ref 1 (°C)	4.69T ext. ref 2 (°C)	27.60length (m)	temperature (°C)	Stokes	anti-Stokes-747.200	-21.498	-0.220	0.137
-746.185	-162.149	0.206	0.011
-745.171	161.499	0.136	-0.193
-744.156	213.922	0.042	-0.067
-743.142	-45.402	0.130	0.066
-742.127	91.532	-0.393	0.449
-741.112	36.751	0.169	0.152
-740.098	129.421	0.056	-0.073
-739.083	-122.616	-0.303	-0.050
-738.069	119.750	-0.236	0.297
-737.054	367.338	-0.193	0.397
-736.039	-117.394	0.214	-0.039
-735.025	200.003	-0.102	-0.159
-734.010	311.278	-0.081	-0.154
-732.996	51.265	-0.228	-0.220
-731.981	800.000	0.027	0.117
-730.966	-42.758	-0.203	0.105
-729.952	-138.736	0.146	0.016
-728.937	-55.658	-0.062	0.028
-727.923	41.402	-0.198	0.182
-726.908	308.677	-0.026	0.049
-725.894	-104.925	-0.189	0.044
-724.879	800.000	0.006	0.023
-723.864	-111.788	0.413	0.085
-722.850	-123.637	-0.181	0.029
-721.835	776.141	-0.047	-0.129
-720.821	-135.496	-0.096	-0.012
-719.806	170.251	-0.329	0.477
-718.791	38.554	-0.053	-0.048
-717.777	800.000	0.046	0.154
-716.762	184.574	-0.153	-0.230
-715.748	800.000	0.043	-0.184
-714.733	171.833	0.234	0.341
-713.718	-5.683	0.186	0.129
-712.704	-127.395	0.191	-0.028
-711.689	-191.040	0.509	-0.005
-710.675	800.000	-0.070	-0.216
-709.660	-31.730	-0.403	0.229
-708.645	-200.000	-0.032	-0.309
-707.631	-200.000	0.004	0.023
-706.616	-45.011	0.188	0.095
-705.602	-16.469	-0.080	-0.051
-704.587	-15.227	-0.171	-0.111
-703.572	-200.000	0.027	-0.258
-702.558	686.676	-0.037	-0.099
-701.543	-70.180	-0.114	0.044
-700.529	215.395	0.297	-0.479
-699.514	-38.563	0.281	0.151
-698.499	-158.104	0.232	0.014
-697.485	-76.309	0.076	0.027
-696.470	-15.896	-0.176	-0.113
-695.456	80.676	0.186	0.203
-694.441	-200.000	0.054	-0.388
-693.426	770.473	-0.123	-0.341
-692.412	800.000	-0.102	-0.319
-691.397	800.000	-0.036	0.102
-690.383	-67.065	0.186	0.074
-689.368	115.279	-0.225	0.278
-688.354	800.000	0.074	-0.267
-687.339	-161.227	0.296	-0.016
-686.324	122.198	0.177	-0.224
-685.310	384.164	-0.072	0.150
-684.295	217.691	0.239	-0.386
-683.281	-154.227	0.120	-0.008
-682.266	-44.630	-0.276	-0.140
-681.251	-143.469	-0.075	-0.007
-680.237	800.000	-0.073	0.277
-679.222	785.021	-0.086	-0.239
-678.208	786.199	-0.119	-0.331
-677.193	-80.225	-0.155	0.052
-676.178	-97.123	-0.250	0.066
-675.164	21.488	-0.149	-0.123
-674.149	800.000	0.016	-0.050
-673.135	168.206	-0.149	-0.215
-672.120	-142.130	-0.007	-0.001
-671.105	-200.000	-0.003	0.251
-670.091	69.913	-0.095	-0.100
-669.076	-200.000	0.033	-0.368
-668.062	70.542	-0.087	0.091
-667.047	-146.511	-0.247	0.022
-666.032	800.000	0.062	-0.175
-665.018	-50.726	0.239	0.114
-664.003	53.172	-0.110	0.107
-662.989	190.628	0.150	-0.228
-661.974	-110.708	0.386	0.081
-660.959	129.419	-0.085	-0.111
-659.945	-84.037	-0.246	-0.079
-658.930	-37.449	-0.217	0.117
-657.916	514.059	0.101	-0.238
-656.901	-1.179	-0.030	0.022
-655.886	714.033	-0.084	0.225
-654.872	14.221	-0.253	0.199
-653.857	-98.825	0.407	0.105
-652.843	12.619	0.132	-0.103
-651.828	-175.085	-0.232	-0.007
-650.814	103.639	-0.041	0.049
-649.799	-97.901	-0.110	0.029
-648.784	-69.191	-0.169	0.066
-647.770	-200.000	0.262	-0.001
-646.755	-200.000	0.013	-0.108
-645.741	-200.000	-0.018	0.168
-644.726	-200.000	0.234	0.000
-643.711	-200.000	0.000	-0.260
-642.697	-22.147	0.150	-0.092
-641.682	-53.712	0.265	0.123
-640.668	374.208	0.050	-0.103
-639.653	-49.704	0.135	-0.065
-638.638	201.094	-0.098	-0.153
-637.624	800.000	-0.050	-0.147
-636.609	289.693	-0.064	0.117
-635.595	-22.664	0.212	0.130
-634.580	-200.000	-0.004	0.122
-633.565	-127.083	-0.241	0.036
-632.551	24.392	-0.143	0.120
-631.536	117.325	0.026	0.033
-630.522	-51.740	0.097	0.046
-629.507	145.288	0.029	-0.039
-628.492	11.869	0.159	0.123
-627.478	258.091	0.037	0.065
-626.463	-66.931	0.139	-0.056
-625.449	-18.151	-0.053	-0.034
-624.434	-183.664	-0.350	0.006
-623.419	-200.000	-0.005	-0.131
-622.405	158.564	0.173	0.244
-621.390	-94.818	-0.096	0.026
-620.376	-200.000	0.008	0.056
-619.361	-97.359	0.111	-0.029
-618.346	46.429	0.119	-0.112
-617.332	85.373	0.146	-0.162
-616.317	800.000	-0.104	-0.324
-615.303	-200.000	-0.043	-0.234
-614.288	-107.620	0.218	-0.048
-613.273	24.188	0.344	-0.287
-612.259	-138.588	-0.126	0.014
-611.244	-173.256	-0.414	0.013
-610.230	-131.682	0.171	-0.023
-609.215	54.916	0.124	-0.121
-608.201	281.999	0.203	-0.369
-607.186	-131.083	-0.018	-0.002
-606.171	47.584	-0.162	0.152
-605.157	-73.488	-0.117	0.043
-604.142	-163.555	-0.037	0.002
-603.128	-200.000	0.060	-0.381
-602.113	-200.000	0.031	-0.196
-601.098	-102.307	0.139	-0.034
-600.084	-33.900	0.164	-0.091
-599.069	-6.279	-0.054	0.037
-598.055	-200.000	0.006	0.140
-597.040	800.000	0.040	-0.124
-596.025	231.511	0.061	-0.101
-595.011	-52.676	0.176	-0.082
-593.996	-70.859	0.388	-0.148
-592.982	800.000	0.031	0.106
-591.967	348.146	-0.107	-0.214
-590.952	-141.359	-0.110	0.011
-589.938	37.528	-0.405	-0.363
-588.923	739.530	-0.083	0.225
-587.909	361.930	-0.091	-0.184
-586.894	800.000	0.078	0.333
-585.879	286.126	-0.096	0.174
-584.865	138.602	-0.264	-0.350
-583.850	36.778	0.145	0.130
-582.836	-200.000	0.004	-0.234
-581.821	-81.122	-0.119	-0.040
-580.806	-80.173	0.081	0.027
-579.792	-46.759	0.136	-0.067
-578.777	153.192	0.048	-0.067
-577.763	577.473	-0.048	-0.119
-576.748	230.561	-0.084	0.138
-575.733	-200.000	0.032	-0.228
-574.719	-152.168	-0.201	-0.015
-573.704	-79.927	-0.359	-0.122
-572.690	671.322	0.118	-0.309
-571.675	-61.916	0.168	-0.071
-570.661	788.985	0.131	-0.363
-569.646	800.000	-0.035	-0.133
-568.631	27.301	-0.369	0.313
-567.617	187.086	-0.180	-0.270
-566.602	132.106	-0.152	-0.197
-565.588	-135.501	-0.392	-0.047
-564.573	-167.084	0.199	-0.008
-563.558	587.140	0.089	0.222
-562.544	-2.346	0.167	-0.118
-561.529	-164.032	-0.206	0.010
-560.515	-81.422	0.044	-0.015
-559.500	50.559	0.104	-0.099
-558.485	-63.756	-0.230	-0.095
-557.471	72.821	-0.213	0.225
-556.456	188.449	-0.172	-0.260
-555.442	36.775	0.216	-0.192
-554.427	-136.076	-0.260	-0.031
-553.412	417.087	-0.074	0.159
-552.398	-19.062	-0.311	0.195
-551.383	308.231	0.105	0.197
-550.369	-200.000	-0.012	-0.069
-549.354	-86.717	-0.204	0.063
-548.339	800.000	-0.079	-0.273
-547.325	67.711	0.184	0.190
-546.310	24.791	0.313	-0.261
-545.296	3.529	0.060	-0.044
-544.281	-200.000	0.010	-0.339
-543.266	-65.580	-0.129	0.052
-542.252	-85.112	-0.190	-0.060
-541.237	155.917	0.172	-0.239
-540.223	-15.821	0.154	0.099
-539.208	-200.000	0.013	-0.137
-538.193	-200.000	0.056	-0.441
-537.179	27.549	0.120	-0.102
-536.164	23.926	-0.093	0.078
-535.150	349.698	-0.175	0.348
-534.135	311.942	0.021	-0.039
-533.121	174.173	0.176	0.256
-532.106	68.318	-0.118	0.122
-531.091	61.344	-0.004	-0.004
-530.077	-200.000	0.001	0.115
-529.062	-200.000	-0.040	0.243
-528.048	549.831	-0.114	0.276
-527.033	-200.000	0.029	0.194
-526.018	-200.000	-0.026	-0.214
-525.004	627.960	0.090	-0.228
-523.989	-64.785	0.163	0.067
-522.975	-114.557	-0.321	-0.062
-521.960	289.569	-0.088	0.161
-520.945	165.194	0.019	0.027
-519.931	-200.000	0.042	0.194
-518.916	-105.155	0.266	-0.061
-517.902	-83.383	0.393	0.127
-516.887	82.166	0.115	-0.126
-515.872	380.882	-0.158	0.327
-514.858	-86.458	-0.127	0.039
-513.843	72.668	0.158	-0.166
-512.829	67.938	-0.109	-0.112
-511.814	-38.727	-0.043	-0.023
-510.799	-14.460	0.262	-0.170
-509.785	155.281	-0.116	-0.160
-508.770	500.390	0.085	-0.197
-507.756	5.526	0.052	-0.038
-506.741	-31.101	0.315	-0.179
-505.726	129.493	-0.092	0.118
-504.712	-182.524	0.151	0.003
-503.697	-200.000	-0.005	-0.059
-502.683	84.737	-0.267	-0.294
-501.668	-23.081	-0.462	-0.280
-500.653	-4.816	-0.234	0.162
-499.639	800.000	0.108	0.441
-498.624	-118.202	-0.066	0.012
-497.610	-200.000	-0.051	0.235
-496.595	339.630	-0.087	-0.171
-495.581	-91.626	-0.031	-0.009
-494.566	-200.000	-0.037	0.229
-493.551	552.620	-0.122	0.295
-492.537	800.000	-0.035	-0.108
-491.522	-189.791	0.260	-0.003
-490.508	10.173	-0.150	0.115
-489.493	263.242	-0.173	0.302
-488.478	42.196	0.352	0.322
-487.464	425.248	0.096	0.207
-486.449	-157.107	-0.204	-0.013
-485.435	-148.099	0.205	-0.017
-484.420	0.303	-0.232	0.167
-483.405	800.000	0.090	0.285
-482.391	-13.979	0.152	-0.099
-481.376	-109.326	0.478	0.102
-480.362	-200.000	0.043	-0.207
-479.347	-47.768	-0.274	0.133
-478.332	-200.000	-0.011	-0.216
-477.318	69.822	0.273	-0.283
-476.303	800.000	-0.064	-0.209
-475.289	800.000	0.021	0.059
-474.274	-200.000	-0.004	0.156
-473.259	68.895	0.072	0.075
-472.245	335.917	-0.007	0.014
-471.230	-78.597	-0.156	-0.054
-470.216	455.535	0.046	-0.103
-469.201	-150.266	0.132	0.010
-468.186	-0.226	0.267	-0.191
-467.172	114.678	0.144	0.176
-466.157	800.000	0.106	-0.300
-465.143	-16.695	0.272	0.173
-464.128	482.096	-0.177	-0.405
-463.113	-200.000	-0.057	0.268
-462.099	-200.000	0.046	-0.315
-461.084	-28.459	0.187	0.108
-460.070	-38.991	-0.096	0.051
-459.055	-200.000	-0.040	0.206
-458.040	201.696	0.047	0.073
-457.026	124.052	0.176	-0.222
-456.011	-143.316	-0.347	0.033
-454.997	697.966	-0.119	-0.314
-453.982	800.000	0.029	-0.094
-452.968	-29.697	0.054	-0.031
-451.953	119.136	0.111	0.138
-450.938	-42.276	0.390	-0.200
-449.924	264.237	-0.058	0.101
-448.909	-128.472	0.144	-0.021
-447.895	-125.229	0.134	-0.021
-446.880	362.753	-0.088	-0.177
-445.865	691.451	0.044	-0.116
-444.851	13.911	0.029	-0.022
-443.836	-181.589	0.121	0.002
-442.822	-200.000	-0.011	0.285
-441.807	-132.748	0.015	0.002
-440.792	166.740	0.066	0.094
-439.778	-96.547	-0.373	-0.099
-438.763	-200.000	-0.025	0.264
-437.749	5.280	0.194	0.144
-436.734	330.072	0.232	-0.448
-435.719	-92.547	0.320	0.090
-434.705	726.763	-0.052	-0.138
-433.690	-183.234	0.335	0.006
-432.676	-171.489	0.183	-0.006
-431.661	-200.000	-0.027	0.272
-430.646	440.810	0.056	-0.124
-429.632	-34.655	-0.230	-0.126
-428.617	800.000	0.118	-0.351
-427.603	255.146	0.020	-0.034
-426.588	-77.936	-0.412	0.143
-425.573	-96.982	-0.110	-0.029
-424.559	39.911	-0.173	-0.156
-423.544	-94.498	-0.230	0.063
-422.530	64.255	-0.129	0.130
-421.515	-56.747	-0.099	0.044
-420.500	-200.000	0.044	0.299
-419.486	419.159	0.123	0.265
-418.471	-81.859	-0.554	0.182
-417.457	-102.325	-0.166	-0.040
-416.442	332.908	0.097	-0.188
-415.428	-143.561	-0.410	0.039
-414.413	351.159	0.163	-0.324
-413.398	-26.456	-0.226	0.133
-412.384	-79.273	-0.208	0.071
-411.369	-28.437	0.143	0.083
-410.355	110.753	0.075	-0.090
-409.340	-200.000	0.031	-0.223
-408.325	-38.149	-0.334	0.178
-407.311	609.993	0.097	0.242
-406.296	800.000	0.090	0.335
-405.282	69.264	-0.140	0.144
-404.267	19.515	0.024	-0.019
-403.252	-152.603	-0.329	0.024
-402.238	146.212	-0.068	0.091
-401.223	538.214	-0.129	-0.307
-400.209	-70.598	-0.367	0.139
-399.194	-200.000	-0.001	-0.039
-398.179	33.944	-0.081	-0.070
-397.165	-63.087	0.033	0.014
-396.150	413.329	-0.097	0.206
-395.136	-91.892	-0.075	-0.021
-394.121	-200.000	-0.028	-0.469
-393.106	284.859	0.201	-0.362
-392.092	-200.000	-0.043	0.280
-391.077	-200.000	-0.011	0.152
-390.063	-200.000	-0.033	-0.457
-389.048	800.000	0.047	-0.190
-388.033	-84.928	-0.255	0.080
-387.019	-107.697	0.185	-0.040
-386.004	302.952	0.127	-0.235
-384.990	-68.438	0.112	-0.044
-383.975	-42.040	-0.161	-0.083
-382.960	-4.472	0.109	0.075
-381.946	10.656	-0.093	-0.071
-380.931	63.237	0.081	-0.081
-379.917	-6.829	0.201	-0.137
-378.902	-167.023	-0.505	-0.021
-377.888	-126.138	-0.580	-0.087
-376.873	-117.546	0.188	0.034
-375.858	-39.899	0.097	-0.051
-374.844	-125.724	-0.338	0.051
-373.829	-200.000	0.015	-0.172
-372.815	56.235	0.313	0.304
-371.800	-109.783	-0.306	0.064
-370.785	-200.000	-0.006	0.165
-369.771	-17.519	-0.254	0.160
-368.756	-154.098	0.223	0.015
-367.742	800.000	0.030	-0.084
-366.727	-64.338	-0.259	0.106
-365.712	530.095	-0.129	0.306
-364.698	800.000	0.039	-0.167
-363.683	-37.794	-0.231	-0.123
-362.669	545.976	-0.149	0.356
-361.654	-19.477	0.152	0.094
-360.639	250.781	0.071	-0.122
-359.625	-83.644	-0.113	-0.036
-358.610	-200.000	0.020	-0.135
-357.596	243.104	0.037	-0.062
-356.581	788.353	0.090	0.246
-355.566	65.502	0.315	0.319
-354.552	800.000	0.136	-0.407
-353.537	800.000	0.050	0.143
-352.523	116.179	-0.298	0.366
-351.508	167.862	-0.208	0.297
-350.493	-25.310	-0.127	-0.075
-349.479	185.850	-0.094	-0.140
-348.464	800.000	-0.168	0.475
-347.450	800.000	-0.060	-0.169
-346.435	800.000	-0.047	-0.148
-345.420	-98.762	-0.164	0.042
-344.406	183.071	0.079	0.116
-343.391	-200.000	0.019	0.278
-342.377	468.385	-0.153	0.343
-341.362	-200.000	-0.009	0.616
-340.348	264.492	-0.189	0.329
-339.333	-103.739	-0.172	-0.040
-338.318	-130.005	-0.121	0.017
-337.304	-127.956	0.279	-0.040
-336.289	-200.000	-0.011	-0.073
-335.275	-149.670	-0.336	0.026
-334.260	725.559	0.190	0.507
-333.245	-19.575	0.138	0.085
-332.231	800.000	-0.036	0.106
-331.216	-111.105	-0.053	0.011
-330.202	23.961	-0.193	0.160
-329.187	-77.412	0.235	0.082
-328.172	119.727	-0.121	-0.149
-327.158	415.114	0.170	-0.362
-326.143	-85.590	-0.109	0.034
-325.129	543.560	0.110	-0.263
-324.114	-56.662	-0.375	-0.166
-323.099	42.161	0.039	0.035
-322.085	-200.000	0.000	0.054
-321.070	-101.484	0.132	-0.032
-320.056	-162.296	-0.108	-0.005
-319.041	-42.720	0.309	0.157
-318.026	-124.595	0.339	-0.053
-317.012	313.067	-0.030	-0.057
-315.997	-85.825	-0.135	-0.042
-314.983	-200.000	-0.072	0.380
-313.968	-200.000	-0.004	0.064
-312.953	-76.640	0.052	0.018
-311.939	-135.285	-0.312	-0.037
-310.924	-126.911	-0.363	0.053
-309.910	-200.000	-0.043	-0.194
-308.895	800.000	-0.025	-0.095
-307.880	-200.000	-0.393	0.000
-306.866	-92.133	-0.317	0.090
-305.851	-97.230	-0.215	0.056
-304.837	98.358	0.201	0.231
-303.822	25.138	-0.089	-0.074
-302.807	381.304	-0.132	0.271
-301.793	-162.738	0.246	0.012
-300.778	-53.226	0.236	0.108
-299.764	-200.000	0.025	-0.111
-298.749	-67.207	0.206	-0.081
-297.735	344.048	0.106	-0.207
-296.720	203.767	0.076	0.117
-295.705	158.043	0.296	0.410
-294.691	-122.277	0.340	0.056
-293.676	0.190	-0.138	0.099
-292.662	719.463	0.070	-0.184
-291.647	69.136	0.241	0.247
-290.632	-14.282	0.136	0.088
-289.618	-119.433	-0.218	-0.038
-288.603	-15.026	0.191	-0.122
-287.589	-200.000	0.011	-0.062
-286.574	-200.000	-0.028	-0.179
-285.559	-200.000	0.006	-0.061
-284.545	29.816	0.114	0.097
-283.530	-57.043	0.027	-0.012
-282.516	192.008	0.149	0.225
-281.501	-60.456	0.167	-0.071
-280.486	346.618	-0.134	-0.264
-279.472	800.000	-0.035	0.143
-278.457	305.462	-0.080	0.148
-277.443	425.624	-0.193	-0.414
-276.428	-139.417	-0.264	0.028
-275.413	0.279	-0.061	-0.044
-274.399	800.000	0.100	0.395
-273.384	127.145	0.093	0.117
-272.370	-27.320	0.205	-0.119
-271.355	354.580	-0.143	0.283
-270.340	287.972	-0.096	0.173
-269.326	-93.691	0.142	0.039
-268.311	-33.878	0.120	-0.066
-267.297	213.789	-0.099	0.156
-266.282	-112.664	0.368	-0.073
-265.267	-121.431	-0.150	-0.025
-264.253	88.720	0.178	-0.198
-263.238	65.006	0.181	0.182
-262.224	-91.634	0.229	0.065
-261.209	-200.000	0.000	-0.086
-260.195	-101.293	0.034	-0.008
-259.180	-200.000	0.008	-0.240
-258.165	174.467	-0.092	0.133
-257.151	-153.417	0.178	-0.012
-256.136	59.403	0.161	-0.158
-255.122	-30.380	-0.119	0.067
-254.107	211.642	0.075	0.117
-253.092	52.629	-0.234	-0.223
-252.078	-57.912	0.353	-0.154
-251.063	265.694	-0.275	0.479
-250.049	800.000	0.109	0.344
-249.034	-23.664	0.098	-0.058
-248.019	-200.000	0.008	-0.086
-247.005	-200.000	0.032	-0.369
-245.990	169.826	-0.174	-0.248
-244.976	65.074	0.263	-0.265
-243.961	109.903	0.125	-0.150
-242.946	510.478	-0.060	0.138
-241.932	518.745	-0.145	0.338
-240.917	407.959	0.042	-0.089
-239.903	159.027	-0.092	-0.128
-238.888	-22.541	-0.070	-0.042
-237.873	-156.559	0.238	0.015
-236.859	-115.515	0.111	0.021
-235.844	35.228	-0.279	0.244
-234.830	236.088	0.059	0.097
-233.815	-13.296	-0.222	0.144
-232.800	74.137	0.326	-0.341
-231.786	473.922	0.051	-0.115
-230.771	-152.837	0.092	0.007
-229.757	-109.948	0.378	-0.079
-228.742	-159.602	0.400	0.022
-227.727	113.821	-0.159	-0.192
-226.713	1.238	0.053	0.038
-225.698	186.610	0.087	-0.129
-224.684	-49.446	-0.252	0.119
-223.669	783.876	-0.175	0.476
-222.655	15.231	0.136	0.106
-221.640	-92.916	-0.463	-0.129
-220.625	-166.012	0.293	0.012
-219.611	146.807	-0.088	0.118
-218.596	-36.408	-0.131	-0.070
-217.582	166.343	0.085	0.119
-216.567	794.217	-0.074	-0.204
-215.552	-4.865	0.059	-0.040
-214.538	-72.433	0.071	-0.026
-213.523	-145.030	0.170	-0.015
-212.509	17.743	0.189	0.150
-211.494	124.392	0.061	0.076
-210.479	38.426	-0.196	0.174
-209.465	-200.000	0.008	0.063
-208.450	-96.907	0.237	-0.062
-207.436	95.722	-0.196	0.222
-206.421	-2.576	0.118	-0.082
-205.406	7.606	-0.060	-0.045
-204.392	800.000	-0.095	0.295
-203.377	-144.303	-0.229	0.021
-202.363	-200.000	-0.011	0.211
-201.348	-105.076	0.315	-0.072
-200.333	11.154	0.127	0.097
-199.319	800.000	-0.043	0.131
-198.304	-152.662	0.257	0.018
-197.290	-119.986	-0.153	-0.026
-196.275	215.626	-0.054	-0.086
-195.260	-200.000	-0.029	-0.255
-194.246	-200.000	0.017	0.187
-193.231	-200.000	-0.015	-0.140
-192.217	421.642	-0.073	0.156
-191.202	800.000	-0.043	0.145
-190.187	150.361	0.132	-0.179
-189.173	-77.123	-0.164	0.057
-188.158	-54.430	0.110	0.050
-187.144	247.487	0.135	0.227
-186.129	7.173	-0.079	0.059
-185.114	566.761	-0.128	-0.309
-184.100	-73.892	0.081	0.029
-183.085	728.546	0.094	0.250
-182.071	-69.052	0.318	0.122
-181.056	-200.000	0.025	-0.166
-180.042	-54.806	0.215	0.097
-179.027	272.044	-0.053	-0.094
-178.012	-160.482	-0.053	-0.003
-176.998	-200.000	-0.011	0.051
-175.983	-28.430	0.481	0.276
-174.969	-78.960	0.161	0.054
-173.954	800.000	0.120	0.332
-172.939	-107.770	-0.301	-0.065
-171.925	52.995	0.154	-0.146
-170.910	502.046	0.089	-0.205
-169.896	503.849	-0.060	-0.137
-168.881	-92.500	0.026	-0.007
-167.866	-110.051	-0.211	0.044
-166.852	-113.954	-0.214	-0.041
-165.837	112.249	0.089	0.106
-164.823	-200.000	-0.005	-0.198
-163.808	-200.000	-0.023	-0.366
-162.793	158.685	-0.113	-0.156
-161.779	-25.355	0.143	-0.084
-160.764	31.991	-0.223	-0.191
-159.750	-89.943	-0.217	-0.063
-158.735	-73.648	0.228	-0.082
-157.720	20.771	0.024	0.020
-156.706	-55.131	0.174	0.078
-155.691	-99.783	0.044	0.011
-154.677	782.569	-0.074	-0.202
-153.662	-28.895	-0.057	-0.033
-152.647	-83.995	0.169	0.053
-151.633	-200.000	-0.023	0.170
-150.618	-200.000	-0.014	-0.388
-149.604	123.519	0.217	-0.270
-148.589	-101.367	0.258	-0.063
-147.574	230.555	0.193	-0.313
-146.560	-112.089	0.358	0.071
-145.545	-117.370	0.404	0.073
-144.531	-200.000	-0.023	0.193
-143.516	-165.724	0.229	-0.010
-142.502	-200.000	0.020	0.110
-141.487	-200.000	0.049	0.221
-140.472	62.660	0.155	0.154
-139.458	-13.076	-0.041	-0.026
-138.443	-142.836	-0.355	0.034
-137.429	-200.000	-0.007	0.337
-136.414	-174.951	-0.059	-0.002
-135.399	58.239	-0.187	0.182
-134.385	800.000	-0.015	0.060
-133.370	161.441	0.057	0.079
-132.356	51.295	-0.133	0.125
-131.341	-174.018	0.230	-0.007
-130.326	-84.115	0.256	0.081
-129.312	11.026	-0.098	0.074
-128.297	472.674	0.157	0.351
-127.283	304.011	0.210	0.387
-126.268	-112.927	0.106	-0.021
-125.253	0.877	0.241	0.172
-124.239	-101.005	0.179	0.044
-123.224	-150.393	-0.164	-0.013
-122.210	43.897	-0.193	-0.176
-121.195	800.000	0.058	0.201
