DTS Sentinel unit serial number:	SN413079Multiplexer serial number:	ORYXHardware model number:	OX4-SRSoftware version number:	ORYX F/W v4.00 Oryx Data Collector v3.7.2.0data status	okinstallation	princeton_trtdifferential loss correction	single-endedforward channel	channel 1reverse channel	N/Adate	2019/09/14time	15:38:35forward acquisition time	60.00reverse acquisition time	0.00gamma	496.2192k internal	0.2295k external	0.2295temperature offset calibration	1.0075default loss term (dB/km)	0.3790temperature slope calibration	1.0000multiplexer offset coefficient	1.0000multiplexer slope coefficient	1.0000fibre end	0.00T internal ref (°C)	38.81T ext. ref 1 (°C)	5.16T ext. ref 2 (°C)	34.16length (m)	temperature (°C)	Stokes	anti-Stokes-747.200	67.353	-0.177	0.185
-746.185	-200.000	-0.017	0.120
-745.171	-14.863	-0.133	0.087
-744.156	-21.345	-0.063	0.039
-743.142	800.000	0.077	0.226
-742.127	33.225	0.052	-0.046
-741.112	75.604	0.127	0.137
-740.098	-200.000	-0.005	0.036
-739.083	-55.908	0.162	-0.074
-738.069	111.003	0.174	0.215
-737.054	-200.000	0.007	0.136
-736.039	276.243	0.050	0.090
-735.025	-200.000	-0.011	0.269
-734.010	114.885	0.143	-0.178
-732.996	-119.869	-0.254	0.045
-731.981	-63.840	-0.290	-0.121
-730.966	76.456	-0.198	0.215
-729.952	-37.960	0.176	0.096
-728.937	800.000	-0.106	-0.410
-727.923	516.477	-0.135	-0.322
-726.908	-136.191	0.224	-0.027
-725.894	-122.201	-0.379	-0.063
-724.879	800.000	-0.042	-0.140
-723.864	-85.491	0.118	-0.037
-722.850	486.199	-0.030	0.069
-721.835	-135.269	-0.134	-0.016
-720.821	-200.000	0.013	-0.158
-719.806	800.000	0.051	0.162
-718.791	-8.857	-0.368	-0.252
-717.777	425.952	0.035	-0.077
-716.762	191.452	0.286	0.439
-715.748	800.000	0.084	0.332
-714.733	-77.969	-0.172	-0.061
-713.718	-200.000	-0.056	0.341
-712.704	149.755	-0.082	0.114
-711.689	-16.411	-0.229	0.148
-710.675	-87.821	0.356	0.109
-709.660	-144.451	-0.105	0.010
-708.645	-200.000	-0.015	-0.122
-707.631	-200.000	0.009	0.090
-706.616	234.386	0.266	-0.448
-705.602	-200.000	0.030	0.401
-704.587	396.537	0.102	0.217
-703.572	225.949	-0.069	0.114
-702.558	208.082	-0.097	0.154
-701.543	-25.738	0.139	0.084
-700.529	217.380	0.094	0.153
-699.514	221.489	-0.162	-0.266
-698.499	-200.000	-0.041	0.192
-697.485	-108.284	0.041	0.009
-696.470	685.471	0.126	-0.336
-695.456	800.000	0.071	0.252
-694.441	-200.000	0.012	-0.087
-693.426	-200.000	-0.004	-0.250
-692.412	-134.197	0.489	-0.061
-691.397	2.443	-0.224	0.166
-690.383	-2.181	-0.275	-0.197
-689.368	-200.000	-0.057	-0.422
-688.354	9.760	0.202	0.156
-687.339	-114.088	0.113	0.022
-686.324	-87.453	0.121	0.037
-685.310	149.590	0.134	0.185
-684.295	572.545	-0.141	-0.350
-683.281	-75.947	0.213	0.077
-682.266	-17.893	-0.109	0.070
-681.251	800.000	0.115	0.330
-680.237	-37.133	-0.450	0.246
-679.222	-148.036	-0.065	0.005
-678.208	-63.179	0.177	-0.074
-677.193	59.347	0.075	-0.075
-676.178	-11.778	0.251	0.168
-675.164	-0.456	0.139	-0.100
-674.149	-4.455	-0.015	-0.011
-673.135	-195.337	-0.316	-0.002
-672.120	165.516	-0.127	-0.184
-671.105	387.386	-0.063	-0.132
-670.091	-200.000	0.011	-0.306
-669.076	36.374	-0.248	0.223
-668.062	650.076	0.188	-0.491
-667.047	-87.974	-0.107	0.033
-666.032	46.200	-0.090	-0.085
-665.018	53.527	0.200	0.195
-664.003	-164.483	-0.121	-0.006
-662.989	-200.000	-0.000	-0.218
-661.974	-2.784	0.139	-0.099
-660.959	-52.558	0.055	-0.026
-659.945	-200.000	0.004	0.215
-658.930	91.512	-0.229	-0.262
-657.916	420.950	0.051	-0.111
-656.901	167.645	-0.050	-0.072
-655.886	61.401	-0.238	0.241
-654.872	-200.000	0.267	0.001
-653.857	-200.000	-0.001	-0.180
-652.843	150.465	0.072	0.100
-651.828	-15.296	0.191	-0.125
-650.814	175.925	-0.210	-0.310
-649.799	-8.843	-0.174	-0.119
-648.784	-60.225	-0.105	0.046
-647.770	209.149	0.250	-0.399
-646.755	2.406	0.109	-0.080
-645.741	25.205	0.174	-0.147
-644.726	23.222	-0.200	-0.168
-643.711	163.052	-0.086	-0.124
-642.697	-105.940	-0.379	-0.087
-641.682	142.867	0.098	0.133
-640.668	650.862	0.055	0.144
-639.653	-53.153	-0.137	-0.064
-638.638	-89.788	-0.266	-0.079
-637.624	800.000	-0.064	0.207
-636.609	-132.211	-0.226	-0.030
-635.595	214.927	0.149	-0.241
-634.580	-200.000	-0.017	-0.302
-633.565	98.197	0.050	0.058
-632.551	147.673	0.132	-0.181
-631.536	-97.573	-0.063	-0.017
-630.522	-43.632	-0.211	0.108
-629.507	56.477	0.047	0.046
-628.492	41.317	0.056	0.052
-627.478	-32.590	0.243	-0.138
-626.463	78.939	0.106	0.116
-625.449	-200.000	-0.039	-0.322
-624.434	800.000	-0.072	-0.243
-623.419	800.000	-0.214	-0.638
-622.405	-116.159	-0.234	0.044
-621.390	346.684	-0.071	0.141
-620.376	52.792	-0.190	0.185
-619.361	41.207	0.023	0.021
-618.346	800.000	-0.043	0.137
-617.332	-26.707	0.088	0.052
-616.317	-200.000	0.004	0.168
-615.303	-29.396	0.049	0.028
-614.288	46.002	0.109	0.103
-613.273	-114.990	-0.153	-0.030
-612.259	-162.928	0.031	-0.002
-611.244	-41.925	-0.117	-0.061
-610.230	360.921	-0.120	-0.245
-609.215	534.834	0.093	0.224
-608.201	146.308	-0.088	-0.121
-607.186	-90.048	0.083	0.025
-606.171	52.647	-0.144	-0.140
-605.157	404.382	-0.012	0.027
-604.142	456.662	-0.002	-0.004
-603.128	6.167	-0.105	-0.079
-602.113	5.238	-0.200	0.150
-601.098	42.116	0.288	-0.266
-600.084	-107.617	-0.176	0.039
-599.069	86.371	0.062	-0.070
-598.055	81.861	-0.147	0.162
-597.040	-110.562	-0.065	-0.014
-596.025	-9.511	-0.102	0.069
-595.011	800.000	-0.057	0.176
-593.996	-199.717	0.148	-0.001
-592.982	-200.000	0.015	0.137
-591.967	-200.000	-0.006	0.030
-590.952	-130.261	-0.128	-0.018
-589.938	-200.000	0.054	-0.328
-588.923	512.642	0.067	-0.158
-587.909	640.279	-0.094	-0.242
-586.894	123.812	-0.264	-0.337
-585.879	-143.651	0.467	-0.045
-584.865	-200.000	0.019	-0.106
-583.850	-200.000	0.027	-0.283
-582.836	-146.928	0.099	0.009
-581.821	-71.853	-0.109	0.041
-580.806	372.903	0.115	-0.238
-579.792	-200.000	-0.019	0.088
-578.777	-2.271	-0.209	0.149
-577.763	800.000	-0.081	-0.323
-576.748	742.813	-0.084	-0.229
-575.733	-101.589	-0.504	0.124
-574.719	800.000	-0.057	0.227
-573.704	800.000	-0.068	0.288
-572.690	57.672	-0.298	0.296
-571.675	-7.600	-0.205	-0.141
-570.661	130.771	-0.058	0.075
-569.646	130.562	0.131	-0.170
-568.631	-111.158	-0.278	-0.058
-567.617	65.329	-0.062	-0.063
-566.602	280.133	-0.151	-0.274
-565.588	-200.000	0.001	-0.115
-564.573	800.000	-0.059	0.202
-563.558	72.822	0.070	-0.074
-562.544	-30.894	0.043	0.025
-561.529	-200.000	0.013	-0.251
-560.515	25.853	-0.184	-0.155
-559.500	-200.000	0.003	0.042
-558.485	-146.499	-0.359	-0.032
-557.471	-200.000	0.004	0.030
-556.456	-44.849	0.069	-0.035
-555.442	-65.481	-0.539	0.220
-554.427	-200.000	0.036	-0.386
-553.412	60.192	0.039	0.039
-552.398	313.611	-0.086	0.164
-551.383	142.645	-0.025	0.034
-550.369	-121.383	-0.314	-0.053
-549.354	-17.770	-0.054	0.034
-548.339	-101.590	-0.253	0.062
-547.325	-200.000	-0.062	0.333
-546.310	-200.000	-0.066	-0.313
-545.296	-34.909	0.201	-0.111
-544.281	111.584	0.307	-0.376
-543.266	45.140	-0.341	-0.319
-542.252	-16.873	0.136	0.087
-541.237	-200.000	-0.010	-0.073
-540.223	-78.867	0.081	0.028
-539.208	-47.973	0.284	0.139
-538.193	-147.285	-0.217	-0.019
-537.179	23.437	-0.104	-0.086
-536.164	-200.000	-0.047	0.261
-535.150	136.609	0.177	0.234
-534.135	-200.000	0.029	-0.245
-533.121	-102.976	-0.332	-0.080
-532.106	-114.720	0.277	-0.054
-531.091	35.071	-0.134	0.119
-530.077	60.670	0.115	-0.116
-529.062	-84.514	-0.091	0.029
-528.048	-86.421	0.494	0.154
-527.033	800.000	-0.116	-0.450
-526.018	23.791	0.334	-0.279
-525.004	56.885	0.280	-0.276
-523.989	800.000	0.027	0.101
-522.975	605.597	0.081	0.205
-521.960	45.676	0.311	0.292
-520.945	-113.049	-0.176	-0.035
-519.931	151.901	-0.191	-0.264
-518.916	-200.000	-0.027	-0.123
-517.902	-109.190	-0.183	-0.039
-516.887	-192.138	-0.135	0.001
-515.872	117.380	0.176	0.219
-514.858	-74.257	0.234	-0.086
-513.843	-70.079	-0.071	-0.027
-512.829	800.000	-0.043	-0.184
-511.814	-200.000	0.123	-0.001
-510.799	-200.000	0.012	-0.356
-509.785	-127.211	-0.081	0.012
-508.770	800.000	-0.074	0.226
-507.756	52.247	-0.176	0.170
-506.741	-70.188	0.118	0.045
-505.726	253.823	0.033	0.057
-504.712	-127.460	0.158	-0.023
-503.697	-200.000	0.057	0.267
-502.683	-1.859	-0.260	0.185
-501.668	-200.000	0.012	-0.053
-500.653	-55.306	-0.233	-0.106
-499.639	195.001	0.114	-0.174
-498.624	130.711	-0.062	-0.080
-497.610	-111.045	-0.347	0.072
-496.595	-159.752	-0.242	0.013
-495.581	-200.000	0.002	0.164
-494.566	-200.000	-0.014	-0.307
-493.551	-80.905	0.196	-0.066
-492.537	-7.473	0.289	-0.198
-491.522	188.229	-0.238	0.361
-490.508	800.000	0.034	-0.098
-489.493	76.862	-0.029	0.031
-488.478	-200.000	0.038	0.182
-487.464	-67.991	-0.153	-0.060
-486.449	141.278	0.240	-0.321
-485.435	-200.000	0.005	-0.342
-484.420	-200.000	-0.011	-0.094
-483.405	180.154	-0.073	-0.109
-482.391	215.126	0.123	-0.198
-481.376	8.654	-0.051	0.039
-480.362	314.156	0.056	-0.106
-479.347	-97.910	0.144	-0.038
-478.332	71.780	0.090	-0.094
-477.318	-133.808	-0.105	0.013
-476.303	800.000	-0.102	0.317
-475.289	800.000	0.108	0.405
-474.274	-84.272	-0.189	-0.060
-473.259	-88.092	0.268	0.081
-472.245	-108.027	-0.119	-0.026
-471.230	37.150	0.086	-0.077
-470.216	297.569	0.081	0.151
-469.201	121.387	0.306	0.386
-468.186	-38.224	0.234	-0.125
-467.172	798.226	0.088	0.244
-466.157	-140.144	-0.190	-0.020
-465.143	161.387	-0.241	-0.341
-464.128	72.548	-0.068	0.071
-463.113	-200.000	-0.008	-0.120
-462.099	800.000	0.078	-0.246
-461.084	-99.464	0.134	0.034
-460.070	-82.017	-0.138	0.045
-459.055	-112.053	-0.024	0.005
-458.040	-149.087	0.163	-0.013
-457.026	-200.000	-0.016	-0.270
-456.011	30.719	0.102	-0.088
-454.997	-120.897	0.029	-0.005
-453.982	548.855	0.118	0.287
-452.968	-7.542	0.263	0.180
-451.953	231.917	-0.115	-0.191
-450.938	800.000	-0.079	-0.290
-449.924	-63.042	-0.198	-0.083
-448.909	-200.000	0.037	-0.332
-447.895	6.426	-0.298	-0.224
-446.880	-200.000	0.027	0.155
-445.865	800.000	-0.053	-0.154
-444.851	-108.402	-0.382	-0.083
-443.836	204.339	0.108	-0.169
-442.822	182.568	0.110	0.164
-441.807	-200.000	-0.236	0.001
-440.792	-20.222	-0.282	0.176
-439.778	464.439	0.115	0.261
-438.763	555.154	-0.025	0.060
-437.749	-109.485	0.359	0.077
-436.734	-57.383	-0.411	-0.182
-435.719	571.942	-0.104	-0.255
-434.705	-24.549	-0.254	-0.153
-433.690	-80.497	0.197	0.066
-432.676	235.097	-0.085	0.142
-431.661	-13.922	0.287	-0.187
-430.646	295.882	0.080	-0.148
-429.632	83.633	0.044	-0.049
-428.617	63.185	0.209	-0.211
-427.603	-200.000	0.062	0.278
-426.588	335.626	-0.113	0.222
-425.573	-60.290	0.324	0.139
-424.559	382.231	0.094	-0.195
-423.544	-70.334	0.230	0.088
-422.530	149.812	-0.210	0.288
-421.515	645.993	-0.056	-0.143
-420.500	800.000	0.034	0.127
-419.486	-200.000	0.012	0.388
-418.471	-112.020	0.046	-0.009
-417.457	163.446	-0.051	0.072
-416.442	800.000	-0.027	0.097
-415.428	178.420	0.083	-0.122
-414.413	-65.915	-0.198	-0.080
-413.398	71.154	0.261	-0.273
-412.384	-26.898	-0.175	-0.103
-411.369	495.052	0.081	0.189
-410.355	-200.000	-0.015	0.444
-409.340	97.495	-0.238	0.276
-408.325	-70.382	-0.166	-0.064
-407.311	-95.325	-0.179	0.049
-406.296	-148.954	-0.221	-0.018
-405.282	661.303	0.075	-0.196
-404.267	-64.354	-0.040	-0.017
-403.252	330.667	0.062	-0.120
-402.238	800.000	-0.015	-0.059
-401.223	-200.000	-0.012	-0.112
-400.209	-200.000	-0.009	0.057
-399.194	800.000	0.073	-0.210
-398.179	-200.000	-0.021	-0.242
-397.165	-200.000	0.021	-0.238
-396.150	-200.000	0.003	0.247
-395.136	240.558	-0.113	0.190
-394.121	537.068	-0.118	0.282
-393.106	264.994	-0.107	0.188
-392.092	-127.269	0.157	0.023
-391.077	-19.067	0.134	0.084
-390.063	-200.000	0.017	-0.336
-389.048	50.076	0.212	0.201
-388.033	-90.780	0.369	-0.107
-387.019	92.378	0.128	0.146
-386.004	246.552	-0.102	-0.174
-384.990	193.184	0.148	0.226
-383.975	195.377	0.115	-0.176
-382.960	800.000	0.053	0.193
-381.946	-200.000	0.047	0.244
-380.931	-6.986	0.241	0.165
-379.917	91.655	0.101	-0.114
-378.902	-62.743	-0.333	0.139
-377.888	-200.000	-0.054	-0.305
-376.873	800.000	0.085	0.244
-375.858	-200.000	-0.022	0.212
-374.844	119.790	0.263	-0.328
-373.829	-84.376	-0.132	0.042
-372.815	229.742	-0.176	-0.290
-371.800	-101.765	0.228	-0.056
-370.785	800.000	0.046	-0.133
-369.771	-200.000	-0.020	-0.269
-368.756	417.653	-0.104	-0.223
-367.742	158.521	-0.174	-0.243
-366.727	-26.493	0.112	0.066
-365.712	593.497	0.098	-0.244
-364.698	-12.023	0.148	0.098
-363.683	-68.688	0.205	-0.080
-362.669	-200.000	0.016	0.407
-361.654	39.838	0.164	0.149
-360.639	79.685	-0.116	-0.125
-359.625	-137.602	-0.110	-0.012
-358.610	-93.147	0.268	0.075
-357.596	707.992	-0.051	-0.135
-356.581	149.045	-0.139	0.189
-355.566	86.433	0.112	-0.124
-354.552	-144.824	-0.175	0.016
-353.537	-26.979	0.208	0.122
-352.523	141.461	-0.144	0.193
-351.508	261.011	0.183	0.320
-350.493	-200.000	-0.001	-0.084
-349.479	100.677	0.113	-0.132
-348.464	439.783	0.088	-0.194
-347.450	-200.000	-0.015	-0.413
-346.435	778.287	0.052	-0.144
-345.420	-76.158	-0.120	-0.043
-344.406	70.847	-0.142	-0.147
-343.391	549.864	-0.125	0.302
-342.377	-96.191	-0.156	-0.042
-341.362	330.622	-0.152	-0.295
-340.348	236.895	0.082	0.137
-339.333	-200.000	-0.029	-0.271
-338.318	-200.000	-0.008	0.312
-337.304	-40.521	-0.516	0.269
-336.289	37.742	-0.323	-0.289
-335.275	115.068	-0.039	-0.048
-334.260	800.000	0.031	-0.101
-333.245	9.203	0.131	0.100
-332.231	350.677	-0.088	0.175
-331.216	800.000	0.123	0.472
-330.202	-38.845	-0.262	-0.139
-329.187	800.000	-0.071	-0.204
-328.172	490.134	0.072	0.166
-327.158	800.000	0.093	-0.291
-326.143	-115.573	0.256	0.048
-325.129	721.245	0.131	0.350
-324.114	220.584	-0.186	0.300
-323.099	129.678	0.122	0.157
-322.085	379.157	-0.173	0.357
-321.070	52.319	0.216	-0.207
-320.056	87.328	-0.286	-0.318
-319.041	-36.347	-0.278	0.150
-318.026	800.000	0.065	0.227
-317.012	218.918	-0.159	-0.256
-315.997	-200.000	0.103	0.000
-314.983	677.302	0.145	0.378
-313.968	-124.656	-0.399	0.062
-312.953	-134.180	0.301	0.037
-311.939	52.369	0.105	0.101
-310.924	-59.260	0.329	-0.142
-309.910	535.496	-0.045	0.108
-308.895	-200.000	-0.057	-0.294
-307.880	12.146	0.305	-0.236
-306.866	445.459	-0.080	-0.177
-305.851	24.049	0.057	-0.047
-304.837	-92.174	0.270	0.076
-303.822	167.599	0.076	0.108
-302.807	296.874	-0.024	0.044
-301.793	-188.789	0.184	-0.002
-300.778	-200.000	0.051	0.335
-299.764	452.535	-0.061	0.137
-298.749	800.000	-0.040	-0.130
-297.735	266.279	-0.039	-0.068
-296.720	123.922	-0.027	0.034
-295.705	664.097	0.094	0.242
-294.691	53.073	-0.192	-0.184
-293.676	21.343	0.172	0.140
-292.662	-93.112	0.258	-0.072
-291.647	147.294	0.143	0.194
-290.632	-57.809	-0.414	-0.182
-289.618	-200.000	0.004	0.020
-288.603	-112.682	-0.129	0.026
-287.589	-28.694	0.270	-0.156
-286.574	-119.524	0.303	-0.053
-285.559	-22.632	-0.076	-0.046
-284.545	508.567	0.061	-0.143
-283.530	-200.000	0.008	-0.062
-282.516	-14.426	-0.254	0.164
-281.501	-200.000	-0.013	0.065
-280.486	-85.133	0.204	0.064
-279.472	-200.000	-0.013	-0.084
-278.457	-36.249	0.371	-0.201
-277.443	12.075	0.433	-0.334
-276.428	44.925	-0.285	0.263
-275.413	526.538	-0.183	0.433
-274.399	687.303	-0.103	0.271
-273.384	378.583	0.066	0.136
-272.370	-127.529	0.420	-0.061
-271.355	215.846	-0.097	0.155
-270.340	-200.000	-0.064	-0.294
-269.326	685.972	0.002	0.006
-268.311	-200.000	0.014	0.312
-267.297	120.733	0.042	-0.052
-266.282	-73.681	0.374	0.137
-265.267	-124.582	-0.223	0.035
-264.253	-200.000	-0.001	0.249
-263.238	57.209	0.117	-0.115
-262.224	-20.995	0.257	0.158
-261.209	-200.000	0.014	-0.401
-260.195	-200.000	0.042	0.186
-259.180	-136.917	0.226	0.026
-258.165	23.570	0.128	0.105
-257.151	11.060	0.157	-0.120
-256.136	9.344	0.058	-0.044
-255.122	-55.892	-0.176	0.079
-254.107	3.337	0.024	0.017
-253.092	800.000	-0.081	0.286
-252.078	797.234	0.077	-0.214
-251.063	66.356	0.158	0.161
-250.049	-127.393	-0.144	0.021
-249.034	52.892	-0.070	0.067
-248.019	-50.882	-0.200	-0.094
-247.005	79.363	-0.078	-0.083
-245.990	220.896	-0.213	-0.343
-244.976	-143.054	0.136	0.013
-243.961	-97.197	-0.135	0.035
-242.946	-160.973	0.079	-0.004
-241.932	17.749	0.165	-0.132
-240.917	-116.558	0.411	-0.076
-239.903	52.750	-0.221	0.212
-238.888	-22.620	0.257	-0.156
-237.873	137.453	-0.129	0.169
-236.859	-55.207	0.239	0.108
-235.844	342.213	0.085	0.166
-234.830	106.525	0.141	0.168
-233.815	-43.052	-0.351	-0.178
-232.800	146.049	-0.029	0.039
-231.786	96.180	-0.118	-0.135
-230.771	-7.089	-0.110	0.075
-229.757	626.155	0.220	0.555
-228.742	125.428	0.079	-0.100
-227.727	640.337	0.157	0.401
-226.713	213.879	0.061	-0.097
-225.698	-88.918	0.438	0.130
-224.684	-114.272	0.191	0.037
-223.669	-117.703	0.273	-0.049
-222.655	-200.000	-0.037	0.333
-221.640	-200.000	-0.026	-0.126
-220.625	-12.253	-0.105	-0.068
-219.611	17.855	-0.223	-0.178
-218.596	-200.000	-0.007	-0.053
-217.582	-72.470	-0.090	-0.033
-216.567	800.000	-0.044	0.169
-215.552	-200.000	0.025	0.174
-214.538	494.910	-0.058	0.133
-213.523	-99.649	-0.174	0.044
-212.509	295.545	-0.057	-0.104
-211.494	-200.000	0.024	0.146
-210.479	-200.000	0.324	-0.002
-209.465	800.000	-0.041	-0.129
-208.450	800.000	0.032	0.097
-207.436	18.336	-0.089	-0.071
-206.421	-200.000	-0.023	-0.154
-205.406	-131.195	-0.396	0.053
-204.392	756.914	0.193	-0.523
-203.377	-86.091	0.230	0.071
-202.363	-108.443	-0.271	0.058
-201.348	-46.638	0.066	-0.033
-200.333	-161.109	-0.134	-0.007
-199.319	-125.961	-0.179	0.027
-198.304	-200.000	-0.062	0.280
-197.290	-0.930	-0.179	0.127
-196.275	-22.722	0.128	-0.078
-195.260	-93.572	0.190	0.053
-194.246	-10.792	0.153	0.101
-193.231	-28.808	-0.158	0.091
-192.217	-81.721	-0.433	0.142
-191.202	8.569	0.125	0.094
-190.187	-200.000	0.010	-0.115
-189.173	-99.275	0.366	0.093
-188.158	-111.966	0.160	0.032
-187.144	92.404	0.110	-0.124
-186.129	88.658	-0.067	-0.074
-185.114	228.964	-0.191	-0.312
-184.100	93.877	0.115	-0.130
-183.085	272.351	0.098	-0.173
-182.071	-200.000	0.005	0.265
-181.056	-62.527	-0.031	-0.013
-180.042	-146.659	0.248	0.022
-179.027	800.000	-0.106	0.433
-178.012	-200.000	0.033	-0.214
-176.998	-200.000	0.012	-0.061
-175.983	291.896	-0.158	0.288
-174.969	73.269	-0.096	0.100
-173.954	-200.000	-0.056	0.480
-172.939	-200.000	0.030	0.266
-171.925	670.498	0.088	-0.229
-170.910	28.244	0.155	-0.131
-169.896	-33.962	0.155	-0.085
-168.881	-6.969	0.136	0.092
-167.866	475.817	0.073	-0.166
-166.852	298.146	-0.192	0.352
-165.837	800.000	0.039	-0.124
-164.823	-200.000	0.001	0.140
-163.808	126.546	0.065	0.082
-162.793	20.898	0.286	0.232
-161.779	349.202	-0.075	-0.148
-160.764	800.000	0.064	0.206
-159.750	338.891	-0.141	0.274
-158.735	-200.000	-0.089	0.391
-157.720	229.022	0.070	0.114
-156.706	-200.000	-0.003	0.191
-155.691	73.205	0.319	0.333
-154.677	258.896	0.014	0.024
-153.662	-26.804	-0.061	-0.036
-152.647	294.948	-0.026	-0.048
-151.633	135.036	-0.172	0.223
-150.618	504.659	-0.052	0.120
-149.604	407.301	0.039	-0.083
-148.589	54.261	-0.224	0.216
-147.574	363.315	-0.062	0.125
-146.560	-200.000	-0.021	-0.125
-145.545	-200.000	0.023	0.207
-144.531	679.041	0.022	0.058
-143.516	151.421	0.169	-0.230
-142.502	800.000	0.032	0.132
-141.487	-200.000	-0.017	0.094
-140.472	-142.939	-0.198	-0.019
-139.458	461.956	-0.050	-0.111
-138.443	-200.000	-0.054	-0.440
-137.429	608.211	0.018	0.044
-136.414	-8.225	-0.295	0.198
-135.399	240.466	0.093	0.155
-134.385	-200.000	-0.022	0.318
-133.370	-200.000	-0.000	-0.118
-132.356	-7.344	0.228	0.154
-131.341	199.045	-0.085	-0.131
-130.326	132.003	-0.172	-0.221
-129.312	114.879	-0.033	0.040
-128.297	62.320	-0.097	0.097
-127.283	354.571	-0.064	0.128
-126.268	280.215	0.214	-0.381
-125.253	-200.000	-0.020	-0.118
-124.239	223.362	-0.266	-0.429
-123.224	-200.000	0.017	0.113
-122.210	48.912	0.155	0.145
-121.195	-0.812	-0.300	0.212
