DTS Sentinel unit serial number:	SN413079Multiplexer serial number:	ORYXHardware model number:	OX4-SRSoftware version number:	ORYX F/W v4.00 Oryx Data Collector v3.7.2.0data status	okinstallation	princeton_trtdifferential loss correction	single-endedforward channel	channel 1reverse channel	N/Adate	2019/09/13time	20:58:35forward acquisition time	60.00reverse acquisition time	0.00gamma	496.2192k internal	0.2331k external	0.2331temperature offset calibration	1.0085default loss term (dB/km)	0.3790temperature slope calibration	1.0000multiplexer offset coefficient	1.0000multiplexer slope coefficient	1.0000fibre end	0.00T internal ref (°C)	28.64T ext. ref 1 (°C)	3.12T ext. ref 2 (°C)	23.26length (m)	temperature (°C)	Stokes	anti-Stokes-747.200	-160.592	-0.068	-0.004
-746.185	251.907	-0.206	0.353
-745.171	-148.807	0.396	0.032
-744.156	-15.320	-0.201	-0.129
-743.142	-200.000	-0.001	0.088
-742.127	49.777	0.096	0.091
-741.112	-119.785	-0.190	0.033
-740.098	-70.743	0.242	0.092
-739.083	5.586	-0.261	0.194
-738.069	-200.000	0.004	-0.081
-737.054	464.653	0.071	0.160
-736.039	461.960	0.077	0.173
-735.025	-140.313	-0.186	0.020
-734.010	222.238	0.106	-0.171
-732.996	114.232	0.206	-0.252
-731.981	-96.803	0.280	-0.074
-730.966	800.000	0.065	0.220
-729.952	-127.752	-0.145	0.021
-728.937	-200.000	0.020	-0.317
-727.923	12.654	0.066	-0.051
-726.908	-139.036	-0.203	-0.022
-725.894	-200.000	-0.093	-0.434
-724.879	-99.052	-0.383	-0.098
-723.864	-149.677	0.170	0.013
-722.850	269.273	-0.209	0.369
-721.835	-9.049	0.446	0.300
-720.821	800.000	-0.126	0.438
-719.806	124.679	-0.009	0.012
-718.791	-57.528	0.109	0.048
-717.777	-200.000	-0.002	0.072
-716.762	56.513	-0.035	0.034
-715.748	453.295	-0.119	-0.264
-714.733	150.792	-0.192	-0.263
-713.718	-200.000	0.077	-0.365
-712.704	55.809	-0.099	-0.097
-711.689	-145.890	-0.196	0.017
-710.675	-127.040	0.331	0.049
-709.660	-148.803	-0.278	-0.023
-708.645	-107.567	-0.133	0.029
-707.631	-102.249	-0.181	0.044
-706.616	694.833	0.087	-0.228
-705.602	-200.000	-0.038	-0.218
-704.587	284.793	-0.134	0.242
-703.572	13.176	0.173	-0.135
-702.558	-200.000	-0.059	0.334
-701.543	-98.287	0.252	-0.065
-700.529	59.204	0.175	0.173
-699.514	-50.461	-0.186	0.088
-698.499	-47.616	0.255	0.124
-697.485	-133.051	0.308	0.039
-696.470	758.900	-0.129	0.350
-695.456	-33.491	0.075	0.041
-694.441	22.318	-0.187	0.154
-693.426	154.808	0.104	-0.144
-692.412	249.202	0.101	0.172
-691.397	215.782	-0.109	0.173
-690.383	-89.825	0.173	-0.051
-689.368	-7.925	-0.272	0.184
-688.354	-200.000	-0.038	-0.186
-687.339	108.114	-0.093	0.111
-686.324	-48.063	0.298	-0.145
-685.310	-137.226	-0.153	0.017
-684.295	800.000	-0.034	0.095
-683.281	187.947	0.099	0.148
-682.266	-35.153	0.093	-0.051
-681.251	666.288	-0.057	-0.149
-680.237	-200.000	0.071	0.000
-679.222	-12.852	-0.082	0.053
-678.208	-200.000	-0.076	-0.365
-677.193	-200.000	-0.003	0.170
-676.178	-51.824	-0.188	0.088
-675.164	179.629	-0.123	0.181
-674.149	46.442	-0.168	0.157
-673.135	-120.402	-0.252	0.043
-672.120	45.063	-0.229	-0.211
-671.105	-36.793	0.235	0.126
-670.091	-178.832	-0.276	0.006
-669.076	-174.084	0.149	-0.004
-668.062	104.559	0.214	-0.252
-667.047	77.783	-0.119	0.128
-666.032	198.758	0.128	0.196
-665.018	-145.337	0.134	0.012
-664.003	800.000	0.031	-0.111
-662.989	-200.000	-0.028	0.195
-661.974	800.000	0.067	-0.230
-660.959	-121.814	0.187	0.031
-659.945	227.140	-0.191	0.311
-658.930	427.300	-0.017	0.036
-657.916	-21.819	-0.136	-0.083
-656.901	119.419	-0.336	0.417
-655.886	150.067	0.168	0.229
-654.872	46.289	0.089	0.083
-653.857	-33.833	-0.170	-0.094
-652.843	453.492	0.035	0.078
-651.828	333.453	0.037	-0.071
-650.814	140.527	0.193	0.255
-649.799	-200.000	0.025	-0.199
-648.784	-84.723	-0.242	-0.076
-647.770	0.439	-0.105	0.075
-646.755	261.403	0.117	-0.203
-645.741	499.331	0.163	-0.376
-644.726	-114.462	0.124	-0.024
-643.711	-84.545	0.115	-0.036
-642.697	-4.948	-0.064	0.044
-641.682	-200.000	-0.013	0.188
-640.668	-200.000	-0.020	-0.093
-639.653	-5.280	-0.211	-0.145
-638.638	-155.614	0.105	-0.007
-637.624	-17.653	-0.244	0.153
-636.609	83.009	-0.182	-0.198
-635.595	-61.519	-0.053	-0.022
-634.580	197.626	0.199	-0.305
-633.565	-200.000	-0.015	-0.128
-632.551	-46.044	-0.119	0.059
-631.536	6.337	-0.355	0.264
-630.522	-200.000	0.020	0.101
-629.507	-200.000	-0.026	0.249
-628.492	-172.359	-0.197	-0.006
-627.478	40.010	0.170	-0.153
-626.463	-159.282	-0.157	0.009
-625.449	10.965	0.231	-0.177
-624.434	310.559	0.062	0.117
-623.419	665.654	-0.082	-0.212
-622.405	-64.496	-0.202	-0.082
-621.390	59.888	0.254	-0.251
-620.376	-32.646	0.252	-0.140
-619.361	800.000	-0.030	-0.086
-618.346	-9.774	0.321	0.214
-617.332	-200.000	-0.001	-0.337
-616.317	-32.468	-0.140	0.078
-615.303	311.146	-0.096	0.181
-614.288	111.103	0.168	-0.202
-613.273	-46.403	-0.194	-0.095
-612.259	-200.000	0.045	-0.284
-611.244	-98.106	0.331	-0.085
-610.230	681.240	-0.092	-0.241
-609.215	-200.000	0.010	0.097
-608.201	-200.000	-0.001	-0.006
-607.186	59.485	0.077	0.076
-606.171	52.221	-0.285	-0.272
-605.157	31.723	-0.229	-0.198
-604.142	-119.502	0.337	0.058
-603.128	129.183	-0.196	-0.250
-602.113	16.165	0.288	-0.228
-601.098	505.597	0.080	0.186
-600.084	-200.000	-0.037	-0.405
-599.069	30.342	-0.142	-0.122
-598.055	104.724	0.115	-0.135
-597.040	-61.766	-0.210	-0.088
-596.025	-161.428	0.102	-0.005
-595.011	-84.680	-0.209	-0.066
-593.996	-200.000	0.041	-0.289
-592.982	267.625	0.107	-0.188
-591.967	-200.000	-0.010	-0.269
-590.952	121.147	-0.139	-0.173
-589.938	800.000	0.073	0.236
-588.923	458.184	0.112	-0.250
-587.909	-200.000	-0.014	-0.074
-586.894	148.426	-0.205	0.277
-585.879	-87.037	-0.089	0.027
-584.865	-166.020	0.232	-0.010
-583.850	-200.000	-0.001	0.131
-582.836	94.010	-0.146	0.165
-581.821	-200.000	0.145	0.683
-580.806	-64.851	0.405	0.164
-579.792	695.060	0.195	-0.512
-578.777	-200.000	-0.006	-0.094
-577.763	11.957	0.213	0.164
-576.748	-155.287	-0.225	0.015
-575.733	-30.022	0.050	-0.029
-574.719	753.560	0.141	-0.381
-573.704	83.907	0.146	-0.159
-572.690	-200.000	0.073	0.318
-571.675	800.000	0.023	-0.074
-570.661	800.000	-0.068	0.208
-569.646	152.996	-0.115	-0.157
-568.631	319.544	0.047	-0.089
-567.617	85.015	0.100	0.110
-566.602	169.368	0.135	-0.192
-565.588	-108.414	0.159	-0.034
-564.573	279.238	0.092	-0.164
-563.558	133.051	-0.145	-0.187
-562.544	-48.955	-0.023	-0.011
-561.529	800.000	-0.032	-0.111
-560.515	70.375	0.184	-0.190
-559.500	-86.355	0.260	-0.080
-558.485	-122.353	-0.163	-0.027
-557.471	299.788	0.056	0.104
-556.456	-43.840	0.075	-0.038
-555.442	-200.000	0.012	0.062
-554.427	53.637	0.071	-0.068
-553.412	508.309	0.046	-0.107
-552.398	-200.000	-0.020	0.107
-551.383	-129.801	-0.104	-0.014
-550.369	800.000	0.020	0.060
-549.354	190.248	-0.136	-0.204
-548.339	-7.255	-0.165	-0.112
-547.325	800.000	0.022	-0.069
-546.310	-112.977	0.133	0.026
-545.296	117.306	0.120	0.147
-544.281	800.000	-0.056	0.184
-543.266	334.532	-0.077	0.149
-542.252	-64.899	0.131	0.053
-541.237	331.584	-0.059	0.114
-540.223	-32.624	-0.325	0.181
-539.208	-140.973	0.196	-0.020
-538.193	575.293	0.061	0.149
-537.179	156.233	-0.163	0.225
-536.164	800.000	0.053	0.150
-535.150	600.072	-0.084	0.208
-534.135	624.126	-0.051	-0.128
-533.121	800.000	0.040	0.140
-532.106	-45.558	0.172	0.085
-531.091	358.511	-0.148	0.296
-530.077	88.373	0.083	0.091
-529.062	-65.317	-0.347	-0.139
-528.048	-122.207	0.498	0.081
-527.033	-200.000	0.010	0.351
-526.018	800.000	0.106	0.308
-525.004	-200.000	0.013	0.077
-523.989	58.739	-0.152	0.149
-522.975	126.616	-0.108	-0.137
-521.960	-25.746	0.247	-0.146
-520.945	70.272	-0.138	-0.142
-519.931	-131.547	-0.196	-0.026
-518.916	800.000	-0.078	-0.230
-517.902	120.353	-0.282	0.349
-516.887	800.000	-0.055	-0.163
-515.872	73.611	-0.122	-0.128
-514.858	-158.737	0.223	0.013
-513.843	52.801	-0.253	-0.241
-512.829	800.000	0.041	0.173
-511.814	-65.553	-0.055	-0.022
-510.799	800.000	-0.033	0.114
-509.785	89.103	-0.099	0.110
-508.770	-200.000	0.021	-0.182
-507.756	-80.031	-0.107	0.036
-506.741	-200.000	0.009	0.089
-505.726	-61.389	0.042	-0.017
-504.712	-8.441	-0.057	-0.038
-503.697	216.112	-0.082	0.130
-502.683	194.500	-0.095	0.143
-501.668	124.751	-0.260	0.327
-500.653	180.317	-0.044	-0.065
-499.639	-200.000	0.050	0.285
-498.624	105.646	-0.082	0.097
-497.610	-85.961	-0.177	0.054
-496.595	-23.178	0.146	-0.088
-495.581	-2.347	0.268	-0.187
-494.566	666.942	0.127	0.328
-493.551	-200.000	0.059	0.359
-492.537	-82.572	0.018	-0.006
-491.522	-1.706	0.185	-0.130
-490.508	243.643	-0.066	0.111
-489.493	212.583	-0.030	0.047
-488.478	42.715	0.219	-0.199
-487.464	-92.194	-0.149	-0.042
-486.449	800.000	-0.020	0.057
-485.435	-20.046	-0.147	-0.090
-484.420	-105.375	-0.441	0.100
-483.405	800.000	0.050	-0.168
-482.391	-84.220	-0.412	-0.130
-481.376	-200.000	-0.017	-0.244
-480.362	38.304	0.128	0.114
-479.347	-53.846	0.339	0.154
-478.332	800.000	-0.077	0.284
-477.318	-200.000	0.017	-0.293
-476.303	47.713	0.081	-0.075
-475.289	306.878	-0.043	-0.079
-474.274	573.696	-0.062	0.149
-473.259	591.129	0.069	0.169
-472.245	-37.932	-0.222	0.117
-471.230	-114.296	0.263	-0.050
-470.216	-97.211	0.170	0.044
-469.201	315.260	0.186	-0.349
-468.186	800.000	-0.061	-0.226
-467.172	222.089	-0.094	0.150
-466.157	567.526	0.068	0.163
-465.143	-78.341	-0.139	-0.048
-464.128	43.961	-0.179	-0.163
-463.113	-44.192	-0.165	-0.082
-462.099	264.657	0.166	-0.288
-461.084	13.621	-0.192	-0.149
-460.070	-147.300	0.173	0.015
-459.055	-145.316	-0.085	-0.008
-458.040	201.402	-0.152	-0.233
-457.026	800.000	0.061	-0.227
-456.011	-200.000	-0.020	0.295
-454.997	90.787	0.123	0.137
-453.982	-200.000	0.005	0.086
-452.968	-200.000	0.051	0.243
-451.953	-62.394	-0.363	0.150
-450.938	-200.000	-0.003	0.048
-449.924	-200.000	0.017	-0.252
-448.909	800.000	-0.068	-0.291
-447.895	-200.000	-0.003	-0.110
-446.880	-200.000	-0.034	-0.167
-445.865	642.855	0.110	-0.278
-444.851	238.301	-0.130	0.214
-443.836	-130.765	-0.348	0.046
-442.822	114.908	0.079	-0.096
-441.807	421.767	-0.061	-0.131
-440.792	-67.053	0.102	0.040
-439.778	-99.064	0.085	0.021
-438.763	-161.000	-0.223	0.012
-437.749	20.405	-0.177	0.142
-436.734	-138.130	-0.019	0.002
-435.719	-92.454	0.390	0.109
-434.705	-117.593	-0.276	-0.050
-433.690	-138.348	0.440	-0.048
-432.676	-123.028	0.129	0.021
-431.661	42.013	0.069	-0.062
-430.646	16.620	-0.184	0.145
-429.632	92.260	0.045	-0.051
-428.617	-65.731	-0.375	-0.149
-427.603	84.216	0.158	0.171
-426.588	-200.000	0.010	-0.060
-425.573	-200.000	0.028	0.200
-424.559	-57.752	0.143	-0.062
-423.544	-84.463	-0.197	0.062
-422.530	718.710	0.103	0.273
-421.515	-9.743	0.252	-0.167
-420.500	-15.913	0.150	-0.095
-419.486	-200.000	0.040	-0.205
-418.471	-87.136	0.106	-0.032
-417.457	-136.293	-0.198	-0.023
-416.442	-200.000	0.031	0.440
-415.428	800.000	-0.106	-0.410
-414.413	8.184	-0.083	-0.062
-413.398	-200.000	-0.037	-0.210
-412.384	-200.000	0.003	-0.115
-411.369	231.431	0.038	0.062
-410.355	-52.398	0.257	0.118
-409.340	-200.000	0.021	-0.306
-408.325	395.769	0.037	-0.076
-407.311	61.151	0.070	-0.069
-406.296	155.243	-0.165	-0.225
-405.282	-160.986	-0.118	-0.006
-404.267	-158.961	0.344	0.019
-403.252	18.485	-0.062	-0.050
-402.238	-53.714	-0.321	-0.146
-401.223	21.933	-0.046	-0.037
-400.209	-26.007	0.159	0.093
-399.194	-63.066	0.293	0.120
-398.179	-18.541	0.342	0.212
-397.165	113.778	0.154	-0.186
-396.150	743.459	-0.066	-0.176
-395.136	-61.386	-0.111	0.046
-394.121	-200.000	-0.007	-0.087
-393.106	-31.864	-0.247	-0.137
-392.092	-14.286	0.229	0.147
-391.077	-200.000	-0.050	0.220
-390.063	93.248	-0.288	-0.324
-389.048	-39.032	0.349	0.182
-388.033	-45.552	0.151	0.074
-387.019	131.454	0.062	0.080
-386.004	800.000	-0.087	-0.295
-384.990	373.535	-0.035	0.071
-383.975	-109.210	0.152	0.032
-382.960	-34.260	-0.241	-0.131
-381.946	-44.012	-0.405	0.202
-380.931	-71.152	0.361	0.135
-379.917	-128.298	-0.213	0.030
-378.902	19.357	0.094	0.075
-377.888	8.805	-0.172	-0.128
-376.873	11.099	-0.223	-0.169
-375.858	89.803	-0.060	0.067
-374.844	776.540	-0.075	-0.204
-373.829	-142.436	-0.224	0.022
-372.815	-45.008	0.107	-0.053
-371.800	-200.000	0.014	0.138
-370.785	17.439	0.252	-0.199
-369.771	39.525	0.085	0.076
-368.756	14.997	0.074	0.057
-367.742	-146.257	-0.064	-0.006
-366.727	-17.250	0.265	-0.166
-365.712	-200.000	0.010	-0.101
-364.698	-111.358	-0.363	0.073
-363.683	216.820	-0.139	0.219
-362.669	-110.376	-0.320	-0.066
-361.654	310.250	0.139	0.258
-360.639	393.494	-0.127	0.263
-359.625	-28.516	0.088	0.050
-358.610	-50.035	-0.204	0.096
-357.596	-106.183	-0.350	0.078
-356.581	279.879	-0.052	-0.093
-355.566	-200.000	0.002	-0.021
-354.552	800.000	-0.029	0.105
-353.537	-29.437	-0.055	0.031
-352.523	114.735	-0.038	-0.046
-351.508	39.805	0.086	-0.076
-350.493	-110.813	-0.152	0.031
-349.479	-110.539	-0.236	-0.049
-348.464	-8.323	0.182	0.122
-347.450	-200.000	-0.029	-0.351
-346.435	-200.000	-0.033	0.304
-345.420	800.000	-0.046	0.177
-344.406	256.430	-0.041	0.070
-343.391	-200.000	0.019	-0.120
-342.377	-200.000	-0.002	0.110
-341.362	-74.292	0.177	0.063
-340.348	244.275	0.262	0.436
-339.333	-123.340	0.066	-0.010
-338.318	171.719	0.200	0.284
-337.304	-200.000	0.034	0.177
-336.289	6.107	-0.148	-0.109
-335.275	214.791	0.038	0.060
-334.260	42.408	-0.089	0.080
-333.245	-200.000	-0.034	0.366
-332.231	-54.735	-0.155	0.069
-331.216	-144.292	0.283	-0.026
-330.202	-200.000	0.031	-0.167
-329.187	-200.000	0.016	-0.271
-328.172	-114.517	0.190	0.036
-327.158	680.348	0.034	0.087
-326.143	-200.000	-0.008	-0.151
-325.129	800.000	-0.030	0.083
-324.114	23.157	-0.090	0.073
-323.099	800.000	0.108	0.317
-322.085	-76.443	0.208	0.072
-321.070	-46.145	-0.150	-0.073
-320.056	-200.000	-0.004	-0.184
-319.041	-126.354	0.249	0.037
-318.026	-29.818	0.195	-0.110
-317.012	-146.515	0.234	-0.020
-315.997	447.033	-0.218	-0.474
-314.983	429.336	0.030	0.063
-313.968	705.852	0.059	-0.153
-312.953	-200.000	0.002	0.347
-311.939	147.341	-0.163	-0.217
-310.924	-200.000	0.050	0.242
-309.910	79.871	-0.173	0.184
-308.895	-112.617	-0.089	-0.017
-307.880	800.000	0.030	0.128
-306.866	269.732	-0.062	-0.108
-305.851	-36.556	-0.139	0.074
-304.837	4.980	-0.185	-0.134
-303.822	-200.000	0.047	0.352
-302.807	219.958	-0.063	0.100
-301.793	373.837	-0.192	0.387
-300.778	-14.168	0.155	-0.099
-299.764	602.240	-0.032	-0.077
-298.749	97.921	-0.089	-0.102
-297.735	800.000	0.067	0.205
-296.720	101.556	0.234	-0.270
-295.705	-90.149	-0.337	-0.097
-294.691	146.486	0.255	-0.338
-293.676	-137.124	-0.146	0.016
-292.662	-14.823	0.101	0.064
-291.647	150.058	-0.170	-0.229
-290.632	-48.649	-0.112	-0.053
-289.618	-75.029	0.245	0.087
-288.603	-1.759	-0.046	0.032
-287.589	-200.000	-0.019	0.242
-286.574	285.672	-0.207	0.370
-285.559	-15.078	0.220	0.140
-284.545	191.169	0.142	0.212
-283.530	29.866	0.091	0.076
-282.516	437.461	0.027	-0.058
-281.501	-108.950	-0.330	-0.070
-280.486	800.000	0.041	-0.135
-279.472	29.173	-0.159	0.133
-278.457	-68.856	-0.320	0.122
-277.443	-56.333	-0.083	0.036
-276.428	-99.284	-0.191	0.048
-275.413	800.000	-0.053	-0.155
-274.399	-200.000	0.051	0.302
-273.384	-134.967	0.119	0.014
-272.370	-56.348	-0.251	-0.110
-271.355	-26.745	0.376	-0.217
-270.340	-17.849	0.081	-0.050
-269.326	-200.000	-0.036	-0.249
-268.311	614.929	-0.127	-0.315
-267.297	256.514	0.126	0.213
-266.282	-200.000	-0.045	0.203
-265.267	-158.849	-0.035	-0.002
-264.253	67.490	-0.067	0.068
-263.238	-78.389	0.374	0.127
-262.224	415.033	0.111	0.234
-261.209	800.000	-0.062	-0.197
-260.195	-132.761	-0.182	-0.023
-259.180	-111.647	0.191	-0.038
-258.165	-200.000	0.006	-0.361
-257.151	-200.000	0.030	0.242
-256.136	-91.777	0.144	0.040
-255.122	-47.068	-0.354	0.171
-254.107	800.000	0.032	-0.112
-253.092	-200.000	0.004	0.309
-252.078	48.961	-0.136	-0.126
-251.063	-68.489	0.084	-0.032
-250.049	63.352	0.157	-0.155
-249.034	489.704	-0.110	-0.248
-248.019	281.942	0.025	0.043
-247.005	89.953	0.109	-0.121
-245.990	-79.379	-0.149	-0.050
-244.976	800.000	0.069	0.206
-243.961	-181.508	0.529	-0.010
-242.946	-90.953	-0.127	-0.036
-241.932	-48.736	0.269	-0.128
-240.917	161.810	-0.075	0.104
-239.903	47.684	0.101	0.093
-238.888	-200.000	0.021	-0.244
-237.873	-95.604	-0.171	-0.045
-236.859	456.324	-0.105	0.229
-235.844	-90.634	-0.221	-0.063
-234.830	-141.521	0.163	-0.016
-233.815	-107.144	0.336	-0.073
-232.800	-6.414	0.137	-0.092
-231.786	-200.000	0.002	0.207
-230.771	-127.336	0.069	-0.010
-229.757	-114.042	0.224	-0.043
-228.742	376.337	-0.108	0.218
-227.727	206.289	-0.176	0.270
-226.713	800.000	-0.056	0.225
-225.698	490.958	0.126	0.285
-224.684	186.855	-0.076	-0.111
-223.669	-91.151	0.156	0.044
-222.655	-157.139	0.200	0.012
-221.640	44.195	-0.143	-0.130
-220.625	266.454	0.170	-0.292
-219.611	-200.000	0.058	-0.293
-218.596	-116.767	0.451	0.082
-217.582	295.420	-0.106	-0.191
-216.567	-70.999	0.213	0.079
-215.552	116.942	0.234	0.283
-214.538	30.996	-0.006	-0.005
-213.523	45.985	-0.087	0.079
-212.509	115.493	-0.081	-0.097
-211.494	-200.000	0.009	-0.091
-210.479	-120.489	-0.121	-0.020
-209.465	800.000	0.045	0.142
-208.450	-0.304	0.262	0.183
-207.436	-161.752	-0.321	-0.016
-206.421	129.853	-0.043	0.054
-205.406	800.000	0.024	0.094
-204.392	800.000	0.027	0.079
-203.377	-200.000	-0.037	-0.245
-202.363	-129.170	-0.351	0.048
-201.348	92.772	-0.157	-0.175
-200.333	-62.066	0.349	-0.144
-199.319	-139.939	0.332	0.035
-198.304	-173.428	0.093	0.003
-197.290	35.181	0.246	-0.213
-196.275	445.204	-0.122	0.265
-195.260	79.931	0.112	-0.119
-194.246	203.839	0.216	0.330
-193.231	-115.198	0.173	-0.032
-192.217	23.526	-0.272	0.220
-191.202	-200.000	0.011	0.063
-190.187	-200.000	-0.054	-0.271
-189.173	-200.000	-0.074	0.335
-188.158	-73.737	0.298	-0.107
-187.144	-17.393	-0.303	-0.188
-186.129	-102.139	-0.164	-0.039
-185.114	-24.628	-0.169	0.099
-184.100	-146.367	-0.342	-0.029
-183.085	-200.000	0.027	0.217
-182.071	800.000	-0.033	-0.118
-181.056	-17.920	0.067	-0.041
-180.042	62.512	-0.095	0.093
-179.027	316.759	-0.017	0.031
-178.012	-101.704	0.048	0.011
-176.998	-200.000	0.004	-0.180
-175.983	24.874	-0.164	-0.134
-174.969	-88.073	-0.288	0.085
-173.954	211.764	0.216	0.334
-172.939	-25.398	0.148	-0.086
-171.925	62.408	0.021	-0.021
-170.910	80.423	0.147	0.156
-169.896	-33.256	-0.137	-0.075
-168.881	4.229	-0.073	-0.053
-167.866	227.166	-0.025	0.041
-166.852	-200.000	0.095	0.489
-165.837	0.201	-0.236	-0.166
-164.823	2.633	0.009	0.007
-163.808	-124.866	-0.224	0.034
-162.793	315.512	0.024	-0.044
-161.779	501.089	0.032	-0.072
-160.764	-200.000	0.197	0.000
-159.750	102.704	0.101	-0.116
-158.735	364.869	0.053	0.106
-157.720	-200.000	0.008	0.102
-156.706	317.304	-0.131	-0.244
-155.691	720.007	-0.048	0.127
-154.677	-48.884	0.084	-0.039
-153.662	800.000	-0.096	0.353
-152.647	277.105	0.090	0.157
-151.633	97.118	0.041	0.047
-150.618	-85.867	-0.091	-0.028
-149.604	797.658	-0.095	0.258
-148.589	-200.000	-0.032	-0.248
-147.574	-182.882	0.323	-0.006
-146.560	800.000	0.041	-0.168
-145.545	800.000	-0.080	0.293
-144.531	-200.000	-0.007	0.062
-143.516	307.619	-0.111	-0.203
-142.502	-27.121	0.112	-0.064
-141.487	204.942	-0.131	0.200
-140.472	-200.000	0.019	-0.100
-139.458	35.044	0.152	-0.131
-138.443	78.029	0.133	-0.140
-137.429	-26.622	-0.259	-0.149
-136.414	-200.000	-0.015	0.115
-135.399	-200.000	0.002	0.350
-134.385	210.139	0.292	-0.450
-133.370	-200.000	-0.007	-0.114
-132.356	118.305	-0.118	0.143
-131.341	-4.677	0.106	-0.072
-130.326	-100.645	0.294	0.071
-129.312	119.029	-0.166	0.201
-128.297	4.677	-0.320	0.231
-127.283	-200.000	-0.146	-0.000
-126.268	-200.000	-0.068	0.353
-125.253	2.300	0.236	0.167
-124.239	0.803	0.128	0.090
-123.224	800.000	0.058	0.186
-122.210	-200.000	-0.037	-0.359
-121.195	-85.339	0.227	0.069
