DTS Sentinel unit serial number:	SN413079Multiplexer serial number:	ORYXHardware model number:	OX4-SRSoftware version number:	ORYX F/W v4.00 Oryx Data Collector v3.7.2.0data status	okinstallation	princeton_trtdifferential loss correction	single-endedforward channel	channel 1reverse channel	N/Adate	2019/09/19time	03:14:35forward acquisition time	60.00reverse acquisition time	0.00gamma	496.2192k internal	0.2343k external	0.2343temperature offset calibration	1.0019default loss term (dB/km)	0.3790temperature slope calibration	1.0000multiplexer offset coefficient	1.0000multiplexer slope coefficient	1.0000fibre end	0.00T internal ref (°C)	20.75T ext. ref 1 (°C)	0.65T ext. ref 2 (°C)	14.27length (m)	temperature (°C)	Stokes	anti-Stokes-747.200	109.326	-0.202	-0.242
-746.185	29.302	-0.427	-0.363
-745.171	-200.000	-0.049	0.318
-744.156	-3.919	0.144	0.100
-743.142	-86.443	-0.151	0.046
-742.127	214.757	-0.012	0.018
-741.112	201.899	-0.044	-0.068
-740.098	-92.494	0.330	-0.093
-739.083	87.015	0.071	0.079
-738.069	-49.595	-0.178	-0.085
-737.054	-47.668	-0.168	0.082
-736.039	287.022	-0.106	-0.192
-735.025	-200.000	0.005	0.232
-734.010	-200.000	-0.008	0.292
-732.996	-51.384	0.292	0.137
-731.981	-19.934	-0.091	-0.056
-730.966	-91.702	-0.171	0.049
-729.952	-200.000	-0.007	0.079
-728.937	-176.079	-0.321	0.008
-727.923	14.975	0.088	-0.069
-726.908	-200.000	-0.014	-0.438
-725.894	-200.000	0.046	-0.337
-724.879	-7.560	0.171	0.116
-723.864	312.074	0.142	-0.266
-722.850	173.360	-0.140	-0.202
-721.835	-8.332	-0.263	0.177
-720.821	-75.290	0.245	0.088
-719.806	800.000	-0.093	-0.289
-718.791	-49.628	0.224	-0.106
-717.777	76.470	-0.113	0.120
-716.762	-200.000	-0.006	0.276
-715.748	553.446	0.074	-0.177
-714.733	-200.000	-0.012	-0.170
-713.718	35.595	0.099	0.087
-712.704	800.000	0.032	0.100
-711.689	-156.004	0.316	-0.020
-710.675	-200.000	-0.002	-0.098
-709.660	88.619	0.113	0.126
-708.645	-86.149	0.035	-0.011
-707.631	7.586	0.177	0.132
-706.616	-56.019	0.170	-0.076
-705.602	557.164	-0.018	0.044
-704.587	131.970	-0.142	-0.183
-703.572	-145.220	-0.471	0.043
-702.558	-200.000	0.032	-0.187
-701.543	-200.000	0.013	-0.081
-700.529	-103.915	-0.181	-0.042
-699.514	25.320	-0.401	-0.333
-698.499	139.959	-0.100	-0.132
-697.485	-54.452	-0.066	0.030
-696.470	138.388	-0.148	0.193
-695.456	-112.583	-0.077	-0.015
-694.441	204.228	-0.065	-0.101
-693.426	694.743	-0.023	0.061
-692.412	-200.000	0.005	0.356
-691.397	67.312	-0.251	0.256
-690.383	301.308	-0.084	-0.155
-689.368	-71.498	-0.320	-0.120
-688.354	-200.000	0.005	-0.132
-687.339	390.289	0.100	-0.206
-686.324	800.000	0.030	-0.099
-685.310	126.373	-0.067	-0.085
-684.295	-18.881	-0.092	0.057
-683.281	338.566	0.069	-0.135
-682.266	338.799	-0.147	0.286
-681.251	10.059	0.191	0.145
-680.237	800.000	-0.084	-0.347
-679.222	-71.871	0.291	0.108
-678.208	-200.000	-0.007	0.037
-677.193	168.401	0.062	-0.089
-676.178	159.168	-0.091	-0.127
-675.164	163.295	-0.107	0.150
-674.149	-34.003	0.065	0.035
-673.135	-69.896	0.358	0.136
-672.120	-104.026	-0.225	-0.052
-671.105	55.432	-0.265	0.256
-670.091	800.000	-0.098	0.378
-669.076	-124.214	0.612	-0.096
-668.062	-25.148	0.100	-0.059
-667.047	337.583	-0.170	-0.330
-666.032	-97.072	0.178	-0.046
-665.018	593.576	0.071	0.176
-664.003	-107.957	-0.485	-0.105
-662.989	166.000	-0.222	-0.313
-661.974	241.801	0.130	0.217
-660.959	96.280	0.259	-0.296
-659.945	-64.578	0.414	0.167
-658.930	-58.785	-0.094	-0.041
-657.916	170.870	0.168	-0.241
-656.901	70.325	0.216	0.223
-655.886	32.808	0.203	0.175
-654.872	425.311	0.125	0.268
-653.857	-99.155	0.142	0.036
-652.843	-154.217	0.140	-0.009
-651.828	431.812	0.078	-0.169
-650.814	174.336	0.193	-0.278
-649.799	65.049	0.033	-0.033
-648.784	71.524	-0.091	-0.094
-647.770	253.100	-0.148	0.252
-646.755	-122.040	0.079	-0.013
-645.741	79.967	0.229	0.245
-644.726	557.244	0.023	0.055
-643.711	104.524	0.143	0.168
-642.697	-1.396	-0.063	0.045
-641.682	800.000	0.113	-0.339
-640.668	620.558	0.098	-0.246
-639.653	-200.000	-0.047	-0.356
-638.638	-20.842	0.194	0.119
-637.624	56.986	-0.278	-0.270
-636.609	87.676	-0.119	0.131
-635.595	-71.965	0.181	0.067
-634.580	-200.000	0.008	0.100
-633.565	191.602	-0.113	-0.170
-632.551	-200.000	-0.072	-0.548
-631.536	-200.000	-0.046	-0.335
-630.522	-200.000	0.004	-0.222
-629.507	59.347	-0.047	0.046
-628.492	-200.000	-0.008	-0.122
-627.478	282.679	-0.148	-0.265
-626.463	50.812	0.110	-0.104
-625.449	208.345	-0.074	0.115
-624.434	244.384	-0.085	0.143
-623.419	-50.547	-0.061	0.029
-622.405	166.422	0.063	0.090
-621.390	-87.430	-0.133	-0.040
-620.376	642.127	-0.104	0.264
-619.361	-45.136	-0.173	-0.086
-618.346	800.000	-0.049	0.162
-617.332	-148.944	-0.198	0.016
-616.317	43.555	-0.082	-0.074
-615.303	-93.997	0.132	0.036
-614.288	3.737	0.176	-0.128
-613.273	44.611	-0.186	-0.171
-612.259	52.393	0.065	-0.061
-611.244	-25.924	0.107	-0.063
-610.230	-108.728	-0.203	0.043
-609.215	-200.000	0.016	-0.134
-608.201	-200.000	-0.058	-0.256
-607.186	-28.055	0.298	0.172
-606.171	-85.846	-0.119	-0.037
-605.157	178.307	-0.017	-0.024
-604.142	-3.710	-0.228	-0.158
-603.128	-200.000	0.028	0.138
-602.113	-128.379	0.282	-0.040
-601.098	180.776	0.130	0.190
-600.084	-111.211	-0.379	0.077
-599.069	307.644	0.124	0.231
-598.055	-200.000	0.007	0.145
-597.040	-200.000	-0.017	-0.122
-596.025	-109.398	0.129	-0.027
-595.011	-200.000	0.009	-0.169
-593.996	323.587	-0.031	0.059
-592.982	-89.051	0.212	-0.062
-591.967	175.024	-0.034	0.048
-590.952	103.757	-0.201	0.235
-589.938	-40.697	-0.179	0.092
-588.923	729.514	0.067	0.178
-587.909	-50.890	0.288	0.135
-586.894	72.483	-0.136	0.141
-585.879	-136.072	0.491	0.057
-584.865	-88.662	-0.181	0.054
-583.850	-200.000	0.033	-0.168
-582.836	92.997	-0.191	-0.215
-581.821	36.832	0.279	-0.245
-580.806	199.458	-0.168	-0.257
-579.792	-138.264	-0.223	0.025
-578.777	435.304	0.110	-0.239
-577.763	-86.542	0.204	-0.062
-576.748	-117.136	-0.436	-0.079
-575.733	344.867	-0.118	-0.230
-574.719	-53.155	0.056	-0.025
-573.704	-63.243	0.103	-0.042
-572.690	-38.800	-0.098	-0.051
-571.675	-21.817	-0.109	-0.066
-570.661	800.000	0.070	-0.216
-569.646	-123.516	-0.363	-0.057
-568.631	800.000	-0.090	-0.341
-567.617	311.490	0.045	0.084
-566.602	221.726	-0.067	0.107
-565.588	-144.019	0.400	0.037
-564.573	40.789	-0.301	0.270
-563.558	-200.000	0.014	-0.249
-562.544	203.528	0.040	0.061
-561.529	-200.000	0.012	-0.296
-560.515	-79.164	-0.042	0.014
-559.500	-6.664	-0.138	-0.093
-558.485	-71.355	-0.216	-0.081
-557.471	61.854	-0.210	-0.208
-556.456	-200.000	-0.017	-0.221
-555.442	-8.814	0.333	-0.222
-554.427	312.746	0.106	-0.199
-553.412	-5.679	0.260	-0.177
-552.398	26.904	-0.284	-0.237
-551.383	-10.786	-0.139	0.091
-550.369	-47.962	0.177	0.085
-549.354	-126.198	-0.167	-0.025
-548.339	-172.021	-0.083	-0.003
-547.325	242.699	0.072	0.119
-546.310	-200.000	0.044	-0.357
-545.296	-116.588	-0.392	-0.072
-544.281	107.484	0.055	-0.065
-543.266	800.000	0.086	0.309
-542.252	145.545	0.089	-0.118
-541.237	-200.000	0.083	-0.470
-540.223	-133.774	0.202	-0.025
-539.208	800.000	-0.032	0.106
-538.193	-7.287	-0.144	0.097
-537.179	712.845	0.097	0.254
-536.164	-141.942	0.033	-0.003
-535.150	41.239	0.163	-0.147
-534.135	-137.867	0.203	0.023
-533.121	-175.099	0.192	-0.005
-532.106	-33.478	-0.060	-0.033
-531.091	-178.011	-0.272	0.006
-530.077	-200.000	-0.003	0.128
-529.062	800.000	0.111	-0.348
-528.048	-97.316	0.270	-0.070
-527.033	-200.000	-0.009	0.326
-526.018	-200.000	0.002	0.093
-525.004	-80.475	-0.238	0.079
-523.989	-64.358	0.292	-0.118
-522.975	398.897	0.068	-0.142
-521.960	-154.255	0.098	0.007
-520.945	35.701	-0.108	0.095
-519.931	202.343	-0.224	0.342
-518.916	-200.000	0.003	0.075
-517.902	-9.725	0.304	-0.201
-516.887	38.477	-0.193	-0.171
-515.872	185.501	-0.086	-0.127
-514.858	-30.904	-0.262	-0.147
-513.843	-75.971	0.135	0.047
-512.829	397.758	0.157	-0.325
-511.814	-100.187	0.193	0.048
-510.799	150.049	-0.129	-0.173
-509.785	-58.104	0.261	0.113
-508.770	-18.011	-0.119	-0.074
-507.756	-200.000	0.017	-0.088
-506.741	-24.294	0.113	0.067
-505.726	-109.936	-0.254	-0.053
-504.712	120.516	-0.131	0.162
-503.697	-126.128	0.125	-0.019
-502.683	-149.667	0.223	0.017
-501.668	-200.000	-0.043	0.293
-500.653	-70.963	-0.293	0.109
-499.639	800.000	-0.047	0.132
-498.624	-84.482	-0.134	0.042
-497.610	-32.483	-0.207	-0.114
-496.595	-71.513	-0.353	-0.131
-495.581	52.185	-0.130	-0.122
-494.566	7.582	-0.323	0.240
-493.551	553.371	0.156	0.371
-492.537	-4.327	-0.244	0.167
-491.522	800.000	0.010	0.034
-490.508	194.619	0.094	-0.142
-489.493	-45.805	0.204	-0.100
-488.478	-200.000	0.001	0.097
-487.464	572.975	0.063	0.151
-486.449	103.412	-0.074	-0.086
-485.435	222.425	-0.129	-0.205
-484.420	160.838	0.113	0.156
-483.405	-178.654	0.384	-0.009
-482.391	124.999	-0.173	0.216
-481.376	16.412	-0.153	-0.120
-480.362	-28.910	-0.146	-0.083
-479.347	-200.000	-0.043	-0.189
-478.332	33.634	-0.207	0.178
-477.318	-84.423	-0.132	-0.041
-476.303	98.148	-0.157	0.179
-475.289	73.311	-0.164	0.170
-474.274	203.499	0.124	-0.190
-473.259	-172.884	-0.073	0.002
-472.245	170.204	0.120	-0.170
-471.230	-176.598	0.158	0.004
-470.216	100.300	-0.120	0.138
-469.201	-200.000	-0.035	0.222
-468.186	800.000	-0.052	0.165
-467.172	-43.237	0.166	0.083
-466.157	-67.352	-0.113	0.044
-465.143	-200.000	0.027	-0.264
-464.128	208.031	0.061	0.094
-463.113	800.000	-0.017	-0.057
-462.099	-87.173	0.105	0.032
-461.084	-52.903	-0.329	0.150
-460.070	389.983	-0.033	0.068
-459.055	-0.932	-0.227	0.159
-458.040	-135.379	-0.020	-0.002
-457.026	130.186	-0.366	-0.464
-456.011	-173.727	-0.341	-0.010
-454.997	800.000	-0.032	0.135
-453.982	800.000	0.067	0.256
-452.968	-51.883	0.303	-0.140
-451.953	156.058	-0.212	-0.290
-450.938	-11.519	-0.193	-0.126
-449.924	4.826	0.175	0.127
-448.909	40.796	0.292	0.261
-447.895	100.779	-0.144	-0.166
-446.880	800.000	0.048	-0.147
-445.865	-31.411	0.206	-0.115
-444.851	132.200	-0.321	0.409
-443.836	-161.915	-0.208	0.010
-442.822	-200.000	-0.035	-0.178
-441.807	-77.146	0.108	-0.037
-440.792	-147.420	-0.424	0.035
-439.778	-75.438	0.309	-0.109
-438.763	-200.000	0.027	-0.261
-437.749	-105.996	0.076	0.017
-436.734	-97.838	-0.236	-0.060
-435.719	35.499	0.023	-0.020
-434.705	58.379	0.085	0.083
-433.690	-200.000	-0.058	0.329
-432.676	-200.000	-0.011	0.054
-431.661	-100.231	0.427	-0.105
-430.646	25.619	-0.084	-0.069
-429.632	-72.638	-0.147	0.053
-428.617	-70.937	0.196	0.073
-427.603	800.000	-0.044	0.122
-426.588	-91.197	-0.453	-0.128
-425.573	298.141	-0.167	-0.303
-424.559	-200.000	-0.010	0.064
-423.544	-52.501	0.181	-0.083
-422.530	-82.254	-0.263	0.085
-421.515	72.081	0.253	-0.260
-420.500	800.000	-0.032	-0.088
-419.486	-200.000	-0.008	0.091
-418.471	-81.438	-0.119	-0.039
-417.457	800.000	0.053	0.182
-416.442	-200.000	-0.064	0.339
-415.428	800.000	0.049	-0.172
-414.413	-140.311	0.158	0.016
-413.398	-200.000	-0.005	-0.043
-412.384	60.763	0.185	-0.182
-411.369	-126.644	0.142	-0.021
-410.355	12.010	0.188	-0.143
-409.340	166.000	-0.080	-0.112
-408.325	-44.780	-0.272	-0.134
-407.311	-200.000	-0.006	0.555
-406.296	91.814	-0.152	0.169
-405.282	-200.000	0.058	0.322
-404.267	-32.759	-0.401	-0.220
-403.252	-28.862	-0.284	-0.161
-402.238	201.121	-0.181	-0.275
-401.223	-200.000	0.002	0.051
-400.209	-65.205	-0.274	-0.109
-399.194	-200.000	-0.006	-0.235
-398.179	-194.287	0.113	0.001
-397.165	-54.538	0.028	0.012
-396.150	-200.000	-0.032	-0.175
-395.136	-176.925	0.359	0.009
-394.121	-21.249	-0.155	-0.094
-393.106	196.702	0.039	-0.058
-392.092	365.915	0.086	-0.170
-391.077	680.899	-0.005	0.013
-390.063	196.975	0.347	0.522
-389.048	451.995	0.168	0.366
-388.033	-200.000	0.054	0.250
-387.019	-200.000	0.015	0.113
-386.004	0.941	-0.250	0.177
-384.990	-114.851	-0.195	-0.037
-383.975	-106.098	0.484	-0.107
-382.960	-200.000	0.011	-0.185
-381.946	214.032	0.097	-0.152
-380.931	-100.411	-0.229	0.056
-379.917	800.000	-0.122	-0.336
-378.902	-62.257	-0.048	0.020
-377.888	800.000	-0.067	0.245
-376.873	-200.000	0.064	0.295
-375.858	-67.744	0.235	-0.091
-374.844	60.579	-0.128	0.125
-373.829	329.921	0.062	0.118
-372.815	345.051	0.159	-0.308
-371.800	-200.000	-0.009	0.333
-370.785	-85.181	0.348	0.107
-369.771	144.232	0.142	-0.188
-368.756	-141.382	-0.291	0.029
-367.742	-99.044	0.145	0.036
-366.727	94.592	-0.090	0.101
-365.712	344.425	-0.169	0.327
-364.698	469.231	0.124	0.275
-363.683	800.000	-0.013	0.057
-362.669	-124.571	-0.074	-0.011
-361.654	736.862	-0.045	-0.118
-360.639	249.714	0.221	-0.369
-359.625	-60.486	0.401	0.168
-358.610	800.000	0.021	0.087
-357.596	678.988	-0.075	0.192
-356.581	16.995	0.064	0.050
-355.566	-141.132	-0.040	0.004
-354.552	-97.600	0.367	-0.094
-353.537	44.269	-0.129	-0.117
-352.523	-31.332	0.216	-0.120
-351.508	162.000	0.173	0.239
-350.493	440.471	0.072	0.156
-349.479	137.656	-0.178	-0.230
-348.464	251.254	0.262	0.440
-347.450	-52.858	0.214	0.097
-346.435	240.208	0.124	0.203
-345.420	-200.000	-0.064	0.308
-344.406	800.000	0.059	-0.184
-343.391	164.953	0.333	0.463
-342.377	-200.000	-0.037	-0.238
-341.362	287.907	-0.111	0.197
-340.348	187.073	0.099	0.145
-339.333	-200.000	0.006	0.475
-338.318	800.000	-0.066	0.277
-337.304	-200.000	0.032	0.340
-336.289	-200.000	-0.010	-0.103
-335.275	3.036	0.067	0.048
-334.260	800.000	-0.073	0.247
-333.245	154.726	-0.163	-0.220
-332.231	800.000	-0.054	0.195
-331.216	-76.226	-0.176	-0.061
-330.202	-56.172	-0.157	0.069
-329.187	-96.495	-0.106	-0.028
-328.172	-97.372	0.220	-0.057
-327.158	800.000	0.100	0.296
-326.143	800.000	0.053	-0.185
-325.129	224.483	0.125	0.200
-324.114	-77.345	0.241	0.082
-323.099	-200.000	0.027	0.196
-322.085	-147.225	0.238	0.020
-321.070	93.302	-0.090	-0.100
-320.056	-200.000	0.211	-0.000
-319.041	-98.639	-0.464	-0.117
-318.026	118.543	0.071	0.086
-317.012	-57.593	-0.215	-0.093
-315.997	167.279	-0.237	-0.331
-314.983	112.445	0.191	0.227
-313.968	657.380	0.087	0.221
-312.953	44.836	0.152	0.137
-311.939	800.000	0.048	-0.196
-310.924	-36.690	0.179	0.095
-309.910	97.333	-0.178	0.201
-308.895	-35.905	0.364	0.194
-307.880	-175.204	-0.222	-0.006
-306.866	82.991	0.195	0.209
-305.851	796.621	0.028	-0.077
-304.837	-66.206	0.092	-0.036
-303.822	-39.814	0.164	0.085
-302.807	800.000	-0.048	-0.147
-301.793	-70.712	0.340	-0.126
-300.778	-55.368	0.095	0.042
-299.764	-44.254	-0.191	-0.094
-298.749	-8.172	-0.330	-0.218
-297.735	478.648	-0.100	-0.224
-296.720	280.268	0.113	0.198
-295.705	-25.813	0.266	0.154
-294.691	619.238	0.063	0.156
-293.676	72.309	-0.302	0.309
-292.662	-140.660	-0.048	0.005
-291.647	167.592	0.109	-0.152
-290.632	-138.606	0.293	0.032
-289.618	-37.597	-0.063	-0.033
-288.603	-200.000	-0.034	-0.165
-287.589	-144.613	0.122	-0.011
-286.574	-72.934	0.201	0.073
-285.559	445.014	-0.117	0.252
-284.545	-200.000	0.037	-0.458
-283.530	-116.744	-0.221	-0.040
-282.516	263.535	-0.108	-0.185
-281.501	-8.250	0.066	-0.044
-280.486	-104.237	0.181	0.041
-279.472	709.603	0.059	-0.153
-278.457	-200.000	0.052	-0.436
-277.443	-200.000	0.003	-0.311
-276.428	800.000	0.110	0.376
-275.413	-159.531	-0.351	0.019
-274.399	490.886	0.153	0.343
-273.384	219.412	0.141	0.221
-272.370	-115.480	-0.176	0.033
-271.355	-200.000	0.001	-0.108
-270.340	-200.000	0.021	-0.182
-269.326	12.984	-0.226	0.172
-268.311	-200.000	0.044	0.209
-267.297	-200.000	-0.032	0.236
-266.282	611.305	0.104	-0.254
-265.267	157.575	-0.137	0.186
-264.253	25.555	0.138	0.113
-263.238	111.382	0.349	0.414
-262.224	-105.176	0.246	0.055
-261.209	386.433	0.172	-0.348
-260.195	48.095	-0.273	0.250
-259.180	-200.000	0.001	-0.035
-258.165	-3.053	-0.476	-0.326
-257.151	255.356	-0.100	0.169
-256.136	625.419	0.073	0.180
-255.122	-19.771	-0.213	0.129
-254.107	77.625	0.145	0.152
-253.092	-47.479	-0.109	0.052
-252.078	-138.090	0.313	0.034
-251.063	-141.641	-0.325	0.032
-250.049	-31.301	0.205	0.113
-249.034	-200.000	-0.360	0.002
-248.019	119.594	0.275	0.335
-247.005	99.397	0.068	0.077
-245.990	446.861	-0.114	-0.246
-244.976	394.049	0.012	0.025
-243.961	-5.886	-0.186	0.125
-242.946	-45.272	-0.256	-0.125
-241.932	800.000	-0.099	-0.315
-240.917	-141.636	-0.100	0.010
-239.903	116.743	-0.032	-0.039
-238.888	-29.404	0.222	0.125
-237.873	39.282	0.083	0.073
-236.859	800.000	0.110	0.401
-235.844	260.012	0.163	0.276
-234.830	122.961	-0.188	-0.231
-233.815	147.739	0.063	0.084
-232.800	314.527	0.084	0.156
-231.786	443.926	-0.087	-0.188
-230.771	800.000	-0.075	0.224
-229.757	173.997	-0.203	0.288
-228.742	81.742	0.073	-0.077
-227.727	322.565	-0.174	-0.325
-226.713	-142.719	0.207	0.020
-225.698	135.912	-0.078	0.099
-224.684	-40.131	-0.293	-0.150
-223.669	-89.836	-0.510	-0.146
-222.655	269.321	0.068	0.118
-221.640	173.668	-0.089	0.126
-220.625	-28.819	-0.294	0.166
-219.611	-200.000	0.026	-0.140
-218.596	206.483	-0.091	-0.138
-217.582	800.000	-0.120	-0.342
-216.567	102.661	-0.236	-0.270
-215.552	-85.989	0.340	0.103
-214.538	-200.000	-0.011	0.189
-213.523	-200.000	0.011	0.151
-212.509	-200.000	-0.069	-0.348
-211.494	788.515	-0.112	-0.300
-210.479	278.952	0.222	-0.387
-209.465	-103.745	-0.377	0.087
-208.450	-42.124	0.376	0.188
-207.436	-131.535	0.068	0.009
-206.421	-26.470	0.251	-0.144
-205.406	-42.749	0.358	-0.179
-204.392	-114.778	0.400	-0.075
-203.377	442.577	-0.059	-0.126
-202.363	800.000	-0.020	0.063
-201.348	-53.753	-0.229	0.103
-200.333	203.026	-0.053	0.080
-199.319	800.000	-0.062	-0.216
-198.304	410.782	0.234	-0.487
-197.290	-68.348	0.094	0.036
-196.275	-116.587	0.279	0.050
-195.260	-87.347	-0.221	0.066
-194.246	-25.723	0.148	-0.085
-193.231	-79.669	-0.240	0.079
-192.217	800.000	0.072	0.194
-191.202	-39.403	0.236	0.121
-190.187	366.736	0.142	0.281
-189.173	207.551	0.121	-0.185
-188.158	800.000	-0.102	0.335
-187.144	-11.128	0.494	-0.319
-186.129	174.406	-0.116	0.164
-185.114	39.316	-0.070	0.061
-184.100	-8.978	0.048	-0.032
-183.085	-168.726	-0.348	-0.013
-182.071	-115.157	-0.058	-0.011
-181.056	-92.809	0.255	0.070
-180.042	109.923	0.146	-0.171
-179.027	-200.000	-0.004	0.138
-178.012	-117.827	-0.095	0.017
-176.998	-200.000	-0.012	-0.141
-175.983	200.151	-0.069	0.103
-174.969	54.200	-0.277	-0.261
-173.954	800.000	0.124	-0.384
-172.939	46.303	0.050	-0.046
-171.925	-47.039	-0.088	0.042
-170.910	-200.000	0.010	0.158
-169.896	34.100	-0.106	0.090
-168.881	155.472	0.301	0.406
-167.866	72.909	0.179	0.183
-166.852	117.922	0.082	0.099
-165.837	192.973	-0.088	-0.130
-164.823	-132.256	0.309	-0.039
-163.808	-43.608	-0.191	-0.094
-162.793	-18.054	0.205	-0.126
-161.779	-200.000	-0.027	-0.333
-160.764	800.000	0.089	-0.278
-159.750	710.893	-0.155	-0.401
-158.735	-200.000	-0.020	0.125
-157.720	800.000	0.075	0.237
-156.706	-56.579	0.189	-0.082
-155.691	-97.575	-0.142	-0.036
-154.677	24.258	0.050	-0.040
-153.662	158.349	0.121	0.165
-152.647	-114.601	0.276	-0.052
-151.633	-200.000	-0.011	-0.055
-150.618	-200.000	-0.013	0.416
-149.604	156.717	0.255	0.344
-148.589	-174.451	-0.143	0.004
-147.574	-108.244	-0.197	0.042
-146.560	-109.093	-0.127	-0.026
-145.545	-28.412	0.261	0.147
-144.531	416.000	0.072	-0.150
-143.516	-113.866	0.419	-0.080
-142.502	-23.946	0.167	0.098
-141.487	182.599	0.274	-0.396
-140.472	-115.367	0.283	-0.052
-139.458	232.510	0.032	0.052
-138.443	-137.331	0.165	0.018
-137.429	-7.304	0.399	-0.264
-136.414	800.000	0.083	0.287
-135.399	-25.927	0.154	0.088
-134.385	-200.000	0.011	0.096
-133.370	-126.785	0.412	0.059
-132.356	579.572	0.119	0.285
-131.341	-73.862	-0.096	0.034
-130.326	274.353	-0.133	0.231
-129.312	-30.658	-0.229	0.127
-128.297	438.987	-0.145	0.310
-127.283	-39.454	0.539	-0.276
-126.268	-173.955	0.088	0.003
-125.253	-159.669	0.479	0.026
-124.239	-87.652	-0.130	0.038
-123.224	435.140	-0.086	-0.183
-122.210	145.084	0.070	-0.091
-121.195	-200.000	0.077	0.337
