DTS Sentinel unit serial number:	SN413079Multiplexer serial number:	ORYXHardware model number:	OX4-SRSoftware version number:	ORYX F/W v4.00 Oryx Data Collector v3.7.2.0data status	okinstallation	princeton_trtdifferential loss correction	single-endedforward channel	channel 1reverse channel	N/Adate	2019/09/14time	18:38:35forward acquisition time	60.00reverse acquisition time	0.00gamma	496.2192k internal	0.2304k external	0.2304temperature offset calibration	1.0041default loss term (dB/km)	0.3790temperature slope calibration	1.0000multiplexer offset coefficient	1.0000multiplexer slope coefficient	1.0000fibre end	0.00T internal ref (°C)	36.33T ext. ref 1 (°C)	4.92T ext. ref 2 (°C)	30.07length (m)	temperature (°C)	Stokes	anti-Stokes-747.200	-102.706	0.279	-0.068
-746.185	800.000	-0.071	0.205
-745.171	-28.387	-0.076	0.045
-744.156	155.748	0.038	0.053
-743.142	217.723	0.061	0.099
-742.127	-107.647	-0.104	0.023
-741.112	-160.294	-0.445	-0.024
-740.098	800.000	0.130	0.444
-739.083	579.531	0.104	0.260
-738.069	80.459	-0.118	0.130
-737.054	8.490	0.110	-0.084
-736.039	-200.000	0.003	-0.183
-735.025	-170.962	0.204	-0.007
-734.010	-113.877	-0.317	-0.063
-732.996	216.658	-0.169	0.274
-731.981	44.298	-0.248	-0.232
-730.966	21.039	-0.177	-0.146
-729.952	-47.388	0.194	-0.096
-728.937	94.112	0.237	-0.273
-727.923	-200.000	-0.019	-0.477
-726.908	-48.173	-0.070	0.034
-725.894	313.689	0.054	0.104
-724.879	-110.054	0.094	-0.020
-723.864	95.611	-0.179	-0.208
-722.850	178.854	-0.127	-0.189
-721.835	-18.988	-0.212	0.134
-720.821	-33.151	-0.274	0.155
-719.806	-6.157	0.213	0.148
-718.791	-54.616	-0.174	-0.080
-717.777	-70.498	-0.165	-0.064
-716.762	69.646	-0.126	-0.132
-715.748	-200.000	-0.044	-0.340
-714.733	167.512	-0.095	-0.137
-713.718	-200.000	0.017	0.209
-712.704	22.666	-0.285	0.237
-711.689	1.779	-0.056	0.041
-710.675	246.334	0.060	0.103
-709.660	-42.496	-0.088	0.046
-708.645	-165.713	-0.137	-0.006
-707.631	-97.031	-0.358	-0.095
-706.616	-20.921	-0.230	-0.143
-705.602	-81.550	-0.262	0.087
-704.587	800.000	0.061	0.211
-703.572	-200.000	-0.239	0.001
-702.558	133.840	-0.258	-0.340
-701.543	-128.986	-0.155	-0.022
-700.529	138.859	-0.125	-0.166
-699.514	-200.000	0.008	-0.177
-698.499	800.000	-0.054	0.228
-697.485	-44.982	0.089	0.045
-696.470	310.425	-0.229	-0.436
-695.456	-128.537	0.098	0.014
-694.441	-76.742	0.146	-0.052
-693.426	270.128	-0.111	-0.198
-692.412	-200.000	-0.007	-0.257
-691.397	153.623	-0.080	-0.112
-690.383	-200.000	-0.024	-0.128
-689.368	800.000	-0.094	-0.290
-688.354	-34.647	-0.169	-0.094
-687.339	-23.209	-0.134	-0.082
-686.324	-48.304	-0.105	-0.052
-685.310	-133.894	0.048	-0.006
-684.295	156.614	0.064	0.090
-683.281	284.931	-0.110	-0.201
-682.266	331.413	0.017	-0.033
-681.251	351.680	0.084	0.168
-680.237	54.510	-0.239	-0.234
-679.222	198.216	0.054	-0.084
-678.208	18.024	0.335	-0.271
-677.193	-127.371	0.211	0.031
-676.178	49.611	0.112	0.107
-675.164	-95.561	-0.104	0.028
-674.149	81.017	0.074	0.082
-673.135	646.772	0.062	0.162
-672.120	94.326	-0.043	0.050
-671.105	40.040	-0.137	0.125
-670.091	69.779	-0.025	-0.026
-669.076	-86.443	0.209	-0.065
-668.062	359.337	0.046	-0.094
-667.047	16.987	-0.235	-0.189
-666.032	-200.000	-0.069	0.420
-665.018	68.359	0.145	0.151
-664.003	161.944	0.337	0.480
-662.989	140.531	-0.146	0.195
-661.974	139.001	0.185	0.247
-660.959	12.098	0.116	0.091
-659.945	116.794	0.066	0.082
-658.930	-200.000	0.008	-0.076
-657.916	20.438	-0.021	-0.017
-656.901	85.967	0.124	0.138
-655.886	148.468	0.123	-0.169
-654.872	-187.062	-0.277	0.004
-653.857	-200.000	0.004	-0.038
-652.843	-51.568	0.252	-0.119
-651.828	-14.251	-0.139	0.091
-650.814	-68.671	-0.110	0.043
-649.799	18.654	0.152	-0.124
-648.784	-84.132	-0.248	0.080
-647.770	-116.134	-0.425	0.080
-646.755	800.000	-0.059	-0.245
-645.741	48.336	-0.116	0.110
-644.726	102.425	0.120	0.142
-643.711	249.030	0.025	-0.043
-642.697	100.693	0.133	-0.157
-641.682	800.000	-0.086	-0.265
-640.668	-200.000	-0.024	-0.309
-639.653	196.063	-0.297	0.459
-638.638	-200.000	0.031	-0.146
-637.624	77.517	-0.194	0.209
-636.609	-87.840	0.185	0.056
-635.595	-79.207	0.097	0.033
-634.580	800.000	0.170	-0.541
-633.565	-200.000	0.011	-0.155
-632.551	76.106	-0.177	-0.189
-631.536	-127.414	0.318	0.047
-630.522	-111.059	0.076	0.016
-629.507	800.000	0.023	-0.085
-628.492	-116.580	0.296	0.055
-627.478	238.396	-0.070	-0.118
-626.463	-200.000	-0.008	-0.161
-625.449	-71.158	0.160	-0.061
-624.434	-185.918	-0.178	0.003
-623.419	97.234	0.213	-0.247
-622.405	-52.270	0.180	0.085
-621.390	596.810	0.033	-0.083
-620.376	-117.151	0.174	-0.032
-619.361	-79.200	-0.119	0.041
-618.346	800.000	0.080	0.237
-617.332	205.316	0.147	-0.231
-616.317	-116.496	-0.320	0.060
-615.303	-121.556	0.210	0.035
-614.288	1.040	-0.179	0.130
-613.273	459.143	-0.062	0.139
-612.259	-110.998	-0.113	-0.023
-611.244	-59.048	0.158	-0.069
-610.230	85.565	0.159	-0.177
-609.215	357.723	-0.127	-0.256
-608.201	789.353	-0.109	0.302
-607.186	50.191	0.109	0.104
-606.171	-88.806	0.053	-0.016
-605.157	-142.821	-0.250	0.025
-604.142	281.959	0.189	-0.343
-603.128	75.935	-0.253	-0.271
-602.113	101.835	-0.201	-0.238
-601.098	800.000	-0.102	-0.326
-600.084	-18.630	-0.067	0.042
-599.069	-173.237	0.169	0.005
-598.055	-47.926	-0.083	-0.041
-597.040	-16.053	0.144	-0.092
-596.025	380.912	0.085	0.177
-595.011	-141.144	0.263	0.027
-593.996	-7.210	-0.187	-0.128
-592.982	-168.707	-0.082	0.003
-591.967	-75.235	-0.093	-0.034
-590.952	-113.207	0.072	-0.014
-589.938	166.517	-0.049	0.071
-588.923	800.000	0.096	-0.274
-587.909	259.915	-0.148	-0.258
-586.894	-119.801	-0.274	-0.048
-585.879	-160.571	-0.266	-0.014
-584.865	-200.000	-0.007	-0.220
-583.850	79.212	0.162	0.176
-582.836	-81.168	-0.149	0.050
-581.821	800.000	-0.022	-0.091
-580.806	153.711	0.080	0.110
-579.792	372.771	0.120	-0.247
-578.777	-21.149	-0.141	0.087
-577.763	-160.497	-0.140	-0.008
-576.748	-200.000	0.019	-0.141
-575.733	129.451	0.142	-0.184
-574.719	2.494	-0.086	-0.063
-573.704	-19.810	-0.017	0.011
-572.690	563.551	-0.103	-0.253
-571.675	-155.452	-0.184	-0.012
-570.661	13.653	-0.104	-0.082
-569.646	-200.000	-0.021	0.152
-568.631	800.000	-0.058	-0.237
-567.617	301.880	-0.146	-0.273
-566.602	460.696	-0.113	0.254
-565.588	101.781	-0.136	-0.161
-564.573	-38.187	0.307	-0.164
-563.558	-135.646	-0.272	-0.033
-562.544	335.225	0.133	0.260
-561.529	-200.000	-0.010	0.123
-560.515	-81.270	0.160	-0.053
-559.500	-128.636	0.427	0.061
-558.485	-62.452	0.191	-0.080
-557.471	11.424	0.084	-0.065
-556.456	434.148	-0.097	0.214
-555.442	-200.000	-0.006	-0.508
-554.427	62.684	0.176	-0.178
-553.412	800.000	0.061	0.263
-552.398	800.000	-0.024	0.080
-551.383	143.701	-0.146	0.197
-550.369	37.371	-0.200	0.179
-549.354	-113.170	0.265	-0.053
-548.339	88.304	-0.201	0.226
-547.325	800.000	0.071	-0.296
-546.310	183.772	-0.105	0.157
-545.296	-38.570	0.191	0.102
-544.281	409.468	-0.117	-0.250
-543.266	800.000	-0.054	-0.179
-542.252	131.963	0.249	0.324
-541.237	-162.218	0.273	-0.014
-540.223	36.068	0.243	0.216
-539.208	800.000	-0.020	0.085
-538.193	-25.311	-0.279	-0.166
-537.179	174.947	-0.060	0.088
-536.164	-147.555	-0.451	-0.038
-535.150	-183.964	-0.201	-0.003
-534.135	85.867	-0.156	0.173
-533.121	-39.789	-0.326	-0.172
-532.106	-185.777	0.753	-0.011
-531.091	62.566	-0.094	0.095
-530.077	-92.096	0.045	-0.013
-529.062	57.633	0.066	0.065
-528.048	232.615	-0.012	-0.020
-527.033	800.000	0.003	0.012
-526.018	-200.000	0.025	0.185
-525.004	248.117	0.023	-0.039
-523.989	800.000	0.072	-0.287
-522.975	93.974	-0.166	-0.190
-521.960	-15.097	-0.331	0.214
-520.945	408.130	-0.118	-0.253
-519.931	784.656	-0.094	0.261
-518.916	30.140	-0.135	0.116
-517.902	44.504	-0.198	-0.184
-516.887	210.988	-0.082	-0.131
-515.872	14.600	0.241	0.190
-514.858	800.000	-0.068	0.257
-513.843	-200.000	0.011	0.215
-512.829	-200.000	0.019	-0.292
-511.814	679.752	-0.051	0.135
-510.799	800.000	0.120	-0.342
-509.785	244.649	-0.126	0.214
-508.770	267.275	0.193	-0.340
-507.756	93.163	-0.082	0.093
-506.741	-113.912	-0.395	0.077
-505.726	-200.000	-0.005	0.309
-504.712	135.775	-0.057	-0.075
-503.697	167.089	0.048	0.068
-502.683	-41.908	-0.131	0.068
-501.668	-113.583	0.226	-0.045
-500.653	-125.117	0.295	0.046
-499.639	-200.000	0.168	-0.001
-498.624	-33.604	0.330	0.184
-497.610	-120.775	-0.288	-0.049
-496.595	-200.000	0.006	-0.186
-495.581	-139.498	0.141	-0.015
-494.566	-200.000	-0.016	-0.191
-493.551	-139.552	-0.197	0.021
-492.537	-142.010	-0.529	-0.053
-491.522	14.407	-0.186	-0.146
-490.508	484.680	0.037	-0.085
-489.493	45.652	0.215	-0.201
-488.478	321.824	-0.030	0.057
-487.464	-71.220	0.430	0.163
-486.449	560.126	-0.040	-0.098
-485.435	3.536	-0.292	0.215
-484.420	-90.724	-0.081	0.023
-483.405	630.469	-0.057	-0.144
-482.391	800.000	0.012	0.052
-481.376	-200.000	-0.039	0.284
-480.362	-200.000	-0.046	-0.210
-479.347	553.283	0.075	-0.182
-478.332	28.773	0.154	0.131
-477.318	-41.473	0.258	0.134
-476.303	-137.277	0.242	-0.028
-475.289	-103.248	-0.473	0.113
-474.274	-200.000	0.004	0.135
-473.259	-200.000	0.021	0.132
-472.245	-200.000	0.001	-0.078
-471.230	-200.000	-0.021	-0.126
-470.216	-152.569	0.181	0.013
-469.201	-114.200	-0.437	0.085
-468.186	-200.000	0.006	0.111
-467.172	70.835	0.047	-0.049
-466.157	241.249	-0.135	-0.227
-465.143	-5.557	-0.195	0.134
-464.128	800.000	-0.068	-0.268
-463.113	84.337	0.180	-0.198
-462.099	82.219	0.105	-0.115
-461.084	186.656	0.204	0.306
-460.070	-27.307	0.123	0.072
-459.055	294.827	0.147	0.271
-458.040	-86.471	0.258	-0.080
-457.026	38.206	-0.074	0.066
-456.011	22.711	0.087	-0.072
-454.997	456.788	-0.061	0.136
-453.982	-183.189	0.351	-0.006
-452.968	-183.544	-0.259	0.004
-451.953	-200.000	-0.016	0.302
-450.938	-200.000	0.011	0.241
-449.924	-200.000	-0.098	0.442
-448.909	-200.000	0.012	0.171
-447.895	35.924	0.088	0.078
-446.880	800.000	0.046	0.161
-445.865	-54.660	-0.400	-0.182
-444.851	-52.017	-0.303	0.141
-443.836	800.000	0.063	-0.202
-442.822	-105.922	0.062	0.014
-441.807	-132.622	-0.255	0.033
-440.792	77.877	-0.053	-0.057
-439.778	548.591	-0.091	0.219
-438.763	726.657	0.062	-0.167
-437.749	196.002	0.252	-0.385
-436.734	612.287	0.139	0.349
-435.719	-48.743	-0.406	0.196
-434.705	800.000	-0.076	-0.262
-433.690	-18.028	-0.041	-0.026
-432.676	800.000	0.047	0.140
-431.661	85.376	0.064	0.071
-430.646	626.238	0.090	-0.228
-429.632	-11.538	-0.196	0.130
-428.617	-102.939	-0.105	0.025
-427.603	-200.000	-0.045	0.265
-426.588	327.372	0.087	-0.167
-425.573	119.077	0.039	0.048
-424.559	-106.000	-0.213	0.048
-423.544	-181.828	-0.154	-0.003
-422.530	128.929	0.199	0.255
-421.515	800.000	-0.052	0.213
-420.500	430.685	0.142	-0.310
-419.486	-200.000	0.018	0.140
-418.471	-200.000	0.008	0.205
-417.457	-200.000	-0.036	0.227
-416.442	500.766	-0.079	-0.184
-415.428	176.782	-0.284	0.415
-414.413	-200.000	0.038	0.235
-413.398	30.608	-0.257	-0.221
-412.384	-14.983	0.041	0.026
-411.369	189.803	-0.146	-0.220
-410.355	-200.000	-0.010	0.115
-409.340	89.327	-0.248	-0.278
-408.325	269.899	-0.155	-0.274
-407.311	12.510	0.121	-0.093
-406.296	800.000	0.082	0.261
-405.282	-200.000	-0.026	-0.147
-404.267	800.000	0.024	-0.074
-403.252	-49.666	-0.264	-0.126
-402.238	24.844	-0.089	0.074
-401.223	384.662	-0.145	0.299
-400.209	-200.000	-0.027	0.201
-399.194	-51.590	-0.264	-0.124
-398.179	800.000	-0.024	-0.078
-397.165	800.000	0.115	0.448
-396.150	444.743	0.058	0.128
-395.136	800.000	-0.075	-0.265
-394.121	42.974	-0.174	0.159
-393.106	456.570	0.088	0.197
-392.092	-200.000	-0.034	0.289
-391.077	0.734	-0.138	-0.099
-390.063	60.793	-0.177	-0.177
-389.048	447.779	-0.146	0.323
-388.033	-200.000	0.077	-0.435
-387.019	199.990	0.184	0.283
-386.004	-200.000	-0.010	0.281
-384.990	30.890	0.156	-0.134
-383.975	800.000	-0.032	-0.117
-382.960	132.941	0.044	-0.057
-381.946	2.298	-0.089	0.064
-380.931	-44.628	-0.085	-0.043
-379.917	769.211	-0.068	-0.186
-378.902	-161.107	0.201	0.011
-377.888	-48.152	0.129	0.062
-376.873	0.788	0.076	-0.055
-375.858	24.495	0.277	-0.230
-374.844	800.000	0.073	0.263
-373.829	-200.000	0.001	0.186
-372.815	800.000	-0.116	0.500
-371.800	131.376	-0.244	0.315
-370.785	86.975	-0.106	0.118
-369.771	491.681	-0.044	-0.102
-368.756	67.521	-0.102	0.104
-367.742	800.000	0.031	-0.131
-366.727	-67.558	0.120	-0.047
-365.712	-126.762	-0.269	-0.040
-364.698	129.429	0.138	-0.176
-363.683	152.503	0.204	0.279
-362.669	173.095	0.384	0.556
-361.654	800.000	-0.136	-0.396
-360.639	-9.918	0.119	-0.079
-359.625	-13.245	-0.308	-0.200
-358.610	95.630	0.140	0.160
-357.596	-45.614	0.052	0.026
-356.581	800.000	0.058	0.246
-355.566	-41.003	0.343	0.178
-354.552	-200.000	0.008	-0.087
-353.537	-32.428	0.387	0.217
-352.523	-119.773	0.494	0.085
-351.508	-137.440	-0.179	-0.020
-350.493	-75.615	-0.159	-0.057
-349.479	760.647	-0.124	-0.336
-348.464	-17.345	0.126	0.079
-347.450	-80.898	0.194	0.065
-346.435	-111.421	-0.214	0.044
-345.420	331.004	-0.039	-0.076
-344.406	-172.161	-0.304	0.010
-343.391	800.000	0.050	0.201
-342.377	-7.807	-0.305	0.206
-341.362	92.432	-0.093	0.105
-340.348	-72.378	0.133	-0.049
-339.333	-200.000	0.051	-0.328
-338.318	-108.448	0.302	-0.065
-337.304	108.898	-0.022	-0.027
-336.289	-72.901	-0.310	0.114
-335.275	800.000	0.058	-0.202
-334.260	-200.000	-0.001	-0.084
-333.245	32.771	0.121	-0.105
-332.231	-26.293	-0.072	-0.042
-331.216	-91.641	-0.064	0.018
-330.202	-55.219	-0.105	-0.047
-329.187	-37.755	-0.116	0.062
-328.172	-67.789	-0.175	-0.069
-327.158	-48.987	-0.262	-0.126
-326.143	-200.000	-0.034	0.225
-325.129	800.000	0.052	-0.202
-324.114	-161.752	-0.305	0.016
-323.099	322.223	0.068	-0.130
-322.085	-72.707	-0.232	0.086
-321.070	-43.481	-0.520	-0.263
-320.056	-200.000	0.023	0.236
-319.041	-84.829	-0.305	0.096
-318.026	-30.394	-0.366	0.208
-317.012	-36.418	-0.115	0.062
-315.997	-200.000	0.003	-0.176
-314.983	52.747	-0.226	0.217
-313.968	-200.000	0.020	-0.117
-312.953	800.000	-0.086	0.278
-311.939	136.417	0.158	-0.207
-310.924	188.960	-0.141	-0.211
-309.910	91.368	-0.150	-0.169
-308.895	438.726	-0.074	-0.162
-307.880	571.464	0.127	-0.309
-306.866	-48.835	-0.214	-0.103
-305.851	-53.955	0.117	-0.054
-304.837	163.517	-0.227	-0.320
-303.822	-58.649	0.233	0.101
-302.807	-4.551	-0.115	-0.080
-301.793	31.964	0.244	0.211
-300.778	-200.000	0.013	0.058
-299.764	-108.856	0.216	-0.046
-298.749	357.144	0.065	0.130
-297.735	-83.545	-0.420	0.134
-296.720	55.784	0.140	-0.136
-295.705	-188.979	0.123	-0.001
-294.691	44.856	0.163	0.150
-293.676	-200.000	0.040	0.276
-292.662	-163.582	0.064	0.003
-291.647	15.657	-0.032	0.025
-290.632	800.000	0.027	-0.094
-289.618	-200.000	0.033	0.227
-288.603	81.972	-0.099	-0.107
-287.589	-80.773	-0.202	-0.067
-286.574	-24.218	0.240	0.143
-285.559	-200.000	0.058	-0.385
-284.545	273.187	0.056	-0.099
-283.530	-85.785	0.044	0.014
-282.516	93.432	0.106	0.120
-281.501	420.802	-0.041	0.088
-280.486	-152.455	0.278	-0.020
-279.472	-27.572	0.618	0.359
-278.457	17.525	-0.199	-0.158
-277.443	-58.565	-0.314	-0.136
-276.428	-200.000	-0.054	0.271
-275.413	566.508	-0.101	-0.246
-274.399	-158.198	0.232	0.014
-273.384	405.826	-0.174	-0.366
-272.370	330.474	0.081	0.157
-271.355	-200.000	0.009	0.462
-270.340	-200.000	-0.030	-0.237
-269.326	-200.000	0.072	-0.326
-268.311	274.339	0.069	-0.121
-267.297	-29.228	-0.232	0.133
-266.282	-14.818	0.144	0.092
-265.267	-3.409	0.174	-0.121
-264.253	1.084	-0.118	-0.084
-263.238	-200.000	-0.018	-0.105
-262.224	800.000	0.027	0.116
-261.209	81.207	0.257	0.277
-260.195	-52.791	-0.175	0.081
-259.180	-166.385	0.187	-0.008
-258.165	116.133	-0.154	0.189
-257.151	97.076	0.218	-0.250
-256.136	464.683	0.157	-0.350
-255.122	-200.000	0.058	-0.255
-254.107	-200.000	0.007	0.318
-253.092	-8.414	-0.216	-0.145
-252.078	800.000	0.026	-0.076
-251.063	124.885	0.199	-0.250
-250.049	58.215	0.238	0.233
-249.034	20.380	-0.208	0.168
-248.019	386.781	0.162	0.335
-247.005	-83.898	-0.107	-0.034
-245.990	378.734	0.072	-0.148
-244.976	800.000	0.042	-0.133
-243.961	62.873	0.089	-0.089
-242.946	-101.741	-0.047	0.011
-241.932	-128.375	-0.309	-0.044
-240.917	362.611	-0.123	0.247
-239.903	81.671	-0.136	0.147
-238.888	467.789	-0.178	0.398
-237.873	-200.000	-0.028	0.258
-236.859	-13.400	0.205	-0.133
-235.844	800.000	0.049	-0.165
-234.830	-200.000	-0.075	0.370
-233.815	-20.355	-0.280	-0.172
-232.800	161.480	-0.021	-0.030
-231.786	253.971	0.114	0.194
-230.771	-200.000	-0.031	0.147
-229.757	-145.263	-0.140	0.013
-228.742	243.937	-0.054	0.091
-227.727	13.977	0.296	0.230
-226.713	2.290	0.125	-0.090
-225.698	15.069	-0.116	-0.090
-224.684	386.042	-0.071	0.147
-223.669	-143.604	-0.057	-0.005
-222.655	106.177	0.134	-0.158
-221.640	9.656	0.247	0.187
-220.625	-44.606	-0.062	-0.031
-219.611	-75.878	-0.320	0.113
-218.596	-120.383	-0.100	-0.017
-217.582	-181.378	0.252	0.005
-216.567	-104.277	0.343	-0.079
-215.552	-108.704	-0.059	-0.013
-214.538	280.065	0.085	-0.151
-213.523	-110.279	0.468	0.097
-212.509	-200.000	-0.030	0.163
-211.494	-160.390	-0.234	-0.013
-210.479	-113.356	0.147	-0.029
-209.465	-200.000	0.033	-0.344
-208.450	-36.419	0.172	-0.093
-207.436	-56.410	-0.124	0.055
-206.421	-126.408	0.054	0.008
-205.406	279.296	0.153	0.273
-204.392	-90.967	0.100	0.029
-203.377	348.583	0.290	-0.571
-202.363	-200.000	-0.040	0.196
-201.348	65.570	-0.087	0.088
-200.333	30.488	-0.254	0.217
-199.319	-74.175	-0.169	-0.061
-198.304	24.640	0.036	-0.030
-197.290	-193.068	0.239	0.002
-196.275	485.167	0.105	-0.238
-195.260	431.082	-0.072	0.155
-194.246	49.323	0.302	0.283
-193.231	-200.000	0.005	-0.029
-192.217	-64.855	0.398	0.161
-191.202	62.273	0.148	-0.147
-190.187	-100.537	-0.257	0.063
-189.173	-142.310	0.482	-0.047
-188.158	434.705	0.080	-0.173
-187.144	-200.000	-0.009	-0.185
-186.129	-84.255	0.287	-0.091
-185.114	10.697	0.372	-0.282
-184.100	-101.752	0.158	-0.038
-183.085	-200.000	-0.035	-0.317
-182.071	-200.000	-0.046	-0.227
-181.056	153.424	0.126	0.171
-180.042	-11.223	0.142	-0.093
-179.027	-99.232	-0.350	0.088
-178.012	18.790	0.094	-0.075
-176.998	62.175	0.103	-0.102
-175.983	800.000	0.087	0.322
-174.969	-127.252	0.161	-0.023
-173.954	800.000	-0.068	0.241
-172.939	-31.282	0.264	-0.148
-171.925	25.172	-0.120	0.099
-170.910	-37.455	-0.030	0.016
-169.896	276.761	-0.081	-0.143
-168.881	-126.512	0.142	0.021
-167.866	-56.541	0.368	0.162
-166.852	-200.000	-0.014	-0.228
-165.837	800.000	0.039	0.144
-164.823	368.083	0.144	-0.289
-163.808	-108.398	0.312	-0.067
-162.793	-76.086	0.162	-0.057
-161.779	-159.704	-0.227	-0.012
-160.764	-168.803	-0.151	0.006
-159.750	115.313	-0.093	0.113
-158.735	32.072	-0.132	0.113
-157.720	277.085	0.197	0.348
-156.706	-96.870	0.055	-0.014
-155.691	-200.000	0.062	-0.283
-154.677	-27.383	0.298	-0.173
-153.662	-73.888	-0.033	0.012
-152.647	81.304	0.084	-0.090
-151.633	-64.353	0.206	0.083
-150.618	-41.734	-0.004	-0.002
-149.604	79.155	-0.268	-0.285
-148.589	-200.000	-0.032	-0.182
-147.574	516.986	0.204	0.475
-146.560	-200.000	-0.003	-0.255
-145.545	800.000	0.079	-0.327
-144.531	-78.284	0.115	-0.039
-143.516	47.429	-0.059	-0.055
-142.502	28.473	-0.260	-0.218
-141.487	61.624	0.040	0.039
-140.472	160.243	-0.205	0.285
-139.458	461.468	-0.115	0.255
-138.443	740.477	0.034	-0.091
-137.429	-200.000	0.009	0.260
-136.414	230.381	0.156	0.254
-135.399	-164.664	-0.182	-0.008
-134.385	166.594	0.082	-0.116
-133.370	-67.290	0.121	0.047
-132.356	-200.000	-0.004	-0.084
-131.341	-145.915	0.212	-0.019
-130.326	236.449	0.022	-0.037
-129.312	-193.694	0.281	0.002
-128.297	189.135	0.106	0.158
-127.283	-55.727	0.200	0.089
-126.268	28.587	-0.158	0.133
-125.253	138.916	-0.200	0.261
-124.239	-200.000	-0.046	-0.207
-123.224	-42.313	0.112	-0.057
-122.210	2.339	-0.239	-0.172
-121.195	-3.477	-0.279	0.193
