DTS Sentinel unit serial number:	SN413079Multiplexer serial number:	ORYXHardware model number:	OX4-SRSoftware version number:	ORYX F/W v4.00 Oryx Data Collector v3.7.2.0data status	okinstallation	princeton_trtdifferential loss correction	single-endedforward channel	channel 1reverse channel	N/Adate	2019/09/19time	12:02:35forward acquisition time	60.00reverse acquisition time	0.00gamma	496.2192k internal	0.2337k external	0.2337temperature offset calibration	1.0014default loss term (dB/km)	0.3790temperature slope calibration	1.0000multiplexer offset coefficient	1.0000multiplexer slope coefficient	1.0000fibre end	0.00T internal ref (°C)	26.08T ext. ref 1 (°C)	0.84T ext. ref 2 (°C)	22.04length (m)	temperature (°C)	Stokes	anti-Stokes-747.200	-72.642	0.203	0.075
-746.185	148.085	-0.045	0.061
-745.171	-59.294	0.164	-0.071
-744.156	201.306	0.040	0.062
-743.142	-63.919	-0.108	-0.044
-742.127	343.895	-0.267	0.525
-741.112	91.415	-0.090	-0.102
-740.098	45.223	-0.149	-0.137
-739.083	-2.100	0.275	0.194
-738.069	31.690	-0.220	0.190
-737.054	25.740	-0.448	-0.374
-736.039	-58.143	-0.038	-0.017
-735.025	-33.128	0.097	0.054
-734.010	-200.000	0.008	-0.208
-732.996	678.046	0.117	-0.304
-731.981	287.750	-0.241	-0.437
-730.966	-200.000	-0.015	0.100
-729.952	800.000	0.042	-0.172
-728.937	19.542	-0.163	0.132
-727.923	800.000	-0.087	-0.241
-726.908	-34.968	-0.277	0.152
-725.894	66.217	0.266	0.271
-724.879	-71.159	-0.077	0.029
-723.864	-58.818	-0.297	-0.129
-722.850	311.322	-0.064	0.120
-721.835	800.000	0.057	-0.181
-720.821	30.790	-0.078	-0.067
-719.806	185.274	-0.239	-0.356
-718.791	-200.000	-0.017	-0.090
-717.777	12.871	0.225	0.174
-716.762	-200.000	0.096	-0.449
-715.748	-90.541	0.170	0.049
-714.733	332.767	0.103	-0.200
-713.718	99.372	-0.136	0.158
-712.704	58.261	-0.082	0.081
-711.689	763.592	0.125	-0.339
-710.675	-38.768	-0.206	0.109
-709.660	-114.037	0.108	0.021
-708.645	-139.876	-0.217	-0.023
-707.631	-6.494	0.115	0.079
-706.616	-23.514	-0.081	0.049
-705.602	756.527	-0.131	-0.355
-704.587	309.673	0.067	-0.126
-703.572	44.281	0.215	-0.197
-702.558	-15.117	-0.334	0.214
-701.543	-200.000	0.042	0.275
-700.529	20.903	0.152	-0.123
-699.514	-10.280	-0.365	-0.243
-698.499	115.514	0.070	-0.086
-697.485	48.485	-0.110	-0.103
-696.470	757.810	0.043	-0.118
-695.456	-158.182	-0.330	-0.019
-694.441	-116.888	0.265	0.049
-693.426	-90.707	-0.173	-0.050
-692.412	472.040	0.215	-0.486
-691.397	-87.456	-0.043	0.013
-690.383	-150.841	-0.095	-0.007
-689.368	254.280	-0.093	0.159
-688.354	-100.880	-0.337	0.083
-687.339	-200.000	-0.046	0.263
-686.324	-200.000	-0.013	0.089
-685.310	-154.377	0.229	0.015
-684.295	-73.678	0.319	-0.116
-683.281	-200.000	0.025	-0.256
-682.266	-143.026	0.215	0.021
-681.251	-200.000	0.025	0.437
-680.237	-127.336	0.176	-0.026
-679.222	-200.000	0.002	0.099
-678.208	-45.306	-0.253	-0.126
-677.193	153.375	-0.030	0.040
-676.178	800.000	-0.029	-0.122
-675.164	-200.000	0.015	-0.180
-674.149	800.000	-0.045	-0.180
-673.135	-110.543	0.335	-0.069
-672.120	-200.000	-0.032	-0.228
-671.105	94.940	-0.154	-0.175
-670.091	-3.500	0.146	-0.102
-669.076	800.000	0.136	-0.399
-668.062	-8.818	0.107	0.072
-667.047	-125.242	-0.323	0.050
-666.032	-17.369	-0.052	0.033
-665.018	-45.435	0.152	0.076
-664.003	23.843	0.268	0.221
-662.989	72.422	0.166	-0.173
-661.974	36.505	0.206	-0.182
-660.959	-200.000	-0.037	-0.181
-659.945	89.636	-0.208	-0.232
-658.930	6.372	0.151	-0.112
-657.916	15.725	0.092	-0.073
-656.901	-86.646	-0.040	0.012
-655.886	116.342	-0.242	-0.296
-654.872	800.000	-0.067	0.275
-653.857	-80.351	0.071	-0.024
-652.843	-78.500	-0.093	-0.032
-651.828	-200.000	-0.026	-0.269
-650.814	-131.302	0.383	0.051
-649.799	-68.794	-0.168	0.065
-648.784	100.594	-0.071	-0.083
-647.770	-200.000	0.055	0.436
-646.755	-136.700	0.031	-0.004
-645.741	13.203	0.165	-0.128
-644.726	-200.000	-0.117	0.570
-643.711	269.856	0.147	0.258
-642.697	315.654	0.064	-0.120
-641.682	-116.765	-0.057	-0.010
-640.668	-12.159	0.115	0.075
-639.653	33.873	-0.119	0.104
-638.638	-40.875	0.114	-0.059
-637.624	-33.676	-0.272	0.150
-636.609	-107.392	-0.135	-0.030
-635.595	371.800	-0.119	0.242
-634.580	-185.143	-0.137	-0.002
-633.565	-50.075	-0.407	0.193
-632.551	-200.000	-0.000	-0.389
-631.536	800.000	-0.072	-0.293
-630.522	-200.000	0.004	-0.101
-629.507	-58.773	-0.228	0.099
-628.492	238.587	0.061	-0.102
-627.478	201.220	0.081	-0.124
-626.463	1.800	-0.035	-0.025
-625.449	-160.528	-0.093	-0.005
-624.434	-25.686	-0.059	-0.035
-623.419	34.480	-0.203	-0.177
-622.405	-200.000	0.027	-0.170
-621.390	-1.325	-0.141	-0.099
-620.376	-200.000	0.012	-0.205
-619.361	-188.298	0.193	-0.002
-618.346	750.978	0.050	0.134
-617.332	383.752	0.148	-0.304
-616.317	-200.000	0.022	-0.226
-615.303	800.000	-0.040	0.124
-614.288	-82.456	-0.298	0.097
-613.273	-137.652	0.299	0.034
-612.259	66.301	0.230	0.233
-611.244	42.356	-0.159	0.144
-610.230	486.721	0.017	0.038
-609.215	565.313	0.211	-0.512
-608.201	-200.000	0.014	-0.339
-607.186	500.932	-0.106	-0.245
-606.171	-200.000	0.000	0.352
-605.157	-200.000	0.047	-0.271
-604.142	-81.221	-0.257	-0.085
-603.128	-85.576	-0.346	-0.107
-602.113	-131.051	-0.187	0.025
-601.098	-200.000	-0.005	-0.175
-600.084	64.882	0.275	0.277
-599.069	-142.758	0.179	0.017
-598.055	-184.400	-0.203	-0.003
-597.040	442.302	0.091	0.198
-596.025	-200.000	0.002	-0.100
-595.011	75.961	-0.321	-0.339
-593.996	800.000	-0.050	0.195
-592.982	216.706	-0.017	0.027
-591.967	-90.677	0.238	-0.069
-590.952	-116.796	-0.231	0.042
-589.938	800.000	-0.052	0.229
-588.923	-118.163	0.080	-0.014
-587.909	-179.867	0.212	0.005
-586.894	-129.718	-0.208	-0.029
-585.879	179.972	-0.219	-0.320
-584.865	-200.000	0.014	0.179
-583.850	16.103	-0.236	-0.185
-582.836	6.627	0.024	-0.018
-581.821	-200.000	0.008	0.099
-580.806	-3.433	-0.276	0.192
-579.792	800.000	-0.052	0.223
-578.777	-92.579	0.067	0.019
-577.763	-200.000	0.035	-0.242
-576.748	-78.406	0.209	-0.072
-575.733	-200.000	0.018	-0.166
-574.719	168.347	-0.194	-0.276
-573.704	800.000	-0.031	0.098
-572.690	-156.602	0.200	-0.012
-571.675	301.499	0.188	-0.347
-570.661	-200.000	0.033	-0.505
-569.646	221.427	-0.100	-0.161
-568.631	-108.327	0.177	0.038
-567.617	-175.143	-0.163	-0.005
-566.602	24.793	0.139	-0.115
-565.588	-200.000	0.379	-0.000
-564.573	235.589	-0.087	-0.143
-563.558	-200.000	-0.050	-0.270
-562.544	70.547	-0.142	0.146
-561.529	395.296	-0.039	0.081
-560.515	-155.758	-0.304	0.019
-559.500	-200.000	0.030	0.221
-558.485	-62.096	0.074	-0.031
-557.471	-54.868	0.110	-0.049
-556.456	105.087	0.143	0.168
-555.442	800.000	0.106	-0.430
-554.427	242.306	0.197	-0.328
-553.412	66.248	-0.105	-0.107
-552.398	4.307	-0.111	0.081
-551.383	-200.000	0.010	0.106
-550.369	69.963	0.156	-0.160
-549.354	92.038	0.147	0.165
-548.339	50.424	0.111	0.105
-547.325	-59.795	-0.280	-0.119
-546.310	-150.525	-0.318	-0.024
-545.296	243.995	-0.261	-0.436
-544.281	-127.475	-0.405	-0.059
-543.266	208.710	-0.050	-0.077
-542.252	-65.503	0.157	-0.063
-541.237	51.591	-0.158	-0.149
-540.223	-200.000	-0.021	0.150
-539.208	-200.000	0.012	0.080
-538.193	195.418	0.176	-0.267
-537.179	-157.176	0.198	0.012
-536.164	-140.551	0.184	-0.019
-535.150	73.651	0.107	-0.112
-534.135	-82.673	-0.065	0.021
-533.121	659.000	0.076	-0.194
-532.106	179.793	0.124	0.181
-531.091	-136.131	-0.258	0.030
-530.077	191.656	0.057	0.086
-529.062	-55.647	0.437	0.195
-528.048	-200.000	0.006	0.030
-527.033	449.033	-0.010	-0.021
-526.018	-150.567	-0.245	0.019
-525.004	-44.763	-0.136	-0.067
-523.989	800.000	-0.046	0.178
-522.975	316.918	0.063	0.119
-521.960	-200.000	-0.069	-0.394
-520.945	7.737	-0.191	-0.143
-519.931	700.340	0.095	-0.249
-518.916	120.699	-0.256	0.317
-517.902	651.928	0.042	-0.108
-516.887	-70.053	-0.354	0.134
-515.872	-200.000	0.035	0.195
-514.858	-39.258	-0.308	0.161
-513.843	-127.509	-0.039	0.006
-512.829	-115.594	0.193	0.036
-511.814	-81.260	0.163	0.053
-510.799	-71.320	0.175	-0.065
-509.785	365.006	0.117	-0.234
-508.770	-67.446	-0.282	0.110
-507.756	-45.608	-0.329	-0.162
-506.741	-200.000	0.030	0.162
-505.726	68.229	-0.283	0.288
-504.712	-200.000	-0.001	0.050
-503.697	68.777	0.103	0.105
-502.683	122.943	-0.067	-0.083
-501.668	-130.435	0.197	0.026
-500.653	-37.373	0.285	-0.151
-499.639	-129.238	0.364	0.050
-498.624	-63.876	0.021	0.009
-497.610	26.702	-0.054	0.045
-496.595	800.000	-0.082	0.293
-495.581	-200.000	0.062	-0.279
-494.566	40.290	-0.095	-0.085
-493.551	304.829	0.148	-0.273
-492.537	-200.000	-0.033	-0.407
-491.522	-61.545	0.306	-0.128
-490.508	122.412	0.093	-0.115
-489.493	260.389	0.189	-0.326
-488.478	73.581	-0.042	0.044
-487.464	-20.973	0.233	0.142
-486.449	-47.815	0.096	0.046
-485.435	-89.316	-0.305	0.089
-484.420	-31.610	-0.185	-0.103
-483.405	-147.266	-0.201	-0.017
-482.391	-103.710	-0.141	0.033
-481.376	296.185	0.135	-0.246
-480.362	439.999	0.073	0.159
-479.347	800.000	-0.023	-0.094
-478.332	800.000	-0.099	-0.331
-477.318	16.781	-0.247	0.194
-476.303	66.045	-0.125	0.126
-475.289	-125.143	-0.177	0.027
-474.274	101.214	0.093	-0.108
-473.259	-69.307	-0.237	0.090
-472.245	-164.587	0.347	-0.016
-471.230	73.354	-0.126	-0.131
-470.216	-38.335	-0.167	0.088
-469.201	-106.094	0.458	0.102
-468.186	-171.325	0.123	0.004
-467.172	-12.321	0.280	0.182
-466.157	-200.000	-0.043	0.409
-465.143	260.446	0.142	-0.244
-464.128	4.597	0.090	-0.065
-463.113	66.698	-0.066	0.067
-462.099	399.996	0.080	-0.167
-461.084	-67.401	-0.375	-0.146
-460.070	20.135	-0.114	0.092
-459.055	93.749	-0.050	-0.057
-458.040	-157.284	0.224	0.013
-457.026	-89.631	-0.151	0.044
-456.011	-142.035	0.256	-0.025
-454.997	-154.588	-0.192	-0.013
-453.982	759.191	-0.063	-0.169
-452.968	252.075	-0.056	-0.095
-451.953	-64.647	-0.109	0.044
-450.938	-38.450	-0.030	0.016
-449.924	625.261	0.040	0.099
-448.909	701.861	0.058	-0.152
-447.895	800.000	-0.043	0.150
-446.880	83.936	0.264	0.286
-445.865	76.082	0.176	0.185
-444.851	193.131	-0.096	-0.144
-443.836	-54.115	0.176	0.079
-442.822	-72.125	-0.350	-0.129
-441.807	-7.431	0.135	-0.091
-440.792	-31.333	-0.254	0.142
-439.778	-200.000	-0.017	0.094
-438.763	-77.453	-0.174	0.060
-437.749	154.532	-0.092	-0.125
-436.734	3.806	0.281	-0.203
-435.719	465.859	-0.143	-0.317
-434.705	-13.693	-0.121	-0.078
-433.690	-120.842	-0.044	0.007
-432.676	-167.846	-0.104	-0.004
-431.661	172.920	-0.114	0.163
-430.646	325.812	0.114	0.216
-429.632	-147.178	-0.234	0.020
-428.617	800.000	0.069	0.216
-427.603	-70.465	-0.255	-0.096
-426.588	77.938	0.154	-0.163
-425.573	425.699	-0.039	0.084
-424.559	-91.846	-0.147	0.041
-423.544	800.000	0.084	0.297
-422.530	-5.247	0.157	-0.107
-421.515	242.472	0.198	-0.329
-420.500	-54.155	-0.150	-0.068
-419.486	-151.279	-0.198	0.015
-418.471	-200.000	0.003	0.113
-417.457	-53.541	-0.221	0.100
-416.442	-7.687	0.148	0.099
-415.428	148.920	-0.253	0.339
-414.413	37.219	0.231	-0.203
-413.398	-159.302	0.146	0.008
-412.384	-64.865	0.086	0.035
-411.369	800.000	0.072	0.227
-410.355	-78.525	0.192	0.065
-409.340	27.462	-0.081	-0.067
-408.325	-200.000	0.013	-0.118
-407.311	182.463	0.106	-0.154
-406.296	279.435	0.252	-0.446
-405.282	-200.000	0.010	-0.304
-404.267	-200.000	-0.017	-0.194
-403.252	-73.090	-0.079	-0.029
-402.238	66.602	-0.089	-0.089
-401.223	-200.000	-0.038	-0.254
-400.209	-107.611	0.103	0.022
-399.194	35.693	0.281	0.245
-398.179	-200.000	0.007	0.227
-397.165	-69.551	-0.023	-0.009
-396.150	227.932	0.179	0.288
-395.136	-8.912	-0.073	-0.049
-394.121	-127.528	0.118	0.017
-393.106	-103.528	0.296	-0.069
-392.092	-84.837	-0.317	0.099
-391.077	-198.278	-0.197	0.001
-390.063	664.726	0.070	-0.178
-389.048	3.520	0.108	-0.078
-388.033	128.108	0.241	-0.304
-387.019	-16.114	0.139	-0.088
-386.004	-88.775	0.092	-0.027
-384.990	-147.271	0.354	0.030
-383.975	38.157	-0.052	0.045
-382.960	-200.000	0.033	-0.293
-381.946	-10.979	-0.319	0.208
-380.931	-200.000	0.038	-0.387
-379.917	-20.268	-0.218	0.133
-378.902	85.208	0.232	0.252
-377.888	405.443	-0.079	0.166
-376.873	-113.560	0.341	-0.066
-375.858	-200.000	0.016	-0.163
-374.844	-107.791	-0.095	-0.020
-373.829	-139.640	0.122	0.013
-372.815	800.000	-0.028	0.113
-371.800	-104.951	-0.213	0.048
-370.785	97.196	-0.137	0.155
-369.771	-64.665	0.207	-0.083
-368.756	238.254	-0.103	0.169
-367.742	800.000	-0.132	-0.419
-366.727	-170.454	-0.062	-0.002
-365.712	-145.709	0.165	-0.015
-364.698	-129.438	-0.125	-0.017
-363.683	174.264	0.053	-0.076
-362.669	450.512	-0.119	0.260
-361.654	-141.099	-0.322	-0.033
-360.639	-86.074	-0.258	-0.079
-359.625	-134.323	-0.286	-0.035
-358.610	134.428	0.177	0.227
-357.596	173.951	-0.095	0.135
-356.581	-52.020	0.140	-0.064
-355.566	14.059	0.157	0.121
-354.552	-52.801	0.297	-0.136
-353.537	742.082	-0.101	0.269
-352.523	555.422	-0.029	0.070
-351.508	-35.631	0.047	0.025
-350.493	-113.775	-0.265	0.051
-349.479	-159.986	-0.378	-0.020
-348.464	-35.761	-0.350	-0.187
-347.450	-200.000	-0.030	-0.366
-346.435	-76.606	0.278	-0.097
-345.420	19.238	0.164	-0.130
-344.406	-104.157	-0.298	0.068
-343.391	-200.000	-0.000	0.077
-342.377	800.000	-0.071	0.258
-341.362	231.900	0.034	-0.054
-340.348	80.740	-0.203	0.217
-339.333	-149.576	0.392	-0.031
-338.318	-136.350	0.253	0.029
-337.304	295.557	0.065	0.118
-336.289	-200.000	0.015	0.330
-335.275	-96.220	-0.200	-0.052
-334.260	-168.869	-0.442	0.016
-333.245	-200.000	-0.013	-0.070
-332.231	669.453	-0.116	0.296
-331.216	-142.399	0.234	0.023
-330.202	-83.137	0.361	0.115
-329.187	-200.000	0.091	0.565
-328.172	211.703	0.200	0.311
-327.158	-29.663	0.243	0.137
-326.143	295.473	-0.194	0.351
-325.129	-43.537	0.208	-0.104
-324.114	-200.000	0.039	-0.365
-323.099	-62.165	-0.259	0.107
-322.085	800.000	-0.036	-0.112
-321.070	-102.985	-0.224	-0.053
-320.056	156.746	0.170	-0.231
-319.041	51.302	-0.046	0.043
-318.026	-200.000	-0.061	-0.420
-317.012	800.000	0.102	0.287
-315.997	-26.419	-0.211	0.122
-314.983	-90.307	-0.192	0.055
-313.968	800.000	0.084	0.363
-312.953	215.127	-0.111	0.174
-311.939	-147.221	0.105	-0.009
-310.924	-81.126	0.131	0.043
-309.910	57.220	0.128	-0.123
-308.895	181.137	-0.146	-0.212
-307.880	-200.000	-0.085	-0.379
-306.866	44.025	-0.290	-0.263
-305.851	-200.000	0.230	-0.001
-304.837	-200.000	-0.019	0.101
-303.822	113.924	0.159	-0.191
-302.807	800.000	0.033	0.137
-301.793	800.000	0.027	0.083
-300.778	409.390	0.183	-0.381
-299.764	709.297	0.091	-0.239
-298.749	165.598	0.201	-0.281
-297.735	-32.901	-0.195	0.107
-296.720	114.734	0.158	0.190
-295.705	-93.877	0.229	-0.062
-294.691	-9.665	0.093	0.061
-293.676	-143.809	-0.198	0.018
-292.662	-200.000	0.005	0.389
-291.647	-53.235	-0.101	0.046
-290.632	241.547	0.068	0.112
-289.618	542.853	0.006	-0.014
-288.603	175.947	0.176	0.252
-287.589	-200.000	-0.318	-0.001
-286.574	-157.979	-0.045	0.003
-285.559	-200.000	0.025	-0.112
-284.545	-73.378	0.122	0.044
-283.530	-11.288	-0.238	0.155
-282.516	-13.763	-0.030	-0.019
-281.501	-200.000	0.034	-0.154
-280.486	228.887	-0.073	0.118
-279.472	-36.707	-0.105	-0.055
-278.457	211.366	-0.360	0.558
-277.443	-200.000	-0.019	0.195
-276.428	-178.573	0.075	0.002
-275.413	-97.342	0.138	-0.036
-274.399	-60.802	-0.265	0.110
-273.384	606.817	-0.118	-0.289
-272.370	120.474	-0.386	0.473
-271.355	-200.000	0.057	-0.256
-270.340	-0.112	0.112	0.078
-269.326	195.588	-0.036	-0.053
-268.311	731.364	-0.105	0.278
-267.297	29.773	-0.310	-0.260
-266.282	45.762	0.114	0.104
-265.267	-200.000	-0.071	0.522
-264.253	-184.768	-0.099	-0.002
-263.238	11.786	0.119	0.090
-262.224	1.063	0.119	0.084
-261.209	-166.208	-0.304	-0.013
-260.195	-176.260	0.308	0.008
-259.180	651.497	-0.066	-0.168
-258.165	496.984	0.071	0.161
-257.151	800.000	0.064	0.178
-256.136	-200.000	-0.054	-0.247
-255.122	-5.815	0.170	0.115
-254.107	785.983	-0.141	-0.382
-253.092	-123.688	0.084	0.013
-252.078	-173.717	0.139	-0.004
-251.063	115.917	-0.285	-0.344
-250.049	158.701	-0.127	-0.173
-249.034	296.428	0.048	-0.087
-248.019	-156.659	-0.096	0.006
-247.005	98.169	0.181	0.206
-245.990	-21.904	0.299	-0.179
-244.976	323.348	-0.070	0.132
-243.961	-200.000	-0.083	0.659
-242.946	-200.000	0.032	0.346
-241.932	-41.512	-0.421	0.213
-240.917	-117.548	0.300	0.053
-239.903	316.995	-0.075	-0.139
-238.888	-4.906	0.346	-0.234
-237.873	-64.509	0.214	0.086
-236.859	386.221	0.010	-0.020
-235.844	-169.807	0.366	-0.013
-234.830	-200.000	0.033	0.164
-233.815	62.584	-0.176	-0.173
-232.800	-129.430	0.417	0.057
-231.786	-200.000	0.017	0.370
-230.771	-200.000	0.045	0.429
-229.757	-41.211	-0.365	0.185
-228.742	-200.000	-0.013	-0.175
-227.727	180.837	0.142	-0.205
-226.713	44.159	-0.201	-0.182
-225.698	109.111	-0.086	-0.101
-224.684	800.000	0.041	0.123
-223.669	-19.572	0.207	-0.126
-222.655	800.000	0.034	-0.133
-221.640	69.440	-0.231	0.234
-220.625	800.000	-0.094	-0.263
-219.611	-200.000	0.057	-0.399
-218.596	275.566	-0.087	-0.151
-217.582	113.825	0.120	0.143
-216.567	800.000	0.052	-0.196
-215.552	-61.656	-0.214	0.088
-214.538	72.792	0.226	0.232
-213.523	-96.561	-0.055	-0.014
-212.509	-200.000	-0.022	0.200
-211.494	70.877	-0.142	-0.144
-210.479	800.000	0.030	-0.083
-209.465	-200.000	-0.004	0.155
-208.450	175.660	-0.200	-0.285
-207.436	274.420	-0.068	0.119
-206.421	-137.433	0.483	-0.054
-205.406	72.426	0.069	0.071
-204.392	-200.000	-0.003	-0.071
-203.377	-200.000	-0.008	-0.038
-202.363	800.000	-0.024	-0.091
-201.348	-166.824	0.193	0.008
-200.333	406.609	-0.084	0.175
-199.319	-93.774	-0.326	-0.088
-198.304	701.599	-0.069	0.178
-197.290	-200.000	0.013	-0.171
-196.275	-200.000	-0.024	0.232
-195.260	-200.000	0.023	0.128
-194.246	134.180	0.094	0.119
-193.231	-19.158	-0.212	-0.129
-192.217	75.295	0.137	0.142
-191.202	298.111	0.192	-0.346
-190.187	-48.640	-0.185	0.087
-189.173	-3.296	0.174	0.119
-188.158	-122.898	-0.330	0.052
-187.144	145.959	0.193	0.255
-186.129	-200.000	0.024	0.154
-185.114	41.631	0.176	0.156
-184.100	-200.000	-0.009	-0.058
-183.085	23.300	0.093	-0.075
-182.071	-3.150	0.170	0.116
-181.056	-96.427	0.282	0.073
-180.042	-130.424	0.262	0.035
-179.027	180.453	-0.141	0.202
-178.012	-82.974	-0.136	0.043
-176.998	-51.042	0.314	0.144
-175.983	-58.239	-0.140	-0.060
-174.969	-200.000	0.014	0.404
-173.954	168.607	0.209	0.292
-172.939	-109.276	0.267	-0.056
-171.925	-134.913	0.411	0.049
-170.910	223.558	-0.210	-0.333
-169.896	-21.135	0.167	-0.100
-168.881	-57.216	0.330	0.143
-167.866	81.180	0.117	0.124
-166.852	81.919	-0.088	0.094
-165.837	-99.018	0.246	-0.061
-164.823	-76.917	0.105	0.036
-163.808	134.708	-0.212	0.270
-162.793	-200.000	0.029	-0.181
-161.779	33.748	0.061	-0.052
-160.764	-200.000	0.027	-0.200
-159.750	630.713	-0.058	0.144
-158.735	-181.447	0.136	0.003
-157.720	139.130	0.007	-0.009
-156.706	102.364	0.139	-0.159
-155.691	-200.000	-0.037	-0.379
-154.677	-164.047	0.099	-0.005
-153.662	46.560	-0.120	-0.109
-152.647	-21.782	0.222	0.132
-151.633	-200.000	0.007	0.199
-150.618	-200.000	0.015	-0.135
-149.604	444.109	0.156	0.335
-148.589	73.068	0.079	-0.081
-147.574	-99.461	-0.076	-0.019
-146.560	497.496	-0.032	-0.072
-145.545	284.282	0.066	0.117
-144.531	105.587	0.098	-0.114
-143.516	-147.004	-0.140	0.012
-142.502	34.773	-0.057	0.049
-141.487	96.540	0.163	0.183
-140.472	-121.885	0.111	0.018
-139.458	-97.776	0.085	0.022
-138.443	-155.654	0.319	-0.020
-137.429	-51.998	0.351	0.160
-136.414	344.427	0.094	0.181
-135.399	-200.000	-0.021	0.193
-134.385	-200.000	0.001	0.232
-133.370	363.870	-0.139	0.273
-132.356	-170.641	-0.299	-0.010
-131.341	-105.816	0.186	-0.041
-130.326	166.620	-0.117	0.162
-129.312	-96.311	0.021	-0.005
-128.297	800.000	0.116	-0.343
-127.283	297.770	-0.115	0.206
-126.268	-13.228	0.395	0.251
-125.253	-200.000	-0.017	-0.167
-124.239	800.000	-0.082	-0.298
-123.224	51.732	0.148	-0.138
-122.210	156.779	0.125	0.169
-121.195	-156.704	-0.119	-0.007
