DTS Sentinel unit serial number:	SN413079Multiplexer serial number:	ORYXHardware model number:	OX4-SRSoftware version number:	ORYX F/W v4.00 Oryx Data Collector v3.7.2.0data status	okinstallation	princeton_trtdifferential loss correction	single-endedforward channel	channel 1reverse channel	N/Adate	2019/09/16time	17:34:35forward acquisition time	60.00reverse acquisition time	0.00gamma	496.2192k internal	0.2297k external	0.2297temperature offset calibration	0.9968default loss term (dB/km)	0.3790temperature slope calibration	1.0000multiplexer offset coefficient	1.0000multiplexer slope coefficient	1.0000fibre end	0.00T internal ref (°C)	38.37T ext. ref 1 (°C)	15.49T ext. ref 2 (°C)	32.37length (m)	temperature (°C)	Stokes	anti-Stokes-747.200	-55.505	0.246	0.113
-746.185	800.000	-0.083	0.345
-745.171	42.270	0.197	0.183
-744.156	20.576	0.324	-0.268
-743.142	-58.109	0.163	-0.073
-742.127	203.379	0.077	0.121
-741.112	89.297	0.242	-0.276
-740.098	-87.765	-0.243	-0.075
-739.083	-25.022	-0.332	-0.201
-738.069	39.562	-0.062	-0.057
-737.054	-49.063	-0.344	-0.168
-736.039	84.189	-0.228	0.255
-735.025	21.650	-0.198	0.165
-734.010	800.000	-0.128	-0.551
-732.996	-200.000	-0.011	-0.236
-731.981	655.704	0.094	0.247
-730.966	-93.047	-0.129	-0.037
-729.952	-91.245	-0.097	-0.028
-728.937	36.294	0.173	-0.155
-727.923	-42.665	0.269	-0.140
-726.908	496.053	-0.003	-0.007
-725.894	800.000	0.071	-0.208
-724.879	-143.843	-0.261	-0.025
-723.864	800.000	-0.057	-0.165
-722.850	301.128	0.161	-0.304
-721.835	-200.000	-0.013	0.097
-720.821	-200.000	0.022	0.153
-719.806	-129.119	0.270	-0.039
-718.791	182.773	-0.150	0.226
-717.777	-132.214	0.336	0.044
-716.762	800.000	0.029	-0.101
-715.748	-200.000	-0.003	0.147
-714.733	161.778	0.248	0.354
-713.718	195.260	-0.191	-0.295
-712.704	101.611	0.079	-0.094
-711.689	90.728	0.027	0.030
-710.675	176.098	-0.179	0.264
-709.660	-200.000	0.011	0.202
-708.645	144.799	0.138	0.188
-707.631	-170.497	-0.210	0.007
-706.616	-200.000	0.001	-0.085
-705.602	-1.651	0.261	-0.188
-704.587	-200.000	-0.004	0.141
-703.572	-200.000	0.032	-0.173
-702.558	-55.092	0.353	0.162
-701.543	800.000	0.079	0.276
-700.529	-56.894	-0.108	-0.049
-699.514	-121.150	0.155	-0.026
-698.499	-86.697	0.201	-0.063
-697.485	183.675	0.062	0.093
-696.470	800.000	-0.045	-0.150
-695.456	-1.148	0.148	0.107
-694.441	800.000	-0.090	-0.254
-693.426	-135.812	-0.158	0.019
-692.412	-123.653	0.466	0.075
-691.397	-175.350	-0.174	-0.005
-690.383	-200.000	0.007	-0.264
-689.368	82.393	-0.064	0.071
-688.354	800.000	0.038	-0.118
-687.339	367.140	0.034	-0.070
-686.324	-108.733	0.080	-0.017
-685.310	800.000	0.060	0.190
-684.295	-88.044	-0.073	0.022
-683.281	-144.060	-0.206	0.020
-682.266	-84.249	0.099	0.032
-681.251	-23.359	-0.229	0.141
-680.237	595.668	0.086	0.216
-679.222	184.760	0.248	-0.375
-678.208	74.179	-0.211	-0.226
-677.193	-192.725	-0.154	-0.001
-676.178	550.898	0.088	0.215
-675.164	75.338	-0.205	0.220
-674.149	-118.554	0.073	-0.013
-673.135	625.957	-0.168	0.431
-672.120	599.944	0.061	0.155
-671.105	-60.256	-0.318	-0.138
-670.091	114.333	-0.013	-0.016
-669.076	-153.982	-0.055	-0.004
-668.062	325.413	-0.054	-0.105
-667.047	-103.632	-0.223	-0.053
-666.032	-200.000	0.035	0.232
-665.018	800.000	-0.060	0.180
-664.003	-0.761	-0.158	-0.114
-662.989	494.304	-0.111	-0.260
-661.974	237.851	0.120	0.202
-660.959	143.623	0.185	-0.252
-659.945	215.480	0.116	-0.188
-658.930	220.679	-0.070	-0.114
-657.916	12.508	0.189	0.148
-656.901	800.000	0.016	-0.058
-655.886	-44.177	0.155	0.079
-654.872	-43.780	-0.097	0.050
-653.857	-26.390	-0.342	-0.204
-652.843	800.000	0.050	-0.175
-651.828	-105.566	-0.414	-0.096
-650.814	-167.572	-0.328	-0.013
-649.799	-73.576	-0.282	-0.105
-648.784	36.206	-0.066	0.059
-647.770	-44.329	0.129	-0.066
-646.755	-33.562	-0.125	0.070
-645.741	220.255	-0.047	0.077
-644.726	-128.310	0.125	0.018
-643.711	-100.787	-0.034	-0.009
-642.697	-200.000	-0.027	0.254
-641.682	-68.393	0.278	0.110
-640.668	-53.833	-0.177	-0.082
-639.653	179.869	-0.101	-0.151
-638.638	-178.774	0.363	-0.008
-637.624	-82.272	-0.338	-0.112
-636.609	-102.107	-0.210	-0.051
-635.595	180.253	0.209	0.312
-634.580	460.555	-0.112	-0.254
-633.565	-49.148	0.119	-0.058
-632.551	-20.114	-0.344	0.216
-631.536	-145.685	-0.326	0.030
-630.522	-108.049	0.301	-0.066
-629.507	393.599	0.154	0.326
-628.492	800.000	-0.085	-0.348
-627.478	95.998	0.089	-0.103
-626.463	41.994	-0.174	-0.160
-625.449	95.828	-0.157	0.183
-624.434	-72.574	-0.232	0.087
-623.419	191.294	-0.201	-0.308
-622.405	800.000	-0.067	0.189
-621.390	-87.511	0.114	-0.035
-620.376	51.171	-0.098	-0.095
-619.361	-200.000	-0.053	-0.241
-618.346	-200.000	-0.055	-0.250
-617.332	-200.000	-0.023	-0.176
-616.317	38.212	0.247	0.224
-615.303	-200.000	-0.005	0.089
-614.288	800.000	0.058	-0.245
-613.273	-200.000	0.034	0.446
-612.259	800.000	-0.025	0.107
-611.244	-200.000	0.076	0.395
-610.230	-142.375	-0.186	0.019
-609.215	287.596	-0.083	0.153
-608.201	-200.000	-0.004	0.121
-607.186	-74.032	-0.345	-0.127
-606.171	99.178	-0.185	-0.217
-605.157	181.440	-0.097	0.144
-604.142	-78.746	0.120	-0.042
-603.128	7.253	0.094	-0.071
-602.113	21.148	-0.115	-0.095
-601.098	-200.000	-0.043	-0.424
-600.084	345.687	-0.104	-0.208
-599.069	-59.278	-0.069	-0.030
-598.055	-154.102	0.147	0.010
-597.040	-35.068	-0.110	-0.061
-596.025	68.117	-0.087	0.090
-595.011	663.958	-0.134	-0.351
-593.996	-98.428	0.099	0.026
-592.982	-200.000	0.038	0.298
-591.967	-200.000	-0.091	0.414
-590.952	-94.090	0.264	-0.073
-589.938	-29.362	0.306	0.178
-588.923	-5.996	0.377	0.261
-587.909	-105.086	-0.032	-0.008
-586.894	168.296	0.110	-0.158
-585.879	0.239	-0.141	0.102
-584.865	-200.000	0.007	-0.040
-583.850	-65.367	0.290	-0.118
-582.836	119.877	0.082	0.103
-581.821	800.000	-0.077	0.300
-580.806	-87.746	-0.252	-0.077
-579.792	164.641	0.145	-0.208
-578.777	-65.680	0.223	-0.091
-577.763	-130.753	0.058	-0.008
-576.748	-200.000	0.006	0.048
-575.733	-200.000	0.034	0.162
-574.719	275.404	-0.133	0.239
-573.704	-81.518	-0.221	0.074
-572.690	-121.626	0.213	-0.036
-571.675	42.248	-0.225	-0.208
-570.661	-125.933	0.043	0.007
-569.646	47.674	0.125	-0.119
-568.631	-200.000	0.111	0.000
-567.617	113.064	0.124	0.153
-566.602	371.753	0.048	0.098
-565.588	507.249	-0.070	0.165
-564.573	-64.684	0.094	-0.039
-563.558	-200.000	0.026	-0.272
-562.544	376.436	-0.017	0.036
-561.529	201.201	-0.121	-0.189
-560.515	-129.039	0.447	-0.063
-559.500	236.866	0.125	0.209
-558.485	-165.146	-0.111	-0.005
-557.471	-22.297	-0.160	-0.098
-556.456	-93.537	-0.167	-0.047
-555.442	-33.339	0.202	0.113
-554.427	-93.609	0.237	-0.066
-553.412	-57.162	0.054	0.024
-552.398	14.581	-0.256	-0.203
-551.383	-200.000	0.028	-0.223
-550.369	-12.771	0.293	-0.194
-549.354	119.190	0.124	-0.155
-548.339	-68.683	0.116	-0.046
-547.325	-45.611	0.254	-0.128
-546.310	86.890	-0.108	0.120
-545.296	800.000	0.009	0.026
-544.281	7.232	0.073	0.055
-543.266	-87.316	0.470	-0.144
-542.252	-135.045	-0.240	0.029
-541.237	63.982	-0.102	0.104
-540.223	136.803	-0.138	-0.182
-539.208	-200.000	-0.037	0.164
-538.193	-125.226	-0.483	-0.075
-537.179	55.676	-0.183	-0.179
-536.164	800.000	-0.055	-0.157
-535.150	-200.000	0.015	0.214
-534.135	-46.603	0.233	0.116
-533.121	-200.000	-0.079	-0.396
-532.106	46.570	0.197	0.185
-531.091	50.750	0.146	-0.140
-530.077	267.845	0.087	-0.154
-529.062	125.447	-0.161	-0.206
-528.048	87.395	-0.074	-0.083
-527.033	176.643	0.070	-0.103
-526.018	583.116	0.147	-0.365
-525.004	479.595	0.054	0.123
-523.989	-142.516	0.014	-0.001
-522.975	-48.565	-0.169	0.082
-521.960	-166.566	-0.020	0.001
-520.945	800.000	-0.056	0.188
-519.931	425.845	0.142	0.309
-518.916	244.041	0.101	-0.172
-517.902	24.208	-0.119	-0.100
-516.887	-22.361	-0.131	0.081
-515.872	675.429	0.159	-0.418
-514.858	605.937	0.158	-0.399
-513.843	-58.987	-0.200	-0.088
-512.829	485.705	0.041	-0.094
-511.814	-184.554	0.303	-0.005
-510.799	-84.148	-0.086	-0.028
-509.785	-40.905	-0.371	-0.194
-508.770	-21.064	0.242	-0.150
-507.756	800.000	0.082	0.256
-506.741	38.203	-0.051	0.046
-505.726	-5.904	-0.176	-0.122
-504.712	-149.990	-0.104	0.008
-503.697	94.640	0.101	-0.117
-502.683	-48.726	-0.240	-0.117
-501.668	-95.446	-0.200	-0.054
-500.653	-55.048	-0.188	0.086
-499.639	50.221	0.031	-0.030
-498.624	714.369	0.035	0.095
-497.610	800.000	0.063	0.249
-496.595	-132.373	0.256	0.033
-495.581	-23.472	-0.118	-0.072
-494.566	-27.057	0.190	0.112
-493.551	239.064	0.166	0.279
-492.537	-102.106	-0.272	0.066
-491.522	567.821	0.017	-0.042
-490.508	-179.929	-0.174	0.004
-489.493	61.760	-0.131	-0.132
-488.478	86.972	0.120	0.134
-487.464	89.820	0.086	-0.097
-486.449	-5.760	0.138	-0.096
-485.435	-81.326	0.251	-0.084
-484.420	-130.193	-0.132	0.018
-483.405	-20.232	-0.174	-0.108
-482.391	161.313	0.139	-0.196
-481.376	-9.875	0.145	-0.097
-480.362	289.011	-0.068	-0.125
-479.347	-16.272	-0.397	-0.255
-478.332	107.450	-0.221	0.266
-477.318	800.000	-0.043	0.127
-476.303	206.339	0.094	0.149
-475.289	117.724	-0.208	0.259
-474.274	74.641	-0.100	-0.106
-473.259	259.430	0.066	0.114
-472.245	-200.000	-0.015	-0.113
-471.230	-160.078	0.299	0.016
-470.216	-134.373	-0.246	0.030
-469.201	170.203	0.120	-0.173
-468.186	-57.309	0.178	0.079
-467.172	-181.411	0.206	-0.004
-466.157	800.000	0.073	-0.270
-465.143	-92.764	-0.534	0.151
-464.128	-160.302	-0.200	0.011
-463.113	104.220	-0.334	0.397
-462.099	-5.425	0.268	-0.186
-461.084	-200.000	-0.009	0.198
-460.070	-162.008	0.100	0.005
-459.055	-66.733	-0.118	-0.047
-458.040	-0.939	0.120	-0.086
-457.026	-132.795	-0.198	0.025
-456.011	-177.782	-0.148	0.004
-454.997	-87.092	0.238	0.073
-453.982	-200.000	0.019	0.166
-452.968	46.537	0.166	-0.156
-451.953	800.000	-0.044	-0.184
-450.938	-13.724	-0.228	-0.149
-449.924	-200.000	0.025	-0.355
-448.909	138.515	0.155	-0.205
-447.895	14.540	-0.160	-0.126
-446.880	-80.398	-0.270	0.091
-445.865	54.214	0.164	0.160
-444.851	-200.000	0.006	0.056
-443.836	-57.684	-0.350	-0.155
-442.822	-200.000	-0.028	-0.308
-441.807	345.242	0.117	-0.233
-440.792	688.030	0.062	0.165
-439.778	-40.956	-0.181	0.095
-438.763	493.661	-0.078	-0.180
-437.749	18.162	0.189	0.152
-436.734	-200.000	0.017	-0.115
-435.719	800.000	-0.128	0.484
-434.705	423.959	0.039	0.085
-433.690	-106.325	-0.131	-0.030
-432.676	200.359	0.168	0.260
-431.661	-136.466	-0.149	-0.017
-430.646	-55.771	0.104	0.047
-429.632	1.096	-0.441	-0.320
-428.617	-200.000	-0.055	-0.296
-427.603	219.368	0.109	-0.176
-426.588	-200.000	0.008	-0.211
-425.573	-200.000	-0.057	0.261
-424.559	-97.882	-0.258	0.067
-423.544	201.996	0.077	0.120
-422.530	75.585	0.300	-0.320
-421.515	715.835	-0.065	-0.174
-420.500	-39.910	0.101	-0.053
-419.486	-200.000	-0.015	-0.081
-418.471	142.535	-0.103	-0.138
-417.457	-16.610	-0.070	0.045
-416.442	-18.625	-0.198	0.124
-415.428	24.769	-0.104	0.087
-414.413	-15.498	0.111	0.071
-413.398	-200.000	-0.014	0.262
-412.384	3.493	-0.344	0.253
-411.369	-195.611	0.095	-0.001
-410.355	-97.221	0.172	-0.045
-409.340	7.776	-0.328	0.248
-408.325	-62.324	0.216	-0.091
-407.311	632.519	-0.050	-0.128
-406.296	337.226	-0.090	0.176
-405.282	-74.631	0.120	-0.044
-404.267	-127.776	0.117	-0.017
-403.252	86.726	0.174	-0.194
-402.238	800.000	0.032	0.105
-401.223	112.450	-0.090	-0.110
-400.209	-30.347	0.062	-0.035
-399.194	-200.000	-0.006	-0.349
-398.179	-200.000	-0.041	-0.314
-397.165	288.766	-0.100	-0.182
-396.150	-200.000	-0.049	-0.249
-395.136	-200.000	-0.000	-0.249
-394.121	-118.311	0.139	-0.025
-393.106	-60.738	-0.151	-0.065
-392.092	-16.999	0.107	-0.068
-391.077	-32.133	-0.146	-0.082
-390.063	-127.102	0.377	-0.056
-389.048	-106.653	-0.058	-0.013
-388.033	64.365	0.261	-0.265
-387.019	-200.000	0.019	-0.346
-386.004	-67.720	-0.161	0.064
-384.990	-200.000	-0.036	0.273
-383.975	-47.998	-0.161	0.078
-382.960	-200.000	-0.002	0.219
-381.946	142.097	-0.185	0.247
-380.931	-166.624	0.127	-0.005
-379.917	-200.000	-0.026	0.276
-378.902	-200.000	0.005	0.033
-377.888	417.617	-0.054	0.117
-376.873	-200.000	0.019	-0.182
-375.858	-150.273	-0.236	-0.018
-374.844	283.803	-0.052	0.095
-373.829	-97.884	0.225	0.058
-372.815	800.000	0.040	-0.171
-371.800	320.407	-0.051	-0.097
-370.785	-100.911	-0.189	-0.047
-369.771	64.283	0.108	0.109
-368.756	-0.210	0.206	0.148
-367.742	-88.660	0.044	0.013
-366.727	279.695	0.068	0.123
-365.712	511.701	0.019	-0.043
-364.698	-156.936	0.328	0.020
-363.683	245.373	-0.160	0.271
-362.669	81.047	0.106	0.115
-361.654	-200.000	0.030	0.330
-360.639	-27.980	0.132	0.077
-359.625	-57.224	-0.100	0.044
-358.610	800.000	-0.069	0.211
-357.596	-200.000	0.045	-0.269
-356.581	-180.669	0.286	-0.006
-355.566	-91.726	-0.248	-0.071
-354.552	76.322	-0.177	0.189
-353.537	-175.622	0.161	-0.004
-352.523	-77.535	0.065	0.023
-351.508	-16.643	-0.054	0.035
-350.493	393.786	0.085	-0.179
-349.479	800.000	0.024	-0.091
-348.464	-200.000	0.001	-0.057
-347.450	-177.052	-0.244	-0.006
-346.435	121.605	0.112	-0.141
-345.420	165.976	0.243	0.346
-344.406	61.183	-0.192	-0.192
-343.391	134.057	0.051	-0.067
-342.377	-64.185	-0.149	-0.061
-341.362	248.787	0.137	-0.233
-340.348	-47.925	0.140	-0.068
-339.333	-200.000	-0.026	0.171
-338.318	-200.000	0.017	0.166
-337.304	-50.588	0.184	-0.087
-336.289	800.000	-0.082	-0.273
-335.275	-45.461	0.192	0.096
-334.260	4.102	-0.156	-0.115
-333.245	-200.000	-0.015	-0.235
-332.231	78.202	-0.056	-0.060
-331.216	-164.836	-0.113	-0.005
-330.202	109.438	0.087	-0.104
-329.187	51.600	-0.195	0.187
-328.172	800.000	-0.057	0.205
-327.158	-116.928	0.139	-0.025
-326.143	110.997	0.090	0.109
-325.129	493.267	-0.101	-0.233
-324.114	-80.688	-0.217	0.072
-323.099	355.409	0.167	0.334
-322.085	-29.427	0.350	0.201
-321.070	800.000	-0.071	0.267
-320.056	-7.836	0.204	-0.138
-319.041	-113.542	-0.259	0.051
-318.026	507.703	-0.046	0.107
-317.012	-66.831	-0.244	0.097
-315.997	-62.007	0.362	0.152
-314.983	42.856	-0.041	0.038
-313.968	-67.075	0.160	-0.063
-312.953	-38.000	-0.210	-0.112
-311.939	148.522	-0.092	0.124
-310.924	40.428	0.151	-0.136
-309.910	-95.208	0.172	0.047
-308.895	669.306	-0.077	0.199
-307.880	-200.000	-0.026	-0.189
-306.866	-33.483	0.264	-0.146
-305.851	468.279	0.058	0.131
-304.837	-140.089	-0.226	0.024
-303.822	691.087	-0.105	-0.276
-302.807	-141.055	-0.171	-0.018
-301.793	-200.000	-0.001	0.126
-300.778	-97.832	-0.206	-0.053
-299.764	-116.813	-0.130	-0.024
-298.749	-20.561	-0.228	0.140
-297.735	418.112	0.092	0.197
-296.720	-200.000	-0.034	-0.186
-295.705	-200.000	0.026	0.181
-294.691	-200.000	0.006	-0.238
-293.676	-170.987	0.168	-0.006
-292.662	-146.966	0.364	-0.031
-291.647	-176.764	-0.153	0.004
-290.632	-200.000	0.007	0.094
-289.618	-74.717	-0.052	0.019
-288.603	-103.858	0.200	0.047
-287.589	660.322	0.088	-0.226
-286.574	-157.366	0.303	-0.018
-285.559	-200.000	0.016	0.306
-284.545	270.636	0.055	-0.097
-283.530	-144.225	-0.194	0.018
-282.516	800.000	-0.101	-0.354
-281.501	68.772	0.053	0.054
-280.486	71.130	0.207	0.216
-279.472	-167.843	-0.364	-0.014
-278.457	-39.866	0.120	0.063
-277.443	800.000	-0.055	-0.226
-276.428	-200.000	0.058	0.351
-275.413	29.151	0.121	0.103
-274.399	84.512	-0.278	0.305
-273.384	-200.000	-0.033	-0.170
-272.370	-102.315	0.159	-0.038
-271.355	253.514	-0.026	-0.044
-270.340	-36.746	0.206	-0.111
-269.326	-65.910	-0.427	0.171
-268.311	2.811	-0.114	-0.083
-267.297	5.951	0.235	-0.175
-266.282	97.816	-0.180	0.208
-265.267	-200.000	0.011	-0.107
-264.253	-138.457	0.170	-0.019
-263.238	-131.921	-0.246	0.032
-262.224	49.578	0.122	0.115
-261.209	-149.335	0.241	-0.019
-260.195	43.971	-0.101	0.093
-259.180	-178.311	-0.110	0.003
-258.165	-59.652	0.270	0.116
-257.151	-116.776	0.181	-0.033
-256.136	218.106	-0.149	-0.239
-255.122	27.404	0.195	-0.164
-254.107	158.144	-0.030	0.042
-253.092	-29.964	0.133	-0.076
-252.078	-200.000	0.077	-0.552
-251.063	-128.794	0.190	0.027
-250.049	157.726	-0.199	-0.276
-249.034	134.098	-0.075	-0.098
-248.019	800.000	0.095	0.335
-247.005	-88.151	0.089	-0.027
-245.990	-58.720	-0.178	0.077
-244.976	-200.000	0.050	0.299
-243.961	-54.243	0.141	0.064
-242.946	-200.000	0.008	0.148
-241.932	97.373	-0.126	-0.145
-240.917	-147.295	0.254	-0.022
-239.903	601.689	0.102	0.254
-238.888	-156.240	-0.162	-0.010
-237.873	-83.316	-0.323	-0.104
-236.859	-112.997	0.196	-0.039
-235.844	-200.000	0.043	0.200
-234.830	-200.000	-0.046	0.553
-233.815	304.120	-0.124	0.230
-232.800	800.000	-0.116	0.354
-231.786	78.801	0.240	0.257
-230.771	800.000	-0.075	0.306
-229.757	-119.266	0.212	-0.037
-228.742	177.082	-0.145	-0.212
-227.727	474.322	-0.083	0.189
-226.713	-200.000	0.012	0.123
-225.698	-97.810	-0.361	-0.093
-224.684	114.598	-0.236	0.288
-223.669	800.000	-0.046	0.191
-222.655	-9.560	0.358	-0.239
-221.640	-30.787	-0.376	-0.213
-220.625	189.320	-0.064	-0.096
-219.611	35.832	0.284	-0.250
-218.596	-10.529	-0.144	0.096
-217.582	-60.505	-0.221	0.094
-216.567	-106.064	0.250	0.056
-215.552	800.000	-0.015	0.057
-214.538	800.000	0.076	0.229
-213.523	160.561	0.206	-0.287
-212.509	-137.948	0.256	-0.029
-211.494	800.000	0.072	0.235
-210.479	-200.000	-0.011	-0.338
-209.465	7.180	-0.125	-0.093
-208.450	65.587	0.030	0.030
-207.436	800.000	-0.045	-0.151
-206.421	-76.333	0.158	-0.056
-205.406	-152.807	0.394	-0.028
-204.392	-122.012	-0.240	0.039
-203.377	-56.108	-0.216	0.096
-202.363	-100.371	0.117	0.029
-201.348	-136.415	0.073	-0.009
-200.333	331.921	-0.276	0.533
-199.319	246.891	0.132	0.222
-198.304	333.783	-0.139	-0.270
-197.290	-200.000	0.011	0.063
-196.275	-90.795	-0.204	-0.059
-195.260	105.220	0.139	-0.164
-194.246	278.532	-0.029	-0.052
-193.231	-103.439	-0.135	-0.032
-192.217	89.824	-0.118	0.131
-191.202	-130.249	0.076	0.010
-190.187	101.937	0.178	-0.208
-189.173	-62.611	-0.238	0.099
-188.158	179.790	-0.108	0.158
-187.144	-145.587	-0.175	0.016
-186.129	-82.794	0.186	-0.060
-185.114	138.342	0.058	-0.076
-184.100	800.000	0.049	-0.156
-183.085	800.000	-0.100	0.300
-182.071	-200.000	-0.012	0.246
-181.056	-200.000	-0.000	0.220
-180.042	800.000	0.058	0.182
-179.027	-117.976	0.181	-0.032
-178.012	-145.799	0.369	-0.033
-176.998	22.919	0.263	0.215
-175.983	-75.738	0.256	0.091
-174.969	-32.398	-0.321	-0.179
-173.954	-55.057	-0.224	0.101
-172.939	-43.535	0.072	-0.036
-171.925	301.197	0.096	0.177
-170.910	-29.144	-0.105	0.060
-169.896	-200.000	0.010	0.123
-168.881	800.000	-0.043	-0.151
-167.866	-7.666	0.222	0.150
-166.852	69.897	0.316	0.325
-165.837	297.844	0.109	0.200
-164.823	-141.305	0.178	0.018
-163.808	46.486	-0.154	-0.143
-162.793	308.937	-0.103	-0.191
-161.779	-45.778	-0.077	-0.038
-160.764	-54.489	0.177	-0.080
-159.750	34.317	0.142	0.124
-158.735	105.629	-0.167	-0.197
-157.720	19.630	-0.228	-0.183
-156.706	-200.000	0.017	0.124
-155.691	153.042	-0.180	0.246
-154.677	-69.412	0.175	0.067
-153.662	-86.403	0.210	0.065
-152.647	223.760	0.137	-0.220
-151.633	-173.316	-0.021	0.001
-150.618	800.000	-0.038	0.157
-149.604	79.588	-0.159	0.170
-148.589	-44.935	-0.078	0.039
-147.574	-60.063	-0.218	-0.093
-146.560	-200.000	-0.022	-0.296
-145.545	-24.151	-0.307	0.183
-144.531	248.727	0.030	0.051
-143.516	333.988	-0.158	-0.305
-142.502	297.164	0.145	-0.266
-141.487	159.863	-0.047	0.065
-140.472	70.322	-0.118	0.121
-139.458	-30.241	-0.214	-0.121
-138.443	450.201	-0.080	-0.176
-137.429	-110.863	0.169	0.035
-136.414	-131.963	0.363	0.047
-135.399	-200.000	-0.083	0.432
-134.385	-81.683	-0.250	0.082
-133.370	-33.430	0.231	0.127
-132.356	800.000	0.119	-0.383
-131.341	43.850	0.132	-0.121
-130.326	-79.285	0.227	0.077
-129.312	-200.000	0.003	0.198
-128.297	-29.212	0.074	0.042
-127.283	-8.480	-0.167	0.112
-126.268	-72.191	0.168	-0.062
-125.253	393.744	0.082	0.170
-124.239	548.430	-0.116	0.278
-123.224	-141.494	0.102	0.010
-122.210	201.984	0.140	0.215
