DTS Sentinel unit serial number:	SN413079Multiplexer serial number:	ORYXHardware model number:	OX4-SRSoftware version number:	ORYX F/W v4.00 Oryx Data Collector v3.7.2.0data status	okinstallation	princeton_trtdifferential loss correction	single-endedforward channel	channel 1reverse channel	N/Adate	2019/09/16time	01:06:35forward acquisition time	60.00reverse acquisition time	0.00gamma	496.2192k internal	0.2335k external	0.2335temperature offset calibration	0.9973default loss term (dB/km)	0.3790temperature slope calibration	1.0000multiplexer offset coefficient	1.0000multiplexer slope coefficient	1.0000fibre end	0.00T internal ref (°C)	27.31T ext. ref 1 (°C)	9.77T ext. ref 2 (°C)	21.57length (m)	temperature (°C)	Stokes	anti-Stokes-747.200	228.296	-0.044	-0.071
-746.185	-10.293	-0.165	-0.110
-745.171	10.508	-0.232	0.178
-744.156	-71.360	-0.078	0.029
-743.142	55.853	0.248	0.241
-742.127	230.309	0.077	0.126
-741.112	62.155	0.134	-0.134
-740.098	718.459	-0.085	0.228
-739.083	-200.000	0.049	0.272
-738.069	-48.737	0.316	0.152
-737.054	-200.000	0.054	-0.248
-736.039	800.000	-0.055	-0.222
-735.025	63.278	0.343	-0.345
-734.010	736.613	-0.095	-0.256
-732.996	-120.209	-0.132	-0.023
-731.981	-16.273	0.292	-0.186
-730.966	-102.691	0.368	-0.088
-729.952	148.292	0.080	0.108
-728.937	800.000	0.028	0.078
-727.923	15.208	-0.230	-0.181
-726.908	-79.868	0.186	0.063
-725.894	-42.913	-0.155	-0.079
-724.879	-58.797	-0.215	0.093
-723.864	-122.401	-0.138	0.023
-722.850	694.328	-0.157	0.412
-721.835	208.168	0.056	-0.088
-720.821	800.000	-0.023	0.086
-719.806	-200.000	0.014	0.284
-718.791	-200.000	0.009	0.068
-717.777	190.828	0.073	-0.110
-716.762	198.622	-0.179	0.276
-715.748	-127.956	0.093	0.013
-714.733	27.703	0.172	0.146
-713.718	-200.000	0.047	0.237
-712.704	-155.864	-0.191	-0.012
-711.689	-104.808	-0.302	0.070
-710.675	-152.331	0.118	0.009
-709.660	366.903	-0.155	0.315
-708.645	131.321	0.176	0.227
-707.631	-71.704	0.302	0.113
-706.616	800.000	-0.015	-0.067
-705.602	22.858	0.364	0.299
-704.587	-200.000	-0.065	0.531
-703.572	-75.879	-0.219	-0.078
-702.558	42.578	0.145	0.132
-701.543	-49.079	-0.405	0.194
-700.529	57.617	-0.046	-0.045
-699.514	-124.490	-0.226	0.035
-698.499	-22.419	0.276	0.168
-697.485	-32.557	0.222	-0.124
-696.470	302.767	-0.137	-0.255
-695.456	69.064	-0.177	0.182
-694.441	800.000	-0.037	-0.160
-693.426	-200.000	0.013	-0.156
-692.412	116.890	-0.041	-0.051
-691.397	-141.967	-0.334	0.033
-690.383	104.638	-0.099	0.117
-689.368	-69.789	-0.337	-0.129
-688.354	427.674	-0.067	-0.146
-687.339	120.204	0.138	0.171
-686.324	3.308	-0.063	0.046
-685.310	187.103	-0.083	0.124
-684.295	111.742	0.173	-0.209
-683.281	-200.000	0.010	-0.062
-682.266	800.000	0.063	-0.177
-681.251	-11.307	0.233	0.154
-680.237	676.812	-0.058	-0.152
-679.222	-200.000	0.001	-0.037
-678.208	413.267	-0.135	-0.288
-677.193	513.260	0.134	0.313
-676.178	-69.839	0.234	0.089
-675.164	113.681	0.164	-0.200
-674.149	567.270	0.091	-0.222
-673.135	-57.887	0.206	0.090
-672.120	800.000	0.038	-0.117
-671.105	800.000	-0.032	0.123
-670.091	-103.019	-0.068	-0.016
-669.076	800.000	-0.026	-0.091
-668.062	-168.565	0.383	-0.015
-667.047	3.580	-0.259	-0.189
-666.032	365.669	-0.140	0.283
-665.018	641.239	-0.068	0.175
-664.003	-85.621	0.241	-0.075
-662.989	-200.000	0.024	-0.217
-661.974	-114.426	0.289	-0.056
-660.959	-138.838	0.482	0.053
-659.945	-49.091	0.169	-0.081
-658.930	-16.180	-0.284	0.181
-657.916	-11.874	-0.129	-0.085
-656.901	-9.205	-0.162	0.109
-655.886	-44.391	-0.238	-0.119
-654.872	618.922	0.067	-0.169
-653.857	210.333	-0.129	-0.203
-652.843	258.958	-0.051	-0.088
-651.828	78.918	-0.112	0.120
-650.814	166.760	-0.121	0.172
-649.799	-128.113	-0.351	0.050
-648.784	-65.904	-0.257	0.103
-647.770	-144.195	-0.504	0.047
-646.755	130.666	0.073	0.093
-645.741	226.288	0.108	-0.175
-644.726	-163.910	-0.311	-0.015
-643.711	-93.806	0.177	-0.049
-642.697	61.039	0.104	-0.104
-641.682	86.725	0.128	0.141
-640.668	-23.914	-0.301	0.180
-639.653	36.299	0.092	-0.081
-638.638	800.000	0.061	0.193
-637.624	92.533	-0.093	0.105
-636.609	-106.364	-0.370	-0.083
-635.595	-200.000	0.024	-0.264
-634.580	37.318	0.071	0.063
-633.565	124.919	-0.105	-0.133
-632.551	8.713	-0.353	0.266
-631.536	-200.000	-0.057	-0.465
-630.522	67.044	-0.188	-0.192
-629.507	-5.512	-0.079	-0.054
-628.492	14.712	-0.250	-0.195
-627.478	467.476	0.046	0.102
-626.463	-19.002	0.112	-0.070
-625.449	222.764	0.029	0.047
-624.434	-40.529	0.180	-0.093
-623.419	180.976	-0.202	-0.297
-622.405	-114.385	0.121	-0.023
-621.390	-134.547	-0.290	-0.035
-620.376	-155.629	0.056	0.004
-619.361	800.000	0.030	0.128
-618.346	-200.000	0.007	0.064
-617.332	-156.986	0.256	-0.016
-616.317	207.670	-0.172	-0.268
-615.303	800.000	-0.136	-0.545
-614.288	604.548	-0.053	0.132
-613.273	-85.976	-0.229	-0.071
-612.259	202.159	0.096	0.148
-611.244	-200.000	-0.022	0.150
-610.230	-66.425	-0.058	0.023
-609.215	-200.000	0.020	0.237
-608.201	-200.000	0.022	-0.191
-607.186	-121.538	-0.076	0.013
-606.171	-200.000	-0.041	-0.193
-605.157	800.000	-0.082	-0.230
-604.142	-33.105	-0.142	-0.079
-603.128	-70.945	0.300	-0.113
-602.113	-61.920	-0.097	0.041
-601.098	-200.000	0.163	-0.000
-600.084	172.097	0.095	0.137
-599.069	209.348	-0.160	0.250
-598.055	-176.610	-0.150	-0.004
-597.040	-200.000	-0.037	-0.272
-596.025	800.000	0.046	-0.193
-595.011	-200.000	-0.374	0.001
-593.996	-200.000	0.005	0.098
-592.982	-49.683	-0.166	-0.079
-591.967	-200.000	0.024	0.482
-590.952	202.663	-0.188	0.290
-589.938	397.327	-0.105	-0.219
-588.923	108.686	-0.051	-0.061
-587.909	-60.383	-0.038	-0.016
-586.894	54.685	-0.113	-0.109
-585.879	800.000	0.085	-0.258
-584.865	242.263	0.062	-0.103
-583.850	800.000	0.112	0.384
-582.836	5.082	0.141	0.104
-581.821	-200.000	0.023	0.288
-580.806	43.813	-0.132	-0.120
-579.792	-117.107	0.512	0.093
-578.777	-104.481	-0.112	-0.026
-577.763	367.098	0.106	-0.214
-576.748	15.123	0.202	0.158
-575.733	129.246	0.068	-0.087
-574.719	92.064	0.176	-0.198
-573.704	160.224	-0.091	-0.126
-572.690	195.682	0.036	-0.054
-571.675	-98.548	-0.382	-0.097
-570.661	357.799	0.044	-0.089
-569.646	616.194	0.027	-0.069
-568.631	129.685	-0.057	0.073
-567.617	800.000	0.072	-0.207
-566.602	87.871	-0.189	0.209
-565.588	103.383	0.201	0.235
-564.573	-162.059	0.196	-0.010
-563.558	-190.503	0.137	-0.001
-562.544	172.528	-0.059	-0.084
-561.529	-47.766	0.277	0.134
-560.515	-24.018	0.039	0.023
-559.500	-56.518	0.275	0.122
-558.485	176.080	0.247	0.358
-557.471	800.000	0.073	-0.279
-556.456	-147.148	0.144	0.012
-555.442	-19.596	-0.371	-0.229
-554.427	42.124	0.186	-0.168
-553.412	-200.000	0.014	-0.268
-552.398	238.957	0.064	-0.107
-551.383	310.108	0.141	0.263
-550.369	800.000	0.024	-0.092
-549.354	61.972	-0.204	0.202
-548.339	225.074	-0.037	-0.059
-547.325	-69.609	0.168	-0.064
-546.310	-54.492	0.306	0.138
-545.296	455.932	-0.119	0.264
-544.281	-200.000	-0.020	0.170
-543.266	40.078	0.186	-0.167
-542.252	135.053	-0.147	0.191
-541.237	-16.896	-0.299	-0.188
-540.223	-89.347	0.065	-0.019
-539.208	-200.000	-0.029	-0.351
-538.193	800.000	0.042	-0.135
-537.179	-102.831	-0.108	-0.026
-536.164	-200.000	0.008	-0.048
-535.150	-168.888	0.024	-0.001
-534.135	1.269	-0.141	-0.101
-533.121	-89.059	-0.170	-0.050
-532.106	135.817	0.106	-0.138
-531.091	-84.937	-0.374	0.117
-530.077	-150.258	-0.417	0.032
-529.062	-118.873	-0.263	-0.046
-528.048	-200.000	0.027	-0.339
-527.033	-192.025	0.184	-0.002
-526.018	32.645	0.180	-0.155
-525.004	286.558	-0.105	0.189
-523.989	428.737	-0.115	-0.248
-522.975	159.827	0.107	-0.149
-521.960	146.287	0.113	-0.151
-520.945	-200.000	0.003	0.089
-519.931	800.000	0.090	-0.301
-518.916	-200.000	-0.002	-0.353
-517.902	-54.485	-0.150	-0.068
-516.887	-170.025	-0.171	-0.006
-515.872	-200.000	0.017	-0.150
-514.858	101.093	0.051	-0.059
-513.843	800.000	0.088	-0.265
-512.829	-137.095	0.329	0.037
-511.814	29.294	-0.076	-0.064
-510.799	-200.000	0.007	-0.031
-509.785	310.420	-0.068	0.127
-508.770	125.119	0.117	0.147
-507.756	800.000	-0.060	-0.166
-506.741	-110.043	0.555	0.115
-505.726	69.692	-0.201	0.206
-504.712	312.335	0.162	-0.303
-503.697	183.531	0.113	-0.166
-502.683	187.272	-0.197	-0.293
-501.668	175.811	0.052	0.075
-500.653	446.058	-0.027	0.059
-499.639	-200.000	0.006	0.028
-498.624	-200.000	-0.019	0.456
-497.610	25.378	0.052	-0.043
-496.595	358.425	-0.153	-0.303
-495.581	-200.000	0.029	-0.243
-494.566	154.028	-0.032	0.044
-493.551	800.000	0.044	-0.161
-492.537	250.590	0.082	-0.138
-491.522	-200.000	0.030	-0.156
-490.508	-143.767	-0.079	-0.007
-489.493	-200.000	0.042	0.229
-488.478	-83.322	-0.176	0.056
-487.464	210.158	0.086	0.134
-486.449	-200.000	0.017	0.192
-485.435	-106.402	-0.237	-0.053
-484.420	-181.363	0.274	0.005
-483.405	-200.000	-0.012	-0.144
-482.391	86.448	-0.167	-0.183
-481.376	-200.000	-0.021	-0.179
-480.362	-200.000	0.018	-0.120
-479.347	56.330	0.083	0.081
-478.332	-22.460	0.102	0.061
-477.318	515.052	0.213	-0.495
-476.303	-200.000	-0.044	-0.210
-475.289	800.000	0.027	0.075
-474.274	0.248	0.222	-0.157
-473.259	-94.080	-0.167	-0.046
-472.245	-43.517	0.178	0.089
-471.230	286.830	0.010	0.019
-470.216	356.242	0.156	0.309
-469.201	-9.934	-0.195	-0.129
-468.186	-187.913	-0.265	0.003
-467.172	71.882	0.044	-0.045
-466.157	346.490	0.080	-0.157
-465.143	-200.000	-0.027	-0.174
-464.128	-186.681	-0.126	-0.002
-463.113	800.000	0.134	0.440
-462.099	-13.619	-0.194	0.125
-461.084	-200.000	0.007	-0.128
-460.070	-52.825	-0.115	0.053
-459.055	526.523	-0.079	0.184
-458.040	800.000	-0.080	0.278
-457.026	769.506	0.072	-0.195
-456.011	-132.122	-0.179	-0.023
-454.997	-200.000	0.002	-0.102
-453.982	-51.956	-0.166	-0.077
-452.968	103.615	0.330	0.385
-451.953	727.517	-0.139	0.368
-450.938	-200.000	-0.032	0.277
-449.924	-65.820	-0.216	0.086
-448.909	-73.913	-0.174	0.063
-447.895	-200.000	-0.018	-0.105
-446.880	184.491	0.053	0.078
-445.865	-128.667	-0.050	0.007
-444.851	-33.079	-0.260	0.143
-443.836	-200.000	-0.055	-0.294
-442.822	-125.825	0.110	-0.017
-441.807	-3.396	0.177	0.122
-440.792	28.105	-0.211	-0.177
-439.778	800.000	0.058	0.166
-438.763	-38.120	-0.478	-0.252
-437.749	-128.968	-0.182	-0.025
-436.734	-200.000	0.018	-0.240
-435.719	82.223	-0.208	-0.224
-434.705	-200.000	-0.023	-0.330
-433.690	240.696	-0.235	0.389
-432.676	698.245	-0.079	-0.205
-431.661	-200.000	-0.052	-0.419
-430.646	-200.000	-0.008	0.155
-429.632	-82.836	0.161	0.052
-428.617	-94.298	0.385	0.104
-427.603	-200.000	0.043	0.199
-426.588	800.000	-0.093	0.370
-425.573	412.409	-0.077	0.162
-424.559	-96.379	0.072	-0.019
-423.544	-58.899	-0.290	-0.124
-422.530	-145.395	0.373	0.033
-421.515	-36.627	0.205	0.110
-420.500	-124.733	-0.497	0.076
-419.486	-23.404	-0.249	0.149
-418.471	9.879	-0.312	0.235
-417.457	409.703	-0.040	0.083
-416.442	-0.117	-0.205	-0.145
-415.428	152.220	0.078	0.105
-414.413	-21.420	-0.197	-0.120
-413.398	-200.000	-0.017	0.311
-412.384	-17.458	-0.126	0.079
-411.369	800.000	0.184	-0.551
-410.355	195.947	-0.020	-0.029
-409.340	110.789	-0.197	-0.235
-408.325	133.241	0.147	-0.188
-407.311	-108.761	0.365	0.077
-406.296	-156.101	0.300	0.019
-405.282	-200.000	0.014	-0.182
-404.267	800.000	0.042	0.150
-403.252	-36.887	-0.249	0.132
-402.238	22.578	0.177	-0.144
-401.223	2.119	0.317	-0.227
-400.209	-200.000	0.015	-0.096
-399.194	-32.981	0.035	0.019
-398.179	-112.573	0.095	0.019
-397.165	730.423	-0.079	0.210
-396.150	-200.000	0.020	0.176
-395.136	-143.049	-0.197	0.019
-394.121	336.841	-0.279	-0.537
-393.106	386.279	-0.213	0.435
-392.092	-154.502	0.328	-0.022
-391.077	107.100	0.063	-0.074
-390.063	170.777	0.094	-0.134
-389.048	511.616	0.101	0.234
-388.033	103.537	-0.212	-0.247
-387.019	-98.325	0.339	-0.086
-386.004	168.902	0.143	0.203
-384.990	-139.666	0.135	-0.014
-383.975	114.413	-0.134	0.162
-382.960	135.758	0.083	0.107
-381.946	270.868	-0.140	0.244
-380.931	-200.000	-0.052	-0.248
-379.917	377.220	-0.122	0.246
-378.902	800.000	-0.029	0.116
-377.888	197.749	-0.089	0.134
-376.873	-69.330	-0.179	0.068
-375.858	172.159	-0.149	-0.212
-374.844	5.284	-0.139	0.101
-373.829	800.000	0.045	0.167
-372.815	29.232	-0.060	0.050
-371.800	-2.552	0.173	-0.120
-370.785	122.060	-0.358	-0.442
-369.771	25.081	0.172	-0.142
-368.756	328.597	-0.071	0.135
-367.742	-200.000	-0.021	-0.210
-366.727	49.806	0.168	0.157
-365.712	62.717	0.073	0.073
-364.698	-80.206	0.111	0.037
-363.683	-85.015	0.296	0.092
-362.669	178.826	0.111	0.161
-361.654	-199.863	0.222	-0.001
-360.639	-7.672	-0.167	-0.112
-359.625	-200.000	0.040	-0.264
-358.610	-200.000	-0.005	0.189
-357.596	24.632	-0.089	0.073
-356.581	-200.000	-0.048	0.376
-355.566	601.123	-0.051	-0.125
-354.552	-200.000	-0.066	0.338
-353.537	-17.414	-0.044	-0.027
-352.523	87.096	0.120	-0.131
-351.508	-68.086	-0.049	-0.019
-350.493	800.000	0.034	-0.128
-349.479	618.206	-0.132	0.327
-348.464	-54.199	0.115	0.052
-347.450	-200.000	-0.065	0.416
-346.435	94.896	0.201	0.227
-345.420	-90.687	0.313	-0.089
-344.406	-200.000	-0.025	-0.170
-343.391	-107.869	0.119	0.026
-342.377	-200.000	0.002	0.141
-341.362	190.543	-0.150	-0.223
-340.348	-94.309	0.105	0.029
-339.333	-17.586	0.286	-0.178
-338.318	21.254	-0.055	-0.045
-337.304	-13.013	0.402	0.258
-336.289	-140.504	-0.111	0.011
-335.275	86.245	-0.249	-0.272
-334.260	686.334	-0.072	-0.186
-333.245	58.936	0.273	0.265
-332.231	555.763	0.037	-0.089
-331.216	-138.305	0.445	0.049
-330.202	-200.000	-0.015	-0.234
-329.187	10.503	-0.188	-0.141
-328.172	-200.000	-0.069	-0.346
-327.158	-138.467	0.081	0.009
-326.143	-149.426	-0.217	-0.017
-325.129	193.940	0.082	0.122
-324.114	-85.290	0.172	-0.053
-323.099	678.528	0.097	0.249
-322.085	800.000	-0.069	0.200
-321.070	-15.803	0.115	0.073
-320.056	-64.024	-0.215	0.087
-319.041	580.226	-0.109	0.264
-318.026	-200.000	-0.071	0.000
-317.012	-94.575	-0.155	-0.042
-315.997	208.334	-0.106	0.164
-314.983	800.000	-0.049	0.167
-313.968	-200.000	0.033	0.145
-312.953	800.000	-0.127	0.371
-311.939	56.182	0.032	-0.030
-310.924	-38.911	-0.464	-0.241
-309.910	-128.209	0.144	-0.020
-308.895	515.952	0.108	0.250
-307.880	81.087	0.088	-0.094
-306.866	-61.457	0.357	0.148
-305.851	13.960	-0.336	0.258
-304.837	-178.448	-0.300	-0.007
-303.822	-144.706	0.098	-0.009
-302.807	231.177	0.040	0.065
-301.793	800.000	0.007	0.030
-300.778	315.481	-0.029	0.053
-299.764	73.780	0.057	0.059
-298.749	-200.000	0.024	-0.177
-297.735	254.131	-0.236	-0.399
-296.720	-68.036	-0.291	0.112
-295.705	800.000	-0.005	0.018
-294.691	-135.894	-0.453	-0.053
-293.676	-200.000	-0.014	-0.233
-292.662	-111.182	0.334	0.067
-291.647	618.502	0.093	-0.231
-290.632	489.575	-0.126	0.284
-289.618	30.158	0.343	0.289
-288.603	800.000	0.052	-0.190
-287.589	-125.264	-0.248	-0.037
-286.574	-200.000	-0.026	0.616
-285.559	800.000	-0.022	-0.085
-284.545	-111.545	-0.490	0.098
-283.530	800.000	0.083	-0.233
-282.516	42.247	0.138	0.123
-281.501	-25.270	0.123	-0.072
-280.486	-200.000	-0.017	0.208
-279.472	-107.807	0.066	-0.014
-278.457	-200.000	-0.001	0.112
-277.443	-57.907	0.226	0.097
-276.428	-200.000	0.017	0.100
-275.413	20.552	-0.104	-0.083
-274.399	-57.586	-0.196	-0.085
-273.384	-200.000	0.025	-0.196
-272.370	-200.000	0.051	-0.276
-271.355	-200.000	0.026	-0.135
-270.340	199.062	0.058	0.088
-269.326	-91.252	0.222	-0.063
-268.311	-28.339	0.127	-0.072
-267.297	-2.005	0.168	-0.116
-266.282	-128.181	0.335	-0.047
-265.267	398.213	0.077	-0.159
-264.253	-56.176	0.153	0.067
-263.238	-200.000	0.019	0.214
-262.224	-187.897	-0.202	-0.003
-261.209	87.078	-0.046	0.050
-260.195	112.297	0.251	0.299
-259.180	610.457	-0.086	0.212
-258.165	-47.811	0.380	-0.182
-257.151	138.289	-0.190	-0.245
-256.136	356.758	-0.082	-0.162
-255.122	131.159	-0.040	0.051
-254.107	629.547	-0.095	0.238
-253.092	-63.340	0.037	0.015
-252.078	-143.252	0.484	0.046
-251.063	-102.308	0.111	0.026
-250.049	62.077	0.130	-0.127
-249.034	-23.855	0.292	0.172
-248.019	800.000	-0.103	0.334
-247.005	48.429	0.119	-0.109
-245.990	-115.561	0.154	0.029
-244.976	5.560	-0.021	-0.015
-243.961	196.162	-0.141	0.211
-242.946	47.933	0.227	-0.209
-241.932	-200.000	0.039	-0.244
-240.917	-9.281	0.338	0.223
-239.903	68.990	-0.329	0.333
-238.888	-58.779	0.308	0.131
-237.873	19.238	0.104	0.082
-236.859	-37.662	0.122	0.064
-235.844	-152.849	-0.120	0.008
-234.830	261.544	-0.179	-0.305
-233.815	-86.596	-0.117	-0.035
-232.800	-3.126	0.088	0.060
-231.786	253.415	-0.195	0.327
-230.771	4.660	-0.170	-0.123
-229.757	18.098	0.115	0.091
-228.742	114.287	0.204	-0.245
-227.727	-200.000	0.026	0.225
-226.713	-200.000	0.002	0.156
-225.698	60.967	0.078	-0.076
-224.684	800.000	0.057	0.242
-223.669	163.621	-0.127	0.176
-222.655	800.000	0.063	-0.245
-221.640	212.113	0.347	0.539
-220.625	404.471	-0.062	-0.129
-219.611	94.797	-0.260	0.292
-218.596	69.309	-0.076	-0.077
-217.582	535.798	0.103	0.240
-216.567	-33.233	-0.055	-0.030
-215.552	566.662	-0.108	-0.259
-214.538	41.490	-0.078	0.069
-213.523	44.978	0.130	0.118
-212.509	44.254	0.226	0.204
-211.494	351.353	0.118	0.230
-210.479	442.271	0.046	0.099
-209.465	677.678	0.109	-0.278
-208.450	38.051	-0.212	0.186
-207.436	-36.553	0.226	-0.120
-206.421	485.709	-0.048	0.108
-205.406	-198.587	0.148	0.001
-204.392	-52.842	-0.239	-0.108
-203.377	1.234	0.311	-0.220
-202.363	800.000	0.104	0.420
-201.348	233.157	-0.167	0.270
-200.333	-91.323	-0.143	0.040
-199.319	800.000	-0.086	-0.312
-198.304	-17.429	-0.238	-0.147
-197.290	-24.651	0.310	-0.181
-196.275	132.192	-0.031	0.039
-195.260	-91.495	0.102	-0.029
-194.246	32.937	0.106	0.090
-193.231	72.706	0.260	-0.267
-192.217	-127.584	0.257	0.037
-191.202	712.336	0.183	0.477
-190.187	-65.159	-0.168	-0.067
-189.173	-103.191	-0.139	-0.032
-188.158	-83.534	0.469	-0.148
-187.144	800.000	-0.056	0.220
-186.129	-200.000	-0.010	-0.044
-185.114	-115.505	0.106	0.020
-184.100	-157.159	-0.233	-0.014
-183.085	-22.424	-0.060	0.036
-182.071	-200.000	-0.040	0.272
-181.056	-148.222	-0.112	-0.009
-180.042	-200.000	-0.009	0.111
-179.027	-200.000	0.017	0.102
-178.012	-200.000	0.035	0.152
-176.998	-49.928	-0.060	0.028
-175.983	-73.893	0.505	-0.180
-174.969	-123.101	-0.309	0.049
-173.954	204.475	-0.234	0.356
-172.939	82.001	0.051	0.054
-171.925	-86.007	0.173	0.052
-170.910	-107.374	-0.304	-0.066
-169.896	-65.370	0.175	-0.069
-168.881	-60.891	-0.181	0.075
-167.866	-70.825	0.462	0.171
-166.852	-23.320	0.095	-0.056
-165.837	-109.149	-0.205	-0.043
-164.823	-118.174	0.127	-0.022
-163.808	177.169	0.131	-0.187
-162.793	-178.130	-0.253	0.006
-161.779	-2.328	-0.097	0.067
-160.764	29.777	0.347	-0.290
-159.750	-38.549	-0.333	-0.173
-158.735	800.000	-0.062	-0.192
-157.720	-200.000	0.017	-0.103
-156.706	-20.899	-0.321	-0.193
-155.691	-200.000	0.029	0.231
-154.677	590.799	0.048	-0.117
-153.662	-200.000	-0.022	-0.179
-152.647	-101.064	0.084	0.020
-151.633	81.849	0.403	-0.428
-150.618	-159.164	0.205	0.011
-149.604	-200.000	0.023	-0.257
-148.589	-200.000	0.026	0.187
-147.574	-94.285	-0.188	0.050
-146.560	-97.500	0.159	0.041
-145.545	497.967	0.090	-0.202
-144.531	-200.000	-0.008	0.240
-143.516	-200.000	-0.017	0.337
-142.502	-200.000	0.018	0.110
-141.487	800.000	0.022	-0.076
-140.472	-200.000	0.019	-0.177
-139.458	369.375	0.067	-0.133
-138.443	165.280	-0.177	-0.246
-137.429	-171.459	0.132	0.004
-136.414	-138.070	0.037	-0.004
-135.399	-200.000	-0.019	0.135
-134.385	-200.000	-0.001	0.157
-133.370	49.508	0.199	0.184
-132.356	93.391	-0.105	0.117
-131.341	-200.000	-0.008	0.291
-130.326	-200.000	0.034	0.179
-129.312	800.000	-0.055	0.221
-128.297	7.361	0.298	0.219
-127.283	-200.000	-0.011	-0.235
-126.268	8.811	0.108	-0.080
-125.253	-64.316	-0.087	-0.035
-124.239	516.789	-0.073	0.168
-123.224	-38.254	0.390	-0.203
-122.210	-11.278	-0.082	0.053
-121.195	-105.844	-0.248	-0.055
