DTS Sentinel unit serial number:	SN413079Multiplexer serial number:	ORYXHardware model number:	OX4-SRSoftware version number:	ORYX F/W v4.00 Oryx Data Collector v3.7.2.0data status	okinstallation	princeton_trtdifferential loss correction	single-endedforward channel	channel 1reverse channel	N/Adate	2019/09/18time	14:14:35forward acquisition time	60.00reverse acquisition time	0.00gamma	496.2192k internal	0.2312k external	0.2312temperature offset calibration	0.9990default loss term (dB/km)	0.3790temperature slope calibration	1.0000multiplexer offset coefficient	1.0000multiplexer slope coefficient	1.0000fibre end	0.00T internal ref (°C)	34.36T ext. ref 1 (°C)	0.67T ext. ref 2 (°C)	29.26length (m)	temperature (°C)	Stokes	anti-Stokes-747.200	114.692	-0.030	-0.037
-746.185	-133.133	0.086	0.011
-745.171	800.000	0.059	-0.204
-744.156	-200.000	-0.029	0.250
-743.142	56.957	0.181	0.179
-742.127	-200.000	0.005	0.634
-741.112	-54.120	-0.200	0.092
-740.098	-42.835	-0.274	0.141
-739.083	-169.978	-0.093	-0.003
-738.069	50.107	0.272	0.260
-737.054	-52.484	-0.090	-0.042
-736.039	20.694	-0.307	-0.252
-735.025	-120.026	-0.083	0.014
-734.010	-87.696	-0.329	-0.101
-732.996	-119.625	-0.141	-0.025
-731.981	335.268	-0.114	0.225
-730.966	73.737	0.112	0.119
-729.952	800.000	-0.058	-0.182
-728.937	-25.402	-0.174	-0.104
-727.923	275.553	-0.252	0.453
-726.908	-39.600	-0.253	0.134
-725.894	-24.442	0.294	-0.178
-724.879	104.985	-0.162	-0.193
-723.864	-129.258	0.201	0.028
-722.850	64.775	0.193	-0.198
-721.835	-128.527	0.217	0.031
-720.821	800.000	-0.028	-0.093
-719.806	16.736	-0.182	-0.146
-718.791	-123.096	-0.171	0.028
-717.777	27.880	0.167	-0.143
-716.762	56.001	-0.118	-0.116
-715.748	-130.712	-0.303	0.041
-714.733	26.452	-0.105	-0.089
-713.718	-130.163	0.043	0.006
-712.704	-186.706	-0.123	-0.002
-711.689	-49.741	-0.113	-0.055
-710.675	-74.018	-0.223	-0.082
-709.660	-180.048	-0.039	0.001
-708.645	-127.855	0.101	-0.015
-707.631	-84.677	0.165	-0.052
-706.616	309.967	-0.107	-0.202
-705.602	-97.723	0.244	-0.064
-704.587	-63.427	-0.119	0.050
-703.572	-142.069	0.157	-0.016
-702.558	495.547	-0.093	-0.215
-701.543	800.000	0.081	0.270
-700.529	147.951	0.171	0.234
-699.514	800.000	-0.115	-0.366
-698.499	-20.533	-0.309	0.192
-697.485	606.542	0.030	-0.075
-696.470	236.999	0.106	-0.178
-695.456	-200.000	0.015	-0.260
-694.441	-105.638	0.454	0.104
-693.426	22.192	-0.117	-0.097
-692.412	36.508	-0.070	-0.063
-691.397	800.000	0.049	0.211
-690.383	-34.058	-0.229	0.127
-689.368	-200.000	0.047	0.222
-688.354	91.905	0.105	0.119
-687.339	-52.586	-0.206	-0.096
-686.324	-200.000	-0.005	0.257
-685.310	-200.000	0.045	0.211
-684.295	-200.000	-0.038	-0.186
-683.281	-200.000	0.006	0.045
-682.266	-85.484	0.064	-0.020
-681.251	236.686	-0.084	0.142
-680.237	-119.651	-0.382	0.067
-679.222	-51.184	0.371	0.176
-678.208	-161.556	-0.417	-0.022
-677.193	9.819	0.117	0.090
-676.178	-2.616	-0.297	-0.211
-675.164	-68.190	0.141	0.055
-674.149	97.846	-0.037	0.043
-673.135	-52.339	0.094	0.044
-672.120	80.715	-0.241	0.263
-671.105	-102.175	-0.080	-0.020
-670.091	101.851	-0.287	-0.338
-669.076	-110.880	0.285	0.059
-668.062	-31.764	-0.100	0.057
-667.047	-65.906	-0.414	0.167
-666.032	-15.107	-0.096	-0.062
-665.018	24.003	-0.174	-0.145
-664.003	187.558	-0.022	-0.033
-662.989	-127.990	-0.370	-0.054
-661.974	781.883	0.050	-0.137
-660.959	152.279	-0.179	-0.247
-659.945	67.828	-0.146	0.151
-658.930	-200.000	0.074	-0.339
-657.916	800.000	-0.108	-0.365
-656.901	45.186	-0.243	0.226
-655.886	153.533	0.203	0.281
-654.872	800.000	-0.086	-0.260
-653.857	504.252	0.086	-0.202
-652.843	4.841	-0.201	-0.149
-651.828	-72.517	0.376	-0.140
-650.814	215.526	-0.247	-0.396
-649.799	-200.000	-0.011	-0.150
-648.784	-50.364	-0.122	-0.058
-647.770	204.201	0.106	0.166
-646.755	-200.000	-0.061	-0.307
-645.741	-51.291	-0.202	0.096
-644.726	-200.000	-0.004	0.196
-643.711	-194.276	-0.413	-0.003
-642.697	800.000	0.054	-0.171
-641.682	-200.000	-0.027	-0.216
-640.668	-145.231	0.254	0.023
-639.653	124.266	-0.195	0.248
-638.638	-4.409	0.315	-0.220
-637.624	-13.779	-0.306	-0.200
-636.609	598.807	-0.204	-0.512
-635.595	301.443	0.133	0.249
-634.580	-29.963	0.241	-0.139
-633.565	-74.233	0.215	0.078
-632.551	-32.083	-0.200	0.113
-631.536	-44.402	0.084	0.042
-630.522	-200.000	0.009	0.089
-629.507	-24.535	0.215	-0.129
-628.492	-200.000	-0.004	-0.159
-627.478	-131.665	0.049	-0.007
-626.463	-66.549	-0.231	-0.093
-625.449	-75.595	0.229	-0.082
-624.434	-163.580	-0.402	-0.019
-623.419	334.695	0.105	-0.205
-622.405	800.000	-0.088	-0.351
-621.390	-185.353	0.046	-0.001
-620.376	-50.439	0.391	0.186
-619.361	128.687	-0.167	-0.215
-618.346	39.502	0.126	-0.114
-617.332	800.000	-0.024	-0.071
-616.317	-158.073	0.155	0.009
-615.303	-200.000	-0.070	-0.318
-614.288	-200.000	-0.072	0.350
-613.273	394.635	0.101	0.212
-612.259	219.634	-0.209	-0.337
-611.244	499.990	0.152	0.353
-610.230	800.000	-0.065	0.278
-609.215	-19.053	0.181	0.113
-608.201	19.312	-0.108	0.088
-607.186	-82.748	0.274	0.089
-606.171	-200.000	0.005	0.095
-605.157	89.607	-0.187	0.210
-604.142	800.000	-0.048	0.157
-603.128	-200.000	-0.039	-0.332
-602.113	151.972	-0.177	0.243
-601.098	71.676	-0.239	-0.251
-600.084	668.424	0.076	-0.198
-599.069	-158.880	-0.210	0.012
-598.055	109.685	0.136	-0.165
-597.040	-200.000	-0.004	-0.238
-596.025	126.830	0.173	-0.221
-595.011	22.411	0.152	0.126
-593.996	684.717	-0.101	0.266
-592.982	51.951	0.022	0.021
-591.967	-200.000	0.012	0.224
-590.952	26.527	-0.342	-0.289
-589.938	83.778	-0.117	0.129
-588.923	-93.953	0.362	0.100
-587.909	63.555	0.164	0.166
-586.894	-180.507	-0.315	0.007
-585.879	-11.342	0.349	-0.232
-584.865	800.000	-0.035	0.137
-583.850	-30.543	-0.130	0.074
-582.836	160.576	0.101	0.142
-581.821	-200.000	-0.020	0.183
-580.806	-22.192	-0.220	0.135
-579.792	82.686	-0.309	0.339
-578.777	-200.000	-0.035	-0.181
-577.763	3.380	0.312	0.229
-576.748	-200.000	0.008	-0.040
-575.733	183.850	-0.070	0.104
-574.719	-85.131	0.140	-0.044
-573.704	16.056	-0.164	-0.130
-572.690	-200.000	-0.000	0.183
-571.675	-90.418	-0.204	-0.060
-570.661	-132.367	0.200	0.026
-569.646	800.000	-0.028	-0.082
-568.631	-108.519	-0.210	-0.045
-567.617	-81.518	-0.242	0.080
-566.602	-200.000	-0.068	0.442
-565.588	800.000	-0.060	0.191
-564.573	339.562	-0.085	0.167
-563.558	-97.033	-0.091	-0.024
-562.544	29.072	0.031	-0.026
-561.529	104.438	-0.133	-0.158
-560.515	-57.503	-0.135	0.060
-559.500	4.609	-0.302	0.223
-558.485	-142.220	0.368	0.037
-557.471	800.000	-0.030	-0.119
-556.456	-200.000	-0.002	-0.030
-555.442	250.541	0.158	-0.271
-554.427	77.699	0.257	-0.276
-553.412	75.996	-0.103	0.109
-552.398	800.000	0.031	0.132
-551.383	172.729	0.143	0.208
-550.369	-2.397	0.161	-0.114
-549.354	-21.630	-0.236	-0.145
-548.339	-43.286	-0.123	0.062
-547.325	79.854	-0.319	0.345
-546.310	276.876	0.211	-0.377
-545.296	-151.778	-0.206	0.015
-544.281	-200.000	0.006	-0.278
-543.266	-200.000	-0.003	-0.210
-542.252	-69.823	-0.143	0.055
-541.237	81.479	-0.135	0.147
-540.223	800.000	0.124	0.405
-539.208	112.798	0.262	-0.319
-538.193	451.103	-0.042	0.092
-537.179	90.421	0.133	0.150
-536.164	-21.943	-0.277	0.169
-535.150	-200.000	-0.016	-0.140
-534.135	193.747	0.225	0.343
-533.121	-5.396	-0.259	0.179
-532.106	800.000	0.104	-0.314
-531.091	800.000	-0.059	0.235
-530.077	13.314	0.097	-0.076
-529.062	-34.070	0.267	0.148
-528.048	-200.000	-0.019	-0.316
-527.033	800.000	-0.071	-0.223
-526.018	586.155	-0.093	0.229
-525.004	252.587	-0.104	0.178
-523.989	-200.000	-0.019	-0.275
-522.975	-200.000	-0.008	-0.114
-521.960	-76.982	-0.351	0.123
-520.945	37.541	0.127	-0.113
-519.931	24.416	0.155	-0.129
-518.916	-200.000	-0.020	-0.106
-517.902	-122.781	0.044	-0.007
-516.887	-16.780	0.142	0.090
-515.872	800.000	0.136	0.394
-514.858	800.000	0.021	-0.060
-513.843	123.171	-0.133	-0.168
-512.829	-200.000	-0.020	-0.088
-511.814	-190.638	0.094	-0.001
-510.799	144.961	-0.241	-0.324
-509.785	-60.607	0.207	0.088
-508.770	-68.582	-0.199	0.078
-507.756	219.988	0.072	-0.116
-506.741	-59.208	-0.275	-0.119
-505.726	-8.191	0.327	-0.221
-504.712	-113.026	-0.214	0.043
-503.697	-200.000	-0.016	-0.211
-502.683	496.539	-0.060	0.140
-501.668	-154.899	0.272	0.018
-500.653	-82.382	0.210	0.069
-499.639	16.287	0.087	0.069
-498.624	91.885	-0.217	0.246
-497.610	396.710	-0.055	0.114
-496.595	-47.835	0.123	0.060
-495.581	-54.112	-0.080	-0.037
-494.566	-50.511	-0.260	0.123
-493.551	-200.000	-0.083	0.371
-492.537	40.435	0.337	0.305
-491.522	-119.145	0.061	-0.011
-490.508	-99.915	-0.220	-0.055
-489.493	318.074	-0.192	-0.364
-488.478	-200.000	-0.002	-0.194
-487.464	169.468	-0.140	-0.200
-486.449	-85.945	0.078	-0.024
-485.435	-50.030	-0.398	0.190
-484.420	487.170	-0.068	-0.157
-483.405	492.886	-0.021	0.048
-482.391	428.860	-0.051	-0.110
-481.376	-200.000	0.030	0.295
-480.362	-16.816	-0.061	0.039
-479.347	800.000	0.027	-0.080
-478.332	800.000	0.062	0.216
-477.318	8.448	-0.028	0.021
-476.303	-86.261	0.225	-0.069
-475.289	67.784	0.239	0.245
-474.274	-5.747	0.133	0.091
-473.259	-122.948	-0.247	-0.040
-472.245	253.379	-0.118	-0.203
-471.230	-116.067	-0.290	-0.054
-470.216	-200.000	0.018	-0.136
-469.201	84.006	-0.047	0.051
-468.186	126.911	-0.025	-0.032
-467.172	-119.794	-0.349	-0.060
-466.157	800.000	-0.037	0.121
-465.143	-200.000	-0.037	-0.166
-464.128	-37.780	0.063	0.034
-463.113	81.551	0.107	0.116
-462.099	-200.000	0.028	-0.301
-461.084	-68.942	0.221	-0.085
-460.070	-112.783	0.143	0.028
-459.055	-9.400	0.165	0.110
-458.040	325.539	0.216	-0.414
-457.026	-126.788	-0.321	-0.048
-456.011	-200.000	0.008	0.047
-454.997	277.959	-0.172	0.308
-453.982	-76.401	0.260	0.092
-452.968	-21.023	0.150	0.092
-451.953	60.102	-0.127	-0.125
-450.938	670.155	0.064	-0.166
-449.924	378.339	0.026	0.053
-448.909	-0.920	-0.160	0.113
-447.895	-200.000	0.233	-0.001
-446.880	-200.000	-0.025	0.128
-445.865	-200.000	0.033	0.369
-444.851	688.056	0.098	-0.258
-443.836	-200.000	-0.007	0.173
-442.822	667.802	0.055	0.142
-441.807	-200.000	0.037	-0.219
-440.792	42.970	0.133	0.122
-439.778	800.000	0.014	-0.047
-438.763	-184.170	-0.181	0.003
-437.749	51.978	0.189	0.181
-436.734	13.368	-0.243	0.189
-435.719	349.469	-0.126	0.250
-434.705	-43.884	0.059	0.030
-433.690	-149.001	-0.223	-0.018
-432.676	800.000	-0.051	-0.174
-431.661	-153.980	0.328	0.022
-430.646	32.504	0.121	0.104
-429.632	35.566	0.133	-0.117
-428.617	-200.000	0.022	-0.226
-427.603	-200.000	-0.052	-0.323
-426.588	-200.000	0.043	-0.301
-425.573	-164.794	-0.473	-0.021
-424.559	360.354	-0.176	-0.352
-423.544	800.000	-0.053	0.228
-422.530	349.546	-0.102	0.202
-421.515	769.223	0.089	-0.242
-420.500	660.816	0.098	0.254
-419.486	134.976	0.133	0.173
-418.471	124.716	-0.162	0.205
-417.457	-155.772	-0.124	-0.008
-416.442	-200.000	0.015	0.168
-415.428	-200.000	-0.046	0.313
-414.413	800.000	0.074	-0.229
-413.398	-28.496	-0.226	-0.130
-412.384	97.551	-0.093	0.107
-411.369	-167.674	0.111	0.004
-410.355	103.682	-0.119	-0.140
-409.340	-200.000	-0.015	-0.332
-408.325	-8.200	-0.221	0.149
-407.311	-200.000	0.020	0.166
-406.296	153.599	0.071	0.097
-405.282	-148.540	0.166	-0.014
-404.267	256.601	-0.213	-0.366
-403.252	-13.937	-0.334	-0.216
-402.238	-200.000	-0.010	0.305
-401.223	775.943	0.053	-0.144
-400.209	-114.128	-0.241	-0.047
-399.194	-105.356	0.115	0.026
-398.179	-105.073	-0.412	-0.094
-397.165	358.781	0.054	0.108
-396.150	-53.410	0.333	-0.153
-395.136	466.812	0.063	0.141
-394.121	-26.592	0.108	0.063
-393.106	800.000	-0.030	-0.086
-392.092	800.000	0.045	0.175
-391.077	107.358	0.130	0.155
-390.063	800.000	-0.057	-0.182
-389.048	8.773	-0.264	-0.199
-388.033	-31.720	0.111	-0.062
-387.019	-146.867	-0.051	0.004
-386.004	45.281	-0.118	-0.108
-384.990	-200.000	0.028	0.153
-383.975	-117.650	-0.186	0.034
-382.960	504.931	0.031	0.072
-381.946	210.434	0.029	0.045
-380.931	-200.000	-0.054	0.300
-379.917	-54.443	0.061	0.028
-378.902	-200.000	0.043	-0.248
-377.888	-200.000	-0.022	-0.137
-376.873	-7.967	-0.238	-0.161
-375.858	98.134	0.210	0.242
-374.844	220.721	0.102	-0.163
-373.829	359.105	0.152	-0.304
-372.815	-133.530	-0.048	-0.006
-371.800	-107.560	0.274	0.060
-370.785	390.003	-0.127	0.264
-369.771	18.173	0.175	0.140
-368.756	-132.797	0.119	-0.015
-367.742	-110.210	0.184	0.038
-366.727	34.388	-0.042	-0.037
-365.712	800.000	-0.018	0.055
-364.698	800.000	0.049	0.171
-363.683	59.364	0.041	-0.041
-362.669	-94.378	-0.357	-0.097
-361.654	187.813	-0.132	0.196
-360.639	-25.380	0.254	0.150
-359.625	134.430	0.103	0.133
-358.610	-157.119	-0.097	0.006
-357.596	-200.000	0.067	-0.414
-356.581	-200.000	-0.016	-0.178
-355.566	-200.000	-0.040	0.278
-354.552	800.000	0.041	-0.146
-353.537	-103.284	0.223	0.053
-352.523	-19.840	0.252	-0.155
-351.508	-28.658	0.082	-0.047
-350.493	-90.677	0.280	0.081
-349.479	-97.956	-0.107	-0.028
-348.464	238.568	-0.214	0.355
-347.450	785.646	0.053	0.147
-346.435	22.989	-0.124	-0.101
-345.420	-137.646	-0.182	-0.020
-344.406	-200.000	-0.073	-0.330
-343.391	-121.363	-0.546	0.091
-342.377	-200.000	-0.010	0.185
-341.362	-77.610	-0.113	0.039
-340.348	172.387	-0.095	-0.137
-339.333	-200.000	-0.015	0.214
-338.318	435.435	0.229	-0.498
-337.304	88.720	-0.290	0.322
-336.289	-92.060	0.166	-0.047
-335.275	-179.638	-0.368	-0.008
-334.260	800.000	-0.009	-0.033
-333.245	-32.268	0.174	0.097
-332.231	800.000	0.027	0.087
-331.216	155.116	-0.158	0.217
-330.202	-90.100	-0.200	0.058
-329.187	-200.000	-0.010	-0.238
-328.172	233.974	-0.139	0.229
-327.158	-6.669	-0.385	0.262
-326.143	800.000	-0.111	0.350
-325.129	-200.000	-0.036	-0.242
-324.114	-73.096	0.095	-0.035
-323.099	-200.000	-0.062	0.373
-322.085	600.749	-0.148	0.368
-321.070	-200.000	-0.031	-0.283
-320.056	-54.432	0.286	-0.129
-319.041	-54.294	0.199	-0.090
-318.026	-200.000	0.034	0.274
-317.012	-75.815	0.055	0.019
-315.997	-89.866	-0.096	0.028
-314.983	-200.000	-0.036	-0.230
-313.968	-40.387	0.318	-0.165
-312.953	-200.000	0.043	0.381
-311.939	134.174	0.091	-0.117
-310.924	-16.495	0.152	-0.096
-309.910	6.294	-0.274	-0.203
-308.895	48.556	-0.287	-0.268
-307.880	34.110	0.116	0.100
-306.866	592.622	0.126	0.310
-305.851	-9.464	-0.144	-0.096
-304.837	800.000	-0.006	0.021
-303.822	323.695	0.085	-0.161
-302.807	-153.271	-0.140	-0.010
-301.793	-200.000	0.059	0.263
-300.778	87.404	0.110	0.121
-299.764	-193.331	0.125	-0.001
-298.749	146.800	-0.194	0.260
-297.735	800.000	0.102	-0.387
-296.720	-200.000	-0.009	-0.187
-295.705	257.718	0.047	0.081
-294.691	-35.678	0.397	0.215
-293.676	-100.904	-0.073	0.018
-292.662	-18.214	0.262	-0.163
-291.647	-200.000	0.023	0.193
-290.632	0.572	0.139	-0.099
-289.618	800.000	0.034	0.125
-288.603	7.266	0.191	0.142
-287.589	-54.484	-0.271	0.122
-286.574	-111.004	0.235	-0.048
-285.559	79.073	-0.205	-0.219
-284.545	-4.201	0.333	0.230
-283.530	748.784	-0.088	0.236
-282.516	175.915	0.081	0.117
-281.501	-200.000	0.003	0.255
-280.486	215.739	-0.112	-0.177
-279.472	800.000	0.062	-0.195
-278.457	588.850	0.155	-0.380
-277.443	367.574	0.081	-0.163
-276.428	55.324	0.229	-0.221
-275.413	-129.669	0.119	0.016
-274.399	800.000	0.084	-0.238
-273.384	248.533	-0.106	-0.178
-272.370	-132.674	-0.063	0.008
-271.355	800.000	0.066	0.217
-270.340	607.066	-0.041	-0.101
-269.326	599.529	-0.086	-0.212
-268.311	800.000	0.051	-0.215
-267.297	60.172	0.338	-0.333
-266.282	-90.223	0.281	0.081
-265.267	-157.637	-0.367	0.022
-264.253	800.000	-0.056	-0.186
-263.238	203.831	0.094	-0.145
-262.224	-127.575	0.180	0.026
-261.209	-90.603	0.364	-0.105
-260.195	9.644	0.118	-0.089
-259.180	-106.353	0.343	-0.076
-258.165	-1.669	0.087	0.061
-257.151	-94.775	0.222	-0.060
-256.136	-200.000	0.002	0.354
-255.122	26.179	0.164	-0.136
-254.107	-26.695	0.071	-0.041
-253.092	-31.018	-0.066	-0.037
-252.078	-100.334	-0.297	-0.073
-251.063	-128.903	-0.346	0.048
-250.049	-62.019	-0.108	-0.045
-249.034	11.485	-0.077	-0.059
-248.019	17.312	-0.084	0.066
-247.005	42.807	0.065	0.059
-245.990	-7.525	0.078	-0.053
-244.976	-44.167	0.280	0.140
-243.961	-12.960	-0.083	-0.054
-242.946	-133.508	-0.495	-0.062
-241.932	-46.882	0.350	-0.170
-240.917	-162.408	-0.171	0.008
-239.903	-134.270	-0.334	-0.041
-238.888	209.928	-0.093	0.145
-237.873	-46.923	0.328	0.160
-236.859	99.512	-0.179	0.206
-235.844	150.896	-0.152	0.205
-234.830	-62.447	0.028	-0.012
-233.815	-200.000	-0.063	0.282
-232.800	-200.000	0.047	0.258
-231.786	-181.804	0.069	-0.001
-230.771	-200.000	0.093	-0.556
-229.757	800.000	0.017	-0.055
-228.742	92.857	-0.106	-0.119
-227.727	-49.809	0.221	-0.104
-226.713	-200.000	-0.054	0.273
-225.698	-140.666	-0.275	-0.028
-224.684	-153.939	0.115	-0.008
-223.669	185.445	-0.033	0.048
-222.655	429.973	0.164	0.352
-221.640	161.398	0.190	-0.264
-220.625	-142.284	-0.467	0.046
-219.611	35.732	-0.160	-0.140
-218.596	-0.300	-0.072	0.051
-217.582	800.000	0.022	0.094
-216.567	283.972	0.187	0.334
-215.552	-200.000	0.020	-0.119
-214.538	800.000	0.081	-0.334
-213.523	-200.000	0.035	-0.360
-212.509	-200.000	-0.005	0.201
-211.494	88.659	0.024	-0.026
-210.479	800.000	0.031	0.132
-209.465	-200.000	0.053	0.248
-208.450	197.269	-0.204	-0.309
-207.436	151.903	0.162	-0.220
-206.421	-124.493	0.230	-0.036
-205.406	301.888	-0.081	-0.149
-204.392	10.406	0.188	-0.142
-203.377	-200.000	-0.040	-0.223
-202.363	37.476	0.066	0.058
-201.348	800.000	0.032	0.109
-200.333	-200.000	-0.006	0.145
-199.319	800.000	-0.086	-0.237
-198.304	-196.960	0.269	0.002
-197.290	11.641	0.072	-0.055
-196.275	-117.803	-0.348	0.062
-195.260	800.000	0.091	-0.315
-194.246	-100.528	-0.220	-0.054
-193.231	569.546	0.057	0.138
-192.217	-81.741	0.263	0.086
-191.202	13.560	-0.115	0.089
-190.187	614.031	0.029	-0.073
-189.173	-91.287	0.298	0.085
-188.158	-80.093	0.212	0.071
-187.144	-84.375	-0.109	-0.034
-186.129	-13.197	0.508	0.328
-185.114	-95.641	0.258	0.069
-184.100	-200.000	-0.013	-0.254
-183.085	800.000	0.073	-0.228
-182.071	159.479	0.126	-0.174
-181.056	118.464	-0.143	-0.176
-180.042	560.561	-0.067	0.162
-179.027	48.447	-0.154	-0.143
-178.012	394.841	0.040	-0.083
-176.998	-77.482	0.234	0.081
-175.983	-144.893	0.308	-0.028
-174.969	800.000	-0.005	-0.013
-173.954	-200.000	-0.016	0.137
-172.939	89.744	0.134	-0.148
-171.925	-76.042	-0.262	-0.092
-170.910	-94.959	-0.256	0.069
-169.896	-200.000	0.001	-0.145
-168.881	-88.648	-0.170	-0.050
-167.866	-73.434	0.348	0.126
-166.852	-122.289	0.244	0.040
-165.837	800.000	0.023	0.064
-164.823	638.960	-0.112	0.284
-163.808	-200.000	-0.002	-0.133
-162.793	158.372	0.062	0.085
-161.779	-28.345	-0.238	-0.136
-160.764	-200.000	0.011	0.064
-159.750	11.384	0.169	0.128
-158.735	-200.000	-0.004	-0.042
-157.720	15.001	0.113	-0.088
-156.706	-111.575	-0.334	0.067
-155.691	-200.000	-0.028	0.281
-154.677	800.000	0.073	0.215
-153.662	-61.854	0.285	0.118
-152.647	-105.580	-0.308	0.069
-151.633	800.000	0.085	-0.297
-150.618	-200.000	0.025	-0.152
-149.604	101.325	0.057	0.066
-148.589	427.695	0.049	0.105
-147.574	-142.788	0.125	-0.012
-146.560	800.000	0.050	-0.188
-145.545	800.000	0.114	-0.355
-144.531	-200.000	-0.007	-0.086
-143.516	325.029	0.088	-0.166
-142.502	-0.773	0.207	0.145
-141.487	358.375	0.059	-0.118
-140.472	90.460	-0.141	-0.157
-139.458	119.234	0.021	-0.026
-138.443	-152.760	-0.041	0.003
-137.429	-40.428	0.365	-0.188
-136.414	-200.000	0.054	-0.314
-135.399	-111.080	0.386	-0.078
-134.385	118.735	-0.130	0.160
-133.370	-194.486	0.325	-0.003
-132.356	236.851	0.047	-0.077
-131.341	-200.000	-0.047	0.303
-130.326	520.258	0.220	0.510
-129.312	-162.774	-0.168	0.008
-128.297	-88.484	-0.259	-0.077
-127.283	800.000	-0.040	-0.131
-126.268	-84.519	-0.280	-0.088
-125.253	-200.000	0.013	-0.248
-124.239	-200.000	-0.007	-0.317
-123.224	50.818	-0.147	-0.137
-122.210	50.727	-0.107	-0.101
