DTS Sentinel unit serial number:	SN413079Multiplexer serial number:	ORYXHardware model number:	OX4-SRSoftware version number:	ORYX F/W v4.00 Oryx Data Collector v3.7.2.0data status	okinstallation	princeton_trtdifferential loss correction	single-endedforward channel	channel 1reverse channel	N/Adate	2019/09/14time	17:26:35forward acquisition time	60.00reverse acquisition time	0.00gamma	496.2192k internal	0.2296k external	0.2296temperature offset calibration	1.0051default loss term (dB/km)	0.3790temperature slope calibration	1.0000multiplexer offset coefficient	1.0000multiplexer slope coefficient	1.0000fibre end	0.00T internal ref (°C)	37.75T ext. ref 1 (°C)	5.03T ext. ref 2 (°C)	32.31length (m)	temperature (°C)	Stokes	anti-Stokes-747.200	-87.830	0.180	-0.055
-746.185	800.000	-0.105	0.314
-745.171	-200.000	-0.059	-0.336
-744.156	-200.000	0.055	0.398
-743.142	320.811	0.212	0.412
-742.127	-80.536	-0.291	0.099
-741.112	-107.143	0.206	-0.046
-740.098	-105.630	-0.145	0.034
-739.083	99.704	0.154	0.182
-738.069	88.907	-0.222	0.253
-737.054	693.311	-0.031	-0.083
-736.039	166.270	-0.150	-0.217
-735.025	-154.236	0.166	-0.011
-734.010	-117.857	-0.201	-0.037
-732.996	-21.680	-0.062	0.039
-731.981	-6.624	-0.195	0.135
-730.966	71.196	0.219	-0.232
-729.952	534.567	0.175	-0.424
-728.937	-76.015	-0.066	0.024
-727.923	-86.681	-0.209	0.065
-726.908	-200.000	0.012	0.682
-725.894	-179.710	-0.216	0.005
-724.879	-35.514	-0.095	-0.053
-723.864	52.336	0.074	-0.072
-722.850	-74.834	-0.170	0.062
-721.835	-75.781	-0.269	0.098
-720.821	-104.398	-0.057	-0.013
-719.806	69.261	-0.179	-0.188
-718.791	379.744	-0.187	0.391
-717.777	105.330	0.152	0.183
-716.762	-200.000	-0.018	-0.270
-715.748	800.000	-0.118	-0.383
-714.733	138.505	-0.191	0.256
-713.718	61.013	-0.120	-0.121
-712.704	32.238	0.142	0.125
-711.689	-11.062	-0.154	-0.104
-710.675	88.865	-0.045	0.051
-709.660	2.996	0.101	0.075
-708.645	285.419	-0.100	0.184
-707.631	148.547	0.252	0.347
-706.616	800.000	0.017	0.050
-705.602	63.616	0.189	-0.193
-704.587	-200.000	-0.036	-0.384
-703.572	147.160	-0.040	-0.055
-702.558	148.235	0.303	0.417
-701.543	-200.000	-0.221	-0.001
-700.529	-200.000	-0.044	-0.299
-699.514	-200.000	-0.013	0.104
-698.499	-200.000	0.102	-0.474
-697.485	131.870	-0.086	-0.112
-696.470	-7.853	0.050	0.035
-695.456	800.000	-0.016	-0.068
-694.441	10.386	0.045	0.035
-693.426	-145.827	-0.112	0.010
-692.412	413.112	-0.066	0.143
-691.397	800.000	-0.060	0.235
-690.383	156.041	0.028	0.039
-689.368	569.364	0.055	0.136
-688.354	424.309	-0.121	0.265
-687.339	-102.263	-0.155	0.038
-686.324	26.966	0.067	-0.057
-685.310	-139.860	0.119	0.013
-684.295	138.361	0.106	0.142
-683.281	31.866	-0.234	-0.206
-682.266	800.000	0.063	0.264
-681.251	1.677	0.245	0.180
-680.237	-56.200	-0.265	0.120
-679.222	-12.651	-0.100	0.066
-678.208	33.696	0.207	-0.184
-677.193	-70.792	-0.358	0.138
-676.178	-200.000	-0.008	-0.259
-675.164	-165.258	0.136	0.006
-674.149	-116.563	-0.355	-0.067
-673.135	-13.856	0.142	0.094
-672.120	-58.128	-0.331	0.147
-671.105	27.200	0.041	0.035
-670.091	15.384	-0.056	0.045
-669.076	85.696	-0.067	-0.076
-668.062	136.554	-0.153	-0.204
-667.047	89.316	0.136	0.155
-666.032	-126.584	0.151	0.023
-665.018	-62.281	0.140	-0.059
-664.003	-83.014	0.216	-0.071
-662.989	37.396	-0.058	0.053
-661.974	2.185	-0.177	0.131
-660.959	-8.947	0.193	-0.132
-659.945	-121.858	-0.099	0.017
-658.930	163.407	-0.060	-0.086
-657.916	800.000	-0.087	-0.322
-656.901	89.423	0.036	-0.041
-655.886	7.374	0.047	0.036
-654.872	183.295	-0.128	-0.193
-653.857	-194.560	0.318	-0.003
-652.843	-60.978	0.308	0.133
-651.828	-200.000	-0.014	0.134
-650.814	16.675	0.206	-0.166
-649.799	800.000	0.042	-0.175
-648.784	-200.000	0.058	-0.320
-647.770	-200.000	0.091	-0.600
-646.755	800.000	0.052	0.208
-645.741	-200.000	-0.010	-0.101
-644.726	-105.192	-0.154	-0.036
-643.711	-162.100	-0.234	0.012
-642.697	105.072	0.222	-0.267
-641.682	-156.103	0.384	-0.025
-640.668	-149.787	-0.398	0.032
-639.653	80.535	-0.166	0.182
-638.638	419.051	0.055	0.120
-637.624	59.263	0.231	-0.232
-636.609	418.594	0.084	-0.182
-635.595	244.773	-0.096	-0.164
-634.580	-168.344	0.187	0.007
-633.565	-200.000	0.013	0.129
-632.551	-200.000	0.013	-0.332
-631.536	-118.110	-0.175	-0.032
-630.522	800.000	-0.065	-0.217
-629.507	-200.000	-0.028	0.234
-628.492	-44.865	0.134	0.068
-627.478	800.000	0.020	-0.062
-626.463	-42.263	0.094	-0.049
-625.449	800.000	-0.018	0.078
-624.434	0.689	0.180	0.131
-623.419	490.246	0.078	-0.181
-622.405	327.965	-0.029	0.056
-621.390	-13.827	0.212	-0.139
-620.376	-66.159	-0.124	-0.050
-619.361	-101.413	0.137	0.034
-618.346	219.039	-0.180	0.292
-617.332	125.688	-0.154	0.197
-616.317	-200.000	0.003	0.103
-615.303	384.705	-0.149	0.312
-614.288	290.885	0.098	0.181
-613.273	-105.787	0.234	0.054
-612.259	-60.234	0.042	-0.018
-611.244	-69.467	-0.261	-0.102
-610.230	800.000	-0.096	-0.346
-609.215	33.426	-0.131	0.115
-608.201	40.854	0.057	-0.053
-607.186	-200.000	-0.032	-0.184
-606.171	739.853	-0.071	-0.194
-605.157	-184.717	0.234	0.004
-604.142	108.141	0.048	-0.059
-603.128	-84.433	0.267	0.086
-602.113	-24.830	-0.286	-0.173
-601.098	-184.408	-0.182	-0.003
-600.084	73.590	-0.067	0.071
-599.069	-200.000	0.016	0.102
-598.055	-162.286	-0.373	0.019
-597.040	-200.000	-0.335	0.001
-596.025	800.000	0.064	0.184
-595.011	-68.404	0.412	-0.163
-593.996	800.000	-0.117	-0.335
-592.982	-19.493	-0.198	-0.124
-591.967	-165.373	0.547	0.024
-590.952	46.339	-0.235	0.221
-589.938	399.247	0.095	0.202
-588.923	-200.000	0.066	0.452
-587.909	-12.642	0.072	-0.048
-586.894	-2.054	0.116	0.083
-585.879	228.621	0.141	-0.233
-584.865	-174.253	-0.117	-0.003
-583.850	149.043	-0.195	0.267
-582.836	55.715	-0.208	0.204
-581.821	119.404	0.184	-0.232
-580.806	50.904	-0.233	0.224
-579.792	-200.000	-0.004	0.067
-578.777	176.980	-0.051	-0.075
-577.763	252.641	0.186	-0.322
-576.748	-1.816	-0.240	0.172
-575.733	-1.231	0.151	0.108
-574.719	115.127	0.229	-0.283
-573.704	-72.976	0.280	-0.104
-572.690	-86.613	0.045	-0.014
-571.675	-59.060	-0.450	0.197
-570.661	-192.366	-0.197	0.002
-569.646	27.680	-0.032	0.027
-568.631	74.077	0.276	-0.294
-567.617	73.797	0.137	-0.146
-566.602	-130.988	-0.154	-0.021
-565.588	592.473	0.056	-0.140
-564.573	-78.739	-0.213	-0.074
-563.558	-200.000	-0.043	-0.231
-562.544	-200.000	-0.005	-0.148
-561.529	79.569	-0.049	-0.054
-560.515	-63.338	-0.258	0.108
-559.500	66.994	0.099	0.103
-558.485	57.680	-0.098	0.098
-557.471	-110.883	-0.127	0.027
-556.456	540.732	0.064	-0.154
-555.442	-144.444	0.409	0.038
-554.427	-123.574	-0.061	0.010
-553.412	1.677	0.142	-0.103
-552.398	255.914	-0.070	0.121
-551.383	228.440	-0.082	0.136
-550.369	-52.871	-0.116	-0.054
-549.354	-173.783	-0.122	-0.004
-548.339	87.268	-0.215	0.241
-547.325	-167.185	0.181	0.007
-546.310	800.000	0.018	0.055
-545.296	7.556	-0.220	-0.167
-544.281	-91.817	0.327	-0.094
-543.266	-62.326	-0.171	0.072
-542.252	-61.585	0.119	-0.051
-541.237	-200.000	-0.017	0.178
-540.223	-97.708	0.112	0.029
-539.208	106.024	-0.223	0.268
-538.193	-16.108	-0.198	0.127
-537.179	315.014	0.029	-0.056
-536.164	-83.947	-0.133	-0.043
-535.150	-106.489	0.266	0.060
-534.135	279.753	0.143	0.259
-533.121	88.503	-0.162	0.183
-532.106	290.666	-0.177	0.325
-531.091	238.788	0.110	-0.185
-530.077	-53.236	-0.059	0.027
-529.062	131.298	-0.133	-0.173
-528.048	90.889	-0.150	-0.170
-527.033	-200.000	-0.027	0.216
-526.018	28.917	0.027	0.023
-525.004	-200.000	-0.011	0.137
-523.989	-179.998	0.112	-0.002
-522.975	-30.435	-0.162	0.093
-521.960	-73.762	-0.487	0.179
-520.945	800.000	-0.078	-0.266
-519.931	-64.847	0.230	-0.094
-518.916	-119.464	0.217	-0.038
-517.902	25.697	-0.122	0.103
-516.887	-33.978	-0.253	-0.141
-515.872	42.639	0.209	-0.192
-514.858	111.412	-0.058	-0.071
-513.843	-200.000	0.015	-0.220
-512.829	151.573	-0.159	-0.219
-511.814	-120.206	-0.008	0.001
-510.799	-20.056	0.025	-0.016
-509.785	800.000	0.062	-0.196
-508.770	62.440	-0.046	-0.047
-507.756	-39.394	0.099	0.053
-506.741	-18.383	-0.151	-0.096
-505.726	204.308	-0.092	-0.144
-504.712	339.016	0.103	0.203
-503.697	-35.835	-0.240	-0.132
-502.683	-200.000	-0.046	-0.382
-501.668	50.838	0.208	-0.200
-500.653	-75.218	0.257	-0.093
-499.639	800.000	-0.118	0.354
-498.624	76.739	-0.301	0.324
-497.610	-106.986	0.332	0.074
-496.595	-111.339	0.242	0.050
-495.581	24.191	-0.069	-0.058
-494.566	107.065	0.204	0.245
-493.551	391.810	0.075	0.158
-492.537	3.438	-0.014	0.010
-491.522	224.878	0.099	0.163
-490.508	134.888	0.044	0.058
-489.493	-200.000	-0.016	-0.283
-488.478	-200.000	0.003	0.195
-487.464	-117.060	0.239	0.044
-486.449	-58.086	-0.309	-0.136
-485.435	-200.000	0.023	-0.132
-484.420	-200.000	0.027	0.161
-483.405	-58.103	-0.136	0.060
-482.391	-71.863	0.244	-0.092
-481.376	-79.774	0.096	-0.033
-480.362	72.063	0.268	-0.282
-479.347	800.000	0.033	-0.094
-478.332	-126.584	0.088	0.013
-477.318	66.973	0.263	-0.271
-476.303	343.046	0.150	-0.296
-475.289	329.437	-0.040	-0.077
-474.274	262.286	0.166	-0.290
-473.259	-127.344	-0.258	0.038
-472.245	203.175	0.060	0.094
-471.230	107.942	0.060	-0.073
-470.216	34.406	-0.095	0.084
-469.201	-200.000	0.001	0.273
-468.186	166.836	0.280	-0.401
-467.172	800.000	0.072	-0.205
-466.157	-200.000	-0.020	-0.206
-465.143	-200.000	0.051	-0.000
-464.128	800.000	-0.044	0.137
-463.113	-78.245	0.378	-0.131
-462.099	-12.955	-0.412	0.271
-461.084	-28.987	-0.300	0.174
-460.070	40.129	-0.224	0.203
-459.055	43.622	-0.145	-0.134
-458.040	180.347	0.168	0.249
-457.026	-123.247	0.202	-0.033
-456.011	800.000	0.016	-0.070
-454.997	800.000	0.063	-0.181
-453.982	23.549	-0.122	0.102
-452.968	484.788	0.068	-0.157
-451.953	380.697	0.033	-0.069
-450.938	-200.000	-0.039	0.183
-449.924	157.808	-0.061	-0.085
-448.909	0.508	-0.250	-0.181
-447.895	35.895	-0.105	-0.093
-446.880	-14.407	0.199	-0.130
-445.865	-45.871	0.287	0.143
-444.851	-26.215	0.103	0.061
-443.836	-22.146	-0.128	0.078
-442.822	-200.000	-0.033	-0.153
-441.807	72.238	0.331	0.348
-440.792	153.380	0.100	0.138
-439.778	800.000	0.063	0.270
-438.763	800.000	-0.040	0.150
-437.749	-200.000	-0.061	0.347
-436.734	-109.680	-0.308	-0.066
-435.719	-14.633	0.055	0.036
-434.705	270.354	0.138	-0.246
-433.690	-200.000	-0.013	0.342
-432.676	-61.417	0.094	-0.040
-431.661	-200.000	0.061	-0.413
-430.646	-10.689	0.090	-0.060
-429.632	-200.000	0.006	0.305
-428.617	23.239	0.102	0.084
-427.603	-147.349	-0.227	-0.019
-426.588	108.568	0.083	0.100
-425.573	-200.000	0.009	0.204
-424.559	-200.000	0.015	0.218
-423.544	-200.000	0.027	0.304
-422.530	-106.670	-0.273	-0.061
-421.515	800.000	0.031	0.122
-420.500	76.161	-0.139	0.148
-419.486	226.729	0.114	-0.187
-418.471	711.681	0.005	0.012
-417.457	597.570	-0.043	0.107
-416.442	800.000	0.130	-0.411
-415.428	175.448	-0.216	0.315
-414.413	13.911	-0.411	0.323
-413.398	-15.991	-0.267	-0.171
-412.384	70.215	0.211	-0.220
-411.369	143.230	0.060	0.080
-410.355	-200.000	-0.015	0.292
-409.340	49.593	0.090	0.086
-408.325	-200.000	-0.065	0.303
-407.311	-92.006	-0.312	0.089
-406.296	16.079	0.036	0.028
-405.282	509.550	0.019	-0.045
-404.267	800.000	-0.038	-0.137
-403.252	44.381	0.279	0.259
-402.238	-128.253	0.152	-0.022
-401.223	129.934	-0.056	0.073
-400.209	-74.435	0.205	-0.075
-399.194	-139.821	0.345	0.037
-398.179	464.400	0.118	0.267
-397.165	218.347	0.069	-0.111
-396.150	-200.000	0.030	0.280
-395.136	-8.544	0.183	-0.124
-394.121	22.787	-0.067	-0.055
-393.106	-200.000	0.040	-0.278
-392.092	73.940	0.173	0.183
-391.077	650.169	-0.053	-0.137
-390.063	295.205	0.111	0.205
-389.048	800.000	-0.027	0.114
-388.033	-200.000	0.013	0.336
-387.019	800.000	0.017	-0.056
-386.004	-118.234	0.295	-0.053
-384.990	-200.000	-0.004	0.093
-383.975	-168.848	0.206	0.008
-382.960	-47.090	-0.122	0.060
-381.946	800.000	0.032	0.096
-380.931	-200.000	-0.005	-0.141
-379.917	800.000	0.087	-0.284
-378.902	-80.416	0.083	0.028
-377.888	-49.836	-0.074	-0.035
-376.873	-53.811	0.176	0.081
-375.858	-200.000	0.015	0.105
-374.844	-200.000	-0.009	0.114
-373.829	-200.000	0.041	-0.253
-372.815	-84.624	-0.572	-0.182
-371.800	148.086	-0.093	-0.127
-370.785	88.771	-0.225	0.252
-369.771	-78.244	0.173	0.060
-368.756	114.678	0.129	-0.159
-367.742	161.646	0.114	0.161
-366.727	-26.004	-0.239	0.141
-365.712	16.984	-0.111	-0.089
-364.698	800.000	-0.015	0.045
-363.683	-40.262	-0.141	0.074
-362.669	552.347	-0.084	-0.204
-361.654	252.435	0.153	0.262
-360.639	-147.814	-0.425	0.036
-359.625	-38.039	0.150	0.080
-358.610	-200.000	0.014	0.241
-357.596	-200.000	-0.007	0.111
-356.581	-10.840	-0.165	-0.110
-355.566	-200.000	0.002	0.104
-354.552	-200.000	-0.047	0.321
-353.537	-162.617	0.305	0.015
-352.523	800.000	0.036	-0.126
-351.508	292.306	-0.145	-0.266
-350.493	-85.180	0.297	0.094
-349.479	84.829	0.133	0.147
-348.464	-200.000	0.005	0.174
-347.450	-76.769	0.068	0.024
-346.435	-89.208	-0.159	0.047
-345.420	-32.263	0.126	0.071
-344.406	-140.652	-0.229	-0.024
-343.391	-174.740	-0.304	-0.009
-342.377	-127.988	-0.302	0.044
-341.362	61.713	-0.066	0.066
-340.348	-111.444	-0.316	0.065
-339.333	-84.735	0.276	0.087
-338.318	-96.104	0.450	-0.120
-337.304	800.000	-0.098	0.389
-336.289	-200.000	-0.004	-0.193
-335.275	524.225	-0.132	-0.313
-334.260	-58.457	-0.169	-0.074
-333.245	-35.821	-0.212	0.116
-332.231	800.000	0.092	-0.341
-331.216	47.018	0.088	0.082
-330.202	330.664	-0.081	0.156
-329.187	-47.660	0.350	-0.171
-328.172	-200.000	0.066	0.414
-327.158	2.745	0.175	0.128
-326.143	-24.768	0.191	-0.114
-325.129	800.000	-0.094	0.359
-324.114	-68.299	0.243	-0.095
-323.099	12.823	-0.093	-0.072
-322.085	319.184	-0.174	0.331
-321.070	800.000	0.036	-0.125
-320.056	800.000	-0.096	-0.365
-319.041	-63.867	0.239	-0.098
-318.026	800.000	0.046	-0.151
-317.012	93.219	-0.134	-0.152
-315.997	33.744	-0.216	-0.189
-314.983	-200.000	0.003	-0.177
-313.968	241.864	-0.087	0.147
-312.953	164.432	0.062	-0.089
-311.939	-85.272	0.185	0.058
-310.924	-128.334	0.286	0.041
-309.910	367.805	-0.086	-0.175
-308.895	-200.000	0.017	0.359
-307.880	-141.973	-0.252	0.025
-306.866	-119.937	-0.153	-0.026
-305.851	49.608	0.148	-0.140
-304.837	-200.000	-0.038	-0.317
-303.822	-77.795	0.240	-0.083
-302.807	800.000	0.078	0.247
-301.793	326.049	0.116	-0.224
-300.778	6.738	0.242	0.181
-299.764	199.025	-0.164	-0.252
-298.749	-23.255	-0.097	0.059
-297.735	800.000	-0.041	-0.172
-296.720	-109.962	0.177	-0.037
-295.705	-33.824	-0.031	0.017
-294.691	-13.243	0.303	0.198
-293.676	-14.746	0.158	0.102
-292.662	-65.208	0.328	0.133
-291.647	-90.618	-0.146	-0.042
-290.632	177.661	0.192	-0.281
-289.618	-200.000	-0.002	-0.022
-288.603	-142.231	-0.254	-0.025
-287.589	800.000	-0.069	-0.258
-286.574	-2.708	0.255	-0.179
-285.559	-116.465	-0.350	-0.065
-284.545	131.440	-0.073	-0.095
-283.530	-68.093	0.271	0.106
-282.516	-149.472	-0.160	0.013
-281.501	-55.451	0.400	-0.180
-280.486	-200.000	-0.074	0.401
-279.472	17.918	0.101	-0.081
-278.457	408.859	-0.112	-0.237
-277.443	-35.049	-0.179	-0.098
-276.428	134.555	-0.126	-0.163
-275.413	-49.397	-0.051	0.025
-274.399	800.000	0.124	-0.372
-273.384	-49.653	0.204	0.097
-272.370	107.234	-0.015	-0.018
-271.355	800.000	-0.029	0.082
-270.340	-185.150	0.383	-0.006
-269.326	760.835	0.130	0.353
-268.311	-200.000	0.002	0.175
-267.297	173.295	-0.185	0.268
-266.282	49.360	0.137	0.129
-265.267	-74.466	-0.023	0.008
-264.253	-200.000	0.057	-0.310
-263.238	396.851	-0.175	-0.367
-262.224	800.000	-0.095	0.292
-261.209	-145.720	0.190	0.017
-260.195	-110.553	0.311	0.065
-259.180	-53.174	-0.344	-0.159
-258.165	-126.329	0.232	0.035
-257.151	800.000	-0.042	0.171
-256.136	-64.419	-0.203	0.083
-255.122	-135.125	0.198	0.024
-254.107	105.609	-0.182	-0.216
-253.092	-50.097	0.027	-0.013
-252.078	800.000	-0.089	0.256
-251.063	800.000	0.049	-0.161
-250.049	167.672	-0.078	0.111
-249.034	-5.480	0.100	-0.069
-248.019	19.318	-0.291	-0.234
-247.005	-128.248	-0.311	-0.045
-245.990	20.316	0.195	0.158
-244.976	-200.000	0.031	0.186
-243.961	190.694	-0.119	0.180
-242.946	439.562	0.148	0.324
-241.932	-7.711	0.224	-0.151
-240.917	800.000	-0.167	-0.495
-239.903	-177.785	0.078	0.002
-238.888	25.037	0.169	-0.140
-237.873	163.080	-0.237	-0.333
-236.859	9.180	-0.107	-0.081
-235.844	-27.840	-0.124	0.072
-234.830	800.000	-0.073	-0.257
-233.815	-160.232	-0.256	-0.014
-232.800	-200.000	-0.095	-0.417
-231.786	290.021	0.126	0.229
-230.771	78.574	0.065	-0.070
-229.757	47.066	0.044	0.041
-228.742	800.000	-0.016	-0.058
-227.727	-200.000	-0.028	-0.130
-226.713	6.678	-0.270	0.201
-225.698	-143.527	0.211	0.020
-224.684	-91.522	-0.126	0.036
-223.669	333.491	-0.032	-0.062
-222.655	-48.168	0.104	-0.050
-221.640	-67.384	0.272	0.107
-220.625	7.931	0.159	-0.119
-219.611	-141.193	-0.291	-0.030
-218.596	156.390	-0.192	0.265
-217.582	800.000	-0.113	0.416
-216.567	745.482	0.084	0.227
-215.552	-4.705	0.200	-0.138
-214.538	153.263	-0.118	0.161
-213.523	714.182	-0.125	0.332
-212.509	5.368	-0.110	-0.081
-211.494	262.941	-0.134	-0.233
-210.479	41.020	-0.180	0.163
-209.465	418.515	-0.012	0.026
-208.450	721.906	0.137	0.366
-207.436	800.000	0.059	-0.235
-206.421	-20.342	0.180	0.111
-205.406	169.815	0.087	-0.125
-204.392	-14.299	-0.021	-0.013
-203.377	-41.081	-0.203	-0.105
-202.363	-126.254	0.126	0.019
-201.348	412.106	0.109	0.232
-200.333	407.366	0.138	0.291
-199.319	-172.085	0.282	-0.009
-198.304	800.000	-0.044	-0.137
-197.290	89.283	-0.257	-0.286
-196.275	371.984	0.172	0.349
-195.260	149.033	0.160	-0.216
-194.246	-54.561	0.192	-0.087
-193.231	800.000	0.053	-0.218
-192.217	77.774	0.088	-0.094
-191.202	-102.103	-0.194	-0.047
-190.187	97.378	-0.236	-0.271
-189.173	-113.762	-0.071	-0.014
-188.158	-63.188	0.134	-0.055
-187.144	-36.316	0.273	0.147
-186.129	95.052	0.175	0.200
-185.114	19.092	0.291	-0.233
-184.100	-19.391	0.244	0.151
-183.085	-98.682	-0.200	-0.051
-182.071	20.536	0.125	-0.101
-181.056	262.362	-0.067	-0.117
-180.042	36.133	0.209	0.184
-179.027	-166.775	-0.082	0.003
-178.012	58.334	-0.083	0.081
-176.998	-100.243	-0.341	0.085
-175.983	-104.959	-0.388	-0.089
-174.969	-89.505	-0.311	0.091
-173.954	800.000	0.020	0.076
-172.939	800.000	-0.038	-0.156
-171.925	-121.005	0.183	0.031
-170.910	800.000	0.046	-0.142
-169.896	68.048	0.221	0.226
-168.881	-161.272	-0.107	-0.006
-167.866	23.486	-0.132	-0.108
-166.852	-200.000	0.002	-0.265
-165.837	82.107	-0.155	-0.168
-164.823	-129.381	-0.392	-0.054
-163.808	-65.497	0.378	-0.152
-162.793	57.962	-0.251	0.246
-161.779	157.960	-0.201	0.279
-160.764	-115.179	-0.331	-0.063
-159.750	680.816	-0.011	-0.029
-158.735	-134.401	-0.560	0.069
-157.720	-200.000	-0.006	0.037
-156.706	-18.700	-0.137	0.085
-155.691	112.881	0.170	-0.206
-154.677	268.163	0.109	-0.191
-153.662	-65.465	-0.307	-0.123
-152.647	-112.394	-0.267	-0.053
-151.633	82.256	0.198	0.214
-150.618	800.000	0.061	0.234
-149.604	800.000	0.117	0.400
-148.589	-122.287	0.264	-0.043
-147.574	271.131	0.123	0.216
-146.560	226.050	-0.101	0.164
-145.545	112.936	-0.145	0.175
-144.531	800.000	-0.061	-0.225
-143.516	-187.669	0.110	-0.001
-142.502	-17.016	-0.286	0.180
-141.487	105.236	0.221	0.260
-140.472	111.529	-0.041	0.049
-139.458	-46.211	0.118	-0.058
-138.443	199.039	-0.209	0.320
-137.429	-61.848	-0.404	-0.169
-136.414	62.936	0.162	0.162
-135.399	-67.296	-0.283	-0.111
-134.385	-152.930	-0.222	-0.016
-133.370	53.063	0.233	0.223
-132.356	800.000	-0.041	-0.120
-131.341	614.672	0.052	-0.130
-130.326	7.681	0.102	-0.076
-129.312	125.790	0.057	-0.071
-128.297	650.683	0.170	0.433
-127.283	-27.698	0.070	0.041
-126.268	137.177	-0.051	0.067
-125.253	116.258	-0.114	0.139
-124.239	494.056	-0.056	0.128
-123.224	800.000	0.050	-0.148
-122.210	15.008	-0.094	0.074
-121.195	337.463	-0.093	0.180
-120.180	-22.588	-0.305	0.184
