DTS Sentinel unit serial number:	SN413079Multiplexer serial number:	ORYXHardware model number:	OX4-SRSoftware version number:	ORYX F/W v4.00 Oryx Data Collector v3.7.2.0data status	okinstallation	princeton_trtdifferential loss correction	single-endedforward channel	channel 1reverse channel	N/Adate	2019/09/12time	18:16:34forward acquisition time	15.00reverse acquisition time	0.00gamma	496.2192k internal	0.2317k external	0.2317temperature offset calibration	1.0101default loss term (dB/km)	0.3790temperature slope calibration	1.0000multiplexer offset coefficient	1.0000multiplexer slope coefficient	1.0000fibre end	0.00T internal ref (°C)	33.50T ext. ref 1 (°C)	2.92T ext. ref 2 (°C)	28.05length (m)	temperature (°C)	Stokes	anti-Stokes-747.200	-200.000	0.072	0.357
-746.185	-101.687	0.650	0.160
-745.171	-200.000	-0.008	0.160
-744.156	264.153	0.239	0.421
-743.142	3.668	-0.378	0.279
-742.127	-118.421	-0.631	-0.113
-741.112	800.000	-0.185	0.532
-740.098	800.000	-0.191	0.544
-739.083	-40.046	0.870	0.459
-738.069	-200.000	-0.005	0.412
-737.054	-200.000	-0.074	-0.407
-736.039	-14.803	-0.557	-0.362
-735.025	800.000	0.225	0.676
-734.010	699.806	0.269	0.715
-732.996	272.572	0.392	-0.700
-731.981	572.505	0.189	0.465
-730.966	533.355	0.272	0.652
-729.952	84.236	0.296	-0.328
-728.937	432.460	0.323	-0.710
-727.923	800.000	0.180	0.599
-726.908	-10.528	-0.678	0.454
-725.894	800.000	-0.079	0.230
-724.879	128.242	0.299	-0.385
-723.864	-200.000	-0.033	0.660
-722.850	12.534	-0.370	-0.288
-721.835	250.154	0.198	0.340
-720.821	-151.338	0.172	0.013
-719.806	-49.923	-0.215	-0.103
-718.791	258.884	0.487	-0.850
-717.777	-60.467	0.342	-0.147
-716.762	52.142	-0.607	0.585
-715.748	647.752	-0.191	-0.494
-714.733	147.460	-0.400	0.544
-713.718	-60.171	-0.957	-0.413
-712.704	614.135	-0.204	0.517
-711.689	294.359	-0.469	-0.867
-710.675	-180.575	0.339	-0.007
-709.660	-29.655	-0.151	-0.087
-708.645	-4.074	0.270	-0.189
-707.631	331.095	-0.207	-0.403
-706.616	-13.824	1.014	-0.663
-705.602	-200.000	-0.021	-0.176
-704.587	-175.473	-0.238	0.007
-703.572	-90.957	0.171	-0.050
-702.558	-200.000	0.042	-0.852
-701.543	364.954	-0.317	0.645
-700.529	-48.021	-0.458	0.224
-699.514	-104.245	-0.680	0.160
-698.499	800.000	0.090	-0.298
-697.485	-66.955	-0.920	-0.367
-696.470	-76.595	-0.443	-0.157
-695.456	-1.171	-1.083	-0.774
-694.441	-103.284	-0.419	0.100
-693.426	-86.033	0.544	0.170
-692.412	-48.454	-1.122	0.546
-691.397	-185.937	-0.262	-0.004
-690.383	510.449	-0.325	-0.763
-689.368	20.711	0.671	-0.549
-688.354	541.964	0.184	-0.444
-687.339	74.693	-0.240	0.255
-686.324	34.085	-0.214	-0.188
-685.310	800.000	0.165	-0.612
-684.295	27.896	-0.233	-0.198
-683.281	-45.912	-0.449	-0.224
-682.266	-78.319	0.259	0.090
-681.251	800.000	-0.186	0.560
-680.237	-140.782	-0.522	-0.054
-679.222	-155.859	-0.152	-0.010
-678.208	-200.000	0.029	-0.138
-677.193	-200.000	-0.010	-0.706
-676.178	-137.829	-0.861	-0.097
-675.164	22.979	-0.738	-0.611
-674.149	-107.954	0.382	0.084
-673.135	800.000	-0.196	0.809
-672.120	38.785	0.538	0.485
-671.105	-8.353	0.383	-0.260
-670.091	-150.509	-0.140	-0.011
-669.076	-35.719	0.135	-0.074
-668.062	444.530	-0.232	0.514
-667.047	323.129	0.238	-0.458
-666.032	800.000	-0.093	-0.384
-665.018	73.116	-0.199	0.210
-664.003	-34.893	0.691	-0.381
-662.989	-55.857	0.642	0.289
-661.974	-46.671	0.638	0.315
-660.959	58.273	-0.378	0.374
-659.945	-127.129	-0.126	-0.019
-658.930	-137.408	-0.293	-0.034
-657.916	-90.662	0.394	-0.115
-656.901	-14.184	-0.725	0.472
-655.886	26.645	-0.282	-0.238
-654.872	192.144	0.383	-0.583
-653.857	-120.946	0.457	0.078
-652.843	189.499	0.073	-0.111
-651.828	224.036	-0.274	0.446
-650.814	-15.997	-0.152	0.098
-649.799	-175.102	-0.781	0.022
-648.784	-78.930	0.882	-0.303
-647.770	800.000	0.298	0.988
-646.755	-96.187	0.732	-0.196
-645.741	348.351	0.167	0.332
-644.726	152.925	-0.290	-0.399
-643.711	-200.000	-0.036	-0.193
-642.697	14.218	0.236	-0.185
-641.682	800.000	-0.136	-0.501
-640.668	-46.802	0.595	0.294
-639.653	800.000	-0.142	-0.454
-638.638	338.181	0.296	-0.581
-637.624	34.219	-0.168	-0.148
-636.609	159.853	-0.134	0.188
-635.595	-73.574	-0.457	0.168
-634.580	568.264	-0.191	0.467
-633.565	-58.521	0.576	-0.252
-632.551	-151.344	0.300	0.023
-631.536	33.671	0.322	0.282
-630.522	38.466	0.640	-0.575
-629.507	800.000	-0.106	-0.446
-628.492	718.595	-0.107	-0.287
-627.478	215.859	0.291	-0.466
-626.463	-154.991	-0.154	0.010
-625.449	-73.324	-0.207	-0.076
-624.434	-200.000	-0.059	0.420
-623.419	-90.202	0.147	-0.043
-622.405	-200.000	-0.024	0.255
-621.390	240.684	0.428	0.719
-620.376	291.675	-0.326	-0.598
-619.361	-84.571	0.653	-0.208
-618.346	800.000	-0.151	0.508
-617.332	388.162	-0.451	0.941
-616.317	34.325	-0.159	-0.140
-615.303	-27.306	0.253	-0.148
-614.288	-45.733	-0.139	0.069
-613.273	800.000	-0.378	1.265
-612.259	-200.000	-0.063	0.488
-611.244	-143.104	-0.338	0.033
-610.230	-4.459	-1.150	0.800
-609.215	-200.000	-0.192	-0.866
-608.201	-72.672	0.498	-0.185
-607.186	800.000	0.162	-0.475
-606.171	125.755	-0.606	-0.770
-605.157	-24.426	0.645	-0.387
-604.142	800.000	0.176	-0.527
-603.128	800.000	-0.119	-0.498
-602.113	-200.000	-0.044	-0.347
-601.098	-200.000	-0.051	0.496
-600.084	105.548	-0.257	-0.306
-599.069	-31.666	0.678	0.383
-598.055	692.922	-0.380	1.003
-597.040	28.674	-0.735	0.626
-596.025	38.023	0.330	0.296
-595.011	52.733	-0.211	0.203
-593.996	72.120	-0.077	0.080
-592.982	-200.000	-0.016	-0.380
-591.967	104.722	0.093	0.110
-590.952	-200.000	-0.121	0.686
-589.938	-125.108	0.317	-0.049
-588.923	89.470	0.598	0.672
-587.909	-120.461	0.850	-0.145
-586.894	-170.481	-0.431	-0.015
-585.879	-44.896	-0.805	-0.404
-584.865	8.115	-0.327	0.247
-583.850	-200.000	-0.017	1.017
-582.836	-200.000	-0.061	-0.785
-581.821	-158.028	-0.250	-0.015
-580.806	-200.000	-0.593	-0.001
-579.792	-55.175	0.458	-0.207
-578.777	-178.585	0.414	0.010
-577.763	80.433	0.311	-0.337
-576.748	2.189	0.327	0.238
-575.733	67.990	-0.141	-0.145
-574.719	462.907	-0.356	-0.799
-573.704	174.032	0.213	-0.309
-572.690	150.267	-0.371	-0.507
-571.675	-60.573	0.696	0.297
-570.661	341.996	0.193	0.380
-569.646	-103.737	0.600	-0.141
-568.631	-200.000	0.041	0.197
-567.617	232.380	-0.327	0.539
-566.602	165.228	-0.287	0.408
-565.588	-41.417	0.563	-0.291
-564.573	24.792	0.146	0.122
-563.558	-200.000	-0.034	0.989
-562.544	-69.200	-0.575	0.222
-561.529	-140.075	0.498	0.053
-560.515	800.000	-0.145	-0.547
-559.500	484.069	-0.021	-0.047
-558.485	51.293	-0.076	0.072
-557.471	548.582	0.194	-0.467
-556.456	-134.375	0.997	0.123
-555.442	-53.147	0.153	-0.071
-554.427	1.374	0.358	0.259
-553.412	-200.000	0.007	-0.381
-552.398	18.090	0.365	-0.292
-551.383	213.070	-0.163	0.258
-550.369	250.369	-0.338	0.577
-549.354	-200.000	0.001	-0.053
-548.339	171.312	-0.260	0.374
-547.325	149.813	-0.290	0.395
-546.310	-3.164	-0.476	-0.333
-545.296	248.007	0.328	-0.557
-544.281	-200.000	0.003	-0.533
-543.266	-200.000	-0.216	-0.959
-542.252	697.631	0.312	0.824
-541.237	140.280	-0.289	0.383
-540.223	-45.425	-0.295	-0.147
-539.208	-125.848	-0.141	-0.021
-538.193	-0.418	-0.804	-0.574
-537.179	-10.872	0.245	-0.162
-536.164	-144.198	0.906	-0.085
-535.150	-200.000	0.034	0.420
-534.135	-4.545	-0.768	0.533
-533.121	-26.273	0.755	0.445
-532.106	-22.299	-0.242	0.147
-531.091	615.297	-0.449	-1.130
-530.077	-48.747	-0.681	-0.328
-529.062	-200.000	0.015	0.517
-528.048	-15.413	0.464	-0.298
-527.033	4.003	-0.762	-0.560
-526.018	-141.243	-0.634	-0.065
-525.004	-4.686	0.233	0.162
-523.989	-200.000	0.133	1.347
-522.975	52.381	0.581	-0.557
-521.960	-127.282	-0.411	0.060
-520.945	-29.978	0.355	0.203
-519.931	-200.000	0.049	-0.846
-518.916	-16.105	-0.198	0.126
-517.902	117.367	-0.525	0.648
-516.887	-34.717	-0.184	0.101
-515.872	244.549	0.135	0.227
-514.858	-200.000	0.024	0.883
-513.843	-157.155	0.182	0.011
-512.829	443.424	0.317	-0.697
-511.814	61.357	-0.314	-0.313
-510.799	-64.858	0.537	0.218
-509.785	-77.681	-0.533	0.185
-508.770	-67.255	0.256	-0.101
-507.756	800.000	0.051	-0.200
-506.741	-200.000	-0.097	-0.973
-505.726	-9.247	0.365	-0.245
-504.712	-132.261	-0.625	0.081
-503.697	563.452	-0.142	0.344
-502.683	94.975	0.613	0.700
-501.668	-200.000	0.406	-0.000
-500.653	-200.000	0.055	0.353
-499.639	-200.000	0.008	0.228
-498.624	125.368	0.216	0.274
-497.610	-29.896	0.332	0.190
-496.595	20.631	-0.530	0.430
-495.581	20.184	0.742	0.600
-494.566	428.223	0.294	-0.637
-493.551	-32.024	0.066	0.037
-492.537	800.000	0.094	-0.278
-491.522	629.416	-0.226	-0.573
-490.508	211.422	-0.293	0.462
-489.493	800.000	-0.089	-0.295
-488.478	5.169	0.478	-0.353
-487.464	624.883	0.226	-0.571
-486.449	-65.768	0.103	-0.041
-485.435	800.000	-0.098	-0.332
-484.420	-185.851	-0.364	-0.005
-483.405	368.691	-0.265	-0.537
-482.391	-200.000	-0.075	0.799
-481.376	800.000	0.140	0.561
-480.362	310.583	0.437	-0.820
-479.347	421.138	0.330	-0.709
-478.332	20.625	-0.462	-0.374
-477.318	800.000	-0.133	0.376
-476.303	800.000	0.137	-0.410
-475.289	-47.513	0.369	-0.180
-474.274	273.492	-0.182	0.322
-473.259	-200.000	0.115	0.615
-472.245	-162.390	0.589	0.029
-471.230	-200.000	-0.072	1.077
-470.216	800.000	-0.348	0.964
-469.201	77.524	0.309	0.329
-468.186	29.370	-0.115	-0.098
-467.172	69.405	0.338	0.348
-466.157	-200.000	-0.123	1.203
-465.143	-200.000	-0.033	-0.567
-464.128	-200.000	-0.023	0.415
-463.113	-182.394	0.757	-0.014
-462.099	7.102	-0.526	-0.393
-461.084	144.958	0.419	0.561
-460.070	113.677	-0.426	-0.518
-459.055	-62.322	-0.205	-0.085
-458.040	59.216	0.200	0.197
-457.026	-6.892	0.221	-0.150
-456.011	350.181	-0.237	0.468
-454.997	327.900	-0.200	-0.384
-453.982	-78.728	-0.892	0.305
-452.968	800.000	0.018	-0.051
-451.953	75.486	0.344	0.364
-450.938	650.868	0.502	-1.286
-449.924	145.801	-0.261	-0.350
-448.909	240.213	0.138	-0.230
-447.895	800.000	-0.157	-0.530
-446.880	-33.532	0.281	0.155
-445.865	-102.983	-1.016	0.241
-444.851	-56.668	-0.208	0.092
-443.836	7.262	-0.068	-0.051
-442.822	27.522	0.286	-0.241
-441.807	263.562	0.088	0.152
-440.792	-200.000	-0.067	-0.425
-439.778	491.083	-0.410	-0.938
-438.763	800.000	0.084	-0.328
-437.749	48.262	0.171	-0.160
-436.734	94.515	-0.277	-0.315
-435.719	136.393	0.131	-0.170
-434.705	-101.882	-0.580	0.140
-433.690	-71.189	0.280	-0.105
-432.676	800.000	-0.079	-0.248
-431.661	-200.000	0.000	-0.073
-430.646	121.460	-0.491	-0.611
-429.632	159.368	-0.422	0.587
-428.617	-200.000	-0.068	0.451
-427.603	-40.768	0.206	0.107
-426.588	-200.000	-0.065	-0.999
-425.573	-98.283	0.931	0.239
-424.559	-143.421	-0.360	-0.034
-423.544	-136.500	-0.138	0.016
-422.530	117.976	-0.244	-0.300
-421.515	-200.000	-0.032	0.680
-420.500	70.490	0.286	0.296
-419.486	-141.568	-0.568	0.057
-418.471	-55.905	0.407	-0.181
-417.457	158.682	0.815	1.132
-416.442	465.026	-0.235	0.526
-415.428	-200.000	-0.006	0.058
-414.413	42.162	-0.225	-0.204
-413.398	65.044	-0.224	-0.226
-412.384	800.000	-0.109	-0.430
-411.369	-22.211	-0.142	-0.086
-410.355	-49.382	-0.674	-0.321
-409.340	116.495	0.121	-0.148
-408.325	-160.148	-0.702	-0.038
-407.311	323.848	0.321	-0.613
-406.296	-50.829	-0.718	-0.337
-405.282	-75.455	-0.761	0.271
-404.267	-63.584	-0.399	-0.164
-403.252	-139.551	0.419	-0.045
-402.238	-1.348	0.769	-0.542
-401.223	299.713	-0.504	-0.928
-400.209	-150.102	-0.495	0.038
-399.194	-200.000	-0.067	-0.295
-398.179	-133.674	0.742	0.093
-397.165	686.290	0.107	0.280
-396.150	28.945	0.392	-0.331
-395.136	-93.219	0.895	-0.248
-394.121	468.107	0.367	-0.822
-393.106	800.000	-0.121	-0.379
-392.092	-200.000	0.074	0.702
-391.077	-102.341	-0.423	-0.101
-390.063	226.755	0.328	-0.531
-389.048	-0.824	0.345	0.244
-388.033	-200.000	0.062	0.376
-387.019	-19.891	0.309	0.190
-386.004	324.300	0.187	0.357
-384.990	14.667	-0.202	0.158
-383.975	-200.000	0.055	0.639
-382.960	-200.000	-0.120	-0.571
-381.946	-129.395	-0.374	-0.052
-380.931	-145.931	-0.638	0.056
-379.917	196.794	0.355	-0.540
-378.902	677.208	0.175	0.454
-377.888	76.469	0.278	-0.294
-376.873	-29.827	-0.478	-0.272
-375.858	-200.000	0.049	0.287
-374.844	54.370	-0.101	0.098
-373.829	-133.213	0.317	-0.040
-372.815	-50.698	-0.497	-0.234
-371.800	-56.854	0.410	0.181
-370.785	258.050	0.094	0.162
-369.771	305.458	0.363	-0.673
-368.756	-200.000	0.073	-1.067
-367.742	800.000	-0.205	-0.696
-366.727	-41.312	-0.914	0.470
-365.712	-149.395	-0.620	-0.049
-364.698	-200.000	0.112	-0.522
-363.683	800.000	-0.190	0.724
-362.669	-157.847	-0.853	0.050
-361.654	422.560	-0.233	-0.499
-360.639	265.368	0.208	-0.362
-359.625	-200.000	0.001	-0.662
-358.610	-129.002	0.237	0.033
-357.596	-160.436	-0.945	-0.051
-356.581	-200.000	0.040	0.188
-355.566	-200.000	0.063	-0.481
-354.552	509.364	0.262	-0.606
-353.537	88.733	0.256	-0.284
-352.523	-143.549	0.410	-0.039
-351.508	241.100	0.281	0.467
-350.493	-200.000	-0.122	0.565
-349.479	800.000	-0.064	-0.200
-348.464	800.000	0.123	-0.422
-347.450	10.355	-0.323	-0.245
-346.435	9.328	0.371	-0.279
-345.420	71.915	-0.638	0.662
-344.406	-94.727	0.315	-0.085
-343.391	-200.000	0.034	0.403
-342.377	-126.493	-0.640	-0.095
-341.362	-70.513	0.920	0.347
-340.348	97.425	0.256	0.293
-339.333	800.000	-0.205	0.563
-338.318	800.000	-0.151	0.623
-337.304	-200.000	0.008	0.070
-336.289	690.332	0.289	0.755
-335.275	-46.320	0.650	-0.318
-334.260	-18.065	0.165	-0.103
-333.245	-200.000	-0.034	0.299
-332.231	-3.108	0.188	0.130
-331.216	-200.000	-0.061	-0.533
-330.202	-19.864	0.412	0.254
-329.187	-143.788	0.612	-0.058
-328.172	12.973	-0.523	-0.403
-327.158	-200.000	-0.231	-1.376
-326.143	-200.000	-0.049	-0.388
-325.129	178.952	-0.383	0.558
-324.114	800.000	-0.086	0.242
-323.099	509.546	-0.213	0.492
-322.085	58.662	-0.377	-0.368
-321.070	-61.724	0.534	0.223
-320.056	134.585	-0.476	-0.615
-319.041	194.418	-0.282	0.425
-318.026	41.831	0.400	0.361
-317.012	3.199	0.311	0.225
-315.997	203.835	0.286	-0.440
-314.983	358.697	0.231	-0.460
-313.968	-200.000	-0.062	-0.290
-312.953	153.901	-0.303	0.414
-311.939	-58.387	-0.261	0.113
-310.924	-172.478	0.407	-0.013
-309.910	-200.000	0.028	-0.374
-308.895	-38.354	-0.744	-0.392
-307.880	-91.025	-0.508	-0.145
-306.866	-30.048	0.158	-0.090
-305.851	-200.000	0.131	1.052
-304.837	-200.000	-0.077	1.004
-303.822	800.000	-0.198	-0.763
-302.807	243.690	-0.254	-0.424
-301.793	208.658	0.437	0.680
-300.778	-6.623	0.050	-0.034
-299.764	375.375	-0.283	-0.573
-298.749	-73.281	-0.175	-0.064
-297.735	536.531	-0.362	-0.854
-296.720	-22.831	0.564	-0.339
-295.705	45.182	0.483	-0.443
-294.691	706.361	-0.059	0.154
-293.676	-122.244	-0.619	-0.101
-292.662	375.962	0.098	-0.199
-291.647	-200.000	0.107	1.261
-290.632	-200.000	0.122	-0.582
-289.618	151.921	0.050	0.067
-288.603	202.212	0.196	-0.301
-287.589	32.596	-0.345	0.296
-286.574	-114.070	-0.228	0.044
-285.559	-95.924	0.764	0.202
-284.545	458.501	-0.155	0.342
-283.530	162.707	0.573	0.799
-282.516	26.170	0.371	0.308
-281.501	-137.134	0.685	0.078
-280.486	-200.000	-0.015	-0.178
-279.472	-67.359	-0.140	0.055
-278.457	411.075	-0.098	0.206
-277.443	-3.561	-0.781	0.540
-276.428	-200.000	0.069	0.349
-275.413	61.610	0.343	0.339
-274.399	277.477	0.120	-0.213
-273.384	87.401	0.515	0.566
-272.370	112.044	0.351	0.422
-271.355	413.693	-0.135	-0.286
-270.340	-124.782	0.252	-0.039
-269.326	0.752	-0.431	-0.307
-268.311	-33.274	-0.663	-0.365
-267.297	44.904	0.368	0.337
-266.282	392.290	0.210	-0.434
-265.267	74.960	0.624	0.653
-264.253	239.266	-0.360	0.594
-263.238	-184.303	-0.246	-0.004
-262.224	49.632	-0.328	-0.307
-261.209	-93.145	-0.714	-0.197
-260.195	-85.520	1.022	0.316
-259.180	800.000	-0.247	0.683
-258.165	268.755	0.439	-0.764
-257.151	-169.943	-0.168	-0.006
-256.136	800.000	0.092	-0.297
-255.122	-41.527	-0.589	0.301
-254.107	-13.451	-0.341	-0.220
-253.092	171.136	0.296	0.422
-252.078	-75.750	-0.771	-0.272
-251.063	132.277	0.180	0.230
-250.049	19.313	-0.632	0.504
-249.034	27.111	0.421	0.351
-248.019	-200.000	-0.064	0.939
-247.005	800.000	0.107	0.329
-245.990	800.000	-0.103	0.380
-244.976	97.639	-0.136	-0.155
-243.961	98.518	-0.264	0.303
-242.946	800.000	-0.208	-0.610
-241.932	-109.549	0.423	-0.089
-240.917	-200.000	0.001	-0.573
-239.903	272.217	-0.462	-0.808
-238.888	353.160	-0.240	-0.472
-237.873	-200.000	0.133	-0.946
-236.859	-147.921	0.655	-0.054
-235.844	-68.766	-0.228	-0.088
-234.830	-200.000	0.111	0.573
-233.815	-39.198	-0.531	0.277
-232.800	-31.005	0.444	-0.249
-231.786	-200.000	0.053	0.403
-230.771	263.924	-0.391	-0.675
-229.757	-98.523	0.673	0.171
-228.742	-61.735	0.428	-0.178
-227.727	-18.222	0.716	0.444
-226.713	800.000	0.163	0.594
-225.698	-200.000	-0.156	0.808
-224.684	-99.386	0.589	0.147
-223.669	-200.000	-0.002	-0.068
-222.655	-111.415	-0.199	-0.040
-221.640	-108.137	0.907	-0.195
-220.625	34.572	-0.362	-0.314
-219.611	51.926	-0.445	0.420
-218.596	-91.175	-0.586	0.167
-217.582	-161.764	-0.798	0.040
-216.567	231.015	-0.079	0.128
-215.552	353.083	-0.401	0.789
-214.538	-82.916	-0.775	-0.248
-213.523	249.145	-0.071	-0.118
-212.509	-25.573	-0.175	0.102
-211.494	133.101	0.375	-0.480
-210.479	-20.951	0.648	-0.394
-209.465	-77.464	-0.262	0.090
-208.450	269.428	0.406	-0.706
-207.436	-67.578	-0.141	0.055
-206.421	800.000	0.167	-0.466
-205.406	135.530	0.245	0.316
-204.392	-80.890	-0.597	0.196
-203.377	121.645	0.426	0.526
-202.363	-165.222	0.328	0.014
-201.348	-200.000	0.178	-0.986
-200.333	110.232	0.460	0.548
-199.319	-200.000	0.031	-0.626
-198.304	-200.000	-0.019	-0.454
-197.290	604.243	-0.113	0.280
-196.275	-77.361	0.637	0.219
-195.260	52.118	-0.793	-0.748
-194.246	800.000	-0.208	0.765
-193.231	-0.478	-0.396	-0.278
-192.217	35.178	-0.159	-0.138
-191.202	-200.000	-0.102	0.680
-190.187	32.560	0.227	0.194
-189.173	-200.000	-0.011	0.178
-188.158	-138.291	0.523	-0.057
-187.144	99.859	0.551	0.633
-186.129	-200.000	-0.114	-0.564
-185.114	83.721	-0.227	-0.245
-184.100	80.975	-0.290	-0.310
-183.085	800.000	-0.296	0.918
-182.071	68.356	0.114	0.116
-181.056	-12.130	0.269	0.174
-180.042	37.989	-0.484	-0.426
-179.027	427.073	0.316	-0.676
-178.012	-114.723	-0.294	0.056
-176.998	-154.754	0.357	0.023
-175.983	36.132	-0.329	-0.287
-174.969	-200.000	-0.071	0.334
-173.954	-89.529	0.268	-0.078
-172.939	161.513	0.247	-0.343
-171.925	721.429	-0.263	0.692
-170.910	-44.999	0.275	0.136
-169.896	40.719	-0.318	0.284
-168.881	636.765	-0.373	0.938
-167.866	800.000	-0.184	0.540
-166.852	-200.000	0.048	-0.388
-165.837	438.935	0.166	-0.360
-164.823	-134.812	0.695	0.083
-163.808	24.737	-0.166	0.136
-162.793	196.944	0.664	1.002
-161.779	800.000	0.121	-0.345
-160.764	-200.000	-0.086	-0.600
-159.750	-183.062	-0.570	0.010
-158.735	96.868	-0.645	0.732
-157.720	-109.972	-0.339	0.070
-156.706	-176.555	0.364	0.009
-155.691	-181.266	0.551	0.011
-154.677	800.000	0.032	-0.100
-153.662	-56.706	-0.752	-0.329
-152.647	-1.823	0.262	-0.182
-151.633	25.632	0.242	-0.199
-150.618	-200.000	-0.099	-0.653
-149.604	-83.275	0.241	-0.076
-148.589	89.951	-0.309	-0.341
-147.574	-174.694	0.648	-0.018
-146.560	-200.000	-0.007	0.363
-145.545	-136.032	-0.496	0.058
-144.531	4.121	0.194	-0.140
-143.516	-88.742	0.091	-0.027
-142.502	290.771	0.464	0.834
-141.487	-200.000	-0.028	0.179
-140.472	-53.690	0.923	0.417
-139.458	260.477	0.329	0.562
-138.443	-85.385	-0.179	0.055
-137.429	-67.012	0.205	0.080
-136.414	-143.359	0.485	0.046
-135.399	49.789	-0.476	-0.443
-134.385	800.000	-0.161	-0.466
-133.370	-54.244	0.973	-0.437
-132.356	-70.600	-0.267	-0.100
-131.341	-87.548	0.651	0.195
-130.326	-128.510	-0.356	0.050
-129.312	-70.353	-0.205	-0.077
-128.297	-5.503	0.234	-0.159
-127.283	-99.095	-0.578	0.145
-126.268	-41.741	0.067	-0.034
-125.253	26.775	0.412	-0.341
-124.239	-132.012	-0.373	0.048
-123.224	-175.656	0.649	0.017
-122.210	-200.000	-0.011	-0.101
-121.195	-126.178	0.271	-0.040
