DTS Sentinel unit serial number:	SN413079Multiplexer serial number:	ORYXHardware model number:	OX4-SRSoftware version number:	ORYX F/W v4.00 Oryx Data Collector v3.7.2.0data status	okinstallation	princeton_trtdifferential loss correction	single-endedforward channel	channel 1reverse channel	N/Adate	2019/09/15time	05:34:35forward acquisition time	60.00reverse acquisition time	0.00gamma	496.2192k internal	0.2325k external	0.2325temperature offset calibration	0.9990default loss term (dB/km)	0.3790temperature slope calibration	1.0000multiplexer offset coefficient	1.0000multiplexer slope coefficient	1.0000fibre end	0.00T internal ref (°C)	30.58T ext. ref 1 (°C)	4.77T ext. ref 2 (°C)	25.76length (m)	temperature (°C)	Stokes	anti-Stokes-747.200	-70.779	0.169	0.064
-746.185	-11.402	-0.201	0.134
-745.171	-156.554	-0.273	-0.017
-744.156	107.976	-0.135	0.163
-743.142	-200.000	0.028	-0.157
-742.127	-187.311	0.239	0.003
-741.112	800.000	0.126	0.439
-740.098	100.340	0.094	-0.110
-739.083	46.442	0.335	-0.314
-738.069	56.845	-0.297	0.292
-737.054	-67.188	0.087	0.034
-736.039	92.973	0.038	-0.043
-735.025	-126.833	-0.187	-0.028
-734.010	800.000	-0.048	-0.137
-732.996	-140.084	-0.102	0.011
-731.981	81.542	-0.127	0.138
-730.966	-21.094	0.045	-0.028
-729.952	604.047	-0.046	-0.115
-728.937	202.130	0.067	0.104
-727.923	31.056	0.172	-0.149
-726.908	-37.052	-0.107	-0.058
-725.894	31.523	-0.147	-0.127
-724.879	-1.892	0.061	-0.043
-723.864	-59.619	-0.523	-0.226
-722.850	62.211	-0.142	0.143
-721.835	196.282	-0.051	-0.078
-720.821	-98.710	-0.131	-0.034
-719.806	487.458	-0.130	-0.298
-718.791	-116.672	-0.495	-0.092
-717.777	-131.103	0.156	-0.021
-716.762	-200.000	-0.014	0.149
-715.748	554.203	0.107	0.258
-714.733	-116.950	-0.182	0.034
-713.718	-89.971	0.184	-0.054
-712.704	-69.223	0.297	0.115
-711.689	12.500	0.172	-0.134
-710.675	-130.919	-0.278	0.038
-709.660	188.902	-0.128	-0.193
-708.645	-128.780	-0.190	-0.027
-707.631	216.322	-0.157	-0.252
-706.616	678.711	-0.106	-0.279
-705.602	16.493	-0.194	-0.154
-704.587	-101.706	0.130	-0.032
-703.572	557.690	-0.041	-0.099
-702.558	-154.953	-0.071	0.005
-701.543	800.000	-0.075	0.217
-700.529	145.680	0.201	-0.271
-699.514	-6.296	0.276	-0.190
-698.499	-70.502	0.183	0.070
-697.485	671.643	-0.141	-0.367
-696.470	416.723	-0.118	0.254
-695.456	-134.424	0.278	-0.034
-694.441	-183.752	0.266	0.005
-693.426	800.000	-0.108	-0.363
-692.412	-184.070	0.201	0.003
-691.397	-58.283	0.146	-0.064
-690.383	135.795	0.148	-0.193
-689.368	-19.038	-0.169	0.106
-688.354	800.000	-0.045	0.137
-687.339	-99.455	-0.378	0.096
-686.324	23.311	-0.197	-0.163
-685.310	328.442	0.179	-0.347
-684.295	-59.766	-0.067	0.029
-683.281	-110.563	-0.242	0.050
-682.266	167.246	-0.053	-0.075
-681.251	-47.775	-0.185	-0.090
-680.237	288.761	-0.205	0.374
-679.222	-200.000	0.060	0.268
-678.208	-10.356	-0.324	-0.216
-677.193	147.370	-0.109	0.148
-676.178	-200.000	0.013	-0.177
-675.164	148.075	-0.249	-0.338
-674.149	-24.005	-0.115	0.069
-673.135	-200.000	0.018	-0.157
-672.120	-200.000	0.001	-0.257
-671.105	-60.541	0.090	0.038
-670.091	135.433	-0.080	-0.105
-669.076	-83.524	-0.258	-0.083
-668.062	122.676	-0.069	-0.087
-667.047	-200.000	0.020	-0.246
-666.032	468.632	-0.041	0.092
-665.018	-200.000	-0.011	-0.263
-664.003	-170.004	-0.202	0.007
-662.989	88.235	0.117	-0.130
-661.974	168.402	0.103	-0.148
-660.959	372.529	-0.079	0.161
-659.945	-177.692	0.492	0.012
-658.930	-200.000	0.008	0.071
-657.916	-121.914	0.193	0.032
-656.901	273.651	-0.306	0.544
-655.886	-200.000	-0.018	0.112
-654.872	-119.965	0.250	-0.043
-653.857	6.435	0.205	-0.153
-652.843	-200.000	-0.047	-0.234
-651.828	-200.000	0.033	0.334
-650.814	-54.030	-0.232	-0.106
-649.799	-42.124	0.283	0.145
-648.784	99.133	0.084	0.097
-647.770	-140.875	-0.392	-0.041
-646.755	-200.000	0.012	-0.084
-645.741	187.094	0.160	0.239
-644.726	167.329	0.122	0.175
-643.711	-98.318	-0.009	0.002
-642.697	-66.924	0.171	-0.068
-641.682	-117.914	-0.349	-0.063
-640.668	-55.714	0.204	-0.092
-639.653	-200.000	0.004	-0.144
-638.638	-32.494	-0.164	-0.092
-637.624	-3.995	0.022	-0.016
-636.609	237.835	0.158	-0.264
-635.595	14.987	-0.143	-0.113
-634.580	303.975	-0.233	-0.433
-633.565	-64.187	-0.012	-0.005
-632.551	-88.556	0.222	-0.067
-631.536	205.533	-0.043	0.068
-630.522	-175.315	-0.248	-0.007
-629.507	-172.691	-0.112	0.004
-628.492	50.303	0.145	0.138
-627.478	95.870	-0.115	-0.131
-626.463	351.348	-0.204	0.405
-625.449	-200.000	0.002	-0.059
-624.434	179.140	0.134	-0.197
-623.419	131.081	-0.136	-0.176
-622.405	5.884	-0.279	-0.208
-621.390	93.356	0.037	0.042
-620.376	3.474	0.177	0.129
-619.361	-200.000	0.009	-0.269
-618.346	-200.000	0.003	-0.101
-617.332	84.956	-0.121	0.133
-616.317	-200.000	-0.020	0.176
-615.303	157.622	0.079	0.109
-614.288	-200.000	0.006	-0.147
-613.273	7.030	0.080	-0.060
-612.259	95.506	-0.196	-0.225
-611.244	-143.070	0.103	-0.010
-610.230	33.459	-0.032	0.028
-609.215	128.822	-0.220	0.282
-608.201	-30.428	-0.074	-0.042
-607.186	-82.210	0.238	-0.078
-606.171	170.792	0.056	-0.081
-605.157	338.670	-0.053	-0.104
-604.142	-118.841	0.328	-0.058
-603.128	281.193	-0.029	0.053
-602.113	765.565	0.059	-0.161
-601.098	698.008	-0.105	-0.277
-600.084	-96.376	-0.450	-0.120
-599.069	375.075	0.027	-0.054
-598.055	-200.000	0.005	-0.024
-597.040	209.585	0.084	0.132
-596.025	-103.715	-0.346	-0.081
-595.011	-33.227	0.066	0.036
-593.996	-128.632	0.150	-0.021
-592.982	134.844	-0.133	0.173
-591.967	131.122	-0.099	-0.127
-590.952	137.743	-0.042	-0.055
-589.938	-171.822	0.236	-0.008
-588.923	4.930	-0.065	-0.048
-587.909	-132.365	-0.236	0.031
-586.894	-200.000	-0.045	-0.230
-585.879	3.147	0.006	-0.005
-584.865	-200.000	-0.045	-0.301
-583.850	26.927	-0.177	-0.149
-582.836	-11.970	-0.067	-0.044
-581.821	219.067	-0.065	-0.105
-580.806	-9.308	0.056	-0.037
-579.792	198.213	0.123	0.188
-578.777	183.081	0.256	0.379
-577.763	-71.013	0.202	0.076
-576.748	-91.851	0.334	-0.095
-575.733	-200.000	-0.007	-0.184
-574.719	-200.000	0.073	-0.367
-573.704	-112.318	-0.149	-0.030
-572.690	-41.235	0.138	-0.071
-571.675	220.504	0.062	-0.100
-570.661	-200.000	-0.035	-0.286
-569.646	1.616	-0.048	0.034
-568.631	-200.000	0.031	-0.327
-567.617	800.000	-0.089	-0.246
-566.602	7.893	0.417	-0.313
-565.588	-82.137	0.125	-0.041
-564.573	541.977	-0.095	0.226
-563.558	-155.724	-0.250	-0.016
-562.544	-200.000	0.020	0.311
-561.529	-12.956	0.255	0.166
-560.515	-1.756	0.097	0.068
-559.500	-58.950	0.181	-0.078
-558.485	-147.260	0.128	-0.011
-557.471	-94.438	-0.176	-0.048
-556.456	-7.096	0.269	-0.183
-555.442	-123.229	-0.206	-0.033
-554.427	-155.049	-0.139	0.009
-553.412	-65.628	0.144	-0.058
-552.398	-200.000	0.113	0.563
-551.383	289.124	0.110	0.199
-550.369	-47.604	0.171	0.083
-549.354	-200.000	-0.096	0.000
-548.339	497.974	0.068	-0.157
-547.325	-44.091	-0.352	0.177
-546.310	161.876	-0.082	-0.115
-545.296	453.234	-0.096	-0.212
-544.281	146.159	0.080	-0.107
-543.266	-155.678	-0.248	-0.016
-542.252	474.362	0.051	-0.115
-541.237	-77.935	-0.404	-0.140
-540.223	800.000	0.048	0.166
-539.208	800.000	0.091	-0.258
-538.193	741.611	-0.081	-0.218
-537.179	-99.850	-0.352	0.088
-536.164	800.000	-0.023	0.070
-535.150	-93.347	0.401	-0.111
-534.135	20.032	-0.037	0.030
-533.121	4.504	-0.103	0.075
-532.106	-200.000	-0.030	0.161
-531.091	-29.199	0.031	-0.018
-530.077	-200.000	-0.070	0.310
-529.062	128.295	0.091	0.116
-528.048	221.467	-0.128	0.206
-527.033	298.959	0.058	-0.107
-526.018	145.691	0.155	-0.208
-525.004	104.182	-0.096	0.113
-523.989	324.700	-0.024	0.045
-522.975	-72.558	-0.198	0.073
-521.960	115.979	-0.175	0.214
-520.945	-137.119	-0.185	-0.021
-519.931	-67.893	0.197	-0.077
-518.916	800.000	0.039	-0.139
-517.902	800.000	-0.011	0.038
-516.887	-73.670	0.213	0.078
-515.872	460.993	0.085	0.190
-514.858	-108.951	0.122	0.026
-513.843	40.051	-0.190	-0.171
-512.829	25.743	-0.198	-0.165
-511.814	-59.395	-0.113	-0.048
-510.799	-200.000	-0.031	0.211
-509.785	-167.466	0.250	-0.010
-508.770	117.066	-0.172	0.211
-507.756	777.910	-0.032	-0.088
-506.741	62.336	-0.186	-0.185
-505.726	-108.988	-0.101	-0.021
-504.712	-133.516	-0.114	-0.014
-503.697	-123.581	0.165	0.026
-502.683	-200.000	-0.030	0.145
-501.668	-15.048	0.074	0.047
-500.653	-112.206	0.318	0.064
-499.639	60.261	-0.100	-0.099
-498.624	-64.047	-0.200	0.082
-497.610	-200.000	0.072	-0.337
-496.595	-63.422	-0.402	0.165
-495.581	138.981	0.069	0.091
-494.566	234.762	-0.062	-0.101
-493.551	454.466	0.105	-0.232
-492.537	-200.000	0.032	0.208
-491.522	-196.511	0.147	0.001
-490.508	800.000	-0.019	-0.057
-489.493	-156.953	0.310	0.019
-488.478	-170.174	0.264	0.009
-487.464	221.423	-0.038	0.061
-486.449	114.751	0.178	0.217
-485.435	648.237	-0.140	0.359
-484.420	77.108	-0.207	0.219
-483.405	154.641	-0.157	-0.216
-482.391	800.000	-0.096	-0.349
-481.376	674.027	-0.127	0.329
-480.362	-42.513	-0.399	0.203
-479.347	800.000	0.087	0.292
-478.332	-90.963	0.117	0.034
-477.318	-107.712	-0.298	0.065
-476.303	-63.627	0.264	0.108
-475.289	560.674	-0.095	-0.230
-474.274	-73.756	-0.130	-0.047
-473.259	147.674	-0.141	0.189
-472.245	-200.000	-0.010	-0.257
-471.230	-113.921	-0.119	0.023
-470.216	-45.700	0.323	-0.160
-469.201	-88.889	-0.183	0.054
-468.186	143.683	0.088	0.117
-467.172	245.128	0.093	-0.155
-466.157	-200.000	0.004	-0.394
-465.143	429.170	-0.060	-0.129
-464.128	74.933	-0.031	-0.033
-463.113	-200.000	-0.009	0.082
-462.099	-113.940	-0.228	-0.044
-461.084	106.273	0.193	0.228
-460.070	-200.000	0.078	-0.359
-459.055	-49.065	0.221	0.106
-458.040	40.741	-0.030	0.027
-457.026	-116.777	0.387	0.071
-456.011	-79.760	-0.192	0.065
-454.997	-39.867	0.291	-0.152
-453.982	800.000	0.061	0.177
-452.968	15.880	0.172	0.135
-451.953	-78.895	0.196	-0.067
-450.938	-200.000	-0.016	-0.143
-449.924	51.734	-0.074	-0.070
-448.909	-14.325	0.109	0.070
-447.895	800.000	-0.139	0.394
-446.880	86.872	-0.089	-0.097
-445.865	362.199	-0.136	-0.272
-444.851	227.121	-0.119	-0.193
-443.836	745.214	0.052	0.140
-442.822	-182.965	-0.111	-0.002
-441.807	-136.749	0.329	0.038
-440.792	347.886	-0.173	-0.340
-439.778	-8.039	0.173	0.116
-438.763	-77.847	0.360	0.124
-437.749	800.000	-0.020	0.071
-436.734	-80.578	-0.113	0.038
-435.719	-10.760	-0.097	-0.064
-434.705	11.314	-0.219	0.167
-433.690	-86.219	-0.236	0.073
-432.676	-200.000	-0.001	0.157
-431.661	-127.854	-0.091	0.013
-430.646	-134.964	0.067	0.008
-429.632	-76.167	0.436	0.153
-428.617	15.856	0.189	0.148
-427.603	89.126	0.038	-0.043
-426.588	-200.000	-0.001	0.139
-425.573	119.394	0.196	0.242
-424.559	-69.301	0.131	0.050
-423.544	-68.480	0.094	0.036
-422.530	-200.000	-0.013	-0.162
-421.515	800.000	-0.036	-0.104
-420.500	-177.803	-0.147	0.004
-419.486	-27.847	0.196	-0.113
-418.471	-86.257	-0.176	0.054
-417.457	-200.000	-0.014	0.127
-416.442	424.887	-0.180	0.386
-415.428	187.523	0.059	-0.088
-414.413	-18.472	0.114	-0.071
-413.398	-200.000	0.037	0.233
-412.384	-178.657	0.076	0.002
-411.369	255.706	0.092	-0.156
-410.355	-75.353	-0.080	-0.028
-409.340	-37.595	-0.196	-0.104
-408.325	-66.539	-0.070	-0.028
-407.311	-24.541	0.196	-0.116
-406.296	-142.221	0.236	0.023
-405.282	-200.000	-0.028	-0.375
-404.267	-96.589	-0.087	-0.023
-403.252	264.965	-0.167	0.290
-402.238	-5.778	-0.169	0.115
-401.223	64.939	0.232	-0.233
-400.209	-53.007	-0.243	0.111
-399.194	-69.000	-0.127	0.049
-398.179	-200.000	-0.025	0.133
-397.165	-200.000	-0.020	0.157
-396.150	-200.000	-0.013	0.078
-395.136	280.440	-0.137	0.244
-394.121	-76.882	-0.182	-0.063
-393.106	800.000	0.031	-0.105
-392.092	90.445	-0.040	-0.044
-391.077	-44.463	-0.244	0.122
-390.063	-10.240	0.035	-0.023
-389.048	-158.315	0.372	0.022
-388.033	-200.000	-0.027	0.155
-387.019	-54.670	-0.219	0.098
-386.004	800.000	0.032	0.102
-384.990	-200.000	-0.019	-0.108
-383.975	187.891	0.118	0.175
-382.960	8.246	-0.111	0.083
-381.946	-74.212	-0.213	-0.077
-380.931	800.000	0.090	-0.256
-379.917	-200.000	0.089	-0.490
-378.902	170.639	-0.089	-0.127
-377.888	-139.252	-0.081	0.009
-376.873	-88.681	-0.290	-0.086
-375.858	46.167	-0.193	0.178
-374.844	10.544	-0.340	0.258
-373.829	-170.847	-0.199	0.007
-372.815	18.722	-0.121	-0.096
-371.800	-169.613	0.289	-0.010
-370.785	440.291	0.041	-0.089
-369.771	-10.391	-0.113	-0.074
-368.756	-8.317	0.246	-0.165
-367.742	-111.149	0.254	0.052
-366.727	-103.207	-0.240	0.056
-365.712	800.000	0.111	0.354
-364.698	401.002	0.020	-0.042
-363.683	21.010	0.075	-0.061
-362.669	-200.000	0.024	0.206
-361.654	-32.144	-0.279	0.155
-360.639	76.806	0.147	0.155
-359.625	243.320	0.183	-0.304
-358.610	9.096	0.233	0.175
-357.596	109.830	-0.123	-0.147
-356.581	-31.245	0.172	-0.096
-355.566	-37.714	0.144	-0.076
-354.552	175.095	0.067	-0.097
-353.537	770.882	0.032	-0.085
-352.523	800.000	0.034	-0.121
-351.508	154.931	0.174	0.238
-350.493	-64.666	0.146	0.059
-349.479	-200.000	-0.002	0.127
-348.464	197.377	-0.054	-0.081
-347.450	-17.606	-0.182	0.113
-346.435	-92.096	0.347	0.098
-345.420	-117.239	0.105	-0.019
-344.406	-74.879	0.230	0.082
-343.391	302.970	-0.026	0.048
-342.377	-40.050	-0.077	0.040
-341.362	113.485	0.082	0.099
-340.348	17.278	0.135	0.106
-339.333	-200.000	0.007	-0.236
-338.318	-45.192	0.228	0.112
-337.304	-3.008	-0.205	-0.142
-336.289	146.947	0.094	0.126
-335.275	0.446	0.146	0.104
-334.260	235.544	-0.110	0.181
-333.245	-39.660	0.082	-0.042
-332.231	-42.410	0.233	-0.118
-331.216	21.021	-0.294	-0.236
-330.202	-40.589	0.096	-0.049
-329.187	800.000	0.026	0.108
-328.172	158.200	-0.181	0.249
-327.158	-200.000	-0.011	0.205
-326.143	223.839	-0.102	0.163
-325.129	-142.825	0.117	-0.011
-324.114	-131.057	0.156	-0.021
-323.099	97.986	-0.219	-0.250
-322.085	51.698	0.219	-0.207
-321.070	141.878	0.108	-0.142
-320.056	58.501	0.112	-0.109
-319.041	-200.000	0.021	-0.380
-318.026	-172.471	0.278	0.009
-317.012	-200.000	-0.024	-0.239
-315.997	-200.000	0.000	-0.028
-314.983	112.867	-0.105	0.126
-313.968	-139.290	0.143	-0.015
-312.953	-109.406	0.174	0.036
-311.939	162.344	0.026	0.036
-310.924	374.897	-0.052	-0.105
-309.910	-200.000	-0.014	0.226
-308.895	-200.000	-0.010	0.056
-307.880	200.788	0.273	-0.416
-306.866	646.058	-0.036	-0.091
-305.851	311.166	0.117	0.218
-304.837	-123.750	0.401	0.063
-303.822	-74.653	-0.032	0.012
-302.807	-91.878	0.496	-0.140
-301.793	65.571	0.185	0.186
-300.778	397.952	-0.137	0.285
-299.764	-49.516	-0.177	0.084
-298.749	524.457	-0.134	0.314
-297.735	11.418	0.170	0.129
-296.720	-66.657	-0.262	-0.103
-295.705	-104.061	-0.360	0.083
-294.691	544.122	-0.061	0.144
-293.676	-160.164	0.163	-0.009
-292.662	65.187	0.303	0.304
-291.647	-79.753	0.326	-0.109
-290.632	-200.000	0.026	-0.326
-289.618	51.119	-0.083	-0.078
-288.603	488.990	-0.057	-0.130
-287.589	16.765	0.129	0.101
-286.574	48.348	-0.207	-0.192
-285.559	23.536	-0.153	0.125
-284.545	-143.130	0.198	-0.019
-283.530	61.677	0.129	0.128
-282.516	-200.000	-0.014	-0.085
-281.501	307.509	0.085	-0.157
-280.486	-55.090	-0.236	0.105
-279.472	-120.860	0.245	-0.041
-278.457	-24.551	0.357	0.211
-277.443	-93.540	-0.233	-0.064
-276.428	-61.819	-0.171	0.071
-275.413	800.000	0.024	0.075
-274.399	800.000	-0.090	-0.278
-273.384	-98.905	-0.155	-0.039
-272.370	316.580	-0.053	0.099
-271.355	260.464	-0.159	0.272
-270.340	-190.673	0.150	0.002
-269.326	314.924	0.126	-0.235
-268.311	-38.704	-0.061	-0.032
-267.297	800.000	0.047	-0.197
-266.282	-200.000	0.018	-0.231
-265.267	-169.320	-0.207	0.008
-264.253	-148.086	0.531	-0.044
-263.238	197.445	-0.061	0.092
-262.224	183.851	0.067	-0.099
-261.209	-118.737	-0.276	-0.048
-260.195	22.178	-0.154	0.125
-259.180	270.168	0.205	0.356
-258.165	128.951	-0.110	0.139
-257.151	-74.632	0.061	0.022
-256.136	-92.122	0.216	-0.060
-255.122	-94.439	0.150	-0.040
-254.107	-84.302	-0.313	-0.098
-253.092	800.000	-0.043	0.124
-252.078	-101.463	-0.108	0.026
-251.063	-31.331	0.288	0.161
-250.049	-200.000	-0.054	0.262
-249.034	113.054	0.064	0.077
-248.019	69.390	-0.229	0.234
-247.005	292.078	-0.105	-0.189
-245.990	-89.000	0.217	0.064
-244.976	53.607	-0.223	0.212
-243.961	-66.076	-0.156	-0.061
-242.946	-26.058	0.077	-0.045
-241.932	-158.214	-0.396	-0.023
-240.917	-149.009	-0.142	-0.011
-239.903	550.763	0.103	-0.243
-238.888	-126.467	-0.482	0.071
-237.873	338.629	-0.151	0.292
-236.859	253.577	-0.199	0.336
-235.844	-47.527	-0.262	-0.126
-234.830	311.194	-0.131	-0.243
-233.815	-77.725	-0.181	-0.062
-232.800	800.000	0.061	0.248
-231.786	227.342	-0.238	0.382
-230.771	-110.762	-0.219	-0.045
-229.757	124.963	0.159	0.198
-228.742	85.673	-0.143	-0.155
-227.727	-97.386	-0.425	-0.109
-226.713	-103.060	0.149	0.035
-225.698	42.271	-0.029	-0.026
-224.684	288.159	-0.073	0.131
-223.669	-200.000	0.032	-0.328
-222.655	300.678	-0.222	-0.404
-221.640	227.050	0.304	-0.489
-220.625	-151.423	0.186	0.014
-219.611	-200.000	0.003	0.058
-218.596	46.864	-0.215	0.198
-217.582	109.114	0.028	0.033
-216.567	-144.646	-0.290	-0.026
-215.552	-200.000	0.036	0.181
-214.538	-200.000	-0.019	0.257
-213.523	324.589	-0.108	0.203
-212.509	-22.152	-0.183	0.110
-211.494	-200.000	0.001	-0.037
-210.479	-86.868	-0.488	-0.147
-209.465	-200.000	-0.044	-0.192
-208.450	800.000	-0.063	-0.239
-207.436	-200.000	0.007	-0.141
-206.421	-200.000	-0.006	0.101
-205.406	-162.047	0.261	-0.013
-204.392	-36.907	-0.282	0.149
-203.377	-76.932	-0.092	0.032
-202.363	-115.359	0.255	0.048
-201.348	26.358	-0.230	-0.190
-200.333	-169.872	0.340	-0.012
-199.319	38.116	-0.322	-0.283
-198.304	-70.084	0.121	-0.045
-197.290	102.284	-0.060	0.069
-196.275	-83.452	0.150	-0.048
-195.260	178.697	0.231	0.334
-194.246	603.446	-0.029	-0.071
-193.231	196.148	0.092	0.138
-192.217	-72.951	0.273	0.099
-191.202	-75.872	0.216	0.076
-190.187	36.823	-0.114	-0.099
-189.173	41.468	0.234	0.209
-188.158	-65.132	-0.244	-0.097
-187.144	-116.013	-0.150	-0.028
-186.129	-103.699	-0.146	-0.034
-185.114	-104.018	-0.386	-0.089
-184.100	-200.000	0.481	-0.002
-183.085	-200.000	-0.029	0.132
-182.071	-200.000	-0.046	-0.211
-181.056	-200.000	0.005	-0.192
-180.042	147.492	-0.075	0.099
-179.027	800.000	-0.075	-0.269
-178.012	664.971	0.065	-0.165
-176.998	-27.878	0.298	-0.170
-175.983	418.183	-0.101	-0.212
-174.969	-200.000	0.003	0.063
-173.954	35.058	0.103	0.089
-172.939	140.659	0.142	0.185
-171.925	513.410	0.144	0.331
-170.910	51.491	-0.229	0.215
-169.896	167.935	0.109	0.153
-168.881	18.479	-0.167	0.131
-167.866	-46.893	0.275	-0.133
-166.852	761.840	-0.061	0.163
-165.837	-45.433	0.160	-0.078
-164.823	-200.000	0.024	-0.347
-163.808	93.661	-0.199	0.223
-162.793	-11.721	0.118	-0.077
-161.779	-146.202	0.338	-0.029
-160.764	800.000	-0.044	-0.176
-159.750	331.155	-0.039	-0.074
-158.735	-67.398	0.429	0.166
-157.720	192.187	0.034	-0.051
-156.706	114.738	0.250	0.301
-155.691	87.177	-0.075	-0.082
-154.677	512.812	-0.075	0.172
-153.662	-118.609	0.147	0.026
-152.647	302.515	-0.162	-0.296
-151.633	211.768	0.079	0.122
-150.618	-82.197	-0.164	0.053
-149.604	800.000	0.048	0.178
-148.589	21.559	0.395	0.317
-147.574	89.351	-0.164	0.181
-146.560	47.488	-0.151	0.139
-145.545	284.718	0.230	-0.409
-144.531	18.266	-0.317	0.249
-143.516	168.348	0.108	0.152
-142.502	164.486	-0.101	0.140
-141.487	638.938	-0.021	0.054
-140.472	85.680	-0.034	0.036
-139.458	-141.404	0.204	0.020
-138.443	-200.000	-0.015	0.112
-137.429	800.000	0.043	-0.124
-136.414	66.732	-0.257	0.258
-135.399	-200.000	-0.013	0.069
-134.385	-71.668	0.351	-0.129
-133.370	-200.000	-0.009	0.126
-132.356	360.787	0.135	-0.266
-131.341	-117.826	-0.390	-0.069
-130.326	-97.250	-0.158	0.041
-129.312	22.149	0.065	0.052
-128.297	65.342	-0.050	0.050
-127.283	-17.425	0.109	-0.068
-126.268	-200.000	0.005	0.051
-125.253	800.000	0.062	0.208
-124.239	-113.684	0.283	0.054
-123.224	156.534	0.133	0.181
-122.210	101.072	0.040	0.046
