DTS Sentinel unit serial number:	SN413079Multiplexer serial number:	ORYXHardware model number:	OX4-SRSoftware version number:	ORYX F/W v4.00 Oryx Data Collector v3.7.2.0data status	okinstallation	princeton_trtdifferential loss correction	single-endedforward channel	channel 1reverse channel	N/Adate	2019/09/18time	12:50:35forward acquisition time	60.00reverse acquisition time	0.00gamma	496.2192k internal	0.2316k external	0.2316temperature offset calibration	0.9982default loss term (dB/km)	0.3790temperature slope calibration	1.0000multiplexer offset coefficient	1.0000multiplexer slope coefficient	1.0000fibre end	0.00T internal ref (°C)	33.08T ext. ref 1 (°C)	0.55T ext. ref 2 (°C)	29.12length (m)	temperature (°C)	Stokes	anti-Stokes-747.200	236.446	0.017	0.029
-746.185	243.353	0.095	-0.162
-745.171	-113.629	-0.178	-0.035
-744.156	-200.000	0.022	0.140
-743.142	602.797	-0.080	0.201
-742.127	-200.000	-0.081	0.595
-741.112	-24.055	0.079	0.048
-740.098	-5.610	0.333	0.231
-739.083	800.000	0.113	0.366
-738.069	-200.000	-0.072	0.355
-737.054	-89.337	0.194	-0.058
-736.039	-8.727	-0.102	-0.069
-735.025	315.656	0.095	0.182
-734.010	-100.680	-0.430	-0.107
-732.996	179.178	0.025	-0.037
-731.981	-68.818	0.155	0.061
-730.966	547.274	-0.070	-0.171
-729.952	108.193	0.165	-0.199
-728.937	175.381	-0.108	0.158
-727.923	421.525	0.069	-0.150
-726.908	130.144	0.211	-0.273
-725.894	14.315	0.146	-0.116
-724.879	422.276	-0.096	-0.208
-723.864	-97.462	0.160	0.042
-722.850	-121.983	-0.218	0.036
-721.835	-186.117	-0.190	0.003
-720.821	800.000	-0.167	-0.487
-719.806	-84.095	-0.028	-0.009
-718.791	-95.760	0.205	-0.055
-717.777	-200.000	0.026	-0.147
-716.762	19.837	0.024	-0.019
-715.748	-200.000	-0.018	-0.084
-714.733	216.525	0.134	-0.215
-713.718	800.000	0.022	0.079
-712.704	527.213	0.068	-0.161
-711.689	800.000	0.038	0.153
-710.675	395.850	-0.021	0.045
-709.660	181.443	0.104	-0.155
-708.645	99.533	0.175	-0.204
-707.631	-113.510	-0.219	-0.043
-706.616	407.655	0.063	0.134
-705.602	85.569	-0.097	-0.108
-704.587	-108.210	0.128	0.028
-703.572	383.571	-0.226	-0.470
-702.558	108.431	-0.133	0.160
-701.543	-88.091	-0.175	0.053
-700.529	43.224	0.109	-0.101
-699.514	56.137	-0.057	0.056
-698.499	202.399	-0.145	-0.226
-697.485	348.261	-0.067	-0.133
-696.470	-200.000	-0.002	0.056
-695.456	-104.639	-0.368	-0.086
-694.441	124.509	0.096	0.122
-693.426	33.091	0.074	-0.065
-692.412	-200.000	0.053	0.301
-691.397	377.529	0.072	0.148
-690.383	777.638	0.051	-0.142
-689.368	-106.214	-0.065	-0.015
-688.354	252.464	0.056	-0.097
-687.339	-63.736	-0.258	0.107
-686.324	90.249	-0.122	0.138
-685.310	109.527	0.132	-0.160
-684.295	-89.415	-0.291	-0.087
-683.281	-41.152	-0.162	0.084
-682.266	-200.000	-0.089	-0.450
-681.251	-82.935	-0.216	0.070
-680.237	-97.832	0.237	-0.062
-679.222	-200.000	0.003	-0.062
-678.208	-200.000	0.022	-0.309
-677.193	-200.000	0.040	0.313
-676.178	395.859	-0.104	-0.219
-675.164	126.309	-0.126	-0.161
-674.149	-104.443	-0.195	-0.046
-673.135	-125.053	0.184	0.028
-672.120	46.107	-0.201	0.188
-671.105	-109.009	0.046	0.010
-670.091	-200.000	-0.110	0.000
-669.076	-171.862	0.338	-0.011
-668.062	132.037	0.090	0.117
-667.047	-149.374	-0.449	-0.036
-666.032	84.638	-0.203	-0.224
-665.018	800.000	0.100	-0.319
-664.003	-21.848	-0.068	-0.042
-662.989	-200.000	-0.010	-0.095
-661.974	777.850	-0.089	-0.245
-660.959	73.953	0.163	0.173
-659.945	800.000	-0.126	-0.476
-658.930	-23.219	0.310	0.188
-657.916	98.313	-0.285	0.332
-656.901	-105.128	-0.193	0.045
-655.886	-145.592	0.064	0.006
-654.872	-200.000	0.049	0.278
-653.857	-57.994	0.161	-0.071
-652.843	226.299	-0.083	-0.135
-651.828	205.552	0.118	-0.185
-650.814	800.000	0.047	-0.189
-649.799	589.654	-0.143	-0.356
-648.784	-82.334	-0.145	-0.047
-647.770	-200.000	-0.022	-0.216
-646.755	-131.903	-0.370	-0.049
-645.741	35.297	-0.162	-0.143
-644.726	-7.186	0.373	0.255
-643.711	-77.986	0.114	-0.040
-642.697	67.413	0.090	-0.093
-641.682	-200.000	-0.011	0.213
-640.668	-86.603	0.102	-0.032
-639.653	-29.731	-0.261	0.150
-638.638	800.000	-0.016	-0.057
-637.624	-78.769	0.251	0.087
-636.609	800.000	0.070	0.239
-635.595	261.581	-0.174	0.305
-634.580	-156.818	0.330	-0.020
-633.565	800.000	0.070	-0.237
-632.551	-112.047	0.134	0.027
-631.536	-200.000	-0.004	-0.135
-630.522	800.000	0.020	-0.081
-629.507	-97.577	0.244	0.064
-628.492	204.536	-0.092	-0.145
-627.478	800.000	-0.052	0.153
-626.463	800.000	0.030	-0.104
-625.449	45.010	-0.243	-0.225
-624.434	26.614	-0.214	0.180
-623.419	228.588	-0.190	0.312
-622.405	2.106	-0.336	0.245
-621.390	108.844	-0.125	-0.150
-620.376	396.593	0.038	-0.080
-619.361	189.952	-0.119	0.180
-618.346	-200.000	0.038	-0.326
-617.332	-168.448	0.338	-0.013
-616.317	-163.591	0.324	0.015
-615.303	-200.000	0.015	0.112
-614.288	102.937	0.165	0.194
-613.273	75.067	-0.293	-0.311
-612.259	147.597	-0.090	0.122
-611.244	76.284	0.092	-0.098
-610.230	800.000	-0.038	-0.112
-609.215	-106.239	0.093	-0.021
-608.201	-35.026	0.336	0.185
-607.186	-200.000	-0.031	0.384
-606.171	223.331	0.061	0.098
-605.157	221.288	-0.157	-0.254
-604.142	65.140	0.115	-0.117
-603.128	-200.000	0.070	0.370
-602.113	800.000	0.045	0.156
-601.098	168.961	-0.246	-0.353
-600.084	-4.859	-0.222	0.154
-599.069	-200.000	-0.056	0.343
-598.055	13.602	-0.190	-0.149
-597.040	-88.004	-0.184	-0.056
-596.025	338.474	0.082	-0.162
-595.011	-200.000	0.022	0.180
-593.996	4.534	0.114	0.084
-592.982	785.233	0.073	0.202
-591.967	-127.595	-0.183	-0.027
-590.952	71.725	-0.104	0.108
-589.938	-200.000	-0.039	-0.197
-588.923	-113.917	0.310	0.061
-587.909	147.394	-0.047	0.063
-586.894	517.011	-0.121	-0.284
-585.879	-6.708	0.237	-0.163
-584.865	-20.421	0.148	-0.092
-583.850	-26.764	-0.110	0.065
-582.836	-78.573	0.164	-0.057
-581.821	-200.000	-0.042	-0.276
-580.806	-126.054	0.320	-0.048
-579.792	-74.349	0.217	-0.079
-578.777	259.154	0.326	-0.566
-577.763	-84.241	0.116	-0.037
-576.748	-99.860	-0.410	-0.103
-575.733	-11.431	0.390	-0.258
-574.719	-184.205	-0.507	-0.008
-573.704	-177.252	0.268	-0.007
-572.690	-160.820	0.195	-0.010
-571.675	-200.000	-0.021	-0.394
-570.661	187.734	-0.145	-0.219
-569.646	-27.131	-0.208	-0.122
-568.631	67.435	-0.051	-0.053
-567.617	-144.205	-0.180	0.017
-566.602	-165.340	-0.279	0.012
-565.588	54.909	-0.092	-0.089
-564.573	-8.795	-0.200	-0.135
-563.558	-25.540	0.294	0.175
-562.544	-200.000	-0.008	0.043
-561.529	59.715	-0.215	0.213
-560.515	181.780	-0.140	-0.208
-559.500	-200.000	0.014	-0.110
-558.485	163.568	0.082	-0.116
-557.471	-200.000	0.002	-0.127
-556.456	-98.440	-0.086	-0.022
-555.442	146.383	0.136	0.184
-554.427	-200.000	-0.011	-0.060
-553.412	-67.091	-0.009	0.004
-552.398	128.424	-0.254	-0.325
-551.383	-200.000	0.070	-0.439
-550.369	50.787	-0.049	-0.046
-549.354	-74.844	0.211	-0.076
-548.339	-85.669	-0.311	-0.097
-547.325	800.000	-0.104	-0.293
-546.310	-84.131	-0.304	0.097
-545.296	99.058	0.250	-0.290
-544.281	118.691	-0.251	0.312
-543.266	-168.504	0.008	-0.000
-542.252	800.000	0.057	0.247
-541.237	-200.000	-0.036	0.220
-540.223	-200.000	-0.006	-0.129
-539.208	-78.752	-0.279	0.096
-538.193	662.292	-0.053	-0.138
-537.179	-200.000	-0.032	-0.196
-536.164	146.209	0.006	0.008
-535.150	-112.090	-0.319	0.065
-534.135	624.542	0.014	0.036
-533.121	-11.947	0.146	-0.096
-532.106	171.094	-0.101	0.145
-531.091	-200.000	0.006	0.054
-530.077	800.000	0.122	-0.379
-529.062	-49.294	-0.210	-0.101
-528.048	-149.323	-0.595	-0.048
-527.033	424.372	-0.101	0.218
-526.018	-200.000	-0.111	0.515
-525.004	306.426	0.229	0.428
-523.989	453.850	-0.073	-0.162
-522.975	105.183	0.090	0.106
-521.960	-184.690	0.277	0.004
-520.945	19.244	0.155	0.125
-519.931	219.837	-0.129	0.208
-518.916	-200.000	0.074	0.343
-517.902	-200.000	0.012	-0.105
-516.887	-200.000	0.006	0.043
-515.872	-200.000	0.010	0.066
-514.858	209.268	0.048	0.075
-513.843	-80.234	-0.109	0.037
-512.829	800.000	-0.093	0.262
-511.814	99.386	0.133	0.154
-510.799	800.000	0.095	0.263
-509.785	-48.181	0.367	-0.178
-508.770	-35.789	-0.055	-0.030
-507.756	634.704	-0.117	0.297
-506.741	-108.367	-0.076	-0.016
-505.726	590.049	0.091	-0.224
-504.712	-76.308	0.180	-0.064
-503.697	228.983	0.065	0.107
-502.683	82.346	-0.273	0.297
-501.668	-100.951	0.072	0.018
-500.653	59.328	0.128	0.126
-499.639	-125.106	0.225	-0.035
-498.624	1.447	-0.069	-0.050
-497.610	-200.000	0.022	-0.099
-496.595	138.127	-0.077	0.101
-495.581	-200.000	0.061	0.539
-494.566	800.000	-0.099	-0.276
-493.551	-151.866	0.111	-0.008
-492.537	-200.000	-0.045	-0.371
-491.522	669.369	-0.096	-0.249
-490.508	129.057	0.030	0.038
-489.493	-86.239	-0.345	-0.107
-488.478	175.307	0.057	0.083
-487.464	-99.698	-0.150	0.038
-486.449	-106.455	0.052	-0.012
-485.435	-150.409	0.354	-0.027
-484.420	800.000	-0.070	0.275
-483.405	229.967	-0.081	-0.133
-482.391	14.764	-0.153	0.120
-481.376	800.000	0.040	0.162
-480.362	-200.000	-0.054	-0.302
-479.347	300.588	-0.049	0.092
-478.332	-22.825	0.316	0.191
-477.318	2.830	0.070	-0.051
-476.303	-118.457	-0.205	0.036
-475.289	-52.471	0.168	-0.078
-474.274	-155.626	0.212	-0.014
-473.259	-94.075	-0.429	-0.118
-472.245	-200.000	-0.003	-0.099
-471.230	800.000	0.042	-0.123
-470.216	-28.635	0.353	-0.203
-469.201	-36.079	0.147	0.079
-468.186	37.971	-0.015	0.013
-467.172	800.000	-0.061	-0.204
-466.157	-57.279	0.310	-0.137
-465.143	129.684	0.249	-0.318
-464.128	800.000	-0.106	-0.348
-463.113	800.000	0.095	-0.405
-462.099	470.117	-0.148	0.333
-461.084	-200.000	-0.018	0.332
-460.070	-200.000	-0.015	0.135
-459.055	-78.094	0.045	-0.015
-458.040	107.497	0.213	-0.254
-457.026	-200.000	0.009	0.125
-456.011	800.000	0.106	0.299
-454.997	271.973	0.053	0.094
-453.982	-200.000	0.018	0.220
-452.968	227.779	-0.158	-0.257
-451.953	-200.000	-0.033	0.188
-450.938	-27.824	-0.235	0.136
-449.924	800.000	-0.099	0.319
-448.909	-166.408	-0.233	0.010
-447.895	363.000	-0.202	0.407
-446.880	-200.000	-0.020	-0.093
-445.865	-58.619	0.272	-0.118
-444.851	-63.928	0.383	0.157
-443.836	-69.048	0.195	-0.075
-442.822	-175.410	0.037	-0.001
-441.807	-146.706	-0.159	0.014
-440.792	17.324	0.198	0.157
-439.778	89.603	-0.253	-0.282
-438.763	10.443	-0.078	-0.059
-437.749	-200.000	0.068	-0.361
-436.734	260.184	0.060	-0.103
-435.719	230.006	0.031	0.050
-434.705	-50.629	0.092	0.043
-433.690	-200.000	-0.039	-0.271
-432.676	-8.697	0.337	0.226
-431.661	356.373	0.045	-0.089
-430.646	800.000	-0.165	0.472
-429.632	-159.753	0.169	0.009
-428.617	41.769	-0.235	-0.213
-427.603	463.486	0.048	0.107
-426.588	51.361	-0.230	0.219
-425.573	126.399	0.100	-0.126
-424.559	-200.000	-0.046	0.227
-423.544	-67.336	-0.401	0.158
-422.530	279.097	-0.037	0.065
-421.515	31.076	0.303	0.259
-420.500	-52.686	0.222	0.103
-419.486	186.919	0.237	-0.354
-418.471	-200.000	0.030	0.313
-417.457	80.656	0.213	0.230
-416.442	33.182	0.286	-0.248
-415.428	320.390	0.141	0.268
-414.413	260.205	-0.074	0.128
-413.398	65.493	0.123	-0.124
-412.384	-200.000	0.014	0.223
-411.369	-39.297	0.215	0.113
-410.355	-200.000	0.021	0.496
-409.340	-4.563	-0.359	0.248
-408.325	-80.371	0.204	-0.068
-407.311	46.626	-0.122	0.113
-406.296	-200.000	-0.002	0.162
-405.282	16.911	0.205	0.162
-404.267	612.938	0.148	0.371
-403.252	-178.866	-0.046	0.001
-402.238	-112.810	0.139	0.028
-401.223	97.243	-0.180	0.206
-400.209	-106.841	-0.317	-0.070
-399.194	81.104	0.068	0.073
-398.179	-75.645	-0.219	0.078
-397.165	800.000	-0.173	-0.489
-396.150	-200.000	-0.034	0.376
-395.136	-20.005	0.081	-0.050
-394.121	800.000	0.055	0.226
-393.106	-200.000	-0.018	-0.104
-392.092	-200.000	-0.047	-0.259
-391.077	800.000	-0.024	0.082
-390.063	-77.232	-0.326	0.113
-389.048	-52.695	-0.211	0.097
-388.033	202.451	0.136	-0.210
-387.019	-117.363	0.220	0.040
-386.004	373.512	0.080	-0.163
-384.990	-165.982	0.574	-0.024
-383.975	0.285	0.115	0.082
-382.960	-109.209	0.250	-0.053
-381.946	163.640	0.059	-0.083
-380.931	-194.977	-0.135	0.001
-379.917	-128.028	0.188	0.027
-378.902	131.817	-0.110	-0.141
-377.888	-200.000	-0.010	-0.150
-376.873	48.177	-0.049	0.046
-375.858	-28.484	-0.267	-0.154
-374.844	-200.000	-0.058	-0.281
-373.829	-162.777	0.213	0.010
-372.815	-200.000	-0.042	0.186
-371.800	12.252	-0.290	0.223
-370.785	800.000	0.104	0.400
-369.771	-27.148	0.264	0.154
-368.756	-200.000	0.023	0.142
-367.742	-200.000	0.013	0.178
-366.727	-200.000	-0.012	-0.091
-365.712	118.486	0.086	0.106
-364.698	-200.000	0.025	-0.136
-363.683	-59.873	0.181	0.077
-362.669	154.689	-0.121	-0.166
-361.654	74.572	-0.280	-0.294
-360.639	-200.000	-0.045	-0.222
-359.625	-200.000	-0.035	-0.246
-358.610	-23.080	-0.214	-0.128
-357.596	81.831	0.119	-0.129
-356.581	-63.438	-0.297	-0.122
-355.566	83.722	-0.105	-0.114
-354.552	-200.000	-0.031	0.142
-353.537	86.288	-0.076	0.083
-352.523	-15.463	0.173	-0.110
-351.508	-7.888	-0.049	-0.033
-350.493	800.000	-0.044	0.130
-349.479	8.666	-0.072	0.054
-348.464	25.782	-0.141	-0.117
-347.450	-200.000	0.011	0.088
-346.435	800.000	-0.058	0.195
-345.420	48.547	-0.017	-0.016
-344.406	48.140	-0.114	-0.107
-343.391	-8.807	-0.090	-0.060
-342.377	155.144	0.172	-0.236
-341.362	279.589	-0.099	0.177
-340.348	-136.875	0.271	-0.031
-339.333	51.901	-0.104	-0.099
-338.318	47.250	-0.095	-0.088
-337.304	-173.295	-0.352	0.011
-336.289	-105.383	-0.327	0.074
-335.275	5.076	0.214	-0.157
-334.260	800.000	0.063	-0.249
-333.245	267.552	0.143	0.249
-332.231	51.599	0.119	0.113
-331.216	403.067	-0.090	0.190
-330.202	294.228	-0.036	-0.065
-329.187	-65.318	0.047	0.019
-328.172	-200.000	-0.098	-0.444
-327.158	108.186	-0.176	0.209
-326.143	-96.403	0.247	-0.065
-325.129	-101.916	-0.141	0.034
-324.114	37.909	-0.097	0.086
-323.099	115.312	-0.171	0.208
-322.085	440.806	-0.026	-0.056
-321.070	-145.969	0.282	-0.025
-320.056	81.819	0.021	0.022
-319.041	800.000	0.099	0.422
-318.026	39.798	-0.228	0.204
-317.012	-157.904	-0.139	0.008
-315.997	-26.099	0.174	0.102
-314.983	275.537	0.246	0.435
-313.968	66.609	-0.069	-0.070
-312.953	339.265	0.080	-0.155
-311.939	-99.652	-0.040	0.010
-310.924	800.000	-0.044	-0.167
-309.910	213.684	0.081	-0.127
-308.895	-200.000	0.231	-0.001
-307.880	-28.027	-0.249	0.143
-306.866	292.652	-0.063	0.114
-305.851	177.434	0.039	-0.056
-304.837	-200.000	-0.028	-0.217
-303.822	-200.000	0.007	-0.281
-302.807	800.000	-0.056	0.158
-301.793	-108.729	-0.026	0.006
-300.778	-200.000	0.018	-0.366
-299.764	-170.930	-0.083	-0.003
-298.749	541.766	0.057	-0.135
-297.735	83.443	-0.075	0.082
-296.720	-161.779	0.404	0.020
-295.705	-22.216	0.123	-0.074
-294.691	-200.000	0.019	-0.121
-293.676	8.384	-0.267	0.200
-292.662	800.000	0.053	0.204
-291.647	40.825	0.154	0.138
-290.632	-81.890	0.152	-0.050
-289.618	443.515	-0.001	-0.002
-288.603	-48.496	-0.133	-0.063
-287.589	-72.302	-0.104	0.038
-286.574	-103.474	0.177	0.041
-285.559	284.850	-0.124	-0.222
-284.545	-92.504	0.505	-0.141
-283.530	800.000	0.085	-0.285
-282.516	-125.688	0.174	-0.026
-281.501	-200.000	-0.033	0.182
-280.486	198.288	0.131	-0.200
-279.472	187.751	0.169	0.252
-278.457	-27.559	0.321	-0.185
-277.443	39.384	-0.204	-0.181
-276.428	-96.070	0.481	0.127
-275.413	-43.608	-0.314	0.157
-274.399	83.747	0.265	-0.287
-273.384	-17.699	0.149	0.093
-272.370	-200.000	-0.002	-0.234
-271.355	-10.887	-0.231	-0.152
-270.340	-200.000	0.011	-0.079
-269.326	-24.168	-0.207	-0.123
-268.311	-122.731	0.183	-0.029
-267.297	106.351	0.223	0.263
-266.282	467.613	0.172	-0.382
-265.267	-100.394	0.235	-0.058
-264.253	196.032	-0.084	0.127
-263.238	21.692	0.111	0.089
-262.224	-200.000	0.027	0.119
-261.209	535.877	-0.171	0.404
-260.195	-200.000	0.016	-0.081
-259.180	-60.131	-0.195	-0.083
-258.165	-200.000	-0.010	-0.077
-257.151	-200.000	-0.018	-0.336
-256.136	-31.544	0.052	0.029
-255.122	-0.232	0.212	0.150
-254.107	-95.343	-0.110	-0.029
-253.092	49.307	0.265	-0.247
-252.078	245.561	0.141	-0.236
-251.063	134.721	-0.070	0.090
-250.049	310.687	0.063	0.116
-249.034	-46.420	0.325	0.158
-248.019	-9.348	-0.182	-0.120
-247.005	-38.303	-0.213	-0.112
-245.990	800.000	0.054	-0.148
-244.976	167.547	0.073	0.103
-243.961	800.000	-0.092	0.361
-242.946	138.952	-0.167	0.217
-241.932	-12.774	-0.331	-0.214
-240.917	148.783	0.080	0.108
-239.903	-111.468	0.219	0.044
-238.888	-93.088	-0.362	0.100
-237.873	425.216	-0.097	-0.208
-236.859	-53.337	-0.227	0.103
-235.844	-144.152	0.270	-0.025
-234.830	-13.676	0.115	-0.074
-233.815	47.782	0.183	0.170
-232.800	-200.000	0.072	-0.341
-231.786	-200.000	0.005	-0.229
-230.771	800.000	0.018	-0.053
-229.757	-200.000	0.018	-0.143
-228.742	-40.595	-0.357	0.184
-227.727	-67.743	-0.212	0.082
-226.713	161.719	-0.307	-0.426
-225.698	-3.504	0.123	0.085
-224.684	-68.835	0.116	-0.044
-223.669	26.354	-0.198	0.164
-222.655	800.000	0.085	-0.347
-221.640	-24.812	-0.183	-0.108
-220.625	324.378	0.031	-0.059
-219.611	46.893	-0.189	-0.174
-218.596	18.236	0.060	0.047
-217.582	-157.906	-0.203	0.012
-216.567	400.316	-0.055	0.115
-215.552	-143.914	-0.501	-0.047
-214.538	-90.295	0.308	0.089
-213.523	-149.588	-0.347	0.027
-212.509	-200.000	-0.003	-0.177
-211.494	159.023	0.076	0.105
-210.479	-168.238	-0.503	-0.019
-209.465	-32.441	0.284	-0.157
-208.450	800.000	-0.054	0.163
-207.436	-36.155	0.135	-0.072
-206.421	-23.686	0.174	-0.104
-205.406	-9.737	0.025	-0.016
-204.392	-109.694	-0.261	0.054
-203.377	-81.271	0.286	0.093
-202.363	66.424	-0.190	0.192
-201.348	203.614	-0.177	0.272
-200.333	-132.175	0.106	0.014
-199.319	144.704	-0.141	-0.186
-198.304	72.218	0.218	-0.225
-197.290	-26.945	-0.119	-0.069
-196.275	-139.553	0.105	0.011
-195.260	-19.735	-0.042	0.026
-194.246	-120.522	-0.171	0.029
-193.231	67.561	-0.150	0.152
-192.217	-18.578	-0.063	0.039
-191.202	800.000	-0.072	0.205
-190.187	166.059	-0.266	0.373
-189.173	800.000	-0.117	-0.349
-188.158	-45.712	-0.156	-0.076
-187.144	-105.632	-0.118	0.027
-186.129	142.333	0.212	-0.278
-185.114	800.000	-0.090	0.337
-184.100	-46.283	-0.123	0.060
-183.085	-200.000	-0.021	-0.193
-182.071	800.000	-0.070	0.207
-181.056	-200.000	-0.007	-0.139
-180.042	70.571	0.071	0.073
-179.027	800.000	-0.051	-0.147
-178.012	119.244	-0.216	-0.265
-176.998	-138.283	0.240	0.026
-175.983	84.909	0.092	-0.100
-174.969	-108.909	0.224	0.047
-173.954	77.102	-0.141	-0.149
-172.939	-2.905	-0.131	0.091
-171.925	-200.000	0.087	0.415
-170.910	187.487	0.061	-0.091
-169.896	-4.715	0.178	0.121
-168.881	144.667	0.227	0.300
-167.866	554.093	0.070	-0.168
-166.852	-200.000	-0.030	-0.155
-165.837	-27.391	-0.113	0.065
-164.823	-60.587	0.117	-0.049
-163.808	-200.000	0.062	0.274
-162.793	445.223	0.082	0.178
-161.779	90.981	-0.141	0.157
-160.764	-99.004	0.173	0.043
-159.750	-200.000	0.005	0.029
-158.735	-157.484	0.370	0.022
-157.720	-110.496	-0.022	0.004
-156.706	-66.110	0.103	-0.041
-155.691	800.000	-0.132	-0.369
-154.677	-2.848	-0.138	0.096
-153.662	-120.217	-0.199	-0.034
-152.647	584.837	0.143	-0.348
-151.633	35.449	0.224	0.194
-150.618	40.404	-0.056	0.050
-149.604	-49.145	0.172	-0.081
-148.589	-200.000	0.062	0.406
-147.574	-127.496	-0.192	0.028
-146.560	17.921	0.215	-0.169
-145.545	176.742	0.046	0.067
-144.531	79.222	0.034	0.036
-143.516	-16.064	0.258	0.163
-142.502	-50.140	0.179	0.084
-141.487	-76.583	0.131	0.046
-140.472	247.167	0.095	-0.159
-139.458	-96.831	0.114	-0.030
-138.443	-111.033	0.177	-0.036
-137.429	282.394	0.287	0.509
-136.414	-158.137	-0.233	0.014
-135.399	-200.000	0.038	-0.188
-134.385	-200.000	-0.018	0.141
-133.370	800.000	0.014	0.043
-132.356	-96.241	-0.175	0.046
-131.341	-200.000	-0.003	-0.200
-130.326	3.881	0.160	-0.116
-129.312	-200.000	-0.046	0.212
-128.297	-30.361	-0.251	-0.141
-127.283	-168.327	0.370	0.014
-126.268	75.716	-0.131	0.137
-125.253	-44.836	-0.178	-0.088
-124.239	-155.153	0.066	-0.004
-123.224	282.045	0.208	-0.368
-122.210	-47.443	-0.118	-0.057
-121.195	215.912	-0.118	-0.186
