DTS Sentinel unit serial number:	SN413079Multiplexer serial number:	ORYXHardware model number:	OX4-SRSoftware version number:	ORYX F/W v4.00 Oryx Data Collector v3.7.2.0data status	okinstallation	princeton_trtdifferential loss correction	single-endedforward channel	channel 1reverse channel	N/Adate	2019/09/18time	12:18:35forward acquisition time	60.00reverse acquisition time	0.00gamma	496.2192k internal	0.2322k external	0.2322temperature offset calibration	0.9976default loss term (dB/km)	0.3790temperature slope calibration	1.0000multiplexer offset coefficient	1.0000multiplexer slope coefficient	1.0000fibre end	0.00T internal ref (°C)	31.83T ext. ref 1 (°C)	0.51T ext. ref 2 (°C)	28.71length (m)	temperature (°C)	Stokes	anti-Stokes-747.200	-200.000	0.003	-0.052
-746.185	382.733	0.045	0.093
-745.171	32.673	-0.215	-0.188
-744.156	-140.340	0.250	0.026
-743.142	-81.181	0.220	-0.073
-742.127	5.653	0.155	0.116
-741.112	211.071	0.077	0.123
-740.098	73.594	-0.099	0.104
-739.083	278.212	0.016	0.029
-738.069	-99.656	0.228	0.058
-737.054	-175.763	-0.324	0.009
-736.039	-0.741	0.057	0.041
-735.025	85.460	0.145	0.161
-734.010	83.658	-0.080	-0.088
-732.996	-20.138	-0.093	0.058
-731.981	7.140	0.053	0.040
-730.966	-200.000	-0.036	-0.200
-729.952	-120.008	-0.162	-0.028
-728.937	-200.000	-0.047	-0.263
-727.923	290.865	-0.073	0.135
-726.908	-93.412	0.090	-0.025
-725.894	-168.224	-0.279	0.011
-724.879	800.000	0.084	-0.256
-723.864	112.156	0.251	0.306
-722.850	-74.082	-0.186	-0.068
-721.835	-92.732	0.307	0.087
-720.821	-200.000	0.018	-0.191
-719.806	186.652	-0.099	-0.149
-718.791	-200.000	0.014	-0.065
-717.777	-200.000	-0.037	-0.213
-716.762	-2.994	-0.152	0.107
-715.748	-78.078	0.099	-0.035
-714.733	-64.915	0.093	-0.038
-713.718	-200.000	-0.005	-0.077
-712.704	800.000	0.115	0.330
-711.689	-200.000	-0.075	0.585
-710.675	-200.000	-0.005	0.142
-709.660	-75.530	-0.237	-0.085
-708.645	268.067	0.061	0.108
-707.631	-200.000	0.013	0.105
-706.616	-53.683	0.324	-0.149
-705.602	-88.037	-0.127	0.039
-704.587	-200.000	-0.012	-0.338
-703.572	64.083	-0.157	0.159
-702.558	69.642	0.139	0.144
-701.543	3.887	-0.171	-0.126
-700.529	499.975	-0.097	-0.225
-699.514	311.953	0.134	-0.253
-698.499	76.033	0.199	0.212
-697.485	-64.818	-0.190	-0.078
-696.470	-64.513	-0.101	0.041
-695.456	-41.122	-0.235	-0.122
-694.441	-200.000	-0.005	-0.078
-693.426	556.775	0.074	0.181
-692.412	800.000	-0.083	-0.329
-691.397	-3.755	-0.078	-0.054
-690.383	-200.000	0.082	0.364
-689.368	50.736	-0.031	-0.029
-688.354	-200.000	0.022	-0.117
-687.339	-159.219	-0.169	-0.010
-686.324	-94.977	0.182	-0.050
-685.310	-79.385	0.148	-0.051
-684.295	-77.650	0.257	-0.090
-683.281	114.424	0.160	-0.196
-682.266	-57.802	0.182	-0.080
-681.251	26.649	0.075	-0.063
-680.237	66.878	-0.143	-0.147
-679.222	800.000	-0.052	0.191
-678.208	-161.718	0.049	-0.002
-677.193	-3.823	-0.179	-0.125
-676.178	156.558	-0.113	0.157
-675.164	-200.000	-0.006	-0.063
-674.149	800.000	-0.083	0.243
-673.135	-200.000	0.009	-0.153
-672.120	289.946	0.082	-0.149
-671.105	-200.000	0.024	-0.148
-670.091	-200.000	-0.006	-0.300
-669.076	800.000	-0.011	0.045
-668.062	58.629	0.104	-0.103
-667.047	-85.809	-0.200	-0.063
-666.032	-129.691	0.162	-0.023
-665.018	176.759	0.137	0.201
-664.003	-63.898	-0.181	0.074
-662.989	84.026	0.114	0.125
-661.974	569.468	-0.117	0.285
-660.959	107.170	0.172	-0.206
-659.945	-200.000	-0.005	0.155
-658.930	166.223	0.098	0.139
-657.916	69.795	-0.038	0.039
-656.901	-200.000	-0.025	0.419
-655.886	800.000	0.086	-0.266
-654.872	99.531	-0.136	0.159
-653.857	-31.959	-0.064	-0.036
-652.843	800.000	-0.028	0.093
-651.828	655.535	-0.008	-0.020
-650.814	-200.000	0.010	0.068
-649.799	-82.615	-0.173	0.056
-648.784	291.134	-0.069	0.126
-647.770	524.334	0.084	0.198
-646.755	-22.498	0.106	0.065
-645.741	-200.000	0.022	-0.135
-644.726	798.508	-0.099	-0.276
-643.711	-99.757	0.141	-0.036
-642.697	254.844	0.076	-0.131
-641.682	800.000	-0.124	-0.361
-640.668	47.427	0.145	0.136
-639.653	41.199	-0.113	-0.102
-638.638	7.017	-0.054	-0.041
-637.624	11.865	-0.187	-0.144
-636.609	13.555	0.347	0.271
-635.595	-200.000	0.013	0.181
-634.580	-111.764	-0.307	0.062
-633.565	277.512	-0.036	0.064
-632.551	193.122	0.169	0.257
-631.536	-28.439	-0.162	-0.094
-630.522	-165.814	-0.286	-0.012
-629.507	-37.406	0.251	-0.135
-628.492	-200.000	0.063	-0.405
-627.478	-51.451	-0.255	0.120
-626.463	136.765	-0.139	-0.183
-625.449	34.411	-0.345	-0.303
-624.434	-36.327	-0.231	-0.125
-623.419	-200.000	0.036	0.413
-622.405	-70.761	0.064	-0.024
-621.390	-200.000	0.006	0.205
-620.376	-200.000	0.051	-0.354
-619.361	47.850	-0.293	0.275
-618.346	470.080	-0.102	0.230
-617.332	-68.051	0.265	0.104
-616.317	-74.675	-0.194	-0.070
-615.303	125.121	-0.003	-0.004
-614.288	-178.487	0.239	0.006
-613.273	84.058	0.174	0.191
-612.259	-200.000	0.078	0.455
-611.244	56.574	-0.092	-0.090
-610.230	84.048	0.042	-0.046
-609.215	-200.000	-0.028	0.133
-608.201	247.378	0.084	-0.142
-607.186	-200.000	0.009	0.076
-606.171	691.335	-0.124	0.328
-605.157	475.302	0.110	0.248
-604.142	319.176	-0.099	-0.189
-603.128	800.000	0.082	-0.281
-602.113	13.747	-0.208	-0.162
-601.098	-106.417	-0.150	-0.034
-600.084	800.000	-0.105	0.338
-599.069	-200.000	0.029	-0.162
-598.055	154.465	-0.016	-0.022
-597.040	800.000	0.016	0.052
-596.025	-200.000	-0.063	-0.586
-595.011	49.190	0.080	0.076
-593.996	44.765	-0.171	0.158
-592.982	-147.785	0.166	0.014
-591.967	-99.405	0.230	-0.058
-590.952	418.134	-0.089	-0.191
-589.938	-200.000	-0.012	-0.087
-588.923	-42.677	-0.204	-0.104
-587.909	392.802	-0.154	0.321
-586.894	-200.000	0.032	0.323
-585.879	-67.828	0.097	0.038
-584.865	-200.000	-0.016	-0.075
-583.850	-152.668	-0.204	0.015
-582.836	296.690	0.067	-0.123
-581.821	-200.000	0.005	-0.195
-580.806	800.000	-0.009	0.028
-579.792	-60.068	0.120	0.052
-578.777	190.195	-0.041	-0.062
-577.763	-200.000	0.072	-0.326
-576.748	7.133	-0.217	0.163
-575.733	74.526	-0.066	0.070
-574.719	4.882	0.147	-0.108
-573.704	-14.671	0.094	0.061
-572.690	282.151	0.011	0.020
-571.675	800.000	-0.063	-0.175
-570.661	3.767	-0.069	-0.051
-569.646	-61.930	0.084	0.035
-568.631	-200.000	-0.003	0.075
-567.617	-38.701	-0.043	-0.023
-566.602	-54.750	0.095	-0.043
-565.588	-19.367	-0.123	-0.076
-564.573	390.543	0.108	-0.224
-563.558	303.214	0.197	-0.366
-562.544	-16.764	0.149	-0.094
-561.529	103.849	-0.238	0.281
-560.515	65.713	-0.194	-0.197
-559.500	69.791	-0.011	0.012
-558.485	-175.611	0.388	-0.011
-557.471	343.125	-0.097	0.191
-556.456	-200.000	-0.012	0.108
-555.442	723.072	0.053	0.140
-554.427	-111.211	0.100	0.021
-553.412	74.531	-0.198	0.209
-552.398	-200.000	0.034	0.156
-551.383	208.219	0.072	0.112
-550.369	41.680	-0.191	-0.173
-549.354	94.113	-0.234	0.266
-548.339	110.192	-0.148	0.179
-547.325	-200.000	-0.013	0.258
-546.310	542.912	0.057	-0.135
-545.296	75.364	-0.161	-0.170
-544.281	-50.171	0.236	0.112
-543.266	160.692	0.202	0.282
-542.252	-79.189	-0.036	0.012
-541.237	-96.305	-0.249	-0.066
-540.223	-49.555	0.112	0.053
-539.208	-165.926	0.126	0.005
-538.193	-105.280	0.036	0.008
-537.179	-200.000	-0.040	-0.256
-536.164	530.639	-0.176	-0.417
-535.150	307.444	-0.072	0.135
-534.135	-30.031	-0.247	0.141
-533.121	64.765	0.599	0.605
-532.106	261.290	0.063	-0.110
-531.091	-169.116	-0.153	-0.006
-530.077	-191.138	-0.098	-0.001
-529.062	-58.849	-0.105	-0.045
-528.048	239.930	0.144	0.241
-527.033	-200.000	0.003	0.043
-526.018	267.129	0.254	-0.445
-525.004	187.607	0.065	-0.097
-523.989	168.077	0.110	0.156
-522.975	91.093	-0.092	0.103
-521.960	800.000	-0.085	0.294
-520.945	167.854	0.161	-0.230
-519.931	800.000	-0.119	-0.378
-518.916	-200.000	0.043	0.189
-517.902	-100.877	0.066	0.016
-516.887	29.116	-0.318	-0.270
-515.872	800.000	-0.048	-0.159
-514.858	-60.545	0.240	0.102
-513.843	800.000	0.022	0.087
-512.829	800.000	0.012	0.050
-511.814	-85.521	-0.214	0.067
-510.799	-52.852	-0.118	0.055
-509.785	800.000	0.050	0.211
-508.770	-135.500	-0.412	-0.049
-507.756	-69.116	-0.053	0.021
-506.741	94.394	0.348	-0.395
-505.726	4.550	-0.161	0.118
-504.712	800.000	-0.030	0.123
-503.697	473.237	0.062	0.141
-502.683	185.257	0.289	-0.429
-501.668	332.938	-0.122	-0.235
-500.653	73.801	-0.117	-0.122
-499.639	-33.049	-0.272	0.151
-498.624	-80.011	0.268	0.090
-497.610	-200.000	-0.001	-0.030
-496.595	-200.000	-0.023	-0.391
-495.581	222.243	-0.073	-0.117
-494.566	800.000	0.066	-0.237
-493.551	4.346	-0.305	0.224
-492.537	-200.000	-0.064	0.364
-491.522	-144.290	0.317	-0.030
-490.508	-131.318	-0.085	0.011
-489.493	194.910	0.183	0.277
-488.478	-78.677	-0.218	0.074
-487.464	-196.880	-0.291	-0.002
-486.449	26.093	-0.240	0.201
-485.435	-114.850	0.055	-0.011
-484.420	800.000	-0.043	0.178
-483.405	-76.533	-0.069	0.024
-482.391	94.637	0.165	0.188
-481.376	-172.160	0.088	0.003
-480.362	800.000	-0.101	0.411
-479.347	-200.000	-0.000	0.152
-478.332	-128.744	0.267	0.038
-477.318	-112.841	0.028	0.006
-476.303	126.750	0.182	-0.230
-475.289	-39.126	0.163	-0.086
-474.274	-94.475	0.271	0.074
-473.259	412.368	-0.097	0.206
-472.245	-146.574	0.148	0.013
-471.230	-51.757	-0.052	-0.024
-470.216	398.074	0.191	-0.400
-469.201	-200.000	0.040	-0.177
-468.186	-61.347	0.156	-0.065
-467.172	-200.000	-0.016	-0.215
-466.157	233.752	0.064	0.106
-465.143	185.556	0.105	0.156
-464.128	-128.216	0.113	-0.016
-463.113	160.464	0.268	0.374
-462.099	800.000	-0.078	-0.324
-461.084	124.176	-0.263	-0.330
-460.070	494.197	0.074	-0.170
-459.055	-49.488	0.114	-0.054
-458.040	-87.065	-0.041	0.013
-457.026	-44.931	0.162	0.081
-456.011	267.306	0.261	0.455
-454.997	-78.178	-0.513	0.176
-453.982	168.227	0.078	0.111
-452.968	140.548	0.287	0.378
-451.953	-46.023	0.226	-0.111
-450.938	-65.954	-0.224	0.089
-449.924	356.662	0.102	0.203
-448.909	-200.000	-0.047	0.305
-447.895	64.871	0.153	-0.154
-446.880	35.157	0.321	-0.281
-445.865	-200.000	-0.048	0.443
-444.851	324.315	0.178	0.340
-443.836	-40.855	0.141	-0.073
-442.822	-167.689	-0.423	-0.017
-441.807	-196.030	-0.454	-0.003
-440.792	800.000	0.056	-0.174
-439.778	-59.035	-0.160	0.069
-438.763	-200.000	-0.013	0.260
-437.749	800.000	-0.086	-0.265
-436.734	-59.709	0.110	0.047
-435.719	-67.479	-0.222	-0.087
-434.705	172.569	0.228	0.328
-433.690	-200.000	0.025	-0.182
-432.676	315.449	-0.019	-0.036
-431.661	2.393	0.213	-0.154
-430.646	-200.000	0.029	0.248
-429.632	-10.530	-0.088	0.058
-428.617	-169.248	-0.257	-0.009
-427.603	11.665	-0.121	-0.092
-426.588	-101.699	0.119	0.029
-425.573	800.000	0.050	0.154
-424.559	800.000	0.078	0.272
-423.544	-96.960	-0.236	0.062
-422.530	-200.000	0.018	-0.131
-421.515	-6.959	0.105	0.071
-420.500	81.421	-0.127	-0.137
-419.486	-200.000	0.018	-0.137
-418.471	-86.730	-0.246	-0.075
-417.457	391.289	-0.070	-0.145
-416.442	-110.603	0.062	0.013
-415.428	-140.355	-0.324	-0.034
-414.413	62.285	0.119	-0.118
-413.398	5.489	-0.189	-0.140
-412.384	800.000	-0.072	0.220
-411.369	95.019	0.074	-0.084
-410.355	-78.188	0.235	0.081
-409.340	800.000	0.053	-0.225
-408.325	-149.539	0.062	0.005
-407.311	-69.099	-0.338	0.130
-406.296	800.000	0.037	-0.147
-405.282	-77.486	0.080	-0.028
-404.267	-97.232	-0.258	-0.067
-403.252	145.234	-0.114	0.152
-402.238	132.089	-0.045	-0.057
-401.223	-93.416	0.386	-0.107
-400.209	59.494	-0.055	0.054
-399.194	-200.000	-0.045	-0.323
-398.179	256.043	-0.067	-0.115
-397.165	-200.000	-0.020	0.119
-396.150	-42.081	-0.363	0.185
-395.136	382.805	0.163	0.335
-394.121	-29.966	0.232	-0.132
-393.106	-136.200	-0.383	-0.045
-392.092	-135.286	-0.130	0.015
-391.077	-61.682	-0.137	-0.057
-390.063	-173.397	0.142	-0.004
-389.048	-6.480	0.391	-0.266
-388.033	-86.383	-0.108	0.033
-387.019	-200.000	0.015	-0.073
-386.004	-4.683	0.293	0.202
-384.990	-200.000	0.010	-0.126
-383.975	-75.478	-0.025	-0.009
-382.960	-200.000	-0.020	0.108
-381.946	800.000	0.066	0.234
-380.931	-113.713	0.568	-0.110
-379.917	800.000	-0.035	-0.141
-378.902	671.784	-0.123	-0.317
-377.888	-200.000	-0.020	-0.240
-376.873	-165.304	-0.280	0.012
-375.858	259.761	0.081	0.140
-374.844	16.504	0.348	0.274
-373.829	-12.014	-0.587	0.383
-372.815	116.074	-0.264	-0.322
-371.800	800.000	0.048	0.159
-370.785	-67.125	-0.342	-0.134
-369.771	-64.410	-0.317	-0.128
-368.756	-90.224	-0.267	-0.077
-367.742	-77.706	-0.268	0.092
-366.727	-141.191	-0.346	0.035
-365.712	24.466	0.443	-0.364
-364.698	247.699	-0.082	-0.138
-363.683	185.851	-0.080	-0.118
-362.669	74.974	0.176	-0.184
-361.654	-83.312	-0.399	-0.128
-360.639	422.479	-0.139	0.296
-359.625	-136.098	0.197	0.023
-358.610	-200.000	0.023	-0.124
-357.596	256.519	-0.047	0.080
-356.581	637.608	0.056	-0.141
-355.566	17.672	0.179	0.142
-354.552	726.831	0.142	0.376
-353.537	123.872	0.048	-0.060
-352.523	-23.000	-0.410	0.246
-351.508	25.267	0.172	0.142
-350.493	186.634	0.057	-0.085
-349.479	-46.399	-0.189	-0.092
-348.464	154.046	0.118	-0.162
-347.450	-56.715	0.141	-0.062
-346.435	130.279	0.196	-0.250
-345.420	-169.852	-0.321	0.011
-344.406	400.027	0.157	0.328
-343.391	30.550	0.083	-0.071
-342.377	-162.256	-0.408	0.020
-341.362	674.424	-0.105	0.270
-340.348	-142.446	0.441	0.043
-339.333	-39.121	0.179	-0.094
-338.318	-200.000	0.044	-0.325
-337.304	-200.000	0.019	-0.174
-336.289	-67.542	-0.221	-0.086
-335.275	24.302	-0.079	0.065
-334.260	34.935	0.175	-0.152
-333.245	97.621	0.106	0.121
-332.231	-200.000	-0.016	-0.073
-331.216	6.873	-0.237	0.175
-330.202	69.858	0.322	0.330
-329.187	-66.328	-0.222	0.088
-328.172	351.031	0.146	0.287
-327.158	584.804	-0.079	-0.192
-326.143	-130.536	0.194	-0.026
-325.129	253.845	-0.056	-0.095
-324.114	64.428	-0.070	0.070
-323.099	177.762	-0.051	-0.073
-322.085	-70.844	-0.089	0.033
-321.070	32.637	0.278	0.239
-320.056	210.956	0.101	0.158
-319.041	-63.332	0.197	0.081
-318.026	684.175	-0.126	0.327
-317.012	244.743	0.136	-0.228
-315.997	-200.000	-0.012	0.258
-314.983	64.384	-0.312	0.313
-313.968	77.600	-0.061	-0.064
-312.953	-137.072	-0.356	-0.040
-311.939	-200.000	0.002	0.267
-310.924	-110.229	0.355	-0.073
-309.910	800.000	-0.013	0.036
-308.895	-64.349	-0.397	-0.160
-307.880	648.011	0.121	-0.309
-306.866	-16.721	-0.086	-0.054
-305.851	50.421	-0.227	-0.213
-304.837	-90.127	0.147	-0.042
-303.822	-154.746	-0.337	-0.022
-302.807	-200.000	-0.039	0.191
-301.793	37.735	-0.060	0.053
-300.778	59.881	0.185	0.182
-299.764	-13.466	-0.184	0.118
-298.749	-174.231	-0.181	0.005
-297.735	303.115	0.181	0.333
-296.720	151.222	0.080	-0.108
-295.705	-186.050	-0.168	-0.002
-294.691	800.000	-0.044	-0.139
-293.676	-11.080	0.161	0.106
-292.662	-12.288	0.086	0.056
-291.647	-200.000	-0.052	-0.228
-290.632	-200.000	-0.026	-0.477
-289.618	-200.000	-0.003	0.113
-288.603	40.493	0.193	0.173
-287.589	-114.418	0.259	-0.049
-286.574	160.638	-0.099	0.137
-285.559	131.055	0.055	-0.070
-284.545	80.330	0.254	-0.271
-283.530	-49.254	-0.237	-0.112
-282.516	106.284	0.087	-0.103
-281.501	-78.865	-0.277	-0.093
-280.486	-35.695	-0.363	0.195
-279.472	-104.475	0.068	0.016
-278.457	146.406	-0.107	-0.142
-277.443	-84.161	-0.460	-0.145
-276.428	210.649	0.113	0.176
-275.413	-87.916	-0.084	0.025
-274.399	-93.582	0.071	0.019
-273.384	-200.000	-0.011	0.328
-272.370	515.106	0.022	-0.050
-271.355	-200.000	-0.033	0.211
-270.340	52.664	0.117	0.111
-269.326	-103.041	0.448	-0.105
-268.311	800.000	-0.036	-0.117
-267.297	-19.703	-0.281	0.172
-266.282	96.267	-0.048	0.055
-265.267	-59.836	0.194	-0.082
-264.253	800.000	0.098	-0.390
-263.238	511.794	0.027	-0.061
-262.224	-43.838	-0.167	0.083
-261.209	249.184	0.063	-0.106
-260.195	-200.000	0.002	-0.217
-259.180	-196.250	0.229	0.002
-258.165	-200.000	0.022	-0.415
-257.151	127.628	-0.106	-0.133
-256.136	75.226	0.172	-0.180
-255.122	-200.000	0.011	-0.391
-254.107	-200.000	-0.036	-0.361
-253.092	-200.000	0.016	0.210
-252.078	-200.000	0.027	-0.212
-251.063	-200.000	-0.023	-0.123
-250.049	800.000	-0.018	0.064
-249.034	-173.319	0.254	-0.008
-248.019	-103.879	-0.273	-0.063
-247.005	339.021	-0.150	-0.289
-245.990	-200.000	-0.029	0.216
-244.976	88.238	-0.321	0.353
-243.961	39.412	0.123	0.109
-242.946	-200.000	-0.037	0.260
-241.932	301.987	-0.046	-0.084
-240.917	152.428	-0.125	-0.170
-239.903	443.024	-0.024	0.051
-238.888	-89.768	0.148	0.043
-237.873	94.863	-0.074	-0.083
-236.859	368.332	0.084	-0.167
-235.844	316.500	0.110	-0.206
-234.830	397.037	-0.046	-0.096
-233.815	451.871	0.065	-0.143
-232.800	-200.000	0.032	0.177
-231.786	631.668	0.115	-0.288
-230.771	61.254	0.144	-0.141
-229.757	-65.990	0.174	-0.069
-228.742	189.377	0.048	-0.071
-227.727	75.015	-0.222	0.232
-226.713	-80.331	0.050	0.016
-225.698	-135.087	-0.287	0.034
-224.684	-140.446	0.164	0.017
-223.669	32.011	0.172	-0.146
-222.655	-62.392	0.077	0.032
-221.640	-59.740	0.211	0.090
-220.625	800.000	-0.096	-0.297
-219.611	1.404	0.203	-0.145
-218.596	8.589	0.134	-0.100
-217.582	-82.879	-0.054	0.017
-216.567	486.663	0.116	0.261
-215.552	800.000	0.126	0.432
-214.538	501.201	-0.086	0.196
-213.523	279.498	0.106	-0.187
-212.509	96.246	-0.053	-0.059
-211.494	-127.165	0.062	0.009
-210.479	-119.958	-0.295	-0.050
-209.465	-105.901	0.392	0.087
-208.450	-200.000	-0.022	0.335
-207.436	-109.154	0.220	0.046
-206.421	143.747	0.221	-0.292
-205.406	21.422	-0.168	0.135
-204.392	-50.890	0.129	-0.060
-203.377	39.245	0.100	0.089
-202.363	-200.000	0.006	0.076
-201.348	15.801	-0.217	-0.169
-200.333	-4.812	-0.141	-0.096
-199.319	32.741	-0.207	0.177
-198.304	-3.623	-0.194	-0.133
-197.290	-122.106	-0.075	-0.012
-196.275	-200.000	-0.077	0.410
-195.260	-92.113	0.071	0.020
-194.246	341.885	-0.197	0.382
-193.231	-36.345	-0.404	-0.215
-192.217	-200.000	-0.063	0.327
-191.202	73.157	0.087	0.090
-190.187	223.094	0.161	0.256
-189.173	-200.000	-0.027	0.145
-188.158	800.000	-0.042	0.147
-187.144	101.106	-0.096	0.111
-186.129	154.030	-0.082	-0.111
-185.114	175.073	0.160	-0.229
-184.100	89.288	0.077	-0.084
-183.085	19.929	-0.170	0.135
-182.071	-200.000	0.026	-0.188
-181.056	114.481	0.080	-0.097
-180.042	-166.255	0.098	-0.004
-179.027	-200.000	-0.007	0.064
-178.012	579.946	-0.107	0.258
-176.998	-136.044	0.157	-0.018
-175.983	147.003	-0.069	0.092
-174.969	88.588	0.223	0.245
-173.954	-200.000	-0.026	0.000
-172.939	-44.548	-0.011	-0.005
-171.925	-31.743	0.442	-0.245
-170.910	-200.000	0.026	-0.360
-169.896	-68.356	0.032	0.012
-168.881	-148.684	0.220	0.018
-167.866	-80.936	0.441	0.144
-166.852	212.954	0.194	-0.303
-165.837	45.625	-0.147	-0.134
-164.823	-90.147	0.070	-0.020
-163.808	-41.383	0.145	-0.074
-162.793	-81.865	0.217	-0.070
-161.779	-28.220	-0.256	0.146
-160.764	145.373	0.138	-0.182
-159.750	341.016	0.191	-0.369
-158.735	32.659	0.010	0.009
-157.720	-88.149	0.253	-0.075
-156.706	-31.478	0.258	-0.143
-155.691	-11.176	0.286	0.186
-154.677	-157.790	0.093	-0.005
-153.662	-200.000	-0.056	-0.303
-152.647	-180.330	0.196	0.004
-151.633	-72.223	0.096	-0.035
-150.618	-75.636	0.077	0.027
-149.604	-73.383	-0.199	-0.072
-148.589	253.670	-0.200	0.337
-147.574	-39.494	0.376	0.194
-146.560	283.547	0.195	0.346
-145.545	444.642	-0.131	0.284
-144.531	72.797	-0.178	-0.183
-143.516	408.836	0.037	-0.078
-142.502	-57.850	-0.157	-0.068
-141.487	7.748	-0.070	0.051
-140.472	-77.087	0.207	0.071
-139.458	139.766	-0.079	0.102
-138.443	-9.246	0.189	-0.124
-137.429	-130.098	0.102	0.014
-136.414	72.183	-0.117	0.121
-135.399	-82.155	-0.312	-0.100
-134.385	-200.000	0.036	-0.265
-133.370	-200.000	0.012	-0.105
-132.356	438.885	0.025	-0.054
-131.341	252.175	-0.099	-0.167
-130.326	16.984	-0.098	0.077
-129.312	168.494	0.148	0.208
-128.297	14.343	0.170	-0.131
-127.283	365.620	0.205	-0.408
-126.268	800.000	-0.048	-0.180
-125.253	-59.894	-0.195	0.082
-124.239	-137.871	0.019	0.002
-123.224	59.571	0.132	0.128
-122.210	-59.209	-0.175	-0.074
-121.195	-96.840	-0.311	-0.081
-120.180	413.403	-0.143	0.299
