DTS Sentinel unit serial number:	SN413079Multiplexer serial number:	ORYXHardware model number:	OX4-SRSoftware version number:	ORYX F/W v4.00 Oryx Data Collector v3.7.2.0data status	okinstallation	princeton_trtdifferential loss correction	single-endedforward channel	channel 1reverse channel	N/Adate	2019/09/15time	19:50:35forward acquisition time	60.00reverse acquisition time	0.00gamma	496.2192k internal	0.2310k external	0.2310temperature offset calibration	0.9956default loss term (dB/km)	0.3790temperature slope calibration	1.0000multiplexer offset coefficient	1.0000multiplexer slope coefficient	1.0000fibre end	0.00T internal ref (°C)	36.61T ext. ref 1 (°C)	7.48T ext. ref 2 (°C)	26.84length (m)	temperature (°C)	Stokes	anti-Stokes-747.200	94.095	0.065	0.075
-746.185	-1.381	-0.246	0.176
-745.171	-200.000	-0.006	-0.177
-744.156	-1.987	0.168	0.120
-743.142	800.000	-0.088	0.331
-742.127	40.122	0.107	0.098
-741.112	-69.537	0.091	0.035
-740.098	-63.155	-0.265	-0.111
-739.083	-53.032	0.183	0.085
-738.069	-200.000	0.026	0.214
-737.054	-100.998	-0.466	-0.116
-736.039	-153.028	-0.383	-0.027
-735.025	293.322	0.119	-0.221
-734.010	-33.329	-0.201	-0.113
-732.996	-125.429	-0.547	-0.085
-731.981	89.998	-0.209	-0.237
-730.966	340.236	-0.071	-0.140
-729.952	-144.533	-0.241	0.023
-728.937	-121.716	-0.378	0.063
-727.923	-200.000	-0.020	-0.197
-726.908	1.163	-0.124	0.090
-725.894	585.248	-0.202	-0.504
-724.879	-118.207	0.303	0.055
-723.864	-200.000	-0.026	0.118
-722.850	2.156	0.245	0.179
-721.835	-32.866	-0.104	0.059
-720.821	186.379	0.024	-0.037
-719.806	40.696	-0.248	0.227
-718.791	-200.000	0.009	0.195
-717.777	-78.711	0.184	0.064
-716.762	47.368	-0.217	-0.205
-715.748	-200.000	-0.031	-0.172
-714.733	-13.998	-0.164	-0.107
-713.718	-63.074	-0.343	0.144
-712.704	144.984	-0.201	-0.273
-711.689	119.886	-0.166	0.209
-710.675	-200.000	0.069	-0.361
-709.660	-200.000	0.000	0.019
-708.645	-75.247	-0.124	-0.045
-707.631	64.961	-0.154	-0.158
-706.616	-43.563	-0.463	-0.237
-705.602	-168.701	-0.253	0.010
-704.587	-20.437	-0.197	-0.123
-703.572	-200.000	-0.028	-0.346
-702.558	27.597	0.389	-0.332
-701.543	800.000	0.111	0.356
-700.529	311.708	-0.041	-0.078
-699.514	-32.365	-0.172	-0.097
-698.499	-200.000	0.045	-0.270
-697.485	596.452	0.056	-0.141
-696.470	-3.310	0.246	-0.173
-695.456	200.016	0.089	-0.139
-694.441	46.157	0.166	0.156
-693.426	-144.733	-0.048	-0.005
-692.412	-73.678	0.130	0.048
-691.397	-135.888	-0.250	-0.030
-690.383	-137.746	-0.185	0.021
-689.368	-58.002	0.053	-0.024
-688.354	27.808	-0.266	-0.227
-687.339	-200.000	0.299	-0.001
-686.324	-200.000	-0.026	-0.265
-685.310	192.198	0.081	0.124
-684.295	-129.104	-0.055	0.008
-683.281	-200.000	0.019	-0.140
-682.266	68.607	0.122	-0.127
-681.251	800.000	0.117	0.334
-680.237	-23.215	-0.275	0.167
-679.222	-46.790	0.174	0.086
-678.208	-200.000	-0.008	-0.070
-677.193	-200.000	-0.016	-0.467
-676.178	-200.000	0.041	-0.272
-675.164	-122.979	-0.306	0.050
-674.149	-200.000	-0.001	-0.069
-673.135	30.927	-0.054	0.047
-672.120	-200.000	0.011	0.074
-671.105	800.000	0.031	0.096
-670.091	800.000	-0.089	0.293
-669.076	-200.000	-0.015	0.188
-668.062	2.310	0.112	0.082
-667.047	-18.835	0.201	-0.127
-666.032	-122.895	-0.319	-0.052
-665.018	-57.977	0.074	-0.033
-664.003	221.872	0.058	0.094
-662.989	76.356	-0.244	0.262
-661.974	-62.396	0.392	0.165
-660.959	166.816	-0.136	-0.195
-659.945	-129.685	0.380	0.053
-658.930	795.684	-0.099	0.276
-657.916	31.860	0.161	-0.141
-656.901	-4.586	-0.293	0.205
-655.886	58.457	0.101	-0.100
-654.872	-200.000	0.030	0.146
-653.857	6.064	0.118	0.088
-652.843	-123.527	0.089	-0.014
-651.828	800.000	-0.029	0.091
-650.814	-108.134	-0.436	-0.096
-649.799	-156.573	-0.128	-0.008
-648.784	355.957	0.049	0.098
-647.770	125.096	-0.197	-0.251
-646.755	220.202	0.103	-0.167
-645.741	398.556	-0.118	-0.251
-644.726	162.901	0.086	-0.122
-643.711	-200.000	-0.229	0.001
-642.697	221.410	-0.092	-0.149
-641.682	-122.709	-0.450	-0.074
-640.668	-200.000	-0.033	-0.172
-639.653	800.000	0.050	0.184
-638.638	148.314	0.125	-0.171
-637.624	706.581	-0.148	-0.395
-636.609	800.000	0.030	-0.109
-635.595	118.325	0.126	-0.157
-634.580	-200.000	-0.069	-0.533
-633.565	-9.933	-0.343	0.231
-632.551	-200.000	-0.027	-0.159
-631.536	-200.000	0.017	0.126
-630.522	665.130	-0.124	0.324
-629.507	-55.916	-0.196	-0.088
-628.492	309.438	-0.053	0.101
-627.478	-29.954	-0.111	0.064
-626.463	547.868	0.071	0.171
-625.449	-56.853	-0.110	-0.049
-624.434	800.000	-0.087	0.323
-623.419	113.016	0.111	-0.136
-622.405	-107.296	0.135	0.030
-621.390	705.643	-0.012	-0.032
-620.376	-31.932	-0.097	0.055
-619.361	97.949	-0.314	-0.365
-618.346	-100.823	-0.244	-0.061
-617.332	201.358	-0.053	0.082
-616.317	408.152	-0.113	-0.241
-615.303	337.935	-0.086	0.169
-614.288	6.951	0.122	-0.092
-613.273	88.830	0.076	-0.085
-612.259	-33.657	-0.373	-0.208
-611.244	-146.988	0.244	0.021
-610.230	40.696	0.299	0.272
-609.215	-200.000	-0.044	-0.328
-608.201	323.359	0.037	0.071
-607.186	427.980	0.096	0.208
-606.171	-132.641	0.365	0.047
-605.157	-123.595	0.148	-0.024
-604.142	146.514	0.055	-0.074
-603.128	60.427	0.202	0.202
-602.113	-94.535	0.047	0.013
-601.098	800.000	-0.048	-0.176
-600.084	634.490	0.110	-0.282
-599.069	-37.614	-0.203	0.109
-598.055	-200.000	-0.086	0.602
-597.040	-200.000	0.056	0.303
-596.025	-200.000	0.009	-0.158
-595.011	-155.208	0.341	-0.022
-593.996	138.301	-0.302	0.400
-592.982	-127.442	-0.107	0.016
-591.967	-198.424	-0.139	-0.001
-590.952	-57.609	0.144	0.064
-589.938	268.862	-0.108	0.192
-588.923	-59.888	0.167	0.072
-587.909	349.448	-0.056	-0.112
-586.894	109.910	0.129	0.156
-585.879	62.142	-0.068	0.068
-584.865	-178.784	-0.320	0.007
-583.850	96.381	-0.080	0.092
-582.836	-13.358	0.265	0.173
-581.821	-73.562	0.150	-0.055
-580.806	-121.659	-0.009	0.002
-579.792	-200.000	-0.009	-0.351
-578.777	-71.325	-0.099	-0.038
-577.763	-67.935	-0.227	0.090
-576.748	2.724	-0.179	0.131
-575.733	800.000	0.083	0.299
-574.719	-200.000	0.027	0.134
-573.704	-171.823	-0.478	-0.016
-572.690	-175.029	-0.362	0.010
-571.675	559.351	0.073	-0.179
-570.661	-142.737	-0.224	-0.022
-569.646	83.124	0.257	-0.282
-568.631	425.875	0.082	0.178
-567.617	183.168	0.233	0.347
-566.602	516.556	-0.019	0.044
-565.588	125.099	-0.150	-0.191
-564.573	-63.493	0.152	-0.063
-563.558	-129.771	-0.224	-0.031
-562.544	607.571	0.055	-0.138
-561.529	800.000	-0.107	0.428
-560.515	201.698	-0.207	0.322
-559.500	-13.428	-0.210	-0.137
-558.485	244.675	0.074	-0.126
-557.471	-116.619	0.159	0.029
-556.456	-39.114	0.182	-0.096
-555.442	70.168	-0.215	0.223
-554.427	-27.902	-0.259	0.151
-553.412	152.207	0.093	0.128
-552.398	356.538	-0.127	0.255
-551.383	87.073	-0.140	0.156
-550.369	-41.845	0.262	0.135
-549.354	800.000	-0.081	0.313
-548.339	-200.000	0.044	0.280
-547.325	139.806	-0.095	-0.126
-546.310	-34.431	-0.203	0.112
-545.296	-39.082	0.103	-0.054
-544.281	-35.337	0.064	0.035
-543.266	800.000	-0.039	0.111
-542.252	-200.000	-0.032	-0.146
-541.237	-90.970	-0.246	0.071
-540.223	800.000	-0.019	-0.056
-539.208	-19.004	-0.301	-0.188
-538.193	-110.006	0.127	0.027
-537.179	192.689	-0.173	-0.263
-536.164	-108.486	-0.277	-0.060
-535.150	164.830	0.189	-0.269
-534.135	-200.000	0.017	-0.084
-533.121	178.873	-0.052	0.076
-532.106	-62.743	-0.070	-0.029
-531.091	-200.000	-0.023	0.133
-530.077	-130.940	-0.521	-0.070
-529.062	-33.329	0.237	0.132
-528.048	44.068	0.016	0.015
-527.033	-200.000	-0.022	-0.137
-526.018	435.108	0.081	0.177
-525.004	-83.158	-0.038	-0.012
-523.989	-19.025	-0.287	-0.180
-522.975	-194.135	0.223	-0.002
-521.960	-64.215	-0.366	0.150
-520.945	-200.000	0.029	0.280
-519.931	-176.204	-0.127	0.003
-518.916	349.355	-0.100	0.198
-517.902	338.269	-0.199	-0.390
-516.887	795.123	0.123	-0.340
-515.872	-200.000	-0.045	0.334
-514.858	227.243	0.223	0.365
-513.843	47.016	0.190	-0.177
-512.829	349.539	-0.055	-0.109
-511.814	-19.264	0.284	-0.177
-510.799	222.822	-0.056	-0.091
-509.785	-78.882	-0.163	0.056
-508.770	800.000	-0.117	-0.386
-507.756	16.073	0.252	0.199
-506.741	-126.195	0.317	-0.048
-505.726	-79.654	0.200	-0.068
-504.712	-200.000	0.006	-0.034
-503.697	47.619	0.259	0.243
-502.683	121.390	0.127	-0.159
-501.668	-127.986	0.484	0.070
-500.653	-168.307	-0.415	0.016
-499.639	-200.000	0.056	0.262
-498.624	-35.008	-0.204	0.112
-497.610	262.430	-0.082	-0.143
-496.595	48.643	0.067	-0.064
-495.581	83.103	0.224	0.245
-494.566	-200.000	0.009	-0.258
-493.551	800.000	-0.068	-0.287
-492.537	-90.766	-0.088	-0.026
-491.522	-74.399	0.099	-0.036
-490.508	-111.867	-0.173	0.035
-489.493	2.123	-0.086	0.062
-488.478	-200.000	-0.012	-0.159
-487.464	61.844	-0.084	0.084
-486.449	-200.000	-0.012	0.195
-485.435	-145.004	-0.193	-0.018
-484.420	-13.047	0.270	0.177
-483.405	-24.095	0.371	-0.223
-482.391	132.105	-0.186	0.241
-481.376	-200.000	-0.016	-0.308
-480.362	-71.332	-0.392	-0.148
-479.347	-132.151	-0.172	0.022
-478.332	-32.411	0.299	0.167
-477.318	-72.926	-0.116	0.043
-476.303	-118.351	-0.031	0.006
-475.289	-129.550	-0.184	-0.026
-474.274	-16.361	-0.189	-0.121
-473.259	-200.000	-0.021	-0.240
-472.245	-176.043	-0.204	0.005
-471.230	615.111	0.144	0.362
-470.216	-200.000	0.024	-0.127
-469.201	157.140	-0.031	-0.044
-468.186	-200.000	0.030	0.465
-467.172	264.180	0.058	0.101
-466.157	300.441	0.145	0.268
-465.143	-143.412	-0.398	0.038
-464.128	-24.185	0.142	0.085
-463.113	-53.745	-0.249	0.114
-462.099	-200.000	-0.004	0.376
-461.084	-200.000	0.039	-0.518
-460.070	-94.634	-0.191	0.052
-459.055	-200.000	0.002	-0.247
-458.040	24.142	-0.109	-0.090
-457.026	-45.575	0.328	0.163
-456.011	-117.981	0.360	0.065
-454.997	-42.804	0.348	0.178
-453.982	800.000	-0.084	0.271
-452.968	63.223	0.125	-0.126
-451.953	-66.580	-0.182	0.072
-450.938	-151.186	0.157	0.012
-449.924	153.344	-0.107	-0.147
-448.909	180.229	-0.149	-0.219
-447.895	-153.657	-0.378	-0.026
-446.880	-107.631	0.189	-0.041
-445.865	688.345	0.137	0.359
-444.851	-200.000	0.047	-0.259
-443.836	-200.000	-0.012	0.143
-442.822	-36.785	-0.283	-0.152
-441.807	-91.345	0.176	0.050
-440.792	-60.015	0.298	-0.128
-439.778	-73.708	0.366	0.134
-438.763	800.000	-0.017	0.061
-437.749	800.000	0.061	-0.266
-436.734	-103.047	-0.113	0.027
-435.719	-19.969	0.109	-0.068
-434.705	99.043	0.057	0.066
-433.690	-96.446	0.378	-0.100
-432.676	55.837	-0.147	0.143
-431.661	-200.000	-0.052	-0.530
-430.646	800.000	-0.044	-0.171
-429.632	-200.000	-0.010	-0.112
-428.617	-13.882	-0.377	-0.244
-427.603	43.874	-0.069	0.064
-426.588	-34.569	0.265	-0.146
-425.573	-19.471	0.230	-0.143
-424.559	315.099	-0.118	0.222
-423.544	367.225	-0.064	0.129
-422.530	52.864	-0.132	-0.127
-421.515	-159.343	0.099	0.006
-420.500	-139.084	0.214	-0.023
-419.486	-2.369	-0.167	0.118
-418.471	-200.000	-0.038	0.252
-417.457	86.976	-0.284	0.315
-416.442	-90.168	0.187	-0.054
-415.428	-148.068	-0.217	-0.018
-414.413	6.694	-0.130	0.097
-413.398	-200.000	0.043	-0.225
-412.384	-200.000	-0.023	0.104
-411.369	-55.984	0.165	0.074
-410.355	800.000	-0.051	-0.174
-409.340	-95.339	-0.060	0.016
-408.325	38.731	0.236	-0.211
-407.311	-68.007	-0.196	0.077
-406.296	-95.082	0.246	0.067
-405.282	289.368	-0.064	-0.116
-404.267	-119.819	-0.205	0.035
-403.252	350.142	-0.132	0.262
-402.238	-108.959	0.387	-0.083
-401.223	316.024	0.071	-0.135
-400.209	66.054	0.208	-0.212
-399.194	-32.986	-0.258	0.143
-398.179	-51.209	-0.061	-0.029
-397.165	43.950	-0.217	-0.199
-396.150	71.763	0.245	-0.255
-395.136	-102.889	0.220	0.052
-394.121	-8.799	-0.193	0.130
-393.106	-200.000	0.010	-0.092
-392.092	39.581	0.075	-0.068
-391.077	-200.000	-0.051	0.242
-390.063	201.524	-0.121	0.187
-389.048	19.591	0.214	0.173
-388.033	-200.000	-0.008	-0.207
-387.019	-26.445	-0.176	0.103
-386.004	88.177	0.204	-0.227
-384.990	-41.699	0.145	0.075
-383.975	-200.000	-0.011	0.277
-382.960	-33.742	0.199	0.110
-381.946	397.853	0.171	-0.357
-380.931	109.559	-0.201	-0.241
-379.917	-146.839	-0.339	-0.029
-378.902	-92.358	0.127	0.036
-377.888	800.000	-0.022	-0.075
-376.873	61.869	0.312	0.311
-375.858	-93.106	-0.222	0.062
-374.844	9.776	0.130	0.099
-373.829	-71.843	0.158	-0.059
-372.815	-179.220	-0.183	-0.004
-371.800	-172.542	-0.045	0.001
-370.785	800.000	-0.046	0.159
-369.771	34.023	-0.126	0.110
-368.756	-54.894	-0.266	-0.120
-367.742	-83.134	-0.108	0.035
-366.727	800.000	0.040	-0.174
-365.712	451.337	0.057	-0.125
-364.698	325.002	-0.089	-0.170
-363.683	49.647	-0.178	0.168
-362.669	739.795	0.099	0.266
-361.654	53.398	-0.053	-0.050
-360.639	800.000	0.077	-0.278
-359.625	80.813	-0.251	-0.271
-358.610	800.000	0.043	0.168
-357.596	-200.000	0.000	0.015
-356.581	800.000	0.067	-0.278
-355.566	163.181	0.158	0.221
-354.552	205.652	0.211	0.328
-353.537	-181.588	0.380	0.007
-352.523	-122.685	0.267	0.043
-351.508	-51.935	-0.058	0.027
-350.493	-200.000	-0.020	-0.245
-349.479	-137.760	0.186	-0.021
-348.464	-200.000	-0.101	-0.448
-347.450	21.248	-0.159	0.129
-346.435	-174.634	0.076	0.002
-345.420	-144.601	0.222	-0.021
-344.406	116.441	0.147	-0.180
-343.391	559.026	-0.073	-0.176
-342.377	-127.153	0.302	0.044
-341.362	-88.947	-0.477	0.141
-340.348	37.764	-0.081	-0.072
-339.333	-200.000	0.016	-0.493
-338.318	-41.649	-0.305	-0.157
-337.304	-162.945	-0.262	0.013
-336.289	-144.818	0.373	-0.034
-335.275	-200.000	-0.023	0.140
-334.260	-112.042	0.064	-0.013
-333.245	7.525	-0.375	-0.280
-332.231	-124.554	0.307	0.048
-331.216	-112.810	0.246	-0.049
-330.202	153.047	0.125	0.171
-329.187	-119.482	-0.086	0.015
-328.172	576.043	-0.043	0.105
-327.158	-14.067	0.312	-0.201
-326.143	-200.000	-0.014	-0.123
-325.129	-200.000	-0.042	-0.322
-324.114	-166.392	-0.249	-0.010
-323.099	536.431	-0.079	-0.186
-322.085	-200.000	-0.029	0.187
-321.070	395.591	0.135	-0.281
-320.056	-48.123	-0.323	-0.156
-319.041	-200.000	0.016	0.264
-318.026	-102.121	0.135	-0.032
-317.012	337.694	0.045	0.087
-315.997	-21.137	-0.106	-0.065
-314.983	43.611	0.104	0.095
-313.968	-33.232	-0.058	-0.032
-312.953	41.209	-0.233	-0.211
-311.939	217.574	-0.094	-0.150
-310.924	-2.822	0.112	-0.078
-309.910	-200.000	0.019	-0.086
-308.895	-46.595	-0.214	0.105
-307.880	-106.300	0.121	0.027
-306.866	195.752	-0.004	-0.007
-305.851	-200.000	0.026	0.176
-304.837	-155.354	0.287	-0.019
-303.822	-200.000	0.039	-0.477
-302.807	190.705	0.051	-0.077
-301.793	-33.950	-0.258	0.142
-300.778	235.459	0.075	-0.123
-299.764	-100.311	0.236	-0.058
-298.749	-200.000	0.040	0.344
-297.735	-113.587	-0.200	-0.039
-296.720	800.000	0.056	-0.157
-295.705	165.218	0.191	-0.269
-294.691	-200.000	-0.040	-0.182
-293.676	-106.042	0.401	-0.090
-292.662	-200.000	0.028	0.128
-291.647	476.320	0.038	-0.085
-290.632	-30.672	0.280	0.158
-289.618	178.969	-0.063	0.092
-288.603	-31.109	0.182	0.102
-287.589	-11.142	0.155	0.102
-286.574	800.000	-0.075	0.210
-285.559	-131.908	-0.231	0.030
-284.545	454.091	-0.048	-0.106
-283.530	-135.670	0.155	-0.018
-282.516	-91.326	-0.196	-0.056
-281.501	-200.000	-0.002	-0.049
-280.486	20.024	0.099	0.079
-279.472	-200.000	-0.020	-0.158
-278.457	148.841	0.197	0.266
-277.443	800.000	0.060	0.190
-276.428	-163.877	-0.128	-0.006
-275.413	-126.621	0.252	-0.037
-274.399	-200.000	-0.010	-0.139
-273.384	-47.819	0.246	-0.119
-272.370	-200.000	-0.041	0.355
-271.355	-41.323	0.095	-0.049
-270.340	800.000	0.064	0.267
-269.326	-200.000	-0.009	-0.242
-268.311	74.977	-0.291	0.305
-267.297	471.705	-0.139	0.311
-266.282	800.000	0.080	0.254
-265.267	-71.865	-0.230	-0.085
-264.253	79.176	0.016	-0.017
-263.238	-79.175	0.049	-0.017
-262.224	-5.982	0.159	0.108
-261.209	-93.842	0.052	0.014
-260.195	531.433	-0.056	-0.132
-259.180	-89.476	-0.244	-0.071
-258.165	-71.451	0.150	0.056
-257.151	-35.507	0.211	0.114
-256.136	252.149	0.119	-0.201
-255.122	-19.684	-0.136	-0.084
-254.107	-96.856	0.055	-0.014
-253.092	-71.698	-0.203	-0.076
-252.078	310.239	0.059	0.109
-251.063	800.000	-0.039	0.148
-250.049	49.277	0.225	0.211
-249.034	800.000	0.062	0.212
-248.019	365.548	-0.105	-0.210
-247.005	-200.000	-0.044	0.388
-245.990	-116.187	0.354	0.066
-244.976	93.755	0.162	-0.183
-243.961	-65.067	0.146	-0.059
-242.946	179.399	-0.314	0.458
-241.932	800.000	-0.021	0.068
-240.917	-156.994	0.118	-0.007
-239.903	-185.060	-0.244	0.004
-238.888	4.745	0.176	-0.129
-237.873	-183.594	-0.055	-0.001
-236.859	-200.000	-0.016	-0.177
-235.844	-200.000	0.022	-0.195
-234.830	37.222	0.093	-0.082
-233.815	-38.003	0.196	-0.103
-232.800	-25.975	0.263	-0.154
-231.786	-200.000	-0.017	-0.084
-230.771	-165.785	0.084	-0.004
-229.757	-84.866	-0.205	-0.064
-228.742	-200.000	-0.024	0.193
-227.727	-36.891	-0.226	-0.120
-226.713	800.000	-0.072	0.221
-225.698	-133.082	0.217	-0.027
-224.684	433.439	-0.013	-0.029
-223.669	-200.000	-0.003	0.213
-222.655	-28.100	0.107	-0.061
-221.640	-183.223	-0.201	0.004
-220.625	-171.949	0.576	0.019
-219.611	-134.903	0.260	0.031
-218.596	208.942	-0.138	0.215
-217.582	-143.545	-0.223	0.021
-216.567	800.000	0.087	-0.269
-215.552	-200.000	-0.010	0.219
-214.538	-93.462	-0.308	-0.085
-213.523	-17.419	-0.099	-0.062
-212.509	800.000	-0.135	-0.447
-211.494	359.615	-0.046	-0.092
-210.479	149.712	-0.236	0.319
-209.465	627.306	-0.060	0.151
-208.450	-131.988	0.239	-0.031
-207.436	229.511	-0.130	0.210
-206.421	481.797	-0.108	-0.243
-205.406	-106.876	-0.188	-0.041
-204.392	-171.808	0.335	-0.011
-203.377	214.546	0.122	0.192
-202.363	59.056	-0.122	0.119
-201.348	488.725	-0.009	0.020
-200.333	-152.494	-0.111	-0.008
-199.319	-200.000	-0.005	-0.202
-198.304	-89.265	0.177	-0.052
-197.290	-200.000	0.056	0.249
-196.275	11.692	0.280	-0.213
-195.260	-127.058	-0.082	-0.012
-194.246	-86.344	0.324	-0.099
-193.231	-200.000	0.007	0.094
-192.217	261.999	0.092	0.159
-191.202	-200.000	-0.045	0.211
-190.187	-75.677	0.192	-0.068
-189.173	-144.404	0.334	0.031
-188.158	-200.000	-0.003	-0.273
-187.144	-58.810	0.093	-0.040
-186.129	745.062	-0.104	0.279
-185.114	46.652	-0.094	0.087
-184.100	-60.857	-0.224	0.094
-183.085	349.873	-0.112	0.219
-182.071	-52.554	-0.251	-0.115
-181.056	534.299	0.098	0.230
-180.042	-4.442	-0.456	0.313
-179.027	-74.954	0.105	-0.037
-178.012	800.000	0.120	-0.381
-176.998	22.074	0.098	-0.079
-175.983	-200.000	-0.014	-0.114
-174.969	360.321	0.057	0.113
-173.954	-200.000	0.032	0.232
-172.939	178.142	0.059	-0.086
-171.925	-200.000	0.031	0.184
-170.910	-200.000	0.032	-0.181
-169.896	-82.249	0.297	-0.096
-168.881	66.024	0.250	-0.252
-167.866	-67.308	-0.168	0.066
-166.852	21.931	0.208	0.168
-165.837	135.017	0.096	-0.123
-164.823	800.000	-0.039	0.151
-163.808	-51.417	0.069	0.032
-162.793	-200.000	0.031	0.150
-161.779	-85.790	0.188	-0.058
-160.764	42.694	-0.053	-0.048
-159.750	46.310	-0.135	0.124
-158.735	28.109	0.173	-0.145
-157.720	22.547	-0.111	0.090
-156.706	200.755	0.034	0.052
-155.691	-51.696	-0.378	-0.175
-154.677	-56.231	0.366	-0.162
-153.662	469.331	-0.061	-0.135
-152.647	253.436	-0.166	0.281
-151.633	113.188	0.144	-0.173
-150.618	-125.310	0.286	-0.043
-149.604	556.188	-0.142	0.340
-148.589	81.265	-0.338	0.363
-147.574	-95.371	0.292	-0.078
-146.560	-51.950	-0.094	-0.043
-145.545	-200.000	0.013	-0.351
-144.531	800.000	0.042	0.167
-143.516	13.223	0.152	-0.117
-142.502	100.869	-0.121	-0.139
-141.487	387.042	-0.103	-0.211
-140.472	721.756	-0.057	-0.150
-139.458	150.392	0.092	-0.124
-138.443	800.000	0.073	-0.202
-137.429	-200.000	-0.036	0.309
-136.414	-114.247	-0.132	0.025
-135.399	55.696	-0.197	-0.189
-134.385	-17.239	-0.332	-0.208
-133.370	-99.486	0.144	0.036
-132.356	800.000	-0.007	0.024
-131.341	-200.000	0.001	-0.224
-130.326	-87.746	0.254	-0.076
-129.312	-57.005	-0.236	0.103
-128.297	-130.472	-0.319	0.043
-127.283	136.937	-0.075	-0.097
-126.268	-200.000	-0.019	-0.236
-125.253	-128.455	-0.385	-0.054
-124.239	-148.646	-0.163	0.013
-123.224	-67.049	0.235	-0.092
