DTS Sentinel unit serial number:	SN413079Multiplexer serial number:	ORYXHardware model number:	OX4-SRSoftware version number:	ORYX F/W v4.00 Oryx Data Collector v3.7.2.0data status	okinstallation	princeton_trtdifferential loss correction	single-endedforward channel	channel 1reverse channel	N/Adate	2019/09/17time	00:34:35forward acquisition time	60.00reverse acquisition time	0.00gamma	496.2192k internal	0.2324k external	0.2324temperature offset calibration	0.9958default loss term (dB/km)	0.3790temperature slope calibration	1.0000multiplexer offset coefficient	1.0000multiplexer slope coefficient	1.0000fibre end	0.00T internal ref (°C)	29.44T ext. ref 1 (°C)	0.09T ext. ref 2 (°C)	23.93length (m)	temperature (°C)	Stokes	anti-Stokes-747.200	705.498	-0.028	0.074
-746.185	-200.000	0.037	0.183
-745.171	95.831	-0.187	-0.215
-744.156	318.637	0.007	0.013
-743.142	281.777	0.146	-0.264
-742.127	-200.000	-0.036	0.282
-741.112	-39.397	0.417	-0.221
-740.098	800.000	-0.066	0.282
-739.083	20.750	0.204	0.167
-738.069	-200.000	-0.006	0.142
-737.054	-74.182	-0.118	-0.043
-736.039	323.773	-0.008	-0.015
-735.025	-200.000	0.018	0.175
-734.010	5.294	-0.183	0.136
-732.996	774.566	-0.051	0.139
-731.981	-104.647	-0.155	-0.036
-730.966	436.822	-0.111	0.244
-729.952	-34.173	0.274	-0.152
-728.937	800.000	-0.027	-0.097
-727.923	-129.053	0.199	-0.028
-726.908	-30.393	0.135	0.077
-725.894	-200.000	-0.024	0.216
-724.879	-131.466	-0.271	-0.036
-723.864	782.947	0.184	0.508
-722.850	-58.161	0.206	-0.091
-721.835	204.059	-0.099	-0.155
-720.821	28.865	-0.117	0.100
-719.806	236.233	-0.105	-0.175
-718.791	305.799	0.009	0.017
-717.777	-200.000	-0.028	-0.137
-716.762	274.352	0.140	0.250
-715.748	164.360	0.054	0.076
-714.733	26.823	0.022	-0.019
-713.718	800.000	0.083	0.277
-712.704	37.629	-0.057	0.051
-711.689	800.000	0.079	-0.260
-710.675	36.722	-0.091	-0.081
-709.660	-179.900	-0.168	-0.004
-708.645	-127.512	-0.133	-0.019
-707.631	-105.580	-0.085	0.020
-706.616	-32.088	-0.090	0.051
-705.602	-200.000	0.015	0.095
-704.587	183.914	-0.070	-0.105
-703.572	-16.500	0.231	-0.148
-702.558	-43.347	0.276	0.141
-701.543	-200.000	-0.024	-0.299
-700.529	59.652	0.075	0.075
-699.514	262.632	-0.082	-0.143
-698.499	61.829	0.227	-0.227
-697.485	-45.191	-0.058	0.029
-696.470	-102.090	0.063	-0.015
-695.456	96.628	0.073	0.084
-694.441	-200.000	0.014	-0.124
-693.426	538.785	-0.046	0.111
-692.412	-67.846	-0.255	0.100
-691.397	-91.139	0.101	0.029
-690.383	397.898	-0.166	-0.350
-689.368	-37.915	0.133	-0.071
-688.354	-200.000	0.017	-0.257
-687.339	22.325	0.331	0.272
-686.324	-200.000	0.016	-0.078
-685.310	800.000	-0.086	-0.370
-684.295	69.862	-0.065	-0.068
-683.281	54.801	0.126	-0.122
-682.266	-78.113	-0.112	0.039
-681.251	-97.010	0.058	-0.015
-680.237	-78.536	0.054	-0.019
-679.222	-200.000	-0.008	0.093
-678.208	-200.000	0.043	-0.279
-677.193	646.826	0.224	-0.575
-676.178	95.713	-0.202	0.232
-675.164	168.928	0.248	-0.356
-674.149	-200.000	0.010	0.154
-673.135	-68.859	0.225	0.088
-672.120	67.629	0.287	-0.295
-671.105	800.000	0.053	0.193
-670.091	183.436	0.014	-0.022
-669.076	-120.848	0.051	0.009
-668.062	-47.621	-0.269	-0.131
-667.047	15.267	0.175	-0.138
-666.032	106.917	-0.061	-0.073
-665.018	-145.539	0.037	-0.003
-664.003	-78.142	-0.130	-0.045
-662.989	-104.881	-0.420	0.097
-661.974	142.165	-0.191	-0.255
-660.959	800.000	0.027	-0.097
-659.945	-200.000	0.038	-0.297
-658.930	-37.984	0.337	-0.180
-657.916	104.877	-0.035	-0.042
-656.901	800.000	0.041	-0.145
-655.886	-127.591	0.320	0.047
-654.872	-150.392	0.028	0.002
-653.857	13.430	0.138	-0.108
-652.843	-79.192	-0.419	0.143
-651.828	800.000	-0.025	0.082
-650.814	5.467	-0.035	-0.026
-649.799	117.704	0.105	0.130
-648.784	-34.954	-0.119	-0.065
-647.770	-120.426	0.270	0.046
-646.755	-72.841	-0.564	0.209
-645.741	272.138	-0.142	-0.252
-644.726	-200.000	-0.008	0.042
-643.711	-40.046	-0.111	-0.058
-642.697	-82.732	-0.106	-0.035
-641.682	-122.619	0.115	-0.019
-640.668	26.582	0.058	-0.049
-639.653	800.000	-0.019	-0.082
-638.638	-200.000	0.027	-0.359
-637.624	-40.165	-0.360	0.188
-636.609	-179.487	-0.132	0.003
-635.595	549.005	0.200	-0.482
-634.580	157.168	0.241	-0.335
-633.565	497.347	-0.176	-0.408
-632.551	-85.745	0.239	-0.075
-631.536	-200.000	-0.012	0.297
-630.522	-42.571	-0.033	-0.017
-629.507	-96.199	0.184	-0.049
-628.492	-59.343	0.090	0.039
-627.478	-74.857	-0.116	-0.042
-626.463	-57.584	0.147	-0.065
-625.449	-17.805	-0.073	-0.046
-624.434	10.181	0.214	-0.164
-623.419	285.281	-0.210	-0.380
-622.405	449.377	0.152	-0.337
-621.390	-136.395	0.046	-0.005
-620.376	-188.443	0.111	-0.001
-619.361	-68.417	0.068	0.026
-618.346	-36.850	-0.305	0.165
-617.332	800.000	-0.095	-0.317
-616.317	-15.615	0.242	-0.155
-615.303	-9.177	0.076	0.051
-614.288	104.236	-0.247	-0.292
-613.273	247.049	-0.037	-0.063
-612.259	800.000	0.048	0.139
-611.244	224.893	-0.075	0.121
-610.230	-3.387	-0.160	-0.112
-609.215	-105.806	-0.175	0.040
-608.201	-200.000	-0.004	-0.347
-607.186	-121.145	0.292	-0.049
-606.171	-200.000	0.026	0.213
-605.157	2.871	-0.063	0.046
-604.142	-167.362	-0.185	-0.007
-603.128	-200.000	-0.003	-0.061
-602.113	800.000	-0.086	-0.254
-601.098	192.876	-0.124	-0.189
-600.084	1.228	0.227	0.164
-599.069	-146.771	-0.336	-0.029
-598.055	-40.188	0.127	0.067
-597.040	321.211	0.094	-0.179
-596.025	-200.000	-0.003	-0.177
-595.011	-18.452	-0.076	-0.048
-593.996	-200.000	0.053	0.256
-592.982	-143.186	-0.207	0.020
-591.967	-64.116	0.420	0.172
-590.952	194.690	-0.049	-0.075
-589.938	-200.000	-0.043	0.267
-588.923	191.806	-0.041	-0.062
-587.909	800.000	-0.024	-0.088
-586.894	27.638	0.110	-0.093
-585.879	-19.675	-0.075	-0.047
-584.865	308.561	0.231	0.433
-583.850	-132.773	-0.327	0.042
-582.836	-28.067	-0.159	0.092
-581.821	51.132	0.094	0.090
-580.806	-200.000	0.289	-0.000
-579.792	-140.279	-0.133	-0.014
-578.777	219.325	-0.021	-0.034
-577.763	-44.473	-0.179	-0.090
-576.748	93.741	-0.062	-0.071
-575.733	51.453	-0.195	-0.186
-574.719	-200.000	0.036	-0.352
-573.704	-63.731	-0.054	-0.022
-572.690	-21.333	0.198	0.121
-571.675	414.347	-0.140	-0.299
-570.661	34.527	0.188	-0.164
-569.646	763.699	0.147	0.400
-568.631	-42.014	0.272	0.140
-567.617	-60.784	0.291	-0.123
-566.602	-7.199	-0.325	-0.221
-565.588	-85.056	-0.228	0.071
-564.573	800.000	0.040	0.166
-563.558	-52.226	-0.089	0.041
-562.544	-142.506	0.183	-0.018
-561.529	3.579	0.148	-0.108
-560.515	-200.000	-0.171	-0.001
-559.500	-200.000	-0.008	-0.148
-558.485	-68.395	0.098	0.038
-557.471	-200.000	0.011	0.130
-556.456	-73.174	-0.188	0.069
-555.442	-121.377	0.182	0.030
-554.427	-200.000	0.009	-0.088
-553.412	-159.712	0.312	-0.017
-552.398	-112.144	-0.137	-0.028
-551.383	-85.586	-0.251	0.078
-550.369	161.285	0.109	-0.152
-549.354	-200.000	-0.018	-0.308
-548.339	513.826	0.133	0.311
-547.325	-2.440	0.063	0.044
-546.310	-33.775	-0.162	0.090
-545.296	173.538	-0.153	-0.221
-544.281	139.570	0.121	-0.160
-543.266	-41.184	-0.072	-0.037
-542.252	35.179	0.067	-0.059
-541.237	-200.000	-0.029	-0.254
-540.223	-2.093	-0.057	-0.040
-539.208	-98.659	-0.087	0.022
-538.193	-7.189	-0.324	0.220
-537.179	-157.677	-0.247	-0.015
-536.164	89.080	-0.199	-0.222
-535.150	800.000	0.082	0.333
-534.135	165.568	0.207	0.293
-533.121	244.906	-0.072	-0.121
-532.106	-200.000	0.050	-0.292
-531.091	-98.559	0.061	-0.015
-530.077	53.354	0.234	0.225
-529.062	113.308	-0.046	-0.055
-528.048	-200.000	-0.031	-0.274
-527.033	800.000	-0.117	0.409
-526.018	-54.497	0.219	-0.099
-525.004	-68.152	-0.205	-0.080
-523.989	-200.000	0.036	0.214
-522.975	-27.442	-0.233	-0.136
-521.960	183.074	-0.164	0.243
-520.945	331.863	0.069	-0.134
-519.931	251.192	0.188	-0.320
-518.916	203.425	-0.159	0.246
-517.902	-58.599	-0.377	-0.164
-516.887	800.000	-0.028	-0.118
-515.872	-200.000	0.020	0.155
-514.858	-86.128	0.069	0.021
-513.843	-32.266	-0.314	-0.175
-512.829	800.000	-0.135	-0.392
-511.814	481.780	-0.034	-0.077
-510.799	105.802	0.223	-0.264
-509.785	119.222	-0.165	-0.204
-508.770	371.726	0.018	-0.037
-507.756	-200.000	-0.031	0.197
-506.741	-5.387	-0.146	0.100
-505.726	-49.162	0.259	0.124
-504.712	86.534	0.116	0.128
-503.697	83.896	-0.245	0.268
-502.683	480.091	-0.077	-0.175
-501.668	3.949	-0.310	-0.227
-500.653	-153.529	-0.140	-0.010
-499.639	-171.507	0.301	-0.010
-498.624	15.300	-0.119	-0.093
-497.610	686.131	0.038	-0.099
-496.595	-31.364	-0.097	-0.055
-495.581	-66.944	-0.219	0.086
-494.566	464.056	0.196	0.438
-493.551	-13.688	0.079	0.051
-492.537	-38.928	0.347	-0.182
-491.522	-200.000	0.009	-0.113
-490.508	149.458	0.058	-0.079
-489.493	-125.886	0.241	-0.036
-488.478	-21.594	0.258	-0.157
-487.464	-200.000	-0.009	0.287
-486.449	-138.526	-0.043	0.005
-485.435	-4.054	0.253	-0.175
-484.420	800.000	0.044	0.137
-483.405	-94.534	0.364	0.099
-482.391	-109.795	-0.070	0.015
-481.376	-150.453	-0.275	-0.021
-480.362	-200.000	-0.002	0.018
-479.347	-23.106	-0.225	0.135
-478.332	-130.263	-0.264	0.036
-477.318	-19.146	0.227	-0.141
-476.303	-200.000	0.077	-0.342
-475.289	-200.000	0.003	-0.036
-474.274	800.000	-0.054	0.153
-473.259	-44.733	-0.094	0.047
-472.245	701.802	-0.044	0.117
-471.230	-50.248	0.223	-0.105
-470.216	483.835	0.079	-0.179
-469.201	-184.111	-0.185	0.003
-468.186	-127.828	0.298	0.043
-467.172	180.839	-0.083	0.122
-466.157	800.000	0.148	0.418
-465.143	800.000	0.118	0.475
-464.128	-136.829	0.136	0.016
-463.113	-200.000	0.057	-0.293
-462.099	40.630	0.172	-0.154
-461.084	-200.000	-0.025	0.226
-460.070	-66.582	-0.243	0.096
-459.055	-71.057	0.156	0.058
-458.040	685.605	-0.188	-0.491
-457.026	26.939	-0.147	-0.123
-456.011	-148.054	-0.347	-0.029
-454.997	-94.816	-0.451	-0.122
-453.982	127.022	-0.274	0.347
-452.968	25.574	0.215	-0.178
-451.953	-200.000	-0.004	0.311
-450.938	-24.248	-0.143	0.085
-449.924	-133.721	-0.284	0.035
-448.909	-153.973	0.431	0.029
-447.895	-200.000	-0.020	0.133
-446.880	12.544	-0.160	-0.124
-445.865	800.000	0.111	0.419
-444.851	-200.000	0.025	0.132
-443.836	-200.000	0.037	-0.193
-442.822	-200.000	0.005	0.057
-441.807	-132.188	-0.221	-0.029
-440.792	800.000	0.077	-0.218
-439.778	54.049	0.090	0.086
-438.763	-100.386	0.127	-0.031
-437.749	-137.193	-0.090	0.010
-436.734	176.670	0.268	-0.389
-435.719	32.050	0.220	-0.189
-434.705	25.302	0.051	-0.042
-433.690	-167.596	-0.260	0.010
-432.676	429.941	0.042	-0.091
-431.661	-200.000	-0.004	0.095
-430.646	-90.514	-0.130	0.037
-429.632	-83.061	0.391	0.126
-428.617	97.258	0.120	0.138
-427.603	-200.000	-0.009	-0.544
-426.588	26.477	-0.172	-0.144
-425.573	307.758	0.139	0.259
-424.559	242.812	-0.145	0.242
-423.544	18.642	-0.194	0.155
-422.530	800.000	-0.071	-0.209
-421.515	-59.639	0.249	-0.106
-420.500	259.085	0.112	0.192
-419.486	-37.075	-0.251	-0.134
-418.471	-62.104	-0.117	-0.049
-417.457	-200.000	0.020	0.363
-416.442	694.914	0.094	-0.246
-415.428	-154.415	0.390	0.026
-414.413	-200.000	0.022	-0.157
-413.398	-124.025	-0.265	-0.041
-412.384	-200.000	0.026	0.167
-411.369	8.722	-0.068	0.051
-410.355	-200.000	0.027	0.207
-409.340	800.000	0.089	0.348
-408.325	61.669	0.149	-0.148
-407.311	253.206	0.138	-0.235
-406.296	238.190	0.266	0.439
-405.282	80.229	-0.074	0.080
-404.267	304.671	0.070	0.129
-403.252	-200.000	-0.038	0.194
-402.238	-200.000	-0.011	0.310
-401.223	-70.504	0.166	0.062
-400.209	61.236	0.042	0.042
-399.194	-138.993	0.134	0.014
-398.179	41.431	0.026	-0.023
-397.165	-163.937	0.404	-0.019
-396.150	-200.000	-0.018	0.175
-395.136	136.535	0.118	-0.154
-394.121	135.742	-0.121	-0.156
-393.106	-200.000	-0.001	0.290
-392.092	21.442	0.228	0.185
-391.077	-200.000	-0.004	0.288
-390.063	64.566	-0.082	-0.083
-389.048	-104.248	-0.206	-0.048
-388.033	101.022	0.210	0.244
-387.019	353.030	-0.139	-0.275
-386.004	-131.625	0.110	0.014
-384.990	800.000	-0.030	0.112
-383.975	-200.000	0.017	0.246
-382.960	68.595	0.236	0.241
-381.946	-43.508	-0.040	-0.020
-380.931	-159.006	0.369	-0.021
-379.917	-95.661	0.102	-0.027
-378.902	-200.000	-0.027	0.277
-377.888	226.049	-0.085	0.138
-376.873	26.321	-0.169	0.141
-375.858	-200.000	0.064	0.417
-374.844	26.613	0.098	-0.081
-373.829	800.000	-0.081	0.232
-372.815	79.305	0.130	0.139
-371.800	41.763	0.221	-0.199
-370.785	37.004	-0.094	-0.083
-369.771	-200.000	0.007	-0.109
-368.756	117.592	0.118	0.144
-367.742	-200.000	-0.012	0.203
-366.727	195.303	-0.222	-0.336
-365.712	221.578	-0.089	-0.142
-364.698	212.023	0.020	-0.031
-363.683	800.000	0.069	-0.287
-362.669	343.440	0.087	0.170
-361.654	-99.738	-0.222	-0.055
-360.639	-111.624	0.186	0.037
-359.625	-72.863	0.481	0.176
-358.610	-8.426	0.069	-0.046
-357.596	-200.000	-0.042	-0.231
-356.581	-113.025	0.337	-0.066
-355.566	-200.000	-0.022	-0.366
-354.552	436.561	0.199	-0.432
-353.537	72.042	-0.216	0.224
-352.523	-39.964	0.093	-0.048
-351.508	182.894	-0.236	0.347
-350.493	452.684	-0.073	-0.161
-349.479	48.762	0.198	-0.185
-348.464	463.959	-0.133	-0.297
-347.450	101.389	0.242	-0.280
-346.435	-108.641	-0.454	0.097
-345.420	-1.877	0.079	0.055
-344.406	-73.733	0.318	-0.115
-343.391	795.461	0.135	-0.370
-342.377	-22.829	-0.327	-0.196
-341.362	124.645	-0.261	0.327
-340.348	-200.000	0.004	-0.354
-339.333	107.939	0.212	0.251
-338.318	800.000	0.090	0.318
-337.304	134.908	-0.201	0.259
-336.289	146.732	0.035	0.046
-335.275	-54.782	-0.193	0.087
-334.260	20.980	-0.213	0.171
-333.245	66.747	-0.178	-0.179
-332.231	196.913	-0.073	0.111
-331.216	-3.027	0.169	-0.117
-330.202	2.865	-0.101	-0.073
-329.187	-136.748	-0.430	0.049
-328.172	-102.566	-0.012	-0.003
-327.158	95.696	-0.019	0.022
-326.143	309.049	0.084	0.156
-325.129	11.767	0.160	0.122
-324.114	40.068	0.115	0.103
-323.099	22.742	0.098	-0.080
-322.085	-159.226	0.546	-0.030
-321.070	800.000	0.037	-0.146
-320.056	158.773	-0.160	-0.221
-319.041	800.000	-0.105	0.357
-318.026	-33.844	-0.134	0.073
-317.012	270.151	0.063	-0.111
-315.997	-153.778	-0.317	-0.022
-314.983	800.000	-0.073	0.306
-313.968	460.741	-0.211	-0.467
-312.953	-44.692	-0.282	0.140
-311.939	297.243	0.058	-0.105
-310.924	28.294	-0.184	0.154
-309.910	66.181	0.298	-0.300
-308.895	295.783	-0.107	-0.194
-307.880	-90.546	-0.172	-0.049
-306.866	236.786	-0.180	-0.295
-305.851	111.141	-0.131	-0.156
-304.837	99.396	-0.057	-0.066
-303.822	135.111	-0.090	0.116
-302.807	800.000	0.101	0.298
-301.793	-92.884	0.328	-0.091
-300.778	-200.000	-0.026	-0.204
-299.764	2.212	-0.293	-0.210
-298.749	116.582	-0.032	-0.038
-297.735	87.663	-0.239	0.263
-296.720	704.336	-0.080	0.211
-295.705	-4.526	0.493	0.338
-294.691	-155.685	-0.150	-0.010
-293.676	565.292	-0.173	0.417
-292.662	749.631	-0.080	0.214
-291.647	-95.945	-0.099	0.026
-290.632	-70.165	0.200	0.075
-289.618	-27.109	0.152	0.088
-288.603	800.000	-0.083	-0.239
-287.589	-100.259	0.041	0.010
-286.574	175.538	-0.086	0.124
-285.559	800.000	-0.026	0.072
-284.545	635.141	0.262	0.658
-283.530	-163.562	0.197	-0.009
-282.516	151.697	0.032	-0.043
-281.501	-9.989	0.362	-0.238
-280.486	-200.000	0.004	-0.220
-279.472	-200.000	0.020	-0.158
-278.457	-200.000	-0.023	-0.326
-277.443	-83.634	0.058	0.018
-276.428	-200.000	-0.019	0.210
-275.413	214.082	0.138	-0.216
-274.399	-14.071	-0.134	0.086
-273.384	129.832	-0.129	-0.163
-272.370	228.726	-0.110	-0.177
-271.355	-200.000	-0.054	0.299
-270.340	-73.554	0.359	-0.130
-269.326	-200.000	0.002	0.165
-268.311	79.146	0.069	-0.073
-267.297	-63.839	0.237	0.096
-266.282	492.358	0.145	-0.329
-265.267	-200.000	-0.048	-0.321
-264.253	-59.699	-0.336	-0.143
-263.238	146.465	-0.054	-0.072
-262.224	-49.602	-0.208	0.098
-261.209	-93.832	-0.196	-0.053
-260.195	-111.329	-0.276	-0.056
-259.180	624.719	0.044	0.110
-258.165	-120.225	0.333	-0.056
-257.151	75.511	0.150	-0.157
-256.136	141.496	0.085	-0.111
-255.122	411.836	0.132	-0.278
-254.107	135.399	-0.147	-0.190
-253.092	478.330	0.097	-0.218
-252.078	594.350	-0.052	0.128
-251.063	800.000	-0.107	0.418
-250.049	-39.508	-0.271	-0.140
-249.034	800.000	0.063	-0.183
-248.019	-108.575	-0.145	0.031
-247.005	169.408	0.251	0.354
-245.990	-200.000	-0.022	0.182
-244.976	800.000	0.066	-0.264
-243.961	-68.878	0.196	0.075
-242.946	-133.070	-0.305	-0.038
-241.932	-200.000	-0.011	0.067
-240.917	-185.771	0.084	-0.001
-239.903	-29.075	0.239	0.136
-238.888	-200.000	-0.007	0.117
-237.873	-86.904	0.142	-0.043
-236.859	-146.602	0.598	0.051
-235.844	-150.683	-0.198	0.015
-234.830	800.000	0.021	0.083
-233.815	-51.087	0.248	0.115
-232.800	39.325	-0.209	0.185
-231.786	246.836	0.047	0.078
-230.771	48.354	-0.237	0.220
-229.757	160.769	-0.006	0.008
-228.742	-200.000	0.102	-0.443
-227.727	800.000	0.065	0.236
-226.713	348.597	-0.048	0.093
-225.698	-55.419	-0.217	-0.096
-224.684	-28.248	-0.178	0.102
-223.669	-40.914	-0.130	-0.067
-222.655	2.298	-0.236	0.169
-221.640	-9.130	0.032	0.021
-220.625	264.183	-0.130	0.224
-219.611	-159.130	0.065	-0.004
-218.596	-200.000	-0.017	0.318
-217.582	272.898	0.241	-0.421
-216.567	-76.932	0.073	-0.025
-215.552	626.941	0.083	0.206
-214.538	-200.000	0.011	-0.064
-213.523	-188.574	-0.149	-0.002
-212.509	-200.000	-0.024	0.124
-211.494	301.271	-0.108	0.198
-210.479	-200.000	-0.017	-0.410
-209.465	53.858	0.078	-0.074
-208.450	569.729	-0.017	0.041
-207.436	-84.971	0.292	-0.091
-206.421	-126.605	-0.272	0.040
-205.406	78.818	0.175	-0.185
-204.392	-200.000	-0.005	-0.151
-203.377	-134.377	0.305	-0.037
-202.363	-115.333	0.179	0.033
-201.348	-4.057	-0.169	-0.116
-200.333	-128.820	-0.246	0.034
-199.319	-117.236	0.023	-0.004
-198.304	170.580	0.046	-0.066
-197.290	-200.000	0.000	0.013
-196.275	-200.000	-0.034	0.382
-195.260	109.342	-0.054	-0.064
-194.246	339.715	-0.132	0.255
-193.231	108.255	0.340	0.401
-192.217	595.309	0.106	0.260
-191.202	-78.442	-0.113	0.038
-190.187	-169.349	0.030	-0.001
-189.173	182.822	0.133	0.193
-188.158	-117.489	-0.112	0.020
-187.144	740.104	-0.172	0.457
-186.129	-200.000	0.057	0.345
-185.114	-153.629	0.121	0.008
-184.100	432.826	-0.108	0.230
-183.085	-19.081	-0.030	-0.018
-182.071	800.000	0.059	0.175
-181.056	-200.000	-0.010	-0.051
-180.042	-123.020	-0.169	-0.027
-179.027	148.330	0.212	-0.283
-178.012	-108.348	0.177	0.038
-176.998	151.912	-0.189	0.255
-175.983	434.350	-0.042	0.091
-174.969	363.121	-0.090	-0.179
-173.954	61.114	-0.301	-0.295
-172.939	-200.000	-0.057	-0.277
-171.925	-7.000	0.054	0.036
-170.910	-161.173	-0.440	0.023
-169.896	-200.000	0.051	0.295
-168.881	-108.850	0.037	-0.008
-167.866	-103.146	0.035	-0.008
-166.852	-200.000	0.046	0.244
-165.837	70.322	-0.249	0.254
-164.823	96.737	-0.160	0.181
-163.808	436.074	0.084	-0.180
-162.793	-2.359	0.190	-0.131
-161.779	-200.000	0.022	-0.200
-160.764	324.067	-0.088	0.165
-159.750	277.952	-0.104	-0.183
-158.735	-200.000	0.002	-0.021
-157.720	112.919	0.086	-0.103
-156.706	-40.900	0.135	0.069
-155.691	67.349	0.166	0.167
-154.677	800.000	0.069	-0.215
-153.662	-68.342	0.247	0.095
-152.647	-37.713	-0.160	-0.084
-151.633	18.489	-0.131	-0.103
-150.618	580.968	-0.243	0.587
-149.604	385.087	0.084	0.171
-148.589	-200.000	0.009	0.088
-147.574	42.042	0.220	0.197
-146.560	-200.000	-0.031	0.146
-145.545	-93.886	-0.352	0.095
-144.531	-200.000	0.013	0.071
-143.516	-200.000	-0.030	0.224
-142.502	93.174	0.109	0.121
-141.487	-127.453	0.116	-0.017
-140.472	-35.073	0.183	-0.098
-139.458	-2.385	0.329	-0.228
-138.443	213.249	0.159	-0.247
-137.429	-134.022	-0.493	-0.060
-136.414	-200.000	0.006	0.049
-135.399	-200.000	-0.000	0.066
-134.385	-18.087	0.276	0.171
-133.370	-40.521	0.043	0.022
-132.356	386.214	0.124	-0.253
-131.341	-83.907	-0.220	-0.069
-130.326	-152.696	-0.176	-0.012
-129.312	-11.006	0.225	0.146
-128.297	-196.096	0.208	0.001
-127.283	-200.000	-0.022	-0.126
-126.268	-17.752	-0.209	-0.129
-125.253	-143.712	-0.157	0.015
-124.239	-42.727	-0.294	-0.148
-123.224	-12.151	0.146	-0.094
-122.210	23.832	-0.075	0.061
