DTS Sentinel unit serial number:	SN413079Multiplexer serial number:	ORYXHardware model number:	OX4-SRSoftware version number:	ORYX F/W v4.00 Oryx Data Collector v3.7.2.0data status	okinstallation	princeton_trtdifferential loss correction	single-endedforward channel	channel 1reverse channel	N/Adate	2019/09/10time	22:48:11forward acquisition time	60.00reverse acquisition time	0.00gamma	496.2192k internal	0.2332k external	0.2332temperature offset calibration	0.9934default loss term (dB/km)	0.3790temperature slope calibration	1.0000multiplexer offset coefficient	1.0000multiplexer slope coefficient	1.0000fibre end	0.00T internal ref (°C)	30.19T ext. ref 1 (°C)	-0.30T ext. ref 2 (°C)	23.54length (m)	temperature (°C)	Stokes	anti-Stokes-747.200	800.000	0.081	0.248
-746.185	-170.560	-0.048	-0.002
-745.171	-119.194	0.234	0.041
-744.156	-26.025	0.401	0.237
-743.142	-200.000	0.007	0.039
-742.127	-200.000	0.013	-0.296
-741.112	-75.808	0.140	0.050
-740.098	40.004	-0.169	0.153
-739.083	245.011	-0.191	-0.323
-738.069	40.482	0.094	0.085
-737.054	-200.000	-0.001	0.060
-736.039	-11.013	-0.361	-0.240
-735.025	151.563	0.105	0.144
-734.010	18.598	-0.150	-0.121
-732.996	-200.000	0.289	0.001
-731.981	-113.609	0.086	-0.017
-730.966	202.198	0.036	0.056
-729.952	-76.422	-0.346	-0.122
-728.937	182.085	-0.010	0.014
-727.923	-88.202	0.066	0.020
-726.908	313.568	0.106	-0.200
-725.894	476.232	-0.053	-0.120
-724.879	22.815	0.224	-0.184
-723.864	-95.171	-0.253	-0.068
-722.850	263.663	0.191	-0.334
-721.835	46.538	-0.327	-0.305
-720.821	-97.573	-0.477	0.125
-719.806	800.000	-0.044	0.158
-718.791	-103.247	-0.053	0.013
-717.777	-200.000	0.026	-0.272
-716.762	21.893	-0.096	0.079
-715.748	406.833	-0.083	0.176
-714.733	800.000	-0.106	-0.322
-713.718	-71.759	0.117	-0.044
-712.704	800.000	-0.063	0.241
-711.689	-25.292	0.125	-0.074
-710.675	800.000	-0.044	0.128
-709.660	-122.562	-0.136	-0.022
-708.645	3.557	0.189	-0.138
-707.631	800.000	-0.090	0.295
-706.616	184.119	0.045	0.067
-705.602	-74.694	0.230	-0.083
-704.587	-26.297	-0.367	-0.217
-703.572	800.000	0.032	0.103
-702.558	120.827	0.088	-0.110
-701.543	-91.858	0.448	0.128
-700.529	800.000	0.122	-0.419
-699.514	482.325	-0.129	-0.293
-698.499	94.534	0.140	-0.160
-697.485	296.420	-0.104	0.192
-696.470	-112.282	0.157	0.032
-695.456	-200.000	0.002	0.302
-694.441	129.866	0.182	-0.234
-693.426	-176.765	-0.152	-0.004
-692.412	-48.890	0.089	0.043
-691.397	-78.705	0.384	-0.132
-690.383	-87.694	0.126	-0.038
-689.368	45.279	-0.151	-0.140
-688.354	-64.205	0.190	-0.078
-687.339	-172.676	0.126	0.004
-686.324	433.496	0.039	-0.085
-685.310	-200.000	0.005	-0.065
-684.295	800.000	-0.053	-0.186
-683.281	-80.055	0.186	-0.063
-682.266	-200.000	0.040	0.283
-681.251	-200.000	0.014	-0.394
-680.237	47.572	0.043	-0.040
-679.222	84.863	-0.090	0.099
-678.208	-170.276	-0.318	-0.011
-677.193	206.296	-0.050	-0.078
-676.178	800.000	-0.046	0.131
-675.164	-14.629	0.163	-0.105
-674.149	-68.134	-0.197	0.077
-673.135	-57.909	0.254	-0.111
-672.120	800.000	-0.024	0.071
-671.105	413.155	0.048	-0.101
-670.091	-49.762	0.118	-0.056
-669.076	-51.769	-0.041	0.019
-668.062	-163.837	-0.181	0.009
-667.047	-80.622	0.099	0.033
-666.032	-126.785	0.284	-0.042
-665.018	136.697	0.124	0.162
-664.003	663.589	-0.143	0.371
-662.989	-96.174	-0.226	0.060
-661.974	-37.909	0.301	-0.161
-660.959	-152.935	-0.322	0.023
-659.945	-64.074	-0.126	0.052
-658.930	-28.843	0.153	0.088
-657.916	800.000	0.046	0.129
-656.901	-89.143	0.131	-0.039
-655.886	-98.652	-0.155	0.040
-654.872	536.907	0.026	-0.061
-653.857	508.750	-0.142	0.331
-652.843	6.208	-0.236	0.175
-651.828	-94.039	-0.469	-0.129
-650.814	-58.323	0.256	-0.112
-649.799	-43.004	0.269	0.137
-648.784	-21.272	0.281	-0.172
-647.770	-113.717	-0.326	-0.064
-646.755	351.116	0.078	0.154
-645.741	103.950	-0.163	-0.193
-644.726	-200.000	0.034	-0.156
-643.711	-127.516	-0.203	0.030
-642.697	-157.024	0.225	0.014
-641.682	-200.000	0.024	0.133
-640.668	-42.077	-0.205	0.105
-639.653	800.000	-0.062	-0.247
-638.638	177.364	-0.224	-0.327
-637.624	87.877	0.209	0.232
-636.609	311.009	0.136	-0.255
-635.595	-200.000	0.015	-0.130
-634.580	800.000	-0.063	-0.215
-633.565	-186.572	0.233	0.003
-632.551	-82.751	-0.095	-0.031
-631.536	411.114	0.051	0.108
-630.522	372.061	-0.083	-0.169
-629.507	-7.900	0.085	0.057
-628.492	286.392	-0.132	0.239
-627.478	61.139	0.123	-0.122
-626.463	165.576	0.058	-0.082
-625.449	-99.350	-0.311	0.078
-624.434	46.723	-0.071	-0.066
-623.419	800.000	0.049	-0.209
-622.405	43.088	0.119	0.109
-621.390	-118.503	0.052	-0.009
-620.376	-200.000	-0.013	-0.075
-619.361	800.000	0.118	-0.484
-618.346	800.000	-0.038	-0.139
-617.332	-70.755	0.187	0.071
-616.317	-62.848	0.431	-0.179
-615.303	-200.000	-0.038	-0.244
-614.288	800.000	-0.134	0.376
-613.273	244.376	-0.115	0.193
-612.259	800.000	-0.056	-0.196
-611.244	373.978	0.056	0.114
-610.230	-99.563	0.397	-0.100
-609.215	-200.000	-0.019	0.134
-608.201	130.108	-0.172	0.220
-607.186	800.000	-0.092	-0.297
-606.171	76.101	0.166	-0.176
-605.157	185.581	-0.182	-0.271
-604.142	769.707	0.107	0.292
-603.128	97.350	-0.161	-0.185
-602.113	-179.232	-0.135	-0.003
-601.098	800.000	0.038	0.153
-600.084	-200.000	-0.158	0.000
-599.069	12.202	0.368	0.283
-598.055	99.742	0.195	0.226
-597.040	337.624	0.081	0.157
-596.025	-149.073	0.316	0.025
-595.011	227.827	0.202	-0.329
-593.996	488.026	0.131	0.299
-592.982	-200.000	-0.026	0.250
-591.967	-142.266	-0.142	0.014
-590.952	190.776	0.011	-0.016
-589.938	330.418	-0.042	-0.081
-588.923	-200.000	-0.005	-0.145
-587.909	800.000	0.055	0.165
-586.894	125.238	0.067	0.085
-585.879	-45.184	0.273	0.135
-584.865	47.321	0.163	-0.152
-583.850	69.078	-0.132	-0.136
-582.836	-184.690	0.228	-0.004
-581.821	13.466	0.060	-0.046
-580.806	606.974	0.028	-0.071
-579.792	-200.000	-0.017	-0.104
-578.777	-54.174	0.079	0.036
-577.763	67.740	0.079	0.081
-576.748	-145.467	0.186	-0.017
-575.733	-71.945	0.312	-0.116
-574.719	-22.858	-0.206	-0.124
-573.704	-87.361	0.459	-0.139
-572.690	39.244	0.360	-0.322
-571.675	-200.000	0.026	0.161
-570.661	-93.968	-0.327	0.090
-569.646	290.595	-0.086	0.157
-568.631	-57.568	0.199	-0.087
-567.617	50.372	-0.073	-0.069
-566.602	-90.306	-0.271	0.079
-565.588	282.845	0.156	-0.279
-564.573	-200.000	0.054	0.000
-563.558	-200.000	-0.033	-0.148
-562.544	-200.000	0.018	0.206
-561.529	86.304	0.203	0.223
-560.515	66.745	-0.089	-0.091
-559.500	-75.985	-0.407	0.144
-558.485	113.501	0.191	-0.231
-557.471	-107.000	-0.153	0.034
-556.456	295.230	-0.028	-0.052
-555.442	253.904	-0.089	0.152
-554.427	-200.000	-0.040	0.194
-553.412	301.242	-0.108	-0.199
-552.398	-200.000	0.008	0.163
-551.383	237.515	0.120	-0.198
-550.369	-200.000	-0.022	-0.165
-549.354	139.397	0.098	-0.129
-548.339	-54.386	0.075	-0.034
-547.325	-200.000	-0.005	-0.359
-546.310	-119.251	0.068	0.012
-545.296	-200.000	-0.036	-0.390
-544.281	-130.631	0.228	-0.031
-543.266	18.472	-0.199	0.158
-542.252	6.335	-0.124	0.092
-541.237	-115.663	0.224	-0.042
-540.223	273.049	-0.149	-0.262
-539.208	214.632	0.067	0.105
-538.193	-100.231	-0.281	0.070
-537.179	-1.985	0.296	0.208
-536.164	-200.000	-0.031	-0.169
-535.150	-146.271	-0.347	0.030
-534.135	-11.454	-0.258	-0.169
-533.121	74.802	0.146	0.154
-532.106	-27.048	-0.138	0.080
-531.091	44.830	-0.146	-0.134
-530.077	26.423	-0.471	-0.392
-529.062	-200.000	-0.021	0.193
-528.048	223.942	0.078	0.125
-527.033	-200.000	-0.047	0.306
-526.018	-74.122	-0.270	-0.098
-525.004	-17.758	0.165	-0.103
-523.989	350.200	-0.109	0.215
-522.975	161.221	0.073	-0.101
-521.960	303.596	-0.157	0.290
-520.945	-200.000	-0.011	-0.114
-519.931	-200.000	0.009	-0.136
-518.916	-144.115	-0.186	0.017
-517.902	800.000	0.079	-0.238
-516.887	-200.000	-0.019	0.275
-515.872	192.733	-0.295	-0.444
-514.858	246.328	0.059	0.100
-513.843	0.129	0.220	-0.157
-512.829	-81.591	-0.456	0.149
-511.814	679.232	0.071	0.185
-510.799	800.000	-0.075	-0.277
-509.785	-117.712	0.062	0.011
-508.770	67.020	-0.101	-0.102
-507.756	-50.203	-0.409	-0.193
-506.741	-200.000	0.016	-0.179
-505.726	-13.612	0.173	0.112
-504.712	-134.651	-0.227	0.028
-503.697	204.460	-0.093	0.144
-502.683	154.299	0.084	-0.115
-501.668	47.618	0.096	-0.089
-500.653	-76.680	-0.387	0.135
-499.639	132.424	0.136	0.175
-498.624	165.393	-0.082	-0.115
-497.610	-53.689	0.083	0.038
-496.595	-176.152	-0.288	0.008
-495.581	455.361	0.151	0.334
-494.566	374.446	-0.139	-0.283
-493.551	-122.735	-0.188	-0.030
-492.537	-200.000	-0.015	0.086
-491.522	63.595	-0.195	-0.195
-490.508	46.160	-0.030	-0.027
-489.493	-113.189	-0.254	-0.050
-488.478	56.782	0.227	-0.220
-487.464	45.067	0.128	0.117
-486.449	3.928	0.137	0.100
-485.435	-200.000	0.005	0.294
-484.420	620.086	-0.109	-0.274
-483.405	268.426	0.049	-0.085
-482.391	143.958	0.201	0.267
-481.376	-200.000	-0.009	-0.176
-480.362	-200.000	0.058	-0.290
-479.347	163.394	0.193	-0.270
-478.332	-140.891	-0.311	0.032
-477.318	-200.000	0.007	-0.259
-476.303	-60.033	-0.354	-0.150
-475.289	375.182	0.088	-0.179
-474.274	800.000	0.081	-0.322
-473.259	-15.501	0.245	-0.155
-472.245	800.000	0.045	0.187
-471.230	800.000	-0.063	0.226
-470.216	211.512	-0.118	0.185
-469.201	-69.587	-0.239	0.091
-468.186	-107.143	-0.521	0.114
-467.172	91.730	-0.047	-0.053
-466.157	-200.000	-0.026	0.135
-465.143	-200.000	0.016	0.095
-464.128	-200.000	-0.022	-0.231
-463.113	-58.909	0.249	-0.107
-462.099	-74.912	-0.402	-0.143
-461.084	-19.773	-0.089	-0.055
-460.070	-200.000	0.051	0.270
-459.055	-200.000	-0.015	0.210
-458.040	-72.417	-0.216	-0.079
-457.026	265.469	0.061	0.106
-456.011	67.660	0.136	-0.138
-454.997	-13.086	0.154	0.099
-453.982	96.549	-0.069	0.078
-452.968	800.000	-0.038	0.145
-451.953	-200.000	0.004	-0.074
-450.938	166.341	-0.266	-0.375
-449.924	327.582	0.100	-0.191
-448.909	-78.285	0.212	-0.072
-447.895	-165.919	-0.292	0.012
-446.880	64.549	-0.119	-0.120
-445.865	655.937	-0.117	0.300
-444.851	-117.173	-0.364	0.066
-443.836	595.340	-0.139	0.343
-442.822	-5.181	0.092	0.063
-441.807	-81.403	0.160	0.052
-440.792	6.858	0.082	-0.060
-439.778	-23.727	-0.062	-0.037
-438.763	-200.000	0.037	0.231
-437.749	-38.136	0.207	-0.109
-436.734	-200.000	-0.003	0.092
-435.719	-91.088	-0.190	0.054
-434.705	6.369	-0.176	0.130
-433.690	105.963	0.074	0.087
-432.676	-200.000	0.002	0.026
-431.661	54.562	-0.195	-0.187
-430.646	453.387	0.060	-0.131
-429.632	-51.027	-0.148	-0.069
-428.617	592.036	0.004	0.010
-427.603	-160.041	-0.306	0.017
-426.588	800.000	-0.074	0.245
-425.573	-200.000	0.059	-0.400
-424.559	-106.824	0.017	-0.004
-423.544	689.485	0.196	-0.509
-422.530	-102.671	-0.268	-0.063
-421.515	-86.834	0.121	0.037
-420.500	-2.143	-0.198	-0.138
-419.486	-91.912	-0.369	0.104
-418.471	0.114	-0.100	-0.071
-417.457	519.423	-0.146	0.340
-416.442	31.828	0.091	0.078
-415.428	-24.453	-0.182	-0.108
-414.413	800.000	-0.086	-0.243
-413.398	800.000	-0.039	-0.113
-412.384	-52.268	0.154	0.071
-411.369	361.427	-0.071	0.141
-410.355	-80.445	0.132	-0.044
-409.340	-24.522	0.408	-0.241
-408.325	800.000	0.011	0.036
-407.311	111.356	0.349	-0.418
-406.296	442.104	0.038	-0.082
-405.282	112.733	0.161	0.194
-404.267	-85.656	0.157	-0.048
-403.252	-164.384	0.369	0.017
-402.238	800.000	-0.057	0.203
-401.223	-87.950	-0.165	0.049
-400.209	-186.870	-0.219	0.003
-399.194	91.888	0.123	-0.137
-398.179	800.000	0.064	-0.198
-397.165	-28.526	0.091	-0.052
-396.150	14.262	-0.229	0.177
-395.136	-200.000	0.019	0.126
-394.121	43.935	0.207	-0.188
-393.106	297.300	-0.207	0.377
-392.092	-107.196	0.250	0.055
-391.077	800.000	0.030	-0.109
-390.063	-200.000	-0.010	-0.356
-389.048	-200.000	0.048	-0.210
-388.033	-75.709	0.134	0.047
-387.019	218.353	-0.114	0.180
-386.004	-84.361	-0.105	0.033
-384.990	-107.621	-0.419	0.091
-383.975	-96.927	0.360	0.094
-382.960	461.190	0.046	0.103
-381.946	349.855	0.065	-0.128
-380.931	293.152	-0.074	-0.134
-379.917	-200.000	0.060	0.384
-378.902	318.454	-0.092	-0.172
-377.888	771.906	-0.074	-0.200
-376.873	56.368	0.158	0.152
-375.858	93.950	-0.078	0.088
-374.844	787.724	-0.106	-0.288
-373.829	800.000	-0.027	0.085
-372.815	-95.670	0.477	0.126
-371.800	-200.000	0.037	0.202
-370.785	18.877	-0.329	0.261
-369.771	-106.425	-0.086	0.019
-368.756	-106.430	0.503	0.111
-367.742	87.193	-0.030	0.033
-366.727	-122.535	0.102	-0.016
-365.712	83.133	0.150	-0.161
-364.698	209.567	-0.109	0.169
-363.683	46.293	0.071	0.065
-362.669	166.715	0.159	-0.223
-361.654	268.933	0.091	-0.158
-360.639	-121.321	0.675	-0.112
-359.625	-125.825	0.250	0.037
-358.610	84.214	-0.217	0.235
-357.596	-21.708	0.269	-0.162
-356.581	-53.838	-0.215	-0.097
-355.566	800.000	0.061	-0.174
-354.552	-153.364	-0.059	-0.004
-353.537	-56.113	-0.175	0.077
-352.523	-95.686	-0.361	0.096
-351.508	117.514	0.099	-0.121
-350.493	47.342	-0.251	-0.231
-349.479	-119.200	-0.170	0.029
-348.464	36.312	0.229	-0.200
-347.450	800.000	-0.052	-0.219
-346.435	-66.103	0.206	0.081
-345.420	79.334	-0.102	0.109
-344.406	-10.537	-0.163	-0.107
-343.391	-114.223	-0.143	-0.027
-342.377	-97.873	0.288	0.074
-341.362	457.924	-0.093	0.205
-340.348	-129.677	0.087	0.012
-339.333	800.000	-0.038	-0.114
-338.318	-164.101	-0.328	-0.015
-337.304	800.000	0.107	0.307
-336.289	21.750	-0.156	0.126
-335.275	82.471	0.137	0.148
-334.260	338.051	-0.115	0.222
-333.245	-156.227	-0.201	0.013
-332.231	-200.000	0.037	0.263
-331.216	-49.406	-0.166	-0.078
-330.202	-200.000	-0.036	0.329
-329.187	-29.976	-0.166	-0.094
-328.172	780.212	0.061	-0.164
-327.158	800.000	0.081	-0.311
-326.143	-74.856	-0.083	0.030
-325.129	13.841	0.137	-0.105
-324.114	-200.000	-0.035	0.193
-323.099	-48.010	0.257	0.123
-322.085	-155.105	0.217	0.014
-321.070	800.000	0.065	-0.224
-320.056	-18.142	0.372	-0.230
-319.041	459.350	0.055	-0.122
-318.026	800.000	-0.047	0.165
-317.012	32.018	-0.189	-0.162
-315.997	748.271	-0.013	0.036
-314.983	11.320	0.079	0.060
-313.968	-130.192	0.104	-0.014
-312.953	97.810	0.196	-0.223
-311.939	102.904	0.019	0.022
-310.924	62.419	0.180	0.178
-309.910	52.621	0.153	-0.145
-308.895	-33.358	-0.222	0.121
-307.880	147.467	-0.076	0.101
-306.866	-60.276	0.037	0.016
-305.851	800.000	0.065	0.188
-304.837	-62.248	-0.147	0.060
-303.822	-200.000	0.015	0.363
-302.807	192.751	0.095	-0.141
-301.793	75.586	0.241	0.251
-300.778	800.000	-0.061	-0.231
-299.764	-148.038	0.056	-0.005
-298.749	-200.000	0.015	0.190
-297.735	-104.868	0.078	0.018
-296.720	-2.045	-0.140	0.097
-295.705	800.000	-0.054	0.230
-294.691	-200.000	-0.025	0.233
-293.676	-176.707	-0.154	-0.004
-292.662	9.919	-0.037	0.028
-291.647	-27.169	-0.139	0.080
-290.632	800.000	0.022	0.084
-289.618	-200.000	0.006	-0.088
-288.603	123.260	-0.150	0.186
-287.589	-200.000	0.001	0.089
-286.574	-200.000	0.018	0.151
-285.559	665.711	-0.173	0.441
-284.545	29.097	-0.198	0.166
-283.530	-140.310	0.277	0.029
-282.516	800.000	-0.090	0.266
-281.501	36.313	-0.178	0.155
-280.486	-74.627	0.288	0.102
-279.472	-195.649	0.191	-0.001
-278.457	220.072	0.199	-0.315
-277.443	-140.435	-0.287	0.029
-276.428	122.075	0.070	-0.086
-275.413	636.011	0.040	0.101
-274.399	-12.836	-0.284	-0.183
-273.384	-181.626	-0.258	-0.005
-272.370	-101.627	-0.167	0.040
-271.355	-34.923	0.194	-0.105
-270.340	84.513	-0.184	0.198
-269.326	-200.000	0.017	0.177
-268.311	458.542	0.054	-0.118
-267.297	148.876	-0.090	-0.120
-266.282	-200.000	-0.013	0.147
-265.267	315.042	-0.063	-0.117
-264.253	800.000	-0.114	0.325
-263.238	14.881	0.202	0.156
-262.224	623.569	0.031	0.078
-261.209	-94.976	0.276	-0.074
-260.195	-19.025	-0.082	0.050
-259.180	800.000	-0.163	-0.482
-258.165	-66.421	-0.211	0.083
-257.151	-63.660	0.226	-0.091
-256.136	-135.561	0.132	0.015
-255.122	34.161	0.227	0.195
-254.107	35.254	0.292	-0.253
-253.092	800.000	0.041	0.153
-252.078	2.951	0.348	-0.249
-251.063	-141.065	0.324	0.033
-250.049	-122.784	-0.189	-0.030
-249.034	-86.003	-0.313	0.095
-248.019	231.084	-0.030	-0.049
-247.005	601.250	-0.021	-0.052
-245.990	33.391	-0.073	-0.062
-244.976	-200.000	0.002	0.159
-243.961	33.913	-0.222	0.191
-242.946	-66.025	0.284	0.112
-241.932	126.316	-0.238	0.297
-240.917	-90.435	-0.142	0.041
-239.903	-200.000	0.032	-0.227
-238.888	13.305	-0.062	0.048
-237.873	800.000	-0.153	0.469
-236.859	-193.383	0.273	0.002
-235.844	-84.226	-0.021	-0.007
-234.830	-200.000	-0.023	0.467
-233.815	-24.798	-0.143	0.084
-232.800	-58.792	-0.204	-0.087
-231.786	195.714	-0.146	0.218
-230.771	-64.019	0.157	-0.063
-229.757	-26.109	0.347	0.201
-228.742	-200.000	-0.014	-0.291
-227.727	-200.000	0.046	0.242
-226.713	283.356	0.078	0.139
-225.698	-200.000	0.016	0.191
-224.684	357.129	0.109	-0.215
-223.669	365.062	0.098	0.194
-222.655	-110.472	0.145	-0.030
-221.640	-200.000	0.002	0.045
-220.625	-48.924	-0.397	-0.187
-219.611	11.239	-0.176	-0.133
-218.596	191.795	0.088	-0.130
-217.582	800.000	0.021	-0.064
-216.567	-200.000	0.078	0.539
-215.552	25.971	0.060	0.049
-214.538	-52.757	0.157	-0.072
-213.523	-66.431	-0.085	0.033
-212.509	-200.000	0.005	0.196
-211.494	-146.796	-0.354	-0.030
-210.479	109.426	0.074	0.087
-209.465	800.000	0.063	0.224
-208.450	-80.165	-0.469	0.155
-207.436	632.069	-0.106	-0.264
-206.421	59.365	-0.070	0.068
-205.406	26.137	0.248	-0.204
-204.392	-200.000	0.042	0.237
-203.377	49.818	-0.285	0.264
-202.363	6.640	0.204	0.150
-201.348	207.216	-0.195	0.300
-200.333	69.137	-0.204	0.207
-199.319	333.712	0.316	0.603
-198.304	-186.713	-0.302	-0.004
-197.290	-169.310	-0.153	0.006
-196.275	-63.973	-0.034	-0.014
-195.260	180.229	0.189	0.273
-194.246	388.994	0.078	-0.160
-193.231	244.547	-0.010	0.017
-192.217	-5.390	-0.196	-0.133
-191.202	-106.265	0.195	-0.043
-190.187	8.319	0.190	0.140
-189.173	345.128	-0.097	-0.188
-188.158	-26.506	-0.265	-0.153
-187.144	15.708	-0.101	0.078
-186.129	147.655	0.032	-0.043
-185.114	-46.975	-0.088	0.042
-184.100	800.000	-0.056	-0.192
-183.085	57.441	-0.059	0.056
-182.071	-22.316	0.269	0.160
-181.056	-32.474	0.136	-0.075
-180.042	166.334	-0.137	-0.191
-179.027	22.335	0.499	0.401
-178.012	-115.944	0.266	0.049
-176.998	-62.064	-0.372	-0.153
-175.983	509.929	-0.142	-0.326
-174.969	379.087	0.040	0.081
-173.954	-186.544	-0.193	-0.003
-172.939	-147.774	0.195	0.016
-171.925	800.000	0.093	-0.327
-170.910	800.000	0.040	-0.168
-169.896	52.107	0.168	-0.158
-168.881	251.140	0.205	-0.343
-167.866	-200.000	-0.028	-0.404
-166.852	191.564	-0.032	-0.047
-165.837	155.654	0.022	-0.029
-164.823	-147.119	0.114	0.010
-163.808	800.000	0.039	0.122
-162.793	-71.853	0.538	0.197
-161.779	-41.631	0.103	0.052
-160.764	234.405	-0.280	-0.453
-159.750	800.000	-0.058	-0.205
-158.735	-83.433	0.243	0.077
-157.720	-200.000	0.004	0.053
-156.706	-39.235	0.145	-0.075
-155.691	-60.098	0.229	-0.096
-154.677	-200.000	0.011	-0.211
-153.662	800.000	-0.046	-0.162
-152.647	-200.000	-0.017	0.095
-151.633	-50.528	0.126	0.058
-150.618	113.426	-0.138	-0.165
-149.604	0.047	0.592	0.415
-148.589	800.000	0.018	0.067
-147.574	106.281	0.213	0.249
-146.560	-2.853	0.287	-0.197
-145.545	-152.706	-0.284	0.020
-144.531	-69.063	-0.226	-0.085
-143.516	-115.188	-0.371	0.069
-142.502	-200.000	0.047	0.439
-141.487	11.981	-0.008	0.006
-140.472	-75.749	-0.164	0.057
-139.458	143.122	0.142	0.185
-138.443	-173.451	0.182	0.005
-137.429	43.608	-0.064	0.058
-136.414	-197.686	0.386	-0.002
-135.399	421.584	0.130	-0.273
-134.385	-124.022	0.166	0.026
-133.370	-66.676	-0.260	0.101
-132.356	107.827	0.268	-0.313
-131.341	35.204	0.119	0.102
-130.326	230.220	0.126	0.202
-129.312	-200.000	0.024	-0.258
-128.297	-25.787	0.019	0.011
-127.283	199.530	-0.130	-0.196
-126.268	-165.798	0.164	-0.007
-125.253	-122.734	-0.272	0.043
-124.239	-123.200	-0.076	-0.012
-123.224	65.255	0.276	0.274
-122.210	97.059	0.423	0.476
-121.195	-200.000	-0.016	0.354
-120.180	-56.611	0.205	0.089
-119.166	463.599	-0.120	0.264
