DTS Sentinel unit serial number:	SN413079Multiplexer serial number:	ORYXHardware model number:	OX4-SRSoftware version number:	ORYX F/W v4.00 Oryx Data Collector v3.7.2.0data status	okinstallation	princeton_trtdifferential loss correction	single-endedforward channel	channel 1reverse channel	N/Adate	2019/09/14time	11:34:35forward acquisition time	60.00reverse acquisition time	0.00gamma	496.2192k internal	0.2298k external	0.2298temperature offset calibration	1.0083default loss term (dB/km)	0.3790temperature slope calibration	1.0000multiplexer offset coefficient	1.0000multiplexer slope coefficient	1.0000fibre end	0.00T internal ref (°C)	36.81T ext. ref 1 (°C)	4.55T ext. ref 2 (°C)	32.88length (m)	temperature (°C)	Stokes	anti-Stokes-747.200	-109.814	0.311	-0.067
-746.185	15.398	0.301	-0.241
-745.171	800.000	-0.049	0.187
-744.156	-166.847	0.166	0.007
-743.142	-200.000	0.016	0.344
-742.127	150.026	-0.165	0.228
-741.112	800.000	0.022	-0.085
-740.098	-200.000	-0.009	0.057
-739.083	-200.000	-0.043	-0.237
-738.069	709.985	-0.084	0.226
-737.054	62.711	0.071	0.072
-736.039	-200.000	0.003	-0.273
-735.025	-200.000	0.067	0.344
-734.010	59.822	-0.246	0.248
-732.996	367.314	-0.174	-0.359
-731.981	56.556	-0.109	0.108
-730.966	-59.827	-0.107	-0.047
-729.952	800.000	0.024	0.091
-728.937	-200.000	-0.030	0.237
-727.923	-200.000	0.004	-0.195
-726.908	-116.401	-0.445	-0.084
-725.894	-88.294	-0.224	0.068
-724.879	-200.000	-0.036	-0.407
-723.864	163.642	-0.224	-0.322
-722.850	-200.000	0.012	-0.425
-721.835	56.494	-0.272	-0.270
-720.821	800.000	0.033	-0.118
-719.806	150.053	-0.098	-0.135
-718.791	194.366	-0.287	-0.444
-717.777	305.072	0.077	-0.146
-716.762	80.348	-0.030	-0.033
-715.748	29.547	-0.034	0.029
-714.733	800.000	-0.106	0.323
-713.718	800.000	-0.065	0.273
-712.704	-200.000	-0.028	-0.218
-711.689	-38.441	-0.195	0.105
-710.675	800.000	-0.047	-0.152
-709.660	343.869	0.069	0.139
-708.645	120.283	0.112	0.141
-707.631	-61.863	-0.268	0.114
-706.616	800.000	0.067	-0.238
-705.602	-42.494	-0.320	0.166
-704.587	451.718	-0.131	0.296
-703.572	-33.825	-0.327	0.183
-702.558	-62.843	-0.256	-0.108
-701.543	-99.565	0.320	-0.082
-700.529	800.000	0.049	0.183
-699.514	61.408	0.025	-0.025
-698.499	-130.358	-0.320	0.044
-697.485	-138.747	0.240	0.027
-696.470	-200.000	-0.044	0.303
-695.456	338.819	0.249	0.495
-694.441	-200.000	0.007	0.058
-693.426	11.526	-0.076	0.060
-692.412	-200.000	-0.002	-0.132
-691.397	-200.000	0.021	0.173
-690.383	-140.476	-0.288	-0.031
-689.368	-19.350	-0.102	-0.065
-688.354	168.467	-0.190	-0.276
-687.339	86.867	-0.091	-0.102
-686.324	-200.000	0.028	-0.175
-685.310	-200.000	0.014	0.098
-684.295	67.971	0.347	-0.361
-683.281	29.308	-0.163	-0.141
-682.266	227.851	-0.200	0.331
-681.251	322.337	-0.134	0.261
-680.237	103.459	0.167	-0.200
-679.222	-60.183	-0.101	-0.044
-678.208	61.663	-0.048	0.049
-677.193	-27.181	0.228	0.135
-676.178	266.776	0.137	0.244
-675.164	800.000	-0.024	-0.092
-674.149	-95.638	-0.308	-0.084
-673.135	233.322	0.032	-0.053
-672.120	157.289	-0.061	0.086
-671.105	496.772	-0.041	0.096
-670.091	120.207	-0.063	0.080
-669.076	-177.668	-0.169	0.004
-668.062	-69.160	0.378	0.148
-667.047	-128.728	-0.113	0.016
-666.032	-79.896	-0.296	0.101
-665.018	294.323	0.140	-0.260
-664.003	234.022	0.041	0.069
-662.989	16.726	0.103	-0.083
-661.974	5.832	-0.283	0.213
-660.959	-200.000	0.000	-0.192
-659.945	-121.643	-0.498	-0.084
-658.930	-200.000	0.004	0.119
-657.916	21.734	-0.146	-0.121
-656.901	-122.036	-0.123	-0.020
-655.886	-51.316	-0.191	0.091
-654.872	-200.000	-0.018	-0.300
-653.857	-200.000	0.015	0.143
-652.843	24.050	-0.109	-0.091
-651.828	240.681	-0.231	-0.392
-650.814	-200.000	-0.010	-0.058
-649.799	-200.000	-0.043	0.294
-648.784	-8.270	-0.198	-0.136
-647.770	108.941	0.188	-0.228
-646.755	-200.000	0.010	0.214
-645.741	11.473	0.447	0.349
-644.726	-98.607	-0.299	-0.078
-643.711	-200.000	0.029	-0.222
-642.697	-53.846	-0.212	-0.098
-641.682	-94.719	-0.311	-0.086
-640.668	-200.000	0.032	-0.149
-639.653	8.208	0.157	-0.120
-638.638	800.000	0.051	0.172
-637.624	137.048	-0.291	0.387
-636.609	154.865	0.307	0.430
-635.595	-90.542	0.400	0.118
-634.580	800.000	0.066	0.233
-633.565	237.894	0.146	-0.245
-632.551	800.000	-0.012	0.050
-631.536	-144.290	0.279	-0.026
-630.522	-200.000	-0.001	0.066
-629.507	65.040	-0.157	0.161
-628.492	123.436	-0.131	-0.167
-627.478	178.433	-0.064	-0.095
-626.463	-59.385	-0.143	0.062
-625.449	-200.000	-0.033	-0.246
-624.434	-200.000	-0.016	-0.120
-623.419	30.897	-0.219	-0.191
-622.405	-88.852	0.150	0.045
-621.390	33.388	0.158	0.139
-620.376	13.306	0.151	-0.119
-619.361	393.372	-0.042	-0.088
-618.346	-23.021	-0.139	-0.085
-617.332	-141.901	-0.158	-0.016
-616.317	-95.398	-0.285	-0.078
-615.303	32.573	0.272	0.239
-614.288	-14.564	0.256	0.167
-613.273	-19.410	-0.206	0.130
-612.259	470.227	-0.162	-0.369
-611.244	-155.561	0.201	-0.013
-610.230	-64.542	0.130	-0.053
-609.215	24.158	-0.169	-0.142
-608.201	-55.472	-0.303	-0.138
-607.186	-40.217	-0.330	0.175
-606.171	-34.736	0.148	0.082
-605.157	-138.020	-0.397	-0.045
-604.142	136.205	-0.049	-0.065
-603.128	107.064	0.080	0.096
-602.113	56.855	0.010	-0.010
-601.098	797.314	0.089	0.249
-600.084	-105.819	0.190	-0.043
-599.069	-89.210	-0.097	-0.029
-598.055	63.715	0.182	-0.186
-597.040	-200.000	-0.073	-0.350
-596.025	509.323	-0.221	-0.521
-595.011	-148.474	-0.186	0.015
-593.996	17.500	-0.169	0.136
-592.982	800.000	0.049	-0.143
-591.967	800.000	0.057	0.217
-590.952	1.080	-0.129	-0.094
-589.938	-130.809	0.320	-0.044
-588.923	145.213	-0.131	0.178
-587.909	21.085	-0.128	0.105
-586.894	-64.580	-0.164	-0.067
-585.879	-16.932	-0.266	-0.171
-584.865	-138.640	-0.042	0.005
-583.850	-200.000	-0.076	0.402
-582.836	41.281	-0.164	-0.150
-581.821	-149.946	0.144	0.011
-580.806	161.858	-0.078	-0.111
-579.792	-61.242	-0.264	-0.113
-578.777	116.603	0.141	-0.176
-577.763	-78.068	-0.243	-0.085
-576.748	439.232	-0.078	-0.172
-575.733	103.448	-0.054	-0.065
-574.719	-200.000	0.024	-0.281
-573.704	-134.026	-0.140	0.018
-572.690	103.959	-0.183	-0.218
-571.675	-107.619	-0.249	-0.055
-570.661	465.888	0.071	0.160
-569.646	226.224	0.063	0.103
-568.631	371.029	0.050	-0.104
-567.617	469.872	0.105	0.239
-566.602	-200.000	-0.034	-0.155
-565.588	-30.379	-0.203	0.117
-564.573	-41.204	-0.151	-0.079
-563.558	-200.000	-0.014	-0.182
-562.544	-200.000	0.021	-0.095
-561.529	121.085	-0.241	-0.305
-560.515	73.055	-0.252	-0.267
-559.500	-130.003	0.276	-0.038
-558.485	-169.669	0.189	-0.007
-557.471	800.000	0.054	0.155
-556.456	-75.414	0.204	0.074
-555.442	-41.068	-0.175	-0.092
-554.427	-200.000	-0.031	0.221
-553.412	45.522	-0.139	0.130
-552.398	353.331	-0.176	-0.355
-551.383	800.000	0.084	0.285
-550.369	-17.997	0.495	-0.314
-549.354	-15.245	-0.231	-0.150
-548.339	175.084	-0.054	-0.079
-547.325	487.883	0.078	-0.182
-546.310	-200.000	0.027	0.227
-545.296	-67.689	0.261	0.104
-544.281	-60.760	0.501	0.215
-543.266	-126.857	0.149	0.022
-542.252	76.247	0.124	-0.133
-541.237	-200.000	0.058	0.261
-540.223	241.707	0.143	-0.241
-539.208	123.804	0.165	0.209
-538.193	-88.834	0.397	-0.119
-537.179	-200.000	0.048	0.216
-536.164	464.000	-0.122	0.276
-535.150	-5.051	-0.390	0.272
-534.135	-78.671	0.185	0.064
-533.121	-200.000	0.015	0.288
-532.106	168.780	-0.183	0.264
-531.091	-19.354	-0.209	0.131
-530.077	-2.205	0.331	0.236
-529.062	-171.969	-0.054	-0.002
-528.048	126.583	0.035	0.045
-527.033	800.000	0.089	-0.260
-526.018	800.000	0.019	-0.066
-525.004	-94.190	0.192	0.053
-523.989	56.452	-0.270	0.266
-522.975	95.205	-0.285	-0.329
-521.960	-119.197	-0.293	0.052
-520.945	210.269	-0.093	-0.148
-519.931	64.154	0.140	-0.143
-518.916	-37.590	-0.194	-0.105
-517.902	168.653	0.214	0.309
-516.887	-41.534	-0.086	-0.045
-515.872	-158.969	-0.189	0.011
-514.858	57.284	-0.087	0.086
-513.843	-0.005	-0.152	0.109
-512.829	154.469	0.125	0.173
-511.814	335.665	-0.161	-0.315
-510.799	-200.000	0.024	0.213
-509.785	114.258	-0.271	-0.333
-508.770	205.116	-0.095	0.149
-507.756	-20.466	0.151	-0.094
-506.741	-64.921	0.202	-0.083
-505.726	199.441	0.056	0.087
-504.712	82.273	-0.074	0.082
-503.697	-0.941	0.061	0.044
-502.683	-200.000	0.018	-0.124
-501.668	-200.000	-0.034	-0.216
-500.653	-200.000	0.009	0.152
-499.639	-39.085	-0.287	0.153
-498.624	-200.000	-0.012	-0.057
-497.610	-32.247	0.150	-0.085
-496.595	-123.173	0.013	0.002
-495.581	350.215	-0.211	-0.422
-494.566	23.737	0.159	-0.132
-493.551	800.000	0.083	0.232
-492.537	-70.704	-0.301	-0.115
-491.522	-200.000	0.051	-0.236
-490.508	800.000	0.029	0.111
-489.493	222.290	0.117	0.191
-488.478	800.000	-0.042	-0.144
-487.464	-124.645	-0.169	-0.027
-486.449	-166.205	-0.066	0.003
-485.435	-134.300	0.142	-0.018
-484.420	-200.000	0.024	0.151
-483.405	800.000	-0.037	0.151
-482.391	10.129	0.112	0.086
-481.376	-133.542	-0.291	0.037
-480.362	64.285	-0.174	-0.177
-479.347	-200.000	-0.050	0.282
-478.332	118.100	0.048	-0.060
-477.318	-200.000	-0.019	0.116
-476.303	-200.000	0.017	0.123
-475.289	536.553	-0.043	0.104
-474.274	281.387	0.224	0.405
-473.259	144.580	-0.114	-0.154
-472.245	28.483	0.209	-0.178
-471.230	720.411	0.126	-0.338
-470.216	-143.460	-0.175	0.017
-469.201	156.611	0.041	-0.057
-468.186	283.533	0.217	-0.394
-467.172	204.723	-0.147	-0.230
-466.157	-147.772	0.098	-0.008
-465.143	160.274	-0.185	0.260
-464.128	-29.588	-0.201	-0.116
-463.113	-83.884	0.101	-0.032
-462.099	92.482	-0.151	-0.172
-461.084	-200.000	-0.025	-0.224
-460.070	-65.785	-0.313	0.127
-459.055	-28.791	-0.200	0.116
-458.040	-80.698	0.104	-0.035
-457.026	-200.000	0.057	0.336
-456.011	-200.000	-0.042	-0.214
-454.997	-8.004	-0.049	-0.033
-453.982	-18.424	-0.371	0.234
-452.968	185.023	-0.182	0.273
-451.953	-8.025	-0.137	0.093
-450.938	-67.328	-0.196	0.078
-449.924	72.952	-0.146	0.154
-448.909	-153.550	0.085	-0.006
-447.895	-2.434	0.412	0.292
-446.880	-6.588	-0.179	-0.123
-445.865	301.445	0.125	0.234
-444.851	179.050	-0.156	0.231
-443.836	21.034	-0.202	-0.166
-442.822	-56.307	-0.428	-0.192
-441.807	-45.859	0.361	0.180
-440.792	777.132	-0.049	0.136
-439.778	377.193	0.166	-0.341
-438.763	-53.595	0.325	-0.150
-437.749	-114.070	-0.393	-0.077
-436.734	-200.000	-0.010	0.053
-435.719	-194.141	-0.376	-0.003
-434.705	33.437	0.375	-0.329
-433.690	-200.000	-0.011	0.250
-432.676	142.558	-0.042	-0.057
-431.661	270.328	0.031	-0.055
-430.646	-108.843	0.123	0.026
-429.632	-23.789	0.220	-0.133
-428.617	-69.497	0.140	-0.054
-427.603	234.083	-0.050	0.083
-426.588	-92.200	-0.246	0.070
-425.573	-143.536	0.266	-0.026
-424.559	-105.875	0.137	-0.031
-423.544	800.000	0.066	-0.199
-422.530	615.639	-0.042	-0.107
-421.515	-200.000	-0.041	0.285
-420.500	16.531	0.161	0.128
-419.486	-72.663	0.049	-0.018
-418.471	-112.507	0.067	0.013
-417.457	545.527	0.160	-0.387
-416.442	293.887	-0.162	0.298
-415.428	-143.712	0.061	0.006
-414.413	-100.758	-0.189	-0.047
-413.398	59.386	-0.027	0.027
-412.384	-200.000	-0.000	-0.119
-411.369	27.395	-0.245	0.208
-410.355	-137.121	0.057	0.007
-409.340	341.441	0.144	-0.283
-408.325	339.899	0.063	-0.125
-407.311	-200.000	0.017	-0.157
-406.296	32.059	0.099	-0.086
-405.282	-72.326	-0.173	0.064
-404.267	-200.000	-0.034	-0.315
-403.252	-109.261	-0.371	-0.079
-402.238	-38.078	-0.149	-0.080
-401.223	800.000	-0.065	0.274
-400.209	29.588	0.280	-0.240
-399.194	-68.252	0.158	-0.062
-398.179	-200.000	-0.028	0.265
-397.165	-200.000	0.034	0.172
-396.150	-68.427	0.389	0.152
-395.136	62.022	0.080	-0.080
-394.121	-157.378	-0.286	-0.017
-393.106	66.751	0.263	-0.269
-392.092	800.000	0.043	0.154
-391.077	103.372	0.094	-0.111
-390.063	138.195	-0.196	0.259
-389.048	448.464	0.119	0.263
-388.033	-108.987	-0.188	-0.040
-387.019	105.589	-0.222	-0.264
-386.004	159.936	0.042	0.059
-384.990	-147.983	0.243	-0.020
-383.975	-26.845	-0.230	0.135
-382.960	72.037	-0.136	0.143
-381.946	65.223	-0.104	0.106
-380.931	22.289	-0.031	-0.026
-379.917	-200.000	-0.045	0.242
-378.902	386.877	0.055	-0.114
-377.888	-67.639	0.139	-0.055
-376.873	800.000	0.174	-0.482
-375.858	187.070	-0.090	-0.135
-374.844	0.994	-0.231	-0.166
-373.829	-200.000	-0.004	0.092
-372.815	143.778	0.052	0.070
-371.800	96.476	-0.078	-0.090
-370.785	-105.155	0.103	-0.024
-369.771	-200.000	0.007	-0.134
-368.756	584.412	0.049	-0.122
-367.742	-172.431	0.326	0.010
-366.727	-200.000	-0.010	-0.048
-365.712	-200.000	-0.005	-0.030
-364.698	47.605	-0.085	0.080
-363.683	-165.706	-0.201	-0.009
-362.669	-133.730	-0.175	-0.022
-361.654	104.747	-0.160	0.189
-360.639	-90.480	0.307	0.090
-359.625	-200.000	-0.006	0.058
-358.610	-58.196	0.168	-0.073
-357.596	-165.108	0.160	0.007
-356.581	800.000	0.035	-0.137
-355.566	156.495	0.110	-0.153
-354.552	-115.202	0.189	-0.036
-353.537	140.005	-0.147	-0.195
-352.523	541.576	0.111	-0.265
-351.508	-127.594	-0.184	0.027
-350.493	159.878	-0.111	-0.156
-349.479	39.962	0.142	-0.128
-348.464	-41.296	-0.101	0.052
-347.450	-18.881	0.243	0.152
-346.435	88.945	0.151	-0.169
-345.420	-94.216	-0.132	-0.036
-344.406	292.489	-0.065	-0.119
-343.391	105.440	0.100	0.118
-342.377	695.851	-0.042	0.111
-341.362	-147.762	-0.146	-0.012
-340.348	490.681	0.143	0.330
-339.333	-36.699	0.188	0.101
-338.318	-96.635	0.320	0.085
-337.304	-200.000	-0.004	-0.068
-336.289	800.000	0.061	0.198
-335.275	-21.161	-0.098	0.060
-334.260	314.538	-0.151	-0.287
-333.245	-174.442	0.052	0.002
-332.231	-200.000	0.030	-0.361
-331.216	-8.412	0.138	-0.093
-330.202	-200.000	0.005	-0.165
-329.187	-200.000	0.033	-0.290
-328.172	16.902	0.302	0.241
-327.158	-45.896	-0.290	0.144
-326.143	134.982	-0.038	0.050
-325.129	-150.426	0.056	0.004
-324.114	240.984	-0.117	-0.197
-323.099	-49.855	0.122	0.058
-322.085	236.660	-0.079	0.132
-321.070	61.798	-0.036	-0.036
-320.056	-200.000	-0.055	0.307
-319.041	-200.000	-0.002	-0.145
-318.026	88.114	-0.091	-0.101
-317.012	166.223	-0.089	-0.127
-315.997	800.000	0.017	0.059
-314.983	-94.753	-0.068	0.018
-313.968	800.000	-0.064	-0.227
-312.953	-200.000	0.036	-0.241
-311.939	-200.000	-0.019	-0.118
-310.924	800.000	-0.037	-0.134
-309.910	-200.000	-0.039	0.371
-308.895	-48.495	-0.111	0.054
-307.880	44.452	0.178	0.164
-306.866	70.672	0.073	0.075
-305.851	-108.005	-0.304	-0.066
-304.837	-106.778	0.433	0.097
-303.822	-69.005	-0.112	0.043
-302.807	54.582	-0.059	-0.057
-301.793	-46.238	0.033	-0.016
-300.778	369.437	-0.112	0.228
-299.764	-200.000	0.012	0.107
-298.749	-93.345	-0.562	0.156
-297.735	-41.210	0.057	0.029
-296.720	198.547	-0.122	-0.188
-295.705	-111.928	-0.268	-0.054
-294.691	800.000	0.109	0.335
-293.676	-56.491	0.422	-0.188
-292.662	-29.778	-0.297	-0.170
-291.647	800.000	-0.102	0.355
-290.632	-82.312	-0.158	0.052
-289.618	81.859	-0.275	-0.298
-288.603	-90.256	0.435	-0.127
-287.589	443.161	0.091	-0.200
-286.574	-200.000	0.048	0.238
-285.559	-54.512	0.157	0.071
-284.545	-200.000	-0.020	-0.156
-283.530	-87.740	-0.228	-0.069
-282.516	-200.000	-0.001	-0.217
-281.501	14.652	0.312	-0.244
-280.486	-200.000	-0.009	0.178
-279.472	52.480	0.173	-0.165
-278.457	-200.000	-0.012	-0.183
-277.443	-38.504	0.327	0.173
-276.428	-3.315	0.073	0.051
-275.413	51.996	0.081	-0.078
-274.399	-122.510	0.540	-0.088
-273.384	-200.000	-0.029	0.251
-272.370	-200.000	-0.006	0.383
-271.355	65.712	-0.254	-0.258
-270.340	125.002	-0.209	0.264
-269.326	91.289	0.149	-0.168
-268.311	-145.180	0.436	0.040
-267.297	-77.428	-0.073	-0.025
-266.282	-200.000	0.017	0.118
-265.267	-106.208	-0.248	0.056
-264.253	-116.958	0.270	0.049
-263.238	800.000	-0.069	0.227
-262.224	-104.224	0.146	-0.034
-261.209	800.000	-0.118	0.331
-260.195	97.620	0.156	-0.180
-259.180	-98.885	-0.315	0.080
-258.165	800.000	-0.050	0.173
-257.151	-173.692	-0.507	0.015
-256.136	228.414	0.151	0.247
-255.122	-0.231	0.303	-0.216
-254.107	-93.963	0.223	0.061
-253.092	-173.810	0.200	0.006
-252.078	-32.772	0.041	0.023
-251.063	-132.731	0.232	-0.030
-250.049	-84.002	-0.199	0.063
-249.034	-97.067	-0.363	0.095
-248.019	54.292	-0.107	-0.103
-247.005	-113.399	0.104	0.020
-245.990	-51.941	0.254	-0.118
-244.976	352.276	-0.178	0.353
-243.961	-166.115	0.287	0.012
-242.946	108.855	0.081	-0.097
-241.932	800.000	-0.049	-0.146
-240.917	173.369	0.192	0.277
-239.903	304.172	0.047	-0.086
-238.888	-53.070	0.238	0.109
-237.873	-56.020	-0.144	0.064
-236.859	77.546	0.105	0.112
-235.844	608.415	-0.010	0.026
-234.830	800.000	0.082	-0.245
-233.815	-38.652	0.264	0.139
-232.800	66.794	0.113	-0.115
-231.786	415.199	-0.130	-0.278
-230.771	-84.816	0.187	-0.059
-229.757	372.781	0.097	-0.198
-228.742	-63.484	0.283	-0.117
-227.727	339.023	0.068	0.133
-226.713	-166.227	0.053	0.002
-225.698	107.660	-0.082	-0.098
-224.684	-55.421	0.118	0.053
-223.669	-120.682	-0.316	0.053
-222.655	-69.344	0.225	-0.087
-221.640	-200.000	-0.002	0.067
-220.625	-114.986	-0.287	-0.055
-219.611	-33.050	0.290	-0.161
-218.596	103.600	-0.040	0.047
-217.582	-200.000	0.036	-0.420
-216.567	54.409	-0.079	-0.076
-215.552	412.846	0.066	-0.141
-214.538	21.788	0.205	-0.167
-213.523	800.000	-0.029	0.090
-212.509	-200.000	-0.027	0.209
-211.494	541.655	0.125	0.297
-210.479	-119.940	0.195	0.034
-209.465	800.000	-0.094	-0.350
-208.450	-85.715	0.257	0.080
-207.436	-123.829	0.034	0.005
-206.421	157.276	0.067	0.092
-205.406	490.388	-0.054	-0.125
-204.392	149.790	-0.059	0.080
-203.377	-113.494	-0.194	-0.038
-202.363	-120.157	-0.092	0.016
-201.348	800.000	0.049	0.172
-200.333	84.087	0.152	0.166
-199.319	-200.000	-0.048	0.273
-198.304	-35.936	-0.156	0.085
-197.290	222.386	-0.188	0.302
-196.275	202.834	0.143	-0.221
-195.260	1.106	-0.260	-0.186
-194.246	-122.335	0.532	-0.087
-193.231	-108.627	-0.295	0.063
-192.217	104.776	0.143	-0.168
-191.202	131.758	0.093	-0.119
-190.187	-200.000	0.055	0.252
-189.173	-28.778	0.260	-0.149
-188.158	-95.767	-0.388	-0.103
-187.144	-0.400	0.182	-0.129
-186.129	484.475	0.131	0.299
-185.114	-113.183	-0.202	0.040
-184.100	-136.869	-0.284	-0.033
-183.085	-3.667	-0.212	0.147
-182.071	-0.628	0.167	0.119
-181.056	800.000	0.064	0.262
-180.042	10.733	0.166	0.127
-179.027	135.498	-0.164	0.213
-178.012	800.000	-0.045	0.162
-176.998	-200.000	-0.034	0.291
-175.983	0.331	0.521	0.371
-174.969	-73.224	-0.238	0.087
-173.954	-101.145	-0.279	0.068
-172.939	-200.000	-0.046	0.258
-171.925	800.000	0.064	0.256
-170.910	-2.986	0.091	0.064
-169.896	800.000	-0.097	-0.318
-168.881	110.210	0.153	-0.183
-167.866	28.341	-0.238	-0.200
-166.852	-22.379	0.242	-0.146
-165.837	-97.605	-0.197	-0.051
-164.823	108.872	0.136	-0.162
-163.808	163.583	-0.056	-0.078
-162.793	-157.711	0.160	0.010
-161.779	166.358	0.109	-0.154
-160.764	-118.670	-0.131	-0.023
-159.750	49.510	-0.106	0.100
-158.735	-102.640	-0.053	0.013
-157.720	-200.000	0.008	0.046
-156.706	-76.667	0.420	0.147
-155.691	-200.000	-0.022	0.100
-154.677	83.395	0.135	0.146
-153.662	-145.309	-0.155	0.014
-152.647	-200.000	-0.008	0.359
-151.633	568.328	0.091	-0.219
-150.618	-151.277	-0.383	0.029
-149.604	-150.788	0.404	-0.031
-148.589	-64.222	0.524	-0.213
-147.574	-105.927	0.134	-0.030
-146.560	-92.514	-0.278	-0.078
-145.545	98.556	-0.052	0.060
-144.531	-131.369	0.431	-0.057
-143.516	-67.123	-0.300	-0.118
-142.502	-92.815	0.249	-0.069
-141.487	118.420	0.055	-0.068
-140.472	-20.947	0.161	0.099
-139.458	-68.430	0.241	0.093
-138.443	-39.402	-0.148	0.077
-137.429	116.391	0.185	0.226
-136.414	295.480	-0.038	0.069
-135.399	165.472	0.201	-0.283
-134.385	-16.216	0.169	0.107
-133.370	219.414	0.036	-0.058
-132.356	-200.000	-0.002	0.133
-131.341	-200.000	0.012	-0.262
-130.326	-76.910	0.273	-0.095
-129.312	-13.604	-0.124	-0.080
-128.297	46.575	0.227	-0.210
-127.283	159.036	-0.116	0.160
-126.268	390.032	-0.089	0.183
-125.253	160.491	-0.221	-0.307
-124.239	-114.073	-0.231	-0.045
-123.224	-200.000	0.009	0.133
-122.210	452.858	0.113	0.249
