DTS Sentinel unit serial number:	SN413079Multiplexer serial number:	ORYXHardware model number:	OX4-SRSoftware version number:	ORYX F/W v4.00 Oryx Data Collector v3.7.2.0data status	okinstallation	princeton_trtdifferential loss correction	single-endedforward channel	channel 1reverse channel	N/Adate	2019/09/18time	04:06:35forward acquisition time	60.00reverse acquisition time	0.00gamma	496.2192k internal	0.2339k external	0.2339temperature offset calibration	0.9977default loss term (dB/km)	0.3790temperature slope calibration	1.0000multiplexer offset coefficient	1.0000multiplexer slope coefficient	1.0000fibre end	0.00T internal ref (°C)	23.25T ext. ref 1 (°C)	0.17T ext. ref 2 (°C)	17.93length (m)	temperature (°C)	Stokes	anti-Stokes-747.200	-95.480	0.241	0.065
-746.185	-200.000	-0.026	0.195
-745.171	20.735	-0.138	0.112
-744.156	-82.987	0.194	0.063
-743.142	168.559	-0.242	-0.346
-742.127	-116.895	-0.166	0.030
-741.112	-93.236	0.269	0.075
-740.098	107.839	-0.052	0.062
-739.083	128.954	-0.141	0.180
-738.069	149.623	0.273	0.371
-737.054	-54.769	-0.192	0.087
-736.039	-72.141	-0.192	0.071
-735.025	533.421	0.068	-0.161
-734.010	-49.973	-0.022	-0.011
-732.996	-137.213	-0.162	-0.018
-731.981	18.833	0.113	-0.091
-730.966	-200.000	0.026	-0.123
-729.952	800.000	0.031	0.120
-728.937	74.839	0.104	0.109
-727.923	-200.000	0.049	0.272
-726.908	-49.435	0.175	-0.084
-725.894	163.691	-0.224	-0.316
-724.879	162.824	-0.204	-0.287
-723.864	154.067	-0.137	-0.189
-722.850	-200.000	-0.027	0.195
-721.835	213.493	0.124	-0.197
-720.821	-73.056	-0.351	-0.129
-719.806	197.334	-0.135	-0.206
-718.791	-151.899	-0.177	-0.013
-717.777	572.515	-0.092	0.225
-716.762	-26.338	-0.107	0.063
-715.748	-200.000	-0.031	-0.337
-714.733	786.410	0.076	0.208
-713.718	-200.000	0.023	-0.304
-712.704	103.897	0.243	-0.286
-711.689	-200.000	-0.047	-0.300
-710.675	71.670	0.225	-0.234
-709.660	19.561	0.246	0.198
-708.645	-41.564	0.263	-0.136
-707.631	-108.725	-0.159	-0.034
-706.616	-17.538	-0.349	-0.220
-705.602	-200.000	-0.041	0.274
-704.587	34.695	-0.099	0.086
-703.572	-12.323	-0.153	-0.100
-702.558	266.366	-0.116	0.202
-701.543	-91.282	0.180	0.052
-700.529	188.855	-0.046	-0.069
-699.514	515.365	-0.105	-0.245
-698.499	800.000	-0.056	-0.182
-697.485	-9.571	-0.151	0.101
-696.470	81.174	-0.061	0.066
-695.456	-78.358	0.424	-0.146
-694.441	266.652	0.076	-0.132
-693.426	-200.000	0.017	0.104
-692.412	-44.093	0.416	0.209
-691.397	-46.092	0.125	-0.062
-690.383	220.465	-0.061	0.097
-689.368	800.000	-0.094	-0.317
-688.354	-200.000	-0.062	-0.275
-687.339	-41.092	0.396	0.205
-686.324	-200.000	-0.065	0.285
-685.310	-13.278	-0.070	-0.046
-684.295	-113.804	-0.194	0.038
-683.281	-161.525	-0.429	0.022
-682.266	37.765	-0.160	-0.142
-681.251	-112.354	-0.121	-0.024
-680.237	-42.623	-0.152	0.077
-679.222	800.000	0.049	0.157
-678.208	129.234	-0.151	0.193
-677.193	409.318	0.177	-0.375
-676.178	-106.408	-0.431	-0.096
-675.164	-200.000	0.008	-0.288
-674.149	290.147	0.084	0.152
-673.135	671.589	-0.058	-0.151
-672.120	-126.560	0.101	-0.015
-671.105	-200.000	-0.033	0.324
-670.091	800.000	0.013	-0.051
-669.076	107.135	-0.142	-0.169
-668.062	-62.531	0.122	-0.051
-667.047	410.074	0.104	-0.220
-666.032	612.461	-0.095	0.237
-665.018	-200.000	0.044	-0.193
-664.003	-33.673	0.180	0.100
-662.989	81.356	-0.109	-0.118
-661.974	-65.860	0.172	-0.069
-660.959	-200.000	0.015	-0.196
-659.945	200.390	0.141	-0.217
-658.930	-200.000	-0.033	-0.206
-657.916	93.549	0.217	-0.246
-656.901	-200.000	-0.045	-0.198
-655.886	-150.999	0.323	0.024
-654.872	-158.547	0.192	-0.011
-653.857	-22.924	-0.240	0.145
-652.843	800.000	-0.131	-0.383
-651.828	800.000	0.037	-0.120
-650.814	-200.000	-0.052	0.325
-649.799	392.407	-0.128	-0.266
-648.784	1.949	-0.076	0.054
-647.770	161.677	-0.071	0.099
-646.755	327.688	0.139	-0.266
-645.741	-200.000	-0.023	-0.390
-644.726	-2.785	0.109	0.076
-643.711	-200.000	0.043	0.314
-642.697	3.772	-0.188	0.137
-641.682	128.240	-0.203	0.258
-640.668	-200.000	-0.000	0.136
-639.653	-200.000	-0.042	-0.337
-638.638	-81.820	0.122	-0.040
-637.624	-114.037	-0.372	0.072
-636.609	-200.000	-0.029	0.346
-635.595	-200.000	-0.039	-0.242
-634.580	-53.476	0.081	0.037
-633.565	-200.000	-0.019	0.102
-632.551	-11.758	-0.373	0.244
-631.536	-89.931	-0.226	-0.066
-630.522	260.972	0.145	0.251
-629.507	17.062	0.123	-0.097
-628.492	64.777	0.057	0.058
-627.478	-200.000	-0.007	-0.188
-626.463	24.089	0.101	0.083
-625.449	-97.713	0.157	0.041
-624.434	76.401	-0.075	0.079
-623.419	110.105	0.090	-0.108
-622.405	-162.742	-0.151	0.007
-621.390	-139.053	0.194	0.021
-620.376	-122.364	0.170	-0.028
-619.361	97.656	0.201	-0.230
-618.346	5.168	0.359	-0.264
-617.332	-117.735	-0.287	-0.052
-616.317	-43.040	-0.143	0.072
-615.303	716.141	0.040	-0.105
-614.288	-200.000	0.031	-0.251
-613.273	313.675	0.024	-0.044
-612.259	342.379	0.105	-0.206
-611.244	-150.556	0.259	0.020
-610.230	-200.000	-0.010	0.105
-609.215	-200.000	-0.027	0.194
-608.201	37.255	0.308	-0.272
-607.186	-200.000	-0.011	-0.324
-606.171	-200.000	-0.058	-0.341
-605.157	-109.543	0.068	0.014
-604.142	-127.061	0.176	0.026
-603.128	83.836	-0.061	-0.067
-602.113	-200.000	0.030	-0.192
-601.098	586.907	0.077	-0.188
-600.084	82.447	0.023	-0.025
-599.069	-124.398	-0.152	0.024
-598.055	800.000	0.053	0.146
-597.040	-12.335	0.221	-0.144
-596.025	-61.023	-0.053	0.022
-595.011	-1.801	-0.277	-0.194
-593.996	-159.719	-0.269	-0.015
-592.982	-200.000	-0.015	0.130
-591.967	-114.083	-0.249	0.048
-590.952	97.603	0.363	0.416
-589.938	-53.452	0.153	0.070
-588.923	-40.209	0.315	0.164
-587.909	-113.162	-0.050	-0.010
-586.894	800.000	-0.043	0.177
-585.879	210.160	0.151	0.237
-584.865	-155.221	-0.256	-0.017
-583.850	17.353	-0.164	-0.130
-582.836	55.204	0.037	-0.036
-581.821	-200.000	0.010	0.085
-580.806	304.812	0.221	-0.409
-579.792	-16.210	0.123	0.078
-578.777	306.723	0.039	0.072
-577.763	644.784	-0.073	0.186
-576.748	-120.979	0.123	0.021
-575.733	-200.000	-0.006	-0.123
-574.719	70.982	-0.223	-0.230
-573.704	64.978	-0.245	0.246
-572.690	-200.000	0.000	0.307
-571.675	279.699	-0.158	-0.281
-570.661	211.736	0.079	0.124
-569.646	-73.802	0.075	-0.027
-568.631	20.249	-0.301	0.242
-567.617	566.625	0.099	0.239
-566.602	747.795	0.087	-0.235
-565.588	86.167	-0.198	-0.217
-564.573	160.977	0.314	0.437
-563.558	307.901	0.140	0.259
-562.544	-127.782	0.098	0.014
-561.529	-83.745	0.178	-0.057
-560.515	-200.000	-0.021	0.116
-559.500	-123.785	-0.289	-0.046
-558.485	-200.000	0.001	0.019
-557.471	94.409	-0.116	0.131
-556.456	800.000	-0.068	0.267
-555.442	-15.291	-0.042	0.027
-554.427	-16.441	-0.349	0.220
-553.412	-50.561	0.145	0.068
-552.398	-200.000	-0.050	0.308
-551.383	-73.894	-0.132	-0.048
-550.369	135.869	0.155	-0.201
-549.354	-55.178	0.155	0.070
-548.339	-160.205	0.118	0.006
-547.325	126.730	0.178	0.225
-546.310	188.271	-0.204	-0.303
-545.296	108.405	-0.145	-0.172
-544.281	-44.563	-0.303	-0.151
-543.266	-151.683	0.264	0.019
-542.252	-200.000	0.005	-0.189
-541.237	26.660	-0.395	-0.329
-540.223	800.000	0.110	-0.397
-539.208	-102.232	0.135	-0.032
-538.193	-200.000	0.038	0.223
-537.179	-122.884	0.225	-0.036
-536.164	-101.610	-0.076	0.018
-535.150	800.000	-0.126	-0.463
-534.135	-136.506	-0.096	0.011
-533.121	344.956	-0.089	0.174
-532.106	-200.000	-0.027	-0.181
-531.091	-27.015	-0.130	-0.075
-530.077	371.188	0.044	0.090
-529.062	-200.000	0.004	0.396
-528.048	-200.000	-0.013	0.206
-527.033	-48.889	-0.043	0.020
-526.018	2.410	0.214	-0.154
-525.004	-64.463	-0.165	0.066
-523.989	-200.000	0.071	0.321
-522.975	-136.004	-0.209	0.024
-521.960	-200.000	0.055	0.341
-520.945	-159.532	-0.098	-0.005
-519.931	-45.229	0.152	0.075
-518.916	128.885	-0.261	0.331
-517.902	-82.887	0.167	-0.054
-516.887	-94.887	-0.235	-0.063
-515.872	-200.000	0.007	-0.050
-514.858	305.813	-0.112	-0.207
-513.843	800.000	-0.015	-0.059
-512.829	-200.000	-0.022	0.140
-511.814	-25.866	0.174	-0.102
-510.799	-48.229	-0.081	0.039
-509.785	211.742	0.138	0.216
-508.770	-5.763	0.050	0.034
-507.756	611.484	-0.087	0.215
-506.741	800.000	0.069	0.228
-505.726	2.932	-0.057	-0.041
-504.712	-135.021	-0.095	0.011
-503.697	7.532	-0.208	0.154
-502.683	5.521	0.184	0.135
-501.668	151.009	-0.196	0.265
-500.653	643.468	0.017	-0.044
-499.639	800.000	-0.034	0.103
-498.624	-83.823	0.068	0.022
-497.610	-200.000	-0.019	-0.306
-496.595	16.468	0.250	0.196
-495.581	-173.663	0.225	0.007
-494.566	-54.297	-0.256	0.115
-493.551	-53.764	-0.378	0.171
-492.537	800.000	0.082	-0.254
-491.522	23.847	-0.194	-0.159
-490.508	299.715	-0.071	-0.130
-489.493	-113.567	-0.114	0.022
-488.478	-104.620	-0.289	-0.066
-487.464	410.414	-0.101	0.213
-486.449	-37.298	0.197	0.105
-485.435	-103.298	0.344	-0.081
-484.420	-49.385	0.334	-0.158
-483.405	-4.080	-0.075	-0.051
-482.391	415.514	0.127	0.269
-481.376	770.982	-0.068	-0.185
-480.362	15.070	0.064	0.049
-479.347	800.000	-0.100	-0.276
-478.332	-4.371	0.108	-0.074
-477.318	18.585	0.128	0.101
-476.303	425.511	-0.206	-0.441
-475.289	-166.429	-0.365	-0.015
-474.274	-173.830	-0.351	0.010
-473.259	3.548	0.315	-0.228
-472.245	-133.705	0.251	-0.031
-471.230	-4.101	-0.223	-0.153
-470.216	47.879	-0.119	0.111
-469.201	800.000	-0.014	-0.042
-468.186	-99.119	0.242	0.061
-467.172	-76.779	0.132	0.046
-466.157	-127.990	0.200	0.028
-465.143	-88.655	0.214	0.063
-464.128	-200.000	0.013	0.181
-463.113	-38.127	-0.057	0.030
-462.099	-200.000	-0.037	-0.259
-461.084	-20.491	0.206	-0.126
-460.070	-8.792	-0.290	0.193
-459.055	-200.000	-0.028	-0.207
-458.040	-69.090	0.207	-0.079
-457.026	-30.394	-0.214	-0.120
-456.011	-145.245	-0.032	0.003
-454.997	-200.000	0.002	-0.057
-453.982	26.612	0.046	-0.039
-452.968	255.827	-0.028	0.048
-451.953	-70.168	-0.278	-0.105
-450.938	42.256	0.182	0.164
-449.924	800.000	-0.047	-0.174
-448.909	-200.000	-0.004	-0.094
-447.895	293.978	-0.025	-0.046
-446.880	103.623	-0.075	0.088
-445.865	-200.000	-0.075	0.404
-444.851	-200.000	0.022	0.125
-443.836	-200.000	-0.203	0.001
-442.822	341.687	-0.063	0.123
-441.807	-200.000	0.034	0.473
-440.792	40.668	0.212	-0.189
-439.778	800.000	-0.059	-0.228
-438.763	639.243	0.024	-0.061
-437.749	183.182	0.117	-0.171
-436.734	153.369	0.031	0.042
-435.719	-13.853	-0.384	0.246
-434.705	-112.815	-0.108	0.021
-433.690	-89.531	-0.233	-0.068
-432.676	61.951	0.136	0.134
-431.661	749.255	0.079	0.211
-430.646	-36.206	0.133	-0.071
-429.632	22.884	0.202	0.164
-428.617	800.000	0.039	0.169
-427.603	-75.088	0.228	-0.081
-426.588	1.436	0.147	-0.105
-425.573	393.181	-0.111	-0.230
-424.559	-29.839	-0.340	-0.192
-423.544	98.575	0.197	0.225
-422.530	-135.083	0.235	0.028
-421.515	30.617	-0.211	-0.179
-420.500	-128.407	0.259	-0.036
-419.486	601.322	0.116	-0.285
-418.471	800.000	0.086	-0.298
-417.457	56.413	-0.194	0.187
-416.442	-93.764	-0.194	-0.053
-415.428	-42.314	0.085	-0.043
-414.413	-133.103	0.307	0.038
-413.398	552.857	-0.103	-0.245
-412.384	-152.303	-0.201	0.014
-411.369	800.000	0.073	-0.208
-410.355	-106.536	0.346	0.076
-409.340	-88.160	0.326	-0.097
-408.325	58.900	0.207	0.202
-407.311	-200.000	-0.057	0.297
-406.296	-48.181	-0.159	-0.076
-405.282	-97.836	-0.222	-0.057
-404.267	-103.859	-0.179	0.041
-403.252	-200.000	0.023	0.277
-402.238	-18.527	0.100	0.062
-401.223	-143.700	0.291	-0.027
-400.209	-104.602	0.405	-0.092
-399.194	-200.000	-0.026	0.307
-398.179	108.159	-0.170	-0.200
-397.165	800.000	0.032	-0.118
-396.150	5.588	0.160	0.117
-395.136	254.309	-0.019	-0.032
-394.121	22.662	0.138	0.112
-393.106	120.882	0.206	0.254
-392.092	-71.876	-0.112	0.041
-391.077	280.283	-0.016	0.027
-390.063	515.327	-0.072	0.167
-389.048	664.945	0.148	-0.378
-388.033	369.263	0.132	-0.264
-387.019	-12.989	-0.126	-0.081
-386.004	-121.192	0.124	0.020
-384.990	-76.286	0.203	-0.071
-383.975	18.653	-0.340	-0.269
-382.960	216.794	-0.147	0.232
-381.946	350.569	-0.124	-0.243
-380.931	-77.167	-0.143	-0.049
-379.917	-15.640	-0.135	-0.085
-378.902	-118.686	-0.146	-0.025
-377.888	-51.772	-0.146	-0.067
-376.873	-200.000	0.000	-0.055
-375.858	800.000	-0.035	0.126
-374.844	800.000	0.063	0.177
-373.829	-200.000	-0.035	-0.384
-372.815	-166.423	0.170	0.007
-371.800	800.000	-0.083	-0.294
-370.785	800.000	0.039	0.148
-369.771	-114.457	0.215	0.041
-368.756	325.213	-0.097	-0.184
-367.742	273.361	-0.091	0.159
-366.727	637.952	0.056	0.140
-365.712	-8.992	-0.227	0.150
-364.698	-0.511	-0.183	-0.128
-363.683	39.052	-0.099	0.088
-362.669	-71.381	0.060	0.022
-361.654	283.841	-0.274	0.487
-360.639	85.459	0.106	0.115
-359.625	800.000	-0.063	0.189
-358.610	270.250	0.115	-0.200
-357.596	-52.485	-0.090	-0.041
-356.581	800.000	0.052	0.153
-355.566	50.480	-0.152	-0.142
-354.552	-93.314	0.101	-0.028
-353.537	299.462	0.072	-0.131
-352.523	146.837	-0.035	-0.047
-351.508	513.533	-0.042	-0.096
-350.493	-45.367	-0.084	-0.041
-349.479	462.278	0.046	0.102
-348.464	710.677	0.032	-0.084
-347.450	27.392	0.226	-0.187
-346.435	-130.926	0.273	-0.036
-345.420	-200.000	-0.002	0.121
-344.406	28.055	0.012	0.010
-343.391	-42.750	-0.362	0.182
-342.377	-156.539	-0.154	-0.009
-341.362	800.000	-0.052	-0.155
-340.348	192.923	-0.063	0.093
-339.333	-71.578	-0.256	-0.094
-338.318	12.897	-0.048	-0.036
-337.304	167.675	0.212	0.298
-336.289	55.286	-0.291	0.278
-335.275	-93.809	0.174	-0.047
-334.260	216.790	0.105	-0.165
-333.245	800.000	-0.011	0.037
-332.231	800.000	0.011	-0.034
-331.216	-200.000	0.058	0.271
-330.202	-116.306	0.217	-0.040
-329.187	57.779	-0.153	0.148
-328.172	20.856	-0.199	-0.159
-327.158	331.139	-0.025	-0.047
-326.143	-115.080	-0.074	0.014
-325.129	-56.843	-0.225	0.098
-324.114	27.941	-0.077	0.064
-323.099	800.000	0.104	0.309
-322.085	-78.062	0.248	-0.084
-321.070	612.027	0.119	0.293
-320.056	-158.130	-0.328	0.019
-319.041	-200.000	0.023	0.192
-318.026	139.950	0.046	-0.060
-317.012	31.582	0.252	-0.213
-315.997	-142.000	-0.054	0.005
-314.983	379.979	0.057	0.115
-313.968	97.165	-0.031	-0.035
-312.953	-200.000	0.021	-0.154
-311.939	-94.948	-0.231	-0.062
-310.924	67.536	0.168	-0.170
-309.910	-160.629	0.129	0.007
-308.895	0.805	0.290	-0.205
-307.880	800.000	0.023	-0.072
-306.866	800.000	0.109	0.336
-305.851	-87.332	-0.124	-0.037
-304.837	165.185	0.111	0.154
-303.822	-93.574	-0.155	-0.042
-302.807	-63.831	0.006	0.002
-301.793	-43.669	0.065	-0.032
-300.778	352.612	0.034	-0.067
-299.764	17.218	0.232	-0.182
-298.749	-200.000	0.002	0.085
-297.735	-38.396	0.204	0.107
-296.720	391.497	-0.081	0.166
-295.705	-50.596	-0.212	0.098
-294.691	344.478	-0.093	0.179
-293.676	10.979	0.151	0.114
-292.662	800.000	0.057	-0.155
-291.647	-179.362	0.297	0.006
-290.632	-200.000	0.010	0.317
-289.618	800.000	-0.066	0.183
-288.603	38.654	0.078	-0.068
-287.589	800.000	0.035	0.150
-286.574	-79.388	0.169	-0.056
-285.559	199.239	0.236	0.356
-284.545	-31.518	-0.222	0.123
-283.530	-152.273	0.469	-0.033
-282.516	-200.000	0.015	-0.210
-281.501	544.203	-0.065	-0.152
-280.486	17.942	-0.141	0.110
-279.472	462.567	0.101	0.221
-278.457	-133.419	0.176	0.022
-277.443	188.991	0.099	-0.146
-276.428	-7.981	0.098	0.065
-275.413	-200.000	-0.024	0.218
-274.399	-39.445	-0.104	-0.054
-273.384	82.476	0.064	0.069
-272.370	-165.746	-0.304	0.013
-271.355	376.170	-0.211	0.423
-270.340	-103.361	-0.363	0.084
-269.326	217.245	-0.204	0.319
-268.311	-147.118	0.221	0.019
-267.297	800.000	-0.064	0.199
-266.282	34.245	-0.238	-0.204
-265.267	126.163	0.144	-0.179
-264.253	-128.035	0.229	-0.032
-263.238	-110.642	-0.178	-0.036
-262.224	800.000	0.026	0.109
-261.209	-103.544	0.128	-0.030
-260.195	253.437	0.064	-0.107
-259.180	-115.391	-0.277	0.051
-258.165	350.341	-0.105	0.204
-257.151	45.225	0.151	-0.137
-256.136	-200.000	0.015	0.169
-255.122	259.802	-0.039	-0.066
-254.107	800.000	-0.061	-0.259
-253.092	-48.561	0.221	-0.104
-252.078	-132.814	-0.135	0.017
-251.063	336.185	-0.169	-0.323
-250.049	-106.293	-0.200	0.044
-249.034	254.658	-0.082	-0.138
-248.019	-81.572	0.378	0.122
-247.005	682.441	0.091	-0.234
-245.990	406.808	-0.165	-0.342
-244.976	125.033	-0.076	-0.095
-243.961	-45.869	0.075	0.036
-242.946	-82.375	0.324	0.104
-241.932	2.704	-0.259	-0.185
-240.917	75.896	-0.247	0.257
-239.903	-94.907	-0.231	-0.061
-238.888	-200.000	-0.054	0.310
-237.873	-200.000	-0.020	0.138
-236.859	154.408	-0.024	-0.033
-235.844	-47.638	-0.141	-0.067
-234.830	-26.982	0.250	-0.143
-233.815	-67.271	0.338	0.131
-232.800	635.098	-0.102	-0.253
-231.786	21.341	-0.251	0.200
-230.771	800.000	-0.050	0.187
-229.757	87.801	0.066	-0.072
-228.742	436.022	-0.082	0.175
-227.727	15.845	-0.105	-0.081
-226.713	-14.399	-0.218	0.138
-225.698	-156.062	0.126	0.008
-224.684	-29.955	0.205	-0.114
-223.669	161.738	0.222	0.306
-222.655	800.000	-0.030	0.104
-221.640	-142.391	0.236	0.023
-220.625	429.078	-0.147	0.313
-219.611	-85.688	-0.065	-0.020
-218.596	11.088	0.062	0.046
-217.582	-0.824	-0.213	0.148
-216.567	-43.746	0.171	-0.084
-215.552	6.921	0.276	-0.202
-214.538	800.000	0.107	0.358
-213.523	431.287	-0.032	0.068
-212.509	90.338	-0.164	-0.180
-211.494	-51.432	-0.090	-0.041
-210.479	-200.000	-0.011	-0.306
-209.465	-6.540	-0.225	0.151
-208.450	800.000	-0.079	-0.255
-207.436	-48.362	0.385	0.182
-206.421	-121.897	0.298	0.048
-205.406	-130.924	-0.062	-0.008
-204.392	-200.000	-0.057	-0.250
-203.377	800.000	-0.030	0.094
-202.363	197.240	-0.085	-0.128
-201.348	36.788	0.163	-0.141
-200.333	-200.000	-0.050	-0.302
-199.319	-200.000	-0.031	0.275
-198.304	-200.000	-0.009	0.159
-197.290	-29.705	-0.134	0.075
-196.275	89.056	-0.168	-0.184
-195.260	-67.525	0.395	0.152
-194.246	800.000	0.045	-0.176
-193.231	5.253	0.182	-0.132
-192.217	-67.311	-0.049	0.019
-191.202	80.465	-0.262	-0.277
-190.187	-130.807	-0.467	0.061
-189.173	-129.959	-0.097	-0.013
-188.158	800.000	0.021	0.074
-187.144	-161.268	-0.081	0.004
-186.129	310.851	-0.070	-0.129
-185.114	167.710	0.125	0.174
-184.100	-200.000	0.005	-0.242
-183.085	121.159	-0.196	-0.239
-182.071	-58.668	-0.293	-0.125
-181.056	-99.481	-0.204	0.050
-180.042	800.000	-0.097	-0.321
-179.027	-2.140	-0.043	0.030
-178.012	19.970	0.159	-0.126
-176.998	-140.367	-0.054	-0.006
-175.983	12.019	-0.077	-0.058
-174.969	-39.282	-0.346	-0.178
-173.954	151.109	0.338	-0.451
-172.939	-85.457	0.333	-0.102
-171.925	505.962	0.081	-0.185
-170.910	-73.860	0.145	-0.052
-169.896	108.199	0.139	0.163
-168.881	-200.000	-0.022	-0.119
-167.866	272.229	0.056	-0.097
-166.852	-200.000	0.010	0.171
-165.837	-92.249	-0.160	0.044
-164.823	-160.393	-0.102	-0.005
-163.808	-31.876	0.505	0.277
-162.793	800.000	0.033	0.090
-161.779	44.041	-0.182	-0.163
-160.764	372.746	0.124	-0.248
-159.750	-200.000	0.014	-0.155
-158.735	-200.000	0.006	-0.255
-157.720	-14.930	0.160	0.100
-156.706	-200.000	-0.048	-0.230
-155.691	-77.286	0.287	-0.098
-154.677	-200.000	0.017	-0.142
-153.662	69.489	-0.183	0.184
-152.647	87.530	0.121	-0.131
-151.633	-5.601	0.188	-0.126
-150.618	84.248	-0.046	0.050
-149.604	86.852	-0.412	-0.446
-148.589	-66.512	0.215	-0.084
-147.574	-15.047	0.312	0.196
-146.560	-67.339	-0.056	0.022
-145.545	262.255	-0.160	-0.271
-144.531	110.668	0.090	0.106
-143.516	549.738	-0.084	0.198
-142.502	-81.573	-0.149	-0.048
-141.487	-31.886	0.250	-0.137
-140.472	-34.691	-0.250	0.134
-139.458	104.939	0.247	0.285
-138.443	-147.202	-0.057	0.005
-137.429	250.641	0.146	0.243
-136.414	-200.000	0.020	0.129
-135.399	73.280	0.212	0.217
-134.385	-144.936	0.329	-0.029
-133.370	-200.000	0.040	-0.444
-132.356	-200.000	-0.006	-0.259
-131.341	9.557	-0.022	0.017
-130.326	-200.000	0.012	-0.533
-129.312	-66.710	0.303	-0.117
-128.297	-200.000	0.001	-0.099
-127.283	-154.199	-0.203	-0.013
-126.268	-200.000	-0.011	0.250
-125.253	-179.594	0.220	0.005
-124.239	-52.117	-0.198	-0.090
-123.224	800.000	0.041	-0.112
-122.210	98.273	0.046	-0.052
-121.195	-200.000	0.015	0.091
