DTS Sentinel unit serial number:	SN413079Multiplexer serial number:	ORYXHardware model number:	OX4-SRSoftware version number:	ORYX F/W v4.00 Oryx Data Collector v3.7.2.0data status	okinstallation	princeton_trtdifferential loss correction	single-endedforward channel	channel 1reverse channel	N/Adate	2019/09/18time	11:34:35forward acquisition time	60.00reverse acquisition time	0.00gamma	496.2192k internal	0.2325k external	0.2325temperature offset calibration	0.9978default loss term (dB/km)	0.3790temperature slope calibration	1.0000multiplexer offset coefficient	1.0000multiplexer slope coefficient	1.0000fibre end	0.00T internal ref (°C)	30.62T ext. ref 1 (°C)	0.45T ext. ref 2 (°C)	28.07length (m)	temperature (°C)	Stokes	anti-Stokes-747.200	-73.648	-0.186	0.068
-746.185	-35.950	0.137	-0.075
-745.171	-149.095	0.103	-0.008
-744.156	216.372	-0.068	0.109
-743.142	214.799	-0.094	0.150
-742.127	116.819	-0.215	0.267
-741.112	-200.000	-0.035	-0.000
-740.098	800.000	-0.093	0.286
-739.083	-200.000	0.025	-0.165
-738.069	128.850	0.264	0.340
-737.054	-6.114	0.053	0.037
-736.039	800.000	0.033	0.123
-735.025	211.034	0.065	-0.103
-734.010	-200.000	-0.005	0.083
-732.996	-43.469	0.331	0.169
-731.981	277.915	-0.128	-0.230
-730.966	107.385	-0.396	0.475
-729.952	800.000	0.076	0.336
-728.937	-69.081	-0.266	0.103
-727.923	-200.000	0.052	0.334
-726.908	10.807	-0.378	-0.291
-725.894	800.000	-0.066	-0.221
-724.879	-140.160	0.153	-0.016
-723.864	-122.679	-0.304	-0.050
-722.850	-200.000	0.066	0.397
-721.835	86.989	-0.139	-0.155
-720.821	-46.409	-0.143	-0.071
-719.806	265.478	0.162	0.285
-718.791	800.000	0.095	0.321
-717.777	-142.873	-0.300	0.029
-716.762	800.000	0.039	0.131
-715.748	0.537	0.196	-0.141
-714.733	-200.000	-0.237	0.001
-713.718	-92.759	0.234	0.066
-712.704	-36.287	-0.258	-0.140
-711.689	697.092	-0.025	0.065
-710.675	-20.105	-0.330	0.205
-709.660	-200.000	0.046	0.213
-708.645	-189.386	0.278	-0.003
-707.631	43.358	0.252	0.232
-706.616	-200.000	0.013	0.245
-705.602	-200.000	0.017	-0.088
-704.587	-79.050	-0.101	-0.035
-703.572	800.000	-0.105	-0.421
-702.558	101.437	-0.013	-0.015
-701.543	96.070	-0.061	0.070
-700.529	-200.000	0.038	-0.251
-699.514	-166.690	-0.212	-0.009
-698.499	-200.000	0.006	-0.296
-697.485	-36.878	0.173	0.093
-696.470	95.066	0.315	-0.361
-695.456	549.713	0.024	0.058
-694.441	-86.436	-0.268	0.083
-693.426	26.093	0.234	-0.196
-692.412	-56.296	-0.214	0.096
-691.397	-147.744	0.063	-0.005
-690.383	137.288	-0.216	-0.285
-689.368	800.000	0.115	-0.324
-688.354	257.717	-0.077	0.133
-687.339	12.453	0.080	-0.062
-686.324	-117.407	0.515	-0.094
-685.310	328.840	-0.107	-0.207
-684.295	-80.735	-0.457	0.153
-683.281	64.010	0.158	0.160
-682.266	800.000	0.019	0.056
-681.251	36.329	-0.128	0.113
-680.237	390.254	-0.092	-0.191
-679.222	-200.000	-0.005	-0.037
-678.208	710.291	-0.039	0.103
-677.193	202.331	0.238	0.370
-676.178	21.837	-0.160	0.131
-675.164	40.318	-0.212	-0.192
-674.149	18.096	0.116	-0.093
-673.135	800.000	0.052	-0.171
-672.120	-200.000	-0.003	0.054
-671.105	-119.124	-0.164	-0.029
-670.091	91.882	-0.174	-0.197
-669.076	55.254	0.077	0.075
-668.062	-200.000	0.061	0.319
-667.047	-63.151	0.180	0.075
-666.032	421.655	-0.058	0.125
-665.018	126.797	0.165	-0.210
-664.003	-200.000	-0.041	-0.580
-662.989	277.296	0.056	-0.100
-661.974	12.340	0.173	0.134
-660.959	-123.009	0.072	0.012
-659.945	-200.000	0.002	0.470
-658.930	-69.410	-0.100	0.039
-657.916	233.656	-0.074	0.123
-656.901	41.879	-0.066	-0.060
-655.886	-111.670	0.267	-0.054
-654.872	-17.676	-0.230	0.145
-653.857	-200.000	0.014	0.143
-652.843	204.416	0.073	0.114
-651.828	-90.791	0.117	-0.034
-650.814	106.661	0.216	0.258
-649.799	-200.000	0.029	0.192
-648.784	626.311	0.109	-0.278
-647.770	35.819	-0.054	-0.048
-646.755	800.000	-0.040	-0.129
-645.741	80.113	0.205	-0.222
-644.726	337.648	-0.046	-0.091
-643.711	-53.184	0.176	0.081
-642.697	30.078	-0.063	-0.054
-641.682	-200.000	-0.029	-0.133
-640.668	60.553	-0.089	0.089
-639.653	232.255	-0.169	-0.278
-638.638	-156.985	-0.166	-0.010
-637.624	586.701	0.124	0.305
-636.609	-173.327	0.226	0.007
-635.595	525.116	-0.123	-0.291
-634.580	-162.482	-0.432	-0.021
-633.565	63.638	-0.024	-0.024
-632.551	-200.000	0.017	0.095
-631.536	-200.000	-0.015	0.468
-630.522	473.752	-0.090	0.203
-629.507	305.929	-0.092	0.171
-628.492	198.210	0.088	0.135
-627.478	258.564	-0.139	-0.240
-626.463	-200.000	0.019	0.276
-625.449	-118.678	-0.153	-0.027
-624.434	-190.434	-0.265	-0.003
-623.419	398.654	0.086	0.182
-622.405	16.490	0.122	-0.096
-621.390	800.000	0.030	-0.096
-620.376	800.000	-0.082	-0.288
-619.361	-132.720	-0.198	-0.025
-618.346	49.375	0.086	-0.081
-617.332	369.324	-0.073	0.148
-616.317	-140.102	0.099	-0.010
-615.303	206.747	0.039	0.062
-614.288	-67.702	0.074	0.029
-613.273	800.000	-0.083	0.274
-612.259	121.575	0.256	0.320
-611.244	-19.918	-0.193	-0.120
-610.230	409.561	0.022	0.046
-609.215	221.652	-0.191	-0.309
-608.201	20.259	0.187	-0.151
-607.186	202.411	-0.085	0.132
-606.171	-34.065	-0.060	-0.033
-605.157	-178.710	0.266	-0.006
-604.142	36.866	-0.080	-0.071
-603.128	800.000	-0.030	-0.128
-602.113	206.293	-0.188	-0.293
-601.098	677.626	-0.049	0.128
-600.084	-200.000	0.043	0.216
-599.069	90.929	0.157	-0.176
-598.055	-200.000	-0.010	-0.227
-597.040	-162.504	-0.237	-0.012
-596.025	63.408	-0.100	-0.100
-595.011	46.918	-0.217	0.203
-593.996	-200.000	-0.032	0.347
-592.982	-96.881	0.184	0.048
-591.967	5.678	-0.189	-0.140
-590.952	-99.429	-0.249	0.063
-589.938	-200.000	0.010	-0.426
-588.923	-119.376	-0.238	-0.041
-587.909	-2.282	0.064	-0.045
-586.894	800.000	-0.067	-0.229
-585.879	266.238	-0.182	-0.319
-584.865	-111.703	-0.195	0.040
-583.850	146.382	0.094	0.127
-582.836	20.446	0.184	0.149
-581.821	-187.924	-0.417	0.005
-580.806	433.252	-0.081	0.176
-579.792	18.145	0.211	-0.169
-578.777	61.385	-0.068	-0.068
-577.763	-200.000	0.014	-0.068
-576.748	33.245	-0.284	0.247
-575.733	198.565	0.152	-0.234
-574.719	800.000	-0.123	-0.435
-573.704	93.304	-0.307	0.348
-572.690	-114.742	0.276	-0.053
-571.675	-7.267	0.309	-0.210
-570.661	-106.196	-0.222	0.050
-569.646	67.965	0.071	-0.072
-568.631	-200.000	-0.036	0.404
-567.617	-166.182	-0.152	0.006
-566.602	132.336	0.065	0.084
-565.588	-200.000	0.001	0.079
-564.573	-188.798	-0.169	0.002
-563.558	-1.545	0.212	0.150
-562.544	-96.590	-0.257	-0.068
-561.529	-192.868	-0.238	0.002
-560.515	198.017	-0.137	-0.210
-559.500	-200.000	0.002	0.177
-558.485	499.852	0.072	0.166
-557.471	-61.945	0.154	-0.065
-556.456	-48.145	-0.084	-0.041
-555.442	-200.000	-0.081	-0.367
-554.427	113.834	-0.299	-0.364
-553.412	5.393	-0.317	-0.234
-552.398	-153.821	0.314	0.022
-551.383	198.482	-0.220	0.337
-550.369	-200.000	0.033	-0.283
-549.354	-97.957	0.178	0.046
-548.339	-200.000	0.037	-0.264
-547.325	-82.039	-0.247	0.081
-546.310	412.551	0.090	0.192
-545.296	-200.000	-0.049	0.317
-544.281	800.000	-0.028	-0.101
-543.266	-111.343	-0.238	0.049
-542.252	8.158	-0.377	0.283
-541.237	-94.611	0.273	-0.074
-540.223	-200.000	0.022	0.280
-539.208	-13.058	-0.300	-0.195
-538.193	44.084	-0.138	-0.127
-537.179	-142.232	-0.221	0.022
-536.164	-131.629	-0.110	-0.014
-535.150	-200.000	0.006	-0.156
-534.135	-122.991	0.268	0.043
-533.121	-200.000	0.001	0.231
-532.106	147.032	0.078	0.104
-531.091	171.157	0.228	0.327
-530.077	-200.000	-0.015	-0.114
-529.062	184.857	-0.122	0.182
-528.048	-180.746	0.320	0.007
-527.033	89.721	-0.204	0.228
-526.018	68.118	0.140	0.144
-525.004	800.000	-0.058	0.169
-523.989	311.277	0.091	-0.171
-522.975	76.732	-0.056	-0.060
-521.960	-5.548	-0.227	-0.155
-520.945	-5.341	0.349	0.240
-519.931	461.835	0.031	0.069
-518.916	-94.075	-0.278	-0.076
-517.902	327.518	-0.102	-0.196
-516.887	-94.281	-0.264	-0.072
-515.872	-73.605	0.057	-0.021
-514.858	-19.964	-0.264	-0.163
-513.843	-66.785	-0.201	0.079
-512.829	290.624	0.199	-0.362
-511.814	-200.000	0.042	-0.295
-510.799	147.692	-0.204	0.275
-509.785	430.710	-0.064	0.138
-508.770	-200.000	-0.102	-0.548
-507.756	487.909	-0.073	0.167
-506.741	-122.363	0.249	-0.041
-505.726	165.837	-0.104	-0.147
-504.712	630.256	-0.083	-0.211
-503.697	-54.616	0.233	-0.105
-502.683	240.972	-0.127	-0.212
-501.668	-200.000	-0.037	-0.183
-500.653	-69.593	-0.145	-0.056
-499.639	587.537	-0.112	0.276
-498.624	-116.650	0.264	-0.049
-497.610	800.000	-0.079	-0.237
-496.595	-200.000	-0.029	0.455
-495.581	800.000	-0.037	0.117
-494.566	800.000	-0.107	0.309
-493.551	-86.392	0.204	-0.063
-492.537	-59.599	-0.147	-0.063
-491.522	363.026	-0.129	0.258
-490.508	-143.096	0.223	-0.021
-489.493	407.142	-0.032	0.067
-488.478	754.117	0.100	0.269
-487.464	-50.743	-0.088	-0.041
-486.449	-200.000	-0.005	-0.270
-485.435	0.135	0.087	-0.062
-484.420	-7.195	0.076	-0.051
-483.405	-60.859	-0.033	0.014
-482.391	523.917	-0.054	-0.126
-481.376	20.842	0.213	-0.173
-480.362	-200.000	-0.006	0.281
-479.347	-125.424	-0.165	0.025
-478.332	-200.000	0.020	0.336
-477.318	-126.143	0.409	0.061
-476.303	485.192	-0.076	0.172
-475.289	362.552	0.053	-0.105
-474.274	206.033	0.201	-0.312
-473.259	-96.253	0.232	0.062
-472.245	-111.309	-0.342	-0.070
-471.230	-117.318	-0.223	0.040
-470.216	-115.835	-0.051	0.009
-469.201	451.540	0.028	-0.061
-468.186	-53.828	0.293	0.133
-467.172	800.000	-0.095	-0.295
-466.157	-131.595	0.148	-0.019
-465.143	-111.430	0.341	-0.069
-464.128	-200.000	0.021	0.244
-463.113	133.148	0.030	0.038
-462.099	595.546	0.122	-0.300
-461.084	-164.345	0.397	-0.018
-460.070	-118.714	0.206	0.036
-459.055	-52.038	0.053	-0.025
-458.040	-113.733	-0.042	0.008
-457.026	-134.026	-0.210	-0.026
-456.011	443.578	-0.119	-0.260
-454.997	-200.000	-0.012	-0.089
-453.982	-89.149	-0.388	-0.114
-452.968	180.414	0.181	-0.265
-451.953	-88.636	-0.224	-0.067
-450.938	113.197	-0.141	-0.171
-449.924	26.161	0.215	0.179
-448.909	42.280	-0.201	0.182
-447.895	-42.378	0.138	0.070
-446.880	800.000	0.029	0.124
-445.865	-200.000	-0.011	-0.098
-444.851	163.000	0.188	-0.263
-443.836	254.183	-0.058	-0.098
-442.822	178.549	-0.160	-0.233
-441.807	-113.382	0.117	-0.023
-440.792	-200.000	0.109	-0.505
-439.778	-200.000	-0.034	-0.428
-438.763	-200.000	-0.027	-0.159
-437.749	94.504	-0.054	-0.061
-436.734	37.265	-0.383	-0.339
-435.719	80.928	0.254	0.273
-434.705	-200.000	0.073	0.401
-433.690	-17.931	0.137	0.086
-432.676	244.149	-0.159	0.267
-431.661	-125.126	0.080	-0.012
-430.646	-39.742	0.155	-0.081
-429.632	-116.474	-0.397	0.073
-428.617	-194.756	-0.114	0.001
-427.603	-66.705	0.115	-0.046
-426.588	800.000	-0.050	-0.205
-425.573	105.210	0.153	-0.179
-424.559	-54.331	0.124	-0.056
-423.544	358.419	-0.019	-0.038
-422.530	76.796	-0.068	-0.072
-421.515	154.124	-0.064	0.088
-420.500	-107.211	0.213	-0.047
-419.486	-200.000	0.002	0.335
-418.471	85.390	-0.308	0.337
-417.457	800.000	0.116	0.322
-416.442	-37.451	0.309	0.165
-415.428	800.000	-0.089	-0.251
-414.413	-56.420	0.329	0.145
-413.398	-200.000	-0.008	-0.405
-412.384	-67.203	0.375	-0.147
-411.369	503.833	-0.174	0.400
-410.355	-128.062	-0.184	-0.026
-409.340	83.400	-0.186	-0.202
-408.325	-118.008	0.310	-0.055
-407.311	800.000	0.042	-0.175
-406.296	-106.668	-0.061	0.014
-405.282	-20.129	-0.100	0.062
-404.267	-29.433	0.074	-0.042
-403.252	-73.751	0.235	0.085
-402.238	70.674	0.102	-0.106
-401.223	-43.035	-0.456	-0.230
-400.209	128.233	-0.195	0.247
-399.194	280.754	0.177	0.314
-398.179	-163.043	0.287	0.014
-397.165	-200.000	-0.035	0.283
-396.150	-200.000	0.043	0.209
-395.136	466.097	0.049	0.109
-394.121	-157.321	-0.178	-0.011
-393.106	-109.086	0.118	0.025
-392.092	20.170	-0.086	0.069
-391.077	-200.000	-0.109	0.480
-390.063	-200.000	0.057	0.250
-389.048	244.884	-0.191	-0.319
-388.033	378.272	0.065	0.132
-387.019	-200.000	-0.031	0.231
-386.004	-30.401	-0.101	0.057
-384.990	-125.852	-0.138	-0.021
-383.975	-102.841	0.114	-0.027
-382.960	4.448	-0.178	-0.130
-381.946	305.573	-0.022	-0.041
-380.931	-93.879	0.474	0.130
-379.917	-66.842	-0.175	0.069
-378.902	98.371	0.046	0.052
-377.888	-108.310	0.309	-0.066
-376.873	85.827	0.395	0.432
-375.858	-140.111	0.307	0.032
-374.844	-200.000	-0.016	-0.477
-373.829	713.259	0.101	-0.266
-372.815	737.280	-0.071	-0.188
-371.800	265.616	0.168	0.291
-370.785	-192.034	-0.349	0.003
-369.771	482.186	0.019	-0.043
-368.756	-80.078	-0.118	-0.039
-367.742	443.634	0.137	0.298
-366.727	-66.539	-0.255	-0.100
-365.712	-200.000	0.024	0.245
-364.698	-83.555	-0.183	-0.058
-363.683	-39.316	-0.121	0.063
-362.669	-200.000	-0.049	0.336
-361.654	-37.186	-0.186	-0.099
-360.639	-200.000	-0.059	0.308
-359.625	26.377	0.069	-0.057
-358.610	800.000	0.135	-0.473
-357.596	4.759	-0.231	-0.168
-356.581	-200.000	0.015	-0.196
-355.566	87.296	0.114	-0.125
-354.552	-153.329	0.388	0.027
-353.537	-8.742	-0.307	-0.205
-352.523	49.487	-0.114	-0.107
-351.508	0.471	0.092	0.065
-350.493	250.881	-0.028	0.048
-349.479	711.338	-0.076	-0.200
-348.464	40.283	0.074	-0.066
-347.450	7.407	0.091	-0.067
-346.435	137.102	0.065	-0.085
-345.420	-200.000	0.015	0.125
-344.406	-200.000	-0.012	0.135
-343.391	163.622	0.111	0.156
-342.377	-16.119	-0.353	-0.223
-341.362	-46.961	0.156	-0.076
-340.348	257.767	-0.216	-0.368
-339.333	51.389	-0.064	-0.061
-338.318	-132.543	0.144	-0.018
-337.304	12.041	-0.377	0.288
-336.289	800.000	0.065	0.219
-335.275	-56.767	0.222	-0.098
-334.260	800.000	-0.059	-0.169
-333.245	377.679	-0.104	0.211
-332.231	318.981	-0.064	-0.121
-331.216	650.534	-0.099	0.251
-330.202	-200.000	-0.063	-0.293
-329.187	800.000	-0.029	0.115
-328.172	186.887	0.179	-0.265
-327.158	-200.000	0.023	0.155
-326.143	-158.952	-0.049	0.003
-325.129	480.274	-0.090	0.202
-324.114	84.107	0.249	0.270
-323.099	800.000	-0.079	-0.315
-322.085	17.284	0.311	-0.245
-321.070	229.352	-0.147	-0.238
-320.056	-51.733	0.344	0.159
-319.041	33.671	0.266	0.229
-318.026	-200.000	-0.051	-0.558
-317.012	-16.258	0.082	0.052
-315.997	800.000	0.072	-0.284
-314.983	67.586	0.108	0.110
-313.968	174.622	0.050	-0.072
-312.953	127.004	-0.081	-0.102
-311.939	-0.718	-0.250	-0.176
-310.924	263.948	-0.259	0.447
-309.910	-60.511	-0.114	-0.048
-308.895	-29.322	0.207	-0.117
-307.880	-122.843	0.347	0.056
-306.866	190.777	0.108	-0.161
-305.851	-63.502	0.268	-0.109
-304.837	-200.000	-0.062	-0.294
-303.822	-200.000	0.008	0.090
-302.807	210.532	-0.190	0.296
-301.793	-200.000	0.018	0.192
-300.778	187.817	0.226	0.335
-299.764	-84.032	-0.059	0.019
-298.749	371.570	0.030	-0.060
-297.735	-41.407	0.032	0.016
-296.720	632.535	0.120	-0.302
-295.705	-200.000	-0.020	0.094
-294.691	582.643	-0.102	-0.249
-293.676	292.022	0.128	-0.231
-292.662	-72.837	0.129	-0.047
-291.647	26.500	-0.116	0.096
-290.632	-54.710	-0.289	-0.129
-289.618	38.778	0.147	0.130
-288.603	493.607	0.077	-0.175
-287.589	800.000	-0.043	-0.124
-286.574	-200.000	0.012	-0.177
-285.559	-11.369	0.203	-0.132
-284.545	-106.267	-0.389	-0.086
-283.530	-200.000	0.027	0.177
-282.516	-131.886	-0.141	-0.018
-281.501	-114.920	0.314	0.059
-280.486	-66.643	-0.158	-0.062
-279.472	-104.356	-0.295	-0.068
-278.457	18.214	0.107	-0.084
-277.443	-148.881	0.097	-0.008
-276.428	-145.095	-0.361	0.033
-275.413	800.000	0.049	0.154
-274.399	-19.773	-0.102	-0.063
-273.384	-132.324	-0.201	-0.026
-272.370	-200.000	-0.011	-0.286
-271.355	157.500	0.116	0.159
-270.340	-63.992	-0.064	-0.026
-269.326	186.763	0.211	-0.312
-268.311	-200.000	-0.056	-0.316
-267.297	-67.948	0.211	0.081
-266.282	-17.906	0.101	0.062
-265.267	-200.000	0.049	0.286
-264.253	-58.801	0.327	-0.140
-263.238	-200.000	0.050	0.271
-262.224	-103.906	0.361	-0.084
-261.209	76.673	-0.199	-0.209
-260.195	-188.926	0.297	0.004
-259.180	800.000	0.086	-0.266
-258.165	470.067	0.092	-0.204
-257.151	-200.000	0.023	-0.215
-256.136	-108.109	0.248	-0.053
-255.122	236.259	-0.016	-0.026
-254.107	363.630	-0.076	0.150
-253.092	-89.110	-0.092	-0.027
-252.078	-71.200	0.221	0.082
-251.063	-94.372	0.218	0.059
-250.049	1.972	0.147	-0.105
-249.034	800.000	-0.040	-0.160
-248.019	173.714	0.136	0.194
-247.005	269.360	0.194	-0.337
-245.990	166.177	-0.177	-0.247
-244.976	35.556	-0.207	0.180
-243.961	19.334	0.213	0.169
-242.946	-3.616	0.137	-0.094
-241.932	612.518	0.046	-0.115
-240.917	632.348	-0.066	0.165
-239.903	-36.246	-0.401	-0.214
-238.888	799.921	-0.028	-0.076
-237.873	-200.000	0.021	-0.290
-236.859	178.292	-0.035	0.050
-235.844	-89.668	0.156	0.045
-234.830	-200.000	-0.006	0.167
-233.815	62.164	0.235	0.232
-232.800	95.492	0.095	0.108
-231.786	-5.408	-0.160	-0.109
-230.771	800.000	-0.088	0.244
-229.757	-200.000	0.012	-0.127
-228.742	186.104	0.176	0.258
-227.727	-53.290	-0.265	0.120
-226.713	507.436	0.118	0.271
-225.698	645.987	0.122	0.307
-224.684	-200.000	0.050	0.226
-223.669	-147.321	0.069	-0.006
-222.655	199.132	-0.202	-0.306
-221.640	-200.000	0.004	-0.448
-220.625	-141.380	-0.081	-0.008
-219.611	-57.098	0.289	0.126
-218.596	-200.000	0.008	0.131
-217.582	-27.154	0.194	0.112
-216.567	-10.157	0.127	0.083
-215.552	-152.806	-0.108	0.008
-214.538	311.089	-0.054	0.101
-213.523	510.417	0.073	0.167
-212.509	-200.000	-0.051	0.291
-211.494	-184.841	-0.142	-0.002
-210.479	21.321	0.254	0.204
-209.465	-123.336	0.269	-0.042
-208.450	-57.777	0.187	-0.081
-207.436	472.127	0.025	0.055
-206.421	25.751	0.112	-0.092
-205.406	-200.000	-0.039	0.291
-204.392	-178.785	-0.102	-0.002
-203.377	734.026	-0.119	0.314
-202.363	-171.471	0.120	-0.004
-201.348	-39.701	-0.114	-0.059
-200.333	-200.000	-0.008	-0.340
-199.319	-200.000	0.001	-0.187
-198.304	-200.000	0.034	0.169
-197.290	-142.004	-0.249	-0.025
-196.275	54.650	0.162	0.154
-195.260	-200.000	-0.008	0.098
-194.246	-200.000	0.007	-0.077
-193.231	8.544	0.039	0.029
-192.217	-200.000	0.066	0.438
-191.202	99.213	0.135	-0.154
-190.187	425.252	0.050	-0.106
-189.173	314.240	0.169	0.314
-188.158	204.840	0.057	-0.087
-187.144	23.029	-0.090	-0.073
-186.129	-25.411	0.231	-0.135
-185.114	186.205	0.178	-0.261
-184.100	-107.236	0.278	-0.060
-183.085	-87.987	-0.190	-0.056
-182.071	-144.212	-0.360	0.033
-181.056	800.000	-0.028	0.121
-180.042	-0.847	-0.205	-0.143
-179.027	3.649	0.285	0.205
-178.012	-200.000	0.010	0.270
-176.998	126.564	-0.035	0.044
-175.983	22.298	0.196	0.158
-174.969	-89.880	-0.244	0.070
-173.954	276.384	0.093	0.164
-172.939	-77.583	-0.170	0.058
-171.925	-200.000	-0.003	0.332
-170.910	3.210	-0.158	0.113
-169.896	-200.000	-0.022	-0.324
-168.881	-33.490	0.166	-0.091
-167.866	-112.863	0.384	0.075
-166.852	-200.000	0.076	0.441
-165.837	-44.122	-0.157	0.078
-164.823	153.816	0.182	0.246
-163.808	-101.584	-0.248	-0.060
-162.793	310.047	-0.187	0.345
-161.779	233.262	0.099	0.160
-160.764	-200.000	0.030	0.382
-159.750	140.125	-0.164	-0.214
-158.735	105.444	0.093	0.109
-157.720	92.929	0.150	0.167
-156.706	-107.789	-0.099	-0.021
-155.691	31.357	-0.094	-0.080
-154.677	-122.991	0.214	0.034
-153.662	-8.944	-0.338	0.223
-152.647	-71.276	-0.281	-0.104
-151.633	-200.000	0.058	0.335
-150.618	-96.343	0.338	0.088
-149.604	-148.272	-0.436	-0.035
-148.589	-200.000	-0.028	-0.345
-147.574	77.299	-0.331	-0.347
-146.560	-100.083	0.341	-0.084
-145.545	-154.749	0.167	-0.011
-144.531	-200.000	0.027	-0.155
-143.516	-147.220	-0.192	-0.016
-142.502	96.601	-0.163	0.183
-141.487	-1.162	0.340	0.237
-140.472	2.551	-0.390	0.278
-139.458	74.258	0.179	0.185
-138.443	-47.660	-0.259	-0.124
-137.429	-85.184	-0.188	0.058
-136.414	-200.000	-0.013	0.254
-135.399	-2.243	0.087	-0.060
-134.385	-200.000	-0.015	0.335
-133.370	94.456	0.092	-0.103
-132.356	76.169	-0.234	0.244
-131.341	-200.000	-0.011	0.084
-130.326	-151.745	-0.396	0.029
-129.312	632.616	-0.198	0.495
-128.297	195.563	0.151	0.225
-127.283	275.748	-0.068	-0.119
-126.268	-170.008	-0.343	0.012
-125.253	-200.000	0.019	-0.160
-124.239	-134.527	0.237	0.029
-123.224	243.243	-0.114	0.188
-122.210	58.995	-0.107	-0.103
