DTS Sentinel unit serial number:	SN413079Multiplexer serial number:	ORYXHardware model number:	OX4-SRSoftware version number:	ORYX F/W v4.00 Oryx Data Collector v3.7.2.0data status	okinstallation	princeton_trtdifferential loss correction	single-endedforward channel	channel 1reverse channel	N/Adate	2019/09/18time	05:22:35forward acquisition time	60.00reverse acquisition time	0.00gamma	496.2192k internal	0.2339k external	0.2339temperature offset calibration	0.9978default loss term (dB/km)	0.3790temperature slope calibration	1.0000multiplexer offset coefficient	1.0000multiplexer slope coefficient	1.0000fibre end	0.00T internal ref (°C)	23.47T ext. ref 1 (°C)	0.19T ext. ref 2 (°C)	17.20length (m)	temperature (°C)	Stokes	anti-Stokes-747.200	-200.000	0.018	0.132
-746.185	-173.941	0.071	0.002
-745.171	103.016	0.181	0.212
-744.156	-136.582	-0.192	0.022
-743.142	-200.000	0.003	0.154
-742.127	-3.523	-0.331	0.231
-741.112	-128.820	-0.230	0.032
-740.098	-87.522	-0.349	0.106
-739.083	-200.000	0.021	-0.235
-738.069	-1.803	0.108	0.077
-737.054	-22.401	0.094	-0.057
-736.039	19.283	-0.058	0.047
-735.025	800.000	0.037	0.119
-734.010	211.178	-0.290	-0.458
-732.996	236.265	-0.234	-0.388
-731.981	11.067	-0.040	0.031
-730.966	726.396	-0.066	-0.176
-729.952	18.240	-0.356	-0.285
-728.937	129.529	0.114	0.145
-727.923	219.284	-0.131	0.209
-726.908	800.000	-0.017	0.073
-725.894	313.258	-0.204	-0.384
-724.879	-71.303	0.105	-0.040
-723.864	-200.000	-0.051	0.326
-722.850	577.189	-0.092	-0.226
-721.835	-26.556	0.312	0.183
-720.821	-19.239	0.157	-0.097
-719.806	-30.479	0.051	-0.029
-718.791	-34.373	-0.209	-0.115
-717.777	-200.000	0.010	0.191
-716.762	-106.059	-0.146	-0.033
-715.748	204.815	0.083	-0.129
-714.733	132.322	0.083	0.107
-713.718	377.505	0.199	0.407
-712.704	800.000	-0.114	0.344
-711.689	73.530	-0.197	-0.207
-710.675	800.000	0.036	0.111
-709.660	230.144	-0.108	0.178
-708.645	-164.322	-0.227	0.010
-707.631	262.885	0.266	0.462
-706.616	-200.000	0.028	-0.266
-705.602	-114.854	-0.423	0.081
-704.587	-60.416	0.248	-0.106
-703.572	-15.410	-0.248	0.159
-702.558	78.173	0.192	-0.205
-701.543	-137.219	0.244	0.028
-700.529	-136.450	-0.168	0.019
-699.514	800.000	-0.072	-0.218
-698.499	-176.345	-0.286	0.007
-697.485	-157.574	0.179	0.011
-696.470	-40.394	0.150	0.078
-695.456	202.423	-0.182	0.282
-694.441	-200.000	0.049	-0.296
-693.426	-103.081	-0.110	0.026
-692.412	-144.971	-0.247	0.023
-691.397	49.157	0.225	-0.212
-690.383	100.771	-0.225	-0.262
-689.368	-127.038	0.241	0.035
-688.354	26.434	-0.072	-0.060
-687.339	-81.355	0.162	-0.053
-686.324	-48.192	-0.433	0.209
-685.310	730.933	0.114	0.304
-684.295	184.700	0.112	0.165
-683.281	-200.000	-0.011	-0.072
-682.266	-24.353	-0.293	-0.175
-681.251	62.673	-0.110	0.110
-680.237	43.997	-0.210	0.192
-679.222	160.037	-0.187	0.261
-678.208	-104.168	-0.234	-0.054
-677.193	178.334	0.072	-0.105
-676.178	-200.000	-0.001	-0.452
-675.164	252.881	0.038	0.065
-674.149	-200.000	-0.002	0.024
-673.135	-74.603	0.289	-0.104
-672.120	-200.000	0.059	-0.357
-671.105	800.000	0.103	-0.296
-670.091	-49.691	-0.259	0.123
-669.076	-36.371	0.385	0.207
-668.062	206.765	0.099	-0.154
-667.047	186.083	-0.169	0.251
-666.032	29.072	-0.040	-0.034
-665.018	-120.320	0.105	0.018
-664.003	17.125	-0.185	-0.147
-662.989	-32.679	-0.353	0.196
-661.974	-200.000	0.011	0.135
-660.959	-89.374	0.133	0.039
-659.945	-131.251	0.384	-0.051
-658.930	400.025	-0.021	0.043
-657.916	-200.000	0.020	-0.205
-656.901	41.871	-0.145	-0.131
-655.886	800.000	0.035	-0.128
-654.872	-157.529	-0.233	-0.014
-653.857	-101.086	-0.238	-0.058
-652.843	498.662	0.063	0.145
-651.828	800.000	-0.124	-0.360
-650.814	330.284	0.115	-0.222
-649.799	73.290	-0.202	-0.211
-648.784	-109.012	-0.194	0.041
-647.770	186.368	0.041	0.062
-646.755	293.572	0.097	0.177
-645.741	-187.166	0.209	0.003
-644.726	-109.965	0.134	0.028
-643.711	350.385	0.055	-0.108
-642.697	800.000	-0.074	-0.215
-641.682	-93.271	0.191	0.053
-640.668	-44.778	-0.139	-0.069
-639.653	664.036	0.066	-0.171
-638.638	-200.000	0.020	-0.233
-637.624	243.121	0.199	-0.334
-636.609	82.210	-0.243	-0.264
-635.595	703.879	-0.078	-0.206
-634.580	-110.202	0.244	-0.051
-633.565	-84.610	0.232	0.073
-632.551	-43.034	0.073	0.037
-631.536	-200.000	0.027	-0.142
-630.522	143.805	-0.106	0.141
-629.507	14.592	0.138	-0.108
-628.492	800.000	-0.030	-0.099
-627.478	43.686	0.040	0.037
-626.463	800.000	0.064	0.275
-625.449	73.816	0.142	0.149
-624.434	-47.208	-0.432	0.210
-623.419	-200.000	0.003	0.016
-622.405	-85.447	0.240	0.075
-621.390	-200.000	-0.033	-0.182
-620.376	-200.000	-0.009	0.314
-619.361	30.748	-0.247	-0.211
-618.346	191.994	-0.029	-0.044
-617.332	3.199	0.030	-0.022
-616.317	-56.874	-0.104	0.046
-615.303	-62.548	0.302	-0.125
-614.288	-36.201	0.221	0.119
-613.273	-200.000	0.025	0.203
-612.259	57.104	0.170	0.165
-611.244	210.427	-0.076	-0.119
-610.230	5.663	0.049	-0.036
-609.215	-84.166	0.050	-0.016
-608.201	-200.000	-0.022	0.132
-607.186	127.261	-0.081	0.102
-606.171	-200.000	-0.037	0.284
-605.157	-20.216	-0.385	0.236
-604.142	792.802	0.081	-0.223
-603.128	-52.792	-0.169	-0.078
-602.113	24.811	-0.086	0.071
-601.098	-30.088	-0.227	-0.129
-600.084	-22.404	0.328	-0.198
-599.069	-200.000	0.082	0.415
-598.055	-13.861	-0.290	-0.187
-597.040	-200.000	-0.028	-0.215
-596.025	503.729	0.114	0.264
-595.011	-107.516	0.228	0.050
-593.996	744.970	-0.107	-0.287
-592.982	332.901	-0.030	0.057
-591.967	-200.000	0.001	0.056
-590.952	-200.000	-0.020	-0.100
-589.938	-0.619	0.137	0.097
-588.923	387.225	0.182	-0.375
-587.909	800.000	-0.080	0.247
-586.894	-65.991	0.202	0.080
-585.879	-46.278	-0.276	0.135
-584.865	-85.780	0.065	0.020
-583.850	-200.000	-0.009	0.133
-582.836	2.663	0.181	0.130
-581.821	-125.157	-0.208	0.032
-580.806	15.450	0.206	0.161
-579.792	586.201	0.125	-0.305
-578.777	-47.864	-0.126	-0.061
-577.763	-47.254	0.047	-0.023
-576.748	11.414	-0.106	-0.081
-575.733	-200.000	0.017	-0.205
-574.719	303.072	0.112	-0.207
-573.704	-64.855	0.287	0.116
-572.690	800.000	-0.088	-0.273
-571.675	-143.122	-0.122	-0.012
-570.661	800.000	0.093	0.329
-569.646	-200.000	0.005	-0.294
-568.631	800.000	-0.060	-0.179
-567.617	185.019	-0.042	0.062
-566.602	-200.000	0.004	-0.048
-565.588	7.294	0.187	-0.139
-564.573	-29.108	-0.149	0.085
-563.558	723.144	0.064	-0.171
-562.544	339.940	0.118	0.229
-561.529	180.828	0.048	-0.070
-560.515	-200.000	-0.005	0.184
-559.500	508.666	-0.098	-0.227
-558.485	-200.000	-0.017	0.134
-557.471	-77.446	0.055	-0.019
-556.456	-103.521	-0.262	0.061
-555.442	-35.119	0.073	-0.040
-554.427	38.944	-0.270	-0.240
-553.412	0.685	0.214	0.153
-552.398	-55.429	-0.036	0.016
-551.383	-160.064	-0.434	0.023
-550.369	-200.000	0.001	-0.200
-549.354	43.502	-0.244	-0.222
-548.339	-80.331	0.263	-0.088
-547.325	464.519	-0.030	0.068
-546.310	345.071	-0.099	0.194
-545.296	-10.350	0.063	0.042
-544.281	-200.000	0.063	-0.429
-543.266	800.000	-0.104	0.385
-542.252	-3.931	0.081	0.056
-541.237	197.647	0.037	-0.056
-540.223	-200.000	0.027	-0.154
-539.208	737.517	-0.145	0.387
-538.193	-28.066	-0.182	0.105
-537.179	-200.000	-0.084	0.485
-536.164	-52.440	0.079	0.036
-535.150	-146.845	-0.204	-0.018
-534.135	800.000	0.052	-0.219
-533.121	800.000	0.120	-0.333
-532.106	-108.698	0.245	0.052
-531.091	158.127	-0.209	-0.288
-530.077	-93.852	0.122	0.033
-529.062	-103.093	0.206	-0.049
-528.048	15.048	0.217	-0.169
-527.033	-139.178	-0.090	0.010
-526.018	64.090	-0.168	-0.168
-525.004	308.082	0.068	-0.126
-523.989	223.423	-0.039	0.063
-522.975	-70.746	0.292	0.110
-521.960	-200.000	-0.074	0.351
-520.945	131.267	0.153	0.195
-519.931	-129.108	-0.205	-0.029
-518.916	33.438	-0.333	0.288
-517.902	-200.000	0.026	0.126
-516.887	-190.291	-0.202	-0.002
-515.872	49.892	0.150	0.141
-514.858	-137.030	0.247	-0.028
-513.843	190.994	0.126	0.188
-512.829	-200.000	-0.026	0.318
-511.814	1.886	0.113	-0.081
-510.799	-173.551	0.323	-0.010
-509.785	-145.738	0.247	0.022
-508.770	800.000	-0.037	0.107
-507.756	800.000	-0.029	0.104
-506.741	-93.091	-0.223	0.062
-505.726	-200.000	0.030	-0.147
-504.712	75.657	-0.100	0.104
-503.697	-200.000	0.012	-0.105
-502.683	-77.314	-0.166	0.057
-501.668	-200.000	-0.046	-0.298
-500.653	85.734	-0.068	-0.074
-499.639	-65.006	-0.541	0.217
-498.624	-139.101	0.282	-0.030
-497.610	-200.000	-0.019	-0.370
-496.595	-50.746	-0.243	0.114
-495.581	-138.918	-0.397	0.043
-494.566	-200.000	0.064	-0.311
-493.551	137.287	-0.071	-0.092
-492.537	33.105	0.137	-0.118
-491.522	-200.000	0.017	0.297
-490.508	-139.987	0.244	0.026
-489.493	-38.677	-0.464	0.243
-488.478	-33.387	0.034	0.018
-487.464	142.664	-0.191	-0.252
-486.449	46.443	0.101	0.093
-485.435	-200.000	-0.078	0.350
-484.420	312.109	-0.051	-0.095
-483.405	301.957	0.155	0.285
-482.391	75.625	0.196	-0.205
-481.376	-31.937	-0.213	-0.118
-480.362	115.765	-0.129	-0.157
-479.347	79.521	0.232	-0.247
-478.332	-55.358	0.293	0.130
-477.318	136.799	-0.091	0.118
-476.303	-18.368	0.180	-0.112
-475.289	113.220	-0.236	0.284
-474.274	-62.428	-0.184	-0.076
-473.259	-200.000	0.023	-0.342
-472.245	445.540	0.041	0.088
-471.230	-149.535	-0.148	0.012
-470.216	3.151	0.195	0.141
-469.201	-21.069	0.224	0.136
-468.186	-152.956	0.059	-0.004
-467.172	-78.212	-0.078	0.027
-466.157	-143.774	-0.136	-0.013
-465.143	-200.000	0.022	0.267
-464.128	-40.468	-0.072	-0.037
-463.113	-89.733	0.066	-0.019
-462.099	89.676	-0.284	0.314
-461.084	-37.335	0.435	-0.231
-460.070	-200.000	0.027	0.261
-459.055	63.824	0.277	0.276
-458.040	261.439	-0.036	-0.061
-457.026	491.474	-0.207	-0.470
-456.011	-83.177	-0.111	0.036
-454.997	252.934	0.016	-0.026
-453.982	-159.735	0.288	0.016
-452.968	-14.815	-0.181	0.115
-451.953	-43.851	0.021	-0.010
-450.938	-149.389	-0.287	0.023
-449.924	169.811	-0.179	-0.254
-448.909	31.945	0.253	-0.216
-447.895	499.707	0.141	0.322
-446.880	-200.000	-0.004	-0.345
-445.865	2.508	0.173	-0.124
-444.851	-177.720	-0.148	-0.004
-443.836	50.784	-0.181	0.170
-442.822	-55.416	0.191	0.085
-441.807	246.206	-0.051	-0.085
-440.792	86.006	0.178	-0.194
-439.778	-200.000	-0.003	-0.186
-438.763	-200.000	-0.076	-0.375
-437.749	-90.970	-0.192	0.055
-436.734	800.000	0.167	0.519
-435.719	758.904	-0.095	-0.255
-434.705	-48.350	0.166	0.079
-433.690	800.000	0.044	0.170
-432.676	-200.000	0.012	0.209
-431.661	-200.000	-0.001	0.086
-430.646	660.781	-0.112	0.287
-429.632	800.000	0.173	-0.569
-428.617	-40.073	0.181	0.093
-427.603	-128.548	0.109	-0.015
-426.588	-200.000	0.007	-0.085
-425.573	-138.103	0.306	-0.034
-424.559	263.336	-0.165	0.285
-423.544	195.662	0.021	-0.032
-422.530	-5.614	-0.271	-0.184
-421.515	241.805	0.082	-0.135
-420.500	-200.000	-0.002	0.058
-419.486	-72.578	0.253	0.092
-418.471	-121.162	-0.177	0.029
-417.457	-69.922	0.163	0.062
-416.442	-200.000	-0.054	-0.331
-415.428	-44.364	-0.084	0.042
-414.413	164.421	-0.164	-0.228
-413.398	325.961	0.198	-0.375
-412.384	23.613	-0.224	-0.182
-411.369	800.000	-0.104	-0.344
-410.355	-171.581	0.273	0.009
-409.340	-200.000	0.017	-0.118
-408.325	213.909	0.089	0.139
-407.311	-59.199	-0.233	0.099
-406.296	352.055	0.174	0.342
-405.282	187.422	-0.242	0.357
-404.267	-200.000	0.013	-0.230
-403.252	-200.000	-0.005	0.028
-402.238	-200.000	0.116	0.576
-401.223	-200.000	0.011	0.110
-400.209	689.608	-0.033	-0.085
-399.194	17.150	0.011	-0.009
-398.179	-200.000	-0.054	-0.326
-397.165	-138.723	-0.092	0.010
-396.150	-41.349	0.232	-0.118
-395.136	-129.902	-0.316	-0.043
-394.121	-87.664	-0.084	0.025
-393.106	800.000	0.064	-0.258
-392.092	800.000	-0.015	-0.049
-391.077	550.762	-0.025	-0.059
-390.063	-200.000	0.024	-0.211
-389.048	-200.000	0.000	0.095
-388.033	-40.959	-0.218	-0.112
-387.019	-98.379	-0.282	0.071
-386.004	-55.434	-0.208	-0.092
-384.990	-143.219	-0.160	0.015
-383.975	85.777	0.074	0.081
-382.960	800.000	0.078	0.290
-381.946	-200.000	-0.033	0.239
-380.931	57.781	-0.068	-0.066
-379.917	152.999	0.213	0.287
-378.902	-66.477	-0.127	-0.050
-377.888	-51.935	-0.352	0.162
-376.873	176.187	0.214	-0.307
-375.858	161.862	0.197	0.272
-374.844	66.526	0.114	-0.115
-373.829	-18.170	-0.232	0.144
-372.815	692.111	0.036	-0.093
-371.800	-200.000	-0.051	0.225
-370.785	-109.184	-0.109	0.023
-369.771	-200.000	0.003	-0.172
-368.756	800.000	0.070	0.260
-367.742	-200.000	-0.031	0.139
-366.727	-200.000	-0.004	0.047
-365.712	-72.481	-0.311	0.114
-364.698	145.538	0.079	0.105
-363.683	800.000	-0.028	-0.112
-362.669	800.000	0.020	-0.083
-361.654	-121.723	-0.329	0.054
-360.639	-123.655	-0.252	0.039
-359.625	156.657	0.178	-0.242
-358.610	550.437	0.015	0.036
-357.596	-200.000	0.025	-0.329
-356.581	564.593	-0.111	0.267
-355.566	-200.000	-0.034	0.323
-354.552	-88.198	-0.295	0.087
-353.537	-40.692	0.251	-0.129
-352.523	-123.883	-0.237	0.037
-351.508	241.364	-0.141	-0.232
-350.493	773.715	0.082	-0.220
-349.479	3.945	-0.227	0.164
-348.464	-105.885	0.160	-0.036
-347.450	61.952	-0.246	0.242
-346.435	4.734	0.080	0.058
-345.420	-190.201	0.451	0.005
-344.406	-32.680	0.192	-0.105
-343.391	252.876	-0.097	-0.163
-342.377	-196.337	-0.025	0.000
-341.362	-65.246	0.098	-0.039
-340.348	-200.000	-0.035	0.319
-339.333	-81.580	-0.061	0.020
-338.318	28.168	0.279	-0.233
-337.304	-168.233	-0.089	-0.003
-336.289	407.993	0.044	-0.092
-335.275	-200.000	0.061	-0.429
-334.260	158.002	-0.068	0.093
-333.245	-136.424	0.128	-0.015
-332.231	-200.000	0.001	-0.066
-331.216	528.070	0.020	0.047
-330.202	72.994	0.114	-0.118
-329.187	-47.403	-0.234	0.112
-328.172	22.607	0.215	0.174
-327.158	800.000	-0.035	0.130
-326.143	-162.148	0.160	0.008
-325.129	120.009	0.141	0.172
-324.114	298.211	-0.060	-0.109
-323.099	139.855	-0.179	0.232
-322.085	-39.887	0.046	0.023
-321.070	-200.000	-0.034	0.175
-320.056	-128.554	-0.047	-0.007
-319.041	296.635	-0.073	-0.132
-318.026	-200.000	-0.009	0.313
-317.012	-200.000	-0.048	0.426
-315.997	94.026	0.120	-0.134
-314.983	-160.028	0.318	0.017
-313.968	634.823	0.005	0.013
-312.953	-60.448	-0.132	0.055
-311.939	-69.101	0.251	-0.095
-310.924	800.000	0.068	-0.269
-309.910	74.889	-0.182	-0.189
-308.895	40.900	-0.088	0.078
-307.880	285.670	-0.132	-0.234
-306.866	19.797	-0.161	-0.127
-305.851	77.568	-0.286	0.300
-304.837	220.300	-0.264	0.418
-303.822	452.094	-0.099	0.216
-302.807	-131.726	0.118	-0.015
-301.793	62.016	0.256	0.251
-300.778	231.733	0.077	-0.124
-299.764	6.688	-0.204	0.150
-298.749	676.654	-0.175	-0.447
-297.735	11.334	0.178	-0.134
-296.720	-62.525	0.507	0.207
-295.705	667.420	0.183	-0.467
-294.691	800.000	-0.115	-0.495
-293.676	-109.071	-0.165	-0.035
-292.662	246.664	0.097	-0.161
-291.647	160.487	-0.265	-0.365
-290.632	45.691	-0.066	-0.060
-289.618	-3.934	-0.115	-0.078
-288.603	800.000	-0.048	-0.186
-287.589	-200.000	0.034	-0.226
-286.574	247.815	-0.182	-0.302
-285.559	-61.103	-0.326	-0.136
-284.545	68.114	0.185	-0.187
-283.530	-184.133	0.364	0.006
-282.516	267.230	0.009	-0.015
-281.501	-200.000	-0.038	-0.227
-280.486	-165.025	-0.288	-0.013
-279.472	99.733	0.156	0.178
-278.457	141.747	0.085	0.110
-277.443	-124.615	-0.218	0.033
-276.428	116.747	-0.016	-0.019
-275.413	-88.331	0.397	0.117
-274.399	237.478	0.128	-0.209
-273.384	147.944	0.119	-0.158
-272.370	-36.485	-0.230	0.122
-271.355	-72.424	-0.075	0.027
-270.340	449.369	-0.078	-0.170
-269.326	-45.182	-0.328	0.161
-268.311	-143.203	0.334	0.032
-267.297	800.000	-0.117	-0.434
-266.282	32.954	0.117	0.100
-265.267	367.055	-0.087	0.173
-264.253	-150.975	0.390	-0.029
-263.238	800.000	-0.036	-0.105
-262.224	-10.686	0.078	0.051
-261.209	775.666	0.023	-0.063
-260.195	569.115	0.064	0.152
-259.180	125.755	-0.213	0.265
-258.165	-106.773	-0.272	-0.059
-257.151	-200.000	0.019	-0.269
-256.136	-89.016	0.197	0.057
-255.122	391.073	0.186	0.381
-254.107	203.872	0.086	-0.132
-253.092	28.295	-0.105	-0.087
-252.078	-47.124	0.066	-0.031
-251.063	35.785	0.196	0.169
-250.049	-200.000	0.039	-0.197
-249.034	-107.092	0.216	0.047
-248.019	-120.051	-0.240	-0.041
-247.005	-155.691	0.200	-0.013
-245.990	-200.000	0.054	0.271
-244.976	-200.000	-0.334	-0.001
-243.961	-8.358	0.406	-0.268
-242.946	-88.889	0.353	-0.103
-241.932	-200.000	-0.048	-0.404
-240.917	46.065	0.212	0.193
-239.903	-200.000	-0.003	0.068
-238.888	159.436	-0.212	0.289
-237.873	800.000	0.095	0.337
-236.859	283.209	0.278	-0.491
-235.844	337.823	0.174	0.333
-234.830	472.733	-0.116	0.256
-233.815	-2.975	0.200	-0.137
-232.800	-68.234	0.113	-0.043
-231.786	-37.734	-0.334	0.175
-230.771	800.000	-0.056	0.190
-229.757	-0.839	0.202	0.140
-228.742	-138.285	0.074	0.008
-227.727	283.322	-0.168	0.296
-226.713	800.000	0.074	-0.210
-225.698	-58.378	-0.368	0.157
-224.684	800.000	0.073	-0.224
-223.669	-60.843	0.055	-0.023
-222.655	7.360	-0.158	0.116
-221.640	234.572	-0.160	-0.260
-220.625	175.296	-0.077	-0.110
-219.611	365.011	0.104	-0.205
-218.596	-28.086	0.216	-0.123
-217.582	-18.786	-0.114	-0.070
-216.567	-0.566	0.129	0.090
-215.552	160.438	0.102	0.139
-214.538	161.495	0.104	0.144
-213.523	-115.247	-0.358	0.066
-212.509	-43.119	-0.171	-0.085
-211.494	109.614	0.124	-0.146
-210.479	17.831	0.387	-0.303
-209.465	-200.000	0.062	0.392
-208.450	-102.736	-0.247	-0.058
-207.436	-200.000	-0.010	0.042
-206.421	-106.754	0.187	0.041
-205.406	-45.891	0.171	0.083
-204.392	800.000	-0.069	-0.275
-203.377	-81.942	0.445	0.143
-202.363	503.214	0.097	-0.221
-201.348	285.571	0.203	-0.359
-200.333	-162.261	-0.352	0.017
-199.319	-132.562	-0.146	0.018
-198.304	-74.520	-0.164	0.058
-197.290	6.955	-0.245	-0.179
-196.275	-96.800	0.222	0.057
-195.260	-52.244	-0.223	0.102
-194.246	-200.000	-0.088	0.467
-193.231	-200.000	-0.009	0.232
-192.217	463.634	0.075	-0.164
-191.202	53.498	0.176	-0.166
-190.187	-62.815	-0.135	0.055
-189.173	-35.963	-0.264	-0.140
-188.158	72.238	0.181	-0.185
-187.144	-126.805	0.091	-0.013
-186.129	113.079	-0.118	0.141
-185.114	-47.935	0.248	0.118
-184.100	655.369	0.043	0.108
-183.085	-60.701	0.225	-0.094
-182.071	800.000	-0.089	0.291
-181.056	-200.000	0.006	-0.090
-180.042	222.488	0.097	0.154
-179.027	196.102	0.160	0.239
-178.012	267.761	-0.192	-0.330
-176.998	15.877	-0.211	0.163
-175.983	-136.610	-0.253	0.029
-174.969	-118.258	0.244	-0.043
-173.954	-23.507	-0.225	0.133
-172.939	-46.974	-0.158	-0.076
-171.925	63.256	-0.184	-0.181
-170.910	-92.206	0.053	-0.015
-169.896	-200.000	-0.004	-0.098
-168.881	506.674	0.101	0.230
-167.866	46.139	0.228	-0.207
-166.852	25.449	-0.170	0.139
-165.837	800.000	0.066	0.182
-164.823	198.841	-0.175	0.263
-163.808	121.087	0.291	0.355
-162.793	-56.573	0.318	-0.138
-161.779	701.477	0.050	-0.129
-160.764	670.375	-0.066	0.167
-159.750	247.261	-0.183	0.303
-158.735	207.052	0.064	-0.097
-157.720	362.047	0.107	-0.210
-156.706	73.212	-0.290	0.297
-155.691	321.350	0.195	0.364
-154.677	-193.597	0.228	-0.002
-153.662	-200.000	-0.008	0.037
-152.647	35.925	-0.244	0.210
-151.633	-71.327	-0.482	-0.177
-150.618	75.392	-0.226	0.234
-149.604	-98.721	-0.147	-0.037
-148.589	-109.839	0.358	0.074
-147.574	479.914	0.131	-0.291
-146.560	158.036	0.121	0.164
-145.545	549.654	-0.080	0.188
-144.531	4.200	0.267	0.191
-143.516	800.000	0.046	0.135
-142.502	-109.252	-0.103	0.021
-141.487	70.010	0.140	0.141
-140.472	-200.000	-0.012	0.309
-139.458	-21.909	0.031	-0.018
-138.443	63.624	0.299	-0.294
-137.429	-61.098	0.099	-0.041
-136.414	-46.577	0.097	-0.046
-135.399	72.940	0.219	-0.224
-134.385	-55.114	-0.371	0.163
-133.370	70.021	0.097	-0.098
-132.356	-105.403	-0.316	-0.070
-131.341	-200.000	-0.003	0.107
-130.326	-23.346	-0.189	-0.111
-129.312	-50.423	-0.058	-0.027
-128.297	258.029	0.121	0.204
-127.283	-3.038	-0.286	0.195
-126.268	-55.204	0.487	-0.215
-125.253	189.786	-0.100	0.147
-124.239	-200.000	-0.029	-0.619
-123.224	-60.108	-0.232	-0.097
-122.210	418.099	0.094	0.196
-121.195	-186.732	-0.431	-0.006
