DTS Sentinel unit serial number:	SN413079Multiplexer serial number:	ORYXHardware model number:	OX4-SRSoftware version number:	ORYX F/W v4.00 Oryx Data Collector v3.7.2.0data status	okinstallation	princeton_trtdifferential loss correction	single-endedforward channel	channel 1reverse channel	N/Adate	2019/09/12time	17:24:11forward acquisition time	60.00reverse acquisition time	0.00gamma	496.2192k internal	0.2315k external	0.2315temperature offset calibration	1.0102default loss term (dB/km)	0.3790temperature slope calibration	1.0000multiplexer offset coefficient	1.0000multiplexer slope coefficient	1.0000fibre end	0.00T internal ref (°C)	34.80T ext. ref 1 (°C)	2.86T ext. ref 2 (°C)	28.72length (m)	temperature (°C)	Stokes	anti-Stokes-747.200	-36.740	0.317	0.172
-746.185	800.000	-0.227	0.670
-745.171	64.799	-0.133	-0.136
-744.156	81.079	-0.274	0.300
-743.142	642.686	-0.083	0.214
-742.127	-200.000	0.017	0.112
-741.112	211.196	0.077	-0.122
-740.098	800.000	-0.032	-0.142
-739.083	97.228	0.073	-0.085
-738.069	119.117	-0.009	0.012
-737.054	-141.706	-0.226	0.023
-736.039	-85.075	-0.353	0.112
-735.025	317.262	0.065	0.124
-734.010	-118.045	-0.078	0.014
-732.996	36.859	-0.228	-0.205
-731.981	-200.000	0.005	-0.178
-730.966	104.801	0.255	0.305
-729.952	-200.000	-0.004	-0.248
-728.937	284.559	-0.072	0.132
-727.923	575.403	0.116	0.287
-726.908	-200.000	0.043	-0.254
-725.894	-28.443	-0.125	-0.073
-724.879	800.000	-0.027	0.089
-723.864	-200.000	0.007	0.092
-722.850	-141.981	0.146	-0.015
-721.835	88.939	-0.247	-0.278
-720.821	129.653	-0.111	-0.143
-719.806	-39.758	0.062	-0.033
-718.791	84.079	-0.038	0.042
-717.777	-200.000	0.012	0.196
-716.762	-200.000	0.024	-0.260
-715.748	-19.220	-0.110	-0.069
-714.733	-200.000	0.011	-0.109
-713.718	800.000	0.049	0.200
-712.704	-134.477	0.161	0.020
-711.689	121.649	-0.110	-0.139
-710.675	29.303	0.166	-0.142
-709.660	-200.000	-0.018	-0.119
-708.645	471.070	-0.066	0.150
-707.631	800.000	-0.048	0.171
-706.616	800.000	-0.110	-0.347
-705.602	165.864	-0.068	-0.097
-704.587	800.000	-0.030	0.133
-703.572	-94.651	0.210	-0.058
-702.558	591.865	-0.129	0.322
-701.543	-144.547	0.243	0.023
-700.529	-57.623	-0.351	-0.156
-699.514	-170.213	0.100	-0.004
-698.499	766.835	-0.042	0.116
-697.485	-59.162	0.079	0.034
-696.470	-141.331	-0.192	0.020
-695.456	-200.000	0.016	0.186
-694.441	88.090	-0.053	0.059
-693.426	-31.529	-0.250	0.142
-692.412	-34.181	-0.424	0.235
-691.397	39.970	-0.237	-0.215
-690.383	-140.426	0.275	0.029
-689.368	-200.000	0.026	0.144
-688.354	-200.000	-0.027	-0.215
-687.339	-56.484	0.078	-0.035
-686.324	800.000	-0.034	0.128
-685.310	-32.908	0.114	-0.064
-684.295	-68.178	-0.505	-0.199
-683.281	187.203	-0.055	-0.082
-682.266	-114.513	-0.160	0.031
-681.251	-200.000	0.025	-0.176
-680.237	-200.000	0.006	0.146
-679.222	-11.516	0.088	-0.059
-678.208	-112.694	-0.347	0.070
-677.193	218.812	0.037	-0.059
-676.178	-151.677	0.144	-0.011
-675.164	-122.448	-0.101	0.017
-674.149	187.683	0.068	-0.102
-673.135	156.603	0.097	0.136
-672.120	800.000	-0.103	-0.297
-671.105	-100.035	0.160	-0.040
-670.091	-115.931	-0.273	-0.052
-669.076	-200.000	0.034	-0.201
-668.062	94.112	0.090	-0.103
-667.047	-200.000	-0.005	-0.046
-666.032	-200.000	0.073	0.402
-665.018	-21.698	-0.146	-0.090
-664.003	530.614	0.213	-0.508
-662.989	-41.776	-0.198	-0.103
-661.974	-99.083	-0.381	0.097
-660.959	-102.375	-0.126	0.030
-659.945	-120.942	-0.084	0.014
-658.930	-146.876	0.144	-0.012
-657.916	800.000	0.138	0.539
-656.901	42.582	-0.145	-0.134
-655.886	77.415	-0.348	-0.374
-654.872	-200.000	0.007	-0.064
-653.857	-18.818	-0.483	-0.304
-652.843	50.842	0.168	0.160
-651.828	-78.059	-0.049	0.017
-650.814	383.210	0.079	0.164
-649.799	-200.000	0.014	0.158
-648.784	-86.755	-0.086	0.026
-647.770	-200.000	-0.029	-0.204
-646.755	151.638	0.189	-0.260
-645.741	0.968	0.187	-0.135
-644.726	-200.000	0.010	-0.076
-643.711	800.000	-0.043	0.162
-642.697	-37.988	0.034	-0.018
-641.682	330.823	-0.254	-0.494
-640.668	-85.642	-0.339	-0.106
-639.653	377.194	-0.176	0.364
-638.638	340.001	0.060	-0.118
-637.624	-130.450	-0.197	-0.027
-636.609	719.700	-0.046	-0.122
-635.595	266.375	0.101	-0.178
-634.580	28.733	-0.150	-0.128
-633.565	-87.208	-0.121	-0.037
-632.551	32.975	-0.209	-0.183
-631.536	-66.528	-0.288	0.115
-630.522	-171.975	-0.218	-0.007
-629.507	-30.799	0.073	0.042
-628.492	-200.000	0.036	-0.350
-627.478	-61.825	0.180	0.076
-626.463	411.092	0.146	-0.313
-625.449	-143.871	-0.147	-0.014
-624.434	800.000	-0.064	-0.206
-623.419	800.000	-0.120	-0.477
-622.405	262.831	0.255	-0.447
-621.390	-92.739	0.334	0.094
-620.376	-16.624	-0.074	-0.048
-619.361	-117.382	-0.277	0.051
-618.346	800.000	-0.081	-0.226
-617.332	-200.000	-0.031	0.191
-616.317	202.464	-0.154	0.240
-615.303	800.000	0.077	0.294
-614.288	-200.000	-0.012	-0.104
-613.273	-37.366	-0.293	0.158
-612.259	-200.000	-0.024	-0.262
-611.244	-200.000	-0.045	0.397
-610.230	-132.874	0.578	-0.074
-609.215	275.164	0.188	0.335
-608.201	22.695	-0.156	-0.129
-607.186	215.748	0.058	0.093
-606.171	-138.041	0.356	-0.040
-605.157	106.871	-0.168	-0.201
-604.142	800.000	-0.069	-0.237
-603.128	144.203	0.189	0.254
-602.113	-200.000	-0.034	0.225
-601.098	137.959	-0.148	0.196
-600.084	-189.384	0.152	-0.002
-599.069	-200.000	0.029	-0.226
-598.055	211.265	0.087	-0.138
-597.040	800.000	-0.027	0.097
-596.025	-200.000	0.023	-0.223
-595.011	-1.174	0.121	-0.086
-593.996	-14.963	0.230	0.148
-592.982	-62.569	0.196	0.082
-591.967	-41.001	0.206	-0.107
-590.952	29.315	0.322	-0.275
-589.938	-200.000	-0.030	-0.183
-588.923	-28.325	-0.105	0.061
-587.909	800.000	-0.037	-0.152
-586.894	-119.814	0.330	0.057
-585.879	-200.000	-0.006	-0.134
-584.865	160.911	-0.212	0.299
-583.850	21.567	-0.079	-0.065
-582.836	800.000	-0.112	-0.427
-581.821	-8.491	-0.122	-0.083
-580.806	144.264	-0.220	0.296
-579.792	-30.892	0.293	0.167
-578.777	-165.349	0.386	0.017
-577.763	800.000	0.052	0.227
-576.748	-149.121	-0.055	0.004
-575.733	-200.000	0.052	0.265
-574.719	-126.010	-0.293	-0.044
-573.704	21.405	0.153	0.125
-572.690	-164.620	-0.105	-0.005
-571.675	-82.966	-0.116	0.038
-570.661	-200.000	-0.035	-0.296
-569.646	800.000	-0.042	0.129
-568.631	-79.396	0.115	-0.039
-567.617	800.000	0.079	0.310
-566.602	-127.856	-0.253	-0.037
-565.588	399.934	-0.067	0.141
-564.573	16.158	0.385	-0.305
-563.558	226.784	-0.078	0.128
-562.544	562.034	0.023	0.055
-561.529	173.858	-0.116	0.169
-560.515	-110.553	0.015	0.003
-559.500	0.365	-0.246	0.177
-558.485	-86.186	0.152	-0.047
-557.471	356.306	-0.093	0.186
-556.456	-116.796	0.335	-0.062
-555.442	-200.000	0.021	0.110
-554.427	48.327	-0.149	-0.140
-553.412	513.269	0.054	0.127
-552.398	-200.000	-0.009	-0.127
-551.383	-200.000	0.031	0.269
-550.369	-134.783	0.077	0.009
-549.354	800.000	0.086	0.247
-548.339	-200.000	-0.050	-0.531
-547.325	-45.443	-0.255	-0.127
-546.310	-61.604	-0.066	-0.028
-545.296	-168.491	-0.062	-0.002
-544.281	-25.195	-0.209	0.125
-543.266	42.376	-0.095	-0.087
-542.252	-56.977	-0.339	-0.150
-541.237	136.923	-0.084	-0.111
-540.223	-48.939	-0.332	-0.160
-539.208	-100.392	-0.269	-0.067
-538.193	-200.000	0.023	-0.431
-537.179	-90.284	0.167	-0.049
-536.164	26.973	0.124	0.104
-535.150	743.867	0.116	0.313
-534.135	373.656	-0.049	-0.100
-533.121	-127.786	-0.193	-0.028
-532.106	69.991	-0.094	-0.097
-531.091	560.403	-0.039	-0.095
-530.077	-200.000	-0.007	0.157
-529.062	-200.000	0.023	-0.277
-528.048	-5.589	-0.123	-0.085
-527.033	458.803	-0.095	-0.211
-526.018	-200.000	0.008	-0.187
-525.004	800.000	-0.189	0.681
-523.989	508.541	0.013	0.029
-522.975	130.892	0.074	-0.096
-521.960	140.852	0.182	-0.242
-520.945	-174.116	0.248	0.007
-519.931	800.000	-0.116	0.350
-518.916	293.625	-0.056	0.102
-517.902	-200.000	-0.042	-0.198
-516.887	-80.892	0.187	-0.062
-515.872	-200.000	-0.034	0.262
-514.858	40.212	0.031	0.028
-513.843	-200.000	-0.000	0.319
-512.829	51.632	0.211	0.201
-511.814	66.613	-0.127	0.129
-510.799	55.706	-0.156	0.152
-509.785	-72.011	-0.092	0.034
-508.770	800.000	-0.078	-0.328
-507.756	-130.495	-0.102	-0.014
-506.741	266.249	0.182	0.320
-505.726	-152.675	-0.286	0.020
-504.712	-200.000	0.047	-0.490
-503.697	-157.599	0.213	0.013
-502.683	800.000	-0.019	-0.076
-501.668	80.716	0.059	-0.064
-500.653	-200.000	-0.041	-0.270
-499.639	113.955	0.111	-0.135
-498.624	-200.000	0.050	-0.252
-497.610	412.368	-0.082	-0.174
-496.595	-59.067	-0.041	0.018
-495.581	-140.996	-0.006	-0.001
-494.566	-96.734	-0.204	-0.054
-493.551	-200.000	-0.050	-0.472
-492.537	-200.000	-0.030	-0.181
-491.522	172.123	-0.155	-0.224
-490.508	22.641	-0.055	-0.045
-489.493	631.923	0.105	-0.267
-488.478	8.196	0.113	-0.085
-487.464	-26.092	0.407	-0.240
-486.449	112.343	0.212	-0.258
-485.435	-95.877	-0.140	0.037
-484.420	-123.020	0.369	-0.060
-483.405	800.000	0.034	0.133
-482.391	-200.000	0.047	0.307
-481.376	-151.688	0.058	-0.004
-480.362	-84.407	0.208	0.066
-479.347	-1.166	-0.241	0.171
-478.332	67.335	-0.113	0.116
-477.318	800.000	-0.024	-0.090
-476.303	-87.769	-0.141	0.043
-475.289	-138.066	0.285	0.032
-474.274	-163.709	-0.286	0.014
-473.259	-48.326	-0.239	-0.116
-472.245	99.794	-0.074	-0.086
-471.230	13.664	0.173	-0.135
-470.216	-110.420	0.050	0.010
-469.201	-45.671	-0.196	0.097
-468.186	210.245	0.111	0.175
-467.172	-68.452	0.206	0.080
-466.157	-200.000	0.024	-0.141
-465.143	-191.531	0.119	-0.001
-464.128	219.431	0.156	-0.251
-463.113	72.894	-0.100	-0.104
-462.099	83.461	0.137	0.150
-461.084	-200.000	-0.033	-0.147
-460.070	65.908	0.174	0.177
-459.055	3.336	0.168	-0.123
-458.040	23.569	0.053	0.044
-457.026	-12.063	-0.513	0.337
-456.011	-13.173	-0.119	0.078
-454.997	-2.365	0.249	-0.175
-453.982	790.861	-0.087	0.239
-452.968	-200.000	0.057	0.305
-451.953	449.300	0.101	-0.222
-450.938	-200.000	-0.033	-0.148
-449.924	33.880	0.197	-0.172
-448.909	-87.606	0.176	-0.053
-447.895	800.000	0.093	-0.278
-446.880	-200.000	0.005	-0.216
-445.865	-64.169	0.259	-0.106
-444.851	800.000	0.149	0.417
-443.836	-70.687	-0.253	-0.096
-442.822	-174.905	0.338	0.009
-441.807	18.261	0.201	0.161
-440.792	325.220	-0.028	0.055
-439.778	-200.000	0.035	0.252
-438.763	-7.986	-0.404	-0.273
-437.749	-200.000	-0.013	0.429
-436.734	-200.000	-0.013	-0.309
-435.719	465.112	0.084	-0.189
-434.705	138.637	-0.186	0.245
-433.690	-90.819	-0.128	-0.037
-432.676	137.206	-0.166	-0.218
-431.661	-200.000	-0.014	-0.230
-430.646	33.185	0.096	-0.084
-429.632	-200.000	-0.015	-0.137
-428.617	154.754	-0.068	-0.093
-427.603	-14.315	-0.071	-0.046
-426.588	800.000	0.051	0.225
-425.573	-13.213	0.137	0.089
-424.559	-64.619	0.245	0.099
-423.544	-84.452	0.425	0.134
-422.530	237.659	0.124	-0.205
-421.515	-200.000	-0.018	-0.353
-420.500	-200.000	0.003	0.022
-419.486	69.764	0.265	-0.273
-418.471	227.021	0.135	-0.220
-417.457	800.000	0.021	0.074
-416.442	-200.000	-0.015	-0.185
-415.428	-49.947	-0.073	-0.035
-414.413	-93.116	0.221	-0.062
-413.398	-200.000	0.087	0.466
-412.384	-80.111	-0.191	-0.064
-411.369	234.807	-0.079	0.130
-410.355	-200.000	-0.001	-0.180
-409.340	-200.000	0.003	-0.269
-408.325	41.274	0.148	0.134
-407.311	80.907	-0.150	-0.162
-406.296	260.277	-0.149	0.258
-405.282	-19.420	-0.463	-0.287
-404.267	-200.000	0.015	0.346
-403.252	-94.428	-0.236	-0.064
-402.238	-44.073	0.351	0.176
-401.223	33.925	0.091	0.079
-400.209	-200.000	-0.069	-0.345
-399.194	158.206	-0.058	-0.080
-398.179	-200.000	0.014	-0.227
-397.165	-24.789	-0.206	0.122
-396.150	7.025	-0.193	0.144
-395.136	133.602	-0.114	0.147
-394.121	-46.522	-0.200	0.098
-393.106	-30.929	-0.261	-0.147
-392.092	-200.000	0.076	0.464
-391.077	-36.909	0.239	0.128
-390.063	-86.208	0.014	-0.004
-389.048	231.628	-0.091	-0.150
-388.033	217.016	0.141	0.225
-387.019	800.000	-0.123	0.383
-386.004	98.974	0.223	-0.258
-384.990	13.794	0.188	-0.146
-383.975	-74.250	0.113	-0.041
-382.960	-70.967	-0.105	0.039
-381.946	-128.798	0.338	-0.048
-380.931	112.443	0.146	0.176
-379.917	-156.507	-0.220	-0.014
-378.902	59.631	0.213	-0.209
-377.888	-152.581	0.422	-0.030
-376.873	-65.519	-0.341	-0.137
-375.858	-49.992	0.363	0.172
-374.844	-57.033	-0.272	-0.120
-373.829	-200.000	-0.003	-0.147
-372.815	-200.000	-0.198	-0.001
-371.800	28.735	-0.150	0.127
-370.785	-200.000	0.008	0.037
-369.771	-112.676	-0.141	-0.028
-368.756	45.008	0.256	0.235
-367.742	561.248	0.119	0.287
-366.727	42.201	0.043	-0.039
-365.712	-106.813	0.145	-0.032
-364.698	-14.415	-0.144	-0.092
-363.683	-200.000	-0.023	0.258
-362.669	800.000	-0.094	-0.298
-361.654	-147.547	0.390	-0.033
-360.639	800.000	0.013	0.051
-359.625	24.287	-0.031	-0.026
-358.610	193.420	-0.093	-0.140
-357.596	117.554	-0.217	-0.267
-356.581	-200.000	-0.021	-0.187
-355.566	-93.198	-0.263	0.073
-354.552	124.489	0.152	-0.191
-353.537	-120.997	0.128	0.021
-352.523	-200.000	0.033	0.235
-351.508	-75.616	0.336	-0.119
-350.493	-103.751	0.266	0.062
-349.479	800.000	0.044	0.188
-348.464	-200.000	-0.012	0.171
-347.450	3.782	-0.167	0.122
-346.435	28.339	0.095	0.080
-345.420	-54.152	-0.203	0.092
-344.406	672.799	-0.114	0.295
-343.391	-102.027	-0.092	-0.022
-342.377	800.000	-0.029	-0.093
-341.362	-39.158	-0.157	-0.082
-340.348	-123.918	0.310	-0.049
-339.333	14.961	-0.061	-0.047
-338.318	-71.526	-0.185	-0.069
-337.304	100.029	0.062	-0.072
-336.289	-200.000	-0.023	-0.316
-335.275	-22.624	-0.075	-0.045
-334.260	-200.000	-0.056	0.262
-333.245	800.000	0.036	0.145
-332.231	48.922	-0.061	0.057
-331.216	-91.077	-0.262	0.075
-330.202	37.669	0.090	-0.080
-329.187	22.010	-0.091	-0.074
-328.172	-29.734	-0.155	0.088
-327.158	800.000	0.117	-0.405
-326.143	800.000	0.044	-0.122
-325.129	236.612	-0.128	0.212
-324.114	800.000	0.102	0.322
-323.099	143.133	-0.085	-0.113
-322.085	-200.000	-0.003	-0.283
-321.070	347.124	-0.291	-0.570
-320.056	140.476	-0.107	-0.140
-319.041	747.252	-0.140	-0.375
-318.026	491.115	0.106	0.242
-317.012	509.192	-0.101	0.235
-315.997	-22.787	-0.120	0.072
-314.983	217.078	0.115	-0.183
-313.968	-165.941	-0.073	-0.003
-312.953	273.217	-0.104	-0.183
-311.939	-154.338	0.135	0.009
-310.924	5.897	-0.150	0.111
-309.910	800.000	0.139	-0.539
-308.895	-200.000	0.032	0.399
-307.880	239.849	-0.097	0.160
-306.866	-126.806	-0.101	-0.015
-305.851	-151.340	0.202	0.015
-304.837	-145.164	0.094	-0.008
-303.822	262.492	-0.164	0.284
-302.807	-43.683	0.062	-0.031
-301.793	800.000	0.045	-0.130
-300.778	46.308	-0.102	0.094
-299.764	-176.292	0.206	-0.005
-298.749	800.000	-0.115	0.335
-297.735	239.766	-0.207	0.343
-296.720	800.000	-0.037	0.135
-295.705	-200.000	0.023	-0.213
-294.691	114.848	0.197	-0.239
-293.676	148.802	-0.097	0.131
-292.662	321.129	-0.124	0.235
-291.647	160.004	0.138	0.192
-290.632	800.000	0.039	0.138
-289.618	213.577	0.274	0.431
-288.603	304.084	0.172	0.318
-287.589	560.835	-0.026	-0.062
-286.574	170.285	-0.073	0.104
-285.559	-27.595	0.102	-0.059
-284.545	61.384	0.021	0.021
-283.530	-111.880	0.218	0.044
-282.516	-200.000	-0.003	-0.133
-281.501	-200.000	-0.006	-0.055
-280.486	320.378	-0.072	-0.136
-279.472	102.467	-0.195	0.227
-278.457	-33.916	-0.148	-0.081
-277.443	-200.000	-0.017	0.399
-276.428	-143.719	-0.372	-0.035
-275.413	-148.069	0.119	0.010
-274.399	-154.961	0.154	0.010
-273.384	-15.581	0.075	0.048
-272.370	302.478	-0.270	0.498
-271.355	-115.208	-0.107	-0.020
-270.340	-77.352	0.187	-0.065
-269.326	-1.280	0.166	-0.117
-268.311	407.383	-0.066	0.139
-267.297	-200.000	-0.015	0.430
-266.282	40.196	0.199	-0.178
-265.267	126.424	-0.020	0.025
-264.253	138.849	-0.266	-0.348
-263.238	30.770	0.145	-0.123
-262.224	254.720	-0.063	-0.107
-261.209	334.321	-0.164	0.316
-260.195	12.671	0.421	0.323
-259.180	321.616	0.109	0.207
-258.165	165.271	0.193	0.271
-257.151	-31.065	0.085	0.048
-256.136	-113.594	-0.193	0.038
-255.122	402.608	0.076	0.159
-254.107	-53.356	-0.106	-0.048
-253.092	68.587	0.137	-0.140
-252.078	-49.986	0.100	0.047
-251.063	142.175	0.128	0.169
-250.049	-12.229	-0.398	0.259
-249.034	-200.000	0.022	0.260
-248.019	23.187	-0.385	-0.314
-247.005	85.509	0.186	0.203
-245.990	28.525	-0.204	0.171
-244.976	-167.136	0.283	0.011
-243.961	-74.294	-0.177	0.064
-242.946	-123.048	-0.282	0.045
-241.932	800.000	-0.066	0.225
-240.917	146.724	-0.149	-0.199
-239.903	-67.745	0.091	0.035
-238.888	161.770	-0.103	-0.144
-237.873	86.152	0.165	-0.181
-236.859	-23.106	0.143	0.085
-235.844	800.000	-0.082	-0.282
-234.830	117.729	0.237	-0.290
-233.815	-200.000	0.049	-0.379
-232.800	681.972	-0.049	-0.126
-231.786	-200.000	-0.069	0.364
-230.771	-48.306	-0.089	0.043
-229.757	303.648	0.115	0.212
-228.742	-88.905	-0.163	-0.048
-227.727	401.361	0.106	0.222
-226.713	800.000	0.096	0.329
-225.698	11.771	-0.256	-0.195
-224.684	-70.744	0.140	-0.052
-223.669	458.520	-0.059	-0.130
-222.655	-46.002	-0.072	-0.035
-221.640	-87.302	-0.405	0.122
-220.625	54.370	-0.255	-0.244
-219.611	488.388	-0.072	-0.162
-218.596	-200.000	-0.056	0.400
-217.582	-57.806	-0.055	-0.024
-216.567	17.905	-0.195	-0.154
-215.552	800.000	0.112	0.426
-214.538	-122.975	-0.274	-0.044
-213.523	163.106	-0.042	0.059
-212.509	-156.955	0.124	0.008
-211.494	343.303	-0.188	-0.365
-210.479	39.149	-0.135	-0.120
-209.465	268.078	0.099	-0.172
-208.450	-189.633	-0.183	-0.002
-207.436	144.442	0.174	0.231
-206.421	41.733	-0.121	0.109
-205.406	20.980	0.177	-0.143
-204.392	-32.497	0.142	-0.078
-203.377	-47.641	0.320	0.154
-202.363	273.480	-0.080	0.140
-201.348	-61.246	0.536	0.224
-200.333	144.547	0.167	0.222
-199.319	151.225	-0.052	-0.071
-198.304	179.930	-0.043	-0.062
-197.290	800.000	0.067	0.255
-196.275	-92.506	-0.252	0.070
-195.260	99.461	0.106	0.122
-194.246	-146.723	0.376	-0.032
-193.231	800.000	-0.034	0.131
-192.217	-200.000	-0.015	0.168
-191.202	-200.000	-0.010	0.092
-190.187	12.694	-0.266	0.204
-189.173	-106.357	0.177	0.039
-188.158	42.554	-0.320	-0.289
-187.144	-59.393	0.084	-0.036
-186.129	-200.000	0.067	0.372
-185.114	-50.875	0.318	-0.148
-184.100	-132.650	-0.111	-0.014
-183.085	723.519	0.071	0.187
-182.071	-95.799	-0.190	-0.050
-181.056	66.086	0.213	-0.215
-180.042	-155.798	0.362	-0.023
-179.027	-111.202	0.304	-0.062
-178.012	-92.125	-0.079	-0.022
-176.998	215.499	0.049	0.078
-175.983	16.680	-0.230	0.181
-174.969	-64.355	0.248	-0.100
-173.954	-200.000	0.039	0.207
-172.939	-152.511	0.194	0.014
-171.925	10.499	-0.141	0.106
-170.910	-84.668	0.359	0.112
-169.896	217.956	0.071	-0.113
-168.881	554.884	-0.060	-0.143
-167.866	169.520	0.095	-0.134
-166.852	-39.451	-0.204	0.106
-165.837	128.563	0.109	-0.138
-164.823	385.500	-0.040	0.081
-163.808	-37.536	0.059	-0.031
-162.793	243.334	0.154	0.255
-161.779	-200.000	-0.011	-0.203
-160.764	-200.000	0.029	-0.285
-159.750	239.513	-0.028	0.046
-158.735	205.277	0.092	0.142
-157.720	-29.352	-0.275	-0.156
-156.706	-12.863	-0.231	0.149
-155.691	-20.773	-0.226	0.137
-154.677	-176.843	-0.267	-0.007
-153.662	-92.589	-0.111	0.031
-152.647	314.187	0.083	0.155
-151.633	-200.000	0.004	-0.093
-150.618	-62.189	0.258	0.107
-149.604	136.883	-0.078	0.101
-148.589	-200.000	0.008	0.159
-147.574	19.677	-0.125	-0.100
-146.560	-200.000	0.019	0.170
-145.545	213.341	0.253	0.395
-144.531	68.717	0.321	0.326
-143.516	-143.412	0.134	-0.013
-142.502	93.069	0.432	0.483
-141.487	268.651	0.106	0.184
-140.472	1.950	0.133	0.095
-139.458	-68.769	0.193	-0.074
-138.443	-126.821	0.356	0.052
-137.429	157.108	-0.088	-0.120
-136.414	57.408	-0.224	-0.216
-135.399	187.181	0.153	-0.226
-134.385	-52.442	-0.203	-0.093
-133.370	800.000	0.079	-0.279
-132.356	158.777	0.187	0.257
-131.341	411.104	-0.097	-0.203
-130.326	104.615	-0.252	-0.293
-129.312	432.552	-0.099	0.213
-128.297	-200.000	-0.020	-0.088
-127.283	-200.000	-0.010	0.093
-126.268	-123.116	0.139	0.022
-125.253	4.516	-0.293	0.212
-124.239	800.000	-0.075	-0.233
-123.224	414.242	0.128	0.270
-122.210	-38.380	0.150	0.078
