DTS Sentinel unit serial number:	SN413079Multiplexer serial number:	ORYXHardware model number:	OX4-SRSoftware version number:	ORYX F/W v4.00 Oryx Data Collector v3.7.2.0data status	okinstallation	princeton_trtdifferential loss correction	single-endedforward channel	channel 1reverse channel	N/Adate	2019/09/13time	10:50:35forward acquisition time	60.00reverse acquisition time	0.00gamma	496.2192k internal	0.2320k external	0.2320temperature offset calibration	1.0156default loss term (dB/km)	0.3790temperature slope calibration	1.0000multiplexer offset coefficient	1.0000multiplexer slope coefficient	1.0000fibre end	0.00T internal ref (°C)	31.67T ext. ref 1 (°C)	4.59T ext. ref 2 (°C)	28.28length (m)	temperature (°C)	Stokes	anti-Stokes-747.200	-13.278	0.027	-0.018
-746.185	34.926	-0.236	0.209
-745.171	-12.963	0.066	-0.043
-744.156	800.000	0.067	-0.282
-743.142	29.781	0.205	-0.177
-742.127	30.209	0.143	0.123
-741.112	-41.008	-0.202	0.105
-740.098	184.208	0.154	0.231
-739.083	-200.000	-0.001	0.062
-738.069	-140.364	-0.366	0.039
-737.054	221.967	0.102	0.166
-736.039	800.000	-0.025	-0.091
-735.025	-53.247	0.204	0.095
-734.010	114.238	-0.170	0.209
-732.996	21.711	-0.083	-0.069
-731.981	-102.338	0.214	-0.052
-730.966	-136.449	-0.414	0.049
-729.952	160.539	0.115	-0.163
-728.937	773.675	-0.169	-0.465
-727.923	800.000	-0.067	-0.216
-726.908	-200.000	0.029	-0.134
-725.894	317.921	-0.074	0.141
-724.879	34.280	-0.411	0.362
-723.864	-200.000	-0.008	0.241
-722.850	396.223	-0.180	0.380
-721.835	-115.330	-0.194	-0.037
-720.821	800.000	-0.057	-0.180
-719.806	330.637	-0.021	0.040
-718.791	-40.008	0.126	-0.067
-717.777	6.824	-0.131	0.099
-716.762	-18.759	-0.148	0.093
-715.748	-89.142	0.174	-0.052
-714.733	-200.000	-0.000	0.018
-713.718	65.277	-0.118	0.121
-712.704	-79.537	0.073	0.025
-711.689	199.479	0.135	0.209
-710.675	-40.238	-0.309	-0.162
-709.660	-119.359	0.316	0.056
-708.645	148.573	-0.045	0.062
-707.631	-37.451	-0.235	-0.127
-706.616	-200.000	-0.023	-0.141
-705.602	-200.000	0.000	-0.259
-704.587	-90.104	0.174	-0.051
-703.572	-112.918	0.268	0.053
-702.558	4.872	-0.154	-0.114
-701.543	166.037	-0.057	0.082
-700.529	-200.000	-0.001	0.316
-699.514	-112.621	0.172	-0.034
-698.499	-200.000	-0.019	0.142
-697.485	89.111	0.086	-0.097
-696.470	37.276	-0.221	0.198
-695.456	-106.020	0.252	-0.057
-694.441	404.794	-0.124	0.263
-693.426	-42.277	-0.122	-0.063
-692.412	88.554	0.156	0.175
-691.397	-14.917	-0.207	-0.134
-690.383	-118.746	-0.042	-0.007
-689.368	-200.000	-0.017	-0.253
-688.354	6.921	0.101	0.076
-687.339	-146.272	-0.229	0.020
-686.324	-103.908	-0.232	-0.055
-685.310	-189.524	0.057	0.001
-684.295	285.836	-0.145	-0.263
-683.281	-200.000	-0.029	-0.224
-682.266	-88.385	0.486	-0.146
-681.251	13.854	0.178	-0.139
-680.237	428.724	0.052	0.114
-679.222	-200.000	-0.032	-0.231
-678.208	444.379	-0.126	0.278
-677.193	78.407	-0.075	0.081
-676.178	23.608	0.100	0.083
-675.164	800.000	-0.041	-0.124
-674.149	432.294	0.206	0.450
-673.135	-25.816	0.194	0.115
-672.120	431.723	0.191	-0.417
-671.105	158.218	-0.230	0.321
-670.091	-150.730	0.344	-0.026
-669.076	378.260	-0.080	0.164
-668.062	800.000	0.029	-0.093
-667.047	-200.000	-0.041	-0.315
-666.032	800.000	0.064	-0.236
-665.018	800.000	0.056	0.236
-664.003	136.089	-0.087	-0.114
-662.989	85.279	0.050	0.056
-661.974	-87.262	-0.155	-0.047
-660.959	-134.509	-0.028	-0.003
-659.945	91.404	0.066	-0.075
-658.930	-24.166	-0.226	0.136
-657.916	-12.356	-0.269	0.177
-656.901	-200.000	-0.009	-0.167
-655.886	800.000	0.090	0.379
-654.872	551.656	-0.006	-0.015
-653.857	273.052	0.126	-0.225
-652.843	5.355	0.183	0.136
-651.828	-116.258	0.040	0.007
-650.814	-9.959	0.218	0.146
-649.799	800.000	0.052	0.149
-648.784	10.713	0.112	0.086
-647.770	-25.959	-0.279	0.165
-646.755	24.576	-0.179	-0.149
-645.741	-200.000	0.078	0.366
-644.726	75.436	-0.125	0.133
-643.711	-67.691	0.473	-0.187
-642.697	-12.920	0.198	-0.130
-641.682	9.865	0.147	0.112
-640.668	-153.181	0.186	-0.013
-639.653	-155.656	-0.291	0.019
-638.638	-122.450	0.229	0.037
-637.624	-200.000	0.044	-0.320
-636.609	176.438	0.158	0.231
-635.595	-60.820	0.243	0.104
-634.580	3.059	0.257	0.188
-633.565	-32.434	-0.240	0.135
-632.551	-191.397	-0.240	-0.002
-631.536	425.614	-0.098	-0.214
-630.522	65.459	-0.205	0.209
-629.507	-200.000	0.010	0.096
-628.492	-200.000	0.010	0.146
-627.478	-200.000	-0.043	-0.194
-626.463	-200.000	-0.006	0.119
-625.449	-200.000	-0.016	-0.253
-624.434	-200.000	-0.004	-0.112
-623.419	800.000	0.008	0.029
-622.405	-60.361	0.316	0.135
-621.390	-200.000	0.026	0.330
-620.376	81.060	-0.144	-0.157
-619.361	800.000	-0.038	-0.116
-618.346	189.217	-0.193	-0.291
-617.332	190.557	0.103	0.156
-616.317	-103.297	0.414	0.098
-615.303	800.000	0.033	-0.125
-614.288	-200.000	-0.005	-0.266
-613.273	10.406	-0.171	0.131
-612.259	164.934	-0.142	-0.201
-611.244	800.000	-0.035	-0.123
-610.230	-200.000	0.010	-0.274
-609.215	-78.917	0.188	-0.064
-608.201	-200.000	0.030	0.178
-607.186	43.075	0.319	-0.293
-606.171	-25.824	-0.194	-0.115
-605.157	-55.298	-0.206	0.093
-604.142	334.516	0.193	-0.376
-603.128	41.528	-0.148	-0.135
-602.113	11.731	-0.183	0.142
-601.098	547.641	0.021	-0.051
-600.084	-123.596	-0.386	0.062
-599.069	65.659	0.190	0.193
-598.055	571.475	0.078	0.190
-597.040	200.734	-0.085	0.132
-596.025	-15.659	-0.328	0.210
-595.011	-125.455	0.225	-0.034
-593.996	-13.299	0.361	-0.236
-592.982	273.646	-0.067	-0.120
-591.967	-88.542	0.148	0.044
-590.952	354.592	0.054	0.108
-589.938	800.000	-0.078	0.338
-588.923	-17.424	0.168	0.106
-587.909	800.000	0.064	0.220
-586.894	800.000	0.051	0.202
-585.879	124.710	-0.224	-0.284
-584.865	236.238	-0.150	0.249
-583.850	-200.000	0.014	0.195
-582.836	800.000	-0.080	0.237
-581.821	133.652	0.067	0.087
-580.806	-126.781	0.143	0.021
-579.792	-200.000	0.081	-0.362
-578.777	576.745	0.171	0.419
-577.763	392.418	-0.078	0.163
-576.748	-51.658	0.243	-0.114
-575.733	-200.000	-0.077	-0.366
-574.719	576.236	0.151	0.372
-573.704	266.571	0.132	0.231
-572.690	-43.627	-0.150	0.076
-571.675	462.844	-0.142	0.318
-570.661	-200.000	0.050	0.293
-569.646	800.000	0.044	-0.123
-568.631	68.271	0.154	-0.158
-567.617	-81.160	-0.067	0.022
-566.602	800.000	-0.093	0.309
-565.588	-200.000	0.022	-0.112
-564.573	773.694	-0.070	0.193
-563.558	54.808	0.119	0.115
-562.544	115.213	-0.143	-0.176
-561.529	-64.971	-0.369	0.150
-560.515	-94.859	0.104	-0.028
-559.500	90.301	0.132	0.148
-558.485	-90.614	-0.384	0.111
-557.471	800.000	-0.123	-0.350
-556.456	176.239	-0.098	-0.143
-555.442	-200.000	0.003	-0.067
-554.427	37.902	-0.263	-0.235
-553.412	-54.124	0.317	0.145
-552.398	130.636	-0.216	-0.278
-551.383	-200.000	-0.037	-0.211
-550.369	-200.000	-0.031	-0.149
-549.354	-97.778	0.137	-0.036
-548.339	1.405	-0.219	-0.158
-547.325	495.187	0.069	0.159
-546.310	-94.696	-0.280	-0.076
-545.296	-67.682	0.493	-0.194
-544.281	176.388	0.032	0.047
-543.266	-33.666	-0.183	0.102
-542.252	78.471	-0.221	0.237
-541.237	-200.000	-0.004	-0.187
-540.223	-35.369	-0.163	-0.089
-539.208	-3.292	0.125	-0.087
-538.193	-200.000	-0.038	0.183
-537.179	186.443	-0.122	0.182
-536.164	0.848	-0.163	-0.117
-535.150	-75.250	0.046	0.017
-534.135	554.973	-0.050	0.121
-533.121	800.000	0.036	-0.118
-532.106	-128.986	-0.077	-0.011
-531.091	530.286	0.080	0.190
-530.077	-200.000	0.027	0.194
-529.062	37.887	0.109	0.097
-528.048	-109.598	-0.221	0.047
-527.033	88.760	0.222	-0.247
-526.018	200.478	-0.213	-0.328
-525.004	-200.000	0.025	0.185
-523.989	-56.609	0.307	-0.136
-522.975	11.770	0.080	-0.062
-521.960	-28.049	-0.111	-0.064
-520.945	-58.732	0.131	0.057
-519.931	40.095	0.165	0.149
-518.916	453.174	-0.026	0.058
-517.902	120.268	0.188	0.234
-516.887	-87.426	-0.410	0.125
-515.872	-200.000	-0.042	0.187
-514.858	-123.106	0.128	0.021
-513.843	-11.486	-0.422	0.278
-512.829	241.930	0.079	-0.132
-511.814	8.112	-0.057	-0.043
-510.799	-200.000	-0.057	-0.259
-509.785	531.849	-0.163	-0.387
-508.770	-200.000	0.002	-0.160
-507.756	-13.079	0.241	-0.157
-506.741	50.173	0.118	-0.112
-505.726	-21.848	-0.224	-0.136
-504.712	-135.364	-0.242	0.029
-503.697	136.696	-0.083	0.109
-502.683	279.889	0.047	-0.084
-501.668	335.671	0.214	0.415
-500.653	-75.385	0.178	0.064
-499.639	-145.210	0.185	0.017
-498.624	-105.745	0.194	0.044
-497.610	-200.000	-0.279	-0.001
-496.595	103.053	-0.135	0.159
-495.581	-7.400	0.239	-0.162
-494.566	-19.526	0.074	0.046
-493.551	18.033	-0.261	0.208
-492.537	-88.034	0.186	0.056
-491.522	800.000	-0.055	-0.223
-490.508	181.369	-0.077	-0.113
-489.493	-200.000	-0.029	0.483
-488.478	-57.365	0.174	0.076
-487.464	120.052	-0.184	-0.228
-486.449	-80.523	0.140	-0.047
-485.435	57.620	-0.176	-0.172
-484.420	-78.379	-0.110	0.038
-483.405	-153.331	-0.217	-0.015
-482.391	-61.951	-0.312	0.130
-481.376	-84.621	0.120	0.038
-480.362	-118.471	0.171	0.030
-479.347	-200.000	0.030	-0.193
-478.332	-1.113	0.106	0.075
-477.318	-20.495	0.320	-0.197
-476.303	-200.000	0.074	0.511
-475.289	-200.000	-0.063	0.332
-474.274	93.458	0.074	0.084
-473.259	-132.829	-0.152	0.019
-472.245	558.219	-0.054	0.129
-471.230	-102.061	-0.200	0.048
-470.216	-119.314	0.164	0.029
-469.201	-200.000	-0.034	0.197
-468.186	43.101	0.138	0.126
-467.172	12.223	0.176	0.135
-466.157	510.712	-0.098	-0.227
-465.143	-61.328	-0.250	-0.105
-464.128	98.413	0.107	-0.123
-463.113	325.030	-0.184	0.351
-462.099	-200.000	-0.023	-0.107
-461.084	31.009	0.340	0.292
-460.070	-68.344	0.148	0.058
-459.055	-43.364	0.384	-0.194
-458.040	-144.923	-0.101	-0.009
-457.026	800.000	-0.031	-0.094
-456.011	3.752	-0.193	0.141
-454.997	-200.000	0.008	0.235
-453.982	-97.460	-0.422	-0.110
-452.968	-116.405	0.361	-0.067
-451.953	575.301	-0.115	-0.280
-450.938	216.014	0.087	-0.139
-449.924	-132.402	0.432	-0.056
-448.909	-168.915	0.234	-0.009
-447.895	-111.765	-0.128	0.026
-446.880	-60.089	0.244	0.104
-445.865	-134.385	0.307	0.038
-444.851	171.492	-0.121	0.174
-443.836	-200.000	0.027	0.338
-442.822	-180.697	-0.407	-0.008
-441.807	-34.381	0.278	0.152
-440.792	82.144	-0.179	0.193
-439.778	354.627	0.047	0.094
-438.763	194.830	0.072	0.109
-437.749	10.731	-0.137	0.105
-436.734	-44.089	-0.509	-0.255
-435.719	106.318	-0.145	-0.172
-434.705	61.621	-0.194	-0.192
-433.690	78.718	-0.289	0.308
-432.676	74.356	0.098	-0.103
-431.661	-63.250	-0.273	0.112
-430.646	53.157	-0.136	0.130
-429.632	167.066	-0.101	0.143
-428.617	-200.000	-0.001	0.150
-427.603	27.213	0.187	-0.157
-426.588	-75.344	-0.344	-0.123
-425.573	800.000	-0.055	0.189
-424.559	-40.017	-0.169	0.088
-423.544	607.009	0.046	0.114
-422.530	-76.335	0.162	-0.057
-421.515	-200.000	-0.001	0.048
-420.500	-44.981	-0.072	0.036
-419.486	250.240	0.016	-0.027
-418.471	-40.110	-0.115	0.060
-417.457	199.065	-0.129	0.198
-416.442	-53.808	0.220	-0.100
-415.428	586.330	-0.019	0.048
-414.413	800.000	-0.095	-0.307
-413.398	-128.559	-0.118	-0.017
-412.384	-129.006	0.206	-0.029
-411.369	-182.379	-0.149	0.003
-410.355	452.412	0.002	-0.004
-409.340	800.000	-0.025	-0.101
-408.325	-77.283	-0.081	-0.028
-407.311	281.973	-0.148	-0.264
-406.296	485.043	-0.153	-0.348
-405.282	413.548	-0.042	-0.088
-404.267	-66.393	0.162	-0.064
-403.252	-188.866	0.202	-0.002
-402.238	-200.000	-0.010	0.332
-401.223	276.826	0.154	-0.272
-400.209	-200.000	0.019	-0.256
-399.194	-116.461	-0.081	-0.015
-398.179	-200.000	-0.061	0.379
-397.165	6.890	0.334	-0.248
-396.150	154.566	0.141	0.193
-395.136	-90.969	0.027	-0.008
-394.121	-171.995	-0.152	-0.005
-393.106	9.992	-0.036	-0.027
-392.092	-89.663	-0.200	0.059
-391.077	121.927	-0.199	0.248
-390.063	486.546	0.031	-0.071
-389.048	140.092	0.028	0.037
-388.033	6.625	-0.082	-0.061
-387.019	800.000	0.084	-0.339
-386.004	623.446	-0.016	0.041
-384.990	-200.000	-0.001	-0.212
-383.975	-26.352	-0.170	0.100
-382.960	-200.000	-0.001	0.159
-381.946	251.065	0.164	-0.278
-380.931	-93.087	-0.282	-0.078
-379.917	-167.456	0.331	-0.013
-378.902	242.572	-0.161	-0.269
-377.888	-145.187	-0.258	-0.023
-376.873	681.434	0.026	-0.069
-375.858	91.129	-0.117	0.131
-374.844	10.503	-0.057	-0.043
-373.829	-200.000	0.010	-0.100
-372.815	800.000	-0.121	-0.342
-371.800	-200.000	-0.076	0.436
-370.785	-46.902	-0.227	-0.111
-369.771	-94.331	-0.280	-0.076
-368.756	123.992	-0.126	-0.157
-367.742	29.402	-0.126	0.106
-366.727	-150.365	0.129	-0.010
-365.712	800.000	-0.116	-0.446
-364.698	-81.234	0.325	0.107
-363.683	800.000	0.129	-0.435
-362.669	-200.000	0.019	-0.168
-361.654	210.006	-0.116	-0.181
-360.639	347.719	-0.058	0.113
-359.625	-118.693	0.111	0.019
-358.610	-66.413	0.279	0.111
-357.596	-200.000	0.013	-0.225
-356.581	237.113	0.177	0.292
-355.566	42.835	0.127	-0.115
-354.552	-44.557	-0.155	0.077
-353.537	-27.678	0.331	0.191
-352.523	-66.099	-0.141	0.056
-351.508	-94.761	-0.365	0.099
-350.493	-154.420	0.197	0.013
-349.479	800.000	0.044	-0.145
-348.464	-132.699	-0.183	-0.023
-347.450	-167.824	0.106	-0.004
-346.435	-52.456	0.076	0.035
-345.420	104.880	0.144	-0.169
-344.406	800.000	-0.049	-0.137
-343.391	269.206	-0.167	-0.291
-342.377	128.114	-0.114	-0.144
-341.362	230.660	0.233	0.379
-340.348	163.289	-0.041	-0.057
-339.333	-88.074	-0.249	0.074
-338.318	219.500	-0.136	0.217
-337.304	40.377	0.073	0.066
-336.289	-41.785	-0.038	-0.019
-335.275	-63.857	-0.160	-0.065
-334.260	8.649	-0.118	-0.089
-333.245	800.000	-0.026	-0.080
-332.231	68.332	0.160	-0.163
-331.216	-17.863	-0.252	-0.158
-330.202	800.000	-0.073	0.225
-329.187	317.035	-0.128	0.241
-328.172	-29.778	0.161	-0.091
-327.158	-155.493	0.196	0.013
-326.143	-195.162	-0.187	-0.001
-325.129	74.681	0.215	0.225
-324.114	-51.278	-0.243	0.113
-323.099	-200.000	-0.014	-0.234
-322.085	11.519	0.085	0.065
-321.070	384.765	0.090	0.184
-320.056	54.000	0.057	-0.055
-319.041	-101.282	0.276	-0.067
-318.026	-148.100	0.154	-0.013
-317.012	-200.000	0.100	-0.518
-315.997	60.425	-0.190	0.187
-314.983	-60.656	0.270	-0.114
-313.968	479.606	-0.032	-0.073
-312.953	681.265	0.131	0.339
-311.939	200.349	0.145	0.221
-310.924	-94.987	-0.296	-0.080
-309.910	32.203	-0.044	-0.038
-308.895	-49.070	-0.070	0.033
-307.880	-200.000	-0.024	0.124
-306.866	781.880	-0.037	-0.101
-305.851	-2.404	0.077	0.053
-304.837	498.374	-0.069	-0.157
-303.822	-200.000	0.058	-0.349
-302.807	671.635	0.005	-0.014
-301.793	-60.397	-0.195	-0.083
-300.778	154.445	-0.144	-0.197
-299.764	76.175	-0.146	0.153
-298.749	800.000	-0.089	0.360
-297.735	174.954	-0.114	0.164
-296.720	9.241	0.104	-0.078
-295.705	652.168	-0.042	-0.107
-294.691	-29.045	-0.018	-0.011
-293.676	-200.000	-0.000	0.033
-292.662	-165.566	0.244	-0.011
-291.647	-30.786	0.213	-0.120
-290.632	-200.000	-0.060	-0.415
-289.618	275.502	0.018	-0.031
-288.603	-129.274	0.195	0.027
-287.589	298.630	-0.143	-0.262
-286.574	262.607	-0.093	0.160
-285.559	129.453	-0.133	0.169
-284.545	688.088	-0.039	-0.101
-283.530	-200.000	0.110	0.523
-282.516	219.097	0.092	-0.146
-281.501	-15.470	0.126	0.080
-280.486	39.184	-0.284	-0.252
-279.472	-147.059	-0.179	-0.015
-278.457	28.115	0.185	-0.155
-277.443	-102.786	-0.344	0.081
-276.428	-112.080	-0.181	-0.036
-275.413	-200.000	-0.007	-0.103
-274.399	800.000	-0.028	0.079
-273.384	164.514	-0.171	0.239
-272.370	93.892	0.196	-0.221
-271.355	-200.000	-0.091	-0.412
-270.340	221.513	0.037	0.058
-269.326	800.000	-0.018	0.075
-268.311	-37.191	-0.222	-0.118
-267.297	-180.358	0.391	0.008
-266.282	-200.000	0.011	0.124
-265.267	-40.051	-0.143	-0.074
-264.253	800.000	0.079	-0.247
-263.238	-86.929	0.163	0.049
-262.224	-10.565	-0.169	-0.111
-261.209	-200.000	0.006	-0.174
-260.195	42.504	0.165	-0.149
-259.180	-170.113	0.082	0.003
-258.165	-109.443	0.189	0.040
-257.151	-200.000	-0.051	-0.515
-256.136	-132.862	0.278	0.035
-255.122	-47.840	0.165	-0.079
-254.107	-200.000	-0.009	-0.114
-253.092	98.531	-0.154	-0.176
-252.078	177.431	0.079	-0.115
-251.063	-152.858	-0.331	0.023
-250.049	-200.000	-0.011	0.149
-249.034	-23.018	0.026	-0.016
-248.019	-200.000	-0.035	-0.303
-247.005	-54.097	-0.248	-0.112
-245.990	-32.282	0.284	0.157
-244.976	-200.000	0.010	-0.288
-243.961	-131.605	0.171	0.022
-242.946	195.320	-0.167	-0.252
-241.932	-105.553	0.264	0.059
-240.917	75.917	0.408	0.427
-239.903	-200.000	0.097	0.433
-238.888	-179.747	-0.350	-0.007
-237.873	227.966	-0.075	0.121
-236.859	-200.000	-0.059	0.377
-235.844	517.935	0.092	0.215
-234.830	800.000	-0.053	-0.220
-233.815	800.000	0.147	-0.497
-232.800	-56.443	-0.180	-0.079
-231.786	800.000	0.045	0.176
-230.771	-48.187	0.338	-0.162
-229.757	96.725	-0.074	0.084
-228.742	-60.529	0.113	-0.048
-227.727	-29.387	-0.054	-0.030
-226.713	606.401	0.038	-0.093
-225.698	70.967	0.283	-0.290
-224.684	295.942	-0.033	0.059
-223.669	-117.958	0.323	0.057
-222.655	-117.281	-0.274	0.049
-221.640	800.000	-0.068	0.292
-220.625	-88.537	0.117	0.035
-219.611	-163.956	-0.100	0.005
-218.596	-166.436	0.184	0.008
-217.582	716.765	0.049	0.128
-216.567	-41.681	0.098	-0.050
-215.552	84.322	0.139	-0.150
-214.538	-35.834	-0.101	-0.054
-213.523	321.540	0.036	0.067
-212.509	148.137	0.178	-0.238
-211.494	-58.980	0.090	0.038
-210.479	370.578	0.072	-0.144
-209.465	-200.000	-0.005	0.026
-208.450	-119.689	-0.083	0.014
-207.436	239.982	0.035	0.057
-206.421	-200.000	-0.019	-0.110
-205.406	-200.000	-0.000	0.047
-204.392	-200.000	-0.030	0.192
-203.377	25.965	-0.132	-0.109
-202.363	13.803	0.174	0.134
-201.348	-49.005	-0.201	-0.095
-200.333	-42.286	0.140	-0.071
-199.319	-200.000	0.087	-0.447
-198.304	-172.382	0.082	-0.003
-197.290	800.000	0.065	0.235
-196.275	-200.000	0.042	0.253
-195.260	-200.000	-0.058	0.306
-194.246	-85.706	0.314	-0.097
-193.231	197.438	0.056	-0.085
-192.217	64.731	-0.089	0.089
-191.202	-70.857	0.176	0.066
-190.187	322.322	-0.076	0.144
-189.173	-200.000	-0.022	-0.179
-188.158	800.000	-0.060	0.170
-187.144	88.278	-0.192	-0.211
-186.129	-116.318	-0.116	0.021
-185.114	-114.905	0.181	0.034
-184.100	32.895	0.126	0.108
-183.085	275.889	-0.045	-0.079
-182.071	77.362	-0.028	0.030
-181.056	277.500	0.049	0.086
-180.042	79.127	0.125	-0.132
-179.027	-200.000	0.042	0.324
-178.012	225.150	0.021	-0.034
-176.998	455.231	0.123	-0.269
-175.983	-200.000	0.033	0.154
-174.969	-110.078	0.049	-0.010
-173.954	-19.762	-0.136	-0.083
-172.939	48.493	0.142	0.131
-171.925	800.000	-0.032	-0.134
-170.910	-153.413	0.462	-0.032
-169.896	-200.000	0.022	-0.108
-168.881	-47.430	0.194	-0.093
-167.866	208.399	-0.113	0.174
-166.852	106.355	-0.327	-0.383
-165.837	103.516	0.179	-0.208
-164.823	334.948	-0.120	0.229
-163.808	-37.812	0.065	0.034
-162.793	-169.899	0.247	0.009
-161.779	183.927	0.029	-0.042
-160.764	29.304	-0.433	0.364
-159.750	139.838	-0.095	-0.124
-158.735	210.328	0.048	-0.074
-157.720	-93.652	0.227	-0.062
-156.706	-200.000	-0.002	0.153
-155.691	-23.856	-0.457	0.271
-154.677	800.000	-0.039	0.110
-153.662	800.000	-0.068	0.214
-152.647	8.822	0.382	-0.284
-151.633	-200.000	-0.052	0.234
-150.618	800.000	0.158	-0.490
-149.604	-115.436	0.330	0.062
-148.589	27.366	-0.232	0.193
-147.574	-200.000	-0.058	-0.281
-146.560	-90.547	-0.366	-0.105
-145.545	76.474	0.139	-0.146
-144.531	-134.470	0.367	-0.044
-143.516	-42.558	0.085	0.043
-142.502	0.625	-0.191	-0.135
-141.487	201.401	0.034	-0.052
-140.472	-5.297	0.331	0.224
-139.458	-82.079	-0.238	0.077
-138.443	-200.000	0.032	-0.214
-137.429	596.391	-0.106	0.260
-136.414	-94.170	0.261	-0.071
-135.399	800.000	-0.002	0.006
-134.385	-8.227	0.090	-0.060
-133.370	800.000	0.031	-0.110
-132.356	33.227	0.159	-0.137
-131.341	8.408	-0.243	-0.181
-130.326	-200.000	-0.019	0.381
-129.312	27.230	0.289	0.240
-128.297	-81.817	-0.192	0.062
-127.283	12.993	0.100	0.077
-126.268	32.861	0.183	0.156
-125.253	-200.000	-0.002	0.111
-124.239	800.000	0.100	0.298
-123.224	146.113	-0.169	-0.224
-122.210	-131.367	-0.261	-0.034
-121.195	57.602	-0.126	-0.121
