DTS Sentinel unit serial number:	SN413079Multiplexer serial number:	ORYXHardware model number:	OX4-SRSoftware version number:	ORYX F/W v4.00 Oryx Data Collector v3.7.2.0data status	okinstallation	princeton_trtdifferential loss correction	single-endedforward channel	channel 1reverse channel	N/Adate	2019/09/14time	19:50:35forward acquisition time	60.00reverse acquisition time	0.00gamma	496.2192k internal	0.2314k external	0.2314temperature offset calibration	1.0027default loss term (dB/km)	0.3790temperature slope calibration	1.0000multiplexer offset coefficient	1.0000multiplexer slope coefficient	1.0000fibre end	0.00T internal ref (°C)	34.28T ext. ref 1 (°C)	4.88T ext. ref 2 (°C)	28.50length (m)	temperature (°C)	Stokes	anti-Stokes-747.200	800.000	0.022	-0.077
-746.185	-110.944	0.073	-0.015
-745.171	310.264	-0.163	-0.310
-744.156	65.975	0.055	-0.057
-743.142	-47.377	0.108	0.053
-742.127	-141.018	-0.276	-0.029
-741.112	120.755	0.091	-0.114
-740.098	285.470	0.017	0.031
-739.083	-81.418	0.275	0.092
-738.069	-134.495	0.043	-0.005
-737.054	116.310	0.100	0.124
-736.039	-111.201	-0.417	0.087
-735.025	-92.278	0.281	-0.080
-734.010	-200.000	-0.037	0.242
-732.996	107.583	-0.136	-0.163
-731.981	67.649	0.250	-0.259
-730.966	-20.973	0.394	-0.244
-729.952	-126.734	-0.491	-0.074
-728.937	-63.017	-0.444	-0.186
-727.923	115.413	0.132	-0.164
-726.908	-200.000	0.028	-0.197
-725.894	800.000	0.072	-0.205
-724.879	-200.000	-0.011	0.230
-723.864	67.347	-0.125	0.129
-722.850	-71.480	0.546	-0.207
-721.835	189.586	-0.188	-0.285
-720.821	-71.684	0.104	0.039
-719.806	602.837	0.121	0.306
-718.791	-104.524	-0.365	-0.085
-717.777	27.449	-0.431	-0.367
-716.762	103.692	-0.063	0.074
-715.748	25.182	-0.336	-0.283
-714.733	-200.000	-0.038	-0.283
-713.718	-62.611	0.263	-0.111
-712.704	-148.272	0.379	-0.032
-711.689	146.449	-0.013	0.018
-710.675	-51.659	-0.409	0.193
-709.660	640.463	-0.062	-0.161
-708.645	-143.421	0.107	0.010
-707.631	233.123	0.161	-0.268
-706.616	-69.429	-0.487	0.189
-705.602	168.862	-0.123	0.177
-704.587	-95.379	0.133	-0.036
-703.572	-200.000	0.004	-0.136
-702.558	86.214	-0.242	-0.270
-701.543	-29.865	-0.150	0.087
-700.529	-10.561	0.175	-0.117
-699.514	49.850	-0.115	-0.110
-698.499	6.226	0.284	-0.213
-697.485	482.261	-0.106	-0.245
-696.470	-7.372	0.312	-0.214
-695.456	800.000	-0.097	-0.306
-694.441	800.000	-0.135	0.495
-693.426	196.126	0.117	-0.180
-692.412	83.516	0.057	0.063
-691.397	154.835	0.100	0.140
-690.383	-98.212	-0.236	0.061
-689.368	-200.000	0.013	0.244
-688.354	151.786	0.134	-0.184
-687.339	114.465	-0.069	-0.085
-686.324	-75.432	0.247	-0.089
-685.310	-157.187	-0.195	-0.012
-684.295	673.031	0.049	-0.127
-683.281	78.708	0.075	0.081
-682.266	235.547	-0.078	-0.131
-681.251	-200.000	-0.006	-0.136
-680.237	72.726	-0.161	-0.170
-679.222	179.022	-0.130	-0.192
-678.208	-89.411	0.176	0.052
-677.193	-24.513	-0.267	0.161
-676.178	166.939	-0.215	-0.309
-675.164	84.709	-0.132	0.146
-674.149	-82.922	0.121	-0.039
-673.135	25.572	-0.099	-0.083
-672.120	71.480	-0.124	-0.130
-671.105	203.618	0.067	-0.105
-670.091	253.370	0.160	-0.277
-669.076	-200.000	-0.020	-0.098
-668.062	142.704	-0.123	-0.166
-667.047	-154.733	0.320	-0.021
-666.032	90.424	-0.164	-0.186
-665.018	800.000	-0.056	-0.214
-664.003	28.838	0.219	-0.187
-662.989	-77.650	0.228	0.080
-661.974	9.276	-0.250	-0.191
-660.959	54.988	0.146	0.142
-659.945	15.315	-0.069	0.055
-658.930	-200.000	-0.041	-0.184
-657.916	-186.848	-0.260	0.004
-656.901	17.640	0.399	-0.321
-655.886	800.000	-0.032	0.112
-654.872	117.848	0.136	-0.170
-653.857	-40.857	0.131	-0.069
-652.843	361.538	-0.164	0.333
-651.828	142.358	-0.089	0.120
-650.814	-24.850	-0.311	-0.187
-649.799	575.544	0.112	0.277
-648.784	393.992	-0.042	0.088
-647.770	187.534	0.110	0.166
-646.755	30.128	0.297	-0.256
-645.741	20.957	-0.080	0.066
-644.726	-137.868	0.328	0.037
-643.711	-200.000	-0.030	0.310
-642.697	-200.000	0.040	0.277
-641.682	-71.907	-0.424	-0.159
-640.668	-150.579	-0.374	-0.029
-639.653	-146.928	0.126	0.011
-638.638	-77.241	-0.111	-0.039
-637.624	455.475	0.082	-0.185
-636.609	-128.830	-0.557	0.079
-635.595	800.000	0.100	0.358
-634.580	-67.971	0.423	-0.167
-633.565	-153.639	-0.294	0.020
-632.551	-200.000	0.006	-0.229
-631.536	17.378	-0.169	-0.135
-630.522	658.958	-0.110	0.287
-629.507	-200.000	-0.023	0.269
-628.492	-117.818	0.063	-0.012
-627.478	141.691	0.211	-0.282
-626.463	-154.582	-0.129	0.009
-625.449	800.000	0.020	0.080
-624.434	-200.000	-0.002	0.167
-623.419	8.080	0.077	0.059
-622.405	800.000	-0.047	0.153
-621.390	-89.777	0.349	-0.103
-620.376	68.149	0.173	0.178
-619.361	64.088	-0.014	-0.015
-618.346	384.242	-0.024	-0.049
-617.332	-72.965	-0.171	-0.063
-616.317	116.719	-0.217	0.269
-615.303	77.174	0.147	0.157
-614.288	-200.000	0.049	-0.279
-613.273	-200.000	0.015	0.145
-612.259	-124.077	-0.046	0.007
-611.244	800.000	-0.081	-0.244
-610.230	102.409	-0.072	0.085
-609.215	-57.624	-0.177	0.078
-608.201	800.000	0.075	0.235
-607.186	-27.611	-0.052	0.030
-606.171	-164.233	-0.088	-0.004
-605.157	-96.238	0.262	0.070
-604.142	-76.372	0.221	0.078
-603.128	-10.271	-0.087	-0.058
-602.113	153.044	0.306	-0.422
-601.098	-106.542	0.175	0.039
-600.084	67.621	-0.166	-0.171
-599.069	-200.000	-0.006	-0.028
-598.055	-126.004	-0.253	-0.038
-597.040	167.269	0.163	-0.233
-596.025	-93.414	-0.226	0.063
-595.011	-200.000	0.014	-0.087
-593.996	118.243	-0.079	-0.098
-592.982	0.933	0.042	-0.030
-591.967	-99.869	0.275	0.069
-590.952	174.556	-0.100	-0.146
-589.938	65.231	-0.207	0.211
-588.923	-200.000	0.042	0.302
-587.909	63.687	0.143	-0.145
-586.894	770.929	0.082	-0.224
-585.879	3.877	-0.264	-0.194
-584.865	-200.000	0.012	0.063
-583.850	-134.533	0.179	-0.022
-582.836	-33.302	-0.150	-0.084
-581.821	-143.801	0.174	0.017
-580.806	-145.879	-0.102	0.009
-579.792	800.000	-0.037	-0.141
-578.777	-94.505	-0.144	-0.040
-577.763	103.100	-0.257	-0.303
-576.748	34.870	-0.206	0.182
-575.733	-200.000	-0.000	0.163
-574.719	31.853	0.259	-0.225
-573.704	-128.000	0.299	0.043
-572.690	67.208	0.162	0.167
-571.675	-2.444	0.074	0.052
-570.661	-101.369	-0.510	0.125
-569.646	800.000	0.052	-0.225
-568.631	-49.972	0.104	-0.050
-567.617	426.834	-0.056	-0.121
-566.602	148.818	0.023	-0.032
-565.588	-45.166	-0.142	0.071
-564.573	55.845	-0.091	-0.089
-563.558	-200.000	0.009	-0.264
-562.544	487.859	0.127	-0.292
-561.529	-30.204	0.215	0.123
-560.515	-200.000	0.031	-0.300
-559.500	-116.017	0.261	-0.049
-558.485	-200.000	-0.001	0.043
-557.471	-200.000	-0.013	0.315
-556.456	-130.522	-0.446	-0.061
-555.442	-200.000	0.016	-0.251
-554.427	-87.072	0.166	-0.051
-553.412	-113.925	0.290	0.057
-552.398	485.716	0.152	-0.349
-551.383	-200.000	-0.015	-0.331
-550.369	96.062	-0.025	-0.029
-549.354	-200.000	-0.036	-0.207
-548.339	149.539	0.159	-0.217
-547.325	156.125	-0.113	0.157
-546.310	-63.299	-0.257	0.106
-545.296	-92.235	-0.328	0.093
-544.281	800.000	-0.039	-0.122
-543.266	556.564	-0.024	-0.059
-542.252	17.624	0.174	-0.139
-541.237	-79.189	-0.265	-0.091
-540.223	42.688	0.103	0.094
-539.208	-11.960	0.132	0.087
-538.193	-67.252	-0.227	0.090
-537.179	-34.965	0.296	-0.162
-536.164	238.267	-0.128	-0.214
-535.150	-200.000	0.001	-0.421
-534.135	325.602	0.175	-0.337
-533.121	40.604	-0.206	-0.187
-532.106	-200.000	-0.008	-0.187
-531.091	800.000	0.050	-0.141
-530.077	-167.310	0.237	0.010
-529.062	314.235	0.039	0.075
-528.048	800.000	-0.020	-0.086
-527.033	-141.745	0.054	0.005
-526.018	704.504	0.084	-0.221
-525.004	48.433	0.224	-0.211
-523.989	-64.676	-0.306	-0.125
-522.975	18.566	0.133	-0.107
-521.960	-200.000	0.010	0.098
-520.945	-200.000	-0.015	-0.391
-519.931	40.093	-0.105	0.094
-518.916	800.000	-0.038	0.130
-517.902	-151.673	-0.077	-0.006
-516.887	-77.800	-0.015	0.005
-515.872	-200.000	0.016	-0.217
-514.858	52.999	-0.230	-0.221
-513.843	800.000	-0.131	0.425
-512.829	800.000	0.052	-0.180
-511.814	40.132	0.122	0.110
-510.799	122.161	-0.152	-0.191
-509.785	87.875	-0.151	0.168
-508.770	-141.705	-0.073	-0.007
-507.756	-7.254	-0.025	-0.017
-506.741	152.661	0.074	-0.102
-505.726	172.353	0.069	0.099
-504.712	-47.354	-0.074	0.036
-503.697	-101.840	0.129	0.031
-502.683	-118.094	-0.369	-0.066
-501.668	-52.655	-0.241	-0.112
-500.653	-200.000	-0.019	-0.311
-499.639	800.000	0.043	0.152
-498.624	-10.301	-0.282	0.188
-497.610	620.809	0.048	0.121
-496.595	100.235	-0.063	0.074
-495.581	102.249	0.111	0.130
-494.566	-108.370	-0.219	0.047
-493.551	-23.785	0.148	0.089
-492.537	53.412	0.165	0.159
-491.522	-105.835	-0.209	-0.047
-490.508	-18.926	0.331	-0.207
-489.493	-200.000	-0.012	0.232
-488.478	-40.740	0.256	-0.133
-487.464	-200.000	0.023	-0.183
-486.449	-200.000	-0.018	-0.268
-485.435	-33.272	0.184	-0.102
-484.420	800.000	-0.066	0.214
-483.405	153.981	0.108	0.148
-482.391	-28.105	0.436	0.253
-481.376	3.773	0.143	0.105
-480.362	-130.871	0.168	-0.023
-479.347	-200.000	0.021	0.140
-478.332	-94.506	0.177	0.048
-477.318	-119.106	-0.156	0.027
-476.303	515.835	-0.140	0.328
-475.289	-6.678	-0.229	-0.157
-474.274	-147.341	-0.315	-0.027
-473.259	491.583	0.062	-0.143
-472.245	-13.116	-0.055	-0.036
-471.230	-193.878	-0.076	-0.001
-470.216	-56.469	-0.100	0.045
-469.201	-200.000	-0.055	-0.252
-468.186	-200.000	-0.041	0.204
-467.172	12.084	0.063	-0.049
-466.157	-35.675	-0.264	0.143
-465.143	148.035	-0.085	-0.115
-464.128	-81.469	0.207	0.068
-463.113	-44.621	-0.127	-0.064
-462.099	-164.044	0.231	-0.011
-461.084	800.000	0.097	-0.366
-460.070	-25.339	-0.274	0.162
-459.055	519.390	-0.114	-0.267
-458.040	158.489	-0.155	0.216
-457.026	-102.185	-0.209	0.050
-456.011	146.108	-0.081	0.109
-454.997	-200.000	-0.076	0.395
-453.982	-200.000	0.060	0.392
-452.968	-118.453	0.389	0.069
-451.953	-200.000	0.041	-0.298
-450.938	-166.887	-0.211	0.009
-449.924	800.000	-0.052	-0.199
-448.909	-25.578	-0.036	-0.021
-447.895	800.000	0.099	0.294
-446.880	-170.469	0.168	0.006
-445.865	-16.020	-0.079	0.050
-444.851	273.733	-0.126	0.223
-443.836	-112.416	-0.157	-0.031
-442.822	74.854	0.147	0.155
-441.807	127.667	0.090	0.114
-440.792	84.433	-0.250	0.274
-439.778	-110.807	0.290	-0.060
-438.763	-135.813	-0.516	0.061
-437.749	-102.546	0.247	0.059
-436.734	142.303	-0.162	-0.215
-435.719	-141.844	-0.261	-0.026
-434.705	116.751	0.154	0.190
-433.690	-195.774	-0.091	0.001
-432.676	-20.194	-0.225	-0.139
-431.661	85.531	-0.072	-0.079
-430.646	770.046	-0.065	-0.178
-429.632	57.127	-0.087	0.085
-428.617	209.913	-0.053	0.084
-427.603	-110.052	0.197	0.041
-426.588	-122.496	-0.046	-0.007
-425.573	198.181	-0.222	-0.340
-424.559	-73.530	-0.170	-0.062
-423.544	417.773	0.156	0.334
-422.530	-200.000	-0.030	0.207
-421.515	-61.425	0.177	0.074
-420.500	382.189	0.120	0.247
-419.486	-200.000	0.026	-0.130
-418.471	-20.302	0.080	-0.049
-417.457	-29.951	-0.083	-0.047
-416.442	-200.000	-0.035	0.204
-415.428	800.000	0.051	0.215
-414.413	694.646	-0.076	-0.199
-413.398	103.024	0.120	-0.141
-412.384	17.967	0.312	0.249
-411.369	30.462	0.233	0.200
-410.355	617.513	0.215	0.539
-409.340	-200.000	-0.003	0.184
-408.325	497.763	0.106	0.245
-407.311	-200.000	0.014	0.273
-406.296	-200.000	-0.005	0.118
-405.282	310.909	0.092	-0.172
-404.267	-29.517	-0.301	-0.172
-403.252	-142.007	0.056	-0.006
-402.238	217.596	-0.086	-0.137
-401.223	40.917	-0.222	-0.201
-400.209	-200.000	-0.041	-0.315
-399.194	800.000	-0.047	-0.168
-398.179	-149.157	0.018	0.001
-397.165	-122.207	-0.320	-0.052
-396.150	-129.428	-0.087	0.012
-395.136	800.000	0.093	0.262
-394.121	-46.176	-0.283	0.139
-393.106	-200.000	0.032	0.292
-392.092	89.159	-0.282	0.315
-391.077	-144.444	-0.268	-0.025
-390.063	-200.000	0.001	0.014
-389.048	523.667	0.030	0.071
-388.033	800.000	-0.040	-0.163
-387.019	60.453	0.284	-0.281
-386.004	-200.000	-0.023	0.328
-384.990	800.000	-0.105	0.297
-383.975	-65.989	0.508	-0.203
-382.960	166.656	0.038	-0.053
-381.946	-114.568	0.170	-0.033
-380.931	96.619	-0.334	0.382
-379.917	74.288	0.257	0.270
-378.902	-116.210	0.090	-0.017
-377.888	-182.548	0.176	0.003
-376.873	79.446	0.096	-0.103
-375.858	800.000	0.066	0.245
-374.844	45.403	0.256	-0.237
-373.829	185.501	-0.089	0.133
-372.815	-9.325	0.155	-0.104
-371.800	-82.440	0.131	-0.043
-370.785	-200.000	0.009	0.098
-369.771	800.000	-0.060	0.215
-368.756	724.153	0.051	-0.137
-367.742	-39.450	0.166	0.087
-366.727	-33.367	0.171	-0.094
-365.712	-24.586	-0.066	0.039
-364.698	-155.120	0.512	-0.033
-363.683	-14.175	-0.129	-0.083
-362.669	216.270	-0.074	0.118
-361.654	169.722	0.099	-0.141
-360.639	146.463	0.070	0.094
-359.625	135.111	-0.121	-0.157
-358.610	19.889	-0.054	-0.044
-357.596	8.912	0.191	-0.144
-356.581	328.240	0.126	-0.242
-355.566	105.260	0.174	0.205
-354.552	636.199	0.141	0.356
-353.537	-106.050	0.127	0.029
-352.523	-108.942	-0.127	0.027
-351.508	-200.000	-0.022	-0.100
-350.493	-92.538	0.366	0.103
-349.479	-110.992	0.229	-0.047
-348.464	-200.000	-0.055	-0.342
-347.450	-18.175	-0.182	0.114
-346.435	-200.000	0.065	-0.293
-345.420	-89.092	0.044	-0.013
-344.406	22.170	-0.147	0.120
-343.391	800.000	0.136	-0.512
-342.377	25.954	0.190	-0.158
-341.362	-2.576	0.146	-0.102
-340.348	-87.439	0.198	-0.060
-339.333	127.033	0.195	-0.247
-338.318	95.965	-0.113	-0.129
-337.304	-148.908	0.160	0.013
-336.289	-77.574	-0.362	0.125
-335.275	17.880	0.146	0.116
-334.260	800.000	-0.075	-0.223
-333.245	800.000	0.008	-0.028
-332.231	-200.000	0.030	0.477
-331.216	-150.695	-0.245	-0.019
-330.202	-122.193	-0.180	0.029
-329.187	800.000	0.092	-0.345
-328.172	33.228	0.184	-0.160
-327.158	498.991	0.072	-0.164
-326.143	107.549	-0.127	-0.150
-325.129	510.473	-0.045	-0.104
-324.114	-81.327	-0.042	0.014
-323.099	190.881	-0.083	0.124
-322.085	-32.047	0.204	-0.114
-321.070	108.835	-0.162	-0.193
-320.056	401.265	-0.048	-0.101
-319.041	13.231	-0.052	0.040
-318.026	104.896	-0.068	-0.080
-317.012	-165.301	0.347	0.015
-315.997	-134.343	-0.390	-0.048
-314.983	-93.129	-0.267	0.074
-313.968	-127.345	-0.181	0.026
-312.953	152.840	-0.098	-0.134
-311.939	-81.302	-0.041	0.014
-310.924	800.000	0.081	-0.242
-309.910	3.612	0.251	0.183
-308.895	606.457	0.088	-0.217
-307.880	200.332	0.040	0.061
-306.866	3.620	-0.182	0.132
-305.851	60.687	0.296	-0.292
-304.837	-22.014	0.257	-0.156
-303.822	800.000	-0.049	0.138
-302.807	-45.285	-0.147	0.073
-301.793	-132.394	0.195	0.025
-300.778	14.311	-0.282	-0.219
-299.764	235.682	-0.111	-0.183
-298.749	210.454	0.222	-0.348
-297.735	-45.652	-0.243	0.120
-296.720	81.375	0.162	-0.175
-295.705	33.985	-0.380	0.329
-294.691	139.525	-0.091	0.120
-293.676	-82.208	-0.262	-0.085
-292.662	-167.746	-0.089	0.004
-291.647	-24.452	-0.152	-0.090
-290.632	-200.000	-0.012	0.114
-289.618	670.280	0.039	0.101
-288.603	16.984	0.082	0.065
-287.589	101.237	-0.185	0.214
-286.574	-106.966	-0.253	-0.056
-285.559	80.815	-0.043	0.046
-284.545	-41.188	0.044	0.023
-283.530	800.000	0.103	-0.352
-282.516	51.040	-0.116	-0.109
-281.501	-200.000	0.014	0.085
-280.486	800.000	-0.073	0.217
-279.472	659.313	0.052	0.134
-278.457	-200.000	0.020	-0.412
-277.443	450.367	-0.067	-0.146
-276.428	-82.712	0.235	0.076
-275.413	19.759	0.157	0.126
-274.399	-157.966	-0.366	0.021
-273.384	-200.000	0.021	-0.267
-272.370	250.412	-0.114	0.193
-271.355	-120.898	-0.512	-0.086
-270.340	-68.616	0.083	-0.032
-269.326	29.126	0.217	-0.183
-268.311	31.003	0.095	-0.081
-267.297	800.000	0.045	0.152
-266.282	293.451	-0.265	0.481
-265.267	-127.831	0.476	0.068
-264.253	-200.000	-0.054	0.374
-263.238	-21.948	-0.263	0.159
-262.224	-200.000	0.030	-0.179
-261.209	-16.478	-0.200	-0.126
-260.195	-200.000	-0.313	0.001
-259.180	-200.000	0.024	0.115
-258.165	78.158	0.254	0.270
-257.151	-200.000	0.006	0.590
-256.136	-200.000	0.001	-0.052
-255.122	-32.382	0.303	0.168
-254.107	215.533	-0.077	0.122
-253.092	800.000	-0.033	-0.114
-252.078	14.224	0.258	-0.200
-251.063	-36.731	0.319	-0.170
-250.049	75.437	0.141	-0.148
-249.034	800.000	-0.078	0.325
-248.019	163.377	-0.128	0.179
-247.005	-7.166	-0.131	-0.088
-245.990	-200.000	0.047	-0.242
-244.976	298.268	0.101	0.185
-243.961	-52.891	0.256	0.117
-242.946	267.289	0.135	0.235
-241.932	-125.816	0.228	-0.034
-240.917	-200.000	-0.026	0.242
-239.903	-53.858	0.069	-0.031
-238.888	-188.632	-0.273	-0.003
-237.873	-86.115	-0.069	-0.021
-236.859	-83.508	-0.244	0.077
-235.844	-200.000	-0.002	-0.055
-234.830	-18.469	0.120	0.074
-233.815	-200.000	-0.044	0.289
-232.800	800.000	-0.062	-0.192
-231.786	308.374	0.072	0.134
-230.771	51.068	-0.320	-0.302
-229.757	22.363	0.302	0.245
-228.742	509.955	0.081	0.187
-227.727	-32.929	0.098	0.054
-226.713	59.407	-0.082	0.081
-225.698	-200.000	-0.021	0.195
-224.684	-42.027	0.231	0.118
-223.669	-61.363	0.112	0.047
-222.655	-200.000	-0.040	0.270
-221.640	81.365	0.110	0.118
-220.625	-21.142	-0.207	-0.126
-219.611	-110.582	-0.209	0.043
-218.596	-41.408	-0.038	0.019
-217.582	185.548	-0.177	-0.261
-216.567	-176.688	-0.114	-0.003
-215.552	33.758	0.168	0.145
-214.538	90.546	-0.085	0.095
-213.523	56.121	-0.242	-0.233
-212.509	236.284	0.046	-0.075
-211.494	-2.211	-0.327	0.228
-210.479	-200.000	0.012	-0.123
-209.465	10.395	-0.134	-0.101
-208.450	-24.301	0.126	0.075
-207.436	179.392	0.092	-0.133
-206.421	-102.126	0.279	-0.067
-205.406	-139.224	-0.081	-0.009
-204.392	15.675	0.131	0.103
-203.377	-41.462	0.337	-0.172
-202.363	397.714	-0.100	0.208
-201.348	512.235	0.180	0.417
-200.333	17.196	-0.167	-0.132
-199.319	-88.987	0.310	-0.091
-198.304	-129.206	0.287	-0.040
-197.290	69.798	0.055	0.056
-196.275	730.829	-0.067	0.177
-195.260	-109.458	-0.254	0.053
-194.246	422.185	0.090	0.191
-193.231	800.000	-0.012	-0.039
-192.217	493.104	-0.065	0.149
-191.202	423.495	0.063	-0.134
-190.187	-167.893	-0.132	-0.005
-189.173	-81.942	0.173	0.056
-188.158	-200.000	0.038	0.251
-187.144	-118.956	-0.362	0.063
-186.129	43.675	0.113	-0.103
-185.114	800.000	-0.072	-0.295
-184.100	-113.424	-0.114	-0.022
-183.085	-137.244	-0.255	0.029
-182.071	-124.644	0.107	-0.016
-181.056	-146.107	0.235	0.021
-180.042	800.000	0.040	-0.118
-179.027	112.276	0.096	0.115
-178.012	-99.556	0.060	0.015
-176.998	-16.915	-0.220	0.138
-175.983	-64.162	-0.167	-0.068
-174.969	800.000	-0.069	-0.203
-173.954	-16.101	0.242	0.152
-172.939	800.000	0.070	-0.221
-171.925	-200.000	0.031	-0.288
-170.910	461.959	0.115	0.255
-169.896	-200.000	-0.022	-0.112
-168.881	122.867	-0.225	-0.279
-167.866	148.292	0.194	-0.260
-166.852	-54.129	0.284	0.128
-165.837	800.000	-0.057	-0.195
-164.823	43.025	0.225	0.203
-163.808	-200.000	-0.020	-0.137
-162.793	-41.930	-0.204	0.104
-161.779	-185.921	-0.206	0.003
-160.764	-120.287	0.258	-0.044
-159.750	232.437	0.097	-0.158
-158.735	137.748	0.090	0.117
-157.720	-12.412	-0.053	0.034
-156.706	-14.297	0.114	0.073
-155.691	132.414	-0.061	0.077
-154.677	800.000	-0.058	-0.187
-153.662	515.721	0.020	0.045
-152.647	-120.618	-0.242	-0.041
-151.633	-200.000	0.013	0.094
-150.618	-37.915	0.102	-0.054
-149.604	-93.109	0.149	0.041
-148.589	-46.832	0.252	0.122
-147.574	-41.483	0.255	-0.130
-146.560	-200.000	-0.012	-0.067
-145.545	-105.269	0.306	-0.069
-144.531	-82.317	-0.249	-0.080
-143.516	-107.335	0.271	0.059
-142.502	119.565	-0.136	0.167
-141.487	-63.209	-0.217	0.088
-140.472	-141.431	-0.305	-0.031
-139.458	-8.209	-0.140	0.093
-138.443	800.000	0.155	-0.450
-137.429	-115.790	-0.133	-0.025
-136.414	-48.615	0.098	0.047
-135.399	101.677	-0.126	-0.146
-134.385	86.151	0.212	-0.232
-133.370	719.996	0.054	-0.142
-132.356	-169.890	-0.164	-0.006
-131.341	-200.000	0.049	-0.224
-130.326	800.000	-0.040	-0.128
-129.312	-24.708	-0.178	0.105
-128.297	-188.170	0.391	-0.005
-127.283	-200.000	-0.058	0.511
-126.268	120.958	0.112	-0.138
-125.253	-123.099	-0.169	0.027
-124.239	4.350	-0.115	0.083
-123.224	-200.000	0.048	0.316
-122.210	330.599	0.074	0.140
