DTS Sentinel unit serial number:	SN413079Multiplexer serial number:	ORYXHardware model number:	OX4-SRSoftware version number:	ORYX F/W v4.00 Oryx Data Collector v3.7.2.0data status	okinstallation	princeton_trtdifferential loss correction	single-endedforward channel	channel 1reverse channel	N/Adate	2019/09/10time	21:24:11forward acquisition time	60.00reverse acquisition time	0.00gamma	496.2192k internal	0.2329k external	0.2329temperature offset calibration	0.9938default loss term (dB/km)	0.3790temperature slope calibration	1.0000multiplexer offset coefficient	1.0000multiplexer slope coefficient	1.0000fibre end	0.00T internal ref (°C)	31.23T ext. ref 1 (°C)	-0.30T ext. ref 2 (°C)	24.37length (m)	temperature (°C)	Stokes	anti-Stokes-747.200	-200.000	0.079	0.477
-746.185	119.063	0.022	0.027
-745.171	20.057	0.166	0.134
-744.156	-155.760	-0.188	-0.012
-743.142	-200.000	-0.029	-0.197
-742.127	-200.000	-0.000	-0.209
-741.112	326.882	0.116	0.225
-740.098	319.812	-0.094	0.180
-739.083	-65.863	0.116	0.047
-738.069	-24.564	-0.430	0.257
-737.054	-73.829	-0.154	0.057
-736.039	-164.586	-0.223	-0.010
-735.025	-103.829	-0.108	0.025
-734.010	42.075	0.057	0.052
-732.996	800.000	0.008	-0.031
-731.981	-49.644	0.234	-0.112
-730.966	89.127	-0.275	0.308
-729.952	-183.759	0.020	0.000
-728.937	152.387	-0.137	0.188
-727.923	-87.668	-0.346	-0.105
-726.908	800.000	-0.040	-0.146
-725.894	-200.000	-0.014	-0.214
-724.879	-81.571	0.035	0.012
-723.864	-200.000	-0.078	0.455
-722.850	800.000	-0.070	-0.202
-721.835	-200.000	-0.011	-0.153
-720.821	-16.026	0.090	0.058
-719.806	-82.756	-0.208	-0.068
-718.791	-200.000	0.044	0.266
-717.777	800.000	-0.098	0.308
-716.762	-200.000	0.002	0.274
-715.748	65.777	0.206	-0.210
-714.733	142.839	-0.171	-0.229
-713.718	800.000	0.054	0.157
-712.704	-200.000	0.002	0.252
-711.689	-96.969	-0.280	0.074
-710.675	-124.763	-0.256	-0.040
-709.660	-73.792	0.260	-0.095
-708.645	12.809	-0.224	-0.174
-707.631	5.317	-0.255	0.189
-706.616	570.754	-0.093	0.228
-705.602	-76.093	0.164	-0.058
-704.587	-121.324	0.144	-0.024
-703.572	-200.000	-0.006	0.031
-702.558	450.714	-0.061	-0.135
-701.543	-200.000	0.008	-0.536
-700.529	27.365	0.044	0.037
-699.514	-39.134	0.236	-0.125
-698.499	-70.560	0.524	0.199
-697.485	-88.726	-0.419	0.125
-696.470	-170.489	-0.456	0.016
-695.456	215.925	0.145	-0.231
-694.441	-143.422	-0.261	0.025
-693.426	-131.452	0.093	0.012
-692.412	192.664	-0.092	-0.140
-691.397	-67.248	-0.350	-0.138
-690.383	63.978	-0.240	-0.242
-689.368	-200.000	-0.012	-0.091
-688.354	-200.000	-0.039	-0.240
-687.339	699.844	-0.054	0.142
-686.324	-200.000	0.131	-0.584
-685.310	235.992	-0.150	-0.249
-684.295	110.772	-0.058	-0.071
-683.281	-3.185	0.109	0.077
-682.266	-163.557	0.124	0.006
-681.251	-86.572	-0.134	0.041
-680.237	-51.987	0.169	0.079
-679.222	20.267	-0.207	-0.168
-678.208	-200.000	-0.013	0.131
-677.193	-200.000	-0.007	0.085
-676.178	276.677	-0.059	-0.106
-675.164	-144.038	-0.209	-0.020
-674.149	-87.011	-0.280	-0.086
-673.135	800.000	0.031	0.108
-672.120	-21.444	0.361	0.221
-671.105	-169.140	0.081	0.003
-670.091	800.000	0.035	-0.099
-669.076	159.023	0.081	0.112
-668.062	-22.973	-0.226	-0.137
-667.047	-103.855	0.299	0.070
-666.032	306.293	0.039	0.074
-665.018	-75.547	-0.422	-0.151
-664.003	-64.023	-0.079	0.032
-662.989	-75.591	-0.096	-0.034
-661.974	-126.637	-0.074	0.011
-660.959	-200.000	0.030	0.172
-659.945	800.000	-0.104	0.353
-658.930	-200.000	0.037	0.203
-657.916	13.322	0.081	0.063
-656.901	303.193	-0.134	-0.249
-655.886	69.384	-0.115	0.118
-654.872	-15.951	-0.166	0.106
-653.857	-25.602	-0.339	0.201
-652.843	-57.774	0.188	0.082
-651.828	-200.000	0.025	0.214
-650.814	10.452	-0.137	0.105
-649.799	-44.498	0.150	-0.075
-648.784	-72.481	0.064	0.024
-647.770	542.244	0.038	-0.091
-646.755	376.441	-0.116	0.237
-645.741	-71.455	-0.253	0.095
-644.726	111.661	0.148	0.179
-643.711	-35.686	0.272	0.148
-642.697	-200.000	0.033	0.156
-641.682	-9.349	-0.098	-0.066
-640.668	-32.549	0.208	-0.116
-639.653	86.832	0.148	0.164
-638.638	150.020	-0.079	-0.108
-637.624	-200.000	0.003	-0.028
-636.609	-74.035	0.150	-0.054
-635.595	800.000	-0.074	0.248
-634.580	-76.658	0.282	-0.099
-633.565	470.747	-0.063	-0.142
-632.551	-37.646	-0.150	0.080
-631.536	-61.271	0.041	-0.017
-630.522	-14.305	-0.158	-0.102
-629.507	-200.000	0.008	-0.489
-628.492	-200.000	0.039	0.370
-627.478	113.621	-0.074	-0.091
-626.463	-101.230	-0.296	-0.073
-625.449	800.000	-0.145	0.418
-624.434	-121.449	0.143	-0.024
-623.419	-74.138	0.265	0.096
-622.405	800.000	-0.025	0.086
-621.390	-94.829	-0.253	-0.069
-620.376	241.708	-0.173	0.290
-619.361	-200.000	0.010	-0.049
-618.346	441.132	-0.024	0.052
-617.332	-33.162	0.098	-0.054
-616.317	-107.384	-0.107	0.024
-615.303	-90.945	-0.075	-0.022
-614.288	-31.843	-0.107	0.060
-613.273	-43.136	-0.063	-0.032
-612.259	-200.000	0.008	-0.172
-611.244	-149.737	0.210	0.017
-610.230	144.650	0.024	0.033
-609.215	-21.104	-0.286	0.175
-608.201	266.650	-0.188	0.329
-607.186	121.282	-0.109	0.137
-606.171	-11.081	-0.125	-0.082
-605.157	777.155	-0.059	0.162
-604.142	-105.835	0.314	-0.071
-603.128	-200.000	0.013	-0.421
-602.113	-200.000	-0.010	0.094
-601.098	-48.330	0.255	-0.123
-600.084	-143.879	-0.092	-0.009
-599.069	5.963	0.242	0.179
-598.055	70.903	-0.187	0.194
-597.040	-113.975	-0.106	-0.021
-596.025	-156.931	0.308	0.019
-595.011	54.702	0.200	0.193
-593.996	-82.531	-0.305	0.099
-592.982	-22.546	0.232	-0.141
-591.967	-55.461	-0.026	0.012
-590.952	-200.000	0.024	-0.176
-589.938	520.571	-0.077	0.180
-588.923	-160.268	-0.213	0.012
-587.909	-95.032	-0.200	0.054
-586.894	-90.879	-0.154	0.044
-585.879	228.044	0.343	0.558
-584.865	-82.294	0.084	0.027
-583.850	352.955	0.035	-0.069
-582.836	-135.768	-0.138	0.016
-581.821	327.279	0.046	0.087
-580.806	-200.000	-0.015	0.082
-579.792	-170.388	0.147	-0.005
-578.777	146.929	-0.291	-0.392
-577.763	-200.000	0.017	0.285
-576.748	384.280	0.033	-0.069
-575.733	81.118	-0.134	-0.144
-574.719	77.760	-0.214	-0.228
-573.704	800.000	0.059	-0.247
-572.690	699.003	-0.061	0.160
-571.675	-200.000	-0.004	-0.220
-570.661	-43.861	-0.156	0.078
-569.646	-50.957	0.386	-0.181
-568.631	26.421	-0.058	0.048
-567.617	416.099	-0.129	-0.275
-566.602	212.469	0.044	-0.070
-565.588	-90.192	-0.199	-0.058
-564.573	-153.416	0.247	0.017
-563.558	-200.000	-0.044	-0.222
-562.544	-200.000	0.007	0.278
-561.529	5.510	-0.137	0.101
-560.515	-192.660	0.156	0.001
-559.500	-200.000	-0.076	0.349
-558.485	-113.168	0.364	0.072
-557.471	132.553	-0.087	-0.113
-556.456	89.695	-0.222	-0.248
-555.442	-200.000	-0.012	-0.099
-554.427	-95.657	-0.178	-0.048
-553.412	547.342	0.175	0.418
-552.398	38.391	-0.140	-0.124
-551.383	-126.803	-0.179	-0.026
-550.369	-50.092	0.186	0.088
-549.354	117.682	-0.049	0.060
-548.339	-41.755	-0.270	0.138
-547.325	70.947	-0.240	-0.249
-546.310	371.189	0.194	-0.394
-545.296	-115.675	-0.170	-0.032
-544.281	800.000	0.115	-0.334
-543.266	305.938	-0.084	0.155
-542.252	230.213	-0.060	-0.098
-541.237	-200.000	0.001	-0.249
-540.223	-51.650	-0.513	-0.239
-539.208	437.479	-0.068	0.148
-538.193	284.232	-0.058	0.105
-537.179	-49.714	-0.107	-0.051
-536.164	255.231	0.104	-0.178
-535.150	-72.988	0.175	0.064
-534.135	-93.536	-0.056	0.015
-533.121	-113.569	0.336	-0.066
-532.106	47.491	-0.140	-0.130
-531.091	-69.970	0.102	0.039
-530.077	-0.876	0.057	-0.040
-529.062	800.000	0.055	0.173
-528.048	-200.000	0.011	-0.140
-527.033	-86.525	0.100	-0.031
-526.018	-200.000	-0.006	-0.107
-525.004	-6.792	-0.116	0.079
-523.989	436.325	-0.046	-0.100
-522.975	72.490	-0.108	0.112
-521.960	800.000	0.102	-0.345
-520.945	714.770	0.096	-0.254
-519.931	-4.852	-0.156	-0.107
-518.916	10.122	-0.244	0.185
-517.902	-54.968	-0.237	0.107
-516.887	61.842	-0.056	0.056
-515.872	-51.295	-0.112	-0.052
-514.858	141.651	0.095	-0.125
-513.843	413.983	0.103	0.218
-512.829	-200.000	0.056	0.257
-511.814	107.283	0.083	0.099
-510.799	-122.974	0.219	0.035
-509.785	535.920	-0.140	0.333
-508.770	-200.000	-0.005	-0.177
-507.756	385.844	0.105	-0.215
-506.741	-0.414	0.097	-0.069
-505.726	800.000	0.130	-0.453
-504.712	-145.794	-0.270	-0.024
-503.697	-200.000	-0.003	-0.045
-502.683	-82.927	-0.297	0.096
-501.668	577.166	0.108	0.262
-500.653	120.773	-0.248	0.308
-499.639	185.669	-0.126	0.186
-498.624	40.902	-0.139	0.125
-497.610	465.380	-0.036	-0.081
-496.595	800.000	-0.044	0.145
-495.581	-98.531	-0.176	-0.045
-494.566	800.000	0.058	-0.213
-493.551	-200.000	0.009	0.079
-492.537	-184.109	0.164	0.003
-491.522	-200.000	0.043	0.485
-490.508	-200.000	0.004	-0.141
-489.493	-108.842	-0.424	-0.090
-488.478	22.689	0.211	0.173
-487.464	86.114	-0.093	-0.102
-486.449	800.000	0.148	-0.421
-485.435	91.680	0.098	-0.109
-484.420	54.599	-0.218	0.210
-483.405	-200.000	0.017	0.111
-482.391	396.291	-0.082	-0.170
-481.376	-55.936	0.390	-0.173
-480.362	65.916	-0.245	0.248
-479.347	800.000	-0.041	-0.116
-478.332	27.282	-0.251	0.210
-477.318	25.962	0.330	0.274
-476.303	-166.675	0.232	-0.010
-475.289	-54.521	0.175	-0.079
-474.274	88.882	-0.159	0.177
-473.259	-40.680	0.201	-0.104
-472.245	-200.000	-0.001	-0.147
-471.230	-73.244	-0.229	-0.084
-470.216	-200.000	-0.003	0.130
-469.201	-44.185	0.067	-0.034
-468.186	800.000	0.053	-0.206
-467.172	-158.900	-0.216	0.012
-466.157	-44.646	-0.181	0.090
-465.143	-143.125	-0.075	-0.007
-464.128	22.934	0.445	0.364
-463.113	-29.919	0.170	0.096
-462.099	9.787	-0.300	0.226
-461.084	-80.168	0.222	0.074
-460.070	300.151	0.113	-0.208
-459.055	745.955	-0.090	0.240
-458.040	-193.526	-0.289	-0.002
-457.026	-85.469	0.010	-0.003
-456.011	57.489	0.105	0.103
-454.997	-185.557	0.232	0.004
-453.982	29.396	-0.145	0.123
-452.968	-16.154	0.291	-0.184
-451.953	432.631	0.130	0.281
-450.938	-27.779	0.253	-0.146
-449.924	-200.000	-0.002	-0.060
-448.909	-55.308	0.274	-0.123
-447.895	-200.000	-0.048	-0.522
-446.880	39.991	-0.050	0.045
-445.865	-20.550	-0.217	-0.133
-444.851	800.000	0.098	-0.328
-443.836	-200.000	-0.026	0.217
-442.822	497.586	-0.185	-0.423
-441.807	-101.943	0.165	-0.040
-440.792	-52.291	0.177	0.081
-439.778	217.083	-0.148	-0.235
-438.763	551.150	-0.044	0.104
-437.749	-88.478	0.355	-0.105
-436.734	548.278	-0.044	0.106
-435.719	25.373	-0.281	-0.232
-434.705	31.173	-0.262	-0.223
-433.690	-200.000	-0.039	-0.299
-432.676	475.400	-0.140	-0.315
-431.661	191.102	0.158	-0.237
-430.646	167.978	-0.150	0.213
-429.632	800.000	0.084	-0.274
-428.617	-122.391	-0.138	-0.022
-427.603	428.451	0.048	0.103
-426.588	359.062	0.025	0.049
-425.573	-155.992	-0.248	0.016
-424.559	-9.744	-0.310	-0.205
-423.544	185.273	0.120	-0.178
-422.530	81.064	-0.281	0.302
-421.515	11.744	-0.214	0.164
-420.500	-62.358	0.307	0.127
-419.486	-86.973	-0.270	-0.082
-418.471	-46.377	0.104	-0.051
-417.457	-62.735	0.153	-0.063
-416.442	800.000	0.053	0.177
-415.428	395.779	0.147	0.305
-414.413	99.876	0.127	-0.146
-413.398	-45.057	-0.237	-0.117
-412.384	800.000	0.048	-0.184
-411.369	124.967	0.274	0.343
-410.355	-27.488	0.067	0.039
-409.340	-29.165	0.074	-0.042
-408.325	-56.766	-0.157	-0.069
-407.311	-109.259	0.392	-0.083
-406.296	-77.925	0.380	-0.130
-405.282	171.613	0.069	-0.098
-404.267	-152.439	0.184	0.013
-403.252	-89.445	0.285	-0.083
-402.238	800.000	0.066	0.248
-401.223	-146.570	-0.232	-0.020
-400.209	198.481	-0.105	0.159
-399.194	180.972	-0.264	-0.386
-398.179	-197.159	0.132	0.001
-397.165	-108.179	-0.225	0.048
-396.150	124.823	-0.242	0.303
-395.136	-83.986	0.319	-0.101
-394.121	-200.000	0.018	0.256
-393.106	-200.000	0.020	-0.147
-392.092	488.463	-0.049	-0.110
-391.077	-200.000	0.142	-0.000
-390.063	225.735	-0.070	0.112
-389.048	312.151	-0.064	-0.119
-388.033	-39.250	0.079	-0.041
-387.019	163.359	-0.187	-0.261
-386.004	-200.000	-0.007	-0.178
-384.990	92.747	0.248	-0.278
-383.975	-200.000	-0.004	0.363
-382.960	23.473	0.171	-0.140
-381.946	40.793	0.050	0.045
-380.931	-44.150	-0.123	0.061
-379.917	-62.760	-0.035	-0.014
-378.902	-200.000	0.025	-0.323
-377.888	-200.000	-0.069	-0.312
-376.873	-164.186	-0.242	-0.011
-375.858	40.592	0.192	-0.172
-374.844	17.989	0.130	-0.103
-373.829	275.988	0.090	0.158
-372.815	474.036	0.081	-0.180
-371.800	800.000	-0.089	0.373
-370.785	-16.907	-0.168	-0.105
-369.771	-200.000	-0.001	-0.044
-368.756	166.282	-0.292	-0.410
-367.742	109.914	0.268	-0.320
-366.727	-200.000	0.037	-0.272
-365.712	-1.148	-0.324	0.227
-364.698	-43.886	0.211	-0.105
-363.683	77.566	0.051	-0.054
-362.669	-153.728	-0.203	0.014
-361.654	-200.000	-0.012	0.146
-360.639	-200.000	0.054	0.433
-359.625	-77.506	-0.119	0.041
-358.610	-120.787	0.154	-0.026
-357.596	155.302	0.095	-0.129
-356.581	-32.341	0.079	0.044
-355.566	800.000	-0.103	0.389
-354.552	55.268	-0.004	0.004
-353.537	393.965	-0.088	-0.182
-352.523	-63.016	0.144	-0.059
-351.508	700.151	0.194	0.508
-350.493	35.348	-0.221	-0.192
-349.479	-200.000	0.017	0.211
-348.464	-200.000	-0.025	0.297
-347.450	-60.456	-0.218	0.092
-346.435	225.915	-0.126	-0.203
-345.420	-35.063	0.232	-0.126
-344.406	800.000	-0.106	0.412
-343.391	331.921	0.145	0.278
-342.377	-23.031	0.352	-0.210
-341.362	350.110	-0.050	0.098
-340.348	537.763	0.035	0.083
-339.333	-45.631	0.134	-0.066
-338.318	183.995	-0.096	-0.141
-337.304	207.762	0.117	-0.181
-336.289	-100.102	0.293	-0.072
-335.275	280.386	0.008	0.015
-334.260	-16.829	0.099	-0.062
-333.245	-200.000	-0.001	0.048
-332.231	-200.000	0.012	-0.208
-331.216	76.670	-0.131	-0.138
-330.202	306.964	-0.061	0.113
-329.187	203.014	-0.033	-0.051
-328.172	3.984	-0.165	-0.120
-327.158	-35.485	0.073	0.039
-326.143	-200.000	-0.050	0.377
-325.129	-169.485	-0.122	0.004
-324.114	416.529	0.133	-0.282
-323.099	-57.998	0.241	0.104
-322.085	-200.000	0.021	0.230
-321.070	120.505	-0.198	-0.243
-320.056	261.695	0.020	-0.035
-319.041	-90.602	-0.154	-0.044
-318.026	-27.736	-0.289	-0.166
-317.012	-200.000	0.022	0.202
-315.997	448.373	-0.057	0.124
-314.983	-94.320	-0.191	-0.052
-313.968	2.670	-0.283	0.203
-312.953	-17.479	-0.054	0.034
-311.939	-159.412	0.251	0.014
-310.924	-89.841	0.236	-0.068
-309.910	800.000	0.085	0.233
-308.895	0.309	0.021	-0.015
-307.880	172.385	-0.142	0.202
-306.866	-200.000	-0.047	-0.281
-305.851	-48.958	-0.196	0.093
-304.837	-6.620	0.089	-0.060
-303.822	566.838	0.161	-0.386
-302.807	79.220	0.202	0.214
-301.793	271.856	0.203	-0.355
-300.778	-89.316	-0.118	0.034
-299.764	800.000	-0.084	0.306
-298.749	679.046	-0.123	0.318
-297.735	-200.000	0.009	0.203
-296.720	-200.000	-0.016	0.312
-295.705	-140.949	0.224	0.023
-294.691	15.714	-0.124	-0.096
-293.676	108.484	-0.067	0.079
-292.662	394.948	0.145	-0.300
-291.647	71.015	0.112	-0.115
-290.632	800.000	-0.037	-0.132
-289.618	-81.910	-0.208	0.067
-288.603	-2.000	-0.118	-0.082
-287.589	-100.605	-0.093	0.023
-286.574	187.227	-0.123	-0.181
-285.559	800.000	0.034	-0.106
-284.545	296.459	-0.042	0.076
-283.530	66.623	-0.119	0.119
-282.516	-71.587	-0.262	0.097
-281.501	-200.000	0.007	-0.092
-280.486	800.000	0.061	-0.203
-279.472	-200.000	-0.033	0.301
-278.457	73.202	0.095	0.098
-277.443	800.000	-0.065	0.258
-276.428	-23.325	0.337	0.200
-275.413	-200.000	0.012	-0.092
-274.399	82.358	0.076	-0.082
-273.384	-61.007	0.044	0.018
-272.370	-200.000	0.021	0.186
-271.355	800.000	-0.084	-0.291
-270.340	117.338	-0.118	0.144
-269.326	16.447	0.220	0.172
-268.311	244.379	-0.088	-0.146
-267.297	194.070	-0.081	0.121
-266.282	377.588	-0.036	-0.073
-265.267	351.550	-0.111	-0.218
-264.253	702.171	0.197	0.512
-263.238	279.965	-0.146	0.258
-262.224	322.492	0.095	-0.179
-261.209	-136.732	0.321	-0.037
-260.195	-90.341	-0.209	0.060
-259.180	207.066	0.158	-0.243
-258.165	800.000	-0.100	-0.323
-257.151	123.106	0.109	-0.135
-256.136	-64.482	0.093	0.037
-255.122	137.490	0.055	0.071
-254.107	-68.258	-0.290	0.112
-253.092	-44.451	-0.104	0.051
-252.078	272.040	0.081	0.140
-251.063	413.944	0.086	-0.182
-250.049	31.512	-0.131	0.112
-249.034	367.905	-0.042	-0.084
-248.019	800.000	-0.051	-0.160
-247.005	-102.857	-0.050	0.012
-245.990	-200.000	-0.086	-0.380
-244.976	-200.000	-0.022	-0.345
-243.961	-38.039	-0.461	0.242
-242.946	561.761	0.021	0.051
-241.932	200.361	0.094	0.142
-240.917	-136.965	0.258	0.029
-239.903	-141.131	0.180	-0.018
-238.888	-21.304	-0.273	0.165
-237.873	-12.759	0.035	0.023
-236.859	131.077	0.099	-0.125
-235.844	561.059	0.076	0.181
-234.830	33.883	0.193	-0.166
-233.815	-200.000	-0.106	-0.516
-232.800	-19.159	0.275	-0.168
-231.786	-200.000	-0.002	-0.146
-230.771	-200.000	-0.009	0.246
-229.757	-37.665	-0.213	0.112
-228.742	-121.877	0.241	0.039
-227.727	800.000	0.045	0.166
-226.713	-200.000	0.024	0.189
-225.698	-69.006	-0.105	0.040
-224.684	-41.780	0.137	-0.070
-223.669	800.000	-0.026	-0.082
-222.655	-200.000	0.045	0.257
-221.640	-42.824	0.079	0.040
-220.625	111.967	0.221	0.263
-219.611	60.904	-0.132	-0.129
-218.596	-179.333	-0.154	-0.003
-217.582	-200.000	0.025	0.155
-216.567	-200.000	-0.034	-0.298
-215.552	-200.000	0.019	0.085
-214.538	800.000	0.031	-0.106
-213.523	-164.855	0.206	-0.009
-212.509	154.971	-0.118	-0.160
-211.494	-73.711	-0.117	-0.042
-210.479	-200.000	-0.058	-0.285
-209.465	117.822	-0.087	0.106
-208.450	800.000	0.095	0.303
-207.436	-62.746	-0.131	-0.054
-206.421	-200.000	-0.024	-0.222
-205.406	-200.000	-0.030	-0.158
-204.392	86.313	-0.039	0.043
-203.377	-151.837	-0.172	0.012
-202.363	-185.303	0.188	0.003
-201.348	-200.000	0.052	0.245
-200.333	-200.000	-0.006	0.197
-199.319	-85.887	0.229	-0.070
-198.304	-109.535	0.322	-0.067
-197.290	-31.929	-0.160	0.088
-196.275	-168.393	0.167	-0.006
-195.260	-34.574	0.134	0.072
-194.246	45.648	-0.166	-0.151
-193.231	-24.171	0.353	-0.208
-192.217	160.508	-0.097	0.133
-191.202	-67.846	0.132	-0.051
-190.187	238.613	0.073	0.120
-189.173	172.949	-0.114	0.162
-188.158	-43.258	-0.236	-0.118
-187.144	-79.117	-0.291	-0.097
-186.129	23.356	0.159	-0.129
-185.114	8.060	0.378	0.279
-184.100	303.235	0.121	0.222
-183.085	527.260	0.103	-0.240
-182.071	-77.126	-0.145	0.050
-181.056	443.369	0.227	0.490
-180.042	-200.000	0.008	0.051
-179.027	-98.975	-0.370	0.093
-178.012	52.769	0.217	0.204
-176.998	9.050	0.215	-0.160
-175.983	622.962	-0.025	0.062
-174.969	310.919	-0.172	-0.317
-173.954	212.599	-0.151	0.234
-172.939	102.114	0.134	0.155
-171.925	-200.000	-0.045	0.246
-170.910	-0.650	-0.144	0.101
-169.896	-30.341	-0.184	0.103
-168.881	186.531	0.204	0.298
-167.866	-22.463	-0.284	-0.170
-166.852	189.010	-0.052	-0.077
-165.837	800.000	-0.044	0.124
-164.823	-200.000	0.005	0.303
-163.808	-35.946	0.262	0.140
-162.793	-27.023	0.168	-0.097
-161.779	-46.330	0.144	-0.069
-160.764	18.876	0.283	-0.223
-159.750	-139.320	0.354	0.037
-158.735	32.204	0.054	0.046
-157.720	-84.744	-0.229	0.071
-156.706	-103.837	0.103	-0.024
-155.691	-200.000	0.074	-0.520
-154.677	-200.000	0.004	0.076
-153.662	7.931	-0.149	-0.110
-152.647	-81.873	-0.274	-0.088
-151.633	576.226	0.048	0.116
-150.618	7.514	0.129	-0.095
-149.604	390.306	-0.159	-0.325
-148.589	619.782	-0.031	-0.078
-147.574	15.058	-0.055	-0.042
-146.560	32.157	0.118	-0.100
-145.545	-67.185	0.324	-0.126
-144.531	-66.707	-0.083	0.032
-143.516	-200.000	0.005	-0.044
-142.502	-116.315	0.333	-0.061
-141.487	-37.944	0.094	-0.049
-140.472	120.983	0.056	-0.069
-139.458	-200.000	0.018	-0.266
-138.443	292.471	-0.303	0.543
-137.429	-79.657	0.190	-0.063
-136.414	-17.991	0.277	-0.171
-135.399	59.216	0.121	-0.117
-134.385	-40.027	0.133	-0.068
-133.370	-2.891	-0.088	0.060
-132.356	-72.978	-0.138	-0.050
-131.341	-128.341	-0.175	-0.024
-130.326	157.533	-0.274	-0.373
-129.312	-130.163	-0.540	0.072
-128.297	46.028	-0.153	0.139
-127.283	118.771	-0.123	0.150
-126.268	135.061	0.104	-0.132
-125.253	-111.960	0.138	0.027
-124.239	-32.519	0.164	0.090
-123.224	189.938	0.126	0.185
-122.210	114.547	0.051	-0.061
-121.195	-39.980	0.268	0.137
