DTS Sentinel unit serial number:	SN413079Multiplexer serial number:	ORYXHardware model number:	OX4-SRSoftware version number:	ORYX F/W v4.00 Oryx Data Collector v3.7.2.0data status	okinstallation	princeton_trtdifferential loss correction	single-endedforward channel	channel 1reverse channel	N/Adate	2019/09/17time	11:34:35forward acquisition time	60.00reverse acquisition time	0.00gamma	496.2192k internal	0.2323k external	0.2323temperature offset calibration	0.9974default loss term (dB/km)	0.3790temperature slope calibration	1.0000multiplexer offset coefficient	1.0000multiplexer slope coefficient	1.0000fibre end	0.00T internal ref (°C)	30.75T ext. ref 1 (°C)	0.36T ext. ref 2 (°C)	26.51length (m)	temperature (°C)	Stokes	anti-Stokes-747.200	307.147	-0.076	0.142
-746.185	254.348	-0.067	-0.115
-745.171	-1.253	-0.105	0.075
-744.156	-55.264	0.121	0.055
-743.142	-56.116	0.160	-0.072
-742.127	800.000	0.042	-0.158
-741.112	-65.391	0.189	-0.077
-740.098	-200.000	0.026	0.293
-739.083	330.926	-0.061	0.118
-738.069	-200.000	0.015	0.251
-737.054	474.600	0.186	-0.423
-736.039	800.000	0.082	-0.306
-735.025	99.584	-0.060	0.070
-734.010	-200.000	-0.026	0.134
-732.996	-83.523	0.167	-0.054
-731.981	128.418	-0.277	-0.357
-730.966	-26.576	-0.311	-0.184
-729.952	-200.000	-0.027	0.374
-728.937	581.928	0.143	0.353
-727.923	-97.483	0.110	0.029
-726.908	800.000	-0.080	-0.342
-725.894	-160.449	-0.301	-0.016
-724.879	-140.276	0.198	0.021
-723.864	-200.000	-0.017	-0.078
-722.850	-82.989	-0.222	-0.072
-721.835	17.060	-0.141	0.113
-720.821	-64.138	0.135	-0.055
-719.806	307.898	-0.125	0.236
-718.791	-53.101	0.314	0.146
-717.777	800.000	-0.067	0.262
-716.762	-52.065	-0.110	-0.052
-715.748	123.268	0.109	-0.137
-714.733	533.804	-0.066	-0.157
-713.718	-91.807	0.147	0.042
-712.704	134.634	-0.057	-0.074
-711.689	329.599	0.150	-0.290
-710.675	800.000	-0.070	-0.198
-709.660	60.448	0.060	0.060
-708.645	-200.000	0.051	0.280
-707.631	269.599	0.082	0.145
-706.616	63.696	-0.075	0.076
-705.602	800.000	-0.037	0.109
-704.587	-200.000	-0.066	0.306
-703.572	-155.200	-0.289	0.019
-702.558	341.945	-0.050	-0.098
-701.543	289.673	0.097	-0.177
-700.529	45.847	0.246	0.230
-699.514	-200.000	-0.005	0.147
-698.499	-21.709	0.176	-0.108
-697.485	-200.000	0.018	-0.330
-696.470	494.845	-0.070	0.161
-695.456	140.184	-0.191	-0.254
-694.441	-151.155	0.222	0.017
-693.426	11.452	-0.162	-0.125
-692.412	-200.000	0.012	0.128
-691.397	-200.000	0.009	-0.305
-690.383	679.841	0.149	-0.391
-689.368	-134.653	-0.178	-0.022
-688.354	561.032	0.057	-0.138
-687.339	8.142	-0.052	0.039
-686.324	-29.493	-0.257	0.148
-685.310	-193.862	-0.140	-0.001
-684.295	-149.005	-0.044	0.004
-683.281	-117.733	-0.286	-0.052
-682.266	-188.087	0.266	0.003
-681.251	421.631	-0.163	-0.353
-680.237	226.925	-0.209	-0.342
-679.222	-200.000	-0.053	-0.246
-678.208	-3.854	-0.171	0.119
-677.193	-2.630	-0.313	-0.221
-676.178	-200.000	0.011	-0.066
-675.164	26.645	0.113	0.095
-674.149	50.215	0.178	-0.169
-673.135	682.718	-0.059	-0.155
-672.120	48.678	0.156	-0.147
-671.105	-1.786	-0.120	-0.085
-670.091	-200.000	-0.002	-0.313
-669.076	-68.544	0.145	-0.057
-668.062	-80.672	-0.144	0.048
-667.047	-23.220	-0.276	0.167
-666.032	-200.000	-0.023	-0.394
-665.018	49.347	0.215	-0.203
-664.003	800.000	0.063	-0.182
-662.989	-116.198	-0.308	-0.058
-661.974	800.000	-0.054	-0.159
-660.959	-11.140	0.224	0.148
-659.945	76.009	-0.154	-0.164
-658.930	-68.786	-0.101	0.039
-657.916	452.350	-0.121	-0.270
-656.901	-200.000	0.004	0.089
-655.886	-200.000	0.041	0.242
-654.872	632.633	-0.048	-0.123
-653.857	-200.000	0.035	-0.245
-652.843	439.345	0.080	0.176
-651.828	95.904	-0.132	0.151
-650.814	-200.000	-0.023	-0.168
-649.799	-106.130	0.060	0.014
-648.784	20.421	-0.247	-0.201
-647.770	116.882	0.164	0.202
-646.755	156.705	-0.084	0.117
-645.741	5.912	-0.145	-0.108
-644.726	-71.077	-0.038	-0.014
-643.711	-28.355	0.207	-0.120
-642.697	-102.147	-0.211	0.051
-641.682	-83.150	-0.092	0.030
-640.668	-29.292	-0.175	0.101
-639.653	230.464	-0.053	0.087
-638.638	-200.000	0.065	-0.409
-637.624	313.590	-0.195	-0.369
-636.609	358.527	0.028	-0.055
-635.595	-98.330	0.096	0.025
-634.580	410.952	0.109	-0.232
-633.565	-1.899	0.374	-0.265
-632.551	-198.280	0.202	-0.001
-631.536	-200.000	0.004	-0.203
-630.522	800.000	0.120	-0.366
-629.507	-92.839	0.108	-0.030
-628.492	693.761	-0.053	-0.139
-627.478	-33.589	0.103	-0.057
-626.463	-200.000	-0.001	-0.016
-625.449	129.415	-0.163	0.209
-624.434	617.582	-0.087	-0.220
-623.419	800.000	0.019	-0.061
-622.405	367.939	-0.055	0.111
-621.390	-200.000	0.015	-0.140
-620.376	-102.594	-0.300	-0.072
-619.361	-200.000	0.014	-0.315
-618.346	93.384	-0.202	-0.230
-617.332	-57.556	-0.164	-0.072
-616.317	-106.819	0.274	-0.061
-615.303	221.558	0.057	-0.093
-614.288	17.333	0.050	-0.040
-613.273	-70.171	0.190	-0.072
-612.259	166.261	-0.049	-0.070
-611.244	198.194	0.110	-0.169
-610.230	-172.041	-0.233	0.008
-609.215	-200.000	0.232	0.000
-608.201	40.980	0.144	0.131
-607.186	-117.055	0.189	-0.035
-606.171	-200.000	0.086	-0.403
-605.157	305.343	-0.152	0.285
-604.142	800.000	0.023	-0.067
-603.128	-1.673	0.366	0.259
-602.113	10.784	-0.121	-0.093
-601.098	549.602	0.076	-0.183
-600.084	45.673	0.106	0.099
-599.069	13.113	-0.035	-0.027
-598.055	219.141	0.054	-0.087
-597.040	-75.201	-0.148	-0.053
-596.025	6.397	0.111	-0.082
-595.011	-80.692	-0.334	-0.112
-593.996	468.424	-0.075	0.170
-592.982	-200.000	0.023	0.239
-591.967	9.378	-0.143	-0.108
-590.952	174.611	-0.097	0.141
-589.938	-146.148	-0.203	-0.018
-588.923	127.217	-0.186	0.237
-587.909	115.464	0.031	-0.038
-586.894	113.472	0.045	-0.055
-585.879	800.000	0.012	0.043
-584.865	227.944	0.297	0.485
-583.850	-136.842	-0.112	0.013
-582.836	-85.302	-0.351	0.110
-581.821	-44.202	-0.083	0.042
-580.806	336.532	-0.225	0.438
-579.792	-137.762	0.407	0.046
-578.777	-200.000	-0.017	-0.118
-577.763	-26.981	0.257	-0.151
-576.748	379.008	0.031	-0.063
-575.733	146.563	-0.098	-0.132
-574.719	144.424	-0.191	-0.256
-573.704	75.358	-0.063	-0.066
-572.690	-85.942	-0.084	-0.026
-571.675	-17.212	0.061	-0.039
-570.661	322.582	0.125	-0.238
-569.646	-200.000	0.037	-0.387
-568.631	-37.157	0.193	-0.103
-567.617	718.670	-0.137	0.364
-566.602	546.489	-0.119	0.286
-565.588	800.000	0.024	-0.093
-564.573	614.056	0.029	0.072
-563.558	735.726	-0.032	-0.087
-562.544	50.907	-0.124	0.118
-561.529	297.066	-0.034	0.063
-560.515	800.000	-0.086	0.258
-559.500	-91.910	0.024	-0.007
-558.485	594.504	-0.157	0.389
-557.471	356.481	-0.101	-0.201
-556.456	109.609	0.129	-0.154
-555.442	800.000	-0.039	0.129
-554.427	-200.000	-0.006	-0.101
-553.412	17.013	0.093	-0.074
-552.398	800.000	-0.060	-0.175
-551.383	-51.148	-0.148	-0.070
-550.369	-138.930	0.272	-0.030
-549.354	82.375	-0.071	0.077
-548.339	-18.185	0.064	0.040
-547.325	-200.000	0.007	0.149
-546.310	-80.392	-0.190	-0.063
-545.296	-95.719	-0.269	0.072
-544.281	489.654	-0.047	0.107
-543.266	108.377	0.055	0.066
-542.252	-151.242	-0.095	-0.007
-541.237	91.193	0.185	-0.208
-540.223	18.842	-0.339	-0.272
-539.208	61.893	0.308	-0.308
-538.193	387.506	0.046	-0.096
-537.179	-200.000	0.037	0.229
-536.164	800.000	0.002	-0.009
-535.150	10.705	-0.136	-0.104
-534.135	10.690	0.282	0.215
-533.121	264.003	-0.095	-0.165
-532.106	101.870	-0.194	0.227
-531.091	800.000	0.055	-0.152
-530.077	91.914	-0.097	-0.109
-529.062	-150.975	-0.141	0.011
-528.048	110.925	-0.106	-0.127
-527.033	88.850	0.350	-0.390
-526.018	-140.253	0.455	-0.048
-525.004	-200.000	0.008	-0.167
-523.989	800.000	-0.089	0.327
-522.975	-84.539	-0.296	0.093
-521.960	-65.396	-0.340	0.137
-520.945	427.079	0.094	-0.202
-519.931	-200.000	0.001	0.039
-518.916	-58.675	0.064	-0.028
-517.902	163.134	-0.024	0.033
-516.887	17.530	0.264	0.210
-515.872	288.067	-0.089	-0.160
-514.858	184.629	-0.076	0.112
-513.843	308.645	0.058	0.109
-512.829	3.999	0.335	0.245
-511.814	-200.000	-0.029	0.192
-510.799	-13.945	-0.295	0.191
-509.785	-200.000	0.058	-0.315
-508.770	56.757	0.159	0.155
-507.756	-88.953	-0.215	0.064
-506.741	-174.313	0.251	-0.007
-505.726	800.000	-0.059	-0.226
-504.712	52.678	-0.321	0.307
-503.697	-65.483	0.174	0.070
-502.683	-82.316	0.163	-0.053
-501.668	-43.446	-0.105	0.053
-500.653	-101.809	0.115	0.028
-499.639	-32.069	-0.174	-0.098
-498.624	51.498	0.068	0.064
-497.610	650.427	-0.127	0.324
-496.595	166.611	-0.170	0.241
-495.581	184.145	0.047	-0.070
-494.566	-101.547	-0.354	-0.086
-493.551	-200.000	-0.056	-0.348
-492.537	102.054	0.030	-0.035
-491.522	273.109	0.140	0.246
-490.508	-106.627	-0.223	0.050
-489.493	-96.546	-0.048	-0.013
-488.478	33.942	0.174	0.151
-487.464	91.362	-0.229	0.257
-486.449	31.043	-0.169	-0.145
-485.435	155.336	-0.061	0.084
-484.420	-67.032	0.128	0.051
-483.405	23.824	-0.071	0.059
-482.391	-4.773	-0.073	0.050
-481.376	130.166	-0.152	0.195
-480.362	-47.306	0.254	-0.124
-479.347	210.903	-0.083	-0.131
-478.332	-200.000	0.023	-0.173
-477.318	178.192	-0.082	0.119
-476.303	-64.917	0.299	0.121
-475.289	768.249	-0.056	0.152
-474.274	151.891	-0.196	-0.268
-473.259	346.287	-0.078	0.152
-472.245	82.485	0.148	0.160
-471.230	-200.000	0.073	-0.336
-470.216	240.536	0.140	0.234
-469.201	-116.377	-0.518	0.096
-468.186	256.117	-0.071	-0.122
-467.172	342.130	0.103	-0.201
-466.157	-200.000	0.006	-0.398
-465.143	287.985	0.106	0.192
-464.128	-57.226	-0.064	-0.028
-463.113	35.409	0.202	0.177
-462.099	-109.677	-0.256	0.054
-461.084	76.939	-0.307	0.326
-460.070	-92.354	0.194	-0.054
-459.055	-138.622	0.099	0.011
-458.040	82.551	0.259	0.281
-457.026	800.000	-0.068	0.214
-456.011	-73.145	-0.270	0.099
-454.997	-86.830	-0.107	0.033
-453.982	24.191	0.154	-0.127
-452.968	19.676	-0.205	-0.165
-451.953	-88.178	-0.219	0.065
-450.938	41.331	-0.189	-0.171
-449.924	-66.312	-0.244	-0.097
-448.909	-17.312	0.295	0.185
-447.895	-8.470	0.242	0.162
-446.880	-51.969	0.169	0.079
-445.865	177.802	0.219	-0.319
-444.851	-47.349	0.214	0.104
-443.836	-180.514	-0.158	-0.003
-442.822	-200.000	0.017	-0.175
-441.807	-38.572	-0.393	0.207
-440.792	137.650	0.289	-0.378
-439.778	-82.391	0.048	-0.016
-438.763	-94.995	0.249	-0.067
-437.749	-172.994	-0.086	-0.003
-436.734	4.910	0.082	-0.060
-435.719	24.682	0.293	0.242
-434.705	-43.647	-0.097	-0.049
-433.690	-200.000	-0.042	0.279
-432.676	800.000	0.025	0.103
-431.661	-83.799	-0.166	0.053
-430.646	28.639	-0.124	-0.104
-429.632	-40.631	-0.272	-0.141
-428.617	800.000	0.072	-0.284
-427.603	497.286	-0.001	-0.001
-426.588	-112.105	0.403	0.081
-425.573	-87.562	0.290	-0.088
-424.559	-65.047	0.202	0.081
-423.544	126.974	-0.324	0.409
-422.530	-200.000	0.030	0.443
-421.515	-175.313	-0.043	-0.001
-420.500	578.116	-0.120	-0.294
-419.486	-122.884	0.170	0.027
-418.471	-86.573	0.216	-0.066
-417.457	-91.508	0.146	0.042
-416.442	68.561	-0.148	0.151
-415.428	-58.896	-0.326	-0.141
-414.413	118.373	-0.235	0.288
-413.398	-51.361	-0.214	0.100
-412.384	89.967	-0.045	-0.050
-411.369	226.274	0.112	0.181
-410.355	27.008	0.063	0.052
-409.340	48.716	-0.083	-0.077
-408.325	-13.561	0.033	-0.021
-407.311	-61.946	0.375	0.156
-406.296	6.752	0.317	-0.235
-405.282	-45.493	0.105	-0.052
-404.267	3.034	-0.235	0.170
-403.252	11.962	0.494	0.379
-402.238	-39.033	0.082	0.043
-401.223	36.912	-0.079	-0.070
-400.209	27.808	0.274	0.230
-399.194	-43.203	-0.095	0.048
-398.179	-90.836	0.333	-0.096
-397.165	76.788	0.094	-0.099
-396.150	-200.000	-0.006	0.201
-395.136	-173.431	0.104	0.003
-394.121	-114.326	0.161	-0.031
-393.106	26.709	-0.304	0.253
-392.092	-200.000	-0.023	0.254
-391.077	-32.038	0.178	-0.099
-390.063	39.178	0.117	0.105
-389.048	404.998	0.117	0.247
-388.033	-86.225	-0.359	-0.110
-387.019	-149.346	-0.204	-0.016
-386.004	-96.963	-0.400	0.104
-384.990	-110.803	0.225	-0.046
-383.975	-39.527	-0.301	0.157
-382.960	3.673	0.293	0.213
-381.946	-0.580	0.103	-0.073
-380.931	-106.050	-0.222	0.050
-379.917	-200.000	0.072	-0.382
-378.902	-108.490	-0.195	-0.042
-377.888	-200.000	-0.001	-0.016
-376.873	199.328	-0.026	0.039
-375.858	79.217	-0.045	-0.048
-374.844	-200.000	0.036	0.216
-373.829	-71.853	0.195	0.072
-372.815	800.000	-0.159	0.509
-371.800	329.894	0.011	0.022
-370.785	800.000	0.049	0.186
-369.771	-200.000	0.046	-0.314
-368.756	800.000	-0.043	-0.157
-367.742	17.920	-0.259	-0.205
-366.727	800.000	0.105	0.312
-365.712	-71.659	-0.375	-0.139
-364.698	-126.543	-0.277	0.041
-363.683	45.610	0.093	-0.085
-362.669	-89.914	0.246	0.072
-361.654	232.919	0.008	0.014
-360.639	-200.000	-0.012	0.113
-359.625	-84.470	0.087	-0.027
-358.610	46.147	0.137	-0.126
-357.596	800.000	-0.046	0.198
-356.581	-136.061	0.075	0.009
-355.566	-200.000	0.030	-0.136
-354.552	-138.838	0.382	0.041
-353.537	-158.598	-0.109	0.006
-352.523	532.416	0.086	0.203
-351.508	-71.901	-0.307	0.114
-350.493	800.000	0.043	0.127
-349.479	453.675	0.253	-0.556
-348.464	-52.560	0.267	-0.123
-347.450	800.000	0.026	0.074
-346.435	-110.799	-0.103	-0.021
-345.420	-77.364	-0.198	0.069
-344.406	-200.000	-0.043	0.244
-343.391	-200.000	-0.004	-0.138
-342.377	-131.531	-0.348	0.046
-341.362	-54.022	-0.215	-0.097
-340.348	29.008	-0.157	0.133
-339.333	-200.000	0.011	-0.252
-338.318	-84.705	-0.103	-0.032
-337.304	-69.539	-0.234	-0.089
-336.289	800.000	0.090	-0.284
-335.275	-117.960	0.326	-0.058
-334.260	-147.506	0.150	0.013
-333.245	800.000	-0.042	-0.159
-332.231	-200.000	-0.011	-0.291
-331.216	-3.327	-0.258	0.179
-330.202	-132.044	0.465	-0.060
-329.187	-25.554	0.240	-0.141
-328.172	-92.891	0.189	0.053
-327.158	800.000	-0.065	0.196
-326.143	-153.554	0.194	-0.013
-325.129	48.668	-0.068	0.064
-324.114	-54.517	-0.289	-0.130
-323.099	-200.000	-0.003	0.035
-322.085	215.195	0.066	0.104
-321.070	-146.432	-0.187	0.016
-320.056	-42.996	0.213	-0.107
-319.041	519.653	-0.100	-0.233
-318.026	-23.217	-0.053	-0.032
-317.012	171.363	0.119	-0.170
-315.997	-160.704	0.183	-0.010
-314.983	-81.099	-0.082	-0.027
-313.968	-200.000	-0.016	-0.149
-312.953	-135.699	0.145	0.017
-311.939	222.033	0.114	-0.181
-310.924	302.466	-0.099	0.181
-309.910	43.391	0.052	-0.047
-308.895	-49.365	0.053	-0.025
-307.880	-200.000	-0.029	-0.130
-306.866	81.854	-0.064	0.069
-305.851	3.345	-0.264	0.191
-304.837	800.000	0.123	-0.467
-303.822	179.758	-0.067	-0.097
-302.807	53.690	-0.245	-0.234
-301.793	800.000	-0.146	-0.508
-300.778	15.571	0.320	0.249
-299.764	-50.012	0.135	-0.064
-298.749	-128.655	-0.029	-0.004
-297.735	800.000	-0.044	0.171
-296.720	154.581	0.134	0.182
-295.705	-108.915	0.104	0.022
-294.691	76.245	0.263	0.276
-293.676	192.231	0.069	0.104
-292.662	-200.000	0.169	0.000
-291.647	360.416	0.102	0.202
-290.632	-109.696	0.058	0.012
-289.618	181.565	0.280	-0.409
-288.603	-121.958	-0.183	-0.030
-287.589	800.000	0.058	-0.216
-286.574	299.970	0.058	0.105
-285.559	169.449	-0.179	-0.253
-284.545	-90.329	0.145	-0.042
-283.530	-51.515	-0.178	0.082
-282.516	-200.000	0.009	0.102
-281.501	357.393	0.104	0.206
-280.486	-50.562	0.007	0.003
-279.472	-81.238	0.071	0.023
-278.457	-12.679	-0.241	-0.156
-277.443	-81.473	0.225	-0.073
-276.428	-16.581	0.163	-0.102
-275.413	46.744	0.272	-0.250
-274.399	105.229	0.098	0.115
-273.384	-79.294	-0.201	-0.068
-272.370	-43.723	0.515	0.257
-271.355	800.000	0.075	-0.248
-270.340	-44.157	0.149	0.074
-269.326	-200.000	0.025	-0.337
-268.311	-133.549	-0.267	0.033
-267.297	-200.000	-0.075	0.343
-266.282	-200.000	-0.004	-0.245
-265.267	51.508	-0.111	-0.104
-264.253	-133.807	0.320	0.039
-263.238	207.093	-0.093	-0.144
-262.224	-78.865	0.287	-0.097
-261.209	-108.660	-0.280	0.060
-260.195	-114.448	0.114	0.022
-259.180	361.903	0.075	0.149
-258.165	11.823	0.098	-0.075
-257.151	-200.000	-0.001	0.206
-256.136	729.870	0.140	0.371
-255.122	32.174	-0.201	0.172
-254.107	-145.687	-0.129	-0.011
-253.092	12.637	0.167	0.128
-252.078	-200.000	-0.021	0.155
-251.063	-89.905	-0.050	0.014
-250.049	800.000	-0.036	0.156
-249.034	-200.000	-0.014	-0.080
-248.019	-82.876	-0.388	0.124
-247.005	27.898	-0.209	-0.174
-245.990	39.324	-0.072	-0.064
-244.976	100.577	0.375	0.431
-243.961	-77.904	0.332	-0.113
-242.946	-102.813	-0.412	-0.097
-241.932	-200.000	-0.021	0.181
-240.917	-84.841	-0.375	-0.117
-239.903	-134.223	0.433	-0.053
-238.888	-200.000	0.025	0.246
-237.873	-15.210	0.044	0.028
-236.859	-64.112	0.051	0.021
-235.844	167.031	-0.036	0.050
-234.830	800.000	-0.130	-0.557
-233.815	-77.353	-0.323	-0.111
-232.800	121.315	-0.072	0.089
-231.786	-148.735	0.291	-0.023
-230.771	-29.507	0.151	-0.086
-229.757	800.000	-0.131	-0.411
-228.742	-196.569	-0.202	0.001
-227.727	200.427	-0.304	0.462
-226.713	-24.866	0.119	-0.070
-225.698	728.126	-0.012	0.030
-224.684	-47.959	0.183	0.088
-223.669	800.000	0.055	0.181
-222.655	-163.527	-0.190	-0.009
-221.640	-200.000	-0.017	-0.550
-220.625	-200.000	-0.024	-0.135
-219.611	317.659	-0.152	0.284
-218.596	-27.626	-0.182	0.105
-217.582	-109.568	0.090	0.019
-216.567	-200.000	0.020	-0.286
-215.552	-172.529	-0.180	-0.006
-214.538	-55.573	0.261	0.116
-213.523	-121.671	0.129	-0.021
-212.509	23.298	0.173	-0.141
-211.494	-139.058	-0.366	0.039
-210.479	-33.067	0.094	-0.051
-209.465	-200.000	-0.009	0.101
-208.450	-165.464	0.281	-0.012
-207.436	-132.067	-0.187	0.024
-206.421	-72.540	0.206	0.075
-205.406	288.227	-0.113	-0.202
-204.392	259.154	-0.206	0.351
-203.377	-200.000	0.004	0.021
-202.363	345.271	0.050	-0.096
-201.348	630.967	0.097	-0.243
-200.333	-200.000	0.016	-0.094
-199.319	-102.393	0.227	-0.054
-198.304	-200.000	-0.008	-0.232
-197.290	152.310	-0.176	0.238
-196.275	-11.526	-0.102	0.066
-195.260	-132.699	0.395	0.050
-194.246	800.000	-0.053	0.181
-193.231	-0.312	-0.225	-0.158
-192.217	742.441	-0.029	-0.077
-191.202	325.672	0.077	-0.146
-190.187	679.632	-0.039	-0.101
-189.173	-62.257	-0.077	0.032
-188.158	-79.057	0.068	0.023
-187.144	215.177	0.121	-0.190
-186.129	800.000	-0.031	-0.108
-185.114	-89.405	0.110	-0.032
-184.100	200.381	0.078	0.119
-183.085	-119.892	-0.133	-0.023
-182.071	-90.178	-0.301	0.087
-181.056	-200.000	0.052	0.258
-180.042	-125.583	-0.130	-0.019
-179.027	800.000	0.012	0.040
-178.012	-11.136	-0.132	-0.086
-176.998	-175.877	-0.117	-0.003
-175.983	211.595	-0.031	0.049
-174.969	480.696	0.038	-0.086
-173.954	-200.000	-0.017	0.221
-172.939	-200.000	0.016	-0.180
-171.925	-109.296	-0.112	-0.023
-170.910	-121.627	-0.094	-0.015
-169.896	128.977	-0.152	0.191
-168.881	-200.000	-0.020	-0.423
-167.866	-200.000	-0.015	0.111
-166.852	288.749	0.132	0.236
-165.837	-200.000	-0.017	0.303
-164.823	-43.187	0.187	0.093
-163.808	-99.615	-0.124	0.031
-162.793	-40.068	0.144	-0.074
-161.779	695.089	-0.105	0.272
-160.764	-32.390	-0.411	-0.227
-159.750	-200.000	-0.015	0.090
-158.735	697.387	0.061	0.157
-157.720	-172.019	0.112	0.004
-156.706	-100.846	0.112	0.027
-155.691	-63.964	-0.124	-0.050
-154.677	-144.602	0.317	-0.029
-153.662	-200.000	-0.003	0.188
-152.647	-67.692	-0.165	-0.064
-151.633	338.061	0.134	0.257
-150.618	-61.342	0.077	-0.032
-149.604	-124.472	-0.178	0.027
-148.589	175.185	0.193	-0.276
-147.574	72.704	-0.284	-0.292
-146.560	129.077	-0.081	0.101
-145.545	54.109	0.197	-0.187
-144.531	-70.331	-0.098	0.037
-143.516	-109.238	0.250	-0.052
-142.502	366.962	0.062	-0.123
-141.487	-200.000	-0.023	-0.156
-140.472	-85.392	0.040	0.012
-139.458	668.635	0.074	-0.189
-138.443	800.000	0.150	-0.561
-137.429	-12.499	0.455	-0.293
-136.414	369.525	-0.050	0.099
-135.399	170.485	-0.138	-0.195
-134.385	19.701	0.156	-0.124
-133.370	-200.000	0.021	-0.137
-132.356	147.435	0.080	0.106
-131.341	28.573	0.159	-0.133
-130.326	-200.000	-0.069	0.352
-129.312	-200.000	0.010	-0.093
-128.297	-77.566	0.357	0.122
-127.283	292.490	-0.089	-0.159
-126.268	427.562	0.173	0.368
-125.253	-88.640	-0.238	-0.070
-124.239	337.896	0.043	-0.082
-123.224	71.922	0.154	-0.158
-122.210	424.894	0.098	-0.208
