DTS Sentinel unit serial number:	SN413079Multiplexer serial number:	ORYXHardware model number:	OX4-SRSoftware version number:	ORYX F/W v4.00 Oryx Data Collector v3.7.2.0data status	okinstallation	princeton_trtdifferential loss correction	single-endedforward channel	channel 1reverse channel	N/Adate	2019/09/14time	07:10:35forward acquisition time	60.00reverse acquisition time	0.00gamma	496.2192k internal	0.2337k external	0.2337temperature offset calibration	1.0078default loss term (dB/km)	0.3790temperature slope calibration	1.0000multiplexer offset coefficient	1.0000multiplexer slope coefficient	1.0000fibre end	0.00T internal ref (°C)	26.19T ext. ref 1 (°C)	3.42T ext. ref 2 (°C)	20.92length (m)	temperature (°C)	Stokes	anti-Stokes-747.200	-123.687	0.180	0.029
-746.185	-57.565	-0.212	0.093
-745.171	69.087	-0.096	-0.099
-744.156	-142.855	0.065	-0.006
-743.142	-47.834	-0.140	-0.068
-742.127	39.138	-0.155	0.139
-741.112	-81.709	-0.262	-0.086
-740.098	-65.902	-0.176	-0.071
-739.083	-158.143	-0.463	0.027
-738.069	800.000	0.034	-0.104
-737.054	-98.898	-0.114	-0.029
-736.039	35.589	-0.165	-0.146
-735.025	330.349	-0.148	0.287
-734.010	12.628	-0.188	-0.146
-732.996	-200.000	-0.089	-0.399
-731.981	652.479	-0.078	0.200
-730.966	76.999	-0.076	-0.081
-729.952	-98.766	-0.275	-0.070
-728.937	-0.846	-0.165	-0.117
-727.923	143.102	0.288	0.385
-726.908	-200.000	0.034	-0.448
-725.894	-85.167	-0.425	-0.133
-724.879	-110.314	0.040	-0.008
-723.864	301.624	0.025	0.047
-722.850	800.000	-0.056	0.197
-721.835	-200.000	-0.004	-0.211
-720.821	-18.124	0.194	0.122
-719.806	-94.799	-0.185	0.050
-718.791	-200.000	0.029	0.228
-717.777	10.230	-0.106	0.081
-716.762	800.000	-0.117	0.478
-715.748	15.474	-0.160	-0.126
-714.733	21.222	-0.123	-0.100
-713.718	30.583	0.248	0.213
-712.704	-200.000	-0.005	0.068
-711.689	312.580	-0.063	0.119
-710.675	800.000	-0.069	-0.215
-709.660	800.000	0.136	0.397
-708.645	-53.231	0.446	-0.205
-707.631	65.263	0.214	0.216
-706.616	800.000	0.087	-0.257
-705.602	1.359	-0.213	-0.153
-704.587	-46.571	0.148	-0.073
-703.572	-54.298	0.278	0.126
-702.558	34.858	0.103	0.091
-701.543	231.446	-0.192	-0.315
-700.529	-200.000	0.019	-0.295
-699.514	354.870	0.023	-0.045
-698.499	800.000	0.052	0.143
-697.485	-9.862	0.249	0.166
-696.470	-177.286	-0.493	0.012
-695.456	13.993	0.184	-0.144
-694.441	76.598	-0.238	0.253
-693.426	-15.482	-0.321	-0.205
-692.412	-31.515	-0.243	0.137
-691.397	800.000	-0.059	0.226
-690.383	607.676	-0.053	-0.134
-689.368	281.435	0.125	-0.224
-688.354	800.000	0.080	-0.235
-687.339	-36.842	0.306	-0.165
-686.324	800.000	-0.078	-0.224
-685.310	-96.531	0.247	0.065
-684.295	390.503	0.083	0.171
-683.281	-144.753	-0.272	-0.025
-682.266	-200.000	0.020	-0.154
-681.251	632.080	-0.020	-0.050
-680.237	407.183	-0.060	0.126
-679.222	62.765	-0.195	-0.196
-678.208	196.629	-0.060	0.092
-677.193	800.000	0.034	0.094
-676.178	103.538	-0.211	0.248
-675.164	-111.644	-0.259	0.053
-674.149	128.339	-0.130	0.166
-673.135	-69.427	-0.274	0.105
-672.120	-141.913	0.291	0.029
-671.105	-142.091	0.293	0.029
-670.091	-99.379	-0.092	0.023
-669.076	-12.698	-0.413	-0.270
-668.062	-200.000	-0.030	-0.160
-667.047	-200.000	-0.256	-0.001
-666.032	406.343	-0.136	-0.288
-665.018	153.186	0.200	0.273
-664.003	518.577	-0.068	0.160
-662.989	425.097	-0.179	-0.385
-661.974	-109.202	0.187	0.040
-660.959	-200.000	0.031	-0.328
-659.945	1.141	0.225	0.161
-658.930	447.824	0.064	0.142
-657.916	88.423	-0.086	-0.096
-656.901	-69.105	-0.283	0.109
-655.886	614.890	0.088	0.221
-654.872	-4.043	-0.071	0.049
-653.857	33.775	-0.076	-0.066
-652.843	96.998	-0.100	-0.115
-651.828	-60.677	0.208	0.088
-650.814	-108.011	0.028	-0.006
-649.799	68.240	0.045	0.046
-648.784	8.662	-0.223	0.168
-647.770	-52.405	0.290	0.134
-646.755	19.564	-0.281	0.226
-645.741	-154.065	0.414	-0.028
-644.726	-123.481	-0.308	-0.049
-643.711	800.000	-0.135	-0.401
-642.697	107.076	0.109	-0.129
-641.682	124.701	-0.116	-0.146
-640.668	12.810	-0.074	-0.057
-639.653	7.624	0.231	-0.173
-638.638	-51.367	-0.207	-0.097
-637.624	-167.643	-0.345	0.014
-636.609	-107.944	-0.586	-0.127
-635.595	-55.198	0.281	0.126
-634.580	-200.000	0.029	-0.180
-633.565	-44.287	0.203	0.102
-632.551	-175.575	-0.118	0.003
-631.536	-137.834	-0.246	0.028
-630.522	23.892	0.253	0.209
-629.507	-200.000	-0.033	0.252
-628.492	-200.000	0.043	-0.308
-627.478	-200.000	-0.003	-0.185
-626.463	800.000	-0.142	-0.514
-625.449	-200.000	0.089	-0.488
-624.434	-118.773	0.042	0.007
-623.419	-139.900	-0.352	-0.037
-622.405	56.574	0.065	0.063
-621.390	9.573	-0.058	0.044
-620.376	-18.478	-0.154	-0.096
-619.361	181.054	-0.159	0.233
-618.346	32.686	0.107	0.093
-617.332	28.929	-0.164	-0.139
-616.317	-200.000	-0.015	0.145
-615.303	-60.735	0.233	-0.099
-614.288	-200.000	0.021	0.102
-613.273	-98.221	-0.100	0.026
-612.259	-70.050	0.316	-0.120
-611.244	-26.154	0.153	0.090
-610.230	6.123	0.200	0.148
-609.215	4.943	-0.121	-0.089
-608.201	-200.000	0.030	0.242
-607.186	133.042	0.221	-0.284
-606.171	98.250	-0.110	-0.126
-605.157	-200.000	-0.043	-0.249
-604.142	130.968	-0.182	-0.233
-603.128	-153.786	-0.168	-0.012
-602.113	39.260	0.144	0.129
-601.098	-47.359	0.183	-0.089
-600.084	-93.802	0.098	-0.027
-599.069	-50.308	0.304	0.143
-598.055	-62.979	-0.242	-0.100
-597.040	-135.464	0.158	0.019
-596.025	-99.004	0.165	-0.042
-595.011	-17.548	-0.252	-0.158
-593.996	126.687	-0.086	0.109
-592.982	-200.000	-0.004	-0.026
-591.967	-73.874	0.241	0.087
-590.952	-200.000	-0.025	-0.352
-589.938	-38.927	0.030	0.016
-588.923	51.224	-0.250	-0.237
-587.909	13.713	0.070	-0.054
-586.894	198.488	0.082	0.126
-585.879	548.149	-0.050	0.120
-584.865	40.214	0.173	0.155
-583.850	-19.676	-0.209	-0.129
-582.836	-200.000	0.071	0.400
-581.821	392.577	-0.173	-0.360
-580.806	-200.000	0.051	0.227
-579.792	-150.916	0.276	-0.021
-578.777	58.677	-0.312	0.305
-577.763	0.895	0.234	-0.167
-576.748	-63.900	0.185	-0.076
-575.733	-74.216	0.235	-0.085
-574.719	612.443	0.050	-0.125
-573.704	-45.438	0.207	0.102
-572.690	-158.389	0.114	-0.007
-571.675	-68.120	-0.232	-0.090
-570.661	-200.000	-0.019	0.139
-569.646	-200.000	-0.025	0.125
-568.631	-168.150	0.328	-0.013
-567.617	-200.000	0.001	0.138
-566.602	295.641	-0.199	-0.363
-565.588	800.000	0.082	-0.274
-564.573	200.724	0.024	0.037
-563.558	32.654	-0.142	-0.122
-562.544	569.571	0.138	0.335
-561.529	-200.000	0.033	-0.274
-560.515	595.874	-0.171	0.423
-559.500	188.641	-0.144	-0.214
-558.485	91.969	0.072	-0.081
-557.471	-117.843	0.070	0.013
-556.456	800.000	0.044	0.185
-555.442	-200.000	-0.027	-0.473
-554.427	800.000	-0.084	-0.359
-553.412	5.503	-0.077	0.056
-552.398	-200.000	0.007	0.358
-551.383	191.812	-0.227	0.341
-550.369	800.000	0.103	0.306
-549.354	-200.000	0.044	0.303
-548.339	-101.525	-0.365	-0.088
-547.325	46.079	0.066	-0.061
-546.310	163.008	0.052	0.072
-545.296	285.179	0.142	0.254
-544.281	-173.712	0.157	0.005
-543.266	-85.913	0.380	0.117
-542.252	88.611	-0.117	0.129
-541.237	-25.481	0.193	0.114
-540.223	-166.735	0.128	0.005
-539.208	123.046	-0.106	0.133
-538.193	-30.203	0.177	-0.100
-537.179	362.864	-0.119	-0.238
-536.164	-145.770	-0.150	0.013
-535.150	-95.158	0.210	-0.056
-534.135	30.953	-0.156	0.133
-533.121	16.342	0.103	0.081
-532.106	13.970	-0.104	0.081
-531.091	-200.000	-0.002	0.142
-530.077	800.000	0.024	0.086
-529.062	498.559	0.030	0.070
-528.048	-48.699	0.376	-0.180
-527.033	0.778	-0.243	0.173
-526.018	404.262	0.057	0.120
-525.004	-169.921	-0.015	0.001
-523.989	-60.288	0.122	-0.052
-522.975	-200.000	-0.030	-0.145
-521.960	-80.302	-0.224	0.075
-520.945	-18.272	0.221	0.138
-519.931	-200.000	0.008	0.224
-518.916	70.583	0.161	0.165
-517.902	-59.193	0.234	-0.101
-516.887	503.968	-0.067	0.155
-515.872	-113.785	0.266	-0.052
-514.858	2.314	0.311	-0.224
-513.843	-60.399	-0.164	0.070
-512.829	101.852	0.156	0.181
-511.814	28.020	0.195	-0.164
-510.799	-10.509	-0.278	-0.183
-509.785	-200.000	0.028	-0.133
-508.770	-147.424	-0.214	-0.018
-507.756	-95.274	0.308	0.082
-506.741	-7.407	-0.242	-0.163
-505.726	-38.512	0.158	-0.083
-504.712	800.000	-0.057	-0.176
-503.697	119.373	-0.112	-0.138
-502.683	-83.141	-0.194	0.062
-501.668	800.000	-0.053	-0.184
-500.653	-41.036	0.194	-0.100
-499.639	-111.660	-0.142	0.029
-498.624	-113.644	0.091	0.018
-497.610	-28.019	0.150	0.086
-496.595	-99.164	-0.150	0.038
-495.581	-157.848	-0.218	-0.013
-494.566	-81.648	-0.293	-0.096
-493.551	157.438	0.089	0.123
-492.537	800.000	-0.088	0.320
-491.522	-68.002	-0.172	0.067
-490.508	23.877	0.063	-0.051
-489.493	-16.799	0.088	0.055
-488.478	800.000	-0.100	-0.313
-487.464	321.287	0.234	-0.443
-486.449	49.822	0.168	0.157
-485.435	-200.000	0.039	0.330
-484.420	-97.412	-0.122	-0.032
-483.405	-181.074	0.154	-0.003
-482.391	263.120	-0.180	-0.311
-481.376	53.624	0.149	0.143
-480.362	-62.610	0.210	-0.087
-479.347	157.232	0.033	-0.045
-478.332	800.000	0.038	-0.109
-477.318	-122.478	0.106	-0.017
-476.303	113.827	-0.154	0.186
-475.289	800.000	0.163	-0.459
-474.274	12.729	-0.006	0.004
-473.259	800.000	0.070	-0.256
-472.245	-130.470	-0.463	0.062
-471.230	800.000	-0.022	-0.063
-470.216	260.609	-0.135	-0.231
-469.201	-96.361	-0.169	-0.044
-468.186	-200.000	0.047	0.250
-467.172	-22.669	0.110	-0.066
-466.157	-23.753	-0.101	0.060
-465.143	-1.155	-0.197	-0.139
-464.128	-68.401	0.401	-0.155
-463.113	-85.908	-0.114	0.035
-462.099	-96.422	-0.211	0.055
-461.084	-127.288	0.164	0.024
-460.070	129.003	-0.158	0.200
-459.055	358.582	0.050	0.100
-458.040	333.134	0.119	-0.229
-457.026	72.942	0.186	-0.193
-456.011	800.000	0.092	0.386
-454.997	-182.996	-0.407	-0.007
-453.982	-200.000	0.045	-0.346
-452.968	217.685	0.049	-0.077
-451.953	24.907	-0.159	0.131
-450.938	-200.000	-0.031	0.137
-449.924	800.000	-0.024	-0.100
-448.909	-75.551	-0.162	0.057
-447.895	117.373	0.056	0.068
-446.880	88.156	0.059	0.065
-445.865	-24.993	-0.175	-0.103
-444.851	-200.000	-0.001	0.240
-443.836	-21.088	0.065	0.039
-442.822	800.000	0.027	0.086
-441.807	520.579	-0.025	-0.058
-440.792	-88.851	-0.466	0.137
-439.778	-11.903	0.141	0.092
-438.763	87.945	-0.317	0.349
-437.749	-136.701	-0.325	-0.037
-436.734	-200.000	0.044	0.448
-435.719	51.219	-0.156	0.147
-434.705	-5.619	0.313	0.213
-433.690	-200.000	-0.009	-0.313
-432.676	56.653	0.280	-0.270
-431.661	-200.000	0.020	0.171
-430.646	2.710	0.082	-0.059
-429.632	222.499	-0.218	0.348
-428.617	178.807	-0.167	-0.242
-427.603	24.723	-0.302	0.248
-426.588	-45.387	0.225	-0.111
-425.573	138.217	-0.167	0.217
-424.559	167.448	-0.124	0.175
-423.544	-136.043	0.263	-0.031
-422.530	-157.622	0.264	0.016
-421.515	-13.708	-0.279	0.179
-420.500	-63.714	0.150	0.061
-419.486	-200.000	0.040	0.209
-418.471	-135.946	0.200	-0.023
-417.457	89.308	-0.189	0.209
-416.442	-98.548	0.133	0.034
-415.428	312.041	0.119	0.221
-414.413	-129.132	-0.247	0.034
-413.398	180.597	0.061	0.089
-412.384	-200.000	-0.010	0.067
-411.369	800.000	-0.013	-0.036
-410.355	144.637	-0.174	-0.231
-409.340	800.000	-0.076	-0.291
-408.325	800.000	-0.056	-0.190
-407.311	-129.822	0.259	0.035
-406.296	-103.086	-0.213	0.050
-405.282	-200.000	0.080	0.476
-404.267	282.851	-0.136	-0.242
-403.252	34.066	-0.160	0.138
-402.238	-200.000	-0.036	0.256
-401.223	-102.610	0.161	0.038
-400.209	293.683	0.064	-0.116
-399.194	-60.500	0.249	-0.105
-398.179	800.000	0.059	0.240
-397.165	338.726	0.104	-0.201
-396.150	389.714	0.105	-0.216
-395.136	68.582	0.205	0.208
-394.121	800.000	-0.145	-0.431
-393.106	-200.000	-0.002	-0.198
-392.092	-200.000	0.049	-0.228
-391.077	48.663	0.321	0.298
-390.063	-200.000	0.074	-0.405
-389.048	-21.602	-0.097	0.058
-388.033	796.688	0.201	0.548
-387.019	132.036	0.159	-0.202
-386.004	-200.000	-0.023	0.181
-384.990	-56.884	-0.280	-0.122
-383.975	-98.492	0.203	-0.051
-382.960	-101.935	0.267	0.064
-381.946	-47.782	-0.204	-0.098
-380.931	800.000	-0.084	0.273
-379.917	0.732	0.100	0.071
-378.902	-45.122	0.128	0.063
-377.888	17.156	0.262	-0.205
-376.873	-200.000	0.053	0.326
-375.858	321.020	-0.064	0.121
-374.844	-103.015	0.045	0.010
-373.829	-142.311	0.142	0.014
-372.815	276.601	-0.199	0.349
-371.800	13.446	-0.100	-0.077
-370.785	-200.000	0.023	0.111
-369.771	-83.435	0.101	-0.032
-368.756	307.138	0.311	-0.573
-367.742	287.017	-0.123	0.219
-366.727	382.777	-0.017	-0.035
-365.712	-92.040	0.062	-0.017
-364.698	-83.358	-0.077	-0.024
-363.683	65.482	-0.208	-0.208
-362.669	800.000	-0.093	0.306
-361.654	-200.000	-0.021	-0.210
-360.639	-40.630	-0.199	-0.102
-359.625	-67.901	-0.075	0.029
-358.610	-74.640	-0.135	0.048
-357.596	506.728	-0.044	0.100
-356.581	-89.732	-0.258	0.075
-355.566	497.898	0.048	0.109
-354.552	263.268	-0.065	0.112
-353.537	-200.000	-0.061	0.274
-352.523	-68.205	0.306	-0.118
-351.508	-200.000	0.076	-0.344
-350.493	35.752	0.095	0.083
-349.479	139.019	0.103	-0.134
-348.464	17.389	0.070	0.055
-347.450	-26.779	-0.205	0.118
-346.435	-40.745	0.443	-0.227
-345.420	-99.154	-0.267	-0.067
-344.406	-200.000	-0.038	0.384
-343.391	-200.000	0.061	-0.314
-342.377	-200.000	-0.011	0.387
-341.362	-200.000	0.034	0.260
-340.348	400.067	-0.126	-0.260
-339.333	-66.089	0.184	0.072
-338.318	196.668	0.126	0.189
-337.304	-200.000	0.010	0.125
-336.289	-146.544	-0.182	0.016
-335.275	800.000	0.022	0.089
-334.260	-1.448	-0.173	0.121
-333.245	558.952	-0.098	0.234
-332.231	-166.062	0.146	-0.006
-331.216	-67.747	0.277	0.107
-330.202	-9.536	0.359	-0.237
-329.187	-200.000	-0.022	-0.125
-328.172	498.154	0.069	0.156
-327.158	-151.236	0.447	0.033
-326.143	167.091	-0.181	0.253
-325.129	20.274	-0.261	-0.208
-324.114	-123.276	0.167	0.026
-323.099	190.382	-0.023	0.033
-322.085	800.000	-0.058	-0.244
-321.070	-42.283	-0.158	-0.079
-320.056	573.542	-0.103	-0.247
-319.041	-200.000	-0.050	-0.364
-318.026	135.683	-0.007	0.010
-317.012	742.701	0.037	0.098
-315.997	89.232	0.230	0.253
-314.983	-2.572	0.240	0.166
-313.968	6.672	0.128	0.094
-312.953	-58.488	0.434	0.186
-311.939	179.825	-0.181	-0.262
-310.924	-51.214	0.280	-0.129
-309.910	800.000	-0.073	-0.271
-308.895	-40.409	0.344	0.177
-307.880	-200.000	-0.009	0.163
-306.866	-14.389	-0.081	-0.052
-305.851	-104.764	-0.187	0.043
-304.837	43.162	-0.024	-0.022
-303.822	47.708	0.100	0.092
-302.807	460.075	0.231	0.507
-301.793	42.964	0.033	-0.030
-300.778	537.949	-0.020	0.046
-299.764	-116.793	0.126	0.023
-298.749	-40.490	0.234	0.120
-297.735	-103.055	-0.321	-0.075
-296.720	-200.000	0.025	-0.118
-295.705	-200.000	0.031	0.295
-294.691	800.000	-0.006	-0.019
-293.676	-63.088	-0.209	-0.085
-292.662	-101.585	-0.056	-0.013
-291.647	-200.000	0.003	0.131
-290.632	-200.000	-0.003	-0.098
-289.618	211.768	0.146	-0.227
-288.603	293.655	-0.066	-0.118
-287.589	106.079	-0.065	0.076
-286.574	-200.000	-0.002	0.412
-285.559	-23.637	0.304	-0.180
-284.545	122.281	-0.075	-0.092
-283.530	34.608	0.059	-0.051
-282.516	-118.462	-0.214	0.037
-281.501	-200.000	0.011	-0.361
-280.486	800.000	-0.097	0.390
-279.472	192.218	0.270	-0.402
-278.457	33.159	-0.305	0.261
-277.443	306.369	-0.032	0.059
-276.428	-36.616	0.126	-0.067
-275.413	150.910	0.175	0.234
-274.399	-95.277	0.117	-0.031
-273.384	9.137	0.249	0.185
-272.370	554.843	0.013	-0.032
-271.355	-200.000	-0.000	-0.063
-270.340	-63.266	-0.209	0.085
-269.326	361.979	0.135	0.266
-268.311	-45.825	0.318	-0.155
-267.297	39.893	-0.043	0.038
-266.282	-200.000	0.016	-0.168
-265.267	800.000	0.038	-0.141
-264.253	-22.092	-0.243	-0.145
-263.238	-200.000	-0.047	0.265
-262.224	1.621	0.018	-0.013
-261.209	344.826	0.059	-0.113
-260.195	314.439	-0.079	0.147
-259.180	-200.000	0.054	0.240
-258.165	-180.077	0.302	0.006
-257.151	-200.000	0.000	-0.353
-256.136	18.205	0.138	0.108
-255.122	-42.924	0.221	-0.111
-254.107	800.000	-0.113	-0.308
-253.092	219.508	0.093	-0.147
-252.078	-122.345	0.184	-0.030
-251.063	-103.002	0.221	-0.052
-250.049	-200.000	-0.016	-0.195
-249.034	-200.000	-0.016	-0.173
-248.019	210.336	-0.259	-0.400
-247.005	14.401	0.122	0.094
-245.990	-121.478	-0.078	0.013
-244.976	-65.612	-0.208	0.082
-243.961	800.000	-0.137	0.423
-242.946	800.000	0.074	0.282
-241.932	364.587	-0.136	-0.270
-240.917	2.126	-0.122	-0.087
-239.903	10.136	-0.241	0.180
-238.888	-107.687	-0.212	0.045
-237.873	-89.881	-0.471	0.135
-236.859	9.294	-0.397	-0.295
-235.844	73.591	-0.142	-0.147
-234.830	-176.802	0.336	0.008
-233.815	3.662	-0.175	0.125
-232.800	-45.045	-0.154	-0.075
-231.786	-100.114	-0.458	0.112
-230.771	-200.000	0.023	-0.366
-229.757	-200.000	-0.027	-0.339
-228.742	-200.000	0.039	-0.293
-227.727	-50.973	-0.228	-0.105
-226.713	-200.000	0.004	0.201
-225.698	800.000	0.021	-0.088
-224.684	800.000	-0.049	-0.207
-223.669	104.477	0.306	0.354
-222.655	-200.000	0.011	-0.174
-221.640	-24.922	0.083	-0.049
-220.625	9.051	-0.168	-0.125
-219.611	53.245	-0.138	0.130
-218.596	-108.445	-0.297	0.063
-217.582	-120.015	-0.200	-0.034
-216.567	220.621	-0.068	-0.108
-215.552	800.000	-0.041	0.173
-214.538	-80.926	0.332	0.108
-213.523	-84.645	-0.175	-0.054
-212.509	269.248	-0.051	0.089
-211.494	34.875	0.097	-0.084
-210.479	68.395	0.032	-0.032
-209.465	-91.489	0.115	0.032
-208.450	-200.000	-0.011	-0.280
-207.436	630.629	-0.118	-0.294
-206.421	-200.000	-0.013	0.232
-205.406	116.767	-0.358	-0.432
-204.392	159.932	-0.065	0.089
-203.377	-200.000	0.007	-0.100
-202.363	-200.000	0.028	-0.349
-201.348	-8.498	-0.141	0.093
-200.333	800.000	0.060	0.214
-199.319	-19.950	0.131	-0.080
-198.304	87.816	0.123	-0.134
-197.290	112.246	0.210	-0.250
-196.275	-174.345	-0.134	0.004
-195.260	-81.734	0.294	0.095
-194.246	-200.000	0.075	0.332
-193.231	-200.000	0.001	0.105
-192.217	108.701	0.048	0.057
-191.202	-54.578	0.053	0.023
-190.187	-118.056	-0.120	-0.021
-189.173	17.424	-0.139	-0.108
-188.158	-132.582	-0.187	0.024
-187.144	127.522	-0.418	0.521
-186.129	29.730	-0.302	0.252
-185.114	800.000	0.136	0.439
-184.100	800.000	0.082	-0.245
-183.085	-80.536	-0.307	-0.100
-182.071	-161.846	0.251	-0.013
-181.056	-200.000	-0.015	-0.120
-180.042	171.621	0.087	0.122
-179.027	-68.133	-0.279	0.107
-178.012	-200.000	-0.022	-0.123
-176.998	800.000	-0.078	0.312
-175.983	268.098	0.142	-0.244
-174.969	-200.000	0.068	0.338
-173.954	-83.956	0.213	-0.067
-172.939	-13.856	-0.182	0.115
-171.925	-87.669	-0.111	-0.033
-170.910	192.001	-0.145	-0.215
-169.896	-200.000	-0.015	-0.076
-168.881	92.723	0.155	-0.171
-167.866	-136.691	-0.079	-0.009
-166.852	26.379	0.244	-0.200
-165.837	159.897	-0.061	-0.084
-164.823	409.348	-0.082	0.171
-163.808	-33.406	-0.286	0.155
-162.793	-28.894	-0.278	-0.157
-161.779	270.618	-0.134	0.232
-160.764	-200.000	-0.038	-0.273
-159.750	-101.322	-0.267	0.064
-158.735	-155.115	0.163	-0.010
-157.720	-66.221	0.334	-0.130
-156.706	2.817	-0.201	-0.143
-155.691	800.000	0.069	-0.269
-154.677	-68.876	-0.170	0.064
-153.662	-33.624	0.179	0.097
-152.647	800.000	0.027	0.097
-151.633	6.710	0.298	-0.217
-150.618	-162.871	0.334	0.016
-149.604	800.000	0.026	0.105
-148.589	800.000	0.054	-0.230
-147.574	-55.201	-0.053	-0.024
-146.560	-200.000	0.094	0.410
-145.545	-200.000	0.032	0.483
-144.531	-38.499	-0.165	-0.086
-143.516	-100.671	0.359	-0.087
-142.502	-68.100	0.166	0.063
-141.487	800.000	-0.033	-0.106
-140.472	-80.579	0.068	-0.022
-139.458	-39.723	0.493	0.253
-138.443	-46.654	-0.211	-0.101
-137.429	668.372	0.042	0.106
-136.414	800.000	-0.066	0.225
-135.399	389.920	0.105	-0.213
-134.385	150.529	0.068	-0.090
-133.370	437.160	-0.097	-0.207
-132.356	320.695	-0.083	-0.155
-131.341	-200.000	-0.066	0.308
-130.326	145.917	0.166	0.218
-129.312	-200.000	-0.003	0.153
-128.297	177.556	-0.106	-0.151
-127.283	-113.242	0.364	0.070
-126.268	-49.784	-0.224	-0.104
-125.253	-158.836	0.299	0.017
-124.239	-20.228	-0.198	0.120
-123.224	415.037	-0.085	0.177
-122.210	-91.576	0.284	-0.079
-121.195	-200.000	-0.002	-0.026
-120.180	590.602	-0.108	-0.260
