DTS Sentinel unit serial number:	SN413079Multiplexer serial number:	ORYXHardware model number:	OX4-SRSoftware version number:	ORYX F/W v4.00 Oryx Data Collector v3.7.2.0data status	okinstallation	princeton_trtdifferential loss correction	single-endedforward channel	channel 1reverse channel	N/Adate	2019/09/14time	03:06:35forward acquisition time	60.00reverse acquisition time	0.00gamma	496.2192k internal	0.2335k external	0.2335temperature offset calibration	1.0079default loss term (dB/km)	0.3790temperature slope calibration	1.0000multiplexer offset coefficient	1.0000multiplexer slope coefficient	1.0000fibre end	0.00T internal ref (°C)	26.56T ext. ref 1 (°C)	3.26T ext. ref 2 (°C)	21.64length (m)	temperature (°C)	Stokes	anti-Stokes-747.200	800.000	-0.055	-0.223
-746.185	476.187	-0.082	0.187
-745.171	800.000	-0.019	0.073
-744.156	-200.000	-0.001	-0.233
-743.142	-200.000	-0.005	-0.132
-742.127	-156.439	0.296	0.019
-741.112	429.902	0.087	-0.188
-740.098	-105.078	-0.143	-0.033
-739.083	-77.897	0.280	-0.097
-738.069	391.009	-0.140	0.292
-737.054	-200.000	-0.011	-0.226
-736.039	5.373	0.168	0.124
-735.025	-79.010	0.206	-0.070
-734.010	800.000	-0.079	-0.222
-732.996	-200.000	0.005	-0.120
-731.981	-100.130	-0.077	-0.019
-730.966	-189.023	-0.214	-0.003
-729.952	-115.080	-0.098	-0.019
-728.937	43.062	-0.085	-0.078
-727.923	800.000	0.067	-0.201
-726.908	3.860	-0.339	0.249
-725.894	-50.693	-0.194	0.092
-724.879	-200.000	-0.003	0.121
-723.864	800.000	-0.032	0.124
-722.850	-127.846	0.284	0.041
-721.835	386.857	0.077	-0.160
-720.821	171.869	0.094	0.135
-719.806	-10.165	0.228	0.152
-718.791	-41.163	-0.185	0.096
-717.777	-190.643	0.178	-0.002
-716.762	-102.133	0.227	0.055
-715.748	119.739	-0.004	-0.005
-714.733	375.585	-0.155	-0.316
-713.718	38.261	-0.108	-0.097
-712.704	-200.000	0.001	-0.046
-711.689	-200.000	-0.004	0.057
-710.675	-110.188	0.051	-0.011
-709.660	54.413	0.296	0.286
-708.645	-149.036	-0.450	0.036
-707.631	-145.866	0.071	-0.006
-706.616	378.392	0.046	0.095
-705.602	82.796	0.177	0.193
-704.587	121.332	-0.103	-0.128
-703.572	-79.799	-0.349	0.118
-702.558	30.864	0.304	-0.261
-701.543	-200.000	0.002	-0.205
-700.529	388.644	0.059	-0.122
-699.514	392.710	-0.059	0.123
-698.499	-35.866	-0.484	0.262
-697.485	-121.222	0.129	-0.022
-696.470	800.000	0.005	0.021
-695.456	139.372	0.133	-0.176
-694.441	-200.000	0.026	-0.114
-693.426	-3.572	-0.184	0.128
-692.412	5.323	-0.235	-0.174
-691.397	-156.205	-0.066	0.004
-690.383	-200.000	0.046	-0.272
-689.368	-200.000	-0.015	-0.121
-688.354	-50.014	0.214	-0.101
-687.339	675.194	0.062	-0.160
-686.324	115.875	0.144	0.177
-685.310	48.158	-0.132	-0.124
-684.295	61.900	0.291	-0.291
-683.281	502.033	-0.065	-0.150
-682.266	159.006	-0.246	0.343
-681.251	800.000	-0.032	-0.129
-680.237	413.893	-0.104	0.223
-679.222	800.000	-0.166	0.520
-678.208	-95.245	-0.078	0.021
-677.193	118.862	0.003	-0.004
-676.178	-200.000	-0.067	-0.391
-675.164	800.000	-0.071	0.293
-674.149	-1.193	0.033	0.023
-673.135	164.716	-0.024	-0.034
-672.120	135.147	-0.218	-0.284
-671.105	95.431	0.109	-0.125
-670.091	800.000	0.096	0.333
-669.076	-165.905	-0.156	0.007
-668.062	-200.000	-0.042	0.284
-667.047	-107.563	-0.165	-0.036
-666.032	9.344	-0.322	-0.244
-665.018	397.021	0.176	0.367
-664.003	-200.000	-0.080	0.420
-662.989	9.989	-0.144	-0.109
-661.974	-62.855	0.278	0.115
-660.959	621.693	-0.115	-0.289
-659.945	800.000	-0.029	-0.112
-658.930	162.750	0.154	0.217
-657.916	800.000	-0.059	-0.212
-656.901	-10.716	0.112	0.074
-655.886	-106.240	0.247	0.055
-654.872	800.000	0.015	0.045
-653.857	724.146	-0.133	-0.354
-652.843	-200.000	0.000	-0.310
-651.828	-52.545	-0.072	0.033
-650.814	-21.036	0.072	0.044
-649.799	-138.090	-0.076	0.008
-648.784	190.223	0.113	0.170
-647.770	800.000	0.051	-0.165
-646.755	426.042	0.019	-0.041
-645.741	-162.771	0.293	-0.014
-644.726	-200.000	-0.044	0.366
-643.711	-84.434	-0.178	-0.056
-642.697	56.469	-0.200	0.195
-641.682	-106.857	-0.187	0.042
-640.668	78.700	-0.419	-0.448
-639.653	304.888	0.125	-0.233
-638.638	-4.074	0.140	-0.097
-637.624	-137.439	-0.149	-0.017
-636.609	34.894	0.210	-0.184
-635.595	37.706	0.095	-0.085
-634.580	-64.933	-0.263	0.106
-633.565	-143.941	0.102	0.010
-632.551	-98.536	0.195	-0.050
-631.536	74.265	-0.199	-0.209
-630.522	761.564	0.070	0.189
-629.507	-139.948	0.089	0.009
-628.492	-169.886	0.086	-0.003
-627.478	82.699	0.105	0.115
-626.463	800.000	-0.088	-0.337
-625.449	727.672	-0.077	0.205
-624.434	40.427	0.091	-0.082
-623.419	-200.000	0.093	0.443
-622.405	794.418	0.032	0.089
-621.390	-12.334	0.215	-0.141
-620.376	338.690	-0.046	-0.089
-619.361	-200.000	-0.005	-0.375
-618.346	93.938	0.212	-0.240
-617.332	-2.564	-0.029	0.020
-616.317	-45.072	-0.252	0.125
-615.303	145.089	0.066	0.089
-614.288	-179.079	0.251	-0.006
-613.273	-200.000	-0.046	0.211
-612.259	-200.000	-0.070	-0.352
-611.244	-200.000	0.014	-0.091
-610.230	384.114	-0.042	-0.087
-609.215	168.182	0.115	0.164
-608.201	-200.000	0.008	-0.206
-607.186	4.229	-0.044	0.032
-606.171	280.049	-0.148	-0.263
-605.157	800.000	0.077	0.219
-604.142	26.847	-0.426	0.356
-603.128	-200.000	-0.001	0.129
-602.113	-38.128	0.001	-0.001
-601.098	15.850	-0.171	-0.134
-600.084	551.663	0.040	-0.096
-599.069	355.548	-0.156	0.310
-598.055	800.000	0.034	0.132
-597.040	800.000	-0.021	-0.082
-596.025	-113.223	-0.359	-0.071
-595.011	-118.625	-0.168	0.030
-593.996	4.419	0.283	0.207
-592.982	43.277	-0.147	0.134
-591.967	-200.000	0.002	0.130
-590.952	21.253	0.093	-0.075
-589.938	793.307	-0.078	-0.213
-588.923	-200.000	0.030	0.222
-587.909	555.078	-0.129	0.309
-586.894	-80.798	-0.221	0.073
-585.879	189.643	0.056	-0.084
-584.865	-107.461	0.064	0.014
-583.850	-36.210	0.268	0.145
-582.836	162.932	-0.097	0.136
-581.821	-132.425	-0.452	0.058
-580.806	-200.000	0.008	0.107
-579.792	-155.863	0.527	-0.034
-578.777	-16.794	-0.161	-0.101
-577.763	-200.000	0.012	0.054
-576.748	-103.419	-0.080	0.019
-575.733	-100.645	-0.412	-0.102
-574.719	-200.000	-0.064	-0.452
-573.704	51.190	-0.052	0.049
-572.690	203.819	0.079	0.122
-571.675	79.753	-0.202	0.217
-570.661	-109.287	0.071	0.015
-569.646	-111.588	-0.087	-0.018
-568.631	32.299	0.151	-0.130
-567.617	800.000	-0.006	0.026
-566.602	690.854	0.106	0.278
-565.588	259.568	-0.077	0.133
-564.573	-200.000	-0.032	-0.438
-563.558	-200.000	0.051	0.222
-562.544	-109.359	0.084	0.018
-561.529	285.639	0.041	-0.074
-560.515	-99.799	-0.323	-0.081
-559.500	-112.951	-0.325	0.064
-558.485	-200.000	0.012	0.074
-557.471	41.286	0.046	0.041
-556.456	-111.330	-0.186	-0.038
-555.442	-200.000	0.004	0.147
-554.427	-200.000	0.019	-0.240
-553.412	-43.539	0.158	0.079
-552.398	-51.878	0.302	0.140
-551.383	-94.935	0.347	0.094
-550.369	47.654	0.080	0.074
-549.354	-200.000	0.072	0.390
-548.339	206.914	-0.150	-0.233
-547.325	88.593	0.141	-0.156
-546.310	689.105	0.054	0.140
-545.296	415.803	0.091	0.193
-544.281	-150.989	0.244	0.018
-543.266	-166.282	-0.269	0.011
-542.252	-200.000	-0.067	-0.360
-541.237	-200.000	-0.019	-0.160
-540.223	-29.451	0.221	0.126
-539.208	102.293	0.292	0.340
-538.193	-200.000	-0.020	-0.110
-537.179	800.000	0.024	0.078
-536.164	-40.751	-0.161	-0.083
-535.150	-200.000	0.059	0.313
-534.135	-200.000	-0.002	0.137
-533.121	-77.343	0.315	-0.109
-532.106	-152.406	-0.285	0.020
-531.091	-6.562	0.053	0.036
-530.077	-200.000	-0.037	-0.192
-529.062	-200.000	-0.002	0.257
-528.048	-200.000	-0.005	0.095
-527.033	-17.756	-0.036	0.022
-526.018	324.715	0.095	0.180
-525.004	68.278	-0.149	-0.152
-523.989	75.382	-0.151	-0.158
-522.975	-33.126	-0.016	-0.009
-521.960	-200.000	0.031	-0.137
-520.945	4.956	-0.202	-0.148
-519.931	-28.011	0.158	0.091
-518.916	-10.612	0.104	-0.068
-517.902	-200.000	-0.045	-0.267
-516.887	800.000	0.041	0.148
-515.872	800.000	-0.133	-0.469
-514.858	-93.642	-0.136	-0.037
-513.843	-154.714	-0.185	-0.012
-512.829	-200.000	0.042	0.188
-511.814	-75.052	0.177	-0.063
-510.799	49.619	0.226	0.212
-509.785	-112.931	0.112	0.022
-508.770	61.684	0.164	0.163
-507.756	-24.339	0.314	0.187
-506.741	-137.848	-0.333	-0.037
-505.726	236.705	0.065	-0.107
-504.712	-47.655	0.230	0.111
-503.697	144.069	-0.263	-0.349
-502.683	-6.723	-0.235	-0.159
-501.668	504.968	0.074	-0.170
-500.653	-99.428	-0.315	-0.079
-499.639	-42.615	0.063	-0.032
-498.624	46.466	0.293	0.271
-497.610	84.808	0.144	-0.157
-496.595	434.574	-0.143	-0.310
-495.581	-76.135	0.122	-0.043
-494.566	-11.002	-0.155	-0.102
-493.551	192.824	0.129	0.193
-492.537	-200.000	-0.018	-0.191
-491.522	-89.224	0.250	0.073
-490.508	-55.143	0.299	-0.134
-489.493	-113.626	-0.308	0.060
-488.478	74.904	0.039	-0.041
-487.464	16.677	0.147	-0.115
-486.449	-115.994	0.412	-0.076
-485.435	-200.000	0.017	-0.085
-484.420	556.377	0.022	0.053
-483.405	800.000	0.024	0.096
-482.391	-118.332	-0.220	0.039
-481.376	-114.036	-0.148	-0.029
-480.362	800.000	0.002	0.009
-479.347	-110.722	0.151	-0.031
-478.332	-152.831	0.065	-0.005
-477.318	608.704	0.115	0.285
-476.303	102.991	0.196	-0.229
-475.289	-158.584	0.201	-0.011
-474.274	-76.225	-0.300	-0.105
-473.259	-200.000	0.094	-0.413
-472.245	-42.451	0.245	-0.124
-471.230	-45.586	-0.014	0.007
-470.216	63.723	0.037	-0.037
-469.201	-72.806	-0.301	-0.110
-468.186	-167.276	-0.262	-0.011
-467.172	-144.824	0.174	0.016
-466.157	800.000	-0.104	0.330
-465.143	433.788	0.115	0.248
-464.128	186.436	-0.120	-0.178
-463.113	352.185	0.157	-0.309
-462.099	-200.000	-0.048	-0.281
-461.084	-53.205	-0.063	0.029
-460.070	120.396	-0.016	0.019
-459.055	36.205	-0.124	0.108
-458.040	-104.104	-0.284	-0.066
-457.026	-13.626	-0.188	-0.121
-456.011	-0.104	-0.177	0.125
-454.997	69.233	-0.233	0.238
-453.982	-200.000	0.016	0.106
-452.968	800.000	-0.031	0.112
-451.953	89.738	0.151	0.168
-450.938	608.781	-0.108	0.267
-449.924	46.879	-0.348	0.321
-448.909	109.273	-0.119	-0.142
-447.895	800.000	0.033	-0.137
-446.880	12.409	0.145	-0.111
-445.865	-200.000	-0.009	0.324
-444.851	-200.000	0.057	0.284
-443.836	-123.931	0.289	0.045
-442.822	227.896	0.048	-0.077
-441.807	90.097	-0.186	-0.206
-440.792	29.278	0.447	0.377
-439.778	30.587	-0.133	0.113
-438.763	0.629	0.138	0.098
-437.749	695.812	-0.049	0.128
-436.734	-200.000	0.009	-0.214
-435.719	135.337	0.101	-0.131
-434.705	-200.000	-0.021	-0.233
-433.690	-48.330	0.266	-0.127
-432.676	-200.000	0.013	-0.103
-431.661	-200.000	0.099	-0.584
-430.646	-144.981	-0.091	-0.008
-429.632	800.000	-0.050	0.183
-428.617	-29.336	0.266	-0.151
-427.603	55.534	-0.209	0.201
-426.588	80.279	0.152	0.163
-425.573	328.428	0.036	-0.068
-424.559	-138.331	-0.430	-0.047
-423.544	-92.580	-0.061	-0.017
-422.530	2.061	0.098	0.070
-421.515	86.156	0.112	0.123
-420.500	208.834	-0.107	-0.166
-419.486	-121.751	-0.226	0.037
-418.471	-104.569	0.246	-0.056
-417.457	1.618	-0.218	0.156
-416.442	-200.000	0.005	-0.058
-415.428	-200.000	0.052	-0.275
-414.413	-200.000	0.003	0.082
-413.398	152.555	-0.107	0.146
-412.384	77.136	-0.116	0.122
-411.369	-200.000	0.040	0.194
-410.355	-97.207	0.165	-0.043
-409.340	447.122	-0.063	0.137
-408.325	326.622	-0.197	0.375
-407.311	800.000	-0.098	0.407
-406.296	-200.000	-0.025	-0.124
-405.282	275.220	0.143	0.252
-404.267	22.294	-0.196	-0.159
-403.252	-200.000	0.006	0.070
-402.238	232.632	0.107	-0.174
-401.223	-200.000	-0.028	0.125
-400.209	800.000	0.029	-0.103
-399.194	164.021	0.128	0.178
-398.179	30.751	-0.065	-0.055
-397.165	-54.814	0.213	0.095
-396.150	145.855	-0.043	0.058
-395.136	111.675	0.011	-0.013
-394.121	-200.000	-0.014	0.236
-393.106	-67.839	-0.228	-0.088
-392.092	-114.383	-0.310	0.059
-391.077	-200.000	-0.030	-0.366
-390.063	440.909	-0.086	0.186
-389.048	-129.438	-0.081	0.011
-388.033	-131.643	-0.230	-0.030
-387.019	-20.910	0.194	-0.118
-386.004	225.852	0.245	-0.394
-384.990	20.424	0.055	-0.044
-383.975	83.491	0.075	0.081
-382.960	-55.441	-0.112	-0.050
-381.946	358.195	0.040	-0.079
-380.931	-30.232	0.142	0.080
-379.917	800.000	-0.039	0.143
-378.902	-164.184	-0.334	-0.015
-377.888	10.952	-0.184	-0.139
-376.873	78.983	-0.082	-0.087
-375.858	-140.434	-0.297	0.031
-374.844	144.959	-0.095	-0.126
-373.829	-62.739	0.149	0.061
-372.815	130.485	0.216	-0.274
-371.800	298.646	0.082	-0.150
-370.785	-84.856	-0.204	0.064
-369.771	22.958	0.240	-0.195
-368.756	-121.768	0.349	-0.057
-367.742	127.488	-0.117	0.147
-366.727	-164.511	0.172	0.008
-365.712	-60.637	0.258	0.108
-364.698	-149.785	0.371	-0.029
-363.683	-108.824	0.127	0.027
-362.669	-29.897	0.143	-0.081
-361.654	-111.418	-0.254	-0.051
-360.639	-66.987	-0.268	0.105
-359.625	-94.894	0.403	0.108
-358.610	48.837	-0.072	0.067
-357.596	195.119	0.153	-0.230
-356.581	72.807	0.166	0.171
-355.566	-200.000	0.001	0.282
-354.552	-74.627	0.176	-0.062
-353.537	43.019	0.097	-0.088
-352.523	-128.691	-0.193	0.027
-351.508	-161.766	0.440	-0.022
-350.493	800.000	0.097	-0.361
-349.479	-126.267	-0.285	0.042
-348.464	272.597	0.094	-0.165
-347.450	-126.871	-0.217	0.032
-346.435	51.658	-0.159	0.149
-345.420	210.605	-0.036	0.056
-344.406	800.000	-0.056	-0.156
-343.391	-44.245	-0.230	-0.114
-342.377	-64.878	0.112	0.045
-341.362	-15.858	-0.349	0.220
-340.348	-200.000	0.007	-0.109
-339.333	324.840	0.082	0.154
-338.318	-1.219	-0.087	0.061
-337.304	57.651	-0.090	-0.087
-336.289	800.000	-0.041	-0.175
-335.275	322.826	-0.116	0.219
-334.260	-43.884	-0.068	0.034
-333.245	-49.592	-0.328	-0.154
-332.231	-108.973	-0.054	-0.011
-331.216	-200.000	0.012	-0.159
-330.202	-95.252	-0.087	-0.023
-329.187	777.449	-0.051	-0.139
-328.172	170.283	-0.221	0.312
-327.158	-122.916	0.052	0.008
-326.143	-40.438	0.336	-0.172
-325.129	-97.082	-0.029	0.008
-324.114	129.419	-0.308	0.388
-323.099	-200.000	0.017	0.224
-322.085	-117.510	-0.050	0.009
-321.070	129.198	0.088	-0.111
-320.056	-200.000	-0.032	0.230
-319.041	-200.000	-0.061	-0.302
-318.026	75.950	0.115	-0.120
-317.012	-60.481	0.303	-0.127
-315.997	401.979	0.042	0.088
-314.983	-140.868	-0.198	-0.020
-313.968	253.011	-0.030	-0.050
-312.953	417.380	-0.103	-0.217
-311.939	-144.227	0.179	0.016
-310.924	800.000	-0.144	0.400
-309.910	274.663	-0.089	-0.156
-308.895	156.728	0.021	-0.029
-307.880	95.747	0.198	-0.223
-306.866	124.713	-0.028	-0.035
-305.851	-73.918	-0.297	0.106
-304.837	68.551	0.049	-0.050
-303.822	-154.184	-0.329	-0.022
-302.807	-200.000	-0.005	-0.078
-301.793	-200.000	-0.038	-0.168
-300.778	-200.000	-0.004	-0.368
-299.764	-17.984	-0.118	-0.073
-298.749	113.815	-0.088	0.105
-297.735	-78.059	0.166	0.056
-296.720	150.712	-0.023	0.031
-295.705	192.042	0.084	-0.126
-294.691	800.000	-0.138	-0.489
-293.676	-200.000	-0.005	0.048
-292.662	-43.355	-0.296	-0.148
-291.647	63.650	-0.107	0.106
-290.632	-18.705	0.135	-0.083
-289.618	-36.877	-0.213	-0.113
-288.603	-134.627	0.071	-0.009
-287.589	-124.537	-0.186	0.029
-286.574	45.017	0.029	0.026
-285.559	101.196	0.211	-0.242
-284.545	-174.398	0.227	-0.006
-283.530	-93.654	-0.212	0.058
-282.516	-0.783	0.213	0.149
-281.501	5.141	-0.149	-0.108
-280.486	800.000	-0.029	0.083
-279.472	530.284	0.072	0.167
-278.457	800.000	-0.125	0.482
-277.443	-200.000	0.015	-0.209
-276.428	-200.000	0.049	0.257
-275.413	-200.000	0.004	0.193
-274.399	63.981	-0.060	-0.060
-273.384	-100.992	-0.251	-0.061
-272.370	220.651	0.186	0.294
-271.355	46.612	0.067	-0.062
-270.340	-11.025	-0.463	-0.302
-269.326	47.296	-0.177	0.163
-268.311	6.593	0.154	0.113
-267.297	-167.205	0.138	0.006
-266.282	658.321	-0.129	0.328
-265.267	800.000	0.158	-0.481
-264.253	-170.590	0.181	0.006
-263.238	-25.281	0.177	-0.103
-262.224	-96.530	0.103	0.027
-261.209	279.243	-0.074	-0.130
-260.195	-132.725	-0.023	-0.003
-259.180	800.000	-0.089	0.251
-258.165	243.624	0.089	0.147
-257.151	-200.000	0.079	-0.386
-256.136	800.000	0.055	0.217
-255.122	-114.785	-0.173	0.033
-254.107	-200.000	-0.045	0.327
-253.092	-28.115	0.149	-0.085
-252.078	132.601	0.207	0.263
-251.063	-130.523	-0.278	-0.037
-250.049	414.922	-0.015	0.032
-249.034	-177.342	0.140	-0.003
-248.019	267.714	0.113	0.195
-247.005	251.041	-0.114	-0.192
-245.990	-0.195	-0.179	0.125
-244.976	-110.611	0.102	-0.021
-243.961	-119.759	-0.207	0.035
-242.946	-97.472	0.227	0.058
-241.932	-200.000	0.004	0.150
-240.917	-125.099	0.124	0.019
-239.903	800.000	-0.093	-0.290
-238.888	141.546	-0.093	-0.122
-237.873	733.035	-0.035	-0.091
-236.859	238.794	0.047	-0.076
-235.844	53.148	0.161	-0.152
-234.830	688.893	-0.091	-0.235
-233.815	197.207	-0.129	0.193
-232.800	-90.082	0.129	0.037
-231.786	168.115	0.060	0.085
-230.771	800.000	-0.059	0.220
-229.757	-41.123	-0.230	0.117
-228.742	-102.748	0.225	0.053
-227.727	96.225	0.120	0.135
-226.713	800.000	-0.119	0.327
-225.698	-115.690	0.262	0.048
-224.684	-132.916	-0.142	-0.018
-223.669	213.627	0.109	-0.169
-222.655	62.684	-0.184	-0.181
-221.640	800.000	0.060	-0.184
-220.625	90.373	0.224	-0.246
-219.611	535.756	-0.090	-0.210
-218.596	77.081	0.263	-0.275
-217.582	97.943	-0.093	0.105
-216.567	66.826	0.068	0.068
-215.552	-23.236	-0.300	-0.178
-214.538	-83.201	0.301	0.095
-213.523	-125.394	0.235	0.035
-212.509	141.125	0.082	0.106
-211.494	227.633	0.123	0.196
-210.479	-103.399	-0.470	-0.109
-209.465	-112.541	0.182	-0.036
-208.450	-116.362	0.146	0.027
-207.436	-52.311	-0.301	-0.137
-206.421	800.000	-0.008	-0.022
-205.406	138.769	0.100	-0.130
-204.392	79.273	0.147	0.155
-203.377	100.685	-0.057	-0.065
-202.363	-14.360	0.041	0.026
-201.348	-35.154	-0.292	-0.156
-200.333	-200.000	0.013	-0.152
-199.319	156.018	-0.132	0.179
-198.304	-200.000	0.271	-0.001
-197.290	-200.000	-0.013	0.176
-196.275	-91.684	-0.277	0.078
-195.260	45.424	-0.135	0.122
-194.246	-200.000	0.064	-0.295
-193.231	-200.000	0.004	-0.229
-192.217	-178.934	-0.186	-0.004
-191.202	-132.769	0.230	0.029
-190.187	800.000	0.046	0.161
-189.173	800.000	0.080	-0.230
-188.158	-32.913	0.236	0.129
-187.144	41.505	-0.049	0.043
-186.129	800.000	-0.024	0.094
-185.114	203.767	0.105	-0.160
-184.100	-44.883	-0.043	-0.021
-183.085	120.236	0.320	-0.390
-182.071	396.979	-0.050	0.102
-181.056	171.020	0.049	-0.069
-180.042	-122.070	0.064	-0.010
-179.027	-55.429	0.068	-0.030
-178.012	172.055	-0.184	-0.260
-176.998	800.000	-0.021	0.076
-175.983	-119.088	0.239	-0.041
-174.969	-17.255	-0.126	0.078
-173.954	103.551	0.109	0.126
-172.939	629.152	-0.083	0.207
-171.925	-47.236	0.185	-0.089
-170.910	18.509	0.206	0.161
-169.896	-83.172	0.141	-0.044
-168.881	53.150	-0.247	0.233
-167.866	-33.572	0.209	-0.114
-166.852	-17.342	0.291	0.180
-165.837	611.179	0.092	-0.227
-164.823	-109.791	-0.241	-0.050
-163.808	101.240	0.037	-0.042
-162.793	324.140	0.068	0.128
-161.779	-26.197	0.262	0.151
-160.764	293.844	-0.132	0.237
-159.750	800.000	0.054	0.176
-158.735	236.191	0.169	-0.274
-157.720	800.000	-0.032	-0.121
-156.706	800.000	0.019	0.076
-155.691	-200.000	-0.080	0.397
-154.677	313.016	0.066	0.121
-153.662	-1.211	-0.244	-0.169
-152.647	-100.665	-0.073	0.018
-151.633	-65.573	0.367	0.145
-150.618	-200.000	0.019	0.188
-149.604	800.000	-0.010	-0.043
-148.589	91.872	0.287	0.317
-147.574	265.298	0.212	0.363
-146.560	-2.324	-0.271	-0.186
-145.545	800.000	0.155	0.520
-144.531	-200.000	-0.001	0.133
-143.516	205.467	0.128	0.195
-142.502	-200.000	0.006	0.322
-141.487	132.526	0.032	-0.040
-140.472	687.738	0.099	0.253
-139.458	-4.709	0.013	0.009
-138.443	110.964	-0.062	-0.073
-137.429	-21.724	0.230	0.138
-136.414	2.618	-0.302	0.214
-135.399	654.596	0.058	0.146
-134.385	-159.871	-0.145	-0.008
-133.370	773.269	0.041	0.111
-132.356	800.000	0.041	0.157
-131.341	-200.000	-0.012	0.232
-130.326	-200.000	0.050	0.274
-129.312	-99.100	-0.242	-0.060
-128.297	120.699	0.141	0.172
-127.283	238.784	-0.074	0.120
-126.268	211.186	-0.115	-0.178
-125.253	-18.569	-0.074	-0.046
-124.239	154.069	0.019	-0.025
-123.224	262.473	0.039	0.065
-122.210	800.000	-0.049	0.200
-121.195	205.814	0.137	-0.209
