DTS Sentinel unit serial number:	SN413079Multiplexer serial number:	ORYXHardware model number:	OX4-SRSoftware version number:	ORYX F/W v4.00 Oryx Data Collector v3.7.2.0data status	okinstallation	princeton_trtdifferential loss correction	single-endedforward channel	channel 1reverse channel	N/Adate	2019/09/19time	13:50:35forward acquisition time	60.00reverse acquisition time	0.00gamma	496.2192k internal	0.2325k external	0.2325temperature offset calibration	1.0016default loss term (dB/km)	0.3790temperature slope calibration	1.0000multiplexer offset coefficient	1.0000multiplexer slope coefficient	1.0000fibre end	0.00T internal ref (°C)	30.75T ext. ref 1 (°C)	1.00T ext. ref 2 (°C)	28.11length (m)	temperature (°C)	Stokes	anti-Stokes-747.200	-71.054	-0.094	0.036
-746.185	-151.995	0.089	0.007
-745.171	-200.000	-0.082	0.398
-744.156	-88.384	0.086	-0.026
-743.142	556.222	0.013	-0.031
-742.127	-127.279	0.203	0.030
-741.112	-200.000	-0.012	0.057
-740.098	-110.988	-0.103	0.021
-739.083	78.697	-0.150	0.162
-738.069	673.704	-0.176	0.462
-737.054	57.477	-0.238	0.234
-736.039	73.317	-0.283	-0.299
-735.025	-51.506	0.418	0.197
-734.010	-3.697	-0.181	-0.127
-732.996	-200.000	-0.023	0.165
-731.981	357.913	0.033	0.067
-730.966	-78.369	-0.152	-0.053
-729.952	82.013	-0.199	0.217
-728.937	-118.235	-0.362	-0.065
-727.923	-200.000	0.044	0.282
-726.908	100.976	0.067	-0.078
-725.894	318.754	-0.079	0.150
-724.879	-61.019	0.400	-0.170
-723.864	399.137	-0.143	0.303
-722.850	-181.542	0.396	0.008
-721.835	-200.000	0.042	0.362
-720.821	-52.132	-0.116	-0.054
-719.806	12.679	0.150	0.117
-718.791	87.426	-0.288	0.321
-717.777	-200.000	-0.050	-0.433
-716.762	800.000	0.118	-0.373
-715.748	-200.000	0.011	-0.139
-714.733	800.000	-0.087	0.267
-713.718	-200.000	0.001	0.232
-712.704	-200.000	0.047	0.213
-711.689	-100.945	0.731	-0.181
-710.675	355.306	0.180	0.361
-709.660	800.000	-0.055	0.185
-708.645	41.823	-0.140	0.128
-707.631	800.000	-0.119	-0.343
-706.616	84.330	-0.126	-0.139
-705.602	239.593	-0.259	-0.434
-704.587	18.734	0.038	0.030
-703.572	800.000	0.095	-0.418
-702.558	26.764	0.104	0.088
-701.543	-200.000	-0.028	0.353
-700.529	-46.715	0.151	-0.075
-699.514	-200.000	-0.080	0.489
-698.499	-70.555	0.470	0.179
-697.485	39.254	0.159	0.143
-696.470	500.707	-0.056	-0.130
-695.456	445.215	-0.108	0.239
-694.441	214.580	-0.049	-0.078
-693.426	161.639	0.117	0.165
-692.412	-200.000	0.015	0.105
-691.397	-142.653	0.167	-0.016
-690.383	-144.705	0.292	0.027
-689.368	-45.022	-0.084	0.042
-688.354	150.174	-0.018	0.025
-687.339	-5.150	-0.205	0.142
-686.324	0.328	-0.052	-0.038
-685.310	8.366	0.260	-0.197
-684.295	32.615	-0.179	0.156
-683.281	-111.934	-0.278	0.056
-682.266	-33.514	-0.348	0.194
-681.251	54.915	0.297	0.288
-680.237	110.736	-0.199	0.241
-679.222	-200.000	0.009	-0.089
-678.208	-89.835	-0.270	0.080
-677.193	14.771	-0.314	-0.247
-676.178	92.080	0.249	-0.283
-675.164	-117.510	0.297	0.054
-674.149	10.960	-0.184	-0.141
-673.135	530.839	0.152	0.362
-672.120	130.786	0.144	0.186
-671.105	13.315	0.217	0.169
-670.091	-200.000	-0.018	0.337
-669.076	-59.916	0.121	0.052
-668.062	-12.629	-0.031	0.021
-667.047	21.680	-0.230	-0.188
-666.032	108.461	0.222	-0.266
-665.018	-104.999	0.406	-0.094
-664.003	-20.571	-0.232	0.144
-662.989	217.456	0.075	-0.121
-661.974	-33.223	0.046	-0.026
-660.959	99.369	-0.115	-0.134
-659.945	-84.297	-0.119	0.038
-658.930	800.000	0.067	-0.223
-657.916	-131.549	0.305	-0.040
-656.901	-23.632	-0.043	0.026
-655.886	-11.561	-0.071	-0.047
-654.872	800.000	0.114	-0.395
-653.857	-191.175	-0.169	-0.002
-652.843	22.774	0.268	-0.221
-651.828	-200.000	0.012	0.076
-650.814	-200.000	-0.025	-0.136
-649.799	28.322	0.112	0.095
-648.784	800.000	-0.093	0.265
-647.770	311.252	-0.019	0.037
-646.755	800.000	-0.058	0.252
-645.741	209.475	0.119	-0.188
-644.726	-152.612	-0.086	-0.006
-643.711	-121.160	0.287	0.048
-642.697	-18.666	0.099	-0.062
-641.682	50.553	-0.242	0.230
-640.668	-85.404	-0.206	0.065
-639.653	-120.755	-0.163	0.028
-638.638	42.883	0.298	-0.273
-637.624	149.350	-0.192	-0.261
-636.609	274.580	0.149	0.265
-635.595	-26.887	-0.167	-0.098
-634.580	-200.000	0.043	0.253
-633.565	800.000	0.058	-0.189
-632.551	9.223	0.144	0.109
-631.536	281.280	-0.079	0.142
-630.522	-178.393	-0.294	0.007
-629.507	-97.488	-0.132	-0.034
-628.492	-45.021	0.199	-0.099
-627.478	-105.963	0.385	-0.087
-626.463	-165.011	-0.305	-0.014
-625.449	25.769	-0.409	-0.342
-624.434	-53.626	0.151	-0.069
-623.419	-200.000	0.080	-0.378
-622.405	167.580	0.013	-0.018
-621.390	-200.000	-0.046	-0.226
-620.376	48.745	-0.132	-0.124
-619.361	49.556	0.148	-0.140
-618.346	150.151	0.218	-0.297
-617.332	-78.734	0.254	-0.087
-616.317	800.000	-0.039	-0.129
-615.303	-200.000	0.082	-0.468
-614.288	-50.483	-0.363	0.172
-613.273	800.000	-0.079	0.293
-612.259	-139.372	0.162	-0.017
-611.244	125.888	-0.095	-0.120
-610.230	234.487	-0.073	0.121
-609.215	174.871	-0.042	0.061
-608.201	-200.000	0.008	-0.149
-607.186	-63.560	-0.300	0.124
-606.171	331.297	-0.087	0.169
-605.157	309.638	0.028	0.053
-604.142	-167.205	0.142	-0.006
-603.128	12.965	-0.216	-0.168
-602.113	-200.000	0.053	0.268
-601.098	800.000	0.012	0.035
-600.084	672.504	0.087	-0.225
-599.069	-47.652	0.219	-0.107
-598.055	33.677	0.138	-0.121
-597.040	575.552	-0.059	-0.144
-596.025	39.494	-0.154	-0.138
-595.011	800.000	0.038	0.115
-593.996	-200.000	0.026	-0.137
-592.982	800.000	-0.105	0.292
-591.967	-200.000	-0.000	0.089
-590.952	-135.085	-0.312	0.038
-589.938	37.290	0.228	-0.203
-588.923	-108.706	0.306	0.066
-587.909	37.748	0.209	-0.186
-586.894	-200.000	-0.094	0.459
-585.879	93.395	-0.197	0.224
-584.865	75.748	-0.111	0.118
-583.850	-200.000	0.017	0.150
-582.836	800.000	0.098	-0.304
-581.821	-43.403	0.064	-0.032
-580.806	-200.000	0.033	-0.161
-579.792	-58.064	-0.307	0.134
-578.777	34.643	-0.088	0.077
-577.763	-73.590	-0.226	0.083
-576.748	800.000	-0.120	-0.352
-575.733	-200.000	0.027	-0.196
-574.719	748.742	-0.054	-0.145
-573.704	-158.685	-0.099	0.006
-572.690	-200.000	0.027	-0.225
-571.675	-200.000	0.026	-0.548
-570.661	39.456	-0.134	0.121
-569.646	498.017	-0.075	0.173
-568.631	-200.000	0.015	-0.352
-567.617	116.495	-0.118	-0.145
-566.602	-60.481	0.126	-0.054
-565.588	-36.929	0.249	0.134
-564.573	-31.788	-0.139	0.078
-563.558	297.063	-0.070	0.129
-562.544	800.000	-0.053	0.178
-561.529	48.249	-0.180	0.169
-560.515	-121.970	0.142	0.023
-559.500	49.426	-0.176	0.166
-558.485	201.056	-0.166	0.256
-557.471	-113.841	-0.217	0.042
-556.456	-200.000	-0.027	0.260
-555.442	800.000	-0.042	-0.148
-554.427	-58.297	0.210	-0.092
-553.412	-200.000	0.019	-0.126
-552.398	800.000	-0.052	0.221
-551.383	-200.000	-0.015	-0.219
-550.369	102.501	0.048	-0.056
-549.354	800.000	0.078	-0.262
-548.339	771.884	-0.078	0.214
-547.325	69.703	-0.175	-0.180
-546.310	-200.000	-0.001	-0.006
-545.296	-71.469	0.309	-0.116
-544.281	-54.165	-0.483	0.220
-543.266	-73.722	-0.212	0.077
-542.252	32.239	-0.093	-0.080
-541.237	800.000	-0.028	-0.112
-540.223	308.583	-0.183	0.342
-539.208	-200.000	-0.044	-0.296
-538.193	310.871	-0.151	-0.283
-537.179	166.949	0.211	-0.299
-536.164	-136.684	0.219	0.025
-535.150	525.684	0.081	0.190
-534.135	-62.768	-0.198	0.082
-533.121	-66.685	-0.257	-0.102
-532.106	-124.670	0.123	-0.019
-531.091	566.352	-0.053	-0.127
-530.077	224.296	0.147	-0.238
-529.062	520.024	-0.053	0.125
-528.048	441.798	0.150	0.329
-527.033	-200.000	0.001	0.034
-526.018	55.752	0.421	0.408
-525.004	-110.042	0.174	0.036
-523.989	-7.543	-0.204	0.138
-522.975	800.000	0.066	-0.257
-521.960	-145.836	-0.218	0.019
-520.945	800.000	-0.070	0.205
-519.931	334.339	-0.153	-0.296
-518.916	-77.151	0.108	0.038
-517.902	152.237	0.113	-0.155
-516.887	-200.000	-0.080	-0.364
-515.872	-89.871	0.248	-0.072
-514.858	106.857	0.187	-0.222
-513.843	258.955	0.065	-0.112
-512.829	-2.233	0.138	-0.097
-511.814	143.183	-0.155	-0.206
-510.799	23.942	-0.153	0.126
-509.785	136.691	-0.122	0.159
-508.770	570.176	-0.040	0.098
-507.756	-200.000	-0.104	0.471
-506.741	84.319	-0.093	0.101
-505.726	-173.971	0.135	-0.004
-504.712	46.140	0.095	0.088
-503.697	-104.321	0.454	-0.105
-502.683	-111.511	0.439	-0.089
-501.668	300.669	0.147	-0.271
-500.653	-37.634	0.194	-0.103
-499.639	-142.520	0.247	0.024
-498.624	51.583	-0.094	-0.089
-497.610	173.742	-0.188	0.271
-496.595	263.931	-0.010	-0.018
-495.581	-108.334	0.324	-0.070
-494.566	-200.000	0.006	-0.095
-493.551	-49.875	0.164	0.078
-492.537	88.097	-0.064	-0.071
-491.522	15.405	0.093	-0.073
-490.508	9.269	0.340	-0.257
-489.493	-61.727	-0.415	0.174
-488.478	188.600	0.113	0.168
-487.464	-77.409	0.256	-0.089
-486.449	-200.000	0.045	0.301
-485.435	-200.000	0.015	-0.181
-484.420	-18.463	-0.260	-0.162
-483.405	-190.853	-0.123	-0.001
-482.391	742.790	-0.077	-0.208
-481.376	321.398	0.087	-0.165
-480.362	-2.356	-0.133	0.093
-479.347	19.006	0.113	0.091
-478.332	140.986	-0.133	0.176
-477.318	-102.556	0.037	0.009
-476.303	-142.729	-0.247	-0.024
-475.289	688.099	0.056	0.147
-474.274	800.000	0.071	0.238
-473.259	-53.960	-0.151	-0.069
-472.245	-109.470	-0.341	-0.072
-471.230	-78.684	0.198	0.068
-470.216	13.154	-0.173	-0.134
-469.201	800.000	0.060	0.217
-468.186	-38.327	-0.227	0.120
-467.172	-70.814	0.090	0.034
-466.157	-72.729	-0.164	-0.060
-465.143	-200.000	-0.014	-0.272
-464.128	-57.130	-0.294	0.129
-463.113	-200.000	-0.014	0.257
-462.099	-142.049	0.271	0.027
-461.084	-119.401	-0.194	-0.034
-460.070	-113.741	-0.208	0.040
-459.055	800.000	0.037	0.128
-458.040	64.242	-0.316	-0.318
-457.026	-32.586	-0.203	-0.113
-456.011	189.270	0.093	0.139
-454.997	378.706	0.146	-0.299
-453.982	-151.493	0.188	-0.014
-452.968	-8.674	-0.280	-0.188
-451.953	-200.000	-0.052	-0.307
-450.938	-200.000	-0.009	-0.274
-449.924	-17.893	0.256	-0.160
-448.909	-71.844	-0.118	-0.044
-447.895	-95.493	0.244	0.065
-446.880	-138.057	0.128	0.014
-445.865	591.204	-0.061	-0.151
-444.851	-1.859	0.366	-0.257
-443.836	-73.583	-0.179	-0.065
-442.822	-200.000	-0.003	-0.056
-441.807	290.130	-0.093	-0.169
-440.792	-200.000	0.015	0.191
-439.778	-17.058	0.259	-0.163
-438.763	-200.000	0.000	0.046
-437.749	-126.840	0.119	0.017
-436.734	504.707	0.051	-0.117
-435.719	-200.000	0.023	0.122
-434.705	-30.331	-0.179	-0.101
-433.690	139.874	0.175	-0.230
-432.676	800.000	-0.063	-0.217
-431.661	98.868	0.221	0.254
-430.646	-200.000	0.001	0.098
-429.632	-58.642	0.183	0.079
-428.617	229.028	-0.091	0.149
-427.603	-75.189	0.356	0.127
-426.588	800.000	0.047	0.203
-425.573	67.420	0.529	0.538
-424.559	-124.234	-0.413	-0.064
-423.544	-200.000	0.036	-0.168
-422.530	-26.801	0.198	-0.116
-421.515	-141.439	-0.200	-0.020
-420.500	221.437	-0.127	0.204
-419.486	298.166	0.200	-0.366
-418.471	800.000	-0.078	0.275
-417.457	123.048	-0.157	-0.196
-416.442	547.959	-0.076	0.180
-415.428	-200.000	0.006	-0.081
-414.413	-90.539	0.160	0.046
-413.398	73.792	0.199	-0.208
-412.384	11.213	0.236	0.180
-411.369	800.000	0.053	0.169
-410.355	30.664	-0.174	-0.148
-409.340	-148.544	0.193	-0.016
-408.325	216.515	-0.174	-0.276
-407.311	-138.343	-0.210	0.023
-406.296	15.839	0.072	0.057
-405.282	672.618	-0.065	-0.169
-404.267	-200.000	0.029	-0.156
-403.252	292.389	-0.083	0.151
-402.238	-200.000	0.007	0.247
-401.223	-95.960	-0.400	0.106
-400.209	56.821	0.137	0.133
-399.194	800.000	0.057	0.247
-398.179	-142.712	0.124	0.012
-397.165	-111.873	-0.309	-0.062
-396.150	-15.466	0.241	-0.153
-395.136	-158.031	0.163	0.010
-394.121	-6.419	-0.109	0.074
-393.106	-92.738	-0.140	-0.039
-392.092	-200.000	0.012	0.067
-391.077	-200.000	0.006	-0.139
-390.063	800.000	0.045	-0.166
-389.048	-117.425	0.035	0.006
-388.033	-141.959	0.299	-0.030
-387.019	586.849	-0.046	0.113
-386.004	8.403	-0.228	-0.171
-384.990	-200.000	0.050	0.278
-383.975	398.118	0.177	-0.369
-382.960	-22.942	0.129	-0.078
-381.946	340.069	0.113	0.220
-380.931	-6.128	-0.166	-0.113
-379.917	465.628	-0.102	0.226
-378.902	215.814	0.037	0.058
-377.888	-56.454	-0.145	-0.064
-376.873	-200.000	0.019	0.212
-375.858	800.000	0.057	0.213
-374.844	155.785	-0.112	0.153
-373.829	-135.296	-0.418	0.050
-372.815	185.948	-0.194	0.287
-371.800	-16.614	-0.164	0.103
-370.785	-158.423	0.084	-0.005
-369.771	-200.000	0.003	-0.123
-368.756	-113.084	-0.252	0.050
-367.742	-21.761	-0.220	0.133
-366.727	262.902	-0.095	0.164
-365.712	245.990	-0.199	-0.333
-364.698	276.634	-0.038	0.068
-363.683	-200.000	0.048	0.482
-362.669	-181.401	0.166	-0.003
-361.654	-174.657	-0.256	-0.007
-360.639	73.817	0.151	0.157
-359.625	-146.942	0.148	0.013
-358.610	256.407	0.149	-0.254
-357.596	-71.516	-0.084	0.031
-356.581	-12.278	-0.360	0.234
-355.566	416.094	0.106	0.226
-354.552	150.553	0.088	-0.119
-353.537	-95.083	-0.411	0.110
-352.523	297.316	-0.013	0.024
-351.508	-200.000	0.040	0.262
-350.493	-200.000	-0.028	-0.195
-349.479	12.963	0.047	-0.036
-348.464	626.237	-0.196	-0.492
-347.450	-8.864	0.399	0.265
-346.435	9.542	0.202	-0.152
-345.420	-11.937	-0.092	0.060
-344.406	325.142	0.094	0.179
-343.391	-150.982	0.182	-0.014
-342.377	159.807	-0.064	0.088
-341.362	-94.491	-0.277	0.075
-340.348	-41.390	0.291	-0.149
-339.333	-107.142	0.172	0.038
-338.318	559.656	0.103	0.248
-337.304	-42.373	0.344	-0.174
-336.289	124.632	0.080	-0.100
-335.275	-1.448	0.163	0.114
-334.260	6.159	-0.318	-0.234
-333.245	-54.219	-0.094	0.043
-332.231	165.709	-0.114	-0.160
-331.216	178.401	0.124	-0.180
-330.202	105.391	0.106	0.125
-329.187	43.394	-0.404	0.366
-328.172	175.352	-0.183	0.264
-327.158	800.000	-0.024	-0.068
-326.143	-4.943	0.120	0.082
-325.129	46.951	-0.271	0.250
-324.114	-69.282	0.542	-0.207
-323.099	-2.019	-0.178	-0.124
-322.085	24.536	-0.138	-0.114
-321.070	-51.813	0.332	0.154
-320.056	429.637	0.106	0.227
-319.041	141.189	-0.058	0.076
-318.026	-46.218	0.216	-0.106
-317.012	-80.453	0.120	0.040
-315.997	-88.317	0.381	-0.113
-314.983	-149.930	-0.271	0.021
-313.968	12.247	-0.249	-0.190
-312.953	-105.126	-0.123	0.028
-311.939	61.374	-0.140	0.138
-310.924	-200.000	-0.028	-0.414
-309.910	-130.831	0.450	-0.060
-308.895	-149.979	-0.107	-0.008
-307.880	268.190	0.011	0.020
-306.866	-38.994	-0.104	0.054
-305.851	-200.000	0.094	0.441
-304.837	-74.761	0.304	-0.108
-303.822	-48.519	-0.191	-0.091
-302.807	-16.901	0.119	0.074
-301.793	-14.049	0.253	0.162
-300.778	47.604	0.071	0.066
-299.764	78.098	0.222	0.235
-298.749	-200.000	0.010	0.066
-297.735	-200.000	0.049	0.385
-296.720	-128.815	-0.051	0.007
-295.705	151.898	-0.205	-0.277
-294.691	543.988	-0.088	-0.208
-293.676	315.583	0.060	-0.112
-292.662	5.124	0.187	-0.137
-291.647	300.701	-0.142	-0.259
-290.632	-97.430	0.211	0.054
-289.618	95.684	0.061	0.069
-288.603	-200.000	-0.006	-0.059
-287.589	35.260	0.255	-0.222
-286.574	-157.331	0.183	-0.011
-285.559	-33.916	0.205	0.112
-284.545	39.233	0.165	-0.146
-283.530	-154.308	0.026	-0.002
-282.516	-200.000	-0.004	-0.145
-281.501	16.394	-0.038	-0.030
-280.486	635.425	-0.036	0.091
-279.472	-69.345	-0.094	0.036
-278.457	112.621	-0.072	-0.087
-277.443	-85.207	-0.504	0.156
-276.428	239.712	0.034	0.056
-275.413	-163.447	0.263	0.012
-274.399	121.252	-0.192	0.237
-273.384	20.356	-0.211	-0.169
-272.370	-60.176	-0.228	0.096
-271.355	-124.688	-0.279	-0.043
-270.340	-92.946	0.378	-0.104
-269.326	-84.026	0.269	0.085
-268.311	-130.999	-0.390	0.052
-267.297	-91.828	-0.312	-0.088
-266.282	-184.619	-0.133	0.002
-265.267	800.000	0.051	0.167
-264.253	-56.820	-0.195	0.085
-263.238	-58.003	-0.199	0.086
-262.224	42.977	0.237	0.214
-261.209	4.631	-0.268	-0.195
-260.195	35.481	0.243	0.211
-259.180	73.626	-0.074	-0.077
-258.165	-20.841	-0.181	0.110
-257.151	800.000	0.121	0.388
-256.136	44.522	-0.052	0.047
-255.122	800.000	-0.089	-0.287
-254.107	-99.529	0.107	0.027
-253.092	-200.000	0.019	0.204
-252.078	-2.962	-0.176	-0.122
-251.063	120.454	0.170	0.209
-250.049	-126.858	0.112	-0.016
-249.034	-154.830	-0.185	0.012
-248.019	47.987	0.101	0.093
-247.005	291.334	0.050	0.090
-245.990	-200.000	-0.019	-0.151
-244.976	800.000	0.099	-0.295
-243.961	-200.000	-0.022	-0.164
-242.946	28.221	0.143	0.120
-241.932	715.188	0.086	-0.225
-240.917	93.904	-0.049	-0.055
-239.903	-82.308	-0.223	-0.072
-238.888	-181.072	-0.073	-0.001
-237.873	180.359	0.217	0.315
-236.859	-200.000	0.089	0.412
-235.844	800.000	0.053	0.168
-234.830	-84.817	0.280	0.087
-233.815	-41.587	0.135	-0.068
-232.800	800.000	-0.035	-0.105
-231.786	-74.864	-0.180	0.064
-230.771	-85.807	-0.253	-0.078
-229.757	-89.215	0.030	-0.009
-228.742	7.450	-0.240	-0.178
-227.727	-69.023	0.052	0.020
-226.713	-200.000	0.014	-0.278
-225.698	-200.000	-0.005	-0.249
-224.684	-13.251	0.165	-0.106
-223.669	290.643	-0.102	0.184
-222.655	-200.000	-0.009	0.143
-221.640	-200.000	0.023	0.323
-220.625	-133.953	-0.085	0.010
-219.611	-200.000	-0.014	0.084
-218.596	355.522	0.034	-0.068
-217.582	-114.064	-0.262	-0.050
-216.567	-103.106	-0.275	-0.064
-215.552	180.662	0.070	-0.102
-214.538	-91.751	-0.279	0.078
-213.523	395.728	-0.070	-0.145
-212.509	-103.523	0.253	0.059
-211.494	800.000	-0.154	-0.448
-210.479	-200.000	0.024	-0.225
-209.465	-52.048	0.486	-0.223
-208.450	402.119	0.099	0.206
-207.436	411.897	-0.092	-0.192
-206.421	500.135	-0.064	0.145
-205.406	450.390	-0.172	-0.375
-204.392	142.493	-0.127	-0.166
-203.377	-200.000	-0.003	-0.440
-202.363	-19.628	-0.227	0.139
-201.348	266.409	0.068	-0.118
-200.333	-200.000	-0.003	0.225
-199.319	-1.103	0.135	-0.094
-198.304	-114.621	0.299	-0.057
-197.290	6.567	0.187	0.138
-196.275	-200.000	-0.001	0.244
-195.260	-151.677	-0.177	-0.013
-194.246	91.080	-0.054	-0.060
-193.231	130.657	0.285	0.361
-192.217	339.353	-0.153	-0.295
-191.202	-109.298	0.356	0.074
-190.187	542.027	-0.158	0.372
-189.173	27.874	-0.243	-0.202
-188.158	-136.446	-0.230	0.026
-187.144	8.743	0.043	-0.032
-186.129	401.718	-0.066	0.137
-185.114	800.000	-0.041	0.157
-184.100	-200.000	-0.014	0.145
-183.085	-149.492	0.018	0.001
-182.071	-61.811	-0.271	-0.112
-181.056	-1.625	0.129	0.090
-180.042	800.000	-0.068	0.203
-179.027	222.485	0.056	-0.088
-178.012	-145.783	0.142	-0.012
-176.998	58.914	0.225	0.219
-175.983	-87.769	0.507	0.151
-174.969	21.709	0.253	-0.203
-173.954	35.101	0.173	0.149
-172.939	-134.194	-0.222	-0.027
-171.925	95.131	0.184	-0.207
-170.910	-163.828	-0.266	-0.012
-169.896	14.645	0.091	-0.070
-168.881	-56.843	-0.180	0.079
-167.866	-5.817	0.144	0.097
-166.852	-174.791	-0.279	0.008
-165.837	58.726	-0.226	0.219
-164.823	-95.943	0.594	0.156
-163.808	569.766	0.046	0.111
-162.793	-19.402	-0.381	-0.233
-161.779	-124.375	0.300	-0.046
-160.764	-155.487	0.216	-0.014
-159.750	611.675	0.031	0.075
-158.735	-200.000	0.021	-0.245
-157.720	-160.561	-0.423	-0.022
-156.706	302.714	0.164	0.298
-155.691	-103.598	0.186	-0.043
-154.677	-200.000	-0.017	0.320
-153.662	299.575	0.095	0.172
-152.647	-80.668	0.139	-0.046
-151.633	-200.000	0.017	0.128
-150.618	-27.364	0.160	0.092
-149.604	800.000	-0.046	-0.159
-148.589	-200.000	-0.001	-0.061
-147.574	-137.292	0.245	0.027
-146.560	66.835	-0.067	0.067
-145.545	77.711	0.243	0.255
-144.531	800.000	-0.132	0.484
-143.516	752.659	0.029	0.078
-142.502	247.969	0.036	-0.061
-141.487	-41.433	0.151	-0.077
-140.472	148.283	-0.070	-0.093
-139.458	514.756	0.114	0.263
-138.443	-21.594	-0.149	-0.090
-137.429	578.915	-0.139	-0.336
-136.414	-93.429	0.448	-0.122
-135.399	-33.237	-0.152	-0.083
-134.385	-114.132	-0.268	0.051
-133.370	-200.000	0.035	0.165
-132.356	-13.394	-0.285	0.182
-131.341	577.208	-0.043	0.103
-130.326	125.357	-0.037	0.046
-129.312	325.916	-0.234	-0.441
-128.297	800.000	-0.120	-0.345
-127.283	-162.527	0.441	0.021
-126.268	105.875	0.193	0.225
-125.253	-108.912	0.282	-0.059
-124.239	-72.162	0.085	-0.031
-123.224	-200.000	-0.017	-0.140
-122.210	264.047	0.240	-0.411
-121.195	125.034	-0.204	0.253
-120.180	-59.990	-0.217	-0.091
