DTS Sentinel unit serial number:	SN413079Multiplexer serial number:	ORYXHardware model number:	OX4-SRSoftware version number:	ORYX F/W v4.00 Oryx Data Collector v3.7.2.0data status	okinstallation	princeton_trtdifferential loss correction	single-endedforward channel	channel 1reverse channel	N/Adate	2019/09/14time	22:06:35forward acquisition time	60.00reverse acquisition time	0.00gamma	496.2192k internal	0.2319k external	0.2319temperature offset calibration	1.0005default loss term (dB/km)	0.3790temperature slope calibration	1.0000multiplexer offset coefficient	1.0000multiplexer slope coefficient	1.0000fibre end	0.00T internal ref (°C)	32.66T ext. ref 1 (°C)	4.71T ext. ref 2 (°C)	27.64length (m)	temperature (°C)	Stokes	anti-Stokes-747.200	-69.629	-0.247	0.096
-746.185	-96.994	0.067	-0.018
-745.171	776.166	0.073	-0.200
-744.156	404.822	0.076	0.163
-743.142	-200.000	0.027	-0.124
-742.127	800.000	0.066	-0.254
-741.112	-6.427	0.284	0.196
-740.098	-150.528	-0.164	-0.013
-739.083	76.536	0.201	-0.216
-738.069	-200.000	-0.006	-0.108
-737.054	68.711	0.216	0.224
-736.039	-114.826	-0.247	0.048
-735.025	155.975	0.169	0.236
-734.010	138.871	-0.180	-0.239
-732.996	800.000	0.058	-0.213
-731.981	-200.000	0.013	0.373
-730.966	-94.710	0.140	-0.039
-729.952	47.482	-0.174	0.164
-728.937	-2.054	-0.230	-0.163
-727.923	-69.751	0.231	0.089
-726.908	800.000	-0.081	-0.241
-725.894	565.485	-0.072	-0.178
-724.879	345.828	-0.123	-0.245
-723.864	-52.215	-0.140	-0.066
-722.850	151.786	0.096	0.132
-721.835	-127.319	-0.222	0.033
-720.821	32.756	0.329	-0.288
-719.806	295.787	-0.116	0.215
-718.791	-200.000	-0.015	-0.281
-717.777	-200.000	-0.031	-0.261
-716.762	161.832	0.124	0.176
-715.748	12.156	-0.076	0.059
-714.733	800.000	-0.052	0.144
-713.718	800.000	-0.032	-0.095
-712.704	379.563	0.137	0.284
-711.689	-200.000	0.006	-0.123
-710.675	-200.000	-0.007	-0.183
-709.660	31.191	0.310	0.269
-708.645	800.000	0.103	-0.388
-707.631	94.815	-0.134	-0.154
-706.616	800.000	0.135	0.539
-705.602	10.043	-0.173	0.132
-704.587	584.444	-0.107	0.266
-703.572	-169.494	0.208	-0.008
-702.558	291.718	-0.109	-0.201
-701.543	-60.079	-0.195	-0.084
-700.529	-200.000	0.044	0.263
-699.514	-38.643	-0.333	0.178
-698.499	-44.192	0.161	-0.081
-697.485	-122.654	-0.116	-0.019
-696.470	219.100	-0.100	-0.161
-695.456	94.946	-0.324	-0.372
-694.441	-200.000	0.012	-0.224
-693.426	-9.811	-0.146	0.098
-692.412	189.224	-0.251	0.379
-691.397	129.647	-0.118	0.152
-690.383	-96.672	0.075	-0.020
-689.368	107.574	-0.226	0.271
-688.354	-43.935	0.052	-0.026
-687.339	144.760	-0.051	0.069
-686.324	-200.000	0.039	0.206
-685.310	-45.524	0.108	0.054
-684.295	427.833	0.168	0.367
-683.281	109.276	0.060	0.073
-682.266	20.876	-0.144	0.118
-681.251	-44.094	0.185	-0.094
-680.237	55.950	-0.282	0.276
-679.222	784.331	0.057	0.159
-678.208	572.187	0.171	0.420
-677.193	323.512	0.069	0.133
-676.178	-37.728	-0.233	0.125
-675.164	37.441	-0.081	-0.073
-674.149	213.230	0.136	-0.217
-673.135	107.493	0.134	-0.161
-672.120	-200.000	-0.042	0.246
-671.105	-104.766	-0.147	0.034
-670.091	800.000	0.031	-0.116
-669.076	-27.382	-0.108	0.063
-668.062	-78.225	-0.162	0.056
-667.047	23.179	0.069	0.058
-666.032	-113.200	-0.009	0.002
-665.018	221.885	0.109	-0.178
-664.003	62.324	0.224	0.225
-662.989	-158.435	-0.165	-0.010
-661.974	492.755	0.114	0.264
-660.959	-200.000	-0.014	-0.354
-659.945	-71.452	-0.142	0.054
-658.930	408.945	0.080	-0.171
-657.916	458.357	0.075	-0.169
-656.901	14.109	0.238	0.187
-655.886	253.835	0.135	-0.232
-654.872	-23.926	-0.199	-0.120
-653.857	2.955	-0.078	-0.057
-652.843	-35.236	0.194	0.106
-651.828	800.000	0.022	0.076
-650.814	7.105	0.323	0.243
-649.799	-200.000	-0.013	-0.264
-648.784	4.360	0.162	-0.120
-647.770	-194.227	-0.477	-0.004
-646.755	10.227	0.178	0.136
-645.741	-200.000	0.009	0.071
-644.726	-200.000	-0.058	0.471
-643.711	-26.901	-0.195	-0.115
-642.697	-200.000	0.049	-0.227
-641.682	304.346	-0.118	-0.221
-640.668	-113.602	0.210	-0.041
-639.653	426.121	0.155	0.337
-638.638	362.201	0.079	-0.159
-637.624	-19.742	-0.405	0.252
-636.609	-136.155	-0.140	0.017
-635.595	-87.356	-0.226	-0.069
-634.580	-200.000	-0.564	0.002
-633.565	176.057	0.062	-0.091
-632.551	143.214	0.146	-0.196
-631.536	800.000	0.075	-0.255
-630.522	-117.920	-0.406	-0.073
-629.507	68.008	-0.073	0.076
-628.492	17.633	0.032	-0.026
-627.478	-33.518	0.218	-0.121
-626.463	-120.168	-0.273	-0.047
-625.449	-159.040	-0.184	0.010
-624.434	-102.389	-0.391	0.094
-623.419	302.833	0.069	0.129
-622.405	800.000	-0.148	-0.437
-621.390	20.189	-0.201	0.163
-620.376	-200.000	-0.010	-0.310
-619.361	239.819	-0.114	0.191
-618.346	469.820	-0.082	-0.186
-617.332	372.399	0.085	0.174
-616.317	142.165	0.268	0.358
-615.303	128.785	-0.102	-0.131
-614.288	652.322	-0.078	-0.200
-613.273	800.000	0.101	0.296
-612.259	-200.000	0.009	-0.060
-611.244	141.043	-0.048	0.063
-610.230	-43.036	-0.165	-0.084
-609.215	-70.799	0.266	-0.101
-608.201	354.335	-0.152	0.303
-607.186	-134.409	0.171	0.021
-606.171	-34.939	-0.203	0.111
-605.157	-200.000	-0.002	0.114
-604.142	-200.000	-0.004	-0.054
-603.128	-174.400	0.238	-0.007
-602.113	-76.753	-0.286	-0.101
-601.098	156.414	-0.135	0.187
-600.084	389.814	0.059	0.124
-599.069	176.246	-0.055	-0.081
-598.055	75.305	-0.247	-0.262
-597.040	4.508	0.077	-0.057
-596.025	-200.000	-0.040	0.269
-595.011	6.004	-0.292	-0.218
-593.996	277.335	-0.079	0.142
-592.982	-115.194	-0.167	-0.032
-591.967	156.338	0.166	0.230
-590.952	195.051	0.180	0.274
-589.938	-146.573	0.249	-0.022
-588.923	-133.520	0.163	-0.021
-587.909	161.715	0.079	-0.111
-586.894	-200.000	-0.004	0.053
-585.879	800.000	0.037	-0.123
-584.865	659.510	0.077	-0.199
-583.850	-29.653	0.094	0.054
-582.836	205.854	-0.193	0.302
-581.821	52.909	0.069	-0.067
-580.806	-136.105	-0.184	0.022
-579.792	116.099	0.059	-0.073
-578.777	-200.000	-0.015	0.234
-577.763	-173.089	0.184	0.006
-576.748	112.486	0.240	-0.292
-575.733	-10.973	0.112	-0.074
-574.719	-200.000	-0.013	0.128
-573.704	159.082	0.129	-0.180
-572.690	-200.000	-0.047	-0.225
-571.675	31.253	0.208	0.179
-570.661	-188.287	0.250	-0.003
-569.646	-45.091	0.069	-0.034
-568.631	451.767	-0.042	0.094
-567.617	-1.358	-0.033	0.023
-566.602	-10.127	-0.453	-0.302
-565.588	-164.586	-0.397	-0.018
-564.573	-13.094	-0.160	-0.105
-563.558	68.596	-0.214	0.221
-562.544	1.414	0.166	-0.120
-561.529	-93.138	0.189	0.053
-560.515	156.184	0.101	-0.140
-559.500	548.745	0.075	0.180
-558.485	277.581	-0.192	-0.343
-557.471	-132.254	-0.144	0.019
-556.456	-12.412	0.215	-0.141
-555.442	14.464	0.148	-0.116
-554.427	-200.000	0.024	-0.132
-553.412	-200.000	-0.003	-0.147
-552.398	-200.000	-0.010	-0.322
-551.383	127.218	-0.188	-0.239
-550.369	224.090	0.072	0.117
-549.354	253.911	0.135	-0.231
-548.339	800.000	0.065	-0.261
-547.325	-129.369	-0.153	-0.021
-546.310	-31.703	0.155	-0.087
-545.296	587.296	0.104	-0.257
-544.281	36.713	-0.227	-0.202
-543.266	353.890	0.201	0.401
-542.252	-7.392	0.311	-0.212
-541.237	35.927	-0.120	-0.106
-540.223	-98.426	-0.139	0.036
-539.208	558.091	-0.009	0.021
-538.193	686.002	0.123	0.321
-537.179	-200.000	-0.027	-0.126
-536.164	800.000	0.096	0.327
-535.150	-156.398	-0.465	0.029
-534.135	-4.939	-0.149	0.103
-533.121	-59.646	0.265	-0.114
-532.106	-154.829	-0.032	-0.002
-531.091	5.077	-0.251	0.185
-530.077	-43.107	-0.164	0.084
-529.062	776.846	-0.054	-0.148
-528.048	696.056	0.048	-0.126
-527.033	235.676	-0.177	-0.294
-526.018	-31.195	-0.350	-0.198
-525.004	800.000	-0.066	0.201
-523.989	-52.507	0.401	0.186
-522.975	178.939	-0.176	-0.258
-521.960	675.593	-0.021	-0.055
-520.945	-94.207	0.165	-0.045
-519.931	-14.308	-0.284	-0.184
-518.916	5.582	0.158	-0.117
-517.902	-153.297	-0.347	-0.024
-516.887	-200.000	-0.013	-0.115
-515.872	38.302	-0.170	-0.152
-514.858	-91.593	0.074	-0.021
-513.843	112.176	-0.182	-0.221
-512.829	800.000	-0.087	-0.264
-511.814	800.000	0.077	-0.224
-510.799	505.773	0.147	0.341
-509.785	800.000	0.036	0.132
-508.770	-200.000	0.032	-0.185
-507.756	320.847	-0.090	0.171
-506.741	204.570	0.154	-0.239
-505.726	800.000	-0.075	-0.217
-504.712	-10.864	0.167	-0.111
-503.697	-79.007	0.095	0.032
-502.683	156.620	0.165	0.229
-501.668	-129.549	-0.231	-0.032
-500.653	-68.786	0.109	0.042
-499.639	165.079	0.279	0.395
-498.624	-94.324	0.050	-0.014
-497.610	56.697	0.294	0.287
-496.595	800.000	-0.047	0.144
-495.581	72.824	0.065	0.068
-494.566	201.800	0.075	-0.116
-493.551	378.566	0.154	0.315
-492.537	-76.851	-0.132	0.046
-491.522	-48.606	-0.032	-0.015
-490.508	-172.189	0.135	0.004
-489.493	-200.000	0.047	-0.478
-488.478	99.319	0.185	0.214
-487.464	-200.000	0.011	0.103
-486.449	352.039	0.028	0.056
-485.435	-57.849	-0.257	0.113
-484.420	-200.000	0.052	0.255
-483.405	-30.118	-0.358	0.204
-482.391	133.966	-0.150	-0.194
-481.376	417.047	0.106	-0.227
-480.362	800.000	-0.050	-0.170
-479.347	-60.931	0.100	-0.043
-478.332	175.703	-0.099	0.144
-477.318	-84.898	-0.051	-0.016
-476.303	-2.853	0.204	0.143
-475.289	-47.385	0.093	0.045
-474.274	-88.044	0.170	0.051
-473.259	627.432	-0.123	0.310
-472.245	-32.249	-0.078	0.044
-471.230	-138.368	-0.253	-0.028
-470.216	-200.000	-0.011	-0.205
-469.201	-108.178	0.239	0.052
-468.186	-200.000	0.048	0.374
-467.172	-200.000	-0.010	0.215
-466.157	226.415	0.190	-0.309
-465.143	800.000	-0.054	0.214
-464.128	-144.204	0.329	-0.031
-463.113	-200.000	-0.010	0.073
-462.099	-187.359	-0.206	-0.003
-461.084	-200.000	0.032	0.148
-460.070	74.708	-0.110	0.115
-459.055	-86.911	0.073	0.022
-458.040	90.599	0.098	0.110
-457.026	-124.440	0.164	0.026
-456.011	-87.175	0.153	-0.047
-454.997	211.648	0.048	0.075
-453.982	800.000	-0.095	0.305
-452.968	-4.068	-0.112	-0.078
-451.953	-168.988	0.204	0.008
-450.938	335.241	-0.070	-0.135
-449.924	458.756	-0.043	-0.096
-448.909	800.000	-0.023	0.094
-447.895	-71.633	-0.250	0.093
-446.880	280.223	-0.207	-0.369
-445.865	3.226	-0.155	0.113
-444.851	-101.443	-0.213	-0.052
-443.836	-200.000	-0.029	-0.234
-442.822	-18.246	0.152	0.095
-441.807	-23.512	0.261	0.157
-440.792	99.257	0.152	0.176
-439.778	-69.233	-0.213	-0.082
-438.763	-123.584	-0.126	-0.020
-437.749	179.795	0.187	0.274
-436.734	210.837	-0.043	-0.067
-435.719	-200.000	-0.002	0.090
-434.705	-162.384	-0.122	0.006
-433.690	800.000	-0.025	-0.102
-432.676	25.464	0.074	0.061
-431.661	126.684	-0.120	0.152
-430.646	-200.000	0.032	-0.283
-429.632	-85.696	-0.232	-0.072
-428.617	-49.088	-0.106	0.051
-427.603	16.172	0.184	0.145
-426.588	-62.911	0.334	0.138
-425.573	-200.000	-0.033	0.177
-424.559	-200.000	-0.020	0.169
-423.544	-200.000	-0.016	-0.115
-422.530	181.189	-0.301	0.442
-421.515	-69.258	0.280	-0.108
-420.500	718.704	0.103	-0.275
-419.486	231.444	-0.197	-0.323
-418.471	-200.000	-0.054	0.330
-417.457	-123.459	0.060	-0.009
-416.442	-25.696	-0.148	-0.087
-415.428	800.000	0.048	0.203
-414.413	800.000	0.068	-0.204
-413.398	242.818	-0.134	0.223
-412.384	-53.329	0.405	0.186
-411.369	-11.379	-0.042	0.027
-410.355	591.114	-0.183	-0.450
-409.340	800.000	-0.045	0.182
-408.325	176.675	0.116	0.168
-407.311	118.502	0.135	-0.166
-406.296	800.000	0.039	0.108
-405.282	-200.000	-0.106	0.492
-404.267	800.000	-0.023	0.100
-403.252	-60.371	-0.379	0.161
-402.238	284.472	-0.276	-0.495
-401.223	557.656	-0.120	0.289
-400.209	-200.000	0.018	-0.148
-399.194	-82.710	0.392	0.127
-398.179	73.672	-0.292	0.306
-397.165	28.665	0.117	-0.099
-396.150	649.152	0.125	-0.318
-395.136	578.261	-0.053	-0.128
-394.121	-109.736	0.155	-0.032
-393.106	573.933	0.080	-0.194
-392.092	-131.084	-0.239	0.032
-391.077	-2.053	-0.245	0.172
-390.063	88.823	0.037	0.041
-389.048	-13.324	0.145	-0.094
-388.033	-46.549	-0.277	-0.136
-387.019	-114.435	0.247	0.047
-386.004	75.246	-0.088	-0.092
-384.990	-98.862	-0.133	0.034
-383.975	128.023	-0.126	-0.160
-382.960	-96.247	-0.125	0.033
-381.946	221.319	0.103	-0.165
-380.931	-34.997	-0.069	-0.038
-379.917	800.000	0.073	0.223
-378.902	142.364	0.191	0.253
-377.888	-25.381	-0.014	-0.008
-376.873	360.099	-0.180	-0.359
-375.858	-200.000	-0.023	0.143
-374.844	-44.658	-0.148	-0.074
-373.829	-200.000	0.003	-0.184
-372.815	-106.882	0.532	-0.118
-371.800	-200.000	-0.042	0.278
-370.785	98.940	-0.056	0.064
-369.771	53.433	0.269	0.257
-368.756	800.000	0.043	0.175
-367.742	-48.399	0.172	-0.082
-366.727	-29.525	-0.044	0.025
-365.712	-86.463	-0.269	0.082
-364.698	-156.574	-0.361	0.022
-363.683	-85.889	0.291	-0.090
-362.669	135.028	-0.043	0.056
-361.654	-14.889	0.321	0.205
-360.639	-152.403	-0.321	-0.023
-359.625	-69.006	0.083	-0.032
-358.610	-136.332	-0.085	-0.010
-357.596	-78.886	-0.140	0.048
-356.581	174.309	-0.160	-0.231
-355.566	19.061	0.177	0.141
-354.552	-121.502	0.076	-0.013
-353.537	-200.000	-0.055	0.275
-352.523	84.426	-0.137	0.150
-351.508	171.621	-0.041	0.059
-350.493	-120.164	-0.174	-0.030
-349.479	-28.274	0.162	0.093
-348.464	-94.185	0.441	0.120
-347.450	134.189	-0.080	-0.103
-346.435	180.116	0.100	-0.147
-345.420	-74.065	0.103	-0.037
-344.406	21.141	-0.075	-0.061
-343.391	34.462	-0.280	-0.244
-342.377	186.912	0.109	-0.162
-341.362	181.732	0.151	-0.222
-340.348	118.586	-0.148	-0.182
-339.333	155.336	-0.066	0.091
-338.318	28.349	0.212	-0.178
-337.304	-141.053	-0.273	0.028
-336.289	73.354	0.096	-0.100
-335.275	161.675	-0.230	0.320
-334.260	800.000	0.052	0.184
-333.245	186.769	-0.048	-0.071
-332.231	-13.245	0.218	-0.141
-331.216	-200.000	-0.015	-0.236
-330.202	22.621	-0.089	-0.072
-329.187	800.000	-0.044	0.179
-328.172	-66.853	-0.345	-0.136
-327.158	-58.018	0.216	0.094
-326.143	70.481	-0.163	0.168
-325.129	108.071	-0.074	-0.088
-324.114	800.000	0.036	-0.115
-323.099	800.000	-0.058	-0.167
-322.085	-54.859	0.234	-0.105
-321.070	-32.206	0.058	0.032
-320.056	-153.193	-0.271	0.019
-319.041	-200.000	0.005	0.129
-318.026	360.695	-0.021	-0.042
-317.012	-200.000	-0.013	0.372
-315.997	374.148	0.088	0.179
-314.983	109.471	-0.202	-0.241
-313.968	-16.228	0.137	0.087
-312.953	77.911	-0.058	-0.062
-311.939	8.788	0.180	0.135
-310.924	-103.144	-0.094	0.022
-309.910	44.027	0.266	0.243
-308.895	-200.000	0.030	0.166
-307.880	290.830	-0.012	-0.022
-306.866	345.037	0.111	0.216
-305.851	162.280	0.127	-0.177
-304.837	89.258	0.169	-0.187
-303.822	-15.553	0.266	-0.169
-302.807	36.874	-0.080	-0.070
-301.793	20.705	-0.238	-0.192
-300.778	143.066	0.031	0.041
-299.764	-104.209	0.056	0.013
-298.749	138.289	0.122	-0.159
-297.735	139.865	0.234	0.307
-296.720	-53.913	0.133	0.060
-295.705	-138.500	0.191	0.021
-294.691	-200.000	-0.018	0.121
-293.676	699.614	-0.053	-0.138
-292.662	-200.000	-0.036	0.340
-291.647	-83.961	0.123	-0.039
-290.632	156.044	0.277	-0.379
-289.618	-200.000	-0.054	-0.389
-288.603	-151.311	0.127	-0.009
-287.589	-27.626	0.229	0.132
-286.574	-116.486	0.019	-0.003
-285.559	171.582	0.059	0.084
-284.545	201.844	0.075	0.115
-283.530	-200.000	0.074	-0.323
-282.516	155.887	-0.131	-0.180
-281.501	800.000	0.007	-0.024
-280.486	-47.332	0.299	0.145
-279.472	223.512	-0.059	-0.095
-278.457	-83.744	0.207	0.066
-277.443	800.000	0.066	0.198
-276.428	134.743	-0.019	-0.025
-275.413	800.000	-0.104	0.450
-274.399	226.417	-0.089	0.144
-273.384	800.000	0.123	-0.353
-272.370	75.885	-0.145	-0.152
-271.355	-122.349	-0.171	-0.028
-270.340	-30.626	0.177	-0.099
-269.326	-76.003	0.140	-0.049
-268.311	84.141	0.140	0.152
-267.297	54.268	0.292	-0.280
-266.282	-200.000	0.002	0.076
-265.267	-190.836	0.109	-0.001
-264.253	-70.693	0.267	-0.100
-263.238	-182.939	0.161	0.003
-262.224	-200.000	0.040	-0.220
-261.209	-200.000	0.005	0.158
-260.195	-89.873	-0.184	-0.053
-259.180	242.145	-0.053	-0.089
-258.165	-161.043	0.044	-0.002
-257.151	32.112	-0.180	-0.154
-256.136	87.155	0.095	-0.104
-255.122	-200.000	0.003	0.260
-254.107	-111.206	-0.064	0.013
-253.092	106.505	0.036	-0.043
-252.078	-121.431	0.092	0.015
-251.063	8.623	0.028	-0.021
-250.049	-15.410	-0.358	0.227
-249.034	-40.740	-0.065	0.033
-248.019	-94.778	-0.099	0.027
-247.005	-200.000	0.021	-0.291
-245.990	107.972	0.190	0.225
-244.976	27.185	0.149	-0.124
-243.961	-154.887	0.334	-0.022
-242.946	260.423	-0.126	-0.216
-241.932	218.069	0.013	0.020
-240.917	309.145	-0.103	0.191
-239.903	-45.885	-0.188	0.092
-238.888	160.580	0.216	0.299
-237.873	-53.821	-0.200	0.091
-236.859	70.395	-0.130	0.133
-235.844	-200.000	-0.007	-0.148
-234.830	-143.723	-0.176	0.017
-233.815	800.000	0.080	0.262
-232.800	-80.199	0.200	-0.067
-231.786	-200.000	0.002	0.136
-230.771	-88.590	0.187	0.055
-229.757	800.000	-0.091	-0.315
-228.742	-200.000	-0.010	-0.141
-227.727	168.374	-0.100	0.141
-226.713	-12.880	-0.334	0.216
-225.698	81.422	-0.265	-0.284
-224.684	-17.141	0.103	-0.064
-223.669	800.000	-0.062	0.216
-222.655	-126.041	0.156	0.023
-221.640	-148.499	0.385	-0.031
-220.625	715.062	-0.066	0.174
-219.611	22.555	0.147	-0.119
-218.596	-200.000	-0.001	-0.234
-217.582	581.042	0.052	-0.126
-216.567	3.138	0.110	0.079
-215.552	-158.265	0.251	0.015
-214.538	-200.000	-0.035	0.334
-213.523	-200.000	0.047	0.466
-212.509	181.952	0.026	0.038
-211.494	35.815	-0.231	0.201
-210.479	55.698	0.235	0.226
-209.465	112.739	-0.303	0.363
-208.450	-119.048	-0.135	-0.023
-207.436	-163.714	-0.340	0.016
-206.421	-109.023	0.093	-0.020
-205.406	800.000	0.096	-0.340
-204.392	5.599	0.102	0.074
-203.377	-49.566	0.239	0.113
-202.363	36.855	-0.277	-0.242
-201.348	-93.850	0.250	-0.068
-200.333	800.000	0.013	-0.046
-199.319	-37.580	0.175	0.092
-198.304	-189.604	-0.108	0.001
-197.290	171.856	0.209	-0.297
-196.275	800.000	-0.032	0.096
-195.260	246.774	-0.028	-0.047
-194.246	98.229	-0.189	0.216
-193.231	-160.660	-0.312	0.016
-192.217	-186.474	0.139	0.002
-191.202	79.406	-0.306	0.325
-190.187	423.942	-0.120	0.254
-189.173	-54.019	0.237	-0.107
-188.158	-111.496	-0.358	-0.072
-187.144	-11.401	0.072	0.047
-186.129	142.429	-0.177	0.232
-185.114	-76.632	-0.206	-0.071
-184.100	275.463	-0.151	0.266
-183.085	800.000	-0.010	0.041
-182.071	135.231	-0.043	-0.055
-181.056	-7.401	0.043	0.029
-180.042	307.826	0.064	0.117
-179.027	800.000	0.078	-0.262
-178.012	-31.851	-0.189	0.105
-176.998	26.099	0.117	0.096
-175.983	-186.980	-0.144	0.002
-174.969	800.000	-0.168	-0.555
-173.954	-86.039	0.210	-0.064
-172.939	175.501	0.235	-0.337
-171.925	-135.869	-0.254	0.030
-170.910	36.927	0.122	0.107
-169.896	322.711	0.093	0.175
-168.881	-200.000	-0.077	-0.412
-167.866	0.236	-0.237	-0.167
-166.852	-102.593	-0.219	0.052
-165.837	61.849	-0.017	-0.016
-164.823	258.114	0.138	0.234
-163.808	-200.000	0.025	0.159
-162.793	82.527	0.095	-0.102
-161.779	722.643	-0.084	-0.221
-160.764	-68.926	0.295	-0.112
-159.750	800.000	0.066	-0.231
-158.735	-51.882	0.399	-0.184
-157.720	-200.000	-0.015	-0.083
-156.706	-82.456	0.293	0.094
-155.691	-31.745	0.454	0.252
-154.677	-35.962	-0.103	-0.055
-153.662	-28.428	-0.043	-0.025
-152.647	-71.558	0.173	-0.064
-151.633	-200.000	0.014	-0.279
-150.618	9.469	0.126	-0.095
-149.604	-200.000	0.026	0.149
-148.589	-200.000	-0.003	0.140
-147.574	791.328	-0.093	-0.252
-146.560	201.803	-0.153	-0.233
-145.545	800.000	-0.027	0.095
-144.531	-51.719	0.230	0.106
-143.516	-52.674	-0.333	0.152
-142.502	800.000	0.046	0.182
-141.487	398.635	-0.016	0.034
-140.472	-154.644	0.227	-0.015
-139.458	-75.589	-0.397	0.140
-138.443	-200.000	-0.031	0.341
-137.429	-124.045	0.138	-0.021
-136.414	-200.000	0.013	0.065
-135.399	-122.881	-0.409	0.065
-134.385	-28.206	-0.281	0.160
-133.370	-66.829	0.301	-0.118
-132.356	154.125	0.072	-0.098
-131.341	-200.000	0.025	0.121
-130.326	708.212	-0.092	-0.241
-129.312	800.000	0.037	-0.136
-128.297	-80.159	-0.087	-0.029
-127.283	-165.613	-0.136	0.006
-126.268	343.809	0.043	-0.083
-125.253	85.546	-0.145	0.158
-124.239	-27.230	-0.131	-0.075
-123.224	-200.000	0.016	-0.076
-122.210	-116.603	0.204	0.037
-121.195	-28.856	0.341	-0.194
