DTS Sentinel unit serial number:	SN413079Multiplexer serial number:	ORYXHardware model number:	OX4-SRSoftware version number:	ORYX F/W v4.00 Oryx Data Collector v3.7.2.0data status	okinstallation	princeton_trtdifferential loss correction	single-endedforward channel	channel 1reverse channel	N/Adate	2019/09/14time	19:42:35forward acquisition time	60.00reverse acquisition time	0.00gamma	496.2192k internal	0.2314k external	0.2314temperature offset calibration	1.0025default loss term (dB/km)	0.3790temperature slope calibration	1.0000multiplexer offset coefficient	1.0000multiplexer slope coefficient	1.0000fibre end	0.00T internal ref (°C)	34.47T ext. ref 1 (°C)	4.87T ext. ref 2 (°C)	28.71length (m)	temperature (°C)	Stokes	anti-Stokes-747.200	169.000	-0.131	0.190
-746.185	135.471	-0.116	0.154
-745.171	-4.978	-0.277	-0.193
-744.156	642.987	-0.098	0.252
-743.142	-91.810	0.059	0.017
-742.127	177.328	-0.205	0.302
-741.112	-28.135	0.031	-0.018
-740.098	-61.008	-0.187	0.080
-739.083	-103.369	-0.262	-0.062
-738.069	-94.930	-0.340	0.093
-737.054	224.133	-0.193	-0.316
-736.039	109.692	-0.357	-0.434
-735.025	-142.630	0.175	0.017
-734.010	104.149	-0.174	0.208
-732.996	-21.638	0.244	-0.151
-731.981	-149.507	-0.304	0.024
-730.966	-200.000	0.107	0.623
-729.952	-200.000	-0.038	-0.227
-728.937	56.308	0.145	0.143
-727.923	6.634	-0.267	0.201
-726.908	-16.114	0.007	0.004
-725.894	-122.630	-0.325	0.053
-724.879	63.731	0.142	-0.144
-723.864	-71.089	-0.239	0.091
-722.850	333.753	-0.066	-0.129
-721.835	205.849	-0.154	-0.242
-720.821	12.414	-0.328	-0.256
-719.806	68.635	-0.164	0.171
-718.791	18.590	0.222	-0.180
-717.777	-42.606	0.360	0.185
-716.762	144.894	-0.055	0.075
-715.748	281.376	0.128	-0.232
-714.733	56.288	0.168	-0.165
-713.718	143.757	-0.114	0.154
-712.704	-158.627	-0.084	0.005
-711.689	-200.000	-0.043	0.209
-710.675	120.076	-0.087	0.109
-709.660	170.955	-0.136	-0.198
-708.645	-200.000	-0.012	-0.129
-707.631	-134.448	-0.083	0.010
-706.616	-73.339	-0.228	0.084
-705.602	492.258	-0.094	0.218
-704.587	745.832	0.060	-0.163
-703.572	-27.822	0.339	0.199
-702.558	-37.948	0.098	-0.053
-701.543	257.294	0.165	0.287
-700.529	-200.000	-0.006	0.158
-699.514	-84.006	0.173	0.056
-698.499	-109.677	-0.408	0.087
-697.485	-20.489	-0.180	-0.112
-696.470	-83.889	-0.286	-0.092
-695.456	-48.133	-0.147	0.072
-694.441	-3.262	0.276	0.195
-693.426	31.501	-0.195	-0.170
-692.412	-200.000	-0.018	-0.217
-691.397	-20.552	0.337	-0.210
-690.383	-138.840	-0.268	0.030
-689.368	402.014	-0.056	0.120
-688.354	-36.493	0.125	-0.068
-687.339	51.013	-0.107	0.103
-686.324	314.309	0.056	0.107
-685.310	-113.728	-0.363	0.072
-684.295	225.452	-0.148	0.243
-683.281	-9.864	-0.292	0.197
-682.266	356.625	-0.144	0.290
-681.251	-1.185	0.083	-0.059
-680.237	-6.874	-0.158	0.108
-679.222	-116.009	0.250	-0.047
-678.208	-66.319	0.110	-0.044
-677.193	-109.689	0.199	-0.042
-676.178	-25.698	0.136	0.081
-675.164	73.006	0.109	-0.115
-674.149	-200.000	-0.010	0.193
-673.135	656.011	-0.073	-0.189
-672.120	-177.345	0.274	0.007
-671.105	-200.000	-0.070	-0.390
-670.091	800.000	-0.016	-0.055
-669.076	493.438	-0.083	-0.192
-668.062	-200.000	-0.001	-0.243
-667.047	-40.851	-0.082	-0.043
-666.032	175.852	-0.075	0.111
-665.018	-200.000	0.004	0.073
-664.003	5.518	-0.068	0.051
-662.989	433.726	-0.141	0.310
-661.974	40.056	0.175	-0.159
-660.959	-200.000	0.017	-0.256
-659.945	56.516	-0.260	0.256
-658.930	680.465	-0.077	0.203
-657.916	-170.785	-0.209	0.007
-656.901	-84.317	0.067	0.022
-655.886	413.599	-0.066	-0.141
-654.872	-92.619	0.382	0.108
-653.857	-155.433	-0.234	0.015
-652.843	34.027	-0.310	0.273
-651.828	265.405	0.154	0.271
-650.814	195.269	-0.112	-0.171
-649.799	-118.591	-0.235	-0.042
-648.784	28.630	0.087	-0.075
-647.770	26.479	-0.067	-0.057
-646.755	-200.000	-0.027	-0.217
-645.741	800.000	0.113	-0.490
-644.726	-154.159	-0.297	-0.020
-643.711	-116.961	-0.312	-0.058
-642.697	-50.110	-0.224	-0.107
-641.682	-84.379	0.164	-0.052
-640.668	17.016	0.213	0.171
-639.653	-20.385	0.091	0.056
-638.638	180.920	-0.062	0.092
-637.624	-40.782	-0.279	-0.146
-636.609	132.659	0.086	-0.112
-635.595	256.600	0.073	-0.126
-634.580	-6.888	-0.042	-0.029
-633.565	-200.000	-0.044	0.254
-632.551	704.583	0.116	0.308
-631.536	-18.522	-0.342	0.215
-630.522	530.072	0.199	-0.475
-629.507	-79.232	0.216	0.074
-628.492	-77.196	-0.208	-0.073
-627.478	-103.571	0.150	-0.035
-626.463	-170.126	0.136	-0.005
-625.449	-121.269	0.062	-0.011
-624.434	-133.191	-0.217	0.028
-623.419	531.892	-0.077	0.185
-622.405	238.369	0.131	0.219
-621.390	-91.501	0.036	-0.010
-620.376	379.535	0.069	-0.143
-619.361	-69.371	-0.328	0.127
-618.346	-200.000	0.062	0.367
-617.332	-69.798	0.109	0.042
-616.317	1.294	0.221	0.160
-615.303	-60.023	-0.098	0.042
-614.288	232.806	0.088	-0.146
-613.273	-44.172	0.083	-0.042
-612.259	-200.000	-0.005	-0.077
-611.244	195.251	-0.148	0.227
-610.230	-80.098	0.206	-0.070
-609.215	-200.000	-0.003	-0.080
-608.201	-200.000	-0.032	0.212
-607.186	-107.125	-0.149	0.033
-606.171	-4.522	0.074	-0.051
-605.157	-115.400	0.163	0.031
-604.142	800.000	0.048	0.160
-603.128	194.749	0.074	-0.113
-602.113	248.349	0.064	0.109
-601.098	-133.747	-0.451	-0.057
-600.084	-72.641	-0.192	0.072
-599.069	-166.602	0.106	0.004
-598.055	-68.742	-0.152	-0.059
-597.040	15.766	-0.223	-0.177
-596.025	-138.220	-0.312	-0.035
-595.011	-81.490	0.059	0.020
-593.996	96.216	-0.030	0.034
-592.982	309.550	-0.028	-0.053
-591.967	-77.493	-0.189	-0.066
-590.952	-131.768	-0.221	0.029
-589.938	79.956	-0.082	-0.089
-588.923	800.000	0.034	-0.113
-587.909	-120.641	-0.157	0.027
-586.894	-78.029	0.190	0.066
-585.879	100.694	0.070	-0.082
-584.865	-21.252	-0.263	-0.162
-583.850	-21.211	0.336	0.207
-582.836	800.000	0.040	0.165
-581.821	-13.810	0.028	0.018
-580.806	158.481	-0.130	0.181
-579.792	56.681	0.038	0.037
-578.777	204.765	0.244	0.382
-577.763	126.283	-0.088	-0.112
-576.748	-200.000	0.025	-0.438
-575.733	-105.461	-0.054	0.012
-574.719	800.000	0.078	-0.282
-573.704	-200.000	-0.029	-0.261
-572.690	327.771	-0.149	-0.289
-571.675	280.029	0.135	-0.242
-570.661	-21.367	0.251	-0.154
-569.646	137.182	-0.242	0.319
-568.631	-200.000	-0.045	0.301
-567.617	-103.902	-0.159	0.037
-566.602	-40.428	0.089	-0.047
-565.588	-43.582	-0.145	-0.074
-564.573	-200.000	-0.022	0.221
-563.558	-124.359	-0.192	0.030
-562.544	287.796	0.047	0.085
-561.529	-117.067	0.149	-0.027
-560.515	398.791	-0.051	0.108
-559.500	-13.370	-0.061	0.040
-558.485	190.663	0.202	-0.306
-557.471	-183.816	-0.307	0.005
-556.456	-200.000	-0.049	0.349
-555.442	-200.000	-0.041	0.257
-554.427	-36.438	-0.179	0.097
-553.412	290.080	0.149	0.272
-552.398	160.499	-0.060	0.085
-551.383	-200.000	0.023	0.237
-550.369	-65.588	0.180	-0.073
-549.354	147.265	0.214	0.289
-548.339	800.000	0.082	0.272
-547.325	149.390	-0.179	-0.244
-546.310	-200.000	-0.008	-0.249
-545.296	800.000	-0.055	-0.156
-544.281	104.048	0.136	0.160
-543.266	-72.870	0.212	-0.078
-542.252	190.053	-0.127	-0.192
-541.237	271.746	0.089	-0.158
-540.223	142.725	0.177	-0.236
-539.208	74.795	0.033	0.035
-538.193	800.000	0.069	0.263
-537.179	-169.765	0.333	0.012
-536.164	52.059	-0.227	0.217
-535.150	-78.306	0.208	-0.072
-534.135	-155.707	0.131	0.008
-533.121	409.389	0.205	0.436
-532.106	70.365	0.064	-0.066
-531.091	185.927	0.133	-0.199
-530.077	551.393	0.105	-0.254
-529.062	-200.000	0.034	-0.542
-528.048	-144.256	-0.448	-0.042
-527.033	-200.000	-0.038	-0.217
-526.018	800.000	0.072	-0.210
-525.004	298.087	0.148	-0.274
-523.989	-92.039	0.190	-0.054
-522.975	19.451	0.215	0.174
-521.960	-59.390	-0.379	0.164
-520.945	305.767	-0.062	-0.116
-519.931	208.522	0.180	0.284
-518.916	-125.291	-0.345	-0.053
-517.902	800.000	0.014	0.043
-516.887	67.990	0.182	-0.187
-515.872	43.636	-0.178	0.164
-514.858	76.977	0.222	-0.237
-513.843	-200.000	-0.028	0.192
-512.829	-137.344	-0.039	-0.004
-511.814	-80.566	-0.290	0.097
-510.799	-200.000	0.002	-0.222
-509.785	-13.444	-0.064	0.042
-508.770	88.772	-0.279	0.311
-507.756	-102.208	-0.231	0.056
-506.741	50.879	-0.080	-0.076
-505.726	218.705	-0.146	-0.235
-504.712	501.711	-0.112	-0.260
-503.697	193.104	0.092	0.140
-502.683	280.077	0.104	-0.187
-501.668	-200.000	0.004	-0.143
-500.653	127.977	0.087	-0.111
-499.639	-200.000	-0.044	0.453
-498.624	-43.468	0.096	0.049
-497.610	41.888	-0.193	0.176
-496.595	-66.146	-0.203	-0.081
-495.581	59.449	0.145	-0.144
-494.566	800.000	-0.034	0.149
-493.551	-105.320	0.319	0.073
-492.537	-200.000	-0.006	-0.095
-491.522	-59.728	0.163	0.070
-490.508	292.709	0.126	-0.232
-489.493	-200.000	0.023	-0.170
-488.478	-5.955	0.221	0.152
-487.464	-80.309	0.485	-0.163
-486.449	70.989	-0.126	-0.131
-485.435	128.630	-0.221	-0.283
-484.420	46.455	-0.180	0.167
-483.405	-11.518	-0.199	-0.132
-482.391	-185.758	0.145	-0.002
-481.376	19.763	-0.279	-0.226
-480.362	-66.069	-0.058	0.023
-479.347	102.539	-0.034	0.040
-478.332	385.695	-0.082	0.169
-477.318	-116.367	-0.114	-0.021
-476.303	-60.045	-0.176	0.076
-475.289	91.176	0.274	-0.309
-474.274	449.385	-0.061	-0.135
-473.259	60.074	0.196	-0.194
-472.245	-156.628	0.163	0.010
-471.230	94.856	-0.159	0.181
-470.216	107.722	-0.142	0.170
-469.201	2.594	0.092	-0.067
-468.186	-157.608	0.305	0.018
-467.172	438.836	-0.097	-0.212
-466.157	15.469	-0.391	-0.308
-465.143	149.075	0.174	-0.236
-464.128	4.614	-0.223	0.164
-463.113	90.283	0.167	-0.187
-462.099	-200.000	-0.007	0.053
-461.084	-106.568	0.056	0.012
-460.070	-76.955	-0.266	0.093
-459.055	-200.000	0.030	0.282
-458.040	-200.000	-0.033	0.347
-457.026	-200.000	0.010	-0.159
-456.011	800.000	-0.032	0.133
-454.997	-29.566	-0.174	0.100
-453.982	-200.000	-0.047	-0.311
-452.968	-165.332	0.286	-0.013
-451.953	-200.000	-0.019	-0.330
-450.938	800.000	0.057	-0.177
-449.924	-74.596	-0.211	-0.076
-448.909	58.773	-0.038	0.038
-447.895	238.732	-0.044	-0.073
-446.880	-200.000	-0.011	-0.189
-445.865	-200.000	0.000	0.253
-444.851	800.000	-0.023	0.066
-443.836	73.744	-0.264	0.277
-442.822	-30.126	-0.067	-0.038
-441.807	-41.324	0.078	-0.040
-440.792	162.075	0.080	0.113
-439.778	-200.000	-0.045	0.368
-438.763	-107.886	0.109	0.024
-437.749	-132.199	-0.116	0.015
-436.734	46.782	0.133	0.124
-435.719	-200.000	-0.016	0.327
-434.705	-112.669	0.095	-0.019
-433.690	21.208	0.236	-0.192
-432.676	-184.512	-0.191	-0.003
-431.661	-25.680	-0.343	0.202
-430.646	-200.000	0.004	0.117
-429.632	-200.000	0.006	0.090
-428.617	-24.138	-0.144	0.086
-427.603	-43.911	0.146	0.074
-426.588	800.000	-0.022	-0.095
-425.573	-62.991	0.140	-0.058
-424.559	-22.972	0.262	-0.158
-423.544	-44.273	0.129	0.065
-422.530	-200.000	-0.012	0.200
-421.515	-73.602	-0.134	-0.049
-420.500	413.710	-0.125	0.265
-419.486	24.381	0.292	0.242
-418.471	-107.657	-0.197	0.043
-417.457	769.185	-0.016	-0.044
-416.442	-157.914	-0.281	-0.017
-415.428	-54.436	-0.201	-0.091
-414.413	217.139	-0.193	-0.308
-413.398	-27.052	0.410	-0.239
-412.384	-40.509	0.064	0.033
-411.369	-136.670	-0.168	-0.019
-410.355	293.294	0.175	-0.320
-409.340	-33.329	0.176	0.097
-408.325	-71.069	0.209	-0.079
-407.311	35.716	0.194	-0.171
-406.296	-133.031	0.089	-0.011
-405.282	627.536	-0.103	0.259
-404.267	137.844	0.141	0.185
-403.252	-68.120	0.364	-0.142
-402.238	160.604	-0.119	0.166
-401.223	38.802	-0.068	0.060
-400.209	-118.932	-0.136	-0.024
-399.194	73.658	-0.176	-0.184
-398.179	-200.000	-0.022	0.263
-397.165	242.101	0.114	0.192
-396.150	452.480	0.134	0.296
-395.136	-200.000	-0.022	-0.175
-394.121	-139.971	-0.118	0.012
-393.106	-121.562	-0.122	-0.020
-392.092	-20.065	0.220	0.136
-391.077	-37.432	0.224	0.120
-390.063	-93.673	-0.066	-0.018
-389.048	-200.000	0.051	-0.270
-388.033	-26.637	-0.113	-0.066
-387.019	-200.000	-0.037	-0.194
-386.004	-168.219	-0.065	0.003
-384.990	-93.401	0.196	0.054
-383.975	-21.183	0.173	-0.106
-382.960	-77.695	0.211	0.073
-381.946	55.124	-0.341	-0.330
-380.931	71.053	0.251	0.260
-379.917	-86.214	0.401	0.124
-378.902	-200.000	-0.007	0.314
-377.888	-105.848	-0.225	-0.051
-376.873	15.860	-0.037	0.029
-375.858	-74.381	0.236	-0.085
-374.844	800.000	-0.104	-0.401
-373.829	369.662	0.075	0.152
-372.815	-50.911	-0.242	0.113
-371.800	-200.000	-0.015	0.078
-370.785	-82.684	-0.269	-0.087
-369.771	-200.000	0.001	-0.102
-368.756	-200.000	0.034	0.491
-367.742	-107.866	0.326	0.071
-366.727	-142.577	0.194	0.019
-365.712	-46.239	-0.190	0.094
-364.698	264.377	-0.197	-0.343
-363.683	-88.738	0.297	-0.088
-362.669	26.721	-0.179	0.150
-361.654	475.064	0.062	-0.140
-360.639	317.368	0.040	0.076
-359.625	-172.609	-0.392	-0.012
-358.610	800.000	0.071	-0.212
-357.596	124.653	-0.085	-0.107
-356.581	-54.647	-0.436	-0.197
-355.566	-81.904	-0.353	-0.115
-354.552	-44.196	0.179	-0.090
-353.537	-21.368	-0.264	-0.161
-352.523	333.630	0.077	-0.149
-351.508	-200.000	-0.182	0.000
-350.493	-126.511	0.114	0.017
-349.479	302.568	0.164	-0.303
-348.464	-120.741	0.307	0.052
-347.450	-94.715	0.218	0.059
-346.435	-48.298	0.274	-0.132
-345.420	397.356	0.072	-0.149
-344.406	-156.084	-0.165	0.010
-343.391	-189.981	-0.172	-0.002
-342.377	-129.365	-0.589	0.082
-341.362	800.000	-0.049	-0.185
-340.348	-200.000	0.007	0.291
-339.333	-31.400	0.222	0.125
-338.318	619.961	0.088	-0.221
-337.304	773.658	0.080	0.218
-336.289	-13.865	0.124	-0.080
-335.275	133.122	0.129	-0.166
-334.260	34.487	0.067	0.058
-333.245	-170.170	0.252	-0.009
-332.231	134.900	-0.165	-0.213
-331.216	169.610	0.062	0.088
-330.202	-42.792	0.150	0.076
-329.187	-97.701	-0.066	-0.017
-328.172	-128.392	-0.147	0.021
-327.158	425.931	0.027	0.057
-326.143	99.006	0.256	0.295
-325.129	800.000	0.009	-0.030
-324.114	116.633	0.148	-0.181
-323.099	233.827	-0.157	-0.258
-322.085	65.502	0.164	-0.165
-321.070	-3.416	-0.090	-0.062
-320.056	-200.000	0.033	-0.196
-319.041	46.979	-0.286	-0.265
-318.026	386.137	-0.121	0.249
-317.012	-150.730	0.145	-0.011
-315.997	181.061	-0.096	0.140
-314.983	-2.638	0.081	0.057
-313.968	-200.000	0.049	0.370
-312.953	9.224	-0.220	0.166
-311.939	-188.517	-0.320	-0.004
-310.924	168.409	0.086	0.122
-309.910	-10.834	0.145	-0.096
-308.895	-200.000	-0.039	0.273
-307.880	-102.462	-0.338	-0.081
-306.866	800.000	0.030	-0.129
-305.851	800.000	0.093	0.328
-304.837	97.721	0.083	0.096
-303.822	64.072	0.145	-0.146
-302.807	67.532	0.050	0.051
-301.793	-35.935	0.164	-0.088
-300.778	-200.000	-0.041	0.422
-299.764	-150.564	-0.268	-0.020
-298.749	299.688	-0.072	0.133
-297.735	-200.000	0.008	-0.062
-296.720	-189.781	0.091	-0.001
-295.705	-10.093	0.159	-0.105
-294.691	51.180	0.271	0.256
-293.676	-83.649	-0.039	0.013
-292.662	-44.665	0.271	-0.135
-291.647	312.145	-0.084	-0.157
-290.632	-36.019	0.179	0.097
-289.618	-73.213	-0.411	-0.150
-288.603	-200.000	0.006	0.152
-287.589	-81.816	0.280	-0.091
-286.574	63.868	-0.301	-0.302
-285.559	-200.000	0.038	-0.246
-284.545	-79.876	-0.137	0.046
-283.530	-58.285	-0.525	0.227
-282.516	-154.884	0.459	-0.030
-281.501	-200.000	0.025	0.145
-280.486	-185.534	-0.402	0.006
-279.472	443.000	0.128	-0.278
-278.457	26.637	0.165	0.137
-277.443	520.230	-0.020	0.047
-276.428	14.939	-0.163	-0.127
-275.413	599.965	0.081	-0.200
-274.399	800.000	0.048	0.210
-273.384	-18.477	0.150	-0.093
-272.370	11.102	0.155	-0.118
-271.355	-140.543	-0.295	-0.031
-270.340	-118.938	0.266	-0.046
-269.326	-140.865	0.070	0.007
-268.311	-200.000	-0.001	-0.249
-267.297	53.377	-0.087	-0.083
-266.282	3.608	-0.136	0.099
-265.267	-150.219	0.198	-0.015
-264.253	800.000	0.194	0.597
-263.238	-131.168	0.379	-0.050
-262.224	-200.000	0.020	0.191
-261.209	-200.000	0.062	0.318
-260.195	-200.000	-0.009	0.264
-259.180	-77.045	-0.098	-0.034
-258.165	61.677	-0.136	0.135
-257.151	395.747	0.100	-0.208
-256.136	-55.815	-0.229	0.102
-255.122	25.167	0.112	0.092
-254.107	105.685	0.168	-0.197
-253.092	800.000	0.139	-0.392
-252.078	-85.922	0.120	0.037
-251.063	683.805	-0.122	0.316
-250.049	-200.000	0.037	0.350
-249.034	493.669	0.145	0.332
-248.019	-139.817	0.217	0.023
-247.005	-9.192	-0.097	-0.064
-245.990	800.000	0.074	-0.238
-244.976	400.373	0.032	-0.066
-243.961	-43.951	0.126	-0.063
-242.946	-26.848	0.280	-0.162
-241.932	-200.000	-0.012	-0.191
-240.917	800.000	0.090	0.306
-239.903	-133.571	-0.279	0.035
-238.888	261.942	-0.161	-0.278
-237.873	250.138	0.173	-0.292
-236.859	-89.374	0.166	0.049
-235.844	-200.000	0.098	0.493
-234.830	-200.000	0.014	0.539
-233.815	-182.014	-0.252	-0.005
-232.800	-45.595	-0.326	-0.160
-231.786	-11.866	0.154	0.100
-230.771	275.551	0.116	0.204
-229.757	-200.000	-0.003	0.171
-228.742	155.844	0.236	-0.323
-227.727	-200.000	-0.033	0.200
-226.713	553.481	0.036	-0.087
-225.698	727.081	-0.017	-0.046
-224.684	-0.118	0.021	0.015
-223.669	-200.000	-0.035	-0.276
-222.655	-103.934	0.217	0.050
-221.640	406.948	-0.032	0.067
-220.625	776.417	-0.110	0.297
-219.611	-94.877	-0.150	0.040
-218.596	5.238	0.029	-0.021
-217.582	-56.910	-0.253	-0.111
-216.567	61.385	0.112	-0.110
-215.552	193.891	0.218	-0.327
-214.538	-200.000	-0.017	0.089
-213.523	175.999	0.064	-0.092
-212.509	-99.937	0.136	-0.034
-211.494	-178.291	-0.083	0.002
-210.479	-94.030	0.128	-0.035
-209.465	-158.649	-0.432	0.025
-208.450	-80.514	-0.204	-0.068
-207.436	800.000	0.041	-0.146
-206.421	-63.287	-0.083	-0.034
-205.406	502.928	0.129	-0.296
-204.392	217.308	-0.199	-0.315
-203.377	-200.000	-0.021	0.322
-202.363	194.032	-0.262	-0.393
-201.348	-106.842	-0.036	0.008
-200.333	-200.000	0.037	-0.215
-199.319	-200.000	0.001	-0.259
-198.304	178.848	0.073	-0.105
-197.290	-200.000	-0.052	0.268
-196.275	5.259	-0.126	-0.092
-195.260	-127.049	-0.360	0.052
-194.246	-200.000	0.037	0.194
-193.231	91.084	-0.136	-0.152
-192.217	-200.000	0.055	0.294
-191.202	-32.504	-0.067	0.037
-190.187	-57.180	-0.177	0.077
-189.173	92.622	-0.127	0.142
-188.158	-29.898	-0.160	0.090
-187.144	-200.000	-0.007	-0.031
-186.129	-57.020	0.196	0.086
-185.114	-49.209	0.166	-0.079
-184.100	36.638	-0.242	0.212
-183.085	-2.046	0.179	-0.125
-182.071	2.234	-0.246	0.176
-181.056	-24.718	0.113	0.066
-180.042	-125.228	-0.160	-0.024
-179.027	0.386	0.297	0.210
-178.012	231.213	-0.024	-0.040
-176.998	-200.000	-0.001	-0.191
-175.983	-20.214	-0.028	-0.017
-174.969	-67.356	0.114	-0.044
-173.954	213.896	-0.204	0.320
-172.939	-32.305	0.100	0.055
-171.925	164.653	0.213	0.298
-170.910	-36.314	0.105	0.056
-169.896	53.636	0.122	0.116
-168.881	61.782	0.188	-0.186
-167.866	-32.168	-0.016	-0.009
-166.852	800.000	-0.091	-0.289
-165.837	-91.611	-0.116	0.033
-164.823	380.796	0.101	0.206
-163.808	8.447	0.090	-0.067
-162.793	76.540	-0.067	-0.071
-161.779	800.000	-0.046	0.194
-160.764	800.000	-0.055	0.174
-159.750	213.126	0.096	0.150
-158.735	800.000	0.043	-0.127
-157.720	204.141	0.094	-0.145
-156.706	-120.440	0.066	-0.011
-155.691	44.617	0.342	-0.312
-154.677	-166.865	0.069	0.003
-153.662	207.410	-0.079	-0.123
-152.647	-147.745	-0.061	0.005
-151.633	-200.000	-0.036	0.339
-150.618	-200.000	-0.009	-0.157
-149.604	167.951	0.177	-0.249
-148.589	65.207	-0.108	-0.108
-147.574	142.609	-0.195	0.257
-146.560	800.000	0.025	0.095
-145.545	151.710	-0.078	-0.106
-144.531	-200.000	0.007	-0.140
-143.516	466.345	-0.121	0.268
-142.502	41.463	0.213	0.191
-141.487	-118.637	0.470	0.082
-140.472	-200.000	0.041	0.183
-139.458	682.961	-0.104	-0.269
-138.443	116.276	0.126	-0.153
-137.429	-200.000	0.041	0.186
-136.414	-200.000	-0.063	-0.449
-135.399	-146.105	0.109	0.010
-134.385	0.985	0.288	0.204
-133.370	120.160	-0.201	0.247
-132.356	-185.481	0.186	-0.003
-131.341	-200.000	-0.023	-0.351
-130.326	36.502	0.083	-0.073
-129.312	-200.000	0.006	-0.188
-128.297	-200.000	-0.044	-0.280
-127.283	84.652	-0.043	0.047
-126.268	-117.221	0.568	0.102
-125.253	62.691	-0.264	0.261
-124.239	-107.525	-0.305	-0.066
-123.224	-179.692	0.147	0.003
-122.210	800.000	0.073	-0.295
-121.195	-122.705	0.128	0.021
