DTS Sentinel unit serial number:	SN413079Multiplexer serial number:	ORYXHardware model number:	OX4-SRSoftware version number:	ORYX F/W v4.00 Oryx Data Collector v3.7.2.0data status	okinstallation	princeton_trtdifferential loss correction	single-endedforward channel	channel 1reverse channel	N/Adate	2019/09/17time	19:46:35forward acquisition time	60.00reverse acquisition time	0.00gamma	496.2192k internal	0.2317k external	0.2317temperature offset calibration	0.9973default loss term (dB/km)	0.3790temperature slope calibration	1.0000multiplexer offset coefficient	1.0000multiplexer slope coefficient	1.0000fibre end	0.00T internal ref (°C)	34.72T ext. ref 1 (°C)	0.23T ext. ref 2 (°C)	24.11length (m)	temperature (°C)	Stokes	anti-Stokes-747.200	328.644	0.128	-0.249
-746.185	715.222	-0.132	0.354
-745.171	297.920	-0.061	0.114
-744.156	-12.747	0.210	-0.139
-743.142	11.971	0.215	0.167
-742.127	84.156	-0.161	-0.179
-741.112	190.954	-0.179	-0.273
-740.098	-71.919	0.046	0.017
-739.083	800.000	-0.060	-0.223
-738.069	44.265	-0.133	0.123
-737.054	91.328	0.046	0.052
-736.039	-10.708	-0.196	-0.131
-735.025	-137.313	-0.325	0.037
-734.010	286.070	-0.071	-0.129
-732.996	125.232	-0.008	0.010
-731.981	24.190	0.245	0.205
-730.966	-200.000	0.024	0.296
-729.952	100.435	0.094	-0.110
-728.937	-59.087	-0.295	-0.129
-727.923	383.282	0.052	0.109
-726.908	313.173	-0.060	-0.114
-725.894	-140.595	-0.110	-0.012
-724.879	-1.220	0.334	0.239
-723.864	714.204	-0.142	-0.381
-722.850	137.273	-0.167	-0.220
-721.835	119.496	0.051	-0.064
-720.821	-78.014	0.096	0.033
-719.806	-200.000	-0.024	-0.169
-718.791	129.468	0.028	-0.036
-717.777	55.520	-0.290	0.284
-716.762	-64.997	-0.100	-0.041
-715.748	-160.536	-0.170	0.009
-714.733	572.262	-0.073	0.179
-713.718	-200.000	0.007	0.218
-712.704	-110.432	0.027	-0.006
-711.689	-167.006	0.144	-0.006
-710.675	-200.000	-0.005	0.248
-709.660	30.216	0.168	-0.145
-708.645	-11.782	-0.328	-0.217
-707.631	-20.742	-0.242	-0.150
-706.616	30.350	-0.228	-0.197
-705.602	-185.064	-0.300	0.005
-704.587	-27.605	0.045	0.026
-703.572	367.319	0.163	-0.332
-702.558	200.496	0.140	-0.218
-701.543	-200.000	0.030	-0.221
-700.529	-146.553	-0.122	0.011
-699.514	800.000	0.108	-0.425
-698.499	-200.000	-0.069	-0.341
-697.485	-130.033	0.491	-0.068
-696.470	145.291	0.033	-0.045
-695.456	200.321	0.051	0.080
-694.441	-200.000	0.022	0.127
-693.426	-44.381	0.229	-0.116
-692.412	-169.812	0.170	-0.006
-691.397	13.240	-0.183	0.143
-690.383	-91.620	0.139	-0.040
-689.368	340.639	-0.134	-0.264
-688.354	-129.049	0.448	-0.063
-687.339	-200.000	0.034	0.251
-686.324	800.000	0.076	0.225
-685.310	530.408	-0.158	0.378
-684.295	-57.848	-0.084	0.037
-683.281	-67.883	0.202	-0.080
-682.266	-21.966	0.058	-0.036
-681.251	319.074	-0.019	0.037
-680.237	-95.538	-0.216	0.058
-679.222	497.331	-0.044	-0.101
-678.208	-200.000	0.072	-0.376
-677.193	45.662	0.245	-0.229
-676.178	25.702	0.168	-0.142
-675.164	-200.000	-0.042	-0.255
-674.149	-48.980	-0.221	-0.107
-673.135	212.100	0.131	0.209
-672.120	-121.499	-0.208	-0.035
-671.105	-34.661	0.384	-0.212
-670.091	382.982	0.063	0.131
-669.076	-79.063	-0.282	-0.097
-668.062	-7.593	0.218	0.149
-667.047	352.155	-0.045	-0.089
-666.032	421.511	0.043	-0.093
-665.018	10.533	-0.146	0.113
-664.003	689.704	-0.139	-0.367
-662.989	-93.190	-0.495	-0.139
-661.974	69.475	-0.169	-0.176
-660.959	49.708	-0.131	-0.125
-659.945	-39.918	0.153	-0.081
-658.930	-200.000	0.021	-0.368
-657.916	-124.319	-0.214	0.034
-656.901	-160.517	-0.140	0.008
-655.886	52.705	-0.193	-0.186
-654.872	132.348	0.048	0.063
-653.857	70.604	-0.076	-0.080
-652.843	-38.901	-0.322	0.171
-651.828	-200.000	0.020	0.155
-650.814	-200.000	0.023	-0.296
-649.799	88.841	0.242	0.272
-648.784	-200.000	0.006	0.113
-647.770	-200.000	0.034	-0.163
-646.755	-200.000	-0.020	0.348
-645.741	-183.848	-0.179	-0.003
-644.726	38.339	0.230	-0.207
-643.711	-124.898	0.089	0.014
-642.697	-84.836	-0.125	-0.039
-641.682	699.639	-0.073	0.195
-640.668	800.000	0.092	0.298
-639.653	53.250	-0.191	0.184
-638.638	-117.910	-0.158	-0.029
-637.624	-48.049	-0.083	0.041
-636.609	733.908	-0.061	0.166
-635.595	-115.446	0.122	-0.023
-634.580	580.282	0.075	-0.185
-633.565	-189.333	0.207	-0.002
-632.551	697.834	0.061	-0.162
-631.536	37.192	0.071	0.064
-630.522	226.925	-0.061	-0.100
-629.507	11.951	0.240	-0.186
-628.492	-139.797	0.292	-0.031
-627.478	-122.800	-0.325	-0.053
-626.463	-200.000	-0.030	-0.165
-625.449	-98.912	-0.088	-0.023
-624.434	4.014	-0.272	-0.200
-623.419	575.041	0.031	-0.075
-622.405	-155.076	-0.326	0.022
-621.390	800.000	0.072	0.203
-620.376	-200.000	-0.073	0.367
-619.361	-127.334	0.163	-0.024
-618.346	-43.231	0.108	-0.055
-617.332	-32.829	-0.078	0.044
-616.317	-200.000	0.018	0.270
-615.303	-41.030	0.322	0.168
-614.288	-102.259	0.164	0.040
-613.273	-101.186	0.099	-0.024
-612.259	-117.212	-0.156	-0.029
-611.244	52.200	-0.204	-0.195
-610.230	77.666	0.101	-0.109
-609.215	250.117	0.185	0.317
-608.201	800.000	-0.074	0.302
-607.186	396.231	-0.066	-0.138
-606.171	-105.210	0.203	-0.047
-605.157	466.473	-0.117	0.265
-604.142	-81.473	-0.061	-0.020
-603.128	-200.000	-0.018	0.321
-602.113	-105.328	-0.461	0.106
-601.098	-200.000	-0.001	0.047
-600.084	-24.483	-0.054	0.032
-599.069	-40.256	0.096	0.050
-598.055	225.892	0.180	-0.294
-597.040	800.000	0.084	-0.276
-596.025	5.937	-0.357	-0.266
-595.011	800.000	-0.061	0.244
-593.996	-93.213	-0.411	0.115
-592.982	-193.846	-0.308	-0.003
-591.967	77.013	-0.100	0.107
-590.952	-92.188	-0.163	0.046
-589.938	-112.170	0.200	-0.041
-588.923	283.017	-0.016	0.029
-587.909	457.427	0.275	0.614
-586.894	-27.280	-0.122	0.072
-585.879	800.000	-0.123	-0.354
-584.865	-30.787	0.050	0.029
-583.850	108.564	-0.083	-0.100
-582.836	241.619	-0.208	-0.350
-581.821	641.478	-0.166	0.425
-580.806	-51.415	-0.357	0.168
-579.792	236.277	0.189	-0.314
-578.777	50.837	-0.040	0.038
-577.763	61.703	0.048	0.048
-576.748	52.336	-0.090	0.087
-575.733	-175.795	-0.116	0.003
-574.719	86.274	0.030	0.033
-573.704	85.523	-0.162	0.179
-572.690	-146.521	0.197	0.017
-571.675	-127.329	0.227	0.033
-570.661	-145.339	-0.225	0.020
-569.646	167.387	0.073	0.105
-568.631	79.761	0.250	0.270
-567.617	-71.563	0.059	-0.022
-566.602	10.959	-0.137	-0.105
-565.588	481.746	-0.141	0.322
-564.573	-98.784	0.548	0.140
-563.558	-200.000	-0.039	-0.201
-562.544	800.000	0.072	-0.203
-561.529	190.396	0.318	-0.481
-560.515	-125.970	-0.248	0.037
-559.500	233.248	0.119	-0.197
-558.485	303.298	-0.005	-0.009
-557.471	394.328	-0.128	0.268
-556.456	800.000	0.030	-0.117
-555.442	213.120	-0.123	0.195
-554.427	170.813	0.077	0.110
-553.412	237.279	-0.070	0.116
-552.398	-20.831	0.189	0.116
-551.383	285.439	-0.202	0.366
-550.369	-37.676	-0.105	0.056
-549.354	-36.711	0.387	0.209
-548.339	8.518	0.242	0.183
-547.325	-108.615	-0.437	0.094
-546.310	-167.932	-0.375	-0.015
-545.296	-123.491	-0.122	0.019
-544.281	-200.000	-0.037	-0.222
-543.266	-200.000	0.001	-0.111
-542.252	29.707	0.174	-0.148
-541.237	206.128	-0.008	-0.012
-540.223	579.127	0.037	0.092
-539.208	-80.322	-0.075	-0.025
-538.193	590.631	-0.054	0.135
-537.179	68.505	0.142	-0.146
-536.164	-64.323	-0.188	-0.077
-535.150	204.257	0.014	0.021
-534.135	201.450	-0.049	-0.076
-533.121	243.263	0.091	-0.154
-532.106	-156.534	0.141	0.009
-531.091	-150.305	0.215	0.017
-530.077	-200.000	-0.017	0.169
-529.062	-50.192	0.097	-0.046
-528.048	-149.928	-0.302	0.024
-527.033	-152.051	0.282	-0.021
-526.018	66.322	0.042	-0.043
-525.004	-200.000	-0.039	-0.216
-523.989	553.858	0.182	-0.440
-522.975	393.141	0.067	0.140
-521.960	74.241	-0.081	-0.085
-520.945	800.000	0.071	-0.237
-519.931	800.000	0.078	-0.340
-518.916	-200.000	-0.003	0.501
-517.902	117.841	0.078	-0.096
-516.887	-112.432	0.124	0.025
-515.872	-14.608	0.218	-0.141
-514.858	570.560	0.087	-0.213
-513.843	-200.000	-0.064	-0.301
-512.829	-200.000	0.007	-0.095
-511.814	-16.667	0.314	-0.199
-510.799	390.939	-0.027	0.056
-509.785	277.932	0.067	-0.120
-508.770	800.000	0.082	0.261
-507.756	37.872	-0.207	-0.185
-506.741	31.276	-0.312	0.268
-505.726	73.460	-0.238	0.250
-504.712	-200.000	0.060	-0.439
-503.697	53.281	-0.082	-0.079
-502.683	-200.000	0.073	-0.366
-501.668	115.201	0.154	-0.188
-500.653	151.326	0.109	-0.148
-499.639	-117.384	0.073	-0.013
-498.624	-200.000	-0.002	-0.191
-497.610	81.842	0.124	0.134
-496.595	-200.000	-0.019	0.285
-495.581	177.432	0.191	-0.279
-494.566	144.509	0.025	0.033
-493.551	134.112	0.191	0.248
-492.537	-130.379	-0.060	0.008
-491.522	502.547	0.097	0.225
-490.508	-41.141	-0.147	0.076
-489.493	423.330	-0.036	0.077
-488.478	13.968	0.282	0.220
-487.464	-39.631	0.063	0.033
-486.449	800.000	-0.082	-0.250
-485.435	383.740	0.119	0.245
-484.420	-116.045	-0.103	-0.019
-483.405	-200.000	0.072	-0.347
-482.391	800.000	-0.055	0.228
-481.376	156.194	-0.068	0.094
-480.362	-200.000	-0.005	0.178
-479.347	-18.347	-0.225	-0.141
-478.332	506.262	-0.095	-0.221
-477.318	-200.000	-0.017	0.178
-476.303	255.785	-0.068	0.117
-475.289	225.941	-0.212	0.345
-474.274	-19.381	-0.103	-0.064
-473.259	-200.000	0.015	0.126
-472.245	30.337	0.201	-0.172
-471.230	-65.936	0.097	-0.039
-470.216	275.938	-0.046	0.082
-469.201	14.530	-0.106	0.083
-468.186	448.001	-0.161	0.355
-467.172	-174.369	0.383	0.011
-466.157	150.164	-0.085	0.115
-465.143	64.919	0.155	-0.156
-464.128	800.000	-0.052	0.179
-463.113	42.511	-0.223	0.203
-462.099	-67.050	-0.268	0.106
-461.084	233.508	0.151	-0.249
-460.070	-9.170	-0.268	0.179
-459.055	35.995	-0.194	0.171
-458.040	-96.906	-0.233	0.061
-457.026	-200.000	-0.013	-0.089
-456.011	800.000	-0.068	-0.197
-454.997	106.908	0.223	-0.265
-453.982	-63.030	0.429	-0.178
-452.968	-200.000	-0.033	-0.282
-451.953	800.000	-0.113	0.328
-450.938	150.279	-0.071	-0.097
-449.924	-66.290	0.197	0.078
-448.909	29.740	0.206	-0.176
-447.895	151.001	0.036	-0.048
-446.880	165.456	-0.058	0.083
-445.865	73.903	0.085	0.090
-444.851	-200.000	-0.003	0.083
-443.836	-94.750	-0.355	0.096
-442.822	142.401	-0.134	-0.177
-441.807	-126.404	-0.102	-0.015
-440.792	-65.519	-0.183	-0.073
-439.778	-123.036	0.125	0.020
-438.763	800.000	0.061	-0.191
-437.749	-102.144	-0.191	0.046
-436.734	-70.431	0.131	-0.050
-435.719	-33.043	0.180	0.100
-434.705	422.361	-0.112	-0.241
-433.690	-87.817	0.097	0.029
-432.676	800.000	-0.116	0.343
-431.661	-200.000	0.037	-0.270
-430.646	-40.835	0.113	0.059
-429.632	-200.000	-0.031	0.355
-428.617	46.652	-0.169	-0.157
-427.603	800.000	0.058	-0.176
-426.588	-117.948	-0.188	-0.034
-425.573	-2.914	-0.092	0.064
-424.559	434.130	-0.116	0.252
-423.544	-200.000	-0.007	0.202
-422.530	800.000	0.069	0.228
-421.515	-132.769	0.058	-0.007
-420.500	541.603	0.129	-0.308
-419.486	-200.000	0.010	-0.101
-418.471	-132.617	0.175	0.022
-417.457	-200.000	-0.007	0.127
-416.442	-24.225	-0.144	-0.086
-415.428	800.000	-0.063	0.205
-414.413	-200.000	0.070	0.307
-413.398	-91.480	0.091	0.026
-412.384	-200.000	0.012	0.055
-411.369	485.103	0.026	-0.060
-410.355	-2.137	-0.146	0.102
-409.340	800.000	-0.045	-0.132
-408.325	800.000	-0.039	0.128
-407.311	38.479	-0.044	0.039
-406.296	-53.008	0.157	-0.072
-405.282	-48.431	0.305	-0.147
-404.267	732.190	-0.090	-0.239
-403.252	28.346	-0.257	-0.217
-402.238	46.930	0.076	-0.070
-401.223	16.350	0.106	-0.083
-400.209	-81.654	-0.325	-0.107
-399.194	800.000	0.012	-0.046
-398.179	182.740	-0.137	0.201
-397.165	-27.690	0.300	-0.174
-396.150	204.624	0.194	0.300
-395.136	90.868	0.113	0.127
-394.121	800.000	-0.105	0.307
-393.106	-200.000	-0.076	-0.452
-392.092	66.147	-0.092	-0.094
-391.077	447.521	0.092	0.203
-390.063	58.465	-0.165	-0.162
-389.048	-23.587	-0.072	-0.043
-388.033	-21.494	0.143	0.087
-387.019	-105.101	0.326	0.075
-386.004	-2.734	-0.286	0.199
-384.990	26.291	-0.141	0.118
-383.975	-97.270	0.153	0.040
-382.960	-200.000	-0.021	-0.117
-381.946	800.000	0.084	-0.294
-380.931	179.242	0.157	0.229
-379.917	-104.655	-0.141	-0.032
-378.902	-14.127	-0.172	-0.110
-377.888	-64.700	-0.426	0.172
-376.873	-200.000	-0.010	0.044
-375.858	270.019	0.039	0.069
-374.844	-170.032	-0.355	-0.013
-373.829	183.024	0.050	0.074
-372.815	721.686	-0.072	-0.191
-371.800	127.627	0.126	-0.159
-370.785	-64.226	-0.225	-0.092
-369.771	-50.636	-0.236	0.111
-368.756	-50.536	0.102	-0.048
-367.742	-131.674	0.328	-0.043
-366.727	447.285	0.129	0.284
-365.712	-92.460	-0.204	-0.057
-364.698	-48.303	0.154	-0.074
-363.683	-200.000	0.010	-0.069
-362.669	-83.941	-0.255	-0.081
-361.654	46.526	0.146	0.136
-360.639	-112.759	-0.196	0.039
-359.625	-56.764	0.188	0.083
-358.610	153.231	0.243	-0.331
-357.596	-200.000	-0.039	-0.179
-356.581	-141.789	-0.149	-0.015
-355.566	89.024	0.075	-0.083
-354.552	539.790	-0.114	-0.271
-353.537	-100.095	-0.370	0.092
-352.523	-26.791	-0.272	-0.158
-351.508	41.536	0.083	0.075
-350.493	56.863	-0.167	-0.163
-349.479	-200.000	-0.016	-0.392
-348.464	-100.283	-0.187	-0.046
-347.450	-150.539	-0.223	-0.017
-346.435	-200.000	-0.060	-0.322
-345.420	-73.269	-0.211	0.077
-344.406	-96.238	0.116	-0.031
-343.391	-71.681	0.027	-0.010
-342.377	82.170	0.205	-0.222
-341.362	392.205	0.120	-0.248
-340.348	2.917	-0.070	-0.050
-339.333	-91.197	-0.373	-0.107
-338.318	-40.870	0.282	0.145
-337.304	800.000	-0.061	-0.171
-336.289	85.837	0.224	-0.245
-335.275	217.639	-0.109	0.173
-334.260	-46.038	0.421	0.207
-333.245	-118.517	0.183	0.032
-332.231	-200.000	-0.033	0.361
-331.216	-51.536	0.296	0.138
-330.202	441.905	0.085	0.184
-329.187	800.000	0.067	0.207
-328.172	657.608	0.087	0.222
-327.158	42.839	-0.195	-0.177
-326.143	-190.659	-0.279	-0.003
-325.129	-73.289	0.092	-0.033
-324.114	-200.000	0.013	-0.102
-323.099	-43.275	-0.284	-0.143
-322.085	800.000	-0.082	0.248
-321.070	-48.822	-0.113	-0.054
-320.056	-200.000	-0.030	0.404
-319.041	45.117	-0.228	-0.209
-318.026	63.280	-0.120	-0.120
-317.012	50.629	-0.189	0.178
-315.997	-200.000	-0.027	-0.170
-314.983	800.000	-0.017	0.058
-313.968	-158.319	-0.190	-0.011
-312.953	4.430	-0.081	0.059
-311.939	108.752	0.242	-0.287
-310.924	-200.000	-0.075	0.481
-309.910	68.848	-0.184	0.189
-308.895	-200.000	0.028	0.183
-307.880	13.044	-0.175	0.135
-306.866	269.236	0.170	-0.297
-305.851	-134.753	0.125	0.015
-304.837	18.745	0.049	0.039
-303.822	-48.505	-0.170	0.082
-302.807	24.941	-0.076	-0.063
-301.793	61.186	0.186	0.184
-300.778	-200.000	-0.011	-0.070
-299.764	29.972	0.132	0.112
-298.749	38.632	-0.167	-0.148
-297.735	74.326	0.097	0.101
-296.720	-200.000	-0.008	0.501
-295.705	291.865	0.067	-0.121
-294.691	-200.000	-0.003	0.051
-293.676	-121.973	0.510	0.083
-292.662	-143.647	-0.130	-0.012
-291.647	218.780	0.153	0.243
-290.632	144.916	-0.160	0.213
-289.618	467.412	0.194	-0.432
-288.603	-0.504	0.183	-0.129
-287.589	-200.000	-0.031	-0.183
-286.574	-100.260	0.428	0.106
-285.559	315.357	0.004	0.007
-284.545	-200.000	-0.007	0.149
-283.530	-110.724	0.215	0.044
-282.516	-130.072	0.042	-0.006
-281.501	-200.000	-0.068	-0.388
-280.486	115.571	-0.070	-0.085
-279.472	188.780	0.046	-0.069
-278.457	49.496	0.272	0.254
-277.443	-145.000	0.314	0.028
-276.428	-81.562	-0.229	-0.075
-275.413	-200.000	0.000	-0.167
-274.399	-200.000	0.048	-0.373
-273.384	-184.679	0.214	0.003
-272.370	181.134	-0.116	0.170
-271.355	-116.350	-0.245	0.045
-270.340	322.463	-0.060	-0.114
-269.326	-200.000	0.010	-0.196
-268.311	-200.000	-0.039	0.174
-267.297	-110.002	0.378	0.079
-266.282	162.025	0.228	0.318
-265.267	-85.447	0.074	-0.023
-264.253	-31.133	-0.145	0.081
-263.238	-63.674	0.119	0.049
-262.224	-103.384	0.311	0.073
-261.209	-151.891	-0.151	0.011
-260.195	-41.750	0.279	-0.142
-259.180	800.000	-0.112	-0.387
-258.165	-66.806	-0.187	-0.074
-257.151	-164.763	0.319	0.014
-256.136	165.887	-0.125	0.176
-255.122	134.371	-0.216	0.278
-254.107	412.470	-0.100	-0.211
-253.092	-102.287	-0.197	-0.047
-252.078	93.370	0.197	-0.222
-251.063	-87.562	0.286	0.086
-250.049	-28.890	-0.060	-0.034
-249.034	-60.751	-0.192	-0.081
-248.019	115.356	-0.133	-0.161
-247.005	-84.167	-0.168	0.053
-245.990	-70.772	-0.169	-0.063
-244.976	-200.000	0.004	0.137
-243.961	-28.583	0.219	0.125
-242.946	189.563	-0.203	-0.303
-241.932	-59.760	-0.258	-0.110
-240.917	154.550	0.112	-0.153
-239.903	-112.363	0.286	0.057
-238.888	-78.136	-0.155	0.053
-237.873	271.927	0.113	0.197
-236.859	64.295	0.137	-0.137
-235.844	326.585	-0.025	0.048
-234.830	800.000	0.063	-0.256
-233.815	-71.107	0.600	-0.224
-232.800	-81.850	-0.192	0.062
-231.786	800.000	-0.075	-0.306
-230.771	-71.668	-0.180	-0.067
-229.757	-200.000	-0.022	-0.129
-228.742	-64.659	0.239	-0.096
-227.727	800.000	-0.127	-0.354
-226.713	55.136	-0.049	-0.047
-225.698	800.000	0.021	-0.069
-224.684	33.964	-0.254	-0.219
-223.669	-1.772	-0.327	-0.229
-222.655	89.589	-0.366	-0.406
-221.640	-147.932	-0.328	0.027
-220.625	-31.474	0.233	-0.130
-219.611	242.031	-0.126	0.209
-218.596	760.786	0.180	0.484
-217.582	800.000	-0.049	-0.193
-216.567	524.711	-0.114	-0.265
-215.552	239.654	0.183	0.302
-214.538	800.000	-0.074	-0.271
-213.523	-76.211	0.090	-0.031
-212.509	800.000	0.019	0.056
-211.494	-200.000	-0.006	0.256
-210.479	-200.000	-0.001	0.065
-209.465	-34.525	-0.090	-0.049
-208.450	-200.000	-0.046	-0.229
-207.436	-200.000	-0.016	-0.111
-206.421	-12.745	0.354	-0.229
-205.406	-71.148	0.388	-0.145
-204.392	-200.000	0.005	0.124
-203.377	-200.000	0.042	0.279
-202.363	-72.680	0.357	0.130
-201.348	-200.000	-0.034	0.286
-200.333	-99.905	0.200	0.049
-199.319	-129.250	-0.045	0.006
-198.304	197.219	-0.083	-0.126
-197.290	42.733	-0.063	-0.057
-196.275	-165.398	0.222	0.010
-195.260	45.014	0.128	-0.117
-194.246	800.000	-0.038	-0.114
-193.231	-71.142	0.205	0.076
-192.217	738.963	0.065	-0.173
-191.202	-59.534	0.092	0.039
-190.187	-200.000	-0.002	-0.190
-189.173	-46.814	0.165	0.080
-188.158	140.544	0.079	0.103
-187.144	-54.163	0.066	0.030
-186.129	-93.782	0.014	0.004
-185.114	-123.621	0.328	0.052
-184.100	203.258	-0.175	0.268
-183.085	-53.695	-0.356	0.161
-182.071	-200.000	0.035	-0.261
-181.056	-200.000	-0.092	-0.481
-180.042	-130.073	-0.197	0.027
-179.027	-118.609	0.187	0.033
-178.012	800.000	-0.110	0.345
-176.998	-106.125	-0.376	-0.084
-175.983	-200.000	0.026	0.332
-174.969	-58.641	0.323	0.139
-173.954	-180.432	0.289	-0.006
-172.939	641.012	-0.049	-0.123
-171.925	-200.000	-0.053	0.248
-170.910	-200.000	-0.008	-0.115
-169.896	326.953	0.062	0.118
-168.881	-91.659	0.217	0.061
-167.866	-144.546	-0.394	-0.036
-166.852	-200.000	0.030	0.143
-165.837	67.181	0.121	-0.122
-164.823	341.661	-0.152	-0.294
-163.808	-62.403	-0.142	-0.059
-162.793	-200.000	0.031	0.232
-161.779	800.000	0.018	-0.072
-160.764	-92.783	0.393	0.109
-159.750	223.091	-0.191	0.305
-158.735	503.320	0.111	0.255
-157.720	513.309	-0.047	-0.109
-156.706	741.699	0.118	-0.315
-155.691	69.812	0.121	0.124
-154.677	800.000	-0.075	-0.314
-153.662	-200.000	0.004	-0.073
-152.647	204.483	-0.063	0.097
-151.633	102.615	-0.244	0.282
-150.618	-135.896	0.254	0.030
-149.604	549.291	-0.127	-0.300
-148.589	-185.587	-0.134	-0.002
-147.574	800.000	-0.022	-0.090
-146.560	-100.625	0.116	0.028
-145.545	-200.000	0.027	-0.136
-144.531	-106.437	-0.138	0.030
-143.516	-4.931	-0.450	-0.306
-142.502	0.007	0.452	0.319
-141.487	800.000	-0.046	-0.127
-140.472	-200.000	-0.106	0.583
-139.458	-83.518	0.359	0.114
-138.443	-78.133	-0.154	0.052
-137.429	13.671	-0.294	0.226
-136.414	-11.341	-0.159	-0.103
-135.399	800.000	0.079	0.240
-134.385	800.000	-0.070	0.294
-133.370	-143.090	-0.092	-0.009
-132.356	-118.454	0.056	-0.010
-131.341	382.078	0.043	0.087
-130.326	135.601	0.215	-0.276
-129.312	-59.474	-0.251	0.106
-128.297	-146.219	-0.122	-0.011
-127.283	97.879	0.224	0.255
-126.268	219.634	-0.063	0.100
-125.253	-200.000	0.019	-0.187
-124.239	494.283	0.176	0.400
-123.224	800.000	0.109	0.323
-122.210	674.570	0.157	-0.404
