DTS Sentinel unit serial number:	SN413079Multiplexer serial number:	ORYXHardware model number:	OX4-SRSoftware version number:	ORYX F/W v4.00 Oryx Data Collector v3.7.2.0data status	okinstallation	princeton_trtdifferential loss correction	single-endedforward channel	channel 1reverse channel	N/Adate	2019/09/13time	07:34:35forward acquisition time	60.00reverse acquisition time	0.00gamma	496.2192k internal	0.2335k external	0.2335temperature offset calibration	1.0163default loss term (dB/km)	0.3790temperature slope calibration	1.0000multiplexer offset coefficient	1.0000multiplexer slope coefficient	1.0000fibre end	0.00T internal ref (°C)	26.25T ext. ref 1 (°C)	4.20T ext. ref 2 (°C)	22.13length (m)	temperature (°C)	Stokes	anti-Stokes-747.200	-200.000	-0.057	0.293
-746.185	-5.242	-0.172	0.119
-745.171	-109.265	0.263	0.056
-744.156	554.535	0.090	0.219
-743.142	177.503	-0.280	0.410
-742.127	-80.166	-0.188	0.063
-741.112	-127.436	0.343	-0.050
-740.098	575.420	-0.021	0.051
-739.083	800.000	0.029	0.088
-738.069	375.888	-0.167	0.342
-737.054	-200.000	0.023	0.177
-736.039	50.955	-0.159	-0.152
-735.025	-89.837	0.204	-0.060
-734.010	-43.847	-0.614	0.310
-732.996	-92.522	-0.299	-0.084
-731.981	548.089	-0.190	-0.458
-730.966	11.094	-0.132	-0.101
-729.952	-179.024	-0.201	-0.005
-728.937	-86.506	0.369	0.114
-727.923	21.137	0.031	0.025
-726.908	-132.276	-0.085	0.011
-725.894	-18.966	0.294	0.184
-724.879	-200.000	0.041	-0.233
-723.864	-35.952	-0.192	-0.104
-722.850	-200.000	-0.022	0.130
-721.835	88.525	0.139	0.155
-720.821	-133.506	-0.173	0.022
-719.806	-77.525	-0.435	-0.152
-718.791	-13.232	0.217	0.142
-717.777	800.000	0.078	-0.221
-716.762	-117.731	-0.264	-0.048
-715.748	-84.827	-0.249	0.078
-714.733	-200.000	0.065	-0.324
-713.718	311.015	-0.086	-0.162
-712.704	800.000	-0.031	0.092
-711.689	-200.000	0.010	0.111
-710.675	92.080	-0.096	0.108
-709.660	533.535	0.044	-0.104
-708.645	-98.271	0.194	0.050
-707.631	175.767	-0.087	0.127
-706.616	33.857	0.306	-0.267
-705.602	745.148	0.046	0.125
-704.587	476.548	-0.231	-0.525
-703.572	117.194	0.017	0.021
-702.558	-200.000	-0.046	-0.296
-701.543	-78.780	-0.240	0.082
-700.529	-9.917	-0.215	-0.143
-699.514	-135.013	-0.122	0.015
-698.499	529.436	-0.131	0.310
-697.485	-39.914	0.089	-0.047
-696.470	2.650	0.077	-0.056
-695.456	-165.285	-0.166	0.007
-694.441	31.376	-0.198	-0.171
-693.426	-5.472	-0.274	-0.189
-692.412	686.701	-0.087	-0.228
-691.397	-200.000	0.015	-0.130
-690.383	-29.567	0.057	-0.033
-689.368	-132.137	0.090	-0.012
-688.354	622.028	-0.038	-0.095
-687.339	-94.540	0.039	-0.011
-686.324	-25.808	0.248	-0.146
-685.310	-200.000	0.023	-0.103
-684.295	-116.889	-0.176	0.032
-683.281	-92.497	-0.087	-0.025
-682.266	-56.444	-0.188	0.083
-681.251	177.158	-0.153	0.223
-680.237	-88.091	-0.059	0.018
-679.222	-54.357	-0.292	0.133
-678.208	138.082	-0.210	0.275
-677.193	-200.000	0.048	0.247
-676.178	-134.726	0.360	-0.044
-675.164	485.123	0.012	0.027
-674.149	-49.091	0.244	0.117
-673.135	44.567	0.251	-0.231
-672.120	800.000	-0.073	-0.225
-671.105	31.815	-0.244	0.210
-670.091	800.000	-0.025	0.077
-669.076	224.595	-0.202	0.328
-668.062	233.769	-0.073	0.120
-667.047	-10.120	-0.198	0.132
-666.032	-200.000	-0.034	0.308
-665.018	800.000	0.116	0.438
-664.003	1.865	0.435	0.314
-662.989	-200.000	-0.057	0.410
-661.974	77.732	-0.206	0.220
-660.959	89.277	0.126	-0.141
-659.945	-32.177	0.154	0.086
-658.930	159.480	-0.071	0.098
-657.916	92.681	0.019	-0.022
-656.901	-200.000	-0.038	-0.430
-655.886	297.843	0.222	-0.409
-654.872	26.674	-0.226	0.189
-653.857	43.261	-0.119	-0.109
-652.843	-109.861	-0.217	0.046
-651.828	16.796	0.182	0.145
-650.814	-148.601	-0.221	-0.018
-649.799	-200.000	-0.057	0.259
-648.784	800.000	-0.106	0.352
-647.770	132.632	-0.179	-0.231
-646.755	187.602	-0.046	-0.068
-645.741	-103.728	0.147	0.035
-644.726	294.292	0.049	0.090
-643.711	-142.493	0.235	-0.023
-642.697	167.279	0.138	0.196
-641.682	-133.695	-0.096	-0.012
-640.668	800.000	-0.082	0.320
-639.653	-35.083	0.146	0.080
-638.638	-148.830	0.177	-0.014
-637.624	34.488	0.240	-0.210
-636.609	22.831	0.280	0.230
-635.595	13.411	-0.170	0.132
-634.580	-200.000	0.045	-0.329
-633.565	800.000	-0.083	-0.316
-632.551	55.925	0.102	-0.099
-631.536	-101.700	0.344	-0.083
-630.522	672.773	-0.110	0.286
-629.507	-12.110	0.058	-0.038
-628.492	-26.458	-0.345	-0.202
-627.478	-116.508	0.450	-0.083
-626.463	11.408	-0.256	0.196
-625.449	800.000	0.064	0.184
-624.434	-0.853	-0.203	0.144
-623.419	101.465	0.199	-0.232
-622.405	736.985	-0.051	-0.138
-621.390	97.577	-0.270	-0.310
-620.376	-80.334	-0.232	-0.077
-619.361	30.999	-0.105	-0.090
-618.346	-200.000	-0.015	0.088
-617.332	517.839	-0.101	0.236
-616.317	-44.662	-0.139	0.070
-615.303	-15.742	-0.299	-0.190
-614.288	40.814	-0.302	0.272
-613.273	-41.035	0.209	-0.108
-612.259	-200.000	-0.008	-0.336
-611.244	-171.864	0.161	-0.005
-610.230	114.104	-0.217	0.264
-609.215	-200.000	-0.042	-0.296
-608.201	-157.688	-0.328	-0.020
-607.186	-200.000	0.005	-0.119
-606.171	-200.000	-0.003	0.041
-605.157	161.978	-0.167	-0.234
-604.142	512.983	0.053	-0.124
-603.128	-68.196	0.383	-0.149
-602.113	-146.191	-0.080	0.007
-601.098	10.104	0.067	0.051
-600.084	385.842	-0.054	0.111
-599.069	4.774	-0.239	-0.176
-598.055	72.208	-0.226	-0.235
-597.040	459.569	0.096	-0.214
-596.025	-39.139	-0.267	0.140
-595.011	-155.158	0.379	-0.025
-593.996	176.738	0.106	0.154
-592.982	-34.178	0.065	0.035
-591.967	206.759	-0.106	-0.165
-590.952	-94.222	-0.093	0.025
-589.938	800.000	-0.077	-0.337
-588.923	44.289	0.095	0.087
-587.909	-50.782	-0.164	-0.077
-586.894	364.596	-0.086	0.174
-585.879	205.683	0.026	0.041
-584.865	-137.678	-0.186	0.021
-583.850	-68.934	-0.259	-0.100
-582.836	-62.890	0.132	-0.055
-581.821	-64.060	0.224	0.091
-580.806	256.136	-0.140	-0.240
-579.792	-200.000	-0.001	0.114
-578.777	-60.984	-0.208	0.088
-577.763	-200.000	0.098	0.000
-576.748	597.086	0.092	0.227
-575.733	59.330	-0.083	-0.082
-574.719	36.266	-0.222	-0.195
-573.704	800.000	-0.034	-0.131
-572.690	-11.366	0.174	0.114
-571.675	29.327	0.201	-0.171
-570.661	-200.000	0.017	0.159
-569.646	-165.741	0.157	-0.007
-568.631	28.585	-0.277	0.234
-567.617	-85.033	0.453	0.142
-566.602	-60.886	-0.461	-0.195
-565.588	-45.788	0.072	-0.035
-564.573	10.514	-0.292	0.222
-563.558	-41.721	-0.159	-0.082
-562.544	-118.839	-0.239	-0.042
-561.529	-85.077	0.197	-0.062
-560.515	-119.589	-0.220	0.038
-559.500	-49.864	0.271	0.128
-558.485	521.415	0.133	0.312
-557.471	800.000	-0.042	-0.141
-556.456	-114.997	-0.252	-0.048
-555.442	-83.724	0.426	-0.135
-554.427	800.000	0.061	-0.196
-553.412	478.041	0.155	-0.351
-552.398	181.379	0.096	0.140
-551.383	-200.000	0.000	-0.226
-550.369	-135.596	-0.350	0.041
-549.354	-200.000	-0.008	-0.142
-548.339	353.289	0.208	-0.412
-547.325	101.274	0.041	-0.048
-546.310	-164.423	0.289	0.013
-545.296	-200.000	-0.018	0.370
-544.281	-66.450	-0.092	0.037
-543.266	-129.147	0.250	0.035
-542.252	-91.839	0.275	0.078
-541.237	-5.866	-0.309	0.211
-540.223	172.063	0.108	-0.155
-539.208	449.846	-0.039	-0.085
-538.193	63.985	0.245	0.245
-537.179	-200.000	-0.052	0.313
-536.164	800.000	-0.010	-0.033
-535.150	158.508	-0.142	-0.197
-534.135	-184.663	0.459	-0.007
-533.121	318.231	0.065	-0.122
-532.106	191.628	0.009	-0.014
-531.091	-75.586	0.107	0.038
-530.077	45.060	0.172	-0.158
-529.062	172.128	0.187	0.269
-528.048	-57.074	0.343	-0.151
-527.033	-22.908	0.261	0.157
-526.018	179.913	-0.140	-0.204
-525.004	114.123	-0.206	-0.250
-523.989	91.574	0.098	-0.109
-522.975	-200.000	0.014	-0.153
-521.960	66.782	0.159	0.161
-520.945	269.091	-0.042	0.073
-519.931	15.791	0.089	-0.069
-518.916	346.990	-0.047	0.093
-517.902	371.756	0.063	-0.128
-516.887	-200.000	0.025	-0.242
-515.872	58.952	0.181	0.177
-514.858	241.394	-0.137	0.228
-513.843	800.000	0.077	0.293
-512.829	3.013	-0.111	-0.081
-511.814	521.869	0.039	-0.092
-510.799	-200.000	-0.067	-0.577
-509.785	341.833	0.069	0.135
-508.770	800.000	0.136	0.390
-507.756	14.903	-0.199	0.155
-506.741	-42.315	0.122	0.062
-505.726	800.000	0.029	0.125
-504.712	15.202	0.355	0.277
-503.697	-144.650	-0.132	-0.012
-502.683	-178.905	0.272	0.006
-501.668	-16.561	-0.190	0.120
-500.653	-57.752	0.094	-0.041
-499.639	-33.093	-0.404	-0.223
-498.624	578.395	0.083	0.201
-497.610	44.858	0.195	0.178
-496.595	-62.284	0.045	0.018
-495.581	-122.736	-0.067	-0.011
-494.566	4.131	-0.445	-0.324
-493.551	-134.954	-0.204	-0.025
-492.537	274.738	0.188	-0.331
-491.522	215.467	0.191	-0.301
-490.508	668.504	-0.053	-0.136
-489.493	-21.619	-0.273	-0.165
-488.478	-90.512	0.177	-0.051
-487.464	-200.000	-0.062	-0.433
-486.449	169.839	-0.248	-0.352
-485.435	40.148	0.370	0.331
-484.420	29.895	-0.203	0.172
-483.405	-87.455	-0.243	0.073
-482.391	-3.460	-0.330	0.229
-481.376	-138.605	0.135	-0.015
-480.362	-70.570	-0.090	0.034
-479.347	-199.446	-0.472	0.002
-478.332	12.891	-0.110	0.084
-477.318	148.558	0.282	0.379
-476.303	389.509	-0.234	0.482
-475.289	-58.341	-0.242	0.105
-474.274	-23.418	0.214	0.128
-473.259	-85.241	0.212	-0.066
-472.245	-74.181	0.255	0.092
-471.230	443.274	-0.061	-0.133
-470.216	-200.000	-0.006	0.039
-469.201	-161.123	-0.387	0.020
-468.186	-90.487	0.169	0.049
-467.172	141.772	-0.154	0.202
-466.157	-107.425	-0.170	0.037
-465.143	154.724	0.250	-0.341
-464.128	147.724	-0.208	-0.279
-463.113	-200.000	-0.053	0.321
-462.099	-127.853	-0.273	0.039
-461.084	-162.220	-0.172	-0.009
-460.070	-200.000	0.029	-0.248
-459.055	-106.855	0.380	0.084
-458.040	-120.484	0.210	-0.035
-457.026	243.047	0.098	-0.164
-456.011	-27.577	0.405	-0.234
-454.997	-34.484	0.148	-0.081
-453.982	135.658	0.126	0.163
-452.968	800.000	-0.094	0.350
-451.953	-5.768	0.161	-0.109
-450.938	29.025	-0.210	-0.177
-449.924	370.989	-0.106	0.214
-448.909	-195.187	0.267	0.002
-447.895	800.000	0.082	0.234
-446.880	-140.526	-0.196	0.020
-445.865	-154.232	-0.240	-0.016
-444.851	-56.703	-0.287	-0.126
-443.836	-43.837	-0.137	0.069
-442.822	69.467	0.191	-0.196
-441.807	800.000	0.059	0.184
-440.792	800.000	-0.128	0.390
-439.778	56.441	-0.044	-0.043
-438.763	-200.000	0.035	-0.198
-437.749	800.000	-0.090	0.329
-436.734	-200.000	0.022	-0.124
-435.719	-126.583	0.184	-0.027
-434.705	-103.341	-0.139	0.032
-433.690	159.907	0.053	-0.073
-432.676	-175.446	-0.151	-0.004
-431.661	-200.000	0.004	0.137
-430.646	-179.780	-0.024	0.001
-429.632	-116.755	-0.081	-0.015
-428.617	-44.862	0.093	0.046
-427.603	45.144	-0.151	0.138
-426.588	-200.000	0.007	0.166
-425.573	-200.000	0.013	-0.167
-424.559	-200.000	-0.003	-0.154
-423.544	-200.000	-0.058	-0.288
-422.530	237.964	-0.078	-0.129
-421.515	800.000	-0.016	0.049
-420.500	27.683	0.228	0.191
-419.486	217.901	0.048	-0.076
-418.471	-77.739	-0.371	0.127
-417.457	-27.635	-0.119	0.068
-416.442	69.223	0.072	0.074
-415.428	18.744	0.125	-0.099
-414.413	-134.921	-0.205	0.025
-413.398	81.856	0.053	0.057
-412.384	116.417	-0.118	-0.143
-411.369	-14.743	-0.207	-0.132
-410.355	26.374	-0.260	-0.215
-409.340	-37.505	-0.119	0.063
-408.325	800.000	0.048	0.174
-407.311	-3.820	0.225	-0.155
-406.296	38.124	-0.091	0.080
-405.282	-16.595	-0.110	0.069
-404.267	134.002	0.121	-0.155
-403.252	74.075	0.294	-0.306
-402.238	584.848	-0.064	-0.156
-401.223	-118.003	0.312	0.055
-400.209	-76.210	-0.291	0.102
-399.194	-150.858	-0.133	0.010
-398.179	-99.616	0.121	0.030
-397.165	800.000	0.118	0.350
-396.150	-200.000	0.018	0.345
-395.136	130.674	-0.116	-0.147
-394.121	275.985	0.142	-0.249
-393.106	800.000	-0.049	0.150
-392.092	204.554	0.149	0.229
-391.077	59.146	-0.202	-0.197
-390.063	-200.000	0.062	-0.517
-389.048	122.562	0.152	0.189
-388.033	-127.709	0.239	-0.034
-387.019	-200.000	0.057	0.295
-386.004	120.092	0.063	0.077
-384.990	-28.830	-0.403	-0.230
-383.975	206.207	-0.125	0.193
-382.960	64.364	0.244	-0.243
-381.946	-200.000	0.038	-0.266
-380.931	-200.000	-0.024	-0.139
-379.917	-50.365	-0.156	-0.073
-378.902	-99.007	0.263	-0.066
-377.888	-16.838	0.195	0.122
-376.873	-200.000	-0.136	0.000
-375.858	152.820	0.234	-0.317
-374.844	-80.053	-0.225	-0.075
-373.829	595.647	-0.122	0.299
-372.815	800.000	-0.089	-0.305
-371.800	576.781	-0.023	0.056
-370.785	-200.000	0.062	-0.557
-369.771	-46.884	0.204	0.099
-368.756	-200.000	-0.076	0.341
-367.742	38.918	0.209	0.185
-366.727	-88.576	-0.166	-0.049
-365.712	397.607	-0.029	-0.060
-364.698	-157.935	-0.303	0.018
-363.683	448.105	0.132	-0.288
-362.669	7.279	-0.132	-0.098
-361.654	297.323	0.036	-0.065
-360.639	341.579	0.149	-0.289
-359.625	328.177	-0.076	-0.145
-358.610	126.780	0.174	0.219
-357.596	152.140	0.209	0.283
-356.581	161.188	-0.124	0.172
-355.566	-200.000	-0.073	-0.378
-354.552	352.086	-0.043	-0.084
-353.537	-35.296	-0.237	0.128
-352.523	800.000	0.037	-0.143
-351.508	64.696	0.329	-0.329
-350.493	-56.762	0.344	-0.150
-349.479	-16.180	-0.250	0.157
-348.464	484.704	0.033	0.075
-347.450	-162.270	-0.179	-0.009
-346.435	312.815	0.123	-0.229
-345.420	169.147	0.105	0.148
-344.406	-200.000	-0.033	-0.428
-343.391	-200.000	0.009	0.214
-342.377	13.376	0.145	0.111
-341.362	84.266	-0.146	-0.158
-340.348	216.280	0.111	-0.174
-339.333	46.768	0.388	0.356
-338.318	-200.000	-0.014	-0.247
-337.304	-200.000	0.007	0.180
-336.289	103.555	-0.128	0.148
-335.275	13.432	0.122	-0.094
-334.260	-60.575	0.466	0.195
-333.245	-58.318	-0.072	-0.031
-332.231	-121.700	-0.333	-0.054
-331.216	64.202	0.221	0.220
-330.202	106.015	-0.079	-0.092
-329.187	-176.324	-0.279	0.007
-328.172	17.885	0.217	-0.171
-327.158	-131.531	-0.083	0.011
-326.143	65.701	0.060	-0.060
-325.129	-16.267	-0.149	0.093
-324.114	-66.893	-0.098	-0.038
-323.099	-200.000	0.045	-0.241
-322.085	-96.574	-0.151	0.039
-321.070	-200.000	-0.018	0.124
-320.056	-63.186	-0.300	0.122
-319.041	800.000	0.093	0.260
-318.026	-200.000	-0.021	0.300
-317.012	-130.243	0.156	0.021
-315.997	249.002	0.202	-0.338
-314.983	-200.000	0.000	-0.183
-313.968	-15.299	-0.124	-0.078
-312.953	-106.526	-0.176	-0.039
-311.939	659.842	0.145	0.368
-310.924	145.828	0.227	0.301
-309.910	800.000	0.020	-0.059
-308.895	800.000	0.105	0.421
-307.880	58.067	0.246	0.238
-306.866	-105.196	-0.104	-0.023
-305.851	800.000	0.038	0.155
-304.837	-200.000	0.008	-0.052
-303.822	800.000	0.063	-0.186
-302.807	78.231	-0.165	0.173
-301.793	-7.194	-0.162	0.109
-300.778	-13.938	-0.187	0.119
-299.764	-112.759	-0.168	-0.033
-298.749	-116.037	-0.563	-0.104
-297.735	9.882	0.313	0.235
-296.720	-73.681	-0.221	0.079
-295.705	-113.381	-0.234	0.045
-294.691	-89.787	0.139	0.040
-293.676	36.777	-0.263	0.229
-292.662	-200.000	0.024	0.116
-291.647	123.070	0.122	-0.150
-290.632	-7.676	0.114	0.076
-289.618	800.000	-0.019	-0.068
-288.603	86.469	0.035	-0.038
-287.589	356.693	-0.074	-0.145
-286.574	197.095	-0.186	0.280
-285.559	321.258	-0.114	-0.213
-284.545	87.586	-0.223	0.243
-283.530	642.863	0.041	0.102
-282.516	457.635	-0.044	-0.097
-281.501	-200.000	-0.004	-0.161
-280.486	213.320	0.215	-0.335
-279.472	1.613	-0.128	0.091
-278.457	-39.622	0.313	0.162
-277.443	195.962	0.170	0.255
-276.428	-52.664	-0.104	0.047
-275.413	800.000	0.056	0.232
-274.399	-57.763	0.374	-0.161
-273.384	-76.915	0.199	0.069
-272.370	-200.000	-0.011	-0.207
-271.355	800.000	-0.132	0.411
-270.340	800.000	-0.048	-0.171
-269.326	800.000	-0.171	0.612
-268.311	-31.775	0.202	-0.112
-267.297	-58.083	0.468	0.201
-266.282	-39.802	-0.124	-0.064
-265.267	-132.267	-0.178	-0.023
-264.253	176.601	-0.125	-0.180
-263.238	-38.382	0.351	0.183
-262.224	-73.763	-0.262	-0.094
-261.209	-22.021	0.083	-0.050
-260.195	-72.974	0.027	-0.010
-259.180	-24.314	-0.386	-0.227
-258.165	130.176	0.066	-0.083
-257.151	800.000	-0.024	-0.082
-256.136	486.411	0.009	0.019
-255.122	-56.176	0.132	0.058
-254.107	201.864	-0.049	-0.074
-253.092	800.000	0.017	-0.071
-252.078	522.342	0.063	0.146
-251.063	-200.000	-0.021	0.100
-250.049	-88.703	-0.210	-0.062
-249.034	-200.000	-0.002	-0.233
-248.019	-102.282	-0.123	0.029
-247.005	361.448	-0.087	-0.172
-245.990	83.400	0.080	-0.086
-244.976	7.479	-0.152	-0.112
-243.961	3.087	-0.195	-0.140
-242.946	248.368	0.148	-0.247
-241.932	-24.503	-0.296	-0.174
-240.917	800.000	-0.083	0.235
-239.903	116.938	0.199	0.240
-238.888	800.000	0.066	-0.189
-237.873	147.824	-0.113	-0.150
-236.859	-200.000	-0.018	-0.108
-235.844	-33.912	0.102	0.055
-234.830	14.755	0.178	-0.137
-233.815	-200.000	-0.008	-0.079
-232.800	-18.174	-0.107	-0.066
-231.786	116.844	-0.066	-0.080
-230.771	-200.000	-0.110	0.000
-229.757	110.804	0.200	-0.238
-228.742	179.277	0.188	-0.271
-227.727	800.000	0.099	0.279
-226.713	31.863	0.192	0.163
-225.698	-102.337	-0.259	-0.061
-224.684	-95.766	-0.437	0.115
-223.669	-27.234	0.262	-0.150
-222.655	-130.489	0.363	-0.048
-221.640	800.000	0.015	0.059
-220.625	-81.512	-0.041	0.013
-219.611	-11.416	0.419	0.272
-218.596	-78.787	0.225	0.076
-217.582	414.251	-0.192	0.403
-216.567	216.555	0.099	0.155
-215.552	-158.163	-0.138	0.008
-214.538	-18.516	0.049	0.030
-213.523	-200.000	-0.008	-0.218
-212.509	-130.242	0.443	-0.059
-211.494	-11.782	0.099	-0.064
-210.479	-104.389	-0.046	-0.010
-209.465	21.950	0.063	-0.051
-208.450	-200.000	0.027	0.131
-207.436	-61.602	-0.331	0.137
-206.421	-25.121	0.144	0.084
-205.406	49.155	0.091	0.084
-204.392	309.597	-0.073	-0.135
-203.377	59.583	0.195	-0.189
-202.363	-78.542	0.076	0.026
-201.348	28.158	-0.329	0.273
-200.333	64.377	-0.075	0.074
-199.319	156.301	0.169	0.230
-198.304	633.189	-0.016	-0.041
-197.290	-200.000	-0.001	0.021
-196.275	449.144	0.096	-0.208
-195.260	800.000	-0.021	0.060
-194.246	13.193	0.185	-0.141
-193.231	98.362	0.141	-0.160
-192.217	17.179	0.180	0.140
-191.202	-164.604	-0.155	0.007
-190.187	800.000	0.058	0.195
-189.173	106.849	0.100	0.117
-188.158	609.465	0.048	-0.118
-187.144	-200.000	0.026	0.218
-186.129	-31.855	-0.132	0.073
-185.114	-200.000	0.040	0.189
-184.100	-132.192	-0.280	-0.036
-183.085	40.982	0.089	-0.079
-182.071	-200.000	0.015	-0.247
-181.056	-55.536	-0.119	-0.052
-180.042	130.162	0.187	0.235
-179.027	678.682	-0.087	-0.223
-178.012	108.285	0.021	0.025
-176.998	-200.000	-0.014	0.114
-175.983	155.896	-0.126	-0.171
-174.969	95.228	-0.184	0.206
-173.954	800.000	0.024	0.067
-172.939	-19.814	-0.112	0.068
-171.925	66.156	-0.251	-0.251
-170.910	352.755	0.097	0.189
-169.896	-96.928	-0.332	-0.085
-168.881	-52.282	0.122	0.056
-167.866	11.846	-0.296	-0.223
-166.852	-143.836	0.174	-0.016
-165.837	-109.760	-0.046	-0.010
-164.823	414.048	0.046	-0.097
-163.808	-173.548	0.243	0.007
-162.793	-200.000	-0.062	-0.403
-161.779	-200.000	-0.071	0.328
-160.764	-39.285	0.187	0.096
-159.750	800.000	0.051	-0.170
-158.735	152.309	0.035	-0.047
-157.720	800.000	-0.088	0.356
-156.706	288.026	-0.165	0.294
-155.691	70.331	0.105	0.106
-154.677	111.307	0.090	-0.107
-153.662	139.479	-0.099	0.128
-152.647	-200.000	0.002	-0.065
-151.633	800.000	0.067	0.200
-150.618	165.419	-0.051	0.071
-149.604	-165.251	-0.186	0.008
-148.589	-42.899	-0.267	0.133
-147.574	-200.000	-0.036	0.170
-146.560	-105.918	-0.249	0.055
-145.545	-200.000	-0.063	0.283
-144.531	-46.570	0.225	0.108
-143.516	800.000	-0.076	0.285
-142.502	127.613	0.207	-0.258
-141.487	370.030	-0.091	-0.181
-140.472	359.995	0.102	0.200
-139.458	-168.937	0.249	-0.009
-138.443	-200.000	-0.005	-0.052
-137.429	-200.000	-0.027	-0.267
-136.414	-200.000	0.022	0.157
-135.399	7.604	-0.102	0.075
-134.385	12.056	0.096	-0.073
-133.370	-200.000	0.008	0.319
-132.356	-200.000	0.030	-0.157
-131.341	421.910	-0.053	0.111
-130.326	-24.927	0.466	-0.271
-129.312	-94.623	0.193	-0.052
-128.297	-122.001	-0.066	0.011
-127.283	800.000	0.003	0.008
-126.268	326.667	-0.059	-0.111
-125.253	800.000	-0.065	0.211
-124.239	112.912	0.060	-0.071
-123.224	528.859	-0.081	0.188
-122.210	347.054	0.156	0.301
-121.195	-16.821	-0.157	0.097
