DTS Sentinel unit serial number:	SN413079Multiplexer serial number:	ORYXHardware model number:	OX4-SRSoftware version number:	ORYX F/W v4.00 Oryx Data Collector v3.7.2.0data status	okinstallation	princeton_trtdifferential loss correction	single-endedforward channel	channel 1reverse channel	N/Adate	2019/09/12time	05:44:11forward acquisition time	60.00reverse acquisition time	0.00gamma	496.2192k internal	0.2321k external	0.2321temperature offset calibration	1.0052default loss term (dB/km)	0.3790temperature slope calibration	1.0000multiplexer offset coefficient	1.0000multiplexer slope coefficient	1.0000fibre end	0.00T internal ref (°C)	32.00T ext. ref 1 (°C)	1.59T ext. ref 2 (°C)	27.52length (m)	temperature (°C)	Stokes	anti-Stokes-747.200	-86.869	-0.156	0.048
-746.185	113.056	0.078	0.096
-745.171	800.000	-0.054	0.199
-744.156	800.000	0.040	0.161
-743.142	33.617	0.081	0.071
-742.127	49.778	-0.045	0.043
-741.112	184.257	-0.294	0.440
-740.098	-95.436	-0.232	-0.063
-739.083	14.082	0.312	0.246
-738.069	329.015	0.072	0.140
-737.054	-106.789	-0.055	-0.012
-736.039	-3.313	-0.293	-0.206
-735.025	-155.196	0.159	-0.010
-734.010	-23.550	-0.449	-0.272
-732.996	159.775	-0.046	-0.065
-731.981	299.196	-0.113	0.210
-730.966	-162.679	0.286	0.014
-729.952	196.858	0.170	-0.262
-728.937	3.711	0.162	0.119
-727.923	-200.000	0.009	0.144
-726.908	195.843	-0.180	-0.277
-725.894	578.777	0.081	-0.201
-724.879	-75.324	0.295	-0.106
-723.864	210.662	-0.075	-0.120
-722.850	177.608	0.146	0.214
-721.835	-93.253	-0.099	0.028
-720.821	18.449	0.159	0.129
-719.806	-47.826	-0.354	0.173
-718.791	-30.114	-0.029	0.017
-717.777	-155.991	-0.032	0.002
-716.762	-108.590	-0.231	0.050
-715.748	-106.497	0.167	-0.038
-714.733	-200.000	-0.037	0.313
-713.718	8.812	-0.056	-0.042
-712.704	800.000	0.059	0.171
-711.689	268.732	0.153	-0.272
-710.675	-200.000	-0.006	-0.352
-709.660	-97.438	-0.253	0.066
-708.645	36.841	-0.106	-0.094
-707.631	-136.224	0.484	0.057
-706.616	800.000	0.060	0.188
-705.602	484.018	0.064	0.147
-704.587	800.000	0.025	-0.070
-703.572	-200.000	-0.002	0.086
-702.558	-200.000	-0.016	-0.125
-701.543	123.935	-0.110	0.140
-700.529	-200.000	-0.002	-0.011
-699.514	667.238	-0.081	-0.211
-698.499	-67.301	0.256	-0.102
-697.485	273.141	-0.069	0.122
-696.470	-121.967	0.342	0.057
-695.456	-160.177	-0.161	-0.009
-694.441	-106.251	0.132	-0.030
-693.426	-33.362	0.390	0.218
-692.412	800.000	-0.036	-0.115
-691.397	22.262	-0.131	-0.108
-690.383	310.154	0.212	-0.399
-689.368	76.642	0.070	0.075
-688.354	128.013	-0.404	0.518
-687.339	226.154	0.228	0.372
-686.324	203.844	-0.131	-0.204
-685.310	-200.000	-0.040	-0.743
-684.295	84.834	-0.223	0.246
-683.281	-23.143	-0.163	-0.099
-682.266	85.224	0.050	0.055
-681.251	82.937	0.145	-0.159
-680.237	536.223	0.232	-0.554
-679.222	178.768	0.271	0.400
-678.208	381.268	-0.052	0.107
-677.193	303.075	-0.090	-0.169
-676.178	60.932	-0.277	0.277
-675.164	-163.807	0.379	0.018
-674.149	-185.826	-0.241	-0.004
-673.135	800.000	-0.019	0.062
-672.120	-94.496	-0.157	-0.043
-671.105	33.197	-0.254	-0.222
-670.091	-200.000	0.006	-0.391
-669.076	800.000	0.069	-0.241
-668.062	-41.631	0.047	0.024
-667.047	-107.972	-0.243	-0.053
-666.032	-91.510	-0.123	-0.035
-665.018	-122.450	0.123	-0.020
-664.003	-37.019	0.183	-0.099
-662.989	-200.000	-0.002	-0.039
-661.974	-200.000	0.002	-0.158
-660.959	-200.000	0.056	-0.477
-659.945	40.407	-0.070	0.063
-658.930	111.147	-0.093	0.113
-657.916	176.096	-0.227	-0.333
-656.901	627.500	-0.057	0.145
-655.886	-90.038	0.104	0.030
-654.872	57.044	-0.098	-0.096
-653.857	39.419	0.251	0.226
-652.843	-103.201	-0.371	0.088
-651.828	800.000	-0.101	-0.309
-650.814	494.031	0.063	-0.145
-649.799	-117.372	0.226	-0.041
-648.784	-200.000	-0.011	-0.093
-647.770	122.762	0.149	-0.188
-646.755	-169.001	-0.392	-0.015
-645.741	800.000	0.057	-0.192
-644.726	-200.000	0.003	-0.133
-643.711	193.647	-0.110	-0.168
-642.697	800.000	-0.013	-0.048
-641.682	-200.000	0.005	-0.096
-640.668	176.708	-0.182	-0.266
-639.653	800.000	0.057	-0.226
-638.638	137.449	-0.136	0.179
-637.624	-69.186	0.125	-0.049
-636.609	-200.000	0.022	-0.202
-635.595	150.114	-0.049	0.067
-634.580	800.000	-0.036	-0.139
-633.565	177.227	0.119	-0.174
-632.551	15.446	0.383	-0.302
-631.536	79.458	-0.023	0.025
-630.522	-117.921	-0.399	-0.072
-629.507	174.412	0.152	-0.221
-628.492	119.282	0.196	-0.244
-627.478	-46.426	0.185	0.091
-626.463	-101.227	-0.091	-0.022
-625.449	52.812	0.110	0.106
-624.434	200.457	-0.037	0.057
-623.419	-13.160	0.118	0.077
-622.405	800.000	0.034	0.116
-621.390	-98.351	0.303	-0.078
-620.376	-200.000	-0.009	-0.171
-619.361	-200.000	0.005	0.233
-618.346	-49.146	-0.046	0.022
-617.332	120.745	-0.205	-0.256
-616.317	219.092	-0.141	0.226
-615.303	161.824	0.109	0.153
-614.288	263.643	0.029	0.051
-613.273	-163.356	0.135	0.006
-612.259	-200.000	0.017	-0.124
-611.244	18.499	-0.100	-0.080
-610.230	316.930	0.135	-0.256
-609.215	-200.000	-0.007	-0.064
-608.201	-154.103	-0.315	0.021
-607.186	43.812	0.109	0.100
-606.171	-156.404	0.226	0.014
-605.157	-200.000	0.009	-0.125
-604.142	93.910	-0.225	0.256
-603.128	800.000	-0.091	0.307
-602.113	126.929	0.306	-0.391
-601.098	-81.709	-0.245	-0.081
-600.084	779.199	-0.033	0.090
-599.069	60.484	0.195	-0.194
-598.055	57.931	0.185	0.182
-597.040	-200.000	-0.021	0.467
-596.025	-66.548	0.219	-0.087
-595.011	-98.327	-0.087	0.022
-593.996	-96.815	0.204	0.054
-592.982	183.234	0.102	-0.151
-591.967	233.550	-0.108	-0.178
-590.952	-200.000	0.007	-0.075
-589.938	-200.000	-0.018	0.471
-588.923	34.721	-0.098	0.086
-587.909	-200.000	0.053	0.247
-586.894	-89.618	-0.029	0.009
-585.879	-91.364	0.121	0.035
-584.865	800.000	-0.088	-0.255
-583.850	-173.022	-0.224	0.007
-582.836	-200.000	0.014	-0.382
-581.821	800.000	-0.007	-0.024
-580.806	-99.172	0.458	0.116
-579.792	-59.143	-0.361	-0.156
-578.777	-200.000	-0.032	0.143
-577.763	800.000	0.058	0.240
-576.748	800.000	-0.096	-0.342
-575.733	-88.566	0.619	-0.185
-574.719	65.859	-0.176	0.179
-573.704	-123.715	-0.038	0.006
-572.690	-37.402	0.124	-0.066
-571.675	-200.000	-0.047	-0.242
-570.661	-18.812	0.186	0.116
-569.646	37.298	0.088	0.078
-568.631	-153.196	-0.208	0.015
-567.617	-67.315	-0.111	0.044
-566.602	710.816	-0.114	0.302
-565.588	800.000	0.026	0.078
-564.573	-52.020	0.191	0.089
-563.558	-200.000	-0.068	0.335
-562.544	-142.581	-0.088	0.009
-561.529	18.562	-0.132	0.106
-560.515	94.138	-0.154	0.176
-559.500	-115.366	0.088	0.017
-558.485	-35.364	0.168	-0.092
-557.471	-200.000	0.017	0.120
-556.456	-79.947	-0.150	-0.051
-555.442	-200.000	0.028	-0.180
-554.427	-45.359	-0.272	-0.135
-553.412	215.672	0.061	0.096
-552.398	-117.587	0.209	-0.038
-551.383	800.000	0.042	0.146
-550.369	-22.459	0.082	-0.050
-549.354	143.421	-0.076	-0.101
-548.339	-163.134	0.284	-0.014
-547.325	-75.479	0.275	-0.098
-546.310	179.064	0.072	0.106
-545.296	526.332	-0.114	-0.269
-544.281	94.104	-0.223	-0.254
-543.266	-200.000	0.017	-0.099
-542.252	36.076	-0.183	0.162
-541.237	-113.239	-0.308	-0.061
-540.223	249.951	-0.050	-0.085
-539.208	-42.175	-0.191	-0.098
-538.193	494.680	-0.172	0.397
-537.179	162.357	0.088	-0.123
-536.164	-200.000	0.002	-0.062
-535.150	174.256	0.181	0.262
-534.135	27.786	0.068	-0.057
-533.121	-200.000	0.018	0.300
-532.106	-35.688	-0.063	0.034
-531.091	249.726	0.201	-0.341
-530.077	800.000	0.026	-0.100
-529.062	308.818	-0.163	0.305
-528.048	800.000	-0.034	0.101
-527.033	41.670	0.080	-0.073
-526.018	381.997	-0.131	0.270
-525.004	-102.897	-0.228	-0.054
-523.989	-47.985	-0.156	0.075
-522.975	-200.000	-0.030	0.256
-521.960	124.534	-0.221	-0.279
-520.945	-200.000	-0.006	-0.120
-519.931	-200.000	0.016	0.236
-518.916	544.873	-0.294	-0.705
-517.902	19.731	-0.269	-0.217
-516.887	-27.732	-0.348	0.202
-515.872	-200.000	0.003	-0.236
-514.858	248.787	-0.057	-0.097
-513.843	-7.371	-0.092	-0.063
-512.829	33.721	0.173	-0.151
-511.814	800.000	0.100	0.330
-510.799	62.232	-0.113	0.113
-509.785	-17.360	0.084	-0.053
-508.770	-200.000	-0.056	-0.289
-507.756	88.797	0.162	-0.181
-506.741	90.051	-0.281	-0.315
-505.726	-59.794	0.040	0.017
-504.712	37.053	-0.256	0.227
-503.697	46.781	-0.193	-0.180
-502.683	-183.849	0.304	0.005
-501.668	800.000	-0.064	-0.179
-500.653	-200.000	-0.042	0.311
-499.639	-29.116	0.116	-0.067
-498.624	-38.939	-0.088	-0.047
-497.610	800.000	0.014	-0.060
-496.595	-120.494	0.193	-0.033
-495.581	-176.098	-0.042	0.001
-494.566	800.000	0.070	0.299
-493.551	-20.132	-0.218	0.134
-492.537	-200.000	-0.036	-0.303
-491.522	-138.787	0.043	0.005
-490.508	15.066	0.227	-0.178
-489.493	500.558	-0.069	-0.160
-488.478	-40.574	-0.291	-0.151
-487.464	7.568	0.276	-0.207
-486.449	79.900	-0.228	0.245
-485.435	-155.778	0.235	-0.015
-484.420	-100.758	-0.077	0.019
-483.405	-63.317	0.069	-0.028
-482.391	88.579	0.095	-0.105
-481.376	-45.720	0.134	0.066
-480.362	-64.832	0.242	-0.098
-479.347	-200.000	-0.019	0.191
-478.332	-17.056	-0.275	0.173
-477.318	61.764	0.316	-0.315
-476.303	-120.810	-0.506	-0.085
-475.289	-52.766	-0.103	0.048
-474.274	33.042	0.174	0.151
-473.259	81.011	0.197	0.213
-472.245	48.549	-0.213	0.200
-471.230	-48.354	0.167	0.081
-470.216	246.500	-0.074	-0.124
-469.201	800.000	0.037	-0.133
-468.186	249.773	0.086	0.147
-467.172	743.508	0.005	0.013
-466.157	514.109	-0.127	-0.296
-465.143	-86.955	-0.401	-0.122
-464.128	-165.547	0.362	-0.016
-463.113	-62.615	-0.156	0.065
-462.099	-184.389	-0.043	0.001
-461.084	-129.696	-0.041	-0.006
-460.070	115.967	-0.195	-0.238
-459.055	535.416	0.131	-0.311
-458.040	-200.000	-0.062	-0.287
-457.026	676.122	-0.131	-0.339
-456.011	-29.287	0.100	-0.057
-454.997	-99.930	-0.201	0.050
-453.982	236.777	0.147	0.243
-452.968	63.648	0.118	0.118
-451.953	-200.000	0.014	0.249
-450.938	234.105	-0.100	-0.165
-449.924	26.336	-0.225	0.188
-448.909	161.909	-0.034	0.048
-447.895	-17.889	-0.355	0.222
-446.880	579.468	0.029	0.071
-445.865	-119.600	-0.261	-0.045
-444.851	3.208	0.117	-0.085
-443.836	-200.000	0.039	-0.193
-442.822	132.709	-0.099	-0.128
-441.807	154.311	0.059	0.081
-440.792	-121.843	0.155	-0.026
-439.778	3.606	0.257	0.187
-438.763	-97.111	-0.102	-0.027
-437.749	134.099	-0.082	0.106
-436.734	-200.000	-0.026	-0.271
-435.719	28.974	0.145	0.123
-434.705	-186.741	-0.365	-0.005
-433.690	-79.804	0.417	-0.140
-432.676	53.706	0.073	0.070
-431.661	289.673	0.103	-0.186
-430.646	87.699	-0.117	0.129
-429.632	-200.000	0.011	0.442
-428.617	81.816	-0.228	0.246
-427.603	-169.718	-0.463	0.017
-426.588	-81.221	-0.223	0.074
-425.573	15.192	0.029	0.023
-424.559	-200.000	-0.002	0.275
-423.544	41.874	-0.087	-0.079
-422.530	-33.873	-0.146	0.080
-421.515	-200.000	0.015	0.288
-420.500	-200.000	-0.006	-0.232
-419.486	112.537	-0.142	0.172
-418.471	186.724	0.051	0.076
-417.457	562.479	-0.128	-0.308
-416.442	-48.859	0.158	0.076
-415.428	495.411	0.109	0.250
-414.413	234.045	0.196	0.322
-413.398	800.000	-0.080	0.267
-412.384	22.452	-0.286	0.233
-411.369	625.462	0.032	-0.081
-410.355	-73.571	-0.204	0.074
-409.340	105.480	0.047	0.056
-408.325	-30.151	0.178	0.101
-407.311	800.000	-0.081	-0.251
-406.296	-200.000	-0.019	-0.289
-405.282	-178.729	0.073	-0.002
-404.267	1.348	-0.055	0.040
-403.252	-96.811	-0.178	-0.047
-402.238	-56.166	0.264	0.117
-401.223	-94.035	0.371	0.101
-400.209	-200.000	0.006	-0.049
-399.194	-102.687	0.246	0.059
-398.179	18.874	0.140	0.111
-397.165	43.761	0.087	0.079
-396.150	338.545	-0.106	0.205
-395.136	209.305	0.141	0.220
-394.121	-200.000	0.013	-0.339
-393.106	787.027	-0.019	-0.051
-392.092	31.468	-0.079	0.068
-391.077	31.422	-0.090	-0.077
-390.063	552.277	0.164	0.394
-389.048	-78.159	-0.256	0.088
-388.033	-200.000	-0.016	-0.284
-387.019	26.261	0.186	0.155
-386.004	-90.141	-0.095	-0.028
-384.990	17.359	-0.251	-0.199
-383.975	800.000	0.084	0.276
-382.960	-200.000	0.011	-0.195
-381.946	54.981	-0.046	-0.045
-380.931	-62.369	-0.318	-0.132
-379.917	24.423	-0.173	0.143
-378.902	720.012	0.074	-0.195
-377.888	-200.000	-0.015	-0.183
-376.873	-128.335	0.236	0.033
-375.858	800.000	0.027	0.104
-374.844	800.000	0.010	0.044
-373.829	100.552	0.135	-0.156
-372.815	-50.791	0.225	-0.106
-371.800	-200.000	0.042	-0.198
-370.785	29.746	0.173	-0.146
-369.771	83.296	0.127	0.138
-368.756	-104.161	0.060	-0.014
-367.742	407.781	-0.093	0.195
-366.727	-200.000	0.019	-0.322
-365.712	-109.225	-0.280	-0.059
-364.698	-85.365	0.217	0.067
-363.683	-121.858	0.201	-0.033
-362.669	-200.000	0.000	0.062
-361.654	-157.760	0.127	0.007
-360.639	72.595	-0.093	-0.096
-359.625	-158.006	0.173	-0.010
-358.610	-200.000	-0.029	0.466
-357.596	-75.814	0.189	0.067
-356.581	-16.821	0.141	-0.089
-355.566	-106.186	-0.227	0.051
-354.552	440.429	-0.161	-0.350
-353.537	37.443	0.128	-0.113
-352.523	-193.611	0.187	0.002
-351.508	449.226	-0.129	-0.283
-350.493	232.937	0.131	-0.215
-349.479	1.533	-0.126	-0.090
-348.464	351.800	0.095	-0.188
-347.450	-106.269	0.164	0.037
-346.435	-200.000	-0.030	0.142
-345.420	609.714	0.067	-0.167
-344.406	-43.412	-0.270	-0.136
-343.391	-0.119	0.153	-0.109
-342.377	-97.669	0.118	0.030
-341.362	-115.386	0.239	0.045
-340.348	59.838	-0.272	0.267
-339.333	192.075	-0.078	-0.118
-338.318	-142.334	0.285	-0.028
-337.304	-135.786	-0.219	0.026
-336.289	52.904	-0.232	-0.221
-335.275	91.422	-0.258	-0.288
-334.260	-107.819	0.296	-0.064
-333.245	199.332	0.137	0.209
-332.231	-168.213	0.275	-0.011
-331.216	180.550	-0.141	0.206
-330.202	800.000	0.078	-0.238
-329.187	14.589	0.176	0.136
-328.172	-66.418	-0.269	0.106
-327.158	30.372	0.087	0.074
-326.143	-86.949	-0.571	-0.173
-325.129	-30.922	0.066	0.037
-324.114	201.948	0.089	0.137
-323.099	-107.067	-0.265	0.058
-322.085	239.080	0.103	-0.171
-321.070	691.640	-0.053	0.137
-320.056	37.180	-0.281	0.247
-319.041	-200.000	-0.092	0.435
-318.026	-143.751	-0.232	-0.022
-317.012	264.028	-0.192	0.331
-315.997	-61.368	0.110	0.046
-314.983	-85.684	-0.478	0.147
-313.968	122.661	0.084	0.105
-312.953	564.467	0.094	0.228
-311.939	-159.680	0.203	-0.011
-310.924	-20.646	0.146	-0.089
-309.910	800.000	-0.057	0.166
-308.895	94.119	-0.121	0.137
-307.880	-76.283	-0.156	0.055
-306.866	70.175	-0.008	0.008
-305.851	800.000	0.017	0.068
-304.837	43.219	0.230	0.209
-303.822	-200.000	-0.051	0.290
-302.807	-117.682	0.257	-0.046
-301.793	-56.394	-0.178	0.079
-300.778	20.053	0.100	-0.080
-299.764	-107.415	0.453	-0.099
-298.749	328.334	0.053	-0.101
-297.735	-1.254	0.136	0.096
-296.720	-200.000	0.010	0.095
-295.705	-112.660	0.119	-0.023
-294.691	17.920	0.235	-0.186
-293.676	27.811	-0.496	-0.415
-292.662	-11.980	0.125	0.081
-291.647	800.000	0.029	-0.108
-290.632	-200.000	-0.054	-0.264
-289.618	155.362	0.200	0.273
-288.603	321.910	-0.107	0.203
-287.589	-16.576	0.033	-0.021
-286.574	800.000	-0.109	-0.379
-285.559	362.039	0.134	-0.266
-284.545	266.647	-0.194	-0.337
-283.530	800.000	0.048	0.137
-282.516	133.409	-0.094	0.121
-281.501	800.000	0.062	-0.170
-280.486	-28.619	-0.302	0.173
-279.472	533.259	0.014	0.034
-278.457	223.791	-0.105	-0.168
-277.443	-51.137	0.193	-0.090
-276.428	-135.200	-0.429	0.051
-275.413	-9.929	0.261	0.172
-274.399	-60.035	0.150	-0.063
-273.384	379.822	-0.082	0.166
-272.370	-200.000	0.011	-0.148
-271.355	-102.714	0.192	-0.045
-270.340	-31.586	-0.284	0.159
-269.326	123.759	0.332	-0.414
-268.311	-200.000	0.096	-0.421
-267.297	-145.385	-0.157	0.014
-266.282	251.771	0.129	-0.218
-265.267	-37.988	0.125	0.066
-264.253	-103.969	-0.289	-0.067
-263.238	-200.000	-0.007	0.353
-262.224	-200.000	0.038	0.267
-261.209	-128.363	0.221	0.031
-260.195	-200.000	0.012	0.092
-259.180	-152.877	0.264	0.019
-258.165	399.435	-0.124	0.258
-257.151	12.399	0.147	0.113
-256.136	-82.180	0.301	-0.097
-255.122	201.467	0.206	-0.315
-254.107	227.961	-0.129	0.208
-253.092	-17.691	0.183	0.114
-252.078	-82.317	0.199	0.064
-251.063	219.369	0.128	-0.203
-250.049	-200.000	-0.066	-0.328
-249.034	87.013	-0.178	-0.195
-248.019	545.519	-0.121	-0.287
-247.005	-200.000	-0.004	0.173
-245.990	62.235	-0.037	0.036
-244.976	-101.811	0.131	-0.031
-243.961	-200.000	0.021	0.111
-242.946	-126.621	-0.298	0.044
-241.932	273.783	0.085	0.149
-240.917	-200.000	0.031	-0.171
-239.903	-156.968	0.388	0.024
-238.888	40.106	-0.101	0.090
-237.873	-200.000	0.046	0.216
-236.859	-200.000	0.012	-0.163
-235.844	-113.356	-0.193	0.038
-234.830	800.000	-0.047	0.157
-233.815	23.890	-0.162	-0.132
-232.800	24.139	0.134	-0.110
-231.786	-145.121	0.121	0.011
-230.771	124.851	0.232	0.290
-229.757	-107.341	-0.041	-0.009
-228.742	-135.495	-0.294	0.035
-227.727	261.454	0.060	-0.103
-226.713	124.809	0.104	0.130
-225.698	243.142	0.083	0.138
-224.684	-125.426	-0.185	0.028
-223.669	7.961	-0.319	0.237
-222.655	99.506	-0.161	0.185
-221.640	-105.368	-0.048	0.011
-220.625	-14.042	0.112	-0.071
-219.611	-200.000	-0.029	0.356
-218.596	22.031	-0.294	-0.237
-217.582	-200.000	0.058	-0.367
-216.567	800.000	0.075	0.276
-215.552	-108.665	0.167	-0.035
-214.538	72.804	0.024	-0.025
-213.523	-41.095	0.247	0.126
-212.509	-200.000	0.043	0.238
-211.494	68.044	0.259	0.262
-210.479	-200.000	-0.003	-0.176
-209.465	-200.000	-0.056	0.269
-208.450	-189.815	-0.352	0.004
-207.436	230.185	0.075	-0.121
-206.421	506.890	0.127	-0.292
-205.406	-32.868	0.070	0.039
-204.392	-134.239	-0.125	0.015
-203.377	7.653	-0.106	0.078
-202.363	-200.000	-0.035	0.187
-201.348	-71.965	0.134	0.049
-200.333	-200.000	-0.034	0.156
-199.319	-124.376	0.353	-0.055
-198.304	-191.628	0.200	-0.002
-197.290	17.771	0.148	0.117
-196.275	119.217	-0.378	-0.463
-195.260	74.353	-0.196	-0.204
-194.246	162.855	0.189	0.263
-193.231	-200.000	-0.034	-0.158
-192.217	-86.449	0.094	-0.029
-191.202	460.215	-0.061	0.135
-190.187	186.233	-0.057	0.084
-189.173	94.344	0.116	-0.131
-188.158	800.000	0.057	0.227
-187.144	13.275	0.135	-0.103
-186.129	124.117	-0.266	0.330
-185.114	373.761	-0.087	0.175
-184.100	-140.444	0.357	0.037
-183.085	357.603	0.050	-0.099
-182.071	707.125	-0.079	-0.207
-181.056	120.845	0.017	-0.020
-180.042	-57.603	0.076	-0.033
-179.027	-200.000	0.016	-0.135
-178.012	55.373	-0.160	-0.153
-176.998	76.677	0.024	0.025
-175.983	32.350	0.148	-0.127
-174.969	-58.397	-0.119	0.051
-173.954	-48.372	0.276	-0.131
-172.939	-200.000	-0.008	-0.051
-171.925	800.000	-0.093	-0.350
-170.910	127.668	-0.149	-0.187
-169.896	-133.186	0.131	0.016
-168.881	39.455	0.097	0.086
-167.866	-78.396	-0.208	0.070
-166.852	-95.660	-0.043	0.012
-165.837	156.069	-0.271	0.369
-164.823	-92.972	-0.501	0.138
-163.808	99.638	-0.275	0.315
-162.793	148.494	-0.071	-0.095
-161.779	276.414	0.060	-0.106
-160.764	185.117	0.025	0.036
-159.750	-27.502	0.559	0.321
-158.735	-91.298	0.337	-0.095
-157.720	-200.000	0.001	0.302
-156.706	291.180	0.016	-0.029
-155.691	-57.522	-0.122	-0.053
-154.677	-200.000	0.032	-0.144
-153.662	-200.000	-0.020	0.229
-152.647	-200.000	-0.011	0.364
-151.633	-53.594	0.170	-0.077
-150.618	-44.575	0.138	-0.068
-149.604	-125.331	0.196	-0.030
-148.589	800.000	-0.024	0.077
-147.574	800.000	0.049	0.139
-146.560	800.000	-0.028	-0.112
-145.545	-12.766	-0.235	-0.151
-144.531	363.325	0.158	-0.313
-143.516	-200.000	0.021	0.349
-142.502	-110.616	0.229	0.047
-141.487	154.241	-0.026	-0.036
-140.472	-156.824	-0.424	-0.026
-139.458	800.000	-0.092	0.352
-138.443	185.847	0.044	-0.065
-137.429	-200.000	0.020	0.200
-136.414	-59.784	0.438	-0.185
-135.399	-200.000	-0.044	-0.351
-134.385	103.992	0.166	-0.193
-133.370	-179.285	-0.479	0.010
-132.356	-72.488	-0.179	0.065
-131.341	-200.000	0.034	0.167
-130.326	15.480	-0.029	-0.022
-129.312	-200.000	0.023	-0.121
-128.297	-118.813	0.007	-0.001
-127.283	332.030	0.090	0.171
-126.268	-155.523	-0.206	0.013
-125.253	800.000	-0.112	-0.328
-124.239	-86.818	-0.379	0.114
-123.224	-72.126	-0.152	-0.056
-122.210	-139.744	0.141	0.015
-121.195	-123.438	0.164	-0.026
