DTS Sentinel unit serial number:	SN413079Multiplexer serial number:	ORYXHardware model number:	OX4-SRSoftware version number:	ORYX F/W v4.00 Oryx Data Collector v3.7.2.0data status	okinstallation	princeton_trtdifferential loss correction	single-endedforward channel	channel 1reverse channel	N/Adate	2019/09/15time	06:18:35forward acquisition time	60.00reverse acquisition time	0.00gamma	496.2192k internal	0.2325k external	0.2325temperature offset calibration	0.9994default loss term (dB/km)	0.3790temperature slope calibration	1.0000multiplexer offset coefficient	1.0000multiplexer slope coefficient	1.0000fibre end	0.00T internal ref (°C)	30.55T ext. ref 1 (°C)	4.84T ext. ref 2 (°C)	25.18length (m)	temperature (°C)	Stokes	anti-Stokes-747.200	-200.000	0.042	-0.261
-746.185	-194.669	-0.268	-0.002
-745.171	11.119	-0.252	-0.194
-744.156	344.632	-0.016	0.032
-743.142	-200.000	0.034	0.228
-742.127	-200.000	-0.006	-0.053
-741.112	-11.010	0.117	-0.078
-740.098	-200.000	0.013	0.228
-739.083	326.093	0.189	-0.366
-738.069	659.150	-0.101	-0.263
-737.054	-200.000	0.022	-0.139
-736.039	27.002	-0.120	-0.102
-735.025	-19.938	0.083	-0.052
-734.010	-124.710	-0.203	-0.032
-732.996	22.205	-0.143	-0.118
-731.981	39.915	0.458	-0.415
-730.966	-200.000	-0.027	-0.233
-729.952	-96.523	-0.437	0.116
-728.937	199.545	-0.173	-0.267
-727.923	-51.261	-0.113	-0.053
-726.908	800.000	-0.056	-0.240
-725.894	-137.442	-0.188	-0.021
-724.879	149.334	0.184	0.251
-723.864	-161.268	-0.586	0.031
-722.850	800.000	-0.162	-0.492
-721.835	328.735	0.134	-0.260
-720.821	-64.967	-0.431	-0.176
-719.806	-98.960	0.283	0.073
-718.791	181.723	-0.194	-0.287
-717.777	-23.535	-0.253	-0.153
-716.762	202.518	-0.204	-0.318
-715.748	-200.000	0.029	-0.197
-714.733	-153.913	-0.291	0.020
-713.718	538.259	0.031	-0.075
-712.704	-37.249	-0.351	-0.189
-711.689	128.203	-0.057	0.073
-710.675	341.590	0.107	-0.210
-709.660	-6.669	-0.054	0.037
-708.645	-200.000	0.042	-0.305
-707.631	85.195	-0.178	-0.197
-706.616	-50.562	-0.136	-0.065
-705.602	-24.779	-0.383	-0.229
-704.587	378.240	0.037	-0.077
-703.572	-36.734	0.157	0.085
-702.558	688.458	-0.068	-0.180
-701.543	52.398	0.130	-0.125
-700.529	-125.644	0.315	0.048
-699.514	24.163	-0.194	-0.161
-698.499	-88.945	0.165	0.049
-697.485	-66.966	-0.161	0.064
-696.470	-115.516	-0.355	0.067
-695.456	39.531	-0.092	0.083
-694.441	-146.033	0.145	0.013
-693.426	-200.000	-0.004	-0.120
-692.412	-74.498	-0.181	0.066
-691.397	77.279	-0.136	0.145
-690.383	-119.748	0.275	-0.048
-689.368	-92.961	0.077	0.022
-688.354	-111.332	0.318	0.065
-687.339	-57.213	-0.074	0.033
-686.324	21.090	-0.178	0.145
-685.310	63.783	-0.121	-0.123
-684.295	-104.100	0.104	0.024
-683.281	35.925	0.189	-0.168
-682.266	47.659	0.086	0.081
-681.251	788.467	0.078	0.215
-680.237	-200.000	0.077	0.452
-679.222	800.000	-0.040	-0.111
-678.208	-44.846	-0.215	-0.108
-677.193	597.582	0.026	0.065
-676.178	-137.401	0.052	-0.006
-675.164	-37.244	0.258	0.139
-674.149	-13.036	-0.140	-0.092
-673.135	-200.000	-0.040	-0.298
-672.120	-173.721	-0.227	-0.007
-671.105	-51.927	0.092	0.043
-670.091	-80.941	-0.135	0.045
-669.076	800.000	-0.137	0.472
-668.062	-200.000	0.018	0.249
-667.047	-122.679	-0.232	0.038
-666.032	37.085	0.176	0.157
-665.018	218.816	0.030	0.049
-664.003	-1.966	0.077	-0.055
-662.989	-146.855	0.107	-0.009
-661.974	-14.911	-0.081	0.052
-660.959	-200.000	-0.022	0.182
-659.945	-63.672	0.165	-0.068
-658.930	-93.434	0.244	-0.068
-657.916	12.002	-0.190	0.147
-656.901	-94.418	-0.169	-0.046
-655.886	2.449	-0.275	-0.200
-654.872	383.759	0.104	-0.215
-653.857	-200.000	-0.022	0.157
-652.843	-4.288	-0.223	-0.155
-651.828	-200.000	0.032	0.169
-650.814	-129.971	-0.326	-0.045
-649.799	-200.000	-0.004	-0.431
-648.784	56.994	0.035	-0.034
-647.770	125.727	0.238	-0.302
-646.755	270.024	-0.064	-0.113
-645.741	800.000	-0.053	-0.222
-644.726	-200.000	-0.047	0.243
-643.711	800.000	-0.043	0.152
-642.697	-146.666	-0.126	0.011
-641.682	-124.525	0.330	-0.051
-640.668	-200.000	0.015	0.269
-639.653	38.752	-0.108	0.097
-638.638	-72.225	-0.240	0.089
-637.624	212.608	-0.138	0.219
-636.609	19.196	-0.201	-0.162
-635.595	53.233	0.171	0.165
-634.580	22.268	-0.257	-0.211
-633.565	-20.587	0.294	0.182
-632.551	58.065	0.156	-0.154
-631.536	-109.389	0.279	0.059
-630.522	45.359	-0.137	-0.127
-629.507	-87.566	-0.156	0.047
-628.492	21.560	0.150	0.122
-627.478	-200.000	-0.024	0.290
-626.463	-142.048	-0.213	-0.021
-625.449	-33.939	0.136	0.075
-624.434	80.497	-0.039	0.043
-623.419	-54.420	-0.285	0.130
-622.405	-146.653	-0.163	0.014
-621.390	-200.000	-0.001	-0.076
-620.376	155.862	0.024	-0.033
-619.361	-23.983	0.098	-0.059
-618.346	800.000	0.018	0.076
-617.332	52.887	0.049	0.048
-616.317	-29.296	0.017	-0.010
-615.303	353.827	0.086	-0.171
-614.288	-200.000	0.122	-0.000
-613.273	-91.787	0.195	0.056
-612.259	427.875	0.083	0.180
-611.244	-18.329	-0.044	0.028
-610.230	144.952	0.157	-0.211
-609.215	-117.687	0.211	0.038
-608.201	-46.035	0.303	-0.150
-607.186	151.089	0.156	0.213
-606.171	-120.536	0.028	0.005
-605.157	660.440	0.069	-0.178
-604.142	-17.419	0.089	0.056
-603.128	-149.093	-0.288	0.023
-602.113	-200.000	0.020	-0.152
-601.098	-30.580	-0.226	-0.128
-600.084	182.982	-0.069	0.103
-599.069	-73.450	0.188	0.069
-598.055	-79.294	0.187	0.063
-597.040	-17.675	0.191	0.120
-596.025	-200.000	0.005	-0.163
-595.011	-196.825	-0.226	0.001
-593.996	245.135	0.178	-0.300
-592.982	-75.089	-0.286	0.103
-591.967	-13.548	0.361	-0.234
-590.952	-73.225	0.061	0.022
-589.938	-25.942	-0.060	0.036
-588.923	69.312	0.180	-0.185
-587.909	639.291	0.051	0.130
-586.894	-102.749	0.099	-0.024
-585.879	106.143	0.114	0.135
-584.865	800.000	0.073	0.267
-583.850	800.000	0.052	-0.177
-582.836	800.000	-0.049	0.164
-581.821	136.825	0.103	-0.135
-580.806	-79.530	-0.432	0.146
-579.792	340.777	0.133	-0.260
-578.777	800.000	0.048	-0.187
-577.763	-65.991	-0.209	0.084
-576.748	2.586	0.128	0.093
-575.733	107.352	0.156	0.186
-574.719	-5.579	0.018	0.012
-573.704	-40.275	0.047	-0.024
-572.690	140.554	0.126	0.167
-571.675	-75.172	-0.142	0.051
-570.661	-16.345	0.149	0.095
-569.646	800.000	-0.032	0.112
-568.631	142.755	-0.116	0.155
-567.617	-51.528	-0.278	-0.130
-566.602	-163.564	-0.116	-0.005
-565.588	59.124	0.137	-0.135
-564.573	171.145	-0.136	-0.195
-563.558	227.289	0.100	-0.163
-562.544	288.490	-0.102	-0.185
-561.529	89.414	-0.121	-0.135
-560.515	-200.000	-0.002	-0.161
-559.500	-18.876	0.078	0.049
-558.485	-56.553	-0.201	-0.089
-557.471	60.320	-0.313	-0.310
-556.456	-106.545	-0.246	-0.055
-555.442	285.176	0.153	0.276
-554.427	-56.775	-0.195	-0.086
-553.412	800.000	-0.078	0.256
-552.398	-6.718	0.076	0.052
-551.383	-68.996	0.368	-0.142
-550.369	-106.189	0.256	-0.057
-549.354	192.074	0.054	-0.081
-548.339	-19.665	-0.072	0.044
-547.325	185.064	-0.047	-0.070
-546.310	800.000	-0.054	0.211
-545.296	-200.000	-0.215	0.000
-544.281	-137.839	-0.114	-0.013
-543.266	106.929	-0.100	0.118
-542.252	-127.804	0.045	0.007
-541.237	7.037	-0.042	0.031
-540.223	108.507	0.224	-0.268
-539.208	-31.222	0.182	0.103
-538.193	559.060	-0.149	-0.361
-537.179	585.217	0.078	-0.192
-536.164	26.350	-0.331	-0.277
-535.150	155.456	0.279	0.385
-534.135	800.000	-0.044	0.155
-533.121	248.172	-0.184	-0.312
-532.106	800.000	0.030	-0.128
-531.091	-26.879	0.112	0.065
-530.077	121.878	-0.008	0.010
-529.062	297.132	-0.186	0.342
-528.048	122.628	-0.084	-0.105
-527.033	-200.000	0.021	0.292
-526.018	133.080	0.035	-0.046
-525.004	-2.743	-0.197	0.138
-523.989	800.000	-0.107	-0.412
-522.975	87.692	0.075	0.083
-521.960	-104.538	-0.288	0.067
-520.945	-75.055	-0.147	0.052
-519.931	72.855	0.095	-0.100
-518.916	624.163	-0.098	0.247
-517.902	35.339	0.207	0.182
-516.887	340.859	-0.046	-0.090
-515.872	-22.946	-0.140	-0.084
-514.858	-13.093	-0.152	-0.099
-513.843	170.616	0.095	-0.137
-512.829	16.544	-0.131	0.104
-511.814	565.292	-0.054	-0.130
-510.799	432.898	-0.109	-0.236
-509.785	353.649	0.055	0.108
-508.770	-64.853	-0.082	0.033
-507.756	800.000	-0.061	-0.177
-506.741	-200.000	0.031	-0.166
-505.726	-30.048	-0.154	-0.088
-504.712	247.618	0.326	0.551
-503.697	241.949	-0.067	0.113
-502.683	-43.249	-0.222	-0.112
-501.668	-171.641	0.355	-0.012
-500.653	54.558	0.100	-0.097
-499.639	220.634	-0.065	-0.103
-498.624	-36.709	-0.140	-0.075
-497.610	170.892	-0.186	-0.266
-496.595	469.271	0.095	-0.213
-495.581	510.278	-0.166	0.387
-494.566	-200.000	0.034	-0.264
-493.551	336.108	0.118	-0.230
-492.537	800.000	-0.050	0.161
-491.522	187.701	0.221	-0.329
-490.508	292.463	0.079	-0.143
-489.493	-200.000	0.073	0.345
-488.478	-41.888	0.108	-0.055
-487.464	-200.000	-0.009	0.145
-486.449	10.314	-0.093	-0.070
-485.435	78.401	0.225	0.241
-484.420	-200.000	0.021	0.478
-483.405	-63.987	0.043	0.018
-482.391	10.785	0.267	0.203
-481.376	-200.000	-0.090	0.427
-480.362	74.416	0.065	0.068
-479.347	-74.589	-0.073	0.026
-478.332	27.055	-0.066	-0.056
-477.318	6.068	0.128	0.095
-476.303	-200.000	-0.005	0.289
-475.289	-46.840	-0.074	0.036
-474.274	228.945	0.078	-0.127
-473.259	-200.000	-0.007	-0.103
-472.245	2.594	-0.183	0.132
-471.230	-200.000	0.003	0.289
-470.216	-128.575	-0.227	0.032
-469.201	800.000	0.016	0.046
-468.186	-37.296	-0.196	0.104
-467.172	98.100	0.045	0.051
-466.157	-76.317	-0.413	0.145
-465.143	-80.317	0.427	-0.143
-464.128	39.818	-0.130	0.116
-463.113	-29.901	0.326	0.186
-462.099	-200.000	0.059	0.335
-461.084	-112.003	-0.470	0.095
-460.070	800.000	0.054	-0.214
-459.055	-106.025	-0.086	-0.019
-458.040	800.000	0.078	0.323
-457.026	-169.236	-0.101	0.004
-456.011	800.000	-0.155	0.484
-454.997	-200.000	0.000	-0.078
-453.982	-147.399	0.107	0.009
-452.968	800.000	-0.042	0.155
-451.953	65.231	0.159	-0.160
-450.938	-137.287	0.372	0.042
-449.924	-47.548	0.069	-0.034
-448.909	-118.483	-0.244	0.043
-447.895	151.706	0.106	-0.144
-446.880	-73.002	-0.392	-0.144
-445.865	-176.279	0.178	-0.005
-444.851	-34.986	-0.162	-0.088
-443.836	-165.301	0.262	-0.011
-442.822	-86.324	-0.137	0.042
-441.807	-171.078	-0.139	0.005
-440.792	118.185	-0.086	0.105
-439.778	-58.059	-0.304	0.132
-438.763	-145.072	0.272	0.025
-437.749	-33.780	-0.049	0.027
-436.734	129.917	0.166	-0.212
-435.719	63.550	0.140	0.140
-434.705	649.873	0.108	-0.276
-433.690	133.741	0.114	0.147
-432.676	16.955	0.216	-0.171
-431.661	-17.680	-0.471	-0.295
-430.646	-133.048	-0.209	-0.026
-429.632	233.029	-0.137	-0.224
-428.617	36.506	0.051	-0.045
-427.603	-24.791	-0.119	0.071
-426.588	800.000	0.065	-0.249
-425.573	672.473	0.047	0.121
-424.559	103.989	0.040	-0.046
-423.544	-130.288	0.199	-0.027
-422.530	800.000	-0.139	-0.414
-421.515	-200.000	0.017	-0.219
-420.500	-106.030	0.060	0.014
-419.486	346.639	0.074	-0.146
-418.471	-57.077	0.077	0.034
-417.457	130.476	0.228	-0.290
-416.442	100.538	0.047	0.054
-415.428	-89.080	-0.375	0.111
-414.413	-120.321	-0.628	-0.107
-413.398	136.177	0.288	-0.374
-412.384	-60.721	-0.170	0.072
-411.369	60.304	-0.135	0.133
-410.355	-113.767	0.285	-0.055
-409.340	-67.758	0.396	-0.154
-408.325	11.838	0.116	-0.089
-407.311	591.870	-0.092	-0.225
-406.296	-200.000	0.258	-0.001
-405.282	-171.715	0.107	0.004
-404.267	-73.880	-0.307	-0.111
-403.252	91.403	-0.207	-0.232
-402.238	136.452	0.203	0.264
-401.223	46.169	-0.251	-0.232
-400.209	-49.609	-0.278	-0.132
-399.194	-111.816	0.454	-0.091
-398.179	208.340	-0.148	-0.231
-397.165	227.134	0.070	-0.114
-396.150	-29.055	-0.032	-0.019
-395.136	-88.115	0.220	-0.066
-394.121	542.862	0.144	0.342
-393.106	-89.170	-0.147	0.043
-392.092	550.026	0.062	0.149
-391.077	-200.000	-0.015	-0.284
-390.063	-80.893	0.145	-0.048
-389.048	206.876	0.210	0.326
-388.033	-103.228	0.288	-0.068
-387.019	10.828	0.255	0.194
-386.004	10.400	-0.098	0.074
-384.990	-200.000	-0.081	-0.357
-383.975	-100.690	0.185	0.045
-382.960	11.946	0.084	0.064
-381.946	-147.940	-0.317	-0.026
-380.931	219.341	-0.126	-0.200
-379.917	800.000	-0.064	-0.220
-378.902	-84.296	-0.229	-0.072
-377.888	-200.000	-0.072	0.356
-376.873	800.000	0.018	-0.075
-375.858	18.473	0.139	0.111
-374.844	-200.000	0.038	0.223
-373.829	264.066	-0.193	-0.334
-372.815	-51.807	-0.372	-0.172
-371.800	612.773	-0.058	-0.144
-370.785	-4.254	-0.158	0.109
-369.771	86.829	0.235	-0.257
-368.756	-63.029	-0.391	0.161
-367.742	-171.937	-0.105	-0.003
-366.727	219.723	0.125	0.199
-365.712	22.422	0.229	0.186
-364.698	3.572	0.197	-0.143
-363.683	-200.000	-0.000	-0.388
-362.669	-177.279	0.287	0.007
-361.654	-10.437	-0.231	-0.152
-360.639	46.438	0.223	0.206
-359.625	800.000	0.033	-0.139
-358.610	586.665	0.091	-0.223
-357.596	800.000	0.041	-0.135
-356.581	-200.000	0.029	-0.317
-355.566	192.831	-0.160	0.240
-354.552	-10.251	-0.178	0.118
-353.537	-114.145	-0.220	0.042
-352.523	183.110	0.052	0.077
-351.508	309.759	-0.088	0.163
-350.493	-87.727	-0.072	-0.022
-349.479	31.126	-0.145	-0.123
-348.464	-102.621	0.259	0.061
-347.450	-163.254	0.349	-0.017
-346.435	-130.104	0.179	0.024
-345.420	-45.202	-0.134	0.066
-344.406	143.328	-0.254	0.336
-343.391	114.248	-0.286	0.346
-342.377	340.530	-0.128	-0.248
-341.362	800.000	-0.022	-0.070
-340.348	25.709	0.172	-0.142
-339.333	142.118	-0.106	-0.140
-338.318	-47.633	0.350	0.169
-337.304	-106.614	-0.164	-0.036
-336.289	-61.030	-0.236	-0.099
-335.275	800.000	0.010	-0.033
-334.260	-104.497	0.273	-0.063
-333.245	-200.000	0.053	0.381
-332.231	-5.726	0.199	0.135
-331.216	418.508	0.081	0.173
-330.202	86.898	0.067	0.074
-329.187	451.855	-0.085	0.186
-328.172	305.054	0.106	0.196
-327.158	-40.145	0.134	0.069
-326.143	227.627	-0.149	-0.240
-325.129	379.313	0.123	-0.250
-324.114	-200.000	0.007	-0.049
-323.099	800.000	-0.064	-0.216
-322.085	-99.111	0.311	0.078
-321.070	330.396	0.049	0.094
-320.056	-200.000	-0.038	-0.323
-319.041	800.000	0.047	0.169
-318.026	-39.366	0.329	0.171
-317.012	800.000	0.029	-0.098
-315.997	226.012	-0.103	-0.165
-314.983	-200.000	0.048	0.421
-313.968	-114.632	0.358	0.068
-312.953	-174.355	0.140	0.004
-311.939	-29.607	-0.130	0.073
-310.924	112.369	-0.131	-0.157
-309.910	-130.296	-0.399	0.054
-308.895	-51.881	0.151	0.070
-307.880	-70.764	-0.256	0.096
-306.866	-53.919	-0.312	0.141
-305.851	-80.507	-0.016	0.005
-304.837	-47.646	-0.237	0.114
-303.822	14.584	-0.092	0.071
-302.807	550.374	-0.023	0.055
-301.793	-103.784	0.346	0.080
-300.778	-18.998	-0.162	0.100
-299.764	-200.000	-0.047	0.519
-298.749	-200.000	-0.054	0.307
-297.735	800.000	-0.060	-0.185
-296.720	-26.953	0.286	-0.166
-295.705	-150.960	-0.172	0.013
-294.691	251.611	0.080	0.135
-293.676	-123.767	-0.173	-0.027
-292.662	-187.958	0.254	-0.003
-291.647	324.555	-0.083	0.157
-290.632	76.072	-0.056	0.058
-289.618	45.202	-0.099	0.090
-288.603	800.000	0.084	-0.271
-287.589	62.937	-0.214	0.212
-286.574	-200.000	-0.023	0.393
-285.559	-200.000	-0.023	0.237
-284.545	-111.641	0.384	-0.077
-283.530	-140.608	-0.280	0.029
-282.516	-170.617	-0.372	0.013
-281.501	-200.000	-0.015	0.182
-280.486	-49.986	-0.088	-0.042
-279.472	152.073	-0.066	0.089
-278.457	397.137	-0.052	0.107
-277.443	-32.449	0.040	-0.022
-276.428	-23.290	0.210	0.125
-275.413	-200.000	0.001	0.210
-274.399	115.471	0.182	0.220
-273.384	-61.696	-0.083	-0.034
-272.370	313.652	-0.052	-0.096
-271.355	-108.736	0.271	-0.057
-270.340	481.709	-0.081	-0.183
-269.326	232.461	0.182	0.296
-268.311	800.000	0.041	0.121
-267.297	-200.000	0.012	-0.295
-266.282	-200.000	0.000	-0.019
-265.267	15.613	0.257	0.200
-264.253	-26.426	-0.281	-0.163
-263.238	106.860	-0.032	0.038
-262.224	-200.000	-0.033	-0.243
-261.209	800.000	-0.040	-0.113
-260.195	272.304	-0.091	0.159
-259.180	-200.000	-0.013	-0.184
-258.165	-83.996	0.072	0.023
-257.151	32.666	0.160	0.137
-256.136	-200.000	-0.004	0.026
-255.122	800.000	-0.078	-0.240
-254.107	70.762	0.083	0.085
-253.092	-50.759	-0.165	-0.077
-252.078	-160.865	0.293	0.015
-251.063	589.201	0.039	-0.095
-250.049	-200.000	0.030	0.133
-249.034	-200.000	0.025	-0.212
-248.019	432.946	0.088	0.189
-247.005	-200.000	0.062	-0.288
-245.990	228.797	0.090	0.146
-244.976	-200.000	-0.015	0.125
-243.961	-30.163	-0.092	0.052
-242.946	800.000	0.165	0.457
-241.932	-62.414	-0.368	0.151
-240.917	497.783	-0.078	0.179
-239.903	-183.711	-0.342	-0.006
-238.888	391.385	-0.127	-0.260
-237.873	244.143	-0.199	-0.330
-236.859	-200.000	0.017	-0.288
-235.844	53.820	-0.181	-0.172
-234.830	182.630	0.166	-0.243
-233.815	78.909	0.146	-0.154
-232.800	189.989	-0.110	-0.164
-231.786	-87.779	0.218	-0.065
-230.771	-11.797	-0.165	0.107
-229.757	-200.000	0.052	0.000
-228.742	335.785	0.047	-0.090
-227.727	-168.307	0.140	-0.005
-226.713	-156.017	-0.243	0.015
-225.698	-90.648	0.256	0.073
-224.684	-200.000	0.010	0.163
-223.669	-200.000	0.046	0.232
-222.655	147.470	-0.018	0.024
-221.640	-54.812	-0.033	0.015
-220.625	-200.000	-0.020	-0.286
-219.611	800.000	-0.039	0.120
-218.596	-200.000	0.038	0.294
-217.582	54.115	-0.214	-0.203
-216.567	-104.130	-0.200	0.046
-215.552	-200.000	0.031	0.389
-214.538	-8.241	0.271	0.180
-213.523	-200.000	0.007	-0.070
-212.509	332.057	0.172	0.329
-211.494	-154.212	-0.122	0.008
-210.479	39.098	0.095	-0.084
-209.465	-5.312	0.386	-0.262
-208.450	-49.185	-0.157	0.074
-207.436	67.596	-0.246	0.249
-206.421	-30.793	-0.269	-0.150
-205.406	800.000	-0.023	0.089
-204.392	48.338	-0.228	-0.211
-203.377	-160.353	-0.064	0.003
-202.363	-200.000	0.007	0.092
-201.348	-99.441	0.147	0.037
-200.333	800.000	-0.083	-0.307
-199.319	486.745	0.111	-0.249
-198.304	-130.120	-0.151	-0.020
-197.290	150.006	-0.148	-0.198
-196.275	-186.255	-0.014	-0.000
-195.260	582.086	0.109	-0.263
-194.246	54.993	-0.082	-0.079
-193.231	-7.529	-0.144	-0.096
-192.217	-200.000	-0.042	-0.257
-191.202	-27.510	0.216	0.124
-190.187	390.732	0.138	0.283
-189.173	-200.000	0.035	-0.322
-188.158	-115.300	-0.118	-0.022
-187.144	-200.000	-0.010	0.114
-186.129	-31.969	-0.347	0.192
-185.114	86.765	0.157	-0.171
-184.100	506.193	-0.146	-0.334
-183.085	345.950	0.054	-0.105
-182.071	-96.786	-0.183	0.048
-181.056	-117.529	0.342	0.061
-180.042	-200.000	-0.033	-0.316
-179.027	-118.787	0.123	0.021
-178.012	135.588	-0.041	0.053
-176.998	800.000	-0.016	-0.054
-175.983	130.343	0.113	0.143
-174.969	0.191	0.160	0.113
-173.954	-132.379	0.216	0.028
-172.939	-111.458	-0.115	0.023
-171.925	-200.000	0.014	0.325
-170.910	35.776	-0.268	-0.233
-169.896	-42.494	0.268	-0.135
-168.881	374.841	0.184	0.369
-167.866	-69.944	0.267	0.101
-166.852	800.000	0.067	0.221
-165.837	318.225	0.115	0.215
-164.823	-200.000	-0.034	-0.260
-163.808	800.000	-0.083	-0.267
-162.793	186.435	-0.021	0.031
-161.779	-200.000	0.014	-0.332
-160.764	800.000	0.062	0.174
-159.750	800.000	-0.040	0.172
-158.735	-28.008	0.204	-0.116
-157.720	-130.563	-0.205	0.027
-156.706	-107.809	-0.267	-0.057
-155.691	-200.000	0.033	0.146
-154.677	800.000	-0.052	0.166
-153.662	449.143	0.104	-0.225
-152.647	252.951	0.017	-0.029
-151.633	-132.797	0.336	-0.042
-150.618	-92.915	-0.087	0.024
-149.604	-200.000	0.131	-0.001
-148.589	257.040	0.105	-0.177
-147.574	733.948	0.117	0.310
-146.560	320.299	0.046	-0.086
-145.545	-9.689	0.266	-0.175
-144.531	-54.392	-0.208	-0.093
-143.516	-34.476	0.097	-0.053
-142.502	336.134	0.157	0.301
-141.487	-200.000	-0.014	0.080
-140.472	-176.780	0.225	-0.006
-139.458	5.764	0.102	-0.074
-138.443	-200.000	0.058	0.304
-137.429	-11.340	0.103	0.067
-136.414	9.194	-0.167	0.124
-135.399	-30.194	-0.234	0.131
-134.385	-142.988	0.215	0.020
-133.370	-110.780	0.310	-0.063
-132.356	799.170	0.094	0.255
-131.341	-141.026	0.206	-0.021
-130.326	-119.003	0.163	-0.028
-129.312	-200.000	-0.094	0.426
-128.297	169.298	-0.196	-0.276
-127.283	800.000	-0.115	-0.353
-126.268	124.012	-0.101	-0.126
-125.253	800.000	-0.032	-0.096
-124.239	-104.767	0.273	-0.062
-123.224	-80.962	0.504	0.164
-122.210	800.000	0.047	0.199
-121.195	-200.000	0.061	0.323
