DTS Sentinel unit serial number:	SN413079Multiplexer serial number:	ORYXHardware model number:	OX4-SRSoftware version number:	ORYX F/W v4.00 Oryx Data Collector v3.7.2.0data status	okinstallation	princeton_trtdifferential loss correction	single-endedforward channel	channel 1reverse channel	N/Adate	2019/09/14time	06:22:35forward acquisition time	60.00reverse acquisition time	0.00gamma	496.2192k internal	0.2336k external	0.2336temperature offset calibration	1.0083default loss term (dB/km)	0.3790temperature slope calibration	1.0000multiplexer offset coefficient	1.0000multiplexer slope coefficient	1.0000fibre end	0.00T internal ref (°C)	26.56T ext. ref 1 (°C)	3.41T ext. ref 2 (°C)	20.55length (m)	temperature (°C)	Stokes	anti-Stokes-747.200	-200.000	0.027	-0.121
-746.185	331.445	0.121	0.234
-745.171	-24.182	0.434	-0.260
-744.156	-100.235	-0.153	-0.038
-743.142	-182.573	0.186	0.003
-742.127	-11.381	-0.130	-0.086
-741.112	-200.000	0.011	-0.308
-740.098	800.000	-0.078	0.300
-739.083	-74.408	-0.248	-0.090
-738.069	54.042	-0.091	0.088
-737.054	339.496	-0.102	0.199
-736.039	125.948	-0.155	-0.196
-735.025	800.000	0.075	-0.226
-734.010	-75.316	-0.352	0.126
-732.996	-33.884	0.388	-0.215
-731.981	39.213	0.112	-0.101
-730.966	-200.000	0.013	-0.076
-729.952	-123.022	0.331	0.053
-728.937	-200.000	0.007	-0.466
-727.923	-187.702	-0.150	0.002
-726.908	-116.433	0.473	-0.088
-725.894	89.727	-0.233	0.261
-724.879	-200.000	0.027	-0.233
-723.864	800.000	0.074	-0.211
-722.850	91.626	-0.126	0.142
-721.835	30.713	0.123	-0.106
-720.821	-22.714	0.242	-0.146
-719.806	38.432	-0.216	-0.193
-718.791	-82.098	-0.235	0.077
-717.777	-0.185	0.282	0.202
-716.762	-64.050	-0.044	-0.018
-715.748	43.637	0.178	0.163
-714.733	-200.000	-0.067	0.371
-713.718	40.935	-0.129	0.117
-712.704	51.965	0.126	-0.121
-711.689	-11.901	0.244	0.160
-710.675	-83.568	-0.251	-0.080
-709.660	-43.734	0.137	0.069
-708.645	75.586	-0.175	-0.185
-707.631	-83.688	-0.220	-0.071
-706.616	-200.000	-0.032	0.306
-705.602	81.310	0.106	0.114
-704.587	300.316	-0.213	-0.393
-703.572	-52.672	-0.411	0.190
-702.558	350.180	0.148	-0.294
-701.543	92.144	-0.097	-0.109
-700.529	-184.852	-0.158	-0.003
-699.514	-67.049	0.139	-0.055
-698.499	-84.286	0.028	-0.009
-697.485	-137.680	-0.358	-0.040
-696.470	208.236	0.102	0.160
-695.456	800.000	0.093	0.346
-694.441	-14.199	-0.038	-0.024
-693.426	-70.615	-0.113	0.043
-692.412	21.570	-0.356	-0.290
-691.397	-137.928	-0.316	-0.035
-690.383	205.765	-0.119	-0.185
-689.368	-200.000	-0.027	0.162
-688.354	-4.897	-0.189	-0.130
-687.339	211.246	-0.176	0.278
-686.324	-3.119	-0.091	-0.064
-685.310	-200.000	0.044	-0.211
-684.295	86.476	-0.044	0.048
-683.281	-111.144	-0.254	-0.052
-682.266	426.467	-0.123	0.266
-681.251	-60.535	-0.383	-0.163
-680.237	83.827	-0.200	-0.218
-679.222	244.004	0.054	0.091
-678.208	-156.181	-0.311	0.020
-677.193	470.011	0.092	-0.208
-676.178	800.000	0.052	-0.180
-675.164	79.699	0.135	-0.146
-674.149	116.044	-0.281	-0.345
-673.135	-75.687	0.161	-0.057
-672.120	130.099	0.132	0.169
-671.105	800.000	0.014	0.050
-670.091	-47.442	-0.251	0.122
-669.076	-35.336	0.226	-0.123
-668.062	-200.000	0.020	-0.400
-667.047	-200.000	-0.017	0.303
-666.032	-31.831	0.088	-0.050
-665.018	70.692	-0.254	0.263
-664.003	-200.000	0.036	0.272
-662.989	-200.000	0.028	0.377
-661.974	69.593	0.110	0.113
-660.959	-200.000	-0.030	0.362
-659.945	332.036	-0.095	-0.183
-658.930	179.133	-0.094	0.138
-657.916	-200.000	-0.011	0.130
-656.901	800.000	-0.016	-0.056
-655.886	-59.793	0.285	-0.122
-654.872	-200.000	0.003	-0.155
-653.857	-113.268	-0.214	0.042
-652.843	729.497	-0.069	-0.184
-651.828	-84.812	0.057	0.018
-650.814	0.433	-0.357	-0.255
-649.799	503.146	-0.134	-0.309
-648.784	15.421	-0.104	0.082
-647.770	-105.226	-0.209	0.048
-646.755	-125.340	0.126	0.019
-645.741	-7.324	-0.201	0.137
-644.726	-163.950	0.202	0.009
-643.711	-21.214	0.115	-0.070
-642.697	-200.000	-0.064	-0.324
-641.682	800.000	-0.137	-0.493
-640.668	800.000	-0.055	-0.179
-639.653	-200.000	0.229	0.001
-638.638	-46.236	-0.317	0.156
-637.624	8.923	-0.240	-0.181
-636.609	-120.688	-0.046	0.008
-635.595	395.488	0.170	0.355
-634.580	-118.592	0.378	-0.067
-633.565	-90.217	-0.258	-0.075
-632.551	-50.798	-0.052	0.024
-631.536	593.977	0.068	0.168
-630.522	154.058	-0.190	0.261
-629.507	-7.090	0.157	-0.107
-628.492	-121.212	-0.500	-0.084
-627.478	-92.970	0.029	0.008
-626.463	65.547	0.080	0.081
-625.449	800.000	-0.071	-0.268
-624.434	-63.448	-0.207	-0.085
-623.419	619.956	0.126	-0.318
-622.405	-200.000	-0.000	-0.311
-621.390	90.312	-0.222	-0.248
-620.376	-200.000	-0.063	-0.282
-619.361	80.593	-0.169	-0.182
-618.346	-125.635	0.001	0.000
-617.332	-47.762	0.163	-0.079
-616.317	-50.649	0.120	-0.057
-615.303	-161.481	-0.366	0.019
-614.288	-41.184	0.112	-0.058
-613.273	136.531	-0.090	0.118
-612.259	151.891	0.155	0.211
-611.244	-22.259	-0.102	0.062
-610.230	270.263	0.108	-0.191
-609.215	800.000	0.066	0.236
-608.201	-99.011	0.206	0.052
-607.186	-166.549	0.360	-0.015
-606.171	128.747	-0.152	0.194
-605.157	118.426	-0.194	0.239
-604.142	-69.250	-0.285	0.109
-603.128	506.050	-0.051	0.119
-602.113	-154.584	-0.200	-0.013
-601.098	-20.799	-0.057	0.035
-600.084	-84.977	-0.119	0.037
-599.069	-74.845	0.275	0.099
-598.055	125.540	0.238	0.301
-597.040	676.887	0.074	0.191
-596.025	-139.389	-0.052	0.006
-595.011	87.765	-0.149	-0.165
-593.996	-125.632	0.296	0.045
-592.982	35.816	-0.113	-0.100
-591.967	-29.988	0.137	-0.078
-590.952	-200.000	0.011	0.305
-589.938	-200.000	0.003	0.137
-588.923	27.855	-0.070	-0.059
-587.909	78.008	0.167	0.177
-586.894	71.213	-0.210	0.217
-585.879	137.247	0.128	0.167
-584.865	-189.392	0.456	-0.005
-583.850	800.000	0.070	-0.199
-582.836	248.687	0.124	-0.210
-581.821	-200.000	-0.016	-0.175
-580.806	-97.934	-0.630	0.162
-579.792	-45.030	-0.268	-0.133
-578.777	392.826	-0.072	0.150
-577.763	76.223	0.059	0.063
-576.748	-78.895	0.154	0.052
-575.733	-200.000	0.011	-0.212
-574.719	124.549	-0.106	0.133
-573.704	-84.073	0.077	0.025
-572.690	38.316	0.151	-0.134
-571.675	-58.025	0.025	0.011
-570.661	-200.000	-0.022	-0.187
-569.646	143.687	0.069	-0.092
-568.631	-129.377	-0.359	0.050
-567.617	261.501	-0.064	-0.111
-566.602	538.273	-0.058	0.137
-565.588	-200.000	-0.020	0.106
-564.573	-148.100	0.086	-0.007
-563.558	-4.117	-0.023	0.016
-562.544	31.335	-0.270	-0.231
-561.529	82.111	0.286	-0.309
-560.515	182.969	-0.034	-0.049
-559.500	16.544	0.088	-0.069
-558.485	-105.613	-0.236	-0.053
-557.471	800.000	-0.036	0.151
-556.456	-140.297	0.340	-0.035
-555.442	-200.000	-0.018	-0.153
-554.427	-157.515	-0.253	0.015
-553.412	-26.437	-0.047	0.027
-552.398	-200.000	0.006	0.049
-551.383	-77.049	0.165	0.057
-550.369	409.047	0.114	-0.241
-549.354	-200.000	-0.029	-0.218
-548.339	800.000	0.090	0.390
-547.325	-200.000	0.076	0.349
-546.310	35.204	-0.112	0.098
-545.296	-200.000	-0.019	-0.255
-544.281	148.402	0.115	0.154
-543.266	-113.935	0.183	-0.035
-542.252	14.496	-0.191	0.149
-541.237	-200.000	0.012	0.235
-540.223	774.434	-0.124	0.338
-539.208	800.000	-0.012	0.034
-538.193	-8.754	-0.386	0.258
-537.179	483.100	-0.015	-0.033
-536.164	-152.633	0.153	0.011
-535.150	8.945	0.077	-0.058
-534.135	-200.000	-0.038	-0.184
-533.121	-37.480	-0.275	-0.146
-532.106	147.735	0.060	-0.081
-531.091	-200.000	0.005	-0.176
-530.077	329.385	0.114	0.217
-529.062	120.864	-0.207	-0.256
-528.048	157.974	0.232	-0.320
-527.033	3.436	-0.199	0.144
-526.018	800.000	-0.033	-0.135
-525.004	34.514	0.132	-0.115
-523.989	47.068	-0.156	0.144
-522.975	-37.144	0.339	-0.181
-521.960	-200.000	0.003	0.140
-520.945	-102.522	-0.442	-0.105
-519.931	-74.987	-0.077	0.027
-518.916	193.098	-0.140	-0.211
-517.902	-43.186	-0.389	0.196
-516.887	187.547	-0.122	-0.182
-515.872	-94.432	-0.155	0.042
-514.858	-21.155	0.369	0.225
-513.843	153.449	-0.230	0.313
-512.829	547.293	-0.139	0.330
-511.814	-21.933	0.106	-0.064
-510.799	308.886	0.189	0.351
-509.785	18.616	-0.321	0.256
-508.770	222.346	-0.154	0.247
-507.756	36.267	-0.378	0.332
-506.741	142.092	0.176	-0.233
-505.726	-142.519	0.254	-0.025
-504.712	-200.000	-0.001	0.100
-503.697	8.389	-0.393	-0.294
-502.683	800.000	-0.040	0.163
-501.668	-120.145	0.263	-0.045
-500.653	-87.308	-0.240	0.072
-499.639	386.820	-0.163	-0.334
-498.624	461.610	-0.157	0.349
-497.610	311.418	-0.092	0.171
-496.595	-171.461	-0.066	-0.002
-495.581	-45.599	0.055	0.027
-494.566	359.163	-0.209	0.417
-493.551	-138.367	0.087	0.010
-492.537	-72.491	-0.225	0.083
-491.522	12.034	0.097	-0.074
-490.508	90.821	-0.160	-0.178
-489.493	-5.133	-0.080	-0.055
-488.478	21.612	0.203	0.165
-487.464	-200.000	0.001	-0.014
-486.449	81.965	-0.108	-0.117
-485.435	14.424	0.176	0.137
-484.420	585.506	-0.061	0.150
-483.405	-42.040	0.210	0.107
-482.391	390.749	-0.180	0.372
-481.376	-44.220	-0.334	-0.167
-480.362	-23.471	-0.301	-0.180
-479.347	-200.000	0.014	0.274
-478.332	592.680	-0.103	0.254
-477.318	-39.035	-0.212	-0.111
-476.303	800.000	-0.057	-0.236
-475.289	-200.000	0.004	-0.067
-474.274	800.000	-0.087	0.320
-473.259	-80.611	0.327	-0.108
-472.245	-200.000	-0.028	0.286
-471.230	-200.000	-0.028	-0.393
-470.216	-200.000	-0.006	-0.072
-469.201	-103.919	-0.259	0.060
-468.186	800.000	-0.065	0.230
-467.172	60.856	0.151	0.149
-466.157	45.587	0.138	0.126
-465.143	-96.491	0.211	0.055
-464.128	8.575	-0.022	-0.016
-463.113	208.938	-0.149	-0.231
-462.099	-126.129	-0.080	0.012
-461.084	-63.811	0.088	-0.036
-460.070	-122.838	0.147	-0.024
-459.055	800.000	0.130	-0.476
-458.040	-53.545	0.395	-0.180
-457.026	0.591	-0.091	0.064
-456.011	129.492	0.220	-0.279
-454.997	336.287	-0.085	-0.164
-453.982	4.873	0.496	-0.363
-452.968	-60.562	0.220	-0.093
-451.953	-131.308	-0.371	0.049
-450.938	124.049	-0.225	0.281
-449.924	64.828	-0.094	-0.094
-448.909	-154.857	0.179	0.012
-447.895	-68.326	-0.052	0.020
-446.880	-99.394	-0.041	0.010
-445.865	-46.717	-0.057	0.028
-444.851	441.634	-0.131	-0.285
-443.836	86.116	-0.044	-0.048
-442.822	216.036	0.151	-0.238
-441.807	-200.000	-0.016	-0.245
-440.792	-46.680	0.302	-0.147
-439.778	137.844	-0.083	-0.108
-438.763	-119.697	-0.153	0.026
-437.749	704.887	-0.056	-0.146
-436.734	-200.000	-0.011	-0.112
-435.719	519.487	0.101	-0.236
-434.705	-200.000	0.012	0.609
-433.690	69.548	-0.259	-0.265
-432.676	-137.108	-0.069	-0.008
-431.661	82.354	0.220	0.237
-430.646	155.678	-0.125	-0.170
-429.632	800.000	-0.021	-0.075
-428.617	800.000	0.114	0.363
-427.603	-42.732	-0.152	0.076
-426.588	800.000	0.036	-0.146
-425.573	62.201	0.261	-0.259
-424.559	-200.000	-0.038	-0.260
-423.544	-200.000	-0.051	-0.338
-422.530	768.083	0.114	0.306
-421.515	-200.000	0.029	-0.141
-420.500	-37.595	0.419	-0.222
-419.486	72.304	-0.156	0.161
-418.471	-14.773	-0.210	0.134
-417.457	22.329	0.239	-0.194
-416.442	42.782	-0.105	-0.095
-415.428	-118.577	-0.251	0.044
-414.413	-200.000	-0.011	-0.336
-413.398	74.937	-0.025	-0.026
-412.384	158.068	-0.132	0.181
-411.369	-200.000	0.108	0.581
-410.355	-103.542	-0.061	0.014
-409.340	211.280	-0.145	-0.226
-408.325	-136.572	0.352	0.040
-407.311	-12.078	-0.101	0.066
-406.296	-3.460	-0.130	0.090
-405.282	170.421	0.104	-0.148
-404.267	63.240	0.090	-0.089
-403.252	100.656	-0.168	0.194
-402.238	162.757	0.086	-0.119
-401.223	-57.639	-0.023	0.010
-400.209	-169.674	0.111	-0.004
-399.194	-148.625	0.333	0.027
-398.179	56.830	-0.184	-0.178
-397.165	4.093	0.436	-0.316
-396.150	105.218	-0.021	-0.024
-395.136	139.583	0.089	0.117
-394.121	-128.655	-0.312	-0.044
-393.106	-200.000	-0.002	-0.057
-392.092	111.244	0.139	0.167
-391.077	342.419	0.098	-0.191
-390.063	-19.630	-0.241	0.148
-389.048	92.784	-0.038	0.042
-388.033	105.578	0.050	0.058
-387.019	269.346	-0.156	0.271
-386.004	-103.386	0.169	0.039
-384.990	322.144	0.187	0.353
-383.975	244.832	0.134	-0.223
-382.960	-200.000	-0.001	0.084
-381.946	-115.347	0.415	-0.078
-380.931	-0.970	0.196	0.137
-379.917	-83.395	0.184	-0.058
-378.902	-200.000	-0.022	-0.181
-377.888	800.000	-0.075	-0.301
-376.873	-200.000	0.066	-0.319
-375.858	70.876	-0.081	0.084
-374.844	-7.020	-0.022	-0.014
-373.829	-194.781	-0.021	0.000
-372.815	-31.551	-0.246	0.137
-371.800	-170.654	0.338	-0.012
-370.785	230.556	-0.128	-0.207
-369.771	-63.401	0.301	0.123
-368.756	135.507	-0.035	0.045
-367.742	76.949	0.256	0.270
-366.727	26.012	-0.099	0.082
-365.712	440.424	0.180	-0.389
-364.698	-7.688	-0.076	0.051
-363.683	800.000	-0.048	-0.133
-362.669	33.895	0.191	-0.164
-361.654	-200.000	0.022	-0.141
-360.639	87.763	0.137	-0.150
-359.625	-54.994	-0.178	0.079
-358.610	-0.608	0.117	0.082
-357.596	265.185	-0.220	0.379
-356.581	800.000	-0.063	0.256
-355.566	-171.003	-0.212	0.007
-354.552	-140.016	-0.327	-0.034
-353.537	-144.709	0.139	0.013
-352.523	584.993	0.047	0.115
-351.508	-124.828	-0.168	-0.026
-350.493	461.249	0.120	-0.264
-349.479	-22.014	-0.079	-0.048
-348.464	283.928	-0.062	0.110
-347.450	-69.095	0.281	0.107
-346.435	176.511	-0.160	0.230
-345.420	-200.000	0.009	0.136
-344.406	-200.000	-0.068	0.000
-343.391	-88.528	0.311	-0.092
-342.377	-200.000	-0.029	-0.312
-341.362	-130.351	-0.255	0.034
-340.348	-146.455	0.079	-0.007
-339.333	-65.614	0.183	0.073
-338.318	-116.165	0.181	0.033
-337.304	329.886	0.077	0.146
-336.289	-200.000	0.061	0.334
-335.275	-200.000	-0.039	0.377
-334.260	18.828	0.125	-0.099
-333.245	-149.572	-0.076	0.006
-332.231	159.122	-0.042	-0.058
-331.216	679.544	0.099	0.255
-330.202	71.183	-0.239	0.244
-329.187	24.760	0.078	0.064
-328.172	275.860	0.034	0.059
-327.158	-84.134	0.172	0.054
-326.143	-200.000	-0.020	-0.104
-325.129	221.142	0.096	0.153
-324.114	-200.000	0.041	0.226
-323.099	-149.848	0.126	-0.010
-322.085	800.000	-0.040	0.118
-321.070	-21.214	-0.091	0.055
-320.056	800.000	0.031	0.117
-319.041	800.000	-0.070	0.297
-318.026	-158.904	0.348	-0.020
-317.012	-77.504	-0.155	0.053
-315.997	-57.425	0.126	0.055
-314.983	188.393	-0.243	-0.359
-313.968	-69.040	0.071	0.027
-312.953	800.000	-0.076	-0.234
-311.939	-21.356	0.227	-0.137
-310.924	91.022	0.248	-0.275
-309.910	-200.000	-0.001	-0.083
-308.895	514.943	0.034	-0.079
-307.880	-145.368	-0.049	-0.004
-306.866	134.694	-0.105	0.135
-305.851	428.016	0.098	-0.209
-304.837	-26.521	-0.051	0.030
-303.822	-200.000	0.002	0.110
-302.807	502.338	0.164	0.375
-301.793	-4.052	0.204	-0.140
-300.778	-3.587	0.193	-0.133
-299.764	-200.000	-0.030	-0.157
-298.749	-129.805	-0.136	-0.018
-297.735	138.532	-0.042	-0.055
-296.720	455.848	-0.085	0.187
-295.705	77.800	0.082	0.086
-294.691	139.398	0.222	-0.288
-293.676	-84.437	-0.365	0.114
-292.662	582.756	-0.082	0.198
-291.647	27.417	0.151	0.125
-290.632	-200.000	-0.017	0.212
-289.618	239.565	0.297	0.488
-288.603	-200.000	-0.005	-0.169
-287.589	478.013	0.142	-0.317
-286.574	800.000	-0.060	0.179
-285.559	-0.389	0.170	-0.119
-284.545	-62.696	-0.241	-0.099
-283.530	-162.094	-0.675	0.033
-282.516	19.052	0.342	-0.270
-281.501	-110.486	0.168	0.034
-280.486	-136.233	-0.113	0.013
-279.472	650.373	0.102	-0.258
-278.457	800.000	-0.072	0.212
-277.443	-146.396	-0.311	-0.027
-276.428	-140.113	0.275	-0.028
-275.413	800.000	0.059	0.188
-274.399	-54.680	-0.230	0.103
-273.384	70.974	-0.150	0.154
-272.370	800.000	-0.122	-0.345
-271.355	756.972	-0.098	0.262
-270.340	100.223	-0.009	-0.010
-269.326	-66.812	0.187	-0.073
-268.311	286.986	-0.042	-0.075
-267.297	196.193	-0.170	0.254
-266.282	-200.000	0.016	-0.185
-265.267	74.102	0.137	-0.141
-264.253	-104.227	0.150	0.034
-263.238	800.000	-0.073	0.203
-262.224	-200.000	0.013	-0.225
-261.209	-26.847	-0.193	-0.111
-260.195	800.000	0.047	0.169
-259.180	332.620	0.111	0.211
-258.165	278.597	0.083	0.145
-257.151	-32.032	0.261	0.144
-256.136	-9.867	-0.059	0.039
-255.122	-140.370	-0.174	-0.018
-254.107	-59.360	-0.018	-0.008
-253.092	800.000	0.036	0.148
-252.078	185.695	0.228	-0.334
-251.063	5.767	0.133	-0.097
-250.049	52.643	-0.218	-0.205
-249.034	140.936	0.132	-0.172
-248.019	425.922	0.195	0.415
-247.005	54.301	-0.138	0.131
-245.990	-200.000	-0.017	0.197
-244.976	179.429	0.151	-0.218
-243.961	-113.461	0.188	-0.036
-242.946	-80.458	0.362	-0.119
-241.932	47.520	-0.109	-0.100
-240.917	23.831	-0.143	-0.116
-239.903	-91.028	0.453	0.128
-238.888	-200.000	-0.060	0.266
-237.873	-174.473	0.410	0.012
-236.859	-146.260	-0.357	-0.031
-235.844	-111.326	-0.420	0.084
-234.830	-50.449	-0.057	-0.026
-233.815	-200.000	-0.216	0.001
-232.800	-91.488	0.452	0.127
-231.786	-72.065	0.095	-0.035
-230.771	206.669	0.032	0.049
-229.757	-63.476	0.348	-0.141
-228.742	-109.842	-0.203	0.042
-227.727	34.274	-0.127	0.109
-226.713	-151.503	0.040	-0.003
-225.698	65.834	-0.069	0.069
-224.684	800.000	0.071	-0.239
-223.669	-200.000	0.040	-0.260
-222.655	205.257	-0.147	-0.225
-221.640	800.000	0.013	0.055
-220.625	-200.000	-0.064	-0.434
-219.611	177.461	-0.120	-0.172
-218.596	-200.000	0.000	0.156
-217.582	800.000	-0.083	0.301
-216.567	-20.265	-0.193	-0.117
-215.552	-85.709	-0.067	0.020
-214.538	-14.933	0.210	0.132
-213.523	25.645	-0.338	0.277
-212.509	-200.000	0.034	0.199
-211.494	-27.514	-0.137	-0.078
-210.479	-68.578	-0.205	-0.078
-209.465	-50.736	-0.058	0.027
-208.450	-80.217	0.176	-0.058
-207.436	-44.116	0.131	-0.065
-206.421	-86.027	-0.280	-0.085
-205.406	-25.127	-0.305	-0.178
-204.392	-49.332	-0.125	0.059
-203.377	-49.771	0.061	0.028
-202.363	600.282	-0.148	-0.362
-201.348	-200.000	0.011	-0.228
-200.333	594.663	-0.093	0.226
-199.319	800.000	-0.022	-0.077
-198.304	-200.000	0.062	-0.310
-197.290	-83.743	0.214	-0.067
-196.275	-117.844	-0.242	-0.043
-195.260	27.887	0.105	-0.087
-194.246	-105.101	0.340	0.076
-193.231	-102.395	-0.186	-0.044
-192.217	-37.125	-0.122	-0.064
-191.202	800.000	-0.044	0.156
-190.187	158.108	-0.020	0.027
-189.173	234.375	-0.146	0.236
-188.158	304.077	0.044	-0.081
-187.144	800.000	0.025	0.077
-186.129	493.174	0.115	0.258
-185.114	-43.661	0.360	-0.178
-184.100	-200.000	-0.057	-0.249
-183.085	41.432	0.366	-0.325
-182.071	-191.065	-0.106	0.001
-181.056	168.671	0.275	0.385
-180.042	-46.688	-0.129	0.062
-179.027	800.000	-0.102	0.385
-178.012	800.000	-0.081	0.281
-176.998	-85.439	0.348	0.107
-175.983	-88.716	0.058	-0.017
-174.969	800.000	0.080	-0.236
-173.954	217.627	-0.095	-0.149
-172.939	-200.000	-0.057	-0.249
-171.925	-31.424	0.175	0.097
-170.910	-60.214	-0.373	0.156
-169.896	-103.735	0.227	0.052
-168.881	3.918	-0.041	-0.030
-167.866	-11.318	0.234	0.151
-166.852	-74.704	0.374	-0.132
-165.837	31.666	-0.029	-0.025
-164.823	2.460	0.143	0.101
-163.808	-14.157	-0.154	-0.097
-162.793	184.853	0.168	-0.245
-161.779	212.315	-0.103	0.160
-160.764	285.369	0.107	-0.189
-159.750	-14.909	0.150	0.095
-158.735	-75.799	0.151	-0.053
-157.720	605.343	-0.034	-0.083
-156.706	-19.619	-0.272	-0.165
-155.691	-90.340	0.230	-0.065
-154.677	-55.729	-0.089	0.039
-153.662	149.361	0.141	-0.187
-152.647	301.065	0.072	0.130
-151.633	101.113	-0.088	0.100
-150.618	-111.731	-0.137	-0.027
-149.604	-200.000	0.006	0.183
-148.589	90.213	-0.107	0.117
-147.574	-97.720	-0.058	-0.015
-146.560	39.926	-0.215	0.189
-145.545	135.565	0.138	0.176
-144.531	-125.707	0.306	-0.045
-143.516	-184.287	-0.242	0.004
-142.502	182.465	0.163	0.236
-141.487	21.218	-0.128	0.102
-140.472	-68.623	-0.084	-0.032
-139.458	-200.000	-0.048	0.390
-138.443	546.822	-0.040	-0.094
-137.429	-135.899	-0.140	0.016
-136.414	-55.937	0.571	0.250
-135.399	241.091	0.170	0.278
-134.385	4.565	-0.257	0.185
-133.370	-40.087	-0.361	-0.184
-132.356	76.221	-0.220	-0.228
-131.341	-75.542	0.090	0.032
-130.326	63.047	0.239	-0.235
-129.312	-200.000	-0.006	-0.113
-128.297	-173.532	-0.287	0.008
-127.283	-200.000	-0.015	-0.152
-126.268	-10.550	0.246	0.160
-125.253	-136.260	-0.227	0.026
-124.239	471.863	-0.113	-0.250
-123.224	-68.905	0.252	0.095
-122.210	800.000	-0.111	0.319
-121.195	453.341	-0.072	-0.156
