DTS Sentinel unit serial number:	SN413079Multiplexer serial number:	ORYXHardware model number:	OX4-SRSoftware version number:	ORYX F/W v4.00 Oryx Data Collector v3.7.2.0data status	okinstallation	princeton_trtdifferential loss correction	single-endedforward channel	channel 1reverse channel	N/Adate	2019/09/18time	18:38:35forward acquisition time	60.00reverse acquisition time	0.00gamma	496.2192k internal	0.2297k external	0.2297temperature offset calibration	1.0020default loss term (dB/km)	0.3790temperature slope calibration	1.0000multiplexer offset coefficient	1.0000multiplexer slope coefficient	1.0000fibre end	0.00T internal ref (°C)	37.91T ext. ref 1 (°C)	0.93T ext. ref 2 (°C)	29.64length (m)	temperature (°C)	Stokes	anti-Stokes-747.200	67.085	-0.067	-0.070
-746.185	200.438	0.045	0.071
-745.171	-22.858	0.025	0.015
-744.156	800.000	0.050	0.219
-743.142	-15.564	-0.247	0.161
-742.127	240.017	-0.219	0.372
-741.112	-200.000	0.017	0.117
-740.098	-200.000	-0.010	0.054
-739.083	90.774	-0.168	0.192
-738.069	376.129	0.254	0.529
-737.054	-142.080	-0.046	0.005
-736.039	-98.339	-0.198	-0.052
-735.025	652.505	0.127	0.332
-734.010	-114.052	-0.307	-0.061
-732.996	-172.849	-0.109	-0.003
-731.981	-200.000	0.008	0.088
-730.966	-132.945	0.166	0.022
-729.952	800.000	-0.097	-0.398
-728.937	-200.000	0.014	0.150
-727.923	-30.216	-0.279	-0.162
-726.908	42.247	0.176	-0.164
-725.894	19.461	-0.246	-0.202
-724.879	-200.000	-0.006	-0.208
-723.864	-28.503	-0.181	0.106
-722.850	8.565	-0.141	-0.109
-721.835	-200.000	-0.036	0.228
-720.821	95.616	-0.137	-0.159
-719.806	-200.000	0.005	0.031
-718.791	-48.442	-0.209	0.103
-717.777	65.592	-0.309	0.319
-716.762	362.641	-0.022	0.046
-715.748	-18.280	-0.156	-0.099
-714.733	-66.169	0.258	-0.105
-713.718	-60.519	-0.167	0.072
-712.704	-101.471	-0.061	-0.015
-711.689	32.626	-0.198	-0.175
-710.675	-200.000	-0.025	-0.218
-709.660	-200.000	0.006	0.076
-708.645	-200.000	-0.065	-0.302
-707.631	-111.317	-0.284	0.059
-706.616	-43.188	-0.125	-0.064
-705.602	-53.516	0.217	-0.101
-704.587	33.932	0.304	-0.270
-703.572	-46.998	-0.036	0.018
-702.558	-106.445	-0.323	0.074
-701.543	-150.398	-0.101	-0.008
-700.529	-16.277	0.055	0.036
-699.514	-200.000	0.033	0.174
-698.499	-131.170	0.439	0.060
-697.485	-120.729	-0.309	0.053
-696.470	800.000	-0.071	-0.209
-695.456	538.513	-0.208	-0.504
-694.441	-90.871	-0.118	0.035
-693.426	-61.110	-0.139	0.060
-692.412	-7.376	-0.026	-0.018
-691.397	-34.405	-0.194	0.109
-690.383	-137.087	-0.314	-0.037
-689.368	-48.963	0.051	-0.025
-688.354	438.021	0.054	-0.121
-687.339	-127.397	-0.325	0.048
-686.324	2.545	-0.093	0.068
-685.310	800.000	0.136	-0.429
-684.295	-81.659	-0.404	-0.135
-683.281	43.782	0.078	0.072
-682.266	-103.303	-0.151	0.036
-681.251	-200.000	-0.020	0.207
-680.237	-200.000	-0.003	-0.048
-679.222	-65.205	-0.425	0.174
-678.208	53.007	0.114	-0.111
-677.193	-126.184	-0.483	-0.074
-676.178	245.367	0.079	0.135
-675.164	188.297	-0.024	0.036
-674.149	107.974	0.181	0.219
-673.135	442.400	0.172	-0.384
-672.120	-120.316	0.292	0.051
-671.105	-200.000	-0.074	-0.530
-670.091	-200.000	0.025	0.147
-669.076	-197.874	-0.347	-0.002
-668.062	710.145	-0.059	0.158
-667.047	130.418	0.086	0.113
-666.032	-143.807	-0.417	-0.040
-665.018	104.890	0.190	-0.228
-664.003	422.391	0.160	-0.350
-662.989	-156.832	-0.093	-0.006
-661.974	-200.000	0.020	-0.146
-660.959	531.943	0.043	0.104
-659.945	281.926	-0.059	0.108
-658.930	-200.000	0.008	0.057
-657.916	-144.798	0.261	-0.024
-656.901	631.318	-0.050	-0.128
-655.886	-67.643	-0.226	-0.090
-654.872	-79.239	0.215	-0.074
-653.857	-28.213	0.073	0.043
-652.843	-78.908	-0.121	-0.042
-651.828	800.000	0.089	0.389
-650.814	31.550	-0.209	-0.183
-649.799	-127.143	-0.148	-0.022
-648.784	43.751	0.096	-0.090
-647.770	17.530	0.161	-0.130
-646.755	-96.495	-0.522	0.140
-645.741	-48.180	0.160	0.078
-644.726	-124.533	0.401	0.063
-643.711	-76.388	0.271	0.097
-642.697	-145.198	-0.202	-0.019
-641.682	552.556	0.053	-0.131
-640.668	-116.596	-0.176	-0.033
-639.653	315.527	-0.039	-0.074
-638.638	-80.496	0.231	0.078
-637.624	538.155	-0.086	0.208
-636.609	-185.121	-0.456	0.007
-635.595	142.726	-0.154	-0.208
-634.580	-78.237	0.050	-0.017
-633.565	800.000	-0.054	0.200
-632.551	-192.108	-0.430	-0.004
-631.536	71.370	0.021	-0.022
-630.522	209.737	0.274	-0.437
-629.507	9.150	0.192	-0.148
-628.492	37.467	-0.158	-0.142
-627.478	-31.578	-0.123	-0.070
-626.463	800.000	-0.042	0.177
-625.449	-116.129	-0.162	0.031
-624.434	82.328	-0.128	-0.141
-623.419	-200.000	0.013	-0.218
-622.405	371.264	-0.052	0.108
-621.390	0.013	0.271	-0.196
-620.376	-33.831	0.325	-0.182
-619.361	-181.651	-0.323	0.006
-618.346	-200.000	0.067	-0.356
-617.332	334.926	-0.093	-0.183
-616.317	800.000	0.061	-0.231
-615.303	-200.000	0.006	0.166
-614.288	4.889	0.046	0.034
-613.273	-200.000	-0.045	0.332
-612.259	24.652	-0.342	0.288
-611.244	-57.163	-0.100	0.045
-610.230	-59.330	0.046	0.020
-609.215	42.840	0.030	-0.028
-608.201	-25.814	-0.088	0.053
-607.186	-200.000	-0.049	0.366
-606.171	658.309	-0.124	-0.325
-605.157	-103.722	0.218	0.052
-604.142	678.009	0.095	-0.252
-603.128	-37.216	-0.113	-0.061
-602.113	360.019	-0.153	0.312
-601.098	-200.000	0.032	-0.199
-600.084	-200.000	0.014	-0.083
-599.069	233.604	0.159	-0.265
-598.055	26.041	-0.132	0.112
-597.040	40.627	-0.045	-0.041
-596.025	-74.849	-0.165	-0.060
-595.011	118.521	0.110	-0.137
-593.996	56.788	0.193	-0.191
-592.982	136.379	0.143	0.189
-591.967	-200.000	0.007	0.283
-590.952	338.458	0.104	-0.206
-589.938	36.032	-0.146	-0.130
-588.923	225.578	0.125	-0.205
-587.909	241.355	-0.026	-0.043
-586.894	64.565	-0.199	-0.204
-585.879	-27.887	0.279	-0.164
-584.865	-200.000	-0.014	-0.100
-583.850	800.000	0.035	0.102
-582.836	78.097	0.133	0.144
-581.821	123.578	0.119	-0.152
-580.806	-28.818	0.190	-0.111
-579.792	98.707	0.050	0.058
-578.777	-200.000	0.008	0.040
-577.763	76.663	0.223	-0.240
-576.748	-114.138	-0.300	0.059
-575.733	473.829	0.060	0.137
-574.719	169.323	0.151	0.219
-573.704	-72.232	0.137	0.052
-572.690	800.000	0.070	-0.251
-571.675	-45.084	-0.080	0.040
-570.661	-57.172	0.091	-0.040
-569.646	-200.000	-0.051	0.227
-568.631	-200.000	-0.034	-0.338
-567.617	320.192	0.015	0.029
-566.602	-126.438	0.060	0.009
-565.588	62.260	-0.011	-0.011
-564.573	-21.729	-0.091	-0.057
-563.558	-5.464	0.145	-0.101
-562.544	800.000	0.090	-0.295
-561.529	209.813	-0.062	-0.098
-560.515	305.000	-0.172	0.324
-559.500	-152.279	-0.521	0.038
-558.485	110.947	-0.272	0.333
-557.471	800.000	0.062	-0.223
-556.456	800.000	0.062	-0.198
-555.442	-34.038	-0.067	-0.037
-554.427	-200.000	0.028	0.241
-553.412	-67.643	-0.204	-0.081
-552.398	68.504	0.037	-0.039
-551.383	-32.258	0.236	0.134
-550.369	161.340	0.044	-0.062
-549.354	-52.565	0.125	-0.058
-548.339	-10.813	0.172	0.115
-547.325	-200.000	0.019	-0.134
-546.310	800.000	-0.053	-0.222
-545.296	198.616	-0.038	0.059
-544.281	-147.569	0.268	-0.023
-543.266	141.380	0.026	-0.035
-542.252	427.476	0.120	-0.263
-541.237	-131.171	-0.379	0.051
-540.223	255.076	-0.052	0.089
-539.208	-32.398	-0.369	-0.209
-538.193	-130.027	-0.111	0.015
-537.179	-107.162	-0.291	0.065
-536.164	-40.091	-0.169	-0.089
-535.150	278.086	-0.027	0.049
-534.135	70.444	-0.028	0.030
-533.121	-30.723	0.166	-0.095
-532.106	597.443	-0.071	-0.177
-531.091	4.582	0.174	0.130
-530.077	-101.534	-0.220	0.054
-529.062	-47.643	0.071	-0.035
-528.048	210.217	0.042	-0.066
-527.033	-200.000	-0.032	-0.210
-526.018	64.734	0.231	-0.236
-525.004	262.411	-0.012	0.022
-523.989	800.000	0.096	0.271
-522.975	-27.945	0.329	-0.193
-521.960	-83.006	-0.382	0.125
-520.945	116.795	-0.077	-0.096
-519.931	800.000	-0.049	-0.211
-518.916	-200.000	-0.023	0.172
-517.902	5.344	0.058	-0.043
-516.887	-7.629	-0.250	-0.171
-515.872	105.372	-0.191	0.229
-514.858	60.623	-0.161	0.161
-513.843	-166.040	0.061	0.003
-512.829	800.000	-0.048	0.139
-511.814	114.608	0.201	0.248
-510.799	-55.248	0.236	0.107
-509.785	-174.364	-0.314	0.009
-508.770	42.803	-0.208	0.191
-507.756	18.091	-0.090	-0.072
-506.741	-21.608	-0.134	0.082
-505.726	300.554	0.078	0.146
-504.712	-200.000	-0.009	-0.086
-503.697	800.000	0.099	-0.331
-502.683	19.159	-0.258	0.210
-501.668	102.413	0.270	0.319
-500.653	800.000	0.050	0.199
-499.639	-65.659	0.109	-0.044
-498.624	-200.000	-0.005	0.142
-497.610	-113.091	-0.127	-0.025
-496.595	-127.978	-0.059	-0.009
-495.581	-60.718	0.100	-0.043
-494.566	-121.162	-0.199	-0.034
-493.551	-104.449	-0.245	-0.057
-492.537	-62.280	-0.253	-0.107
-491.522	-200.000	-0.013	0.110
-490.508	-31.043	0.147	-0.084
-489.493	-200.000	-0.049	-0.348
-488.478	-23.369	-0.176	0.107
-487.464	-114.063	-0.175	-0.034
-486.449	800.000	-0.028	-0.101
-485.435	-92.429	0.210	0.060
-484.420	-93.283	0.263	0.074
-483.405	-200.000	0.002	-0.058
-482.391	-4.773	-0.070	0.049
-481.376	-7.896	-0.121	-0.083
-480.362	-37.674	-0.037	-0.020
-479.347	-48.325	-0.201	0.098
-478.332	28.724	0.171	0.147
-477.318	-158.747	0.273	-0.016
-476.303	-36.637	0.150	0.082
-475.289	12.910	-0.062	-0.049
-474.274	342.662	-0.107	-0.212
-473.259	-200.000	-0.017	-0.229
-472.245	-167.676	0.192	0.008
-471.230	-27.733	-0.372	-0.218
-470.216	399.948	0.039	0.083
-469.201	-35.260	0.049	0.027
-468.186	-200.000	0.002	0.036
-467.172	-137.853	0.176	-0.020
-466.157	-191.746	-0.332	-0.003
-465.143	102.080	-0.303	0.358
-464.128	455.470	0.153	-0.343
-463.113	236.552	0.147	0.246
-462.099	171.963	-0.041	0.060
-461.084	-95.688	-0.137	-0.037
-460.070	113.077	-0.134	-0.164
-459.055	369.038	-0.074	-0.151
-458.040	599.122	-0.159	-0.399
-457.026	562.719	0.109	-0.265
-456.011	413.382	-0.072	0.155
-454.997	-33.023	0.250	-0.140
-453.982	-85.833	0.308	0.096
-452.968	-164.780	-0.068	0.003
-451.953	129.799	0.291	-0.376
-450.938	-200.000	0.019	0.318
-449.924	-36.435	0.229	-0.124
-448.909	800.000	-0.044	-0.188
-447.895	-116.006	0.244	-0.046
-446.880	322.732	0.038	-0.073
-445.865	6.009	0.216	0.161
-444.851	-36.823	0.110	-0.060
-443.836	-200.000	-0.043	0.317
-442.822	-44.614	-0.148	-0.074
-441.807	10.809	0.256	0.197
-440.792	-60.178	0.110	0.047
-439.778	800.000	-0.098	-0.384
-438.763	-36.095	-0.188	-0.103
-437.749	-200.000	-0.038	0.227
-436.734	-133.473	0.030	-0.004
-435.719	83.142	0.111	-0.122
-434.705	502.654	-0.053	0.124
-433.690	-104.712	-0.190	-0.044
-432.676	-43.416	-0.103	0.052
-431.661	-44.569	-0.186	0.094
-430.646	-113.437	-0.108	0.021
-429.632	-144.021	0.081	0.008
-428.617	-125.929	-0.521	-0.079
-427.603	101.118	-0.150	-0.176
-426.588	61.633	0.196	0.197
-425.573	23.628	-0.061	-0.051
-424.559	-68.019	-0.269	-0.106
-423.544	12.468	0.231	0.180
-422.530	608.814	0.168	0.422
-421.515	-200.000	0.021	-0.219
-420.500	114.379	0.083	0.102
-419.486	-8.228	0.059	0.040
-418.471	262.592	-0.009	0.015
-417.457	92.663	-0.142	-0.161
-416.442	256.452	0.050	0.087
-415.428	135.145	0.139	0.182
-414.413	702.781	0.036	-0.095
-413.398	505.001	0.119	0.278
-412.384	-81.753	0.092	0.030
-411.369	-200.000	0.066	0.343
-410.355	257.229	0.007	-0.012
-409.340	-128.780	-0.118	0.017
-408.325	5.727	0.131	0.097
-407.311	277.034	0.197	0.354
-406.296	25.753	-0.088	0.074
-405.282	295.786	-0.049	0.091
-404.267	558.710	0.070	0.171
-403.252	-145.717	0.503	0.045
-402.238	-21.938	-0.115	-0.071
-401.223	800.000	-0.032	-0.094
-400.209	471.954	0.063	-0.144
-399.194	16.893	0.123	-0.098
-398.179	-92.223	0.173	-0.049
-397.165	244.740	0.049	-0.082
-396.150	800.000	-0.093	0.363
-395.136	-163.742	-0.266	0.013
-394.121	41.762	-0.158	0.144
-393.106	587.644	0.072	0.180
-392.092	306.352	-0.173	-0.324
-391.077	-200.000	0.005	-0.096
-390.063	157.428	-0.075	0.105
-389.048	-64.394	0.077	-0.031
-388.033	-200.000	0.016	-0.141
-387.019	659.361	0.012	-0.030
-386.004	-52.534	0.246	-0.114
-384.990	-13.435	-0.146	-0.095
-383.975	-27.848	-0.141	-0.082
-382.960	-53.750	0.189	0.087
-381.946	-16.647	0.228	-0.146
-380.931	-200.000	-0.019	0.107
-379.917	-33.673	0.195	0.108
-378.902	381.553	-0.053	0.109
-377.888	12.280	0.249	0.193
-376.873	139.967	-0.188	-0.250
-375.858	65.439	-0.157	0.160
-374.844	-90.556	0.192	0.056
-373.829	-93.204	0.156	-0.044
-372.815	-114.345	0.385	0.075
-371.800	-92.944	-0.147	-0.041
-370.785	322.360	0.061	-0.117
-369.771	120.509	0.174	-0.217
-368.756	711.814	0.034	0.090
-367.742	6.535	0.058	0.043
-366.727	57.335	-0.125	0.123
-365.712	-10.022	0.159	0.107
-364.698	90.488	0.107	0.120
-363.683	48.954	-0.345	0.326
-362.669	-200.000	-0.020	0.209
-361.654	118.378	0.024	0.030
-360.639	-84.796	-0.197	0.062
-359.625	-71.124	0.357	-0.135
-358.610	-91.909	0.371	0.106
-357.596	-200.000	0.009	-0.041
-356.581	-25.108	0.069	-0.041
-355.566	48.457	-0.210	-0.198
-354.552	797.760	-0.137	0.379
-353.537	-125.493	0.403	0.062
-352.523	190.243	0.163	0.246
-351.508	800.000	0.085	0.358
-350.493	70.355	-0.264	0.275
-349.479	152.498	-0.140	0.193
-348.464	-200.000	-0.018	-0.262
-347.450	38.878	-0.288	0.259
-346.435	467.869	0.089	0.200
-345.420	-168.496	-0.142	0.005
-344.406	800.000	0.036	0.114
-343.391	-106.454	0.358	0.080
-342.377	-166.753	0.301	-0.013
-341.362	-162.433	0.348	0.017
-340.348	-47.803	-0.254	-0.124
-339.333	-54.534	0.197	-0.090
-338.318	-141.217	-0.335	-0.034
-337.304	-200.000	0.006	0.122
-336.289	7.339	-0.260	-0.195
-335.275	-12.664	0.037	0.024
-334.260	-200.000	0.018	0.124
-333.245	-63.729	-0.186	-0.077
-332.231	-200.000	-0.002	0.124
-331.216	-106.344	0.191	-0.043
-330.202	-200.000	0.004	-0.242
-329.187	-69.369	-0.442	0.170
-328.172	-200.000	0.032	-0.371
-327.158	289.414	0.101	0.183
-326.143	87.519	0.187	-0.208
-325.129	800.000	0.169	0.476
-324.114	105.549	0.174	0.207
-323.099	-86.609	0.366	-0.113
-322.085	800.000	-0.068	-0.205
-321.070	156.490	-0.164	0.228
-320.056	252.805	-0.014	0.024
-319.041	-84.738	-0.458	-0.145
-318.026	800.000	0.048	0.149
-317.012	-200.000	0.010	-0.230
-315.997	139.270	-0.106	0.141
-314.983	800.000	-0.099	0.358
-313.968	22.419	-0.237	0.194
-312.953	9.686	-0.325	-0.247
-311.939	16.634	0.141	0.112
-310.924	135.620	0.074	0.096
-309.910	11.654	-0.210	0.162
-308.895	-68.230	-0.103	-0.040
-307.880	-200.000	0.023	-0.274
-306.866	2.930	0.156	0.113
-305.851	-71.070	0.118	-0.044
-304.837	800.000	-0.030	0.100
-303.822	-29.593	0.311	-0.178
-302.807	93.427	-0.129	0.146
-301.793	-94.689	-0.040	-0.011
-300.778	-52.133	-0.212	-0.099
-299.764	202.801	0.148	0.230
-298.749	-200.000	-0.015	0.163
-297.735	-104.958	-0.145	0.033
-296.720	-78.066	0.243	-0.084
-295.705	56.088	0.133	0.130
-294.691	-200.000	0.033	0.304
-293.676	113.502	0.141	-0.172
-292.662	-185.976	0.193	-0.003
-291.647	-123.315	-0.405	0.065
-290.632	-152.692	-0.178	0.013
-289.618	201.630	-0.038	-0.058
-288.603	-142.481	-0.130	-0.013
-287.589	-92.506	-0.252	0.071
-286.574	-200.000	0.060	0.553
-285.559	188.588	0.110	0.166
-284.545	38.595	0.077	0.069
-283.530	146.286	0.094	-0.126
-282.516	-9.615	0.165	-0.110
-281.501	605.018	-0.058	0.145
-280.486	800.000	-0.047	-0.153
-279.472	-6.359	-0.086	0.059
-278.457	-40.825	0.186	0.097
-277.443	-112.229	0.091	0.018
-276.428	-8.845	0.102	0.068
-275.413	66.947	-0.117	-0.119
-274.399	43.705	0.235	-0.216
-273.384	0.326	-0.425	0.304
-272.370	27.831	0.199	0.168
-271.355	-62.273	-0.065	0.027
-270.340	140.554	0.153	-0.203
-269.326	-77.593	-0.084	0.029
-268.311	-200.000	0.028	-0.236
-267.297	800.000	-0.026	0.115
-266.282	59.955	-0.100	-0.099
-265.267	404.110	0.149	0.314
-264.253	-50.835	-0.172	-0.081
-263.238	136.321	0.195	-0.254
-262.224	71.613	0.086	-0.089
-261.209	-123.682	0.151	-0.024
-260.195	66.124	0.192	0.195
-259.180	-118.217	-0.183	-0.033
-258.165	547.705	-0.059	-0.142
-257.151	244.080	0.133	-0.224
-256.136	-110.593	0.100	-0.021
-255.122	-54.791	0.077	0.035
-254.107	-127.181	-0.279	0.041
-253.092	-110.458	0.160	-0.033
-252.078	-73.855	-0.375	0.136
-251.063	-20.449	0.152	-0.093
-250.049	59.983	-0.279	0.277
-249.034	70.305	0.173	0.179
-248.019	43.745	-0.151	-0.139
-247.005	-55.537	-0.116	-0.052
-245.990	-200.000	-0.035	-0.243
-244.976	391.977	-0.107	0.223
-243.961	800.000	-0.029	0.108
-242.946	800.000	0.049	-0.143
-241.932	195.258	-0.094	-0.144
-240.917	223.201	-0.164	-0.265
-239.903	-200.000	0.019	0.273
-238.888	-38.755	-0.050	-0.027
-237.873	-47.742	0.081	-0.039
-236.859	473.043	0.052	-0.118
-235.844	70.354	-0.060	0.062
-234.830	58.489	-0.126	0.124
-233.815	-200.000	-0.043	0.304
-232.800	-11.278	0.120	0.079
-231.786	94.539	-0.122	-0.139
-230.771	-40.421	-0.246	0.128
-229.757	-50.698	-0.169	-0.080
-228.742	-61.253	0.087	-0.037
-227.727	48.202	-0.337	0.315
-226.713	-77.115	0.077	-0.027
-225.698	800.000	-0.019	0.075
-224.684	691.646	-0.042	0.111
-223.669	-159.180	-0.057	0.003
-222.655	-0.236	-0.077	0.055
-221.640	800.000	0.044	0.149
-220.625	39.925	0.363	-0.326
-219.611	417.959	-0.216	-0.462
-218.596	486.091	0.155	0.353
-217.582	415.195	0.062	-0.133
-216.567	-130.209	-0.033	-0.005
-215.552	200.062	0.154	-0.237
-214.538	-200.000	-0.003	0.197
-213.523	-113.339	0.094	-0.018
-212.509	-98.058	0.491	0.126
-211.494	207.511	-0.084	-0.131
-210.479	-200.000	0.022	0.101
-209.465	-91.264	-0.073	-0.021
-208.450	-200.000	-0.062	0.319
-207.436	-200.000	0.009	0.419
-206.421	-40.941	-0.151	0.078
-205.406	74.627	-0.194	0.204
-204.392	73.419	0.252	-0.264
-203.377	-200.000	-0.020	-0.244
-202.363	310.103	0.038	0.071
-201.348	800.000	0.060	-0.219
-200.333	-200.000	-0.002	0.029
-199.319	66.545	-0.213	0.216
-198.304	416.352	-0.026	0.055
-197.290	800.000	-0.027	-0.095
-196.275	-135.619	-0.279	-0.033
-195.260	496.282	0.179	-0.412
-194.246	31.535	-0.071	-0.061
-193.231	-5.261	0.160	-0.110
-192.217	-32.552	0.145	0.081
-191.202	450.806	-0.215	-0.475
-190.187	-110.560	0.177	0.037
-189.173	82.755	0.167	-0.181
-188.158	309.896	0.101	-0.188
-187.144	-109.241	0.221	0.047
-186.129	21.943	0.177	-0.144
-185.114	-200.000	-0.008	0.145
-184.100	-7.707	-0.214	0.145
-183.085	800.000	-0.096	-0.357
-182.071	100.242	0.187	-0.217
-181.056	800.000	0.044	-0.172
-180.042	-200.000	0.032	0.141
-179.027	-92.754	0.450	-0.126
-178.012	-200.000	-0.063	-0.423
-176.998	299.026	-0.012	0.022
-175.983	-200.000	0.046	-0.283
-174.969	-22.461	-0.020	-0.012
-173.954	-106.830	-0.058	0.013
-172.939	-18.977	0.099	0.061
-171.925	-10.050	-0.205	0.136
-170.910	-200.000	-0.000	0.046
-169.896	333.877	-0.109	-0.210
-168.881	-200.000	-0.035	0.445
-167.866	99.211	-0.072	-0.083
-166.852	-13.485	0.169	-0.109
-165.837	-195.611	0.149	-0.001
-164.823	-59.097	0.118	0.051
-163.808	800.000	-0.064	-0.234
-162.793	698.260	-0.018	-0.047
-161.779	-45.200	0.177	0.088
-160.764	372.755	-0.055	-0.112
-159.750	4.665	0.206	-0.151
-158.735	-3.682	0.135	0.093
-157.720	333.750	-0.077	-0.148
-156.706	604.292	-0.049	-0.122
-155.691	-143.382	-0.281	0.027
-154.677	94.924	0.017	-0.020
-153.662	-36.882	0.190	-0.102
-152.647	-200.000	0.028	0.317
-151.633	-187.398	-0.269	-0.004
-150.618	-80.855	-0.233	-0.077
-149.604	433.618	0.023	-0.050
-148.589	-200.000	-0.009	-0.233
-147.574	-200.000	0.012	0.188
-146.560	696.177	-0.055	0.145
-145.545	51.384	0.085	0.081
-144.531	-147.853	0.356	0.030
-143.516	800.000	-0.053	0.197
-142.502	76.665	-0.140	0.148
-141.487	496.940	-0.234	-0.538
-140.472	99.035	0.111	0.127
-139.458	396.330	0.042	0.087
-138.443	-99.128	0.250	0.063
-137.429	419.752	-0.095	0.203
-136.414	800.000	0.027	-0.078
-135.399	158.778	-0.267	-0.370
-134.385	-113.705	-0.197	-0.038
-133.370	-80.206	-0.343	0.115
-132.356	282.349	-0.035	-0.062
-131.341	-98.940	0.084	0.021
-130.326	-40.497	0.260	-0.134
-129.312	-53.392	-0.170	-0.078
-128.297	-55.922	-0.410	0.182
-127.283	285.053	-0.222	0.399
-126.268	321.388	0.058	-0.110
-125.253	63.415	0.057	0.057
-124.239	248.721	-0.096	0.162
-123.224	-14.614	-0.163	-0.105
-122.210	186.831	-0.160	-0.238
-121.195	800.000	-0.060	0.174
-120.180	-123.247	-0.190	0.030
