DTS Sentinel unit serial number:	SN413079Multiplexer serial number:	ORYXHardware model number:	OX4-SRSoftware version number:	ORYX F/W v4.00 Oryx Data Collector v3.7.2.0data status	okinstallation	princeton_trtdifferential loss correction	single-endedforward channel	channel 1reverse channel	N/Adate	2019/09/16time	13:58:35forward acquisition time	60.00reverse acquisition time	0.00gamma	496.2192k internal	0.2294k external	0.2294temperature offset calibration	0.9954default loss term (dB/km)	0.3790temperature slope calibration	1.0000multiplexer offset coefficient	1.0000multiplexer slope coefficient	1.0000fibre end	0.00T internal ref (°C)	42.37T ext. ref 1 (°C)	14.01T ext. ref 2 (°C)	37.80length (m)	temperature (°C)	Stokes	anti-Stokes-747.200	-71.320	0.178	0.068
-746.185	-200.000	-0.066	0.314
-745.171	-200.000	0.013	-0.067
-744.156	800.000	0.043	0.135
-743.142	-68.918	-0.432	-0.171
-742.127	-89.946	0.192	0.057
-741.112	40.731	-0.111	0.102
-740.098	156.589	-0.060	0.084
-739.083	-55.111	-0.255	0.118
-738.069	0.929	0.181	0.132
-737.054	191.400	0.078	-0.121
-736.039	-131.316	-0.069	-0.009
-735.025	-86.552	-0.295	0.092
-734.010	112.753	0.152	-0.189
-732.996	90.794	-0.139	-0.159
-731.981	-200.000	0.059	-0.274
-730.966	800.000	-0.147	-0.419
-729.952	-200.000	0.071	-0.501
-728.937	-127.408	0.492	-0.073
-727.923	132.888	-0.079	-0.105
-726.908	800.000	-0.049	-0.181
-725.894	-90.040	-0.175	-0.052
-724.879	-179.000	-0.411	-0.009
-723.864	-117.403	-0.131	-0.024
-722.850	800.000	0.026	-0.109
-721.835	-200.000	-0.017	0.257
-720.821	224.517	-0.176	0.291
-719.806	195.456	0.127	-0.197
-718.791	-195.998	0.252	0.002
-717.777	-56.356	-0.273	0.124
-716.762	-200.000	0.002	-0.431
-715.748	-29.555	-0.180	-0.105
-714.733	-61.410	-0.311	-0.134
-713.718	-26.358	-0.244	-0.147
-712.704	-133.528	0.335	0.043
-711.689	71.411	0.159	-0.169
-710.675	-200.000	0.017	0.158
-709.660	-72.528	-0.176	-0.067
-708.645	35.692	0.139	-0.124
-707.631	-159.073	-0.343	0.020
-706.616	-61.800	-0.139	-0.060
-705.602	76.498	-0.104	-0.113
-704.587	-200.000	0.040	-0.185
-703.572	109.212	-0.203	0.249
-702.558	-46.087	-0.076	-0.038
-701.543	568.498	-0.059	-0.145
-700.529	251.192	0.151	-0.262
-699.514	69.492	0.177	0.186
-698.499	32.921	0.079	-0.070
-697.485	242.858	0.037	0.064
-696.470	-95.246	0.309	-0.085
-695.456	-84.716	-0.157	0.051
-694.441	-53.640	-0.084	0.039
-693.426	-200.000	-0.047	-0.472
-692.412	-200.000	-0.015	-0.121
-691.397	-200.000	-0.028	-0.160
-690.383	5.779	-0.256	-0.193
-689.368	201.131	0.080	-0.126
-688.354	-89.780	0.108	0.032
-687.339	584.593	0.070	0.175
-686.324	-64.642	-0.195	-0.081
-685.310	-200.000	0.004	0.222
-684.295	-37.410	-0.273	0.149
-683.281	-15.562	0.217	-0.141
-682.266	-98.667	-0.377	0.098
-681.251	-200.000	-0.249	0.000
-680.237	21.095	-0.294	-0.243
-679.222	205.438	0.097	0.154
-678.208	63.295	-0.028	-0.029
-677.193	-200.000	-0.036	-0.192
-676.178	-2.859	0.076	-0.054
-675.164	800.000	-0.050	-0.173
-674.149	158.529	-0.159	-0.226
-673.135	341.795	-0.110	-0.219
-672.120	-135.517	0.130	0.016
-671.105	273.124	-0.050	-0.089
-670.091	68.642	-0.238	-0.249
-669.076	420.723	-0.113	0.247
-668.062	-67.154	-0.324	0.130
-667.047	800.000	0.102	0.311
-666.032	74.884	-0.202	-0.217
-665.018	-138.980	0.256	0.028
-664.003	-131.118	0.221	0.030
-662.989	-68.148	-0.060	-0.024
-661.974	-200.000	-0.381	-0.001
-660.959	-200.000	0.004	0.180
-659.945	-27.845	-0.144	-0.085
-658.930	97.907	0.112	0.131
-657.916	249.614	-0.290	-0.502
-656.901	128.914	-0.031	0.041
-655.886	800.000	-0.085	-0.240
-654.872	311.001	-0.159	0.304
-653.857	369.325	0.195	-0.403
-652.843	199.068	-0.135	-0.211
-651.828	74.629	0.084	0.090
-650.814	-76.270	-0.235	-0.084
-649.799	-108.458	0.089	0.020
-648.784	800.000	0.039	-0.118
-647.770	-143.127	-0.158	-0.016
-646.755	-56.457	0.112	-0.050
-645.741	-64.178	-0.412	0.171
-644.726	22.547	-0.157	-0.131
-643.711	-200.000	0.001	-0.178
-642.697	58.311	-0.084	0.084
-641.682	-105.518	0.354	0.082
-640.668	-200.000	-0.033	-0.265
-639.653	-42.428	-0.186	0.097
-638.638	-25.021	-0.186	-0.112
-637.624	-200.000	-0.034	-0.228
-636.609	-34.666	0.151	-0.084
-635.595	183.106	-0.080	-0.120
-634.580	-128.699	-0.159	-0.023
-633.565	302.901	0.053	0.100
-632.551	-36.967	-0.162	0.088
-631.536	800.000	0.139	-0.404
-630.522	-164.646	0.228	0.010
-629.507	159.657	0.022	-0.031
-628.492	-115.225	0.293	-0.056
-627.478	330.603	-0.096	-0.188
-626.463	-2.417	0.321	-0.229
-625.449	28.195	0.187	-0.161
-624.434	9.954	0.107	-0.083
-623.419	-121.357	-0.207	-0.035
-622.405	500.616	0.064	-0.151
-621.390	800.000	0.013	0.057
-620.376	76.395	-0.242	-0.261
-619.361	-35.331	0.112	0.062
-618.346	-77.086	-0.190	0.067
-617.332	-122.473	0.166	0.027
-616.317	441.770	0.136	0.303
-615.303	57.869	0.100	-0.100
-614.288	-169.288	0.132	-0.005
-613.273	-200.000	0.051	0.282
-612.259	-200.000	0.026	-0.154
-611.244	-100.403	-0.289	-0.073
-610.230	150.128	-0.151	-0.208
-609.215	-200.000	-0.004	0.122
-608.201	-73.261	-0.392	0.146
-607.186	519.941	0.037	0.089
-606.171	-36.553	0.177	-0.097
-605.157	24.841	0.134	-0.113
-604.142	-158.682	0.223	0.013
-603.128	-63.597	-0.255	0.107
-602.113	55.036	-0.136	-0.134
-601.098	342.541	-0.017	-0.034
-600.084	-41.822	-0.117	0.061
-599.069	-104.345	0.126	0.030
-598.055	-1.843	0.098	-0.070
-597.040	-200.000	-0.030	0.428
-596.025	-154.117	-0.271	0.019
-595.011	297.602	0.092	-0.173
-593.996	-200.000	-0.018	0.166
-592.982	-142.603	-0.275	0.027
-591.967	-200.000	0.023	0.213
-590.952	-69.696	-0.228	-0.089
-589.938	-200.000	0.012	-0.307
-588.923	399.237	-0.041	-0.088
-587.909	-200.000	-0.010	0.189
-586.894	146.363	-0.187	-0.255
-585.879	42.512	-0.160	-0.148
-584.865	-69.945	0.028	0.011
-583.850	-160.317	-0.205	0.011
-582.836	-151.552	0.469	-0.035
-581.821	-63.782	-0.201	-0.084
-580.806	60.928	0.083	0.084
-579.792	30.259	0.241	0.209
-578.777	-68.795	-0.154	-0.061
-577.763	-154.237	0.157	0.011
-576.748	34.320	-0.237	-0.211
-575.733	110.062	-0.173	0.211
-574.719	-175.245	-0.287	0.008
-573.704	-200.000	0.018	-0.183
-572.690	-53.043	-0.264	-0.123
-571.675	-200.000	-0.043	-0.437
-570.661	-110.839	-0.306	0.064
-569.646	55.254	-0.189	0.186
-568.631	-64.024	0.436	-0.181
-567.617	-200.000	-0.023	0.225
-566.602	1.954	-0.206	-0.151
-565.588	-192.887	-0.399	0.004
-564.573	-17.829	0.175	-0.111
-563.558	349.820	-0.155	-0.311
-562.544	800.000	0.037	-0.115
-561.529	27.287	0.028	0.024
-560.515	-15.535	-0.208	0.135
-559.500	-52.706	-0.079	-0.037
-558.485	-200.000	-0.017	0.109
-557.471	-5.790	0.112	0.078
-556.456	800.000	0.047	-0.192
-555.442	-139.871	0.108	-0.012
-554.427	145.257	0.227	0.308
-553.412	-200.000	-0.007	-0.195
-552.398	256.973	0.140	0.244
-551.383	-200.000	0.057	0.380
-550.369	800.000	-0.087	0.265
-549.354	99.986	-0.043	0.051
-548.339	-86.951	0.254	-0.079
-547.325	-200.000	0.049	0.232
-546.310	-200.000	-0.065	0.343
-545.296	52.267	0.341	0.330
-544.281	10.598	0.250	-0.194
-543.266	-134.208	-0.266	0.033
-542.252	-54.582	-0.022	-0.010
-541.237	101.885	0.127	0.151
-540.223	-52.870	-0.166	0.077
-539.208	38.720	-0.237	-0.215
-538.193	-105.750	0.278	0.064
-537.179	-22.479	-0.172	0.106
-536.164	5.747	0.028	0.021
-535.150	639.040	0.154	0.397
-534.135	-91.980	0.071	-0.020
-533.121	-4.229	0.095	-0.067
-532.106	354.313	0.189	-0.381
-531.091	-200.000	0.087	0.530
-530.077	-24.163	-0.041	0.025
-529.062	58.090	0.297	0.295
-528.048	-200.000	-0.026	-0.171
-527.033	-13.799	0.299	-0.196
-526.018	-125.613	0.174	0.027
-525.004	-57.619	0.235	-0.105
-523.989	-200.000	-0.019	0.249
-522.975	121.888	-0.182	0.230
-521.960	365.250	0.060	0.123
-520.945	225.786	0.185	0.303
-519.931	-105.653	0.058	0.013
-518.916	259.067	0.079	0.139
-517.902	-17.836	0.027	0.017
-516.887	53.561	0.354	-0.345
-515.872	-113.807	-0.202	-0.040
-514.858	3.386	-0.070	0.052
-513.843	125.125	0.081	0.103
-512.829	800.000	0.104	-0.347
-511.814	68.729	-0.215	-0.224
-510.799	-93.167	-0.232	0.065
-509.785	800.000	0.095	-0.346
-508.770	315.663	0.173	-0.331
-507.756	-22.386	0.216	-0.132
-506.741	245.473	-0.129	-0.220
-505.726	-70.836	0.216	-0.082
-504.712	-200.000	0.050	-0.302
-503.697	-200.000	-0.024	-0.124
-502.683	140.031	0.106	0.141
-501.668	-92.086	-0.158	0.045
-500.653	-58.641	-0.210	0.092
-499.639	635.535	-0.008	0.020
-498.624	-80.460	-0.030	0.010
-497.610	25.400	0.103	-0.087
-496.595	47.268	-0.160	-0.151
-495.581	8.966	0.181	0.138
-494.566	-179.369	-0.148	-0.003
-493.551	129.197	0.108	0.140
-492.537	-131.291	-0.168	-0.023
-491.522	167.234	-0.148	-0.213
-490.508	-45.568	-0.070	-0.035
-489.493	-200.000	-0.060	-0.368
-488.478	1.397	0.093	0.068
-487.464	243.794	0.217	0.369
-486.449	-114.465	0.207	0.040
-485.435	-200.000	-0.041	-0.360
-484.420	27.806	-0.187	-0.159
-483.405	123.014	-0.186	0.236
-482.391	18.067	-0.259	-0.209
-481.376	177.425	0.080	0.117
-480.362	109.870	-0.194	0.235
-479.347	800.000	-0.040	0.145
-478.332	244.723	-0.198	0.337
-477.318	361.720	-0.055	-0.111
-476.303	141.444	-0.051	-0.068
-475.289	-200.000	-0.009	0.271
-474.274	86.009	-0.014	0.015
-473.259	800.000	0.138	-0.393
-472.245	800.000	0.064	-0.262
-471.230	123.573	-0.140	-0.178
-470.216	-58.376	-0.131	0.058
-469.201	285.479	-0.050	0.092
-468.186	800.000	0.055	0.191
-467.172	-47.629	-0.214	-0.105
-466.157	800.000	0.065	-0.203
-465.143	23.680	0.095	-0.079
-464.128	-200.000	-0.062	0.300
-463.113	-200.000	-0.045	-0.245
-462.099	-148.408	0.480	0.040
-461.084	-45.796	0.268	-0.134
-460.070	-200.000	0.032	-0.212
-459.055	-200.000	-0.020	-0.104
-458.040	-98.250	0.262	0.068
-457.026	181.696	0.175	-0.261
-456.011	-200.000	0.007	0.098
-454.997	-103.358	-0.430	0.102
-453.982	-27.871	0.128	0.075
-452.968	-82.427	-0.185	-0.061
-451.953	46.888	0.195	0.183
-450.938	800.000	0.064	0.236
-449.924	-200.000	-0.028	0.309
-448.909	800.000	-0.057	0.249
-447.895	-154.915	-0.203	-0.014
-446.880	-119.807	-0.080	-0.014
-445.865	-200.000	0.043	-0.299
-444.851	-49.576	0.179	0.086
-443.836	-200.000	-0.074	-0.340
-442.822	-200.000	0.167	0.000
-441.807	-63.347	-0.109	-0.045
-440.792	103.448	-0.204	0.242
-439.778	49.529	-0.248	-0.236
-438.763	-200.000	0.044	0.574
-437.749	800.000	-0.019	-0.076
-436.734	19.908	0.099	0.080
-435.719	242.377	0.021	-0.036
-434.705	96.665	0.129	-0.150
-433.690	-112.374	-0.193	0.039
-432.676	14.203	0.259	-0.204
-431.661	-98.245	0.288	0.075
-430.646	107.242	-0.208	-0.250
-429.632	-8.509	0.031	-0.021
-428.617	-200.000	0.002	0.040
-427.603	-177.906	-0.247	-0.006
-426.588	72.195	0.215	-0.226
-425.573	8.566	0.343	-0.261
-424.559	-44.222	0.249	-0.126
-423.544	161.741	-0.020	-0.028
-422.530	-31.477	0.200	0.114
-421.515	-106.978	-0.221	0.049
-420.500	104.150	-0.257	0.305
-419.486	-29.888	0.176	-0.101
-418.471	112.853	-0.111	0.136
-417.457	-118.815	0.193	0.034
-416.442	42.468	-0.089	-0.081
-415.428	-11.061	0.322	0.215
-414.413	-69.557	0.242	0.094
-413.398	800.000	0.016	-0.045
-412.384	-74.981	-0.117	-0.042
-411.369	-99.547	0.327	0.083
-410.355	-86.667	-0.202	0.062
-409.340	-200.000	-0.008	0.298
-408.325	-200.000	-0.022	-0.126
-407.311	-26.176	0.238	-0.141
-406.296	-132.494	-0.189	-0.025
-405.282	800.000	-0.031	-0.131
-404.267	213.872	-0.144	0.230
-403.252	60.814	0.118	-0.118
-402.238	241.192	0.161	0.271
-401.223	159.197	-0.122	-0.171
-400.209	-123.025	0.038	-0.006
-399.194	-123.845	-0.232	0.037
-398.179	721.662	0.073	-0.196
-397.165	390.093	0.088	-0.185
-396.150	800.000	-0.026	0.115
-395.136	800.000	-0.034	-0.107
-394.121	249.831	0.114	-0.195
-393.106	-57.592	-0.252	0.111
-392.092	-76.259	-0.287	-0.102
-391.077	424.182	0.040	-0.087
-390.063	30.770	0.216	-0.187
-389.048	-200.000	0.001	0.338
-388.033	-200.000	-0.026	0.155
-387.019	-172.647	0.045	0.001
-386.004	800.000	0.023	-0.102
-384.990	800.000	0.031	0.089
-383.975	3.720	-0.118	-0.087
-382.960	-136.373	-0.376	-0.044
-381.946	55.334	-0.255	0.249
-380.931	-21.740	-0.070	-0.043
-379.917	-13.473	-0.149	0.097
-378.902	152.499	0.037	0.050
-377.888	39.295	-0.213	0.193
-376.873	40.529	0.194	-0.177
-375.858	742.690	0.066	0.178
-374.844	159.896	0.219	0.307
-373.829	186.146	0.020	-0.030
-372.815	-200.000	0.025	-0.237
-371.800	274.261	-0.082	0.145
-370.785	-73.250	0.415	0.153
-369.771	-11.211	0.296	0.197
-368.756	-49.662	0.337	0.162
-367.742	-200.000	0.309	0.000
-366.727	425.990	0.046	0.100
-365.712	31.943	0.205	-0.178
-364.698	-64.071	-0.120	0.049
-363.683	65.294	-0.213	-0.217
-362.669	57.942	0.098	0.097
-361.654	-51.317	0.091	0.043
-360.639	233.054	-0.143	-0.237
-359.625	800.000	-0.039	0.147
-358.610	291.947	0.140	0.258
-357.596	-200.000	-0.001	0.171
-356.581	659.189	-0.079	-0.204
-355.566	-78.340	-0.225	-0.078
-354.552	271.044	-0.034	-0.060
-353.537	-136.729	0.099	-0.012
-352.523	800.000	0.101	-0.359
-351.508	-200.000	-0.016	-0.154
-350.493	40.524	-0.130	0.118
-349.479	-52.461	-0.210	-0.098
-348.464	800.000	-0.012	-0.034
-347.450	-122.338	-0.266	0.044
-346.435	-106.898	0.147	-0.033
-345.420	155.225	-0.037	-0.051
-344.406	23.207	0.087	-0.072
-343.391	358.689	-0.146	0.293
-342.377	22.780	0.278	-0.229
-341.362	12.928	-0.023	-0.018
-340.348	-118.544	0.065	-0.012
-339.333	-39.028	-0.065	-0.035
-338.318	-200.000	0.000	-0.005
-337.304	319.117	0.144	0.275
-336.289	800.000	-0.057	-0.171
-335.275	-33.033	0.116	-0.065
-334.260	-71.427	-0.169	-0.064
-333.245	-111.926	0.288	-0.059
-332.231	44.617	0.181	0.167
-331.216	-200.000	0.001	0.290
-330.202	640.001	-0.059	-0.150
-329.187	342.041	-0.112	-0.221
-328.172	800.000	0.016	-0.055
-327.158	-40.743	0.094	0.049
-326.143	627.961	-0.073	-0.185
-325.129	574.555	-0.046	-0.112
-324.114	800.000	-0.048	0.166
-323.099	-116.216	0.123	0.023
-322.085	2.151	0.162	0.118
-321.070	-88.476	-0.257	0.077
-320.056	481.090	-0.028	-0.063
-319.041	95.059	-0.218	0.250
-318.026	452.012	-0.088	-0.196
-317.012	150.327	-0.152	-0.208
-315.997	-200.000	0.038	-0.363
-314.983	-145.540	0.083	0.007
-313.968	-86.591	-0.188	0.058
-312.953	-177.754	0.017	-0.000
-311.939	-2.015	-0.167	0.118
-310.924	62.757	-0.086	-0.087
-309.910	-200.000	0.010	0.354
-308.895	102.780	0.092	0.108
-307.880	701.575	-0.102	-0.270
-306.866	-200.000	0.035	0.192
-305.851	238.750	-0.107	-0.179
-304.837	-92.879	0.099	-0.028
-303.822	-151.650	0.243	0.018
-302.807	174.205	0.216	0.313
-301.793	-200.000	-0.022	0.216
-300.778	-132.538	0.270	0.035
-299.764	-200.000	-0.017	0.371
-298.749	-111.732	-0.309	-0.063
-297.735	-124.199	0.307	-0.048
-296.720	76.708	0.137	-0.146
-295.705	-12.674	0.136	0.089
-294.691	-81.261	-0.381	0.126
-293.676	-71.338	-0.155	0.058
-292.662	-200.000	-0.034	-0.186
-291.647	-200.000	0.031	0.206
-290.632	800.000	-0.128	0.398
-289.618	-200.000	-0.011	0.228
-288.603	197.237	-0.086	-0.132
-287.589	-90.542	-0.306	-0.089
-286.574	800.000	0.031	-0.113
-285.559	486.162	0.024	0.054
-284.545	85.208	-0.361	0.398
-283.530	117.434	0.089	0.110
-282.516	-99.644	0.118	-0.030
-281.501	-94.478	-0.134	-0.037
-280.486	484.084	0.091	-0.209
-279.472	-18.932	0.181	-0.113
-278.457	-108.728	-0.138	0.030
-277.443	-40.791	-0.345	0.179
-276.428	137.760	-0.082	0.108
-275.413	-1.847	-0.367	-0.259
-274.399	-58.983	0.338	0.147
-273.384	218.025	0.116	0.186
-272.370	-200.000	-0.009	-0.205
-271.355	339.046	0.141	0.275
-270.340	335.340	-0.148	0.288
-269.326	130.526	0.032	0.041
-268.311	-112.668	-0.293	-0.059
-267.297	-110.571	0.237	-0.049
-266.282	-117.101	0.163	-0.030
-265.267	800.000	-0.044	-0.153
-264.253	-35.894	-0.397	-0.216
-263.238	-200.000	0.011	-0.314
-262.224	-200.000	0.011	0.063
-261.209	61.399	-0.135	-0.135
-260.195	54.421	0.057	-0.055
-259.180	-163.135	-0.139	-0.007
-258.165	800.000	-0.123	0.372
-257.151	-6.364	0.230	0.157
-256.136	-98.820	-0.090	-0.023
-255.122	54.297	-0.113	-0.110
-254.107	-52.676	0.299	-0.139
-253.092	-200.000	-0.061	0.278
-252.078	800.000	0.031	0.132
-251.063	-44.470	0.484	0.243
-250.049	363.523	-0.113	0.228
-249.034	-46.638	0.100	0.049
-248.019	24.618	0.208	-0.173
-247.005	-200.000	0.007	0.204
-245.990	12.267	0.178	0.138
-244.976	183.570	-0.109	-0.162
-243.961	-18.869	-0.356	-0.222
-242.946	294.739	-0.225	0.413
-241.932	42.973	-0.414	-0.379
-240.917	-200.000	-0.001	0.137
-239.903	-200.000	-0.029	-0.237
-238.888	-200.000	-0.016	-0.084
-237.873	-138.899	0.076	-0.008
-236.859	-2.704	-0.475	-0.333
-235.844	-200.000	0.055	0.248
-234.830	394.107	0.054	0.113
-233.815	26.892	-0.232	-0.195
-232.800	-92.996	0.347	0.097
-231.786	-61.767	-0.312	-0.131
-230.771	-200.000	0.033	0.355
-229.757	288.294	0.182	0.330
-228.742	-151.435	0.163	0.012
-227.727	-59.821	0.042	0.018
-226.713	35.271	-0.158	-0.139
-225.698	-200.000	0.006	0.150
-224.684	-114.006	0.105	0.020
-223.669	800.000	0.052	-0.177
-222.655	235.280	-0.203	-0.336
-221.640	194.384	0.170	-0.258
-220.625	79.481	-0.198	-0.213
-219.611	47.159	-0.258	0.241
-218.596	128.591	-0.202	0.258
-217.582	387.056	-0.076	-0.157
-216.567	-18.373	-0.216	0.135
-215.552	25.087	-0.196	0.163
-214.538	547.424	-0.079	0.190
-213.523	800.000	0.185	0.524
-212.509	-200.000	-0.019	-0.286
-211.494	-125.984	-0.315	0.048
-210.479	-200.000	0.088	-0.446
-209.465	800.000	0.049	0.150
-208.450	-28.206	-0.178	0.103
-207.436	-143.885	0.271	-0.026
-206.421	58.045	0.166	-0.162
-205.406	-25.896	0.399	-0.235
-204.392	-162.948	0.314	0.015
-203.377	800.000	0.104	-0.315
-202.363	480.354	-0.129	0.294
-201.348	800.000	-0.089	-0.261
-200.333	522.055	-0.065	-0.154
-199.319	-37.571	0.391	-0.209
-198.304	102.149	-0.198	0.232
-197.290	-137.527	0.168	0.019
-196.275	285.636	0.014	-0.025
-195.260	-72.288	-0.183	-0.068
-194.246	800.000	-0.043	-0.171
-193.231	333.579	-0.170	0.330
-192.217	-26.181	0.158	-0.093
-191.202	380.352	0.044	-0.091
-190.187	-36.228	-0.301	-0.163
-189.173	-54.032	0.182	-0.083
-188.158	245.357	-0.070	-0.117
-187.144	-200.000	-0.060	0.346
-186.129	273.749	0.105	0.187
-185.114	-132.880	-0.157	0.020
-184.100	800.000	-0.150	0.416
-183.085	141.210	0.111	0.147
-182.071	-161.064	-0.140	-0.007
-181.056	116.663	0.131	-0.161
-180.042	-20.423	-0.111	0.069
-179.027	-200.000	0.013	0.146
-178.012	-72.217	0.207	0.077
-176.998	183.583	-0.034	-0.051
-175.983	-200.000	0.063	0.567
-174.969	-200.000	-0.115	0.000
-173.954	167.218	0.159	-0.226
-172.939	-147.291	-0.125	-0.011
-171.925	-200.000	-0.008	0.291
-170.910	174.378	-0.108	0.156
-169.896	250.588	-0.073	-0.123
-168.881	69.824	0.092	-0.094
-167.866	800.000	-0.060	-0.248
-166.852	-156.970	0.404	-0.025
-165.837	-93.229	0.117	-0.032
-164.823	157.216	0.308	-0.426
-163.808	-66.316	-0.214	-0.085
-162.793	-93.090	0.223	-0.062
-161.779	800.000	0.048	0.180
-160.764	-200.000	-0.004	-0.204
-159.750	85.360	-0.267	-0.293
-158.735	-194.231	0.040	0.000
-157.720	-34.352	0.270	0.148
-156.706	5.410	0.270	-0.199
-155.691	800.000	0.029	-0.083
-154.677	197.369	0.142	0.217
-153.662	606.765	-0.096	-0.238
-152.647	-7.796	0.112	0.075
-151.633	-126.466	0.183	0.027
-150.618	-46.826	-0.258	0.126
-149.604	-141.950	-0.011	-0.001
-148.589	800.000	0.060	-0.237
-147.574	-122.987	0.036	0.006
-146.560	27.058	0.176	0.147
-145.545	123.638	0.188	-0.236
-144.531	96.862	0.019	-0.021
-143.516	-200.000	0.003	0.182
-142.502	-166.744	-0.234	0.010
-141.487	2.909	0.028	0.020
-140.472	-63.885	0.315	-0.129
-139.458	-200.000	0.050	-0.253
-138.443	-25.078	-0.483	-0.286
-137.429	-58.080	-0.128	-0.056
-136.414	109.290	0.131	0.157
-135.399	800.000	0.090	-0.311
-134.385	800.000	0.047	0.175
-133.370	-55.824	-0.442	0.197
-132.356	-95.250	-0.319	-0.086
-131.341	-128.165	-0.467	-0.067
-130.326	-63.113	-0.264	0.109
-129.312	-79.074	-0.298	0.101
-128.297	-200.000	0.061	-0.342
-127.283	91.286	0.188	-0.211
-126.268	-139.907	0.323	-0.034
-125.253	549.335	-0.025	0.060
-124.239	-8.239	-0.134	-0.090
-123.224	-120.080	0.117	0.020
-122.210	82.661	0.205	0.222
