DTS Sentinel unit serial number:	SN413079Multiplexer serial number:	ORYXHardware model number:	OX4-SRSoftware version number:	ORYX F/W v4.00 Oryx Data Collector v3.7.2.0data status	okinstallation	princeton_trtdifferential loss correction	single-endedforward channel	channel 1reverse channel	N/Adate	2019/09/12time	03:56:11forward acquisition time	60.00reverse acquisition time	0.00gamma	496.2192k internal	0.2322k external	0.2322temperature offset calibration	1.0083default loss term (dB/km)	0.3790temperature slope calibration	1.0000multiplexer offset coefficient	1.0000multiplexer slope coefficient	1.0000fibre end	0.00T internal ref (°C)	32.12T ext. ref 1 (°C)	2.16T ext. ref 2 (°C)	25.78length (m)	temperature (°C)	Stokes	anti-Stokes-747.200	-200.000	-0.019	0.286
-746.185	-68.434	0.334	0.131
-745.171	800.000	-0.069	0.222
-744.156	-200.000	0.004	-0.075
-743.142	800.000	0.065	-0.243
-742.127	-131.273	0.099	-0.013
-741.112	147.677	-0.050	-0.069
-740.098	490.751	0.072	0.168
-739.083	192.790	0.225	-0.343
-738.069	-12.459	0.083	-0.055
-737.054	188.951	0.047	-0.071
-736.039	-200.000	-0.008	0.140
-735.025	166.930	0.117	-0.167
-734.010	14.332	-0.103	-0.081
-732.996	387.226	-0.173	-0.361
-731.981	-65.281	-0.232	-0.094
-730.966	5.249	0.103	-0.077
-729.952	-172.133	-0.033	-0.001
-728.937	-200.000	-0.001	-0.074
-727.923	48.803	0.182	0.172
-726.908	328.237	-0.101	-0.197
-725.894	95.890	0.023	-0.027
-724.879	-96.403	0.225	-0.060
-723.864	153.363	0.219	-0.303
-722.850	-66.262	-0.198	-0.080
-721.835	-35.035	-0.041	0.022
-720.821	-200.000	0.053	-0.312
-719.806	800.000	0.043	0.153
-718.791	-180.409	-0.159	-0.003
-717.777	800.000	-0.119	-0.472
-716.762	146.243	-0.076	-0.102
-715.748	-160.245	-0.031	-0.002
-714.733	142.776	-0.097	-0.131
-713.718	-200.000	0.039	0.301
-712.704	-75.633	-0.156	-0.056
-711.689	49.749	0.323	0.307
-710.675	800.000	-0.074	-0.215
-709.660	128.878	0.263	-0.338
-708.645	-104.977	0.077	0.018
-707.631	-53.541	0.244	-0.113
-706.616	-152.053	0.199	-0.015
-705.602	-117.156	0.165	0.030
-704.587	-200.000	-0.001	-0.081
-703.572	57.890	0.128	-0.127
-702.558	-175.391	-0.315	0.009
-701.543	464.796	-0.076	-0.172
-700.529	78.747	0.087	0.094
-699.514	127.770	-0.159	0.204
-698.499	34.833	0.174	0.153
-697.485	285.042	0.139	-0.253
-696.470	-20.995	-0.094	0.058
-695.456	117.180	0.162	0.201
-694.441	-141.028	0.189	0.020
-693.426	-79.617	0.155	-0.053
-692.412	-200.000	0.037	0.408
-691.397	-103.161	0.085	0.020
-690.383	274.959	-0.138	-0.247
-689.368	800.000	0.080	0.347
-688.354	-2.691	0.255	-0.180
-687.339	-117.110	0.398	0.073
-686.324	-50.106	0.228	0.109
-685.310	800.000	-0.095	0.338
-684.295	166.383	0.048	0.068
-683.281	-200.000	-0.034	0.203
-682.266	487.168	-0.174	-0.400
-681.251	6.553	0.132	0.099
-680.237	108.277	-0.075	-0.090
-679.222	-168.025	-0.359	-0.014
-678.208	106.012	0.142	0.170
-677.193	38.799	0.226	0.203
-676.178	148.633	-0.133	0.181
-675.164	535.951	0.116	-0.278
-674.149	-107.226	-0.162	0.036
-673.135	534.690	0.120	-0.286
-672.120	-18.898	0.228	-0.143
-671.105	-79.940	0.182	0.062
-670.091	605.055	-0.038	-0.094
-669.076	-1.948	-0.154	0.109
-668.062	168.225	0.190	0.273
-667.047	-64.759	0.321	-0.131
-666.032	800.000	-0.097	-0.294
-665.018	25.684	-0.211	-0.177
-664.003	-27.389	0.170	-0.099
-662.989	-67.210	-0.192	-0.076
-661.974	247.397	-0.086	-0.146
-660.959	-99.173	-0.103	0.026
-659.945	125.605	-0.132	0.168
-658.930	235.530	-0.099	-0.165
-657.916	75.271	-0.179	-0.190
-656.901	487.679	-0.153	-0.351
-655.886	-200.000	0.058	-0.326
-654.872	44.686	-0.177	-0.164
-653.857	2.098	-0.180	-0.131
-652.843	-200.000	0.040	-0.266
-651.828	-144.879	0.238	0.022
-650.814	226.490	0.106	-0.174
-649.799	-200.000	-0.001	-0.370
-648.784	-90.433	-0.120	0.035
-647.770	-137.750	0.275	0.031
-646.755	-1.111	-0.099	0.071
-645.741	-29.755	0.051	-0.029
-644.726	9.437	-0.153	-0.117
-643.711	15.815	0.155	-0.123
-642.697	-0.316	0.337	0.241
-641.682	-79.565	-0.174	-0.059
-640.668	34.315	-0.246	-0.216
-639.653	-200.000	0.021	-0.161
-638.638	100.060	0.086	0.100
-637.624	38.557	-0.273	0.245
-636.609	247.394	-0.086	-0.146
-635.595	-39.690	-0.188	0.099
-634.580	800.000	0.054	0.177
-633.565	-84.737	-0.258	-0.082
-632.551	-105.645	-0.449	-0.102
-631.536	800.000	-0.068	-0.275
-630.522	85.911	0.081	-0.089
-629.507	80.154	-0.092	0.100
-628.492	800.000	-0.131	-0.390
-627.478	-3.764	0.408	-0.285
-626.463	47.020	0.149	-0.140
-625.449	-103.079	-0.202	-0.048
-624.434	-87.857	0.120	-0.036
-623.419	357.483	0.140	0.281
-622.405	800.000	-0.113	0.458
-621.390	-200.000	-0.015	0.099
-620.376	56.809	0.183	0.179
-619.361	-200.000	-0.022	0.108
-618.346	199.221	-0.029	0.045
-617.332	-76.912	-0.156	0.055
-616.317	-97.659	-0.221	0.058
-615.303	-53.222	-0.128	0.059
-614.288	-4.005	-0.088	-0.062
-613.273	137.285	-0.124	-0.163
-612.259	-200.000	0.052	-0.272
-611.244	-187.298	0.104	0.001
-610.230	-200.000	-0.021	-0.274
-609.215	125.249	-0.160	-0.203
-608.201	-27.428	-0.123	0.072
-607.186	113.972	-0.109	0.134
-606.171	-95.192	-0.217	-0.059
-605.157	-150.657	0.315	-0.024
-604.142	-200.000	-0.027	-0.135
-603.128	-10.782	-0.190	-0.126
-602.113	127.105	0.111	-0.141
-601.098	141.997	-0.097	0.130
-600.084	-51.884	0.122	-0.057
-599.069	-88.143	-0.353	-0.106
-598.055	-200.000	-0.016	0.121
-597.040	800.000	-0.047	-0.198
-596.025	486.463	-0.142	-0.325
-595.011	-173.752	-0.320	-0.010
-593.996	66.211	0.224	-0.228
-592.982	-15.644	0.122	0.078
-591.967	174.866	-0.134	0.194
-590.952	-200.000	0.040	0.184
-589.938	-63.391	0.115	0.048
-588.923	121.319	0.262	-0.328
-587.909	677.903	-0.097	-0.255
-586.894	-200.000	-0.043	0.239
-585.879	225.367	-0.052	0.085
-584.865	-200.000	-0.029	0.242
-583.850	364.328	0.058	-0.117
-582.836	-140.122	-0.363	-0.038
-581.821	121.245	-0.162	0.203
-580.806	3.649	0.186	0.136
-579.792	94.509	-0.159	-0.181
-578.777	48.012	-0.075	0.070
-577.763	-200.000	-0.016	-0.127
-576.748	-200.000	0.022	0.142
-575.733	16.276	0.407	0.322
-574.719	398.088	0.038	-0.080
-573.704	800.000	-0.042	0.183
-572.690	95.359	0.237	-0.271
-571.675	98.058	-0.076	0.088
-570.661	-80.453	-0.296	0.099
-569.646	70.175	0.211	0.218
-568.631	800.000	-0.088	0.316
-567.617	-72.139	-0.243	0.091
-566.602	75.974	-0.125	-0.133
-565.588	-200.000	0.018	0.210
-564.573	-100.099	0.246	-0.061
-563.558	87.039	0.208	-0.230
-562.544	41.531	-0.178	0.162
-561.529	8.967	0.277	0.210
-560.515	412.683	0.038	-0.081
-559.500	-121.921	-0.287	-0.047
-558.485	-179.886	0.239	0.005
-557.471	32.408	0.245	-0.213
-556.456	-86.729	0.444	0.136
-555.442	-61.034	0.234	-0.099
-554.427	-31.307	-0.100	-0.056
-553.412	-49.771	-0.119	0.057
-552.398	-127.078	-0.227	-0.033
-551.383	98.125	0.291	-0.336
-550.369	324.542	0.113	-0.216
-549.354	-69.404	-0.334	-0.129
-548.339	517.282	-0.036	-0.085
-547.325	800.000	0.046	-0.130
-546.310	-71.106	-0.135	-0.051
-545.296	-15.548	-0.330	-0.211
-544.281	94.469	0.060	-0.068
-543.266	-147.942	-0.154	0.013
-542.252	-146.127	-0.288	-0.025
-541.237	-90.593	0.394	-0.114
-540.223	-152.826	-0.340	0.024
-539.208	-200.000	0.023	0.364
-538.193	800.000	-0.066	-0.234
-537.179	-189.685	-0.177	0.002
-536.164	-75.867	0.324	-0.115
-535.150	34.144	-0.096	-0.084
-534.135	364.876	0.117	0.237
-533.121	-79.319	0.129	0.044
-532.106	86.618	-0.121	0.134
-531.091	-4.233	-0.164	-0.113
-530.077	74.766	-0.155	0.163
-529.062	69.121	0.134	-0.138
-528.048	-200.000	0.023	-0.203
-527.033	38.857	0.104	-0.093
-526.018	-21.298	-0.234	0.143
-525.004	188.321	0.105	0.157
-523.989	493.731	0.097	0.223
-522.975	-150.528	0.372	-0.029
-521.960	-200.000	-0.008	0.420
-520.945	41.010	-0.099	-0.089
-519.931	-28.108	-0.377	-0.218
-518.916	-200.000	0.024	0.146
-517.902	581.045	0.064	-0.157
-516.887	-55.485	-0.158	0.071
-515.872	-69.138	0.108	0.041
-514.858	-49.613	-0.033	0.016
-513.843	800.000	-0.048	-0.186
-512.829	150.624	-0.175	0.238
-511.814	-110.260	0.194	-0.040
-510.799	2.489	0.209	0.152
-509.785	258.141	-0.074	-0.128
-508.770	800.000	-0.081	-0.255
-507.756	-21.334	-0.379	0.232
-506.741	800.000	-0.028	0.116
-505.726	56.600	0.114	-0.111
-504.712	800.000	0.072	-0.260
-503.697	-84.363	-0.391	0.124
-502.683	224.753	-0.061	-0.099
-501.668	-45.640	-0.214	-0.106
-500.653	-200.000	-0.058	-0.271
-499.639	49.403	0.112	-0.105
-498.624	-75.917	-0.033	-0.012
-497.610	-115.535	0.190	-0.036
-496.595	214.676	0.163	-0.258
-495.581	-85.069	0.405	-0.127
-494.566	224.655	-0.112	0.181
-493.551	-49.620	0.204	-0.097
-492.537	800.000	0.050	-0.140
-491.522	-200.000	-0.004	0.026
-490.508	0.053	-0.262	-0.187
-489.493	146.346	0.154	0.206
-488.478	77.673	-0.088	0.094
-487.464	-97.904	-0.317	0.082
-486.449	-40.911	0.279	-0.144
-485.435	800.000	0.054	-0.161
-484.420	-37.961	0.126	-0.067
-483.405	-73.583	-0.096	-0.035
-482.391	-200.000	0.058	0.415
-481.376	-97.559	0.217	-0.056
-480.362	280.105	-0.062	-0.110
-479.347	800.000	-0.079	-0.233
-478.332	230.691	0.110	0.180
-477.318	349.719	-0.065	-0.129
-476.303	344.351	0.092	0.180
-475.289	-7.565	0.313	0.211
-474.274	86.116	0.152	-0.167
-473.259	-106.547	0.269	0.060
-472.245	-71.575	0.045	-0.017
-471.230	-87.190	0.080	0.024
-470.216	-75.725	-0.301	0.107
-469.201	-138.234	0.261	-0.029
-468.186	-87.341	-0.027	0.008
-467.172	-100.801	0.274	0.067
-466.157	216.720	0.130	0.207
-465.143	-165.135	-0.035	0.002
-464.128	800.000	0.011	0.048
-463.113	36.111	-0.087	0.076
-462.099	-44.292	-0.229	0.115
-461.084	54.662	-0.079	-0.076
-460.070	237.045	-0.107	-0.177
-459.055	162.188	0.220	-0.308
-458.040	273.018	-0.063	0.111
-457.026	614.524	0.072	-0.179
-456.011	-2.405	0.176	0.123
-454.997	468.993	0.091	0.205
-453.982	-28.793	0.201	-0.115
-452.968	-85.840	0.164	-0.051
-451.953	-200.000	0.013	0.103
-450.938	-101.970	-0.359	-0.087
-449.924	800.000	-0.116	-0.381
-448.909	-200.000	0.024	-0.322
-447.895	-171.013	0.287	0.010
-446.880	-200.000	0.008	0.059
-445.865	650.404	0.082	0.211
-444.851	-145.430	-0.272	0.024
-443.836	208.343	0.178	-0.278
-442.822	-19.595	-0.203	-0.125
-441.807	-200.000	-0.021	0.399
-440.792	-4.320	0.197	0.136
-439.778	426.142	-0.102	0.219
-438.763	-200.000	0.020	-0.169
-437.749	99.788	0.092	0.106
-436.734	800.000	0.063	0.271
-435.719	109.991	0.127	0.152
-434.705	-200.000	-0.065	-0.301
-433.690	239.112	0.048	-0.080
-432.676	-200.000	0.004	0.060
-431.661	123.853	0.277	0.347
-430.646	-35.448	-0.153	-0.083
-429.632	-189.453	-0.220	-0.003
-428.617	800.000	0.023	0.096
-427.603	119.590	-0.048	0.060
-426.588	-200.000	-0.000	0.076
-425.573	392.458	-0.041	-0.085
-424.559	280.344	0.068	-0.122
-423.544	-88.156	0.109	-0.033
-422.530	42.617	0.223	-0.203
-421.515	800.000	-0.041	0.125
-420.500	77.081	-0.328	0.348
-419.486	271.724	0.122	-0.214
-418.471	778.481	-0.027	0.075
-417.457	17.968	-0.115	0.092
-416.442	-200.000	-0.029	0.148
-415.428	150.458	-0.090	0.122
-414.413	111.538	-0.091	0.110
-413.398	272.479	0.100	-0.177
-412.384	113.811	0.068	-0.082
-411.369	-62.092	-0.373	0.155
-410.355	-162.484	0.131	-0.006
-409.340	59.477	-0.180	-0.177
-408.325	334.373	-0.090	-0.173
-407.311	73.897	-0.061	0.064
-406.296	772.888	0.194	0.528
-405.282	142.796	0.010	0.014
-404.267	220.538	0.122	0.195
-403.252	68.195	-0.240	0.245
-402.238	-69.887	-0.142	0.054
-401.223	-35.919	-0.167	0.090
-400.209	127.607	-0.178	-0.225
-399.194	15.760	0.284	0.223
-398.179	317.063	0.100	-0.189
-397.165	-77.009	0.267	0.093
-396.150	-74.894	0.172	-0.062
-395.136	-200.000	-0.065	0.302
-394.121	-183.809	0.232	-0.004
-393.106	-200.000	0.028	-0.343
-392.092	-65.256	-0.253	-0.102
-391.077	-141.561	0.490	-0.049
-390.063	-129.623	0.252	0.035
-389.048	46.862	-0.258	-0.239
-388.033	96.712	-0.135	-0.154
-387.019	8.083	0.418	-0.313
-386.004	-72.492	0.334	0.123
-384.990	800.000	-0.072	-0.273
-383.975	-150.858	-0.318	0.024
-382.960	-200.000	0.054	0.292
-381.946	117.966	0.124	0.152
-380.931	124.525	-0.132	0.165
-379.917	-200.000	0.002	-0.054
-378.902	-8.481	0.061	-0.041
-377.888	-200.000	0.078	0.422
-376.873	639.885	-0.102	0.259
-375.858	-147.821	0.323	-0.027
-374.844	-107.196	-0.036	0.008
-373.829	-200.000	0.028	-0.466
-372.815	-164.021	0.197	-0.009
-371.800	800.000	0.063	0.232
-370.785	-134.637	0.381	0.046
-369.771	-85.469	-0.272	-0.084
-368.756	102.065	0.201	0.234
-367.742	-200.000	0.031	0.229
-366.727	-134.169	-0.377	0.046
-365.712	-58.298	0.275	-0.119
-364.698	-33.631	-0.214	0.118
-363.683	43.724	-0.229	-0.209
-362.669	775.756	0.055	0.149
-361.654	-120.250	0.031	0.005
-360.639	376.709	0.097	0.198
-359.625	-200.000	0.040	0.312
-358.610	275.565	0.064	-0.113
-357.596	-112.773	-0.311	0.061
-356.581	-155.560	0.158	-0.010
-355.566	-200.000	0.034	-0.181
-354.552	-200.000	-0.011	-0.110
-353.537	-56.395	-0.131	0.058
-352.523	-39.925	-0.213	0.111
-351.508	-41.528	-0.310	-0.159
-350.493	-16.560	0.127	0.080
-349.479	-7.478	0.070	-0.047
-348.464	302.593	0.057	-0.105
-347.450	237.578	-0.159	-0.263
-346.435	800.000	0.074	0.254
-345.420	56.485	0.186	0.180
-344.406	718.026	0.087	0.231
-343.391	410.749	0.128	0.271
-342.377	16.475	0.092	-0.072
-341.362	800.000	0.024	0.086
-340.348	740.627	-0.073	0.195
-339.333	-105.075	0.456	0.104
-338.318	17.626	-0.342	-0.270
-337.304	300.606	0.114	-0.210
-336.289	50.882	-0.054	0.051
-335.275	-200.000	0.015	0.120
-334.260	-10.943	0.116	-0.076
-333.245	357.213	0.097	0.191
-332.231	-66.128	0.357	0.142
-331.216	800.000	0.058	-0.232
-330.202	-67.149	-0.403	-0.158
-329.187	-200.000	0.002	0.263
-328.172	70.495	-0.175	0.180
-327.158	5.779	0.120	0.089
-326.143	573.152	-0.062	0.151
-325.129	182.265	-0.093	0.136
-324.114	-76.084	0.292	0.103
-323.099	800.000	-0.032	-0.114
-322.085	653.315	0.132	0.337
-321.070	-50.114	-0.305	0.144
-320.056	-154.578	0.091	0.006
-319.041	-191.742	-0.084	0.001
-318.026	330.304	-0.133	0.255
-317.012	97.219	-0.019	0.022
-315.997	218.968	0.101	-0.160
-314.983	-87.253	-0.084	0.025
-313.968	-76.360	-0.092	0.032
-312.953	800.000	-0.045	-0.123
-311.939	-13.133	0.088	0.057
-310.924	-92.698	0.251	0.070
-309.910	404.907	-0.139	0.292
-308.895	150.408	-0.137	0.185
-307.880	117.415	0.217	0.265
-306.866	74.655	0.209	0.218
-305.851	311.663	-0.028	0.052
-304.837	106.637	-0.285	0.335
-303.822	-86.582	0.189	-0.058
-302.807	-200.000	0.045	0.317
-301.793	93.138	0.109	0.123
-300.778	-48.601	-0.147	-0.070
-299.764	506.358	-0.047	0.108
-298.749	-92.380	0.239	-0.067
-297.735	-200.000	-0.095	0.416
-296.720	-190.267	-0.252	0.003
-295.705	181.831	-0.178	-0.261
-294.691	-112.258	0.139	-0.028
-293.676	201.244	-0.215	-0.329
-292.662	253.244	0.187	0.317
-291.647	175.927	0.166	0.238
-290.632	-200.000	0.069	0.388
-289.618	512.075	-0.175	0.404
-288.603	-185.783	0.156	0.002
-287.589	-90.087	-0.259	-0.075
-286.574	-113.393	-0.145	0.028
-285.559	-57.999	-0.180	-0.078
-284.545	77.593	-0.133	-0.141
-283.530	690.977	0.097	-0.252
-282.516	-21.851	0.372	-0.225
-281.501	-33.548	0.132	-0.072
-280.486	230.843	0.117	-0.191
-279.472	260.063	-0.181	-0.311
-278.457	-91.316	-0.331	0.094
-277.443	-130.740	-0.376	0.050
-276.428	-152.241	-0.371	0.027
-275.413	101.645	0.087	0.100
-274.399	-200.000	0.070	-0.403
-273.384	-177.421	0.224	0.005
-272.370	-128.579	0.143	-0.020
-271.355	52.572	0.059	-0.056
-270.340	506.269	-0.057	0.130
-269.326	-200.000	-0.021	-0.140
-268.311	43.252	0.083	0.075
-267.297	-200.000	0.010	-0.146
-266.282	91.013	0.035	0.039
-265.267	-115.295	0.120	-0.022
-264.253	-94.455	-0.138	0.037
-263.238	158.388	-0.151	-0.207
-262.224	-16.910	-0.173	-0.108
-261.209	-200.000	0.071	0.334
-260.195	310.502	0.084	0.156
-259.180	9.868	0.192	-0.144
-258.165	-200.000	-0.061	-0.330
-257.151	538.671	-0.097	-0.230
-256.136	-162.164	-0.411	-0.020
-255.122	-145.601	0.467	-0.041
-254.107	437.876	0.155	-0.335
-253.092	-91.928	-0.016	-0.004
-252.078	93.261	0.179	-0.201
-251.063	-200.000	0.095	-0.571
-250.049	240.796	-0.101	0.167
-249.034	420.835	-0.158	-0.337
-248.019	120.140	-0.068	-0.084
-247.005	559.984	-0.115	-0.276
-245.990	215.441	0.113	0.177
-244.976	800.000	-0.114	0.317
-243.961	800.000	-0.111	0.329
-242.946	112.015	0.149	0.179
-241.932	-77.797	-0.116	0.040
-240.917	82.673	-0.207	-0.223
-239.903	203.953	0.301	-0.462
-238.888	-200.000	-0.044	0.234
-237.873	117.902	0.168	0.205
-236.859	282.885	-0.227	0.404
-235.844	199.779	0.092	-0.140
-234.830	210.798	0.158	-0.247
-233.815	-121.442	-0.096	0.016
-232.800	-200.000	0.035	-0.289
-231.786	610.175	-0.045	-0.111
-230.771	-104.422	0.140	0.032
-229.757	795.347	0.081	0.220
-228.742	107.601	0.103	0.121
-227.727	-76.193	-0.152	0.053
-226.713	-137.137	0.127	0.014
-225.698	52.629	-0.198	-0.187
-224.684	-124.532	0.051	-0.008
-223.669	-27.111	0.139	0.080
-222.655	-92.233	0.260	0.073
-221.640	-101.313	0.083	-0.020
-220.625	85.440	-0.141	-0.153
-219.611	344.325	0.139	-0.269
-218.596	48.497	-0.295	-0.274
-217.582	-200.000	0.057	-0.422
-216.567	-99.590	-0.185	0.046
-215.552	-147.379	0.286	-0.024
-214.538	-44.392	0.361	-0.179
-213.523	66.288	0.092	0.093
-212.509	170.790	-0.145	-0.205
-211.494	-42.840	-0.173	0.087
-210.479	-121.101	-0.323	0.054
-209.465	-64.140	-0.088	-0.036
-208.450	-65.626	-0.337	-0.134
-207.436	194.619	0.075	-0.113
-206.421	-106.847	0.339	-0.074
-205.406	-25.722	-0.142	-0.083
-204.392	55.810	0.082	0.078
-203.377	107.568	0.100	-0.117
-202.363	-61.676	-0.152	0.063
-201.348	-119.403	-0.231	0.040
-200.333	-79.235	0.230	-0.077
-199.319	-152.312	0.211	-0.015
-198.304	-80.776	0.105	0.034
-197.290	14.857	-0.068	-0.053
-196.275	-152.433	-0.369	0.026
-195.260	-85.120	-0.223	-0.069
-194.246	371.670	-0.117	-0.234
-193.231	-20.466	0.392	-0.238
-192.217	800.000	0.063	0.254
-191.202	462.703	0.101	-0.222
-190.187	-132.577	-0.179	0.023
-189.173	569.165	-0.056	0.135
-188.158	211.587	0.146	-0.227
-187.144	768.343	0.061	0.164
-186.129	-68.649	-0.309	0.118
-185.114	800.000	0.073	0.288
-184.100	-74.830	0.331	-0.117
-183.085	800.000	0.087	-0.298
-182.071	208.903	0.072	0.111
-181.056	-63.155	0.198	-0.081
-180.042	66.698	-0.103	0.104
-179.027	4.264	0.082	-0.059
-178.012	-200.000	0.014	-0.384
-176.998	-57.225	0.155	0.068
-175.983	800.000	-0.069	-0.200
-174.969	109.061	-0.116	-0.137
-173.954	8.630	-0.219	0.163
-172.939	-51.154	-0.532	0.246
-171.925	742.508	-0.129	-0.343
-170.910	-200.000	-0.008	-0.131
-169.896	-200.000	0.051	0.460
-168.881	800.000	-0.093	0.264
-167.866	-157.278	0.319	-0.019
-166.852	-200.000	0.006	-0.219
-165.837	46.367	-0.269	-0.247
-164.823	-200.000	-0.041	-0.373
-163.808	800.000	0.028	0.093
-162.793	-53.937	-0.189	0.085
-161.779	-200.000	0.014	-0.262
-160.764	237.983	0.295	0.484
-159.750	-20.424	0.151	0.092
-158.735	463.860	0.157	0.346
-157.720	85.778	0.170	0.185
-156.706	800.000	0.065	0.199
-155.691	147.961	-0.130	-0.173
-154.677	-200.000	-0.043	0.218
-153.662	-26.160	-0.262	0.152
-152.647	-28.755	0.069	-0.039
-151.633	78.217	-0.052	0.055
-150.618	-200.000	0.009	-0.187
-149.604	-43.061	0.170	0.085
-148.589	-97.607	0.417	-0.107
-147.574	242.616	-0.032	-0.053
-146.560	-166.194	0.147	-0.006
-145.545	-111.630	-0.057	-0.011
-144.531	-86.405	0.100	0.030
-143.516	126.652	0.128	-0.160
-142.502	-178.190	-0.252	-0.006
-141.487	667.936	-0.093	0.237
-140.472	161.248	-0.111	0.153
-139.458	-200.000	0.004	-0.221
-138.443	605.143	-0.160	-0.392
-137.429	42.446	0.079	0.071
-136.414	130.788	0.149	-0.189
-135.399	-111.156	0.075	-0.015
-134.385	-51.833	-0.378	0.174
-133.370	-200.000	-0.024	0.169
-132.356	-182.477	-0.144	0.003
-131.341	-33.484	0.058	-0.032
-130.326	-25.008	0.040	-0.023
-129.312	800.000	-0.097	0.330
-128.297	-114.291	0.032	0.006
-127.283	-194.940	-0.053	0.000
-126.268	-164.673	0.242	0.011
-125.253	-141.797	0.328	-0.032
-124.239	800.000	-0.141	0.471
-123.224	-131.351	0.095	0.012
-122.210	800.000	0.055	0.200
-121.195	309.607	0.098	-0.181
-120.180	-127.376	0.103	-0.015
