DTS Sentinel unit serial number:	SN413079Multiplexer serial number:	ORYXHardware model number:	OX4-SRSoftware version number:	ORYX F/W v4.00 Oryx Data Collector v3.7.2.0data status	okinstallation	princeton_trtdifferential loss correction	single-endedforward channel	channel 1reverse channel	N/Adate	2019/09/15time	02:02:35forward acquisition time	60.00reverse acquisition time	0.00gamma	496.2192k internal	0.2322k external	0.2322temperature offset calibration	0.9981default loss term (dB/km)	0.3790temperature slope calibration	1.0000multiplexer offset coefficient	1.0000multiplexer slope coefficient	1.0000fibre end	0.00T internal ref (°C)	31.75T ext. ref 1 (°C)	4.53T ext. ref 2 (°C)	26.44length (m)	temperature (°C)	Stokes	anti-Stokes-747.200	-200.000	-0.034	0.235
-746.185	-101.552	0.343	0.084
-745.171	-159.581	-0.355	-0.020
-744.156	-99.481	0.241	-0.061
-743.142	-111.258	-0.099	0.021
-742.127	-181.890	0.247	-0.005
-741.112	-76.130	-0.254	0.090
-740.098	-96.597	-0.170	0.045
-739.083	468.535	0.043	-0.097
-738.069	666.136	-0.202	0.528
-737.054	322.733	0.106	0.204
-736.039	104.983	0.127	0.151
-735.025	-156.073	0.351	-0.022
-734.010	8.951	0.214	0.163
-732.996	-200.000	-0.050	-0.436
-731.981	589.869	0.025	-0.063
-730.966	-90.157	-0.274	0.081
-729.952	71.747	0.145	-0.152
-728.937	-104.561	-0.078	0.018
-727.923	-48.878	0.180	-0.087
-726.908	-97.419	-0.249	-0.065
-725.894	-33.006	-0.177	0.099
-724.879	-200.000	-0.003	-0.037
-723.864	554.580	-0.064	-0.156
-722.850	-200.000	0.045	-0.290
-721.835	-89.405	-0.226	0.067
-720.821	-99.229	-0.172	-0.044
-719.806	231.085	0.049	0.081
-718.791	79.364	0.127	0.137
-717.777	-89.827	0.412	0.122
-716.762	3.017	-0.055	0.040
-715.748	323.663	0.066	-0.127
-714.733	-200.000	0.019	0.131
-713.718	-34.364	0.099	-0.055
-712.704	52.029	-0.242	-0.233
-711.689	-153.816	-0.230	-0.016
-710.675	800.000	0.079	0.292
-709.660	-164.851	-0.230	-0.010
-708.645	-143.837	0.156	-0.015
-707.631	-146.257	-0.185	0.016
-706.616	-81.975	-0.340	-0.112
-705.602	-105.491	-0.141	0.032
-704.587	-134.060	0.093	-0.012
-703.572	276.982	-0.053	0.094
-702.558	-36.994	-0.509	0.275
-701.543	-50.609	-0.197	0.094
-700.529	-200.000	-0.004	-0.040
-699.514	-123.366	-0.291	-0.047
-698.499	-90.173	-0.304	0.089
-697.485	-2.708	-0.167	-0.118
-696.470	-127.835	0.218	0.032
-695.456	-145.712	0.167	0.015
-694.441	357.260	0.151	0.304
-693.426	186.283	-0.094	-0.141
-692.412	-70.513	0.203	0.078
-691.397	328.054	-0.129	0.249
-690.383	800.000	0.041	-0.144
-689.368	10.323	-0.186	0.143
-688.354	164.935	0.015	-0.021
-687.339	800.000	-0.046	0.177
-686.324	800.000	0.083	-0.343
-685.310	-134.230	0.517	-0.064
-684.295	-22.629	-0.110	0.067
-683.281	-200.000	0.017	0.127
-682.266	-129.705	-0.049	-0.007
-681.251	-6.546	0.134	0.092
-680.237	15.016	-0.199	0.157
-679.222	241.184	0.150	-0.252
-678.208	-200.000	0.012	-0.150
-677.193	-34.485	0.416	0.229
-676.178	-200.000	0.068	0.392
-675.164	-200.000	-0.036	0.266
-674.149	46.276	0.252	-0.235
-673.135	-6.905	-0.135	-0.092
-672.120	36.868	-0.208	-0.185
-671.105	312.354	0.151	-0.285
-670.091	-20.705	-0.208	-0.129
-669.076	-78.936	-0.348	-0.119
-668.062	800.000	0.121	-0.465
-667.047	100.078	-0.134	0.157
-666.032	60.553	0.135	-0.135
-665.018	-28.098	-0.166	0.097
-664.003	-140.161	-0.063	-0.007
-662.989	-81.469	0.197	0.065
-661.974	279.832	0.103	0.186
-660.959	-200.000	-0.013	0.130
-659.945	619.888	-0.091	-0.231
-658.930	800.000	-0.082	-0.345
-657.916	-200.000	-0.049	0.242
-656.901	-15.767	-0.077	0.050
-655.886	46.695	-0.185	0.173
-654.872	-77.638	-0.193	0.067
-653.857	-110.010	-0.275	0.058
-652.843	28.680	0.203	0.173
-651.828	150.626	0.224	0.306
-650.814	318.085	0.107	0.204
-649.799	83.417	0.023	0.026
-648.784	-131.541	-0.062	-0.008
-647.770	105.383	-0.071	0.084
-646.755	-17.650	0.130	0.082
-645.741	-200.000	0.117	0.634
-644.726	26.372	-0.107	-0.090
-643.711	-90.960	-0.307	-0.089
-642.697	4.957	0.091	0.067
-641.682	458.726	-0.082	-0.184
-640.668	-200.000	-0.038	-0.238
-639.653	-110.149	-0.136	0.029
-638.638	800.000	-0.072	-0.287
-637.624	-200.000	-0.025	-0.186
-636.609	-156.117	0.136	0.009
-635.595	-200.000	-0.040	-0.258
-634.580	-71.465	0.043	-0.016
-633.565	800.000	-0.120	0.473
-632.551	35.900	-0.068	-0.060
-631.536	-200.000	-0.034	-0.183
-630.522	40.514	-0.154	-0.140
-629.507	173.814	-0.139	0.202
-628.492	5.347	-0.126	-0.094
-627.478	52.265	-0.150	-0.144
-626.463	800.000	0.068	0.256
-625.449	-161.094	0.183	-0.010
-624.434	147.907	-0.048	-0.065
-623.419	569.149	0.032	-0.079
-622.405	-19.220	-0.386	0.241
-621.390	-37.402	0.342	-0.183
-620.376	372.746	0.007	0.014
-619.361	-2.011	0.135	0.095
-618.346	-189.810	0.117	-0.001
-617.332	569.729	-0.111	0.270
-616.317	-59.895	0.164	-0.070
-615.303	-88.392	-0.131	-0.039
-614.288	800.000	0.041	0.138
-613.273	-120.179	0.317	-0.054
-612.259	-4.005	0.218	-0.152
-611.244	119.436	0.159	-0.197
-610.230	-74.644	-0.094	-0.034
-609.215	-167.541	0.275	0.011
-608.201	-168.088	-0.296	0.012
-607.186	-92.421	0.105	0.030
-606.171	447.185	-0.044	-0.096
-605.157	-200.000	-0.022	0.244
-604.142	246.665	-0.034	0.058
-603.128	-70.967	-0.286	-0.108
-602.113	789.266	0.060	-0.166
-601.098	-93.814	0.129	0.036
-600.084	-200.000	0.010	0.281
-599.069	64.859	0.224	0.227
-598.055	-94.417	-0.285	0.078
-597.040	800.000	-0.162	-0.557
-596.025	-75.561	0.316	0.113
-595.011	505.945	0.067	0.155
-593.996	-80.655	-0.312	0.104
-592.982	-82.895	-0.361	-0.117
-591.967	720.578	-0.057	0.153
-590.952	53.071	-0.134	0.129
-589.938	107.813	0.272	0.326
-588.923	39.684	-0.105	-0.095
-587.909	74.126	0.218	-0.230
-586.894	-73.307	0.078	-0.029
-585.879	-109.898	-0.224	-0.047
-584.865	-118.175	-0.133	-0.024
-583.850	327.724	0.060	0.116
-582.836	155.235	0.040	0.055
-581.821	450.014	0.069	-0.153
-580.806	41.165	0.049	0.045
-579.792	-74.897	-0.304	0.109
-578.777	689.786	0.053	-0.139
-577.763	800.000	-0.084	-0.297
-576.748	-3.365	-0.227	0.159
-575.733	-200.000	-0.025	0.144
-574.719	-173.031	-0.191	-0.006
-573.704	-133.391	0.218	0.027
-572.690	-90.082	-0.095	0.028
-571.675	624.820	0.077	0.196
-570.661	-174.560	-0.213	0.006
-569.646	-149.988	0.072	-0.006
-568.631	-200.000	0.006	0.217
-567.617	39.193	0.390	-0.350
-566.602	-200.000	-0.015	-0.160
-565.588	739.214	0.116	-0.312
-564.573	800.000	0.057	0.163
-563.558	-14.942	-0.094	-0.060
-562.544	-80.804	-0.141	0.047
-561.529	542.272	0.042	0.101
-560.515	-171.639	0.107	-0.004
-559.500	796.335	0.076	-0.209
-558.485	-94.840	0.081	0.022
-557.471	339.158	-0.140	-0.273
-556.456	29.856	0.132	0.113
-555.442	800.000	0.013	-0.048
-554.427	9.443	0.190	-0.144
-553.412	-200.000	-0.084	-0.471
-552.398	-37.658	-0.068	0.036
-551.383	-117.600	-0.113	0.020
-550.369	-200.000	-0.134	0.000
-549.354	-200.000	-0.039	-0.229
-548.339	112.077	0.180	-0.218
-547.325	237.969	-0.156	-0.260
-546.310	115.606	0.252	-0.309
-545.296	-200.000	-0.005	-0.218
-544.281	344.552	0.077	-0.152
-543.266	58.842	0.126	-0.124
-542.252	132.247	-0.230	-0.297
-541.237	-118.720	-0.174	-0.031
-540.223	661.923	-0.058	0.150
-539.208	169.053	0.158	0.226
-538.193	96.931	0.175	-0.202
-537.179	-73.529	0.111	0.041
-536.164	306.998	-0.091	-0.169
-535.150	-34.789	0.171	-0.094
-534.135	-60.542	0.132	-0.056
-533.121	-70.805	-0.227	0.086
-532.106	177.534	-0.068	0.100
-531.091	44.084	-0.083	0.076
-530.077	-200.000	0.070	0.349
-529.062	97.605	0.081	0.093
-528.048	72.214	0.198	-0.207
-527.033	-130.198	0.113	0.015
-526.018	-200.000	-0.363	-0.000
-525.004	-50.892	0.156	0.073
-523.989	32.474	-0.217	-0.187
-522.975	92.532	0.297	0.335
-521.960	186.938	0.042	-0.063
-520.945	397.683	-0.118	-0.247
-519.931	446.530	0.021	-0.047
-518.916	-109.419	0.324	-0.069
-517.902	-20.073	-0.060	0.037
-516.887	266.730	-0.067	-0.117
-515.872	427.311	-0.136	0.294
-514.858	162.196	-0.218	-0.306
-513.843	-15.689	-0.057	-0.037
-512.829	38.406	-0.147	-0.131
-511.814	4.399	0.214	0.157
-510.799	800.000	-0.067	-0.197
-509.785	-65.103	-0.028	0.011
-508.770	527.727	-0.037	0.087
-507.756	-200.000	0.020	0.282
-506.741	-98.520	0.390	0.100
-505.726	-200.000	0.019	0.141
-504.712	-200.000	-0.027	-0.235
-503.697	-6.512	0.312	-0.213
-502.683	40.665	-0.286	0.258
-501.668	109.518	-0.254	0.304
-500.653	-61.166	0.304	-0.128
-499.639	-200.000	-0.014	0.202
-498.624	-139.411	-0.438	0.047
-497.610	-72.344	0.082	-0.030
-496.595	-200.000	0.016	0.141
-495.581	63.859	-0.207	-0.209
-494.566	105.369	0.116	-0.137
-493.551	-200.000	0.049	0.000
-492.537	-59.493	-0.140	0.060
-491.522	521.417	0.164	-0.385
-490.508	-200.000	-0.014	0.348
-489.493	-200.000	0.021	0.303
-488.478	-170.610	-0.390	0.014
-487.464	800.000	-0.049	-0.165
-486.449	-170.691	-0.086	0.003
-485.435	-101.876	-0.197	0.048
-484.420	687.313	-0.030	0.079
-483.405	-200.000	0.032	-0.181
-482.391	800.000	0.058	-0.213
-481.376	-72.777	0.116	-0.043
-480.362	-64.053	-0.147	0.060
-479.347	-44.419	0.188	0.094
-478.332	163.126	0.126	-0.177
-477.318	-200.000	0.011	-0.116
-476.303	-135.537	0.225	-0.027
-475.289	-200.000	0.020	-0.358
-474.274	230.130	0.112	0.183
-473.259	-200.000	-0.041	-0.267
-472.245	512.499	0.074	0.171
-471.230	-200.000	0.065	0.333
-470.216	-64.523	-0.428	-0.174
-469.201	-134.550	0.191	-0.023
-468.186	647.468	0.145	0.370
-467.172	-115.147	-0.174	-0.033
-466.157	-115.170	-0.104	0.020
-465.143	62.937	0.082	0.082
-464.128	800.000	-0.007	0.025
-463.113	-200.000	-0.039	-0.221
-462.099	446.399	0.178	-0.391
-461.084	100.473	-0.001	0.001
-460.070	-189.466	0.089	-0.001
-459.055	313.243	0.121	-0.227
-458.040	212.823	0.140	0.220
-457.026	-48.730	0.068	0.033
-456.011	-165.783	0.321	-0.014
-454.997	80.740	-0.424	0.457
-453.982	800.000	0.104	-0.342
-452.968	800.000	0.071	-0.274
-451.953	330.928	0.063	-0.122
-450.938	800.000	0.120	0.339
-449.924	-200.000	0.010	0.103
-448.909	174.889	0.176	-0.254
-447.895	3.804	0.154	-0.112
-446.880	-200.000	0.005	-0.025
-445.865	414.448	-0.176	0.375
-444.851	188.105	-0.092	0.138
-443.836	-19.609	-0.116	0.072
-442.822	107.232	-0.178	-0.211
-441.807	-61.456	-0.098	-0.041
-440.792	-200.000	-0.008	-0.483
-439.778	-133.489	0.378	0.047
-438.763	-119.620	-0.275	0.048
-437.749	800.000	-0.076	-0.235
-436.734	800.000	-0.153	0.431
-435.719	-31.185	-0.140	-0.079
-434.705	-122.415	0.018	0.003
-433.690	411.340	0.082	-0.173
-432.676	-58.313	0.388	0.168
-431.661	91.406	0.111	0.124
-430.646	-200.000	0.026	0.202
-429.632	36.667	-0.152	0.134
-428.617	276.481	0.080	0.141
-427.603	127.827	-0.125	-0.159
-426.588	40.556	-0.056	-0.050
-425.573	103.852	0.103	0.121
-424.559	-84.659	0.327	0.103
-423.544	102.476	0.263	0.307
-422.530	-15.257	-0.198	-0.126
-421.515	135.952	0.024	-0.031
-420.500	69.706	-0.105	-0.108
-419.486	-76.721	-0.051	0.018
-418.471	184.931	-0.078	-0.115
-417.457	591.440	-0.034	0.085
-416.442	-9.913	-0.135	-0.090
-415.428	205.146	0.184	-0.285
-414.413	427.909	0.110	-0.238
-413.398	162.816	0.152	0.213
-412.384	-200.000	0.034	0.243
-411.369	47.352	-0.114	0.106
-410.355	-200.000	0.030	-0.151
-409.340	-200.000	-0.214	0.000
-408.325	-200.000	-0.012	0.245
-407.311	-146.546	-0.390	-0.034
-406.296	542.856	0.094	0.224
-405.282	-200.000	0.024	0.326
-404.267	800.000	-0.043	0.170
-403.252	-200.000	0.021	-0.169
-402.238	339.340	0.213	0.413
-401.223	548.425	-0.109	0.260
-400.209	12.539	-0.223	-0.172
-399.194	-20.397	-0.300	0.184
-398.179	-90.970	-0.418	-0.120
-397.165	-76.458	0.428	0.150
-396.150	-127.940	0.317	-0.045
-395.136	157.603	-0.078	-0.108
-394.121	-200.000	-0.049	0.247
-393.106	330.973	0.017	0.032
-392.092	92.661	-0.181	-0.203
-391.077	18.485	0.199	0.158
-390.063	-120.890	0.405	-0.068
-389.048	50.174	-0.021	-0.020
-388.033	384.622	-0.108	-0.222
-387.019	800.000	0.048	-0.139
-386.004	-74.282	-0.197	0.071
-384.990	-50.219	0.268	0.126
-383.975	-63.102	-0.056	-0.023
-382.960	723.299	0.024	0.064
-381.946	-58.088	0.091	-0.039
-380.931	-15.701	-0.173	-0.110
-379.917	800.000	0.047	0.143
-378.902	-104.197	-0.103	0.024
-377.888	-35.465	-0.273	-0.148
-376.873	-200.000	-0.008	0.246
-375.858	-14.888	-0.170	0.109
-374.844	-127.161	-0.311	0.045
-373.829	-47.336	-0.008	0.004
-372.815	-18.580	-0.106	0.066
-371.800	236.674	-0.059	-0.097
-370.785	56.611	-0.341	0.330
-369.771	-127.514	0.188	-0.027
-368.756	-200.000	0.044	0.261
-367.742	-121.724	0.196	0.032
-366.727	120.222	0.240	-0.296
-365.712	-155.867	-0.188	0.012
-364.698	70.845	0.263	0.271
-363.683	261.357	0.123	0.212
-362.669	800.000	-0.083	-0.229
-361.654	-98.017	0.174	-0.045
-360.639	-89.793	-0.061	-0.018
-359.625	-65.866	0.378	0.151
-358.610	319.302	0.095	0.179
-357.596	-102.626	0.145	-0.034
-356.581	77.629	0.315	0.334
-355.566	103.937	0.089	-0.104
-354.552	-97.510	-0.319	-0.083
-353.537	326.352	0.139	0.266
-352.523	-200.000	0.021	-0.333
-351.508	-51.185	0.344	0.160
-350.493	32.374	0.131	0.113
-349.479	800.000	-0.066	0.233
-348.464	11.447	0.062	-0.047
-347.450	22.293	0.042	0.034
-346.435	800.000	-0.036	-0.112
-345.420	-54.373	-0.159	0.072
-344.406	225.627	0.229	-0.369
-343.391	-200.000	-0.026	0.162
-342.377	800.000	-0.047	0.160
-341.362	-176.097	0.090	-0.002
-340.348	-128.412	0.093	-0.013
-339.333	-84.175	-0.294	-0.093
-338.318	-35.101	-0.102	0.055
-337.304	800.000	-0.047	0.174
-336.289	-69.773	-0.338	-0.128
-335.275	-200.000	-0.028	0.268
-334.260	39.068	0.189	0.168
-333.245	147.232	-0.139	0.186
-332.231	52.115	0.092	-0.087
-331.216	-131.192	0.455	-0.060
-330.202	800.000	-0.045	-0.137
-329.187	-40.104	0.366	-0.190
-328.172	-126.855	-0.269	0.039
-327.158	296.311	-0.145	-0.264
-326.143	-54.442	0.327	0.147
-325.129	-200.000	-0.033	-0.306
-324.114	-132.839	0.118	-0.015
-323.099	-107.829	-0.062	-0.013
-322.085	-200.000	-0.024	0.263
-321.070	800.000	0.134	-0.394
-320.056	-200.000	0.033	0.156
-319.041	-200.000	-0.031	0.155
-318.026	148.244	-0.120	-0.161
-317.012	213.102	-0.039	0.061
-315.997	180.435	0.031	0.045
-314.983	83.793	-0.156	0.169
-313.968	178.796	0.115	-0.167
-312.953	-144.002	0.278	-0.026
-311.939	29.325	0.104	-0.088
-310.924	-200.000	0.008	0.279
-309.910	-200.000	0.016	-0.091
-308.895	-146.924	-0.325	-0.028
-307.880	-150.033	0.123	-0.010
-306.866	-18.604	-0.110	-0.068
-305.851	-7.129	0.034	-0.023
-304.837	-24.297	0.144	-0.086
-303.822	-74.807	0.106	0.038
-302.807	61.918	0.097	0.096
-301.793	161.723	-0.068	-0.094
-300.778	-33.514	0.236	-0.130
-299.764	-118.749	-0.113	0.020
-298.749	-17.132	-0.266	-0.166
-297.735	-115.565	-0.232	-0.043
-296.720	800.000	-0.015	0.051
-295.705	-200.000	-0.008	-0.417
-294.691	597.000	-0.127	-0.312
-293.676	139.508	-0.094	-0.122
-292.662	-200.000	-0.010	0.141
-291.647	21.626	0.113	-0.091
-290.632	-173.131	0.064	0.002
-289.618	-110.946	-0.054	-0.011
-288.603	800.000	-0.047	-0.170
-287.589	-200.000	0.003	-0.300
-286.574	300.952	0.053	-0.097
-285.559	-193.327	0.154	-0.001
-284.545	13.811	0.090	0.069
-283.530	-200.000	0.003	-0.079
-282.516	64.544	-0.084	0.084
-281.501	254.983	0.134	0.228
-280.486	-57.238	0.153	-0.067
-279.472	-200.000	-0.027	0.379
-278.457	-64.478	-0.096	-0.039
-277.443	-200.000	0.014	0.246
-276.428	-144.393	0.201	-0.019
-275.413	18.124	0.323	0.255
-274.399	-135.342	-0.143	0.017
-273.384	-108.418	-0.142	0.030
-272.370	800.000	0.081	-0.311
-271.355	-9.315	0.194	0.128
-270.340	-137.155	-0.105	-0.012
-269.326	-39.951	0.164	0.085
-268.311	800.000	0.033	-0.143
-267.297	-90.095	-0.295	0.085
-266.282	61.555	0.197	0.194
-265.267	55.572	-0.118	-0.113
-264.253	-47.152	0.190	-0.092
-263.238	243.080	0.146	-0.242
-262.224	507.323	-0.073	0.168
-261.209	-60.994	-0.098	0.041
-260.195	-200.000	0.013	-0.200
-259.180	-30.683	-0.143	-0.080
-258.165	-200.000	-0.039	-0.222
-257.151	35.993	-0.027	-0.024
-256.136	5.773	-0.195	0.143
-255.122	175.831	-0.079	-0.113
-254.107	-162.966	0.161	0.008
-253.092	-67.284	0.209	-0.081
-252.078	-200.000	0.048	-0.334
-251.063	-21.436	-0.221	-0.134
-250.049	-77.881	-0.281	-0.096
-249.034	148.608	-0.107	-0.143
-248.019	800.000	0.128	0.446
-247.005	-200.000	0.038	0.165
-245.990	337.260	0.082	0.157
-244.976	-84.956	-0.260	0.081
-243.961	-83.987	0.245	-0.077
-242.946	-85.901	0.387	-0.119
-241.932	-24.397	0.156	-0.092
-240.917	164.435	-0.188	0.262
-239.903	33.089	-0.055	0.047
-238.888	222.767	0.188	-0.300
-237.873	636.152	0.125	-0.313
-236.859	70.404	0.053	-0.054
-235.844	72.266	-0.075	0.078
-234.830	164.321	-0.256	-0.357
-233.815	-200.000	-0.029	0.259
-232.800	114.740	0.243	0.294
-231.786	-28.977	-0.122	-0.069
-230.771	115.879	0.089	0.108
-229.757	-3.103	-0.323	0.223
-228.742	-200.000	0.006	-0.031
-227.727	0.681	0.230	-0.163
-226.713	-37.924	-0.336	0.177
-225.698	-33.438	-0.261	-0.143
-224.684	-63.760	0.219	0.089
-223.669	23.576	-0.081	-0.066
-222.655	106.628	-0.185	0.218
-221.640	-55.090	-0.304	0.135
-220.625	800.000	0.059	-0.182
-219.611	108.772	0.068	0.080
-218.596	-75.555	-0.081	0.029
-217.582	125.304	0.096	-0.119
-216.567	279.333	-0.046	0.082
-215.552	-30.823	-0.139	-0.078
-214.538	-200.000	0.074	0.000
-213.523	102.961	-0.102	0.118
-212.509	-19.163	0.203	-0.124
-211.494	-200.000	0.005	-0.057
-210.479	800.000	0.081	0.225
-209.465	-45.705	-0.108	0.053
-208.450	-27.752	-0.226	0.130
-207.436	-200.000	0.018	-0.191
-206.421	-58.423	0.331	-0.142
-205.406	44.497	0.264	0.240
-204.392	800.000	-0.022	-0.067
-203.377	438.374	0.053	0.114
-202.363	155.086	-0.090	0.122
-201.348	-161.531	-0.096	-0.005
-200.333	-200.000	0.014	-0.195
-199.319	603.515	-0.023	-0.058
-198.304	-36.291	-0.280	-0.149
-197.290	595.652	-0.164	-0.402
-196.275	7.025	-0.115	0.085
-195.260	-114.819	0.133	-0.025
-194.246	736.579	0.150	0.397
-193.231	-124.048	-0.283	0.044
-192.217	105.243	-0.342	0.399
-191.202	145.342	0.185	0.245
-190.187	-19.116	-0.174	0.107
-189.173	8.980	-0.188	0.140
-188.158	423.954	0.121	0.256
-187.144	-90.969	0.056	0.016
-186.129	-85.711	0.206	0.063
-185.114	-85.060	0.335	-0.104
-184.100	-55.599	-0.167	0.074
-183.085	-163.897	-0.054	-0.003
-182.071	-143.369	0.122	0.012
-181.056	41.713	-0.173	0.155
-180.042	260.458	-0.077	-0.132
-179.027	-86.656	0.385	0.116
-178.012	-2.651	-0.162	0.112
-176.998	222.210	0.161	-0.255
-175.983	158.165	-0.157	-0.215
-174.969	800.000	0.061	-0.198
-173.954	-200.000	-0.004	-0.243
-172.939	-83.050	-0.244	-0.078
-171.925	-200.000	-0.027	0.211
-170.910	390.906	-0.046	-0.095
-169.896	-30.860	0.234	-0.130
-168.881	-146.453	-0.309	0.027
-167.866	11.424	0.062	-0.047
-166.852	-200.000	0.002	0.238
-165.837	446.128	0.100	-0.217
-164.823	92.930	0.200	0.224
-163.808	800.000	-0.058	0.213
-162.793	-26.042	0.112	0.065
-161.779	-200.000	-0.068	-0.360
-160.764	10.533	-0.316	0.238
-159.750	82.874	0.164	-0.176
-158.735	-123.043	0.173	-0.027
-157.720	33.478	-0.282	0.242
-156.706	-64.031	-0.220	-0.089
-155.691	503.805	-0.063	-0.144
-154.677	800.000	-0.126	0.405
-153.662	-7.567	-0.129	-0.086
-152.647	-200.000	0.029	-0.296
-151.633	774.489	0.092	0.249
-150.618	800.000	-0.044	0.189
-149.604	-88.266	-0.220	0.065
-148.589	0.696	0.246	-0.174
-147.574	483.113	0.087	0.195
-146.560	336.224	0.142	0.272
-145.545	87.554	-0.078	0.085
-144.531	-200.000	0.042	0.245
-143.516	120.157	-0.125	0.153
-142.502	-62.656	0.217	-0.089
-141.487	90.482	0.109	0.120
-140.472	33.574	0.061	-0.052
-139.458	3.182	0.250	-0.180
-138.443	-22.647	0.165	0.099
-137.429	-44.675	0.137	-0.068
-136.414	59.958	0.281	-0.274
-135.399	32.852	0.181	-0.154
-134.385	-39.606	0.079	0.041
-133.370	135.829	-0.119	-0.153
-132.356	-128.431	-0.361	-0.051
-131.341	-200.000	-0.015	0.216
-130.326	-200.000	0.005	-0.359
-129.312	-200.000	-0.012	0.068
-128.297	800.000	0.150	0.438
-127.283	-200.000	0.055	0.255
-126.268	65.364	0.072	-0.072
-125.253	69.639	0.116	-0.118
-124.239	-200.000	0.009	-0.129
-123.224	800.000	0.076	-0.267
-122.210	-161.695	0.147	-0.007
-121.195	-117.767	-0.057	-0.010
