DTS Sentinel unit serial number:	SN413079Multiplexer serial number:	ORYXHardware model number:	OX4-SRSoftware version number:	ORYX F/W v4.00 Oryx Data Collector v3.7.2.0data status	okinstallation	princeton_trtdifferential loss correction	single-endedforward channel	channel 1reverse channel	N/Adate	2019/09/16time	19:34:35forward acquisition time	60.00reverse acquisition time	0.00gamma	496.2192k internal	0.2316k external	0.2316temperature offset calibration	0.9959default loss term (dB/km)	0.3790temperature slope calibration	1.0000multiplexer offset coefficient	1.0000multiplexer slope coefficient	1.0000fibre end	0.00T internal ref (°C)	34.31T ext. ref 1 (°C)	0.08T ext. ref 2 (°C)	27.26length (m)	temperature (°C)	Stokes	anti-Stokes-747.200	-127.018	0.076	-0.011
-746.185	800.000	-0.020	-0.060
-745.171	237.635	-0.168	-0.282
-744.156	-135.971	-0.352	0.042
-743.142	640.301	-0.088	0.228
-742.127	-200.000	0.033	0.393
-741.112	-10.786	0.184	-0.124
-740.098	-119.146	-0.272	-0.048
-739.083	5.799	-0.164	-0.123
-738.069	-85.312	0.087	0.028
-737.054	-28.481	0.106	-0.062
-736.039	-152.374	-0.355	0.026
-735.025	-112.137	0.142	0.029
-734.010	41.770	-0.451	-0.414
-732.996	-200.000	-0.023	-0.212
-731.981	800.000	0.099	-0.346
-730.966	17.161	0.151	-0.121
-729.952	-43.793	-0.238	0.121
-728.937	-114.211	-0.294	-0.057
-727.923	800.000	-0.057	-0.226
-726.908	-10.823	0.122	-0.082
-725.894	-200.000	-0.020	0.099
-724.879	53.875	-0.352	-0.342
-723.864	363.497	0.058	-0.118
-722.850	423.944	0.148	-0.322
-721.835	227.222	0.195	0.322
-720.821	213.625	0.018	0.029
-719.806	-200.000	0.031	0.173
-718.791	116.203	0.176	-0.218
-717.777	-42.460	-0.245	-0.126
-716.762	361.672	0.192	0.390
-715.748	-106.408	-0.112	-0.025
-714.733	-67.559	0.278	0.110
-713.718	-154.818	-0.168	-0.011
-712.704	55.026	0.110	-0.108
-711.689	53.811	0.079	-0.077
-710.675	88.074	-0.059	-0.067
-709.660	-200.000	0.012	0.155
-708.645	-200.000	0.006	0.169
-707.631	-200.000	0.003	-0.113
-706.616	-91.396	-0.532	-0.154
-705.602	-48.733	-0.060	0.029
-704.587	-47.987	-0.182	-0.089
-703.572	-200.000	0.007	0.033
-702.558	120.479	-0.290	-0.364
-701.543	-123.590	0.299	0.048
-700.529	-8.035	0.090	0.062
-699.514	-57.585	-0.120	0.053
-698.499	800.000	0.033	-0.134
-697.485	-166.673	-0.161	0.007
-696.470	-186.603	-0.429	0.006
-695.456	-200.000	-0.008	0.047
-694.441	-31.849	-0.210	-0.119
-693.426	-12.678	-0.179	-0.118
-692.412	-87.572	0.249	0.076
-691.397	189.900	-0.029	0.044
-690.383	-171.633	-0.251	0.008
-689.368	-42.126	0.346	0.179
-688.354	-108.433	0.332	-0.072
-687.339	53.122	-0.160	-0.155
-686.324	127.330	-0.160	-0.205
-685.310	-76.395	-0.279	-0.099
-684.295	-29.671	0.147	-0.085
-683.281	89.490	-0.136	-0.153
-682.266	-133.251	-0.167	0.021
-681.251	-200.000	-0.031	-0.193
-680.237	-52.589	0.146	0.068
-679.222	-39.457	0.287	-0.152
-678.208	24.572	0.117	-0.098
-677.193	-60.521	-0.261	0.112
-676.178	-200.000	0.019	-0.111
-675.164	312.024	-0.073	0.139
-674.149	-105.819	-0.179	0.041
-673.135	57.576	0.106	0.105
-672.120	-80.894	-0.082	0.027
-671.105	800.000	-0.082	-0.291
-670.091	-81.247	0.116	-0.039
-669.076	-149.113	-0.204	0.017
-668.062	-53.397	-0.438	-0.203
-667.047	-66.764	0.406	0.162
-666.032	-66.016	-0.154	-0.062
-665.018	300.511	0.224	0.417
-664.003	-16.121	-0.039	0.025
-662.989	-200.000	-0.025	-0.136
-661.974	-200.000	0.012	-0.078
-660.959	-76.227	0.129	-0.046
-659.945	-200.000	-0.007	-0.213
-658.930	-93.760	-0.139	-0.039
-657.916	141.663	-0.139	-0.185
-656.901	-106.197	0.367	0.083
-655.886	148.880	0.169	-0.231
-654.872	96.392	-0.237	-0.273
-653.857	261.725	0.066	-0.116
-652.843	800.000	0.021	-0.089
-651.828	128.616	-0.083	-0.107
-650.814	78.019	0.270	0.290
-649.799	-104.055	-0.192	-0.045
-648.784	-200.000	0.010	-0.107
-647.770	190.621	-0.089	0.135
-646.755	-5.618	-0.181	0.125
-645.741	55.452	-0.127	-0.124
-644.726	800.000	-0.089	-0.289
-643.711	47.493	0.127	0.120
-642.697	137.780	0.071	0.094
-641.682	126.497	0.012	-0.016
-640.668	-58.976	0.101	-0.044
-639.653	-158.938	-0.242	0.014
-638.638	-67.358	-0.167	0.066
-637.624	800.000	0.040	0.128
-636.609	800.000	-0.065	0.217
-635.595	-48.196	-0.037	-0.018
-634.580	-136.399	0.146	0.017
-633.565	494.941	-0.155	0.360
-632.551	412.933	0.116	-0.248
-631.536	115.139	0.161	-0.198
-630.522	-200.000	-0.004	0.181
-629.507	800.000	0.051	-0.214
-628.492	207.087	0.067	0.105
-627.478	16.595	0.230	-0.183
-626.463	10.159	0.256	-0.196
-625.449	21.280	-0.227	-0.186
-624.434	-200.000	-0.011	-0.104
-623.419	-14.098	-0.241	-0.157
-622.405	-200.000	-0.035	-0.171
-621.390	-6.883	-0.285	-0.195
-620.376	-70.940	0.263	-0.100
-619.361	-95.163	-0.442	-0.120
-618.346	36.406	0.062	-0.055
-617.332	-47.339	-0.146	-0.072
-616.317	-75.446	-0.047	-0.017
-615.303	-144.775	-0.152	-0.014
-614.288	-147.983	0.061	-0.005
-613.273	-59.254	-0.166	0.072
-612.259	-56.830	0.253	-0.113
-611.244	800.000	0.019	-0.082
-610.230	-3.761	-0.139	0.098
-609.215	-200.000	-0.040	0.335
-608.201	239.479	-0.013	-0.021
-607.186	-200.000	0.002	-0.197
-606.171	22.110	-0.135	0.111
-605.157	536.383	0.034	0.080
-604.142	565.577	0.115	-0.282
-603.128	800.000	-0.077	-0.260
-602.113	-200.000	-0.044	0.205
-601.098	181.783	-0.125	0.185
-600.084	-83.426	0.402	-0.130
-599.069	800.000	-0.024	0.074
-598.055	-200.000	-0.013	-0.111
-597.040	55.133	-0.134	0.131
-596.025	-22.707	0.240	0.146
-595.011	154.576	0.027	-0.037
-593.996	-15.463	0.209	0.134
-592.982	800.000	0.025	0.108
-591.967	-58.898	-0.257	-0.112
-590.952	-46.160	0.231	-0.114
-589.938	-68.484	0.179	0.070
-588.923	-200.000	0.007	-0.299
-587.909	560.740	-0.090	-0.218
-586.894	-75.186	0.291	0.105
-585.879	328.818	0.099	0.191
-584.865	304.026	-0.098	0.183
-583.850	800.000	-0.087	0.283
-582.836	-154.404	-0.249	0.017
-581.821	800.000	-0.024	-0.090
-580.806	-14.307	-0.108	0.070
-579.792	104.954	-0.072	0.086
-578.777	-63.323	0.227	-0.094
-577.763	-66.130	-0.148	0.060
-576.748	-15.692	-0.202	0.129
-575.733	-113.637	0.158	-0.031
-574.719	-200.000	-0.018	-0.222
-573.704	-190.528	0.144	-0.002
-572.690	178.601	-0.118	0.173
-571.675	-200.000	-0.004	-0.164
-570.661	-85.321	0.021	0.006
-569.646	-147.770	-0.341	0.029
-568.631	-155.803	0.417	0.027
-567.617	800.000	0.079	0.222
-566.602	-110.718	0.063	-0.013
-565.588	-21.162	-0.140	-0.086
-564.573	800.000	0.102	-0.287
-563.558	-71.084	0.353	-0.134
-562.544	-200.000	0.011	-0.104
-561.529	237.964	0.097	-0.161
-560.515	-52.667	0.071	-0.033
-559.500	-200.000	0.015	-0.308
-558.485	-72.092	0.185	0.069
-557.471	-106.393	0.097	-0.022
-556.456	192.731	0.110	0.167
-555.442	473.831	-0.040	0.091
-554.427	284.508	-0.157	-0.284
-553.412	152.277	0.114	0.157
-552.398	-200.000	-0.010	-0.149
-551.383	420.394	0.054	-0.117
-550.369	-200.000	0.017	-0.133
-549.354	-88.646	0.263	-0.079
-548.339	106.316	-0.168	-0.201
-547.325	-170.563	-0.130	-0.005
-546.310	417.635	-0.175	-0.375
-545.296	151.755	0.104	0.143
-544.281	296.217	-0.128	-0.235
-543.266	-39.524	0.104	0.055
-542.252	282.611	0.127	0.229
-541.237	-63.830	0.072	-0.030
-540.223	-200.000	0.041	0.370
-539.208	-174.023	-0.158	0.005
-538.193	-151.244	-0.262	-0.020
-537.179	-92.869	-0.153	0.043
-536.164	601.139	0.159	-0.396
-535.150	152.231	0.175	0.241
-534.135	0.734	0.112	-0.080
-533.121	-200.000	-0.012	-0.141
-532.106	47.200	0.169	-0.158
-531.091	-66.715	-0.081	-0.032
-530.077	-6.671	-0.062	0.042
-529.062	26.550	0.242	-0.203
-528.048	434.407	-0.033	0.071
-527.033	130.003	0.105	-0.134
-526.018	800.000	-0.057	-0.203
-525.004	-197.034	-0.379	-0.002
-523.989	-37.395	0.036	-0.019
-522.975	-200.000	0.009	0.358
-521.960	76.624	-0.187	-0.199
-520.945	-200.000	0.169	0.001
-519.931	73.798	-0.141	0.148
-518.916	-66.847	-0.188	-0.075
-517.902	230.503	-0.179	0.294
-516.887	80.296	0.158	-0.171
-515.872	-200.000	0.043	0.230
-514.858	-200.000	0.010	-0.291
-513.843	-142.739	0.119	0.012
-512.829	800.000	-0.087	0.312
-511.814	800.000	-0.040	0.173
-510.799	99.734	-0.077	-0.089
-509.785	8.869	-0.039	-0.030
-508.770	331.289	-0.097	0.188
-507.756	3.119	-0.138	-0.101
-506.741	-49.638	-0.113	-0.054
-505.726	-200.000	0.050	-0.336
-504.712	63.032	0.332	-0.334
-503.697	-26.947	-0.218	0.128
-502.683	-200.000	0.011	0.056
-501.668	293.495	-0.088	0.161
-500.653	-133.197	0.252	-0.032
-499.639	15.052	0.197	0.155
-498.624	357.940	-0.218	-0.436
-497.610	167.301	0.198	0.282
-496.595	800.000	-0.096	0.273
-495.581	-200.000	0.055	-0.312
-494.566	800.000	-0.056	0.221
-493.551	71.520	0.192	0.201
-492.537	18.921	-0.336	-0.270
-491.522	-54.607	0.087	0.040
-490.508	-200.000	0.044	0.208
-489.493	-200.000	0.004	0.229
-488.478	-200.000	-0.023	-0.103
-487.464	-77.869	0.227	0.079
-486.449	-53.192	-0.175	0.081
-485.435	483.358	-0.039	0.088
-484.420	-200.000	-0.001	0.076
-483.405	62.831	0.188	0.189
-482.391	29.668	0.130	-0.111
-481.376	443.846	0.113	0.249
-480.362	-121.063	-0.067	0.011
-479.347	-21.234	-0.098	-0.060
-478.332	64.472	0.058	-0.059
-477.318	72.584	-0.426	-0.445
-476.303	89.812	-0.020	-0.022
-475.289	-200.000	-0.038	-0.167
-474.274	-128.425	0.128	0.018
-473.259	123.932	0.052	-0.065
-472.245	53.621	-0.077	-0.074
-471.230	-10.242	0.263	-0.175
-470.216	64.230	-0.101	0.102
-469.201	-5.640	0.401	-0.275
-468.186	62.664	-0.332	-0.333
-467.172	-87.574	0.271	0.082
-466.157	92.664	0.125	0.141
-465.143	384.287	0.043	0.089
-464.128	-95.300	-0.059	0.016
-463.113	244.989	0.185	-0.311
-462.099	125.084	-0.034	0.043
-461.084	401.650	0.098	0.206
-460.070	-14.902	-0.106	0.068
-459.055	84.498	-0.134	0.147
-458.040	249.837	-0.159	0.270
-457.026	-200.000	-0.033	0.165
-456.011	-132.188	-0.144	0.019
-454.997	49.940	0.161	-0.152
-453.982	146.356	0.239	-0.321
-452.968	-136.759	-0.300	-0.035
-451.953	-127.009	-0.407	0.060
-450.938	28.180	-0.054	-0.045
-449.924	409.674	-0.075	-0.160
-448.909	-95.218	0.121	0.033
-447.895	-114.133	0.277	0.054
-446.880	183.490	-0.125	0.185
-445.865	708.334	-0.211	0.559
-444.851	59.535	-0.071	0.070
-443.836	-200.000	0.069	0.317
-442.822	-5.922	0.091	-0.063
-441.807	-200.000	0.019	0.153
-440.792	-188.862	0.103	0.001
-439.778	-103.467	-0.140	0.033
-438.763	210.492	0.079	-0.124
-437.749	-114.466	-0.336	0.065
-436.734	-150.660	-0.370	0.028
-435.719	-123.333	-0.337	0.054
-434.705	276.834	0.148	0.263
-433.690	58.537	0.135	0.133
-432.676	-86.776	-0.302	0.092
-431.661	251.270	-0.075	-0.127
-430.646	-108.088	0.065	-0.014
-429.632	-200.000	0.007	-0.257
-428.617	-38.533	-0.204	-0.108
-427.603	262.810	-0.046	0.080
-426.588	-96.186	-0.162	-0.043
-425.573	800.000	0.064	-0.179
-424.559	-200.000	0.008	0.049
-423.544	141.203	-0.141	0.187
-422.530	408.817	0.016	-0.034
-421.515	-2.125	0.154	0.108
-420.500	76.745	-0.167	-0.177
-419.486	-200.000	-0.002	-0.141
-418.471	-36.316	0.016	-0.009
-417.457	-72.036	-0.325	0.121
-416.442	-36.418	0.110	0.059
-415.428	800.000	0.034	0.113
-414.413	800.000	-0.047	-0.142
-413.398	800.000	-0.100	0.426
-412.384	800.000	-0.072	-0.225
-411.369	-103.673	-0.154	0.036
-410.355	712.418	0.026	-0.068
-409.340	-36.523	0.067	-0.036
-408.325	119.872	-0.100	-0.124
-407.311	59.594	-0.222	0.218
-406.296	-95.838	0.316	-0.084
-405.282	-200.000	0.041	-0.227
-404.267	-200.000	-0.020	0.163
-403.252	419.459	-0.002	-0.004
-402.238	-200.000	-0.028	-0.252
-401.223	296.445	-0.070	-0.129
-400.209	-67.719	0.148	-0.058
-399.194	484.912	-0.070	-0.160
-398.179	-120.079	0.308	0.053
-397.165	-200.000	0.033	-0.276
-396.150	800.000	-0.045	0.164
-395.136	-200.000	0.004	-0.153
-394.121	98.015	-0.165	-0.190
-393.106	-200.000	-0.063	0.295
-392.092	347.923	-0.046	-0.091
-391.077	-103.801	-0.218	0.051
-390.063	-200.000	-0.034	-0.263
-389.048	57.608	-0.094	-0.091
-388.033	800.000	-0.016	-0.063
-387.019	-93.008	0.383	-0.107
-386.004	409.898	0.134	-0.285
-384.990	-73.922	-0.148	-0.053
-383.975	800.000	-0.050	-0.192
-382.960	800.000	-0.063	-0.222
-381.946	1.194	-0.179	0.128
-380.931	-106.167	0.153	0.034
-379.917	-200.000	-0.012	-0.152
-378.902	166.345	0.006	-0.008
-377.888	-137.900	0.060	0.007
-376.873	189.005	0.055	-0.082
-375.858	146.171	0.166	0.223
-374.844	-77.796	0.173	0.060
-373.829	57.703	-0.088	0.086
-372.815	-26.016	0.236	0.139
-371.800	-64.031	0.171	0.070
-370.785	356.185	0.122	0.243
-369.771	352.630	0.081	-0.160
-368.756	-133.571	-0.160	0.020
-367.742	50.639	-0.145	0.137
-366.727	289.191	0.011	-0.021
-365.712	53.142	-0.279	0.266
-364.698	-200.000	0.064	0.293
-363.683	94.102	0.117	0.132
-362.669	-116.063	-0.199	-0.037
-361.654	-200.000	0.032	-0.153
-360.639	72.733	0.204	-0.212
-359.625	-200.000	-0.020	0.433
-358.610	64.314	-0.062	0.062
-357.596	93.673	-0.237	-0.268
-356.581	-200.000	0.028	0.226
-355.566	-58.860	0.124	0.053
-354.552	-20.678	-0.122	0.075
-353.537	800.000	0.024	0.068
-352.523	-85.388	-0.346	0.108
-351.508	-129.694	-0.180	0.025
-350.493	-9.171	0.136	0.091
-349.479	281.417	0.071	-0.127
-348.464	-133.301	-0.079	-0.010
-347.450	-33.307	0.114	-0.063
-346.435	486.626	0.035	-0.080
-345.420	57.052	0.192	-0.187
-344.406	111.000	0.137	-0.165
-343.391	-40.946	-0.144	0.074
-342.377	-200.000	0.013	-0.105
-341.362	-44.812	0.285	0.142
-340.348	-200.000	-0.017	-0.229
-339.333	-195.107	0.089	-0.001
-338.318	291.445	0.074	0.134
-337.304	-138.374	-0.187	-0.021
-336.289	30.804	-0.083	0.071
-335.275	92.155	0.162	0.182
-334.260	150.656	-0.060	0.081
-333.245	338.360	0.030	-0.059
-332.231	124.640	0.126	-0.159
-331.216	142.518	-0.071	0.094
-330.202	-27.027	-0.132	0.077
-329.187	335.032	-0.062	0.120
-328.172	-200.000	-0.072	-0.405
-327.158	-129.666	-0.141	-0.019
-326.143	-11.173	0.228	0.150
-325.129	-95.863	0.018	-0.005
-324.114	229.381	0.134	0.218
-323.099	-133.300	-0.208	0.026
-322.085	-200.000	0.035	0.194
-321.070	800.000	0.061	-0.169
-320.056	-33.802	-0.279	0.153
-319.041	-200.000	0.053	-0.279
-318.026	-44.161	-0.185	-0.092
-317.012	-146.524	-0.066	0.006
-315.997	-1.449	0.205	-0.144
-314.983	-53.081	-0.166	0.076
-313.968	41.129	0.096	-0.087
-312.953	-39.616	-0.228	-0.119
-311.939	-120.769	-0.256	0.043
-310.924	-49.814	-0.225	0.106
-309.910	-195.705	0.071	0.001
-308.895	-200.000	0.001	0.036
-307.880	-109.308	-0.274	0.058
-306.866	-200.000	-0.030	-0.194
-305.851	800.000	-0.053	0.162
-304.837	-200.000	-0.059	0.365
-303.822	-50.682	0.192	-0.090
-302.807	503.000	-0.056	-0.128
-301.793	25.197	0.129	0.107
-300.778	92.098	-0.187	0.210
-299.764	88.833	-0.159	-0.176
-298.749	800.000	0.083	0.270
-297.735	800.000	0.056	-0.216
-296.720	125.041	0.128	-0.161
-295.705	-200.000	-0.018	-0.123
-294.691	-117.483	-0.228	-0.041
-293.676	-106.849	0.021	-0.005
-292.662	-19.536	0.186	-0.115
-291.647	240.083	-0.208	-0.344
-290.632	58.625	0.337	-0.330
-289.618	-5.181	-0.215	-0.147
-288.603	-200.000	-0.017	0.137
-287.589	85.768	-0.344	0.376
-286.574	-200.000	0.060	0.314
-285.559	120.285	0.110	0.136
-284.545	296.367	0.113	0.207
-283.530	11.486	0.198	0.151
-282.516	22.090	0.106	-0.086
-281.501	-124.884	0.282	-0.043
-280.486	-200.000	0.028	0.242
-279.472	-91.823	-0.133	0.038
-278.457	135.378	0.121	-0.156
-277.443	717.792	-0.090	0.238
-276.428	-200.000	-0.023	-0.199
-275.413	-200.000	0.035	-0.596
-274.399	-200.000	-0.035	-0.256
-273.384	383.894	-0.012	-0.024
-272.370	-15.267	0.174	-0.110
-271.355	800.000	-0.060	0.210
-270.340	323.818	-0.098	0.186
-269.326	137.566	0.051	-0.066
-268.311	203.182	0.179	-0.276
-267.297	48.316	0.184	-0.171
-266.282	-55.336	-0.165	-0.074
-265.267	-61.083	0.075	0.032
-264.253	-200.000	0.002	0.183
-263.238	211.116	-0.195	0.305
-262.224	-200.000	0.007	0.257
-261.209	33.182	0.106	-0.092
-260.195	-25.364	-0.213	-0.125
-259.180	119.570	0.201	0.247
-258.165	-75.102	-0.266	-0.094
-257.151	81.180	-0.030	0.033
-256.136	-91.911	-0.356	-0.100
-255.122	126.727	0.110	-0.139
-254.107	366.316	0.061	0.121
-253.092	-21.831	-0.222	-0.134
-252.078	323.100	-0.148	0.281
-251.063	95.749	0.104	0.118
-250.049	-200.000	0.022	0.119
-249.034	165.008	-0.205	-0.288
-248.019	502.619	0.110	-0.252
-247.005	684.699	-0.086	0.223
-245.990	41.772	0.332	0.299
-244.976	193.336	-0.028	-0.042
-243.961	282.882	-0.099	-0.176
-242.946	88.731	-0.256	-0.282
-241.932	-95.154	0.115	0.031
-240.917	188.884	-0.194	0.288
-239.903	-110.338	0.205	-0.042
-238.888	-200.000	0.038	0.274
-237.873	-86.998	0.142	0.043
-236.859	502.068	0.118	-0.270
-235.844	-28.579	0.105	-0.060
-234.830	28.524	-0.258	-0.217
-233.815	-200.000	0.016	-0.233
-232.800	58.196	0.249	0.242
-231.786	800.000	-0.059	-0.170
-230.771	275.654	0.140	0.247
-229.757	48.906	0.150	-0.140
-228.742	800.000	0.063	-0.266
-227.727	113.496	0.063	-0.076
-226.713	224.609	-0.163	0.261
-225.698	-38.459	-0.046	-0.024
-224.684	455.496	-0.085	-0.188
-223.669	-80.107	0.078	0.026
-222.655	800.000	0.058	-0.219
-221.640	800.000	0.061	0.172
-220.625	144.715	0.101	-0.134
-219.611	79.455	-0.106	-0.113
-218.596	-112.954	0.281	0.055
-217.582	71.375	0.194	0.200
-216.567	-154.126	-0.158	-0.011
-215.552	158.074	-0.068	0.093
-214.538	-135.139	0.108	-0.013
-213.523	252.255	0.170	0.287
-212.509	-200.000	-0.003	-0.207
-211.494	-122.500	-0.321	-0.052
-210.479	-71.201	-0.150	0.056
-209.465	239.560	-0.098	0.162
-208.450	-92.032	0.111	-0.031
-207.436	-200.000	-0.032	-0.237
-206.421	800.000	-0.041	-0.117
-205.406	800.000	0.036	0.126
-204.392	-132.659	0.432	0.055
-203.377	56.940	-0.151	-0.145
-202.363	-200.000	0.075	0.379
-201.348	278.234	0.106	0.188
-200.333	-122.308	0.214	0.035
-199.319	-39.885	-0.265	0.137
-198.304	-73.569	-0.339	-0.122
-197.290	125.686	-0.165	0.207
-196.275	401.474	0.106	-0.220
-195.260	13.995	0.216	0.166
-194.246	9.143	0.075	0.056
-193.231	-52.340	0.249	-0.114
-192.217	-1.592	-0.086	0.060
-191.202	-70.288	-0.115	0.043
-190.187	-200.000	0.041	0.293
-189.173	-82.586	0.341	0.110
-188.158	-117.262	0.185	0.033
-187.144	-200.000	0.026	-0.122
-186.129	-85.478	0.136	-0.042
-185.114	800.000	-0.112	0.383
-184.100	-102.001	0.052	-0.012
-183.085	83.267	0.244	0.263
-182.071	0.717	-0.025	-0.018
-181.056	-10.547	-0.120	-0.079
-180.042	177.945	-0.174	0.251
-179.027	683.441	0.072	0.186
-178.012	272.328	-0.104	-0.181
-176.998	-46.012	0.279	0.136
-175.983	-28.958	0.095	-0.054
-174.969	-84.413	0.357	-0.112
-173.954	17.996	0.134	-0.106
-172.939	115.977	0.096	0.117
-171.925	26.660	-0.077	-0.064
-170.910	-200.000	0.013	-0.061
-169.896	-147.279	-0.165	0.014
-168.881	-10.730	0.125	0.082
-167.866	800.000	-0.056	0.205
-166.852	-158.942	-0.012	-0.001
-165.837	-200.000	-0.014	-0.073
-164.823	-200.000	-0.072	0.359
-163.808	800.000	0.084	-0.269
-162.793	-121.428	-0.077	0.013
-161.779	-200.000	-0.028	-0.205
-160.764	-200.000	0.030	0.195
-159.750	-120.901	0.087	0.014
-158.735	179.981	0.018	-0.027
-157.720	-94.960	0.248	0.066
-156.706	-132.290	0.268	-0.034
-155.691	-97.183	0.183	0.047
-154.677	-43.066	-0.259	-0.130
-153.662	-39.174	0.328	0.171
-152.647	49.903	0.180	0.168
-151.633	-200.000	-0.036	0.315
-150.618	338.550	-0.099	0.190
-149.604	-200.000	0.000	-0.139
-148.589	-53.046	0.357	-0.162
-147.574	-29.156	0.241	-0.137
-146.560	-175.832	0.165	0.004
-145.545	543.271	-0.085	-0.202
-144.531	475.473	-0.120	0.269
-143.516	249.564	-0.131	-0.220
-142.502	-100.905	0.110	-0.027
-141.487	515.805	-0.139	-0.321
-140.472	-21.981	-0.182	-0.110
-139.458	800.000	0.061	-0.222
-138.443	673.665	-0.107	0.275
-137.429	-200.000	-0.011	0.249
-136.414	800.000	-0.037	-0.132
-135.399	75.323	-0.051	0.053
-134.385	249.959	0.195	0.327
-133.370	-96.349	-0.182	-0.048
-132.356	-115.651	0.158	-0.029
-131.341	-109.545	0.185	-0.039
-130.326	-65.515	0.302	0.120
-129.312	-200.000	0.004	0.399
-128.297	-200.000	-0.029	0.180
-127.283	1.452	0.141	0.101
-126.268	800.000	-0.106	0.391
-125.253	-108.085	-0.270	-0.058
-124.239	-113.047	0.246	0.048
-123.224	164.200	-0.126	-0.176
-122.210	1.641	-0.263	0.187
