DTS Sentinel unit serial number:	SN413079Multiplexer serial number:	ORYXHardware model number:	OX4-SRSoftware version number:	ORYX F/W v4.00 Oryx Data Collector v3.7.2.0data status	okinstallation	princeton_trtdifferential loss correction	single-endedforward channel	channel 1reverse channel	N/Adate	2019/09/17time	07:42:35forward acquisition time	60.00reverse acquisition time	0.00gamma	496.2192k internal	0.2331k external	0.2331temperature offset calibration	0.9967default loss term (dB/km)	0.3790temperature slope calibration	1.0000multiplexer offset coefficient	1.0000multiplexer slope coefficient	1.0000fibre end	0.00T internal ref (°C)	27.16T ext. ref 1 (°C)	0.12T ext. ref 2 (°C)	21.97length (m)	temperature (°C)	Stokes	anti-Stokes-747.200	-200.000	0.047	-0.243
-746.185	-57.528	-0.243	-0.107
-745.171	-135.123	-0.105	-0.013
-744.156	-111.804	-0.264	0.054
-743.142	-33.206	-0.258	0.144
-742.127	542.047	0.104	0.249
-741.112	136.771	0.164	0.215
-740.098	744.320	-0.134	0.364
-739.083	-84.971	0.302	0.095
-738.069	-200.000	-0.024	0.132
-737.054	129.223	-0.222	-0.285
-736.039	22.111	-0.138	0.114
-735.025	-21.864	0.308	0.189
-734.010	-200.000	0.022	-0.155
-732.996	800.000	0.050	-0.200
-731.981	325.357	-0.169	0.325
-730.966	-94.993	-0.501	0.136
-729.952	-200.000	0.022	-0.188
-728.937	760.280	0.123	-0.335
-727.923	266.927	0.103	-0.181
-726.908	-200.000	0.062	0.356
-725.894	-200.000	-0.024	-0.126
-724.879	562.479	-0.066	0.160
-723.864	-18.936	-0.199	0.124
-722.850	-133.486	-0.042	-0.005
-721.835	-82.545	0.444	0.145
-720.821	487.839	0.087	-0.200
-719.806	800.000	-0.082	-0.305
-718.791	352.374	0.061	0.121
-717.777	-200.000	0.003	0.308
-716.762	-63.558	0.149	-0.062
-715.748	210.624	0.020	0.031
-714.733	304.192	-0.150	-0.280
-713.718	-54.607	-0.097	-0.044
-712.704	28.524	0.336	-0.286
-711.689	374.977	-0.220	-0.450
-710.675	18.127	-0.061	-0.049
-709.660	50.318	-0.109	-0.103
-708.645	-90.960	0.156	-0.045
-707.631	67.511	-0.087	0.090
-706.616	666.230	0.169	-0.438
-705.602	-200.000	0.007	-0.146
-704.587	107.286	0.132	-0.157
-703.572	-41.736	-0.207	0.107
-702.558	-200.000	0.059	-0.312
-701.543	270.664	-0.084	0.148
-700.529	58.279	-0.113	-0.111
-699.514	-198.977	0.174	-0.001
-698.499	83.854	-0.187	0.205
-697.485	-142.214	0.098	-0.010
-696.470	-54.309	0.013	0.006
-695.456	191.433	0.070	-0.106
-694.441	-200.000	-0.020	-0.357
-693.426	-85.045	0.229	-0.072
-692.412	32.801	-0.115	-0.100
-691.397	-77.404	0.456	0.159
-690.383	-81.622	-0.260	0.086
-689.368	-200.000	0.056	-0.277
-688.354	-170.082	0.017	0.001
-687.339	-200.000	-0.022	0.179
-686.324	-66.056	-0.145	-0.058
-685.310	-158.118	0.082	-0.005
-684.295	126.792	0.204	0.260
-683.281	-54.439	-0.414	0.188
-682.266	-59.092	0.167	0.072
-681.251	-200.000	0.021	-0.213
-680.237	-141.717	-0.119	-0.012
-679.222	-200.000	-0.028	-0.330
-678.208	-200.000	-0.004	-0.101
-677.193	-0.034	-0.252	0.180
-676.178	-90.535	-0.242	-0.070
-675.164	477.652	0.050	0.114
-674.149	-23.739	0.186	0.112
-673.135	116.336	-0.182	0.224
-672.120	-181.585	0.236	-0.005
-671.105	800.000	-0.088	-0.351
-670.091	762.573	-0.185	-0.504
-669.076	-13.017	0.278	-0.182
-668.062	-180.173	-0.134	-0.003
-667.047	-200.000	-0.002	0.139
-666.032	127.135	-0.140	-0.178
-665.018	-130.614	-0.093	-0.013
-664.003	-200.000	0.003	-0.184
-662.989	-22.686	0.291	-0.176
-661.974	-37.169	0.236	-0.127
-660.959	800.000	-0.093	-0.380
-659.945	-64.164	-0.066	0.027
-658.930	4.256	-0.059	0.043
-657.916	75.486	-0.019	-0.020
-656.901	-200.000	-0.007	0.164
-655.886	83.249	0.177	-0.193
-654.872	-45.355	0.204	-0.101
-653.857	5.020	0.191	-0.141
-652.843	60.604	0.320	-0.318
-651.828	-57.836	-0.139	-0.061
-650.814	9.357	-0.135	-0.103
-649.799	483.083	-0.172	0.393
-648.784	161.807	0.127	0.179
-647.770	-126.936	-0.116	0.017
-646.755	49.077	-0.081	-0.076
-645.741	26.362	0.100	0.084
-644.726	800.000	-0.064	0.206
-643.711	-119.064	-0.058	-0.010
-642.697	-200.000	-0.001	-0.252
-641.682	-145.068	-0.280	0.026
-640.668	-94.981	-0.082	-0.022
-639.653	32.853	0.122	-0.106
-638.638	-150.040	-0.376	-0.029
-637.624	66.952	-0.183	0.187
-636.609	-200.000	0.018	0.092
-635.595	112.272	-0.390	0.473
-634.580	-200.000	0.023	-0.172
-633.565	-200.000	0.013	-0.080
-632.551	-57.120	0.056	-0.025
-631.536	-3.672	0.241	0.168
-630.522	216.590	0.125	0.200
-629.507	-34.051	0.444	0.245
-628.492	-84.338	0.071	-0.022
-627.478	89.641	0.168	-0.188
-626.463	201.356	0.236	0.365
-625.449	-200.000	-0.086	-0.399
-624.434	-200.000	0.005	0.030
-623.419	49.733	0.115	-0.108
-622.405	-42.333	0.311	-0.159
-621.390	119.436	0.107	0.133
-620.376	80.155	-0.303	0.326
-619.361	199.925	0.149	-0.229
-618.346	800.000	0.036	-0.134
-617.332	-160.630	0.192	0.010
-616.317	-14.726	0.029	0.018
-615.303	-147.096	-0.324	-0.028
-614.288	-97.339	0.413	0.108
-613.273	-173.981	-0.156	-0.005
-612.259	688.501	0.091	-0.237
-611.244	-200.000	0.001	0.291
-610.230	-91.579	0.151	-0.043
-609.215	800.000	0.095	-0.309
-608.201	54.894	0.120	-0.116
-607.186	-200.000	0.005	0.064
-606.171	-135.307	0.177	0.021
-605.157	36.647	-0.062	0.055
-604.142	-54.853	0.244	-0.110
-603.128	14.165	0.067	-0.052
-602.113	-122.265	-0.078	-0.013
-601.098	-176.852	0.123	0.003
-600.084	208.671	-0.047	-0.073
-599.069	-41.536	-0.273	-0.140
-598.055	94.789	-0.134	0.152
-597.040	-114.801	0.352	-0.067
-596.025	127.534	-0.191	0.243
-595.011	-89.241	0.216	0.064
-593.996	-200.000	0.030	-0.265
-592.982	323.984	0.093	0.178
-591.967	303.183	-0.073	0.135
-590.952	-52.456	0.246	-0.114
-589.938	800.000	-0.041	0.144
-588.923	-200.000	-0.012	-0.120
-587.909	125.242	0.114	-0.143
-586.894	-63.316	0.055	0.023
-585.879	170.958	-0.082	-0.117
-584.865	-180.515	0.158	-0.003
-583.850	5.806	-0.107	0.079
-582.836	-143.966	-0.196	-0.018
-581.821	608.587	0.076	0.191
-580.806	-200.000	0.066	0.295
-579.792	0.088	-0.132	0.094
-578.777	-200.000	0.011	-0.066
-577.763	-200.000	-0.015	0.146
-576.748	3.926	-0.108	-0.079
-575.733	33.532	0.068	-0.059
-574.719	-65.941	0.101	-0.040
-573.704	305.284	0.069	0.127
-572.690	-98.042	0.548	0.141
-571.675	-200.000	0.040	-0.367
-570.661	-200.000	-0.004	0.159
-569.646	-82.780	0.194	0.063
-568.631	-55.472	0.194	0.087
-567.617	119.053	0.137	-0.169
-566.602	113.158	0.075	-0.090
-565.588	13.210	-0.109	0.084
-564.573	-23.272	0.137	-0.082
-563.558	-139.152	0.159	-0.017
-562.544	88.394	0.248	0.276
-561.529	-156.974	0.047	-0.003
-560.515	529.991	-0.012	-0.029
-559.500	-200.000	0.007	0.071
-558.485	800.000	0.060	-0.166
-557.471	800.000	0.064	-0.227
-556.456	-74.773	-0.272	-0.097
-555.442	-36.476	-0.123	-0.066
-554.427	800.000	-0.027	0.097
-553.412	800.000	0.066	0.210
-552.398	800.000	0.025	0.070
-551.383	327.045	0.035	-0.066
-550.369	800.000	0.032	-0.108
-549.354	178.066	-0.165	-0.241
-548.339	74.611	0.158	-0.166
-547.325	136.493	-0.208	-0.271
-546.310	-200.000	-0.048	-0.418
-545.296	-1.667	-0.230	0.161
-544.281	-12.851	-0.123	0.080
-543.266	-200.000	-0.031	-0.197
-542.252	91.167	0.171	0.191
-541.237	513.021	0.138	-0.321
-540.223	800.000	0.005	-0.015
-539.208	132.654	0.027	0.035
-538.193	-97.166	-0.033	-0.009
-537.179	-200.000	0.002	0.014
-536.164	517.047	0.183	-0.427
-535.150	-126.689	-0.253	0.037
-534.135	-108.366	-0.435	0.094
-533.121	-20.852	0.239	-0.146
-532.106	-136.424	-0.452	-0.052
-531.091	-48.039	-0.161	0.078
-530.077	13.489	-0.134	0.104
-529.062	47.145	-0.320	0.297
-528.048	133.976	-0.170	0.220
-527.033	675.956	0.064	0.165
-526.018	-146.332	-0.296	0.026
-525.004	-124.429	0.422	-0.066
-523.989	-200.000	-0.009	-0.204
-522.975	153.847	-0.204	0.279
-521.960	800.000	0.061	-0.200
-520.945	-200.000	-0.035	-0.470
-519.931	-200.000	0.002	-0.186
-518.916	-60.767	0.168	-0.071
-517.902	129.370	-0.119	0.152
-516.887	11.993	-0.108	-0.082
-515.872	-200.000	-0.028	-0.281
-514.858	800.000	0.100	-0.330
-513.843	-31.741	-0.076	-0.042
-512.829	30.699	0.048	-0.041
-511.814	-6.912	0.308	0.209
-510.799	384.792	-0.102	-0.209
-509.785	55.144	0.100	-0.097
-508.770	-80.317	-0.366	0.122
-507.756	-194.023	-0.144	0.001
-506.741	800.000	-0.071	0.277
-505.726	-114.495	-0.268	0.051
-504.712	-200.000	0.030	0.163
-503.697	-70.132	-0.124	0.047
-502.683	800.000	0.017	-0.061
-501.668	-200.000	-0.013	0.136
-500.653	185.294	-0.069	-0.102
-499.639	800.000	0.008	-0.031
-498.624	348.401	0.065	-0.127
-497.610	344.323	0.126	-0.245
-496.595	-200.000	-0.005	-0.322
-495.581	-81.427	-0.138	-0.045
-494.566	61.456	-0.179	-0.177
-493.551	162.026	0.026	-0.036
-492.537	26.932	-0.222	0.185
-491.522	-200.000	-0.008	-0.083
-490.508	-76.022	0.165	0.058
-489.493	335.570	-0.068	0.131
-488.478	-200.000	-0.029	0.172
-487.464	800.000	-0.061	-0.192
-486.449	-182.062	0.130	-0.002
-485.435	538.663	0.218	-0.516
-484.420	-164.673	0.272	0.012
-483.405	800.000	0.062	0.225
-482.391	36.321	0.357	0.314
-481.376	398.692	-0.061	0.127
-480.362	267.103	0.021	0.037
-479.347	800.000	-0.054	-0.194
-478.332	-108.857	-0.209	0.044
-477.318	120.924	-0.083	-0.103
-476.303	800.000	-0.009	-0.032
-475.289	-200.000	-0.027	0.311
-474.274	-200.000	-0.250	0.001
-473.259	77.400	-0.149	0.158
-472.245	31.253	0.113	-0.096
-471.230	121.556	0.226	-0.280
-470.216	-121.974	0.129	0.021
-469.201	-200.000	-0.010	-0.142
-468.186	-30.627	-0.353	0.199
-467.172	-73.246	0.201	0.073
-466.157	128.146	-0.194	-0.246
-465.143	85.304	0.096	-0.104
-464.128	586.315	0.062	0.153
-463.113	-200.000	-0.012	-0.087
-462.099	-137.291	0.018	-0.002
-461.084	209.347	-0.218	0.339
-460.070	-200.000	-0.018	-0.242
-459.055	-200.000	0.023	0.202
-458.040	203.767	0.061	0.093
-457.026	-55.860	0.114	-0.051
-456.011	800.000	0.119	-0.341
-454.997	-134.192	-0.208	0.026
-453.982	199.828	0.093	-0.142
-452.968	-141.431	0.258	0.026
-451.953	-126.938	-0.216	0.032
-450.938	-200.000	0.042	0.247
-449.924	-200.000	-0.106	-0.485
-448.909	73.613	0.069	-0.072
-447.895	-122.211	0.109	-0.018
-446.880	-22.876	0.097	0.058
-445.865	215.603	0.147	-0.233
-444.851	108.567	0.220	-0.261
-443.836	96.361	0.317	0.360
-442.822	-177.752	-0.229	-0.005
-441.807	8.151	-0.112	-0.084
-440.792	-68.313	0.714	0.276
-439.778	435.047	-0.181	0.392
-438.763	22.709	0.077	-0.063
-437.749	-143.582	-0.293	0.028
-436.734	39.210	0.181	-0.161
-435.719	96.985	-0.205	0.234
-434.705	-24.409	-0.296	-0.175
-433.690	-200.000	0.007	-0.200
-432.676	-200.000	0.015	0.236
-431.661	87.945	-0.265	-0.292
-430.646	-200.000	-0.000	0.038
-429.632	-110.298	-0.419	-0.087
-428.617	-89.413	0.471	-0.138
-427.603	-3.792	0.144	0.100
-426.588	-200.000	0.033	0.417
-425.573	311.328	-0.026	-0.049
-424.559	3.880	0.164	-0.119
-423.544	10.566	0.181	0.137
-422.530	286.301	-0.182	-0.326
-421.515	118.393	0.057	-0.070
-420.500	-200.000	0.005	-0.232
-419.486	3.492	0.136	0.099
-418.471	-165.775	-0.430	0.018
-417.457	62.912	-0.180	-0.179
-416.442	-200.000	-0.005	0.111
-415.428	500.173	0.122	0.279
-414.413	800.000	0.097	0.386
-413.398	69.856	-0.159	-0.163
-412.384	-166.056	0.039	0.002
-411.369	-126.222	-0.284	-0.042
-410.355	290.336	-0.147	-0.265
-409.340	-200.000	-0.002	-0.165
-408.325	-22.341	-0.246	0.148
-407.311	-92.087	0.253	0.071
-406.296	800.000	0.032	-0.101
-405.282	800.000	-0.087	-0.368
-404.267	-11.422	0.056	0.037
-403.252	-80.314	0.275	0.091
-402.238	-83.783	-0.093	0.030
-401.223	-104.144	-0.165	0.038
-400.209	-200.000	0.014	-0.312
-399.194	557.735	0.067	-0.161
-398.179	387.406	-0.046	0.093
-397.165	253.825	-0.069	0.117
-396.150	-95.051	0.146	-0.039
-395.136	-31.569	-0.148	0.082
-394.121	-128.238	0.225	0.032
-393.106	-112.817	0.345	0.068
-392.092	113.707	0.105	0.127
-391.077	205.049	0.080	-0.123
-390.063	208.572	0.073	0.113
-389.048	800.000	0.102	0.281
-388.033	-200.000	-0.208	0.000
-387.019	800.000	-0.078	0.263
-386.004	-67.706	-0.228	-0.089
-384.990	-179.935	0.270	0.006
-383.975	-36.446	0.137	0.073
-382.960	402.907	0.082	-0.172
-381.946	120.165	-0.136	-0.167
-380.931	800.000	0.051	0.203
-379.917	-164.121	0.353	0.016
-378.902	-188.418	-0.186	0.002
-377.888	96.248	-0.151	-0.171
-376.873	-92.875	0.092	0.026
-375.858	47.642	-0.188	-0.174
-374.844	-138.873	0.435	-0.047
-373.829	-77.634	0.268	-0.092
-372.815	-37.141	-0.135	0.072
-371.800	-127.366	-0.219	-0.032
-370.785	44.374	-0.235	0.214
-369.771	0.235	0.254	-0.179
-368.756	-200.000	0.005	-0.216
-367.742	-78.857	-0.081	0.027
-366.727	-10.175	-0.347	-0.228
-365.712	-74.498	0.112	0.040
-364.698	800.000	0.055	-0.156
-363.683	195.412	-0.064	-0.097
-362.669	-200.000	0.014	0.241
-361.654	-120.920	-0.258	0.043
-360.639	-136.206	-0.118	-0.014
-359.625	-57.624	0.266	0.115
-358.610	-93.073	-0.550	0.152
-357.596	279.898	0.104	-0.183
-356.581	800.000	0.028	-0.098
-355.566	-195.622	-0.164	0.001
-354.552	800.000	0.041	0.169
-353.537	-89.126	-0.309	0.090
-352.523	-200.000	0.024	-0.410
-351.508	800.000	-0.139	-0.502
-350.493	-87.822	-0.236	0.070
-349.479	524.573	-0.122	-0.285
-348.464	800.000	-0.082	0.302
-347.450	-50.104	-0.286	0.134
-346.435	1.506	0.079	0.056
-345.420	-160.157	-0.133	-0.007
-344.406	-98.160	-0.248	-0.063
-343.391	-62.191	0.182	-0.075
-342.377	-84.844	0.325	0.101
-341.362	-200.000	0.039	0.469
-340.348	-38.155	0.200	-0.105
-339.333	800.000	0.022	-0.063
-338.318	800.000	-0.053	0.149
-337.304	106.912	-0.176	0.207
-336.289	-1.743	-0.069	-0.048
-335.275	109.798	-0.179	-0.212
-334.260	-200.000	-0.039	0.176
-333.245	-95.687	-0.263	0.070
-332.231	-180.651	-0.428	0.009
-331.216	-143.142	-0.089	-0.008
-330.202	88.247	-0.081	0.089
-329.187	-90.814	0.248	0.071
-328.172	340.092	-0.119	0.230
-327.158	-200.000	-0.069	0.350
-326.143	506.434	-0.048	0.111
-325.129	-120.675	-0.149	-0.025
-324.114	242.568	0.203	-0.337
-323.099	800.000	0.027	0.089
-322.085	-110.334	-0.293	-0.060
-321.070	12.849	0.095	0.073
-320.056	-200.000	0.005	0.026
-319.041	-200.000	0.004	-0.189
-318.026	272.326	0.071	0.124
-317.012	-200.000	0.036	0.188
-315.997	-118.388	0.082	-0.014
-314.983	-31.619	-0.110	-0.061
-313.968	50.855	-0.192	-0.180
-312.953	-3.570	-0.306	-0.210
-311.939	800.000	0.116	-0.318
-310.924	120.807	0.029	0.036
-309.910	471.244	0.178	0.396
-308.895	488.595	-0.026	-0.058
-307.880	116.967	0.139	-0.169
-306.866	-87.740	-0.105	-0.031
-305.851	231.302	-0.057	-0.093
-304.837	-200.000	-0.001	-0.043
-303.822	495.759	0.068	0.153
-302.807	-144.590	-0.124	-0.011
-301.793	-200.000	0.015	0.284
-300.778	-30.325	0.356	-0.200
-299.764	-119.210	-0.250	-0.043
-298.749	135.722	-0.198	-0.255
-297.735	-44.061	0.124	0.062
-296.720	670.271	0.018	-0.045
-295.705	-200.000	0.025	-0.252
-294.691	800.000	-0.058	0.188
-293.676	606.053	-0.082	0.203
-292.662	-84.114	0.313	0.098
-291.647	-134.852	0.236	-0.028
-290.632	800.000	0.037	0.119
-289.618	-149.244	-0.170	-0.013
-288.603	-49.537	-0.337	0.159
-287.589	266.643	0.175	-0.303
-286.574	-2.479	-0.265	0.183
-285.559	-82.121	0.486	0.157
-284.545	308.930	0.052	-0.096
-283.530	-200.000	0.001	-0.025
-282.516	4.805	-0.160	0.116
-281.501	122.807	0.112	0.138
-280.486	-200.000	-0.007	0.134
-279.472	-83.145	-0.200	0.064
-278.457	800.000	-0.097	0.390
-277.443	-120.419	0.141	-0.024
-276.428	-200.000	-0.027	-0.124
-275.413	133.090	0.194	0.248
-274.399	65.086	-0.122	-0.122
-273.384	-11.443	-0.029	0.019
-272.370	-58.103	0.170	0.073
-271.355	-144.317	0.283	-0.026
-270.340	-134.626	0.275	-0.033
-269.326	252.507	0.243	-0.410
-268.311	-125.257	0.164	0.025
-267.297	-165.026	0.100	0.004
-266.282	-136.950	-0.270	-0.031
-265.267	-200.000	0.032	0.153
-264.253	-76.501	0.074	-0.026
-263.238	-200.000	0.080	0.426
-262.224	-200.000	-0.019	0.196
-261.209	-108.159	0.321	0.069
-260.195	-2.677	-0.211	0.146
-259.180	800.000	0.062	0.193
-258.165	72.330	-0.075	-0.077
-257.151	652.676	0.056	0.142
-256.136	1.380	0.173	-0.123
-255.122	368.475	0.113	-0.226
-254.107	31.578	0.243	0.206
-253.092	-15.295	-0.161	-0.102
-252.078	268.446	-0.087	0.150
-251.063	800.000	-0.052	-0.175
-250.049	-20.480	0.036	0.022
-249.034	33.635	-0.057	-0.049
-248.019	-132.954	0.092	-0.012
-247.005	54.509	0.358	0.341
-245.990	51.538	0.240	-0.225
-244.976	-200.000	-0.012	-0.251
-243.961	553.687	0.112	-0.265
-242.946	800.000	-0.078	0.225
-241.932	594.730	0.053	-0.130
-240.917	-101.617	-0.217	0.052
-239.903	130.012	0.090	-0.114
-238.888	83.374	0.208	-0.224
-237.873	-200.000	-0.053	-0.254
-236.859	-112.940	-0.234	0.046
-235.844	-9.954	0.084	-0.055
-234.830	244.130	-0.045	0.075
-233.815	136.178	0.299	0.385
-232.800	540.986	0.159	0.374
-231.786	-108.552	0.391	0.083
-230.771	-94.815	-0.120	-0.032
-229.757	203.283	-0.171	-0.260
-228.742	357.765	0.060	0.117
-227.727	-147.754	-0.257	-0.021
-226.713	201.030	-0.154	-0.234
-225.698	800.000	-0.059	-0.169
-224.684	278.374	0.133	0.234
-223.669	-200.000	0.050	0.226
-222.655	-157.654	0.166	0.010
-221.640	-118.766	0.287	0.050
-220.625	-200.000	-0.010	0.196
-219.611	-200.000	-0.003	0.027
-218.596	70.966	0.193	-0.197
-217.582	-119.055	-0.208	0.036
-216.567	-124.491	0.118	0.018
-215.552	-200.000	-0.010	0.644
-214.538	170.663	-0.073	-0.103
-213.523	-200.000	0.007	-0.166
-212.509	597.711	-0.073	0.178
-211.494	125.759	-0.088	0.109
-210.479	13.014	0.058	-0.044
-209.465	-17.018	0.212	0.132
-208.450	61.847	-0.062	0.061
-207.436	-200.000	-0.032	0.288
-206.421	-181.726	0.192	0.004
-205.406	-45.581	-0.349	-0.170
-204.392	-200.000	-0.021	-0.217
-203.377	-127.680	0.184	-0.026
-202.363	436.925	0.073	0.157
-201.348	327.503	-0.179	0.338
-200.333	-200.000	-0.024	0.000
-199.319	343.100	-0.147	0.283
-198.304	-200.000	-0.033	-0.229
-197.290	-85.408	-0.356	-0.109
-196.275	319.232	-0.085	0.159
-195.260	86.782	0.219	-0.238
-194.246	119.669	-0.155	0.190
-193.231	800.000	-0.089	0.354
-192.217	63.571	-0.269	-0.266
-191.202	205.659	-0.077	-0.117
-190.187	29.186	-0.147	-0.123
-189.173	-200.000	-0.001	0.178
-188.158	-200.000	-0.016	0.200
-187.144	-200.000	-0.011	0.350
-186.129	-70.502	-0.087	-0.032
-185.114	318.592	-0.111	-0.207
-184.100	233.370	-0.055	-0.089
-183.085	-75.821	-0.081	-0.028
-182.071	-200.000	-0.044	-0.311
-181.056	253.268	-0.161	-0.271
-180.042	307.682	-0.240	-0.441
-179.027	-200.000	-0.069	-0.320
-178.012	-114.829	-0.395	-0.074
-176.998	351.910	-0.077	0.149
-175.983	-38.065	0.207	0.108
-174.969	156.329	0.092	-0.125
-173.954	-149.092	0.198	0.016
-172.939	249.359	-0.023	-0.039
-171.925	-56.912	0.384	0.167
-170.910	800.000	-0.028	-0.099
-169.896	-200.000	0.005	0.088
-168.881	-200.000	0.008	0.103
-167.866	182.901	0.109	0.158
-166.852	-20.191	0.363	-0.220
-165.837	800.000	0.036	-0.145
-164.823	29.036	0.343	0.286
-163.808	-200.000	-0.059	0.272
-162.793	-140.532	0.045	-0.005
-161.779	104.473	-0.170	-0.197
-160.764	431.844	0.042	-0.089
-159.750	173.828	0.077	0.109
-158.735	44.213	-0.147	-0.132
-157.720	-70.042	-0.166	0.062
-156.706	150.981	-0.085	0.114
-155.691	-200.000	-0.015	-0.179
-154.677	-39.203	-0.056	0.029
-153.662	-115.652	-0.251	-0.046
-152.647	800.000	0.037	-0.119
-151.633	-200.000	0.014	0.150
-150.618	800.000	-0.067	0.238
-149.604	105.904	0.124	0.145
-148.589	509.252	-0.046	-0.105
-147.574	251.916	-0.132	-0.221
-146.560	800.000	0.026	-0.076
-145.545	-62.918	-0.175	-0.071
-144.531	250.160	0.188	0.313
-143.516	800.000	0.085	0.305
-142.502	-56.678	0.184	-0.080
-141.487	-141.931	0.095	0.009
-140.472	407.670	0.057	-0.119
-139.458	108.086	0.146	0.171
-138.443	214.174	0.145	0.226
-137.429	151.772	0.040	0.054
-136.414	-47.677	-0.081	0.039
-135.399	473.834	0.051	0.113
-134.385	-97.289	0.068	0.018
-133.370	92.651	0.193	-0.214
-132.356	4.879	0.202	0.146
-131.341	-141.972	-0.472	0.046
-130.326	-88.554	0.299	-0.088
-129.312	-66.674	0.246	0.096
-128.297	5.747	-0.205	0.149
-127.283	-67.936	0.268	-0.103
-126.268	-200.000	-0.009	-0.123
-125.253	285.202	0.063	0.112
-124.239	-34.637	0.088	-0.048
-123.224	582.041	0.022	-0.052
-122.210	477.100	0.033	0.073
