DTS Sentinel unit serial number:	SN413079Multiplexer serial number:	ORYXHardware model number:	OX4-SRSoftware version number:	ORYX F/W v4.00 Oryx Data Collector v3.7.2.0data status	okinstallation	princeton_trtdifferential loss correction	single-endedforward channel	channel 1reverse channel	N/Adate	2019/09/13time	23:06:35forward acquisition time	60.00reverse acquisition time	0.00gamma	496.2192k internal	0.2335k external	0.2335temperature offset calibration	1.0083default loss term (dB/km)	0.3790temperature slope calibration	1.0000multiplexer offset coefficient	1.0000multiplexer slope coefficient	1.0000fibre end	0.00T internal ref (°C)	27.25T ext. ref 1 (°C)	3.20T ext. ref 2 (°C)	21.23length (m)	temperature (°C)	Stokes	anti-Stokes-747.200	-200.000	0.014	0.296
-746.185	800.000	-0.021	0.079
-745.171	1.946	-0.160	-0.116
-744.156	-200.000	0.008	0.119
-743.142	789.779	0.035	-0.097
-742.127	0.955	-0.188	-0.136
-741.112	266.259	0.127	0.223
-740.098	800.000	0.039	0.145
-739.083	-88.820	-0.205	0.061
-738.069	800.000	-0.009	0.028
-737.054	800.000	-0.150	-0.535
-736.039	279.835	-0.179	-0.321
-735.025	49.425	0.159	0.151
-734.010	30.427	0.098	-0.084
-732.996	-192.916	0.172	0.002
-731.981	-200.000	-0.017	0.128
-730.966	-154.026	-0.364	0.025
-729.952	-71.028	-0.166	-0.063
-728.937	306.196	0.044	0.082
-727.923	-200.000	-0.037	0.219
-726.908	475.387	0.144	0.326
-725.894	-200.000	0.006	0.226
-724.879	-77.784	-0.179	0.062
-723.864	800.000	-0.069	0.227
-722.850	76.244	-0.038	-0.041
-721.835	112.112	-0.074	0.089
-720.821	-70.329	0.076	-0.029
-719.806	139.928	-0.070	0.092
-718.791	-107.072	-0.278	-0.061
-717.777	94.090	-0.231	0.263
-716.762	189.065	-0.132	0.199
-715.748	-200.000	-0.049	-0.321
-714.733	-86.825	0.413	-0.126
-713.718	322.900	-0.067	0.129
-712.704	-61.362	-0.348	0.147
-711.689	21.965	-0.201	0.165
-710.675	-174.664	-0.164	-0.005
-709.660	12.251	0.104	-0.080
-708.645	82.812	0.051	0.055
-707.631	-186.052	0.452	0.007
-706.616	-200.000	-0.009	0.158
-705.602	-40.677	-0.377	0.196
-704.587	179.382	0.098	-0.144
-703.572	-48.588	-0.136	0.066
-702.558	-81.031	0.203	-0.067
-701.543	-200.000	0.108	0.000
-700.529	279.843	-0.073	0.130
-699.514	-61.134	-0.103	0.043
-698.499	247.218	0.151	0.255
-697.485	6.363	-0.073	-0.054
-696.470	27.951	-0.093	0.079
-695.456	-200.000	-0.033	0.213
-694.441	-47.991	0.171	-0.083
-693.426	-100.200	-0.217	-0.054
-692.412	144.605	0.194	-0.260
-691.397	-71.559	-0.247	-0.093
-690.383	-17.012	-0.204	-0.129
-689.368	-200.000	-0.051	-0.280
-688.354	800.000	0.044	-0.138
-687.339	-137.664	-0.386	0.043
-686.324	195.682	-0.080	-0.123
-685.310	97.908	0.161	0.186
-684.295	-36.692	-0.088	0.047
-683.281	-22.134	0.017	0.011
-682.266	-164.505	-0.190	0.009
-681.251	-200.000	-0.012	-0.067
-680.237	-117.638	0.397	-0.072
-679.222	38.624	0.081	-0.072
-678.208	800.000	0.076	-0.251
-677.193	-200.000	0.039	-0.215
-676.178	54.848	-0.206	0.199
-675.164	742.020	0.111	-0.299
-674.149	-80.918	0.307	0.102
-673.135	378.696	-0.063	-0.129
-672.120	6.286	-0.134	-0.100
-671.105	124.380	-0.279	-0.352
-670.091	54.851	-0.344	-0.332
-669.076	800.000	-0.090	-0.263
-668.062	6.986	0.313	-0.234
-667.047	-200.000	0.018	-0.094
-666.032	133.475	0.055	0.071
-665.018	580.684	0.060	-0.147
-664.003	148.055	0.148	-0.200
-662.989	-200.000	-0.019	0.094
-661.974	800.000	-0.082	-0.244
-660.959	-200.000	0.002	0.324
-659.945	491.781	0.004	0.009
-658.930	-200.000	0.032	0.260
-657.916	800.000	-0.040	-0.169
-656.901	-125.031	-0.310	-0.048
-655.886	-127.603	-0.403	0.058
-654.872	800.000	-0.101	-0.302
-653.857	800.000	0.101	-0.381
-652.843	449.701	-0.139	0.308
-651.828	800.000	0.064	0.262
-650.814	249.726	0.081	-0.138
-649.799	-30.156	-0.294	-0.167
-648.784	800.000	0.117	-0.335
-647.770	-200.000	0.039	-0.387
-646.755	5.644	0.298	-0.220
-645.741	51.188	-0.249	-0.237
-644.726	58.375	-0.027	-0.026
-643.711	-29.920	-0.214	-0.122
-642.697	112.289	-0.133	-0.161
-641.682	23.363	-0.246	-0.203
-640.668	800.000	0.169	-0.494
-639.653	-17.811	0.320	-0.201
-638.638	-135.532	0.236	-0.028
-637.624	-10.334	0.156	-0.103
-636.609	-136.205	0.112	0.013
-635.595	16.739	0.211	0.167
-634.580	233.119	-0.113	0.186
-633.565	-200.000	0.030	-0.170
-632.551	800.000	-0.084	-0.245
-631.536	-111.056	-0.177	-0.036
-630.522	-127.099	-0.295	-0.043
-629.507	11.300	0.059	0.045
-628.492	-146.252	-0.240	-0.021
-627.478	68.694	-0.194	-0.199
-626.463	414.165	-0.078	0.165
-625.449	-180.445	-0.347	-0.007
-624.434	-65.885	0.236	0.094
-623.419	-159.633	-0.157	0.009
-622.405	800.000	0.027	-0.101
-621.390	-88.918	0.131	-0.039
-620.376	557.080	-0.140	-0.338
-619.361	-52.481	-0.310	-0.143
-618.346	-23.066	0.073	-0.044
-617.332	-67.416	0.032	-0.013
-616.317	183.581	-0.224	-0.331
-615.303	232.616	-0.070	-0.115
-614.288	488.085	-0.120	-0.274
-613.273	136.267	0.116	-0.151
-612.259	730.087	0.056	-0.149
-611.244	-20.895	0.160	-0.098
-610.230	-61.323	0.109	-0.046
-609.215	-200.000	0.050	0.229
-608.201	152.823	-0.060	-0.082
-607.186	4.272	0.200	-0.146
-606.171	-86.926	0.109	0.033
-605.157	800.000	0.066	-0.230
-604.142	172.804	0.145	-0.209
-603.128	800.000	0.022	-0.093
-602.113	-35.684	-0.106	0.057
-601.098	15.290	-0.073	0.057
-600.084	78.748	0.081	0.086
-599.069	25.824	0.184	-0.153
-598.055	-200.000	0.025	-0.174
-597.040	-200.000	0.003	-0.066
-596.025	-11.244	-0.101	-0.067
-595.011	-200.000	0.093	0.412
-593.996	-32.157	-0.179	0.100
-592.982	132.318	0.074	0.095
-591.967	-76.314	0.251	0.088
-590.952	17.911	-0.220	0.175
-589.938	536.451	0.135	0.321
-588.923	-154.331	-0.264	-0.018
-587.909	-38.937	0.113	-0.060
-586.894	-117.038	-0.154	0.028
-585.879	487.372	0.133	-0.302
-584.865	-179.547	-0.323	0.007
-583.850	114.730	0.196	0.239
-582.836	800.000	-0.064	-0.185
-581.821	-200.000	-0.001	-0.241
-580.806	749.977	0.067	-0.182
-579.792	-200.000	-0.029	-0.219
-578.777	800.000	-0.073	-0.288
-577.763	-70.119	-0.233	0.089
-576.748	702.625	-0.055	-0.145
-575.733	100.288	-0.128	-0.149
-574.719	-70.834	-0.074	0.028
-573.704	135.507	0.248	0.322
-572.690	-32.321	-0.160	0.089
-571.675	5.142	0.093	-0.069
-570.661	272.966	-0.190	-0.335
-569.646	-41.103	-0.131	-0.067
-568.631	-200.000	0.035	-0.343
-567.617	662.861	-0.074	0.191
-566.602	-107.100	-0.334	-0.074
-565.588	-88.078	0.259	0.077
-564.573	-120.810	0.081	-0.014
-563.558	-155.983	-0.080	-0.005
-562.544	-54.665	-0.167	0.075
-561.529	406.286	-0.052	0.110
-560.515	-200.000	-0.007	0.197
-559.500	-200.000	-0.032	-0.270
-558.485	-120.918	-0.275	0.046
-557.471	800.000	-0.099	0.330
-556.456	359.167	0.089	0.178
-555.442	24.104	-0.158	-0.130
-554.427	-38.313	-0.247	-0.130
-553.412	44.604	-0.371	0.340
-552.398	-51.784	0.262	0.121
-551.383	126.227	0.147	-0.186
-550.369	720.443	0.093	0.247
-549.354	-128.259	0.071	-0.010
-548.339	-200.000	-0.053	-0.268
-547.325	114.523	0.175	-0.213
-546.310	570.719	-0.115	-0.279
-545.296	-75.908	0.235	0.083
-544.281	39.141	0.086	0.077
-543.266	384.171	-0.110	0.226
-542.252	-37.665	0.056	-0.030
-541.237	56.043	-0.160	-0.155
-540.223	404.664	0.193	0.405
-539.208	41.842	0.139	-0.126
-538.193	-53.388	-0.238	-0.109
-537.179	256.860	-0.142	-0.243
-536.164	-183.529	0.306	0.005
-535.150	37.769	-0.033	0.029
-534.135	-81.455	0.334	0.110
-533.121	61.106	-0.075	0.075
-532.106	-200.000	-0.014	-0.284
-531.091	-44.292	-0.344	-0.172
-530.077	-17.344	0.238	0.149
-529.062	-122.861	0.241	0.039
-528.048	123.527	-0.035	-0.043
-527.033	-200.000	-0.017	0.098
-526.018	-142.146	0.349	0.035
-525.004	-49.191	-0.324	0.154
-523.989	-100.130	-0.165	0.041
-522.975	268.212	-0.048	-0.083
-521.960	43.966	0.185	-0.169
-520.945	800.000	0.072	-0.234
-519.931	279.436	-0.133	-0.236
-518.916	6.033	0.124	0.092
-517.902	51.248	-0.318	-0.301
-516.887	-200.000	-0.001	0.141
-515.872	45.620	0.204	-0.188
-514.858	-1.180	-0.212	-0.149
-513.843	-46.984	0.171	0.083
-512.829	-54.521	-0.275	-0.124
-511.814	538.568	-0.062	-0.147
-510.799	86.923	0.168	0.184
-509.785	402.289	0.029	0.061
-508.770	-118.136	-0.392	-0.070
-507.756	9.744	-0.203	0.153
-506.741	-157.727	0.251	-0.015
-505.726	69.659	0.127	0.130
-504.712	435.969	-0.021	-0.045
-503.697	180.767	0.012	-0.017
-502.683	800.000	0.048	-0.197
-501.668	28.693	0.283	-0.238
-500.653	-71.873	-0.263	-0.097
-499.639	-131.986	0.247	-0.032
-498.624	-46.398	-0.128	0.063
-497.610	-13.880	0.293	-0.189
-496.595	779.618	0.129	0.351
-495.581	308.916	-0.088	0.164
-494.566	56.545	-0.167	-0.161
-493.551	-181.028	0.123	-0.002
-492.537	800.000	-0.058	0.202
-491.522	-108.079	0.255	-0.055
-490.508	20.528	-0.105	-0.084
-489.493	-156.293	-0.249	0.016
-488.478	-56.443	-0.153	0.067
-487.464	-57.792	0.184	0.080
-486.449	162.445	-0.202	-0.282
-485.435	-69.006	0.182	-0.070
-484.420	267.241	0.098	0.170
-483.405	632.863	0.021	-0.052
-482.391	68.076	-0.090	-0.091
-481.376	-200.000	-0.091	-0.421
-480.362	-200.000	-0.012	-0.202
-479.347	135.162	-0.123	0.160
-478.332	-200.000	0.004	0.104
-477.318	80.238	-0.124	-0.132
-476.303	-130.506	-0.232	-0.031
-475.289	-156.061	-0.171	0.011
-474.274	-126.656	-0.452	0.067
-473.259	-200.000	0.044	-0.217
-472.245	-63.626	0.112	0.046
-471.230	-200.000	-0.079	0.401
-470.216	-27.743	0.154	-0.089
-469.201	-200.000	-0.025	0.288
-468.186	-70.622	-0.136	0.051
-467.172	800.000	0.067	-0.224
-466.157	34.951	0.335	0.291
-465.143	145.832	0.055	-0.074
-464.128	445.711	0.113	0.247
-463.113	275.978	0.131	0.231
-462.099	594.833	0.077	-0.190
-461.084	-200.000	0.037	0.206
-460.070	-12.569	-0.094	0.061
-459.055	101.691	0.128	0.148
-458.040	-200.000	-0.009	0.183
-457.026	111.835	0.191	0.229
-456.011	-115.476	0.285	-0.053
-454.997	-181.200	0.403	0.008
-453.982	-200.000	-0.032	0.182
-452.968	-200.000	-0.005	0.166
-451.953	-83.160	-0.107	-0.034
-450.938	226.408	-0.110	0.178
-449.924	178.874	-0.101	-0.147
-448.909	467.590	-0.109	-0.242
-447.895	-200.000	-0.004	-0.110
-446.880	-119.477	0.196	0.034
-445.865	800.000	0.066	0.287
-444.851	154.861	0.034	-0.047
-443.836	14.193	-0.141	0.109
-442.822	3.768	0.179	-0.130
-441.807	800.000	0.059	0.184
-440.792	168.750	-0.036	-0.051
-439.778	-200.000	-0.043	-0.299
-438.763	800.000	-0.063	-0.191
-437.749	-44.046	0.205	0.102
-436.734	800.000	-0.118	0.429
-435.719	371.060	0.031	0.061
-434.705	43.674	-0.152	0.138
-433.690	-22.663	0.236	-0.142
-432.676	-133.200	-0.228	-0.029
-431.661	-44.186	0.061	0.030
-430.646	10.630	-0.150	-0.114
-429.632	-200.000	0.063	-0.388
-428.617	-200.000	0.084	-0.411
-427.603	-200.000	-0.001	0.007
-426.588	472.391	-0.049	0.110
-425.573	-167.889	0.072	0.003
-424.559	137.483	-0.073	-0.095
-423.544	-87.023	-0.154	0.046
-422.530	-92.770	-0.306	0.085
-421.515	357.162	0.029	0.058
-420.500	22.090	-0.160	-0.130
-419.486	-200.000	-0.019	0.102
-418.471	-166.830	-0.271	-0.011
-417.457	67.565	0.268	0.271
-416.442	-40.734	0.248	0.128
-415.428	266.667	0.146	0.254
-414.413	-132.156	-0.155	0.020
-413.398	-161.353	-0.202	0.010
-412.384	117.136	-0.120	-0.146
-411.369	47.030	-0.140	-0.129
-410.355	-13.239	0.302	-0.194
-409.340	534.456	0.014	-0.034
-408.325	-162.009	0.168	-0.008
-407.311	90.692	-0.061	0.068
-406.296	-59.438	0.038	0.016
-405.282	-82.484	0.298	-0.096
-404.267	205.301	0.174	0.267
-403.252	22.058	-0.067	-0.054
-402.238	-200.000	0.033	-0.265
-401.223	-87.792	0.331	-0.099
-400.209	800.000	-0.033	-0.127
-399.194	97.419	0.162	-0.184
-398.179	-119.386	-0.048	0.008
-397.165	-200.000	0.071	0.482
-396.150	-45.474	-0.161	-0.079
-395.136	-200.000	-0.004	-0.201
-394.121	80.385	-0.063	-0.067
-393.106	-147.913	0.095	-0.008
-392.092	305.398	-0.041	-0.076
-391.077	176.398	-0.049	-0.071
-390.063	87.822	-0.130	-0.143
-389.048	-200.000	-0.037	-0.164
-388.033	-53.156	0.166	0.075
-387.019	41.772	0.168	0.151
-386.004	-178.864	-0.142	0.003
-384.990	319.578	-0.103	0.193
-383.975	-200.000	0.052	-0.281
-382.960	392.584	-0.060	0.124
-381.946	64.237	0.113	-0.113
-380.931	193.978	0.203	-0.304
-379.917	51.349	-0.117	0.110
-378.902	-200.000	0.077	0.355
-377.888	67.113	-0.130	0.131
-376.873	-200.000	-0.046	0.229
-375.858	57.996	0.118	-0.115
-374.844	-200.000	0.049	-0.267
-373.829	-127.306	-0.094	-0.014
-372.815	-200.000	-0.047	-0.211
-371.800	-29.527	0.254	-0.144
-370.785	-157.935	-0.251	0.015
-369.771	-65.825	0.265	0.105
-368.756	-39.742	-0.151	-0.078
-367.742	452.419	-0.115	-0.251
-366.727	800.000	0.018	-0.055
-365.712	97.005	-0.234	0.266
-364.698	180.336	0.054	-0.078
-363.683	122.553	0.177	-0.219
-362.669	9.342	-0.149	0.112
-361.654	-200.000	-0.041	0.323
-360.639	-200.000	-0.022	-0.139
-359.625	800.000	0.101	-0.322
-358.610	-128.561	-0.015	-0.002
-357.596	-200.000	0.015	0.264
-356.581	425.327	-0.141	0.300
-355.566	-70.789	0.201	-0.075
-354.552	-158.258	0.350	-0.020
-353.537	-200.000	0.005	0.514
-352.523	800.000	-0.059	0.172
-351.508	-145.502	0.118	0.010
-350.493	401.785	0.171	-0.355
-349.479	-24.740	-0.122	0.072
-348.464	800.000	-0.062	-0.262
-347.450	800.000	-0.042	0.176
-346.435	-200.000	-0.011	-0.157
-345.420	800.000	-0.054	0.208
-344.406	800.000	-0.063	-0.188
-343.391	158.608	-0.024	-0.033
-342.377	-200.000	-0.011	-0.152
-341.362	-189.515	-0.135	-0.002
-340.348	77.546	0.281	-0.295
-339.333	-42.790	-0.418	0.210
-338.318	-147.468	-0.353	0.030
-337.304	-66.867	0.091	-0.036
-336.289	-200.000	-0.013	0.076
-335.275	53.281	-0.084	0.079
-334.260	-55.409	0.111	0.049
-333.245	586.999	0.007	-0.018
-332.231	86.127	-0.226	0.246
-331.216	23.270	-0.091	-0.074
-330.202	-69.412	0.220	0.084
-329.187	-200.000	0.015	0.077
-328.172	-200.000	-0.022	0.136
-327.158	201.425	-0.198	-0.302
-326.143	156.393	0.156	-0.213
-325.129	-66.286	-0.004	0.002
-324.114	79.044	-0.254	-0.269
-323.099	11.154	0.118	-0.089
-322.085	-112.696	0.147	-0.029
-321.070	-169.180	0.347	0.013
-320.056	112.502	-0.248	-0.296
-319.041	-200.000	-0.039	0.201
-318.026	-200.000	0.025	0.161
-317.012	-200.000	0.019	0.432
-315.997	449.611	-0.111	0.241
-314.983	-77.525	0.294	-0.101
-313.968	-32.775	-0.150	-0.083
-312.953	-105.663	-0.122	-0.027
-311.939	-118.336	-0.057	0.010
-310.924	326.655	-0.081	0.154
-309.910	-102.799	0.202	-0.047
-308.895	52.015	0.213	-0.201
-307.880	465.443	0.161	-0.355
-306.866	-200.000	-0.015	0.094
-305.851	107.327	-0.356	0.418
-304.837	800.000	0.062	0.186
-303.822	116.295	0.127	0.154
-302.807	40.567	0.329	0.293
-301.793	-41.557	-0.343	0.174
-300.778	7.391	0.161	-0.119
-299.764	800.000	-0.045	0.179
-298.749	-86.301	0.272	0.083
-297.735	39.252	-0.026	-0.023
-296.720	800.000	0.105	-0.320
-295.705	-25.281	-0.389	-0.227
-294.691	-157.152	0.216	0.013
-293.676	-200.000	0.003	0.280
-292.662	719.189	0.026	-0.069
-291.647	59.764	-0.117	0.114
-290.632	-200.000	-0.033	0.180
-289.618	-33.998	0.289	-0.157
-288.603	-200.000	0.008	0.428
-287.589	-200.000	0.018	0.174
-286.574	-6.002	-0.286	0.193
-285.559	-44.800	-0.286	-0.141
-284.545	19.376	-0.316	0.251
-283.530	-200.000	-0.007	-0.101
-282.516	-57.054	-0.183	0.080
-281.501	42.700	0.216	0.194
-280.486	159.403	-0.111	-0.153
-279.472	800.000	0.072	0.223
-278.457	-90.387	0.217	0.062
-277.443	-16.752	0.254	-0.158
-276.428	-8.988	0.159	0.105
-275.413	-21.410	0.263	0.158
-274.399	553.994	-0.089	0.211
-273.384	29.026	-0.131	0.110
-272.370	304.589	0.069	0.126
-271.355	-200.000	-0.001	-0.006
-270.340	-148.283	-0.074	-0.006
-269.326	244.189	-0.049	-0.080
-268.311	225.992	0.179	-0.287
-267.297	-200.000	-0.024	-0.155
-266.282	24.540	0.086	-0.070
-265.267	-51.213	0.088	-0.041
-264.253	-89.876	0.246	0.071
-263.238	303.397	-0.145	-0.265
-262.224	-110.893	0.397	-0.080
-261.209	800.000	0.048	0.183
-260.195	231.733	-0.083	-0.134
-259.180	21.325	-0.175	0.140
-258.165	-149.974	-0.281	-0.022
-257.151	-135.471	0.092	0.011
-256.136	-86.648	0.373	0.113
-255.122	40.511	-0.064	0.057
-254.107	106.403	0.020	0.024
-253.092	-179.713	-0.126	-0.003
-252.078	437.873	0.131	0.281
-251.063	-47.233	0.156	0.075
-250.049	44.291	-0.069	0.063
-249.034	-200.000	0.009	0.252
-248.019	285.260	0.144	0.255
-247.005	282.551	0.187	0.330
-245.990	800.000	-0.033	-0.118
-244.976	313.180	-0.062	-0.114
-243.961	127.025	-0.102	0.127
-242.946	-6.675	0.194	-0.130
-241.932	-65.521	0.344	-0.136
-240.917	-83.963	0.334	-0.105
-239.903	-28.644	-0.160	0.091
-238.888	113.430	0.155	0.185
-237.873	27.154	-0.225	0.186
-236.859	-63.605	0.214	-0.087
-235.844	-17.433	0.084	-0.052
-234.830	-82.084	-0.144	0.046
-233.815	157.930	-0.122	-0.166
-232.800	-98.489	0.124	0.031
-231.786	576.098	-0.112	0.270
-230.771	-200.000	-0.020	0.252
-229.757	189.673	0.219	0.323
-228.742	577.653	0.068	0.163
-227.727	-16.555	-0.150	0.093
-226.713	-200.000	0.009	-0.074
-225.698	800.000	-0.023	0.088
-224.684	-200.000	-0.070	-0.433
-223.669	800.000	0.037	-0.140
-222.655	-200.000	0.283	0.001
-221.640	326.884	-0.118	-0.222
-220.625	74.522	-0.113	0.117
-219.611	-158.339	0.362	0.021
-218.596	416.335	-0.029	0.060
-217.582	316.963	-0.172	-0.319
-216.567	443.708	0.169	0.364
-215.552	45.560	-0.084	-0.077
-214.538	800.000	0.031	0.132
-213.523	-42.554	-0.280	0.141
-212.509	-165.183	0.208	-0.009
-211.494	-53.871	-0.178	-0.080
-210.479	-96.889	-0.292	0.075
-209.465	-200.000	0.057	-0.253
-208.450	76.847	-0.354	0.370
-207.436	-63.194	-0.158	-0.064
-206.421	-110.020	-0.261	-0.054
-205.406	81.373	-0.158	-0.168
-204.392	-200.000	-0.008	0.176
-203.377	120.624	-0.214	0.262
-202.363	-113.054	-0.083	-0.016
-201.348	-200.000	0.016	0.422
-200.333	188.532	0.118	0.173
-199.319	40.594	0.154	0.136
-198.304	-23.775	-0.238	0.140
-197.290	-48.424	0.139	0.066
-196.275	403.262	-0.102	-0.211
-195.260	-66.127	0.093	-0.037
-194.246	242.702	-0.134	0.221
-193.231	-118.255	0.129	0.023
-192.217	-25.591	0.142	-0.082
-191.202	313.394	-0.182	0.337
-190.187	-123.331	0.234	0.037
-189.173	800.000	-0.101	0.394
-188.158	-200.000	-0.042	-0.226
-187.144	-129.420	0.098	0.013
-186.129	-200.000	0.075	-0.595
-185.114	800.000	0.158	-0.475
-184.100	713.513	0.079	0.207
-183.085	-102.276	0.251	0.059
-182.071	-200.000	0.012	-0.323
-181.056	105.433	-0.123	-0.143
-180.042	-158.914	0.242	-0.014
-179.027	192.323	-0.077	-0.114
-178.012	-200.000	0.001	0.031
-176.998	-200.000	0.088	0.398
-175.983	-62.852	-0.138	0.056
-174.969	45.794	-0.356	0.323
-173.954	-12.842	-0.061	0.039
-172.939	-18.483	0.170	-0.104
-171.925	164.293	0.315	0.436
-170.910	-14.353	-0.103	0.065
-169.896	37.343	0.183	-0.159
-168.881	-10.098	-0.148	-0.096
-167.866	-90.996	0.105	0.030
-166.852	-63.526	0.199	-0.080
-165.837	-59.610	-0.160	-0.067
-164.823	-137.774	0.200	0.022
-163.808	-200.000	-0.024	0.284
-162.793	-50.102	-0.169	0.078
-161.779	251.506	0.013	-0.021
-160.764	48.404	-0.071	0.066
-159.750	273.311	0.261	0.453
-158.735	-200.000	0.015	0.195
-157.720	-200.000	0.019	-0.211
-156.706	-33.848	-0.166	-0.090
-155.691	-3.564	-0.118	-0.081
-154.677	-33.288	-0.269	0.146
-153.662	-200.000	0.026	0.141
-152.647	-200.000	0.018	-0.127
-151.633	387.157	-0.167	0.339
-150.618	-101.941	-0.378	0.090
-149.604	-200.000	0.022	0.134
-148.589	-89.137	-0.288	0.084
-147.574	-3.249	0.183	-0.125
-146.560	-52.300	-0.092	-0.042
-145.545	-200.000	0.002	-0.085
-144.531	-34.461	-0.062	-0.033
-143.516	-200.000	-0.053	0.238
-142.502	169.469	0.058	-0.081
-141.487	123.251	0.080	0.099
-140.472	559.481	-0.133	0.314
-139.458	-63.669	0.204	-0.082
-138.443	-200.000	-0.040	0.201
-137.429	800.000	0.126	0.366
-136.414	-200.000	-0.013	0.166
-135.399	484.239	0.082	-0.184
-134.385	-200.000	0.028	0.147
-133.370	-200.000	-0.109	0.000
-132.356	-121.436	0.298	0.049
-131.341	-56.962	0.322	-0.139
-130.326	-59.083	-0.275	-0.117
-129.312	146.850	-0.052	0.069
-128.297	-111.334	0.128	-0.026
-127.283	-200.000	-0.010	0.236
-126.268	-63.938	-0.196	0.078
-125.253	21.570	0.272	-0.217
-124.239	179.999	-0.045	-0.064
-123.224	800.000	0.011	-0.044
-122.210	-200.000	-0.040	0.202
