DTS Sentinel unit serial number:	SN413079Multiplexer serial number:	ORYXHardware model number:	OX4-SRSoftware version number:	ORYX F/W v4.00 Oryx Data Collector v3.7.2.0data status	okinstallation	princeton_trtdifferential loss correction	single-endedforward channel	channel 1reverse channel	N/Adate	2019/09/17time	19:50:35forward acquisition time	60.00reverse acquisition time	0.00gamma	496.2192k internal	0.2319k external	0.2319temperature offset calibration	0.9974default loss term (dB/km)	0.3790temperature slope calibration	1.0000multiplexer offset coefficient	1.0000multiplexer slope coefficient	1.0000fibre end	0.00T internal ref (°C)	34.30T ext. ref 1 (°C)	0.24T ext. ref 2 (°C)	23.62length (m)	temperature (°C)	Stokes	anti-Stokes-747.200	198.709	-0.087	-0.134
-746.185	-200.000	0.004	0.201
-745.171	-200.000	-0.038	-0.219
-744.156	44.346	-0.132	0.122
-743.142	13.247	-0.103	0.081
-742.127	135.405	0.030	-0.040
-741.112	-133.287	0.234	-0.030
-740.098	116.359	0.119	0.148
-739.083	-87.884	0.204	-0.062
-738.069	61.866	-0.172	0.173
-737.054	4.677	0.148	-0.110
-736.039	166.917	-0.035	0.051
-735.025	-98.678	0.233	-0.060
-734.010	-79.610	-0.469	-0.160
-732.996	-40.543	-0.193	0.102
-731.981	2.370	-0.284	-0.208
-730.966	228.300	-0.158	-0.260
-729.952	-200.000	0.010	0.062
-728.937	423.589	-0.182	-0.395
-727.923	-17.359	-0.158	0.101
-726.908	280.201	0.080	-0.144
-725.894	343.376	0.101	-0.199
-724.879	-200.000	0.031	0.258
-723.864	187.635	-0.050	0.075
-722.850	-200.000	0.007	0.165
-721.835	-55.187	-0.278	-0.126
-720.821	168.712	0.015	0.021
-719.806	34.668	-0.182	0.161
-718.791	124.015	-0.119	-0.151
-717.777	-200.000	-0.079	-0.356
-716.762	-66.374	0.152	-0.061
-715.748	800.000	0.049	-0.205
-714.733	-200.000	-0.032	-0.323
-713.718	689.625	-0.037	-0.098
-712.704	-134.309	-0.299	0.037
-711.689	-98.367	0.223	-0.058
-710.675	-86.710	-0.159	0.049
-709.660	270.017	0.075	-0.134
-708.645	800.000	0.102	0.414
-707.631	235.826	-0.057	-0.095
-706.616	-99.083	0.210	-0.054
-705.602	-148.195	0.086	0.007
-704.587	-75.588	0.211	-0.076
-703.572	-200.000	-0.024	0.117
-702.558	6.447	-0.109	0.082
-701.543	219.916	-0.056	0.090
-700.529	800.000	-0.045	-0.186
-699.514	208.500	-0.085	-0.134
-698.499	-125.373	0.352	0.054
-697.485	180.269	-0.100	-0.148
-696.470	-50.131	-0.163	-0.078
-695.456	-200.000	-0.049	-0.442
-694.441	-111.845	-0.147	-0.030
-693.426	19.522	-0.043	-0.035
-692.412	674.156	-0.070	-0.183
-691.397	-200.000	0.001	-0.229
-690.383	-41.577	-0.263	-0.136
-689.368	800.000	0.132	-0.407
-688.354	-200.000	-0.034	-0.224
-687.339	800.000	0.092	-0.336
-686.324	3.045	0.062	-0.046
-685.310	27.710	-0.177	0.151
-684.295	501.298	-0.174	-0.405
-683.281	-66.967	0.051	0.020
-682.266	-77.044	-0.385	0.136
-681.251	58.046	-0.091	0.090
-680.237	800.000	0.042	0.148
-679.222	-105.820	0.075	0.017
-678.208	-179.866	-0.231	0.005
-677.193	-115.144	-0.070	-0.013
-676.178	-53.396	-0.225	0.104
-675.164	-44.336	0.177	0.089
-674.149	88.863	-0.248	-0.279
-673.135	-65.382	-0.029	-0.012
-672.120	-53.381	0.148	0.068
-671.105	-186.103	-0.257	0.004
-670.091	-200.000	0.071	-0.338
-669.076	129.980	-0.206	-0.266
-668.062	-83.794	0.402	0.129
-667.047	800.000	-0.039	-0.142
-666.032	44.785	-0.251	0.233
-665.018	-23.255	0.104	-0.063
-664.003	-43.325	0.206	0.105
-662.989	34.805	-0.182	-0.160
-661.974	30.161	0.252	-0.217
-660.959	62.679	-0.030	-0.031
-659.945	24.070	-0.265	0.221
-658.930	98.873	0.205	-0.238
-657.916	-200.000	-0.042	-0.218
-656.901	-42.614	-0.118	-0.060
-655.886	51.977	0.119	-0.115
-654.872	800.000	-0.065	-0.210
-653.857	-123.278	0.077	-0.012
-652.843	49.500	0.235	-0.223
-651.828	-92.781	0.168	-0.047
-650.814	-77.690	0.085	0.030
-649.799	375.599	-0.143	-0.293
-648.784	472.486	0.058	-0.132
-647.770	53.137	-0.293	0.283
-646.755	-90.891	0.060	-0.017
-645.741	233.171	-0.083	-0.138
-644.726	800.000	-0.065	-0.196
-643.711	800.000	0.009	0.035
-642.697	-200.000	-0.000	-0.062
-641.682	-131.314	-0.389	0.052
-640.668	-112.801	0.238	0.048
-639.653	-25.537	0.146	-0.087
-638.638	54.542	0.034	0.033
-637.624	-200.000	-0.011	0.151
-636.609	144.647	0.142	-0.191
-635.595	-200.000	-0.006	-0.092
-634.580	603.437	-0.106	0.266
-633.565	-200.000	-0.003	-0.249
-632.551	-200.000	0.037	-0.306
-631.536	323.816	0.017	0.034
-630.522	-84.017	-0.287	-0.092
-629.507	-18.694	0.061	-0.038
-628.492	-152.507	-0.270	-0.020
-627.478	17.242	0.052	-0.042
-626.463	177.574	0.129	0.189
-625.449	-200.000	0.031	-0.187
-624.434	122.867	-0.169	0.213
-623.419	123.624	-0.069	-0.087
-622.405	19.726	0.228	0.185
-621.390	800.000	-0.036	0.109
-620.376	-38.261	0.062	0.033
-619.361	352.182	0.129	-0.257
-618.346	800.000	0.026	0.110
-617.332	73.493	0.130	0.137
-616.317	29.662	-0.254	-0.218
-615.303	-158.064	0.142	0.008
-614.288	-200.000	-0.026	0.156
-613.273	7.091	-0.093	0.070
-612.259	800.000	-0.138	0.409
-611.244	800.000	0.041	-0.135
-610.230	68.957	-0.078	0.081
-609.215	-95.057	-0.257	0.070
-608.201	-58.125	0.365	0.160
-607.186	-200.000	0.010	0.263
-606.171	-57.707	0.237	-0.104
-605.157	-13.873	-0.262	0.170
-604.142	10.936	0.074	-0.057
-603.128	-90.022	0.115	0.034
-602.113	800.000	0.066	0.224
-601.098	-200.000	-0.027	0.338
-600.084	-113.001	-0.180	0.036
-599.069	-72.465	-0.205	0.076
-598.055	800.000	-0.049	0.185
-597.040	93.914	0.085	0.097
-596.025	-200.000	-0.007	0.082
-595.011	-200.000	-0.047	-0.230
-593.996	28.552	0.352	0.300
-592.982	241.322	-0.049	0.082
-591.967	674.519	-0.082	0.214
-590.952	-126.306	-0.090	-0.014
-589.938	800.000	-0.036	-0.112
-588.923	800.000	-0.071	-0.197
-587.909	-37.877	-0.231	0.123
-586.894	-94.922	-0.090	-0.025
-585.879	-200.000	-0.061	-0.395
-584.865	-71.945	-0.110	0.041
-583.850	45.127	-0.092	-0.085
-582.836	-200.000	-0.020	0.160
-581.821	708.429	-0.039	-0.103
-580.806	472.593	-0.037	-0.083
-579.792	647.209	0.132	-0.340
-578.777	40.375	0.150	-0.135
-577.763	82.369	0.066	-0.072
-576.748	673.691	0.016	0.042
-575.733	-76.536	-0.164	0.058
-574.719	-26.458	-0.171	0.101
-573.704	-130.315	-0.460	0.063
-572.690	-56.964	-0.108	-0.048
-571.675	131.498	-0.114	-0.147
-570.661	-155.377	-0.117	-0.008
-569.646	78.999	-0.060	0.065
-568.631	-200.000	0.069	0.332
-567.617	-200.000	0.026	-0.260
-566.602	-27.510	-0.183	-0.107
-565.588	28.298	-0.147	-0.124
-564.573	73.574	-0.128	-0.134
-563.558	-200.000	0.021	-0.119
-562.544	800.000	0.027	-0.114
-561.529	-89.820	-0.242	-0.071
-560.515	186.055	-0.276	0.412
-559.500	-66.690	0.230	0.091
-558.485	30.258	-0.222	0.190
-557.471	424.180	-0.116	0.251
-556.456	-92.372	-0.377	0.106
-555.442	253.156	0.130	-0.223
-554.427	-84.946	-0.200	0.063
-553.412	-45.100	-0.193	0.096
-552.398	-102.521	-0.259	-0.062
-551.383	156.257	0.127	0.175
-550.369	-137.682	0.181	0.020
-549.354	-91.235	0.377	0.108
-548.339	-101.651	0.455	0.111
-547.325	-200.000	-0.026	-0.150
-546.310	-116.932	-0.191	0.035
-545.296	328.728	0.088	-0.169
-544.281	133.108	0.111	-0.144
-543.266	11.403	-0.172	0.133
-542.252	-200.000	0.012	-0.181
-541.237	-69.889	-0.205	-0.078
-540.223	252.590	0.165	-0.282
-539.208	30.899	-0.385	-0.331
-538.193	800.000	-0.082	-0.308
-537.179	800.000	0.026	-0.088
-536.164	202.862	0.012	0.019
-535.150	-200.000	0.010	-0.160
-534.135	-89.370	0.207	-0.061
-533.121	94.555	0.041	-0.047
-532.106	69.590	-0.274	-0.283
-531.091	-200.000	-0.039	-0.192
-530.077	-14.833	0.151	-0.097
-529.062	-18.011	0.203	-0.128
-528.048	-88.699	-0.365	-0.109
-527.033	-104.217	-0.240	-0.056
-526.018	-200.000	-0.005	0.049
-525.004	-20.091	-0.302	-0.186
-523.989	530.113	-0.082	0.194
-522.975	-65.980	0.021	0.008
-521.960	-57.735	0.235	-0.103
-520.945	18.432	0.348	-0.279
-519.931	55.488	0.102	-0.099
-518.916	140.541	0.060	0.080
-517.902	-95.029	-0.371	0.101
-516.887	29.741	0.374	0.320
-515.872	495.320	0.084	-0.192
-514.858	-200.000	0.003	0.022
-513.843	-200.000	0.020	0.141
-512.829	800.000	-0.068	0.195
-511.814	-145.812	0.230	-0.021
-510.799	-200.000	-0.011	-0.148
-509.785	312.529	-0.129	-0.242
-508.770	601.555	0.019	-0.047
-507.756	800.000	0.159	-0.503
-506.741	-65.865	0.091	-0.036
-505.726	-36.600	0.218	-0.117
-504.712	-51.757	0.480	0.224
-503.697	-200.000	-0.026	0.230
-502.683	137.076	-0.149	-0.196
-501.668	-30.295	0.261	-0.148
-500.653	-200.000	-0.005	-0.212
-499.639	-66.279	0.174	-0.070
-498.624	-100.505	-0.176	-0.044
-497.610	-129.307	0.092	0.013
-496.595	36.187	-0.054	-0.047
-495.581	189.368	0.159	0.239
-494.566	-111.720	0.276	0.056
-493.551	78.787	-0.064	0.069
-492.537	800.000	-0.019	-0.060
-491.522	-95.604	-0.197	0.053
-490.508	-35.121	-0.090	0.049
-489.493	-200.000	0.000	0.140
-488.478	-160.829	0.363	-0.019
-487.464	800.000	-0.016	0.064
-486.449	-200.000	0.007	0.137
-485.435	-200.000	0.007	0.074
-484.420	-99.385	-0.249	-0.063
-483.405	-41.932	0.079	0.040
-482.391	240.188	0.161	-0.268
-481.376	-12.635	-0.157	-0.103
-480.362	142.838	-0.285	0.379
-479.347	800.000	-0.083	-0.246
-478.332	39.192	-0.040	-0.036
-477.318	-106.401	-0.284	-0.064
-476.303	509.917	-0.056	0.131
-475.289	-200.000	-0.027	0.214
-474.274	-42.270	-0.185	-0.094
-473.259	-189.296	0.209	0.002
-472.245	208.001	-0.143	0.224
-471.230	22.720	-0.066	0.054
-470.216	-81.377	-0.169	0.056
-469.201	39.370	-0.300	-0.268
-468.186	-4.944	-0.202	-0.139
-467.172	800.000	-0.043	-0.146
-466.157	554.017	0.084	0.203
-465.143	155.498	-0.116	0.160
-464.128	800.000	-0.089	0.357
-463.113	-200.000	-0.008	-0.051
-462.099	-37.431	0.195	-0.104
-461.084	646.690	0.052	0.133
-460.070	-200.000	-0.009	-0.144
-459.055	-120.265	0.346	0.059
-458.040	-200.000	-0.014	0.280
-457.026	800.000	0.081	0.240
-456.011	26.088	0.054	0.045
-454.997	-98.524	0.027	-0.007
-453.982	9.086	-0.131	0.099
-452.968	-135.001	-0.089	0.011
-451.953	-116.376	-0.124	0.023
-450.938	800.000	0.049	-0.182
-449.924	800.000	0.060	-0.221
-448.909	-177.336	-0.303	-0.007
-447.895	-64.027	0.154	-0.063
-446.880	3.153	0.255	0.186
-445.865	28.883	-0.067	-0.056
-444.851	-200.000	0.000	0.069
-443.836	140.423	-0.268	-0.354
-442.822	68.396	-0.295	0.303
-441.807	800.000	0.030	-0.107
-440.792	800.000	0.058	0.174
-439.778	-13.938	-0.066	0.043
-438.763	-200.000	-0.041	0.218
-437.749	65.608	0.075	-0.076
-436.734	-153.043	0.248	0.017
-435.719	465.774	0.066	0.147
-434.705	800.000	-0.076	-0.233
-433.690	-200.000	-0.021	0.225
-432.676	-83.464	-0.130	0.042
-431.661	42.041	-0.040	0.036
-430.646	-95.811	0.184	0.049
-429.632	-167.435	-0.154	-0.006
-428.617	-200.000	-0.037	0.480
-427.603	420.252	0.094	-0.201
-426.588	-142.927	-0.129	-0.013
-425.573	-129.110	-0.165	-0.023
-424.559	297.540	-0.126	0.230
-423.544	1.084	0.178	0.128
-422.530	69.944	0.152	0.156
-421.515	-165.575	0.272	-0.012
-420.500	618.409	-0.049	-0.122
-419.486	465.857	-0.131	-0.292
-418.471	-17.770	0.102	0.064
-417.457	381.211	-0.169	0.347
-416.442	800.000	0.080	-0.277
-415.428	800.000	-0.025	-0.078
-414.413	-63.004	-0.303	-0.125
-413.398	-200.000	-0.004	0.166
-412.384	-200.000	-0.021	-0.417
-411.369	-45.236	-0.140	0.069
-410.355	-200.000	0.062	-0.336
-409.340	317.914	0.101	-0.191
-408.325	-165.668	0.269	-0.012
-407.311	68.778	0.115	0.118
-406.296	42.346	0.216	0.196
-405.282	90.410	0.215	0.240
-404.267	145.941	-0.025	-0.033
-403.252	197.577	0.124	0.188
-402.238	674.365	0.048	0.124
-401.223	-16.679	0.152	0.096
-400.209	-200.000	-0.076	0.417
-399.194	-169.573	-0.101	0.004
-398.179	28.140	0.396	0.333
-397.165	192.579	-0.098	0.147
-396.150	-89.281	-0.320	-0.094
-395.136	-200.000	0.023	0.146
-394.121	-170.833	0.337	0.012
-393.106	85.753	-0.267	-0.293
-392.092	-65.732	-0.276	0.110
-391.077	28.975	0.243	0.205
-390.063	270.119	-0.022	0.039
-389.048	-200.000	0.033	-0.206
-388.033	-93.252	0.285	-0.079
-387.019	598.579	0.040	0.099
-386.004	-41.711	-0.257	-0.132
-384.990	359.006	-0.120	-0.239
-383.975	743.335	0.027	0.073
-382.960	122.698	0.276	0.344
-381.946	-29.484	0.151	0.086
-380.931	-200.000	0.007	-0.299
-379.917	800.000	-0.021	0.083
-378.902	447.119	0.065	0.143
-377.888	173.421	0.129	-0.186
-376.873	-106.548	0.369	-0.082
-375.858	800.000	0.037	-0.107
-374.844	-19.365	-0.210	-0.130
-373.829	-120.375	0.176	-0.030
-372.815	8.248	-0.276	0.207
-371.800	170.828	0.104	-0.148
-370.785	-200.000	0.006	-0.202
-369.771	-74.772	-0.237	0.085
-368.756	-37.265	0.148	-0.079
-367.742	-116.259	-0.362	0.067
-366.727	-200.000	0.013	0.187
-365.712	-167.971	-0.675	-0.026
-364.698	302.530	0.133	0.245
-363.683	397.211	-0.063	-0.131
-362.669	800.000	-0.065	-0.267
-361.654	5.560	0.414	0.304
-360.639	98.985	-0.066	-0.076
-359.625	737.238	0.080	0.215
-358.610	58.341	-0.145	0.142
-357.596	3.259	0.212	-0.154
-356.581	294.882	-0.191	-0.348
-355.566	-128.398	0.197	0.028
-354.552	50.481	0.051	-0.048
-353.537	-184.249	-0.286	0.005
-352.523	-5.927	0.095	-0.065
-351.508	167.544	0.015	-0.022
-350.493	8.984	0.250	0.188
-349.479	-200.000	0.000	-0.143
-348.464	-60.666	-0.393	-0.166
-347.450	-59.772	0.040	0.017
-346.435	800.000	0.076	-0.226
-345.420	-15.097	0.148	0.094
-344.406	325.772	-0.044	-0.084
-343.391	-200.000	0.014	0.095
-342.377	102.745	0.205	0.239
-341.362	120.383	0.150	0.186
-340.348	60.823	0.152	-0.150
-339.333	-65.675	-0.136	0.054
-338.318	-38.355	0.260	0.137
-337.304	-50.785	0.189	-0.089
-336.289	-12.477	-0.133	-0.086
-335.275	63.193	-0.143	-0.143
-334.260	-163.347	0.355	0.017
-333.245	381.176	0.144	0.293
-332.231	78.126	0.249	0.265
-331.216	-22.084	0.061	0.037
-330.202	-10.930	-0.208	-0.137
-329.187	-122.099	0.267	0.044
-328.172	94.483	-0.124	0.140
-327.158	36.878	0.046	-0.040
-326.143	-23.381	-0.064	-0.038
-325.129	800.000	-0.064	-0.225
-324.114	86.670	0.149	0.164
-323.099	-9.674	0.152	0.101
-322.085	405.119	0.112	0.236
-321.070	366.244	0.065	0.131
-320.056	-200.000	-0.038	0.259
-319.041	241.330	0.081	0.135
-318.026	180.048	0.118	-0.172
-317.012	181.381	-0.081	-0.118
-315.997	-200.000	0.010	0.250
-314.983	601.043	0.026	-0.064
-313.968	253.201	0.081	-0.137
-312.953	-200.000	-0.025	0.191
-311.939	370.335	0.029	0.059
-310.924	-195.454	-0.498	0.004
-309.910	-62.364	0.131	0.054
-308.895	52.847	0.127	0.121
-307.880	-88.559	-0.049	-0.014
-306.866	-36.948	0.159	0.085
-305.851	-150.698	0.066	-0.005
-304.837	498.954	-0.030	-0.068
-303.822	228.658	0.154	-0.250
-302.807	126.545	-0.202	0.254
-301.793	-148.870	0.126	-0.010
-300.778	-114.412	-0.161	0.031
-299.764	-88.654	-0.481	-0.142
-298.749	401.926	0.132	-0.275
-297.735	-200.000	0.025	0.490
-296.720	-200.000	0.026	0.347
-295.705	246.798	-0.182	-0.305
-294.691	15.115	-0.117	0.091
-293.676	-200.000	0.055	-0.251
-292.662	800.000	-0.136	-0.375
-291.647	27.981	0.083	0.070
-290.632	-145.436	-0.569	0.051
-289.618	-28.375	-0.248	0.142
-288.603	4.606	-0.090	0.065
-287.589	800.000	0.032	0.090
-286.574	121.713	0.248	-0.307
-285.559	241.573	0.227	-0.376
-284.545	-149.774	0.230	0.018
-283.530	-200.000	-0.048	0.306
-282.516	-19.933	0.401	0.246
-281.501	305.969	-0.082	0.151
-280.486	-62.409	-0.085	-0.035
-279.472	141.065	-0.300	-0.394
-278.457	7.611	0.226	-0.168
-277.443	-200.000	0.036	0.181
-276.428	185.714	0.086	0.127
-275.413	100.932	0.063	0.072
-274.399	79.425	0.335	-0.356
-273.384	-123.441	0.221	0.035
-272.370	-118.987	0.265	0.046
-271.355	-60.179	-0.128	0.054
-270.340	76.135	-0.110	-0.115
-269.326	-122.197	-0.170	0.028
-268.311	-200.000	0.023	0.257
-267.297	-163.751	0.279	0.013
-266.282	-200.000	0.067	0.306
-265.267	98.074	-0.053	0.060
-264.253	-200.000	-0.012	-0.095
-263.238	73.365	0.249	0.259
-262.224	206.065	0.088	-0.136
-261.209	135.488	-0.108	0.139
-260.195	-38.804	0.220	-0.115
-259.180	800.000	-0.079	0.252
-258.165	85.169	0.262	-0.286
-257.151	800.000	-0.080	-0.238
-256.136	9.626	0.148	-0.111
-255.122	-200.000	-0.016	-0.094
-254.107	691.513	-0.127	0.329
-253.092	53.015	-0.078	-0.074
-252.078	800.000	-0.032	-0.127
-251.063	145.447	0.151	-0.200
-250.049	-76.488	0.173	-0.060
-249.034	-158.081	0.174	-0.010
-248.019	527.400	-0.057	0.134
-247.005	-200.000	0.017	0.140
-245.990	800.000	0.088	-0.261
-244.976	-200.000	0.010	0.279
-243.961	-200.000	-0.001	-0.055
-242.946	29.668	-0.065	0.055
-241.932	496.038	-0.107	-0.244
-240.917	-46.134	-0.139	0.068
-239.903	800.000	-0.022	-0.068
-238.888	-200.000	-0.009	-0.161
-237.873	-200.000	0.028	-0.239
-236.859	800.000	-0.069	0.290
-235.844	-151.024	0.250	0.019
-234.830	-200.000	-0.002	-0.027
-233.815	288.636	0.174	0.312
-232.800	269.829	0.054	0.094
-231.786	688.890	0.079	-0.205
-230.771	800.000	-0.057	-0.166
-229.757	-109.281	0.082	-0.017
-228.742	800.000	-0.012	-0.037
-227.727	-167.196	-0.094	-0.004
-226.713	28.817	-0.090	0.076
-225.698	370.458	-0.213	-0.428
-224.684	25.409	-0.206	0.170
-223.669	-55.126	0.122	-0.054
-222.655	-7.846	0.176	-0.118
-221.640	-115.557	-0.327	0.061
-220.625	-200.000	-0.052	-0.275
-219.611	-200.000	-0.010	-0.342
-218.596	-11.938	-0.185	-0.120
-217.582	163.014	-0.204	0.284
-216.567	-72.750	0.161	-0.059
-215.552	20.122	-0.159	0.127
-214.538	-200.000	-0.005	-0.195
-213.523	800.000	-0.097	0.290
-212.509	168.863	0.075	0.105
-211.494	0.144	0.191	0.135
-210.479	-67.719	-0.253	-0.098
-209.465	338.598	-0.096	-0.185
-208.450	-149.016	0.407	-0.032
-207.436	-114.119	0.196	0.038
-206.421	-68.805	0.109	-0.042
-205.406	22.395	0.117	-0.095
-204.392	327.684	-0.154	-0.292
-203.377	-200.000	-0.055	0.370
-202.363	47.991	-0.132	0.122
-201.348	217.085	-0.071	-0.112
-200.333	800.000	0.061	0.221
-199.319	214.587	0.088	0.137
-198.304	-23.269	0.202	0.120
-197.290	800.000	-0.030	-0.122
-196.275	-42.375	0.121	-0.061
-195.260	800.000	0.137	0.444
-194.246	626.855	0.019	0.048
-193.231	-200.000	0.017	-0.209
-192.217	-141.698	-0.260	-0.026
-191.202	-151.578	0.115	0.008
-190.187	-83.216	-0.181	-0.058
-189.173	800.000	-0.060	-0.180
-188.158	-91.605	-0.200	-0.056
-187.144	-200.000	-0.030	-0.133
-186.129	-200.000	-0.038	0.190
-185.114	-200.000	0.060	-0.293
-184.100	195.138	-0.239	-0.359
-183.085	54.756	0.141	0.134
-182.071	-81.634	0.284	-0.092
-181.056	-58.036	-0.326	0.141
-180.042	-131.839	0.155	-0.020
-179.027	300.314	0.188	-0.343
-178.012	-3.182	0.213	-0.147
-176.998	-200.000	-0.278	-0.000
-175.983	745.026	-0.135	0.359
-174.969	-200.000	-0.062	-0.304
-173.954	313.894	0.085	-0.158
-172.939	-61.329	0.199	0.083
-171.925	276.168	0.084	0.148
-170.910	-98.904	-0.055	0.014
-169.896	-115.276	0.229	-0.043
-168.881	-4.791	0.280	-0.191
-167.866	-200.000	-0.029	0.328
-166.852	-104.219	-0.042	-0.010
-165.837	104.057	0.086	-0.100
-164.823	-179.857	-0.501	0.011
-163.808	-124.555	-0.392	0.060
-162.793	56.378	0.252	0.242
-161.779	-67.679	0.182	-0.070
-160.764	-88.437	0.141	0.042
-159.750	385.284	0.095	-0.193
-158.735	-143.622	0.171	-0.016
-157.720	-55.142	-0.078	-0.035
-156.706	15.375	0.130	-0.101
-155.691	214.396	0.160	-0.251
-154.677	800.000	-0.076	0.248
-153.662	-200.000	-0.001	-0.066
-152.647	-81.033	-0.063	0.021
-151.633	-119.684	-0.181	0.031
-150.618	-83.182	0.275	-0.087
-149.604	525.807	-0.088	-0.206
-148.589	-136.751	0.225	0.026
-147.574	-104.578	-0.272	0.062
-146.560	-11.875	0.275	-0.178
-145.545	-187.746	0.177	-0.002
-144.531	111.075	0.122	-0.145
-143.516	46.613	-0.192	0.177
-142.502	494.325	-0.058	-0.131
-141.487	-174.101	-0.120	-0.003
-140.472	248.379	0.086	0.143
-139.458	800.000	0.060	0.228
-138.443	-108.749	-0.331	-0.070
-137.429	-200.000	-0.027	-0.461
-136.414	113.051	0.129	0.154
-135.399	-200.000	0.025	0.247
-134.385	-142.368	-0.201	0.020
-133.370	0.051	-0.205	-0.144
-132.356	772.208	-0.118	-0.319
-131.341	108.347	-0.252	0.297
-130.326	21.549	0.279	0.225
-129.312	-200.000	-0.050	0.280
-128.297	250.827	-0.117	0.196
-127.283	386.586	0.094	0.192
-126.268	-92.849	-0.364	-0.100
-125.253	108.571	0.201	0.237
-124.239	-54.611	-0.124	-0.055
-123.224	448.063	-0.124	-0.269
-122.210	-200.000	0.008	-0.322
-121.195	800.000	-0.068	-0.230
