DTS Sentinel unit serial number:	SN413079Multiplexer serial number:	ORYXHardware model number:	OX4-SRSoftware version number:	ORYX F/W v4.00 Oryx Data Collector v3.7.2.0data status	okinstallation	princeton_trtdifferential loss correction	single-endedforward channel	channel 1reverse channel	N/Adate	2019/09/15time	21:46:35forward acquisition time	60.00reverse acquisition time	0.00gamma	496.2192k internal	0.2330k external	0.2330temperature offset calibration	0.9962default loss term (dB/km)	0.3790temperature slope calibration	1.0000multiplexer offset coefficient	1.0000multiplexer slope coefficient	1.0000fibre end	0.00T internal ref (°C)	30.25T ext. ref 1 (°C)	8.43T ext. ref 2 (°C)	23.42length (m)	temperature (°C)	Stokes	anti-Stokes-747.200	14.046	0.236	-0.185
-746.185	13.415	-0.154	0.120
-745.171	-96.364	0.255	-0.068
-744.156	800.000	-0.089	0.308
-743.142	-200.000	-0.016	-0.342
-742.127	123.550	0.211	0.266
-741.112	800.000	-0.052	-0.209
-740.098	800.000	-0.185	0.570
-739.083	-200.000	-0.016	-0.075
-738.069	-17.441	-0.216	0.137
-737.054	800.000	0.096	-0.329
-736.039	800.000	0.065	0.237
-735.025	284.972	0.016	0.029
-734.010	108.428	-0.159	-0.191
-732.996	-83.980	0.080	0.026
-731.981	102.924	-0.100	0.118
-730.966	42.529	-0.157	0.144
-729.952	-200.000	-0.013	-0.079
-728.937	800.000	-0.061	-0.203
-727.923	230.262	0.131	0.216
-726.908	357.408	0.115	-0.231
-725.894	-61.432	-0.201	-0.085
-724.879	800.000	-0.009	-0.033
-723.864	177.904	0.105	-0.154
-722.850	342.266	-0.193	-0.381
-721.835	34.093	-0.279	-0.245
-720.821	-179.405	-0.519	-0.011
-719.806	95.331	-0.186	-0.213
-718.791	800.000	0.056	0.161
-717.777	-154.515	-0.311	0.021
-716.762	9.166	0.296	-0.225
-715.748	140.876	-0.097	-0.128
-714.733	-12.340	0.237	0.156
-713.718	0.628	-0.201	0.145
-712.704	-116.834	0.218	0.040
-711.689	800.000	0.060	-0.174
-710.675	800.000	-0.039	-0.135
-709.660	-92.493	0.104	0.029
-708.645	118.402	-0.269	-0.334
-707.631	88.235	-0.129	0.144
-706.616	20.139	-0.234	-0.190
-705.602	125.795	0.198	-0.252
-704.587	89.605	0.206	-0.231
-703.572	-131.009	-0.150	0.020
-702.558	360.536	0.187	-0.377
-701.543	-200.000	0.085	-0.394
-700.529	-102.515	-0.125	0.030
-699.514	171.452	0.063	0.090
-698.499	-103.276	0.152	0.036
-697.485	-200.000	0.013	0.200
-696.470	2.706	0.006	-0.004
-695.456	91.060	0.209	0.236
-694.441	-200.000	-0.199	0.001
-693.426	-74.702	0.087	0.032
-692.412	-51.681	-0.283	-0.132
-691.397	-125.560	0.146	0.022
-690.383	800.000	0.109	-0.376
-689.368	57.057	0.061	-0.060
-688.354	1.185	0.217	-0.157
-687.339	149.291	-0.016	-0.022
-686.324	-132.109	-0.292	0.038
-685.310	106.052	-0.234	-0.279
-684.295	456.533	-0.065	0.144
-683.281	800.000	-0.110	-0.338
-682.266	11.491	0.212	0.163
-681.251	-200.000	-0.050	-0.348
-680.237	-173.156	-0.262	-0.008
-679.222	63.192	-0.144	-0.145
-678.208	-47.926	0.236	0.115
-677.193	329.919	0.090	-0.174
-676.178	230.524	-0.123	0.202
-675.164	-200.000	-0.057	0.290
-674.149	-3.550	0.500	-0.349
-673.135	800.000	0.090	-0.387
-672.120	17.080	0.258	-0.205
-671.105	-57.917	0.057	0.025
-670.091	-31.620	0.131	-0.074
-669.076	800.000	0.090	-0.273
-668.062	8.833	-0.222	0.168
-667.047	40.118	0.274	-0.248
-666.032	90.121	-0.097	-0.109
-665.018	-49.166	-0.203	0.097
-664.003	800.000	-0.069	-0.246
-662.989	800.000	0.019	-0.069
-661.974	-5.100	0.148	0.102
-660.959	70.009	0.243	-0.252
-659.945	-71.942	0.038	0.014
-658.930	-200.000	0.066	-0.313
-657.916	185.431	0.194	-0.289
-656.901	47.139	-0.152	-0.142
-655.886	-160.273	0.141	-0.008
-654.872	-40.555	0.392	-0.204
-653.857	545.181	0.107	-0.257
-652.843	-120.689	0.271	-0.046
-651.828	-116.062	-0.225	0.042
-650.814	199.853	-0.119	0.183
-649.799	16.892	0.420	0.334
-648.784	401.668	-0.055	-0.116
-647.770	800.000	-0.074	-0.236
-646.755	-157.466	0.269	-0.016
-645.741	-62.273	-0.349	0.146
-644.726	-64.328	-0.432	-0.176
-643.711	800.000	-0.027	0.079
-642.697	-67.507	-0.299	-0.118
-641.682	-69.624	-0.200	0.077
-640.668	-102.318	-0.041	-0.010
-639.653	-127.114	-0.408	-0.060
-638.638	167.658	0.130	0.185
-637.624	30.678	0.341	-0.293
-636.609	-200.000	0.022	-0.180
-635.595	192.428	-0.150	0.227
-634.580	800.000	0.063	0.176
-633.565	-120.038	0.165	-0.028
-632.551	-77.732	-0.135	-0.047
-631.536	52.893	-0.185	-0.178
-630.522	95.481	-0.117	0.134
-629.507	-200.000	0.003	0.013
-628.492	86.148	0.155	-0.171
-627.478	-200.000	0.018	0.084
-626.463	-108.040	-0.069	-0.015
-625.449	-200.000	-0.066	0.558
-624.434	-55.438	-0.216	-0.097
-623.419	-200.000	0.009	-0.189
-622.405	-200.000	-0.048	-0.244
-621.390	-98.410	0.175	-0.045
-620.376	-142.917	0.134	0.013
-619.361	-185.419	0.236	-0.004
-618.346	-55.297	-0.084	-0.038
-617.332	800.000	0.007	0.027
-616.317	-200.000	0.005	0.042
-615.303	657.917	-0.069	-0.178
-614.288	-128.893	-0.362	-0.051
-613.273	-200.000	-0.080	0.420
-612.259	57.269	-0.177	-0.174
-611.244	225.896	-0.263	-0.426
-610.230	226.884	-0.187	0.305
-609.215	10.557	0.064	0.049
-608.201	-200.000	-0.020	0.205
-607.186	-63.391	-0.501	0.206
-606.171	-19.503	0.026	0.016
-605.157	-200.000	-0.070	0.397
-604.142	12.030	0.142	0.110
-603.128	57.672	-0.166	-0.163
-602.113	217.151	-0.081	-0.130
-601.098	154.223	0.127	-0.175
-600.084	-45.050	-0.204	0.102
-599.069	-195.613	0.252	-0.002
-598.055	-57.077	0.108	0.048
-597.040	32.408	0.144	-0.124
-596.025	199.757	-0.047	0.072
-595.011	249.006	0.036	-0.062
-593.996	636.868	-0.094	0.240
-592.982	3.907	-0.296	0.216
-591.967	52.313	-0.150	0.144
-590.952	800.000	0.115	-0.318
-589.938	-49.731	0.284	0.135
-588.923	495.253	0.056	0.129
-587.909	-40.701	0.249	-0.129
-586.894	-113.559	0.190	0.037
-585.879	65.706	-0.079	-0.080
-584.865	-132.642	-0.048	-0.006
-583.850	-200.000	-0.047	-0.246
-582.836	30.517	-0.190	0.163
-581.821	157.322	-0.317	-0.439
-580.806	-181.305	0.522	-0.010
-579.792	-169.627	-0.126	0.005
-578.777	-151.869	0.179	-0.013
-577.763	-55.616	-0.256	0.115
-576.748	-83.187	-0.258	0.083
-575.733	49.692	0.079	0.074
-574.719	-159.148	0.122	-0.007
-573.704	1.556	0.066	-0.048
-572.690	168.572	-0.154	-0.220
-571.675	-51.870	0.244	0.113
-570.661	51.103	0.217	-0.206
-569.646	-170.258	-0.160	-0.006
-568.631	-200.000	-0.089	0.406
-567.617	583.174	0.123	0.302
-566.602	-70.295	-0.335	0.127
-565.588	-53.457	-0.071	-0.033
-564.573	800.000	0.005	0.018
-563.558	-200.000	-0.031	0.175
-562.544	-38.868	-0.252	0.133
-561.529	348.257	0.081	-0.160
-560.515	-51.298	0.052	-0.024
-559.500	-57.891	-0.301	0.131
-558.485	-11.736	-0.118	0.077
-557.471	-200.000	-0.037	0.172
-556.456	-131.384	0.151	-0.020
-555.442	-122.870	0.245	0.039
-554.427	-200.000	-0.009	0.152
-553.412	800.000	-0.089	-0.273
-552.398	800.000	0.034	0.147
-551.383	-36.255	0.525	-0.283
-550.369	-73.529	-0.357	-0.130
-549.354	-165.672	-0.264	0.011
-548.339	195.904	0.078	0.118
-547.325	76.732	-0.269	0.285
-546.310	-152.216	-0.397	0.029
-545.296	-88.576	0.104	-0.031
-544.281	522.956	0.037	0.086
-543.266	-111.992	0.340	-0.068
-542.252	-150.253	-0.084	0.006
-541.237	-200.000	0.038	0.263
-540.223	34.769	-0.077	-0.067
-539.208	-85.995	-0.155	0.048
-538.193	-4.330	-0.149	0.103
-537.179	-115.843	-0.408	-0.076
-536.164	-144.565	-0.175	0.016
-535.150	-200.000	0.071	-0.505
-534.135	-126.858	0.222	0.033
-533.121	119.587	-0.143	-0.177
-532.106	-31.142	0.425	-0.239
-531.091	800.000	-0.081	0.310
-530.077	477.398	-0.084	0.189
-529.062	146.557	0.094	0.126
-528.048	-88.249	-0.253	0.075
-527.033	-141.741	0.431	0.043
-526.018	-104.569	-0.206	0.047
-525.004	-200.000	-0.055	-0.264
-523.989	-59.736	-0.290	0.124
-522.975	256.022	-0.059	-0.101
-521.960	-88.223	-0.249	0.074
-520.945	110.146	-0.196	-0.235
-519.931	584.889	0.073	-0.178
-518.916	800.000	0.071	-0.246
-517.902	-200.000	0.023	-0.221
-516.887	-65.019	0.150	-0.061
-515.872	-200.000	0.018	-0.185
-514.858	-52.213	0.455	-0.211
-513.843	68.543	0.253	-0.259
-512.829	12.783	-0.398	0.307
-511.814	800.000	-0.038	0.160
-510.799	41.414	0.207	0.187
-509.785	800.000	-0.129	0.493
-508.770	800.000	-0.064	0.186
-507.756	-100.701	-0.433	0.107
-506.741	89.793	0.217	0.242
-505.726	-36.488	-0.369	0.198
-504.712	264.812	0.028	-0.049
-503.697	-27.757	0.051	-0.030
-502.683	-121.592	0.096	0.016
-501.668	137.807	-0.138	-0.181
-500.653	85.868	0.299	-0.328
-499.639	159.848	0.071	0.099
-498.624	-149.715	-0.250	0.020
-497.610	-200.000	-0.007	-0.164
-496.595	477.730	-0.104	0.234
-495.581	97.822	-0.237	0.272
-494.566	-79.687	0.238	0.080
-493.551	101.175	-0.066	0.077
-492.537	3.360	0.405	-0.294
-491.522	800.000	-0.112	-0.346
-490.508	223.258	-0.107	0.172
-489.493	-182.807	-0.259	-0.005
-488.478	164.308	-0.064	0.090
-487.464	63.477	0.124	0.124
-486.449	-98.184	-0.162	0.041
-485.435	-3.233	0.067	0.047
-484.420	800.000	0.109	0.428
-483.405	-200.000	0.004	0.024
-482.391	-75.145	0.103	-0.037
-481.376	-36.376	0.085	-0.046
-480.362	302.915	0.087	0.161
-479.347	373.397	0.137	0.277
-478.332	800.000	-0.046	0.144
-477.318	-21.472	-0.127	-0.077
-476.303	-72.149	0.252	-0.093
-475.289	300.458	-0.041	0.075
-474.274	14.682	0.226	0.176
-473.259	800.000	-0.100	0.284
-472.245	-200.000	-0.034	0.229
-471.230	-59.323	0.264	0.113
-470.216	-117.705	-0.150	-0.027
-469.201	-181.653	-0.151	0.003
-468.186	6.546	-0.195	0.145
-467.172	-51.160	-0.115	0.054
-466.157	-59.482	0.280	0.120
-465.143	94.260	-0.112	-0.127
-464.128	453.493	0.097	-0.215
-463.113	800.000	0.072	-0.305
-462.099	-87.751	0.198	-0.059
-461.084	10.772	-0.297	-0.226
-460.070	-72.610	0.310	-0.114
-459.055	-200.000	0.064	-0.405
-458.040	-139.962	-0.481	0.051
-457.026	339.517	0.144	-0.280
-456.011	784.411	-0.079	0.215
-454.997	-8.992	0.355	-0.237
-453.982	32.997	-0.341	-0.294
-452.968	-200.000	-0.001	-0.010
-451.953	81.483	0.286	-0.308
-450.938	104.537	-0.105	-0.123
-449.924	565.662	-0.054	0.130
-448.909	-200.000	0.031	0.207
-447.895	281.590	0.096	0.171
-446.880	-149.992	-0.225	0.017
-445.865	10.051	0.171	0.129
-444.851	-135.991	0.258	0.030
-443.836	-12.243	-0.171	-0.111
-442.822	-160.754	-0.460	0.024
-441.807	-160.961	0.349	-0.018
-440.792	121.300	0.238	0.295
-439.778	22.712	0.128	0.104
-438.763	47.818	0.209	0.194
-437.749	22.768	0.224	0.183
-436.734	64.750	0.079	-0.079
-435.719	-31.998	0.118	-0.066
-434.705	610.835	-0.096	0.240
-433.690	-52.282	-0.252	-0.116
-432.676	60.778	-0.109	0.108
-431.661	209.528	0.103	-0.160
-430.646	800.000	0.089	-0.257
-429.632	29.789	-0.349	-0.296
-428.617	800.000	-0.090	-0.278
-427.603	-94.285	-0.147	0.040
-426.588	-148.804	-0.266	0.021
-425.573	653.219	0.058	-0.147
-424.559	56.360	-0.018	0.017
-423.544	99.885	0.128	-0.148
-422.530	11.776	0.088	0.067
-421.515	77.666	0.233	0.247
-420.500	130.406	0.196	-0.250
-419.486	-2.517	0.050	0.035
-418.471	-161.243	0.381	0.020
-417.457	-35.853	0.231	-0.124
-416.442	800.000	0.156	-0.445
-415.428	-86.018	0.107	0.033
-414.413	-50.258	0.164	0.077
-413.398	73.426	0.258	0.269
-412.384	-200.000	-0.037	0.402
-411.369	-200.000	0.016	-0.322
-410.355	1.930	-0.243	-0.174
-409.340	-110.234	-0.333	-0.069
-408.325	-200.000	0.051	0.000
-407.311	-200.000	0.019	-0.098
-406.296	800.000	0.024	0.101
-405.282	-107.950	0.294	0.064
-404.267	-200.000	0.012	0.086
-403.252	-93.084	0.175	0.049
-402.238	13.441	0.265	0.204
-401.223	311.931	-0.109	-0.202
-400.209	61.255	-0.082	0.081
-399.194	-75.971	0.136	-0.048
-398.179	-200.000	-0.007	0.208
-397.165	0.391	-0.070	0.050
-396.150	-98.832	-0.235	0.059
-395.136	-146.124	0.152	0.013
-394.121	800.000	0.068	0.282
-393.106	800.000	-0.035	-0.143
-392.092	-140.323	-0.301	-0.031
-391.077	659.108	-0.037	-0.095
-390.063	161.193	-0.155	-0.215
-389.048	356.482	0.046	-0.091
-388.033	-74.493	0.064	-0.023
-387.019	-165.923	-0.104	0.004
-386.004	-125.616	0.024	0.004
-384.990	800.000	0.056	0.192
-383.975	187.962	0.143	-0.211
-382.960	800.000	0.115	-0.364
-381.946	-18.168	0.212	-0.132
-380.931	15.682	-0.215	-0.168
-379.917	8.242	-0.102	-0.076
-378.902	36.318	0.097	0.085
-377.888	12.514	-0.188	0.144
-376.873	-41.837	0.031	-0.016
-375.858	800.000	-0.071	0.253
-374.844	177.979	0.137	0.198
-373.829	-2.897	-0.125	0.087
-372.815	3.933	-0.179	0.130
-371.800	-2.705	0.161	-0.112
-370.785	-200.000	-0.000	-0.146
-369.771	-37.180	0.169	-0.090
-368.756	-28.971	-0.371	-0.212
-367.742	249.498	-0.068	-0.115
-366.727	800.000	0.020	-0.060
-365.712	-200.000	0.019	-0.207
-364.698	129.427	0.082	-0.104
-363.683	36.024	0.130	0.113
-362.669	12.678	-0.275	0.211
-361.654	-200.000	0.001	0.388
-360.639	-149.758	-0.253	-0.020
-359.625	31.371	0.055	-0.047
-358.610	77.768	0.268	-0.283
-357.596	800.000	-0.045	-0.181
-356.581	10.159	-0.278	0.210
-355.566	-200.000	-0.006	0.345
-354.552	-167.401	0.093	-0.004
-353.537	24.154	-0.161	0.132
-352.523	-102.209	-0.376	-0.090
-351.508	-200.000	0.008	-0.281
-350.493	30.807	0.241	-0.205
-349.479	-142.733	-0.280	-0.027
-348.464	9.225	0.174	0.130
-347.450	-5.393	-0.283	0.193
-346.435	800.000	0.052	0.172
-345.420	-24.203	0.238	0.141
-344.406	-79.508	0.136	0.045
-343.391	107.169	-0.117	0.138
-342.377	-57.209	0.348	0.152
-341.362	-164.846	-0.119	0.005
-340.348	-200.000	0.001	0.115
-339.333	-91.901	0.460	-0.129
-338.318	-54.874	-0.162	-0.073
-337.304	-48.981	-0.272	-0.129
-336.289	800.000	0.132	0.553
-335.275	-200.000	0.008	-0.056
-334.260	-51.761	-0.259	0.119
-333.245	800.000	0.113	-0.390
-332.231	267.829	0.039	0.068
-331.216	244.140	0.080	0.134
-330.202	-200.000	-0.042	-0.199
-329.187	800.000	0.057	-0.239
-328.172	-68.541	-0.145	-0.056
-327.158	800.000	-0.004	-0.012
-326.143	28.382	-0.232	0.195
-325.129	326.229	-0.101	-0.191
-324.114	52.641	-0.207	0.196
-323.099	135.280	0.155	0.200
-322.085	-44.717	-0.220	-0.109
-321.070	-121.048	-0.339	-0.056
-320.056	101.577	-0.128	-0.148
-319.041	-125.220	-0.178	-0.027
-318.026	748.312	0.071	-0.190
-317.012	547.917	-0.070	-0.166
-315.997	181.766	-0.081	-0.117
-314.983	30.152	0.277	-0.234
-313.968	81.805	-0.108	-0.116
-312.953	469.688	0.090	-0.200
-311.939	800.000	-0.051	-0.216
-310.924	-38.027	0.117	-0.061
-309.910	-10.306	0.274	0.180
-308.895	-131.009	0.262	0.035
-307.880	321.280	-0.128	-0.241
-306.866	800.000	-0.018	0.069
-305.851	-97.823	0.263	-0.067
-304.837	-200.000	-0.046	0.231
-303.822	290.244	0.245	-0.441
-302.807	180.744	0.106	0.155
-301.793	586.740	-0.010	-0.026
-300.778	-70.891	-0.056	0.021
-299.764	-1.927	-0.091	-0.063
-298.749	800.000	0.045	-0.133
-297.735	176.772	-0.044	-0.063
-296.720	480.611	0.076	0.170
-295.705	-200.000	-0.009	0.095
-294.691	-102.533	0.417	0.099
-293.676	62.168	-0.089	0.087
-292.662	349.205	0.033	-0.064
-291.647	57.392	0.203	0.196
-290.632	-200.000	0.042	-0.262
-289.618	800.000	-0.045	0.168
-288.603	-22.360	0.084	0.051
-287.589	800.000	0.063	-0.205
-286.574	252.617	0.150	-0.253
-285.559	-112.681	-0.287	-0.056
-284.545	-23.674	-0.216	0.128
-283.530	-200.000	0.050	-0.285
-282.516	-200.000	-0.047	-0.476
-281.501	70.325	-0.273	0.279
-280.486	-200.000	-0.003	-0.415
-279.472	-58.522	-0.113	0.049
-278.457	-24.758	0.198	-0.117
-277.443	800.000	0.132	-0.398
-276.428	333.252	-0.204	-0.391
-275.413	85.597	-0.188	-0.204
-274.399	37.472	0.220	-0.193
-273.384	-86.003	-0.369	0.113
-272.370	-200.000	-0.013	0.192
-271.355	402.391	-0.119	-0.248
-270.340	-95.811	0.072	0.019
-269.326	9.575	0.464	-0.347
-268.311	-18.693	-0.164	-0.101
-267.297	-97.770	-0.408	0.104
-266.282	-200.000	0.008	0.093
-265.267	-31.952	-0.202	0.112
-264.253	622.133	0.070	0.174
-263.238	520.240	0.035	0.081
-262.224	256.562	-0.195	0.331
-261.209	-132.841	0.197	0.025
-260.195	558.368	0.076	0.181
-259.180	191.577	0.007	0.011
-258.165	-118.536	-0.561	0.098
-257.151	-5.404	-0.061	0.041
-256.136	284.736	0.124	0.221
-255.122	263.682	-0.073	-0.125
-254.107	591.185	0.045	-0.110
-253.092	80.866	-0.202	0.215
-252.078	-200.000	-0.018	-0.093
-251.063	-91.057	0.210	-0.060
-250.049	274.159	-0.038	-0.067
-249.034	289.067	-0.120	-0.215
-248.019	-94.244	0.402	0.109
-247.005	-14.027	0.333	-0.212
-245.990	-68.260	0.353	0.136
-244.976	466.589	-0.091	-0.201
-243.961	-200.000	0.065	-0.287
-242.946	269.370	0.126	0.218
-241.932	-29.904	0.131	-0.074
-240.917	662.818	-0.082	-0.208
-239.903	510.925	0.089	0.205
-238.888	800.000	-0.026	-0.083
-237.873	-120.710	-0.208	-0.035
-236.859	800.000	-0.165	0.459
-235.844	536.053	0.081	0.190
-234.830	50.805	0.284	0.266
-233.815	-23.667	-0.058	-0.034
-232.800	-200.000	0.002	0.091
-231.786	-58.263	0.104	0.044
-230.771	-174.660	0.323	-0.009
-229.757	7.449	0.205	0.151
-228.742	-181.601	0.094	-0.002
-227.727	423.976	-0.191	-0.405
-226.713	324.090	0.051	-0.095
-225.698	454.300	0.157	0.344
-224.684	15.841	0.219	-0.170
-223.669	-55.782	-0.077	0.034
-222.655	-36.055	-0.159	0.085
-221.640	-18.993	-0.244	-0.150
-220.625	110.892	-0.220	-0.262
-219.611	259.431	0.041	-0.069
-218.596	94.021	0.381	0.427
-217.582	-3.769	0.199	0.136
-216.567	211.562	-0.107	0.166
-215.552	2.793	0.197	-0.141
-214.538	83.037	0.192	0.206
-213.523	-0.930	-0.345	0.241
-212.509	7.896	0.158	0.117
-211.494	-62.800	0.096	-0.039
-210.479	800.000	0.075	0.308
-209.465	-140.725	0.075	0.008
-208.450	-200.000	-0.025	-0.219
-207.436	-127.201	-0.332	-0.048
-206.421	-200.000	0.029	-0.165
-205.406	-200.000	-0.180	-0.000
-204.392	-57.249	0.210	-0.091
-203.377	800.000	0.051	0.147
-202.363	159.344	0.039	-0.053
-201.348	-10.522	0.397	0.259
-200.333	102.058	-0.055	0.064
-199.319	75.546	-0.188	-0.196
-198.304	-191.307	0.147	0.001
-197.290	-13.457	-0.189	0.121
-196.275	-84.244	0.081	0.025
-195.260	18.626	0.183	-0.144
-194.246	800.000	-0.060	-0.177
-193.231	-153.965	0.368	0.025
-192.217	-27.314	-0.139	0.080
-191.202	-200.000	0.028	0.131
-190.187	420.080	-0.064	0.135
-189.173	-83.051	0.264	-0.084
-188.158	-200.000	-0.027	-0.343
-187.144	195.499	0.127	-0.190
-186.129	331.303	0.230	0.438
-185.114	155.373	0.129	0.175
-184.100	800.000	-0.071	-0.236
-183.085	-62.621	-0.363	-0.148
-182.071	-142.986	-0.145	-0.014
-181.056	-103.689	0.169	0.039
-180.042	21.619	-0.142	0.114
-179.027	492.547	0.155	-0.351
-178.012	766.568	-0.095	0.254
-176.998	-59.568	0.394	0.166
-175.983	800.000	0.129	0.367
-174.969	-94.216	0.181	-0.049
-173.954	345.544	-0.078	0.152
-172.939	800.000	0.078	0.240
-171.925	-85.113	0.289	0.089
-170.910	-139.416	-0.006	-0.001
-169.896	-75.897	0.216	-0.075
-168.881	221.738	-0.080	-0.127
-167.866	-98.845	-0.066	-0.017
-166.852	800.000	0.014	-0.044
-165.837	437.602	-0.102	0.219
-164.823	-16.643	0.172	0.107
-163.808	-200.000	-0.046	-0.199
-162.793	62.148	-0.117	-0.115
-161.779	-200.000	-0.008	-0.035
-160.764	589.063	0.160	-0.387
-159.750	-107.451	-0.075	0.016
-158.735	398.021	0.062	-0.128
-157.720	-90.294	-0.298	0.085
-156.706	-83.961	0.204	0.064
-155.691	-18.812	-0.411	-0.252
-154.677	-32.296	0.192	0.105
-153.662	-200.000	0.031	0.206
-152.647	271.382	-0.122	-0.212
-151.633	497.764	0.162	0.367
-150.618	800.000	-0.098	0.362
-149.604	-92.898	0.080	0.022
-148.589	-73.027	-0.204	-0.074
-147.574	-69.699	-0.399	-0.150
-146.560	800.000	0.099	0.344
-145.545	-200.000	-0.026	0.152
-144.531	89.543	-0.236	0.259
-143.516	-74.203	0.030	0.011
-142.502	-200.000	-0.001	0.121
-141.487	-36.871	0.292	-0.154
-140.472	800.000	-0.162	-0.481
-139.458	-200.000	-0.045	0.348
-138.443	-200.000	0.031	-0.177
-137.429	131.962	-0.211	0.267
-136.414	-200.000	0.027	-0.126
-135.399	-119.203	-0.119	-0.020
-134.385	-90.441	0.159	0.045
-133.370	-169.017	0.178	-0.007
-132.356	29.663	0.172	0.144
-131.341	-106.605	0.091	0.020
-130.326	365.255	0.165	0.326
-129.312	543.827	-0.067	0.158
-128.297	-0.462	0.128	-0.090
-127.283	38.836	0.140	0.123
-126.268	2.548	-0.110	-0.078
-125.253	721.572	-0.060	-0.156
-124.239	-45.452	0.279	0.136
-123.224	-122.735	-0.065	-0.010
-122.210	-74.041	-0.216	0.077
-121.195	-200.000	-0.069	0.388
-120.180	-193.110	0.163	0.001
-119.166	-200.000	0.006	-0.272
