DTS Sentinel unit serial number:	SN413079Multiplexer serial number:	ORYXHardware model number:	OX4-SRSoftware version number:	ORYX F/W v4.00 Oryx Data Collector v3.7.2.0data status	okinstallation	princeton_trtdifferential loss correction	single-endedforward channel	channel 1reverse channel	N/Adate	2019/09/16time	00:34:35forward acquisition time	60.00reverse acquisition time	0.00gamma	496.2192k internal	0.2334k external	0.2334temperature offset calibration	0.9971default loss term (dB/km)	0.3790temperature slope calibration	1.0000multiplexer offset coefficient	1.0000multiplexer slope coefficient	1.0000fibre end	0.00T internal ref (°C)	27.53T ext. ref 1 (°C)	9.58T ext. ref 2 (°C)	21.62length (m)	temperature (°C)	Stokes	anti-Stokes-747.200	800.000	-0.037	0.124
-746.185	145.024	-0.229	0.308
-745.171	-107.719	-0.435	0.096
-744.156	78.521	0.143	0.154
-743.142	-70.373	0.236	0.090
-742.127	-12.241	-0.460	-0.302
-741.112	-8.906	-0.066	0.044
-740.098	800.000	0.087	0.265
-739.083	314.591	-0.201	0.380
-738.069	28.490	-0.073	0.062
-737.054	-200.000	0.028	-0.459
-736.039	800.000	-0.055	-0.173
-735.025	162.609	0.265	-0.374
-734.010	4.559	0.158	-0.116
-732.996	167.366	-0.149	0.212
-731.981	70.940	-0.170	-0.177
-730.966	661.661	-0.051	-0.132
-729.952	-200.000	0.001	-0.282
-728.937	753.150	-0.110	-0.298
-727.923	-72.555	0.029	-0.011
-726.908	800.000	0.124	-0.441
-725.894	89.774	0.105	0.117
-724.879	40.686	0.088	0.080
-723.864	-200.000	-0.002	-0.099
-722.850	800.000	0.004	0.014
-721.835	-100.404	-0.098	0.024
-720.821	24.709	-0.062	0.051
-719.806	-9.006	0.197	-0.132
-718.791	102.591	-0.150	0.176
-717.777	66.701	-0.079	-0.081
-716.762	55.214	-0.203	-0.197
-715.748	586.719	0.031	0.076
-714.733	3.359	0.346	0.253
-713.718	86.021	0.037	0.041
-712.704	217.243	0.025	-0.040
-711.689	85.578	-0.133	0.147
-710.675	800.000	0.014	0.061
-709.660	24.133	0.124	0.103
-708.645	95.668	0.164	-0.187
-707.631	11.241	0.062	-0.047
-706.616	-126.673	-0.122	0.018
-705.602	-200.000	0.023	0.165
-704.587	92.606	-0.095	0.108
-703.572	47.871	0.252	0.236
-702.558	205.094	0.181	-0.282
-701.543	-51.737	0.155	0.072
-700.529	-200.000	-0.013	-0.135
-699.514	2.794	0.092	-0.067
-698.499	-132.512	-0.215	0.028
-697.485	-200.000	0.001	-0.011
-696.470	-200.000	0.013	-0.111
-695.456	64.080	-0.186	-0.187
-694.441	12.546	-0.172	0.133
-693.426	-200.000	0.024	0.205
-692.412	-93.697	-0.158	-0.044
-691.397	624.109	-0.119	0.301
-690.383	-200.000	0.017	-0.165
-689.368	13.652	-0.137	-0.107
-688.354	-94.196	0.168	0.046
-687.339	-149.293	-0.119	-0.010
-686.324	627.389	-0.116	-0.294
-685.310	365.814	-0.047	0.096
-684.295	-83.741	-0.078	-0.025
-683.281	152.312	-0.171	0.235
-682.266	800.000	0.063	-0.252
-681.251	-178.362	-0.139	0.003
-680.237	-200.000	-0.026	0.124
-679.222	-25.932	0.051	-0.030
-678.208	341.314	-0.051	0.100
-677.193	800.000	0.078	0.255
-676.178	708.517	0.052	0.137
-675.164	232.146	-0.095	0.156
-674.149	38.022	0.103	0.092
-673.135	-157.529	-0.161	-0.010
-672.120	-118.749	-0.075	0.013
-671.105	-7.448	0.325	-0.220
-670.091	299.968	-0.056	0.103
-669.076	151.096	-0.095	0.129
-668.062	1.880	-0.123	-0.089
-667.047	574.068	0.103	-0.251
-666.032	800.000	0.091	-0.357
-665.018	-153.486	-0.097	-0.007
-664.003	413.830	0.078	-0.166
-662.989	296.323	0.190	-0.349
-661.974	-200.000	-0.073	0.425
-660.959	111.400	0.282	0.340
-659.945	-2.232	-0.286	-0.201
-658.930	-121.321	0.108	0.018
-657.916	-29.178	-0.122	-0.070
-656.901	-200.000	0.027	0.167
-655.886	-71.027	0.154	-0.058
-654.872	30.739	0.236	0.202
-653.857	-172.859	0.029	-0.001
-652.843	800.000	0.041	0.175
-651.828	307.046	-0.051	0.095
-650.814	-56.450	-0.144	0.064
-649.799	-109.674	-0.027	-0.006
-648.784	55.773	0.123	-0.119
-647.770	-200.000	0.064	-0.473
-646.755	800.000	0.018	-0.059
-645.741	-72.411	0.076	0.028
-644.726	142.829	-0.071	0.094
-643.711	158.975	-0.200	-0.278
-642.697	-149.646	0.213	0.017
-641.682	-200.000	-0.021	0.121
-640.668	800.000	0.058	0.208
-639.653	-67.590	-0.148	0.058
-638.638	99.430	-0.294	0.340
-637.624	315.514	0.116	0.220
-636.609	225.579	-0.196	-0.318
-635.595	20.755	-0.099	-0.080
-634.580	-151.826	0.194	0.014
-633.565	-200.000	-0.009	0.065
-632.551	-200.000	-0.092	-0.534
-631.536	203.639	-0.144	-0.222
-630.522	-30.099	-0.039	0.022
-629.507	380.999	-0.070	-0.143
-628.492	-48.264	0.531	-0.256
-627.478	507.646	-0.093	0.215
-626.463	533.271	0.023	-0.054
-625.449	-20.745	0.222	-0.136
-624.434	431.201	0.151	0.328
-623.419	-200.000	-0.030	-0.152
-622.405	-200.000	-0.023	0.116
-621.390	192.696	0.084	0.127
-620.376	262.894	-0.130	0.226
-619.361	648.452	-0.147	-0.377
-618.346	-144.338	0.144	-0.013
-617.332	-150.502	0.050	0.004
-616.317	98.349	-0.140	0.161
-615.303	-110.290	0.135	-0.028
-614.288	774.667	-0.030	-0.082
-613.273	40.777	-0.086	-0.078
-612.259	-80.812	-0.387	-0.128
-611.244	-12.796	0.165	-0.108
-610.230	-200.000	0.015	0.576
-609.215	-200.000	-0.004	-0.054
-608.201	88.143	0.112	0.124
-607.186	204.367	0.118	-0.183
-606.171	96.568	0.179	0.205
-605.157	-200.000	-0.320	-0.001
-604.142	179.871	-0.096	-0.141
-603.128	-17.498	0.080	-0.050
-602.113	687.452	-0.172	-0.450
-601.098	366.001	0.060	0.121
-600.084	78.649	-0.233	-0.249
-599.069	800.000	0.003	-0.011
-598.055	-200.000	-0.049	0.332
-597.040	800.000	-0.128	0.363
-596.025	800.000	0.063	0.258
-595.011	-200.000	0.003	-0.236
-593.996	123.092	0.331	-0.414
-592.982	539.616	0.039	-0.094
-591.967	-200.000	-0.046	0.344
-590.952	800.000	0.039	-0.155
-589.938	-200.000	-0.054	-0.350
-588.923	202.447	-0.198	-0.305
-587.909	99.892	0.159	-0.184
-586.894	-33.080	-0.233	-0.129
-585.879	427.047	0.171	-0.369
-584.865	704.301	0.069	-0.181
-583.850	-30.956	-0.190	0.107
-582.836	137.569	-0.182	0.238
-581.821	225.626	-0.179	-0.290
-580.806	-200.000	0.017	0.149
-579.792	-123.381	-0.041	0.007
-578.777	120.337	-0.194	-0.240
-577.763	665.412	0.105	-0.270
-576.748	-23.437	0.141	0.084
-575.733	-166.415	0.064	-0.003
-574.719	-200.000	0.004	-0.119
-573.704	335.511	0.134	0.260
-572.690	66.976	0.140	-0.142
-571.675	-75.760	0.195	-0.069
-570.661	125.892	-0.045	-0.057
-569.646	224.969	-0.095	0.153
-568.631	-200.000	-0.012	0.314
-567.617	800.000	0.031	-0.099
-566.602	-0.153	0.111	0.079
-565.588	-200.000	-0.032	-0.145
-564.573	35.499	0.245	-0.214
-563.558	800.000	-0.024	0.097
-562.544	-91.588	0.319	-0.091
-561.529	-55.613	0.066	-0.029
-560.515	265.372	-0.071	0.124
-559.500	-138.642	0.211	0.023
-558.485	90.648	0.203	0.227
-557.471	-131.525	-0.075	-0.010
-556.456	600.893	0.148	-0.367
-555.442	108.812	-0.114	0.137
-554.427	-120.804	-0.243	0.041
-553.412	800.000	0.054	-0.223
-552.398	-126.718	0.023	-0.003
-551.383	276.688	-0.099	0.175
-550.369	-14.188	-0.321	0.207
-549.354	558.915	0.111	0.267
-548.339	247.789	0.126	-0.213
-547.325	200.148	0.222	-0.341
-546.310	-64.601	-0.113	0.046
-545.296	-163.748	0.206	0.010
-544.281	-200.000	-0.022	0.282
-543.266	-98.854	-0.063	0.016
-542.252	-47.799	-0.327	0.158
-541.237	186.590	0.202	0.300
-540.223	-200.000	0.010	-0.140
-539.208	-200.000	0.007	0.066
-538.193	19.367	0.094	-0.075
-537.179	213.619	0.223	-0.352
-536.164	-17.024	-0.198	0.125
-535.150	-148.131	-0.141	-0.012
-534.135	-136.224	-0.204	0.024
-533.121	-35.212	0.262	0.142
-532.106	313.167	0.036	-0.068
-531.091	246.862	0.190	0.320
-530.077	-80.862	-0.304	-0.101
-529.062	-200.000	-0.049	0.254
-528.048	50.633	-0.141	0.133
-527.033	-200.000	0.039	0.205
-526.018	200.926	0.097	-0.148
-525.004	-95.948	-0.267	0.071
-523.989	-200.000	-0.014	-0.223
-522.975	-65.142	0.108	-0.044
-521.960	-176.285	0.086	-0.002
-520.945	174.569	-0.140	0.202
-519.931	-25.657	0.262	-0.154
-518.916	-190.325	0.407	0.004
-517.902	-137.166	-0.331	-0.038
-516.887	36.327	-0.316	0.277
-515.872	-200.000	0.002	0.164
-514.858	-105.667	-0.188	0.042
-513.843	-200.000	-0.074	0.393
-512.829	800.000	-0.063	0.207
-511.814	-180.687	0.146	-0.003
-510.799	-200.000	0.008	-0.257
-509.785	-107.582	-0.179	-0.039
-508.770	-200.000	0.016	0.094
-507.756	-200.000	0.004	-0.124
-506.741	318.401	0.055	0.103
-505.726	37.980	-0.044	0.039
-504.712	-200.000	-0.045	-0.264
-503.697	-173.813	-0.226	-0.007
-502.683	-129.272	0.316	-0.044
-501.668	-200.000	0.038	0.171
-500.653	88.626	-0.183	-0.203
-499.639	57.473	-0.060	0.058
-498.624	14.177	0.144	0.112
-497.610	-52.863	0.140	-0.064
-496.595	-119.819	0.306	-0.052
-495.581	25.667	-0.354	0.293
-494.566	-7.839	-0.229	0.154
-493.551	-200.000	0.082	-0.390
-492.537	79.142	0.116	-0.124
-491.522	-200.000	0.000	-0.142
-490.508	-17.356	0.185	-0.116
-489.493	800.000	0.093	-0.347
-488.478	-9.205	0.263	0.175
-487.464	-83.513	-0.297	-0.094
-486.449	-164.807	0.037	-0.002
-485.435	531.550	-0.057	-0.135
-484.420	155.078	0.062	0.085
-483.405	62.321	-0.371	0.369
-482.391	-200.000	0.025	-0.121
-481.376	166.833	0.072	0.101
-480.362	-200.000	-0.020	0.242
-479.347	391.394	-0.079	0.163
-478.332	-39.787	-0.208	-0.108
-477.318	768.668	0.073	-0.197
-476.303	40.862	-0.188	0.169
-475.289	800.000	0.055	-0.231
-474.274	800.000	-0.012	-0.049
-473.259	162.809	-0.208	-0.291
-472.245	-156.547	-0.200	-0.012
-471.230	54.858	0.089	-0.085
-470.216	-67.413	-0.359	0.140
-469.201	800.000	0.092	0.356
-468.186	70.027	0.038	-0.039
-467.172	92.971	-0.105	-0.118
-466.157	-25.097	0.180	0.106
-465.143	33.236	0.096	0.083
-464.128	-13.191	-0.109	-0.070
-463.113	-200.000	-0.016	-0.095
-462.099	113.444	-0.194	0.234
-461.084	573.658	0.027	0.066
-460.070	-58.941	-0.192	0.082
-459.055	-102.421	0.268	0.064
-458.040	800.000	-0.049	-0.162
-457.026	70.080	0.172	0.177
-456.011	-200.000	0.002	0.015
-454.997	36.626	-0.182	0.160
-453.982	-35.141	-0.081	0.044
-452.968	129.388	0.052	-0.067
-451.953	197.132	0.111	0.168
-450.938	-24.324	-0.194	0.115
-449.924	-11.570	0.144	-0.094
-448.909	475.404	0.121	0.271
-447.895	-35.399	-0.093	0.050
-446.880	473.438	0.042	-0.093
-445.865	100.604	0.048	0.055
-444.851	-200.000	0.029	0.169
-443.836	800.000	-0.026	0.105
-442.822	108.853	-0.271	0.322
-441.807	-85.010	-0.079	0.024
-440.792	-29.493	0.124	-0.070
-439.778	746.828	-0.079	0.210
-438.763	-110.555	0.057	0.012
-437.749	81.249	-0.076	-0.082
-436.734	-200.000	0.104	-0.524
-435.719	-138.649	0.100	0.011
-434.705	-200.000	0.040	-0.270
-433.690	-200.000	0.022	0.320
-432.676	-123.355	-0.151	0.024
-431.661	12.801	0.245	-0.188
-430.646	-71.306	-0.257	-0.096
-429.632	114.998	0.206	-0.249
-428.617	-33.497	0.159	0.087
-427.603	-7.072	-0.181	-0.122
-426.588	-126.416	0.375	0.055
-425.573	-200.000	-0.048	-0.278
-424.559	534.789	-0.165	0.389
-423.544	-137.728	0.032	0.004
-422.530	-96.337	-0.163	0.043
-421.515	-108.026	0.334	0.072
-420.500	608.967	0.013	0.032
-419.486	-58.920	0.150	-0.064
-418.471	7.835	0.198	0.147
-417.457	-66.255	-0.397	0.157
-416.442	25.556	0.149	0.123
-415.428	-2.744	0.207	0.144
-414.413	800.000	0.098	-0.277
-413.398	-63.002	0.199	-0.082
-412.384	-200.000	0.037	0.191
-411.369	-71.407	0.248	-0.092
-410.355	357.470	-0.029	0.057
-409.340	41.819	-0.179	-0.161
-408.325	6.448	0.048	0.035
-407.311	-59.073	-0.192	-0.082
-406.296	589.702	0.094	-0.229
-405.282	85.179	-0.093	0.101
-404.267	133.284	-0.073	0.094
-403.252	-135.201	-0.150	-0.018
-402.238	-147.466	0.379	-0.032
-401.223	-137.863	0.232	-0.026
-400.209	-29.513	-0.033	0.019
-399.194	221.334	0.070	-0.111
-398.179	-200.000	-0.019	0.338
-397.165	-151.218	0.148	-0.011
-396.150	800.000	0.039	-0.117
-395.136	109.200	0.259	-0.307
-394.121	174.912	0.039	-0.056
-393.106	800.000	0.103	-0.373
-392.092	-55.041	-0.186	-0.083
-391.077	264.756	0.015	-0.026
-390.063	72.794	0.068	0.071
-389.048	-200.000	-0.066	-0.648
-388.033	800.000	-0.048	0.156
-387.019	520.192	-0.189	0.438
-386.004	-200.000	-0.007	0.098
-384.990	183.929	0.121	0.177
-383.975	32.179	0.093	-0.080
-382.960	295.626	-0.107	0.194
-381.946	-200.000	-0.047	0.286
-380.931	-159.087	-0.273	-0.015
-379.917	99.823	0.298	0.342
-378.902	-60.618	-0.127	-0.053
-377.888	800.000	0.045	0.162
-376.873	800.000	-0.114	0.434
-375.858	-200.000	-0.004	-0.065
-374.844	-128.511	-0.142	-0.020
-373.829	138.461	0.013	0.017
-372.815	-125.910	0.083	0.012
-371.800	-82.227	0.320	-0.103
-370.785	-200.000	0.077	0.344
-369.771	23.938	0.172	0.140
-368.756	-83.339	-0.334	0.106
-367.742	70.565	0.140	-0.144
-366.727	-109.970	0.089	0.018
-365.712	20.538	0.152	-0.122
-364.698	-87.175	0.313	-0.094
-363.683	-85.461	-0.062	-0.019
-362.669	110.326	-0.094	0.112
-361.654	-200.000	-0.022	-0.152
-360.639	-131.138	-0.183	0.024
-359.625	-200.000	-0.027	0.179
-358.610	-105.622	0.133	-0.030
-357.596	-112.354	-0.148	0.029
-356.581	800.000	0.140	0.403
-355.566	800.000	-0.126	0.386
-354.552	-100.857	0.453	0.110
-353.537	-99.384	0.141	0.035
-352.523	-37.184	0.193	-0.102
-351.508	800.000	0.078	-0.300
-350.493	-71.084	-0.023	0.009
-349.479	92.764	-0.163	-0.182
-348.464	-23.342	-0.077	-0.046
-347.450	19.560	0.196	-0.156
-346.435	34.725	0.080	-0.069
-345.420	-119.065	0.275	-0.048
-344.406	635.989	-0.095	-0.238
-343.391	-40.032	0.107	-0.055
-342.377	-46.398	-0.166	-0.081
-341.362	-135.951	-0.329	-0.038
-340.348	-149.019	-0.256	-0.020
-339.333	-81.646	-0.221	0.072
-338.318	-22.503	-0.506	0.303
-337.304	-200.000	0.017	-0.236
-336.289	-200.000	0.012	0.154
-335.275	237.884	-0.061	0.100
-334.260	-157.596	0.266	0.016
-333.245	800.000	-0.039	-0.110
-332.231	176.479	0.154	-0.222
-331.216	-10.424	0.217	-0.142
-330.202	800.000	0.046	-0.150
-329.187	798.094	-0.124	0.339
-328.172	-23.069	-0.217	0.130
-327.158	-89.047	-0.313	0.092
-326.143	-84.063	0.326	0.102
-325.129	56.168	-0.119	-0.115
-324.114	32.823	0.343	0.293
-323.099	-71.101	-0.203	-0.075
-322.085	-200.000	0.013	-0.246
-321.070	166.498	0.210	-0.295
-320.056	800.000	0.074	0.217
-319.041	133.469	-0.089	-0.114
-318.026	-53.689	0.339	-0.153
-317.012	48.813	0.119	-0.110
-315.997	600.854	-0.155	-0.382
-314.983	800.000	-0.072	0.245
-313.968	-28.943	-0.306	-0.174
-312.953	-200.000	0.051	0.260
-311.939	-9.789	-0.380	0.250
-310.924	800.000	-0.026	0.102
-309.910	-182.649	-0.306	-0.006
-308.895	-141.003	0.497	0.050
-307.880	-59.692	-0.065	0.027
-306.866	800.000	-0.059	0.163
-305.851	-200.000	0.012	0.064
-304.837	247.057	0.149	-0.249
-303.822	-120.246	0.125	0.021
-302.807	-40.797	-0.219	-0.112
-301.793	-103.196	0.117	-0.027
-300.778	90.593	-0.133	-0.147
-299.764	-139.610	0.292	0.031
-298.749	-200.000	-0.017	-0.128
-297.735	-200.000	-0.061	-0.643
-296.720	-13.495	0.388	0.249
-295.705	111.372	0.121	-0.144
-294.691	-5.260	-0.171	0.116
-293.676	-6.320	0.207	0.139
-292.662	-187.344	0.468	-0.006
-291.647	-200.000	-0.007	0.188
-290.632	-12.384	-0.067	-0.043
-289.618	311.793	0.083	0.154
-288.603	183.333	0.177	-0.258
-287.589	143.432	-0.074	-0.097
-286.574	800.000	-0.089	-0.295
-285.559	-128.760	0.263	-0.037
-284.545	-19.169	-0.120	-0.074
-283.530	-137.647	0.209	-0.023
-282.516	-143.287	0.074	0.007
-281.501	800.000	-0.091	0.392
-280.486	404.857	-0.026	-0.054
-279.472	-104.588	-0.432	0.098
-278.457	101.034	0.076	0.088
-277.443	62.685	0.127	-0.125
-276.428	800.000	-0.032	0.122
-275.413	253.952	-0.154	-0.260
-274.399	800.000	0.120	-0.354
-273.384	-89.603	-0.023	0.007
-272.370	-109.757	-0.180	-0.037
-271.355	81.924	-0.230	0.245
-270.340	-3.024	0.360	0.248
-269.326	-108.287	-0.192	-0.041
-268.311	676.807	-0.013	0.032
-267.297	101.767	0.063	0.072
-266.282	-97.207	0.285	0.073
-265.267	-142.326	0.245	0.024
-264.253	-66.663	-0.481	-0.188
-263.238	-173.794	-0.355	0.010
-262.224	-59.779	0.166	-0.070
-261.209	64.841	-0.056	0.056
-260.195	-2.606	-0.163	-0.113
-259.180	-36.521	-0.161	-0.085
-258.165	401.928	-0.037	-0.077
-257.151	-153.944	-0.117	-0.008
-256.136	800.000	-0.064	0.275
-255.122	-200.000	0.052	0.241
-254.107	234.476	-0.138	-0.225
-253.092	-83.158	0.309	-0.098
-252.078	51.788	-0.127	-0.119
-251.063	102.580	0.082	0.094
-250.049	-38.284	0.197	0.103
-249.034	565.219	0.090	0.215
-248.019	41.544	0.196	0.175
-247.005	411.256	0.094	0.197
-245.990	43.458	-0.146	0.131
-244.976	-19.326	-0.148	-0.090
-243.961	42.951	-0.221	-0.199
-242.946	113.926	-0.181	0.217
-241.932	-82.283	0.249	-0.080
-240.917	622.675	-0.065	0.162
-239.903	52.864	-0.093	0.088
-238.888	194.356	0.084	-0.126
-237.873	-49.462	0.076	-0.036
-236.859	-37.540	-0.226	-0.119
-235.844	-23.104	-0.270	-0.160
-234.830	-33.303	-0.055	-0.030
-233.815	425.945	0.058	0.123
-232.800	-144.528	-0.217	-0.020
-231.786	359.283	-0.083	0.164
-230.771	63.870	-0.040	0.040
-229.757	-200.000	0.025	-0.259
-228.742	-200.000	-0.020	-0.091
-227.727	-1.460	-0.273	-0.189
-226.713	351.115	0.069	-0.135
-225.698	-134.667	0.281	0.034
-224.684	-200.000	0.060	-0.431
-223.669	155.968	-0.148	-0.201
-222.655	-149.212	0.170	-0.013
-221.640	146.740	-0.238	0.315
-220.625	114.259	-0.217	-0.260
-219.611	78.881	0.094	0.099
-218.596	-129.532	-0.210	0.029
-217.582	-24.524	0.221	0.130
-216.567	-145.438	0.242	-0.021
-215.552	-72.872	-0.150	-0.054
-214.538	-157.106	-0.189	-0.011
-213.523	-71.057	-0.303	-0.112
-212.509	128.743	-0.210	-0.264
-211.494	-14.362	-0.147	0.093
-210.479	-132.311	-0.367	-0.047
-209.465	-105.574	0.179	0.040
-208.450	-145.444	0.245	0.022
-207.436	800.000	0.021	0.077
-206.421	204.430	-0.091	-0.139
-205.406	-62.649	0.483	0.197
-204.392	800.000	-0.049	-0.186
-203.377	-165.963	0.293	0.012
-202.363	-200.000	-0.000	-0.104
-201.348	-7.508	-0.183	0.122
-200.333	-94.710	-0.213	-0.057
-199.319	27.427	-0.280	0.232
-198.304	-85.639	0.480	0.147
-197.290	72.432	-0.058	0.059
-196.275	-200.000	-0.027	0.144
-195.260	118.420	0.084	-0.102
-194.246	19.380	-0.264	-0.209
-193.231	-112.396	-0.566	0.111
-192.217	4.612	0.266	0.192
-191.202	380.601	-0.085	-0.171
-190.187	-91.615	0.214	0.060
-189.173	-200.000	-0.009	0.159
-188.158	-200.000	-0.026	-0.121
-187.144	-140.878	0.186	0.019
-186.129	-182.336	0.219	0.004
-185.114	-168.864	0.141	-0.005
-184.100	15.448	-0.114	-0.088
-183.085	277.917	-0.166	0.290
-182.071	122.383	-0.027	0.033
-181.056	89.717	0.198	0.217
-180.042	-173.418	0.185	-0.006
-179.027	-94.722	-0.204	-0.054
-178.012	800.000	0.061	-0.173
-176.998	9.736	-0.253	0.188
-175.983	-119.465	-0.070	-0.012
-174.969	-20.445	0.146	0.088
-173.954	-200.000	0.031	-0.161
-172.939	-52.047	0.234	-0.107
-171.925	-20.967	-0.041	0.025
-170.910	800.000	-0.072	-0.254
-169.896	1.169	0.071	-0.050
-168.881	547.566	0.089	0.209
-167.866	-113.492	-0.205	0.039
-166.852	800.000	0.080	0.239
-165.837	96.888	-0.086	0.097
-164.823	35.143	-0.245	-0.211
-163.808	-38.411	-0.454	-0.236
-162.793	-50.491	0.255	0.118
-161.779	-27.733	-0.153	-0.087
-160.764	-110.012	0.252	-0.052
-159.750	46.403	0.054	0.049
-158.735	-84.959	0.222	0.068
-157.720	8.531	0.096	-0.071
-156.706	422.810	-0.041	0.086
-155.691	-97.762	-0.230	-0.059
-154.677	-200.000	0.024	0.278
-153.662	135.089	0.108	0.138
-152.647	-99.561	0.302	0.074
-151.633	-98.039	-0.221	-0.056
-150.618	-49.829	0.040	0.019
-149.604	60.626	-0.207	0.201
-148.589	525.126	0.123	-0.284
-147.574	189.429	-0.063	0.093
-146.560	297.167	0.169	0.305
-145.545	178.597	0.101	0.145
-144.531	-200.000	-0.004	-0.044
-143.516	-139.470	-0.229	0.024
-142.502	-200.000	-0.029	0.142
-141.487	-177.403	0.401	-0.010
-140.472	-200.000	-0.065	-0.339
-139.458	-97.047	0.070	0.018
-138.443	-13.325	0.129	0.082
-137.429	93.477	0.048	-0.053
-136.414	146.379	-0.198	0.261
-135.399	-30.442	-0.225	-0.125
-134.385	-200.000	0.038	0.293
-133.370	-6.880	0.074	-0.049
-132.356	800.000	-0.032	-0.097
-131.341	108.139	-0.061	-0.071
-130.326	-200.000	-0.013	0.336
-129.312	316.420	-0.099	0.184
-128.297	-104.567	0.235	0.053
-127.283	-140.827	-0.385	-0.039
-126.268	-37.018	-0.208	0.109
-125.253	-105.083	-0.268	-0.060
-124.239	-26.810	-0.114	0.066
-123.224	497.191	0.010	0.022
-122.210	12.757	-0.268	0.203
-121.195	62.107	0.105	-0.102
