DTS Sentinel unit serial number:	SN413079Multiplexer serial number:	ORYXHardware model number:	OX4-SRSoftware version number:	ORYX F/W v4.00 Oryx Data Collector v3.7.2.0data status	okinstallation	princeton_trtdifferential loss correction	single-endedforward channel	channel 1reverse channel	N/Adate	2019/09/14time	06:30:35forward acquisition time	60.00reverse acquisition time	0.00gamma	496.2192k internal	0.2336k external	0.2336temperature offset calibration	1.0080default loss term (dB/km)	0.3790temperature slope calibration	1.0000multiplexer offset coefficient	1.0000multiplexer slope coefficient	1.0000fibre end	0.00T internal ref (°C)	26.48T ext. ref 1 (°C)	3.40T ext. ref 2 (°C)	20.40length (m)	temperature (°C)	Stokes	anti-Stokes-747.200	330.881	-0.114	0.220
-746.185	-87.697	0.106	-0.032
-745.171	-56.980	-0.105	0.047
-744.156	269.356	-0.161	-0.285
-743.142	-200.000	-0.042	0.205
-742.127	-57.701	-0.034	-0.015
-741.112	-200.000	-0.059	0.287
-740.098	134.500	0.114	0.149
-739.083	-200.000	0.062	-0.376
-738.069	-38.525	-0.100	-0.053
-737.054	708.576	0.200	0.532
-736.039	-197.677	-0.644	-0.004
-735.025	800.000	0.071	0.201
-734.010	-87.616	-0.185	-0.056
-732.996	36.461	0.053	-0.047
-731.981	-32.761	-0.178	-0.099
-730.966	-53.709	0.214	0.098
-729.952	-200.000	-0.207	-0.000
-728.937	-21.142	-0.243	-0.149
-727.923	-95.479	-0.365	-0.098
-726.908	-169.384	-0.282	0.010
-725.894	-93.310	-0.246	0.068
-724.879	296.839	-0.138	0.254
-723.864	-88.416	-0.089	0.027
-722.850	-36.935	0.166	0.089
-721.835	-93.497	-0.104	0.029
-720.821	-200.000	-0.188	-0.000
-719.806	-200.000	-0.011	-0.202
-718.791	44.338	0.108	-0.100
-717.777	-123.262	0.171	-0.027
-716.762	109.046	0.034	0.041
-715.748	68.117	0.175	0.179
-714.733	-33.869	-0.402	-0.222
-713.718	-134.770	-0.180	-0.022
-712.704	36.312	0.243	-0.215
-711.689	-200.000	0.023	-0.167
-710.675	-114.520	-0.189	0.036
-709.660	-24.838	-0.274	-0.163
-708.645	-148.795	0.080	0.007
-707.631	-149.975	-0.079	-0.006
-706.616	-200.000	0.040	0.304
-705.602	-69.100	0.083	0.032
-704.587	-169.888	-0.342	0.012
-703.572	-96.159	0.296	0.079
-702.558	-70.035	-0.304	0.116
-701.543	111.881	0.245	-0.296
-700.529	-76.095	-0.273	0.097
-699.514	-2.399	-0.096	0.068
-698.499	227.456	-0.102	0.167
-697.485	-171.035	0.250	0.009
-696.470	-141.496	-0.428	0.043
-695.456	-200.000	-0.030	-0.212
-694.441	800.000	0.018	0.068
-693.426	800.000	0.040	-0.146
-692.412	161.081	-0.115	-0.162
-691.397	-200.000	-0.018	0.210
-690.383	334.006	-0.116	0.225
-689.368	-13.982	0.303	0.196
-688.354	18.364	0.079	-0.063
-687.339	202.997	0.174	0.269
-686.324	314.308	0.202	0.381
-685.310	147.174	-0.159	-0.214
-684.295	800.000	-0.098	-0.305
-683.281	136.149	-0.060	0.078
-682.266	800.000	-0.070	-0.250
-681.251	20.475	-0.302	0.244
-680.237	-86.349	0.169	0.052
-679.222	-200.000	-0.029	0.189
-678.208	-30.440	0.184	0.105
-677.193	-143.617	-0.174	0.017
-676.178	153.683	0.054	0.075
-675.164	-200.000	0.069	-0.393
-674.149	219.695	-0.052	-0.084
-673.135	-41.609	-0.310	-0.160
-672.120	278.554	0.033	-0.060
-671.105	59.924	0.250	0.247
-670.091	413.013	0.150	0.320
-669.076	28.076	-0.026	0.022
-668.062	5.318	0.111	-0.082
-667.047	-91.120	-0.029	-0.008
-666.032	97.514	-0.112	-0.129
-665.018	-132.580	0.384	0.049
-664.003	-29.721	-0.300	0.171
-662.989	-42.624	-0.129	0.066
-661.974	-200.000	0.074	0.341
-660.959	79.720	0.301	0.324
-659.945	800.000	0.014	-0.057
-658.930	140.371	0.142	-0.188
-657.916	117.351	-0.201	0.247
-656.901	62.599	0.295	0.295
-655.886	506.177	-0.095	0.220
-654.872	-127.760	0.099	-0.014
-653.857	-146.966	-0.091	0.008
-652.843	72.641	-0.178	-0.185
-651.828	800.000	-0.058	0.193
-650.814	-14.090	-0.040	0.026
-649.799	340.027	-0.041	-0.080
-648.784	24.083	-0.418	-0.345
-647.770	-200.000	-0.007	-0.219
-646.755	800.000	0.012	0.051
-645.741	-200.000	0.023	-0.337
-644.726	393.472	-0.122	-0.254
-643.711	10.830	-0.403	0.308
-642.697	478.100	0.065	0.147
-641.682	-8.184	-0.345	0.233
-640.668	-134.411	0.472	0.058
-639.653	242.737	0.091	-0.152
-638.638	109.663	0.099	-0.118
-637.624	60.621	-0.211	-0.209
-636.609	418.792	-0.085	-0.182
-635.595	490.658	0.093	-0.212
-634.580	800.000	0.061	-0.222
-633.565	285.217	-0.146	0.262
-632.551	-77.546	0.038	0.013
-631.536	9.181	-0.059	0.044
-630.522	-200.000	-0.062	0.276
-629.507	-64.337	-0.263	0.107
-628.492	800.000	-0.026	0.087
-627.478	-13.223	0.408	0.265
-626.463	-50.595	-0.245	0.116
-625.449	191.663	0.101	-0.153
-624.434	5.601	0.078	0.057
-623.419	-188.655	0.131	0.002
-622.405	794.042	-0.076	0.210
-621.390	800.000	0.143	-0.452
-620.376	-200.000	0.011	0.584
-619.361	-128.639	-0.231	0.033
-618.346	-200.000	0.017	-0.232
-617.332	-56.163	-0.194	0.086
-616.317	800.000	-0.125	0.383
-615.303	766.760	0.035	0.096
-614.288	-11.993	-0.207	0.136
-613.273	-11.098	-0.148	-0.098
-612.259	640.128	0.187	-0.476
-611.244	134.215	0.048	0.062
-610.230	-52.913	0.156	0.072
-609.215	-105.020	0.315	-0.072
-608.201	-200.000	-0.017	-0.316
-607.186	-110.828	-0.135	-0.028
-606.171	254.875	-0.017	0.029
-605.157	-128.635	-0.106	0.015
-604.142	-78.470	-0.322	-0.110
-603.128	41.419	-0.224	-0.202
-602.113	-1.021	0.010	0.007
-601.098	189.528	-0.154	0.230
-600.084	169.907	0.176	0.252
-599.069	-159.166	0.340	0.019
-598.055	-48.976	0.011	0.005
-597.040	800.000	0.049	-0.190
-596.025	93.467	0.237	0.268
-595.011	70.070	-0.161	-0.165
-593.996	91.052	0.303	-0.340
-592.982	-87.099	-0.070	0.021
-591.967	139.910	-0.110	0.144
-590.952	52.220	-0.173	-0.164
-589.938	-59.059	0.136	0.059
-588.923	-178.562	0.169	-0.004
-587.909	123.085	0.130	0.163
-586.894	210.529	-0.076	0.119
-585.879	25.609	0.104	0.086
-584.865	-0.348	-0.072	0.051
-583.850	39.770	-0.163	0.146
-582.836	351.556	-0.168	-0.332
-581.821	800.000	-0.139	0.401
-580.806	213.301	0.029	-0.046
-579.792	101.304	0.203	-0.235
-578.777	263.172	-0.183	-0.317
-577.763	225.341	0.191	-0.309
-576.748	224.290	0.166	0.268
-575.733	619.493	-0.113	-0.283
-574.719	108.132	0.054	0.064
-573.704	800.000	-0.053	0.175
-572.690	52.345	-0.146	0.138
-571.675	-200.000	0.049	0.228
-570.661	-11.067	0.069	-0.045
-569.646	-200.000	-0.005	-0.058
-568.631	-200.000	0.162	0.000
-567.617	-131.754	0.055	-0.007
-566.602	24.782	0.075	0.062
-565.588	-200.000	-0.035	0.269
-564.573	294.420	-0.035	-0.063
-563.558	-55.623	-0.131	0.058
-562.544	62.063	0.195	-0.194
-561.529	689.853	-0.087	-0.226
-560.515	-200.000	0.019	-0.136
-559.500	577.589	-0.074	0.180
-558.485	-3.514	-0.170	0.118
-557.471	239.673	-0.055	-0.091
-556.456	-25.028	0.209	0.123
-555.442	39.498	-0.072	-0.064
-554.427	-0.661	0.082	-0.058
-553.412	-160.277	0.128	0.007
-552.398	153.524	-0.111	0.151
-551.383	800.000	-0.089	-0.374
-550.369	65.381	0.200	0.202
-549.354	800.000	-0.071	0.217
-548.339	800.000	0.047	0.148
-547.325	307.282	0.092	-0.170
-546.310	60.740	0.177	-0.175
-545.296	-80.182	-0.444	-0.148
-544.281	-46.628	0.174	-0.085
-543.266	174.134	-0.185	0.266
-542.252	-200.000	-0.029	-0.336
-541.237	-200.000	-0.070	-0.313
-540.223	552.829	0.181	-0.434
-539.208	800.000	0.019	0.068
-538.193	226.915	-0.164	-0.265
-537.179	734.429	0.062	-0.166
-536.164	173.488	0.219	0.315
-535.150	-121.720	-0.278	0.046
-534.135	40.920	-0.202	-0.181
-533.121	461.765	0.092	0.204
-532.106	-200.000	-0.004	-0.086
-531.091	378.631	-0.100	-0.203
-530.077	-38.842	-0.272	-0.143
-529.062	197.926	0.046	-0.071
-528.048	193.617	0.091	0.138
-527.033	12.582	-0.175	-0.134
-526.018	-200.000	0.006	-0.226
-525.004	800.000	0.069	0.246
-523.989	381.307	-0.114	-0.234
-522.975	132.721	0.184	-0.237
-521.960	-21.485	-0.037	-0.022
-520.945	0.908	-0.133	0.095
-519.931	-77.103	-0.185	0.064
-518.916	35.193	0.222	0.194
-517.902	-150.902	0.165	0.012
-516.887	-200.000	-0.007	0.128
-515.872	361.154	0.063	-0.125
-514.858	180.042	-0.264	-0.385
-513.843	-28.595	0.308	-0.177
-512.829	184.019	-0.101	-0.149
-511.814	-104.135	0.067	0.015
-510.799	-200.000	0.004	-0.081
-509.785	-110.261	-0.082	0.017
-508.770	-200.000	-0.003	-0.226
-507.756	-82.256	-0.089	-0.029
-506.741	-89.154	0.113	-0.033
-505.726	-200.000	-0.008	-0.181
-504.712	-33.469	-0.295	-0.162
-503.697	-4.879	-0.333	0.228
-502.683	-39.372	0.282	0.147
-501.668	41.706	0.031	-0.028
-500.653	438.302	-0.239	-0.517
-499.639	-200.000	-0.054	0.432
-498.624	-15.333	0.180	0.114
-497.610	-182.456	-0.309	-0.006
-496.595	-62.418	-0.170	0.070
-495.581	800.000	-0.103	-0.404
-494.566	1.739	0.187	-0.134
-493.551	-103.127	-0.298	-0.070
-492.537	81.408	-0.209	-0.225
-491.522	-188.645	-0.374	0.005
-490.508	-108.057	0.099	-0.021
-489.493	-123.294	0.212	-0.034
-488.478	-81.745	0.101	-0.033
-487.464	-147.495	0.239	-0.020
-486.449	42.550	-0.111	-0.101
-485.435	-200.000	-0.027	0.150
-484.420	-118.801	0.276	-0.048
-483.405	-125.442	-0.029	0.004
-482.391	800.000	0.012	0.033
-481.376	-55.769	0.099	0.044
-480.362	39.350	0.133	-0.118
-479.347	-168.867	-0.164	-0.006
-478.332	167.221	-0.199	-0.281
-477.318	-138.494	-0.220	0.024
-476.303	46.895	0.110	-0.101
-475.289	155.274	0.053	-0.073
-474.274	-200.000	0.004	0.057
-473.259	205.688	-0.181	-0.280
-472.245	800.000	0.108	-0.427
-471.230	101.008	-0.131	-0.151
-470.216	-79.237	-0.320	-0.108
-469.201	185.047	0.084	0.123
-468.186	800.000	-0.036	-0.103
-467.172	-2.393	0.120	-0.084
-466.157	-42.148	-0.203	0.103
-465.143	-43.871	0.010	0.005
-464.128	63.737	0.147	-0.147
-463.113	800.000	0.069	0.218
-462.099	-186.812	-0.229	0.003
-461.084	-107.590	0.021	-0.004
-460.070	-200.000	-0.011	-0.205
-459.055	-73.575	0.167	-0.060
-458.040	-200.000	0.000	0.175
-457.026	22.783	0.242	-0.197
-456.011	-42.060	-0.083	-0.042
-454.997	1.863	0.077	0.055
-453.982	396.760	-0.051	-0.106
-452.968	79.834	-0.254	0.271
-451.953	-70.428	0.203	-0.076
-450.938	213.448	0.209	0.327
-449.924	-11.663	-0.089	-0.058
-448.909	362.964	0.225	0.449
-447.895	534.052	-0.014	-0.032
-446.880	-12.399	0.183	0.118
-445.865	800.000	0.083	0.287
-444.851	-126.907	-0.083	-0.012
-443.836	-28.404	-0.062	0.036
-442.822	-200.000	0.052	-0.598
-441.807	-66.379	-0.093	-0.037
-440.792	626.861	-0.120	0.300
-439.778	-200.000	-0.032	-0.218
-438.763	-8.304	-0.201	0.134
-437.749	43.378	-0.240	0.217
-436.734	139.552	0.072	-0.095
-435.719	251.544	-0.065	0.110
-434.705	-36.677	-0.303	0.162
-433.690	800.000	-0.093	-0.262
-432.676	-200.000	-0.015	-0.149
-431.661	-115.839	-0.174	-0.032
-430.646	-61.895	-0.106	-0.044
-429.632	-53.878	0.137	0.062
-428.617	-101.171	-0.221	-0.054
-427.603	135.200	0.044	-0.056
-426.588	-200.000	0.005	0.187
-425.573	5.199	0.204	-0.149
-424.559	-47.216	-0.251	0.121
-423.544	686.179	-0.124	-0.321
-422.530	74.630	0.087	0.090
-421.515	-118.874	0.539	0.094
-420.500	-65.188	0.101	0.040
-419.486	-200.000	-0.043	0.326
-418.471	-130.409	0.134	0.018
-417.457	-72.896	-0.103	0.038
-416.442	51.855	-0.180	0.170
-415.428	-46.899	0.646	0.313
-414.413	88.710	0.105	-0.116
-413.398	80.618	0.171	-0.183
-412.384	201.698	-0.149	0.227
-411.369	-200.000	0.028	0.127
-410.355	-200.000	0.005	0.257
-409.340	2.078	-0.091	0.065
-408.325	-200.000	0.005	0.062
-407.311	-200.000	-0.023	0.372
-406.296	48.535	0.400	-0.372
-405.282	533.337	-0.070	-0.165
-404.267	-63.280	0.222	0.090
-403.252	489.934	0.019	-0.044
-402.238	251.706	-0.191	0.322
-401.223	-99.870	-0.108	-0.027
-400.209	-191.962	0.399	0.004
-399.194	-5.396	-0.100	-0.068
-398.179	296.399	0.082	-0.149
-397.165	450.528	-0.191	0.417
-396.150	800.000	0.111	0.309
-395.136	-168.864	-0.385	0.014
-394.121	150.909	-0.137	-0.185
-393.106	15.797	0.198	-0.154
-392.092	-29.339	-0.224	-0.127
-391.077	-69.052	0.163	0.062
-390.063	-200.000	-0.048	-0.353
-389.048	-59.262	-0.105	0.045
-388.033	-45.727	0.135	0.066
-387.019	23.969	-0.216	0.177
-386.004	-1.669	-0.336	0.234
-384.990	-53.839	0.179	-0.081
-383.975	800.000	0.050	-0.161
-382.960	-23.142	-0.300	0.179
-381.946	-158.150	-0.103	-0.006
-380.931	108.458	-0.053	0.063
-379.917	20.579	0.178	0.142
-378.902	800.000	-0.059	-0.252
-377.888	-200.000	0.022	0.273
-376.873	232.157	0.109	-0.177
-375.858	-8.776	0.157	-0.104
-374.844	-48.815	-0.202	0.096
-373.829	127.648	0.094	0.118
-372.815	-200.000	0.004	-0.260
-371.800	-117.951	0.439	0.078
-370.785	-73.621	0.022	-0.008
-369.771	31.449	0.219	0.186
-368.756	-44.515	0.155	-0.077
-367.742	629.310	0.122	0.306
-366.727	-113.237	0.196	-0.038
-365.712	-87.067	0.329	0.099
-364.698	-100.636	-0.114	-0.028
-363.683	57.156	-0.142	0.137
-362.669	240.289	-0.099	0.164
-361.654	170.552	0.084	0.119
-360.639	-199.715	-0.100	0.001
-359.625	85.072	-0.089	0.096
-358.610	-87.351	0.113	-0.034
-357.596	146.662	-0.053	-0.071
-356.581	-0.270	-0.180	-0.126
-355.566	-27.214	0.076	-0.044
-354.552	84.977	0.142	0.154
-353.537	267.116	-0.058	-0.101
-352.523	-200.000	0.042	0.215
-351.508	800.000	0.040	0.128
-350.493	380.232	0.086	-0.174
-349.479	-109.879	0.307	0.064
-348.464	1.743	0.395	0.281
-347.450	217.680	0.199	-0.313
-346.435	-61.340	-0.163	0.068
-345.420	-104.999	-0.306	0.069
-344.406	-124.146	0.120	0.019
-343.391	-154.925	-0.390	0.025
-342.377	288.428	-0.146	-0.262
-341.362	26.649	0.114	-0.095
-340.348	204.922	0.164	0.252
-339.333	31.394	-0.122	-0.104
-338.318	180.472	0.167	-0.242
-337.304	33.134	0.204	0.175
-336.289	476.545	-0.063	0.141
-335.275	-167.622	0.155	0.006
-334.260	-200.000	-0.043	-0.411
-333.245	163.784	-0.170	-0.237
-332.231	140.871	-0.064	0.083
-331.216	-176.000	0.351	0.009
-330.202	-200.000	0.003	-0.033
-329.187	207.346	0.108	-0.166
-328.172	52.708	0.305	0.288
-327.158	618.248	0.050	0.125
-326.143	-200.000	-0.009	-0.138
-325.129	-103.182	-0.083	0.019
-324.114	81.750	-0.177	0.189
-323.099	-126.642	0.148	0.022
-322.085	37.373	-0.296	0.259
-321.070	9.342	-0.222	-0.166
-320.056	-85.641	-0.469	0.144
-319.041	53.693	0.375	0.356
-318.026	256.745	0.034	0.058
-317.012	143.154	-0.067	0.088
-315.997	102.451	-0.025	0.029
-314.983	800.000	-0.045	0.155
-313.968	-148.317	0.074	-0.006
-312.953	-200.000	-0.062	-0.289
-311.939	800.000	0.051	-0.178
-310.924	233.211	-0.157	0.256
-309.910	800.000	-0.039	-0.141
-308.895	-23.004	0.176	-0.105
-307.880	140.830	0.001	-0.002
-306.866	97.593	0.075	-0.085
-305.851	-74.940	0.072	-0.026
-304.837	-92.632	-0.158	-0.044
-303.822	404.105	-0.031	0.064
-302.807	-95.418	-0.343	-0.091
-301.793	0.780	0.296	-0.209
-300.778	143.852	0.238	0.314
-299.764	383.028	0.133	-0.271
-298.749	-96.560	-0.209	0.055
-297.735	-111.997	0.261	-0.052
-296.720	-3.598	0.182	0.125
-295.705	-159.154	0.215	-0.012
-294.691	-200.000	0.003	0.223
-293.676	82.123	0.181	-0.194
-292.662	-65.008	-0.132	-0.053
-291.647	398.020	-0.070	0.145
-290.632	457.345	-0.111	-0.244
-289.618	-27.785	-0.258	0.147
-288.603	42.694	0.121	-0.108
-287.589	324.860	-0.151	-0.284
-286.574	-200.000	-0.044	-0.286
-285.559	-145.411	0.183	-0.016
-284.545	441.719	0.098	-0.212
-283.530	-200.000	-0.035	-0.229
-282.516	-151.662	0.100	0.007
-281.501	-51.048	0.105	-0.049
-280.486	-200.000	0.059	-0.288
-279.472	-200.000	-0.008	-0.286
-278.457	800.000	0.122	0.371
-277.443	-80.851	0.227	-0.074
-276.428	-90.462	-0.245	-0.070
-275.413	800.000	-0.055	0.197
-274.399	279.603	0.091	-0.161
-273.384	800.000	-0.063	0.221
-272.370	42.378	-0.115	-0.103
-271.355	-81.270	0.327	-0.106
-270.340	34.015	-0.236	0.203
-269.326	-200.000	0.007	0.150
-268.311	-129.015	0.303	-0.042
-267.297	-200.000	0.005	0.252
-266.282	6.999	0.217	0.160
-265.267	-69.745	0.293	0.110
-264.253	25.126	0.139	-0.114
-263.238	-150.949	0.385	-0.029
-262.224	-94.626	-0.066	0.018
-261.209	308.061	0.028	-0.051
-260.195	360.888	0.061	0.120
-259.180	-164.011	0.161	-0.007
-258.165	800.000	-0.046	-0.142
-257.151	13.271	-0.100	0.077
-256.136	-7.113	0.273	0.182
-255.122	-163.915	-0.484	-0.022
-254.107	-97.404	0.272	0.070
-253.092	110.049	-0.206	0.243
-252.078	109.615	0.186	0.220
-251.063	-200.000	0.010	0.101
-250.049	-200.000	-0.084	-0.448
-249.034	410.064	0.094	0.197
-248.019	-200.000	-0.035	-0.227
-247.005	22.472	0.139	0.112
-245.990	114.777	-0.086	-0.103
-244.976	-133.781	0.174	-0.021
-243.961	-39.865	0.031	0.016
-242.946	-110.209	0.073	0.015
-241.932	800.000	0.057	0.194
-240.917	-40.490	-0.388	0.198
-239.903	597.081	-0.063	-0.155
-238.888	148.688	-0.191	0.254
-237.873	221.989	-0.046	0.073
-236.859	-49.906	0.074	-0.035
-235.844	12.950	-0.262	-0.200
-234.830	-110.565	0.280	-0.057
-233.815	-167.714	0.077	-0.003
-232.800	22.760	-0.353	0.285
-231.786	99.742	0.102	-0.117
-230.771	-200.000	0.031	0.282
-229.757	-200.000	0.017	-0.106
-228.742	-200.000	0.058	0.252
-227.727	-102.555	0.114	0.027
-226.713	-11.450	-0.315	-0.204
-225.698	-30.219	-0.121	0.068
-224.684	-142.978	-0.108	0.010
-223.669	245.915	-0.037	-0.061
-222.655	-200.000	-0.017	0.340
-221.640	-95.407	0.285	-0.075
-220.625	-44.882	-0.244	-0.120
-219.611	-22.504	-0.260	-0.155
-218.596	-90.556	0.303	-0.086
-217.582	87.006	-0.037	-0.041
-216.567	-147.816	0.362	0.030
-215.552	9.726	0.033	-0.024
-214.538	368.527	0.056	-0.111
-213.523	5.000	-0.203	-0.147
-212.509	126.804	0.274	0.341
-211.494	-108.754	-0.138	-0.029
-210.479	800.000	0.109	-0.354
-209.465	-5.932	0.138	0.093
-208.450	-200.000	0.052	0.248
-207.436	-111.381	-0.347	0.070
-206.421	58.844	0.064	0.062
-205.406	47.127	-0.331	0.303
-204.392	57.645	0.193	0.186
-203.377	-200.000	0.007	-0.140
-202.363	103.438	-0.038	0.044
-201.348	-200.000	0.073	0.364
-200.333	394.654	0.060	-0.124
-199.319	800.000	0.070	0.294
-198.304	-62.609	0.297	-0.121
-197.290	-59.373	-0.312	0.132
-196.275	5.342	-0.326	-0.236
-195.260	800.000	0.057	0.167
-194.246	-161.027	-0.275	0.014
-193.231	706.082	0.054	0.139
-192.217	-146.409	0.323	-0.028
-191.202	254.710	-0.223	0.374
-190.187	-200.000	0.038	0.223
-189.173	-31.161	0.311	-0.172
-188.158	-49.139	-0.101	-0.047
-187.144	-200.000	-0.014	0.093
-186.129	800.000	0.068	0.207
-185.114	800.000	0.041	0.136
-184.100	-85.330	-0.085	0.026
-183.085	-46.192	-0.175	-0.085
-182.071	-170.362	-0.063	-0.002
-181.056	171.262	-0.102	0.144
-180.042	204.532	0.037	-0.057
-179.027	-69.178	-0.354	0.134
-178.012	-32.613	-0.082	0.045
-176.998	-67.246	0.104	0.040
-175.983	-121.212	0.178	0.029
-174.969	-200.000	-0.024	0.105
-173.954	-106.405	0.133	0.029
-172.939	-120.498	0.046	-0.008
-171.925	-90.208	0.333	0.095
-170.910	238.829	0.111	0.181
-169.896	315.743	-0.102	0.188
-168.881	29.917	-0.181	0.151
-167.866	-200.000	0.002	-0.094
-166.852	-117.396	0.336	0.060
-165.837	-59.778	-0.295	-0.124
-164.823	530.734	0.199	-0.462
-163.808	-86.732	-0.342	-0.103
-162.793	-114.107	-0.138	0.026
-161.779	-41.331	0.056	-0.028
-160.764	-200.000	0.049	-0.362
-159.750	-28.832	-0.061	0.034
-158.735	53.877	0.151	0.142
-157.720	-168.190	-0.314	0.012
-156.706	317.482	0.131	-0.244
-155.691	637.471	-0.025	-0.063
-154.677	13.978	-0.136	-0.104
-153.662	-110.580	-0.151	-0.031
-152.647	245.446	-0.048	0.079
-151.633	127.804	0.166	0.207
-150.618	-99.285	0.082	-0.020
-149.604	-200.000	0.076	-0.454
-148.589	-35.416	0.242	0.129
-147.574	-67.378	0.098	-0.038
-146.560	-159.816	0.224	-0.012
-145.545	-123.641	-0.086	0.013
-144.531	296.539	-0.120	0.216
-143.516	800.000	0.086	0.240
-142.502	-149.315	0.013	0.001
-141.487	-7.888	0.411	0.272
-140.472	57.846	0.139	0.134
-139.458	-200.000	-0.020	0.141
-138.443	69.472	-0.106	-0.107
-137.429	800.000	-0.093	0.322
-136.414	-200.000	-0.023	0.125
-135.399	573.557	-0.011	0.026
-134.385	151.641	-0.206	0.275
-133.370	274.870	0.017	0.029
-132.356	-200.000	0.000	-0.039
-131.341	224.060	0.230	-0.364
-130.326	-200.000	-0.064	-0.295
-129.312	175.310	-0.092	-0.130
-128.297	-66.291	-0.276	-0.108
-127.283	-200.000	0.016	-0.256
-126.268	-47.810	0.334	0.159
-125.253	-200.000	-0.007	-0.091
-124.239	-200.000	0.009	-0.139
-123.224	800.000	-0.065	0.243
-122.210	-95.180	0.357	0.094
-121.195	363.597	0.071	0.140
-120.180	251.404	-0.184	0.307
