DTS Sentinel unit serial number:	SN413079Multiplexer serial number:	ORYXHardware model number:	OX4-SRSoftware version number:	ORYX F/W v4.00 Oryx Data Collector v3.7.2.0data status	okinstallation	princeton_trtdifferential loss correction	single-endedforward channel	channel 1reverse channel	N/Adate	2019/09/17time	03:58:35forward acquisition time	60.00reverse acquisition time	0.00gamma	496.2192k internal	0.2324k external	0.2324temperature offset calibration	0.9957default loss term (dB/km)	0.3790temperature slope calibration	1.0000multiplexer offset coefficient	1.0000multiplexer slope coefficient	1.0000fibre end	0.00T internal ref (°C)	29.92T ext. ref 1 (°C)	0.14T ext. ref 2 (°C)	24.42length (m)	temperature (°C)	Stokes	anti-Stokes-747.200	646.588	-0.098	0.254
-746.185	172.031	-0.189	0.275
-745.171	22.079	0.068	-0.056
-744.156	420.207	0.069	0.149
-743.142	40.824	-0.245	0.223
-742.127	634.368	0.119	0.305
-741.112	11.268	-0.105	-0.082
-740.098	-120.876	-0.252	-0.043
-739.083	-92.158	0.108	-0.031
-738.069	-200.000	0.004	0.170
-737.054	800.000	-0.068	0.189
-736.039	-88.750	-0.306	-0.092
-735.025	-82.959	0.208	-0.068
-734.010	-185.206	-0.064	0.001
-732.996	-29.341	-0.210	-0.121
-731.981	104.070	-0.094	0.112
-730.966	800.000	-0.031	-0.113
-729.952	-200.000	0.018	-0.124
-728.937	50.496	0.018	0.017
-727.923	-162.983	-0.286	-0.014
-726.908	-18.083	-0.018	-0.012
-725.894	70.077	0.071	-0.074
-724.879	51.268	0.108	-0.103
-723.864	44.132	-0.263	-0.243
-722.850	-200.000	0.052	-0.559
-721.835	50.928	-0.284	-0.272
-720.821	389.748	0.197	-0.412
-719.806	32.392	0.337	-0.293
-718.791	-200.000	-0.006	-0.318
-717.777	-46.603	-0.306	-0.151
-716.762	103.036	-0.211	-0.249
-715.748	-73.949	0.256	-0.094
-714.733	-83.387	0.198	-0.064
-713.718	20.571	-0.232	-0.189
-712.704	124.451	-0.117	-0.148
-711.689	-46.728	-0.319	-0.157
-710.675	-99.685	-0.350	0.089
-709.660	-71.921	0.374	0.140
-708.645	800.000	0.093	-0.323
-707.631	-200.000	-0.012	-0.126
-706.616	-141.732	0.242	0.025
-705.602	-60.494	0.215	-0.092
-704.587	800.000	-0.061	-0.207
-703.572	-115.109	0.159	-0.030
-702.558	126.350	0.263	-0.335
-701.543	-200.000	-0.264	-0.000
-700.529	800.000	0.093	-0.363
-699.514	-200.000	-0.055	0.338
-698.499	-7.392	-0.200	-0.136
-697.485	-200.000	0.089	0.434
-696.470	-71.904	-0.314	0.118
-695.456	448.825	0.058	0.128
-694.441	-2.920	0.223	0.157
-693.426	-13.927	-0.259	0.169
-692.412	-92.353	-0.131	0.037
-691.397	-103.642	-0.202	-0.048
-690.383	-100.635	0.290	-0.072
-689.368	-131.688	0.374	0.049
-688.354	35.897	-0.218	-0.194
-687.339	-121.563	-0.197	-0.033
-686.324	-37.276	-0.275	0.148
-685.310	-103.010	-0.439	0.105
-684.295	-40.834	-0.159	0.083
-683.281	-143.327	0.259	0.025
-682.266	113.936	-0.139	-0.170
-681.251	331.790	-0.061	0.118
-680.237	52.330	0.059	0.057
-679.222	-179.326	-0.538	0.012
-678.208	39.143	-0.190	0.172
-677.193	800.000	0.098	-0.286
-676.178	-41.910	-0.335	-0.173
-675.164	-84.776	-0.060	0.019
-674.149	-200.000	-0.014	-0.175
-673.135	4.951	-0.280	-0.207
-672.120	-36.931	-0.308	-0.166
-671.105	-200.000	-0.014	-0.236
-670.091	-155.387	0.093	0.006
-669.076	-200.000	-0.046	-0.481
-668.062	43.321	0.171	-0.157
-667.047	49.996	-0.233	0.221
-666.032	112.092	0.189	-0.230
-665.018	-200.000	-0.029	0.197
-664.003	-116.209	0.135	0.025
-662.989	-88.614	0.305	0.091
-661.974	-189.490	0.255	0.003
-660.959	-200.000	-0.015	0.104
-659.945	-138.870	-0.182	0.020
-658.930	126.947	-0.165	0.211
-657.916	800.000	-0.094	0.277
-656.901	-17.224	-0.177	0.112
-655.886	56.749	-0.171	-0.167
-654.872	400.287	-0.111	-0.234
-653.857	-126.081	0.370	-0.056
-652.843	-200.000	0.015	-0.179
-651.828	-200.000	-0.086	-0.445
-650.814	800.000	-0.093	0.287
-649.799	-38.096	-0.069	-0.037
-648.784	488.024	-0.053	0.122
-647.770	125.969	-0.166	0.211
-646.755	4.894	-0.194	-0.143
-645.741	211.204	0.226	-0.358
-644.726	800.000	0.080	-0.253
-643.711	-133.034	-0.237	-0.030
-642.697	-45.148	-0.042	0.021
-641.682	800.000	-0.077	-0.325
-640.668	-135.206	-0.075	-0.009
-639.653	338.386	-0.048	-0.093
-638.638	236.337	0.106	-0.176
-637.624	-11.949	-0.176	-0.116
-636.609	42.595	0.106	0.097
-635.595	-19.268	-0.084	0.052
-634.580	-178.400	0.043	0.001
-633.565	-114.232	0.463	-0.090
-632.551	75.434	-0.142	0.151
-631.536	78.502	-0.125	-0.135
-630.522	51.622	-0.111	-0.107
-629.507	-200.000	-0.010	0.380
-628.492	18.316	0.113	0.091
-627.478	-1.128	-0.250	0.178
-626.463	204.230	-0.049	-0.077
-625.449	345.783	0.134	-0.266
-624.434	43.455	-0.037	-0.034
-623.419	-200.000	-0.014	-0.101
-622.405	-200.000	0.043	-0.255
-621.390	-200.000	-0.018	-0.086
-620.376	512.691	-0.047	0.110
-619.361	-17.138	0.077	0.049
-618.346	-200.000	0.060	-0.413
-617.332	800.000	-0.042	-0.131
-616.317	800.000	-0.066	-0.234
-615.303	15.034	-0.225	-0.177
-614.288	-3.609	-0.162	-0.113
-613.273	-200.000	-0.027	-0.181
-612.259	395.893	0.094	0.196
-611.244	43.170	-0.066	0.061
-610.230	-129.468	0.310	0.043
-609.215	52.265	0.044	0.042
-608.201	-10.153	-0.405	0.270
-607.186	112.705	0.189	0.229
-606.171	490.579	-0.106	0.244
-605.157	-200.000	0.008	0.170
-604.142	-85.545	0.113	-0.035
-603.128	-134.668	-0.287	0.035
-602.113	-154.955	0.178	-0.012
-601.098	261.455	0.098	-0.170
-600.084	223.522	-0.110	0.179
-599.069	220.067	0.098	-0.158
-598.055	633.961	-0.064	0.162
-597.040	800.000	0.049	0.203
-596.025	-48.961	-0.202	-0.097
-595.011	606.025	-0.096	0.240
-593.996	-116.542	-0.101	-0.019
-592.982	-200.000	-0.037	-0.347
-591.967	-85.954	-0.101	-0.031
-590.952	9.158	-0.230	0.174
-589.938	-103.191	0.435	-0.103
-588.923	-200.000	-0.018	-0.093
-587.909	59.024	-0.090	0.089
-586.894	-120.769	0.225	-0.038
-585.879	800.000	-0.085	0.238
-584.865	-32.302	0.272	0.152
-583.850	387.036	0.131	0.272
-582.836	-127.781	0.278	-0.040
-581.821	448.798	0.123	-0.273
-580.806	449.775	0.053	-0.118
-579.792	-52.394	0.258	0.120
-578.777	-81.886	0.373	-0.122
-577.763	-200.000	0.015	-0.339
-576.748	356.660	0.064	-0.128
-575.733	800.000	0.099	0.338
-574.719	-144.627	-0.218	-0.020
-573.704	-140.530	-0.292	0.030
-572.690	-58.578	-0.322	-0.140
-571.675	-123.292	-0.143	0.023
-570.661	-73.178	-0.379	0.139
-569.646	-53.223	-0.168	0.077
-568.631	566.513	-0.199	0.485
-567.617	-122.623	0.208	0.034
-566.602	-118.823	-0.100	-0.018
-565.588	74.819	-0.070	0.074
-564.573	735.725	0.110	0.296
-563.558	579.457	-0.039	-0.096
-562.544	100.935	0.071	-0.083
-561.529	-200.000	0.014	-0.113
-560.515	-98.544	-0.158	0.040
-559.500	-36.513	-0.145	-0.078
-558.485	131.207	0.041	-0.053
-557.471	-104.322	0.129	-0.030
-556.456	297.251	0.193	-0.356
-555.442	-84.542	-0.140	0.044
-554.427	-78.136	0.174	-0.060
-553.412	-73.099	0.059	0.022
-552.398	-1.068	0.210	0.149
-551.383	-200.000	0.026	-0.205
-550.369	800.000	0.044	0.181
-549.354	-97.736	-0.176	0.046
-548.339	-138.470	0.170	0.019
-547.325	-200.000	0.026	-0.189
-546.310	68.839	-0.190	0.196
-545.296	-200.000	0.036	-0.235
-544.281	-111.268	-0.114	0.023
-543.266	61.999	0.291	0.291
-542.252	-103.720	0.155	-0.036
-541.237	-200.000	0.042	0.256
-540.223	-64.349	-0.468	0.191
-539.208	800.000	-0.031	-0.111
-538.193	800.000	0.049	-0.168
-537.179	-200.000	0.049	-0.233
-536.164	522.129	0.120	0.282
-535.150	-200.000	-0.027	-0.274
-534.135	96.353	-0.198	0.226
-533.121	159.678	0.076	0.106
-532.106	738.072	-0.017	0.047
-531.091	-107.849	-0.257	-0.056
-530.077	3.163	-0.154	0.112
-529.062	-48.781	-0.053	0.026
-528.048	85.828	0.091	-0.101
-527.033	-46.487	0.239	0.118
-526.018	145.951	0.152	-0.204
-525.004	-126.915	0.290	0.043
-523.989	-75.765	0.197	0.070
-522.975	0.193	-0.197	0.141
-521.960	45.944	-0.162	-0.150
-520.945	83.081	-0.200	0.218
-519.931	309.390	-0.105	0.197
-518.916	-126.586	0.139	0.021
-517.902	-128.401	-0.026	0.004
-516.887	-135.148	-0.328	0.039
-515.872	-200.000	0.006	-0.043
-514.858	40.944	-0.205	0.185
-513.843	-63.070	0.127	-0.053
-512.829	-200.000	-0.002	-0.080
-511.814	-126.526	-0.384	0.057
-510.799	800.000	-0.062	-0.213
-509.785	226.106	0.100	-0.163
-508.770	-53.080	-0.114	-0.053
-507.756	-142.766	0.062	-0.006
-506.741	37.877	0.241	-0.214
-505.726	-156.403	0.109	-0.007
-504.712	43.708	0.144	0.131
-503.697	17.939	-0.122	0.097
-502.683	-22.913	0.093	0.056
-501.668	9.684	-0.474	-0.359
-500.653	-200.000	0.034	0.236
-499.639	-200.000	0.008	0.171
-498.624	7.001	0.174	0.130
-497.610	21.101	-0.105	-0.085
-496.595	-72.557	-0.225	-0.083
-495.581	206.655	0.155	-0.241
-494.566	-43.514	-0.356	0.180
-493.551	35.106	-0.265	0.232
-492.537	-200.000	-0.033	-0.191
-491.522	800.000	-0.040	-0.166
-490.508	-90.618	-0.214	-0.062
-489.493	800.000	0.077	-0.293
-488.478	-200.000	-0.024	0.144
-487.464	38.995	0.061	-0.054
-486.449	-24.688	-0.105	0.063
-485.435	52.728	0.082	0.078
-484.420	-48.178	0.076	-0.037
-483.405	88.283	0.182	-0.202
-482.391	-200.000	0.004	-0.325
-481.376	800.000	-0.118	-0.374
-480.362	78.721	0.129	-0.138
-479.347	87.348	0.117	-0.130
-478.332	-34.325	0.157	-0.086
-477.318	-200.000	-0.001	-0.107
-476.303	112.136	-0.197	-0.237
-475.289	32.780	-0.078	-0.068
-474.274	-163.604	-0.168	-0.008
-473.259	333.226	0.096	-0.185
-472.245	245.162	-0.060	0.101
-471.230	-200.000	-0.002	0.014
-470.216	-59.625	0.247	-0.106
-469.201	218.017	0.047	0.075
-468.186	-131.986	-0.231	0.030
-467.172	340.241	0.065	0.126
-466.157	7.731	-0.099	0.074
-465.143	800.000	0.083	0.321
-464.128	-46.057	-0.254	-0.125
-463.113	-55.550	-0.274	0.123
-462.099	73.291	0.167	0.175
-461.084	-200.000	-0.033	-0.389
-460.070	-200.000	-0.011	-0.253
-459.055	-10.712	-0.137	0.090
-458.040	-119.235	0.077	-0.013
-457.026	108.125	-0.275	0.327
-456.011	-200.000	0.018	0.225
-454.997	-136.924	0.311	-0.036
-453.982	261.030	0.060	-0.104
-452.968	145.407	0.276	-0.369
-451.953	-95.615	0.145	-0.039
-450.938	-43.801	0.246	0.123
-449.924	152.834	-0.128	0.175
-448.909	800.000	-0.129	-0.439
-447.895	-200.000	0.020	-0.288
-446.880	800.000	-0.135	-0.478
-445.865	45.249	-0.014	0.013
-444.851	-53.360	0.309	0.141
-443.836	123.109	0.100	-0.125
-442.822	-200.000	0.017	-0.151
-441.807	81.712	-0.144	0.155
-440.792	-200.000	-0.003	0.308
-439.778	30.582	-0.140	-0.119
-438.763	-54.603	0.228	0.103
-437.749	800.000	-0.083	0.275
-436.734	-200.000	-0.053	-0.238
-435.719	-182.787	0.373	-0.007
-434.705	33.022	-0.211	0.183
-433.690	19.807	0.402	0.323
-432.676	-119.442	-0.115	-0.020
-431.661	-31.783	0.215	-0.120
-430.646	-200.000	-0.022	0.374
-429.632	33.694	0.044	0.039
-428.617	161.781	-0.203	0.283
-427.603	-28.646	-0.332	-0.191
-426.588	800.000	-0.114	-0.374
-425.573	-111.559	-0.102	0.021
-424.559	-156.287	-0.164	0.010
-423.544	-22.935	-0.272	-0.164
-422.530	356.013	-0.068	-0.134
-421.515	-200.000	0.011	-0.071
-420.500	5.874	0.259	0.191
-419.486	25.977	-0.039	-0.032
-418.471	346.291	-0.063	-0.123
-417.457	-115.093	0.145	-0.028
-416.442	-126.298	-0.114	-0.017
-415.428	-200.000	0.003	-0.060
-414.413	94.429	-0.185	0.210
-413.398	-182.961	-0.144	-0.003
-412.384	521.370	0.186	0.436
-411.369	12.600	-0.051	0.039
-410.355	-100.754	0.257	-0.063
-409.340	-200.000	0.037	-0.340
-408.325	-57.480	-0.129	-0.056
-407.311	551.796	0.022	-0.053
-406.296	73.795	0.168	0.176
-405.282	-39.779	-0.197	-0.103
-404.267	6.130	0.158	0.117
-403.252	-175.377	0.290	-0.008
-402.238	90.071	0.117	0.130
-401.223	800.000	-0.036	-0.099
-400.209	0.943	-0.097	-0.069
-399.194	-74.802	0.367	-0.131
-398.179	-200.000	0.017	0.171
-397.165	347.689	-0.114	-0.223
-396.150	-16.112	0.174	-0.110
-395.136	-175.118	0.095	0.003
-394.121	-200.000	0.018	0.264
-393.106	729.357	0.068	-0.180
-392.092	-200.000	0.035	0.211
-391.077	11.621	-0.057	0.044
-390.063	-200.000	-0.035	-0.174
-389.048	-7.500	0.165	-0.111
-388.033	390.430	-0.014	-0.030
-387.019	46.248	0.035	-0.032
-386.004	15.791	0.176	0.138
-384.990	126.653	0.107	0.135
-383.975	-200.000	0.003	-0.050
-382.960	800.000	0.051	-0.151
-381.946	-200.000	0.024	-0.437
-380.931	-52.049	-0.166	0.077
-379.917	-57.029	-0.014	0.006
-378.902	-200.000	0.016	-0.208
-377.888	-66.281	0.030	0.012
-376.873	50.866	0.236	0.223
-375.858	-126.015	-0.181	0.027
-374.844	537.510	-0.081	0.191
-373.829	-198.708	0.136	0.001
-372.815	59.912	0.123	-0.121
-371.800	41.776	-0.125	-0.113
-370.785	-200.000	-0.020	0.240
-369.771	-45.052	0.088	-0.044
-368.756	-115.884	-0.199	0.037
-367.742	-103.730	0.243	0.057
-366.727	-74.859	-0.391	-0.139
-365.712	14.825	0.048	0.037
-364.698	73.319	-0.190	0.198
-363.683	-92.929	-0.098	0.027
-362.669	116.506	0.105	0.128
-361.654	-200.000	-0.024	-0.163
-360.639	140.817	0.132	0.174
-359.625	-10.101	0.172	-0.114
-358.610	56.411	-0.138	0.133
-357.596	604.563	0.108	0.268
-356.581	-155.502	0.194	0.012
-355.566	46.269	-0.059	-0.055
-354.552	-200.000	0.012	-0.073
-353.537	-200.000	-0.021	-0.220
-352.523	-80.422	0.282	0.094
-351.508	165.410	0.111	0.156
-350.493	13.827	0.044	0.034
-349.479	220.289	0.148	0.235
-348.464	-67.547	0.087	-0.034
-347.450	-135.702	0.335	0.040
-346.435	20.098	0.040	0.032
-345.420	800.000	-0.045	-0.153
-344.406	-18.102	-0.218	0.136
-343.391	-15.351	0.155	0.099
-342.377	677.380	-0.075	0.194
-341.362	325.260	0.109	0.208
-340.348	150.982	-0.168	-0.226
-339.333	72.325	0.148	0.153
-338.318	253.382	0.086	-0.146
-337.304	137.439	-0.179	-0.233
-336.289	752.643	0.059	-0.159
-335.275	74.162	-0.154	0.161
-334.260	217.035	0.029	-0.046
-333.245	-105.176	-0.122	-0.028
-332.231	-83.747	0.075	-0.024
-331.216	-78.294	0.250	-0.085
-330.202	37.531	0.082	-0.072
-329.187	800.000	0.040	-0.130
-328.172	-1.784	-0.169	0.118
-327.158	65.250	-0.191	-0.192
-326.143	-52.216	0.086	-0.040
-325.129	-174.332	0.212	-0.006
-324.114	-64.548	0.088	0.036
-323.099	97.415	0.081	0.092
-322.085	7.038	0.286	0.212
-321.070	-23.166	-0.262	0.157
-320.056	-134.946	0.270	-0.032
-319.041	236.988	0.110	0.180
-318.026	25.949	0.299	-0.248
-317.012	-200.000	0.000	-0.286
-315.997	216.691	-0.174	-0.275
-314.983	364.013	-0.250	-0.499
-313.968	238.831	-0.303	-0.500
-312.953	341.774	-0.135	-0.262
-311.939	-120.172	0.349	-0.059
-310.924	-200.000	0.031	0.373
-309.910	-39.538	0.168	0.087
-308.895	112.268	0.156	0.187
-307.880	800.000	0.065	0.214
-306.866	398.145	-0.044	0.090
-305.851	-63.553	0.151	-0.062
-304.837	800.000	-0.103	-0.298
-303.822	-166.880	0.147	-0.006
-302.807	106.318	-0.083	0.098
-301.793	7.482	0.117	-0.087
-300.778	-114.719	0.130	-0.025
-299.764	-125.231	0.285	0.043
-298.749	800.000	0.063	0.272
-297.735	-144.563	0.166	-0.015
-296.720	163.759	-0.164	0.229
-295.705	24.001	-0.101	0.083
-294.691	74.634	0.162	0.169
-293.676	24.606	-0.224	-0.184
-292.662	-21.890	-0.090	-0.054
-291.647	-151.443	-0.149	0.011
-290.632	54.989	-0.143	-0.137
-289.618	402.365	0.164	0.342
-288.603	72.100	-0.191	0.197
-287.589	-89.172	0.184	0.054
-286.574	428.456	-0.193	-0.414
-285.559	-86.560	0.194	0.059
-284.545	539.439	0.126	0.298
-283.530	-135.552	-0.092	0.011
-282.516	-5.468	-0.196	-0.133
-281.501	112.704	0.228	-0.273
-280.486	55.814	-0.093	-0.090
-279.472	-200.000	0.003	0.061
-278.457	800.000	0.126	-0.416
-277.443	-40.049	-0.255	0.132
-276.428	-73.330	-0.201	-0.073
-275.413	86.796	-0.263	0.288
-274.399	-93.699	-0.238	-0.065
-273.384	-200.000	0.023	-0.173
-272.370	-200.000	-0.009	0.119
-271.355	800.000	-0.065	0.215
-270.340	128.797	0.194	-0.246
-269.326	-76.962	0.302	-0.105
-268.311	130.544	-0.259	-0.328
-267.297	-74.534	-0.100	0.036
-266.282	-200.000	-0.005	-0.053
-265.267	17.819	-0.146	-0.116
-264.253	230.064	-0.037	-0.059
-263.238	-9.374	-0.081	-0.054
-262.224	366.478	-0.150	0.299
-261.209	283.605	0.114	-0.203
-260.195	39.531	0.215	0.191
-259.180	424.857	0.050	0.107
-258.165	800.000	-0.060	-0.169
-257.151	-30.003	-0.122	-0.069
-256.136	51.759	0.159	-0.150
-255.122	-16.551	-0.090	0.056
-254.107	555.932	0.073	0.173
-253.092	-121.511	-0.116	-0.019
-252.078	-200.000	0.007	0.118
-251.063	-1.564	-0.096	0.067
-250.049	-68.901	-0.097	0.037
-249.034	446.422	0.070	0.153
-248.019	-200.000	0.001	-0.483
-247.005	-3.605	-0.144	0.099
-245.990	180.531	-0.041	0.059
-244.976	-82.790	0.217	0.070
-243.961	-17.642	0.082	0.051
-242.946	161.680	-0.094	0.130
-241.932	800.000	-0.048	0.203
-240.917	800.000	0.046	-0.133
-239.903	-78.921	-0.192	-0.065
-238.888	800.000	-0.033	-0.126
-237.873	-75.726	-0.214	-0.075
-236.859	-25.734	-0.082	0.048
-235.844	800.000	0.116	0.328
-234.830	166.631	-0.194	0.272
-233.815	800.000	-0.085	0.347
-232.800	-200.000	-0.017	0.177
-231.786	-200.000	-0.023	0.383
-230.771	-200.000	0.021	0.176
-229.757	142.675	-0.147	-0.193
-228.742	-20.915	0.110	0.066
-227.727	-200.000	-0.011	-0.134
-226.713	347.627	-0.080	0.156
-225.698	219.790	0.123	0.194
-224.684	110.624	-0.059	0.070
-223.669	-66.184	0.194	0.076
-222.655	-56.882	-0.273	0.119
-221.640	406.610	0.089	-0.187
-220.625	-154.597	-0.251	-0.017
-219.611	-200.000	-0.006	0.132
-218.596	108.287	-0.103	0.122
-217.582	348.217	-0.085	-0.166
-216.567	-200.000	0.006	-0.061
-215.552	-34.691	-0.161	0.087
-214.538	177.727	0.092	0.132
-213.523	-16.844	-0.141	0.088
-212.509	-72.238	-0.300	-0.110
-211.494	-20.886	0.160	0.097
-210.479	-195.627	-0.407	0.003
-209.465	-96.855	-0.168	-0.043
-208.450	-200.000	0.029	0.200
-207.436	467.157	0.051	0.114
-206.421	-200.000	-0.014	0.119
-205.406	107.559	0.163	0.191
-204.392	-200.000	-0.006	0.294
-203.377	-44.270	-0.102	0.050
-202.363	194.257	-0.233	-0.350
-201.348	14.010	0.129	0.099
-200.333	-61.325	0.234	0.097
-199.319	800.000	0.030	0.118
-198.304	375.637	-0.118	-0.237
-197.290	17.056	-0.409	0.320
-196.275	95.400	0.028	0.032
-195.260	331.254	-0.196	0.374
-194.246	800.000	-0.066	0.198
-193.231	376.847	0.203	-0.410
-192.217	205.788	-0.196	0.302
-191.202	111.085	0.150	-0.179
-190.187	166.837	0.096	-0.134
-189.173	-73.204	0.182	-0.066
-188.158	800.000	-0.056	-0.232
-187.144	-156.327	0.219	0.014
-186.129	-200.000	0.012	-0.192
-185.114	-175.176	-0.077	0.002
-184.100	215.181	0.146	-0.229
-183.085	510.220	-0.078	0.178
-182.071	-41.368	0.179	-0.091
-181.056	253.697	-0.135	-0.227
-180.042	-200.000	0.012	-0.093
-179.027	-119.306	0.088	-0.015
-178.012	-31.013	-0.213	0.119
-176.998	-200.000	0.009	-0.202
-175.983	-200.000	0.022	-0.284
-174.969	-116.553	0.265	-0.048
-173.954	-128.013	0.114	0.016
-172.939	-200.000	0.016	-0.360
-171.925	129.920	-0.027	0.034
-170.910	-22.023	0.244	0.146
-169.896	-166.483	-0.080	-0.003
-168.881	-200.000	-0.001	-0.055
-167.866	136.053	0.274	0.352
-166.852	-200.000	-0.083	0.451
-165.837	-200.000	-0.014	0.133
-164.823	-57.889	0.224	-0.096
-163.808	-155.201	0.207	0.013
-162.793	-124.224	0.049	0.008
-161.779	14.215	0.291	-0.224
-160.764	-112.836	0.292	-0.057
-159.750	219.163	-0.115	-0.181
-158.735	434.907	0.027	0.059
-157.720	-200.000	-0.014	0.081
-156.706	249.966	-0.097	-0.162
-155.691	-200.000	-0.023	0.406
-154.677	-200.000	-0.001	0.159
-153.662	-123.818	0.199	0.031
-152.647	662.268	0.127	0.322
-151.633	110.705	0.136	0.162
-150.618	225.181	0.115	0.184
-149.604	217.663	-0.184	0.289
-148.589	-200.000	-0.039	0.255
-147.574	-82.668	-0.161	0.051
-146.560	109.012	0.209	-0.247
-145.545	7.385	0.192	0.142
-144.531	-143.037	0.114	-0.011
-143.516	800.000	-0.036	0.125
-142.502	800.000	0.026	-0.114
-141.487	702.178	0.084	-0.217
-140.472	-36.323	-0.199	-0.106
-139.458	-58.467	-0.164	0.070
-138.443	-44.948	-0.343	0.168
-137.429	800.000	0.059	-0.183
-136.414	68.030	0.191	0.192
-135.399	-200.000	0.031	0.163
-134.385	-13.549	0.219	-0.140
-133.370	-39.809	-0.212	-0.109
-132.356	-71.881	-0.131	0.048
-131.341	-57.514	0.149	0.064
-130.326	-58.698	0.214	0.091
-129.312	383.606	0.066	0.134
-128.297	4.041	-0.060	-0.043
-127.283	446.570	0.092	0.200
-126.268	-21.557	-0.168	-0.101
-125.253	1.657	-0.119	-0.085
-124.239	-177.493	-0.467	-0.011
-123.224	318.240	-0.090	0.168
-122.210	51.463	-0.175	-0.164
-121.195	-86.880	0.228	-0.068
