DTS Sentinel unit serial number:	SN413079Multiplexer serial number:	ORYXHardware model number:	OX4-SRSoftware version number:	ORYX F/W v4.00 Oryx Data Collector v3.7.2.0data status	okinstallation	princeton_trtdifferential loss correction	single-endedforward channel	channel 1reverse channel	N/Adate	2019/09/12time	14:08:11forward acquisition time	60.00reverse acquisition time	0.00gamma	496.2192k internal	0.2294k external	0.2294temperature offset calibration	1.0060default loss term (dB/km)	0.3790temperature slope calibration	1.0000multiplexer offset coefficient	1.0000multiplexer slope coefficient	1.0000fibre end	0.00T internal ref (°C)	40.37T ext. ref 1 (°C)	2.21T ext. ref 2 (°C)	35.51length (m)	temperature (°C)	Stokes	anti-Stokes-747.200	1.634	0.105	-0.077
-746.185	327.775	-0.251	0.492
-745.171	-102.082	0.174	0.043
-744.156	159.571	0.264	0.376
-743.142	-7.731	-0.205	-0.141
-742.127	800.000	0.109	0.337
-741.112	-146.627	-0.360	0.032
-740.098	-200.000	-0.046	0.943
-739.083	162.102	-0.128	0.183
-738.069	83.434	-0.138	0.153
-737.054	16.684	-0.218	0.176
-736.039	-19.514	0.137	0.087
-735.025	-75.152	0.167	-0.061
-734.010	-28.307	0.250	-0.148
-732.996	800.000	-0.081	0.278
-731.981	120.796	-0.161	0.204
-730.966	-48.292	0.028	-0.014
-729.952	-159.597	-0.245	0.014
-728.937	-53.132	0.055	-0.026
-727.923	-158.705	-0.430	0.025
-726.908	-85.967	-0.149	-0.047
-725.894	74.935	-0.144	-0.155
-724.879	-200.000	-0.096	0.531
-723.864	-101.411	-0.222	-0.055
-722.850	-174.503	0.297	-0.009
-721.835	-200.000	0.007	0.245
-720.821	-99.746	-0.368	-0.094
-719.806	338.650	-0.121	-0.240
-718.791	-31.832	0.235	-0.134
-717.777	-200.000	0.143	0.000
-716.762	-200.000	-0.033	-0.202
-715.748	-6.764	-0.095	-0.066
-714.733	362.718	0.131	0.268
-713.718	729.169	0.104	0.285
-712.704	-200.000	-0.027	-0.134
-711.689	-82.892	0.435	-0.144
-710.675	-5.350	0.271	0.190
-709.660	-1.778	-0.156	-0.112
-708.645	-200.000	-0.005	0.054
-707.631	-54.352	0.315	-0.146
-706.616	13.982	-0.098	-0.078
-705.602	695.774	0.177	-0.474
-704.587	-54.267	-0.444	-0.206
-703.572	-62.710	0.120	0.051
-702.558	-200.000	-0.008	0.125
-701.543	62.721	-0.248	-0.254
-700.529	-64.105	-0.090	-0.038
-699.514	17.894	-0.315	-0.256
-698.499	53.716	0.190	-0.186
-697.485	-129.983	0.338	-0.047
-696.470	6.061	0.206	-0.156
-695.456	793.114	0.076	-0.214
-694.441	-63.981	-0.029	-0.012
-693.426	92.466	0.173	0.199
-692.412	-200.000	0.056	0.584
-691.397	-177.300	-0.245	0.006
-690.383	15.647	-0.129	0.103
-689.368	-104.250	-0.581	0.138
-688.354	-200.000	-0.003	0.282
-687.339	-157.470	-0.269	-0.017
-686.324	-81.167	-0.127	0.043
-685.310	282.106	0.188	0.343
-684.295	341.609	-0.064	-0.127
-683.281	-41.883	0.281	-0.147
-682.266	180.667	0.267	0.399
-681.251	-61.246	0.117	0.050
-680.237	-91.876	-0.227	-0.066
-679.222	385.570	0.146	-0.307
-678.208	-200.000	0.129	-0.594
-677.193	310.220	0.071	-0.135
-676.178	-200.000	-0.008	0.053
-675.164	-200.000	-0.038	-0.219
-674.149	800.000	0.100	0.326
-673.135	-100.077	0.167	0.043
-672.120	-144.386	-0.341	0.032
-671.105	27.553	0.237	0.203
-670.091	778.598	-0.079	-0.220
-669.076	135.426	-0.095	0.127
-668.062	188.752	0.023	-0.035
-667.047	-18.594	0.147	-0.093
-666.032	621.987	-0.073	-0.189
-665.018	-200.000	-0.032	0.155
-664.003	438.590	0.166	-0.370
-662.989	-47.783	-0.143	0.071
-661.974	-26.836	0.103	0.061
-660.959	-35.570	-0.325	0.180
-659.945	-44.751	0.105	0.053
-658.930	774.513	-0.128	0.355
-657.916	-144.648	0.242	0.023
-656.901	355.835	0.070	-0.142
-655.886	-200.000	0.047	-0.241
-654.872	278.300	0.091	-0.166
-653.857	105.592	-0.463	-0.558
-652.843	676.272	-0.057	-0.152
-651.828	-29.481	-0.178	-0.104
-650.814	-12.307	0.664	-0.443
-649.799	502.054	-0.094	-0.222
-648.784	104.195	-0.124	0.148
-647.770	-144.160	-0.166	0.016
-646.755	94.181	0.103	-0.120
-645.741	14.198	0.064	0.051
-644.726	-200.000	0.009	-0.042
-643.711	63.832	0.148	0.152
-642.697	-200.000	0.006	-0.140
-641.682	-100.598	-0.329	0.083
-640.668	-152.693	-0.095	-0.007
-639.653	-185.397	-0.176	-0.003
-638.638	-200.000	-0.004	-0.299
-637.624	221.105	0.224	-0.367
-636.609	-6.911	-0.243	-0.168
-635.595	-200.000	0.031	-0.178
-634.580	-43.584	0.200	-0.103
-633.565	553.247	-0.067	-0.164
-632.551	32.667	0.200	0.176
-631.536	-200.000	-0.003	0.192
-630.522	141.553	0.086	0.116
-629.507	-39.581	-0.131	-0.070
-628.492	156.419	0.061	0.086
-627.478	747.335	0.022	-0.059
-626.463	-33.835	-0.126	0.071
-625.449	437.293	0.094	0.210
-624.434	-134.448	0.637	-0.079
-623.419	367.103	0.171	0.351
-622.405	-200.000	-0.007	0.070
-621.390	492.583	-0.029	-0.067
-620.376	169.121	-0.075	0.109
-619.361	45.246	-0.150	0.140
-618.346	198.364	-0.168	-0.262
-617.332	595.389	0.063	-0.159
-616.317	-131.442	-0.092	0.012
-615.303	-200.000	-0.038	-0.257
-614.288	48.669	-0.128	-0.122
-613.273	-200.000	-0.029	0.159
-612.259	117.107	0.015	-0.019
-611.244	260.180	0.069	0.121
-610.230	24.856	0.193	0.163
-609.215	37.870	-0.249	-0.225
-608.201	800.000	-0.067	0.233
-607.186	-128.800	-0.308	-0.044
-606.171	92.165	0.064	0.073
-605.157	16.873	0.028	-0.022
-604.142	-119.943	-0.311	-0.054
-603.128	291.382	0.067	0.125
-602.113	260.881	0.054	0.095
-601.098	102.110	0.210	0.249
-600.084	-200.000	0.000	-0.040
-599.069	-54.745	0.184	-0.085
-598.055	-164.824	-0.331	0.015
-597.040	221.672	0.143	-0.234
-596.025	-200.000	0.002	0.076
-595.011	-96.428	-0.096	0.026
-593.996	-82.140	-0.135	0.045
-592.982	16.022	0.264	-0.212
-591.967	-57.096	0.244	0.109
-590.952	-87.632	0.141	-0.043
-589.938	-200.000	0.011	0.151
-588.923	-200.000	-0.022	-0.132
-587.909	-200.000	-0.090	-0.502
-586.894	-38.680	0.104	-0.056
-585.879	-126.149	0.157	0.024
-584.865	800.000	0.015	0.041
-583.850	-10.262	-0.210	-0.142
-582.836	64.897	-0.131	0.134
-581.821	120.488	-0.077	0.097
-580.806	16.305	-0.405	-0.324
-579.792	-100.025	0.072	0.018
-578.777	627.654	0.121	-0.310
-577.763	-200.000	-0.009	0.097
-576.748	-145.327	0.124	0.011
-575.733	-200.000	0.039	-0.476
-574.719	800.000	-0.033	-0.092
-573.704	-164.601	-0.478	-0.022
-572.690	-104.325	-0.511	0.120
-571.675	-111.134	0.219	-0.046
-570.661	140.128	-0.144	-0.193
-569.646	-25.544	-0.090	-0.054
-568.631	30.946	0.072	-0.063
-567.617	446.337	-0.135	-0.302
-566.602	-104.275	-0.208	-0.049
-565.588	489.195	-0.055	0.129
-564.573	157.106	0.092	0.130
-563.558	800.000	0.046	0.186
-562.544	172.466	-0.112	-0.163
-561.529	-36.109	0.039	0.021
-560.515	43.868	-0.155	0.144
-559.500	138.077	-0.073	0.097
-558.485	348.304	0.081	0.161
-557.471	-17.025	-0.241	-0.154
-556.456	-87.096	-0.087	-0.027
-555.442	-85.958	-0.349	-0.110
-554.427	-44.306	0.045	0.023
-553.412	800.000	0.071	-0.249
-552.398	-81.321	0.301	-0.101
-551.383	-110.310	-0.242	-0.051
-550.369	-61.957	-0.084	-0.036
-549.354	532.306	-0.126	0.303
-548.339	210.666	0.042	-0.068
-547.325	800.000	0.083	0.315
-546.310	135.852	0.026	-0.034
-545.296	800.000	0.056	0.208
-544.281	-109.750	-0.036	-0.008
-543.266	112.040	-0.056	-0.069
-542.252	57.032	-0.054	0.053
-541.237	39.019	0.116	0.105
-540.223	-105.292	0.368	0.085
-539.208	34.813	-0.100	-0.088
-538.193	53.301	-0.166	0.161
-537.179	189.993	0.088	0.133
-536.164	-119.867	-0.233	-0.041
-535.150	-163.469	-0.224	0.011
-534.135	-200.000	0.012	0.082
-533.121	-66.161	-0.245	-0.099
-532.106	-200.000	-0.002	-0.357
-531.091	-76.222	0.238	0.085
-530.077	800.000	-0.145	0.419
-529.062	-119.923	0.188	0.033
-528.048	-181.683	-0.299	-0.006
-527.033	0.990	-0.294	0.214
-526.018	637.552	-0.029	0.075
-525.004	-105.973	0.067	0.015
-523.989	-4.755	-0.102	-0.071
-522.975	-71.454	-0.290	-0.110
-521.960	-200.000	0.004	-0.235
-520.945	-200.000	0.017	0.232
-519.931	585.094	-0.101	-0.252
-518.916	100.609	0.038	0.045
-517.902	-169.881	-0.365	0.013
-516.887	800.000	-0.020	0.087
-515.872	162.170	-0.227	-0.322
-514.858	-66.351	-0.158	-0.064
-513.843	-200.000	0.059	0.291
-512.829	192.089	0.147	-0.225
-511.814	611.416	0.069	0.174
-510.799	-93.387	-0.142	-0.040
-509.785	-108.111	-0.053	0.012
-508.770	-129.007	0.238	-0.034
-507.756	102.246	0.268	0.318
-506.741	800.000	-0.032	0.135
-505.726	-200.000	-0.089	0.479
-504.712	-81.892	-0.171	-0.057
-503.697	-14.443	-0.032	-0.021
-502.683	667.697	0.044	-0.116
-501.668	117.724	-0.197	0.245
-500.653	-163.202	0.182	0.009
-499.639	205.824	0.145	-0.228
-498.624	800.000	0.094	-0.296
-497.610	800.000	-0.007	0.026
-496.595	-182.248	-0.214	-0.004
-495.581	800.000	-0.077	-0.226
-494.566	-200.000	0.035	0.208
-493.551	215.513	0.076	-0.122
-492.537	-14.757	0.317	-0.206
-491.522	17.243	0.181	-0.145
-490.508	-200.000	-0.018	-0.159
-489.493	-87.013	0.288	-0.089
-488.478	-65.727	0.168	-0.068
-487.464	-21.932	-0.249	0.153
-486.449	-36.146	0.237	0.129
-485.435	-138.133	-0.224	0.025
-484.420	-45.678	-0.061	0.031
-483.405	-88.272	0.161	0.049
-482.391	-119.894	-0.208	0.036
-481.376	60.534	0.104	0.104
-480.362	800.000	-0.041	0.123
-479.347	-200.000	-0.060	0.409
-478.332	800.000	-0.043	0.189
-477.318	-59.010	0.288	0.126
-476.303	-75.021	0.108	-0.039
-475.289	251.955	-0.154	-0.265
-474.274	-200.000	0.048	-0.240
-473.259	-200.000	-0.021	0.185
-472.245	-73.410	-0.359	0.133
-471.230	108.750	0.054	-0.065
-470.216	-66.033	0.130	0.053
-469.201	-98.640	0.211	-0.055
-468.186	-200.000	-0.061	-0.315
-467.172	800.000	-0.052	-0.209
-466.157	566.925	0.140	-0.344
-465.143	54.007	0.055	0.054
-464.128	-148.876	0.154	0.013
-463.113	-200.000	-0.006	0.199
-462.099	337.188	-0.187	0.367
-461.084	-115.174	-0.078	0.015
-460.070	-75.276	0.236	0.085
-459.055	271.077	0.110	-0.196
-458.040	94.694	-0.139	-0.160
-457.026	-3.907	0.092	-0.065
-456.011	13.804	-0.120	-0.095
-454.997	-15.820	0.209	0.135
-453.982	-138.244	0.391	-0.044
-452.968	800.000	-0.039	0.119
-451.953	800.000	0.040	-0.145
-450.938	-148.820	-0.309	0.025
-449.924	467.696	0.076	0.173
-448.909	27.901	-0.297	-0.253
-447.895	-35.916	-0.249	-0.136
-446.880	-200.000	-0.070	-0.356
-445.865	-200.000	-0.013	-0.117
-444.851	-15.108	-0.160	-0.104
-443.836	26.750	-0.235	-0.199
-442.822	622.648	-0.072	-0.183
-441.807	119.093	0.124	0.155
-440.792	-200.000	-0.007	-0.087
-439.778	454.417	-0.128	0.286
-438.763	20.069	0.107	-0.087
-437.749	-200.000	0.009	-0.045
-436.734	-59.685	-0.075	0.032
-435.719	-100.884	-0.349	-0.087
-434.705	58.711	0.368	0.366
-433.690	58.143	0.232	0.230
-432.676	-126.727	0.213	0.032
-431.661	92.251	-0.147	-0.168
-430.646	-200.000	-0.004	-0.082
-429.632	-200.000	-0.025	-0.138
-428.617	71.596	-0.345	0.362
-427.603	73.650	0.021	-0.022
-426.588	-200.000	0.053	0.295
-425.573	166.380	-0.168	-0.241
-424.559	800.000	-0.049	0.168
-423.544	-200.000	-0.008	0.436
-422.530	26.703	-0.176	0.149
-421.515	174.894	-0.119	0.175
-420.500	753.729	-0.129	0.353
-419.486	-148.089	0.152	0.013
-418.471	-66.507	-0.059	-0.024
-417.457	92.265	0.191	0.217
-416.442	-46.286	-0.374	0.186
-415.428	7.251	-0.197	-0.148
-414.413	-11.296	0.359	-0.239
-413.398	705.727	-0.064	0.170
-412.384	-82.620	-0.183	0.060
-411.369	800.000	-0.092	0.365
-410.355	182.013	-0.126	-0.188
-409.340	-51.717	0.339	0.159
-408.325	-200.000	-0.007	-0.055
-407.311	800.000	-0.078	-0.344
-406.296	-200.000	0.078	0.396
-405.282	-200.000	0.057	-0.277
-404.267	185.641	0.144	0.216
-403.252	206.597	-0.150	0.236
-402.238	386.851	0.025	-0.052
-401.223	672.136	-0.116	-0.303
-400.209	800.000	-0.067	0.226
-399.194	-95.335	-0.343	0.093
-398.179	-200.000	-0.028	-0.207
-397.165	474.743	-0.017	-0.040
-396.150	-1.263	-0.101	0.072
-395.136	213.990	0.191	-0.305
-394.121	-9.730	-0.318	0.214
-393.106	314.913	-0.092	-0.175
-392.092	73.578	-0.126	-0.133
-391.077	64.050	0.162	-0.164
-390.063	-128.014	-0.136	0.020
-389.048	53.402	-0.246	-0.238
-388.033	-200.000	0.037	-0.189
-387.019	-120.393	-0.052	0.009
-386.004	-35.142	0.233	-0.128
-384.990	800.000	-0.048	0.195
-383.975	189.647	0.090	-0.137
-382.960	-153.161	0.217	-0.015
-381.946	-26.878	0.127	-0.075
-380.931	-16.879	-0.019	0.012
-379.917	99.938	0.074	0.086
-378.902	-8.371	0.247	-0.167
-377.888	443.005	-0.078	-0.173
-376.873	269.648	0.131	0.231
-375.858	-120.761	0.044	0.007
-374.844	549.454	0.161	0.390
-373.829	-82.740	-0.232	0.076
-372.815	-126.152	0.297	-0.045
-371.800	175.847	-0.130	-0.190
-370.785	569.600	-0.103	0.252
-369.771	-75.924	-0.175	-0.063
-368.756	-200.000	0.061	-0.378
-367.742	20.599	0.117	0.095
-366.727	15.669	-0.111	-0.088
-365.712	353.965	0.205	0.411
-364.698	-75.099	0.187	-0.067
-363.683	-22.280	0.250	-0.153
-362.669	-28.410	-0.312	-0.181
-361.654	-200.000	-0.084	0.514
-360.639	800.000	0.035	0.118
-359.625	727.866	0.032	0.085
-358.610	-81.069	-0.306	0.102
-357.596	-85.700	0.277	-0.087
-356.581	19.911	-0.061	0.049
-355.566	162.983	0.159	0.226
-354.552	-101.359	0.181	-0.045
-353.537	-132.026	0.131	0.017
-352.523	-25.749	0.250	-0.148
-351.508	96.626	0.025	0.029
-350.493	14.522	0.111	0.088
-349.479	800.000	0.026	-0.106
-348.464	-122.435	-0.169	-0.028
-347.450	800.000	0.119	-0.349
-346.435	800.000	0.142	0.432
-345.420	-177.927	-0.299	0.007
-344.406	280.775	-0.107	-0.193
-343.391	-130.337	-0.106	0.014
-342.377	800.000	-0.099	0.327
-341.362	-121.077	-0.109	0.018
-340.348	106.720	-0.167	-0.200
-339.333	238.316	0.153	-0.255
-338.318	2.088	0.181	0.131
-337.304	72.332	0.287	-0.302
-336.289	91.893	-0.257	-0.292
-335.275	800.000	-0.084	0.324
-334.260	800.000	-0.040	0.132
-333.245	-23.351	0.395	-0.239
-332.231	-166.237	0.280	-0.012
-331.216	-200.000	0.009	-0.315
-330.202	-141.804	0.427	-0.043
-329.187	-184.869	-0.163	0.003
-328.172	-11.129	0.236	-0.157
-327.158	-200.000	0.013	-0.331
-326.143	800.000	0.047	-0.188
-325.129	723.930	-0.063	-0.169
-324.114	-106.259	0.062	0.014
-323.099	-200.000	0.020	0.217
-322.085	-21.315	-0.174	0.107
-321.070	71.418	0.113	-0.118
-320.056	48.934	0.077	-0.073
-319.041	330.027	-0.070	0.136
-318.026	-152.127	-0.227	0.017
-317.012	-114.587	0.351	0.068
-315.997	-200.000	0.003	0.167
-314.983	59.428	-0.168	0.166
-313.968	-32.971	-0.194	0.108
-312.953	123.185	0.214	-0.270
-311.939	-158.153	0.283	-0.017
-310.924	-91.864	-0.283	-0.081
-309.910	14.773	-0.477	-0.375
-308.895	425.737	0.183	0.397
-307.880	123.594	0.124	-0.156
-306.866	-104.422	0.164	-0.038
-305.851	-58.760	0.118	0.051
-304.837	5.827	0.048	-0.035
-303.822	372.616	0.053	0.108
-302.807	-62.774	0.195	0.081
-301.793	337.194	0.042	-0.082
-300.778	-171.040	-0.350	-0.012
-299.764	385.491	-0.045	0.093
-298.749	-59.034	0.185	0.080
-297.735	-80.757	0.196	-0.065
-296.720	-50.926	-0.241	0.114
-295.705	-200.000	0.084	0.440
-294.691	-50.159	-0.173	0.082
-293.676	-103.903	-0.280	-0.066
-292.662	-52.235	-0.164	-0.076
-291.647	-157.850	-0.260	-0.015
-290.632	-89.440	-0.249	-0.074
-289.618	-112.583	0.285	0.057
-288.603	30.174	-0.127	0.109
-287.589	29.683	-0.054	-0.046
-286.574	-11.957	0.236	-0.156
-285.559	24.021	0.301	0.250
-284.545	-200.000	0.025	0.158
-283.530	-150.303	-0.342	0.027
-282.516	-200.000	0.015	-0.141
-281.501	-200.000	0.133	0.000
-280.486	-173.159	-0.041	-0.001
-279.472	476.227	0.109	0.248
-278.457	-6.546	-0.101	0.069
-277.443	800.000	-0.090	-0.252
-276.428	-102.695	0.217	-0.052
-275.413	-23.559	-0.238	0.144
-274.399	800.000	-0.055	-0.232
-273.384	124.218	-0.058	-0.073
-272.370	-32.702	-0.340	-0.190
-271.355	20.308	0.111	-0.090
-270.340	800.000	0.127	0.399
-269.326	104.550	0.083	-0.098
-268.311	129.255	-0.119	-0.153
-267.297	161.897	-0.053	-0.074
-266.282	-163.173	0.146	0.007
-265.267	-88.588	0.544	-0.163
-264.253	305.310	0.162	0.302
-263.238	-59.601	0.178	0.077
-262.224	-67.731	-0.079	-0.031
-261.209	-200.000	-0.018	0.171
-260.195	-9.873	-0.071	0.048
-259.180	-51.774	-0.094	-0.044
-258.165	642.865	-0.079	0.202
-257.151	-200.000	0.015	0.144
-256.136	123.680	0.100	0.126
-255.122	80.683	-0.138	0.149
-254.107	-111.951	0.110	-0.022
-253.092	800.000	0.047	0.136
-252.078	-14.559	0.207	0.134
-251.063	-32.369	-0.172	0.096
-250.049	119.738	0.104	-0.130
-249.034	800.000	0.060	-0.175
-248.019	187.303	0.037	0.055
-247.005	265.220	0.037	-0.064
-245.990	38.098	0.240	0.214
-244.976	407.454	-0.124	-0.264
-243.961	34.519	0.193	0.169
-242.946	232.512	-0.151	-0.248
-241.932	-100.524	0.088	0.022
-240.917	70.707	0.114	-0.118
-239.903	-28.844	0.260	0.150
-238.888	-200.000	-0.001	0.317
-237.873	122.475	-0.170	-0.213
-236.859	69.681	-0.031	0.032
-235.844	67.025	-0.309	-0.316
-234.830	-200.000	0.017	-0.116
-233.815	216.729	0.100	-0.159
-232.800	117.734	-0.254	-0.313
-231.786	800.000	-0.030	-0.113
-230.771	-64.124	0.332	-0.136
-229.757	-200.000	0.012	0.069
-228.742	269.664	0.061	-0.108
-227.727	800.000	0.009	-0.036
-226.713	107.337	-0.342	0.407
-225.698	469.653	-0.055	-0.124
-224.684	800.000	-0.076	0.212
-223.669	-200.000	-0.003	-0.197
-222.655	-45.152	0.027	-0.013
-221.640	-93.198	0.125	0.035
-220.625	728.684	0.029	-0.076
-219.611	475.115	0.195	-0.442
-218.596	-34.899	0.198	-0.108
-217.582	175.383	0.185	-0.268
-216.567	-121.354	-0.107	0.018
-215.552	125.508	-0.124	0.156
-214.538	660.886	0.155	0.400
-213.523	-142.515	-0.049	0.005
-212.509	-79.571	0.169	-0.057
-211.494	800.000	-0.061	0.213
-210.479	0.791	-0.155	0.111
-209.465	429.630	-0.064	-0.139
-208.450	624.651	-0.075	-0.189
-207.436	-200.000	-0.011	0.075
-206.421	-73.859	-0.209	0.076
-205.406	-182.987	0.187	0.003
-204.392	129.411	0.054	0.070
-203.377	-61.996	-0.117	0.049
-202.363	-138.598	0.311	-0.034
-201.348	-200.000	-0.002	-0.075
-200.333	612.092	0.040	-0.099
-199.319	-127.369	0.197	0.029
-198.304	-119.533	0.276	-0.048
-197.290	266.157	0.145	0.253
-196.275	519.797	0.080	0.187
-195.260	292.243	-0.142	-0.260
-194.246	-127.197	-0.258	0.038
-193.231	-65.405	-0.140	0.056
-192.217	-6.313	0.226	0.154
-191.202	518.859	0.121	0.283
-190.187	-126.491	-0.129	0.019
-189.173	7.928	-0.070	0.053
-188.158	-200.000	0.024	0.432
-187.144	118.011	0.122	-0.151
-186.129	81.914	-0.042	0.046
-185.114	45.795	-0.139	0.128
-184.100	476.518	0.057	-0.129
-183.085	25.464	-0.065	0.054
-182.071	280.862	-0.128	-0.228
-181.056	800.000	-0.058	-0.194
-180.042	-175.439	0.224	-0.006
-179.027	70.038	-0.055	0.057
-178.012	800.000	0.086	0.295
-176.998	800.000	0.027	-0.106
-175.983	-200.000	-0.050	0.289
-174.969	729.804	-0.072	0.192
-173.954	787.410	-0.052	-0.142
-172.939	11.737	0.090	-0.069
-171.925	385.957	0.161	-0.333
-170.910	-53.422	0.261	0.120
-169.896	326.787	-0.057	-0.110
-168.881	-200.000	0.000	0.135
-167.866	-43.765	0.326	0.164
-166.852	104.903	0.176	-0.208
-165.837	-15.684	0.221	-0.141
-164.823	-68.379	0.192	-0.075
-163.808	193.082	-0.034	-0.051
-162.793	-200.000	-0.034	0.269
-161.779	-20.536	0.060	0.037
-160.764	157.514	0.183	-0.254
-159.750	330.809	0.122	0.235
-158.735	-17.410	0.195	-0.123
-157.720	-53.499	0.120	-0.055
-156.706	-0.702	-0.154	-0.109
-155.691	135.017	0.157	-0.203
-154.677	196.496	-0.151	0.230
-153.662	-59.016	-0.327	0.141
-152.647	-82.433	0.258	0.084
-151.633	-200.000	0.002	0.058
-150.618	-200.000	0.041	0.367
-149.604	164.162	0.121	-0.170
-148.589	330.425	0.113	0.218
-147.574	-89.317	-0.236	0.070
-146.560	-125.651	0.197	-0.030
-145.545	-20.943	0.170	0.104
-144.531	-66.636	0.215	0.085
-143.516	146.224	0.073	-0.098
-142.502	-73.358	0.209	0.076
-141.487	-118.446	-0.073	-0.013
-140.472	-10.683	-0.105	0.069
-139.458	46.779	-0.119	-0.110
-138.443	-200.000	0.011	0.135
-137.429	-133.189	0.109	0.014
-136.414	20.361	-0.139	-0.112
-135.399	-200.000	-0.036	-0.160
-134.385	275.212	-0.033	0.059
-133.370	-200.000	0.043	-0.203
-132.356	-200.000	0.020	0.266
-131.341	492.415	-0.131	-0.300
-130.326	-68.136	-0.164	-0.064
-129.312	-139.151	0.185	-0.020
-128.297	-31.969	0.163	-0.091
-127.283	-200.000	-0.053	-0.387
-126.268	179.007	-0.150	0.220
-125.253	59.533	-0.276	0.272
-124.239	-87.095	0.051	0.015
-123.224	7.336	-0.081	-0.060
-122.210	-110.425	-0.184	-0.038
-121.195	24.303	-0.109	-0.090
