DTS Sentinel unit serial number:	SN413079Multiplexer serial number:	ORYXHardware model number:	OX4-SRSoftware version number:	ORYX F/W v4.00 Oryx Data Collector v3.7.2.0data status	okinstallation	princeton_trtdifferential loss correction	single-endedforward channel	channel 1reverse channel	N/Adate	2019/09/11time	16:12:11forward acquisition time	60.00reverse acquisition time	0.00gamma	496.2192k internal	0.2290k external	0.2290temperature offset calibration	0.9994default loss term (dB/km)	0.3790temperature slope calibration	1.0000multiplexer offset coefficient	1.0000multiplexer slope coefficient	1.0000fibre end	0.00T internal ref (°C)	43.30T ext. ref 1 (°C)	1.04T ext. ref 2 (°C)	39.65length (m)	temperature (°C)	Stokes	anti-Stokes-747.200	-146.325	0.072	0.006
-746.185	-141.060	-0.223	0.023
-745.171	109.446	-0.029	0.036
-744.156	-200.000	-0.071	0.361
-743.142	-47.840	-0.137	0.068
-742.127	-88.371	-0.210	-0.064
-741.112	244.956	-0.152	0.261
-740.098	-60.860	0.110	0.048
-739.083	-165.588	0.168	0.007
-738.069	-200.000	0.041	0.236
-737.054	-57.207	0.359	-0.162
-736.039	296.176	-0.080	-0.151
-735.025	-122.781	0.168	-0.028
-734.010	-86.697	-0.294	0.092
-732.996	-51.696	-0.138	0.066
-731.981	-83.341	0.115	-0.038
-730.966	13.450	-0.062	-0.049
-729.952	-21.921	-0.439	-0.273
-728.937	800.000	-0.050	-0.218
-727.923	268.661	-0.102	-0.183
-726.908	164.095	-0.120	0.173
-725.894	244.651	0.167	-0.287
-724.879	-145.697	-0.139	0.013
-723.864	38.756	-0.253	-0.231
-722.850	133.842	-0.268	-0.355
-721.835	-11.327	-0.251	0.169
-720.821	-50.536	0.177	0.085
-719.806	-108.771	-0.390	0.085
-718.791	800.000	-0.020	-0.059
-717.777	-200.000	0.010	-0.149
-716.762	8.141	-0.188	-0.144
-715.748	37.724	0.278	-0.253
-714.733	-11.486	0.022	-0.015
-713.718	756.477	-0.125	0.347
-712.704	165.270	-0.302	-0.437
-711.689	-61.664	0.084	0.036
-710.675	-84.756	0.168	-0.054
-709.660	274.137	-0.061	0.111
-708.645	-200.000	0.003	0.022
-707.631	-200.000	-0.016	0.093
-706.616	800.000	-0.047	-0.195
-705.602	-132.201	-0.154	0.020
-704.587	28.868	-0.116	0.101
-703.572	783.677	-0.099	-0.278
-702.558	-75.516	0.118	-0.043
-701.543	34.664	-0.149	-0.134
-700.529	-43.540	-0.345	0.178
-699.514	51.543	-0.036	-0.035
-698.499	501.765	0.127	0.301
-697.485	-200.000	0.105	-0.575
-696.470	-0.641	-0.275	0.200
-695.456	-200.000	-0.015	-0.587
-694.441	800.000	-0.080	-0.301
-693.426	51.435	0.242	-0.235
-692.412	-200.000	-0.077	-0.434
-691.397	-55.422	-0.116	-0.053
-690.383	150.999	0.103	-0.144
-689.368	504.981	0.088	-0.209
-688.354	66.522	-0.142	0.148
-687.339	-200.000	0.019	-0.159
-686.324	13.073	0.150	0.118
-685.310	64.466	-0.190	-0.196
-684.295	800.000	0.016	-0.069
-683.281	37.618	0.045	-0.041
-682.266	139.709	-0.226	0.304
-681.251	-38.313	0.311	0.168
-680.237	379.915	-0.095	-0.198
-679.222	-65.065	-0.232	0.096
-678.208	-67.113	-0.264	0.106
-677.193	50.280	0.210	-0.203
-676.178	-40.948	-0.209	-0.110
-675.164	-42.834	-0.075	0.039
-674.149	800.000	0.044	0.161
-673.135	-200.000	-0.016	-0.083
-672.120	800.000	-0.065	0.249
-671.105	-68.778	0.055	-0.022
-670.091	-4.782	0.215	0.152
-669.076	462.642	-0.181	0.412
-668.062	53.574	0.151	-0.148
-667.047	65.346	0.188	-0.194
-666.032	-129.262	-0.254	0.036
-665.018	800.000	0.146	-0.451
-664.003	-200.000	0.003	-0.168
-662.989	356.838	-0.069	0.141
-661.974	-50.576	0.184	0.089
-660.959	121.246	-0.116	0.147
-659.945	683.990	0.093	-0.249
-658.930	-127.104	-0.265	0.040
-657.916	67.370	0.138	-0.143
-656.901	2.778	0.191	-0.142
-655.886	237.783	0.179	-0.302
-654.872	-136.868	-0.208	0.024
-653.857	-108.033	-0.042	-0.009
-652.843	473.884	-0.208	0.479
-651.828	800.000	-0.032	-0.101
-650.814	800.000	0.053	0.206
-649.799	117.430	0.136	0.171
-648.784	-4.603	0.056	0.039
-647.770	-46.486	0.056	0.028
-646.755	-131.933	-0.077	-0.010
-645.741	-54.548	-0.134	-0.062
-644.726	-66.124	0.117	0.048
-643.711	266.212	-0.122	-0.217
-642.697	107.758	0.076	0.092
-641.682	-52.387	0.176	-0.083
-640.668	325.871	0.094	0.184
-639.653	17.740	0.248	0.202
-638.638	-167.034	-0.271	0.011
-637.624	276.187	0.069	0.125
-636.609	653.628	-0.032	0.083
-635.595	266.399	0.200	-0.357
-634.580	346.790	0.201	-0.404
-633.565	64.005	0.106	0.108
-632.551	-109.397	0.036	0.008
-631.536	-200.000	-0.017	-0.145
-630.522	-103.359	0.324	0.078
-629.507	-98.212	-0.155	-0.041
-628.492	-200.000	0.015	0.220
-627.478	169.679	0.186	-0.271
-626.463	-59.299	0.027	-0.012
-625.449	535.493	0.134	-0.324
-624.434	-39.725	-0.202	-0.108
-623.419	-138.906	-0.357	-0.040
-622.405	-133.653	-0.154	-0.020
-621.390	645.697	-0.116	-0.303
-620.376	-98.256	0.156	0.041
-619.361	-36.971	-0.112	0.061
-618.346	800.000	-0.032	0.144
-617.332	-151.501	-0.037	-0.003
-616.317	-200.000	-0.013	0.208
-615.303	-56.465	0.061	0.028
-614.288	101.115	0.088	0.104
-613.273	-200.000	0.012	-0.072
-612.259	-200.000	0.005	-0.252
-611.244	370.841	0.075	-0.155
-610.230	504.541	0.087	-0.206
-609.215	745.882	-0.142	0.390
-608.201	306.368	0.126	-0.240
-607.186	509.078	-0.150	-0.356
-606.171	-0.513	-0.212	0.154
-605.157	226.834	0.051	-0.084
-604.142	113.986	-0.016	0.020
-603.128	-200.000	-0.037	0.438
-602.113	800.000	0.067	0.237
-601.098	87.397	0.166	-0.187
-600.084	50.945	-0.080	0.078
-599.069	-176.289	-0.289	-0.008
-598.055	17.169	-0.181	0.146
-597.040	32.848	-0.198	0.174
-596.025	800.000	-0.029	0.106
-595.011	49.202	-0.119	-0.114
-593.996	-180.077	-0.393	0.008
-592.982	-145.233	-0.191	-0.018
-591.967	688.624	0.022	-0.058
-590.952	-74.074	0.204	-0.075
-589.938	1.171	-0.184	-0.134
-588.923	463.414	-0.066	0.151
-587.909	573.775	-0.010	-0.024
-586.894	800.000	-0.044	0.172
-585.879	-53.046	0.184	-0.086
-584.865	409.960	0.016	0.035
-583.850	-200.000	0.015	-0.120
-582.836	800.000	-0.014	0.055
-581.821	800.000	-0.091	-0.274
-580.806	-54.110	0.097	-0.045
-579.792	8.617	0.265	0.203
-578.777	800.000	-0.065	0.203
-577.763	-200.000	0.002	-0.189
-576.748	-114.223	-0.155	-0.030
-575.733	183.818	0.252	0.379
-574.719	165.038	0.077	-0.111
-573.704	-200.000	-0.036	-0.214
-572.690	278.615	0.138	-0.250
-571.675	-11.267	-0.198	-0.133
-570.661	103.537	-0.206	0.245
-569.646	800.000	-0.029	-0.087
-568.631	77.067	0.078	-0.085
-567.617	-200.000	0.020	-0.273
-566.602	-117.159	0.236	-0.044
-565.588	800.000	-0.038	0.121
-564.573	31.298	-0.155	0.136
-563.558	-200.000	0.008	0.293
-562.544	-104.167	0.302	0.072
-561.529	209.786	-0.045	-0.072
-560.515	-118.371	0.175	0.032
-559.500	-126.805	0.048	0.007
-558.485	800.000	-0.066	0.286
-557.471	-23.763	0.276	-0.168
-556.456	116.544	0.111	0.139
-555.442	-13.823	0.222	-0.146
-554.427	-140.944	-0.315	-0.033
-553.412	26.961	0.128	0.109
-552.398	119.543	-0.013	-0.016
-551.383	-158.944	-0.268	0.015
-550.369	224.731	-0.220	-0.362
-549.354	4.303	-0.111	-0.083
-548.339	-127.699	-0.446	0.066
-547.325	-146.712	-0.152	0.013
-546.310	32.323	0.142	-0.125
-545.296	-147.790	0.388	-0.033
-544.281	171.004	-0.261	-0.381
-543.266	-67.545	0.095	-0.038
-542.252	-63.029	0.255	0.107
-541.237	10.649	0.124	-0.096
-540.223	-8.109	0.426	0.292
-539.208	458.144	0.074	0.168
-538.193	-122.098	-0.367	-0.061
-537.179	-68.567	-0.272	-0.107
-536.164	800.000	0.065	-0.218
-535.150	-57.934	-0.165	-0.073
-534.135	-64.684	0.157	0.065
-533.121	-88.770	-0.238	0.072
-532.106	-36.228	0.286	-0.157
-531.091	-200.000	0.004	0.042
-530.077	-71.405	-0.463	0.176
-529.062	-121.039	-0.290	0.049
-528.048	-166.000	0.183	0.008
-527.033	33.757	0.188	0.166
-526.018	-92.819	0.206	0.058
-525.004	800.000	0.101	0.292
-523.989	-133.693	-0.093	0.012
-522.975	218.073	0.100	-0.163
-521.960	-200.000	0.023	-0.152
-520.945	9.125	0.154	0.118
-519.931	-200.000	-0.000	-0.149
-518.916	-72.654	0.196	0.074
-517.902	354.720	0.066	0.134
-516.887	-200.000	0.061	0.351
-515.872	31.207	0.373	0.325
-514.858	-21.190	0.069	-0.043
-513.843	-200.000	-0.017	0.133
-512.829	46.247	0.100	0.094
-511.814	-200.000	-0.015	-0.359
-510.799	-91.119	-0.165	0.048
-509.785	121.661	0.246	0.311
-508.770	-138.873	-0.327	-0.036
-507.756	565.111	-0.026	0.063
-506.741	-38.279	0.430	-0.231
-505.726	-145.627	-0.196	-0.018
-504.712	534.517	-0.079	-0.189
-503.697	-2.620	0.139	-0.098
-502.683	151.357	-0.149	0.205
-501.668	50.739	0.297	0.286
-500.653	-150.180	-0.263	-0.021
-499.639	800.000	0.031	0.129
-498.624	62.354	0.230	0.233
-497.610	-23.458	0.229	-0.139
-496.595	-92.667	-0.273	-0.078
-495.581	-35.528	-0.036	-0.020
-494.566	-200.000	0.036	-0.205
-493.551	-200.000	-0.003	-0.396
-492.537	166.955	-0.147	-0.212
-491.522	-37.840	0.166	-0.090
-490.508	-91.438	0.148	0.043
-489.493	11.968	0.137	-0.107
-488.478	-200.000	0.037	-0.268
-487.464	-27.361	0.190	0.112
-486.449	51.649	0.196	-0.189
-485.435	-140.415	0.220	0.023
-484.420	33.042	0.072	0.064
-483.405	-167.867	0.174	-0.007
-482.391	159.296	0.119	-0.167
-481.376	528.018	0.103	-0.247
-480.362	-200.000	0.026	-0.279
-479.347	-200.000	0.009	-0.065
-478.332	-200.000	0.001	0.019
-477.318	18.240	0.195	-0.158
-476.303	-87.611	-0.190	-0.058
-475.289	-200.000	0.038	-0.305
-474.274	-200.000	0.002	0.223
-473.259	-200.000	0.035	0.253
-472.245	-200.000	-0.016	0.194
-471.230	179.022	0.142	0.210
-470.216	-0.844	-0.044	0.032
-469.201	42.854	0.355	0.327
-468.186	-152.897	-0.066	-0.005
-467.172	800.000	-0.054	0.156
-466.157	-200.000	0.068	0.403
-465.143	150.663	0.121	0.166
-464.128	-122.659	-0.203	0.033
-463.113	56.323	0.081	-0.079
-462.099	-75.095	0.088	-0.032
-461.084	97.615	0.220	-0.257
-460.070	-200.000	0.004	-0.035
-459.055	-200.000	0.014	0.179
-458.040	-26.017	-0.204	0.122
-457.026	-171.089	-0.159	-0.005
-456.011	4.534	0.172	-0.128
-454.997	-11.817	-0.293	-0.195
-453.982	-110.435	-0.059	0.012
-452.968	-168.837	0.334	-0.013
-451.953	94.321	0.168	-0.194
-450.938	800.000	0.114	0.445
-449.924	251.286	-0.085	0.147
-448.909	12.915	0.199	0.156
-447.895	-5.711	0.033	0.023
-446.880	98.851	-0.033	-0.039
-445.865	-200.000	-0.007	0.178
-444.851	144.536	0.044	-0.059
-443.836	-25.054	0.100	0.060
-442.822	-138.630	0.305	0.034
-441.807	142.701	-0.114	-0.153
-440.792	2.749	0.119	0.088
-439.778	114.181	0.139	0.171
-438.763	-126.844	-0.194	0.029
-437.749	-138.615	0.312	0.035
-436.734	800.000	0.034	-0.096
-435.719	-100.854	-0.122	0.030
-434.705	409.545	-0.097	0.208
-433.690	363.544	-0.107	-0.217
-432.676	800.000	0.045	0.198
-431.661	-200.000	-0.022	0.521
-430.646	87.613	-0.214	0.240
-429.632	-88.400	-0.468	0.141
-428.617	124.751	-0.075	-0.096
-427.603	-137.760	0.114	-0.013
-426.588	-24.682	-0.269	-0.162
-425.573	-16.942	-0.291	0.186
-424.559	442.821	0.111	0.245
-423.544	108.140	0.066	-0.080
-422.530	-18.949	-0.324	-0.204
-421.515	800.000	0.076	0.215
-420.500	92.562	-0.110	0.126
-419.486	153.345	-0.101	-0.139
-418.471	-200.000	0.048	0.292
-417.457	-96.542	-0.452	-0.121
-416.442	-121.091	0.155	0.026
-415.428	-200.000	-0.006	0.237
-414.413	-88.038	-0.169	0.051
-413.398	47.894	-0.023	0.022
-412.384	140.136	-0.213	-0.284
-411.369	-155.185	-0.232	-0.015
-410.355	-200.000	0.024	-0.283
-409.340	800.000	0.049	-0.152
-408.325	-87.058	-0.186	-0.057
-407.311	384.885	-0.075	0.157
-406.296	-200.000	-0.041	0.251
-405.282	634.718	-0.052	-0.133
-404.267	271.967	0.184	-0.328
-403.252	-200.000	-0.007	-0.092
-402.238	679.189	-0.084	-0.221
-401.223	-127.822	-0.218	-0.032
-400.209	-200.000	-0.023	-0.200
-399.194	-200.000	0.010	-0.084
-398.179	201.689	0.238	-0.371
-397.165	-200.000	-0.002	0.176
-396.150	-73.382	0.161	0.059
-395.136	800.000	0.014	-0.049
-394.121	485.776	-0.040	-0.093
-393.106	407.319	0.113	0.241
-392.092	627.151	-0.060	-0.152
-391.077	46.484	0.102	-0.096
-390.063	-151.291	-0.249	0.019
-389.048	357.186	-0.097	-0.194
-388.033	-200.000	-0.023	0.118
-387.019	-200.000	0.025	0.133
-386.004	479.058	0.027	-0.062
-384.990	-137.916	-0.336	-0.038
-383.975	35.005	-0.215	0.190
-382.960	-21.002	-0.189	0.117
-381.946	-13.152	-0.051	-0.034
-380.931	748.306	0.085	0.231
-379.917	636.545	-0.046	-0.118
-378.902	156.621	0.136	-0.190
-377.888	455.434	-0.065	-0.146
-376.873	32.170	0.176	0.153
-375.858	-200.000	-0.002	-0.093
-374.844	-43.161	0.187	-0.096
-373.829	195.954	-0.241	-0.371
-372.815	-58.173	0.122	0.054
-371.800	261.443	-0.141	-0.246
-370.785	-45.997	-0.088	0.044
-369.771	-90.206	-0.305	-0.090
-368.756	800.000	0.052	0.160
-367.742	172.148	0.074	0.107
-366.727	119.780	-0.225	-0.281
-365.712	778.036	0.134	0.371
-364.698	84.615	-0.192	-0.212
-363.683	-54.943	-0.092	-0.042
-362.669	78.134	0.321	0.346
-361.654	11.571	-0.123	-0.095
-360.639	-88.099	-0.357	-0.108
-359.625	-200.000	0.006	0.281
-358.610	165.714	0.115	-0.164
-357.596	184.288	0.108	0.161
-356.581	477.550	0.150	0.342
-355.566	467.323	0.024	0.054
-354.552	-200.000	0.028	0.258
-353.537	236.186	0.100	0.167
-352.523	19.013	-0.159	-0.129
-351.508	164.987	-0.109	0.156
-350.493	-107.804	0.074	0.016
-349.479	-200.000	-0.048	-0.224
-348.464	743.332	-0.130	-0.352
-347.450	-200.000	0.015	-0.125
-346.435	19.406	-0.306	-0.248
-345.420	611.046	-0.049	-0.124
-344.406	-65.723	-0.269	0.109
-343.391	56.065	-0.078	-0.077
-342.377	50.398	0.241	0.230
-341.362	123.870	0.240	0.304
-340.348	326.398	0.055	-0.105
-339.333	11.178	-0.108	-0.083
-338.318	-200.000	0.025	-0.112
-337.304	34.398	0.160	0.141
-336.289	-64.317	0.332	0.136
-335.275	-200.000	-0.030	-0.138
-334.260	265.530	-0.056	-0.098
-333.245	-82.153	-0.296	-0.097
-332.231	577.584	0.010	-0.026
-331.216	-75.195	0.250	-0.090
-330.202	-200.000	-0.012	0.405
-329.187	113.334	0.116	-0.142
-328.172	-200.000	0.070	0.518
-327.158	314.052	-0.110	0.208
-326.143	230.089	0.050	0.082
-325.129	286.928	0.105	0.191
-324.114	-134.312	0.166	0.021
-323.099	800.000	-0.159	0.493
-322.085	64.529	-0.098	0.100
-321.070	-110.816	-0.328	-0.068
-320.056	195.709	0.239	-0.366
-319.041	-200.000	0.003	0.062
-318.026	-10.299	0.057	0.038
-317.012	800.000	-0.129	-0.376
-315.997	64.130	-0.210	-0.213
-314.983	394.608	-0.103	0.216
-313.968	60.768	-0.288	-0.287
-312.953	-108.233	-0.206	-0.045
-311.939	-200.000	-0.023	0.252
-310.924	19.023	0.166	0.134
-309.910	-9.939	-0.099	-0.067
-308.895	800.000	0.071	-0.238
-307.880	-200.000	0.027	-0.343
-306.866	1.357	-0.158	-0.114
-305.851	-170.350	-0.513	-0.018
-304.837	172.982	-0.161	0.233
-303.822	-73.165	0.132	0.049
-302.807	800.000	0.074	0.214
-301.793	-59.212	0.210	0.091
-300.778	-200.000	0.002	0.171
-299.764	-17.695	0.140	0.088
-298.749	-200.000	-0.007	-0.098
-297.735	-95.011	0.188	0.051
-296.720	44.705	-0.212	-0.196
-295.705	-200.000	0.004	-0.217
-294.691	-54.893	-0.167	-0.076
-293.676	-103.873	-0.176	0.041
-292.662	800.000	-0.032	0.106
-291.647	-111.251	-0.148	0.030
-290.632	-144.783	0.330	0.031
-289.618	-60.211	0.095	-0.041
-288.603	800.000	-0.082	-0.303
-287.589	800.000	-0.111	-0.433
-286.574	-131.779	0.214	-0.028
-285.559	155.395	0.039	0.054
-284.545	800.000	-0.125	-0.360
-283.530	-200.000	0.003	-0.335
-282.516	-90.118	0.303	0.089
-281.501	-200.000	-0.054	0.338
-280.486	-102.478	-0.153	-0.037
-279.472	-106.645	0.033	-0.007
-278.457	95.432	0.064	0.073
-277.443	800.000	0.088	-0.344
-276.428	640.408	0.057	-0.146
-275.413	-35.118	0.408	0.223
-274.399	-19.781	-0.146	0.091
-273.384	313.224	0.101	0.190
-272.370	49.602	0.060	-0.057
-271.355	-61.481	0.283	0.120
-270.340	-200.000	0.013	0.194
-269.326	-37.666	0.236	0.126
-268.311	714.208	0.023	0.063
-267.297	-200.000	-0.008	0.128
-266.282	-130.098	0.251	-0.034
-265.267	477.024	0.150	0.341
-264.253	143.262	0.097	0.130
-263.238	-181.573	0.281	-0.005
-262.224	800.000	0.053	-0.204
-261.209	63.250	-0.302	-0.304
-260.195	102.298	0.113	0.132
-259.180	-200.000	-0.004	0.199
-258.165	-83.755	0.121	-0.039
-257.151	-8.407	0.087	0.059
-256.136	-98.420	-0.125	0.032
-255.122	-110.979	0.273	-0.056
-254.107	-200.000	0.005	-0.259
-253.092	-200.000	-0.045	-0.285
-252.078	-19.232	-0.328	-0.205
-251.063	-200.000	-0.047	0.214
-250.049	141.636	-0.087	0.116
-249.034	64.804	-0.141	-0.143
-248.019	14.615	-0.120	0.095
-247.005	800.000	0.038	-0.128
-245.990	-109.711	-0.168	-0.036
-244.976	-81.297	0.258	-0.085
-243.961	115.380	0.165	-0.203
-242.946	479.475	-0.064	0.145
-241.932	20.727	-0.357	-0.291
-240.917	487.226	0.021	0.049
-239.903	50.373	0.318	0.302
-238.888	-70.661	0.112	-0.043
-237.873	93.586	-0.174	0.198
-236.859	-93.941	-0.194	-0.054
-235.844	-200.000	-0.013	0.093
-234.830	-174.253	-0.056	-0.002
-233.815	800.000	-0.059	0.167
-232.800	786.613	0.055	0.151
-231.786	-100.737	0.221	-0.055
-230.771	56.662	-0.174	-0.170
-229.757	-45.645	-0.382	0.190
-228.742	657.148	0.030	0.077
-227.727	-125.808	-0.345	-0.052
-226.713	598.190	0.069	0.172
-225.698	-134.361	0.160	-0.020
-224.684	-52.079	-0.257	0.120
-223.669	-40.432	-0.199	-0.104
-222.655	331.505	0.010	-0.020
-221.640	310.016	0.081	-0.152
-220.625	-200.000	0.017	-0.395
-219.611	-169.546	-0.222	-0.008
-218.596	157.056	-0.136	-0.189
-217.582	-44.862	0.112	-0.056
-216.567	-17.033	0.048	0.030
-215.552	-200.000	-0.047	-0.218
-214.538	198.200	0.223	-0.343
-213.523	87.767	-0.341	-0.379
-212.509	800.000	0.135	-0.428
-211.494	-200.000	-0.003	-0.051
-210.479	800.000	0.031	-0.114
-209.465	-16.480	0.381	0.242
-208.450	-48.292	0.165	-0.080
-207.436	165.479	0.070	0.099
-206.421	-103.246	-0.314	-0.074
-205.406	-200.000	0.010	-0.135
-204.392	261.398	0.089	0.155
-203.377	-200.000	0.015	0.161
-202.363	-200.000	-0.016	-0.119
-201.348	104.362	-0.114	-0.135
-200.333	644.796	0.124	0.317
-199.319	233.700	0.154	0.255
-198.304	24.884	0.230	-0.191
-197.290	-200.000	0.014	0.108
-196.275	218.771	0.105	0.168
-195.260	-200.000	-0.009	0.186
-194.246	444.354	-0.065	0.143
-193.231	-107.084	0.270	0.060
-192.217	-120.871	0.268	-0.045
-191.202	-32.602	-0.142	-0.079
-190.187	203.966	-0.109	-0.169
-189.173	27.483	-0.227	0.191
-188.158	800.000	-0.016	0.057
-187.144	102.137	0.068	0.080
-186.129	25.292	0.093	0.078
-185.114	378.492	-0.114	0.233
-184.100	-139.533	0.150	-0.016
-183.085	-200.000	-0.009	0.215
-182.071	-24.964	-0.142	0.085
-181.056	-200.000	-0.035	0.400
-180.042	102.425	-0.311	-0.364
-179.027	-47.551	-0.329	0.160
-178.012	-5.607	-0.271	-0.186
-176.998	-200.000	-0.060	-0.326
-175.983	-200.000	0.013	0.114
-174.969	-200.000	0.010	-0.109
-173.954	-95.118	-0.235	0.063
-172.939	55.271	0.149	-0.144
-171.925	765.052	-0.101	0.276
-170.910	-200.000	-0.005	0.207
-169.896	-170.739	0.237	0.008
-168.881	800.000	0.084	-0.245
-167.866	800.000	-0.075	-0.208
-166.852	0.318	0.398	0.284
-165.837	-148.721	0.102	0.008
-164.823	280.044	-0.174	-0.311
-163.808	-165.037	-0.117	0.005
-162.793	-114.635	-0.128	-0.024
-161.779	-196.037	0.191	0.001
-160.764	610.127	0.072	0.180
-159.750	501.202	-0.015	-0.036
-158.735	296.200	0.134	0.246
-157.720	800.000	0.113	-0.324
-156.706	28.521	0.226	-0.191
-155.691	-200.000	0.017	-0.103
-154.677	333.534	0.023	0.044
-153.662	-105.115	-0.207	-0.047
-152.647	162.094	-0.144	0.202
-151.633	-200.000	0.008	0.257
-150.618	442.465	-0.004	0.009
-149.604	-124.238	-0.170	-0.027
-148.589	-200.000	0.005	0.352
-147.574	800.000	0.032	0.109
-146.560	-200.000	-0.009	0.088
-145.545	192.612	-0.039	0.059
-144.531	-200.000	-0.020	-0.238
-143.516	-132.501	0.136	0.018
-142.502	-42.778	0.100	0.051
-141.487	76.286	0.207	-0.219
-140.472	501.685	0.154	0.355
-139.458	61.015	0.168	0.167
-138.443	-17.123	-0.030	-0.019
-137.429	-49.684	-0.082	-0.039
-136.414	281.584	-0.200	-0.359
-135.399	-113.276	-0.353	0.069
-134.385	-14.331	-0.125	-0.081
-133.370	-200.000	0.065	0.390
-132.356	-109.730	0.039	0.008
-131.341	612.107	0.051	-0.129
-130.326	114.218	0.173	0.211
-129.312	125.939	0.248	-0.314
-128.297	-103.114	-0.204	-0.048
-127.283	38.277	-0.077	-0.069
-126.268	-200.000	-0.016	0.137
-125.253	637.069	-0.050	-0.127
-124.239	-152.175	0.237	-0.017
-123.224	-164.870	-0.348	-0.016
-122.210	391.019	-0.073	-0.152
