DTS Sentinel unit serial number:	SN413079Multiplexer serial number:	ORYXHardware model number:	OX4-SRSoftware version number:	ORYX F/W v4.00 Oryx Data Collector v3.7.2.0data status	okinstallation	princeton_trtdifferential loss correction	single-endedforward channel	channel 1reverse channel	N/Adate	2019/09/17time	01:14:35forward acquisition time	60.00reverse acquisition time	0.00gamma	496.2192k internal	0.2324k external	0.2324temperature offset calibration	0.9955default loss term (dB/km)	0.3790temperature slope calibration	1.0000multiplexer offset coefficient	1.0000multiplexer slope coefficient	1.0000fibre end	0.00T internal ref (°C)	29.50T ext. ref 1 (°C)	0.10T ext. ref 2 (°C)	24.20length (m)	temperature (°C)	Stokes	anti-Stokes-747.200	-6.428	-0.064	-0.044
-746.185	478.351	-0.079	-0.180
-745.171	-17.256	0.144	-0.092
-744.156	-200.000	0.002	-0.073
-743.142	10.216	0.234	0.180
-742.127	142.029	0.263	0.353
-741.112	1.923	0.354	0.258
-740.098	-54.790	-0.184	-0.084
-739.083	-54.613	0.312	0.143
-738.069	-200.000	-0.100	0.566
-737.054	-23.907	0.040	-0.024
-736.039	775.251	0.093	-0.256
-735.025	66.501	-0.066	0.068
-734.010	185.383	-0.112	-0.167
-732.996	-144.460	-0.497	-0.047
-731.981	264.823	-0.031	-0.055
-730.966	-200.000	0.030	-0.140
-729.952	57.998	-0.120	-0.119
-728.937	-157.340	-0.311	-0.019
-727.923	-40.189	-0.363	-0.191
-726.908	-200.000	-0.018	-0.329
-725.894	207.093	-0.138	-0.217
-724.879	119.327	-0.101	-0.126
-723.864	-200.000	-0.026	0.207
-722.850	127.719	-0.098	-0.125
-721.835	800.000	0.119	0.342
-720.821	-138.684	-0.078	0.009
-719.806	205.976	-0.085	-0.133
-718.791	87.685	0.250	0.279
-717.777	412.389	-0.119	0.256
-716.762	-200.000	0.001	0.219
-715.748	-200.000	-0.024	0.233
-714.733	-30.077	-0.207	-0.119
-713.718	-115.954	0.120	0.023
-712.704	800.000	-0.076	-0.219
-711.689	269.574	0.077	-0.137
-710.675	259.927	-0.141	-0.246
-709.660	-132.644	-0.263	-0.034
-708.645	-168.195	0.100	-0.004
-707.631	-43.296	-0.078	-0.040
-706.616	64.836	0.338	-0.344
-705.602	-79.091	-0.328	0.112
-704.587	-53.225	0.390	0.180
-703.572	89.478	-0.156	0.176
-702.558	800.000	0.088	-0.361
-701.543	287.923	-0.079	-0.144
-700.529	239.740	0.061	0.103
-699.514	800.000	0.021	0.059
-698.499	-11.400	0.263	-0.175
-697.485	-148.666	-0.094	0.008
-696.470	635.373	-0.076	-0.195
-695.456	800.000	0.128	-0.371
-694.441	-106.324	-0.408	0.092
-693.426	272.142	0.110	-0.196
-692.412	-101.244	-0.082	-0.020
-691.397	-200.000	0.083	0.491
-690.383	-110.233	0.075	-0.016
-689.368	278.459	-0.188	-0.337
-688.354	360.093	-0.079	0.160
-687.339	-200.000	0.030	0.171
-686.324	-200.000	-0.003	0.324
-685.310	5.026	0.183	-0.136
-684.295	267.666	0.282	0.497
-683.281	-156.061	0.364	-0.023
-682.266	800.000	0.133	0.380
-681.251	-28.472	-0.202	-0.117
-680.237	113.643	0.181	0.222
-679.222	-100.542	0.173	0.043
-678.208	-200.000	0.054	-0.359
-677.193	-130.179	0.442	0.061
-676.178	-200.000	0.031	0.180
-675.164	-29.361	-0.204	0.118
-674.149	46.819	-0.137	-0.128
-673.135	294.615	0.190	0.350
-672.120	-200.000	0.056	0.328
-671.105	800.000	-0.041	-0.140
-670.091	-54.713	-0.296	-0.135
-669.076	69.461	-0.120	-0.124
-668.062	-4.215	0.196	-0.137
-667.047	-192.021	0.202	-0.002
-666.032	-200.000	0.013	-0.151
-665.018	-82.540	0.072	-0.024
-664.003	132.318	-0.124	0.161
-662.989	-200.000	0.004	0.209
-661.974	800.000	0.060	0.234
-660.959	-163.077	-0.591	-0.029
-659.945	173.619	0.198	0.288
-658.930	149.302	-0.073	-0.100
-657.916	-157.693	0.172	-0.010
-656.901	-200.000	0.047	0.256
-655.886	-200.000	-0.052	0.317
-654.872	162.868	-0.004	-0.006
-653.857	35.530	-0.098	0.087
-652.843	-200.000	0.030	-0.193
-651.828	-119.364	0.116	0.020
-650.814	800.000	0.164	0.478
-649.799	-200.000	-0.030	0.196
-648.784	610.849	-0.103	-0.259
-647.770	-39.665	0.147	-0.078
-646.755	-43.250	0.096	0.049
-645.741	231.831	-0.123	-0.202
-644.726	-200.000	-0.014	-0.224
-643.711	-151.937	-0.219	0.016
-642.697	-200.000	-0.050	-0.282
-641.682	440.903	0.077	0.170
-640.668	-200.000	-0.019	-0.164
-639.653	0.017	-0.294	-0.210
-638.638	112.511	-0.074	0.090
-637.624	175.478	-0.135	-0.196
-636.609	800.000	0.011	-0.037
-635.595	-200.000	-0.003	0.076
-634.580	67.076	-0.095	0.098
-633.565	-140.308	-0.341	-0.036
-632.551	-73.443	-0.089	-0.033
-631.536	-200.000	-0.044	-0.235
-630.522	15.202	-0.256	-0.202
-629.507	-200.000	-0.004	-0.228
-628.492	31.970	-0.140	0.121
-627.478	169.730	-0.090	0.130
-626.463	50.301	0.182	0.173
-625.449	-120.136	0.191	-0.033
-624.434	95.714	0.171	0.196
-623.419	112.144	-0.258	-0.313
-622.405	-67.170	0.059	-0.023
-621.390	-143.047	0.352	-0.034
-620.376	-200.000	0.005	-0.168
-619.361	-20.507	-0.178	0.110
-618.346	800.000	0.160	-0.476
-617.332	-63.740	-0.164	0.067
-616.317	-7.990	0.220	0.149
-615.303	-70.557	0.165	-0.063
-614.288	280.416	0.101	-0.181
-613.273	-200.000	0.075	-0.679
-612.259	-28.425	-0.173	0.100
-611.244	295.850	0.052	-0.096
-610.230	99.658	0.206	-0.239
-609.215	124.517	-0.230	-0.290
-608.201	-24.337	-0.211	0.127
-607.186	19.290	0.139	-0.112
-606.171	-137.668	-0.189	0.021
-605.157	3.894	0.053	0.039
-604.142	12.732	0.177	0.137
-603.128	411.579	-0.031	-0.066
-602.113	-200.000	-0.007	-0.031
-601.098	2.136	-0.104	-0.075
-600.084	-102.564	-0.373	-0.090
-599.069	57.400	-0.110	-0.108
-598.055	212.888	-0.116	-0.184
-597.040	40.425	-0.197	-0.178
-596.025	-113.553	-0.179	0.035
-595.011	156.085	-0.060	0.083
-593.996	-28.072	0.118	0.068
-592.982	520.266	-0.061	-0.144
-591.967	-200.000	-0.019	-0.116
-590.952	800.000	-0.070	0.291
-589.938	196.606	0.015	0.023
-588.923	-155.884	0.145	0.009
-587.909	19.044	-0.462	-0.371
-586.894	-80.348	-0.179	0.060
-585.879	-60.152	-0.087	0.037
-584.865	-38.752	-0.109	-0.058
-583.850	58.987	0.096	-0.095
-582.836	-165.037	-0.098	0.004
-581.821	488.829	-0.070	-0.160
-580.806	-200.000	-0.040	0.232
-579.792	276.678	-0.175	-0.312
-578.777	-99.613	-0.355	0.089
-577.763	-25.295	0.335	-0.199
-576.748	-65.980	-0.049	-0.020
-575.733	-112.029	-0.024	0.005
-574.719	-97.905	0.198	0.051
-573.704	800.000	-0.050	-0.163
-572.690	129.678	-0.108	-0.138
-571.675	-177.658	0.084	0.002
-570.661	-118.298	-0.265	-0.047
-569.646	-64.075	-0.380	0.156
-568.631	-15.101	-0.188	0.121
-567.617	-101.107	-0.365	-0.090
-566.602	-174.373	0.208	-0.006
-565.588	21.513	0.165	0.134
-564.573	230.051	-0.187	-0.306
-563.558	197.080	-0.145	-0.222
-562.544	-25.165	-0.301	0.179
-561.529	-53.482	0.217	-0.099
-560.515	-87.617	0.371	-0.112
-559.500	134.592	0.082	-0.107
-558.485	-119.056	0.177	0.031
-557.471	-200.000	0.028	0.275
-556.456	51.169	0.110	-0.105
-555.442	800.000	-0.141	-0.456
-554.427	281.101	0.096	-0.172
-553.412	-187.924	-0.174	-0.002
-552.398	119.008	-0.110	0.137
-551.383	134.966	-0.092	-0.120
-550.369	122.045	0.187	-0.234
-549.354	-200.000	-0.407	0.000
-548.339	159.793	-0.218	-0.304
-547.325	25.082	0.357	0.297
-546.310	-200.000	-0.045	-0.405
-545.296	85.369	0.064	0.070
-544.281	-147.980	-0.404	-0.034
-543.266	63.582	-0.101	0.102
-542.252	-19.035	-0.141	-0.088
-541.237	-40.611	-0.307	-0.160
-540.223	-112.775	-0.026	-0.005
-539.208	16.325	0.064	0.050
-538.193	-1.113	-0.190	-0.135
-537.179	97.992	-0.127	0.147
-536.164	-140.568	-0.219	-0.023
-535.150	100.242	-0.139	0.162
-534.135	-84.257	0.101	0.032
-533.121	722.351	-0.090	0.240
-532.106	-126.235	-0.231	-0.035
-531.091	-22.485	-0.178	-0.108
-530.077	-200.000	0.000	0.217
-529.062	-200.000	0.021	-0.165
-528.048	-134.035	-0.078	-0.010
-527.033	84.554	-0.274	-0.300
-526.018	-53.272	0.098	0.045
-525.004	644.848	0.049	0.126
-523.989	800.000	0.041	0.157
-522.975	-55.453	-0.115	0.052
-521.960	-34.388	0.252	0.138
-520.945	-62.894	0.259	0.107
-519.931	22.291	-0.212	0.173
-518.916	-200.000	0.012	-0.247
-517.902	-64.936	0.242	-0.098
-516.887	89.883	0.091	-0.102
-515.872	-77.928	-0.173	-0.060
-514.858	800.000	0.080	0.222
-513.843	25.660	0.128	-0.106
-512.829	305.246	0.238	-0.442
-511.814	-200.000	0.037	0.193
-510.799	-108.889	0.304	-0.065
-509.785	33.434	0.112	0.097
-508.770	132.832	-0.222	0.286
-507.756	232.840	-0.159	-0.261
-506.741	-200.000	0.059	-0.300
-505.726	-101.461	0.214	0.052
-504.712	-68.975	-0.377	0.145
-503.697	44.559	-0.227	-0.208
-502.683	-96.237	-0.215	0.057
-501.668	-200.000	-0.000	0.265
-500.653	47.209	-0.025	-0.024
-499.639	-46.291	-0.161	-0.079
-498.624	-48.517	0.448	-0.215
-497.610	426.032	-0.059	-0.127
-496.595	-45.345	0.158	0.078
-495.581	-22.381	-0.112	0.068
-494.566	-90.305	0.408	0.118
-493.551	800.000	-0.087	0.255
-492.537	-46.858	0.247	-0.121
-491.522	133.218	-0.140	0.181
-490.508	-45.865	0.412	0.203
-489.493	770.157	-0.030	-0.082
-488.478	-109.334	0.249	0.053
-487.464	800.000	0.043	0.156
-486.449	800.000	-0.063	0.199
-485.435	177.201	-0.199	0.289
-484.420	-58.041	-0.157	0.069
-483.405	-37.464	0.152	0.081
-482.391	87.704	0.097	0.107
-481.376	-104.919	0.192	0.044
-480.362	65.369	-0.162	0.163
-479.347	-94.072	-0.137	-0.037
-478.332	-10.870	0.060	-0.039
-477.318	-123.927	0.143	-0.022
-476.303	297.474	0.166	0.304
-475.289	362.539	0.161	-0.322
-474.274	-200.000	0.018	0.092
-473.259	800.000	-0.007	0.023
-472.245	9.393	-0.050	-0.038
-471.230	-200.000	0.001	0.051
-470.216	403.482	0.125	0.264
-469.201	-125.081	0.156	0.024
-468.186	62.150	0.216	-0.215
-467.172	-200.000	0.019	-0.104
-466.157	59.481	0.176	-0.173
-465.143	101.427	0.086	-0.100
-464.128	30.870	0.220	0.188
-463.113	800.000	-0.077	-0.321
-462.099	800.000	0.032	-0.115
-461.084	709.032	0.120	-0.317
-460.070	-107.286	-0.143	-0.031
-459.055	12.116	-0.208	-0.160
-458.040	144.916	-0.142	0.189
-457.026	-200.000	0.045	-0.246
-456.011	800.000	0.027	0.091
-454.997	-200.000	-0.009	0.180
-453.982	124.257	-0.117	-0.147
-452.968	-31.735	-0.192	-0.107
-451.953	195.524	-0.080	0.122
-450.938	352.345	0.082	0.163
-449.924	-200.000	-0.044	0.228
-448.909	-127.175	-0.140	-0.020
-447.895	42.310	0.139	0.126
-446.880	-27.181	-0.042	0.024
-445.865	-159.611	0.339	-0.019
-444.851	-200.000	0.066	0.322
-443.836	-97.524	0.114	-0.030
-442.822	-176.523	-0.406	-0.010
-441.807	90.484	-0.337	-0.377
-440.792	243.377	0.035	0.059
-439.778	342.078	0.103	0.202
-438.763	61.002	0.255	0.253
-437.749	-188.523	-0.182	-0.002
-436.734	-200.000	0.008	-0.280
-435.719	-49.618	-0.169	0.080
-434.705	-200.000	0.007	0.080
-433.690	205.431	-0.166	0.257
-432.676	-120.463	0.247	0.042
-431.661	-85.703	0.196	-0.061
-430.646	-200.000	-0.005	-0.035
-429.632	-185.746	-0.261	-0.004
-428.617	35.115	0.097	0.084
-427.603	53.302	0.047	0.045
-426.588	132.671	0.088	0.113
-425.573	-200.000	-0.012	0.148
-424.559	79.960	0.076	0.082
-423.544	91.103	-0.222	-0.248
-422.530	88.363	0.074	-0.082
-421.515	-137.271	-0.140	0.016
-420.500	-200.000	-0.020	-0.353
-419.486	-84.834	0.375	0.118
-418.471	73.902	-0.129	-0.135
-417.457	304.937	-0.122	0.226
-416.442	5.623	-0.157	-0.116
-415.428	-128.657	0.345	-0.049
-414.413	-200.000	0.008	0.070
-413.398	-68.289	0.301	0.117
-412.384	10.247	0.083	-0.063
-411.369	314.994	0.109	-0.204
-410.355	-61.995	-0.160	0.066
-409.340	67.152	-0.319	0.324
-408.325	71.211	-0.211	-0.218
-407.311	-84.617	-0.076	0.024
-406.296	-95.955	0.345	0.092
-405.282	-12.718	-0.071	0.046
-404.267	187.721	0.103	-0.154
-403.252	253.684	0.179	0.305
-402.238	23.879	-0.103	-0.084
-401.223	79.783	-0.137	-0.146
-400.209	-200.000	0.005	-0.163
-399.194	272.493	-0.145	-0.255
-398.179	-200.000	0.066	0.364
-397.165	-155.022	-0.263	0.017
-396.150	-42.184	-0.108	0.055
-395.136	116.534	0.192	-0.235
-394.121	594.313	-0.038	0.093
-393.106	-135.243	-0.243	-0.029
-392.092	46.081	0.181	0.167
-391.077	-76.611	0.241	-0.084
-390.063	93.328	0.302	0.340
-389.048	-60.852	0.253	-0.107
-388.033	73.177	-0.226	-0.236
-387.019	62.392	0.227	0.226
-386.004	124.256	0.079	0.099
-384.990	-48.152	0.224	0.108
-383.975	5.371	-0.108	0.079
-382.960	7.328	-0.249	-0.185
-381.946	-1.151	0.019	-0.014
-380.931	3.119	0.192	-0.139
-379.917	126.857	-0.096	0.122
-378.902	-2.112	0.183	-0.128
-377.888	-63.270	0.422	0.173
-376.873	6.740	-0.102	-0.076
-375.858	-200.000	-0.003	-0.192
-374.844	35.140	-0.091	0.079
-373.829	-191.527	-0.110	-0.001
-372.815	-200.000	0.015	0.137
-371.800	-200.000	-0.012	0.221
-370.785	679.059	-0.189	-0.488
-369.771	89.881	-0.082	0.091
-368.756	-154.898	0.305	0.020
-367.742	-133.308	0.158	-0.020
-366.727	43.365	0.264	0.240
-365.712	151.462	-0.191	0.259
-364.698	800.000	-0.059	0.244
-363.683	-104.603	0.098	-0.022
-362.669	-114.968	-0.242	0.046
-361.654	-125.361	0.044	0.007
-360.639	687.822	0.095	-0.247
-359.625	800.000	-0.049	0.135
-358.610	6.153	0.310	0.228
-357.596	-132.245	0.202	0.026
-356.581	800.000	-0.047	-0.140
-355.566	-200.000	0.043	-0.202
-354.552	306.818	0.242	0.448
-353.537	-62.800	0.307	0.127
-352.523	-4.170	0.292	0.201
-351.508	72.901	-0.273	-0.284
-350.493	-66.939	-0.175	0.069
-349.479	-157.886	-0.052	-0.003
-348.464	-108.673	-0.182	0.039
-347.450	594.669	-0.090	-0.222
-346.435	-76.043	-0.274	0.096
-345.420	-35.524	0.190	0.103
-344.406	-46.500	0.164	-0.080
-343.391	-33.608	-0.236	-0.130
-342.377	-158.354	-0.186	-0.011
-341.362	267.637	0.098	0.170
-340.348	573.944	-0.103	0.249
-339.333	-200.000	0.077	0.351
-338.318	355.429	0.158	-0.312
-337.304	-169.480	0.128	-0.005
-336.289	24.457	0.401	-0.329
-335.275	106.959	-0.239	-0.282
-334.260	185.681	-0.095	0.140
-333.245	11.090	0.103	0.078
-332.231	800.000	-0.037	0.112
-331.216	74.221	0.253	-0.264
-330.202	238.394	0.053	0.088
-329.187	-26.232	-0.120	0.070
-328.172	-70.362	0.340	0.128
-327.158	-81.775	0.225	-0.073
-326.143	800.000	-0.036	-0.098
-325.129	-82.767	-0.149	-0.048
-324.114	37.788	0.188	-0.166
-323.099	574.571	0.116	0.281
-322.085	-15.571	0.195	0.123
-321.070	386.040	-0.263	-0.539
-320.056	66.758	0.325	0.329
-319.041	138.169	0.111	0.145
-318.026	201.100	-0.150	0.229
-317.012	-141.433	0.276	0.028
-315.997	-42.957	-0.361	-0.182
-314.983	-56.936	0.089	0.039
-313.968	4.298	0.308	0.224
-312.953	81.141	-0.127	-0.136
-311.939	-3.686	-0.086	0.059
-310.924	105.329	0.242	0.284
-309.910	800.000	-0.111	0.333
-308.895	52.470	-0.413	0.391
-307.880	204.274	-0.134	0.206
-306.866	242.560	0.035	0.058
-305.851	-200.000	-0.062	-0.355
-304.837	36.471	0.221	0.193
-303.822	27.613	-0.002	-0.001
-302.807	314.632	-0.154	-0.287
-301.793	-104.054	0.147	0.034
-300.778	302.454	0.057	0.105
-299.764	800.000	-0.135	0.471
-298.749	0.806	-0.045	0.032
-297.735	83.552	-0.252	-0.273
-296.720	7.388	0.308	-0.229
-295.705	-158.197	-0.068	0.004
-294.691	209.751	0.164	0.256
-293.676	338.272	0.202	0.390
-292.662	-200.000	-0.001	-0.012
-291.647	22.135	0.175	0.142
-290.632	-42.164	0.330	0.167
-289.618	-105.477	-0.114	-0.026
-288.603	800.000	0.047	0.169
-287.589	537.620	-0.074	0.174
-286.574	-8.415	0.431	0.287
-285.559	-200.000	0.040	0.286
-284.545	-150.499	-0.122	-0.009
-283.530	85.670	0.088	-0.096
-282.516	157.746	-0.105	0.144
-281.501	197.331	0.073	0.111
-280.486	-200.000	0.004	0.119
-279.472	729.218	0.036	0.096
-278.457	76.606	0.109	0.115
-277.443	315.541	0.119	-0.222
-276.428	-200.000	0.011	-0.125
-275.413	619.194	0.130	0.325
-274.399	-134.626	-0.136	-0.016
-273.384	-185.553	-0.308	-0.005
-272.370	374.024	-0.072	-0.146
-271.355	-141.152	0.171	0.017
-270.340	-145.671	-0.448	-0.040
-269.326	-200.000	-0.080	-0.385
-268.311	-200.000	0.006	-0.228
-267.297	-200.000	0.010	0.114
-266.282	-62.241	0.243	0.100
-265.267	69.809	0.220	0.225
-264.253	-109.287	0.306	-0.064
-263.238	-69.276	0.166	0.063
-262.224	-200.000	-0.244	0.001
-261.209	105.509	0.173	0.203
-260.195	-109.123	0.586	0.123
-259.180	338.644	0.060	0.116
-258.165	800.000	0.125	0.427
-257.151	-170.879	-0.235	0.008
-256.136	-43.235	-0.213	-0.107
-255.122	-119.396	0.166	0.029
-254.107	33.669	0.058	0.050
-253.092	-45.983	-0.150	0.073
-252.078	-134.865	-0.122	0.015
-251.063	111.862	0.226	-0.271
-250.049	-200.000	0.012	0.277
-249.034	-8.918	-0.197	-0.131
-248.019	-100.053	-0.157	0.039
-247.005	-200.000	0.008	0.493
-245.990	-200.000	-0.002	0.019
-244.976	65.843	0.185	-0.185
-243.961	-200.000	0.044	0.199
-242.946	-200.000	0.021	0.255
-241.932	-152.049	0.252	-0.018
-240.917	92.409	-0.223	-0.249
-239.903	-200.000	-0.022	-0.167
-238.888	33.955	0.152	-0.131
-237.873	-103.224	-0.185	0.043
-236.859	-62.114	-0.216	0.089
-235.844	-66.025	-0.102	-0.040
-234.830	-10.409	0.161	-0.106
-233.815	800.000	0.068	0.237
-232.800	32.229	-0.046	0.039
-231.786	-145.278	0.135	0.012
-230.771	47.581	0.143	0.131
-229.757	38.369	0.084	0.074
-228.742	-88.667	-0.226	-0.067
-227.727	334.552	-0.092	0.177
-226.713	-146.708	-0.270	0.023
-225.698	53.568	-0.130	-0.124
-224.684	-200.000	0.010	-0.292
-223.669	-200.000	0.016	0.391
-222.655	-96.621	0.073	0.019
-221.640	-45.972	0.238	-0.116
-220.625	-74.418	-0.186	0.066
-219.611	-92.270	-0.230	-0.064
-218.596	-148.416	-0.463	0.038
-217.582	182.886	0.192	0.280
-216.567	226.200	-0.265	0.425
-215.552	10.542	0.302	0.228
-214.538	-6.393	0.220	-0.149
-213.523	29.536	0.167	0.141
-212.509	126.503	0.317	0.397
-211.494	220.713	-0.152	-0.240
-210.479	737.478	0.036	-0.096
-209.465	221.686	0.034	0.054
-208.450	66.861	-0.061	0.061
-207.436	29.071	-0.129	0.108
-206.421	-103.462	-0.222	-0.052
-205.406	-132.387	-0.281	-0.036
-204.392	22.175	0.065	0.052
-203.377	217.992	-0.155	0.244
-202.363	800.000	0.078	-0.228
-201.348	-157.010	0.212	-0.013
-200.333	-200.000	0.052	-0.290
-199.319	-200.000	0.035	0.187
-198.304	23.958	-0.290	0.236
-197.290	-127.767	0.167	-0.024
-196.275	245.239	0.153	-0.255
-195.260	-29.625	0.265	-0.149
-194.246	-123.128	-0.546	-0.087
-193.231	-192.355	0.182	-0.002
-192.217	-31.793	-0.052	-0.029
-191.202	6.236	0.076	0.056
-190.187	395.253	0.038	-0.079
-189.173	700.217	0.065	0.168
-188.158	-27.601	-0.217	-0.125
-187.144	-119.481	-0.055	-0.009
-186.129	210.592	0.049	0.076
-185.114	537.702	0.057	0.133
-184.100	47.523	-0.183	-0.169
-183.085	697.897	-0.034	0.088
-182.071	-110.954	-0.273	0.055
-181.056	39.472	0.240	-0.212
-180.042	402.756	0.267	-0.555
-179.027	47.397	-0.031	0.028
-178.012	282.260	0.041	-0.073
-176.998	147.067	0.161	0.214
-175.983	158.817	-0.088	-0.120
-174.969	-49.729	0.169	0.079
-173.954	-200.000	-0.012	-0.079
-172.939	222.292	-0.083	0.132
-171.925	-123.323	-0.303	-0.048
-170.910	357.546	0.103	-0.203
-169.896	-106.895	0.380	-0.083
-168.881	-120.043	0.045	0.008
-167.866	-161.719	0.222	-0.011
-166.852	173.958	0.133	-0.190
-165.837	162.535	-0.158	-0.219
-164.823	599.567	0.055	-0.134
-163.808	85.223	0.094	-0.102
-162.793	16.425	0.069	0.054
-161.779	-161.795	-0.112	0.006
-160.764	694.739	-0.049	-0.126
-159.750	25.843	0.036	0.030
-158.735	800.000	-0.111	-0.326
-157.720	-141.054	0.203	-0.021
-156.706	-81.994	-0.230	-0.074
-155.691	-200.000	-0.020	-0.175
-154.677	41.274	-0.093	0.083
-153.662	-200.000	0.015	-0.119
-152.647	133.100	-0.307	-0.392
-151.633	92.262	-0.134	0.149
-150.618	401.141	0.071	0.148
-149.604	755.337	0.068	0.182
-148.589	37.088	-0.090	-0.078
-147.574	188.468	0.192	-0.283
-146.560	-106.243	-0.119	0.026
-145.545	-200.000	0.067	-0.414
-144.531	62.282	0.145	-0.143
-143.516	-161.005	0.052	-0.003
-142.502	-44.808	0.401	0.197
-141.487	124.055	-0.047	0.058
-140.472	-99.314	-0.406	0.101
-139.458	-200.000	-0.007	-0.255
-138.443	115.739	-0.132	-0.159
-137.429	-200.000	-0.006	-0.063
-136.414	-147.443	0.054	0.005
-135.399	304.929	0.120	0.220
-134.385	79.190	0.086	0.091
-133.370	-38.352	0.104	-0.054
-132.356	-22.486	0.132	-0.079
-131.341	800.000	0.084	0.289
-130.326	-48.780	-0.352	-0.166
-129.312	-69.834	0.323	-0.121
-128.297	0.742	0.305	-0.215
-127.283	800.000	0.088	-0.245
-126.268	32.163	-0.171	0.145
-125.253	28.300	-0.273	-0.228
-124.239	-118.444	-0.463	0.081
-123.224	-36.783	-0.183	-0.097
-122.210	-106.930	-0.386	-0.084
-121.195	-73.461	0.071	-0.026
-120.180	-200.000	0.031	-0.280
