DTS Sentinel unit serial number:	SN413079Multiplexer serial number:	ORYXHardware model number:	OX4-SRSoftware version number:	ORYX F/W v4.00 Oryx Data Collector v3.7.2.0data status	okinstallation	princeton_trtdifferential loss correction	single-endedforward channel	channel 1reverse channel	N/Adate	2019/09/12time	21:50:35forward acquisition time	60.00reverse acquisition time	0.00gamma	496.2192k internal	0.2326k external	0.2326temperature offset calibration	1.0150default loss term (dB/km)	0.3790temperature slope calibration	1.0000multiplexer offset coefficient	1.0000multiplexer slope coefficient	1.0000fibre end	0.00T internal ref (°C)	30.19T ext. ref 1 (°C)	3.73T ext. ref 2 (°C)	24.78length (m)	temperature (°C)	Stokes	anti-Stokes-747.200	-50.416	0.022	0.011
-746.185	-29.606	0.278	0.160
-745.171	800.000	0.026	0.083
-744.156	-200.000	-0.006	0.342
-743.142	12.243	-0.191	-0.148
-742.127	-200.000	-0.054	-0.451
-741.112	-200.000	-0.040	-0.287
-740.098	800.000	0.046	0.191
-739.083	-200.000	0.000	-0.025
-738.069	391.973	-0.201	0.421
-737.054	427.624	0.092	-0.200
-736.039	800.000	-0.080	0.252
-735.025	-104.125	0.228	-0.053
-734.010	-61.911	-0.383	-0.162
-732.996	23.232	-0.277	-0.229
-731.981	800.000	-0.015	0.060
-730.966	-112.018	0.145	0.030
-729.952	162.552	-0.106	0.149
-728.937	-26.906	-0.389	-0.229
-727.923	-32.814	-0.112	-0.063
-726.908	68.905	-0.325	0.336
-725.894	-3.101	-0.256	0.180
-724.879	-200.000	-0.002	-0.294
-723.864	226.976	0.138	-0.226
-722.850	-161.718	0.335	0.017
-721.835	-40.568	-0.217	-0.114
-720.821	16.660	0.227	-0.181
-719.806	386.455	-0.173	0.360
-718.791	87.806	0.086	-0.096
-717.777	-16.308	-0.524	-0.335
-716.762	-83.229	0.103	0.033
-715.748	-29.923	0.146	0.084
-714.733	53.468	-0.329	-0.318
-713.718	218.885	-0.105	-0.169
-712.704	-89.981	-0.326	0.096
-711.689	226.276	-0.180	-0.294
-710.675	-111.079	-0.143	0.030
-709.660	-108.372	0.167	-0.036
-708.645	180.358	0.338	-0.499
-707.631	378.330	0.091	0.188
-706.616	-147.797	0.234	-0.020
-705.602	-143.828	0.492	-0.047
-704.587	-84.463	-0.333	0.106
-703.572	190.244	-0.187	0.282
-702.558	800.000	0.004	-0.013
-701.543	-55.032	0.289	-0.131
-700.529	20.920	-0.195	-0.159
-699.514	493.460	-0.106	0.244
-698.499	-83.380	-0.276	0.089
-697.485	-100.579	0.166	0.041
-696.470	241.136	-0.016	0.028
-695.456	125.250	-0.103	0.131
-694.441	-62.894	-0.196	-0.082
-693.426	-100.877	-0.251	0.062
-692.412	221.031	0.117	0.190
-691.397	188.556	-0.190	-0.287
-690.383	125.469	-0.256	-0.325
-689.368	-35.342	-0.137	0.075
-688.354	180.060	-0.235	-0.346
-687.339	-200.000	0.025	0.208
-686.324	176.662	0.041	-0.059
-685.310	-113.469	0.434	0.086
-684.295	-141.887	-0.108	0.011
-683.281	-99.165	-0.133	0.034
-682.266	-18.044	0.233	0.147
-681.251	197.466	-0.148	-0.227
-680.237	294.445	0.038	-0.071
-679.222	-4.237	-0.067	0.046
-678.208	-92.281	-0.182	0.052
-677.193	-200.000	-0.053	-0.264
-676.178	448.330	0.114	0.254
-675.164	489.619	0.045	-0.103
-674.149	54.307	0.194	0.188
-673.135	-165.956	0.235	-0.010
-672.120	-65.320	-0.297	0.120
-671.105	28.143	-0.315	0.267
-670.091	-200.000	-0.009	-0.227
-669.076	38.927	-0.120	-0.108
-668.062	-59.082	0.077	-0.033
-667.047	131.596	0.141	-0.183
-666.032	76.300	0.095	-0.101
-665.018	-27.966	-0.463	-0.270
-664.003	-200.000	0.030	-0.151
-662.989	-92.405	-0.249	0.070
-661.974	-200.000	0.032	-0.186
-660.959	-178.640	-0.089	0.002
-659.945	277.645	-0.084	-0.151
-658.930	-200.000	0.018	0.241
-657.916	34.787	-0.078	0.069
-656.901	257.109	0.106	0.184
-655.886	-38.849	-0.184	-0.098
-654.872	-73.270	0.027	-0.010
-653.857	68.382	-0.198	-0.204
-652.843	-25.727	-0.130	-0.077
-651.828	-200.000	-0.008	-0.048
-650.814	20.891	0.167	0.136
-649.799	439.595	-0.050	0.110
-648.784	157.090	-0.123	0.171
-647.770	-200.000	0.010	0.080
-646.755	-200.000	0.122	0.550
-645.741	747.682	0.083	-0.226
-644.726	-176.881	0.151	0.004
-643.711	305.442	0.077	0.143
-642.697	-114.357	0.500	0.097
-641.682	-200.000	0.004	-0.041
-640.668	-57.545	0.292	-0.129
-639.653	-200.000	-0.030	-0.181
-638.638	160.720	0.130	-0.182
-637.624	-200.000	-0.015	-0.092
-636.609	-38.832	-0.287	-0.152
-635.595	-194.728	0.134	0.001
-634.580	-200.000	0.045	-0.335
-633.565	-62.635	0.309	0.129
-632.551	-28.303	-0.156	-0.091
-631.536	800.000	-0.040	0.155
-630.522	-200.000	0.007	0.165
-629.507	231.771	-0.075	-0.123
-628.492	-143.610	0.256	0.024
-627.478	-200.000	-0.010	-0.169
-626.463	172.826	0.132	0.191
-625.449	41.516	0.048	0.043
-624.434	800.000	0.078	0.283
-623.419	73.889	0.139	-0.147
-622.405	799.253	0.032	-0.088
-621.390	-137.155	0.112	0.013
-620.376	-107.892	0.156	0.034
-619.361	31.822	-0.128	-0.110
-618.346	-111.541	0.171	0.035
-617.332	-16.245	-0.108	0.069
-616.317	800.000	0.098	0.399
-615.303	-107.523	-0.340	-0.075
-614.288	88.211	0.175	-0.195
-613.273	31.906	-0.125	-0.108
-612.259	64.465	0.137	-0.138
-611.244	-23.009	-0.336	0.203
-610.230	210.955	0.161	-0.254
-609.215	241.302	0.152	0.254
-608.201	201.519	0.043	0.066
-607.186	-30.653	-0.330	-0.188
-606.171	-43.696	-0.243	0.123
-605.157	-86.714	0.123	-0.038
-604.142	800.000	-0.082	0.228
-603.128	-10.588	0.248	-0.165
-602.113	-87.990	-0.366	0.110
-601.098	107.267	-0.067	-0.080
-600.084	-200.000	-0.053	0.285
-599.069	-33.709	-0.274	0.152
-598.055	-200.000	0.047	0.372
-597.040	-124.800	0.450	-0.070
-596.025	800.000	-0.031	-0.092
-595.011	-72.589	-0.469	-0.174
-593.996	75.564	-0.017	0.018
-592.982	-95.526	0.185	0.050
-591.967	-55.823	-0.174	-0.078
-590.952	258.017	0.057	-0.098
-589.938	104.421	0.022	0.026
-588.923	435.108	-0.083	0.181
-587.909	-96.807	0.303	-0.080
-586.894	-28.374	-0.305	0.176
-585.879	-108.458	0.405	0.087
-584.865	-182.322	-0.192	0.004
-583.850	-24.757	-0.625	-0.372
-582.836	-200.000	-0.060	0.357
-581.821	129.738	0.099	-0.127
-580.806	-150.817	0.304	-0.023
-579.792	-191.167	-0.160	-0.002
-578.777	800.000	-0.030	-0.121
-577.763	-200.000	-0.001	0.016
-576.748	293.845	-0.097	-0.177
-575.733	-70.708	-0.345	0.130
-574.719	-169.919	0.240	0.009
-573.704	800.000	-0.087	0.332
-572.690	-22.214	0.029	-0.018
-571.675	-154.282	-0.384	0.026
-570.661	758.752	-0.032	-0.088
-569.646	16.534	0.350	0.277
-568.631	-81.173	-0.159	0.053
-567.617	-77.969	-0.273	-0.094
-566.602	134.096	-0.029	0.037
-565.588	-66.758	0.134	-0.053
-564.573	38.585	0.163	-0.146
-563.558	-123.876	-0.114	0.018
-562.544	59.064	0.114	0.112
-561.529	147.139	0.171	-0.230
-560.515	-33.094	0.107	-0.059
-559.500	13.470	-0.248	0.192
-558.485	-200.000	0.008	0.114
-557.471	214.930	-0.071	0.113
-556.456	-200.000	-0.016	0.172
-555.442	42.652	-0.195	-0.178
-554.427	14.907	0.230	0.180
-553.412	800.000	-0.061	0.188
-552.398	431.733	-0.151	-0.327
-551.383	-129.469	0.169	-0.023
-550.369	-88.784	-0.278	-0.083
-549.354	-200.000	-0.005	0.129
-548.339	-169.439	-0.328	-0.012
-547.325	-36.603	0.185	-0.100
-546.310	-200.000	-0.035	-0.364
-545.296	-165.403	0.241	-0.011
-544.281	-158.398	0.555	0.032
-543.266	800.000	-0.041	-0.125
-542.252	65.865	-0.126	0.128
-541.237	-200.000	0.020	-0.132
-540.223	-200.000	-0.001	-0.346
-539.208	37.573	-0.281	0.250
-538.193	-200.000	0.039	-0.400
-537.179	69.724	-0.256	-0.264
-536.164	75.015	0.311	-0.328
-535.150	-118.636	-0.425	-0.075
-534.135	-18.637	-0.061	0.038
-533.121	123.065	-0.125	-0.157
-532.106	469.319	-0.023	0.051
-531.091	122.338	0.195	-0.244
-530.077	-87.399	0.163	-0.049
-529.062	711.928	-0.132	0.351
-528.048	0.524	0.119	-0.085
-527.033	-0.702	0.123	-0.087
-526.018	244.089	-0.123	0.207
-525.004	116.664	-0.181	-0.222
-523.989	-200.000	-0.003	0.227
-522.975	-14.680	0.289	0.186
-521.960	159.617	0.155	0.216
-520.945	800.000	0.059	-0.165
-519.931	-33.506	-0.515	-0.284
-518.916	-111.137	-0.083	-0.017
-517.902	-200.000	-0.020	-0.138
-516.887	161.322	0.177	0.248
-515.872	-101.384	-0.303	0.074
-514.858	452.969	0.160	-0.353
-513.843	19.480	-0.242	-0.195
-512.829	6.892	0.164	-0.122
-511.814	361.796	0.105	-0.210
-510.799	-200.000	-0.030	0.167
-509.785	634.268	-0.086	-0.218
-508.770	538.660	0.146	0.348
-507.756	-62.279	0.060	-0.025
-506.741	-200.000	-0.001	-0.092
-505.726	116.956	0.223	-0.274
-504.712	-49.683	-0.171	-0.081
-503.697	9.593	-0.039	-0.030
-502.683	-200.000	-0.048	0.293
-501.668	48.370	0.205	0.192
-500.653	660.786	0.096	-0.247
-499.639	-200.000	0.021	-0.435
-498.624	-9.660	0.126	-0.084
-497.610	-200.000	-0.008	0.053
-496.595	-150.817	-0.112	-0.008
-495.581	-200.000	0.002	0.036
-494.566	48.571	-0.191	0.179
-493.551	-68.909	0.106	0.041
-492.537	-188.066	-0.311	0.004
-491.522	-69.453	-0.124	-0.047
-490.508	564.552	-0.045	-0.109
-489.493	614.157	0.066	-0.165
-488.478	64.007	-0.170	-0.171
-487.464	70.642	-0.121	-0.125
-486.449	800.000	-0.070	-0.270
-485.435	2.188	-0.301	0.217
-484.420	-62.185	-0.124	-0.052
-483.405	5.186	0.006	0.005
-482.391	-112.673	-0.042	0.008
-481.376	165.691	-0.104	-0.147
-480.362	-36.520	-0.321	-0.172
-479.347	-69.744	0.064	-0.024
-478.332	280.995	-0.081	-0.144
-477.318	173.516	0.075	0.108
-476.303	148.876	0.396	0.534
-475.289	800.000	-0.079	0.252
-474.274	800.000	-0.093	0.268
-473.259	-30.596	0.085	0.048
-472.245	-200.000	0.017	0.164
-471.230	800.000	-0.063	-0.176
-470.216	117.737	-0.037	-0.045
-469.201	800.000	0.079	-0.272
-468.186	-124.611	0.257	-0.040
-467.172	-200.000	0.016	-0.158
-466.157	-138.076	-0.333	-0.037
-465.143	-200.000	-0.006	0.159
-464.128	65.471	0.167	0.169
-463.113	-51.502	-0.329	-0.153
-462.099	9.861	0.394	-0.298
-461.084	-132.341	0.104	0.013
-460.070	-47.367	-0.172	-0.084
-459.055	-200.000	-0.061	0.443
-458.040	800.000	-0.026	0.098
-457.026	271.997	0.053	0.092
-456.011	-47.197	0.158	-0.077
-454.997	29.963	-0.135	-0.114
-453.982	17.876	-0.171	-0.136
-452.968	-59.919	0.185	0.079
-451.953	-200.000	0.040	0.404
-450.938	-102.683	-0.275	0.065
-449.924	-200.000	-0.029	-0.386
-448.909	354.484	0.085	0.168
-447.895	800.000	0.096	0.316
-446.880	-45.336	-0.098	-0.049
-445.865	74.405	0.186	0.195
-444.851	149.047	-0.186	0.251
-443.836	195.366	-0.029	-0.044
-442.822	-51.684	0.218	-0.101
-441.807	242.821	0.092	-0.153
-440.792	149.375	-0.088	-0.118
-439.778	-16.920	-0.202	0.127
-438.763	-130.055	-0.234	-0.032
-437.749	13.235	-0.146	-0.113
-436.734	-76.507	0.231	-0.081
-435.719	-157.475	-0.414	0.025
-434.705	-40.709	-0.420	-0.217
-433.690	-124.492	0.070	-0.011
-432.676	800.000	0.057	0.204
-431.661	-2.822	0.186	0.129
-430.646	138.154	-0.127	0.165
-429.632	-52.698	0.214	0.098
-428.617	126.202	0.125	-0.158
-427.603	800.000	0.044	-0.176
-426.588	-72.042	-0.123	-0.046
-425.573	800.000	-0.062	0.173
-424.559	441.355	0.153	-0.334
-423.544	-86.663	-0.162	-0.049
-422.530	-9.905	-0.071	-0.047
-421.515	589.519	0.059	-0.146
-420.500	-177.523	0.127	-0.003
-419.486	-83.727	0.215	0.068
-418.471	-52.245	0.267	0.123
-417.457	-177.696	-0.264	0.006
-416.442	107.349	-0.211	0.250
-415.428	-200.000	0.062	0.442
-414.413	116.017	-0.302	0.368
-413.398	800.000	0.021	0.068
-412.384	276.668	0.089	0.158
-411.369	-73.480	0.188	-0.068
-410.355	-179.823	0.325	-0.007
-409.340	228.394	-0.197	0.320
-408.325	-88.717	-0.125	0.037
-407.311	800.000	0.032	-0.133
-406.296	-3.615	0.005	0.004
-405.282	94.107	-0.032	-0.036
-404.267	-74.714	0.488	0.175
-403.252	588.138	0.104	0.256
-402.238	-200.000	0.002	0.186
-401.223	354.973	-0.118	0.233
-400.209	177.265	0.135	0.196
-399.194	-155.449	-0.196	-0.013
-398.179	41.533	0.116	-0.104
-397.165	50.161	-0.226	-0.213
-396.150	-7.191	-0.129	-0.087
-395.136	-105.862	0.308	-0.069
-394.121	322.255	-0.081	0.153
-393.106	225.461	-0.149	0.240
-392.092	-200.000	-0.059	0.271
-391.077	800.000	0.086	-0.335
-390.063	745.113	-0.093	0.249
-389.048	95.365	0.212	-0.240
-388.033	305.963	0.170	-0.315
-387.019	-200.000	-0.000	-0.145
-386.004	-110.734	0.230	0.047
-384.990	185.862	-0.117	0.172
-383.975	-101.859	0.125	0.030
-382.960	109.027	0.063	-0.075
-381.946	126.619	0.071	-0.090
-380.931	481.001	-0.104	0.234
-379.917	-76.894	-0.079	-0.028
-378.902	-107.403	0.200	0.044
-377.888	178.791	0.029	-0.042
-376.873	-200.000	0.058	-0.346
-375.858	478.051	0.168	-0.379
-374.844	-125.772	0.267	-0.040
-373.829	-200.000	0.035	0.192
-372.815	-183.194	-0.128	-0.002
-371.800	-59.495	0.491	-0.210
-370.785	31.579	0.054	0.046
-369.771	-200.000	-0.015	-0.130
-368.756	61.082	0.169	0.167
-367.742	595.294	0.108	-0.265
-366.727	591.672	-0.073	-0.179
-365.712	141.974	0.145	-0.191
-364.698	175.732	0.239	-0.345
-363.683	114.275	0.155	-0.187
-362.669	25.517	-0.288	0.238
-361.654	-200.000	-0.007	0.086
-360.639	-200.000	0.027	0.315
-359.625	800.000	0.074	-0.257
-358.610	-200.000	-0.006	-0.256
-357.596	-43.305	0.454	0.228
-356.581	31.738	0.130	-0.111
-355.566	128.874	-0.103	-0.130
-354.552	108.398	-0.234	0.277
-353.537	788.904	0.021	-0.058
-352.523	-95.181	-0.086	0.023
-351.508	-138.886	0.314	-0.034
-350.493	565.210	0.101	0.244
-349.479	-200.000	0.020	-0.202
-348.464	-126.791	0.030	-0.004
-347.450	-83.232	0.375	0.120
-346.435	-200.000	0.025	0.218
-345.420	51.569	0.069	0.065
-344.406	64.815	0.425	-0.426
-343.391	-200.000	0.031	-0.287
-342.377	800.000	-0.051	-0.184
-341.362	-10.519	0.252	-0.166
-340.348	487.571	0.080	-0.180
-339.333	238.848	0.021	-0.034
-338.318	-178.114	0.125	0.003
-337.304	-200.000	0.003	0.238
-336.289	-133.679	0.155	-0.019
-335.275	-200.000	0.018	0.209
-334.260	-3.797	-0.154	-0.106
-333.245	-135.312	-0.252	0.030
-332.231	-200.000	0.003	0.060
-331.216	-200.000	-0.001	-0.017
-330.202	-44.336	-0.491	0.244
-329.187	800.000	-0.017	-0.058
-328.172	-73.524	-0.259	-0.094
-327.158	-200.000	0.001	-0.191
-326.143	-200.000	-0.043	-0.285
-325.129	-73.729	-0.171	-0.062
-324.114	-6.588	-0.391	-0.265
-323.099	-84.985	0.253	-0.079
-322.085	-149.537	-0.107	0.008
-321.070	97.186	0.136	0.155
-320.056	800.000	-0.080	-0.243
-319.041	-140.334	-0.347	0.036
-318.026	-21.286	-0.155	0.094
-317.012	-200.000	0.035	0.387
-315.997	189.466	0.192	0.285
-314.983	-1.222	0.288	-0.202
-313.968	-58.686	0.204	-0.088
-312.953	-45.475	-0.336	0.165
-311.939	-58.886	0.317	-0.136
-310.924	-200.000	0.016	-0.143
-309.910	-36.416	0.146	-0.078
-308.895	42.942	-0.278	-0.252
-307.880	20.531	-0.353	-0.283
-306.866	89.875	0.004	0.004
-305.851	800.000	-0.037	-0.151
-304.837	-200.000	0.014	-0.059
-303.822	-32.147	-0.224	-0.124
-302.807	45.219	0.201	-0.184
-301.793	-43.862	0.208	0.104
-300.778	264.973	-0.154	0.266
-299.764	-32.555	0.187	0.103
-298.749	800.000	0.036	0.115
-297.735	272.027	-0.065	-0.114
-296.720	-175.952	-0.180	-0.005
-295.705	-134.382	0.060	0.007
-294.691	44.397	-0.059	-0.054
-293.676	58.914	-0.047	-0.045
-292.662	81.191	0.050	-0.053
-291.647	-108.950	0.048	0.010
-290.632	-200.000	0.018	-0.231
-289.618	-49.502	0.167	-0.079
-288.603	-41.240	-0.034	-0.017
-287.589	-200.000	0.164	0.000
-286.574	-200.000	-0.026	-0.332
-285.559	-39.863	0.340	0.176
-284.545	204.967	-0.039	-0.060
-283.530	-76.665	-0.262	0.091
-282.516	800.000	-0.136	0.532
-281.501	-24.487	0.276	-0.163
-280.486	573.707	0.079	0.192
-279.472	5.175	0.184	0.134
-278.457	-56.082	0.187	0.083
-277.443	-73.425	0.293	0.106
-276.428	-108.994	-0.013	-0.003
-275.413	-29.439	0.180	-0.102
-274.399	160.949	0.098	-0.136
-273.384	-71.338	0.035	-0.013
-272.370	-43.273	-0.241	0.121
-271.355	253.176	-0.073	0.123
-270.340	-200.000	0.066	0.411
-269.326	3.719	0.166	-0.120
-268.311	24.172	0.150	0.122
-267.297	557.238	-0.106	0.253
-266.282	-133.185	0.466	-0.058
-265.267	-115.708	-0.196	-0.036
-264.253	596.476	-0.105	-0.258
-263.238	43.021	0.104	0.094
-262.224	-13.086	-0.196	-0.126
-261.209	-200.000	0.000	-0.098
-260.195	-200.000	0.007	0.327
-259.180	-100.772	0.263	-0.064
-258.165	-151.978	0.461	0.033
-257.151	-88.561	0.015	0.004
-256.136	-76.675	-0.177	0.061
-255.122	-113.502	-0.244	-0.047
-254.107	71.409	0.125	0.128
-253.092	-200.000	-0.000	-0.200
-252.078	460.018	-0.014	0.032
-251.063	-200.000	-0.066	-0.365
-250.049	89.911	-0.100	-0.111
-249.034	-70.399	0.115	0.043
-248.019	-88.026	-0.284	0.084
-247.005	-98.520	-0.278	-0.070
-245.990	369.504	0.018	-0.036
-244.976	-93.144	-0.296	-0.082
-243.961	800.000	-0.038	-0.136
-242.946	-36.895	0.196	-0.104
-241.932	50.325	-0.124	0.116
-240.917	-200.000	-0.031	0.303
-239.903	-200.000	-0.061	-0.505
-238.888	453.897	-0.005	0.011
-237.873	-200.000	-0.055	0.493
-236.859	-92.821	-0.346	-0.096
-235.844	-200.000	-0.011	0.053
-234.830	137.491	-0.279	-0.361
-233.815	-25.078	-0.323	-0.189
-232.800	-11.731	-0.161	-0.104
-231.786	19.163	-0.104	0.082
-230.771	103.332	0.168	0.194
-229.757	-103.251	0.011	0.003
-228.742	-122.344	0.483	-0.078
-227.727	-155.411	0.211	0.014
-226.713	800.000	0.072	0.226
-225.698	99.070	-0.130	0.149
-224.684	-1.660	-0.219	-0.152
-223.669	-14.108	0.112	0.071
-222.655	434.660	0.018	0.039
-221.640	-57.271	-0.334	0.145
-220.625	13.986	0.255	0.196
-219.611	-200.000	0.044	0.355
-218.596	-158.838	0.210	0.012
-217.582	-39.911	-0.193	-0.099
-216.567	-200.000	0.011	0.080
-215.552	453.862	-0.064	0.140
-214.538	-176.997	0.322	0.008
-213.523	-200.000	-0.006	-0.153
-212.509	188.718	-0.107	-0.158
-211.494	-10.199	-0.270	0.177
-210.479	9.878	0.154	0.115
-209.465	29.474	0.178	-0.150
-208.450	-98.151	-0.208	-0.053
-207.436	123.933	-0.074	-0.091
-206.421	-156.242	0.311	-0.019
-205.406	190.318	0.083	0.124
-204.392	-74.493	-0.237	0.084
-203.377	8.747	-0.147	0.110
-202.363	42.452	-0.122	-0.110
-201.348	112.998	0.160	0.191
-200.333	-200.000	-0.051	0.281
-199.319	48.538	0.304	-0.282
-198.304	0.371	0.122	-0.086
-197.290	319.903	-0.109	0.204
-196.275	229.105	-0.105	0.169
-195.260	512.419	0.075	0.174
-194.246	436.437	-0.102	-0.219
-193.231	-70.661	0.159	-0.059
-192.217	800.000	0.052	0.195
-191.202	-118.294	-0.177	-0.031
-190.187	-116.831	0.141	-0.026
-189.173	327.862	0.076	0.145
-188.158	379.621	0.115	0.233
-187.144	-200.000	-0.010	-0.269
-186.129	800.000	-0.043	0.170
-185.114	108.010	0.087	0.102
-184.100	-96.298	0.233	-0.061
-183.085	-154.974	-0.187	-0.012
-182.071	-29.248	-0.235	0.133
-181.056	-200.000	0.042	0.209
-180.042	-16.836	0.120	-0.075
-179.027	-108.514	-0.024	0.005
-178.012	-24.429	-0.238	-0.140
-176.998	-123.373	-0.434	0.068
-175.983	-20.679	0.079	0.048
-174.969	-19.685	-0.140	0.086
-173.954	-95.480	-0.475	0.126
-172.939	42.469	0.237	0.213
-171.925	-200.000	-0.021	-0.490
-170.910	38.048	-0.232	-0.204
-169.896	-81.509	0.219	-0.071
-168.881	800.000	-0.058	0.171
-167.866	-200.000	0.002	0.189
-166.852	-55.620	0.117	-0.052
-165.837	390.912	0.084	-0.172
-164.823	166.688	-0.129	0.180
-163.808	334.821	-0.109	-0.209
-162.793	46.301	-0.141	-0.129
-161.779	-106.322	-0.283	0.062
-160.764	800.000	0.190	0.531
-159.750	-200.000	-0.084	0.418
-158.735	-200.000	0.027	0.171
-157.720	128.571	-0.259	-0.325
-156.706	-117.923	0.051	0.009
-155.691	-58.845	-0.122	0.052
-154.677	657.397	-0.023	0.059
-153.662	-140.782	0.058	0.006
-152.647	140.613	-0.154	-0.200
-151.633	800.000	0.052	-0.162
-150.618	113.456	0.177	-0.212
-149.604	800.000	0.017	-0.045
-148.589	-126.781	0.357	-0.052
-147.574	-11.086	0.072	0.047
-146.560	-102.940	-0.248	0.058
-145.545	131.502	0.127	0.161
-144.531	-200.000	0.002	0.098
-143.516	800.000	0.077	0.218
-142.502	112.702	-0.050	0.060
-141.487	-200.000	0.061	-0.312
-140.472	-94.661	-0.384	0.103
-139.458	-142.025	0.165	-0.016
-138.443	800.000	-0.021	0.058
-137.429	-131.744	-0.150	0.019
-136.414	-200.000	-0.009	0.160
-135.399	800.000	-0.029	-0.091
-134.385	-200.000	-0.010	-0.333
-133.370	-200.000	0.001	0.157
-132.356	800.000	-0.070	0.215
-131.341	321.728	0.226	0.423
-130.326	43.349	0.312	0.281
-129.312	-126.982	-0.245	0.035
-128.297	649.165	-0.064	0.161
-127.283	-200.000	-0.009	-0.098
-126.268	-200.000	0.004	0.195
-125.253	800.000	0.035	-0.115
-124.239	-200.000	0.062	0.393
-123.224	800.000	0.023	-0.091
-122.210	-58.978	-0.265	-0.113
