DTS Sentinel unit serial number:	SN413079Multiplexer serial number:	ORYXHardware model number:	OX4-SRSoftware version number:	ORYX F/W v4.00 Oryx Data Collector v3.7.2.0data status	okinstallation	princeton_trtdifferential loss correction	single-endedforward channel	channel 1reverse channel	N/Adate	2019/09/11time	17:52:11forward acquisition time	60.00reverse acquisition time	0.00gamma	496.2192k internal	0.2290k external	0.2290temperature offset calibration	0.9995default loss term (dB/km)	0.3790temperature slope calibration	1.0000multiplexer offset coefficient	1.0000multiplexer slope coefficient	1.0000fibre end	0.00T internal ref (°C)	44.00T ext. ref 1 (°C)	1.12T ext. ref 2 (°C)	38.91length (m)	temperature (°C)	Stokes	anti-Stokes-747.200	-58.349	-0.185	0.083
-746.185	676.214	-0.131	0.348
-745.171	-33.849	-0.136	-0.077
-744.156	-32.178	0.254	-0.146
-743.142	-156.329	-0.162	0.010
-742.127	235.891	0.081	-0.137
-741.112	66.180	0.128	0.133
-740.098	361.052	-0.135	0.276
-739.083	-0.759	-0.282	-0.205
-738.069	-97.097	0.074	-0.020
-737.054	800.000	-0.120	0.445
-736.039	131.219	-0.329	0.432
-735.025	-14.736	0.203	0.134
-734.010	394.242	-0.041	-0.086
-732.996	0.088	-0.167	0.122
-731.981	24.940	-0.060	0.051
-730.966	800.000	0.059	0.242
-729.952	-1.513	-0.193	0.139
-728.937	-200.000	0.034	-0.186
-727.923	-145.554	0.268	-0.025
-726.908	-51.147	-0.137	0.066
-725.894	-76.573	0.135	-0.048
-724.879	-23.924	0.053	-0.032
-723.864	52.114	-0.031	0.030
-722.850	-34.305	0.319	0.179
-721.835	-138.047	-0.284	0.032
-720.821	-42.850	-0.081	0.042
-719.806	10.175	0.083	0.064
-718.791	69.328	0.127	0.134
-717.777	-20.511	0.092	-0.058
-716.762	-124.672	0.185	0.029
-715.748	27.244	-0.262	-0.225
-714.733	38.805	-0.367	-0.336
-713.718	800.000	-0.055	-0.243
-712.704	42.344	-0.141	-0.132
-711.689	-200.000	-0.039	0.302
-710.675	-121.202	-0.275	-0.047
-709.660	386.146	-0.136	-0.286
-708.645	67.307	0.215	-0.224
-707.631	-200.000	-0.061	0.291
-706.616	-68.307	0.117	0.046
-705.602	107.715	-0.269	-0.328
-704.587	-200.000	0.033	-0.315
-703.572	-125.572	-0.171	0.027
-702.558	-71.367	0.101	-0.039
-701.543	-53.514	0.301	-0.141
-700.529	69.404	-0.142	-0.149
-699.514	-33.406	-0.011	0.006
-698.499	41.013	0.086	0.080
-697.485	529.993	0.015	-0.036
-696.470	137.595	-0.330	0.441
-695.456	89.533	0.167	0.190
-694.441	800.000	-0.114	-0.457
-693.426	-74.563	0.300	0.110
-692.412	-81.155	-0.205	-0.069
-691.397	-7.195	-0.102	0.070
-690.383	-8.235	0.220	-0.152
-689.368	-61.766	-0.299	0.128
-688.354	-200.000	0.008	0.220
-687.339	-200.000	0.017	-0.136
-686.324	-112.704	-0.372	-0.076
-685.310	50.560	0.201	0.194
-684.295	-72.035	0.340	-0.129
-683.281	-49.037	-0.186	0.091
-682.266	349.607	0.084	-0.170
-681.251	-60.160	0.300	0.131
-680.237	-15.933	0.054	-0.035
-679.222	-106.691	0.276	0.063
-678.208	-200.000	-0.025	0.318
-677.193	-200.000	-0.020	0.296
-676.178	651.817	-0.053	0.138
-675.164	-200.000	-0.000	0.254
-674.149	-82.751	-0.101	0.033
-673.135	-82.646	0.112	0.037
-672.120	-27.911	-0.168	0.099
-671.105	-200.000	0.064	-0.323
-670.091	232.043	0.142	-0.238
-669.076	-31.347	0.245	-0.141
-668.062	285.354	-0.071	0.131
-667.047	520.283	-0.090	-0.215
-666.032	502.396	0.123	-0.291
-665.018	-56.265	-0.128	0.058
-664.003	166.363	0.265	0.384
-662.989	-200.000	-0.020	0.143
-661.974	134.604	-0.121	-0.160
-660.959	-200.000	0.044	-0.518
-659.945	24.648	-0.127	0.107
-658.930	-30.061	-0.100	-0.058
-657.916	-56.691	-0.188	-0.085
-656.901	-5.583	0.313	0.219
-655.886	-61.687	0.139	-0.060
-654.872	-200.000	0.002	-0.066
-653.857	34.007	-0.156	0.138
-652.843	-85.951	0.251	-0.079
-651.828	-123.851	0.270	0.043
-650.814	-50.512	-0.287	-0.138
-649.799	-200.000	0.008	0.038
-648.784	-58.348	0.300	-0.133
-647.770	800.000	0.070	-0.221
-646.755	-39.839	0.139	-0.074
-645.741	8.209	-0.153	0.118
-644.726	73.143	-0.216	-0.231
-643.711	-200.000	0.018	-0.154
-642.697	133.719	0.099	-0.131
-641.682	60.797	-0.206	-0.209
-640.668	-200.000	0.012	-0.118
-639.653	-200.000	0.015	0.124
-638.638	231.727	0.166	-0.278
-637.624	31.177	0.146	-0.128
-636.609	-153.407	-0.511	0.036
-635.595	-20.648	0.272	0.170
-634.580	-155.393	0.287	-0.019
-633.565	800.000	0.115	-0.364
-632.551	-12.634	0.333	-0.221
-631.536	-0.003	-0.336	0.244
-630.522	-200.000	-0.002	-0.046
-629.507	-200.000	0.007	0.341
-628.492	-200.000	0.049	-0.454
-627.478	-23.923	-0.217	0.132
-626.463	51.579	0.066	0.064
-625.449	440.426	0.070	-0.155
-624.434	75.406	-0.130	-0.140
-623.419	-132.916	0.200	-0.026
-622.405	-200.000	-0.016	-0.238
-621.390	71.892	-0.161	0.171
-620.376	232.527	-0.039	0.066
-619.361	800.000	0.071	-0.226
-618.346	-0.382	-0.035	0.025
-617.332	-118.170	-0.176	0.032
-616.317	-185.126	-0.206	0.003
-615.303	148.216	0.120	0.165
-614.288	-74.086	0.300	-0.111
-613.273	130.066	-0.153	0.200
-612.259	175.775	-0.033	0.049
-611.244	-200.000	-0.036	0.226
-610.230	-150.309	-0.464	0.037
-609.215	-6.737	0.154	-0.107
-608.201	-130.533	0.257	0.035
-607.186	675.347	0.023	-0.060
-606.171	-104.899	-0.077	-0.018
-605.157	490.507	-0.132	-0.307
-604.142	221.565	-0.162	0.266
-603.128	188.117	-0.080	-0.123
-602.113	-192.725	-0.380	-0.004
-601.098	-133.451	-0.076	-0.010
-600.084	-171.508	-0.170	-0.006
-599.069	-200.000	-0.145	0.000
-598.055	-200.000	0.025	-0.231
-597.040	10.999	0.123	-0.096
-596.025	-131.909	-0.055	0.007
-595.011	-116.201	0.283	0.054
-593.996	-138.604	-0.233	0.026
-592.982	305.845	-0.104	0.198
-591.967	-104.194	0.076	0.018
-590.952	-88.733	0.199	0.060
-589.938	-103.063	0.176	0.042
-588.923	110.746	-0.064	-0.078
-587.909	-200.000	0.001	-0.121
-586.894	-23.691	-0.265	0.162
-585.879	-58.145	0.293	-0.130
-584.865	630.589	-0.186	0.479
-583.850	-200.000	0.048	0.413
-582.836	-62.968	0.107	-0.045
-581.821	298.376	-0.091	-0.171
-580.806	-95.172	-0.143	0.039
-579.792	-94.423	-0.020	0.006
-578.777	630.225	0.025	0.064
-577.763	-32.517	-0.188	0.106
-576.748	264.091	0.144	-0.255
-575.733	773.186	0.122	-0.338
-574.719	134.366	-0.185	-0.244
-573.704	-130.417	-0.330	-0.046
-572.690	-200.000	-0.003	-0.085
-571.675	-131.222	-0.186	0.025
-570.661	-84.388	-0.290	-0.093
-569.646	-96.197	0.248	-0.067
-568.631	343.718	0.118	-0.235
-567.617	107.453	0.121	-0.147
-566.602	-136.303	-0.240	-0.028
-565.588	0.777	-0.028	0.020
-564.573	-98.808	-0.390	-0.101
-563.558	187.211	-0.141	-0.213
-562.544	83.554	-0.119	0.132
-561.529	800.000	0.117	0.350
-560.515	-1.728	0.143	0.102
-559.500	-200.000	-0.010	-0.050
-558.485	-83.285	-0.204	0.066
-557.471	112.039	0.191	0.234
-556.456	727.088	0.031	0.085
-555.442	434.927	-0.110	0.243
-554.427	-73.518	-0.192	0.071
-553.412	199.081	0.094	-0.146
-552.398	297.547	-0.137	0.257
-551.383	240.044	0.055	0.092
-550.369	557.455	0.166	0.407
-549.354	30.470	0.017	-0.015
-548.339	-200.000	0.044	0.224
-547.325	-137.887	0.131	0.015
-546.310	800.000	0.069	0.245
-545.296	757.680	-0.075	0.207
-544.281	27.330	-0.182	0.156
-543.266	95.275	0.169	-0.195
-542.252	-59.079	-0.186	-0.081
-541.237	55.868	-0.138	-0.136
-540.223	-111.399	-0.283	-0.059
-539.208	-188.918	-0.230	0.003
-538.193	44.406	0.040	-0.037
-537.179	-200.000	-0.056	-0.250
-536.164	-200.000	0.019	0.111
-535.150	800.000	0.157	0.482
-534.135	363.476	-0.004	-0.007
-533.121	119.908	-0.168	0.211
-532.106	-50.684	-0.233	-0.112
-531.091	-47.524	0.123	0.061
-530.077	800.000	0.016	-0.048
-529.062	-142.598	-0.355	0.035
-528.048	-200.000	-0.025	0.402
-527.033	72.352	-0.119	0.126
-526.018	-200.000	-0.066	-0.319
-525.004	-36.715	-0.290	-0.158
-523.989	800.000	0.077	-0.306
-522.975	167.466	-0.162	0.234
-521.960	35.831	0.057	-0.051
-520.945	-92.992	-0.148	-0.042
-519.931	800.000	-0.061	0.232
-518.916	-135.212	0.329	0.040
-517.902	-62.391	0.249	0.105
-516.887	13.836	-0.282	-0.223
-515.872	404.712	-0.026	0.055
-514.858	-200.000	0.009	0.138
-513.843	800.000	0.074	0.220
-512.829	81.891	0.195	-0.215
-511.814	41.449	0.179	-0.164
-510.799	-200.000	0.034	-0.211
-509.785	24.335	0.065	-0.055
-508.770	730.412	-0.131	-0.354
-507.756	95.423	0.154	-0.178
-506.741	766.487	-0.043	0.118
-505.726	369.068	-0.110	-0.227
-504.712	-57.757	0.147	0.065
-503.697	-60.853	0.181	-0.078
-502.683	-186.843	0.292	-0.004
-501.668	135.747	0.103	-0.136
-500.653	566.302	0.106	-0.261
-499.639	674.314	-0.082	-0.216
-498.624	-124.278	-0.224	-0.036
-497.610	226.647	-0.106	-0.175
-496.595	-140.483	0.187	0.020
-495.581	141.085	0.111	0.149
-494.566	160.513	-0.085	0.120
-493.551	-200.000	0.025	0.168
-492.537	-200.000	0.045	-0.364
-491.522	365.873	0.103	0.210
-490.508	-58.515	0.194	-0.085
-489.493	-169.614	0.226	0.008
-488.478	37.675	-0.119	0.108
-487.464	384.239	-0.065	-0.136
-486.449	-110.464	-0.248	-0.052
-485.435	-123.634	0.279	0.045
-484.420	77.197	0.269	0.290
-483.405	-136.873	0.232	0.027
-482.391	675.991	0.033	-0.087
-481.376	601.800	0.077	-0.193
-480.362	-130.195	0.212	-0.029
-479.347	-200.000	-0.008	-0.140
-478.332	88.953	0.080	-0.090
-477.318	376.443	-0.154	-0.318
-476.303	-200.000	0.046	0.310
-475.289	100.604	-0.161	-0.189
-474.274	85.490	0.139	0.155
-473.259	34.112	-0.172	0.152
-472.245	158.648	-0.036	0.050
-471.230	-2.250	-0.186	0.132
-470.216	113.821	-0.121	0.149
-469.201	-92.073	-0.189	0.054
-468.186	13.161	-0.277	-0.217
-467.172	-123.997	-0.162	0.026
-466.157	-61.393	-0.230	-0.098
-465.143	800.000	0.013	-0.040
-464.128	169.639	-0.030	0.044
-463.113	-30.765	0.368	-0.211
-462.099	567.654	-0.103	-0.252
-461.084	-126.284	-0.133	-0.020
-460.070	686.533	0.104	0.275
-459.055	670.963	0.056	0.146
-458.040	-200.000	-0.018	0.089
-457.026	634.262	0.170	-0.437
-456.011	-128.251	-0.164	-0.024
-454.997	-64.477	0.280	-0.115
-453.982	455.806	-0.142	0.318
-452.968	-21.203	-0.114	-0.071
-451.953	-200.000	0.005	-0.265
-450.938	-41.807	-0.077	-0.040
-449.924	-172.065	-0.068	0.002
-448.909	-55.864	0.087	0.039
-447.895	-200.000	-0.010	-0.218
-446.880	-30.120	-0.429	-0.247
-445.865	-49.672	-0.265	-0.128
-444.851	4.329	-0.065	-0.048
-443.836	155.818	0.332	-0.463
-442.822	-149.114	-0.072	0.006
-441.807	-100.640	0.096	-0.024
-440.792	-73.079	-0.288	-0.107
-439.778	321.832	0.155	0.298
-438.763	237.395	-0.032	-0.053
-437.749	-134.042	-0.147	-0.018
-436.734	800.000	-0.010	0.046
-435.719	668.698	0.132	0.347
-434.705	187.298	0.173	0.262
-433.690	180.464	-0.128	0.190
-432.676	153.606	0.079	0.110
-431.661	114.315	-0.126	-0.155
-430.646	178.604	0.138	-0.204
-429.632	-110.021	-0.165	0.035
-428.617	103.866	0.056	0.067
-427.603	-50.635	0.295	0.141
-426.588	657.714	0.105	0.272
-425.573	-165.815	-0.218	-0.009
-424.559	-200.000	0.019	-0.122
-423.544	800.000	-0.124	-0.368
-422.530	800.000	-0.036	-0.126
-421.515	-200.000	-0.069	-0.508
-420.500	24.920	-0.190	0.159
-419.486	-81.791	-0.255	-0.085
-418.471	289.104	0.132	-0.241
-417.457	-200.000	0.106	0.494
-416.442	800.000	0.063	-0.204
-415.428	-200.000	-0.005	-0.034
-414.413	-40.827	-0.319	-0.167
-413.398	-40.909	-0.088	-0.046
-412.384	22.860	0.250	0.207
-411.369	-102.739	0.373	-0.090
-410.355	8.010	0.257	-0.195
-409.340	-200.000	-0.042	-0.456
-408.325	-172.468	0.221	-0.007
-407.311	329.023	-0.163	0.317
-406.296	293.710	0.030	0.055
-405.282	-200.000	-0.016	0.075
-404.267	133.428	0.164	0.215
-403.252	57.376	-0.130	-0.129
-402.238	431.256	-0.066	0.144
-401.223	614.241	-0.154	-0.390
-400.209	-90.908	-0.187	-0.054
-399.194	-72.581	-0.106	0.039
-398.179	-136.705	-0.233	0.027
-397.165	-48.632	0.159	0.077
-396.150	-200.000	0.027	0.252
-395.136	50.535	-0.217	-0.207
-394.121	-200.000	-0.087	-0.433
-393.106	-66.754	-0.241	-0.097
-392.092	-25.854	-0.089	-0.053
-391.077	-200.000	-0.029	0.360
-390.063	-49.079	-0.457	-0.221
-389.048	-181.106	0.220	-0.004
-388.033	-112.601	0.052	0.011
-387.019	335.296	0.145	-0.284
-386.004	57.394	-0.091	0.089
-384.990	-95.364	-0.257	-0.070
-383.975	31.316	0.033	-0.029
-382.960	-200.000	-0.025	-0.227
-381.946	14.751	0.116	-0.092
-380.931	30.110	0.259	0.223
-379.917	-134.154	-0.271	-0.034
-378.902	77.087	-0.140	0.150
-377.888	-200.000	-0.040	0.210
-376.873	480.980	0.013	-0.030
-375.858	4.518	0.145	-0.108
-374.844	-79.207	-0.038	0.013
-373.829	-169.974	-0.262	-0.009
-372.815	467.025	-0.135	0.305
-371.800	-155.555	-0.060	0.004
-370.785	-151.964	-0.099	0.007
-369.771	-86.506	-0.347	-0.108
-368.756	10.086	-0.241	-0.185
-367.742	21.844	0.086	-0.071
-366.727	800.000	0.034	-0.123
-365.712	800.000	-0.092	-0.323
-364.698	-89.912	0.336	0.099
-363.683	-93.737	0.218	0.061
-362.669	-59.543	-0.108	0.047
-361.654	1.445	0.200	0.145
-360.639	187.006	0.067	0.101
-359.625	502.060	-0.117	-0.272
-358.610	648.063	0.030	0.077
-357.596	-200.000	0.032	-0.199
-356.581	-13.404	0.060	-0.040
-355.566	-33.142	0.165	0.092
-354.552	451.462	-0.116	-0.259
-353.537	-200.000	-0.089	0.444
-352.523	-37.011	-0.296	0.160
-351.508	800.000	0.067	-0.194
-350.493	800.000	-0.041	0.132
-349.479	-200.000	-0.026	-0.121
-348.464	800.000	0.061	0.171
-347.450	125.488	0.088	-0.112
-346.435	-70.776	-0.113	-0.043
-345.420	-70.774	0.282	-0.107
-344.406	34.487	-0.186	-0.164
-343.391	-127.613	-0.281	0.041
-342.377	373.269	-0.188	-0.385
-341.362	54.281	0.136	-0.132
-340.348	-200.000	-0.036	-0.267
-339.333	-91.756	-0.246	-0.071
-338.318	-200.000	0.020	-0.108
-337.304	440.776	-0.178	0.392
-336.289	-200.000	0.004	0.033
-335.275	54.174	-0.147	-0.143
-334.260	42.470	0.171	0.157
-333.245	129.599	0.171	0.220
-332.231	-120.692	0.084	0.014
-331.216	545.812	0.223	0.537
-330.202	131.325	0.201	0.260
-329.187	34.117	0.148	0.130
-328.172	54.105	0.121	-0.118
-327.158	-139.717	0.167	-0.018
-326.143	340.029	0.069	-0.135
-325.129	-102.107	0.015	0.004
-324.114	800.000	0.079	-0.231
-323.099	-15.038	-0.207	-0.133
-322.085	800.000	-0.064	0.262
-321.070	-84.368	-0.362	-0.115
-320.056	-200.000	0.046	-0.215
-319.041	-200.000	0.044	-0.220
-318.026	-200.000	-0.022	0.420
-317.012	-87.428	0.279	-0.085
-315.997	524.166	0.055	0.130
-314.983	-54.078	-0.269	0.123
-313.968	133.018	0.219	-0.285
-312.953	-25.234	0.208	0.124
-311.939	-32.634	-0.198	0.111
-310.924	-200.000	0.053	0.248
-309.910	-170.220	0.137	-0.005
-308.895	-200.000	0.002	0.235
-307.880	513.240	-0.110	0.259
-306.866	-34.155	0.088	-0.048
-305.851	-68.765	0.181	-0.070
-304.837	800.000	-0.067	0.292
-303.822	58.510	-0.269	0.265
-302.807	-54.717	0.264	-0.120
-301.793	-78.264	-0.113	-0.039
-300.778	-84.611	0.224	-0.071
-299.764	42.723	-0.249	-0.228
-298.749	7.980	0.162	-0.123
-297.735	48.440	0.113	0.107
-296.720	115.588	-0.090	-0.111
-295.705	800.000	-0.016	-0.045
-294.691	-138.255	-0.217	-0.024
-293.676	-93.640	0.354	-0.098
-292.662	110.839	-0.235	-0.284
-291.647	-25.277	0.313	0.186
-290.632	39.093	0.073	0.066
-289.618	-200.000	0.225	0.001
-288.603	-51.322	-0.189	0.089
-287.589	-91.568	0.178	0.051
-286.574	-200.000	0.042	-0.280
-285.559	-169.585	-0.178	-0.007
-284.545	-23.424	0.172	0.104
-283.530	23.621	0.128	0.106
-282.516	90.542	-0.115	-0.130
-281.501	-62.840	0.290	-0.121
-280.486	190.253	0.013	-0.019
-279.472	31.932	0.336	0.291
-278.457	289.660	-0.153	0.278
-277.443	-114.085	0.457	-0.089
-276.428	12.242	-0.075	-0.058
-275.413	12.698	0.218	-0.169
-274.399	-200.000	-0.049	0.257
-273.384	348.939	0.133	0.263
-272.370	-119.135	-0.257	-0.045
-271.355	43.687	0.071	-0.065
-270.340	145.770	0.179	-0.241
-269.326	253.976	-0.123	0.212
-268.311	-56.458	0.149	0.067
-267.297	136.912	-0.075	0.098
-266.282	-200.000	0.015	0.169
-265.267	-200.000	0.012	0.199
-264.253	-10.181	0.393	-0.263
-263.238	-112.034	-0.111	0.022
-262.224	800.000	-0.036	-0.108
-261.209	-26.566	0.106	-0.062
-260.195	-25.044	0.082	-0.049
-259.180	-200.000	0.017	0.076
-258.165	44.297	-0.041	0.038
-257.151	-71.778	-0.164	-0.062
-256.136	-13.040	0.151	0.099
-255.122	-16.169	0.182	0.116
-254.107	-200.000	-0.009	0.150
-253.092	-200.000	0.012	-0.264
-252.078	305.350	-0.059	0.110
-251.063	-2.673	0.402	-0.282
-250.049	47.512	0.182	0.171
-249.034	-200.000	-0.012	0.088
-248.019	-4.759	0.197	-0.137
-247.005	-137.046	0.162	0.019
-245.990	-200.000	-0.001	0.341
-244.976	57.204	0.125	0.123
-243.961	610.624	0.073	-0.183
-242.946	-200.000	-0.025	-0.200
-241.932	107.546	0.064	0.077
-240.917	800.000	0.051	-0.181
-239.903	800.000	0.035	-0.112
-238.888	70.011	0.131	0.136
-237.873	-200.000	0.035	-0.163
-236.859	-104.518	-0.256	0.059
-235.844	-184.685	0.416	0.007
-234.830	213.829	0.097	0.154
-233.815	-97.441	-0.216	0.056
-232.800	-124.551	0.166	0.026
-231.786	-133.918	-0.204	0.025
-230.771	-200.000	-0.076	0.509
-229.757	-200.000	-0.002	0.066
-228.742	108.839	-0.046	0.055
-227.727	136.237	-0.147	0.193
-226.713	429.146	-0.073	-0.158
-225.698	6.380	0.312	-0.232
-224.684	-0.646	0.205	-0.146
-223.669	-200.000	-0.015	-0.159
-222.655	481.475	-0.024	0.054
-221.640	800.000	-0.036	-0.142
-220.625	-200.000	0.004	-0.262
-219.611	451.027	0.191	0.424
-218.596	-74.049	-0.274	-0.100
-217.582	800.000	-0.048	-0.138
-216.567	185.262	0.102	0.151
-215.552	-120.758	0.093	0.016
-214.538	731.693	0.165	0.442
-213.523	-46.621	0.118	-0.058
-212.509	-48.074	-0.258	-0.125
-211.494	147.222	0.061	-0.082
-210.479	-47.846	0.225	0.109
-209.465	117.740	-0.102	-0.127
-208.450	178.330	-0.153	-0.224
-207.436	94.618	-0.156	0.178
-206.421	95.673	-0.105	-0.120
-205.406	718.555	-0.052	-0.139
-204.392	-143.577	-0.222	0.021
-203.377	-78.095	-0.158	0.055
-202.363	-157.169	0.068	-0.004
-201.348	-3.920	0.095	-0.066
-200.333	-200.000	-0.022	0.153
-199.319	-200.000	0.023	0.119
-198.304	-62.440	-0.309	0.129
-197.290	-181.929	0.193	-0.004
-196.275	5.389	0.252	0.187
-195.260	158.769	-0.173	0.241
-194.246	297.268	-0.046	-0.085
-193.231	100.877	0.207	0.242
-192.217	-65.864	0.207	-0.083
-191.202	45.165	0.225	-0.208
-190.187	-80.981	-0.104	-0.035
-189.173	60.273	-0.112	0.111
-188.158	-154.672	0.180	-0.012
-187.144	1.381	0.225	0.162
-186.129	-165.229	0.134	-0.006
-185.114	633.785	-0.119	0.303
-184.100	800.000	0.039	0.114
-183.085	800.000	0.046	0.170
-182.071	-25.983	0.221	0.130
-181.056	-135.608	-0.106	0.013
-180.042	521.375	-0.076	0.178
-179.027	-184.997	-0.243	-0.004
-178.012	-200.000	-0.023	0.474
-176.998	251.336	-0.105	0.179
-175.983	-80.722	-0.195	0.065
-174.969	-200.000	0.003	-0.218
-173.954	-174.298	-0.347	-0.010
-172.939	344.782	0.058	0.114
-171.925	-200.000	0.018	0.234
-170.910	140.438	0.158	-0.209
-169.896	93.051	-0.269	-0.305
-168.881	-88.256	0.187	-0.056
-167.866	602.231	-0.172	-0.427
-166.852	-200.000	-0.013	-0.391
-165.837	-200.000	-0.070	0.461
-164.823	-41.816	0.193	0.099
-163.808	640.687	-0.056	0.142
-162.793	-64.967	-0.247	0.100
-161.779	800.000	-0.095	0.319
-160.764	78.849	-0.114	0.122
-159.750	-184.429	0.144	-0.002
-158.735	-104.353	0.492	0.114
-157.720	214.997	-0.124	0.197
-156.706	265.027	0.047	0.081
-155.691	-200.000	0.000	0.065
-154.677	116.856	0.144	0.177
-153.662	-175.544	0.300	-0.008
-152.647	366.421	0.082	-0.166
-151.633	-77.048	0.337	0.118
-150.618	25.438	0.211	0.176
-149.604	800.000	-0.056	0.184
-148.589	61.182	0.147	-0.146
-147.574	-200.000	-0.299	-0.001
-146.560	-38.180	-0.212	0.113
-145.545	371.614	-0.041	0.084
-144.531	-200.000	0.013	-0.140
-143.516	234.882	-0.153	-0.253
-142.502	-143.232	-0.196	-0.019
-141.487	-137.108	0.449	-0.051
-140.472	-176.427	-0.377	-0.010
-139.458	-105.113	0.084	-0.019
-138.443	454.330	-0.058	-0.128
-137.429	69.816	0.052	-0.054
-136.414	-110.183	0.276	-0.058
-135.399	13.197	0.082	0.064
-134.385	415.313	0.006	-0.013
-133.370	800.000	0.087	0.285
-132.356	273.890	-0.043	-0.076
-131.341	105.492	-0.111	-0.132
-130.326	86.843	-0.205	-0.227
-129.312	-194.809	-0.227	-0.002
-128.297	221.006	0.044	0.071
-127.283	364.925	0.070	-0.140
-126.268	129.023	0.147	0.188
-125.253	800.000	0.022	0.094
-124.239	-161.311	0.092	0.005
-123.224	15.067	-0.303	0.238
-122.210	-138.400	0.038	0.004
-121.195	133.218	0.173	-0.223
