DTS Sentinel unit serial number:	SN413079Multiplexer serial number:	ORYXHardware model number:	OX4-SRSoftware version number:	ORYX F/W v4.00 Oryx Data Collector v3.7.2.0data status	okinstallation	princeton_trtdifferential loss correction	single-endedforward channel	channel 1reverse channel	N/Adate	2019/09/11time	06:56:11forward acquisition time	60.00reverse acquisition time	0.00gamma	496.2192k internal	0.2330k external	0.2330temperature offset calibration	0.9916default loss term (dB/km)	0.3790temperature slope calibration	1.0000multiplexer offset coefficient	1.0000multiplexer slope coefficient	1.0000fibre end	0.00T internal ref (°C)	30.02T ext. ref 1 (°C)	-0.14T ext. ref 2 (°C)	25.48length (m)	temperature (°C)	Stokes	anti-Stokes-747.200	169.700	-0.222	0.319
-746.185	222.093	0.139	0.224
-745.171	-10.362	0.015	0.010
-744.156	-98.246	-0.386	0.100
-743.142	214.002	0.087	0.139
-742.127	-174.165	0.136	0.004
-741.112	-200.000	-0.139	-0.000
-740.098	230.876	-0.079	0.130
-739.083	-156.348	0.269	0.017
-738.069	458.556	-0.082	0.184
-737.054	-152.021	-0.316	0.023
-736.039	448.401	0.138	0.307
-735.025	-91.091	0.304	-0.088
-734.010	-145.796	-0.098	-0.009
-732.996	159.149	-0.045	-0.063
-731.981	-68.952	-0.366	0.142
-730.966	-110.922	0.054	0.011
-729.952	800.000	0.055	-0.180
-728.937	11.118	-0.410	-0.316
-727.923	-37.033	-0.229	-0.123
-726.908	783.127	-0.066	0.182
-725.894	-119.889	0.271	0.047
-724.879	-200.000	-0.032	-0.147
-723.864	-120.104	0.303	-0.052
-722.850	-28.809	-0.054	-0.031
-721.835	-108.443	0.091	0.020
-720.821	99.293	0.125	-0.145
-719.806	53.874	0.143	-0.138
-718.791	-63.999	-0.009	0.004
-717.777	153.320	-0.123	0.170
-716.762	-200.000	0.026	-0.324
-715.748	-24.191	-0.217	0.130
-714.733	19.893	0.125	-0.101
-713.718	4.523	0.154	0.114
-712.704	471.426	0.035	-0.079
-711.689	267.070	-0.184	-0.323
-710.675	800.000	-0.159	-0.441
-709.660	-181.937	-0.123	0.002
-708.645	52.679	-0.049	0.047
-707.631	-66.185	0.324	-0.130
-706.616	-200.000	0.004	0.026
-705.602	682.904	-0.096	-0.251
-704.587	119.568	-0.151	0.188
-703.572	-200.000	0.033	0.341
-702.558	102.127	0.138	-0.162
-701.543	-61.820	-0.209	-0.088
-700.529	-185.748	0.263	-0.004
-699.514	84.970	0.111	-0.122
-698.499	-173.776	0.088	-0.003
-697.485	-97.460	0.079	0.021
-696.470	184.207	0.076	-0.113
-695.456	-136.022	-0.274	-0.032
-694.441	118.993	0.046	-0.057
-693.426	110.928	-0.148	0.179
-692.412	-76.068	-0.221	0.078
-691.397	-127.770	0.518	-0.075
-690.383	-29.526	-0.132	-0.076
-689.368	163.482	0.261	0.369
-688.354	71.039	-0.155	0.161
-687.339	86.534	0.037	-0.041
-686.324	-200.000	-0.054	0.241
-685.310	312.856	-0.145	-0.273
-684.295	-119.224	-0.147	0.026
-683.281	-79.119	0.066	0.023
-682.266	-176.328	0.178	0.005
-681.251	-200.000	0.045	0.428
-680.237	725.823	-0.148	0.397
-679.222	149.407	-0.134	-0.182
-678.208	-200.000	-0.003	-0.062
-677.193	-84.068	-0.184	-0.059
-676.178	-200.000	0.000	-0.153
-675.164	380.157	0.095	0.195
-674.149	-8.491	-0.077	-0.052
-673.135	44.070	-0.062	0.057
-672.120	800.000	-0.114	-0.384
-671.105	800.000	-0.121	0.515
-670.091	732.044	-0.139	-0.374
-669.076	27.930	-0.250	-0.212
-668.062	-92.770	-0.067	0.019
-667.047	2.443	0.361	-0.262
-666.032	445.285	0.103	0.226
-665.018	24.843	-0.116	-0.097
-664.003	136.269	0.118	0.155
-662.989	-9.121	0.227	0.152
-661.974	-88.832	0.371	-0.111
-660.959	-200.000	-0.005	0.196
-659.945	-135.421	-0.049	0.006
-658.930	-101.093	-0.164	-0.040
-657.916	-200.000	-0.047	-0.239
-656.901	6.896	0.275	-0.205
-655.886	354.570	0.135	-0.270
-654.872	233.225	-0.146	0.241
-653.857	239.852	0.097	-0.161
-652.843	31.660	0.204	0.176
-651.828	-1.793	0.200	-0.141
-650.814	437.377	-0.120	0.263
-649.799	-21.670	-0.281	-0.172
-648.784	337.428	-0.145	-0.282
-647.770	-160.371	-0.156	-0.008
-646.755	-70.797	-0.245	-0.093
-645.741	-79.180	-0.181	0.062
-644.726	121.527	-0.223	-0.279
-643.711	-200.000	0.046	-0.534
-642.697	34.346	-0.147	-0.129
-641.682	52.762	0.013	0.012
-640.668	14.373	0.239	0.187
-639.653	800.000	-0.055	-0.191
-638.638	-200.000	-0.000	0.097
-637.624	246.292	-0.109	-0.185
-636.609	-13.037	-0.071	0.046
-635.595	-79.715	-0.206	0.070
-634.580	104.960	-0.091	0.108
-633.565	800.000	-0.016	-0.064
-632.551	11.008	0.151	-0.115
-631.536	196.701	0.149	-0.228
-630.522	-128.780	-0.370	-0.052
-629.507	345.516	-0.067	-0.131
-628.492	-17.365	-0.243	0.153
-627.478	-37.310	-0.198	-0.106
-626.463	102.644	0.098	0.115
-625.449	800.000	-0.189	-0.528
-624.434	-67.001	0.113	-0.045
-623.419	-56.681	0.324	-0.144
-622.405	800.000	-0.029	0.106
-621.390	160.120	0.208	-0.290
-620.376	29.088	-0.287	-0.244
-619.361	-98.828	0.244	-0.062
-618.346	-140.130	0.077	0.008
-617.332	-115.159	0.189	-0.036
-616.317	-46.518	0.202	-0.099
-615.303	-116.848	0.094	0.017
-614.288	-100.879	-0.224	0.055
-613.273	-123.969	-0.149	-0.024
-612.259	-78.110	0.144	-0.050
-611.244	-54.907	-0.120	-0.054
-610.230	-74.245	0.325	0.118
-609.215	89.860	-0.147	-0.164
-608.201	-11.127	0.169	-0.112
-607.186	-93.160	-0.117	0.033
-606.171	56.404	0.051	-0.050
-605.157	-81.463	-0.056	0.019
-604.142	472.488	0.038	-0.085
-603.128	-6.638	-0.143	-0.098
-602.113	239.787	0.068	-0.113
-601.098	-117.952	-0.275	0.049
-600.084	-23.717	0.277	-0.166
-599.069	-118.077	-0.154	-0.028
-598.055	-80.602	0.150	-0.050
-597.040	-103.947	0.067	0.016
-596.025	148.310	-0.300	-0.406
-595.011	-200.000	-0.048	0.380
-593.996	-44.712	0.250	-0.125
-592.982	83.458	-0.161	-0.176
-591.967	-139.228	-0.076	0.008
-590.952	-6.258	-0.109	0.075
-589.938	-24.903	-0.372	-0.221
-588.923	23.745	-0.300	0.247
-587.909	9.739	0.220	0.167
-586.894	422.506	-0.113	0.242
-585.879	103.625	-0.005	0.006
-584.865	-64.358	0.044	-0.018
-583.850	8.356	0.095	-0.071
-582.836	143.962	-0.119	-0.159
-581.821	478.252	0.014	-0.031
-580.806	35.068	-0.318	0.279
-579.792	105.475	-0.161	0.190
-578.777	-200.000	-0.038	0.228
-577.763	-100.665	0.138	-0.034
-576.748	-148.490	0.126	0.010
-575.733	93.285	0.108	0.122
-574.719	-200.000	-0.033	0.286
-573.704	-200.000	-0.041	-0.282
-572.690	-200.000	0.002	0.403
-571.675	-63.729	-0.330	0.135
-570.661	-70.261	-0.283	-0.108
-569.646	-143.951	0.290	-0.027
-568.631	253.164	-0.122	-0.208
-567.617	-73.764	0.098	0.036
-566.602	409.655	0.030	-0.064
-565.588	414.225	-0.073	-0.156
-564.573	110.281	-0.157	0.189
-563.558	-200.000	-0.005	0.281
-562.544	-46.308	-0.165	-0.081
-561.529	100.059	-0.235	-0.272
-560.515	-200.000	0.010	-0.320
-559.500	-97.717	0.198	0.051
-558.485	232.283	0.074	-0.121
-557.471	-60.497	-0.189	-0.080
-556.456	-105.963	-0.168	-0.038
-555.442	-78.713	0.421	0.144
-554.427	-83.744	0.308	-0.098
-553.412	-90.047	-0.166	-0.048
-552.398	-200.000	-0.018	-0.225
-551.383	278.459	-0.105	-0.187
-550.369	-119.421	0.412	0.071
-549.354	800.000	-0.057	0.191
-548.339	-72.094	0.245	0.091
-547.325	800.000	-0.008	0.030
-546.310	-200.000	0.001	-0.009
-545.296	-94.744	0.179	0.049
-544.281	-197.379	0.253	-0.002
-543.266	-79.728	0.155	-0.052
-542.252	191.553	-0.095	0.143
-541.237	-107.529	0.256	0.056
-540.223	800.000	0.054	-0.166
-539.208	283.964	0.103	-0.185
-538.193	295.690	0.238	-0.436
-537.179	119.519	-0.030	0.037
-536.164	800.000	-0.013	-0.041
-535.150	-4.419	-0.099	-0.068
-534.135	22.548	-0.078	-0.063
-533.121	-35.826	-0.357	0.193
-532.106	101.667	-0.217	-0.253
-531.091	13.305	0.066	-0.051
-530.077	-200.000	-0.446	-0.002
-529.062	-5.155	-0.066	0.046
-528.048	31.099	0.228	-0.195
-527.033	87.201	0.071	0.078
-526.018	-2.364	0.192	-0.134
-525.004	-15.838	0.299	0.190
-523.989	150.347	0.159	0.215
-522.975	215.602	0.117	0.186
-521.960	308.436	0.107	-0.199
-520.945	-47.357	0.289	0.140
-519.931	-200.000	0.021	-0.177
-518.916	-36.134	-0.253	0.136
-517.902	141.796	0.011	-0.014
-516.887	800.000	0.056	-0.183
-515.872	2.961	-0.079	0.057
-514.858	-65.858	-0.216	0.086
-513.843	-70.258	0.160	-0.061
-512.829	741.170	0.055	-0.148
-511.814	168.975	0.064	0.091
-510.799	-200.000	-0.009	0.134
-509.785	46.355	0.270	0.250
-508.770	134.813	0.158	0.205
-507.756	-30.541	-0.222	-0.125
-506.741	-143.547	-0.197	0.019
-505.726	205.757	0.060	-0.092
-504.712	-168.361	-0.119	0.005
-503.697	-66.394	-0.312	0.124
-502.683	50.968	-0.098	0.092
-501.668	800.000	-0.104	-0.293
-500.653	315.989	0.050	-0.093
-499.639	238.263	0.034	0.056
-498.624	203.702	-0.126	0.195
-497.610	800.000	-0.034	0.138
-496.595	76.465	0.141	-0.149
-495.581	-24.306	0.311	0.185
-494.566	-111.124	-0.216	0.044
-493.551	147.036	0.030	-0.040
-492.537	311.158	0.108	-0.201
-491.522	201.145	0.182	-0.280
-490.508	171.531	-0.078	-0.112
-489.493	800.000	0.053	0.214
-488.478	293.705	0.241	-0.440
-487.464	56.035	-0.171	-0.166
-486.449	-200.000	-0.001	0.307
-485.435	280.686	0.066	-0.118
-484.420	3.651	0.219	-0.159
-483.405	-200.000	-0.014	-0.335
-482.391	46.575	0.064	-0.059
-481.376	97.380	0.312	0.357
-480.362	-77.003	-0.161	-0.056
-479.347	15.404	-0.131	-0.102
-478.332	-200.000	-0.008	-0.075
-477.318	-84.637	-0.310	0.097
-476.303	-200.000	-0.043	0.259
-475.289	-98.364	0.145	-0.037
-474.274	800.000	0.049	-0.149
-473.259	800.000	0.101	-0.353
-472.245	-97.072	0.053	-0.014
-471.230	800.000	-0.093	-0.266
-470.216	146.471	-0.121	-0.161
-469.201	38.593	-0.078	0.070
-468.186	80.095	0.148	-0.158
-467.172	-78.227	-0.049	0.017
-466.157	-82.497	-0.153	0.050
-465.143	175.414	-0.071	-0.103
-464.128	-12.950	-0.204	-0.132
-463.113	800.000	0.016	-0.049
-462.099	-98.622	0.128	0.033
-461.084	334.403	0.114	0.220
-460.070	-200.000	0.013	0.152
-459.055	432.343	0.061	-0.131
-458.040	-200.000	0.060	0.354
-457.026	237.183	0.247	0.408
-456.011	-41.305	-0.231	0.119
-454.997	-81.588	-0.041	-0.013
-453.982	258.912	0.083	-0.143
-452.968	-125.212	0.164	-0.025
-451.953	-139.712	0.038	-0.004
-450.938	-90.043	0.410	-0.119
-449.924	296.745	-0.081	-0.149
-448.909	-124.059	0.168	-0.026
-447.895	80.809	-0.212	0.228
-446.880	408.837	0.085	-0.179
-445.865	-200.000	-0.024	-0.528
-444.851	61.936	0.202	-0.201
-443.836	-76.977	0.157	-0.055
-442.822	-149.050	-0.105	0.008
-441.807	489.748	-0.081	-0.185
-440.792	182.864	-0.085	0.125
-439.778	800.000	-0.057	0.193
-438.763	-135.131	0.085	-0.010
-437.749	-200.000	-0.027	-0.189
-436.734	36.184	0.266	-0.233
-435.719	-63.754	-0.379	-0.154
-434.705	-131.471	0.043	0.006
-433.690	-37.703	-0.172	0.091
-432.676	800.000	0.049	-0.193
-431.661	-200.000	-0.081	0.000
-430.646	26.125	-0.031	-0.026
-429.632	454.502	0.115	0.253
-428.617	-10.647	0.062	-0.041
-427.603	-126.389	-0.061	0.009
-426.588	-161.019	0.112	0.006
-425.573	60.302	-0.265	-0.260
-424.559	-145.815	-0.547	-0.048
-423.544	-89.574	0.104	-0.030
-422.530	800.000	0.023	0.100
-421.515	800.000	-0.050	0.194
-420.500	251.962	-0.126	-0.214
-419.486	339.982	-0.207	-0.401
-418.471	-85.366	0.325	-0.101
-417.457	-111.811	-0.242	-0.049
-416.442	-22.912	-0.332	-0.199
-415.428	14.797	-0.113	-0.087
-414.413	-39.097	-0.232	-0.121
-413.398	189.745	-0.038	0.057
-412.384	-2.279	-0.184	-0.128
-411.369	-70.561	-0.346	-0.130
-410.355	-200.000	-0.039	0.455
-409.340	-200.000	0.002	0.046
-408.325	69.113	-0.118	0.120
-407.311	174.551	-0.113	-0.162
-406.296	153.606	0.145	-0.197
-405.282	-143.362	0.549	-0.052
-404.267	-123.895	0.158	-0.025
-403.252	373.886	0.072	-0.146
-402.238	-188.395	-0.163	-0.002
-401.223	-74.327	0.406	-0.146
-400.209	-200.000	-0.056	0.247
-399.194	37.888	0.338	0.298
-398.179	97.031	-0.074	-0.084
-397.165	-14.544	-0.122	-0.078
-396.150	-193.479	-0.369	0.003
-395.136	-200.000	0.019	-0.109
-394.121	-83.755	0.318	-0.101
-393.106	173.716	0.085	0.122
-392.092	800.000	0.039	0.116
-391.077	48.730	-0.071	0.066
-390.063	130.220	-0.179	0.227
-389.048	-153.459	-0.185	0.013
-388.033	800.000	-0.062	0.174
-387.019	22.094	-0.078	0.063
-386.004	-23.629	0.113	-0.067
-384.990	-124.150	0.138	-0.022
-383.975	-200.000	-0.002	0.095
-382.960	56.335	0.300	-0.290
-381.946	-187.271	-0.228	-0.003
-380.931	-10.239	-0.293	-0.193
-379.917	74.731	0.106	-0.111
-378.902	-127.366	-0.182	-0.026
-377.888	-186.502	-0.066	0.001
-376.873	215.795	-0.049	0.077
-375.858	-96.436	-0.307	0.081
-374.844	-110.129	-0.188	0.039
-373.829	800.000	-0.085	0.247
-372.815	800.000	-0.020	0.070
-371.800	23.712	-0.109	-0.089
-370.785	-18.481	-0.164	0.102
-369.771	-127.730	-0.362	0.052
-368.756	704.873	-0.045	0.118
-367.742	-200.000	-0.089	0.416
-366.727	-30.171	-0.125	-0.070
-365.712	185.108	0.133	0.196
-364.698	-82.113	0.215	-0.070
-363.683	800.000	-0.110	0.415
-362.669	-200.000	-0.038	0.360
-361.654	-200.000	0.070	0.365
-360.639	-200.000	0.003	0.112
-359.625	-200.000	0.032	0.177
-358.610	800.000	-0.083	0.227
-357.596	-200.000	-0.024	0.192
-356.581	-73.140	-0.108	0.039
-355.566	-41.846	-0.045	-0.023
-354.552	-111.773	0.211	0.042
-353.537	-54.445	0.228	0.102
-352.523	-50.125	-0.178	0.084
-351.508	-41.510	-0.114	0.058
-350.493	-0.376	0.358	-0.252
-349.479	-116.995	0.224	-0.040
-348.464	-200.000	-0.016	0.168
-347.450	-71.596	-0.065	-0.024
-346.435	-200.000	-0.073	0.409
-345.420	82.658	0.180	0.194
-344.406	800.000	0.039	0.142
-343.391	800.000	-0.002	-0.010
-342.377	177.168	0.086	-0.125
-341.362	-1.292	0.127	-0.089
-340.348	276.640	0.073	0.129
-339.333	-200.000	0.013	0.117
-338.318	-200.000	0.044	0.193
-337.304	-9.157	0.397	0.263
-336.289	-199.497	0.458	0.002
-335.275	-22.076	0.420	-0.253
-334.260	-89.309	-0.198	-0.058
-333.245	-148.082	-0.107	0.009
-332.231	-64.577	0.245	0.099
-331.216	291.948	0.165	0.297
-330.202	-31.976	-0.094	-0.052
-329.187	-27.843	-0.174	-0.100
-328.172	-160.502	-0.058	0.003
-327.158	113.930	-0.180	0.217
-326.143	-66.704	-0.264	-0.104
-325.129	-167.655	-0.259	-0.010
-324.114	-200.000	0.044	-0.203
-323.099	-77.213	-0.137	0.047
-322.085	-79.241	0.108	0.036
-321.070	45.035	0.219	0.200
-320.056	650.147	-0.058	0.148
-319.041	-200.000	0.005	-0.456
-318.026	117.550	-0.035	0.042
-317.012	-149.563	-0.329	0.026
-315.997	58.228	0.178	0.173
-314.983	445.759	-0.054	-0.118
-313.968	-70.959	-0.097	-0.036
-312.953	-200.000	0.043	0.239
-311.939	170.474	-0.103	0.146
-310.924	48.802	0.268	0.249
-309.910	-200.000	0.057	-0.365
-308.895	-200.000	-0.012	0.052
-307.880	-44.303	-0.199	-0.099
-306.866	28.183	0.177	-0.148
-305.851	-13.353	-0.179	-0.115
-304.837	-130.852	-0.110	0.015
-303.822	-200.000	0.010	0.043
-302.807	121.989	-0.100	0.123
-301.793	690.260	0.046	0.120
-300.778	-118.536	0.147	0.026
-299.764	-11.065	0.208	-0.136
-298.749	23.934	0.123	-0.100
-297.735	-142.362	-0.336	0.033
-296.720	155.732	0.064	-0.087
-295.705	-120.732	0.308	0.052
-294.691	576.056	0.074	0.178
-293.676	7.438	-0.244	0.180
-292.662	184.812	-0.205	-0.300
-291.647	-7.347	0.341	0.228
-290.632	-200.000	0.026	0.330
-289.618	326.836	-0.104	-0.198
-288.603	-65.104	-0.031	-0.012
-287.589	-141.178	-0.098	0.010
-286.574	187.297	0.114	-0.168
-285.559	-133.919	-0.090	-0.011
-284.545	613.666	0.020	0.051
-283.530	483.734	-0.056	0.126
-282.516	-119.809	-0.185	0.032
-281.501	-19.232	0.317	-0.195
-280.486	344.949	-0.137	0.266
-279.472	-200.000	0.017	0.188
-278.457	-200.000	-0.009	-0.043
-277.443	-166.790	0.179	-0.007
-276.428	-200.000	-0.057	-0.366
-275.413	112.988	0.264	-0.317
-274.399	-200.000	0.024	0.217
-273.384	-200.000	0.012	0.091
-272.370	9.723	-0.065	-0.049
-271.355	-200.000	0.040	-0.278
-270.340	-200.000	0.050	0.308
-269.326	132.442	0.142	0.181
-268.311	-155.916	0.350	0.022
-267.297	135.151	-0.053	0.068
-266.282	800.000	0.018	-0.072
-265.267	-113.818	-0.324	-0.062
-264.253	-19.954	-0.044	-0.027
-263.238	197.357	-0.103	0.156
-262.224	346.017	0.098	-0.191
-261.209	-131.363	0.134	-0.018
-260.195	-200.000	-0.010	-0.237
-259.180	-200.000	-0.011	0.158
-258.165	-136.821	0.130	0.015
-257.151	-200.000	-0.010	0.121
-256.136	800.000	-0.096	0.265
-255.122	176.047	-0.114	-0.163
-254.107	130.078	-0.140	0.178
-253.092	-173.164	0.162	-0.005
-252.078	-129.750	0.147	0.020
-251.063	30.452	0.221	0.187
-250.049	-12.063	0.089	-0.058
-249.034	29.399	-0.180	-0.151
-248.019	-200.000	0.013	0.224
-247.005	-32.517	-0.130	0.071
-245.990	-164.837	0.205	0.009
-244.976	-49.743	-0.296	0.139
-243.961	23.945	-0.153	-0.125
-242.946	576.993	0.080	-0.192
-241.932	159.533	-0.059	-0.080
-240.917	-152.263	0.258	0.018
-239.903	-200.000	0.016	0.391
-238.888	616.814	-0.028	-0.070
-237.873	800.000	-0.139	0.391
-236.859	-18.363	-0.183	0.113
-235.844	310.057	0.070	-0.129
-234.830	-124.829	-0.280	0.043
-233.815	9.029	-0.125	0.093
-232.800	170.735	0.180	0.254
-231.786	-200.000	-0.073	0.323
-230.771	749.206	-0.114	0.303
-229.757	85.578	0.141	-0.152
-228.742	-16.987	0.234	0.146
-227.727	68.519	0.031	0.032
-226.713	800.000	0.016	0.058
-225.698	800.000	0.052	-0.163
-224.684	412.876	0.117	-0.245
-223.669	535.037	0.033	0.076
-222.655	38.397	0.186	0.163
-221.640	196.098	-0.042	-0.063
-220.625	-200.000	-0.018	0.282
-219.611	192.570	0.069	0.102
-218.596	-200.000	0.036	-0.245
-217.582	-200.000	-0.011	-0.261
-216.567	800.000	0.051	0.158
-215.552	800.000	-0.074	0.206
-214.538	-200.000	0.011	-0.168
-213.523	507.442	0.079	-0.181
-212.509	-31.421	-0.416	0.231
-211.494	-148.356	0.452	-0.037
-210.479	-25.914	-0.061	-0.036
-209.465	-55.247	-0.360	0.160
-208.450	-200.000	-0.003	-0.166
-207.436	-129.211	-0.244	-0.034
-206.421	129.408	0.151	0.191
-205.406	406.932	-0.096	-0.200
-204.392	23.196	-0.084	0.068
-203.377	-83.913	-0.102	0.032
-202.363	53.413	-0.306	0.289
-201.348	-40.607	0.438	0.224
-200.333	-24.072	0.426	0.251
-199.319	-118.115	0.131	0.023
-198.304	-132.804	-0.309	-0.039
-197.290	40.429	-0.194	0.172
-196.275	-165.099	0.136	-0.006
-195.260	-43.775	0.106	0.052
-194.246	5.116	-0.287	-0.209
-193.231	167.735	0.046	0.065
-192.217	-51.298	-0.109	0.050
-191.202	-86.788	0.180	0.054
-190.187	14.234	-0.023	0.018
-189.173	446.378	-0.086	0.186
-188.158	69.610	-0.122	-0.124
-187.144	-105.405	0.115	0.026
-186.129	-176.226	0.350	0.009
-185.114	-200.000	0.017	0.172
-184.100	-48.136	0.159	-0.076
-183.085	-84.009	0.205	0.064
-182.071	-98.932	0.120	0.030
-181.056	54.162	-0.068	0.064
-180.042	-113.110	0.296	0.058
-179.027	19.051	0.125	-0.099
-178.012	565.556	0.035	-0.084
-176.998	800.000	-0.039	0.154
-175.983	-200.000	0.010	0.155
-174.969	141.883	-0.084	-0.110
-173.954	-6.001	-0.130	-0.088
-172.939	-196.825	0.328	0.002
-171.925	203.650	0.125	0.190
-170.910	303.710	0.114	0.208
-169.896	94.162	0.198	0.222
-168.881	-54.943	-0.052	0.023
-167.866	-200.000	-0.063	0.279
-166.852	800.000	-0.009	0.031
-165.837	80.599	0.207	-0.220
-164.823	800.000	0.016	-0.068
-163.808	465.659	-0.153	0.337
-162.793	23.641	-0.189	-0.153
-161.779	-65.761	-0.167	-0.066
-160.764	800.000	-0.040	0.129
-159.750	-98.348	0.218	0.055
-158.735	-67.895	-0.300	-0.115
-157.720	-32.977	-0.110	-0.060
-156.706	13.227	0.115	-0.088
-155.691	343.576	-0.281	-0.543
-154.677	-200.000	0.002	-0.245
-153.662	282.682	0.195	-0.344
-152.647	14.258	0.396	-0.304
-151.633	-153.422	0.502	-0.034
-150.618	-78.654	0.387	0.130
-149.604	-5.983	-0.177	0.119
-148.589	800.000	-0.044	-0.120
-147.574	11.932	0.127	0.096
-146.560	-40.618	0.108	0.055
-145.545	-141.303	0.048	-0.005
-144.531	800.000	0.063	-0.267
-143.516	25.969	-0.345	0.283
-142.502	240.331	0.157	-0.258
-141.487	-26.082	0.099	-0.057
-140.472	751.723	-0.098	-0.259
-139.458	800.000	-0.092	-0.265
-138.443	81.895	0.108	0.115
-137.429	-154.044	-0.058	-0.004
-136.414	242.621	0.136	0.224
-135.399	42.164	-0.328	-0.293
-134.385	-98.732	0.120	0.030
-133.370	-200.000	-0.017	-0.074
-132.356	9.359	0.373	-0.278
-131.341	-106.322	0.303	0.067
-130.326	-108.700	-0.291	-0.061
-129.312	-136.313	-0.086	-0.010
-128.297	-200.000	0.012	-0.388
-127.283	-47.174	-0.202	-0.097
-126.268	129.783	-0.101	-0.127
-125.253	-75.152	-0.297	0.104
-124.239	-200.000	-0.035	-0.257
-123.224	800.000	0.146	0.541
-122.210	-25.061	0.161	-0.094
-121.195	-44.761	-0.146	0.072
