DTS Sentinel unit serial number:	SN413079Multiplexer serial number:	ORYXHardware model number:	OX4-SRSoftware version number:	ORYX F/W v4.00 Oryx Data Collector v3.7.2.0data status	okinstallation	princeton_trtdifferential loss correction	single-endedforward channel	channel 1reverse channel	N/Adate	2019/09/10time	20:00:11forward acquisition time	60.00reverse acquisition time	0.00gamma	496.2192k internal	0.2324k external	0.2324temperature offset calibration	0.9928default loss term (dB/km)	0.3790temperature slope calibration	1.0000multiplexer offset coefficient	1.0000multiplexer slope coefficient	1.0000fibre end	0.00T internal ref (°C)	32.66T ext. ref 1 (°C)	-0.32T ext. ref 2 (°C)	25.60length (m)	temperature (°C)	Stokes	anti-Stokes-747.200	-37.171	-0.295	-0.159
-746.185	-55.243	-0.318	0.144
-745.171	332.172	0.130	0.254
-744.156	163.327	-0.293	0.415
-743.142	-131.625	0.339	-0.045
-742.127	-200.000	-0.021	0.130
-741.112	-79.153	0.190	0.065
-740.098	-30.859	-0.144	0.082
-739.083	492.407	-0.067	-0.154
-738.069	-200.000	-0.032	0.185
-737.054	362.570	-0.103	0.208
-736.039	-200.000	-0.005	0.143
-735.025	547.019	0.105	0.254
-734.010	-7.218	0.061	0.042
-732.996	117.479	-0.275	-0.342
-731.981	65.661	0.182	-0.186
-730.966	-42.826	-0.180	0.092
-729.952	-200.000	0.111	0.001
-728.937	95.962	-0.200	-0.230
-727.923	-59.499	0.219	0.095
-726.908	-14.358	-0.136	-0.088
-725.894	167.474	0.145	-0.208
-724.879	-126.373	-0.037	-0.006
-723.864	-63.819	-0.063	-0.026
-722.850	800.000	0.058	-0.211
-721.835	-200.000	-0.059	-0.412
-720.821	-35.586	-0.210	-0.115
-719.806	-200.000	-0.001	0.047
-718.791	147.453	0.079	-0.108
-717.777	62.980	-0.171	-0.173
-716.762	-110.548	0.282	0.059
-715.748	149.417	-0.210	-0.286
-714.733	-76.029	-0.117	-0.042
-713.718	-167.485	-0.311	-0.013
-712.704	54.544	-0.211	0.205
-711.689	-200.000	-0.023	-0.142
-710.675	-42.470	-0.081	-0.042
-709.660	141.132	-0.235	0.314
-708.645	-200.000	-0.005	0.184
-707.631	-200.000	-0.020	0.088
-706.616	-137.397	-0.286	-0.033
-705.602	-200.000	-0.045	-0.339
-704.587	-200.000	-0.010	-0.117
-703.572	-122.717	-0.075	-0.012
-702.558	800.000	0.023	0.064
-701.543	-168.334	0.083	0.003
-700.529	-69.003	0.081	0.032
-699.514	-9.368	-0.236	0.159
-698.499	-143.689	0.196	-0.019
-697.485	-77.019	0.383	-0.135
-696.470	108.556	0.037	-0.044
-695.456	-137.127	-0.148	-0.017
-694.441	157.693	-0.022	-0.030
-693.426	261.820	0.081	-0.141
-692.412	122.727	-0.248	-0.313
-691.397	98.830	-0.117	0.136
-690.383	214.618	-0.088	-0.140
-689.368	-200.000	0.011	0.068
-688.354	418.220	-0.095	-0.205
-687.339	-160.921	-0.181	0.010
-686.324	-45.479	0.259	0.129
-685.310	-51.230	0.358	-0.169
-684.295	-200.000	-0.005	0.124
-683.281	-23.382	0.084	-0.051
-682.266	68.134	-0.134	0.138
-681.251	-189.310	0.145	0.002
-680.237	14.805	-0.072	-0.057
-679.222	15.778	-0.241	0.191
-678.208	-48.253	-0.149	-0.072
-677.193	-48.590	0.086	0.042
-676.178	-102.276	0.142	0.034
-675.164	141.464	0.045	0.059
-674.149	146.220	-0.083	0.112
-673.135	-106.924	0.100	-0.022
-672.120	-200.000	0.001	-0.131
-671.105	-102.360	-0.261	-0.063
-670.091	-82.028	0.220	0.072
-669.076	157.557	-0.122	-0.169
-668.062	226.422	0.140	-0.228
-667.047	140.767	-0.183	-0.243
-666.032	-163.765	0.164	-0.008
-665.018	-84.586	0.352	0.112
-664.003	800.000	0.070	-0.194
-662.989	-43.133	-0.171	0.087
-661.974	-43.533	-0.327	0.166
-660.959	97.248	-0.158	-0.183
-659.945	-143.041	0.242	-0.023
-658.930	-16.628	-0.116	-0.074
-657.916	191.312	-0.163	0.247
-656.901	-120.074	0.309	0.053
-655.886	-200.000	-0.036	-0.285
-654.872	52.658	-0.282	-0.271
-653.857	8.470	0.219	-0.166
-652.843	506.301	0.075	-0.175
-651.828	800.000	0.124	0.530
-650.814	184.301	0.125	-0.186
-649.799	-156.941	0.127	0.008
-648.784	-200.000	-0.011	-0.268
-647.770	800.000	-0.073	-0.232
-646.755	-187.458	0.369	-0.005
-645.741	-200.000	0.034	0.162
-644.726	-200.000	-0.060	-0.341
-643.711	-108.549	-0.080	0.017
-642.697	-200.000	0.032	0.170
-641.682	-5.406	-0.107	-0.074
-640.668	133.101	0.155	-0.201
-639.653	583.583	-0.084	-0.207
-638.638	8.464	0.129	0.097
-637.624	-170.902	0.051	0.002
-636.609	-200.000	-0.027	-0.128
-635.595	77.509	-0.244	0.262
-634.580	406.470	-0.169	-0.358
-633.565	-163.412	0.289	-0.014
-632.551	800.000	0.006	-0.027
-631.536	-200.000	0.013	-0.151
-630.522	-200.000	-0.033	-0.169
-629.507	-71.959	0.228	0.085
-628.492	-160.438	0.189	0.010
-627.478	-89.121	0.265	0.079
-626.463	-75.506	-0.313	-0.112
-625.449	93.866	-0.126	0.143
-624.434	313.675	0.217	0.409
-623.419	-3.082	-0.178	0.125
-622.405	81.555	0.084	-0.091
-621.390	224.717	-0.186	0.302
-620.376	1.449	-0.075	-0.054
-619.361	27.380	-0.083	-0.070
-618.346	-200.000	0.015	0.297
-617.332	-122.933	-0.141	0.023
-616.317	171.796	0.156	0.226
-615.303	-26.529	-0.066	0.039
-614.288	480.550	-0.040	0.091
-613.273	-99.432	0.085	-0.021
-612.259	6.910	0.273	-0.204
-611.244	-80.758	0.067	-0.022
-610.230	-175.539	0.221	0.006
-609.215	-200.000	0.057	-0.273
-608.201	-200.000	0.017	-0.327
-607.186	761.160	-0.153	0.416
-606.171	-115.411	-0.339	-0.064
-605.157	-191.558	-0.253	-0.003
-604.142	-200.000	0.014	-0.135
-603.128	-111.104	-0.567	0.117
-602.113	-200.000	0.014	-0.119
-601.098	136.519	0.077	0.100
-600.084	220.742	-0.340	0.547
-599.069	-200.000	0.018	0.132
-598.055	-55.142	0.295	0.133
-597.040	107.170	0.085	0.101
-596.025	-47.137	-0.306	-0.150
-595.011	774.664	0.065	-0.177
-593.996	-125.160	0.177	0.027
-592.982	-104.094	0.067	0.016
-591.967	258.368	-0.058	-0.100
-590.952	-82.608	0.281	0.091
-589.938	-81.373	-0.058	-0.019
-588.923	-200.000	-0.040	-0.319
-587.909	15.961	0.396	-0.313
-586.894	800.000	0.052	-0.185
-585.879	-134.020	0.206	0.026
-584.865	-200.000	0.011	-0.094
-583.850	-32.794	0.182	-0.102
-582.836	-81.190	0.240	-0.079
-581.821	800.000	0.015	-0.048
-580.806	153.895	-0.135	0.186
-579.792	-135.699	0.197	-0.023
-578.777	-162.854	0.051	0.003
-577.763	107.248	0.181	0.216
-576.748	-81.265	0.219	-0.073
-575.733	800.000	0.027	0.102
-574.719	311.697	-0.069	0.129
-573.704	576.099	0.061	0.149
-572.690	-200.000	0.010	-0.065
-571.675	8.434	0.114	0.086
-570.661	800.000	0.102	-0.366
-569.646	75.670	0.166	0.176
-568.631	-200.000	0.025	-0.164
-567.617	-69.905	0.069	-0.026
-566.602	59.452	-0.048	-0.047
-565.588	-195.199	0.070	0.001
-564.573	10.001	0.078	-0.059
-563.558	-149.850	-0.169	-0.013
-562.544	-163.577	-0.235	-0.011
-561.529	-142.718	0.251	-0.025
-560.515	-89.545	-0.133	-0.039
-559.500	-200.000	0.012	0.193
-558.485	34.476	-0.108	-0.094
-557.471	101.660	-0.048	0.056
-556.456	-62.140	0.094	0.039
-555.442	-59.212	-0.297	-0.128
-554.427	-25.114	-0.353	0.210
-553.412	-114.914	-0.355	-0.068
-552.398	-189.884	0.287	0.003
-551.383	-106.445	0.076	-0.017
-550.369	149.573	-0.097	-0.131
-549.354	-87.855	-0.194	0.059
-548.339	-69.146	0.093	-0.036
-547.325	-200.000	-0.029	-0.158
-546.310	66.837	-0.054	-0.055
-545.296	149.457	0.170	-0.231
-544.281	-200.000	0.016	-0.341
-543.266	94.577	-0.118	-0.134
-542.252	60.576	0.207	0.205
-541.237	-200.000	-0.011	-0.115
-540.223	345.428	-0.145	-0.284
-539.208	-69.317	-0.109	-0.042
-538.193	261.239	-0.026	-0.045
-537.179	-175.286	-0.041	0.001
-536.164	40.136	-0.240	0.216
-535.150	-200.000	-0.015	-0.163
-534.135	-113.619	-0.092	0.018
-533.121	-5.785	-0.113	-0.078
-532.106	41.387	-0.135	-0.122
-531.091	-30.224	0.147	0.084
-530.077	-200.000	-0.039	-0.224
-529.062	-16.628	0.092	0.059
-528.048	-200.000	0.015	-0.079
-527.033	-14.765	-0.301	0.194
-526.018	-40.574	0.084	0.044
-525.004	-200.000	-0.037	-0.206
-523.989	800.000	0.019	-0.054
-522.975	138.581	-0.074	0.097
-521.960	-71.124	-0.361	0.136
-520.945	31.081	0.298	-0.256
-519.931	-86.412	0.354	-0.109
-518.916	-82.714	-0.294	0.095
-517.902	641.770	0.026	0.065
-516.887	27.092	0.196	0.165
-515.872	454.112	0.037	0.082
-514.858	-11.154	-0.130	-0.085
-513.843	82.080	0.199	0.216
-512.829	-82.177	0.376	-0.123
-511.814	-200.000	-0.007	0.291
-510.799	800.000	0.021	0.088
-509.785	800.000	-0.013	0.039
-508.770	138.448	-0.058	0.076
-507.756	28.406	-0.207	-0.175
-506.741	493.235	-0.119	-0.272
-505.726	35.974	0.136	0.120
-504.712	-200.000	-0.025	-0.146
-503.697	7.235	-0.133	0.099
-502.683	44.009	-0.044	-0.041
-501.668	-47.201	0.267	-0.130
-500.653	35.535	-0.106	0.093
-499.639	104.332	0.144	-0.169
-498.624	-31.814	-0.203	0.114
-497.610	730.126	0.061	-0.163
-496.595	268.280	-0.130	0.228
-495.581	5.984	0.086	0.064
-494.566	-96.548	-0.181	0.048
-493.551	-52.458	0.251	0.116
-492.537	74.769	0.226	0.237
-491.522	505.737	-0.064	0.149
-490.508	-77.539	0.195	-0.068
-489.493	-94.033	-0.132	0.036
-488.478	44.572	-0.049	-0.045
-487.464	95.015	-0.094	0.107
-486.449	-200.000	-0.001	0.186
-485.435	800.000	-0.069	0.291
-484.420	94.731	-0.154	-0.175
-483.405	-165.317	-0.447	-0.020
-482.391	70.292	0.087	-0.090
-481.376	-200.000	0.018	0.427
-480.362	-200.000	0.003	-0.169
-479.347	-110.104	0.344	0.072
-478.332	-200.000	-0.017	0.266
-477.318	-66.767	0.129	-0.051
-476.303	-10.476	0.045	0.030
-475.289	-200.000	-0.004	-0.219
-474.274	-96.934	-0.280	0.073
-473.259	-56.954	0.270	-0.119
-472.245	-86.444	-0.208	0.064
-471.230	-102.715	0.194	-0.046
-470.216	-58.211	-0.253	-0.110
-469.201	-179.181	0.046	0.001
-468.186	-101.872	-0.205	0.049
-467.172	-19.437	-0.345	0.214
-466.157	71.291	-0.186	-0.193
-465.143	-200.000	-0.044	-0.292
-464.128	800.000	0.060	0.169
-463.113	-2.017	0.089	-0.062
-462.099	-153.516	-0.276	-0.019
-461.084	376.525	0.074	0.151
-460.070	53.049	-0.180	0.172
-459.055	152.262	-0.184	0.250
-458.040	-171.269	-0.366	0.012
-457.026	-144.609	0.390	0.036
-456.011	157.768	0.196	0.272
-454.997	-200.000	-0.036	0.438
-453.982	-6.334	0.138	0.094
-452.968	-92.528	0.388	0.109
-451.953	-200.000	-0.002	-0.030
-450.938	501.208	-0.141	-0.326
-449.924	800.000	0.073	0.242
-448.909	676.913	-0.109	-0.283
-447.895	16.419	-0.050	-0.040
-446.880	-159.942	0.316	-0.017
-445.865	80.472	0.229	0.246
-444.851	29.798	0.088	-0.075
-443.836	8.587	0.281	-0.211
-442.822	196.563	-0.337	0.512
-441.807	1.932	0.166	0.119
-440.792	435.032	-0.183	-0.397
-439.778	104.353	0.135	-0.158
-438.763	26.232	0.162	0.135
-437.749	-200.000	0.040	-0.183
-436.734	194.088	-0.063	-0.094
-435.719	18.534	0.270	0.215
-434.705	-60.398	-0.153	-0.065
-433.690	-24.139	-0.124	-0.074
-432.676	85.437	-0.221	-0.242
-431.661	-87.795	0.167	-0.050
-430.646	190.330	-0.181	-0.271
-429.632	720.700	-0.063	0.166
-428.617	128.937	-0.201	-0.256
-427.603	690.421	-0.129	-0.337
-426.588	-170.037	0.256	-0.009
-425.573	-75.643	0.016	-0.006
-424.559	-54.675	0.573	-0.258
-423.544	129.455	-0.047	-0.059
-422.530	-92.543	0.150	0.042
-421.515	-200.000	-0.049	-0.378
-420.500	800.000	-0.094	0.374
-419.486	230.898	-0.088	-0.143
-418.471	292.421	0.197	0.358
-417.457	106.000	-0.107	-0.127
-416.442	31.405	-0.207	-0.178
-415.428	133.585	-0.044	-0.057
-414.413	206.970	0.074	-0.116
-413.398	800.000	0.014	0.048
-412.384	106.014	-0.162	0.191
-411.369	-30.162	-0.170	0.096
-410.355	112.444	-0.305	-0.367
-409.340	3.155	-0.165	0.120
-408.325	36.828	-0.132	0.116
-407.311	114.784	-0.114	0.138
-406.296	-83.181	0.180	-0.058
-405.282	-87.765	0.182	0.055
-404.267	-200.000	-0.027	0.322
-403.252	-53.618	0.124	0.056
-402.238	-200.000	0.009	-0.252
-401.223	37.522	-0.036	-0.032
-400.209	-200.000	-0.050	0.230
-399.194	10.883	0.099	-0.076
-398.179	16.995	0.195	-0.154
-397.165	-123.267	0.107	0.017
-396.150	-53.498	0.209	-0.095
-395.136	123.419	-0.208	0.259
-394.121	-19.808	0.182	-0.112
-393.106	-17.973	-0.149	0.093
-392.092	800.000	-0.124	-0.480
-391.077	32.272	-0.033	0.028
-390.063	283.783	-0.085	0.152
-389.048	800.000	0.016	-0.059
-388.033	-133.995	0.231	0.028
-387.019	-89.734	-0.077	0.022
-386.004	47.704	0.152	-0.141
-384.990	-200.000	-0.092	0.477
-383.975	22.478	0.171	0.139
-382.960	-117.242	-0.274	0.050
-381.946	-85.989	0.074	-0.023
-380.931	-200.000	-0.049	0.236
-379.917	-100.972	-0.257	0.063
-378.902	-33.186	0.176	-0.097
-377.888	-200.000	-0.050	0.350
-376.873	89.641	-0.092	0.102
-375.858	-200.000	0.005	0.083
-374.844	-51.795	-0.228	-0.106
-373.829	-81.161	0.344	-0.113
-372.815	-200.000	0.029	-0.313
-371.800	-52.176	0.216	0.100
-370.785	252.295	-0.068	0.116
-369.771	-33.711	-0.090	-0.050
-368.756	-32.894	-0.289	-0.160
-367.742	-58.489	0.378	0.163
-366.727	581.490	-0.154	-0.375
-365.712	800.000	-0.078	-0.239
-364.698	-150.637	0.103	0.008
-363.683	35.008	-0.321	-0.279
-362.669	-9.893	0.292	-0.193
-361.654	318.904	-0.075	0.141
-360.639	-162.088	-0.227	-0.011
-359.625	4.507	-0.309	-0.225
-358.610	800.000	0.055	0.165
-357.596	160.511	-0.190	0.264
-356.581	234.080	0.078	-0.127
-355.566	37.417	0.219	0.193
-354.552	559.203	0.098	0.236
-353.537	-71.305	-0.097	-0.036
-352.523	-200.000	0.028	0.304
-351.508	65.956	0.089	0.090
-350.493	-200.000	0.000	0.025
-349.479	672.209	0.102	0.262
-348.464	-200.000	0.029	0.184
-347.450	299.764	0.183	0.334
-346.435	-200.000	0.007	0.036
-345.420	-105.608	-0.260	0.059
-344.406	-124.153	0.268	-0.042
-343.391	-200.000	-0.044	0.253
-342.377	127.449	0.039	-0.049
-341.362	-24.454	-0.235	-0.139
-340.348	39.091	0.140	-0.124
-339.333	800.000	0.050	-0.213
-338.318	800.000	0.184	0.510
-337.304	-35.639	0.322	-0.174
-336.289	8.893	-0.149	-0.112
-335.275	49.940	0.055	0.051
-334.260	126.380	-0.079	0.100
-333.245	656.182	0.009	-0.023
-332.231	324.768	-0.121	0.230
-331.216	-200.000	0.014	0.150
-330.202	-6.225	0.054	0.037
-329.187	18.466	0.227	-0.180
-328.172	725.454	-0.046	0.122
-327.158	-74.095	0.181	0.065
-326.143	-200.000	-0.001	0.044
-325.129	130.309	-0.138	0.176
-324.114	17.729	-0.132	0.105
-323.099	247.354	-0.026	0.044
-322.085	301.224	0.043	-0.078
-321.070	699.381	-0.033	0.086
-320.056	-163.609	-0.394	-0.018
-319.041	331.850	-0.074	0.142
-318.026	246.123	-0.245	0.410
-317.012	-21.567	-0.198	0.120
-315.997	85.831	0.217	0.237
-314.983	-200.000	0.001	-0.109
-313.968	111.873	-0.096	-0.115
-312.953	357.390	0.110	0.218
-311.939	800.000	0.111	-0.319
-310.924	-46.803	0.178	-0.087
-309.910	33.681	0.083	0.072
-308.895	-59.255	-0.452	-0.193
-307.880	687.925	0.097	-0.251
-306.866	-26.577	-0.109	-0.063
-305.851	158.219	0.120	0.165
-304.837	-65.679	0.174	0.069
-303.822	298.029	0.145	-0.265
-302.807	361.395	-0.091	-0.181
-301.793	-97.042	-0.120	-0.031
-300.778	-177.863	-0.274	0.007
-299.764	-127.335	0.091	-0.013
-298.749	-141.696	-0.482	0.048
-297.735	-156.558	0.228	-0.014
-296.720	-59.314	0.223	-0.095
-295.705	-46.480	-0.256	-0.125
-294.691	-90.442	0.135	0.039
-293.676	-177.055	-0.230	0.006
-292.662	800.000	0.027	0.102
-291.647	-185.672	-0.114	-0.002
-290.632	-39.592	0.092	0.048
-289.618	-65.194	0.108	0.043
-288.603	-67.834	-0.221	0.086
-287.589	800.000	-0.032	-0.105
-286.574	-98.252	-0.184	-0.047
-285.559	-96.095	0.266	0.070
-284.545	110.701	-0.154	0.184
-283.530	582.117	0.157	-0.383
-282.516	99.420	-0.156	0.179
-281.501	-73.005	-0.189	-0.069
-280.486	-29.308	0.049	0.028
-279.472	165.822	-0.131	0.184
-278.457	800.000	0.044	0.187
-277.443	97.151	-0.131	-0.149
-276.428	125.404	0.160	0.199
-275.413	218.068	0.105	-0.166
-274.399	-87.039	0.142	0.043
-273.384	-7.746	0.254	-0.170
-272.370	23.905	-0.120	-0.098
-271.355	-53.145	0.318	0.145
-270.340	-153.029	0.260	-0.018
-269.326	67.845	0.159	0.161
-268.311	22.804	-0.027	-0.022
-267.297	800.000	0.048	-0.178
-266.282	-85.097	-0.266	-0.083
-265.267	112.968	0.083	-0.099
-264.253	-123.688	0.290	-0.045
-263.238	24.864	0.108	0.089
-262.224	178.675	-0.141	-0.203
-261.209	-79.139	-0.071	0.024
-260.195	-150.838	0.372	0.028
-259.180	-152.220	-0.144	0.010
-258.165	220.278	-0.089	-0.141
-257.151	48.162	0.115	0.106
-256.136	-67.147	0.175	0.068
-255.122	71.683	0.184	-0.189
-254.107	-200.000	0.023	-0.179
-253.092	47.754	-0.155	-0.143
-252.078	178.578	-0.221	0.319
-251.063	18.447	-0.202	0.160
-250.049	-90.453	-0.124	-0.036
-249.034	-200.000	-0.027	-0.201
-248.019	-125.686	0.264	0.040
-247.005	-200.000	0.006	0.413
-245.990	-8.236	-0.093	0.062
-244.976	47.208	-0.106	0.098
-243.961	44.254	0.144	-0.131
-242.946	-158.732	0.104	0.006
-241.932	-63.639	0.130	0.053
-240.917	800.000	0.046	-0.151
-239.903	-109.607	0.372	0.078
-238.888	693.333	-0.030	0.079
-237.873	800.000	0.127	0.460
-236.859	136.860	-0.068	-0.087
-235.844	297.525	-0.109	-0.198
-234.830	408.899	-0.021	0.045
-233.815	-44.882	0.212	-0.105
-232.800	622.522	0.125	-0.311
-231.786	-176.216	-0.641	0.017
-230.771	377.562	-0.146	0.295
-229.757	-200.000	-0.030	0.156
-228.742	-101.543	0.113	-0.027
-227.727	800.000	-0.082	0.298
-226.713	-5.757	0.239	0.162
-225.698	800.000	-0.081	-0.298
-224.684	-71.887	0.291	-0.107
-223.669	289.463	0.133	-0.239
-222.655	-200.000	0.011	-0.308
-221.640	39.911	0.090	-0.080
-220.625	-136.508	0.331	-0.038
-219.611	-26.896	-0.075	-0.043
-218.596	-104.427	-0.063	-0.014
-217.582	-200.000	-0.092	-0.457
-216.567	-107.267	0.334	0.073
-215.552	-125.479	-0.165	-0.025
-214.538	800.000	-0.077	0.303
-213.523	244.416	0.028	0.046
-212.509	7.716	-0.145	0.107
-211.494	800.000	-0.051	-0.217
-210.479	294.319	0.139	0.251
-209.465	36.835	-0.367	-0.321
-208.450	-65.813	-0.295	0.117
-207.436	45.765	-0.154	0.140
-206.421	378.804	0.195	-0.395
-205.406	-30.808	-0.101	-0.057
-204.392	269.398	-0.101	-0.175
-203.377	-200.000	0.086	-0.478
-202.363	-200.000	-0.033	-0.308
-201.348	646.046	0.072	0.181
-200.333	-109.260	0.334	-0.070
-199.319	800.000	0.002	0.007
-198.304	-9.278	0.230	-0.152
-197.290	7.330	0.178	0.131
-196.275	376.317	-0.151	0.304
-195.260	131.570	0.133	0.169
-194.246	2.354	-0.136	-0.098
-193.231	13.611	0.036	-0.028
-192.217	800.000	-0.014	-0.042
-191.202	-200.000	0.022	-0.161
-190.187	-26.339	0.080	0.046
-189.173	800.000	0.126	-0.400
-188.158	-83.659	0.222	-0.070
-187.144	-5.120	-0.048	-0.032
-186.129	10.393	-0.190	0.143
-185.114	222.191	0.110	0.175
-184.100	224.026	0.067	0.107
-183.085	-77.333	-0.197	0.068
-182.071	-200.000	0.027	0.273
-181.056	-101.230	-0.113	-0.027
-180.042	126.211	0.214	-0.268
-179.027	-25.483	0.110	0.064
-178.012	-66.863	-0.257	0.100
-176.998	-61.624	0.062	-0.026
-175.983	-60.781	-0.272	0.114
-174.969	165.675	-0.166	-0.231
-173.954	-86.466	-0.452	0.137
-172.939	150.663	0.060	-0.080
-171.925	224.483	-0.084	-0.133
-170.910	-200.000	-0.011	-0.131
-169.896	76.320	-0.128	0.134
-168.881	800.000	-0.094	0.279
-167.866	-167.852	-0.243	0.009
-166.852	-97.078	0.261	-0.067
-165.837	-64.391	0.433	-0.174
-164.823	61.865	-0.221	0.217
-163.808	-116.005	0.233	0.043
-162.793	-63.681	-0.303	-0.122
-161.779	800.000	-0.089	0.285
-160.764	80.422	-0.202	0.215
-159.750	-52.939	0.145	-0.066
-158.735	208.152	0.072	-0.111
-157.720	-200.000	-0.002	-0.189
-156.706	33.428	0.073	-0.063
-155.691	267.093	-0.137	-0.237
-154.677	-186.264	0.009	0.000
-153.662	-81.302	-0.185	0.060
-152.647	-33.232	0.293	0.160
-151.633	-29.681	-0.273	0.154
-150.618	-200.000	-0.055	0.347
-149.604	90.532	-0.156	0.172
-148.589	255.307	-0.217	-0.366
-147.574	800.000	0.071	0.220
-146.560	-200.000	-0.038	0.189
-145.545	267.524	-0.110	0.189
-144.531	9.858	0.070	-0.052
-143.516	-110.237	-0.303	0.062
-142.502	-61.920	-0.129	-0.053
-141.487	712.261	-0.056	-0.146
-140.472	-93.903	0.500	0.136
-139.458	38.325	-0.146	0.128
-138.443	-200.000	-0.016	0.181
-137.429	797.293	0.087	0.237
-136.414	-200.000	0.027	-0.122
-135.399	-85.406	0.090	-0.028
-134.385	-178.839	-0.153	-0.003
-133.370	-65.368	-0.341	0.135
-132.356	-3.479	-0.185	-0.127
-131.341	800.000	-0.097	0.406
-130.326	16.241	0.224	-0.174
-129.312	-200.000	-0.016	0.134
-128.297	800.000	-0.113	-0.350
-127.283	800.000	0.065	-0.191
-126.268	-200.000	0.036	-0.532
-125.253	168.579	0.251	-0.352
-124.239	29.316	-0.056	0.047
-123.224	-200.000	0.031	0.289
-122.210	2.683	-0.060	-0.043
-121.195	800.000	-0.041	-0.119
