DTS Sentinel unit serial number:	SN413079Multiplexer serial number:	ORYXHardware model number:	OX4-SRSoftware version number:	ORYX F/W v4.00 Oryx Data Collector v3.7.2.0data status	okinstallation	princeton_trtdifferential loss correction	single-endedforward channel	channel 1reverse channel	N/Adate	2019/09/18time	17:58:35forward acquisition time	60.00reverse acquisition time	0.00gamma	496.2192k internal	0.2295k external	0.2295temperature offset calibration	1.0019default loss term (dB/km)	0.3790temperature slope calibration	1.0000multiplexer offset coefficient	1.0000multiplexer slope coefficient	1.0000fibre end	0.00T internal ref (°C)	39.75T ext. ref 1 (°C)	0.93T ext. ref 2 (°C)	30.94length (m)	temperature (°C)	Stokes	anti-Stokes-747.200	-116.751	-0.130	-0.024
-746.185	-119.727	0.206	0.036
-745.171	-34.390	-0.417	-0.234
-744.156	-95.357	0.451	0.124
-743.142	460.906	0.148	0.337
-742.127	800.000	0.011	-0.034
-741.112	70.193	-0.106	0.112
-740.098	-200.000	-0.046	0.264
-739.083	-75.368	-0.198	0.072
-738.069	-200.000	0.007	0.212
-737.054	-104.404	0.282	0.067
-736.039	283.136	0.044	-0.080
-735.025	-200.000	0.024	-0.223
-734.010	-24.501	0.155	0.094
-732.996	-99.542	0.126	0.032
-731.981	139.485	-0.120	0.162
-730.966	-103.259	0.063	0.015
-729.952	358.710	0.060	-0.122
-728.937	-186.484	0.099	0.001
-727.923	429.228	0.172	-0.380
-726.908	-200.000	-0.058	-0.388
-725.894	800.000	-0.090	-0.262
-724.879	-200.000	0.025	0.324
-723.864	-1.893	0.039	0.028
-722.850	96.050	-0.041	-0.048
-721.835	-200.000	-0.004	-0.200
-720.821	576.533	0.095	-0.236
-719.806	113.305	-0.119	-0.148
-718.791	394.563	-0.068	-0.145
-717.777	33.894	-0.033	0.029
-716.762	-42.573	0.239	-0.124
-715.748	-200.000	0.037	-0.182
-714.733	-41.452	-0.108	-0.057
-713.718	85.513	0.177	0.198
-712.704	49.752	0.077	-0.074
-711.689	800.000	0.056	-0.235
-710.675	50.429	0.120	0.116
-709.660	32.445	-0.192	0.169
-708.645	105.365	-0.044	0.053
-707.631	287.447	-0.076	-0.140
-706.616	-14.688	-0.174	0.114
-705.602	-159.656	0.232	-0.013
-704.587	578.453	-0.045	0.111
-703.572	386.565	0.074	0.157
-702.558	574.180	-0.100	-0.249
-701.543	11.539	-0.150	0.117
-700.529	24.435	0.120	-0.102
-699.514	-4.953	-0.100	-0.071
-698.499	255.166	-0.063	0.111
-697.485	-108.010	0.194	-0.043
-696.470	-200.000	0.004	-0.043
-695.456	-57.589	-0.492	0.220
-694.441	366.668	0.099	0.205
-693.426	-200.000	-0.016	0.143
-692.412	-200.000	-0.002	0.358
-691.397	-75.322	-0.254	-0.092
-690.383	-147.679	-0.094	-0.008
-689.368	64.739	0.137	0.141
-688.354	-85.680	0.273	0.087
-687.339	-49.295	0.100	0.049
-686.324	800.000	0.077	0.284
-685.310	-145.561	-0.078	-0.007
-684.295	69.064	-0.114	-0.119
-683.281	-47.382	-0.150	0.075
-682.266	471.494	-0.074	0.169
-681.251	-1.624	-0.071	-0.051
-680.237	123.047	0.153	-0.195
-679.222	433.144	0.093	-0.206
-678.208	-200.000	0.019	-0.101
-677.193	-158.987	-0.374	0.022
-676.178	-200.000	0.004	-0.199
-675.164	-124.404	0.090	-0.014
-674.149	-129.260	-0.265	-0.038
-673.135	77.879	0.165	-0.180
-672.120	-169.419	-0.204	-0.008
-671.105	206.219	-0.139	0.221
-670.091	54.774	-0.099	-0.097
-669.076	-200.000	0.292	-0.001
-668.062	-200.000	0.059	-0.319
-667.047	114.944	-0.124	0.154
-666.032	187.356	0.074	0.112
-665.018	-200.000	-0.019	0.151
-664.003	-107.970	-0.269	-0.060
-662.989	387.450	-0.167	-0.352
-661.974	-200.000	-0.014	-0.146
-660.959	-200.000	-0.003	-0.105
-659.945	70.572	-0.073	0.077
-658.930	-22.052	-0.138	-0.085
-657.916	503.632	0.081	-0.190
-656.901	-169.708	-0.120	0.004
-655.886	-47.576	0.187	-0.093
-654.872	413.368	0.035	0.075
-653.857	-118.408	0.320	-0.058
-652.843	279.246	-0.069	0.125
-651.828	230.822	0.093	0.155
-650.814	-137.005	-0.212	-0.025
-649.799	800.000	0.028	-0.123
-648.784	-49.266	-0.271	-0.132
-647.770	23.951	0.198	-0.166
-646.755	439.324	0.096	0.214
-645.741	-200.000	-0.002	-0.082
-644.726	127.301	0.235	-0.304
-643.711	177.702	-0.043	0.064
-642.697	570.481	-0.031	0.077
-641.682	57.807	0.194	0.193
-640.668	480.341	-0.068	-0.156
-639.653	58.690	-0.066	-0.066
-638.638	35.715	0.203	-0.181
-637.624	800.000	-0.057	-0.205
-636.609	-194.569	0.234	0.002
-635.595	-63.206	0.138	0.058
-634.580	102.401	0.303	-0.361
-633.565	-200.000	0.030	-0.397
-632.551	352.321	0.099	-0.200
-631.536	-83.952	-0.077	0.025
-630.522	129.911	0.167	-0.217
-629.507	-200.000	-0.038	-0.256
-628.492	-200.000	0.014	-0.111
-627.478	-200.000	-0.022	-0.283
-626.463	547.825	-0.120	0.293
-625.449	5.606	0.158	0.119
-624.434	167.256	-0.093	-0.134
-623.419	-200.000	-0.026	-0.200
-622.405	-87.358	-0.096	0.030
-621.390	291.024	0.116	-0.215
-620.376	-61.486	0.235	-0.100
-619.361	-200.000	-0.075	-0.469
-618.346	-200.000	0.035	-0.262
-617.332	-200.000	-0.124	0.000
-616.317	-200.000	0.009	0.203
-615.303	-51.193	0.165	0.079
-614.288	260.745	0.074	0.130
-613.273	15.783	0.016	-0.013
-612.259	723.733	-0.122	-0.329
-611.244	120.209	0.056	0.070
-610.230	-200.000	-0.022	0.142
-609.215	-200.000	0.018	0.146
-608.201	20.238	-0.120	0.098
-607.186	-87.126	0.272	-0.084
-606.171	-18.543	-0.171	0.109
-605.157	-7.576	0.030	0.021
-604.142	5.837	0.182	0.137
-603.128	-200.000	0.024	-0.139
-602.113	800.000	-0.036	0.124
-601.098	800.000	0.038	-0.127
-600.084	800.000	-0.030	0.133
-599.069	32.973	-0.323	-0.285
-598.055	116.390	0.152	0.189
-597.040	-39.107	0.262	-0.140
-596.025	517.362	-0.173	-0.412
-595.011	68.585	-0.185	-0.193
-593.996	-200.000	-0.007	-0.129
-592.982	-78.180	0.239	0.083
-591.967	21.738	0.132	-0.110
-590.952	800.000	-0.028	0.093
-589.938	800.000	-0.049	-0.173
-588.923	-93.651	-0.392	-0.110
-587.909	201.825	-0.144	-0.225
-586.894	28.058	-0.023	0.020
-585.879	-200.000	0.280	0.000
-584.865	-78.334	0.265	0.092
-583.850	-23.731	0.050	-0.031
-582.836	308.898	-0.042	0.079
-581.821	-124.193	0.300	0.048
-580.806	800.000	-0.021	0.083
-579.792	-161.476	-0.313	-0.016
-578.777	-139.752	0.438	0.047
-577.763	334.921	-0.046	-0.091
-576.748	800.000	-0.051	0.217
-575.733	-195.029	-0.301	0.002
-574.719	-170.498	-0.295	-0.010
-573.704	-200.000	-0.010	0.126
-572.690	-67.903	0.160	-0.063
-571.675	-62.478	-0.122	0.051
-570.661	128.641	-0.082	-0.106
-569.646	-200.000	-0.001	-0.250
-568.631	322.738	0.102	0.197
-567.617	-200.000	-0.034	0.355
-566.602	-35.295	0.142	0.078
-565.588	-90.802	-0.094	0.027
-564.573	-112.134	0.059	0.012
-563.558	259.104	-0.118	0.206
-562.544	415.810	-0.101	0.218
-561.529	35.222	-0.119	0.106
-560.515	436.553	-0.137	0.303
-559.500	-147.776	-0.155	0.013
-558.485	-110.615	0.221	0.046
-557.471	-200.000	0.037	-0.291
-556.456	188.330	0.095	-0.145
-555.442	-174.906	-0.033	-0.001
-554.427	-88.230	-0.073	-0.022
-553.412	-87.195	-0.044	0.013
-552.398	-200.000	-0.013	-0.065
-551.383	-102.609	0.171	-0.041
-550.369	-118.319	-0.450	-0.081
-549.354	563.629	0.120	-0.294
-548.339	-200.000	-0.021	-0.117
-547.325	800.000	-0.098	-0.280
-546.310	55.325	0.107	-0.105
-545.296	74.850	0.241	-0.258
-544.281	230.181	-0.097	-0.161
-543.266	-109.098	-0.158	0.034
-542.252	371.895	-0.129	0.265
-541.237	-137.637	0.254	-0.029
-540.223	-31.116	0.129	0.074
-539.208	800.000	-0.041	-0.126
-538.193	282.675	0.229	0.416
-537.179	54.852	-0.192	0.188
-536.164	140.005	-0.176	0.235
-535.150	-131.856	0.041	0.005
-534.135	65.919	0.205	0.211
-533.121	-16.686	0.231	0.148
-532.106	-72.388	-0.209	0.078
-531.091	23.410	0.120	0.100
-530.077	800.000	-0.074	0.301
-529.062	-193.800	0.075	-0.001
-528.048	-116.689	-0.163	0.030
-527.033	-11.903	-0.135	-0.090
-526.018	442.380	0.089	-0.197
-525.004	-200.000	0.033	0.238
-523.989	-200.000	-0.060	-0.307
-522.975	-200.000	-0.007	-0.091
-521.960	-200.000	0.026	0.311
-520.945	106.466	-0.110	0.132
-519.931	-200.000	0.006	-0.084
-518.916	-125.211	0.201	0.031
-517.902	-4.927	0.252	-0.176
-516.887	-200.000	-0.048	-0.289
-515.872	-56.302	-0.130	-0.058
-514.858	-76.130	-0.081	0.029
-513.843	-200.000	0.015	-0.427
-512.829	-148.769	0.184	0.015
-511.814	-16.922	0.221	-0.141
-510.799	154.671	-0.084	-0.116
-509.785	-150.598	-0.303	0.023
-508.770	-81.743	-0.167	0.056
-507.756	800.000	-0.030	-0.123
-506.741	-68.982	-0.479	-0.187
-505.726	800.000	-0.032	-0.118
-504.712	-93.213	-0.041	-0.012
-503.697	-54.097	0.255	0.117
-502.683	18.163	0.204	-0.165
-501.668	-17.044	0.182	-0.116
-500.653	-164.716	-0.041	0.002
-499.639	723.276	0.082	-0.222
-498.624	-39.430	0.146	0.077
-497.610	574.706	-0.055	0.136
-496.595	-200.000	-0.036	0.160
-495.581	-31.900	-0.042	0.024
-494.566	-120.170	-0.053	-0.009
-493.551	19.591	-0.208	-0.169
-492.537	-74.949	-0.161	-0.058
-491.522	60.904	0.106	0.107
-490.508	412.801	-0.145	0.311
-489.493	-93.123	0.132	-0.037
-488.478	-44.425	-0.127	0.064
-487.464	-200.000	-0.060	-0.293
-486.449	-153.037	-0.068	0.005
-485.435	154.829	-0.079	-0.110
-484.420	-171.211	0.284	-0.010
-483.405	653.648	0.094	0.243
-482.391	61.824	-0.059	-0.060
-481.376	-200.000	0.006	-0.075
-480.362	-200.000	0.000	0.082
-479.347	800.000	-0.045	0.143
-478.332	-25.027	-0.222	0.133
-477.318	-200.000	-0.000	-0.174
-476.303	-104.561	0.253	0.059
-475.289	-7.525	-0.190	-0.130
-474.274	-98.839	0.197	-0.051
-473.259	-200.000	0.008	-0.078
-472.245	129.045	-0.148	0.190
-471.230	800.000	-0.096	0.276
-470.216	800.000	-0.073	0.270
-469.201	-200.000	-0.011	-0.140
-468.186	-96.253	-0.006	-0.002
-467.172	368.172	0.056	-0.115
-466.157	-153.830	0.164	-0.011
-465.143	-200.000	-0.019	0.114
-464.128	128.131	-0.100	-0.129
-463.113	-200.000	0.021	0.094
-462.099	-94.654	-0.229	-0.063
-461.084	800.000	0.120	0.397
-460.070	-54.004	-0.313	-0.144
-459.055	-109.453	0.266	0.057
-458.040	800.000	0.004	0.019
-457.026	800.000	0.029	-0.109
-456.011	114.528	-0.087	-0.108
-454.997	-28.741	0.258	-0.150
-453.982	-29.264	0.249	0.144
-452.968	359.816	0.223	0.451
-451.953	19.367	-0.060	0.048
-450.938	581.204	0.090	0.223
-449.924	-200.000	0.047	-0.256
-448.909	-200.000	0.031	0.139
-447.895	-200.000	0.008	-0.052
-446.880	14.267	-0.092	0.072
-445.865	-70.886	0.160	-0.061
-444.851	-78.551	0.078	0.027
-443.836	-12.779	-0.238	0.157
-442.822	-122.422	-0.349	0.057
-441.807	-200.000	0.007	0.215
-440.792	35.432	0.057	-0.051
-439.778	29.349	0.144	0.123
-438.763	-54.310	0.135	-0.062
-437.749	-130.589	-0.116	0.016
-436.734	-30.685	-0.249	0.142
-435.719	800.000	-0.073	-0.303
-434.705	-87.973	-0.279	0.085
-433.690	-136.935	-0.175	0.020
-432.676	347.574	-0.052	0.103
-431.661	-55.230	0.199	-0.090
-430.646	-200.000	-0.008	-0.300
-429.632	36.748	-0.092	-0.082
-428.617	-128.257	0.295	0.042
-427.603	-200.000	0.083	0.378
-426.588	-85.601	0.177	0.056
-425.573	800.000	0.078	0.326
-424.559	800.000	0.019	0.077
-423.544	800.000	0.065	-0.242
-422.530	-17.089	-0.258	-0.164
-421.515	-19.927	-0.144	-0.090
-420.500	800.000	0.022	0.079
-419.486	-52.735	-0.336	0.156
-418.471	706.612	0.067	0.178
-417.457	-83.018	-0.123	0.040
-416.442	11.256	-0.131	0.101
-415.428	800.000	0.057	-0.183
-414.413	800.000	0.065	-0.200
-413.398	-50.955	0.053	0.025
-412.384	-200.000	-0.008	-0.078
-411.369	800.000	-0.144	-0.477
-410.355	104.297	0.093	-0.111
-409.340	-21.799	-0.241	0.148
-408.325	-95.178	-0.079	-0.021
-407.311	340.195	-0.097	0.191
-406.296	-36.601	-0.158	0.086
-405.282	195.302	0.136	0.209
-404.267	10.517	-0.359	-0.276
-403.252	77.470	0.198	0.212
-402.238	-14.958	-0.239	0.155
-401.223	-15.053	-0.117	0.076
-400.209	-94.578	-0.029	0.008
-399.194	-58.592	-0.197	0.086
-398.179	-200.000	0.031	0.170
-397.165	-16.831	0.100	-0.064
-396.150	-200.000	0.021	-0.303
-395.136	-79.910	-0.454	0.154
-394.121	-200.000	0.040	0.200
-393.106	-71.641	-0.136	0.051
-392.092	104.512	-0.043	-0.051
-391.077	19.055	-0.139	-0.112
-390.063	180.532	0.003	-0.005
-389.048	51.895	0.126	0.121
-388.033	800.000	-0.029	0.089
-387.019	-95.630	-0.262	-0.071
-386.004	-160.691	0.124	0.007
-384.990	289.025	-0.117	0.214
-383.975	11.091	0.016	0.012
-382.960	213.713	0.151	0.241
-381.946	-183.792	0.310	0.005
-380.931	110.107	-0.143	-0.173
-379.917	-200.000	-0.003	-0.140
-378.902	44.860	-0.126	0.117
-377.888	-200.000	0.007	0.198
-376.873	459.022	0.138	-0.309
-375.858	668.880	-0.138	0.360
-374.844	53.848	-0.160	0.155
-373.829	168.499	0.006	-0.008
-372.815	193.015	-0.049	0.075
-371.800	46.238	-0.268	-0.250
-370.785	-200.000	0.007	0.226
-369.771	33.029	-0.189	-0.165
-368.756	60.652	0.098	0.097
-367.742	28.144	-0.126	0.108
-366.727	-142.195	0.451	0.045
-365.712	433.322	0.196	-0.430
-364.698	201.852	0.048	-0.074
-363.683	204.144	-0.197	0.307
-362.669	-76.740	-0.221	-0.078
-361.654	-184.599	-0.171	0.003
-360.639	800.000	-0.080	-0.243
-359.625	-159.093	-0.134	-0.008
-358.610	687.806	-0.023	0.061
-357.596	31.312	-0.137	-0.119
-356.581	-81.665	-0.141	0.047
-355.566	-76.975	0.243	-0.086
-354.552	489.584	-0.041	-0.094
-353.537	-200.000	-0.003	0.122
-352.523	800.000	0.104	-0.364
-351.508	-78.717	-0.313	-0.108
-350.493	229.132	-0.116	-0.190
-349.479	72.120	0.135	-0.141
-348.464	-88.848	0.186	-0.055
-347.450	54.404	-0.017	0.016
-346.435	-8.539	0.288	-0.195
-345.420	-123.023	-0.120	0.019
-344.406	-109.047	0.169	-0.036
-343.391	-200.000	0.099	-0.499
-342.377	800.000	-0.032	0.107
-341.362	301.758	-0.077	0.143
-340.348	-200.000	-0.015	0.086
-339.333	703.571	0.159	-0.421
-338.318	-96.964	-0.270	0.071
-337.304	-173.749	-0.205	-0.006
-336.289	29.538	-0.157	-0.135
-335.275	31.869	0.257	0.223
-334.260	-200.000	0.068	0.454
-333.245	-163.951	0.247	0.012
-332.231	-84.178	0.165	0.053
-331.216	79.943	0.063	-0.068
-330.202	159.793	0.111	0.156
-329.187	-200.000	-0.057	0.336
-328.172	-15.631	0.078	0.050
-327.158	29.170	0.155	0.133
-326.143	-94.761	-0.057	-0.015
-325.129	165.616	-0.078	0.111
-324.114	127.040	-0.133	-0.170
-323.099	-102.463	0.203	-0.049
-322.085	112.288	0.331	0.403
-321.070	-200.000	-0.001	0.257
-320.056	114.825	0.176	-0.216
-319.041	-200.000	0.006	-0.092
-318.026	-65.779	0.081	0.033
-317.012	72.839	-0.188	-0.197
-315.997	-138.163	-0.235	0.026
-314.983	-32.207	0.038	-0.021
-313.968	451.050	0.099	0.219
-312.953	800.000	-0.019	-0.058
-311.939	800.000	-0.054	0.228
-310.924	449.251	0.061	-0.135
-309.910	111.093	0.156	0.189
-308.895	204.025	0.102	0.159
-307.880	-34.974	0.113	0.062
-306.866	800.000	0.030	0.107
-305.851	333.680	-0.053	-0.103
-304.837	-200.000	-0.044	-0.290
-303.822	-113.811	-0.291	0.057
-302.807	-56.227	-0.172	0.077
-301.793	249.938	-0.077	0.131
-300.778	-64.694	-0.063	0.026
-299.764	-19.659	0.311	0.193
-298.749	800.000	-0.033	0.121
-297.735	800.000	0.065	-0.281
-296.720	303.644	0.114	-0.213
-295.705	20.349	-0.164	-0.133
-294.691	-166.641	-0.065	-0.003
-293.676	800.000	-0.052	0.156
-292.662	-129.668	-0.185	-0.026
-291.647	169.851	0.165	-0.237
-290.632	180.042	-0.113	0.166
-289.618	-51.588	0.294	-0.138
-288.603	-130.214	-0.244	0.033
-287.589	48.201	-0.103	-0.096
-286.574	68.690	-0.105	0.108
-285.559	-83.026	-0.254	-0.082
-284.545	-200.000	0.023	0.157
-283.530	104.864	-0.063	-0.075
-282.516	-100.348	0.296	0.074
-281.501	59.857	-0.059	0.058
-280.486	-47.096	0.096	0.047
-279.472	-200.000	0.009	-0.163
-278.457	-200.000	-0.003	0.015
-277.443	-14.170	-0.067	0.043
-276.428	-200.000	-0.043	-0.261
-275.413	-69.340	-0.160	0.062
-274.399	-200.000	-0.000	-0.128
-273.384	-120.232	0.273	-0.047
-272.370	800.000	-0.051	0.171
-271.355	800.000	0.026	0.084
-270.340	70.654	-0.182	-0.189
-269.326	800.000	0.070	0.195
-268.311	25.422	-0.061	0.051
-267.297	790.803	0.130	0.358
-266.282	-66.739	-0.067	-0.027
-265.267	50.890	0.076	0.072
-264.253	-134.065	-0.198	0.025
-263.238	250.630	0.162	0.276
-262.224	-200.000	-0.016	0.090
-261.209	103.121	0.054	-0.064
-260.195	-200.000	0.322	0.000
-259.180	207.682	0.227	-0.356
-258.165	800.000	0.035	0.117
-257.151	-200.000	-0.016	-0.088
-256.136	10.307	-0.158	-0.121
-255.122	-1.779	-0.185	-0.130
-254.107	695.384	-0.197	0.518
-253.092	121.025	-0.100	0.125
-252.078	-116.496	0.292	-0.054
-251.063	166.265	-0.198	-0.281
-250.049	-90.131	0.174	-0.051
-249.034	220.112	-0.141	0.227
-248.019	52.942	0.068	-0.065
-247.005	-164.640	0.258	0.012
-245.990	-200.000	-0.030	0.139
-244.976	248.204	-0.133	-0.225
-243.961	83.029	-0.138	-0.150
-242.946	-150.684	0.275	-0.021
-241.932	-115.304	0.319	-0.060
-240.917	800.000	-0.033	-0.130
-239.903	530.543	-0.054	-0.127
-238.888	-19.951	0.089	-0.055
-237.873	316.552	-0.072	0.136
-236.859	24.283	-0.084	-0.069
-235.844	128.376	-0.230	0.293
-234.830	-200.000	0.002	-0.111
-233.815	800.000	-0.065	-0.271
-232.800	800.000	0.025	-0.086
-231.786	-200.000	0.018	0.084
-230.771	65.512	0.196	0.199
-229.757	-200.000	0.000	-0.165
-228.742	800.000	0.075	0.254
-227.727	58.790	-0.067	-0.066
-226.713	11.304	-0.050	-0.038
-225.698	268.082	0.120	0.210
-224.684	-60.414	-0.199	0.085
-223.669	192.361	-0.063	-0.095
-222.655	-71.008	0.204	0.077
-221.640	-114.007	0.090	-0.017
-220.625	-3.827	-0.273	-0.190
-219.611	264.061	-0.041	0.072
-218.596	55.505	-0.246	0.239
-217.582	-200.000	0.021	-0.145
-216.567	-121.886	0.085	0.014
-215.552	-200.000	-0.009	0.121
-214.538	-167.791	0.400	-0.016
-213.523	-162.757	0.110	-0.005
-212.509	-200.000	0.019	0.217
-211.494	255.177	-0.081	0.139
-210.479	-152.859	0.180	0.013
-209.465	-200.000	0.010	0.471
-208.450	66.295	0.260	-0.264
-207.436	-60.241	-0.115	0.049
-206.421	-38.357	0.203	-0.107
-205.406	-4.394	0.074	-0.051
-204.392	108.217	0.134	-0.160
-203.377	470.365	-0.058	-0.131
-202.363	-48.967	-0.013	-0.006
-201.348	19.988	0.194	-0.156
-200.333	-36.271	-0.176	0.095
-199.319	-58.822	-0.350	0.151
-198.304	100.245	-0.069	-0.081
-197.290	-108.541	0.111	-0.024
-196.275	87.878	0.092	-0.102
-195.260	29.129	-0.332	0.282
-194.246	152.750	0.049	-0.067
-193.231	800.000	0.010	0.029
-192.217	-200.000	0.011	0.166
-191.202	1.782	-0.136	0.098
-190.187	640.704	-0.062	0.157
-189.173	-113.125	-0.212	0.042
-188.158	-92.819	0.176	0.049
-187.144	-200.000	-0.025	0.251
-186.129	-87.782	0.321	0.097
-185.114	46.789	-0.115	-0.107
-184.100	14.506	0.117	0.092
-183.085	90.153	0.071	-0.079
-182.071	-18.715	-0.100	-0.062
-181.056	-53.597	0.023	0.011
-180.042	43.108	0.123	-0.112
-179.027	-19.931	-0.254	-0.157
-178.012	-200.000	-0.002	-0.037
-176.998	665.816	0.021	0.055
-175.983	-74.518	-0.211	0.076
-174.969	-72.828	0.187	-0.069
-173.954	28.053	0.299	0.252
-172.939	221.752	0.019	0.030
-171.925	-109.004	0.085	-0.018
-170.910	-114.415	-0.097	0.019
-169.896	305.744	-0.148	-0.275
-168.881	101.477	0.170	0.198
-167.866	-113.450	-0.250	-0.049
-166.852	-176.017	0.411	-0.011
-165.837	-156.684	-0.079	0.005
-164.823	-110.994	0.137	-0.028
-163.808	-22.014	0.134	0.082
-162.793	-71.565	0.114	0.043
-161.779	-174.606	-0.419	-0.012
-160.764	573.947	-0.061	-0.149
-159.750	-137.033	-0.246	-0.028
-158.735	561.263	0.071	-0.171
-157.720	-200.000	-0.004	0.080
-156.706	800.000	0.108	0.381
-155.691	200.924	0.058	0.089
-154.677	-45.632	0.265	-0.131
-153.662	-59.029	0.114	0.049
-152.647	800.000	0.031	0.124
-151.633	-92.863	0.208	-0.058
-150.618	131.714	0.105	-0.134
-149.604	35.087	-0.262	0.229
-148.589	-3.594	0.135	0.094
-147.574	-200.000	0.036	-0.159
-146.560	-69.102	-0.360	0.138
-145.545	662.452	0.071	-0.183
-144.531	149.581	0.134	-0.181
-143.516	117.362	0.091	-0.112
-142.502	497.780	0.107	0.246
-141.487	-60.089	-0.312	0.133
-140.472	-19.687	0.183	0.113
-139.458	338.532	0.162	-0.315
-138.443	-200.000	0.009	-0.228
-137.429	88.907	0.082	-0.091
-136.414	800.000	0.082	0.241
-135.399	766.160	0.036	0.098
-134.385	129.730	-0.040	0.050
-133.370	-0.443	0.322	0.228
-132.356	284.029	0.182	0.327
-131.341	-104.272	0.116	-0.027
-130.326	15.892	0.219	-0.172
-129.312	800.000	-0.040	0.173
-128.297	443.250	0.035	0.077
-127.283	800.000	0.094	-0.263
-126.268	-23.664	0.289	0.173
-125.253	-127.009	0.257	0.038
-124.239	-131.840	-0.084	0.011
-123.224	366.411	-0.096	-0.194
-122.210	-63.478	0.221	-0.090
-121.195	-23.287	0.196	-0.118
