DTS Sentinel unit serial number:	SN413079Multiplexer serial number:	ORYXHardware model number:	OX4-SRSoftware version number:	ORYX F/W v4.00 Oryx Data Collector v3.7.2.0data status	okinstallation	princeton_trtdifferential loss correction	single-endedforward channel	channel 1reverse channel	N/Adate	2019/09/18time	23:38:35forward acquisition time	60.00reverse acquisition time	0.00gamma	496.2192k internal	0.2341k external	0.2341temperature offset calibration	1.0021default loss term (dB/km)	0.3790temperature slope calibration	1.0000multiplexer offset coefficient	1.0000multiplexer slope coefficient	1.0000fibre end	0.00T internal ref (°C)	23.52T ext. ref 1 (°C)	0.76T ext. ref 2 (°C)	16.38length (m)	temperature (°C)	Stokes	anti-Stokes-747.200	800.000	-0.046	0.154
-746.185	14.541	-0.163	-0.128
-745.171	96.575	0.194	-0.223
-744.156	-167.635	-0.144	-0.006
-743.142	-122.503	-0.086	-0.014
-742.127	-200.000	-0.074	0.624
-741.112	800.000	-0.070	0.269
-740.098	-96.308	0.071	-0.019
-739.083	-200.000	0.010	-0.078
-738.069	-54.951	-0.098	0.044
-737.054	-75.542	0.185	0.066
-736.039	800.000	0.055	-0.171
-735.025	305.514	-0.056	-0.104
-734.010	-200.000	-0.004	0.110
-732.996	13.942	0.145	0.113
-731.981	55.011	-0.351	-0.340
-730.966	-2.747	0.186	-0.130
-729.952	-6.588	-0.117	0.080
-728.937	800.000	0.043	0.180
-727.923	-34.321	-0.235	0.129
-726.908	97.583	-0.129	-0.149
-725.894	-93.711	-0.173	-0.048
-724.879	-200.000	-0.001	0.052
-723.864	113.493	-0.286	0.348
-722.850	-96.214	0.122	0.032
-721.835	-177.061	-0.244	0.006
-720.821	-71.468	-0.383	0.144
-719.806	6.201	0.159	0.118
-718.791	-200.000	0.036	0.372
-717.777	-95.734	-0.099	0.026
-716.762	-5.564	0.065	0.045
-715.748	-124.567	-0.155	-0.024
-714.733	97.546	-0.218	-0.251
-713.718	-200.000	-0.015	-0.112
-712.704	36.718	0.062	0.055
-711.689	-200.000	0.087	0.394
-710.675	144.814	0.094	-0.126
-709.660	-199.677	-0.441	0.002
-708.645	-23.356	-0.153	0.092
-707.631	800.000	0.123	0.348
-706.616	-15.878	-0.212	-0.135
-705.602	-71.129	-0.186	0.070
-704.587	-54.193	-0.346	-0.157
-703.572	-170.457	0.407	-0.014
-702.558	-91.062	0.191	0.055
-701.543	800.000	0.048	0.184
-700.529	175.728	0.182	0.263
-699.514	-68.714	-0.338	-0.131
-698.499	43.263	0.221	0.202
-697.485	-55.023	-0.404	0.182
-696.470	800.000	-0.037	-0.135
-695.456	-71.462	-0.127	-0.048
-694.441	90.545	-0.219	0.246
-693.426	-37.405	0.067	-0.036
-692.412	-122.138	-0.139	0.023
-691.397	-200.000	-0.006	-0.089
-690.383	-49.728	-0.446	-0.212
-689.368	-39.487	-0.277	0.145
-688.354	-114.658	0.097	0.019
-687.339	315.547	-0.145	0.274
-686.324	229.109	-0.083	-0.136
-685.310	57.351	-0.185	0.180
-684.295	-33.155	0.129	0.072
-683.281	370.705	-0.123	0.248
-682.266	-120.237	0.512	-0.087
-681.251	-51.824	-0.258	0.120
-680.237	-200.000	0.093	0.557
-679.222	508.207	-0.080	-0.185
-678.208	-200.000	-0.109	-0.494
-677.193	33.245	-0.332	-0.287
-676.178	202.986	-0.127	-0.197
-675.164	-200.000	-0.023	0.246
-674.149	105.237	0.256	-0.302
-673.135	-32.478	-0.093	0.052
-672.120	-200.000	0.044	-0.217
-671.105	-74.105	-0.245	-0.089
-670.091	-18.381	-0.230	-0.143
-669.076	-140.072	-0.236	0.025
-668.062	800.000	0.123	0.401
-667.047	800.000	-0.137	0.436
-666.032	-83.548	0.277	0.089
-665.018	-200.000	-0.041	-0.316
-664.003	-200.000	-0.019	-0.177
-662.989	-200.000	0.004	-0.023
-661.974	463.858	-0.108	0.241
-660.959	-48.844	-0.154	0.074
-659.945	800.000	-0.127	-0.409
-658.930	-77.593	-0.244	0.085
-657.916	-91.509	0.219	0.063
-656.901	-81.160	0.033	0.011
-655.886	27.319	0.072	0.060
-654.872	-96.328	0.134	0.035
-653.857	696.604	0.032	-0.084
-652.843	-39.694	-0.202	-0.105
-651.828	47.384	-0.146	-0.136
-650.814	-19.772	-0.069	0.042
-649.799	800.000	0.063	-0.175
-648.784	38.706	-0.203	-0.181
-647.770	87.446	-0.165	-0.182
-646.755	506.053	-0.111	-0.258
-645.741	78.666	0.059	0.063
-644.726	8.248	-0.070	-0.052
-643.711	620.525	-0.092	0.230
-642.697	45.293	-0.293	0.270
-641.682	-162.064	0.223	-0.011
-640.668	226.136	-0.210	-0.340
-639.653	-34.531	-0.440	-0.240
-638.638	372.631	0.092	-0.186
-637.624	538.577	-0.052	0.123
-636.609	-79.160	0.265	-0.090
-635.595	-179.249	0.399	-0.009
-634.580	173.868	0.034	-0.048
-633.565	100.994	-0.110	0.128
-632.551	92.995	0.190	0.215
-631.536	-200.000	0.012	-0.097
-630.522	655.127	-0.047	-0.121
-629.507	-200.000	-0.053	-0.247
-628.492	-56.338	0.160	0.071
-627.478	83.097	-0.157	-0.170
-626.463	41.828	-0.051	0.046
-625.449	-111.236	-0.222	-0.045
-624.434	-200.000	0.056	-0.284
-623.419	-91.221	-0.373	0.106
-622.405	317.689	-0.063	0.119
-621.390	-200.000	0.033	0.225
-620.376	-46.699	-0.182	-0.089
-619.361	800.000	0.107	0.327
-618.346	-66.607	-0.110	0.043
-617.332	-200.000	0.002	0.059
-616.317	-105.421	0.156	-0.035
-615.303	100.471	0.084	-0.097
-614.288	-200.000	-0.018	0.091
-613.273	-200.000	-0.028	0.126
-612.259	7.630	-0.200	0.149
-611.244	-200.000	-0.014	-0.117
-610.230	-200.000	0.104	-0.486
-609.215	62.005	-0.180	-0.179
-608.201	-200.000	0.028	-0.256
-607.186	142.539	-0.156	-0.206
-606.171	48.631	0.195	0.182
-605.157	-135.590	-0.017	-0.002
-604.142	-200.000	-0.037	-0.328
-603.128	-153.853	-0.064	-0.004
-602.113	-36.028	0.034	-0.018
-601.098	-110.340	0.132	-0.027
-600.084	-154.764	-0.337	0.022
-599.069	-108.771	0.101	-0.021
-598.055	606.869	0.096	0.237
-597.040	-98.985	0.207	0.052
-596.025	-146.982	-0.426	-0.036
-595.011	59.703	-0.146	-0.143
-593.996	49.552	-0.201	-0.189
-592.982	-151.973	-0.185	0.013
-591.967	-44.674	-0.077	0.038
-590.952	263.134	-0.115	-0.200
-589.938	317.201	0.070	-0.131
-588.923	705.256	-0.067	0.176
-587.909	-87.052	-0.399	0.121
-586.894	1.536	-0.280	0.201
-585.879	-44.359	-0.446	-0.223
-584.865	-115.883	0.248	0.046
-583.850	436.786	-0.067	-0.146
-582.836	-127.555	-0.198	-0.029
-581.821	123.481	-0.124	0.154
-580.806	800.000	-0.039	0.130
-579.792	-18.668	-0.180	0.112
-578.777	236.257	-0.053	-0.087
-577.763	384.947	-0.104	-0.213
-576.748	190.104	0.197	0.294
-575.733	-59.794	0.166	-0.071
-574.719	137.315	-0.284	0.369
-573.704	-109.040	0.394	-0.084
-572.690	49.696	-0.204	-0.192
-571.675	102.618	0.276	0.321
-570.661	-62.592	0.172	0.071
-569.646	-200.000	-0.057	-0.348
-568.631	349.657	0.159	0.312
-567.617	59.951	-0.125	-0.123
-566.602	-51.409	-0.107	-0.050
-565.588	-145.543	0.298	0.027
-564.573	517.299	-0.046	-0.107
-563.558	-200.000	-0.024	-0.292
-562.544	-95.623	-0.284	0.076
-561.529	-118.672	-0.194	-0.034
-560.515	72.193	0.103	-0.106
-559.500	64.397	-0.186	-0.187
-558.485	-200.000	0.017	-0.096
-557.471	-200.000	-0.000	-0.067
-556.456	-154.780	-0.251	-0.017
-555.442	-33.238	-0.072	-0.040
-554.427	38.285	0.183	-0.162
-553.412	-106.168	0.192	0.043
-552.398	800.000	-0.087	0.352
-551.383	-110.708	0.105	-0.022
-550.369	317.784	0.144	-0.270
-549.354	44.088	-0.188	0.172
-548.339	-61.841	0.101	0.042
-547.325	-78.265	0.157	0.054
-546.310	145.939	0.107	0.142
-545.296	-67.422	-0.110	-0.043
-544.281	-121.140	0.196	-0.033
-543.266	-41.372	-0.403	0.206
-542.252	-66.690	0.231	-0.091
-541.237	54.096	-0.096	-0.092
-540.223	200.717	-0.086	0.131
-539.208	528.838	0.090	0.211
-538.193	-4.856	-0.238	0.163
-537.179	68.961	0.232	-0.237
-536.164	11.729	-0.109	-0.083
-535.150	-90.611	-0.189	0.054
-534.135	369.192	0.043	0.086
-533.121	132.177	0.165	0.211
-532.106	187.168	-0.141	-0.209
-531.091	-17.858	0.273	0.170
-530.077	-40.694	0.166	-0.085
-529.062	-190.812	0.590	-0.006
-528.048	800.000	0.068	0.267
-527.033	478.225	-0.020	0.045
-526.018	68.869	0.205	-0.209
-525.004	-198.583	-0.127	-0.001
-523.989	105.448	0.134	-0.157
-522.975	-98.762	-0.243	-0.061
-521.960	129.891	0.167	-0.212
-520.945	443.224	-0.068	-0.149
-519.931	-71.056	-0.346	0.129
-518.916	-200.000	-0.013	0.074
-517.902	-141.523	0.317	0.032
-516.887	92.757	-0.155	-0.174
-515.872	76.461	0.104	-0.110
-514.858	36.894	-0.245	-0.215
-513.843	800.000	-0.010	-0.038
-512.829	-52.025	-0.453	-0.209
-511.814	321.301	-0.120	0.226
-510.799	-4.316	0.104	-0.072
-509.785	-93.558	-0.441	0.121
-508.770	280.101	-0.034	0.060
-507.756	-24.609	0.169	0.100
-506.741	66.731	-0.088	0.089
-505.726	609.675	0.054	-0.134
-504.712	19.815	-0.284	-0.227
-503.697	-200.000	0.002	0.295
-502.683	-200.000	0.012	0.260
-501.668	-83.201	-0.131	0.042
-500.653	7.156	0.185	-0.137
-499.639	-68.042	0.298	0.115
-498.624	-197.543	-0.102	0.001
-497.610	800.000	0.110	-0.322
-496.595	-124.415	0.396	0.061
-495.581	100.943	0.041	-0.048
-494.566	-200.000	0.023	0.246
-493.551	173.556	0.077	0.110
-492.537	-75.941	0.236	0.083
-491.522	-130.198	-0.118	0.016
-490.508	182.946	-0.209	0.306
-489.493	255.552	0.204	0.347
-488.478	2.052	0.369	0.264
-487.464	-62.057	-0.234	-0.097
-486.449	-39.449	-0.112	0.058
-485.435	3.691	0.305	-0.221
-484.420	122.102	-0.149	0.185
-483.405	102.106	-0.078	0.090
-482.391	800.000	-0.056	0.187
-481.376	-200.000	-0.003	0.094
-480.362	96.613	0.035	0.040
-479.347	77.618	-0.104	-0.110
-478.332	-127.893	0.163	0.023
-477.318	-139.623	-0.159	-0.017
-476.303	-113.942	0.164	0.032
-475.289	-80.664	-0.324	-0.107
-474.274	-19.188	-0.130	-0.080
-473.259	110.895	0.252	-0.301
-472.245	-52.067	0.163	-0.075
-471.230	-59.539	-0.255	0.108
-470.216	162.659	0.132	0.184
-469.201	-200.000	0.054	0.323
-468.186	375.794	-0.181	-0.366
-467.172	214.448	0.210	-0.329
-466.157	800.000	-0.027	0.117
-465.143	-87.775	0.219	0.065
-464.128	158.707	-0.043	0.059
-463.113	39.026	0.349	-0.309
-462.099	800.000	0.023	0.063
-461.084	-200.000	0.020	0.264
-460.070	-200.000	0.038	0.174
-459.055	-200.000	0.074	0.514
-458.040	-200.000	0.006	0.357
-457.026	-26.660	0.227	-0.132
-456.011	758.386	-0.036	-0.096
-454.997	-5.305	-0.281	-0.191
-453.982	-92.465	-0.191	0.053
-452.968	-69.473	-0.452	-0.172
-451.953	-61.760	-0.367	0.152
-450.938	-140.545	-0.207	0.021
-449.924	-200.000	0.000	0.457
-448.909	-121.825	-0.261	-0.043
-447.895	-23.085	-0.186	-0.111
-446.880	-116.036	-0.157	-0.029
-445.865	-200.000	0.012	-0.202
-444.851	-123.324	0.281	0.044
-443.836	-120.856	0.119	-0.020
-442.822	-132.236	0.469	0.060
-441.807	-200.000	0.029	0.147
-440.792	427.408	0.121	-0.258
-439.778	-200.000	0.016	0.072
-438.763	158.234	0.225	-0.308
-437.749	-117.148	-0.280	-0.050
-436.734	-24.313	0.385	-0.227
-435.719	-94.386	0.188	-0.051
-434.705	-109.984	-0.016	0.003
-433.690	-131.357	0.221	0.029
-432.676	-75.698	0.306	0.108
-431.661	-89.130	-0.107	0.031
-430.646	429.907	-0.152	-0.326
-429.632	-200.000	0.028	0.260
-428.617	-90.325	-0.138	0.040
-427.603	35.194	0.210	-0.182
-426.588	800.000	0.101	-0.280
-425.573	75.168	0.230	-0.240
-424.559	-114.168	0.142	-0.027
-423.544	800.000	0.072	-0.268
-422.530	37.696	0.616	0.541
-421.515	-103.098	-0.333	0.078
-420.500	800.000	-0.105	0.322
-419.486	800.000	0.063	-0.250
-418.471	-52.212	0.125	0.057
-417.457	-200.000	-0.057	-0.317
-416.442	417.646	-0.031	-0.066
-415.428	-31.086	-0.219	-0.122
-414.413	507.365	0.111	-0.254
-413.398	10.300	-0.203	0.153
-412.384	-55.903	-0.102	-0.045
-411.369	11.033	-0.215	-0.163
-410.355	91.985	0.086	-0.096
-409.340	478.744	-0.157	0.351
-408.325	582.125	0.114	-0.276
-407.311	-122.036	0.178	0.029
-406.296	451.436	-0.122	-0.267
-405.282	800.000	-0.034	0.126
-404.267	-74.482	0.145	0.052
-403.252	308.271	-0.127	-0.234
-402.238	-20.854	0.237	0.144
-401.223	800.000	-0.103	0.320
-400.209	-200.000	-0.013	-0.081
-399.194	800.000	-0.039	-0.132
-398.179	-168.705	-0.157	-0.006
-397.165	-56.157	-0.061	-0.027
-396.150	129.054	0.043	-0.054
-395.136	-47.867	-0.335	0.160
-394.121	-200.000	0.023	0.143
-393.106	290.608	0.146	0.262
-392.092	-106.369	-0.157	-0.035
-391.077	-157.335	0.285	-0.017
-390.063	640.848	0.101	0.255
-389.048	-112.325	-0.086	0.017
-388.033	-73.044	-0.142	-0.052
-387.019	305.029	-0.065	-0.120
-386.004	-200.000	-0.017	0.245
-384.990	-200.000	-0.330	0.001
-383.975	81.928	-0.131	-0.141
-382.960	-200.000	0.028	-0.146
-381.946	800.000	-0.025	-0.074
-380.931	800.000	-0.080	0.288
-379.917	800.000	-0.033	0.136
-378.902	106.806	0.036	0.042
-377.888	105.882	-0.216	-0.253
-376.873	-200.000	0.053	-0.325
-375.858	-91.711	0.168	-0.047
-374.844	-200.000	0.010	0.093
-373.829	-155.322	0.200	0.013
-372.815	213.767	0.073	-0.115
-371.800	-122.167	0.010	0.002
-370.785	-60.357	-0.088	0.037
-369.771	800.000	-0.073	-0.227
-368.756	-151.992	0.274	0.020
-367.742	-146.478	-0.232	-0.020
-366.727	800.000	-0.070	0.252
-365.712	-200.000	0.002	-0.132
-364.698	-200.000	0.050	0.296
-363.683	-53.222	-0.150	-0.068
-362.669	-40.127	-0.215	-0.111
-361.654	-126.964	0.177	-0.026
-360.639	-120.789	-0.392	0.065
-359.625	-73.726	0.147	-0.053
-358.610	-13.961	-0.169	0.108
-357.596	70.602	0.310	0.317
-356.581	800.000	-0.118	0.378
-355.566	800.000	-0.024	0.071
-354.552	-56.292	0.339	-0.149
-353.537	147.507	-0.241	-0.321
-352.523	-200.000	0.055	-0.252
-351.508	-11.807	-0.204	-0.132
-350.493	130.135	0.115	0.146
-349.479	800.000	0.075	-0.211
-348.464	76.749	-0.051	0.053
-347.450	477.489	0.114	0.254
-346.435	-46.000	-0.195	0.095
-345.420	-24.556	0.187	-0.110
-344.406	162.170	0.245	0.339
-343.391	-44.666	0.057	0.028
-342.377	-22.335	-0.081	0.048
-341.362	-142.827	0.162	-0.016
-340.348	-200.000	-0.020	-0.128
-339.333	442.050	0.134	0.290
-338.318	216.145	0.066	0.103
-337.304	-60.024	-0.293	0.123
-336.289	-200.000	0.012	-0.118
-335.275	-102.258	0.146	0.035
-334.260	-56.781	0.324	-0.141
-333.245	800.000	0.059	0.243
-332.231	-200.000	0.002	-0.327
-331.216	100.527	-0.115	-0.132
-330.202	-58.164	0.252	-0.108
-329.187	-49.276	-0.171	0.081
-328.172	296.355	-0.060	-0.108
-327.158	13.697	-0.188	-0.144
-326.143	-200.000	0.005	0.263
-325.129	-159.930	-0.287	0.015
-324.114	-73.851	0.095	-0.034
-323.099	485.933	-0.147	0.331
-322.085	-118.175	0.122	0.021
-321.070	484.584	-0.061	-0.138
-320.056	-60.343	0.101	-0.043
-319.041	-110.866	-0.350	-0.071
-318.026	800.000	0.082	0.254
-317.012	719.065	-0.090	0.235
-315.997	226.885	-0.196	0.313
-314.983	-125.944	-0.432	-0.064
-313.968	-122.192	-0.183	0.030
-312.953	-130.825	0.094	0.012
-311.939	195.521	-0.081	-0.121
-310.924	-110.532	-0.244	0.050
-309.910	-45.947	0.250	-0.121
-308.895	-200.000	0.005	-0.218
-307.880	34.945	0.128	0.110
-306.866	-84.803	0.330	-0.102
-305.851	-200.000	-0.165	-0.000
-304.837	-49.066	-0.311	0.147
-303.822	32.337	0.104	0.088
-302.807	-24.763	-0.366	-0.214
-301.793	-91.726	0.145	0.041
-300.778	25.191	-0.187	0.153
-299.764	2.652	0.324	0.231
-298.749	800.000	0.066	0.235
-297.735	-200.000	0.035	0.210
-296.720	-48.383	-0.218	0.103
-295.705	-2.427	0.210	0.145
-294.691	800.000	0.040	0.144
-293.676	800.000	0.053	-0.183
-292.662	-200.000	0.037	0.165
-291.647	-114.118	-0.341	-0.065
-290.632	-35.117	0.311	-0.167
-289.618	43.514	0.465	0.418
-288.603	35.230	0.233	0.201
-287.589	42.737	0.082	-0.073
-286.574	-134.420	-0.248	-0.030
-285.559	-85.011	-0.252	-0.078
-284.545	79.804	-0.250	-0.264
-283.530	-200.000	-0.002	-0.061
-282.516	-70.829	-0.184	-0.068
-281.501	-57.908	0.216	0.093
-280.486	235.342	-0.027	-0.044
-279.472	-19.874	0.182	-0.110
-278.457	-87.821	0.171	-0.051
-277.443	99.559	-0.259	-0.295
-276.428	-84.892	0.136	0.042
-275.413	-168.441	0.221	0.008
-274.399	-53.019	0.115	-0.052
-273.384	20.618	-0.079	-0.063
-272.370	-200.000	-0.022	0.159
-271.355	187.475	-0.181	0.265
-270.340	-14.078	0.197	0.125
-269.326	800.000	-0.061	0.182
-268.311	-9.919	-0.140	0.092
-267.297	220.038	-0.097	0.153
-266.282	99.143	0.030	-0.034
-265.267	170.523	-0.128	-0.180
-264.253	-5.750	0.264	0.178
-263.238	402.821	-0.116	0.239
-262.224	800.000	0.041	-0.154
-261.209	29.494	-0.162	0.135
-260.195	370.594	-0.111	0.221
-259.180	51.179	0.396	0.370
-258.165	90.278	-0.058	0.064
-257.151	-30.896	-0.249	0.138
-256.136	489.375	0.165	0.371
-255.122	-200.000	0.018	-0.129
-254.107	-41.787	-0.167	-0.084
-253.092	698.026	0.104	-0.269
-252.078	-16.309	0.200	0.125
-251.063	-200.000	0.028	-0.237
-250.049	-48.416	-0.170	-0.081
-249.034	800.000	0.129	0.366
-248.019	-27.915	-0.224	0.128
-247.005	-165.407	0.113	-0.005
-245.990	-18.525	-0.026	-0.016
-244.976	-58.954	0.084	0.036
-243.961	-5.637	-0.135	-0.091
-242.946	-102.624	-0.175	-0.041
-241.932	484.233	-0.105	0.235
-240.917	-200.000	0.063	-0.373
-239.903	-11.969	0.123	-0.079
-238.888	174.314	0.171	-0.242
-237.873	-112.664	0.163	-0.032
-236.859	256.421	-0.170	-0.287
-235.844	-54.309	-0.096	0.043
-234.830	-15.632	0.269	-0.169
-233.815	-122.278	-0.460	-0.074
-232.800	-200.000	-0.015	0.223
-231.786	23.309	-0.161	0.130
-230.771	7.053	-0.390	0.286
-229.757	-200.000	-0.009	-0.254
-228.742	-1.244	0.312	-0.217
-227.727	317.017	0.088	0.164
-226.713	63.109	-0.198	0.195
-225.698	497.822	0.020	-0.044
-224.684	-200.000	0.044	-0.206
-223.669	-200.000	-0.030	-0.212
-222.655	79.825	0.060	-0.063
-221.640	96.766	-0.215	0.242
-220.625	133.108	-0.246	-0.311
-219.611	483.924	0.225	0.502
-218.596	-39.529	0.271	-0.139
-217.582	-126.599	0.182	-0.026
-216.567	104.037	-0.064	0.073
-215.552	47.872	0.235	-0.215
-214.538	-137.966	-0.124	0.014
-213.523	-200.000	-0.005	0.256
-212.509	-19.454	0.337	-0.205
-211.494	-78.854	-0.242	-0.081
-210.479	494.219	0.057	0.129
-209.465	-162.094	0.347	0.017
-208.450	800.000	-0.031	-0.118
-207.436	-13.450	-0.204	-0.130
-206.421	2.907	0.393	0.280
-205.406	46.353	-0.069	0.063
-204.392	708.064	0.097	-0.251
-203.377	-34.225	0.141	-0.076
-202.363	240.396	-0.153	-0.250
-201.348	29.970	0.026	-0.022
-200.333	162.636	0.088	0.121
-199.319	63.149	0.078	-0.077
-198.304	800.000	0.116	0.345
-197.290	-121.799	0.148	-0.024
-196.275	-56.653	0.134	0.058
-195.260	19.740	0.228	0.180
-194.246	-50.278	0.213	0.099
-193.231	-175.442	-0.169	-0.005
-192.217	-200.000	-0.023	-0.288
-191.202	132.237	0.159	-0.201
-190.187	-200.000	0.015	0.101
-189.173	-35.451	0.160	0.085
-188.158	-90.959	0.086	0.024
-187.144	-200.000	0.012	-0.207
-186.129	115.969	0.106	0.128
-185.114	241.103	0.188	-0.308
-184.100	112.391	0.144	0.171
-183.085	-200.000	-0.042	-0.379
-182.071	-93.882	0.293	-0.079
-181.056	-80.493	0.205	-0.067
-180.042	-42.342	0.199	-0.100
-179.027	55.926	0.178	0.169
-178.012	88.469	-0.070	-0.076
-176.998	-57.951	-0.213	0.091
-175.983	14.721	0.194	-0.149
-174.969	-200.000	0.002	0.028
-173.954	-83.013	0.049	-0.016
-172.939	-20.803	0.164	-0.098
-171.925	29.613	-0.165	-0.138
-170.910	-50.788	-0.073	0.034
-169.896	-74.542	0.106	0.037
-168.881	800.000	0.052	-0.172
-167.866	-200.000	0.006	-0.178
-166.852	-52.772	-0.194	0.088
-165.837	-200.000	0.036	-0.352
-164.823	800.000	0.052	0.212
-163.808	3.361	0.330	0.235
-162.793	-53.811	0.299	-0.134
-161.779	169.081	-0.143	-0.200
-160.764	-61.249	0.192	0.079
-159.750	-99.354	-0.097	-0.024
-158.735	-63.969	-0.073	0.029
-157.720	75.884	-0.113	0.118
-156.706	606.229	0.049	-0.119
-155.691	-41.289	-0.054	-0.027
-154.677	92.693	-0.062	-0.069
-153.662	-115.625	0.308	0.057
-152.647	25.044	-0.021	0.017
-151.633	11.119	-0.191	0.143
-150.618	-136.668	-0.305	-0.034
-149.604	77.730	-0.219	0.228
-148.589	151.519	0.092	0.123
-147.574	-200.000	0.033	0.202
-146.560	-87.516	-0.173	0.051
-145.545	-95.468	-0.265	0.070
-144.531	113.838	0.187	-0.222
-143.516	633.979	-0.078	0.193
-142.502	-123.528	0.204	-0.032
-141.487	156.207	-0.097	-0.131
-140.472	-100.986	-0.212	-0.051
-139.458	65.471	0.148	0.147
-138.443	-122.845	-0.284	0.045
-137.429	-200.000	-0.004	0.018
-136.414	-64.939	0.243	0.096
-135.399	755.883	-0.052	-0.137
-134.385	3.814	0.049	-0.035
-133.370	-166.560	0.301	-0.012
-132.356	-200.000	-0.025	-0.108
-131.341	-23.609	0.167	-0.098
-130.326	745.370	-0.073	-0.191
-129.312	628.857	0.142	0.351
-128.297	800.000	-0.032	-0.136
-127.283	-137.112	0.339	0.038
-126.268	-109.415	0.071	0.015
-125.253	-92.349	-0.394	-0.108
-124.239	735.136	0.061	-0.161
-123.224	-119.952	-0.106	-0.018
-122.210	-200.000	0.012	0.138
-121.195	458.465	0.097	0.210
