DTS Sentinel unit serial number:	SN413079Multiplexer serial number:	ORYXHardware model number:	OX4-SRSoftware version number:	ORYX F/W v4.00 Oryx Data Collector v3.7.2.0data status	okinstallation	princeton_trtdifferential loss correction	single-endedforward channel	channel 1reverse channel	N/Adate	2019/09/13time	06:30:35forward acquisition time	60.00reverse acquisition time	0.00gamma	496.2192k internal	0.2335k external	0.2335temperature offset calibration	1.0161default loss term (dB/km)	0.3790temperature slope calibration	1.0000multiplexer offset coefficient	1.0000multiplexer slope coefficient	1.0000fibre end	0.00T internal ref (°C)	26.06T ext. ref 1 (°C)	4.08T ext. ref 2 (°C)	20.62length (m)	temperature (°C)	Stokes	anti-Stokes-747.200	267.759	0.125	-0.220
-746.185	800.000	-0.026	0.107
-745.171	666.128	-0.160	-0.415
-744.156	-79.636	-0.422	-0.143
-743.142	-46.822	0.088	0.043
-742.127	-58.898	-0.304	-0.132
-741.112	800.000	0.032	-0.108
-740.098	-16.649	-0.090	0.057
-739.083	-84.876	-0.445	-0.140
-738.069	4.891	0.265	0.196
-737.054	13.705	0.143	-0.112
-736.039	-139.234	-0.298	-0.032
-735.025	-200.000	-0.014	-0.143
-734.010	61.327	-0.195	-0.195
-732.996	-200.000	0.017	-0.238
-731.981	92.363	-0.366	-0.414
-730.966	-172.531	-0.382	0.012
-729.952	180.103	-0.029	0.043
-728.937	-200.000	0.014	-0.433
-727.923	-59.818	0.099	0.043
-726.908	102.751	-0.204	0.240
-725.894	333.852	0.111	-0.216
-724.879	144.581	-0.095	-0.128
-723.864	-200.000	-0.033	-0.149
-722.850	323.233	0.110	-0.211
-721.835	-109.709	-0.135	-0.029
-720.821	-95.276	0.268	0.073
-719.806	-200.000	-0.013	0.150
-718.791	545.017	0.107	0.257
-717.777	-200.000	-0.017	-0.175
-716.762	-23.144	-0.120	0.073
-715.748	6.238	-0.147	-0.109
-714.733	93.328	0.208	0.237
-713.718	-111.394	0.135	0.028
-712.704	220.039	-0.081	0.131
-711.689	180.690	-0.195	0.287
-710.675	800.000	0.084	0.241
-709.660	172.900	0.153	-0.222
-708.645	137.769	-0.067	-0.088
-707.631	64.361	0.146	0.147
-706.616	204.747	-0.066	0.103
-705.602	202.797	0.245	-0.380
-704.587	800.000	0.078	-0.261
-703.572	-134.014	-0.065	0.008
-702.558	-69.547	0.423	0.162
-701.543	-200.000	0.048	-0.224
-700.529	-198.164	0.220	0.001
-699.514	-168.185	-0.524	-0.020
-698.499	800.000	0.011	0.035
-697.485	-200.000	0.005	-0.034
-696.470	135.501	0.069	0.090
-695.456	-42.671	0.230	0.117
-694.441	800.000	0.043	0.160
-693.426	-142.294	0.150	-0.015
-692.412	-200.000	-0.034	-0.228
-691.397	-6.454	0.072	0.049
-690.383	-39.513	-0.267	0.140
-689.368	-200.000	0.086	-0.441
-688.354	-122.535	0.146	0.024
-687.339	800.000	0.009	0.031
-686.324	106.402	0.237	0.282
-685.310	-15.639	-0.228	0.146
-684.295	322.851	0.087	0.165
-683.281	-45.253	-0.200	-0.099
-682.266	785.020	-0.034	0.095
-681.251	308.741	-0.079	0.147
-680.237	-200.000	-0.001	-0.088
-679.222	-2.523	0.165	-0.116
-678.208	-75.790	0.161	0.057
-677.193	81.034	0.147	-0.159
-676.178	800.000	0.049	-0.203
-675.164	800.000	0.006	0.022
-674.149	130.192	-0.107	0.137
-673.135	-111.052	0.449	-0.092
-672.120	800.000	0.020	-0.061
-671.105	-22.970	-0.191	0.115
-670.091	-106.958	0.139	-0.031
-669.076	133.383	-0.259	-0.335
-668.062	172.500	0.089	-0.128
-667.047	-59.158	-0.205	-0.088
-666.032	21.069	0.144	-0.117
-665.018	800.000	0.008	0.026
-664.003	63.626	-0.181	-0.182
-662.989	582.558	-0.093	0.229
-661.974	49.040	0.228	-0.215
-660.959	-101.864	-0.205	0.050
-659.945	-145.089	-0.043	-0.004
-658.930	-118.416	0.210	-0.037
-657.916	772.598	-0.028	0.076
-656.901	421.045	-0.085	-0.182
-655.886	217.219	0.235	0.374
-654.872	-200.000	0.054	0.380
-653.857	262.332	-0.064	-0.111
-652.843	-145.642	-0.354	0.032
-651.828	-34.212	0.338	-0.186
-650.814	207.964	-0.218	-0.341
-649.799	19.875	-0.260	-0.210
-648.784	358.689	-0.119	-0.238
-647.770	718.182	0.100	0.267
-646.755	235.185	0.205	0.338
-645.741	-82.177	0.191	0.062
-644.726	298.332	-0.030	0.055
-643.711	402.487	-0.114	0.240
-642.697	-36.682	-0.280	0.150
-641.682	-200.000	-0.020	0.096
-640.668	95.024	-0.126	0.143
-639.653	-101.202	-0.094	0.023
-638.638	98.611	0.086	0.099
-637.624	13.361	-0.198	0.154
-636.609	-28.841	0.260	0.149
-635.595	41.897	0.206	-0.187
-634.580	-200.000	-0.019	0.087
-633.565	-38.998	-0.210	-0.110
-632.551	295.941	0.066	-0.121
-631.536	89.352	0.143	0.160
-630.522	-30.512	-0.099	0.056
-629.507	-39.379	0.159	0.084
-628.492	26.083	0.198	-0.166
-627.478	-200.000	-0.006	-0.178
-626.463	383.089	0.168	-0.346
-625.449	210.030	-0.249	0.391
-624.434	65.651	0.059	-0.060
-623.419	-6.063	0.319	-0.218
-622.405	-11.933	-0.189	-0.124
-621.390	0.215	0.056	0.040
-620.376	800.000	-0.066	-0.224
-619.361	-138.132	-0.397	0.044
-618.346	638.840	0.068	0.173
-617.332	-54.747	0.218	0.098
-616.317	-136.059	-0.216	0.025
-615.303	-200.000	0.002	-0.216
-614.288	-120.875	0.103	-0.017
-613.273	-200.000	0.030	-0.337
-612.259	268.757	-0.116	-0.203
-611.244	-44.652	-0.279	-0.139
-610.230	483.135	-0.144	-0.328
-609.215	-121.110	0.305	-0.051
-608.201	-199.036	0.401	0.002
-607.186	-49.783	-0.274	-0.130
-606.171	-11.383	-0.269	-0.177
-605.157	-116.949	0.125	-0.023
-604.142	50.041	-0.199	-0.187
-603.128	12.614	0.076	0.058
-602.113	-135.543	-0.334	-0.040
-601.098	-26.804	0.451	-0.263
-600.084	-16.633	0.295	-0.187
-599.069	517.470	0.059	0.139
-598.055	-63.747	0.176	-0.072
-597.040	-0.442	-0.254	-0.180
-596.025	124.236	-0.025	-0.031
-595.011	324.871	-0.047	-0.089
-593.996	95.821	-0.199	0.226
-592.982	67.286	0.238	0.242
-591.967	-26.982	-0.292	0.170
-590.952	18.577	0.147	0.117
-589.938	16.887	-0.215	0.170
-588.923	-98.254	-0.272	-0.070
-587.909	-34.852	-0.109	0.059
-586.894	-35.636	0.173	0.094
-585.879	31.619	0.130	-0.112
-584.865	-200.000	0.070	-0.375
-583.850	87.650	0.173	0.191
-582.836	-96.488	-0.208	-0.055
-581.821	800.000	0.051	0.152
-580.806	59.187	-0.071	-0.069
-579.792	-200.000	-0.014	-0.406
-578.777	-91.636	-0.223	-0.063
-577.763	-200.000	-0.034	0.314
-576.748	-127.387	-0.158	-0.023
-575.733	-96.495	0.187	-0.049
-574.719	357.917	0.053	-0.106
-573.704	-48.044	-0.108	0.052
-572.690	217.463	0.093	0.147
-571.675	-125.997	-0.294	-0.044
-570.661	-14.931	0.228	-0.146
-569.646	118.287	0.123	0.151
-568.631	-200.000	0.033	0.384
-567.617	260.171	-0.145	-0.251
-566.602	-200.000	-0.006	-0.045
-565.588	-65.695	0.221	0.089
-564.573	800.000	0.013	0.049
-563.558	-200.000	-0.013	-0.217
-562.544	-200.000	-0.015	-0.106
-561.529	100.494	0.234	0.271
-560.515	221.907	0.177	-0.283
-559.500	225.282	0.114	-0.184
-558.485	254.719	-0.070	-0.120
-557.471	83.994	-0.136	0.148
-556.456	-200.000	-0.061	0.267
-555.442	83.132	-0.248	0.269
-554.427	800.000	-0.082	-0.258
-553.412	-200.000	-0.006	-0.320
-552.398	39.893	-0.109	0.097
-551.383	-141.448	0.155	0.016
-550.369	192.234	-0.088	0.133
-549.354	-97.769	0.261	-0.067
-548.339	112.676	-0.110	0.132
-547.325	392.672	-0.107	0.223
-546.310	312.603	0.074	-0.139
-545.296	-112.155	-0.306	0.061
-544.281	-123.014	0.178	-0.029
-543.266	332.901	-0.201	-0.388
-542.252	11.479	0.191	-0.146
-541.237	339.443	0.122	-0.238
-540.223	-200.000	-0.056	-0.361
-539.208	62.663	0.111	0.110
-538.193	262.975	-0.119	-0.207
-537.179	-200.000	-0.016	-0.313
-536.164	-119.448	0.124	0.021
-535.150	-168.236	-0.205	-0.008
-534.135	-200.000	0.009	-0.132
-533.121	-200.000	-0.019	-0.093
-532.106	-24.283	-0.108	-0.064
-531.091	-200.000	0.000	0.180
-530.077	-200.000	-0.025	0.206
-529.062	-77.929	0.555	-0.191
-528.048	-200.000	0.010	-0.078
-527.033	-49.909	-0.198	0.093
-526.018	416.743	0.052	0.112
-525.004	300.263	-0.211	0.388
-523.989	329.726	-0.054	-0.104
-522.975	769.929	0.025	0.067
-521.960	-57.512	0.149	0.065
-520.945	800.000	0.057	-0.233
-519.931	-200.000	-0.020	0.148
-518.916	100.151	-0.027	-0.032
-517.902	-200.000	-0.021	0.256
-516.887	131.360	0.050	-0.065
-515.872	402.187	-0.035	0.073
-514.858	-56.972	-0.213	-0.094
-513.843	-6.968	0.173	-0.117
-512.829	-44.085	0.057	0.028
-511.814	-41.907	-0.232	-0.118
-510.799	42.121	-0.050	0.045
-509.785	-46.527	-0.210	-0.103
-508.770	-54.582	-0.085	-0.038
-507.756	-200.000	-0.017	0.143
-506.741	426.687	-0.079	-0.169
-505.726	423.880	-0.040	-0.085
-504.712	-73.675	0.078	-0.028
-503.697	-200.000	-0.015	0.387
-502.683	-133.197	-0.231	0.029
-501.668	69.095	0.355	0.364
-500.653	800.000	0.046	-0.185
-499.639	-200.000	0.011	-0.137
-498.624	-132.174	0.017	0.002
-497.610	53.165	0.294	-0.281
-496.595	33.218	-0.099	0.085
-495.581	41.924	0.347	0.313
-494.566	104.919	-0.109	0.127
-493.551	800.000	0.036	0.127
-492.537	-80.703	0.081	-0.027
-491.522	-200.000	0.015	-0.401
-490.508	-63.362	-0.061	-0.025
-489.493	-81.422	-0.460	0.151
-488.478	28.512	-0.135	-0.114
-487.464	-150.058	0.332	-0.026
-486.449	198.586	-0.232	-0.353
-485.435	65.599	-0.120	-0.121
-484.420	-200.000	0.015	-0.145
-483.405	75.530	0.253	0.265
-482.391	276.527	0.092	0.163
-481.376	-200.000	-0.024	-0.253
-480.362	171.748	0.061	-0.087
-479.347	-116.548	-0.207	0.038
-478.332	-200.000	-0.005	0.070
-477.318	337.233	0.062	0.120
-476.303	182.931	0.142	-0.209
-475.289	-60.743	-0.103	-0.043
-474.274	-165.879	0.392	0.017
-473.259	318.665	0.081	0.152
-472.245	-77.693	0.125	-0.043
-471.230	388.733	-0.037	-0.076
-470.216	295.181	-0.119	0.216
-469.201	-122.547	0.105	0.017
-468.186	-200.000	-0.011	0.159
-467.172	-122.885	-0.092	-0.015
-466.157	-116.124	-0.128	-0.024
-465.143	106.880	-0.051	0.060
-464.128	800.000	0.034	-0.131
-463.113	-59.803	-0.030	-0.013
-462.099	-80.415	0.347	0.115
-461.084	42.333	0.386	0.349
-460.070	-200.000	-0.017	-0.401
-459.055	-2.210	-0.150	0.105
-458.040	99.067	-0.115	-0.132
-457.026	800.000	0.104	-0.293
-456.011	800.000	-0.021	-0.069
-454.997	-94.915	0.199	-0.053
-453.982	211.342	0.051	0.080
-452.968	-110.932	-0.041	-0.008
-451.953	-49.600	0.180	0.085
-450.938	-200.000	0.014	-0.115
-449.924	800.000	-0.092	-0.263
-448.909	3.233	-0.239	-0.173
-447.895	489.843	0.031	-0.070
-446.880	-79.112	0.383	0.129
-445.865	-23.753	-0.043	0.025
-444.851	-200.000	-0.030	-0.147
-443.836	92.065	-0.135	0.151
-442.822	-200.000	-0.026	-0.282
-441.807	-133.020	0.219	-0.028
-440.792	-43.890	0.296	-0.148
-439.778	73.594	0.298	-0.310
-438.763	-38.750	-0.313	-0.164
-437.749	-200.000	-0.023	-0.282
-436.734	75.201	-0.090	0.094
-435.719	44.990	0.210	0.192
-434.705	127.089	-0.057	0.072
-433.690	16.023	-0.255	-0.199
-432.676	-52.541	-0.275	0.126
-431.661	800.000	-0.051	0.147
-430.646	-123.222	-0.262	-0.042
-429.632	0.295	0.080	-0.057
-428.617	-29.073	0.104	0.059
-427.603	38.646	-0.215	-0.191
-426.588	-88.090	0.219	-0.065
-425.573	-1.478	-0.175	-0.123
-424.559	-132.098	0.152	0.020
-423.544	-97.061	0.193	0.050
-422.530	800.000	0.028	0.103
-421.515	193.930	-0.015	-0.022
-420.500	-200.000	-0.047	-0.614
-419.486	-78.837	-0.086	-0.029
-418.471	63.994	0.140	-0.139
-417.457	153.800	0.209	0.285
-416.442	-65.328	-0.090	-0.036
-415.428	148.515	0.209	-0.280
-414.413	800.000	-0.046	0.160
-413.398	-147.176	-0.243	-0.021
-412.384	84.837	-0.319	0.347
-411.369	-125.253	0.386	-0.059
-410.355	-200.000	0.004	0.067
-409.340	259.331	0.119	0.203
-408.325	-200.000	-0.007	-0.252
-407.311	-171.593	-0.350	-0.011
-406.296	-42.494	-0.070	-0.035
-405.282	165.104	0.023	-0.032
-404.267	-18.203	0.213	-0.132
-403.252	114.179	0.320	0.386
-402.238	-7.994	0.098	-0.065
-401.223	-129.075	-0.186	0.026
-400.209	-91.397	0.173	-0.049
-399.194	19.701	-0.156	-0.124
-398.179	50.571	0.147	0.138
-397.165	-54.789	0.497	0.222
-396.150	-77.129	0.136	-0.047
-395.136	173.963	0.140	0.201
-394.121	-200.000	-0.028	0.129
-393.106	800.000	0.077	-0.215
-392.092	-13.260	-0.166	-0.107
-391.077	282.341	-0.100	0.177
-390.063	564.997	0.048	0.115
-389.048	-50.697	-0.042	-0.020
-388.033	117.399	-0.150	-0.183
-387.019	241.275	0.193	-0.320
-386.004	-38.427	-0.101	0.053
-384.990	-100.771	-0.107	-0.026
-383.975	41.940	-0.159	0.143
-382.960	800.000	-0.062	0.194
-381.946	6.369	0.117	0.086
-380.931	-200.000	0.007	0.385
-379.917	146.287	0.157	0.209
-378.902	153.629	-0.057	0.077
-377.888	156.673	0.157	0.215
-376.873	485.393	-0.054	-0.121
-375.858	-64.460	-0.198	0.080
-374.844	-17.131	-0.218	-0.136
-373.829	39.018	-0.377	0.334
-372.815	-114.755	0.118	0.022
-371.800	136.316	-0.034	0.044
-370.785	-84.423	-0.050	-0.016
-369.771	128.130	-0.037	0.046
-368.756	92.590	0.216	0.241
-367.742	121.643	-0.081	0.100
-366.727	-30.016	0.214	0.120
-365.712	-200.000	-0.012	0.170
-364.698	57.917	-0.216	0.209
-363.683	-13.928	-0.203	-0.130
-362.669	34.442	0.157	0.136
-361.654	-161.068	-0.197	0.010
-360.639	122.048	0.010	0.012
-359.625	-200.000	-0.027	0.308
-358.610	23.048	-0.153	0.124
-357.596	-200.000	0.026	0.484
-356.581	-112.026	-0.255	0.051
-355.566	-125.393	-0.173	-0.026
-354.552	-200.000	0.002	0.138
-353.537	86.426	0.129	-0.140
-352.523	309.316	0.182	0.337
-351.508	792.910	-0.076	-0.208
-350.493	-44.505	0.058	0.029
-349.479	-135.878	0.201	0.023
-348.464	-63.274	-0.053	-0.022
-347.450	461.486	-0.067	-0.147
-346.435	-109.066	0.219	-0.046
-345.420	-130.333	-0.258	-0.035
-344.406	-83.139	-0.232	0.074
-343.391	-57.611	0.407	0.176
-342.377	-200.000	-0.039	-0.171
-341.362	800.000	-0.069	0.226
-340.348	-200.000	-0.007	-0.053
-339.333	32.307	-0.187	0.160
-338.318	9.342	0.212	-0.159
-337.304	-16.360	-0.166	0.104
-336.289	-45.139	0.415	0.204
-335.275	-75.554	-0.124	0.043
-334.260	313.143	-0.079	-0.146
-333.245	-200.000	0.035	-0.209
-332.231	-137.803	-0.353	0.039
-331.216	204.730	0.163	-0.250
-330.202	-200.000	0.051	-0.357
-329.187	-107.547	-0.280	-0.061
-328.172	28.263	0.142	-0.118
-327.158	84.688	-0.306	-0.331
-326.143	-115.649	-0.047	-0.009
-325.129	-200.000	0.072	0.313
-324.114	-65.017	0.194	-0.077
-323.099	-102.378	-0.197	0.047
-322.085	1.724	-0.098	0.070
-321.070	-128.189	-0.316	-0.045
-320.056	-33.040	-0.313	0.172
-319.041	-36.339	0.393	0.209
-318.026	-200.000	-0.085	0.415
-317.012	-41.593	0.226	-0.115
-315.997	-120.372	-0.031	0.005
-314.983	-200.000	-0.049	-0.302
-313.968	-70.754	0.274	0.102
-312.953	-200.000	0.003	-0.145
-311.939	-56.754	-0.271	-0.118
-310.924	138.397	-0.213	-0.277
-309.910	48.590	-0.208	0.193
-308.895	46.704	0.140	0.128
-307.880	-168.175	0.207	-0.008
-306.866	20.244	0.042	0.034
-305.851	-200.000	0.016	0.080
-304.837	-200.000	-0.060	0.438
-303.822	-26.694	-0.049	-0.028
-302.807	-200.000	0.012	0.073
-301.793	-200.000	-0.022	0.203
-300.778	-62.675	0.148	0.061
-299.764	-200.000	-0.004	0.340
-298.749	144.417	-0.177	0.233
-297.735	-151.626	0.168	0.012
-296.720	-200.000	0.000	-0.034
-295.705	303.785	-0.046	0.085
-294.691	-200.000	0.019	0.236
-293.676	-200.000	-0.065	-0.398
-292.662	614.726	-0.072	0.178
-291.647	800.000	-0.066	-0.194
-290.632	-24.770	0.255	-0.150
-289.618	-164.061	-0.197	0.009
-288.603	162.156	0.196	0.272
-287.589	-59.578	0.282	-0.119
-286.574	-9.798	0.236	0.155
-285.559	-200.000	-0.021	-0.150
-284.545	82.139	0.147	0.157
-283.530	-89.266	-0.220	0.064
-282.516	800.000	0.048	0.206
-281.501	-45.331	-0.176	0.086
-280.486	-114.226	-0.152	0.029
-279.472	-115.134	0.244	-0.046
-278.457	326.440	-0.073	0.138
-277.443	53.543	-0.205	0.194
-276.428	26.927	-0.398	-0.329
-275.413	-79.128	-0.064	0.021
-274.399	143.707	0.077	-0.101
-273.384	-122.245	0.426	0.069
-272.370	-74.890	0.134	-0.047
-271.355	11.585	0.280	-0.212
-270.340	800.000	0.100	-0.272
-269.326	95.846	0.291	-0.327
-268.311	48.643	-0.138	-0.128
-267.297	202.896	0.044	-0.067
-266.282	1.414	-0.236	-0.167
-265.267	-200.000	-0.013	-0.137
-264.253	-173.068	-0.216	-0.007
-263.238	-21.871	-0.176	0.106
-262.224	209.519	0.121	-0.187
-261.209	-20.018	-0.149	-0.090
-260.195	-200.000	0.077	-0.428
-259.180	-200.000	-0.012	0.189
-258.165	-200.000	0.110	0.000
-257.151	-200.000	0.004	-0.083
-256.136	-200.000	-0.023	-0.141
-255.122	135.495	-0.109	-0.139
-254.107	-80.460	-0.244	0.080
-253.092	-55.049	-0.073	-0.032
-252.078	-200.000	0.007	-0.053
-251.063	800.000	0.074	0.205
-250.049	151.103	0.148	0.198
-249.034	-200.000	0.011	0.096
-248.019	445.332	-0.130	0.281
-247.005	-200.000	-0.022	-0.124
-245.990	800.000	-0.087	-0.239
-244.976	800.000	-0.090	0.302
-243.961	-200.000	0.013	-0.096
-242.946	-124.054	0.198	-0.031
-241.932	645.956	0.055	0.138
-240.917	800.000	0.050	0.138
-239.903	640.325	0.068	0.171
-238.888	-34.463	0.165	-0.089
-237.873	241.469	-0.085	0.139
-236.859	-50.383	-0.134	-0.063
-235.844	-43.149	0.073	-0.036
-234.830	-104.619	-0.221	0.050
-233.815	484.373	0.073	-0.164
-232.800	80.586	-0.052	-0.056
-231.786	800.000	0.095	-0.259
-230.771	-19.717	0.202	0.123
-229.757	800.000	0.004	0.018
-228.742	392.220	-0.127	-0.260
-227.727	-200.000	-0.011	-0.137
-226.713	742.859	-0.039	0.102
-225.698	8.121	0.091	0.067
-224.684	100.023	-0.307	0.350
-223.669	-172.371	-0.316	0.010
-222.655	-105.957	0.209	0.046
-221.640	-20.608	-0.194	-0.117
-220.625	-200.000	0.078	-0.364
-219.611	548.972	0.043	-0.102
-218.596	800.000	-0.051	0.217
-217.582	-58.781	0.282	-0.120
-216.567	75.925	0.113	-0.118
-215.552	366.378	0.008	-0.016
-214.538	269.793	-0.079	0.136
-213.523	-200.000	0.035	-0.304
-212.509	-71.933	-0.214	0.078
-211.494	334.784	-0.193	0.368
-210.479	-39.933	0.274	0.141
-209.465	-200.000	-0.039	-0.224
-208.450	800.000	-0.056	0.160
-207.436	14.443	0.172	0.132
-206.421	-189.635	0.178	0.002
-205.406	58.033	-0.066	-0.063
-204.392	-103.090	0.178	-0.041
-203.377	-15.921	0.079	0.050
-202.363	-137.623	0.267	-0.030
-201.348	57.153	0.138	0.133
-200.333	78.863	-0.160	-0.168
-199.319	-38.780	0.278	-0.144
-198.304	-200.000	-0.069	-0.365
-197.290	-43.643	0.220	0.109
-196.275	-200.000	-0.007	-0.052
-195.260	441.896	-0.156	0.337
-194.246	93.974	-0.094	0.105
-193.231	161.609	0.153	0.210
-192.217	751.179	-0.039	-0.103
-191.202	-4.195	-0.018	0.013
-190.187	-64.628	0.243	-0.097
-189.173	800.000	-0.022	-0.095
-188.158	-11.185	-0.219	-0.142
-187.144	-43.408	0.023	-0.012
-186.129	-73.171	-0.289	0.104
-185.114	-200.000	-0.028	-0.129
-184.100	-141.671	-0.065	-0.006
-183.085	-200.000	0.006	0.267
-182.071	-116.122	0.112	0.020
-181.056	-87.617	-0.086	0.025
-180.042	730.260	0.011	0.029
-179.027	23.533	0.196	0.158
-178.012	93.665	-0.168	0.187
-176.998	800.000	0.089	-0.288
-175.983	-4.958	0.144	-0.098
-174.969	114.617	-0.179	-0.214
-173.954	-150.334	-0.315	0.024
-172.939	192.140	0.160	-0.238
-171.925	244.639	0.210	0.347
-170.910	22.312	-0.224	-0.180
-169.896	-76.543	0.168	0.058
-168.881	800.000	-0.099	-0.279
-167.866	95.828	-0.146	0.164
-166.852	-111.336	0.067	0.013
-165.837	669.966	0.165	0.421
-164.823	-93.866	0.213	0.058
-163.808	-101.423	-0.426	0.102
-162.793	-200.000	-0.037	-0.180
-161.779	-200.000	0.023	0.124
-160.764	117.759	-0.078	0.094
-159.750	-146.775	0.228	-0.019
-158.735	800.000	-0.053	-0.160
-157.720	-9.494	-0.195	-0.128
-156.706	553.249	0.158	0.372
-155.691	212.666	-0.168	0.259
-154.677	419.163	-0.104	0.219
-153.662	66.423	0.057	-0.057
-152.647	-200.000	-0.001	0.371
-151.633	22.090	0.240	-0.192
-150.618	-7.518	0.147	-0.098
-149.604	8.771	0.093	0.069
-148.589	800.000	0.077	0.288
-147.574	-77.828	-0.105	0.036
-146.560	-152.100	-0.065	-0.005
-145.545	-123.832	-0.269	0.042
-144.531	-111.570	-0.157	-0.031
-143.516	-130.298	0.167	0.022
-142.502	-66.313	0.223	-0.087
-141.487	48.164	-0.121	0.111
-140.472	-100.678	0.152	0.037
-139.458	-200.000	-0.072	-0.353
-138.443	-147.817	0.304	-0.025
-137.429	49.171	0.209	-0.193
-136.414	-65.408	0.489	0.193
-135.399	-81.290	-0.179	0.058
-134.385	-139.223	-0.405	-0.043
-133.370	-179.608	0.232	-0.005
-132.356	59.207	-0.218	-0.210
-131.341	376.604	-0.119	0.237
-130.326	-57.690	0.135	0.058
-129.312	-67.030	0.205	-0.079
-128.297	287.276	0.096	-0.170
-127.283	-200.000	-0.015	0.312
-126.268	-87.627	0.154	0.046
-125.253	332.962	-0.106	-0.201
-124.239	-187.718	0.146	0.002
-123.224	800.000	0.076	-0.232
-122.210	-200.000	-0.009	-0.144
