DTS Sentinel unit serial number:	SN413079Multiplexer serial number:	ORYXHardware model number:	OX4-SRSoftware version number:	ORYX F/W v4.00 Oryx Data Collector v3.7.2.0data status	okinstallation	princeton_trtdifferential loss correction	single-endedforward channel	channel 1reverse channel	N/Adate	2019/09/12time	21:10:35forward acquisition time	60.00reverse acquisition time	0.00gamma	496.2192k internal	0.2326k external	0.2326temperature offset calibration	1.0145default loss term (dB/km)	0.3790temperature slope calibration	1.0000multiplexer offset coefficient	1.0000multiplexer slope coefficient	1.0000fibre end	0.00T internal ref (°C)	30.70T ext. ref 1 (°C)	3.59T ext. ref 2 (°C)	25.25length (m)	temperature (°C)	Stokes	anti-Stokes-747.200	-41.213	-0.293	-0.153
-746.185	800.000	0.047	0.158
-745.171	-176.757	-0.258	0.007
-744.156	-19.761	0.145	0.091
-743.142	-128.563	0.175	0.025
-742.127	104.765	-0.159	0.189
-741.112	-35.714	-0.114	-0.062
-740.098	28.785	0.090	-0.077
-739.083	262.409	-0.073	0.128
-738.069	-54.876	-0.312	0.142
-737.054	-200.000	-0.006	-0.358
-736.039	518.072	-0.107	-0.252
-735.025	-79.438	0.401	0.137
-734.010	210.763	-0.312	-0.495
-732.996	-65.222	-0.444	-0.180
-731.981	-133.733	0.026	-0.003
-730.966	173.181	0.192	-0.278
-729.952	-44.370	0.145	-0.073
-728.937	-14.949	-0.259	-0.168
-727.923	-200.000	-0.024	-0.216
-726.908	-33.979	-0.064	0.036
-725.894	-95.424	-0.177	-0.048
-724.879	26.334	-0.178	-0.150
-723.864	-18.413	-0.160	-0.100
-722.850	87.310	0.126	-0.140
-721.835	-123.492	-0.250	-0.040
-720.821	-200.000	-0.021	-0.177
-719.806	302.292	0.037	-0.070
-718.791	153.368	-0.133	0.184
-717.777	542.088	-0.064	-0.153
-716.762	168.881	0.126	-0.182
-715.748	-81.449	-0.110	0.037
-714.733	800.000	0.059	0.248
-713.718	302.907	-0.075	0.140
-712.704	-37.537	0.166	-0.089
-711.689	800.000	0.078	-0.289
-710.675	-75.227	0.258	0.093
-709.660	182.017	-0.187	-0.278
-708.645	-200.000	-0.045	0.273
-707.631	55.928	0.192	0.188
-706.616	-1.933	-0.137	-0.097
-705.602	-122.486	-0.252	-0.041
-704.587	-189.237	0.295	0.004
-703.572	37.732	-0.130	0.116
-702.558	-25.989	0.217	-0.128
-701.543	-47.259	-0.221	-0.108
-700.529	-200.000	-0.022	0.489
-699.514	-12.122	0.324	0.213
-698.499	87.666	-0.076	0.084
-697.485	279.927	-0.121	-0.217
-696.470	721.499	-0.090	-0.242
-695.456	737.078	0.137	0.370
-694.441	-87.681	-0.347	0.105
-693.426	-200.000	-0.031	0.143
-692.412	-200.000	0.040	0.204
-691.397	221.893	-0.091	-0.147
-690.383	-119.394	-0.180	0.032
-689.368	-92.410	-0.054	0.015
-688.354	-172.827	0.162	-0.005
-687.339	333.788	0.065	-0.126
-686.324	30.882	-0.156	0.135
-685.310	174.427	0.122	-0.178
-684.295	-83.307	-0.459	0.148
-683.281	-49.544	0.311	0.149
-682.266	-42.296	-0.394	-0.202
-681.251	302.219	0.169	-0.315
-680.237	253.265	-0.096	-0.165
-679.222	-78.833	0.147	-0.050
-678.208	-200.000	-0.024	0.126
-677.193	-122.190	0.191	-0.031
-676.178	-200.000	0.001	-0.087
-675.164	-200.000	0.006	0.042
-674.149	-52.998	-0.216	0.100
-673.135	-114.866	0.381	0.073
-672.120	-200.000	-0.007	-0.135
-671.105	800.000	-0.085	-0.270
-670.091	-32.808	-0.249	-0.139
-669.076	22.631	-0.168	-0.138
-668.062	72.106	0.187	-0.196
-667.047	668.183	0.038	0.099
-666.032	52.009	-0.334	-0.320
-665.018	136.587	-0.084	-0.110
-664.003	-22.931	-0.128	0.078
-662.989	-200.000	-0.020	-0.122
-661.974	-200.000	-0.045	-0.271
-660.959	52.572	0.177	-0.170
-659.945	-200.000	-0.095	0.467
-658.930	800.000	0.040	0.169
-657.916	16.092	-0.294	-0.233
-656.901	312.124	0.112	0.211
-655.886	-120.712	0.135	-0.023
-654.872	160.342	-0.214	-0.300
-653.857	135.132	0.103	0.134
-652.843	-200.000	-0.014	-0.171
-651.828	-48.249	-0.183	-0.089
-650.814	-128.338	0.326	0.047
-649.799	-177.283	0.034	0.001
-648.784	586.471	-0.096	0.239
-647.770	108.154	0.086	0.103
-646.755	77.468	0.042	-0.045
-645.741	-200.000	-0.043	-0.393
-644.726	-141.380	-0.300	0.031
-643.711	-200.000	0.006	0.067
-642.697	-132.827	0.197	-0.025
-641.682	5.426	0.191	-0.142
-640.668	-94.100	-0.488	-0.134
-639.653	-142.819	-0.170	0.017
-638.638	-200.000	0.000	0.064
-637.624	-97.211	-0.203	-0.053
-636.609	-71.203	0.290	-0.109
-635.595	-64.414	0.195	0.080
-634.580	791.860	-0.054	-0.148
-633.565	2.440	-0.273	0.198
-632.551	36.457	0.289	0.256
-631.536	-6.750	-0.086	-0.059
-630.522	113.093	-0.096	-0.117
-629.507	-85.632	0.363	-0.113
-628.492	800.000	0.054	-0.151
-627.478	361.920	0.065	-0.131
-626.463	-49.205	0.058	0.028
-625.449	208.929	0.047	0.074
-624.434	-158.508	-0.128	0.007
-623.419	73.029	-0.128	-0.134
-622.405	3.050	0.103	-0.075
-621.390	181.450	-0.128	-0.189
-620.376	-161.690	0.018	-0.001
-619.361	61.646	0.052	0.052
-618.346	285.612	0.113	-0.205
-617.332	-10.352	-0.191	-0.127
-616.317	-110.701	-0.170	-0.035
-615.303	-200.000	0.023	0.168
-614.288	-200.000	0.008	0.039
-613.273	800.000	-0.085	0.251
-612.259	148.351	0.087	-0.118
-611.244	66.667	0.172	-0.176
-610.230	108.156	0.074	-0.088
-609.215	28.601	-0.125	0.106
-608.201	58.162	-0.084	0.082
-607.186	-102.999	0.086	-0.021
-606.171	707.712	-0.027	-0.072
-605.157	58.028	0.151	-0.148
-604.142	-200.000	-0.009	-0.076
-603.128	-84.235	-0.220	0.070
-602.113	-138.479	0.332	0.037
-601.098	-113.125	-0.308	-0.061
-600.084	-24.170	0.329	0.197
-599.069	313.696	-0.108	-0.204
-598.055	-12.757	-0.375	0.245
-597.040	182.602	-0.159	-0.235
-596.025	-50.094	-0.153	0.073
-595.011	-200.000	0.038	0.396
-593.996	-200.000	-0.022	-0.127
-592.982	-200.000	0.013	-0.148
-591.967	-69.746	0.177	0.068
-590.952	33.405	0.104	0.090
-589.938	181.474	-0.044	-0.065
-588.923	-60.592	-0.317	0.135
-587.909	310.952	-0.042	-0.080
-586.894	-189.524	0.354	0.004
-585.879	193.549	0.111	-0.168
-584.865	800.000	-0.022	-0.067
-583.850	-200.000	-0.036	0.271
-582.836	-130.720	0.218	0.029
-581.821	128.659	-0.109	-0.139
-580.806	745.802	0.021	0.058
-579.792	800.000	-0.070	-0.215
-578.777	-181.516	0.238	-0.005
-577.763	-200.000	-0.002	0.096
-576.748	-67.031	0.235	0.093
-575.733	274.736	-0.108	0.192
-574.719	-200.000	0.021	0.140
-573.704	60.003	0.053	-0.052
-572.690	13.420	0.196	-0.152
-571.675	-78.115	0.308	0.106
-570.661	205.259	-0.120	0.187
-569.646	-29.775	-0.321	-0.183
-568.631	295.604	0.203	0.372
-567.617	-80.513	-0.145	-0.049
-566.602	-91.023	0.109	-0.031
-565.588	-1.650	-0.058	-0.041
-564.573	-146.401	-0.131	-0.011
-563.558	800.000	0.042	0.135
-562.544	681.000	-0.165	-0.431
-561.529	434.368	0.178	0.388
-560.515	-30.099	-0.239	0.136
-559.500	800.000	-0.027	-0.091
-558.485	78.622	0.098	0.105
-557.471	459.439	-0.058	-0.129
-556.456	-186.516	0.122	0.002
-555.442	473.448	0.042	0.095
-554.427	-110.475	0.132	-0.027
-553.412	-200.000	-0.023	0.104
-552.398	800.000	-0.033	0.093
-551.383	-61.559	-0.377	-0.158
-550.369	430.496	-0.074	0.161
-549.354	800.000	0.061	-0.250
-548.339	123.719	0.046	0.057
-547.325	800.000	-0.155	0.477
-546.310	-37.646	0.152	0.081
-545.296	318.288	0.207	0.393
-544.281	636.489	-0.146	-0.371
-543.266	0.343	0.282	-0.201
-542.252	-149.259	0.386	0.031
-541.237	-134.575	0.271	-0.033
-540.223	77.131	0.116	0.124
-539.208	-200.000	0.007	-0.281
-538.193	-1.752	0.106	0.075
-537.179	800.000	0.061	-0.231
-536.164	185.731	-0.035	-0.053
-535.150	-196.107	0.214	-0.001
-534.135	-200.000	-0.024	-0.477
-533.121	132.471	-0.191	-0.247
-532.106	800.000	0.040	0.130
-531.091	-25.796	-0.173	0.102
-530.077	-157.151	-0.184	-0.011
-529.062	158.193	0.183	-0.254
-528.048	16.909	0.212	0.168
-527.033	5.719	0.181	0.134
-526.018	-78.618	-0.128	0.044
-525.004	-33.712	-0.074	0.041
-523.989	224.938	-0.240	-0.389
-522.975	-200.000	0.010	0.241
-521.960	-90.911	-0.386	0.111
-520.945	123.030	0.044	0.055
-519.931	-78.039	0.068	0.023
-518.916	-109.853	-0.169	-0.035
-517.902	-200.000	0.055	-0.326
-516.887	22.098	0.121	0.099
-515.872	-200.000	0.051	-0.290
-514.858	-200.000	-0.049	-0.325
-513.843	8.858	-0.114	0.086
-512.829	-200.000	0.011	0.196
-511.814	-200.000	-0.007	-0.301
-510.799	-40.619	-0.148	-0.077
-509.785	-200.000	-0.058	0.263
-508.770	-26.364	-0.095	-0.056
-507.756	33.292	0.293	-0.254
-506.741	23.369	-0.059	-0.049
-505.726	-79.869	0.131	0.044
-504.712	-167.292	-0.342	0.014
-503.697	-200.000	0.036	0.209
-502.683	14.973	-0.254	-0.199
-501.668	-21.961	-0.061	0.037
-500.653	-93.347	0.153	-0.042
-499.639	800.000	-0.041	0.152
-498.624	524.982	0.112	-0.264
-497.610	-200.000	-0.054	0.269
-496.595	-16.449	0.161	0.102
-495.581	-91.997	0.193	0.055
-494.566	800.000	-0.040	0.134
-493.551	254.369	0.102	-0.175
-492.537	-200.000	-0.001	0.155
-491.522	-80.863	0.332	0.110
-490.508	-131.615	-0.304	-0.040
-489.493	-175.351	0.359	-0.010
-488.478	-34.512	0.141	0.077
-487.464	330.131	-0.114	-0.219
-486.449	-94.383	0.082	0.022
-485.435	-126.156	-0.082	0.012
-484.420	-18.594	-0.125	-0.078
-483.405	-200.000	0.049	-0.267
-482.391	-91.326	-0.207	0.059
-481.376	-12.891	0.069	-0.045
-480.362	-28.442	-0.374	-0.215
-479.347	-6.210	0.227	0.155
-478.332	-75.343	-0.153	-0.054
-477.318	27.576	-0.245	-0.206
-476.303	-43.535	-0.182	0.092
-475.289	-75.827	-0.049	0.017
-474.274	-200.000	0.021	-0.108
-473.259	198.325	-0.194	0.296
-472.245	-200.000	0.023	-0.216
-471.230	-200.000	0.043	0.325
-470.216	483.865	0.108	0.245
-469.201	-60.979	0.167	0.071
-468.186	-75.766	-0.336	-0.119
-467.172	23.729	-0.074	0.061
-466.157	-14.065	-0.272	-0.175
-465.143	-200.000	-0.005	-0.238
-464.128	-152.148	0.324	0.023
-463.113	-200.000	0.009	0.079
-462.099	-200.000	-0.067	-0.327
-461.084	364.136	-0.077	-0.154
-460.070	176.601	0.095	0.138
-459.055	-124.488	-0.139	-0.022
-458.040	800.000	-0.038	0.152
-457.026	800.000	0.035	-0.148
-456.011	-168.103	-0.283	0.011
-454.997	357.096	0.083	0.166
-453.982	-200.000	0.031	0.269
-452.968	-20.331	0.065	-0.040
-451.953	800.000	0.092	-0.332
-450.938	-90.937	-0.216	-0.062
-449.924	-131.937	0.120	-0.016
-448.909	-24.914	0.097	0.058
-447.895	45.997	-0.266	-0.245
-446.880	-29.060	-0.229	0.131
-445.865	-59.481	0.424	-0.181
-444.851	-49.800	0.238	-0.113
-443.836	-108.996	-0.149	0.032
-442.822	800.000	0.051	0.177
-441.807	-200.000	-0.031	0.160
-440.792	-22.400	-0.245	-0.148
-439.778	-200.000	0.007	0.044
-438.763	171.340	-0.205	0.294
-437.749	-91.864	-0.118	0.033
-436.734	48.319	-0.135	0.126
-435.719	-52.332	0.085	0.039
-434.705	-72.888	-0.082	-0.030
-433.690	252.843	-0.112	-0.191
-432.676	-200.000	-0.005	-0.042
-431.661	336.543	-0.102	-0.197
-430.646	339.254	0.147	-0.286
-429.632	239.823	0.061	-0.101
-428.617	308.739	0.170	-0.317
-427.603	-62.988	-0.248	0.102
-426.588	-150.256	-0.282	-0.022
-425.573	-5.026	-0.096	-0.066
-424.559	55.526	-0.116	-0.112
-423.544	-103.551	0.140	-0.033
-422.530	152.517	0.078	0.107
-421.515	-90.746	0.347	-0.100
-420.500	-200.000	0.000	0.026
-419.486	68.141	0.147	-0.150
-418.471	62.089	-0.180	0.179
-417.457	155.157	-0.024	-0.033
-416.442	624.128	0.054	0.135
-415.428	-200.000	0.218	0.001
-414.413	-200.000	-0.022	-0.189
-413.398	42.683	0.114	-0.103
-412.384	6.863	-0.188	-0.139
-411.369	312.290	-0.154	0.288
-410.355	-200.000	0.017	0.323
-409.340	-200.000	0.012	0.300
-408.325	-178.542	-0.318	-0.007
-407.311	800.000	-0.075	0.293
-406.296	-133.146	-0.181	0.023
-405.282	-90.401	0.059	0.017
-404.267	-112.052	-0.195	0.039
-403.252	137.137	0.200	0.260
-402.238	-200.000	-0.004	0.134
-401.223	-187.137	0.489	0.007
-400.209	800.000	-0.080	-0.232
-399.194	-15.891	-0.097	0.062
-398.179	-135.822	0.244	-0.029
-397.165	286.405	-0.129	-0.231
-396.150	240.576	-0.126	-0.209
-395.136	800.000	-0.058	-0.162
-394.121	-200.000	0.022	-0.260
-393.106	-159.467	0.211	0.012
-392.092	41.683	-0.127	-0.115
-391.077	-200.000	0.027	-0.146
-390.063	358.515	-0.117	0.233
-389.048	-41.508	-0.239	-0.122
-388.033	485.134	-0.089	0.202
-387.019	-106.457	0.116	0.026
-386.004	259.034	-0.169	-0.290
-384.990	-134.737	0.109	0.013
-383.975	115.719	0.170	0.206
-382.960	-1.914	0.109	0.077
-381.946	-155.652	-0.025	0.002
-380.931	800.000	-0.058	-0.176
-379.917	-176.041	0.168	0.004
-378.902	-81.052	-0.465	0.153
-377.888	-167.576	-0.108	0.004
-376.873	-66.988	0.194	-0.076
-375.858	-200.000	0.008	-0.173
-374.844	-114.878	0.465	-0.088
-373.829	-10.737	-0.095	0.063
-372.815	453.470	0.157	-0.345
-371.800	-113.040	-0.349	-0.069
-370.785	646.571	-0.102	-0.259
-369.771	-200.000	0.006	0.143
-368.756	-15.384	0.272	0.173
-367.742	-200.000	-0.004	0.148
-366.727	-165.743	0.111	-0.005
-365.712	75.852	0.056	-0.059
-364.698	800.000	0.052	0.190
-363.683	299.646	-0.035	0.065
-362.669	-76.502	-0.101	0.035
-361.654	-56.724	-0.322	-0.141
-360.639	-94.607	0.145	-0.039
-359.625	345.668	-0.176	0.344
-358.610	122.858	-0.082	0.102
-357.596	-200.000	0.065	0.402
-356.581	-104.292	0.207	-0.048
-355.566	-90.558	-0.258	-0.074
-354.552	117.528	0.211	-0.258
-353.537	-200.000	-0.024	0.208
-352.523	10.154	-0.150	-0.114
-351.508	143.214	0.137	0.181
-350.493	-200.000	-0.037	0.327
-349.479	451.195	0.118	0.260
-348.464	800.000	0.045	-0.191
-347.450	-200.000	0.123	-0.000
-346.435	5.252	0.243	0.178
-345.420	-125.025	0.199	-0.030
-344.406	-200.000	-0.020	-0.189
-343.391	-99.635	-0.148	0.037
-342.377	498.304	-0.082	0.187
-341.362	55.323	-0.074	-0.071
-340.348	-200.000	-0.019	0.324
-339.333	333.175	0.181	-0.348
-338.318	354.130	0.097	-0.192
-337.304	-142.932	-0.148	-0.014
-336.289	-200.000	0.044	0.229
-335.275	-37.743	0.147	0.078
-334.260	145.987	0.080	-0.106
-333.245	800.000	-0.018	-0.057
-332.231	-152.538	-0.182	-0.013
-331.216	-88.118	-0.316	-0.094
-330.202	800.000	0.022	-0.073
-329.187	795.279	-0.146	-0.399
-328.172	-49.245	0.325	-0.154
-327.158	-200.000	0.017	-0.130
-326.143	16.790	0.222	-0.174
-325.129	4.381	-0.310	-0.226
-324.114	-200.000	-0.003	-0.094
-323.099	-200.000	-0.019	-0.085
-322.085	800.000	-0.069	0.232
-321.070	39.706	-0.116	-0.103
-320.056	800.000	-0.072	0.250
-319.041	180.297	0.264	-0.385
-318.026	182.684	-0.062	0.090
-317.012	-35.220	0.142	-0.077
-315.997	-200.000	0.009	0.267
-314.983	-151.019	0.323	0.024
-313.968	-81.372	0.167	0.055
-312.953	-172.644	-0.256	0.008
-311.939	63.063	0.082	0.082
-310.924	128.458	0.081	0.102
-309.910	-200.000	0.016	-0.157
-308.895	-200.000	0.011	-0.242
-307.880	-200.000	0.111	0.557
-306.866	-66.951	-0.165	-0.064
-305.851	100.192	-0.054	0.062
-304.837	101.140	0.107	0.123
-303.822	97.400	-0.219	0.249
-302.807	-118.718	-0.105	0.018
-301.793	-118.127	0.050	-0.009
-300.778	-120.237	0.226	-0.038
-299.764	-200.000	0.018	0.169
-298.749	-200.000	-0.035	0.217
-297.735	-200.000	0.019	0.287
-296.720	268.848	-0.103	0.180
-295.705	800.000	-0.041	0.147
-294.691	20.754	0.151	0.121
-293.676	570.029	0.009	0.021
-292.662	217.556	0.235	-0.371
-291.647	-42.513	-0.183	0.092
-290.632	-200.000	0.004	0.089
-289.618	133.667	0.054	-0.070
-288.603	-168.829	-0.150	0.006
-287.589	-29.177	0.265	0.151
-286.574	-39.120	0.072	0.038
-285.559	-28.798	-0.415	0.237
-284.545	-116.925	-0.127	-0.023
-283.530	3.546	0.259	-0.187
-282.516	800.000	-0.097	0.365
-281.501	181.474	-0.294	0.428
-280.486	-132.114	-0.208	-0.027
-279.472	-113.921	-0.322	-0.062
-278.457	390.562	-0.129	0.265
-277.443	-58.609	-0.207	0.089
-276.428	114.854	0.125	0.151
-275.413	800.000	0.072	-0.299
-274.399	-78.611	-0.159	-0.054
-273.384	-46.733	-0.429	0.208
-272.370	-200.000	-0.031	0.213
-271.355	-74.166	0.058	0.021
-270.340	-125.939	0.347	0.052
-269.326	-134.535	0.341	0.041
-268.311	-58.307	-0.301	0.129
-267.297	-200.000	-0.040	0.193
-266.282	-58.317	-0.081	-0.035
-265.267	-102.725	0.100	0.024
-264.253	213.932	-0.169	-0.265
-263.238	-114.073	-0.313	-0.060
-262.224	-168.339	0.130	-0.005
-261.209	228.893	0.190	0.306
-260.195	-165.894	0.295	-0.013
-259.180	-96.756	-0.137	-0.036
-258.165	-200.000	-0.016	-0.214
-257.151	387.710	0.022	-0.045
-256.136	-186.505	0.354	0.005
-255.122	-200.000	0.060	-0.297
-254.107	115.209	-0.181	-0.219
-253.092	183.694	0.135	-0.197
-252.078	-110.161	0.098	-0.020
-251.063	-134.230	0.276	0.034
-250.049	20.118	0.345	0.276
-249.034	320.408	0.037	0.070
-248.019	13.968	-0.183	0.141
-247.005	-200.000	-0.018	-0.087
-245.990	68.384	-0.208	-0.210
-244.976	453.925	0.060	0.131
-243.961	800.000	-0.076	-0.236
-242.946	-28.148	0.299	-0.171
-241.932	-168.266	0.269	-0.010
-240.917	800.000	-0.082	-0.283
-239.903	136.473	-0.087	0.113
-238.888	-116.536	-0.370	0.067
-237.873	-40.413	-0.110	0.056
-236.859	178.493	0.136	0.196
-235.844	95.059	0.349	-0.393
-234.830	60.346	-0.175	-0.171
-233.815	438.849	0.041	0.088
-232.800	800.000	-0.036	0.130
-231.786	178.265	-0.175	0.253
-230.771	800.000	0.019	-0.077
-229.757	-200.000	0.028	0.272
-228.742	-40.073	-0.167	0.086
-227.727	55.653	-0.257	0.246
-226.713	-8.019	0.280	-0.187
-225.698	-37.089	0.234	-0.124
-224.684	3.713	-0.132	-0.095
-223.669	494.116	0.082	0.186
-222.655	31.430	0.182	-0.154
-221.640	800.000	-0.031	0.113
-220.625	-200.000	-0.018	0.150
-219.611	779.398	0.025	0.067
-218.596	-145.354	0.158	0.014
-217.582	54.004	0.372	0.354
-216.567	-128.778	0.252	0.035
-215.552	-32.791	-0.408	-0.224
-214.538	-200.000	0.027	-0.161
-213.523	-149.981	-0.234	0.018
-212.509	-96.043	-0.108	0.028
-211.494	800.000	0.044	-0.125
-210.479	-171.942	-0.074	-0.002
-209.465	-67.218	-0.162	-0.063
-208.450	673.202	-0.017	0.043
-207.436	-200.000	0.003	0.483
-206.421	64.922	0.258	0.257
-205.406	-7.142	-0.237	0.159
-204.392	-58.019	-0.296	0.128
-203.377	-31.973	0.073	0.041
-202.363	-41.578	-0.172	-0.087
-201.348	-127.920	0.276	-0.039
-200.333	154.291	0.187	-0.254
-199.319	-200.000	0.009	0.120
-198.304	270.513	0.109	-0.190
-197.290	17.407	0.234	-0.184
-196.275	800.000	0.075	-0.220
-195.260	-28.644	0.357	0.203
-194.246	-200.000	0.015	0.108
-193.231	-200.000	-0.006	0.398
-192.217	800.000	0.065	0.260
-191.202	324.385	-0.138	-0.260
-190.187	-90.881	-0.130	-0.037
-189.173	-200.000	-0.051	-0.338
-188.158	422.992	-0.062	-0.132
-187.144	-14.961	0.244	0.154
-186.129	-60.330	-0.233	0.098
-185.114	226.604	0.071	-0.113
-184.100	342.946	0.064	-0.124
-183.085	46.518	-0.135	-0.123
-182.071	278.228	0.160	0.281
-181.056	-130.304	-0.089	-0.012
-180.042	-16.737	0.320	0.200
-179.027	-61.298	0.263	-0.109
-178.012	353.322	-0.027	-0.053
-176.998	76.775	-0.110	0.115
-175.983	-200.000	-0.008	-0.164
-174.969	-9.381	0.245	-0.161
-173.954	-79.378	-0.081	-0.027
-172.939	-200.000	-0.073	-0.331
-171.925	-149.108	-0.319	0.025
-170.910	800.000	0.103	0.282
-169.896	-73.236	-0.187	-0.067
-168.881	-108.180	0.259	-0.055
-167.866	12.303	-0.203	-0.154
-166.852	-105.594	0.163	0.036
-165.837	800.000	-0.053	0.199
-164.823	-21.409	0.118	0.071
-163.808	-200.000	-0.026	0.171
-162.793	-200.000	0.044	-0.348
-161.779	-200.000	-0.005	-0.281
-160.764	-31.282	0.097	-0.054
-159.750	-98.564	0.136	-0.034
-158.735	-200.000	0.020	0.104
-157.720	16.871	-0.088	0.069
-156.706	-102.457	0.313	0.074
-155.691	-108.187	-0.481	-0.103
-154.677	-200.000	0.000	-0.146
-153.662	-59.026	0.212	0.090
-152.647	-43.863	-0.286	0.142
-151.633	-200.000	-0.021	-0.260
-150.618	-200.000	0.047	-0.287
-149.604	538.091	0.168	-0.395
-148.589	800.000	0.136	-0.387
-147.574	14.654	-0.201	-0.155
-146.560	-73.553	0.340	0.122
-145.545	474.129	0.088	0.195
-144.531	-19.937	-0.209	0.127
-143.516	-121.771	-0.323	0.053
-142.502	82.884	-0.204	0.218
-141.487	-200.000	-0.046	0.292
-140.472	-200.000	-0.028	-0.222
-139.458	4.439	0.220	-0.159
-138.443	800.000	-0.109	0.465
-137.429	799.376	0.084	-0.228
-136.414	72.377	-0.147	-0.151
-135.399	800.000	0.083	0.277
-134.385	269.805	0.118	0.204
-133.370	91.887	-0.009	0.010
-132.356	-34.211	-0.193	0.105
-131.341	32.991	0.163	0.139
-130.326	58.904	-0.069	-0.066
-129.312	-42.134	0.113	-0.057
-128.297	-7.182	0.073	-0.049
-127.283	24.211	0.294	0.239
-126.268	-85.314	-0.228	-0.070
-125.253	-120.063	-0.122	0.021
-124.239	376.426	-0.059	0.118
-123.224	-111.644	-0.121	-0.024
-122.210	-10.429	-0.393	0.256
