DTS Sentinel unit serial number:	SN413079Multiplexer serial number:	ORYXHardware model number:	OX4-SRSoftware version number:	ORYX F/W v4.00 Oryx Data Collector v3.7.2.0data status	okinstallation	princeton_trtdifferential loss correction	single-endedforward channel	channel 1reverse channel	N/Adate	2019/09/16time	19:22:35forward acquisition time	60.00reverse acquisition time	0.00gamma	496.2192k internal	0.2314k external	0.2314temperature offset calibration	0.9948default loss term (dB/km)	0.3790temperature slope calibration	1.0000multiplexer offset coefficient	1.0000multiplexer slope coefficient	1.0000fibre end	0.00T internal ref (°C)	34.77T ext. ref 1 (°C)	0.06T ext. ref 2 (°C)	27.86length (m)	temperature (°C)	Stokes	anti-Stokes-747.200	-62.400	0.102	0.043
-746.185	152.483	-0.205	0.284
-745.171	87.503	0.187	-0.210
-744.156	-200.000	0.025	0.254
-743.142	-35.178	0.190	-0.105
-742.127	254.708	-0.339	0.588
-741.112	-127.745	-0.222	-0.033
-740.098	-79.905	-0.343	-0.117
-739.083	-158.532	0.096	0.006
-738.069	-177.995	-0.407	-0.010
-737.054	800.000	-0.092	-0.304
-736.039	181.796	0.162	-0.242
-735.025	800.000	0.065	0.263
-734.010	16.444	-0.405	-0.324
-732.996	-135.425	-0.230	-0.028
-731.981	34.346	0.231	-0.204
-730.966	626.549	-0.142	-0.364
-729.952	800.000	0.054	-0.190
-728.937	107.322	-0.084	-0.102
-727.923	-200.000	-0.007	-0.102
-726.908	800.000	0.067	0.262
-725.894	287.425	0.040	0.074
-724.879	-200.000	-0.103	-0.469
-723.864	95.648	0.102	-0.118
-722.850	56.386	-0.140	-0.138
-721.835	54.145	-0.265	-0.259
-720.821	413.851	0.177	-0.382
-719.806	-200.000	-0.060	-0.282
-718.791	354.304	-0.099	0.200
-717.777	-200.000	0.043	-0.287
-716.762	800.000	0.050	0.205
-715.748	800.000	0.025	0.110
-714.733	800.000	0.069	0.206
-713.718	82.772	-0.322	-0.355
-712.704	-84.011	-0.062	0.020
-711.689	306.243	-0.023	0.043
-710.675	-109.502	0.072	-0.015
-709.660	-200.000	0.003	0.338
-708.645	46.574	0.200	-0.188
-707.631	-71.303	-0.293	-0.111
-706.616	-122.035	-0.155	-0.026
-705.602	-82.268	0.363	-0.120
-704.587	37.177	-0.023	0.020
-703.572	100.733	-0.268	-0.315
-702.558	800.000	0.011	0.042
-701.543	-29.141	-0.146	0.085
-700.529	18.425	-0.189	-0.153
-699.514	409.591	0.095	0.204
-698.499	-43.711	0.267	-0.136
-697.485	-82.246	0.239	0.079
-696.470	99.034	0.120	-0.141
-695.456	-94.059	0.201	0.056
-694.441	-56.985	0.266	0.119
-693.426	70.623	-0.225	0.235
-692.412	10.219	-0.303	0.233
-691.397	6.241	-0.100	0.075
-690.383	85.920	0.145	-0.162
-689.368	-103.191	0.265	0.063
-688.354	-52.476	0.267	-0.125
-687.339	-23.550	0.024	0.015
-686.324	-168.205	0.194	-0.008
-685.310	444.452	-0.117	0.259
-684.295	-58.831	-0.158	-0.069
-683.281	276.007	0.063	0.113
-682.266	-200.000	-0.002	-0.204
-681.251	-126.123	0.077	-0.012
-680.237	-143.593	0.031	-0.003
-679.222	-40.317	0.292	-0.154
-678.208	-16.284	-0.174	-0.112
-677.193	521.471	0.077	-0.184
-676.178	-200.000	0.051	0.255
-675.164	430.143	0.114	-0.250
-674.149	422.584	0.018	-0.039
-673.135	-68.298	-0.443	-0.174
-672.120	800.000	0.063	0.180
-671.105	-200.000	-0.046	0.344
-670.091	-0.584	0.144	0.103
-669.076	-1.911	0.129	-0.092
-668.062	18.324	0.184	0.148
-667.047	-149.283	0.631	0.051
-666.032	269.680	0.221	0.393
-665.018	-100.776	-0.264	-0.066
-664.003	-95.221	0.254	0.069
-662.989	74.874	0.238	-0.253
-661.974	-64.590	-0.210	-0.086
-660.959	800.000	0.121	0.415
-659.945	800.000	0.078	0.238
-658.930	598.685	0.101	-0.253
-657.916	382.334	0.073	-0.151
-656.901	-200.000	-0.002	-0.088
-655.886	-173.283	-0.187	0.006
-654.872	-158.799	-0.102	0.006
-653.857	-133.536	-0.230	-0.029
-652.843	-200.000	-0.005	0.084
-651.828	-95.362	0.149	0.040
-650.814	132.405	0.116	0.151
-649.799	-134.994	0.082	-0.010
-648.784	-200.000	-0.065	0.375
-647.770	31.894	-0.028	0.025
-646.755	140.524	-0.021	0.028
-645.741	-6.746	-0.281	-0.193
-644.726	16.083	0.091	-0.072
-643.711	-147.530	-0.081	-0.007
-642.697	-200.000	-0.023	-0.177
-641.682	-200.000	-0.028	-0.302
-640.668	388.231	-0.033	0.070
-639.653	-133.638	-0.108	-0.014
-638.638	78.427	-0.133	-0.144
-637.624	-193.163	-0.195	0.002
-636.609	-200.000	0.005	-0.027
-635.595	7.646	-0.053	0.040
-634.580	-20.856	0.350	-0.217
-633.565	745.237	-0.067	-0.181
-632.551	-106.235	-0.162	0.037
-631.536	-73.461	-0.243	-0.090
-630.522	800.000	-0.060	-0.230
-629.507	-48.102	-0.109	-0.053
-628.492	800.000	0.085	0.292
-627.478	14.767	0.129	-0.102
-626.463	41.536	0.051	0.046
-625.449	-105.621	0.225	0.051
-624.434	394.744	-0.065	0.136
-623.419	0.641	0.348	-0.252
-622.405	242.158	0.116	0.196
-621.390	707.466	0.100	0.266
-620.376	417.786	0.010	-0.022
-619.361	-200.000	-0.053	0.544
-618.346	-56.980	0.203	-0.090
-617.332	-53.520	-0.174	-0.080
-616.317	800.000	0.022	-0.061
-615.303	-200.000	-0.017	0.144
-614.288	-13.736	0.256	0.167
-613.273	58.798	-0.152	0.151
-612.259	-55.524	-0.173	-0.078
-611.244	-111.119	0.126	0.026
-610.230	241.767	-0.106	0.179
-609.215	-91.263	-0.149	-0.043
-608.201	181.698	0.200	-0.296
-607.186	210.926	-0.152	-0.242
-606.171	-4.035	0.106	-0.074
-605.157	-137.349	0.392	-0.045
-604.142	-200.000	-0.030	0.330
-603.128	156.500	-0.235	0.328
-602.113	467.866	0.095	0.216
-601.098	-54.473	-0.036	0.017
-600.084	-200.000	0.006	-0.191
-599.069	-180.630	-0.400	0.008
-598.055	-19.628	-0.303	0.189
-597.040	-79.356	0.268	0.091
-596.025	-86.706	-0.230	0.071
-595.011	187.456	-0.158	-0.238
-593.996	-10.062	0.147	-0.099
-592.982	-200.000	0.026	-0.169
-591.967	800.000	-0.026	0.100
-590.952	-45.908	0.333	0.166
-589.938	84.788	-0.131	0.145
-588.923	-37.611	-0.074	0.040
-587.909	-144.404	0.293	0.027
-586.894	-74.041	-0.155	-0.057
-585.879	88.726	0.179	-0.200
-584.865	-167.400	-0.135	0.005
-583.850	-26.370	-0.056	-0.033
-582.836	800.000	0.014	0.052
-581.821	-49.127	-0.213	-0.103
-580.806	-53.097	-0.227	-0.105
-579.792	800.000	-0.092	-0.326
-578.777	-62.786	-0.082	0.034
-577.763	-88.738	0.294	0.088
-576.748	-70.996	0.280	-0.106
-575.733	5.485	0.150	0.112
-574.719	-200.000	0.029	0.187
-573.704	-126.224	0.317	-0.048
-572.690	34.972	0.022	0.019
-571.675	-2.363	-0.214	0.151
-570.661	-41.835	0.131	-0.068
-569.646	-53.164	0.080	-0.037
-568.631	-102.882	0.262	-0.063
-567.617	-63.063	-0.277	0.115
-566.602	-9.823	0.217	0.146
-565.588	94.493	0.187	-0.213
-564.573	-67.415	0.212	-0.084
-563.558	-200.000	-0.042	-0.291
-562.544	164.969	0.163	-0.232
-561.529	800.000	-0.117	-0.365
-560.515	-29.917	-0.058	0.033
-559.500	-200.000	-0.042	-0.242
-558.485	-50.671	-0.115	0.054
-557.471	-9.414	-0.174	0.117
-556.456	111.770	0.159	-0.193
-555.442	-69.485	-0.040	-0.015
-554.427	280.951	0.176	-0.317
-553.412	-200.000	0.033	-0.163
-552.398	-200.000	-0.013	-0.260
-551.383	-129.132	-0.101	0.014
-550.369	-200.000	-0.008	-0.044
-549.354	213.585	-0.107	-0.170
-548.339	-200.000	0.006	-0.549
-547.325	142.551	-0.048	-0.065
-546.310	106.698	0.027	-0.033
-545.296	800.000	-0.078	-0.258
-544.281	-14.844	-0.155	0.100
-543.266	-200.000	-0.001	-0.086
-542.252	-200.000	-0.009	0.069
-541.237	368.894	0.025	-0.050
-540.223	-39.722	0.280	-0.148
-539.208	33.589	0.372	0.325
-538.193	-150.279	-0.112	0.009
-537.179	-78.650	-0.380	0.131
-536.164	-200.000	-0.001	0.136
-535.150	237.593	0.128	0.214
-534.135	151.200	0.154	-0.211
-533.121	121.332	0.101	0.127
-532.106	274.334	0.105	0.187
-531.091	504.896	-0.031	0.072
-530.077	-42.942	-0.235	-0.120
-529.062	800.000	0.058	0.242
-528.048	-119.532	-0.248	0.043
-527.033	37.594	0.038	0.034
-526.018	402.650	-0.171	0.362
-525.004	-32.597	0.047	0.027
-523.989	-94.129	0.139	0.038
-522.975	43.600	-0.117	-0.107
-521.960	305.569	0.109	0.204
-520.945	800.000	0.021	0.069
-519.931	-200.000	0.104	-0.474
-518.916	140.621	0.114	0.151
-517.902	-139.563	-0.016	0.002
-516.887	25.307	0.180	-0.150
-515.872	-150.886	-0.457	-0.035
-514.858	-200.000	0.009	0.169
-513.843	-15.196	0.248	0.160
-512.829	-108.457	0.318	-0.069
-511.814	-80.124	-0.103	-0.035
-510.799	752.458	0.053	-0.143
-509.785	-32.339	-0.143	-0.080
-508.770	85.139	-0.306	0.337
-507.756	-51.574	0.102	0.048
-506.741	-147.931	0.116	-0.010
-505.726	800.000	-0.056	-0.220
-504.712	-61.203	-0.232	0.098
-503.697	800.000	-0.038	0.158
-502.683	-200.000	-0.084	0.471
-501.668	33.589	-0.250	0.218
-500.653	-33.496	0.022	0.012
-499.639	333.753	-0.133	0.259
-498.624	800.000	0.021	0.065
-497.610	-120.796	0.093	0.016
-496.595	4.144	0.214	0.157
-495.581	-34.988	-0.230	0.126
-494.566	37.561	-0.154	0.137
-493.551	22.078	0.097	-0.079
-492.537	-41.343	-0.102	-0.053
-491.522	800.000	0.022	-0.075
-490.508	119.088	0.165	0.205
-489.493	-96.521	-0.159	0.042
-488.478	74.870	-0.096	0.102
-487.464	800.000	-0.059	0.174
-486.449	181.843	-0.253	-0.374
-485.435	89.785	0.109	0.122
-484.420	800.000	0.062	-0.182
-483.405	-46.571	0.225	-0.111
-482.391	110.209	0.109	-0.132
-481.376	119.383	-0.067	0.084
-480.362	-39.001	0.130	-0.069
-479.347	28.878	0.177	0.151
-478.332	-106.930	0.198	0.044
-477.318	-200.000	0.014	-0.159
-476.303	-200.000	-0.030	0.340
-475.289	21.477	-0.150	0.122
-474.274	-19.075	0.170	0.106
-473.259	210.516	-0.240	-0.378
-472.245	60.189	-0.205	0.203
-471.230	-200.000	0.041	0.290
-470.216	800.000	0.066	0.237
-469.201	800.000	0.038	0.149
-468.186	21.190	0.022	0.018
-467.172	-109.186	-0.218	0.046
-466.157	13.256	0.122	-0.095
-465.143	-98.451	-0.304	0.078
-464.128	22.498	-0.175	0.144
-463.113	521.286	-0.038	-0.089
-462.099	-19.124	0.055	-0.034
-461.084	70.134	-0.028	-0.029
-460.070	327.049	0.275	0.529
-459.055	-138.352	-0.220	0.024
-458.040	2.470	-0.059	-0.043
-457.026	275.615	0.117	-0.208
-456.011	-181.059	-0.224	-0.004
-454.997	162.478	-0.200	-0.282
-453.982	-30.002	0.056	0.032
-452.968	473.940	-0.108	0.244
-451.953	-28.636	-0.162	0.094
-450.938	-89.491	-0.184	-0.054
-449.924	100.506	-0.206	-0.240
-448.909	800.000	-0.055	0.157
-447.895	800.000	-0.097	-0.296
-446.880	33.877	0.023	-0.020
-445.865	-80.903	-0.131	0.043
-444.851	800.000	0.037	-0.110
-443.836	-164.957	-0.071	-0.003
-442.822	-200.000	0.063	0.289
-441.807	800.000	0.105	0.306
-440.792	97.488	0.123	0.142
-439.778	-135.755	-0.291	0.035
-438.763	-200.000	0.038	0.179
-437.749	-64.565	-0.324	-0.132
-436.734	-200.000	0.004	0.039
-435.719	-114.399	0.060	-0.012
-434.705	-112.674	-0.241	0.048
-433.690	-160.235	0.234	-0.013
-432.676	-30.106	0.168	-0.096
-431.661	-200.000	0.025	0.110
-430.646	-200.000	-0.023	-0.104
-429.632	-109.947	-0.126	-0.026
-428.617	-200.000	0.023	0.167
-427.603	-140.445	-0.342	0.036
-426.588	800.000	0.027	-0.089
-425.573	800.000	0.041	0.175
-424.559	27.356	-0.115	-0.096
-423.544	31.352	0.088	-0.076
-422.530	-33.112	0.166	-0.092
-421.515	-89.696	-0.059	-0.017
-420.500	196.075	-0.020	0.031
-419.486	-82.058	0.202	-0.066
-418.471	99.212	0.225	0.261
-417.457	-200.000	-0.016	-0.137
-416.442	-189.445	0.378	0.004
-415.428	-48.922	-0.242	-0.116
-414.413	63.692	0.112	-0.112
-413.398	-17.957	-0.178	0.112
-412.384	800.000	-0.020	-0.083
-411.369	286.586	0.144	-0.260
-410.355	800.000	0.117	0.463
-409.340	-131.584	0.164	0.022
-408.325	264.062	0.188	0.328
-407.311	11.093	-0.288	0.220
-406.296	72.501	-0.161	0.168
-405.282	786.675	0.093	-0.255
-404.267	108.923	0.222	0.265
-403.252	156.296	0.245	0.338
-402.238	215.368	-0.100	-0.158
-401.223	-200.000	0.054	-0.268
-400.209	124.834	-0.244	-0.308
-399.194	-34.075	0.041	-0.022
-398.179	800.000	0.089	0.308
-397.165	-39.070	0.214	-0.113
-396.150	-200.000	-0.012	-0.121
-395.136	-200.000	-0.012	0.082
-394.121	-200.000	0.029	0.135
-393.106	-91.821	0.207	-0.059
-392.092	32.679	-0.072	-0.062
-391.077	-69.359	-0.075	-0.029
-390.063	-76.930	0.175	0.061
-389.048	-179.490	-0.212	-0.005
-388.033	-83.238	0.037	0.012
-387.019	438.137	0.197	-0.429
-386.004	164.271	-0.108	-0.152
-384.990	-200.000	0.029	-0.167
-383.975	-117.711	-0.185	0.033
-382.960	26.773	-0.225	0.188
-381.946	218.285	-0.113	-0.181
-380.931	151.197	-0.060	-0.082
-379.917	-200.000	-0.026	0.180
-378.902	-135.555	-0.219	0.026
-377.888	-200.000	-0.032	0.194
-376.873	-46.506	0.153	0.075
-375.858	99.177	0.204	0.236
-374.844	-118.588	0.115	-0.020
-373.829	-80.660	-0.316	0.105
-372.815	-200.000	0.055	-0.241
-371.800	515.751	0.027	-0.063
-370.785	114.357	-0.023	0.028
-369.771	-39.873	-0.344	0.180
-368.756	-150.338	0.211	-0.016
-367.742	-200.000	-0.035	0.258
-366.727	-63.732	0.224	0.092
-365.712	359.349	0.143	-0.285
-364.698	705.746	-0.062	0.164
-363.683	523.205	0.009	-0.021
-362.669	57.672	0.207	0.202
-361.654	800.000	-0.044	0.144
-360.639	8.319	0.124	-0.093
-359.625	555.825	-0.075	-0.180
-358.610	-87.423	0.244	0.074
-357.596	304.390	-0.093	-0.173
-356.581	97.951	-0.144	-0.165
-355.566	-200.000	-0.002	0.222
-354.552	317.008	-0.208	0.392
-353.537	657.182	0.031	-0.080
-352.523	38.658	-0.190	0.170
-351.508	-99.685	0.073	0.018
-350.493	71.568	-0.228	0.237
-349.479	9.992	-0.211	-0.160
-348.464	374.384	-0.180	-0.365
-347.450	-24.547	0.163	0.097
-346.435	55.070	-0.211	-0.203
-345.420	417.559	0.126	0.268
-344.406	-61.818	0.308	0.129
-343.391	-128.570	0.069	0.010
-342.377	-165.941	-0.225	0.010
-341.362	-42.099	0.114	0.058
-340.348	-23.406	-0.284	0.170
-339.333	44.861	-0.184	0.169
-338.318	377.141	0.139	0.284
-337.304	-200.000	-0.027	-0.205
-336.289	283.644	-0.121	0.217
-335.275	61.024	-0.053	-0.053
-334.260	-78.004	0.140	-0.048
-333.245	107.840	-0.088	-0.104
-332.231	-55.997	0.568	0.252
-331.216	-187.738	-0.201	0.003
-330.202	-104.056	0.091	0.021
-329.187	87.177	-0.131	-0.144
-328.172	626.835	-0.160	0.404
-327.158	-200.000	0.044	0.227
-326.143	-12.873	-0.240	0.156
-325.129	383.642	0.038	-0.078
-324.114	-200.000	0.002	0.206
-323.099	339.019	-0.099	-0.192
-322.085	-200.000	-0.013	-0.096
-321.070	-7.342	0.078	-0.053
-320.056	81.473	0.146	-0.157
-319.041	3.848	-0.124	0.090
-318.026	-74.777	-0.208	0.075
-317.012	122.430	0.103	0.129
-315.997	-136.892	0.206	-0.024
-314.983	-181.909	0.248	0.005
-313.968	10.385	-0.082	-0.062
-312.953	407.528	-0.101	-0.213
-311.939	-137.792	0.138	0.015
-310.924	85.201	-0.185	0.203
-309.910	329.694	0.107	-0.205
-308.895	56.704	-0.279	0.271
-307.880	536.896	0.102	-0.241
-306.866	800.000	0.081	-0.241
-305.851	176.588	-0.116	0.168
-304.837	50.852	0.259	0.245
-303.822	800.000	0.033	-0.100
-302.807	-200.000	0.015	-0.072
-301.793	-200.000	0.027	-0.275
-300.778	-95.782	-0.205	-0.055
-299.764	-92.449	0.214	-0.060
-298.749	233.035	0.102	0.168
-297.735	-200.000	-0.049	-0.339
-296.720	-125.962	-0.173	0.026
-295.705	-18.830	0.048	-0.030
-294.691	120.176	0.061	0.075
-293.676	-33.510	0.176	-0.097
-292.662	362.478	-0.040	-0.081
-291.647	-200.000	-0.001	-0.086
-290.632	-38.251	0.363	0.192
-289.618	-27.121	-0.337	0.196
-288.603	538.999	0.119	-0.282
-287.589	-116.436	0.072	0.013
-286.574	379.252	-0.041	-0.083
-285.559	5.875	0.234	-0.172
-284.545	-131.974	0.225	-0.029
-283.530	222.411	-0.082	-0.132
-282.516	-9.694	0.235	0.156
-281.501	164.025	-0.149	0.208
-280.486	-103.791	0.162	0.038
-279.472	-153.081	0.190	0.013
-278.457	36.865	-0.066	0.058
-277.443	110.556	-0.163	0.196
-276.428	-5.729	0.119	-0.081
-275.413	-125.731	0.292	0.044
-274.399	203.636	-0.041	0.063
-273.384	218.888	-0.067	0.107
-272.370	-200.000	-0.040	0.216
-271.355	315.871	0.156	-0.293
-270.340	-71.655	-0.256	-0.095
-269.326	131.576	0.158	0.203
-268.311	-200.000	-0.006	-0.092
-267.297	-200.000	0.018	-0.138
-266.282	-146.246	0.106	-0.009
-265.267	198.575	0.035	-0.054
-264.253	-129.380	0.187	0.026
-263.238	-200.000	0.020	-0.108
-262.224	-111.223	0.149	0.030
-261.209	800.000	-0.117	0.454
-260.195	800.000	-0.034	-0.103
-259.180	494.069	0.171	-0.390
-258.165	289.935	0.187	-0.338
-257.151	474.071	0.043	0.096
-256.136	-57.446	0.136	-0.059
-255.122	180.209	-0.161	-0.235
-254.107	-28.477	0.104	0.060
-253.092	800.000	0.088	0.250
-252.078	-64.319	-0.021	0.009
-251.063	17.186	-0.050	-0.039
-250.049	-200.000	0.035	-0.679
-249.034	223.067	0.284	-0.455
-248.019	27.165	-0.215	0.179
-247.005	-94.278	-0.119	0.032
-245.990	-147.057	0.254	0.022
-244.976	-184.261	0.175	-0.003
-243.961	-193.526	0.229	-0.002
-242.946	-36.327	-0.140	-0.075
-241.932	397.281	0.144	-0.299
-240.917	-64.547	-0.237	0.096
-239.903	-49.687	-0.554	-0.262
-238.888	84.829	-0.101	-0.110
-237.873	-36.036	-0.269	-0.144
-236.859	800.000	-0.077	-0.232
-235.844	-200.000	-0.066	-0.298
-234.830	621.401	0.034	-0.084
-233.815	-200.000	0.011	0.058
-232.800	-103.097	0.268	-0.063
-231.786	-56.708	0.069	0.030
-230.771	470.640	-0.052	-0.116
-229.757	-22.739	0.186	-0.112
-228.742	129.601	-0.151	0.191
-227.727	-200.000	-0.002	-0.067
-226.713	249.018	-0.058	0.098
-225.698	-40.282	0.198	-0.103
-224.684	-200.000	-0.028	-0.168
-223.669	156.633	0.208	0.286
-222.655	-200.000	0.020	-0.226
-221.640	-90.099	0.207	0.060
-220.625	-53.965	-0.074	-0.033
-219.611	-34.332	0.164	-0.089
-218.596	-163.120	-0.284	0.014
-217.582	-139.318	0.104	0.011
-216.567	-200.000	-0.093	-0.447
-215.552	69.837	-0.274	-0.281
-214.538	400.144	-0.216	-0.449
-213.523	-200.000	0.052	0.379
-212.509	-15.564	0.120	-0.076
-211.494	-104.418	0.203	-0.047
-210.479	40.428	-0.043	0.039
-209.465	-37.794	0.166	0.088
-208.450	151.441	-0.161	-0.218
-207.436	800.000	-0.070	0.239
-206.421	-65.968	0.226	-0.090
-205.406	118.699	0.109	0.134
-204.392	-200.000	-0.016	-0.079
-203.377	505.851	0.110	-0.254
-202.363	104.159	0.161	0.188
-201.348	-70.780	0.045	-0.017
-200.333	-200.000	-0.015	0.112
-199.319	-41.620	-0.080	-0.041
-198.304	-200.000	0.023	0.341
-197.290	117.619	-0.226	-0.276
-196.275	-200.000	0.005	-0.102
-195.260	590.570	-0.043	-0.104
-194.246	-55.991	-0.284	0.126
-193.231	-200.000	0.036	0.251
-192.217	102.478	0.189	0.220
-191.202	-6.631	-0.186	-0.126
-190.187	156.505	0.076	-0.104
-189.173	-97.034	0.197	0.051
-188.158	401.202	0.048	-0.100
-187.144	-200.000	0.014	-0.214
-186.129	800.000	0.021	0.073
-185.114	800.000	0.080	0.304
-184.100	-200.000	0.010	0.175
-183.085	800.000	-0.112	-0.337
-182.071	800.000	-0.055	-0.206
-181.056	-71.958	0.177	-0.065
-180.042	-200.000	0.003	-0.240
-179.027	800.000	-0.070	-0.242
-178.012	-200.000	0.023	-0.207
-176.998	3.855	-0.259	-0.187
-175.983	-200.000	0.036	0.280
-174.969	800.000	0.123	-0.375
-173.954	-78.547	0.066	0.022
-172.939	-200.000	-0.015	0.099
-171.925	-54.316	0.119	-0.054
-170.910	-39.590	-0.210	-0.109
-169.896	23.658	0.151	-0.123
-168.881	-54.066	0.142	0.064
-167.866	-148.644	-0.327	0.026
-166.852	-144.795	0.061	-0.006
-165.837	-147.106	0.197	0.017
-164.823	-21.983	-0.195	0.117
-163.808	-200.000	0.083	0.440
-162.793	618.646	0.099	0.246
-161.779	284.643	-0.078	0.139
-160.764	-154.616	-0.260	0.017
-159.750	-87.817	-0.383	-0.114
-158.735	235.335	0.103	0.169
-157.720	-103.981	-0.199	-0.046
-156.706	-73.821	0.159	0.057
-155.691	-112.719	-0.372	-0.073
-154.677	183.948	0.224	0.328
-153.662	-178.542	0.086	-0.002
-152.647	800.000	-0.072	0.260
-151.633	-200.000	0.024	-0.221
-150.618	70.202	0.016	0.016
-149.604	-60.127	0.186	0.078
-148.589	-156.917	0.176	-0.011
-147.574	-200.000	-0.009	-0.173
-146.560	-13.929	0.062	0.039
-145.545	-149.852	0.235	0.018
-144.531	60.711	-0.056	0.055
-143.516	349.196	0.096	-0.188
-142.502	-200.000	0.011	0.111
-141.487	-91.090	0.223	-0.063
-140.472	-131.848	0.114	-0.015
-139.458	800.000	0.122	0.443
-138.443	87.024	0.298	0.326
-137.429	10.299	0.222	-0.167
-136.414	69.158	0.119	0.121
-135.399	-49.843	-0.155	0.073
-134.385	-87.935	0.129	0.038
-133.370	800.000	0.056	-0.214
-132.356	43.392	0.037	-0.034
-131.341	-200.000	0.004	-0.155
-130.326	800.000	0.086	0.279
-129.312	112.966	-0.176	-0.211
-128.297	627.731	-0.102	0.255
-127.283	-200.000	-0.016	-0.108
-126.268	-200.000	-0.001	0.129
-125.253	-200.000	-0.063	0.286
-124.239	197.970	0.146	-0.222
-123.224	-50.846	-0.242	-0.112
-122.210	323.305	-0.038	-0.072
-121.195	270.471	0.010	-0.017
