DTS Sentinel unit serial number:	SN413079Multiplexer serial number:	ORYXHardware model number:	OX4-SRSoftware version number:	ORYX F/W v4.00 Oryx Data Collector v3.7.2.0data status	okinstallation	princeton_trtdifferential loss correction	single-endedforward channel	channel 1reverse channel	N/Adate	2019/09/19time	06:42:35forward acquisition time	60.00reverse acquisition time	0.00gamma	496.2192k internal	0.2342k external	0.2342temperature offset calibration	1.0018default loss term (dB/km)	0.3790temperature slope calibration	1.0000multiplexer offset coefficient	1.0000multiplexer slope coefficient	1.0000fibre end	0.00T internal ref (°C)	19.00T ext. ref 1 (°C)	0.57T ext. ref 2 (°C)	12.72length (m)	temperature (°C)	Stokes	anti-Stokes-747.200	86.830	-0.086	-0.095
-746.185	800.000	0.036	0.154
-745.171	-30.322	-0.183	0.104
-744.156	-131.063	0.102	0.014
-743.142	100.177	-0.161	-0.187
-742.127	293.068	-0.065	-0.119
-741.112	126.331	0.164	-0.208
-740.098	-200.000	-0.016	0.165
-739.083	800.000	0.113	0.388
-738.069	-140.213	0.110	0.012
-737.054	-71.630	0.194	-0.072
-736.039	25.332	-0.240	0.200
-735.025	-145.630	0.401	-0.036
-734.010	-111.816	-0.258	-0.052
-732.996	-19.119	0.066	-0.041
-731.981	-79.545	0.108	-0.037
-730.966	800.000	-0.110	-0.321
-729.952	139.273	-0.247	-0.325
-728.937	-29.459	-0.304	-0.174
-727.923	421.967	0.115	0.247
-726.908	800.000	0.016	0.054
-725.894	272.804	-0.095	0.168
-724.879	-57.245	-0.190	0.084
-723.864	-200.000	-0.012	-0.190
-722.850	-4.757	-0.375	0.259
-721.835	-200.000	-0.011	0.066
-720.821	-154.071	-0.245	0.017
-719.806	-7.628	-0.390	-0.264
-718.791	-200.000	0.051	0.268
-717.777	-200.000	-0.044	0.289
-716.762	800.000	0.095	0.280
-715.748	800.000	0.073	-0.255
-714.733	107.239	-0.299	-0.355
-713.718	-200.000	-0.012	0.155
-712.704	-45.619	-0.196	-0.097
-711.689	-81.941	-0.162	-0.053
-710.675	45.079	0.299	-0.275
-709.660	-23.888	-0.090	-0.054
-708.645	53.923	0.189	0.182
-707.631	800.000	-0.109	-0.324
-706.616	-26.835	-0.252	0.147
-705.602	800.000	0.021	0.091
-704.587	89.662	-0.182	0.203
-703.572	77.545	0.148	-0.157
-702.558	-200.000	0.030	0.179
-701.543	22.882	0.250	0.205
-700.529	800.000	0.071	0.237
-699.514	-85.891	0.480	-0.149
-698.499	26.131	0.053	0.044
-697.485	800.000	0.084	-0.250
-696.470	304.713	-0.065	-0.121
-695.456	21.874	-0.141	-0.115
-694.441	315.728	-0.213	-0.402
-693.426	-57.201	0.461	0.203
-692.412	800.000	-0.054	0.185
-691.397	18.421	-0.345	0.275
-690.383	-18.557	-0.149	-0.093
-689.368	-76.852	0.299	-0.104
-688.354	-200.000	-0.019	-0.233
-687.339	-200.000	-0.043	0.232
-686.324	311.947	0.194	0.363
-685.310	-102.840	-0.212	0.050
-684.295	48.757	-0.139	-0.130
-683.281	72.375	-0.085	-0.088
-682.266	399.342	0.114	-0.239
-681.251	-200.000	-0.029	-0.183
-680.237	39.305	-0.155	0.139
-679.222	381.998	-0.164	0.337
-678.208	44.742	-0.445	-0.409
-677.193	1.939	-0.095	-0.069
-676.178	-200.000	0.066	-0.341
-675.164	11.063	-0.466	0.356
-674.149	229.157	-0.057	-0.093
-673.135	217.988	-0.091	-0.145
-672.120	308.465	-0.068	0.127
-671.105	27.150	-0.221	0.185
-670.091	-63.958	0.115	0.047
-669.076	59.657	-0.144	-0.142
-668.062	-74.802	-0.076	0.027
-667.047	622.822	0.028	-0.072
-666.032	-200.000	0.014	-0.079
-665.018	630.198	0.166	-0.420
-664.003	-43.127	-0.225	-0.114
-662.989	269.531	0.036	0.063
-661.974	-55.581	-0.098	-0.044
-660.959	-20.038	0.103	-0.063
-659.945	374.337	-0.068	0.137
-658.930	-57.804	-0.339	-0.148
-657.916	30.909	0.385	0.329
-656.901	157.004	0.061	0.084
-655.886	-40.412	-0.127	-0.066
-654.872	-200.000	0.013	-0.113
-653.857	174.744	-0.098	0.142
-652.843	722.217	-0.019	0.049
-651.828	3.423	-0.271	0.197
-650.814	-17.253	-0.080	0.050
-649.799	194.922	-0.040	-0.060
-648.784	-200.000	-0.018	0.294
-647.770	383.520	0.153	0.313
-646.755	-16.338	-0.251	-0.159
-645.741	-124.163	-0.088	-0.014
-644.726	166.569	-0.141	0.199
-643.711	455.272	0.150	-0.333
-642.697	-200.000	0.052	-0.337
-641.682	146.745	-0.203	-0.273
-640.668	309.792	-0.119	0.223
-639.653	37.340	-0.021	-0.019
-638.638	33.619	0.066	0.057
-637.624	338.761	-0.177	-0.343
-636.609	-200.000	-0.007	0.152
-635.595	-22.966	0.237	-0.142
-634.580	71.929	0.144	-0.149
-633.565	-69.063	-0.213	0.082
-632.551	173.676	-0.028	0.041
-631.536	13.393	0.243	-0.188
-630.522	-44.103	0.355	0.178
-629.507	-47.371	-0.125	-0.061
-628.492	1.840	0.215	-0.155
-627.478	-200.000	-0.005	0.166
-626.463	626.350	-0.029	-0.072
-625.449	-200.000	-0.007	-0.190
-624.434	-42.802	-0.183	0.093
-623.419	428.861	0.114	-0.246
-622.405	-200.000	-0.227	-0.001
-621.390	151.742	0.105	0.143
-620.376	-111.737	0.128	0.026
-619.361	171.758	-0.081	0.116
-618.346	-19.626	0.095	0.058
-617.332	-200.000	0.014	-0.370
-616.317	18.165	-0.123	-0.098
-615.303	-200.000	-0.010	0.126
-614.288	800.000	-0.118	0.377
-613.273	-200.000	-0.005	0.234
-612.259	31.114	-0.253	0.216
-611.244	-200.000	-0.019	0.091
-610.230	315.920	-0.070	0.132
-609.215	-200.000	0.018	-0.279
-608.201	152.575	-0.071	-0.097
-607.186	-51.105	0.159	0.074
-606.171	35.626	0.060	-0.053
-605.157	51.927	0.145	0.138
-604.142	-135.851	-0.223	-0.026
-603.128	-139.109	-0.093	0.010
-602.113	-200.000	-0.037	-0.190
-601.098	7.173	-0.074	-0.055
-600.084	8.496	0.078	0.058
-599.069	106.202	-0.163	0.192
-598.055	-20.274	-0.194	-0.119
-597.040	159.191	-0.094	-0.130
-596.025	-108.106	-0.386	-0.083
-595.011	205.368	0.206	-0.319
-593.996	-149.535	0.245	0.019
-592.982	75.739	0.149	-0.157
-591.967	-23.860	0.130	0.077
-590.952	264.212	-0.193	-0.334
-589.938	164.009	0.258	-0.361
-588.923	800.000	-0.054	-0.202
-587.909	800.000	0.051	-0.169
-586.894	-90.977	-0.188	-0.054
-585.879	-91.680	-0.280	0.079
-584.865	800.000	0.013	-0.035
-583.850	-200.000	-0.004	-0.254
-582.836	-25.627	-0.197	0.115
-581.821	89.361	0.160	-0.178
-580.806	106.062	0.152	-0.179
-579.792	-1.276	-0.085	-0.060
-578.777	-16.796	0.096	-0.060
-577.763	190.188	0.104	0.156
-576.748	-200.000	-0.009	-0.128
-575.733	36.243	-0.313	-0.274
-574.719	800.000	-0.022	0.084
-573.704	-110.456	0.180	0.037
-572.690	-200.000	0.007	0.518
-571.675	-200.000	-0.020	0.267
-570.661	-129.466	0.168	0.023
-569.646	-200.000	0.005	0.094
-568.631	-165.388	-0.231	-0.010
-567.617	159.188	0.065	-0.090
-566.602	-200.000	0.005	0.524
-565.588	360.945	-0.201	-0.401
-564.573	-146.938	-0.026	-0.002
-563.558	-200.000	-0.014	0.225
-562.544	-105.839	0.077	-0.017
-561.529	-63.532	-0.232	-0.095
-560.515	-50.420	-0.264	0.124
-559.500	-1.527	0.033	-0.023
-558.485	24.140	-0.160	-0.131
-557.471	134.942	0.066	-0.085
-556.456	-6.857	0.345	-0.233
-555.442	-200.000	0.010	-0.204
-554.427	-159.667	-0.165	0.009
-553.412	157.699	-0.194	-0.268
-552.398	68.153	-0.046	0.047
-551.383	58.898	0.195	-0.190
-550.369	-48.833	-0.173	-0.082
-549.354	-75.863	-0.115	0.040
-548.339	-41.504	-0.364	0.186
-547.325	211.165	-0.073	-0.114
-546.310	-99.518	-0.173	-0.043
-545.296	-4.826	0.159	0.109
-544.281	175.217	0.116	0.167
-543.266	-82.325	0.131	-0.042
-542.252	800.000	-0.059	-0.208
-541.237	-60.728	-0.083	0.035
-540.223	-200.000	0.084	0.456
-539.208	-14.091	-0.264	0.169
-538.193	173.501	0.009	0.013
-537.179	197.705	-0.122	-0.185
-536.164	-14.138	0.193	-0.124
-535.150	239.535	-0.030	0.049
-534.135	29.708	0.263	-0.223
-533.121	-159.108	0.349	-0.020
-532.106	474.175	-0.140	0.313
-531.091	800.000	-0.071	0.281
-530.077	189.477	0.044	-0.066
-529.062	800.000	-0.092	0.308
-528.048	-200.000	-0.010	0.098
-527.033	-106.967	0.166	-0.037
-526.018	202.544	0.091	0.140
-525.004	-105.361	-0.024	-0.005
-523.989	-200.000	0.017	0.142
-522.975	-200.000	0.013	-0.166
-521.960	305.487	-0.027	0.050
-520.945	-47.777	0.169	0.081
-519.931	-166.570	0.510	0.021
-518.916	-102.425	-0.135	-0.032
-517.902	66.260	0.049	0.050
-516.887	800.000	-0.049	0.173
-515.872	143.616	-0.137	-0.181
-514.858	-200.000	0.028	0.321
-513.843	-2.553	-0.081	0.056
-512.829	582.764	0.106	0.258
-511.814	-109.964	0.261	0.054
-510.799	800.000	0.101	-0.315
-509.785	-2.521	0.225	-0.157
-508.770	-77.634	-0.109	-0.037
-507.756	40.632	0.137	0.122
-506.741	-14.591	-0.311	-0.198
-505.726	-23.239	0.090	-0.054
-504.712	800.000	-0.013	0.047
-503.697	191.534	-0.056	-0.084
-502.683	32.553	-0.204	-0.175
-501.668	294.513	0.141	0.256
-500.653	87.971	-0.149	0.164
-499.639	-132.470	0.121	0.015
-498.624	65.846	-0.147	-0.148
-497.610	-68.380	0.120	-0.046
-496.595	355.366	0.115	0.227
-495.581	-200.000	-0.023	0.266
-494.566	-76.873	-0.313	-0.109
-493.551	-7.854	-0.209	0.140
-492.537	-200.000	-0.048	0.236
-491.522	-4.921	-0.125	-0.086
-490.508	315.698	0.052	0.098
-489.493	-200.000	-0.018	-0.287
-488.478	-95.350	-0.287	-0.076
-487.464	800.000	-0.047	0.163
-486.449	800.000	0.083	0.263
-485.435	-109.379	0.285	0.060
-484.420	-105.690	-0.204	0.046
-483.405	-70.146	0.289	-0.109
-482.391	-68.630	0.312	0.120
-481.376	32.894	0.207	-0.178
-480.362	-79.659	0.066	0.022
-479.347	279.700	-0.065	0.114
-478.332	-24.071	0.263	-0.156
-477.318	-200.000	-0.024	-0.342
-476.303	-81.117	-0.279	-0.091
-475.289	-68.018	-0.222	0.086
-474.274	-188.433	0.322	0.004
-473.259	-71.399	-0.078	-0.029
-472.245	681.977	0.081	-0.210
-471.230	-200.000	0.011	-0.084
-470.216	-87.140	-0.261	0.079
-469.201	-130.410	0.232	0.031
-468.186	52.152	-0.418	-0.395
-467.172	800.000	-0.106	0.337
-466.157	-13.220	0.204	0.131
-465.143	-200.000	-0.022	0.213
-464.128	-200.000	-0.016	0.159
-463.113	25.204	-0.211	-0.173
-462.099	-141.721	0.225	-0.022
-461.084	-200.000	0.045	0.380
-460.070	791.052	0.024	-0.064
-459.055	-15.158	-0.309	-0.196
-458.040	-71.947	0.097	0.036
-457.026	-25.612	0.300	-0.175
-456.011	-154.123	-0.177	0.012
-454.997	7.504	-0.151	0.112
-453.982	-133.354	-0.284	0.035
-452.968	-124.080	0.090	-0.014
-451.953	3.999	0.132	0.096
-450.938	-94.248	0.135	0.037
-449.924	800.000	-0.031	0.131
-448.909	72.906	-0.232	0.240
-447.895	84.648	-0.097	0.105
-446.880	-200.000	-0.022	0.357
-445.865	94.537	0.204	-0.230
-444.851	800.000	0.084	-0.236
-443.836	200.356	0.138	-0.209
-442.822	10.247	0.127	0.096
-441.807	-90.670	-0.247	-0.070
-440.792	-130.340	-0.220	0.030
-439.778	-63.667	0.168	0.068
-438.763	289.737	-0.138	-0.248
-437.749	-200.000	-0.065	-0.317
-436.734	42.146	0.137	-0.123
-435.719	-44.810	-0.143	0.070
-434.705	-75.400	0.208	-0.073
-433.690	331.017	-0.028	-0.054
-432.676	72.186	0.164	0.169
-431.661	282.372	-0.128	0.228
-430.646	179.159	0.196	-0.283
-429.632	26.296	-0.156	0.129
-428.617	4.698	-0.182	0.132
-427.603	-34.253	-0.130	0.071
-426.588	90.838	-0.094	-0.105
-425.573	120.382	-0.102	-0.126
-424.559	40.441	0.285	0.254
-423.544	77.586	0.470	-0.495
-422.530	-98.366	-0.403	-0.102
-421.515	-200.000	0.025	0.361
-420.500	471.481	0.092	0.204
-419.486	44.631	0.114	-0.104
-418.471	-17.022	-0.155	-0.097
-417.457	108.478	-0.160	0.189
-416.442	-131.374	-0.305	-0.040
-415.428	-99.454	0.200	0.050
-414.413	308.728	0.019	-0.036
-413.398	-150.555	0.263	0.020
-412.384	257.614	-0.005	-0.009
-411.369	16.930	0.228	0.178
-410.355	131.817	-0.209	0.265
-409.340	800.000	0.074	0.207
-408.325	30.186	-0.150	0.126
-407.311	-90.475	-0.305	-0.087
-406.296	-74.798	0.165	-0.059
-405.282	-153.834	-0.167	-0.011
-404.267	-139.086	-0.059	-0.006
-403.252	41.118	0.034	0.031
-402.238	-200.000	0.004	0.398
-401.223	-148.829	-0.371	-0.030
-400.209	-9.062	0.430	0.284
-399.194	-133.597	-0.467	0.058
-398.179	1.123	0.266	0.189
-397.165	29.490	0.154	-0.129
-396.150	-7.139	0.062	-0.042
-395.136	-97.848	0.288	-0.074
-394.121	46.384	-0.304	-0.279
-393.106	-58.460	-0.114	-0.049
-392.092	-81.776	-0.182	0.059
-391.077	-122.348	0.156	-0.025
-390.063	-200.000	0.037	-0.361
-389.048	336.569	0.070	0.133
-388.033	180.335	-0.155	-0.224
-387.019	-47.223	0.043	0.020
-386.004	-29.057	-0.148	-0.084
-384.990	-61.613	-0.170	0.071
-383.975	-200.000	-0.006	0.123
-382.960	192.357	0.085	0.126
-381.946	-95.639	-0.269	0.071
-380.931	-1.250	-0.296	0.207
-379.917	551.904	0.086	-0.203
-378.902	-16.878	0.144	-0.090
-377.888	48.872	-0.086	0.080
-376.873	-68.343	0.099	0.038
-375.858	800.000	-0.078	-0.236
-374.844	800.000	-0.018	0.054
-373.829	800.000	-0.021	-0.069
-372.815	800.000	-0.040	0.133
-371.800	-67.414	0.181	-0.070
-370.785	-200.000	0.018	0.144
-369.771	-12.756	0.263	0.169
-368.756	151.019	0.169	-0.226
-367.742	-107.294	0.267	-0.058
-366.727	-200.000	-0.021	-0.572
-365.712	-200.000	-0.021	0.123
-364.698	550.988	-0.056	-0.133
-363.683	717.584	0.147	0.384
-362.669	778.622	-0.039	-0.105
-361.654	127.479	0.139	-0.174
-360.639	-61.894	-0.126	-0.052
-359.625	-7.674	0.137	-0.092
-358.610	117.562	0.198	0.240
-357.596	697.771	0.032	-0.082
-356.581	225.083	0.124	0.198
-355.566	-200.000	0.060	-0.320
-354.552	-53.554	0.174	-0.079
-353.537	-29.923	-0.349	-0.196
-352.523	-200.000	-0.030	-0.245
-351.508	67.812	0.254	-0.256
-350.493	74.839	0.159	0.165
-349.479	-200.000	0.014	-0.127
-348.464	-200.000	0.058	-0.251
-347.450	-15.629	-0.072	0.045
-346.435	-200.000	0.015	0.120
-345.420	28.913	-0.030	-0.025
-344.406	524.349	0.108	0.251
-343.391	9.532	-0.330	-0.246
-342.377	258.143	0.050	-0.085
-341.362	639.922	-0.085	0.214
-340.348	-122.566	0.119	-0.019
-339.333	-200.000	-0.002	0.109
-338.318	-170.120	0.017	0.001
-337.304	401.148	0.105	-0.217
-336.289	69.090	0.104	0.105
-335.275	295.942	0.085	-0.153
-334.260	-140.670	0.096	0.010
-333.245	99.220	-0.226	0.258
-332.231	800.000	0.024	0.081
-331.216	-65.641	0.122	-0.048
-330.202	11.475	0.316	-0.239
-329.187	800.000	-0.080	-0.297
-328.172	-170.063	0.169	-0.006
-327.158	5.125	0.148	0.108
-326.143	511.390	0.153	0.351
-325.129	-88.913	-0.142	-0.041
-324.114	800.000	0.049	0.203
-323.099	-81.023	0.069	0.023
-322.085	800.000	0.024	0.079
-321.070	-200.000	0.001	0.283
-320.056	-200.000	0.077	-0.370
-319.041	-62.311	0.375	0.154
-318.026	-103.684	-0.353	0.081
-317.012	800.000	-0.072	0.245
-315.997	173.797	-0.070	-0.099
-314.983	-137.622	-0.091	0.010
-313.968	251.051	0.096	-0.161
-312.953	50.620	-0.090	0.084
-311.939	678.531	0.051	-0.131
-310.924	344.787	-0.242	0.468
-309.910	-200.000	0.029	0.280
-308.895	-81.954	-0.240	-0.077
-307.880	800.000	-0.175	0.614
-306.866	-11.946	-0.172	0.111
-305.851	335.984	0.216	0.413
-304.837	-133.501	-0.186	-0.023
-303.822	-200.000	0.067	-0.307
-302.807	-29.175	-0.298	0.168
-301.793	134.626	-0.107	0.136
-300.778	40.679	-0.186	0.166
-299.764	13.341	-0.144	-0.110
-298.749	800.000	-0.034	0.130
-297.735	-200.000	-0.010	0.367
-296.720	251.697	0.108	-0.181
-295.705	-145.073	-0.322	-0.029
-294.691	-38.879	0.173	-0.089
-293.676	475.458	0.034	0.075
-292.662	198.196	-0.162	0.244
-291.647	-44.978	0.138	-0.068
-290.632	-200.000	-0.048	-0.250
-289.618	-200.000	0.082	0.476
-288.603	-137.540	0.451	0.050
-287.589	-127.651	0.157	-0.022
-286.574	372.101	-0.104	-0.207
-285.559	-51.828	-0.320	0.147
-284.545	-92.555	-0.043	0.012
-283.530	800.000	-0.053	0.145
-282.516	800.000	0.053	-0.147
-281.501	800.000	-0.069	0.297
-280.486	-58.938	0.188	0.080
-279.472	-50.614	-0.147	0.068
-278.457	63.750	-0.159	-0.157
-277.443	-37.766	0.165	0.087
-276.428	-126.718	0.202	0.029
-275.413	-83.916	-0.276	-0.086
-274.399	139.493	0.256	-0.331
-273.384	-90.605	-0.069	-0.020
-272.370	800.000	-0.092	0.256
-271.355	-173.488	0.225	-0.007
-270.340	384.588	-0.147	0.298
-269.326	2.791	-0.138	0.098
-268.311	-14.708	0.165	-0.104
-267.297	73.112	0.093	0.095
-266.282	-200.000	-0.006	0.123
-265.267	330.089	0.145	-0.275
-264.253	-114.299	0.208	0.039
-263.238	-33.819	-0.234	0.127
-262.224	-79.760	-0.086	-0.029
-261.209	-87.826	-0.234	-0.069
-260.195	-55.900	-0.109	-0.048
-259.180	-134.245	0.137	0.017
-258.165	-179.817	-0.238	-0.005
-257.151	171.362	-0.071	0.100
-256.136	-133.402	-0.004	0.000
-255.122	-200.000	-0.018	-0.260
-254.107	131.945	-0.213	0.270
-253.092	-68.254	0.170	0.065
-252.078	-200.000	0.002	0.042
-251.063	-200.000	-0.028	-0.412
-250.049	-200.000	0.019	-0.308
-249.034	-200.000	0.043	-0.270
-248.019	-166.214	0.192	-0.008
-247.005	-126.886	0.127	0.018
-245.990	212.691	0.162	0.251
-244.976	-95.230	0.229	0.061
-243.961	388.840	-0.086	-0.175
-242.946	-200.000	0.005	0.155
-241.932	-153.648	-0.106	0.007
-240.917	-102.193	0.106	-0.025
-239.903	-69.202	-0.107	0.040
-238.888	48.593	0.190	0.175
-237.873	-17.190	0.207	0.128
-236.859	-131.308	-0.010	-0.001
-235.844	-200.000	-0.004	0.176
-234.830	-200.000	0.038	-0.359
-233.815	66.870	0.161	0.161
-232.800	800.000	0.025	0.093
-231.786	-4.690	-0.124	0.084
-230.771	-153.959	0.142	-0.010
-229.757	259.274	0.008	0.014
-228.742	146.612	0.068	0.089
-227.727	-120.946	-0.166	0.027
-226.713	-115.432	0.233	-0.043
-225.698	-24.052	0.253	0.149
-224.684	-89.805	-0.284	-0.082
-223.669	133.727	0.139	0.176
-222.655	10.923	0.133	0.099
-221.640	-200.000	-0.017	-0.278
-220.625	-7.230	-0.067	0.045
-219.611	105.891	0.099	-0.115
-218.596	-6.478	0.177	-0.119
-217.582	800.000	0.066	-0.252
-216.567	212.008	0.074	-0.115
-215.552	-113.575	0.372	0.071
-214.538	-130.359	0.439	-0.058
-213.523	-0.146	-0.291	0.203
-212.509	292.099	0.097	0.173
-211.494	-200.000	0.013	-0.224
-210.479	-109.762	-0.308	0.064
-209.465	-150.976	-0.172	-0.013
-208.450	317.333	-0.141	-0.261
-207.436	217.917	-0.166	-0.260
-206.421	800.000	-0.080	-0.270
-205.406	-126.452	-0.174	-0.025
-204.392	-158.245	-0.682	0.039
-203.377	-58.585	-0.133	-0.057
-202.363	-64.714	0.040	0.016
-201.348	-94.563	0.348	-0.093
-200.333	42.740	0.369	-0.329
-199.319	-121.754	0.351	-0.057
-198.304	239.099	0.204	-0.333
-197.290	-179.984	-0.141	-0.003
-196.275	-39.800	0.219	0.112
-195.260	105.168	-0.110	0.127
-194.246	-200.000	0.030	0.157
-193.231	-2.706	-0.110	0.075
-192.217	-81.832	-0.179	0.057
-191.202	-118.798	-0.324	-0.056
-190.187	195.031	0.245	-0.364
-189.173	-12.613	0.099	-0.063
-188.158	-34.056	0.292	-0.157
-187.144	-200.000	0.001	0.261
-186.129	-56.730	0.029	0.012
-185.114	-200.000	0.005	0.052
-184.100	-112.387	-0.084	-0.016
-183.085	-200.000	0.032	0.171
-182.071	800.000	-0.043	0.144
-181.056	-200.000	-0.002	0.233
-180.042	-14.258	-0.167	-0.105
-179.027	-200.000	0.075	-0.323
-178.012	-42.087	-0.099	-0.049
-176.998	-184.188	-0.200	-0.003
-175.983	511.629	-0.202	0.462
-174.969	84.133	0.180	-0.193
-173.954	44.795	0.218	-0.196
-172.939	29.372	0.152	0.127
-171.925	-24.137	0.047	-0.028
-170.910	-147.447	0.111	0.009
-169.896	357.591	0.253	0.495
-168.881	50.866	-0.128	0.119
-167.866	-68.487	0.407	-0.154
-166.852	294.853	-0.092	-0.165
-165.837	-110.074	0.084	0.017
-164.823	380.907	0.037	0.075
-163.808	-200.000	0.040	-0.206
-162.793	122.580	-0.183	-0.225
-161.779	-69.349	-0.299	-0.112
-160.764	96.636	-0.073	0.082
-159.750	66.635	-0.263	-0.262
-158.735	-31.851	0.145	-0.080
-157.720	134.400	0.060	0.076
-156.706	77.103	0.109	-0.113
-155.691	-8.419	-0.242	-0.159
-154.677	-122.334	0.341	-0.054
-153.662	528.070	-0.005	0.011
-152.647	-39.275	-0.375	-0.192
-151.633	421.881	0.062	-0.130
-150.618	-86.030	0.157	0.047
-149.604	-134.997	0.167	0.020
-148.589	-196.567	0.229	0.002
-147.574	800.000	-0.019	0.081
-146.560	-200.000	-0.018	0.459
-145.545	-200.000	-0.005	0.151
-144.531	800.000	0.073	-0.297
-143.516	-88.599	-0.141	-0.041
-142.502	129.740	-0.253	0.316
-141.487	169.677	0.109	0.152
-140.472	-115.103	0.291	-0.054
-139.458	660.335	0.081	-0.204
-138.443	-200.000	0.020	0.225
-137.429	-200.000	-0.078	0.358
-136.414	-137.228	-0.078	-0.009
-135.399	-92.500	-0.113	0.031
-134.385	18.648	0.241	-0.189
-133.370	682.555	-0.030	-0.077
-132.356	297.285	-0.153	-0.274
-131.341	661.723	0.120	0.302
-130.326	-133.516	-0.195	-0.024
-129.312	-148.736	-0.071	0.006
-128.297	81.625	0.238	0.251
-127.283	-122.707	0.579	-0.092
-126.268	-87.023	-0.163	-0.049
-125.253	621.780	-0.124	-0.305
-124.239	800.000	0.076	0.230
-123.224	-200.000	-0.011	-0.350
-122.210	-69.426	0.206	-0.077
-121.195	193.208	0.142	0.210
