DTS Sentinel unit serial number:	SN413079Multiplexer serial number:	ORYXHardware model number:	OX4-SRSoftware version number:	ORYX F/W v4.00 Oryx Data Collector v3.7.2.0data status	okinstallation	princeton_trtdifferential loss correction	single-endedforward channel	channel 1reverse channel	N/Adate	2019/09/17time	08:14:35forward acquisition time	60.00reverse acquisition time	0.00gamma	496.2192k internal	0.2330k external	0.2330temperature offset calibration	0.9963default loss term (dB/km)	0.3790temperature slope calibration	1.0000multiplexer offset coefficient	1.0000multiplexer slope coefficient	1.0000fibre end	0.00T internal ref (°C)	27.39T ext. ref 1 (°C)	0.13T ext. ref 2 (°C)	22.75length (m)	temperature (°C)	Stokes	anti-Stokes-747.200	-60.168	-0.270	0.116
-746.185	-200.000	-0.004	0.082
-745.171	263.167	-0.100	0.175
-744.156	-200.000	-0.024	-0.186
-743.142	592.595	-0.053	-0.133
-742.127	-81.696	-0.096	0.032
-741.112	166.336	-0.148	-0.211
-740.098	-74.143	0.115	0.042
-739.083	-200.000	0.000	-0.024
-738.069	328.009	-0.104	0.202
-737.054	-200.000	-0.018	-0.286
-736.039	-77.752	-0.251	-0.087
-735.025	53.758	0.167	0.161
-734.010	-62.257	-0.143	-0.060
-732.996	-73.854	-0.288	-0.105
-731.981	-140.440	-0.195	0.020
-730.966	-75.678	0.049	0.018
-729.952	506.364	-0.008	-0.018
-728.937	-7.181	-0.010	0.007
-727.923	-35.752	-0.110	-0.060
-726.908	-60.652	-0.187	0.080
-725.894	391.022	-0.108	0.225
-724.879	-200.000	-0.025	0.222
-723.864	-63.643	-0.156	0.064
-722.850	-128.233	0.246	0.035
-721.835	-89.136	0.040	0.012
-720.821	9.608	-0.130	-0.099
-719.806	800.000	-0.077	-0.214
-718.791	-125.782	-0.294	-0.045
-717.777	-4.383	0.070	-0.048
-716.762	-167.231	0.198	0.008
-715.748	-62.066	-0.410	-0.172
-714.733	-0.023	-0.198	0.142
-713.718	737.062	-0.104	0.280
-712.704	-61.217	-0.282	-0.120
-711.689	-165.525	-0.256	0.011
-710.675	54.877	-0.042	-0.041
-709.660	800.000	0.058	0.210
-708.645	800.000	0.089	0.281
-707.631	-76.175	0.132	-0.047
-706.616	-200.000	-0.022	-0.147
-705.602	-200.000	0.019	-0.400
-704.587	-14.956	0.121	-0.078
-703.572	344.487	-0.021	0.041
-702.558	-5.322	0.221	-0.152
-701.543	-35.255	-0.305	-0.167
-700.529	-111.423	0.181	-0.037
-699.514	34.574	0.191	0.167
-698.499	-63.247	0.331	-0.137
-697.485	-72.638	-0.355	0.132
-696.470	332.882	-0.060	-0.117
-695.456	-200.000	0.001	0.320
-694.441	-99.745	0.127	0.032
-693.426	14.300	0.249	0.195
-692.412	-136.518	-0.091	-0.011
-691.397	84.175	-0.145	0.159
-690.383	452.488	-0.166	-0.369
-689.368	122.989	-0.403	-0.507
-688.354	-200.000	-0.044	-0.307
-687.339	613.024	-0.119	-0.298
-686.324	723.873	0.044	-0.118
-685.310	169.795	-0.119	0.171
-684.295	-135.346	-0.366	0.044
-683.281	-23.198	-0.245	0.148
-682.266	-65.272	0.003	0.001
-681.251	-75.810	0.264	-0.094
-680.237	-29.009	-0.111	0.064
-679.222	-200.000	0.050	-0.237
-678.208	408.515	0.085	-0.180
-677.193	154.109	0.078	0.108
-676.178	800.000	0.042	-0.176
-675.164	800.000	0.042	0.143
-674.149	2.244	0.118	0.085
-673.135	-21.631	0.110	0.067
-672.120	261.467	-0.102	0.178
-671.105	-153.226	-0.156	0.011
-670.091	-131.942	0.229	0.030
-669.076	800.000	0.104	0.305
-668.062	-90.714	-0.456	0.132
-667.047	137.211	0.088	0.116
-666.032	800.000	0.022	-0.096
-665.018	180.542	0.127	-0.187
-664.003	800.000	-0.088	0.381
-662.989	-128.020	0.096	0.014
-661.974	219.943	0.198	-0.318
-660.959	112.093	0.157	0.191
-659.945	-164.866	-0.113	0.005
-658.930	-200.000	-0.007	0.144
-657.916	-80.817	-0.176	0.059
-656.901	800.000	0.078	0.226
-655.886	-200.000	-0.018	-0.301
-654.872	480.267	0.060	0.137
-653.857	14.017	-0.172	-0.135
-652.843	239.940	-0.199	0.332
-651.828	-74.680	-0.176	0.063
-650.814	-123.374	-0.264	0.042
-649.799	-108.078	0.099	-0.021
-648.784	800.000	0.072	0.285
-647.770	-88.976	-0.270	-0.080
-646.755	51.882	-0.132	-0.126
-645.741	149.863	-0.158	-0.215
-644.726	-86.187	0.113	-0.035
-643.711	-200.000	-0.010	0.144
-642.697	496.312	0.098	0.226
-641.682	-20.178	0.290	-0.180
-640.668	-200.000	0.004	0.185
-639.653	-1.174	-0.304	-0.215
-638.638	131.196	0.204	-0.262
-637.624	36.663	-0.150	0.133
-636.609	242.137	-0.107	-0.180
-635.595	1.113	-0.275	-0.198
-634.580	800.000	-0.060	-0.203
-633.565	-9.867	-0.355	-0.236
-632.551	-183.884	0.389	-0.007
-631.536	-200.000	0.007	-0.131
-630.522	8.179	0.215	0.162
-629.507	9.536	-0.107	0.081
-628.492	-200.000	0.006	0.041
-627.478	-50.134	-0.294	0.140
-626.463	174.730	0.124	0.180
-625.449	-44.028	0.267	0.134
-624.434	24.847	-0.076	-0.063
-623.419	-22.829	-0.107	-0.065
-622.405	-35.611	0.085	0.046
-621.390	167.470	-0.067	-0.096
-620.376	577.664	-0.148	0.363
-619.361	-123.108	0.404	0.065
-618.346	-200.000	-0.025	0.255
-617.332	-200.000	0.005	0.104
-616.317	-127.134	0.243	-0.036
-615.303	-144.976	-0.280	-0.026
-614.288	-119.475	-0.201	0.035
-613.273	531.812	-0.112	-0.266
-612.259	-96.478	-0.404	0.107
-611.244	324.332	0.052	0.099
-610.230	-75.467	0.293	0.104
-609.215	68.884	-0.265	0.272
-608.201	248.890	-0.094	0.160
-607.186	-200.000	-0.001	0.351
-606.171	-29.309	-0.199	0.114
-605.157	-4.788	0.190	-0.131
-604.142	653.950	-0.101	-0.260
-603.128	139.018	0.349	0.459
-602.113	16.968	-0.321	-0.255
-601.098	22.172	0.292	-0.238
-600.084	-29.153	0.374	0.215
-599.069	-107.094	-0.187	-0.041
-598.055	-200.000	-0.031	0.154
-597.040	370.124	-0.189	0.384
-596.025	478.353	-0.022	0.051
-595.011	-103.632	-0.319	0.075
-593.996	387.352	-0.048	0.098
-592.982	37.475	0.100	0.089
-591.967	89.439	-0.159	-0.178
-590.952	-45.571	-0.257	-0.127
-589.938	-89.703	0.147	-0.043
-588.923	548.644	-0.082	-0.196
-587.909	158.416	-0.251	-0.348
-586.894	27.237	-0.147	0.123
-585.879	-78.292	0.150	-0.052
-584.865	359.986	0.085	-0.170
-583.850	-70.590	-0.380	-0.144
-582.836	-200.000	0.057	0.288
-581.821	800.000	-0.065	-0.207
-580.806	572.077	-0.144	-0.351
-579.792	-200.000	-0.030	-0.183
-578.777	-89.346	-0.290	-0.085
-577.763	131.901	0.142	-0.183
-576.748	-200.000	0.023	-0.362
-575.733	-200.000	0.044	-0.324
-574.719	-18.138	0.045	0.028
-573.704	33.167	-0.065	-0.057
-572.690	-55.120	0.027	-0.012
-571.675	-18.242	-0.047	-0.030
-570.661	-16.966	-0.018	0.011
-569.646	-49.408	0.259	-0.123
-568.631	-200.000	0.001	-0.114
-567.617	168.903	-0.273	-0.389
-566.602	2.274	0.136	-0.098
-565.588	-7.027	-0.172	0.117
-564.573	636.362	-0.026	-0.066
-563.558	800.000	-0.027	0.095
-562.544	5.186	-0.050	0.037
-561.529	-49.661	0.197	0.094
-560.515	85.017	0.188	0.206
-559.500	-200.000	-0.059	-0.348
-558.485	38.315	0.072	-0.064
-557.471	-58.778	0.206	0.089
-556.456	374.339	-0.054	0.110
-555.442	-20.780	0.181	0.111
-554.427	264.045	0.022	0.038
-553.412	62.043	-0.097	-0.096
-552.398	-100.096	0.018	-0.005
-551.383	33.484	0.086	-0.075
-550.369	671.981	-0.094	0.242
-549.354	800.000	-0.076	-0.278
-548.339	-39.426	0.070	0.037
-547.325	800.000	-0.026	0.092
-546.310	-26.006	0.191	-0.112
-545.296	800.000	0.054	0.224
-544.281	-83.177	-0.313	0.100
-543.266	-90.493	0.135	0.039
-542.252	92.127	0.120	-0.135
-541.237	-127.790	0.321	-0.046
-540.223	592.082	0.197	-0.485
-539.208	800.000	0.022	-0.087
-538.193	-90.467	-0.206	-0.059
-537.179	800.000	-0.131	0.479
-536.164	-200.000	-0.042	-0.275
-535.150	-200.000	-0.017	0.200
-534.135	-200.000	0.028	-0.414
-533.121	-200.000	-0.046	-0.395
-532.106	-174.784	0.252	-0.007
-531.091	381.127	0.066	-0.135
-530.077	-46.102	0.182	-0.090
-529.062	-39.823	0.129	-0.067
-528.048	-200.000	-0.037	-0.404
-527.033	122.066	0.217	0.271
-526.018	271.625	0.068	-0.120
-525.004	64.831	-0.196	0.197
-523.989	390.072	-0.085	0.175
-522.975	169.039	-0.247	-0.352
-521.960	-200.000	0.020	0.235
-520.945	-200.000	-0.011	0.309
-519.931	268.801	-0.221	0.387
-518.916	-62.936	0.194	0.080
-517.902	-151.911	0.099	-0.007
-516.887	54.023	-0.107	0.102
-515.872	167.048	0.030	0.043
-514.858	184.938	-0.128	-0.189
-513.843	-175.667	0.166	0.004
-512.829	800.000	0.052	-0.168
-511.814	-13.317	-0.214	0.138
-510.799	138.324	0.148	0.193
-509.785	-21.910	-0.188	0.114
-508.770	-33.113	-0.295	-0.163
-507.756	405.291	-0.115	-0.243
-506.741	46.966	0.333	0.309
-505.726	42.480	0.150	0.136
-504.712	86.331	-0.281	-0.309
-503.697	-200.000	-0.046	0.420
-502.683	6.978	0.135	-0.100
-501.668	-200.000	-0.035	0.253
-500.653	759.942	-0.060	0.162
-499.639	5.362	-0.170	0.125
-498.624	148.852	0.034	-0.045
-497.610	410.727	-0.104	0.221
-496.595	800.000	0.085	-0.290
-495.581	217.681	-0.171	-0.272
-494.566	195.458	-0.059	0.089
-493.551	-143.175	-0.135	0.013
-492.537	127.701	0.089	-0.113
-491.522	-116.503	0.075	0.014
-490.508	-107.147	-0.439	0.097
-489.493	-138.199	0.361	-0.040
-488.478	45.658	0.183	0.169
-487.464	181.693	-0.095	0.139
-486.449	-160.146	0.051	0.003
-485.435	-78.083	-0.153	-0.052
-484.420	389.300	0.082	-0.170
-483.405	13.732	-0.269	-0.208
-482.391	59.771	-0.193	-0.190
-481.376	-23.624	-0.186	-0.111
-480.362	529.310	0.021	-0.050
-479.347	52.274	0.327	0.311
-478.332	-74.332	0.508	0.183
-477.318	-56.622	-0.474	0.209
-476.303	-123.862	-0.229	-0.036
-475.289	-157.935	-0.212	0.012
-474.274	-147.586	-0.194	0.016
-473.259	374.701	0.098	-0.198
-472.245	17.561	0.197	0.156
-471.230	-86.899	0.058	0.018
-470.216	193.440	0.103	0.155
-469.201	-0.619	0.130	-0.092
-468.186	56.685	0.267	-0.258
-467.172	-121.118	-0.231	0.039
-466.157	290.110	0.032	0.057
-465.143	-0.241	-0.087	0.062
-464.128	479.014	-0.005	-0.012
-463.113	144.592	0.123	-0.164
-462.099	-121.988	-0.295	0.048
-461.084	-131.072	-0.185	-0.025
-460.070	301.901	0.081	-0.149
-459.055	-200.000	0.008	-0.067
-458.040	-167.296	-0.097	-0.004
-457.026	23.949	-0.129	-0.106
-456.011	-53.872	0.122	0.055
-454.997	-79.191	-0.294	-0.099
-453.982	-3.874	-0.109	0.076
-452.968	549.911	0.050	-0.119
-451.953	-88.085	-0.152	0.045
-450.938	-19.674	-0.115	0.071
-449.924	94.091	0.211	-0.239
-448.909	-39.676	0.221	0.115
-447.895	-144.761	-0.136	0.012
-446.880	-187.847	0.295	-0.004
-445.865	30.338	0.181	-0.154
-444.851	-200.000	-0.036	-0.176
-443.836	-69.071	0.214	-0.082
-442.822	62.267	0.247	0.245
-441.807	147.994	-0.064	-0.086
-440.792	329.258	0.034	-0.064
-439.778	800.000	0.149	0.462
-438.763	126.383	-0.079	-0.100
-437.749	-200.000	0.001	0.130
-436.734	-145.352	0.362	-0.032
-435.719	-80.577	0.126	-0.042
-434.705	-79.495	-0.113	0.038
-433.690	424.727	0.209	0.448
-432.676	-104.560	-0.250	0.057
-431.661	140.395	-0.021	-0.028
-430.646	800.000	-0.049	-0.193
-429.632	-72.485	-0.326	0.120
-428.617	-149.112	0.336	-0.027
-427.603	158.703	-0.189	0.261
-426.588	-107.322	-0.180	0.039
-425.573	-200.000	-0.060	-0.307
-424.559	-200.000	-0.001	0.117
-423.544	187.834	0.044	-0.065
-422.530	-39.348	0.205	-0.107
-421.515	-45.383	-0.059	0.029
-420.500	-7.958	0.190	0.127
-419.486	-16.761	0.052	0.033
-418.471	800.000	-0.136	0.442
-417.457	24.397	0.282	0.232
-416.442	-99.730	-0.341	0.085
-415.428	204.821	-0.071	-0.110
-414.413	-115.407	-0.078	-0.015
-413.398	-157.541	-0.200	-0.012
-412.384	-24.029	0.493	0.293
-411.369	18.857	-0.178	0.141
-410.355	283.193	0.048	0.087
-409.340	-22.141	-0.185	0.111
-408.325	-83.576	0.074	-0.024
-407.311	-165.522	-0.303	-0.013
-406.296	-66.451	-0.169	-0.067
-405.282	-200.000	-0.020	-0.371
-404.267	13.262	-0.106	-0.082
-403.252	48.802	-0.239	-0.222
-402.238	-200.000	0.037	-0.388
-401.223	-52.240	-0.357	-0.164
-400.209	800.000	-0.060	-0.216
-399.194	-22.544	0.281	0.169
-398.179	206.876	0.053	0.081
-397.165	-142.259	-0.197	0.019
-396.150	-103.390	0.100	0.023
-395.136	-144.222	-0.480	0.044
-394.121	-139.857	-0.083	-0.009
-393.106	-35.198	0.174	-0.094
-392.092	246.741	0.102	0.170
-391.077	-58.138	0.235	-0.102
-390.063	-174.466	0.230	0.007
-389.048	68.708	0.150	-0.152
-388.033	-93.337	-0.140	-0.039
-387.019	527.035	-0.105	-0.245
-386.004	346.556	-0.069	-0.134
-384.990	800.000	-0.064	-0.218
-383.975	82.323	-0.063	-0.068
-382.960	65.465	-0.219	0.220
-381.946	32.357	0.156	0.134
-380.931	565.780	-0.073	-0.175
-379.917	-61.996	-0.212	0.088
-378.902	800.000	-0.093	0.289
-377.888	-63.590	-0.091	-0.037
-376.873	-120.107	-0.302	-0.051
-375.858	-110.468	0.047	-0.010
-374.844	800.000	0.084	-0.324
-373.829	-22.897	-0.271	0.162
-372.815	88.840	-0.161	-0.178
-371.800	-21.892	-0.270	0.163
-370.785	800.000	-0.069	0.191
-369.771	-200.000	-0.019	0.097
-368.756	-163.595	0.129	0.006
-367.742	574.423	0.080	0.194
-366.727	-50.499	-0.263	0.123
-365.712	-60.075	0.217	0.092
-364.698	-177.508	-0.034	0.001
-363.683	276.859	-0.103	-0.182
-362.669	-200.000	0.009	0.240
-361.654	-11.549	-0.291	-0.190
-360.639	800.000	0.037	0.135
-359.625	-57.117	0.065	0.029
-358.610	50.845	-0.023	-0.022
-357.596	623.085	-0.050	-0.126
-356.581	-200.000	-0.025	0.175
-355.566	266.441	0.047	0.082
-354.552	-26.499	-0.339	-0.197
-353.537	800.000	-0.084	0.252
-352.523	83.793	-0.086	-0.093
-351.508	-200.000	-0.126	0.586
-350.493	-67.191	0.237	0.093
-349.479	-11.328	-0.168	-0.109
-348.464	32.737	-0.033	0.029
-347.450	800.000	-0.081	0.283
-346.435	233.209	-0.156	0.254
-345.420	-90.693	0.133	-0.038
-344.406	27.909	-0.219	-0.183
-343.391	-56.827	-0.247	0.108
-342.377	-200.000	0.000	0.338
-341.362	-200.000	-0.020	-0.266
-340.348	-200.000	0.018	-0.182
-339.333	56.431	0.296	-0.285
-338.318	-180.611	-0.229	-0.005
-337.304	-200.000	0.022	-0.262
-336.289	481.355	0.039	0.087
-335.275	458.924	-0.067	-0.148
-334.260	-102.349	0.212	0.050
-333.245	85.161	0.100	0.108
-332.231	-200.000	0.006	-0.227
-331.216	-44.360	0.430	-0.213
-330.202	6.597	-0.300	0.221
-329.187	-44.270	0.197	-0.098
-328.172	426.630	0.147	-0.315
-327.158	242.989	0.250	-0.416
-326.143	18.748	0.142	-0.112
-325.129	-94.458	0.107	0.029
-324.114	-200.000	-0.011	0.327
-323.099	585.475	0.021	0.051
-322.085	-200.000	0.027	0.208
-321.070	119.658	0.129	-0.158
-320.056	605.922	0.076	-0.188
-319.041	61.258	0.119	-0.117
-318.026	-96.868	0.169	-0.044
-317.012	800.000	-0.060	-0.193
-315.997	19.608	-0.152	0.121
-314.983	-146.392	0.151	-0.013
-313.968	800.000	-0.041	0.139
-312.953	-146.691	0.341	-0.029
-311.939	-138.932	-0.409	-0.044
-310.924	-7.647	0.234	-0.157
-309.910	-171.183	-0.122	-0.004
-308.895	-58.091	0.173	0.075
-307.880	99.664	0.090	-0.103
-306.866	-19.807	-0.182	0.111
-305.851	-55.801	-0.187	0.083
-304.837	800.000	-0.034	-0.093
-303.822	20.581	-0.142	-0.113
-302.807	-98.530	-0.378	0.096
-301.793	-200.000	-0.017	-0.211
-300.778	353.999	-0.178	-0.350
-299.764	174.351	0.128	-0.183
-298.749	-145.071	0.444	0.040
-297.735	76.313	-0.065	0.068
-296.720	613.159	-0.014	-0.035
-295.705	-51.759	0.237	0.109
-294.691	-63.263	0.124	-0.050
-293.676	716.216	-0.096	-0.251
-292.662	-39.708	-0.160	-0.083
-291.647	-139.292	-0.277	0.029
-290.632	-83.753	-0.349	-0.110
-289.618	-90.698	0.302	0.086
-288.603	800.000	-0.098	0.397
-287.589	18.109	0.161	-0.127
-286.574	800.000	0.107	0.449
-285.559	-69.426	0.170	-0.064
-284.545	-200.000	0.008	-0.295
-283.530	105.087	-0.193	-0.225
-282.516	116.566	-0.109	0.132
-281.501	250.260	-0.096	-0.161
-280.486	8.985	0.089	-0.067
-279.472	800.000	0.109	-0.307
-278.457	247.738	-0.063	-0.104
-277.443	253.492	0.221	0.373
-276.428	800.000	0.069	-0.255
-275.413	-125.911	0.287	0.043
-274.399	50.045	0.460	-0.429
-273.384	-131.981	0.241	-0.031
-272.370	6.525	-0.242	0.178
-271.355	-68.868	0.152	0.058
-270.340	-35.748	0.186	-0.099
-269.326	800.000	0.035	0.128
-268.311	66.278	0.057	0.057
-267.297	-200.000	0.007	-0.133
-266.282	177.888	-0.193	0.278
-265.267	-129.100	0.153	0.021
-264.253	720.726	-0.078	0.205
-263.238	543.768	-0.067	-0.158
-262.224	241.771	-0.028	0.046
-261.209	115.506	-0.283	0.342
-260.195	58.463	0.300	-0.291
-259.180	-200.000	0.047	-0.357
-258.165	484.587	-0.088	0.198
-257.151	357.477	0.115	0.227
-256.136	39.038	0.150	-0.132
-255.122	-49.062	0.247	0.117
-254.107	-88.215	-0.156	-0.046
-253.092	143.451	-0.063	0.082
-252.078	-5.965	0.334	-0.226
-251.063	-17.518	-0.113	-0.070
-250.049	-87.842	0.196	-0.058
-249.034	800.000	-0.102	-0.314
-248.019	38.956	0.088	0.077
-247.005	-67.769	-0.130	0.050
-245.990	256.286	0.012	-0.020
-244.976	-51.333	0.109	0.050
-243.961	35.833	-0.079	-0.069
-242.946	800.000	0.047	-0.199
-241.932	105.618	-0.171	0.199
-240.917	800.000	0.044	-0.121
-239.903	103.289	-0.097	-0.112
-238.888	-87.846	0.132	-0.039
-237.873	308.492	-0.023	0.042
-236.859	-200.000	-0.008	0.056
-235.844	-173.994	-0.291	-0.008
-234.830	8.100	-0.373	0.277
-233.815	800.000	0.058	0.203
-232.800	447.447	0.130	0.283
-231.786	-200.000	0.043	0.202
-230.771	-64.394	-0.101	0.041
-229.757	748.231	0.085	-0.227
-228.742	-45.253	0.204	-0.100
-227.727	-111.622	-0.298	-0.060
-226.713	-125.543	0.097	0.014
-225.698	800.000	0.101	0.335
-224.684	9.467	0.320	0.239
-223.669	-200.000	0.044	0.238
-222.655	221.321	-0.130	-0.207
-221.640	8.957	0.129	0.096
-220.625	-125.256	0.253	-0.038
-219.611	4.583	0.096	-0.069
-218.596	800.000	0.065	-0.176
-217.582	-178.407	-0.393	-0.009
-216.567	-94.829	0.289	0.077
-215.552	-146.089	0.116	0.010
-214.538	-107.124	-0.063	0.014
-213.523	-200.000	-0.001	0.241
-212.509	-76.769	0.198	-0.068
-211.494	33.909	0.127	0.109
-210.479	227.212	0.079	-0.126
-209.465	83.444	0.150	-0.161
-208.450	-200.000	0.026	0.655
-207.436	-109.854	0.117	0.024
-206.421	-200.000	-0.026	-0.205
-205.406	245.311	0.039	0.065
-204.392	41.656	0.307	0.274
-203.377	-140.986	0.151	-0.015
-202.363	800.000	-0.089	0.266
-201.348	-111.014	0.239	-0.048
-200.333	-57.481	-0.111	0.048
-199.319	62.207	0.130	0.128
-198.304	-17.777	0.172	-0.107
-197.290	-73.779	0.281	-0.101
-196.275	73.951	-0.299	0.309
-195.260	451.307	0.146	-0.317
-194.246	23.019	0.128	0.104
-193.231	144.948	0.090	-0.119
-192.217	132.461	-0.161	-0.204
-191.202	505.048	-0.091	0.208
-190.187	-67.137	0.443	-0.172
-189.173	800.000	-0.109	0.336
-188.158	-17.163	-0.451	0.280
-187.144	618.201	-0.160	0.396
-186.129	658.125	-0.043	0.110
-185.114	97.280	0.190	-0.215
-184.100	194.762	0.081	-0.122
-183.085	-117.541	-0.334	-0.059
-182.071	121.230	0.015	0.019
-181.056	-55.394	0.288	-0.127
-180.042	17.007	0.444	0.346
-179.027	-26.428	0.145	0.084
-178.012	-200.000	0.007	-0.114
-176.998	800.000	-0.056	-0.201
-175.983	-136.711	0.383	-0.044
-174.969	-115.170	0.149	-0.028
-173.954	-103.632	0.115	0.027
-172.939	-200.000	0.093	0.616
-171.925	-133.442	-0.421	0.052
-170.910	-138.624	-0.694	0.075
-169.896	-136.114	-0.210	-0.024
-168.881	218.276	0.096	0.150
-167.866	-173.183	0.072	0.002
-166.852	571.947	0.065	-0.155
-165.837	118.443	-0.178	0.217
-164.823	-96.539	0.356	-0.093
-163.808	-200.000	0.033	-0.175
-162.793	142.556	-0.078	0.102
-161.779	74.411	0.044	-0.045
-160.764	107.927	-0.052	0.061
-159.750	16.669	-0.266	-0.207
-158.735	-200.000	0.024	-0.254
-157.720	-65.526	0.202	-0.080
-156.706	-181.239	0.166	-0.003
-155.691	800.000	0.116	0.405
-154.677	-46.379	0.192	-0.093
-153.662	-72.817	0.173	-0.063
-152.647	402.654	0.114	0.236
-151.633	-200.000	-0.006	-0.227
-150.618	94.190	-0.144	0.161
-149.604	-200.000	-0.000	-0.321
-148.589	794.426	0.042	-0.115
-147.574	-18.968	-0.223	-0.136
-146.560	-102.421	0.206	0.049
-145.545	222.711	0.052	0.083
-144.531	-200.000	-0.044	0.198
-143.516	-133.526	0.348	-0.043
-142.502	107.814	-0.071	-0.083
-141.487	183.895	0.084	-0.122
-140.472	35.702	0.174	-0.150
-139.458	-60.683	0.126	0.052
-138.443	-24.957	-0.136	-0.079
-137.429	-34.256	-0.024	-0.013
-136.414	433.728	-0.122	-0.261
-135.399	-153.745	0.210	0.014
-134.385	-200.000	0.001	0.074
-133.370	-141.025	0.204	0.021
-132.356	130.475	-0.284	-0.357
-131.341	800.000	0.005	-0.020
-130.326	-24.392	-0.124	0.072
-129.312	-53.741	0.408	0.183
-128.297	50.332	0.058	-0.054
-127.283	-200.000	-0.004	0.040
-126.268	-54.372	0.218	0.097
-125.253	-200.000	0.010	-0.254
-124.239	44.542	-0.156	0.141
-123.224	95.638	-0.120	-0.134
-122.210	401.704	-0.073	-0.150
-121.195	60.804	-0.249	0.242
-120.180	187.006	-0.021	0.031
