DTS Sentinel unit serial number:	SN413079Multiplexer serial number:	ORYXHardware model number:	OX4-SRSoftware version number:	ORYX F/W v4.00 Oryx Data Collector v3.7.2.0data status	okinstallation	princeton_trtdifferential loss correction	single-endedforward channel	channel 1reverse channel	N/Adate	2019/09/13time	05:22:35forward acquisition time	60.00reverse acquisition time	0.00gamma	496.2192k internal	0.2335k external	0.2335temperature offset calibration	1.0159default loss term (dB/km)	0.3790temperature slope calibration	1.0000multiplexer offset coefficient	1.0000multiplexer slope coefficient	1.0000fibre end	0.00T internal ref (°C)	26.31T ext. ref 1 (°C)	4.04T ext. ref 2 (°C)	20.87length (m)	temperature (°C)	Stokes	anti-Stokes-747.200	-99.174	0.237	0.060
-746.185	-137.349	0.073	-0.008
-745.171	82.996	0.146	-0.160
-744.156	489.744	-0.212	0.487
-743.142	800.000	0.111	0.340
-742.127	-90.856	0.094	0.027
-741.112	-104.369	-0.202	-0.047
-740.098	800.000	0.048	-0.201
-739.083	128.835	-0.093	0.119
-738.069	255.685	0.225	0.388
-737.054	-100.512	0.179	-0.045
-736.039	-36.241	-0.282	-0.153
-735.025	168.422	0.236	0.337
-734.010	591.325	0.103	-0.254
-732.996	25.486	-0.308	-0.257
-731.981	-154.706	-0.082	0.005
-730.966	-200.000	-0.018	-0.155
-729.952	142.239	-0.258	-0.344
-728.937	587.005	-0.064	-0.158
-727.923	-200.000	-0.012	0.060
-726.908	-161.085	-0.182	0.010
-725.894	-65.348	-0.123	0.050
-724.879	-149.672	0.448	-0.035
-723.864	17.737	0.097	-0.077
-722.850	800.000	-0.227	-0.663
-721.835	-27.681	0.109	-0.064
-720.821	28.013	0.192	-0.163
-719.806	59.442	-0.321	-0.317
-718.791	-200.000	-0.044	-0.323
-717.777	-200.000	0.018	-0.344
-716.762	190.251	-0.132	-0.199
-715.748	-13.851	-0.333	-0.216
-714.733	70.075	-0.206	-0.214
-713.718	-9.444	-0.152	-0.102
-712.704	84.880	-0.332	-0.365
-711.689	-58.873	-0.195	0.085
-710.675	185.235	-0.105	-0.157
-709.660	800.000	-0.058	0.173
-708.645	169.783	0.069	-0.098
-707.631	94.303	-0.258	0.294
-706.616	-0.586	-0.388	0.276
-705.602	800.000	0.016	0.067
-704.587	-83.900	0.432	-0.138
-703.572	158.045	0.154	-0.214
-702.558	-38.588	-0.136	0.072
-701.543	800.000	-0.057	-0.192
-700.529	800.000	0.045	-0.130
-699.514	-123.331	0.185	0.030
-698.499	17.104	0.111	-0.088
-697.485	164.869	-0.031	-0.044
-696.470	800.000	-0.038	-0.130
-695.456	-200.000	0.009	-0.178
-694.441	-58.893	-0.244	0.106
-693.426	800.000	0.175	0.513
-692.412	800.000	-0.014	0.048
-691.397	241.412	-0.071	-0.120
-690.383	84.452	0.133	-0.146
-689.368	-108.037	-0.198	-0.043
-688.354	-107.329	-0.129	-0.028
-687.339	58.853	-0.063	-0.062
-686.324	-164.022	0.199	0.009
-685.310	-32.685	-0.435	-0.243
-684.295	-117.735	-0.307	-0.055
-683.281	65.944	-0.150	0.153
-682.266	-43.849	0.121	-0.061
-681.251	-45.996	-0.194	-0.096
-680.237	-186.084	0.286	0.004
-679.222	-75.806	0.394	-0.140
-678.208	-131.885	0.211	-0.028
-677.193	161.217	-0.111	-0.156
-676.178	22.234	0.246	-0.201
-675.164	30.316	-0.083	-0.071
-674.149	-200.000	0.020	-0.096
-673.135	-68.887	-0.398	-0.154
-672.120	-55.674	-0.268	-0.120
-671.105	129.530	-0.147	0.188
-670.091	-61.003	0.116	0.049
-669.076	-193.535	-0.275	0.002
-668.062	-34.670	-0.072	-0.039
-667.047	28.326	-0.261	-0.221
-666.032	-30.230	-0.071	-0.041
-665.018	-129.028	0.306	0.043
-664.003	73.431	-0.270	-0.283
-662.989	-200.000	0.016	0.145
-661.974	190.616	-0.044	0.066
-660.959	115.932	-0.141	0.173
-659.945	-95.840	-0.310	0.083
-658.930	-113.516	-0.215	-0.042
-657.916	-200.000	-0.009	0.169
-656.901	-85.279	0.038	0.012
-655.886	78.177	0.261	0.279
-654.872	800.000	-0.078	-0.262
-653.857	800.000	-0.087	0.285
-652.843	800.000	-0.108	0.305
-651.828	-58.207	0.243	-0.106
-650.814	800.000	0.095	-0.273
-649.799	40.831	-0.166	-0.150
-648.784	83.283	0.139	0.151
-647.770	-99.275	0.305	0.077
-646.755	48.798	-0.151	-0.142
-645.741	-124.843	-0.295	0.046
-644.726	-128.660	0.109	-0.015
-643.711	-80.857	0.324	0.107
-642.697	800.000	-0.057	-0.227
-641.682	-0.361	0.193	-0.137
-640.668	-79.930	-0.132	0.044
-639.653	-105.069	0.151	0.035
-638.638	-133.152	-0.164	0.021
-637.624	-200.000	-0.044	-0.214
-636.609	-200.000	-0.049	0.276
-635.595	-120.036	-0.087	-0.015
-634.580	190.579	0.146	0.219
-633.565	366.125	0.127	-0.255
-632.551	-25.492	0.167	0.098
-631.536	41.444	-0.269	0.243
-630.522	25.154	-0.099	0.082
-629.507	-183.136	-0.095	0.002
-628.492	134.016	-0.144	0.187
-627.478	-200.000	-0.019	0.138
-626.463	-191.332	-0.262	0.003
-625.449	-39.993	-0.063	-0.033
-624.434	-27.982	0.100	-0.058
-623.419	800.000	0.108	0.367
-622.405	800.000	-0.077	-0.225
-621.390	141.251	-0.079	-0.104
-620.376	0.271	0.036	-0.025
-619.361	587.430	-0.055	-0.136
-618.346	-21.717	0.159	0.097
-617.332	83.066	-0.170	0.185
-616.317	800.000	-0.048	-0.202
-615.303	-24.212	-0.154	0.092
-614.288	482.044	-0.043	0.097
-613.273	1.632	-0.292	0.210
-612.259	-1.279	0.227	-0.160
-611.244	115.268	0.129	0.158
-610.230	31.553	0.099	-0.085
-609.215	-45.199	0.270	0.134
-608.201	647.881	-0.045	0.116
-607.186	-5.000	0.179	-0.123
-606.171	212.478	0.168	-0.265
-605.157	-162.032	0.203	-0.010
-604.142	50.580	0.184	-0.174
-603.128	-120.573	-0.230	0.039
-602.113	-101.454	0.364	0.089
-601.098	-200.000	0.123	-0.000
-600.084	800.000	0.086	0.270
-599.069	-54.504	0.125	-0.056
-598.055	-141.003	0.067	0.007
-597.040	-153.914	-0.395	0.027
-596.025	-200.000	0.039	0.354
-595.011	-144.573	-0.173	-0.016
-593.996	46.282	0.409	-0.379
-592.982	-132.697	-0.159	-0.020
-591.967	-104.007	0.300	0.070
-590.952	-132.675	-0.234	0.030
-589.938	-12.316	-0.300	-0.196
-588.923	-200.000	0.003	0.151
-587.909	-188.199	-0.316	-0.004
-586.894	-200.000	0.133	0.000
-585.879	-150.783	-0.396	0.030
-584.865	-132.892	0.323	-0.041
-583.850	-41.804	0.178	0.091
-582.836	800.000	-0.037	0.108
-581.821	4.005	0.203	-0.148
-580.806	-200.000	0.200	-0.000
-579.792	239.574	0.168	0.280
-578.777	800.000	-0.087	-0.279
-577.763	-200.000	0.027	0.290
-576.748	1.105	-0.257	-0.184
-575.733	800.000	0.083	-0.238
-574.719	68.358	0.276	0.282
-573.704	108.275	-0.250	0.298
-572.690	-133.277	-0.174	-0.022
-571.675	-91.124	0.192	0.055
-570.661	260.666	0.058	0.100
-569.646	45.407	-0.207	0.191
-568.631	-77.634	0.174	-0.060
-567.617	-166.089	0.588	-0.025
-566.602	-200.000	-0.012	0.216
-565.588	4.178	0.258	0.189
-564.573	-200.000	-0.009	-0.089
-563.558	-105.855	-0.300	-0.068
-562.544	-149.641	-0.267	0.021
-561.529	286.595	-0.057	0.103
-560.515	-83.298	0.219	-0.070
-559.500	-160.833	0.237	-0.012
-558.485	33.219	0.328	-0.284
-557.471	203.938	-0.202	-0.313
-556.456	145.355	0.146	0.195
-555.442	-42.240	-0.332	0.169
-554.427	-6.824	0.138	0.093
-553.412	191.491	-0.126	0.189
-552.398	800.000	0.033	-0.132
-551.383	-200.000	-0.010	0.263
-550.369	-3.621	-0.137	-0.095
-549.354	62.903	-0.232	0.232
-548.339	-159.667	0.079	0.004
-547.325	-56.461	-0.370	0.164
-546.310	-151.340	-0.340	0.025
-545.296	-138.212	-0.195	0.022
-544.281	202.534	0.037	0.056
-543.266	-28.328	-0.125	0.072
-542.252	209.065	0.207	0.323
-541.237	-11.734	0.223	-0.146
-540.223	499.490	-0.090	-0.207
-539.208	-200.000	-0.035	-0.371
-538.193	426.389	0.175	0.377
-537.179	-63.746	0.343	0.140
-536.164	-182.142	-0.058	0.001
-535.150	-136.697	-0.204	0.023
-534.135	-200.000	-0.013	-0.266
-533.121	-71.050	0.193	0.072
-532.106	800.000	0.035	0.141
-531.091	-35.753	0.161	0.087
-530.077	714.195	0.075	0.199
-529.062	-200.000	0.021	0.158
-528.048	-64.669	0.086	0.035
-527.033	800.000	-0.119	0.420
-526.018	101.265	0.068	-0.079
-525.004	-200.000	0.010	-0.152
-523.989	-46.092	-0.026	0.013
-522.975	519.444	-0.047	-0.109
-521.960	-43.072	0.098	0.050
-520.945	-141.217	-0.312	0.032
-519.931	57.719	0.153	0.149
-518.916	-135.122	0.202	-0.024
-517.902	9.082	0.234	0.176
-516.887	3.662	0.102	0.074
-515.872	-23.059	0.231	0.138
-514.858	-200.000	-0.076	-0.356
-513.843	-35.432	-0.217	0.117
-512.829	237.813	0.055	-0.091
-511.814	159.181	-0.041	-0.057
-510.799	-200.000	-0.022	0.296
-509.785	-200.000	-0.011	-0.063
-508.770	-200.000	0.004	-0.429
-507.756	255.812	-0.141	0.240
-506.741	-200.000	0.022	0.230
-505.726	109.595	0.258	-0.307
-504.712	173.417	0.334	-0.480
-503.697	-19.648	-0.166	-0.102
-502.683	-56.180	-0.482	-0.213
-501.668	126.190	-0.090	0.114
-500.653	-200.000	0.062	-0.281
-499.639	55.141	0.108	0.104
-498.624	-75.213	-0.154	0.055
-497.610	3.544	-0.265	0.193
-496.595	-45.527	0.071	0.035
-495.581	800.000	0.091	-0.305
-494.566	98.548	-0.161	-0.185
-493.551	114.466	-0.156	-0.189
-492.537	528.190	0.137	-0.321
-491.522	-200.000	0.030	0.211
-490.508	1.900	-0.152	0.109
-489.493	-110.944	0.102	0.021
-488.478	162.179	0.170	-0.237
-487.464	-46.471	0.198	0.097
-486.449	225.667	0.162	-0.262
-485.435	413.062	-0.226	0.479
-484.420	-19.948	-0.045	-0.028
-483.405	-200.000	0.011	-0.200
-482.391	-111.537	-0.360	0.073
-481.376	137.122	0.030	-0.040
-480.362	124.139	0.036	-0.046
-479.347	-27.509	-0.335	-0.194
-478.332	-42.466	-0.232	0.117
-477.318	59.486	-0.263	-0.257
-476.303	-200.000	-0.030	0.213
-475.289	-95.080	-0.069	0.019
-474.274	-81.020	0.174	-0.057
-473.259	366.402	0.072	-0.144
-472.245	116.177	0.333	-0.406
-471.230	-60.471	-0.060	0.025
-470.216	800.000	0.009	-0.035
-469.201	-200.000	-0.004	-0.021
-468.186	-200.000	0.022	0.216
-467.172	-200.000	-0.011	0.123
-466.157	112.613	-0.207	-0.249
-465.143	33.906	-0.274	0.237
-464.128	1.669	-0.355	-0.254
-463.113	102.264	0.233	-0.270
-462.099	203.736	-0.119	0.183
-461.084	-15.590	0.096	0.061
-460.070	609.915	-0.038	-0.095
-459.055	-200.000	0.009	0.155
-458.040	-101.050	0.103	0.025
-457.026	20.078	-0.061	-0.049
-456.011	-37.088	0.200	0.107
-454.997	142.141	-0.192	-0.253
-453.982	-57.119	0.201	0.088
-452.968	277.518	-0.097	-0.171
-451.953	-90.353	-0.165	-0.048
-450.938	435.945	-0.191	-0.413
-449.924	-200.000	0.032	-0.142
-448.909	-50.755	-0.190	-0.089
-447.895	299.712	0.097	0.178
-446.880	-200.000	0.004	0.075
-445.865	800.000	0.061	-0.172
-444.851	167.145	-0.142	-0.200
-443.836	-54.467	0.330	0.149
-442.822	19.360	-0.115	-0.091
-441.807	800.000	0.035	-0.128
-440.792	-85.756	-0.078	0.024
-439.778	128.093	0.030	-0.038
-438.763	-169.453	0.157	0.006
-437.749	44.719	-0.094	-0.086
-436.734	341.169	0.156	0.303
-435.719	-14.542	-0.050	0.032
-434.705	-6.573	-0.080	-0.054
-433.690	-200.000	0.039	0.217
-432.676	800.000	-0.067	0.220
-431.661	-153.752	-0.142	0.010
-430.646	800.000	-0.066	0.216
-429.632	-132.379	-0.212	-0.027
-428.617	87.820	0.066	0.072
-427.603	124.199	0.076	0.095
-426.588	239.296	0.097	0.159
-425.573	-103.593	-0.229	-0.053
-424.559	89.777	0.066	-0.073
-423.544	800.000	-0.057	-0.158
-422.530	-92.313	0.190	0.053
-421.515	-10.606	-0.236	0.155
-420.500	336.216	0.260	-0.501
-419.486	800.000	-0.054	0.176
-418.471	-150.974	-0.296	0.022
-417.457	-5.471	0.202	-0.137
-416.442	-200.000	-0.047	-0.321
-415.428	-32.163	-0.271	-0.150
-414.413	205.153	0.144	0.221
-413.398	-200.000	-0.049	-0.278
-412.384	-200.000	0.006	0.070
-411.369	800.000	0.065	-0.213
-410.355	-110.402	0.281	0.058
-409.340	-76.832	0.143	0.049
-408.325	612.036	0.122	-0.303
-407.311	7.677	0.221	-0.164
-406.296	-151.379	-0.146	0.011
-405.282	-110.925	-0.133	0.027
-404.267	462.424	-0.014	0.032
-403.252	-200.000	0.092	0.402
-402.238	407.446	0.086	-0.181
-401.223	511.259	-0.025	0.057
-400.209	-200.000	0.052	-0.242
-399.194	-38.828	0.117	-0.061
-398.179	472.099	-0.130	-0.289
-397.165	388.443	-0.175	-0.359
-396.150	120.357	-0.195	0.240
-395.136	780.042	0.038	0.103
-394.121	-36.687	0.163	0.087
-393.106	-131.296	-0.415	0.055
-392.092	-143.466	-0.310	0.029
-391.077	-3.655	-0.069	-0.047
-390.063	26.366	0.085	0.071
-389.048	-139.442	0.266	0.028
-388.033	556.544	0.046	0.110
-387.019	-64.297	0.107	0.043
-386.004	-126.366	-0.056	-0.008
-384.990	7.713	0.056	0.041
-383.975	-75.186	0.247	-0.087
-382.960	-200.000	0.017	-0.081
-381.946	-33.864	0.194	-0.106
-380.931	-96.646	0.072	0.019
-379.917	30.452	0.283	0.240
-378.902	31.971	0.112	0.096
-377.888	-50.653	-0.071	0.033
-376.873	46.274	0.198	0.182
-375.858	385.400	-0.075	0.154
-374.844	515.387	0.067	0.156
-373.829	294.852	-0.068	-0.123
-372.815	-200.000	-0.032	0.210
-371.800	-123.521	0.351	0.055
-370.785	800.000	-0.062	0.229
-369.771	-84.330	-0.240	0.075
-368.756	-200.000	-0.036	0.421
-367.742	287.866	-0.105	0.188
-366.727	-200.000	0.043	-0.273
-365.712	773.667	0.013	-0.036
-364.698	130.455	-0.023	0.029
-363.683	-154.031	0.184	0.012
-362.669	800.000	-0.047	0.174
-361.654	-122.452	-0.044	-0.007
-360.639	-118.595	-0.098	0.017
-359.625	-26.475	0.156	0.091
-358.610	-47.119	-0.414	0.200
-357.596	33.775	0.044	-0.038
-356.581	1.067	-0.324	-0.230
-355.566	320.115	-0.076	-0.143
-354.552	-87.279	0.273	-0.082
-353.537	-28.417	-0.122	-0.070
-352.523	-158.322	-0.294	0.017
-351.508	-63.963	0.190	-0.077
-350.493	-59.153	0.118	0.050
-349.479	394.389	0.035	-0.072
-348.464	-167.662	-0.439	0.017
-347.450	-200.000	0.023	-0.237
-346.435	-48.042	-0.446	-0.213
-345.420	-169.963	-0.022	0.001
-344.406	-200.000	0.045	-0.221
-343.391	-200.000	0.260	0.001
-342.377	800.000	-0.083	-0.232
-341.362	800.000	-0.007	-0.020
-340.348	53.109	0.187	0.177
-339.333	183.855	0.160	0.234
-338.318	182.909	-0.016	-0.023
-337.304	-164.293	0.176	-0.008
-336.289	-200.000	-0.023	0.395
-335.275	54.898	-0.252	-0.241
-334.260	-200.000	-0.044	-0.280
-333.245	-200.000	0.007	0.252
-332.231	248.142	0.132	-0.221
-331.216	-38.800	-0.333	-0.174
-330.202	174.640	0.097	-0.138
-329.187	339.827	0.079	-0.153
-328.172	75.969	-0.172	0.180
-327.158	384.476	-0.247	0.502
-326.143	-1.292	-0.026	-0.018
-325.129	122.231	0.237	-0.293
-324.114	219.370	-0.352	-0.556
-323.099	800.000	-0.033	-0.117
-322.085	-40.392	-0.114	-0.058
-321.070	25.008	0.114	0.094
-320.056	94.707	-0.133	0.149
-319.041	-199.325	0.294	0.002
-318.026	83.390	0.183	-0.197
-317.012	-162.012	-0.336	-0.017
-315.997	42.415	-0.167	0.150
-314.983	-200.000	0.016	0.090
-313.968	-71.449	0.354	-0.131
-312.953	16.440	-0.168	-0.131
-311.939	80.244	0.154	-0.164
-310.924	418.360	0.032	-0.068
-309.910	-114.158	0.356	0.068
-308.895	-28.537	0.107	0.061
-307.880	102.259	0.054	-0.063
-306.866	195.998	0.107	-0.160
-305.851	354.865	-0.072	0.141
-304.837	-143.251	0.423	0.040
-303.822	121.424	0.052	0.064
-302.807	-111.940	0.407	0.081
-301.793	-141.425	0.350	-0.035
-300.778	800.000	-0.042	0.164
-299.764	-101.534	0.043	-0.010
-298.749	104.126	-0.117	-0.136
-297.735	464.200	-0.100	0.221
-296.720	-200.000	0.030	-0.203
-295.705	30.340	-0.026	0.022
-294.691	-200.000	-0.007	0.093
-293.676	217.353	0.021	-0.034
-292.662	264.505	0.119	-0.204
-291.647	119.995	-0.223	0.273
-290.632	-179.637	0.065	0.001
-289.618	-155.288	0.234	0.015
-288.603	181.459	-0.251	-0.365
-287.589	482.245	0.057	-0.127
-286.574	347.628	-0.176	-0.342
-285.559	684.070	-0.119	0.306
-284.545	-200.000	-0.068	0.359
-283.530	800.000	0.043	-0.122
-282.516	-200.000	-0.031	0.190
-281.501	-200.000	0.009	-0.161
-280.486	-36.688	-0.075	-0.040
-279.472	159.264	0.332	0.455
-278.457	-31.493	-0.074	-0.041
-277.443	78.693	0.117	0.123
-276.428	-8.802	0.078	-0.052
-275.413	-19.459	-0.240	0.147
-274.399	-200.000	0.045	0.222
-273.384	-192.204	0.331	0.003
-272.370	-200.000	0.021	-0.139
-271.355	800.000	-0.088	-0.292
-270.340	-162.793	-0.180	0.009
-269.326	14.067	0.214	0.164
-268.311	-87.897	0.318	0.094
-267.297	-71.234	-0.136	0.050
-266.282	17.630	0.124	0.097
-265.267	-111.129	0.431	-0.087
-264.253	-181.467	0.480	0.009
-263.238	-200.000	-0.052	0.256
-262.224	351.909	-0.175	0.342
-261.209	28.962	0.158	0.132
-260.195	6.141	0.357	0.261
-259.180	-119.753	0.070	-0.012
-258.165	-165.936	0.160	0.007
-257.151	800.000	-0.048	-0.161
-256.136	-200.000	0.021	0.121
-255.122	-135.364	-0.123	0.015
-254.107	300.085	0.080	0.146
-253.092	-50.412	-0.193	-0.090
-252.078	398.811	-0.123	0.254
-251.063	-61.666	-0.044	-0.018
-250.049	-36.585	-0.051	-0.027
-249.034	-200.000	0.048	-0.222
-248.019	-2.110	-0.221	-0.153
-247.005	-112.954	-0.036	-0.007
-245.990	-200.000	0.016	-0.121
-244.976	-98.321	0.118	-0.030
-243.961	-71.225	-0.078	0.029
-242.946	-157.080	-0.146	-0.009
-241.932	-200.000	-0.003	-0.308
-240.917	800.000	-0.133	0.366
-239.903	141.936	-0.138	0.180
-238.888	-137.812	-0.249	0.027
-237.873	-45.490	-0.183	-0.090
-236.859	363.353	-0.075	0.149
-235.844	-88.429	-0.060	0.018
-234.830	101.114	0.116	-0.133
-233.815	-200.000	-0.029	-0.137
-232.800	-10.078	0.175	0.114
-231.786	73.630	-0.040	0.041
-230.771	424.345	-0.026	-0.055
-229.757	770.208	-0.030	-0.081
-228.742	800.000	-0.120	0.462
-227.727	-200.000	-0.039	0.207
-226.713	153.790	0.125	-0.168
-225.698	-135.099	0.180	-0.021
-224.684	-123.240	0.344	-0.054
-223.669	39.444	-0.158	0.139
-222.655	-193.762	-0.231	0.002
-221.640	304.245	0.183	-0.333
-220.625	-14.682	0.418	-0.264
-219.611	104.354	-0.130	-0.151
-218.596	-48.587	0.271	-0.128
-217.582	-200.000	0.012	-0.079
-216.567	-24.058	0.368	-0.217
-215.552	242.453	0.133	-0.219
-214.538	-200.000	0.001	0.009
-213.523	16.821	-0.367	-0.286
-212.509	800.000	0.017	-0.052
-211.494	800.000	-0.040	-0.143
-210.479	-9.091	-0.271	-0.179
-209.465	267.888	-0.097	-0.166
-208.450	-200.000	-0.025	-0.225
-207.436	-36.112	-0.155	-0.082
-206.421	-43.813	-0.288	0.143
-205.406	-162.205	0.177	-0.009
-204.392	-200.000	0.029	0.279
-203.377	-101.202	0.164	0.039
-202.363	-76.545	-0.278	-0.096
-201.348	-88.954	-0.352	-0.102
-200.333	-148.595	0.045	-0.004
-199.319	-200.000	-0.025	-0.118
-198.304	83.607	-0.110	0.118
-197.290	293.794	0.134	-0.240
-196.275	-122.434	0.136	0.022
-195.260	-200.000	-0.025	0.189
-194.246	65.069	-0.164	-0.163
-193.231	-92.259	0.219	0.061
-192.217	-145.221	-0.160	-0.014
-191.202	192.558	-0.071	0.105
-190.187	118.742	-0.265	0.322
-189.173	84.835	0.144	-0.155
-188.158	800.000	0.031	0.087
-187.144	30.863	-0.272	-0.229
-186.129	13.169	0.235	-0.179
-185.114	53.160	-0.049	0.047
-184.100	63.875	0.131	-0.130
-183.085	-200.000	0.014	-0.156
-182.071	230.935	-0.012	0.019
-181.056	-105.160	0.020	-0.004
-180.042	-73.928	-0.074	-0.026
-179.027	11.763	0.114	0.086
-178.012	81.526	-0.023	0.024
-176.998	-115.290	-0.252	0.047
-175.983	79.402	-0.209	-0.221
-174.969	-93.338	-0.178	0.049
-173.954	800.000	0.061	0.213
-172.939	150.932	-0.199	0.265
-171.925	-31.674	0.377	-0.208
-170.910	-119.383	0.301	-0.051
-169.896	-200.000	-0.011	0.050
-168.881	-200.000	-0.010	0.112
-167.866	240.756	-0.146	-0.240
-166.852	84.309	-0.239	-0.256
-165.837	-148.675	0.199	-0.016
-164.823	-125.694	-0.300	-0.045
-163.808	-112.795	-0.073	0.014
-162.793	195.799	0.090	0.134
-161.779	-99.285	0.169	-0.042
-160.764	-14.602	-0.268	-0.169
-159.750	145.809	-0.265	0.349
-158.735	-200.000	-0.090	0.411
-157.720	-115.892	-0.113	-0.021
-156.706	72.023	-0.147	0.150
-155.691	-191.628	0.183	-0.002
-154.677	303.223	0.224	0.407
-153.662	-10.480	0.132	-0.086
-152.647	-18.356	-0.026	-0.016
-151.633	-63.029	-0.218	0.088
-150.618	138.997	0.074	0.096
-149.604	-200.000	-0.010	-0.071
-148.589	-8.468	0.250	0.165
-147.574	742.887	-0.023	-0.062
-146.560	27.968	0.432	0.357
-145.545	-200.000	0.015	-0.115
-144.531	76.844	-0.091	0.095
-143.516	42.385	-0.204	0.182
-142.502	-200.000	0.002	-0.145
-141.487	-68.119	-0.235	0.090
-140.472	-9.707	0.100	0.066
-139.458	-53.084	-0.029	0.013
-138.443	800.000	-0.040	0.164
-137.429	88.980	0.147	-0.161
-136.414	-101.915	-0.268	0.063
-135.399	119.731	-0.309	-0.376
-134.385	-165.435	0.292	0.013
-133.370	-200.000	-0.017	-0.154
-132.356	-127.525	0.640	0.091
-131.341	-47.213	-0.149	-0.071
-130.326	-200.000	0.004	0.087
-129.312	-36.299	-0.172	-0.091
-128.297	-200.000	0.009	-0.258
-127.283	15.667	-0.226	-0.174
-126.268	328.556	-0.075	-0.142
-125.253	-28.033	-0.382	-0.217
-124.239	-94.238	0.461	0.124
-123.224	-96.757	-0.244	0.063
-122.210	-200.000	-0.003	0.119
