DTS Sentinel unit serial number:	SN413079Multiplexer serial number:	ORYXHardware model number:	OX4-SRSoftware version number:	ORYX F/W v4.00 Oryx Data Collector v3.7.2.0data status	okinstallation	princeton_trtdifferential loss correction	single-endedforward channel	channel 1reverse channel	N/Adate	2019/09/19time	05:38:35forward acquisition time	60.00reverse acquisition time	0.00gamma	496.2192k internal	0.2343k external	0.2343temperature offset calibration	1.0020default loss term (dB/km)	0.3790temperature slope calibration	1.0000multiplexer offset coefficient	1.0000multiplexer slope coefficient	1.0000fibre end	0.00T internal ref (°C)	19.31T ext. ref 1 (°C)	0.59T ext. ref 2 (°C)	12.85length (m)	temperature (°C)	Stokes	anti-Stokes-747.200	-169.976	0.155	-0.006
-746.185	78.644	0.106	0.113
-745.171	258.156	0.147	0.253
-744.156	-200.000	-0.036	0.370
-743.142	-104.852	-0.098	0.023
-742.127	44.275	-0.144	0.132
-741.112	-7.457	0.056	-0.038
-740.098	10.617	-0.145	0.110
-739.083	-102.939	-0.099	-0.024
-738.069	-133.457	-0.278	0.035
-737.054	209.944	-0.214	-0.337
-736.039	-66.917	-0.226	-0.090
-735.025	298.772	0.093	0.171
-734.010	-193.042	-0.195	0.002
-732.996	800.000	-0.103	-0.359
-731.981	-183.314	-0.439	0.008
-730.966	-183.453	0.260	-0.005
-729.952	-118.355	0.038	-0.007
-728.937	-200.000	0.014	-0.332
-727.923	-41.933	0.193	-0.099
-726.908	-79.799	-0.182	-0.061
-725.894	-59.749	-0.091	0.039
-724.879	-200.000	0.027	0.168
-723.864	-43.828	-0.268	-0.135
-722.850	-200.000	-0.001	0.087
-721.835	-16.558	-0.243	0.154
-720.821	-91.418	-0.133	0.038
-719.806	-156.377	0.207	-0.013
-718.791	-64.244	0.190	0.078
-717.777	137.089	-0.043	0.056
-716.762	-200.000	0.090	0.418
-715.748	-54.209	0.359	0.163
-714.733	-109.166	0.146	0.031
-713.718	-19.929	0.213	-0.132
-712.704	142.302	-0.029	0.039
-711.689	43.977	0.370	0.339
-710.675	-114.012	0.204	-0.040
-709.660	-200.000	-0.006	0.110
-708.645	-200.000	0.010	0.258
-707.631	-136.339	-0.038	0.004
-706.616	5.708	-0.264	-0.195
-705.602	26.119	0.106	0.088
-704.587	-57.774	0.395	0.173
-703.572	-100.272	-0.054	-0.013
-702.558	-64.715	0.106	-0.043
-701.543	-200.000	0.058	0.273
-700.529	329.800	-0.077	-0.148
-699.514	312.224	0.141	-0.265
-698.499	-200.000	0.012	0.347
-697.485	68.341	0.143	0.147
-696.470	-28.411	0.257	0.148
-695.456	-135.311	0.275	0.033
-694.441	74.097	0.088	-0.092
-693.426	-118.060	0.081	0.015
-692.412	-4.762	0.148	-0.102
-691.397	-33.372	-0.317	-0.175
-690.383	-54.669	-0.057	-0.026
-689.368	-200.000	0.028	-0.358
-688.354	195.184	0.103	0.156
-687.339	-53.683	0.068	-0.031
-686.324	800.000	0.046	0.179
-685.310	259.187	-0.089	0.154
-684.295	102.433	0.085	0.099
-683.281	-200.000	-0.040	0.176
-682.266	159.034	0.109	-0.151
-681.251	-91.376	0.393	0.112
-680.237	-200.000	0.003	-0.091
-679.222	304.415	0.040	-0.075
-678.208	-104.437	0.158	-0.037
-677.193	66.578	-0.012	0.013
-676.178	-97.698	-0.192	-0.050
-675.164	800.000	-0.067	-0.266
-674.149	800.000	0.055	-0.180
-673.135	800.000	0.062	0.267
-672.120	-9.215	-0.235	-0.157
-671.105	56.647	-0.033	-0.032
-670.091	-200.000	-0.033	-0.182
-669.076	-104.983	-0.219	-0.050
-668.062	800.000	-0.101	0.345
-667.047	-96.284	-0.401	-0.106
-666.032	-52.460	0.135	-0.062
-665.018	-94.877	0.115	-0.031
-664.003	-43.680	0.233	0.117
-662.989	-58.916	0.299	0.129
-661.974	0.391	-0.095	0.068
-660.959	-99.833	-0.045	0.011
-659.945	551.127	-0.032	-0.077
-658.930	101.980	0.083	-0.097
-657.916	-123.785	0.174	-0.028
-656.901	800.000	-0.037	-0.146
-655.886	-147.629	-0.123	0.010
-654.872	-200.000	-0.016	0.157
-653.857	-25.853	-0.213	-0.125
-652.843	421.634	0.122	-0.261
-651.828	-157.108	-0.255	-0.015
-650.814	366.894	-0.088	0.177
-649.799	1.847	-0.028	-0.020
-648.784	800.000	0.052	-0.220
-647.770	-16.538	-0.039	0.025
-646.755	-200.000	-0.016	0.101
-645.741	-200.000	0.020	-0.091
-644.726	-42.899	-0.404	0.204
-643.711	13.084	0.234	-0.181
-642.697	-100.328	-0.283	-0.070
-641.682	209.265	0.010	-0.016
-640.668	20.677	0.349	0.282
-639.653	-200.000	-0.094	-0.440
-638.638	800.000	-0.053	0.213
-637.624	80.836	-0.102	-0.110
-636.609	800.000	-0.071	0.241
-635.595	317.048	-0.090	-0.169
-634.580	-45.439	-0.231	-0.114
-633.565	43.716	0.112	-0.102
-632.551	-135.982	-0.344	-0.040
-631.536	101.417	-0.294	0.342
-630.522	-72.062	-0.155	0.057
-629.507	-68.717	-0.158	0.061
-628.492	20.326	0.033	0.026
-627.478	800.000	0.030	0.102
-626.463	-200.000	0.036	0.485
-625.449	246.773	-0.128	-0.215
-624.434	-51.658	0.198	0.092
-623.419	88.681	0.139	-0.154
-622.405	-200.000	-0.007	-0.193
-621.390	209.546	-0.118	0.184
-620.376	-200.000	-0.001	-0.007
-619.361	-20.975	0.255	-0.156
-618.346	373.583	-0.096	-0.194
-617.332	-200.000	0.081	-0.379
-616.317	-54.296	0.087	0.039
-615.303	800.000	-0.079	-0.273
-614.288	40.767	0.180	-0.162
-613.273	27.064	0.192	-0.161
-612.259	135.970	-0.260	-0.337
-611.244	-90.196	-0.150	-0.044
-610.230	61.481	-0.263	0.261
-609.215	-200.000	-0.013	0.091
-608.201	-80.740	0.260	0.086
-607.186	-24.913	-0.171	0.101
-606.171	-200.000	-0.018	0.118
-605.157	799.766	0.138	0.379
-604.142	538.554	0.022	0.053
-603.128	-52.151	-0.278	0.128
-602.113	-200.000	-0.005	-0.212
-601.098	-200.000	-0.067	0.366
-600.084	56.636	0.254	-0.246
-599.069	-39.462	-0.206	0.108
-598.055	477.165	0.152	0.342
-597.040	40.142	-0.417	0.373
-596.025	-72.534	-0.080	-0.029
-595.011	-0.486	-0.170	-0.120
-593.996	800.000	0.070	0.240
-592.982	-200.000	-0.011	-0.092
-591.967	6.544	0.067	0.050
-590.952	737.472	-0.071	-0.191
-589.938	12.730	-0.093	0.071
-588.923	-111.439	0.017	-0.003
-587.909	-200.000	0.006	0.123
-586.894	390.968	-0.105	-0.216
-585.879	800.000	-0.062	-0.210
-584.865	232.354	-0.206	-0.337
-583.850	203.833	0.088	0.135
-582.836	-134.197	0.144	0.018
-581.821	-82.004	0.179	-0.058
-580.806	-200.000	0.068	0.325
-579.792	-19.048	0.078	-0.048
-578.777	-200.000	0.013	-0.192
-577.763	-200.000	0.024	-0.463
-576.748	-21.885	-0.129	-0.078
-575.733	800.000	-0.078	0.271
-574.719	800.000	0.059	-0.217
-573.704	800.000	0.120	-0.494
-572.690	-200.000	-0.015	0.170
-571.675	234.752	-0.075	-0.122
-570.661	206.614	-0.030	-0.047
-569.646	346.768	0.070	0.137
-568.631	-33.199	0.349	-0.192
-567.617	-200.000	-0.031	0.425
-566.602	-81.203	-0.441	0.145
-565.588	-31.859	0.223	0.124
-564.573	529.821	-0.106	-0.248
-563.558	539.440	-0.148	0.350
-562.544	-200.000	-0.035	-0.239
-561.529	-86.316	0.505	-0.154
-560.515	800.000	0.032	-0.105
-559.500	-200.000	-0.003	-0.337
-558.485	-200.000	-0.009	-0.165
-557.471	-8.367	0.231	-0.154
-556.456	-200.000	0.030	-0.133
-555.442	800.000	0.110	-0.349
-554.427	-200.000	0.024	0.108
-553.412	25.982	0.152	-0.126
-552.398	-27.468	-0.312	-0.180
-551.383	-128.823	0.221	0.031
-550.369	-1.188	0.148	-0.104
-549.354	-60.449	-0.154	0.065
-548.339	-200.000	-0.014	0.159
-547.325	267.192	-0.041	-0.071
-546.310	-200.000	0.014	-0.333
-545.296	27.186	-0.096	0.080
-544.281	-125.349	0.151	-0.023
-543.266	-117.083	-0.175	-0.032
-542.252	78.993	-0.194	0.206
-541.237	-101.032	0.304	-0.074
-540.223	103.203	0.381	0.444
-539.208	103.119	0.198	-0.230
-538.193	-96.834	0.260	-0.068
-537.179	-86.410	-0.407	0.124
-536.164	-153.979	0.218	0.015
-535.150	800.000	-0.014	0.045
-534.135	26.755	0.124	-0.103
-533.121	-103.645	0.118	0.028
-532.106	4.992	0.265	0.194
-531.091	-200.000	-0.031	-0.211
-530.077	-200.000	-0.001	0.011
-529.062	-45.888	-0.239	-0.117
-528.048	-47.533	-0.150	-0.072
-527.033	-179.723	0.320	-0.007
-526.018	147.206	0.143	-0.191
-525.004	800.000	-0.067	0.286
-523.989	-200.000	0.055	-0.261
-522.975	-106.774	-0.255	-0.056
-521.960	76.661	-0.154	-0.162
-520.945	19.648	-0.193	-0.154
-519.931	-200.000	0.020	-0.214
-518.916	11.041	0.079	0.060
-517.902	188.568	0.112	-0.166
-516.887	-73.672	-0.290	-0.105
-515.872	-100.795	0.383	-0.094
-514.858	-200.000	-0.021	-0.204
-513.843	-78.294	0.348	0.119
-512.829	144.324	-0.151	-0.200
-511.814	-55.078	-0.375	-0.168
-510.799	-102.115	0.092	0.022
-509.785	33.360	0.047	0.040
-508.770	102.174	-0.146	0.169
-507.756	-106.970	-0.159	0.035
-506.741	-96.478	-0.440	-0.115
-505.726	-27.347	-0.189	-0.109
-504.712	-200.000	-0.019	0.113
-503.697	-29.578	0.215	0.122
-502.683	800.000	0.040	0.132
-501.668	-47.921	0.182	0.087
-500.653	-149.350	-0.139	0.011
-499.639	250.617	0.141	0.237
-498.624	-200.000	-0.047	-0.237
-497.610	-59.664	0.108	-0.046
-496.595	142.435	-0.088	-0.117
-495.581	-200.000	-0.025	0.150
-494.566	-24.627	-0.152	0.090
-493.551	-118.370	0.215	0.038
-492.537	-162.939	0.332	0.016
-491.522	-27.770	0.130	0.075
-490.508	69.996	-0.028	0.028
-489.493	39.815	0.008	0.007
-488.478	23.527	0.245	-0.200
-487.464	-129.623	-0.248	-0.034
-486.449	143.636	-0.129	0.171
-485.435	344.274	0.123	-0.240
-484.420	163.945	-0.095	0.133
-483.405	-137.343	-0.260	-0.029
-482.391	-200.000	-0.021	-0.295
-481.376	56.053	-0.334	0.321
-480.362	-169.855	0.095	0.003
-479.347	-29.920	-0.226	-0.127
-478.332	412.623	0.049	-0.104
-477.318	-120.082	0.293	0.050
-476.303	-58.487	0.175	0.075
-475.289	296.452	-0.022	0.041
-474.274	-76.760	0.232	0.080
-473.259	-59.622	0.101	-0.043
-472.245	-95.491	0.377	0.100
-471.230	-200.000	-0.002	-0.125
-470.216	-200.000	-0.002	0.197
-469.201	129.665	0.136	0.172
-468.186	33.428	0.025	-0.021
-467.172	-43.681	0.160	-0.080
-466.157	-143.390	0.346	0.033
-465.143	273.872	-0.108	0.189
-464.128	-70.944	-0.249	-0.093
-463.113	-61.075	0.485	0.203
-462.099	81.815	0.249	0.267
-461.084	97.252	-0.017	-0.019
-460.070	-89.844	-0.126	-0.037
-459.055	-200.000	0.008	0.045
-458.040	-1.170	-0.240	0.168
-457.026	-50.367	-0.255	-0.119
-456.011	-200.000	-0.012	0.210
-454.997	-33.407	-0.181	0.099
-453.982	-141.264	0.136	-0.014
-452.968	208.464	-0.122	-0.189
-451.953	163.999	0.266	-0.371
-450.938	-60.278	0.322	0.136
-449.924	177.957	-0.184	0.266
-448.909	800.000	0.070	-0.228
-447.895	4.818	-0.144	-0.105
-446.880	356.368	0.204	0.402
-445.865	800.000	-0.128	-0.494
-444.851	-23.005	-0.383	-0.229
-443.836	-39.520	-0.299	-0.155
-442.822	78.083	-0.128	-0.135
-441.807	290.773	-0.193	0.347
-440.792	-200.000	0.025	0.132
-439.778	-200.000	-0.022	-0.274
-438.763	-82.850	-0.193	0.062
-437.749	-62.136	0.189	-0.078
-436.734	-69.716	-0.090	0.034
-435.719	-5.796	0.111	0.075
-434.705	-200.000	-0.000	0.182
-433.690	310.957	-0.160	0.297
-432.676	-200.000	-0.030	0.256
-431.661	555.381	0.138	-0.328
-430.646	-125.972	-0.084	0.013
-429.632	800.000	-0.070	-0.298
-428.617	439.706	0.045	-0.097
-427.603	131.745	-0.098	-0.125
-426.588	534.276	0.063	0.149
-425.573	584.698	0.101	0.246
-424.559	37.945	-0.219	-0.192
-423.544	-200.000	0.002	-0.257
-422.530	114.819	-0.111	0.134
-421.515	612.323	0.026	0.063
-420.500	379.458	-0.072	-0.145
-419.486	-77.455	-0.178	-0.061
-418.471	172.896	-0.156	0.222
-417.457	-200.000	0.006	0.138
-416.442	-200.000	-0.013	0.262
-415.428	-87.062	-0.200	-0.060
-414.413	-17.350	-0.139	0.087
-413.398	-80.968	-0.193	-0.063
-412.384	99.992	0.321	0.368
-411.369	800.000	0.069	0.231
-410.355	800.000	0.026	-0.081
-409.340	-46.198	-0.287	-0.140
-408.325	-69.619	0.318	0.120
-407.311	173.254	0.132	-0.188
-406.296	-200.000	0.008	-0.050
-405.282	416.179	-0.046	-0.097
-404.267	148.824	-0.136	0.181
-403.252	800.000	0.068	0.198
-402.238	15.356	-0.182	0.141
-401.223	-200.000	-0.022	0.202
-400.209	-82.776	-0.123	0.039
-399.194	-200.000	-0.046	0.306
-398.179	-200.000	0.020	0.144
-397.165	800.000	0.010	0.039
-396.150	-80.475	0.198	0.065
-395.136	-200.000	0.052	-0.225
-394.121	800.000	0.030	-0.083
-393.106	-60.650	-0.286	0.120
-392.092	-200.000	-0.019	0.182
-391.077	-200.000	-0.031	0.247
-390.063	-108.175	0.395	0.084
-389.048	-150.973	0.411	-0.031
-388.033	-15.321	-0.282	0.178
-387.019	-27.315	-0.081	-0.047
-386.004	-108.034	0.195	-0.042
-384.990	92.531	-0.100	-0.112
-383.975	564.392	0.068	0.164
-382.960	-23.172	0.291	0.173
-381.946	-200.000	-0.001	0.180
-380.931	63.194	0.182	-0.180
-379.917	-200.000	0.011	0.344
-378.902	-48.567	0.053	-0.025
-377.888	226.575	0.164	0.263
-376.873	800.000	-0.064	-0.218
-375.858	-156.501	-0.183	0.011
-374.844	76.454	0.091	0.096
-373.829	-13.499	0.065	-0.042
-372.815	-79.864	-0.156	-0.052
-371.800	10.473	0.230	0.173
-370.785	252.166	-0.114	-0.192
-369.771	-200.000	-0.247	0.000
-368.756	382.213	0.246	0.500
-367.742	3.143	0.016	0.011
-366.727	46.959	0.077	0.070
-365.712	121.310	-0.084	0.104
-364.698	472.366	0.045	0.101
-363.683	12.633	-0.564	-0.430
-362.669	9.152	-0.144	0.107
-361.654	-141.132	-0.045	-0.005
-360.639	-30.145	-0.199	0.112
-359.625	-92.891	0.234	-0.065
-358.610	-200.000	-0.016	-0.093
-357.596	67.481	-0.300	-0.302
-356.581	-105.057	-0.384	0.087
-355.566	-177.468	-0.174	-0.004
-354.552	-177.135	0.152	-0.004
-353.537	-200.000	-0.010	0.253
-352.523	-200.000	0.044	0.195
-351.508	104.775	0.215	0.250
-350.493	-87.030	-0.263	-0.079
-349.479	152.619	0.163	-0.220
-348.464	135.325	0.171	0.219
-347.450	62.773	0.115	0.113
-346.435	407.207	-0.154	0.320
-345.420	-49.409	-0.197	0.093
-344.406	-200.000	0.030	-0.176
-343.391	230.523	-0.031	-0.050
-342.377	-125.951	-0.177	0.026
-341.362	13.142	-0.287	0.219
-340.348	-61.632	0.229	-0.095
-339.333	287.118	0.116	0.206
-338.318	37.305	-0.108	-0.094
-337.304	-55.794	-0.108	-0.048
-336.289	383.724	0.092	0.187
-335.275	470.845	0.115	0.254
-334.260	14.904	-0.110	-0.085
-333.245	-80.828	-0.243	0.080
-332.231	12.715	-0.139	0.106
-331.216	800.000	0.044	-0.149
-330.202	-200.000	-0.033	-0.286
-329.187	-200.000	0.016	0.204
-328.172	-106.751	0.162	-0.035
-327.158	-53.202	-0.293	-0.132
-326.143	376.585	0.084	-0.169
-325.129	800.000	-0.037	0.118
-324.114	-17.520	0.125	0.078
-323.099	-47.378	0.209	-0.100
-322.085	800.000	-0.150	0.443
-321.070	-200.000	-0.019	0.107
-320.056	-38.416	0.264	0.138
-319.041	-20.415	0.264	-0.160
-318.026	-200.000	-0.005	0.075
-317.012	800.000	-0.062	0.193
-315.997	-200.000	0.021	-0.143
-314.983	-200.000	-0.059	0.265
-313.968	800.000	-0.113	-0.328
-312.953	26.337	0.256	-0.211
-311.939	22.704	0.375	0.302
-310.924	84.667	-0.045	-0.049
-309.910	-106.813	0.261	-0.057
-308.895	80.524	-0.145	0.154
-307.880	165.122	-0.115	0.160
-306.866	389.472	0.093	0.190
-305.851	-200.000	-0.008	0.085
-304.837	43.932	-0.126	-0.113
-303.822	-56.983	0.186	-0.081
-302.807	-200.000	0.126	-0.652
-301.793	-200.000	0.060	0.497
-300.778	237.251	0.123	0.201
-299.764	560.222	-0.028	-0.066
-298.749	-200.000	0.009	0.082
-297.735	381.324	-0.096	0.194
-296.720	-112.706	0.333	0.065
-295.705	34.443	0.078	-0.067
-294.691	-200.000	0.021	-0.367
-293.676	-135.844	0.267	-0.031
-292.662	46.843	0.123	-0.112
-291.647	-33.927	-0.336	0.182
-290.632	-200.000	0.041	-0.273
-289.618	63.632	0.081	0.080
-288.603	-93.137	-0.117	-0.032
-287.589	94.281	0.119	0.132
-286.574	766.203	-0.118	0.315
-285.559	-115.693	0.275	0.051
-284.545	584.873	0.081	-0.196
-283.530	-105.809	-0.007	0.002
-282.516	-62.694	0.155	-0.063
-281.501	-200.000	-0.026	-0.230
-280.486	131.443	-0.120	-0.152
-279.472	-106.464	0.403	-0.088
-278.457	-43.812	0.179	0.089
-277.443	108.341	-0.197	0.231
-276.428	109.375	-0.063	-0.075
-275.413	-71.024	0.455	0.168
-274.399	167.246	0.106	-0.149
-273.384	-44.647	-0.132	-0.065
-272.370	276.387	0.118	0.206
-271.355	-102.956	-0.165	-0.039
-270.340	-92.360	-0.374	0.104
-269.326	-4.899	-0.064	-0.044
-268.311	-91.526	-0.200	-0.056
-267.297	-25.778	-0.145	-0.084
-266.282	16.224	0.218	-0.169
-265.267	-49.515	0.364	-0.170
-264.253	108.920	0.194	0.228
-263.238	-158.306	-0.019	-0.001
-262.224	-44.240	0.093	0.046
-261.209	707.216	-0.108	-0.280
-260.195	-48.378	-0.185	0.087
-259.180	-189.669	0.398	-0.004
-258.165	800.000	-0.058	0.165
-257.151	632.771	-0.120	-0.299
-256.136	-78.226	0.376	-0.127
-255.122	-116.918	-0.165	-0.030
-254.107	800.000	0.118	-0.322
-253.092	106.109	0.105	-0.122
-252.078	0.081	-0.142	0.099
-251.063	-22.621	0.305	-0.181
-250.049	-37.446	0.205	0.108
-249.034	-200.000	-0.041	-0.315
-248.019	-113.546	-0.284	-0.055
-247.005	778.755	-0.052	0.138
-245.990	-200.000	0.060	0.430
-244.976	-83.707	-0.156	-0.049
-243.961	-105.149	0.402	-0.090
-242.946	-24.738	-0.256	0.150
-241.932	-200.000	0.043	0.196
-240.917	109.373	-0.023	-0.027
-239.903	-18.195	-0.298	-0.183
-238.888	800.000	-0.020	0.053
-237.873	-93.703	-0.018	-0.005
-236.859	-10.519	0.112	-0.073
-235.844	602.579	0.129	0.315
-234.830	-193.984	-0.287	0.002
-233.815	158.366	-0.006	-0.009
-232.800	-144.791	-0.225	0.020
-231.786	-42.717	-0.125	0.062
-230.771	-79.948	0.051	-0.017
-229.757	800.000	0.075	-0.231
-228.742	-25.977	0.103	-0.060
-227.727	425.861	-0.011	-0.022
-226.713	-110.625	-0.044	0.009
-225.698	-98.084	-0.245	-0.062
-224.684	298.019	0.068	-0.123
-223.669	800.000	0.131	-0.363
-222.655	800.000	-0.081	-0.264
-221.640	-64.089	-0.135	-0.054
-220.625	74.245	0.200	-0.206
-219.611	800.000	-0.036	-0.101
-218.596	223.857	-0.097	-0.153
-217.582	-200.000	-0.010	-0.112
-216.567	-200.000	-0.013	0.216
-215.552	11.818	-0.280	-0.211
-214.538	-188.667	0.236	-0.003
-213.523	800.000	-0.046	-0.181
-212.509	-12.805	-0.183	-0.117
-211.494	114.482	-0.137	0.164
-210.479	9.526	-0.221	0.164
-209.465	34.576	-0.093	0.080
-208.450	-99.961	-0.286	0.070
-207.436	160.422	-0.196	-0.269
-206.421	116.414	0.032	-0.039
-205.406	-118.621	0.344	0.060
-204.392	185.562	0.135	0.197
-203.377	760.772	-0.164	-0.435
-202.363	-200.000	-0.011	-0.171
-201.348	-121.199	0.246	-0.040
-200.333	335.856	0.208	0.396
-199.319	800.000	-0.032	-0.103
-198.304	-17.318	-0.159	-0.098
-197.290	-58.980	0.193	0.082
-196.275	114.345	-0.135	0.162
-195.260	8.268	-0.164	0.121
-194.246	182.365	0.205	-0.296
-193.231	-87.126	0.242	-0.072
-192.217	-65.823	0.108	-0.042
-191.202	489.618	0.078	-0.174
-190.187	163.599	-0.091	0.125
-189.173	132.263	0.026	0.032
-188.158	310.059	0.055	0.100
-187.144	46.267	-0.139	0.126
-186.129	800.000	0.086	-0.273
-185.114	240.651	0.201	-0.328
-184.100	-90.336	-0.503	0.143
-183.085	3.145	0.098	-0.070
-182.071	16.707	0.089	-0.069
-181.056	-200.000	0.042	-0.219
-180.042	-200.000	-0.051	-0.346
-179.027	-200.000	0.003	-0.084
-178.012	155.705	-0.077	0.103
-176.998	-158.644	-0.193	-0.011
-175.983	201.617	-0.137	0.207
-174.969	-57.381	0.493	0.212
-173.954	-200.000	0.037	0.167
-172.939	-29.519	-0.232	-0.130
-171.925	-200.000	-0.038	-0.307
-170.910	49.494	0.062	-0.057
-169.896	16.948	0.076	0.059
-168.881	110.999	0.166	0.196
-167.866	31.745	0.040	0.034
-166.852	197.646	-0.155	0.232
-165.837	-200.000	-0.010	0.213
-164.823	63.821	0.341	0.335
-163.808	-200.000	0.001	-0.018
-162.793	201.367	0.174	-0.262
-161.779	50.964	0.074	-0.069
-160.764	-66.232	0.121	0.047
-159.750	458.201	-0.073	-0.159
-158.735	687.681	0.115	0.294
-157.720	372.273	-0.169	0.335
-156.706	139.330	-0.180	0.231
-155.691	-157.917	0.185	-0.011
-154.677	14.168	-0.329	-0.251
-153.662	463.095	0.121	-0.265
-152.647	-113.153	-0.342	0.066
-151.633	800.000	0.028	0.083
-150.618	423.573	0.098	-0.205
-149.604	-171.952	-0.274	0.009
-148.589	647.136	0.035	-0.087
-147.574	-20.922	-0.092	-0.055
-146.560	-9.337	0.273	-0.178
-145.545	596.847	-0.019	-0.046
-144.531	-101.382	0.295	0.070
-143.516	-149.324	-0.249	0.019
-142.502	34.736	-0.086	0.074
-141.487	-56.208	-0.111	0.048
-140.472	800.000	-0.051	-0.156
-139.458	136.715	-0.224	0.286
-138.443	409.638	0.124	0.258
-137.429	35.066	0.106	0.091
-136.414	-121.882	0.276	0.044
-135.399	430.285	-0.060	0.127
-134.385	661.801	0.079	-0.200
-133.370	0.945	-0.189	0.133
-132.356	-146.909	0.132	0.011
-131.341	-73.735	0.190	0.067
-130.326	-200.000	0.031	0.167
-129.312	799.627	-0.084	-0.226
-128.297	509.033	-0.027	0.060
-127.283	492.875	-0.056	-0.126
-126.268	32.650	0.204	0.172
-125.253	-18.332	0.260	0.159
-124.239	391.754	-0.065	-0.132
-123.224	-31.272	0.135	-0.075
-122.210	43.757	-0.263	-0.236
