DTS Sentinel unit serial number:	SN413079Multiplexer serial number:	ORYXHardware model number:	OX4-SRSoftware version number:	ORYX F/W v4.00 Oryx Data Collector v3.7.2.0data status	okinstallation	princeton_trtdifferential loss correction	single-endedforward channel	channel 1reverse channel	N/Adate	2019/09/17time	21:34:35forward acquisition time	60.00reverse acquisition time	0.00gamma	496.2192k internal	0.2339k external	0.2339temperature offset calibration	0.9979default loss term (dB/km)	0.3790temperature slope calibration	1.0000multiplexer offset coefficient	1.0000multiplexer slope coefficient	1.0000fibre end	0.00T internal ref (°C)	26.97T ext. ref 1 (°C)	0.19T ext. ref 2 (°C)	19.20length (m)	temperature (°C)	Stokes	anti-Stokes-747.200	197.105	-0.263	0.402
-746.185	-200.000	0.007	0.077
-745.171	-55.193	0.049	0.022
-744.156	50.182	0.053	0.050
-743.142	135.087	-0.074	0.097
-742.127	78.707	-0.157	-0.168
-741.112	-86.567	0.254	0.078
-740.098	140.725	-0.253	0.335
-739.083	800.000	0.052	0.203
-738.069	-200.000	0.026	0.559
-737.054	-100.743	0.224	-0.055
-736.039	-33.394	-0.336	-0.186
-735.025	-15.420	0.315	0.202
-734.010	-50.852	-0.152	-0.072
-732.996	-115.215	-0.464	0.088
-731.981	51.003	-0.090	-0.086
-730.966	106.513	0.085	0.101
-729.952	-158.626	-0.222	-0.013
-728.937	-30.544	0.242	-0.138
-727.923	76.770	-0.065	0.069
-726.908	-146.523	-0.089	-0.008
-725.894	485.809	0.091	0.208
-724.879	22.891	-0.256	0.210
-723.864	178.842	-0.027	-0.040
-722.850	89.129	0.196	-0.218
-721.835	-200.000	0.033	-0.291
-720.821	141.182	0.143	0.189
-719.806	-34.002	-0.074	-0.041
-718.791	-184.069	-0.487	0.008
-717.777	21.070	-0.226	-0.184
-716.762	-176.543	-0.225	-0.006
-715.748	147.516	0.080	-0.108
-714.733	-121.375	-0.191	0.032
-713.718	285.175	-0.037	-0.067
-712.704	-200.000	0.034	-0.241
-711.689	-97.715	-0.178	-0.046
-710.675	201.910	-0.088	-0.136
-709.660	563.254	-0.178	-0.433
-708.645	67.804	0.117	0.120
-707.631	170.055	-0.301	-0.432
-706.616	-200.000	-0.012	-0.062
-705.602	-83.505	0.117	-0.038
-704.587	319.028	-0.201	0.381
-703.572	-110.652	-0.405	0.084
-702.558	-200.000	0.055	-0.430
-701.543	-111.587	0.159	0.032
-700.529	800.000	0.151	-0.456
-699.514	29.943	0.134	0.114
-698.499	94.058	0.153	-0.174
-697.485	-200.000	0.050	-0.525
-696.470	-151.578	0.213	-0.016
-695.456	-67.388	-0.345	-0.136
-694.441	180.680	-0.120	0.176
-693.426	285.271	-0.121	0.219
-692.412	-35.505	-0.044	0.024
-691.397	550.909	-0.068	-0.163
-690.383	-200.000	-0.038	0.488
-689.368	-200.000	0.039	-0.361
-688.354	-142.199	0.158	0.016
-687.339	-59.920	0.077	-0.033
-686.324	9.287	0.048	-0.036
-685.310	-158.126	-0.186	-0.011
-684.295	-200.000	-0.006	0.028
-683.281	-137.095	0.076	0.009
-682.266	-78.510	-0.180	0.062
-681.251	-28.082	0.209	-0.121
-680.237	36.053	-0.220	0.193
-679.222	-150.399	0.298	0.023
-678.208	-46.915	-0.231	0.113
-677.193	-39.232	-0.197	0.103
-676.178	-200.000	0.011	0.309
-675.164	-200.000	0.011	0.097
-674.149	-99.115	0.341	0.086
-673.135	-31.763	-0.166	0.093
-672.120	-87.844	0.171	-0.052
-671.105	-72.595	-0.089	-0.033
-670.091	800.000	-0.095	0.346
-669.076	800.000	-0.085	-0.336
-668.062	-200.000	0.008	-0.064
-667.047	5.992	-0.048	-0.035
-666.032	800.000	-0.119	0.411
-665.018	717.275	-0.051	-0.135
-664.003	-164.035	-0.195	0.009
-662.989	-200.000	-0.022	-0.376
-661.974	140.384	0.163	-0.216
-660.959	-82.548	0.061	-0.020
-659.945	-128.928	0.287	0.040
-658.930	800.000	0.158	-0.491
-657.916	83.239	-0.127	-0.139
-656.901	-170.421	-0.324	-0.011
-655.886	399.547	0.026	-0.054
-654.872	-200.000	0.208	0.001
-653.857	570.284	0.117	0.285
-652.843	-200.000	0.010	-0.046
-651.828	-111.278	-0.185	0.038
-650.814	-188.236	-0.321	-0.004
-649.799	315.935	0.145	-0.274
-648.784	-140.909	-0.066	0.007
-647.770	44.594	0.140	-0.129
-646.755	-151.002	-0.202	-0.015
-645.741	-200.000	-0.017	-0.244
-644.726	-142.406	-0.259	0.025
-643.711	-139.997	-0.044	-0.005
-642.697	-200.000	-0.034	-0.343
-641.682	800.000	0.026	0.094
-640.668	-200.000	-0.036	-0.303
-639.653	51.259	-0.192	-0.182
-638.638	-144.606	-0.123	0.011
-637.624	-59.718	0.072	-0.031
-636.609	-200.000	0.083	-0.541
-635.595	-154.051	0.144	0.010
-634.580	18.047	0.248	0.197
-633.565	-104.516	-0.179	-0.041
-632.551	-3.694	0.066	-0.046
-631.536	239.345	0.153	-0.253
-630.522	335.324	0.019	0.037
-629.507	-44.752	0.178	0.089
-628.492	183.477	-0.086	-0.126
-627.478	-116.751	0.270	0.050
-626.463	-105.690	-0.127	0.029
-625.449	-137.068	-0.203	0.023
-624.434	-200.000	-0.037	0.197
-623.419	27.665	0.077	-0.065
-622.405	-75.217	-0.181	0.065
-621.390	800.000	-0.047	-0.135
-620.376	-96.712	-0.129	-0.034
-619.361	-87.344	0.216	-0.065
-618.346	-200.000	0.105	-0.484
-617.332	800.000	0.088	-0.313
-616.317	65.542	-0.154	-0.156
-615.303	342.006	-0.054	0.105
-614.288	800.000	0.078	0.269
-613.273	-200.000	-0.013	-0.068
-612.259	-27.372	0.067	0.039
-611.244	-200.000	-0.011	0.182
-610.230	138.196	0.045	-0.059
-609.215	800.000	0.041	0.158
-608.201	70.235	-0.203	-0.209
-607.186	143.127	-0.081	0.108
-606.171	258.021	0.053	-0.092
-605.157	-112.880	-0.137	0.027
-604.142	800.000	0.063	0.211
-603.128	-139.664	-0.212	-0.023
-602.113	162.236	0.131	0.183
-601.098	-108.083	-0.128	-0.028
-600.084	253.680	-0.044	-0.076
-599.069	239.543	0.187	-0.310
-598.055	4.499	-0.348	-0.255
-597.040	-163.323	-0.084	0.004
-596.025	-79.725	0.071	-0.024
-595.011	381.318	-0.185	-0.378
-593.996	-200.000	-0.021	-0.129
-592.982	90.055	-0.139	-0.154
-591.967	-39.665	0.214	0.112
-590.952	-47.554	-0.106	0.051
-589.938	-200.000	-0.004	0.043
-588.923	-150.387	-0.141	0.011
-587.909	195.935	-0.125	-0.189
-586.894	800.000	0.073	0.304
-585.879	-83.672	0.079	0.025
-584.865	-200.000	0.030	-0.149
-583.850	682.780	0.030	-0.079
-582.836	147.266	-0.259	-0.347
-581.821	89.750	0.025	0.028
-580.806	-200.000	-0.029	0.295
-579.792	-44.919	0.464	-0.230
-578.777	-200.000	-0.019	-0.121
-577.763	-200.000	-0.056	-0.272
-576.748	35.587	-0.143	-0.125
-575.733	-124.064	-0.264	0.041
-574.719	-200.000	0.030	0.178
-573.704	307.561	-0.067	0.125
-572.690	33.467	-0.372	0.322
-571.675	-137.001	0.120	0.014
-570.661	-141.995	-0.109	0.011
-569.646	800.000	0.024	-0.073
-568.631	546.478	0.038	0.090
-567.617	800.000	-0.048	0.132
-566.602	-200.000	0.035	-0.185
-565.588	-114.249	-0.193	0.037
-564.573	10.130	-0.445	-0.337
-563.558	11.445	-0.165	-0.126
-562.544	-113.754	0.316	0.061
-561.529	-200.000	-0.055	0.247
-560.515	-61.665	0.172	0.072
-559.500	-63.916	0.277	0.113
-558.485	69.698	0.312	-0.320
-557.471	84.985	0.206	-0.224
-556.456	539.969	0.029	-0.068
-555.442	-43.354	0.286	-0.144
-554.427	800.000	-0.042	0.165
-553.412	-85.667	-0.172	0.053
-552.398	30.098	-0.014	-0.012
-551.383	-200.000	0.005	0.123
-550.369	-68.498	-0.234	0.090
-549.354	-200.000	0.066	-0.456
-548.339	800.000	-0.062	-0.248
-547.325	45.472	-0.187	-0.172
-546.310	-9.121	0.264	0.176
-545.296	10.938	0.132	0.100
-544.281	30.999	-0.094	0.080
-543.266	476.380	0.053	0.119
-542.252	-35.144	-0.089	0.048
-541.237	167.698	-0.204	0.289
-540.223	43.864	0.140	-0.128
-539.208	-200.000	0.007	-0.224
-538.193	205.208	-0.116	-0.180
-537.179	153.063	-0.146	0.199
-536.164	-87.433	0.313	0.094
-535.150	-31.666	0.060	0.034
-534.135	800.000	-0.059	0.163
-533.121	242.241	-0.111	0.184
-532.106	-200.000	0.018	-0.187
-531.091	-200.000	-0.002	-0.061
-530.077	-80.743	0.130	0.043
-529.062	-59.895	0.322	0.137
-528.048	-200.000	-0.016	-0.085
-527.033	-164.706	0.058	0.003
-526.018	800.000	-0.018	-0.057
-525.004	229.947	-0.039	-0.063
-523.989	-132.753	0.251	-0.032
-522.975	620.122	0.164	-0.409
-521.960	-200.000	0.004	-0.159
-520.945	-200.000	0.039	0.227
-519.931	-118.312	-0.268	0.047
-518.916	800.000	0.181	-0.512
-517.902	-200.000	0.050	0.221
-516.887	16.899	-0.155	0.122
-515.872	-143.791	0.252	0.024
-514.858	-24.268	0.125	0.074
-513.843	-73.706	0.254	-0.092
-512.829	-200.000	-0.031	0.177
-511.814	-46.429	-0.333	0.162
-510.799	-157.409	0.358	0.021
-509.785	-115.807	0.292	0.054
-508.770	-200.000	-0.017	-0.178
-507.756	-42.750	0.184	-0.093
-506.741	303.743	0.188	0.346
-505.726	800.000	-0.054	0.169
-504.712	163.303	0.042	0.059
-503.697	-71.768	0.102	-0.038
-502.683	800.000	0.099	0.291
-501.668	338.971	0.099	0.191
-500.653	-130.288	0.169	0.023
-499.639	-98.224	0.226	-0.058
-498.624	26.738	0.124	0.103
-497.610	2.131	0.198	0.142
-496.595	-46.980	0.299	-0.145
-495.581	223.316	-0.231	-0.370
-494.566	-200.000	-0.043	-0.284
-493.551	-4.381	0.198	0.136
-492.537	740.642	-0.064	0.172
-491.522	-155.289	0.145	-0.009
-490.508	-16.140	-0.119	0.075
-489.493	-200.000	-0.012	0.181
-488.478	-200.000	-0.020	-0.198
-487.464	145.216	0.138	-0.184
-486.449	771.938	0.057	-0.153
-485.435	-200.000	-0.023	-0.143
-484.420	-180.465	-0.112	0.002
-483.405	-126.326	0.475	0.070
-482.391	-100.828	-0.168	-0.041
-481.376	-84.276	-0.149	-0.047
-480.362	696.506	-0.115	0.299
-479.347	-200.000	0.002	0.362
-478.332	37.012	0.012	-0.011
-477.318	413.878	0.144	-0.305
-476.303	800.000	-0.095	-0.402
-475.289	785.996	0.036	0.098
-474.274	-17.005	0.110	-0.069
-473.259	83.512	-0.257	0.278
-472.245	-115.646	-0.327	-0.061
-471.230	-113.059	0.158	-0.031
-470.216	-200.000	0.002	0.129
-469.201	-200.000	-0.059	-0.300
-468.186	53.789	0.171	0.163
-467.172	-15.951	0.232	0.147
-466.157	-51.671	0.152	0.070
-465.143	-200.000	-0.018	-0.099
-464.128	800.000	0.039	0.108
-463.113	-200.000	0.050	-0.219
-462.099	-26.527	0.218	0.127
-461.084	-92.423	0.181	0.050
-460.070	54.543	-0.203	-0.194
-459.055	-106.060	0.124	-0.028
-458.040	-39.662	-0.513	-0.266
-457.026	-33.061	0.419	-0.230
-456.011	-64.552	-0.155	-0.062
-454.997	-63.960	-0.363	0.147
-453.982	-200.000	-0.010	-0.185
-452.968	-200.000	-0.007	0.173
-451.953	-100.476	0.018	0.004
-450.938	-1.600	0.105	-0.074
-449.924	34.464	-0.122	-0.105
-448.909	350.385	0.171	-0.336
-447.895	125.450	-0.183	0.228
-446.880	-141.735	-0.036	-0.004
-445.865	9.729	0.122	0.092
-444.851	-132.264	0.353	-0.045
-443.836	-200.000	-0.005	0.471
-442.822	8.705	0.304	-0.227
-441.807	136.039	0.114	0.148
-440.792	-84.516	0.200	-0.062
-439.778	800.000	-0.086	0.336
-438.763	-128.971	-0.152	-0.021
-437.749	800.000	0.018	0.063
-436.734	-20.548	0.131	0.080
-435.719	463.595	0.141	-0.312
-434.705	-32.786	-0.151	-0.083
-433.690	-121.278	-0.168	0.028
-432.676	394.352	-0.063	0.131
-431.661	59.056	-0.118	0.115
-430.646	-162.444	-0.305	0.015
-429.632	271.996	-0.045	0.079
-428.617	-83.881	-0.135	-0.043
-427.603	67.352	0.314	0.318
-426.588	236.257	0.020	-0.032
-425.573	-66.467	0.221	-0.087
-424.559	197.985	-0.152	-0.230
-423.544	-200.000	0.000	0.051
-422.530	-14.923	-0.114	0.073
-421.515	-59.686	0.230	-0.098
-420.500	20.280	-0.043	0.035
-419.486	-114.579	-0.001	-0.000
-418.471	-156.666	-0.114	0.007
-417.457	469.583	-0.111	0.247
-416.442	-61.438	-0.294	-0.122
-415.428	72.001	0.102	-0.105
-414.413	-190.653	0.254	-0.003
-413.398	116.663	-0.087	0.106
-412.384	-70.274	-0.268	-0.101
-411.369	800.000	0.043	-0.178
-410.355	800.000	-0.095	-0.392
-409.340	-121.430	-0.394	0.065
-408.325	-200.000	0.047	0.323
-407.311	800.000	0.074	-0.284
-406.296	326.969	0.238	0.452
-405.282	-88.958	0.147	0.043
-404.267	121.635	-0.129	-0.159
-403.252	-49.326	-0.349	-0.165
-402.238	-0.919	0.158	0.111
-401.223	14.367	-0.197	0.152
-400.209	366.324	0.030	0.060
-399.194	-53.783	0.123	0.056
-398.179	96.921	-0.217	-0.247
-397.165	-168.142	0.203	0.008
-396.150	-19.983	0.113	0.069
-395.136	-200.000	0.022	-0.175
-394.121	-73.869	0.079	0.028
-393.106	150.525	-0.075	-0.101
-392.092	33.430	0.131	-0.113
-391.077	-153.309	-0.137	0.009
-390.063	-108.915	-0.080	0.017
-389.048	800.000	0.063	0.218
-388.033	244.015	0.085	0.141
-387.019	-107.664	0.533	0.115
-386.004	361.833	-0.112	-0.223
-384.990	-117.117	0.172	0.031
-383.975	-13.532	0.228	0.146
-382.960	341.176	-0.054	0.104
-381.946	21.097	0.404	0.324
-380.931	8.185	-0.157	-0.117
-379.917	110.419	-0.203	0.241
-378.902	-74.432	-0.066	0.024
-377.888	-200.000	0.002	0.235
-376.873	-29.587	0.171	-0.097
-375.858	-200.000	0.017	-0.085
-374.844	201.870	0.290	0.443
-373.829	800.000	-0.027	0.099
-372.815	-63.447	0.160	0.065
-371.800	-91.114	0.232	0.066
-370.785	309.523	0.094	-0.175
-369.771	466.700	0.140	0.309
-368.756	108.328	0.334	0.394
-367.742	-200.000	0.040	0.183
-366.727	551.664	0.097	0.229
-365.712	34.704	0.210	-0.182
-364.698	70.882	-0.106	-0.109
-363.683	-9.074	0.103	0.068
-362.669	-106.513	-0.557	0.123
-361.654	2.424	0.117	-0.083
-360.639	127.614	-0.074	0.093
-359.625	401.496	0.078	-0.162
-358.610	-126.790	-0.178	-0.026
-357.596	664.544	0.040	0.103
-356.581	137.714	0.161	0.208
-355.566	183.458	-0.237	-0.346
-354.552	187.147	0.188	-0.277
-353.537	633.111	0.072	0.181
-352.523	-36.243	0.256	0.136
-351.508	497.103	-0.072	-0.164
-350.493	-32.401	-0.209	0.115
-349.479	-200.000	0.023	-0.288
-348.464	800.000	-0.101	-0.326
-347.450	-200.000	-0.015	0.147
-346.435	7.740	0.133	0.098
-345.420	800.000	0.081	-0.242
-344.406	-118.762	0.178	-0.031
-343.391	205.296	0.135	-0.208
-342.377	-171.545	0.129	0.004
-341.362	216.231	0.014	0.022
-340.348	38.785	-0.439	0.387
-339.333	781.555	0.016	-0.042
-338.318	-120.366	0.154	0.026
-337.304	305.207	-0.056	-0.102
-336.289	285.690	-0.096	-0.171
-335.275	309.629	0.074	-0.136
-334.260	101.073	-0.159	-0.182
-333.245	694.429	0.064	0.166
-332.231	-200.000	0.021	-0.218
-331.216	-200.000	-0.016	-0.360
-330.202	-200.000	0.006	-0.075
-329.187	-2.413	-0.299	0.207
-328.172	-195.454	-0.151	-0.001
-327.158	-200.000	-0.003	0.057
-326.143	290.546	0.197	0.353
-325.129	-14.345	0.143	0.091
-324.114	-65.841	-0.129	-0.051
-323.099	-152.611	-0.305	0.021
-322.085	800.000	0.047	0.145
-321.070	800.000	0.018	-0.057
-320.056	800.000	-0.084	0.255
-319.041	800.000	-0.015	-0.042
-318.026	241.975	0.246	0.406
-317.012	68.033	-0.015	-0.015
-315.997	-200.000	-0.003	-0.097
-314.983	-70.026	0.227	0.085
-313.968	107.246	-0.236	0.276
-312.953	158.697	-0.122	-0.167
-311.939	-111.202	-0.223	-0.045
-310.924	-61.990	-0.279	0.115
-309.910	-45.447	-0.251	-0.123
-308.895	-69.521	-0.091	0.034
-307.880	617.893	0.145	0.359
-306.866	800.000	0.068	0.222
-305.851	800.000	0.085	-0.262
-304.837	-185.830	-0.082	-0.001
-303.822	549.175	0.086	0.203
-302.807	-1.025	0.192	0.134
-301.793	35.212	0.070	-0.060
-300.778	-139.920	-0.380	-0.040
-299.764	81.240	-0.176	0.187
-298.749	-107.911	-0.475	-0.102
-297.735	-58.091	-0.383	0.165
-296.720	-200.000	0.019	-0.129
-295.705	-143.687	-0.158	-0.015
-294.691	134.227	0.150	0.192
-293.676	-69.458	-0.090	0.034
-292.662	-166.487	0.151	0.006
-291.647	205.919	-0.191	-0.293
-290.632	101.462	-0.136	0.156
-289.618	-26.463	0.273	-0.157
-288.603	-200.000	0.079	0.355
-287.589	464.752	-0.025	-0.055
-286.574	-200.000	-0.042	-0.193
-285.559	475.947	0.153	-0.341
-284.545	119.157	-0.215	0.262
-283.530	-200.000	-0.010	-0.085
-282.516	31.431	-0.118	0.100
-281.501	88.121	0.180	0.197
-280.486	-200.000	-0.065	-0.300
-279.472	-8.248	0.092	-0.061
-278.457	166.756	0.211	-0.295
-277.443	359.542	-0.176	-0.346
-276.428	214.767	0.159	0.248
-275.413	2.593	-0.190	0.136
-274.399	-200.000	-0.002	0.182
-273.384	-200.000	0.028	-0.134
-272.370	-200.000	-0.018	0.124
-271.355	800.000	-0.024	-0.084
-270.340	-19.952	-0.144	-0.087
-269.326	-38.984	0.096	0.050
-268.311	654.296	0.088	0.221
-267.297	-167.290	-0.073	0.003
-266.282	199.349	0.196	-0.296
-265.267	98.065	0.127	-0.144
-264.253	115.222	-0.150	0.180
-263.238	66.092	-0.143	0.143
-262.224	-200.000	0.012	-0.261
-261.209	-200.000	0.067	0.462
-260.195	30.010	0.162	0.136
-259.180	-200.000	0.002	0.026
-258.165	258.369	-0.119	0.201
-257.151	10.559	-0.043	-0.032
-256.136	-90.954	-0.236	-0.067
-255.122	136.064	-0.163	0.209
-254.107	-16.460	-0.345	0.215
-253.092	-18.264	-0.145	0.089
-252.078	52.450	-0.186	0.175
-251.063	-200.000	-0.014	0.082
-250.049	15.819	-0.268	0.207
-249.034	800.000	-0.011	0.040
-248.019	-200.000	0.008	-0.141
-247.005	599.454	-0.102	-0.248
-245.990	42.906	-0.274	-0.246
-244.976	166.603	-0.143	0.199
-243.961	767.008	0.039	-0.103
-242.946	-11.165	0.251	0.163
-241.932	8.472	0.156	0.115
-240.917	617.372	0.305	-0.754
-239.903	-200.000	0.023	-0.217
-238.888	-122.905	-0.385	0.061
-237.873	-169.155	0.179	-0.007
-236.859	800.000	0.070	0.238
-235.844	166.331	0.201	0.280
-234.830	-90.615	0.174	-0.049
-233.815	-121.244	0.191	-0.031
-232.800	-200.000	-0.021	-0.124
-231.786	-200.000	0.004	-0.090
-230.771	-135.571	0.323	0.038
-229.757	800.000	-0.033	-0.128
-228.742	45.123	0.150	0.136
-227.727	203.058	-0.026	-0.039
-226.713	-200.000	0.077	-0.474
-225.698	-200.000	-0.011	0.130
-224.684	-74.900	-0.029	0.010
-223.669	-150.869	-0.361	-0.027
-222.655	358.998	0.031	0.060
-221.640	187.099	-0.146	0.214
-220.625	4.799	0.243	0.176
-219.611	-99.559	-0.387	-0.096
-218.596	-46.523	-0.140	-0.067
-217.582	-11.916	-0.177	-0.114
-216.567	-16.254	-0.268	-0.167
-215.552	-13.922	0.261	0.166
-214.538	-56.745	0.093	-0.040
-213.523	108.587	0.227	-0.266
-212.509	141.033	-0.193	-0.251
-211.494	-19.417	-0.304	-0.185
-210.479	121.699	-0.210	0.257
-209.465	77.280	-0.162	0.170
-208.450	393.066	0.169	0.345
-207.436	-54.141	-0.269	-0.120
-206.421	-96.666	-0.294	0.076
-205.406	800.000	-0.066	0.239
-204.392	64.902	-0.108	-0.107
-203.377	-200.000	0.035	0.304
-202.363	-136.466	0.125	-0.014
-201.348	-200.000	0.059	0.499
-200.333	-200.000	0.006	-0.098
-199.319	121.278	-0.182	0.222
-198.304	23.412	-0.243	0.196
-197.290	-200.000	-0.004	0.062
-196.275	-78.879	0.096	0.032
-195.260	533.947	0.082	-0.190
-194.246	32.007	-0.135	-0.114
-193.231	-26.276	-0.186	-0.107
-192.217	116.585	-0.101	-0.122
-191.202	115.686	0.251	0.301
-190.187	-200.000	0.012	-0.327
-189.173	166.186	0.136	0.189
-188.158	-200.000	-0.023	-0.196
-187.144	33.026	-0.161	0.137
-186.129	-200.000	0.004	0.153
-185.114	-200.000	-0.003	-0.096
-184.100	-41.524	-0.072	0.036
-183.085	-131.110	0.177	0.023
-182.071	208.095	0.179	-0.275
-181.056	109.656	-0.231	0.271
-180.042	44.634	-0.189	0.171
-179.027	36.066	0.183	0.158
-178.012	-124.718	0.142	0.022
-176.998	-88.904	-0.228	-0.066
-175.983	-87.991	-0.195	0.057
-174.969	642.029	-0.118	0.296
-173.954	40.615	0.179	-0.158
-172.939	-81.194	-0.196	-0.064
-171.925	-154.237	0.086	0.006
-170.910	-145.645	0.218	-0.019
-169.896	-89.148	-0.163	-0.047
-168.881	800.000	-0.115	-0.395
-167.866	-89.973	0.208	0.059
-166.852	-42.721	0.257	0.128
-165.837	-36.713	-0.192	0.101
-164.823	-48.780	0.152	0.071
-163.808	-135.172	0.116	-0.014
-162.793	206.564	-0.086	0.131
-161.779	-200.000	0.030	-0.171
-160.764	136.716	-0.033	-0.042
-159.750	-134.885	0.123	0.015
-158.735	158.710	-0.166	-0.226
-157.720	210.538	-0.146	-0.224
-156.706	-86.067	0.277	0.084
-155.691	800.000	0.093	0.337
-154.677	800.000	0.012	-0.044
-153.662	-26.533	0.143	-0.082
-152.647	-200.000	-0.378	-0.000
-151.633	-100.659	0.392	0.095
-150.618	218.112	0.080	0.126
-149.604	-93.196	0.222	0.061
-148.589	-86.316	0.153	0.046
-147.574	-81.481	0.222	0.072
-146.560	605.553	0.098	-0.240
-145.545	275.786	-0.087	0.152
-144.531	-200.000	-0.006	0.214
-143.516	800.000	0.078	-0.326
-142.502	-166.183	-0.251	-0.010
-141.487	-134.269	0.459	-0.055
-140.472	800.000	0.032	-0.137
-139.458	-200.000	-0.072	-0.383
-138.443	-0.617	0.194	0.135
-137.429	-121.949	0.277	0.045
-136.414	800.000	-0.042	0.175
-135.399	128.474	-0.213	-0.265
-134.385	-148.103	-0.312	0.025
-133.370	393.830	-0.016	-0.033
-132.356	-200.000	-0.008	-0.047
-131.341	800.000	0.067	-0.221
-130.326	-16.525	-0.326	-0.202
-129.312	-85.782	-0.239	-0.072
-128.297	-162.748	0.350	0.017
-127.283	800.000	-0.061	0.227
-126.268	800.000	0.090	-0.267
-125.253	-200.000	0.001	0.167
-124.239	78.324	0.242	-0.253
-123.224	115.631	0.170	-0.204
-122.210	-57.104	0.097	-0.042
