DTS Sentinel unit serial number:	SN413079Multiplexer serial number:	ORYXHardware model number:	OX4-SRSoftware version number:	ORYX F/W v4.00 Oryx Data Collector v3.7.2.0data status	okinstallation	princeton_trtdifferential loss correction	single-endedforward channel	channel 1reverse channel	N/Adate	2019/09/10time	18:16:11forward acquisition time	60.00reverse acquisition time	0.00gamma	496.2192k internal	0.2304k external	0.2304temperature offset calibration	0.9930default loss term (dB/km)	0.3790temperature slope calibration	1.0000multiplexer offset coefficient	1.0000multiplexer slope coefficient	1.0000fibre end	0.00T internal ref (°C)	36.50T ext. ref 1 (°C)	-0.33T ext. ref 2 (°C)	28.48length (m)	temperature (°C)	Stokes	anti-Stokes-747.200	334.793	0.104	-0.205
-746.185	399.728	-0.100	-0.213
-745.171	-94.670	-0.327	0.090
-744.156	24.642	0.097	0.081
-743.142	-31.054	0.220	0.126
-742.127	73.812	0.244	0.260
-741.112	-200.000	0.003	-0.029
-740.098	-144.031	-0.079	0.008
-739.083	800.000	-0.029	0.099
-738.069	-20.070	0.140	0.088
-737.054	-150.200	0.247	-0.020
-736.039	-155.991	-0.257	0.017
-735.025	-45.110	0.251	0.127
-734.010	-200.000	0.014	0.079
-732.996	601.551	0.202	-0.510
-731.981	-110.705	-0.126	-0.027
-730.966	16.822	-0.251	0.202
-729.952	-24.075	-0.231	-0.141
-728.937	-134.563	-0.192	0.024
-727.923	-129.925	-0.286	-0.040
-726.908	145.505	0.052	-0.071
-725.894	-200.000	0.008	0.074
-724.879	-200.000	-0.027	0.417
-723.864	27.736	-0.124	0.107
-722.850	800.000	-0.024	0.074
-721.835	-61.105	0.111	0.047
-720.821	-56.145	0.277	0.126
-719.806	155.597	-0.099	-0.139
-718.791	194.268	-0.167	0.257
-717.777	800.000	0.061	-0.223
-716.762	232.647	-0.068	0.114
-715.748	91.535	-0.237	-0.271
-714.733	-38.228	-0.142	-0.077
-713.718	-110.563	-0.187	0.039
-712.704	-135.287	-0.050	-0.006
-711.689	-200.000	0.004	-0.230
-710.675	74.179	0.095	0.101
-709.660	-200.000	-0.050	0.374
-708.645	-83.176	-0.070	0.023
-707.631	-127.653	-0.370	0.054
-706.616	-200.000	-0.001	0.055
-705.602	283.889	0.043	-0.079
-704.587	800.000	-0.087	0.346
-703.572	-144.489	-0.457	-0.043
-702.558	-148.270	-0.322	0.027
-701.543	34.071	-0.263	-0.233
-700.529	-59.898	0.123	0.053
-699.514	-200.000	-0.030	-0.170
-698.499	-114.632	-0.198	0.039
-697.485	-200.000	-0.030	0.148
-696.470	-37.420	0.180	-0.098
-695.456	306.999	-0.164	-0.310
-694.441	-100.804	-0.175	-0.044
-693.426	141.143	-0.154	-0.207
-692.412	73.231	0.102	-0.108
-691.397	-200.000	0.030	-0.282
-690.383	-200.000	-0.004	0.170
-689.368	-59.896	0.182	0.079
-688.354	-127.605	-0.255	-0.037
-687.339	-27.785	-0.326	0.192
-686.324	-200.000	0.015	-0.193
-685.310	800.000	0.060	-0.179
-684.295	251.560	-0.227	-0.392
-683.281	39.583	0.205	-0.186
-682.266	425.851	-0.048	-0.105
-681.251	-57.632	-0.143	0.064
-680.237	-24.607	-0.078	-0.047
-679.222	-152.381	-0.077	0.006
-678.208	15.617	-0.179	0.143
-677.193	-104.220	-0.468	0.110
-676.178	77.403	0.185	0.200
-675.164	-54.706	0.190	0.087
-674.149	-115.546	0.381	0.073
-673.135	6.961	-0.280	-0.212
-672.120	470.735	0.071	-0.161
-671.105	-121.888	-0.249	-0.042
-670.091	-200.000	0.004	-0.182
-669.076	800.000	0.111	-0.495
-668.062	12.893	0.039	0.031
-667.047	-59.311	-0.173	-0.075
-666.032	-71.027	-0.295	-0.113
-665.018	135.387	-0.099	-0.130
-664.003	-172.935	-0.168	0.005
-662.989	669.972	-0.018	0.047
-661.974	71.642	0.262	-0.276
-660.959	-118.729	-0.052	0.009
-659.945	19.221	0.079	-0.064
-658.930	19.655	-0.196	-0.160
-657.916	-50.814	0.134	0.064
-656.901	-134.318	0.201	-0.025
-655.886	-36.640	0.382	-0.209
-654.872	-42.588	0.314	-0.162
-653.857	97.299	0.234	-0.272
-652.843	102.696	-0.148	0.176
-651.828	-17.909	0.199	0.127
-650.814	526.977	-0.114	-0.274
-649.799	34.190	-0.071	0.063
-648.784	800.000	-0.106	0.303
-647.770	-48.751	-0.307	-0.150
-646.755	-0.772	0.281	0.202
-645.741	-51.102	-0.255	0.121
-644.726	-200.000	0.011	0.221
-643.711	-17.123	0.272	0.174
-642.697	445.684	0.041	-0.092
-641.682	50.411	0.061	-0.058
-640.668	65.635	0.108	0.111
-639.653	-5.405	0.374	0.260
-638.638	69.638	-0.220	-0.229
-637.624	800.000	0.033	-0.113
-636.609	-200.000	-0.064	-0.330
-635.595	-200.000	-0.014	0.217
-634.580	3.237	-0.321	0.237
-633.565	-200.000	-0.013	0.219
-632.551	66.646	0.071	-0.073
-631.536	-35.115	0.226	-0.125
-630.522	173.658	0.314	-0.459
-629.507	29.234	0.046	0.040
-628.492	-151.770	0.287	-0.021
-627.478	-97.323	-0.217	-0.057
-626.463	-50.193	-0.331	-0.159
-625.449	39.700	-0.164	0.149
-624.434	219.277	-0.133	-0.215
-623.419	800.000	-0.047	-0.189
-622.405	231.342	-0.101	0.168
-621.390	-16.481	0.370	0.238
-620.376	800.000	0.109	-0.320
-619.361	293.889	-0.059	0.108
-618.346	-37.460	0.222	-0.120
-617.332	-97.684	-0.091	0.024
-616.317	-78.584	0.297	-0.103
-615.303	151.957	-0.254	-0.350
-614.288	23.325	-0.087	-0.072
-613.273	-75.023	-0.098	-0.036
-612.259	-47.767	-0.016	0.008
-611.244	-144.220	0.422	0.040
-610.230	150.850	0.077	0.106
-609.215	-200.000	0.002	0.216
-608.201	800.000	0.122	-0.364
-607.186	800.000	0.070	0.200
-606.171	-200.000	-0.011	-0.076
-605.157	-11.586	-0.369	0.246
-604.142	745.771	-0.087	-0.238
-603.128	21.087	0.048	-0.040
-602.113	-95.725	0.309	-0.084
-601.098	685.996	-0.037	0.098
-600.084	63.545	0.246	-0.250
-599.069	-51.173	-0.086	0.041
-598.055	-126.040	-0.174	-0.026
-597.040	-200.000	0.016	0.077
-596.025	22.344	0.323	-0.267
-595.011	267.915	0.060	-0.107
-593.996	-105.648	-0.166	-0.038
-592.982	267.024	-0.043	0.075
-591.967	123.388	0.120	-0.153
-590.952	-56.985	0.216	-0.097
-589.938	800.000	0.010	0.037
-588.923	-200.000	0.014	-0.080
-587.909	-81.804	-0.227	0.075
-586.894	110.740	0.072	-0.088
-585.879	1.687	-0.097	-0.071
-584.865	-108.005	0.242	-0.053
-583.850	399.721	-0.105	-0.223
-582.836	458.464	0.156	0.351
-581.821	159.682	-0.126	-0.178
-580.806	178.769	-0.134	-0.198
-579.792	54.460	-0.187	-0.182
-578.777	-200.000	-0.031	-0.420
-577.763	-62.379	0.194	-0.082
-576.748	412.566	0.017	-0.036
-575.733	-5.851	0.371	0.257
-574.719	405.155	-0.095	-0.203
-573.704	800.000	0.094	-0.405
-572.690	-200.000	-0.015	-0.107
-571.675	12.249	-0.127	0.099
-570.661	800.000	0.044	-0.142
-569.646	-91.560	0.177	0.051
-568.631	-102.676	0.083	-0.020
-567.617	-200.000	-0.018	-0.222
-566.602	465.119	0.067	-0.152
-565.588	-117.958	0.162	0.029
-564.573	23.217	0.174	0.144
-563.558	-9.641	0.224	-0.151
-562.544	317.251	-0.304	-0.582
-561.529	463.231	0.077	-0.174
-560.515	80.394	0.158	-0.172
-559.500	-200.000	0.015	0.133
-558.485	800.000	0.071	-0.233
-557.471	335.510	-0.032	0.064
-556.456	226.931	0.118	-0.194
-555.442	166.019	-0.209	0.299
-554.427	-191.470	0.300	0.003
-553.412	157.961	0.129	0.181
-552.398	259.524	-0.053	-0.092
-551.383	169.859	-0.036	0.052
-550.369	-30.700	-0.382	0.219
-549.354	138.324	-0.056	0.074
-548.339	150.731	-0.266	-0.366
-547.325	-18.189	0.282	-0.178
-546.310	-63.214	0.170	-0.071
-545.296	-200.000	-0.036	-0.286
-544.281	-200.000	-0.003	-0.099
-543.266	42.005	0.336	-0.308
-542.252	-2.495	-0.357	-0.252
-541.237	-200.000	-0.058	0.427
-540.223	-172.678	0.241	-0.008
-539.208	-150.297	-0.036	0.003
-538.193	-118.072	-0.179	-0.032
-537.179	-200.000	0.047	-0.408
-536.164	-200.000	-0.007	0.082
-535.150	800.000	-0.042	0.147
-534.135	6.372	-0.188	0.141
-533.121	232.184	-0.103	-0.170
-532.106	231.354	-0.150	0.248
-531.091	233.272	-0.166	0.275
-530.077	12.518	-0.092	-0.071
-529.062	-20.114	-0.270	0.168
-528.048	159.944	-0.164	-0.230
-527.033	422.786	0.087	-0.189
-526.018	-200.000	0.021	0.097
-525.004	32.416	-0.225	0.196
-523.989	-103.858	-0.249	0.059
-522.975	36.186	0.154	-0.137
-521.960	-26.900	-0.044	-0.026
-520.945	-200.000	-0.036	0.172
-519.931	132.668	-0.111	-0.144
-518.916	-93.434	-0.105	-0.029
-517.902	61.469	0.205	-0.205
-516.887	62.927	0.113	0.114
-515.872	-26.841	0.040	0.023
-514.858	-99.518	-0.427	-0.108
-513.843	15.025	-0.241	0.190
-512.829	-50.036	-0.262	-0.125
-511.814	134.361	0.228	0.298
-510.799	800.000	0.071	0.248
-509.785	90.725	-0.203	-0.230
-508.770	-99.177	-0.119	-0.030
-507.756	-17.915	-0.270	0.171
-506.741	-200.000	0.032	0.164
-505.726	800.000	0.050	0.159
-504.712	-23.862	-0.093	0.056
-503.697	-200.000	0.003	-0.076
-502.683	-95.912	0.266	-0.072
-501.668	1.387	-0.085	0.062
-500.653	-96.513	-0.330	-0.088
-499.639	-128.541	-0.348	-0.050
-498.624	-200.000	-0.009	-0.207
-497.610	33.366	0.067	-0.058
-496.595	271.262	0.021	0.037
-495.581	800.000	-0.061	0.236
-494.566	182.699	-0.154	0.230
-493.551	265.997	0.018	0.031
-492.537	800.000	-0.093	0.301
-491.522	-95.287	-0.460	-0.125
-490.508	-5.555	0.266	-0.184
-489.493	800.000	-0.085	0.362
-488.478	-106.960	-0.137	-0.031
-487.464	-200.000	0.004	0.180
-486.449	-21.206	-0.283	0.175
-485.435	-52.463	0.121	0.056
-484.420	800.000	0.108	0.350
-483.405	91.739	0.043	0.048
-482.391	167.698	-0.222	0.318
-481.376	-90.413	0.175	0.051
-480.362	-200.000	-0.040	0.217
-479.347	-169.194	0.185	-0.007
-478.332	800.000	0.026	-0.102
-477.318	-5.988	0.239	-0.165
-476.303	-14.493	-0.042	-0.027
-475.289	-25.607	-0.218	0.130
-474.274	303.013	0.169	0.315
-473.259	-127.169	0.561	-0.083
-472.245	800.000	-0.028	0.104
-471.230	461.611	-0.051	-0.115
-470.216	294.476	0.174	0.320
-469.201	-73.517	0.325	-0.120
-468.186	-102.335	0.073	0.018
-467.172	-109.300	-0.132	0.028
-466.157	-53.352	0.119	0.055
-465.143	15.513	0.185	0.146
-464.128	288.378	0.225	-0.410
-463.113	702.279	0.091	-0.242
-462.099	-200.000	-0.003	-0.051
-461.084	-81.729	-0.145	0.048
-460.070	-114.975	-0.243	-0.047
-459.055	-200.000	0.041	0.263
-458.040	259.780	0.095	0.164
-457.026	-22.183	-0.353	0.215
-456.011	21.782	0.079	0.065
-454.997	-68.384	0.310	0.121
-453.982	-200.000	0.019	0.167
-452.968	-56.218	-0.356	-0.159
-451.953	-51.550	-0.209	-0.098
-450.938	-200.000	-0.035	0.340
-449.924	800.000	-0.139	0.461
-448.909	345.765	0.067	0.133
-447.895	-78.132	0.087	0.030
-446.880	-115.633	0.076	-0.014
-445.865	-156.599	-0.100	-0.006
-444.851	109.670	0.078	-0.094
-443.836	161.333	-0.117	0.164
-442.822	502.239	-0.125	0.290
-441.807	-200.000	-0.001	-0.127
-440.792	-178.044	0.196	0.005
-439.778	241.255	-0.087	-0.146
-438.763	-70.123	0.279	-0.107
-437.749	-92.096	0.065	-0.018
-436.734	-147.669	0.229	-0.019
-435.719	-107.320	0.135	-0.030
-434.705	253.508	0.062	-0.106
-433.690	-28.074	0.092	-0.054
-432.676	-200.000	-0.050	0.442
-431.661	-200.000	-0.003	-0.030
-430.646	0.836	-0.287	-0.207
-429.632	-200.000	-0.028	-0.343
-428.617	173.250	0.105	-0.153
-427.603	-121.293	-0.339	-0.057
-426.588	-200.000	0.059	-0.275
-425.573	-64.602	0.347	0.142
-424.559	73.689	-0.256	-0.270
-423.544	-68.731	-0.427	0.166
-422.530	-15.705	0.217	-0.139
-421.515	800.000	-0.031	-0.094
-420.500	800.000	0.101	0.318
-419.486	86.132	-0.104	-0.115
-418.471	-44.417	0.249	0.126
-417.457	-118.463	0.522	0.093
-416.442	800.000	-0.067	-0.224
-415.428	-86.289	-0.209	-0.065
-414.413	437.043	0.109	0.238
-413.398	-97.007	0.098	-0.026
-412.384	-88.511	0.135	-0.041
-411.369	800.000	-0.112	-0.317
-410.355	166.496	0.129	0.184
-409.340	-200.000	-0.017	-0.192
-408.325	-104.037	0.144	-0.034
-407.311	233.868	-0.247	0.408
-406.296	-143.400	-0.110	-0.011
-405.282	-165.327	-0.383	0.017
-404.267	131.106	-0.148	-0.191
-403.252	-103.191	-0.362	-0.086
-402.238	391.873	-0.054	-0.113
-401.223	136.767	0.090	0.118
-400.209	-74.590	-0.100	0.036
-399.194	40.230	0.263	-0.238
-398.179	135.599	0.033	0.043
-397.165	1.361	0.142	0.102
-396.150	800.000	0.049	0.140
-395.136	-72.266	-0.140	0.052
-394.121	-200.000	0.007	0.240
-393.106	-137.597	-0.173	0.020
-392.092	-64.051	-0.069	0.028
-391.077	-63.376	0.124	0.051
-390.063	-111.621	0.483	-0.098
-389.048	800.000	-0.017	-0.061
-388.033	173.793	0.058	0.084
-387.019	-129.851	-0.190	-0.026
-386.004	-21.290	0.215	0.132
-384.990	800.000	0.075	-0.306
-383.975	-18.645	-0.127	-0.080
-382.960	602.077	-0.049	-0.122
-381.946	799.835	-0.054	-0.148
-380.931	-124.197	0.552	-0.087
-379.917	-103.390	0.327	0.077
-378.902	-97.216	-0.249	0.065
-377.888	-136.350	-0.169	-0.020
-376.873	70.887	0.070	0.073
-375.858	598.007	0.046	-0.113
-374.844	-200.000	-0.027	0.178
-373.829	-77.243	-0.096	0.034
-372.815	9.756	0.105	0.080
-371.800	-102.525	-0.422	-0.101
-370.785	-153.450	0.183	0.013
-369.771	-200.000	0.018	-0.115
-368.756	800.000	-0.092	0.399
-367.742	-200.000	0.012	0.371
-366.727	-154.181	0.197	-0.013
-365.712	-200.000	-0.025	-0.215
-364.698	225.568	-0.100	-0.163
-363.683	437.408	0.150	-0.329
-362.669	-200.000	0.004	0.328
-361.654	-124.952	0.301	0.047
-360.639	-96.680	-0.284	0.075
-359.625	112.921	-0.071	-0.087
-358.610	-153.372	-0.115	-0.008
-357.596	-129.598	-0.271	0.037
-356.581	191.480	-0.188	0.284
-355.566	404.926	-0.213	0.449
-354.552	800.000	0.079	-0.259
-353.537	367.344	0.089	-0.181
-352.523	-170.404	-0.174	-0.006
-351.508	-26.121	0.072	0.043
-350.493	69.675	0.093	-0.096
-349.479	48.809	-0.081	-0.076
-348.464	41.448	0.197	-0.179
-347.450	272.700	-0.121	-0.215
-346.435	13.455	0.189	0.147
-345.420	404.055	-0.091	0.192
-344.406	800.000	0.012	0.049
-343.391	-112.781	-0.173	0.035
-342.377	67.756	0.180	0.185
-341.362	-200.000	0.034	0.222
-340.348	-96.937	0.313	-0.082
-339.333	-200.000	-0.017	0.253
-338.318	-38.616	0.212	0.112
-337.304	141.719	0.105	-0.139
-336.289	800.000	0.007	-0.031
-335.275	-38.508	-0.208	0.110
-334.260	-58.894	-0.119	-0.051
-333.245	800.000	-0.101	-0.416
-332.231	-41.942	0.143	0.073
-331.216	-200.000	-0.006	0.061
-330.202	-200.000	0.008	0.268
-329.187	18.318	-0.101	-0.081
-328.172	-173.789	0.105	-0.003
-327.158	38.471	0.236	-0.210
-326.143	422.703	0.025	-0.054
-325.129	800.000	0.072	-0.296
-324.114	-127.846	0.331	0.048
-323.099	613.200	0.058	-0.144
-322.085	-200.000	0.002	-0.187
-321.070	-141.344	-0.221	0.023
-320.056	-200.000	-0.022	-0.121
-319.041	18.453	0.333	0.267
-318.026	123.255	0.125	-0.156
-317.012	-62.260	-0.201	-0.084
-315.997	-147.977	-0.419	0.035
-314.983	-200.000	-0.025	-0.214
-313.968	14.035	0.143	-0.112
-312.953	113.209	-0.077	-0.093
-311.939	23.571	-0.183	-0.151
-310.924	305.811	0.064	-0.120
-309.910	-68.295	-0.434	-0.169
-308.895	-200.000	-0.005	-0.152
-307.880	120.777	0.106	-0.132
-306.866	32.332	0.140	-0.121
-305.851	-200.000	0.019	-0.183
-304.837	81.055	-0.125	0.135
-303.822	275.496	0.267	0.474
-302.807	46.280	-0.314	0.291
-301.793	-101.272	0.206	-0.050
-300.778	619.010	-0.106	0.266
-299.764	-200.000	-0.006	0.028
-298.749	-23.504	-0.066	-0.040
-297.735	-200.000	-0.062	-0.358
-296.720	-99.423	-0.159	0.040
-295.705	-200.000	-0.066	-0.292
-294.691	-84.623	-0.238	-0.075
-293.676	-75.634	-0.182	-0.065
-292.662	160.088	0.089	-0.123
-291.647	163.360	-0.119	0.168
-290.632	-200.000	0.013	-0.130
-289.618	-121.611	-0.185	0.031
-288.603	800.000	0.044	0.146
-287.589	-200.000	0.008	0.132
-286.574	31.855	0.015	0.013
-285.559	-200.000	0.035	-0.208
-284.545	-85.605	-0.250	-0.078
-283.530	-200.000	0.003	-0.090
-282.516	259.141	-0.086	-0.148
-281.501	-75.303	0.333	0.119
-280.486	456.193	-0.106	0.235
-279.472	-56.934	0.105	-0.046
-278.457	31.724	0.186	0.160
-277.443	800.000	-0.056	-0.209
-276.428	28.820	0.196	-0.166
-275.413	12.216	0.232	0.178
-274.399	119.432	0.044	0.054
-273.384	-52.037	-0.318	-0.148
-272.370	170.453	-0.158	-0.226
-271.355	-200.000	0.055	0.282
-270.340	-38.935	-0.135	-0.071
-269.326	-109.030	-0.199	0.042
-268.311	-195.525	-0.231	-0.002
-267.297	800.000	0.099	0.307
-266.282	-200.000	0.016	0.190
-265.267	-37.794	0.395	-0.210
-264.253	-200.000	-0.012	-0.188
-263.238	85.257	-0.085	-0.093
-262.224	-26.220	0.172	0.101
-261.209	-200.000	0.007	0.242
-260.195	-9.873	0.181	0.121
-259.180	-35.622	0.133	-0.072
-258.165	800.000	0.027	-0.077
-257.151	26.045	0.063	-0.053
-256.136	-200.000	0.059	-0.296
-255.122	-200.000	0.000	-0.037
-254.107	-200.000	0.005	-0.112
-253.092	-200.000	-0.033	-0.198
-252.078	-148.463	0.315	0.026
-251.063	-160.415	-0.061	0.003
-250.049	133.852	0.138	-0.179
-249.034	40.100	0.312	-0.280
-248.019	800.000	-0.056	0.201
-247.005	11.182	-0.119	0.091
-245.990	84.228	-0.100	0.109
-244.976	-200.000	0.005	0.056
-243.961	-200.000	0.010	0.067
-242.946	219.523	-0.059	0.094
-241.932	72.305	0.197	0.205
-240.917	-200.000	0.007	-0.143
-239.903	306.640	0.125	-0.233
-238.888	-29.724	0.158	-0.090
-237.873	-200.000	0.005	0.201
-236.859	-200.000	-0.014	-0.066
-235.844	226.539	-0.060	0.097
-234.830	71.739	-0.218	0.226
-233.815	-172.740	0.222	0.007
-232.800	39.728	-0.130	0.117
-231.786	473.362	0.162	0.364
-230.771	-103.330	-0.282	0.066
-229.757	204.547	-0.242	0.375
-228.742	176.010	-0.077	0.112
-227.727	-200.000	0.006	0.138
-226.713	-82.889	-0.429	0.138
-225.698	-200.000	0.018	0.251
-224.684	71.330	0.213	0.221
-223.669	-61.287	-0.080	-0.034
-222.655	-27.591	-0.077	-0.045
-221.640	45.262	0.360	-0.331
-220.625	-78.593	-0.167	-0.057
-219.611	274.426	-0.039	-0.070
-218.596	-17.539	-0.099	0.062
-217.582	546.666	0.125	0.298
-216.567	133.380	0.257	-0.331
-215.552	32.661	-0.308	0.266
-214.538	-187.625	0.214	-0.003
-213.523	191.040	-0.076	-0.114
-212.509	625.729	0.029	-0.074
-211.494	10.031	-0.137	0.104
-210.479	-200.000	-0.053	-0.382
-209.465	166.233	0.140	-0.198
-208.450	368.908	0.212	0.428
-207.436	103.831	-0.099	0.116
-206.421	-57.914	-0.069	0.030
-205.406	-139.036	-0.384	-0.041
-204.392	751.870	-0.063	-0.171
-203.377	-85.636	0.297	0.092
-202.363	-76.086	-0.075	-0.026
-201.348	-46.270	0.231	-0.113
-200.333	-200.000	-0.023	0.195
-199.319	-200.000	0.028	-0.158
-198.304	-200.000	0.006	0.102
-197.290	-164.602	0.106	-0.005
-196.275	192.457	0.195	0.293
-195.260	-106.823	0.196	-0.043
-194.246	501.359	-0.063	0.144
-193.231	-124.633	-0.100	0.016
-192.217	23.035	-0.180	0.147
-191.202	392.160	-0.106	-0.220
-190.187	-132.596	-0.216	0.028
-189.173	117.840	-0.178	0.218
-188.158	-25.617	0.284	0.167
-187.144	-200.000	0.000	0.124
-186.129	-155.003	0.125	0.008
-185.114	209.781	-0.083	-0.129
-184.100	-79.737	0.237	0.080
-183.085	-12.578	0.042	-0.028
-182.071	648.050	-0.017	0.043
-181.056	-3.765	-0.157	-0.109
-180.042	-91.242	-0.280	0.080
-179.027	445.335	-0.070	-0.154
-178.012	163.894	-0.119	-0.167
-176.998	-147.277	0.294	0.025
-175.983	39.496	0.247	-0.220
-174.969	28.675	0.247	0.208
-173.954	-82.538	0.096	-0.031
-172.939	166.776	0.242	0.342
-171.925	-200.000	0.003	-0.031
-170.910	640.672	0.011	0.028
-169.896	-26.670	-0.274	-0.160
-168.881	-46.121	-0.406	-0.199
-167.866	108.287	-0.149	0.177
-166.852	-60.713	-0.135	0.057
-165.837	-94.823	0.170	-0.046
-164.823	-200.000	-0.011	-0.296
-163.808	-17.102	-0.039	-0.025
-162.793	26.353	-0.235	-0.196
-161.779	-200.000	0.048	0.496
-160.764	-68.349	0.208	-0.080
-159.750	800.000	-0.118	0.499
-158.735	-6.998	0.053	-0.036
-157.720	-193.189	-0.052	-0.000
-156.706	-200.000	0.016	-0.075
-155.691	129.133	0.110	-0.140
-154.677	-46.658	0.137	0.067
-153.662	800.000	-0.071	0.197
-152.647	-200.000	0.008	0.122
-151.633	43.095	-0.079	-0.071
-150.618	800.000	-0.066	-0.258
-149.604	-82.766	-0.322	-0.103
-148.589	211.666	0.083	0.131
-147.574	-60.622	-0.321	-0.136
-146.560	-112.542	0.264	-0.052
-145.545	-14.484	-0.162	-0.104
-144.531	-115.392	0.223	-0.042
-143.516	-200.000	-0.006	0.290
-142.502	51.250	0.277	0.262
-141.487	-200.000	-0.064	-0.288
-140.472	-200.000	0.042	-0.229
-139.458	-200.000	0.035	0.196
-138.443	-173.596	0.400	-0.012
-137.429	168.616	-0.077	0.108
-136.414	0.008	0.186	-0.132
-135.399	608.807	0.110	-0.273
-134.385	-8.770	-0.085	0.057
-133.370	-138.359	-0.181	-0.020
-132.356	-92.273	-0.104	0.029
-131.341	-200.000	-0.003	-0.152
-130.326	-98.984	-0.201	-0.051
-129.312	144.860	0.167	0.222
-128.297	797.596	0.064	0.175
-127.283	-19.811	0.104	0.064
-126.268	0.572	0.130	0.092
-125.253	-200.000	-0.076	-0.356
-124.239	177.166	0.089	0.128
-123.224	-12.475	0.107	-0.069
-122.210	-200.000	0.100	0.507
