DTS Sentinel unit serial number:	SN413079Multiplexer serial number:	ORYXHardware model number:	OX4-SRSoftware version number:	ORYX F/W v4.00 Oryx Data Collector v3.7.2.0data status	okinstallation	princeton_trtdifferential loss correction	single-endedforward channel	channel 1reverse channel	N/Adate	2019/09/11time	03:16:11forward acquisition time	60.00reverse acquisition time	0.00gamma	496.2192k internal	0.2331k external	0.2331temperature offset calibration	0.9925default loss term (dB/km)	0.3790temperature slope calibration	1.0000multiplexer offset coefficient	1.0000multiplexer slope coefficient	1.0000fibre end	0.00T internal ref (°C)	29.37T ext. ref 1 (°C)	-0.29T ext. ref 2 (°C)	24.07length (m)	temperature (°C)	Stokes	anti-Stokes-747.200	360.617	0.152	0.306
-746.185	-10.364	0.230	0.153
-745.171	389.800	0.074	0.155
-744.156	458.188	-0.121	0.272
-743.142	255.628	-0.144	-0.249
-742.127	-50.981	-0.041	0.019
-741.112	-12.333	-0.039	0.025
-740.098	-118.492	-0.145	-0.026
-739.083	2.928	-0.205	-0.150
-738.069	800.000	-0.070	-0.307
-737.054	-77.224	-0.183	0.064
-736.039	81.854	-0.110	0.119
-735.025	-77.996	-0.221	-0.076
-734.010	30.563	0.096	-0.082
-732.996	304.704	-0.174	-0.325
-731.981	800.000	0.110	-0.308
-730.966	81.071	-0.034	0.037
-729.952	-36.696	-0.310	0.168
-728.937	-130.507	-0.204	0.028
-727.923	-75.150	0.124	0.045
-726.908	800.000	-0.125	0.352
-725.894	-200.000	-0.066	-0.346
-724.879	477.989	-0.088	-0.201
-723.864	-17.762	-0.115	0.072
-722.850	-16.658	0.182	0.116
-721.835	-46.483	-0.179	-0.089
-720.821	-69.688	-0.218	0.084
-719.806	-27.536	-0.028	-0.017
-718.791	50.029	0.099	0.094
-717.777	800.000	0.080	0.352
-716.762	-166.576	0.159	-0.007
-715.748	2.957	0.230	0.168
-714.733	-124.018	0.172	0.027
-713.718	800.000	0.038	-0.111
-712.704	-45.424	-0.129	0.064
-711.689	800.000	-0.072	0.250
-710.675	280.572	-0.074	-0.133
-709.660	70.895	-0.203	0.211
-708.645	-110.006	0.270	-0.057
-707.631	-64.819	-0.117	-0.048
-706.616	-200.000	0.049	-0.284
-705.602	-200.000	-0.023	-0.290
-704.587	664.291	-0.085	-0.221
-703.572	-118.661	0.122	-0.022
-702.558	-108.272	-0.339	0.074
-701.543	-171.175	-0.328	0.011
-700.529	-200.000	-0.057	-0.288
-699.514	199.006	-0.061	0.095
-698.499	-83.209	0.098	0.032
-697.485	-127.893	0.406	-0.059
-696.470	-124.774	0.171	-0.027
-695.456	93.781	0.150	-0.171
-694.441	-200.000	0.006	0.189
-693.426	-119.552	0.116	0.020
-692.412	63.512	-0.204	0.206
-691.397	-119.574	-0.132	0.023
-690.383	800.000	-0.028	-0.100
-689.368	-200.000	0.019	0.298
-688.354	800.000	-0.103	-0.349
-687.339	800.000	0.094	-0.293
-686.324	-115.630	-0.054	-0.010
-685.310	-152.441	-0.090	0.007
-684.295	559.217	-0.109	-0.264
-683.281	-107.963	-0.215	-0.047
-682.266	-19.514	-0.231	0.144
-681.251	-47.081	-0.022	0.011
-680.237	-76.189	0.477	-0.169
-679.222	101.791	-0.317	-0.372
-678.208	-171.088	-0.261	-0.009
-677.193	800.000	-0.069	0.195
-676.178	-200.000	-0.002	-0.228
-675.164	-2.861	0.084	-0.059
-674.149	164.006	0.014	-0.020
-673.135	246.629	-0.140	-0.237
-672.120	235.263	0.148	-0.246
-671.105	-200.000	-0.028	-0.313
-670.091	800.000	0.036	-0.150
-669.076	-200.000	0.010	-0.555
-668.062	232.821	0.076	0.125
-667.047	-26.082	-0.200	-0.118
-666.032	-200.000	-0.055	-0.259
-665.018	-25.172	0.216	-0.128
-664.003	-7.239	-0.199	-0.135
-662.989	800.000	-0.041	-0.119
-661.974	165.484	-0.135	-0.192
-660.959	-162.795	-0.246	-0.012
-659.945	-200.000	0.024	0.187
-658.930	800.000	0.079	0.289
-657.916	-108.565	-0.393	-0.085
-656.901	800.000	0.052	0.146
-655.886	74.275	0.039	-0.041
-654.872	-51.580	-0.200	0.094
-653.857	101.056	-0.169	0.197
-652.843	383.225	-0.071	0.146
-651.828	-22.494	-0.407	-0.247
-650.814	393.830	-0.039	0.082
-649.799	800.000	0.059	-0.234
-648.784	561.150	0.068	-0.165
-647.770	-93.575	0.412	-0.114
-646.755	-12.871	0.213	0.139
-645.741	115.965	-0.131	-0.161
-644.726	223.839	-0.136	-0.220
-643.711	-113.872	0.382	-0.074
-642.697	-27.467	0.003	0.002
-641.682	800.000	0.045	-0.186
-640.668	-44.117	-0.162	0.082
-639.653	197.139	0.245	-0.374
-638.638	44.832	0.245	-0.226
-637.624	112.099	-0.161	-0.195
-636.609	-191.440	-0.057	0.001
-635.595	7.063	0.077	0.058
-634.580	-19.799	-0.127	-0.079
-633.565	-200.000	-0.017	0.354
-632.551	-200.000	-0.075	0.553
-631.536	338.203	0.087	-0.170
-630.522	-200.000	-0.004	-0.121
-629.507	-34.121	0.070	-0.039
-628.492	300.691	0.087	0.161
-627.478	-200.000	0.045	-0.307
-626.463	-46.086	-0.135	-0.066
-625.449	308.572	-0.114	0.214
-624.434	-40.977	0.287	-0.149
-623.419	-200.000	0.005	0.170
-622.405	-85.566	0.043	-0.013
-621.390	-59.333	-0.070	0.030
-620.376	-55.447	0.025	-0.011
-619.361	505.078	0.022	-0.050
-618.346	-200.000	0.000	-0.260
-617.332	-200.000	-0.016	-0.205
-616.317	-89.054	-0.413	0.122
-615.303	2.540	-0.014	0.010
-614.288	-200.000	-0.055	-0.347
-613.273	174.985	0.180	-0.261
-612.259	-20.695	-0.243	0.149
-611.244	-200.000	0.010	0.097
-610.230	266.421	0.091	-0.159
-609.215	107.959	-0.120	-0.143
-608.201	-105.014	-0.119	-0.027
-607.186	93.403	-0.099	-0.112
-606.171	-200.000	0.016	0.105
-605.157	-65.442	-0.087	0.035
-604.142	213.382	-0.199	0.316
-603.128	632.539	-0.153	0.389
-602.113	-56.743	-0.140	0.062
-601.098	-69.578	0.204	0.078
-600.084	-9.522	0.127	0.085
-599.069	-10.289	-0.324	0.215
-598.055	-32.511	-0.190	-0.106
-597.040	800.000	0.034	-0.123
-596.025	243.538	-0.208	-0.348
-595.011	-105.236	0.293	0.067
-593.996	506.710	0.079	-0.184
-592.982	-200.000	0.043	0.210
-591.967	-61.330	0.226	0.095
-590.952	-102.838	-0.219	0.052
-589.938	-200.000	-0.007	0.081
-588.923	30.337	-0.058	0.050
-587.909	800.000	-0.028	-0.109
-586.894	-98.141	0.239	0.061
-585.879	-57.839	0.232	0.101
-584.865	-78.777	0.159	0.054
-583.850	43.066	-0.164	-0.150
-582.836	-83.316	0.055	0.018
-581.821	108.990	-0.190	-0.228
-580.806	128.306	0.138	-0.176
-579.792	800.000	-0.070	0.210
-578.777	296.043	-0.218	0.399
-577.763	158.668	0.151	-0.210
-576.748	-80.824	-0.083	-0.028
-575.733	-122.055	0.214	0.035
-574.719	-11.740	0.285	0.187
-573.704	-33.128	-0.247	0.137
-572.690	332.023	0.279	-0.538
-571.675	-6.646	0.066	0.045
-570.661	-200.000	-0.042	0.327
-569.646	65.823	0.087	0.088
-568.631	-171.204	-0.231	0.008
-567.617	800.000	0.012	0.040
-566.602	115.400	-0.138	0.168
-565.588	-200.000	0.025	-0.367
-564.573	90.252	-0.147	0.165
-563.558	461.293	0.059	0.131
-562.544	203.298	-0.198	-0.307
-561.529	-181.717	0.262	0.005
-560.515	552.145	0.123	0.296
-559.500	676.957	0.084	0.219
-558.485	-200.000	-0.046	0.240
-557.471	-136.708	0.415	0.048
-556.456	328.940	-0.164	-0.314
-555.442	-188.282	-0.222	0.003
-554.427	-30.469	-0.059	-0.034
-553.412	377.862	-0.095	0.194
-552.398	-128.188	0.131	-0.019
-551.383	560.119	-0.057	0.137
-550.369	284.443	0.020	0.037
-549.354	-48.597	0.101	-0.049
-548.339	37.961	0.101	-0.089
-547.325	100.397	-0.274	-0.318
-546.310	-196.476	0.125	-0.001
-545.296	-200.000	0.047	-0.369
-544.281	39.926	0.062	-0.055
-543.266	-200.000	0.008	0.070
-542.252	613.262	0.074	0.185
-541.237	82.662	-0.253	0.274
-540.223	-31.203	-0.077	-0.043
-539.208	-200.000	-0.004	-0.021
-538.193	135.232	-0.114	-0.148
-537.179	-117.166	-0.171	0.031
-536.164	-104.293	0.253	-0.059
-535.150	-68.741	0.157	0.060
-534.135	13.753	-0.326	0.253
-533.121	76.298	-0.125	-0.133
-532.106	22.278	-0.357	-0.291
-531.091	-200.000	-0.009	-0.121
-530.077	-135.552	0.181	-0.021
-529.062	435.425	0.120	0.260
-528.048	-200.000	-0.043	-0.333
-527.033	-27.804	-0.128	0.074
-526.018	-43.164	-0.207	0.104
-525.004	-104.268	0.226	0.052
-523.989	311.158	-0.189	-0.353
-522.975	-200.000	0.070	-0.452
-521.960	-200.000	0.023	-0.378
-520.945	-32.607	-0.187	0.104
-519.931	-22.890	0.314	-0.189
-518.916	-200.000	0.027	0.127
-517.902	-168.683	0.139	0.005
-516.887	690.016	-0.012	-0.031
-515.872	231.035	0.113	-0.185
-514.858	259.238	-0.234	-0.403
-513.843	-130.315	-0.219	-0.030
-512.829	800.000	-0.040	-0.171
-511.814	-25.749	-0.223	0.131
-510.799	-36.901	0.174	0.093
-509.785	-200.000	-0.017	0.106
-508.770	14.243	-0.425	-0.330
-507.756	-104.029	-0.135	0.031
-506.741	-200.000	-0.046	0.264
-505.726	-200.000	-0.051	-0.330
-504.712	52.276	-0.215	0.204
-503.697	-24.964	0.178	0.105
-502.683	-176.106	0.102	-0.003
-501.668	16.333	-0.174	0.137
-500.653	-200.000	-0.041	0.180
-499.639	23.979	-0.270	0.222
-498.624	800.000	0.079	0.266
-497.610	130.272	-0.104	0.132
-496.595	-140.765	0.246	-0.025
-495.581	-91.864	0.304	0.086
-494.566	-112.854	0.219	-0.043
-493.551	-75.668	-0.350	-0.124
-492.537	-52.604	-0.242	-0.112
-491.522	800.000	-0.025	0.106
-490.508	-75.733	0.115	-0.041
-489.493	-120.409	-0.161	0.027
-488.478	-62.287	0.360	0.150
-487.464	429.912	-0.059	0.127
-486.449	-19.681	-0.111	-0.068
-485.435	-200.000	-0.053	-0.326
-484.420	-200.000	0.055	0.291
-483.405	-36.190	-0.286	0.154
-482.391	-200.000	-0.041	-0.378
-481.376	81.336	0.513	-0.552
-480.362	284.775	0.049	0.088
-479.347	111.697	0.068	-0.082
-478.332	800.000	-0.084	-0.342
-477.318	-106.648	0.334	0.074
-476.303	-3.556	0.519	0.360
-475.289	-63.829	-0.401	0.164
-474.274	185.505	0.063	0.093
-473.259	-147.578	-0.165	0.014
-472.245	-61.900	0.302	0.126
-471.230	-67.298	-0.396	0.155
-470.216	-19.625	0.090	0.055
-469.201	40.849	0.083	-0.075
-468.186	60.319	0.190	-0.188
-467.172	-200.000	0.000	-0.068
-466.157	-200.000	0.006	-0.191
-465.143	45.870	0.111	0.102
-464.128	341.940	-0.183	-0.356
-463.113	84.092	-0.388	-0.422
-462.099	-200.000	0.023	0.371
-461.084	69.370	-0.146	0.149
-460.070	504.657	-0.062	0.142
-459.055	-200.000	0.028	0.473
-458.040	2.877	0.167	0.121
-457.026	-81.836	0.165	0.054
-456.011	-97.893	-0.408	-0.105
-454.997	800.000	0.090	-0.300
-453.982	-19.844	-0.386	0.237
-452.968	-150.720	-0.090	-0.007
-451.953	-133.871	0.395	0.049
-450.938	297.730	-0.099	0.181
-449.924	215.976	0.135	0.213
-448.909	-200.000	-0.020	-0.265
-447.895	-200.000	-0.050	-0.567
-446.880	-200.000	0.051	0.250
-445.865	-81.555	0.183	0.060
-444.851	57.642	0.158	0.153
-443.836	280.982	-0.091	-0.162
-442.822	181.331	-0.244	-0.357
-441.807	-200.000	0.009	0.339
-440.792	260.928	0.089	0.154
-439.778	-106.993	0.187	0.041
-438.763	194.914	-0.105	0.158
-437.749	253.711	0.081	0.138
-436.734	165.697	-0.149	-0.210
-435.719	-92.588	0.247	-0.069
-434.705	13.014	0.205	0.158
-433.690	-171.440	0.372	-0.012
-432.676	-179.880	0.162	0.003
-431.661	168.896	0.128	-0.181
-430.646	134.798	-0.069	0.090
-429.632	-60.611	0.085	-0.036
-428.617	-119.422	-0.159	0.027
-427.603	95.810	-0.150	-0.170
-426.588	-76.761	0.129	0.045
-425.573	388.650	0.117	0.242
-424.559	105.454	-0.014	-0.016
-423.544	118.012	-0.147	-0.180
-422.530	-200.000	0.044	-0.346
-421.515	-13.066	-0.333	0.215
-420.500	-68.931	-0.285	-0.109
-419.486	15.961	-0.109	0.085
-418.471	800.000	0.012	0.054
-417.457	709.198	0.115	0.302
-416.442	-121.928	0.205	-0.034
-415.428	-158.041	-0.096	0.006
-414.413	426.925	0.029	-0.061
-413.398	405.716	-0.070	0.147
-412.384	-70.340	0.264	0.100
-411.369	800.000	-0.047	0.201
-410.355	651.037	-0.108	-0.274
-409.340	-200.000	0.006	0.032
-408.325	800.000	0.100	-0.284
-407.311	4.733	-0.272	-0.198
-406.296	-62.206	0.258	0.107
-405.282	-200.000	-0.022	-0.273
-404.267	-47.024	0.353	0.171
-403.252	800.000	-0.032	0.106
-402.238	78.248	0.170	0.180
-401.223	-41.421	-0.287	-0.146
-400.209	16.715	0.153	-0.120
-399.194	-16.778	0.181	0.114
-398.179	669.578	0.057	0.146
-397.165	-200.000	0.013	-0.071
-396.150	800.000	0.081	0.237
-395.136	-4.770	-0.129	0.088
-394.121	-52.911	0.093	0.043
-393.106	-200.000	0.025	0.478
-392.092	304.467	0.071	-0.131
-391.077	53.056	0.117	0.111
-390.063	-6.007	0.008	-0.005
-389.048	1.611	-0.096	-0.068
-388.033	800.000	-0.057	0.188
-387.019	65.557	0.212	-0.213
-386.004	344.793	-0.035	-0.068
-384.990	800.000	0.058	-0.207
-383.975	-200.000	0.005	0.067
-382.960	-2.751	-0.054	-0.037
-381.946	800.000	-0.104	-0.302
-380.931	33.744	-0.228	-0.196
-379.917	393.221	-0.147	-0.303
-378.902	11.628	-0.250	0.190
-377.888	18.364	0.222	-0.176
-376.873	154.209	0.062	0.085
-375.858	46.722	-0.102	0.094
-374.844	-200.000	-0.016	-0.096
-373.829	28.974	0.150	0.126
-372.815	6.673	0.263	0.194
-371.800	5.893	-0.117	0.086
-370.785	-65.136	0.224	-0.089
-369.771	-101.710	-0.259	-0.062
-368.756	98.247	-0.130	-0.148
-367.742	-32.821	0.155	-0.085
-366.727	800.000	0.040	0.125
-365.712	-113.657	0.475	0.092
-364.698	230.423	-0.070	0.114
-363.683	-200.000	0.022	0.333
-362.669	-200.000	0.032	-0.232
-361.654	-200.000	0.015	-0.124
-360.639	326.540	-0.048	0.092
-359.625	737.237	0.063	-0.168
-358.610	-126.129	-0.257	-0.038
-357.596	-200.000	0.002	0.111
-356.581	-23.582	0.204	-0.121
-355.566	-153.563	-0.231	-0.016
-354.552	-200.000	0.006	0.064
-353.537	79.199	-0.050	0.053
-352.523	-132.142	-0.009	-0.001
-351.508	-102.639	-0.264	-0.062
-350.493	-52.400	0.243	0.112
-349.479	-146.653	0.200	-0.017
-348.464	626.608	0.104	0.260
-347.450	145.156	-0.158	0.209
-346.435	800.000	-0.050	0.198
-345.420	-200.000	0.018	0.134
-344.406	302.899	-0.148	-0.271
-343.391	-200.000	0.019	-0.141
-342.377	-51.057	0.344	-0.160
-341.362	800.000	0.038	0.143
-340.348	-103.437	-0.054	-0.013
-339.333	345.666	-0.132	0.258
-338.318	214.873	-0.315	-0.495
-337.304	199.804	-0.109	0.165
-336.289	-200.000	-0.048	0.434
-335.275	75.855	0.234	-0.245
-334.260	19.038	-0.117	-0.093
-333.245	362.312	-0.013	-0.027
-332.231	-170.460	-0.352	0.012
-331.216	80.345	0.047	-0.051
-330.202	800.000	-0.041	0.130
-329.187	-200.000	-0.073	-0.484
-328.172	275.832	0.162	-0.285
-327.158	-46.356	-0.203	0.099
-326.143	-157.548	0.113	-0.007
-325.129	54.574	0.076	0.072
-324.114	-79.571	0.230	-0.077
-323.099	-115.551	-0.242	0.045
-322.085	-143.898	0.129	0.012
-321.070	-128.607	0.117	0.016
-320.056	-77.947	0.176	0.060
-319.041	-157.167	-0.143	-0.009
-318.026	-200.000	0.002	-0.352
-317.012	-140.702	-0.079	-0.008
-315.997	800.000	-0.069	0.279
-314.983	13.490	0.343	0.264
-313.968	-200.000	0.013	0.213
-312.953	-200.000	-0.018	-0.161
-311.939	-130.800	-0.256	0.034
-310.924	-96.485	0.141	-0.037
-309.910	512.789	0.111	0.256
-308.895	-135.492	0.068	0.008
-307.880	800.000	-0.084	-0.300
-306.866	340.110	-0.082	0.158
-305.851	86.059	-0.022	0.024
-304.837	-89.858	-0.225	-0.065
-303.822	800.000	0.036	-0.156
-302.807	-131.062	0.231	0.030
-301.793	221.950	0.100	0.159
-300.778	-200.000	-0.002	0.203
-299.764	-49.245	-0.164	-0.077
-298.749	-24.818	0.177	0.104
-297.735	766.372	0.045	-0.121
-296.720	-58.373	0.173	0.074
-295.705	-19.787	-0.279	-0.171
-294.691	-125.385	0.154	0.023
-293.676	-200.000	0.028	-0.233
-292.662	398.888	0.034	0.070
-291.647	-200.000	0.015	0.110
-290.632	79.632	0.065	0.069
-289.618	-200.000	-0.033	0.336
-288.603	-200.000	0.044	0.193
-287.589	-106.309	-0.052	-0.012
-286.574	-200.000	-0.005	-0.291
-285.559	48.133	0.289	-0.267
-284.545	-60.598	0.369	-0.155
-283.530	234.254	0.119	-0.193
-282.516	141.955	-0.132	0.172
-281.501	134.617	-0.148	0.190
-280.486	-200.000	0.010	0.181
-279.472	33.524	-0.092	-0.079
-278.457	-38.470	0.321	-0.168
-277.443	153.889	0.220	0.298
-276.428	5.476	-0.049	0.036
-275.413	-127.318	0.126	-0.018
-274.399	-200.000	-0.001	0.075
-273.384	-123.529	0.311	-0.049
-272.370	-160.886	0.186	0.010
-271.355	800.000	-0.068	0.203
-270.340	800.000	0.056	-0.168
-269.326	129.955	0.174	-0.220
-268.311	-200.000	-0.032	-0.225
-267.297	800.000	-0.096	0.314
-266.282	800.000	-0.040	-0.144
-265.267	288.530	0.149	-0.266
-264.253	153.982	0.063	-0.085
-263.238	800.000	-0.069	0.190
-262.224	-48.678	0.143	-0.068
-261.209	-48.644	0.311	0.147
-260.195	-118.048	-0.459	0.081
-259.180	-160.729	-0.272	0.014
-258.165	-23.016	-0.200	-0.119
-257.151	-91.843	-0.249	-0.070
-256.136	14.557	0.417	0.321
-255.122	165.200	-0.335	0.467
-254.107	-62.236	0.156	-0.064
-253.092	-171.792	-0.128	0.004
-252.078	-40.259	-0.238	-0.122
-251.063	-139.679	-0.117	-0.012
-250.049	1.232	0.134	0.095
-249.034	518.930	0.094	-0.217
-248.019	-83.941	-0.366	0.115
-247.005	-111.819	-0.489	-0.098
-245.990	-111.825	-0.350	-0.070
-244.976	800.000	0.087	-0.260
-243.961	69.572	-0.277	0.282
-242.946	-121.504	0.154	0.025
-241.932	-70.217	0.317	0.119
-240.917	-111.176	-0.127	-0.026
-239.903	-61.910	-0.300	0.124
-238.888	-71.757	0.346	-0.127
-237.873	-101.762	0.065	0.016
-236.859	28.898	0.142	-0.119
-235.844	-55.372	-0.421	-0.186
-234.830	-33.740	-0.162	-0.088
-233.815	-95.758	-0.276	0.073
-232.800	23.890	-0.199	-0.162
-231.786	-130.568	0.422	0.056
-230.771	291.095	-0.125	-0.224
-229.757	612.564	-0.067	-0.165
-228.742	-200.000	-0.043	0.442
-227.727	74.938	-0.078	-0.081
-226.713	-200.000	-0.012	0.143
-225.698	429.342	-0.072	0.154
-224.684	12.515	0.268	0.204
-223.669	-161.886	-0.121	-0.006
-222.655	-194.842	0.290	0.002
-221.640	-200.000	0.005	0.305
-220.625	98.466	-0.096	-0.109
-219.611	-176.719	0.037	0.001
-218.596	-79.141	0.127	0.042
-217.582	-190.780	0.118	0.001
-216.567	800.000	-0.038	-0.140
-215.552	66.620	-0.289	-0.289
-214.538	-64.877	0.021	-0.008
-213.523	23.953	0.131	0.107
-212.509	170.880	0.115	-0.163
-211.494	-200.000	0.040	-0.188
-210.479	-56.455	-0.039	-0.017
-209.465	-200.000	-0.065	-0.354
-208.450	-105.926	0.459	-0.102
-207.436	-125.770	0.077	-0.012
-206.421	243.831	-0.080	-0.132
-205.406	53.065	-0.177	-0.167
-204.392	124.495	0.054	0.067
-203.377	-200.000	-0.027	0.216
-202.363	642.862	0.032	0.081
-201.348	-56.029	-0.226	0.099
-200.333	-51.068	-0.465	0.215
-199.319	800.000	-0.042	0.115
-198.304	-200.000	0.031	-0.218
-197.290	-178.572	0.279	-0.006
-196.275	800.000	-0.039	0.163
-195.260	3.564	0.192	0.138
-194.246	-32.688	-0.228	0.125
-193.231	-42.191	0.107	0.054
-192.217	-200.000	-0.075	0.364
-191.202	38.874	0.157	0.138
-190.187	-200.000	0.014	0.109
-189.173	-24.008	0.201	0.118
-188.158	60.935	-0.070	-0.068
-187.144	139.728	0.105	-0.136
-186.129	-78.830	-0.051	-0.017
-185.114	-63.251	-0.149	-0.060
-184.100	305.593	0.002	-0.004
-183.085	34.705	0.139	0.120
-182.071	-94.670	0.106	-0.028
-181.056	11.104	0.187	0.141
-180.042	378.755	-0.042	0.085
-179.027	-98.492	0.184	0.046
-178.012	-82.004	-0.515	-0.166
-176.998	-163.477	0.214	0.010
-175.983	-16.597	0.118	-0.074
-174.969	-200.000	0.061	-0.000
-173.954	-46.342	-0.392	0.190
-172.939	800.000	-0.068	0.193
-171.925	115.073	0.145	0.174
-170.910	-62.913	-0.129	-0.053
-169.896	-15.955	0.182	0.114
-168.881	67.339	-0.085	-0.086
-167.866	162.282	-0.180	-0.249
-166.852	694.556	-0.098	0.252
-165.837	-200.000	-0.021	-0.167
-164.823	-32.093	0.016	0.009
-163.808	-200.000	0.006	-0.139
-162.793	-47.743	-0.226	-0.108
-161.779	-74.806	0.508	0.179
-160.764	186.539	0.025	0.037
-159.750	-33.363	-0.076	0.041
-158.735	159.655	-0.068	0.092
-157.720	97.373	0.148	0.167
-156.706	-200.000	-0.031	0.339
-155.691	-3.376	0.215	-0.147
-154.677	-76.082	-0.354	-0.123
-153.662	-106.542	-0.157	0.034
-152.647	-50.552	-0.272	-0.126
-151.633	702.692	0.047	-0.121
-150.618	-200.000	0.052	-0.282
-149.604	118.312	0.126	0.153
-148.589	-31.718	0.095	0.052
-147.574	37.846	-0.321	-0.280
-146.560	294.543	0.173	-0.312
-145.545	208.498	-0.036	0.056
-144.531	90.134	-0.185	-0.203
-143.516	-43.151	0.348	0.173
-142.502	219.018	-0.085	0.134
-141.487	373.399	-0.123	-0.245
-140.472	-123.079	0.253	-0.040
-139.458	-200.000	-0.017	0.124
-138.443	-53.205	0.488	0.220
-137.429	800.000	-0.044	-0.179
-136.414	-200.000	0.101	-0.541
-135.399	-200.000	0.017	-0.095
-134.385	97.139	0.126	-0.142
-133.370	15.551	-0.306	-0.236
-132.356	141.607	-0.186	-0.242
-131.341	52.156	0.382	0.358
-130.326	800.000	-0.106	0.437
-129.312	336.465	0.073	-0.139
-128.297	-200.000	-0.026	-0.184
-127.283	-1.330	-0.196	-0.136
-126.268	197.832	-0.109	0.163
-125.253	135.078	-0.011	-0.015
-124.239	-9.853	-0.291	0.190
-123.224	-51.541	-0.140	0.064
-122.210	-57.427	-0.253	-0.109
