DTS Sentinel unit serial number:	SN413079Multiplexer serial number:	ORYXHardware model number:	OX4-SRSoftware version number:	ORYX F/W v4.00 Oryx Data Collector v3.7.2.0data status	okinstallation	princeton_trtdifferential loss correction	single-endedforward channel	channel 1reverse channel	N/Adate	2019/09/16time	04:22:35forward acquisition time	60.00reverse acquisition time	0.00gamma	496.2192k internal	0.2332k external	0.2332temperature offset calibration	0.9985default loss term (dB/km)	0.3790temperature slope calibration	1.0000multiplexer offset coefficient	1.0000multiplexer slope coefficient	1.0000fibre end	0.00T internal ref (°C)	27.31T ext. ref 1 (°C)	10.82T ext. ref 2 (°C)	21.39length (m)	temperature (°C)	Stokes	anti-Stokes-747.200	137.743	0.125	0.165
-746.185	-200.000	0.071	0.489
-745.171	-200.000	0.009	0.181
-744.156	-9.581	-0.221	-0.148
-743.142	186.974	-0.121	-0.181
-742.127	-23.175	-0.135	0.082
-741.112	-36.794	0.188	0.101
-740.098	-47.108	-0.293	-0.144
-739.083	6.632	0.373	0.279
-738.069	143.307	0.267	0.358
-737.054	800.000	-0.036	-0.132
-736.039	155.936	0.134	0.186
-735.025	-200.000	-0.005	-0.120
-734.010	96.100	-0.179	-0.206
-732.996	-141.763	0.147	-0.015
-731.981	34.375	-0.203	0.179
-730.966	592.731	-0.105	0.261
-729.952	-47.200	0.093	-0.045
-728.937	-174.067	0.263	-0.008
-727.923	-104.050	0.075	-0.018
-726.908	-4.605	0.201	0.139
-725.894	47.426	-0.320	0.299
-724.879	-0.666	-0.083	0.059
-723.864	66.020	-0.123	-0.126
-722.850	-137.321	0.316	0.036
-721.835	-76.744	-0.139	-0.049
-720.821	-28.929	-0.107	-0.062
-719.806	-200.000	-0.019	-0.199
-718.791	-46.588	0.039	0.019
-717.777	24.860	-0.177	0.147
-716.762	-92.829	-0.072	-0.020
-715.748	-39.966	0.267	-0.140
-714.733	87.043	-0.182	-0.203
-713.718	144.270	-0.115	-0.155
-712.704	800.000	0.073	-0.307
-711.689	-143.430	-0.338	-0.032
-710.675	800.000	0.008	-0.027
-709.660	48.042	-0.106	-0.100
-708.645	27.033	-0.148	0.125
-707.631	80.064	-0.165	-0.179
-706.616	-200.000	-0.030	-0.363
-705.602	5.004	0.301	-0.222
-704.587	3.457	0.018	-0.014
-703.572	800.000	0.090	0.348
-702.558	387.991	0.183	0.380
-701.543	-88.795	0.148	-0.044
-700.529	-47.596	-0.187	-0.091
-699.514	2.624	0.270	0.196
-698.499	-14.101	0.096	0.062
-697.485	800.000	-0.006	-0.019
-696.470	20.486	0.156	-0.126
-695.456	-139.263	-0.422	-0.046
-694.441	-200.000	0.033	0.184
-693.426	51.602	0.173	-0.165
-692.412	800.000	0.058	-0.192
-691.397	21.637	0.111	-0.091
-690.383	-200.000	-0.020	0.241
-689.368	-200.000	-0.025	-0.367
-688.354	87.253	-0.249	-0.276
-687.339	118.070	-0.156	0.193
-686.324	-200.000	-0.021	-0.107
-685.310	-83.116	0.080	-0.026
-684.295	-168.594	-0.151	0.006
-683.281	-200.000	-0.008	0.088
-682.266	-134.219	0.193	0.024
-681.251	-200.000	-0.022	-0.105
-680.237	-200.000	-0.008	-0.255
-679.222	-67.034	-0.129	0.051
-678.208	-71.382	0.306	0.115
-677.193	201.905	-0.050	-0.077
-676.178	81.089	-0.163	-0.177
-675.164	-99.699	-0.217	0.055
-674.149	116.522	0.138	-0.169
-673.135	800.000	-0.065	-0.193
-672.120	-200.000	-0.024	-0.527
-671.105	-200.000	0.009	-0.325
-670.091	145.885	-0.126	0.170
-669.076	54.647	-0.117	0.114
-668.062	-40.775	-0.119	0.062
-667.047	-46.516	-0.027	-0.013
-666.032	800.000	-0.049	-0.191
-665.018	41.373	0.089	0.080
-664.003	12.606	-0.203	0.157
-662.989	-200.000	0.018	-0.313
-661.974	199.588	0.179	-0.275
-660.959	-200.000	0.022	-0.203
-659.945	121.331	-0.296	-0.370
-658.930	-200.000	-0.014	0.083
-657.916	-111.512	0.194	0.040
-656.901	-86.155	0.156	0.048
-655.886	-200.000	-0.071	-0.372
-654.872	71.522	-0.192	0.200
-653.857	800.000	-0.056	-0.188
-652.843	-200.000	-0.039	-0.379
-651.828	800.000	0.077	-0.309
-650.814	171.511	-0.130	0.187
-649.799	-55.394	0.099	0.044
-648.784	800.000	-0.044	0.171
-647.770	-125.451	-0.166	-0.025
-646.755	800.000	-0.028	-0.087
-645.741	-95.559	-0.273	0.073
-644.726	36.555	-0.159	-0.140
-643.711	23.545	0.177	0.146
-642.697	-81.002	0.228	-0.076
-641.682	15.164	0.310	-0.243
-640.668	-200.000	-0.037	-0.331
-639.653	179.251	0.070	-0.103
-638.638	-141.393	0.224	-0.023
-637.624	-200.000	-0.020	-0.253
-636.609	53.210	0.206	-0.198
-635.595	800.000	0.050	0.178
-634.580	-200.000	0.029	0.209
-633.565	-200.000	-0.015	0.198
-632.551	-200.000	0.006	-0.029
-631.536	314.025	-0.057	-0.107
-630.522	-200.000	-0.007	0.271
-629.507	-69.720	-0.342	0.131
-628.492	800.000	-0.038	0.125
-627.478	800.000	-0.018	-0.070
-626.463	-200.000	0.005	0.067
-625.449	-123.945	-0.527	-0.083
-624.434	163.545	0.039	-0.055
-623.419	800.000	0.021	0.064
-622.405	406.428	0.137	-0.290
-621.390	-200.000	-0.014	0.089
-620.376	-137.719	0.189	0.021
-619.361	280.622	-0.097	0.174
-618.346	800.000	0.042	-0.170
-617.332	-85.676	0.163	0.051
-616.317	59.177	0.208	0.204
-615.303	-88.784	0.070	0.021
-614.288	30.581	0.127	0.109
-613.273	47.299	-0.071	-0.066
-612.259	-200.000	-0.063	-0.297
-611.244	800.000	-0.058	-0.171
-610.230	-141.042	0.021	0.002
-609.215	83.962	-0.119	0.130
-608.201	49.798	-0.008	0.007
-607.186	-136.996	-0.234	0.027
-606.171	12.677	0.204	0.157
-605.157	-80.514	-0.195	-0.065
-604.142	18.649	-0.096	-0.077
-603.128	-6.139	-0.090	0.061
-602.113	800.000	-0.092	-0.302
-601.098	439.533	-0.015	-0.034
-600.084	29.441	-0.196	-0.167
-599.069	800.000	-0.035	-0.109
-598.055	409.744	0.115	0.245
-597.040	-127.874	-0.161	0.023
-596.025	12.373	0.150	-0.116
-595.011	800.000	0.093	0.357
-593.996	125.101	0.198	0.249
-592.982	-33.920	0.155	-0.085
-591.967	76.181	0.070	0.074
-590.952	-115.879	0.218	0.041
-589.938	-110.330	0.266	-0.055
-588.923	-200.000	0.016	-0.138
-587.909	84.298	0.079	0.086
-586.894	310.982	-0.138	-0.259
-585.879	-26.778	-0.210	0.123
-584.865	-51.306	0.046	0.021
-583.850	-200.000	0.003	0.144
-582.836	-129.359	-0.239	0.033
-581.821	-166.958	-0.012	0.000
-580.806	800.000	-0.038	0.119
-579.792	-200.000	0.055	0.412
-578.777	166.203	-0.068	0.097
-577.763	45.505	-0.049	-0.045
-576.748	-200.000	0.000	0.055
-575.733	17.177	0.076	-0.060
-574.719	-133.524	-0.219	0.027
-573.704	165.336	0.025	0.035
-572.690	-28.396	-0.199	0.115
-571.675	36.609	-0.102	0.090
-570.661	193.285	0.055	0.084
-569.646	144.679	-0.085	0.114
-568.631	-16.377	-0.150	0.095
-567.617	-200.000	0.005	-0.106
-566.602	-95.562	0.357	0.096
-565.588	713.007	0.094	0.249
-564.573	-18.382	-0.170	0.106
-563.558	800.000	-0.040	0.166
-562.544	-200.000	0.055	0.579
-561.529	52.489	0.209	0.199
-560.515	56.193	-0.061	-0.059
-559.500	95.817	-0.220	-0.251
-558.485	500.023	-0.070	-0.160
-557.471	228.375	-0.211	-0.343
-556.456	-14.901	0.073	-0.047
-555.442	-21.362	0.196	0.119
-554.427	-50.142	-0.393	-0.186
-553.412	-149.393	-0.156	-0.012
-552.398	105.477	-0.080	0.095
-551.383	-47.273	-0.084	0.041
-550.369	342.181	0.076	-0.148
-549.354	180.819	0.163	-0.239
-548.339	-160.218	-0.313	0.017
-547.325	800.000	0.072	0.265
-546.310	-181.223	-0.291	0.006
-545.296	-24.500	-0.120	0.071
-544.281	-105.440	-0.106	-0.024
-543.266	56.235	0.343	0.333
-542.252	220.458	-0.028	0.045
-541.237	-88.722	0.318	0.094
-540.223	-18.497	0.166	0.103
-539.208	800.000	-0.110	0.429
-538.193	800.000	0.044	0.134
-537.179	-117.024	0.254	0.046
-536.164	-54.979	0.209	0.094
-535.150	-94.540	0.158	0.043
-534.135	37.034	-0.210	0.185
-533.121	175.914	0.103	-0.149
-532.106	800.000	0.058	0.225
-531.091	64.975	0.135	-0.136
-530.077	800.000	0.080	-0.261
-529.062	800.000	0.040	-0.170
-528.048	-200.000	-0.011	-0.052
-527.033	288.159	0.076	-0.138
-526.018	-7.952	-0.237	0.159
-525.004	-76.258	0.220	0.077
-523.989	0.403	0.149	0.106
-522.975	51.877	-0.226	0.214
-521.960	125.634	-0.098	0.123
-520.945	44.311	-0.113	-0.104
-519.931	318.405	-0.014	-0.027
-518.916	-12.635	0.361	0.235
-517.902	115.358	0.182	0.221
-516.887	-99.799	0.399	0.100
-515.872	-189.512	-0.280	0.003
-514.858	-182.194	0.578	-0.011
-513.843	-200.000	-0.031	0.195
-512.829	-56.489	0.150	0.067
-511.814	-200.000	-0.153	0.000
-510.799	-154.170	-0.196	0.013
-509.785	-0.446	-0.005	-0.004
-508.770	-56.712	-0.203	-0.089
-507.756	115.534	0.057	-0.070
-506.741	-100.527	0.121	0.030
-505.726	-47.599	-0.307	0.149
-504.712	336.450	-0.127	-0.246
-503.697	-200.000	-0.049	-0.216
-502.683	-179.054	-0.044	-0.001
-501.668	800.000	0.064	0.234
-500.653	-1.651	0.113	-0.079
-499.639	-4.782	0.191	-0.131
-498.624	-3.658	-0.145	0.100
-497.610	26.925	-0.088	-0.073
-496.595	-200.000	-0.003	0.014
-495.581	-35.077	0.175	0.095
-494.566	117.499	-0.158	0.194
-493.551	34.353	-0.168	0.146
-492.537	195.073	-0.088	0.134
-491.522	-100.539	-0.410	-0.101
-490.508	40.520	-0.151	-0.135
-489.493	-200.000	0.032	-0.356
-488.478	96.183	0.196	-0.223
-487.464	-200.000	0.024	-0.131
-486.449	398.892	-0.088	0.184
-485.435	-200.000	-0.013	0.085
-484.420	800.000	-0.044	-0.164
-483.405	149.461	0.070	0.094
-482.391	-83.154	0.083	0.026
-481.376	-53.742	0.258	-0.117
-480.362	-200.000	0.030	-0.372
-479.347	-132.872	-0.238	0.030
-478.332	-200.000	0.033	-0.156
-477.318	-22.354	-0.158	0.096
-476.303	-92.595	-0.328	-0.092
-475.289	174.034	-0.186	0.268
-474.274	13.718	-0.215	-0.166
-473.259	71.593	0.081	-0.084
-472.245	17.188	-0.202	0.160
-471.230	12.312	-0.223	0.171
-470.216	106.521	-0.128	-0.151
-469.201	-51.320	-0.376	0.175
-468.186	234.717	-0.112	-0.184
-467.172	204.553	-0.141	0.218
-466.157	553.713	-0.129	-0.308
-465.143	528.122	0.111	0.260
-464.128	291.183	0.129	-0.234
-463.113	-12.874	0.125	-0.081
-462.099	116.609	-0.054	0.066
-461.084	-79.362	0.141	-0.047
-460.070	138.865	0.122	-0.159
-459.055	-200.000	-0.005	0.094
-458.040	-200.000	-0.004	-0.237
-457.026	-39.840	0.347	-0.180
-456.011	-114.577	-0.432	0.082
-454.997	-24.977	0.166	0.098
-453.982	-154.013	0.060	0.004
-452.968	-65.974	-0.189	-0.075
-451.953	320.618	-0.113	0.213
-450.938	34.744	0.192	-0.167
-449.924	-97.985	0.300	-0.077
-448.909	-200.000	0.007	0.125
-447.895	-149.695	-0.191	-0.015
-446.880	382.988	0.062	0.126
-445.865	-200.000	0.027	0.189
-444.851	-73.385	0.079	0.029
-443.836	-71.083	-0.144	-0.054
-442.822	144.337	0.158	-0.210
-441.807	800.000	0.015	0.059
-440.792	-200.000	-0.003	-0.164
-439.778	-200.000	0.039	-0.399
-438.763	190.885	0.167	-0.250
-437.749	-77.343	0.143	0.049
-436.734	-39.360	-0.224	-0.117
-435.719	800.000	-0.149	-0.493
-434.705	-200.000	0.036	-0.256
-433.690	774.922	-0.215	0.584
-432.676	-93.433	-0.057	-0.016
-431.661	800.000	0.019	0.074
-430.646	52.059	-0.046	0.044
-429.632	800.000	0.048	-0.198
-428.617	44.626	0.059	-0.054
-427.603	89.416	0.135	-0.149
-426.588	-108.798	-0.047	0.010
-425.573	129.346	-0.048	-0.061
-424.559	301.269	-0.126	0.231
-423.544	541.551	0.055	-0.129
-422.530	800.000	-0.071	0.197
-421.515	52.065	-0.118	-0.112
-420.500	-200.000	0.014	0.067
-419.486	530.732	-0.091	-0.213
-418.471	-163.916	0.365	-0.017
-417.457	-200.000	0.019	-0.119
-416.442	-200.000	0.026	0.190
-415.428	66.522	-0.052	-0.053
-414.413	-200.000	0.042	0.209
-413.398	200.095	-0.130	-0.198
-412.384	-96.531	-0.117	-0.031
-411.369	-76.640	-0.065	0.023
-410.355	-40.356	0.328	-0.169
-409.340	-200.000	-0.023	-0.118
-408.325	-22.473	0.149	0.089
-407.311	160.301	0.117	0.163
-406.296	800.000	0.051	-0.147
-405.282	-95.320	0.286	0.076
-404.267	-200.000	-0.018	-0.174
-403.252	-200.000	0.034	0.329
-402.238	-200.000	0.019	-0.106
-401.223	8.739	-0.358	-0.268
-400.209	-118.788	0.196	0.034
-399.194	18.975	-0.102	0.081
-398.179	800.000	0.064	0.227
-397.165	-124.004	0.238	-0.037
-396.150	-21.132	0.269	0.163
-395.136	38.274	-0.063	-0.056
-394.121	8.871	0.237	-0.178
-393.106	-5.798	0.386	-0.262
-392.092	52.026	0.082	-0.078
-391.077	-200.000	-0.052	0.331
-390.063	-106.389	-0.120	0.027
-389.048	70.403	-0.102	-0.104
-388.033	-109.651	0.231	0.048
-387.019	-200.000	-0.020	-0.126
-386.004	-155.938	0.236	-0.015
-384.990	-200.000	-0.042	0.190
-383.975	-112.575	-0.015	0.003
-382.960	53.454	-0.216	0.205
-381.946	161.839	0.155	0.216
-380.931	-37.392	0.100	0.053
-379.917	-66.837	0.241	-0.095
-378.902	-200.000	0.030	-0.132
-377.888	-200.000	-0.022	-0.236
-376.873	-200.000	-0.010	-0.154
-375.858	351.171	-0.091	0.180
-374.844	-200.000	-0.000	-0.126
-373.829	-128.856	-0.246	0.034
-372.815	72.373	-0.103	0.106
-371.800	32.264	0.289	-0.247
-370.785	145.379	-0.057	-0.076
-369.771	179.425	-0.189	-0.274
-368.756	800.000	-0.058	-0.238
-367.742	-69.172	-0.217	-0.083
-366.727	-200.000	0.017	0.229
-365.712	129.853	-0.104	-0.132
-364.698	-105.806	0.454	-0.102
-363.683	-62.281	0.130	0.054
-362.669	18.145	-0.122	-0.096
-361.654	-38.212	-0.078	-0.041
-360.639	800.000	0.044	0.130
-359.625	-200.000	0.015	0.129
-358.610	-78.494	-0.346	0.117
-357.596	-160.698	0.234	0.012
-356.581	800.000	-0.018	0.067
-355.566	8.606	0.132	-0.099
-354.552	-200.000	-0.019	-0.163
-353.537	187.718	0.118	-0.175
-352.523	800.000	-0.062	-0.179
-351.508	429.141	-0.211	-0.452
-350.493	132.582	-0.028	0.036
-349.479	-130.641	0.512	0.068
-348.464	-125.436	-0.110	-0.017
-347.450	-117.803	-0.318	0.057
-346.435	241.353	0.192	0.318
-345.420	186.996	0.080	0.118
-344.406	45.843	-0.253	-0.232
-343.391	58.423	-0.180	-0.174
-342.377	-91.866	0.122	0.034
-341.362	-200.000	-0.003	0.178
-340.348	95.783	0.117	-0.132
-339.333	-2.554	0.062	0.043
-338.318	168.984	-0.125	0.177
-337.304	456.663	-0.106	-0.234
-336.289	341.142	0.030	0.058
-335.275	104.106	0.309	-0.359
-334.260	-200.000	0.034	-0.367
-333.245	-200.000	-0.030	0.204
-332.231	394.871	0.183	0.379
-331.216	800.000	0.030	-0.094
-330.202	-39.913	-0.169	-0.087
-329.187	-32.898	-0.213	-0.117
-328.172	245.215	0.215	-0.358
-327.158	-4.825	-0.033	0.023
-326.143	-200.000	0.029	0.265
-325.129	99.315	-0.058	-0.067
-324.114	661.295	0.114	-0.291
-323.099	800.000	0.064	-0.195
-322.085	-3.865	0.142	-0.097
-321.070	244.129	0.056	-0.094
-320.056	-118.076	-0.088	-0.016
-319.041	800.000	-0.091	-0.289
-318.026	-106.732	-0.105	-0.023
-317.012	-48.677	0.098	0.047
-315.997	55.320	0.162	-0.155
-314.983	-98.129	0.008	0.002
-313.968	800.000	0.031	-0.119
-312.953	-71.156	-0.186	0.069
-311.939	-32.934	-0.160	-0.088
-310.924	282.734	0.041	-0.074
-309.910	-130.383	-0.298	-0.040
-308.895	-98.006	0.384	0.098
-307.880	434.245	-0.051	-0.110
-306.866	-174.416	-0.109	0.003
-305.851	533.395	0.048	0.114
-304.837	-147.258	-0.185	0.016
-303.822	-118.971	0.288	0.050
-302.807	800.000	-0.114	-0.403
-301.793	553.571	0.084	-0.200
-300.778	800.000	-0.110	0.410
-299.764	-106.214	-0.141	0.031
-298.749	122.564	-0.132	0.163
-297.735	-139.028	0.346	-0.037
-296.720	355.105	-0.115	0.225
-295.705	800.000	-0.058	0.241
-294.691	800.000	-0.117	-0.416
-293.676	4.576	-0.177	-0.128
-292.662	-134.130	0.128	0.016
-291.647	-100.299	-0.255	0.063
-290.632	-159.248	0.348	-0.019
-289.618	-31.763	-0.093	-0.052
-288.603	-148.511	0.064	0.005
-287.589	-160.058	-0.446	-0.024
-286.574	-123.269	0.159	-0.025
-285.559	-37.063	-0.257	-0.136
-284.545	158.815	0.182	-0.250
-283.530	-35.151	0.275	-0.148
-282.516	164.404	-0.049	-0.068
-281.501	800.000	0.054	-0.195
-280.486	2.844	0.113	0.081
-279.472	-184.927	-0.358	-0.006
-278.457	46.239	0.123	-0.113
-277.443	385.722	-0.106	-0.216
-276.428	-39.385	-0.032	-0.016
-275.413	-45.224	-0.142	-0.070
-274.399	272.233	-0.043	-0.075
-273.384	-104.104	-0.268	-0.062
-272.370	27.475	0.123	-0.102
-271.355	-105.119	0.215	0.049
-270.340	-58.117	0.253	-0.109
-269.326	417.760	-0.062	0.131
-268.311	-142.437	-0.218	0.021
-267.297	-200.000	0.015	0.375
-266.282	6.734	0.175	-0.129
-265.267	-145.961	-0.092	0.008
-264.253	675.399	0.082	0.209
-263.238	800.000	0.022	0.068
-262.224	-38.596	0.240	-0.125
-261.209	212.249	-0.119	0.185
-260.195	284.458	-0.146	0.259
-259.180	141.794	0.271	0.354
-258.165	-126.616	-0.248	0.036
-257.151	-200.000	0.002	0.175
-256.136	321.344	0.061	-0.115
-255.122	9.864	0.183	0.137
-254.107	-200.000	-0.024	0.310
-253.092	-105.410	0.048	-0.011
-252.078	-200.000	0.001	0.098
-251.063	103.409	-0.202	0.233
-250.049	-3.134	-0.097	-0.067
-249.034	800.000	0.052	0.209
-248.019	-200.000	0.091	0.482
-247.005	-110.583	0.132	0.027
-245.990	610.035	-0.194	-0.478
-244.976	-101.368	0.265	0.064
-243.961	103.278	0.143	0.166
-242.946	42.183	-0.098	-0.088
-241.932	159.479	-0.159	-0.218
-240.917	-38.254	-0.066	-0.034
-239.903	-65.935	-0.200	-0.079
-238.888	18.742	0.143	0.113
-237.873	10.337	-0.109	0.082
-236.859	-9.447	0.321	-0.211
-235.844	135.970	0.116	-0.149
-234.830	179.079	0.114	-0.165
-233.815	-200.000	-0.036	-0.299
-232.800	4.522	-0.435	-0.315
-231.786	-44.324	-0.208	0.103
-230.771	-200.000	0.012	0.085
-229.757	152.270	0.062	-0.083
-228.742	20.943	-0.268	0.214
-227.727	-6.612	-0.301	-0.202
-226.713	-180.888	0.211	0.004
-225.698	42.146	-0.220	0.197
-224.684	14.395	0.345	0.265
-223.669	48.070	-0.292	0.269
-222.655	352.108	0.013	0.026
-221.640	-146.700	0.309	0.026
-220.625	-200.000	-0.035	0.224
-219.611	437.779	0.090	-0.193
-218.596	252.451	-0.122	0.205
-217.582	-43.676	0.110	0.055
-216.567	30.940	0.162	-0.137
-215.552	96.469	-0.024	-0.027
-214.538	-62.617	0.156	-0.064
-213.523	114.593	0.014	0.016
-212.509	-123.676	0.159	0.025
-211.494	-95.503	-0.275	0.073
-210.479	-63.670	0.242	-0.098
-209.465	133.366	-0.115	-0.146
-208.450	475.524	-0.079	-0.175
-207.436	-3.921	-0.144	0.098
-206.421	299.047	-0.157	0.284
-205.406	48.288	0.347	0.320
-204.392	-137.162	0.114	0.013
-203.377	-172.048	-0.246	0.008
-202.363	1.173	-0.266	0.188
-201.348	-200.000	-0.003	-0.068
-200.333	91.784	-0.319	0.354
-199.319	-97.949	0.164	0.042
-198.304	-200.000	-0.008	0.208
-197.290	-29.662	-0.195	0.109
-196.275	54.836	0.019	0.018
-195.260	800.000	-0.081	0.227
-194.246	-200.000	0.024	0.440
-193.231	108.739	0.110	0.130
-192.217	28.889	-0.162	-0.135
-191.202	800.000	0.082	0.297
-190.187	-152.772	-0.167	-0.012
-189.173	107.897	0.130	0.152
-188.158	10.828	-0.165	0.124
-187.144	-22.945	0.194	0.115
-186.129	8.339	-0.163	0.121
-185.114	-77.597	0.195	0.066
-184.100	302.242	0.059	0.107
-183.085	-200.000	0.014	-0.148
-182.071	-145.106	-0.090	0.008
-181.056	-200.000	-0.022	-0.280
-180.042	-85.510	-0.158	-0.048
-179.027	-200.000	0.039	0.196
-178.012	352.992	0.018	-0.035
-176.998	507.184	0.070	-0.161
-175.983	-52.862	-0.403	-0.182
-174.969	-200.000	0.031	-0.201
-173.954	-74.783	-0.306	-0.108
-172.939	765.309	0.049	-0.130
-171.925	-77.753	-0.122	0.042
-170.910	-17.906	0.362	0.223
-169.896	-200.000	0.015	0.204
-168.881	679.696	0.056	0.142
-167.866	-43.062	-0.260	0.130
-166.852	90.075	-0.203	-0.223
-165.837	181.141	0.158	0.228
-164.823	81.611	0.097	-0.103
-163.808	800.000	-0.084	-0.271
-162.793	800.000	-0.068	-0.204
-161.779	37.647	0.121	0.105
-160.764	160.316	0.163	-0.223
-159.750	800.000	0.023	0.072
-158.735	274.597	0.127	-0.222
-157.720	-1.794	-0.196	-0.136
-156.706	-150.654	0.388	-0.029
-155.691	800.000	0.023	-0.074
-154.677	-115.590	-0.147	-0.027
-153.662	-173.042	0.266	0.008
-152.647	-105.980	0.396	0.088
-151.633	-64.046	0.380	-0.153
-150.618	-200.000	-0.060	0.341
-149.604	-81.805	-0.250	-0.081
-148.589	532.761	0.132	0.306
-147.574	-200.000	-0.011	0.068
-146.560	-164.093	-0.391	0.018
-145.545	600.449	0.062	-0.152
-144.531	-200.000	0.000	0.069
-143.516	350.875	-0.164	-0.318
-142.502	-200.000	-0.022	-0.175
-141.487	800.000	-0.064	-0.205
-140.472	192.251	0.129	0.191
-139.458	57.000	-0.091	0.087
-138.443	-131.440	-0.064	0.008
-137.429	235.150	-0.071	-0.114
-136.414	152.693	0.118	-0.158
-135.399	277.338	0.145	-0.254
-134.385	282.013	0.093	-0.164
-133.370	800.000	0.013	0.049
-132.356	-200.000	0.076	0.329
-131.341	9.758	0.077	-0.057
-130.326	-81.358	-0.176	-0.057
-129.312	440.931	0.092	0.198
-128.297	104.477	0.224	0.259
-127.283	-200.000	-0.052	-0.256
-126.268	-151.062	0.075	-0.006
-125.253	-136.179	-0.147	-0.017
-124.239	-168.451	0.494	-0.019
-123.224	-27.885	0.120	-0.068
-122.210	161.902	-0.153	-0.211
-121.195	1.377	0.125	-0.088
