DTS Sentinel unit serial number:	SN413079Multiplexer serial number:	ORYXHardware model number:	OX4-SRSoftware version number:	ORYX F/W v4.00 Oryx Data Collector v3.7.2.0data status	okinstallation	princeton_trtdifferential loss correction	single-endedforward channel	channel 1reverse channel	N/Adate	2019/09/17time	11:54:35forward acquisition time	60.00reverse acquisition time	0.00gamma	496.2192k internal	0.2322k external	0.2322temperature offset calibration	0.9980default loss term (dB/km)	0.3790temperature slope calibration	1.0000multiplexer offset coefficient	1.0000multiplexer slope coefficient	1.0000fibre end	0.00T internal ref (°C)	31.00T ext. ref 1 (°C)	0.43T ext. ref 2 (°C)	27.02length (m)	temperature (°C)	Stokes	anti-Stokes-747.200	-29.555	-0.091	0.052
-746.185	9.753	-0.508	0.389
-745.171	-200.000	-0.017	0.309
-744.156	43.258	0.238	0.219
-743.142	18.804	-0.173	-0.140
-742.127	800.000	0.101	0.294
-741.112	266.644	0.103	-0.182
-740.098	211.425	0.075	0.119
-739.083	-145.507	-0.500	0.045
-738.069	-200.000	-0.015	-0.205
-737.054	143.201	-0.033	0.044
-736.039	-19.239	-0.152	0.095
-735.025	162.428	0.155	0.220
-734.010	-142.929	0.374	-0.037
-732.996	-111.021	-0.346	0.072
-731.981	-107.872	0.253	-0.056
-730.966	204.807	0.038	-0.059
-729.952	-120.663	0.091	0.016
-728.937	-137.882	-0.128	-0.014
-727.923	-200.000	0.014	-0.195
-726.908	800.000	0.047	-0.154
-725.894	-180.860	-0.482	0.010
-724.879	91.210	-0.124	0.140
-723.864	-107.333	-0.340	-0.076
-722.850	128.727	0.182	-0.234
-721.835	-200.000	0.012	-0.166
-720.821	-200.000	0.017	0.159
-719.806	158.599	-0.180	-0.252
-718.791	9.288	0.106	-0.081
-717.777	-200.000	0.026	-0.136
-716.762	-80.717	0.297	0.100
-715.748	-26.786	-0.156	-0.092
-714.733	-125.636	-0.179	-0.027
-713.718	1.028	-0.343	-0.248
-712.704	-200.000	0.011	-0.052
-711.689	-63.106	0.315	-0.131
-710.675	320.945	0.065	0.125
-709.660	800.000	-0.022	-0.090
-708.645	-84.708	-0.406	-0.129
-707.631	149.517	-0.108	0.147
-706.616	113.417	0.093	-0.114
-705.602	-50.557	-0.132	0.063
-704.587	-9.915	-0.080	-0.054
-703.572	-62.499	-0.269	-0.113
-702.558	-200.000	-0.045	0.312
-701.543	-200.000	-0.032	-0.418
-700.529	-144.798	-0.354	-0.033
-699.514	800.000	0.118	-0.397
-698.499	-147.234	-0.276	0.024
-697.485	-122.347	-0.334	0.055
-696.470	-92.911	0.091	0.026
-695.456	-21.866	-0.245	0.150
-694.441	71.583	-0.107	-0.112
-693.426	28.336	-0.200	-0.171
-692.412	15.251	-0.290	0.229
-691.397	146.604	0.185	0.250
-690.383	-200.000	0.075	0.477
-689.368	212.975	0.064	0.102
-688.354	57.965	-0.146	-0.144
-687.339	-186.833	-0.247	0.003
-686.324	43.672	-0.136	-0.125
-685.310	186.141	-0.099	-0.148
-684.295	-96.559	0.029	-0.008
-683.281	-134.340	0.171	-0.021
-682.266	-17.879	0.154	-0.097
-681.251	3.629	0.179	-0.132
-680.237	614.334	-0.062	-0.157
-679.222	-168.505	-0.468	0.018
-678.208	-102.154	0.174	0.042
-677.193	-85.504	-0.352	-0.110
-676.178	123.819	0.088	0.112
-675.164	66.532	0.159	0.163
-674.149	-40.589	-0.039	-0.020
-673.135	118.198	0.074	-0.092
-672.120	107.711	-0.098	-0.118
-671.105	800.000	0.018	0.069
-670.091	-92.847	-0.241	-0.068
-669.076	-53.817	-0.196	-0.090
-668.062	-62.927	0.201	-0.084
-667.047	-137.095	0.078	0.009
-666.032	253.192	-0.084	0.145
-665.018	-177.758	-0.285	-0.007
-664.003	-79.907	-0.095	0.032
-662.989	-108.188	0.081	-0.018
-661.974	-167.653	0.147	-0.006
-660.959	-200.000	0.141	0.624
-659.945	673.499	0.137	0.359
-658.930	12.616	0.554	-0.431
-657.916	117.456	-0.128	0.158
-656.901	-68.461	-0.255	-0.100
-655.886	-135.036	-0.357	-0.043
-654.872	107.762	0.090	-0.108
-653.857	-1.776	0.291	-0.206
-652.843	-200.000	0.037	-0.321
-651.828	-200.000	0.005	-0.064
-650.814	33.979	-0.233	0.205
-649.799	-178.172	0.385	-0.009
-648.784	-170.559	0.304	-0.011
-647.770	51.105	-0.170	0.163
-646.755	-200.000	-0.035	0.282
-645.741	-96.484	0.131	0.035
-644.726	143.354	-0.144	-0.193
-643.711	28.698	-0.236	0.201
-642.697	28.237	-0.321	0.273
-641.682	-108.496	0.228	-0.049
-640.668	-63.084	0.277	-0.115
-639.653	-155.125	-0.376	-0.025
-638.638	-129.090	-0.259	-0.036
-637.624	13.851	-0.207	0.162
-636.609	-34.169	0.028	0.015
-635.595	-159.227	0.474	-0.027
-634.580	82.685	0.041	-0.045
-633.565	800.000	0.023	-0.085
-632.551	-58.373	-0.289	-0.127
-631.536	129.228	0.056	0.072
-630.522	-111.146	0.235	0.048
-629.507	152.025	-0.107	-0.147
-628.492	-44.009	-0.120	0.061
-627.478	-79.581	0.497	-0.169
-626.463	41.644	-0.067	-0.061
-625.449	-41.912	0.395	0.203
-624.434	339.375	0.159	-0.311
-623.419	82.929	0.265	-0.289
-622.405	-76.136	0.167	0.059
-621.390	-4.392	-0.572	0.398
-620.376	527.308	-0.103	-0.244
-619.361	-83.330	-0.148	0.048
-618.346	-70.228	0.211	0.081
-617.332	-108.681	-0.248	-0.054
-616.317	-79.086	-0.158	0.054
-615.303	-82.928	-0.224	-0.073
-614.288	102.001	0.237	0.278
-613.273	-200.000	0.022	0.293
-612.259	800.000	-0.081	0.244
-611.244	42.187	0.065	-0.060
-610.230	-105.956	-0.262	0.059
-609.215	-200.000	-0.015	-0.074
-608.201	520.923	-0.171	0.403
-607.186	16.598	0.106	0.085
-606.171	134.437	0.052	-0.068
-605.157	-78.075	0.199	-0.069
-604.142	-34.560	0.164	-0.090
-603.128	13.211	-0.168	-0.131
-602.113	-34.922	0.050	0.028
-601.098	14.611	0.106	-0.084
-600.084	-53.680	0.040	0.018
-599.069	-12.274	-0.190	-0.125
-598.055	-200.000	0.091	0.000
-597.040	-109.211	0.281	0.060
-596.025	-65.741	-0.216	0.087
-595.011	122.000	-0.172	-0.216
-593.996	-200.000	0.142	-0.001
-592.982	-124.419	-0.132	-0.021
-591.967	800.000	-0.135	0.407
-590.952	-21.937	0.093	0.057
-589.938	528.835	-0.070	-0.165
-588.923	-143.128	0.202	-0.020
-587.909	94.430	0.121	-0.138
-586.894	-200.000	-0.022	0.123
-585.879	7.098	-0.159	0.119
-584.865	1.646	-0.296	0.214
-583.850	-200.000	-0.030	0.192
-582.836	-200.000	0.022	-0.213
-581.821	-96.979	-0.075	-0.020
-580.806	-35.144	0.176	0.096
-579.792	-185.093	0.223	-0.004
-578.777	10.807	0.233	0.178
-577.763	-200.000	-0.012	-0.459
-576.748	153.793	-0.146	0.201
-575.733	375.497	0.036	-0.075
-574.719	100.417	-0.125	0.146
-573.704	229.177	-0.035	0.057
-572.690	800.000	-0.076	-0.242
-571.675	-114.572	-0.203	0.039
-570.661	26.247	0.172	0.144
-569.646	141.566	-0.163	-0.217
-568.631	-103.566	0.208	0.049
-567.617	-133.189	-0.161	0.020
-566.602	16.999	0.084	0.066
-565.588	230.807	-0.067	-0.111
-564.573	-22.610	-0.224	0.136
-563.558	22.112	0.133	-0.109
-562.544	-5.773	0.074	0.051
-561.529	-131.206	0.280	0.037
-560.515	343.709	-0.133	-0.261
-559.500	7.460	-0.165	0.124
-558.485	-200.000	0.007	-0.109
-557.471	186.268	-0.138	0.206
-556.456	118.729	0.162	-0.201
-555.442	152.205	0.084	0.115
-554.427	-200.000	0.014	-0.124
-553.412	-66.189	-0.225	-0.090
-552.398	171.549	0.160	-0.231
-551.383	-2.469	-0.071	0.050
-550.369	392.710	-0.118	-0.246
-549.354	29.862	0.178	-0.152
-548.339	91.408	-0.030	-0.034
-547.325	-159.696	-0.025	0.001
-546.310	800.000	0.065	-0.185
-545.296	-71.331	0.208	0.078
-544.281	-105.468	0.296	0.068
-543.266	-200.000	-0.031	-0.292
-542.252	-27.652	0.147	-0.086
-541.237	-23.071	0.067	-0.040
-540.223	-7.622	0.010	-0.007
-539.208	10.799	-0.253	0.193
-538.193	-113.975	0.121	0.024
-537.179	-110.844	-0.441	0.091
-536.164	316.811	-0.022	-0.042
-535.150	678.211	-0.021	-0.055
-534.135	310.724	0.157	0.295
-533.121	-200.000	0.001	-0.137
-532.106	161.766	0.019	0.027
-531.091	-200.000	0.070	-0.392
-530.077	-200.000	0.009	0.171
-529.062	-84.590	-0.159	0.050
-528.048	298.931	-0.123	-0.227
-527.033	-59.464	0.140	0.060
-526.018	26.742	0.237	0.199
-525.004	4.167	0.079	0.058
-523.989	270.853	-0.055	-0.097
-522.975	-52.123	-0.151	0.070
-521.960	-200.000	0.040	0.338
-520.945	800.000	-0.046	0.182
-519.931	24.277	-0.166	0.137
-518.916	-154.386	0.301	0.020
-517.902	-158.112	-0.360	0.021
-516.887	497.101	0.126	0.291
-515.872	-91.133	0.267	-0.077
-514.858	-120.823	-0.097	-0.016
-513.843	140.036	-0.085	-0.112
-512.829	238.472	0.117	-0.195
-511.814	-142.148	-0.123	-0.012
-510.799	-39.385	-0.375	-0.197
-509.785	-24.589	0.284	0.169
-508.770	800.000	0.076	0.244
-507.756	-200.000	-0.015	-0.213
-506.741	-200.000	-0.076	0.702
-505.726	173.261	0.159	0.230
-504.712	-8.805	0.088	0.059
-503.697	-171.775	-0.125	-0.004
-502.683	204.714	0.032	-0.050
-501.668	159.938	0.116	-0.162
-500.653	-0.998	-0.160	-0.113
-499.639	5.285	0.054	0.040
-498.624	209.193	-0.076	-0.120
-497.610	-200.000	0.002	-0.265
-496.595	519.007	0.116	-0.271
-495.581	-136.158	0.264	0.031
-494.566	-79.812	0.288	-0.097
-493.551	81.624	0.109	0.118
-492.537	-200.000	0.003	0.212
-491.522	267.093	-0.072	-0.126
-490.508	30.627	0.231	-0.198
-489.493	23.025	0.152	-0.125
-488.478	-200.000	-0.011	-0.375
-487.464	-72.206	-0.065	-0.024
-486.449	-79.658	0.221	-0.075
-485.435	-158.893	-0.340	0.019
-484.420	309.670	-0.182	0.340
-483.405	156.891	-0.067	0.092
-482.391	-168.982	0.284	-0.011
-481.376	-200.000	0.019	-0.151
-480.362	175.621	-0.088	0.128
-479.347	-72.137	0.130	0.048
-478.332	407.328	-0.196	-0.415
-477.318	-147.706	0.185	0.016
-476.303	8.579	-0.260	-0.196
-475.289	-169.603	-0.190	0.007
-474.274	546.798	-0.171	-0.409
-473.259	800.000	-0.055	-0.169
-472.245	-200.000	-0.004	-0.197
-471.230	0.158	-0.080	-0.057
-470.216	-44.265	0.307	0.154
-469.201	-200.000	-0.006	-0.037
-468.186	-78.533	-0.228	0.078
-467.172	691.951	-0.035	-0.091
-466.157	18.473	-0.250	-0.200
-465.143	11.428	0.171	-0.131
-464.128	193.330	0.081	0.123
-463.113	-200.000	-0.041	-0.236
-462.099	-142.775	0.158	0.015
-461.084	-94.915	0.234	-0.063
-460.070	-200.000	0.044	0.305
-459.055	-148.068	0.234	-0.019
-458.040	-154.881	-0.242	0.016
-457.026	-5.776	-0.034	-0.023
-456.011	-14.579	-0.127	-0.081
-454.997	-150.410	0.362	0.028
-453.982	188.898	0.091	0.136
-452.968	-9.070	-0.354	0.236
-451.953	-12.040	-0.286	0.187
-450.938	183.939	-0.119	0.176
-449.924	-56.516	-0.241	-0.107
-448.909	-200.000	-0.051	0.304
-447.895	-84.405	-0.199	0.063
-446.880	-121.458	0.147	-0.024
-445.865	-83.531	-0.195	-0.062
-444.851	-104.046	0.105	0.024
-443.836	211.784	0.166	-0.262
-442.822	-121.794	-0.109	-0.018
-441.807	731.197	-0.038	-0.101
-440.792	-144.024	-0.237	-0.022
-439.778	-135.569	0.222	0.026
-438.763	145.841	0.088	0.118
-437.749	-134.399	-0.223	-0.027
-436.734	562.172	-0.107	-0.258
-435.719	-200.000	0.055	0.578
-434.705	-200.000	0.036	-0.171
-433.690	-58.457	0.201	0.087
-432.676	-180.120	-0.087	0.002
-431.661	-158.666	0.307	0.018
-430.646	-152.486	-0.235	0.017
-429.632	-200.000	0.011	-0.162
-428.617	219.859	-0.151	-0.242
-427.603	79.652	-0.074	0.079
-426.588	-73.963	0.324	-0.117
-425.573	-200.000	0.025	-0.215
-424.559	163.682	0.078	-0.110
-423.544	-34.946	-0.245	0.133
-422.530	-200.000	-0.002	-0.095
-421.515	772.013	0.081	-0.220
-420.500	-200.000	0.022	0.183
-419.486	29.572	-0.127	-0.108
-418.471	598.363	-0.201	-0.498
-417.457	0.540	-0.191	0.136
-416.442	-92.601	-0.177	-0.049
-415.428	-200.000	0.017	0.144
-414.413	800.000	0.029	0.106
-413.398	-125.134	0.174	-0.027
-412.384	800.000	-0.059	-0.227
-411.369	-51.168	-0.166	-0.077
-410.355	800.000	-0.006	-0.021
-409.340	4.233	0.386	-0.282
-408.325	6.651	-0.096	-0.072
-407.311	800.000	-0.033	-0.123
-406.296	19.865	-0.353	-0.284
-405.282	329.254	-0.128	0.246
-404.267	305.343	-0.068	-0.125
-403.252	-173.822	0.144	-0.004
-402.238	-69.142	-0.160	-0.061
-401.223	-25.209	-0.195	0.115
-400.209	-56.811	-0.117	0.052
-399.194	-177.752	-0.089	0.002
-398.179	255.349	-0.060	0.102
-397.165	-131.453	-0.063	0.008
-396.150	101.477	-0.139	-0.162
-395.136	-200.000	-0.052	0.272
-394.121	-200.000	0.023	-0.117
-393.106	-101.107	-0.104	-0.025
-392.092	38.446	0.103	-0.091
-391.077	444.072	0.064	-0.140
-390.063	90.872	-0.104	-0.117
-389.048	800.000	-0.066	0.208
-388.033	32.873	0.156	0.135
-387.019	800.000	-0.082	0.240
-386.004	-155.410	0.224	0.014
-384.990	-24.931	-0.175	-0.103
-383.975	198.759	-0.041	0.063
-382.960	-200.000	0.014	-0.166
-381.946	-26.696	-0.192	0.112
-380.931	18.323	-0.031	-0.025
-379.917	-29.402	-0.029	-0.016
-378.902	205.391	0.217	-0.337
-377.888	-200.000	0.019	-0.176
-376.873	374.134	0.040	-0.081
-375.858	-143.866	-0.208	-0.020
-374.844	92.910	0.223	0.250
-373.829	25.983	-0.045	0.038
-372.815	124.854	-0.206	-0.258
-371.800	800.000	-0.050	0.140
-370.785	-127.055	0.324	0.047
-369.771	10.784	-0.184	-0.140
-368.756	800.000	0.063	-0.192
-367.742	-70.833	0.317	0.119
-366.727	77.697	-0.173	0.184
-365.712	76.129	0.079	0.084
-364.698	208.643	0.266	0.414
-363.683	256.493	0.131	0.224
-362.669	7.631	-0.048	-0.036
-361.654	-186.054	0.136	0.002
-360.639	212.968	0.027	0.042
-359.625	139.612	0.172	-0.225
-358.610	-97.824	0.663	-0.170
-357.596	-132.534	0.391	-0.050
-356.581	16.300	0.120	-0.094
-355.566	-104.718	0.013	0.003
-354.552	-144.229	-0.298	0.028
-353.537	800.000	0.068	-0.266
-352.523	362.734	-0.111	0.221
-351.508	-200.000	0.064	-0.317
-350.493	142.135	0.153	-0.202
-349.479	-109.627	-0.076	0.016
-348.464	23.183	-0.142	0.116
-347.450	-200.000	-0.013	0.200
-346.435	60.631	-0.026	0.026
-345.420	-200.000	-0.002	0.080
-344.406	-200.000	0.018	-0.144
-343.391	-142.859	0.365	0.035
-342.377	-169.214	-0.095	-0.004
-341.362	155.202	0.140	0.192
-340.348	32.667	0.211	-0.181
-339.333	5.598	-0.076	0.056
-338.318	-200.000	-0.023	0.204
-337.304	434.893	-0.170	-0.367
-336.289	167.513	-0.073	-0.103
-335.275	-200.000	-0.056	-0.287
-334.260	800.000	0.103	-0.349
-333.245	800.000	-0.075	-0.210
-332.231	183.347	0.029	-0.043
-331.216	-67.416	0.067	0.026
-330.202	-200.000	0.001	-0.050
-329.187	145.766	0.042	0.056
-328.172	-132.839	-0.233	-0.030
-327.158	-200.000	0.028	0.187
-326.143	-57.075	0.270	0.118
-325.129	-200.000	-0.039	0.199
-324.114	145.702	-0.133	0.177
-323.099	-200.000	-0.021	0.373
-322.085	141.243	-0.091	0.119
-321.070	-200.000	0.085	0.432
-320.056	-142.813	0.350	-0.034
-319.041	-116.641	-0.408	-0.075
-318.026	631.161	-0.030	0.074
-317.012	-140.401	-0.171	0.018
-315.997	41.906	0.338	0.305
-314.983	-79.999	0.128	0.043
-313.968	-200.000	-0.021	0.169
-312.953	-200.000	-0.021	-0.207
-311.939	292.423	-0.030	-0.054
-310.924	507.900	0.100	0.230
-309.910	61.395	0.271	-0.267
-308.895	-103.392	-0.188	-0.044
-307.880	14.755	-0.105	-0.082
-306.866	124.774	0.206	0.258
-305.851	-110.762	0.090	-0.018
-304.837	67.432	0.160	-0.162
-303.822	-70.397	0.337	-0.127
-302.807	-191.588	-0.051	0.001
-301.793	97.609	0.090	0.102
-300.778	34.538	-0.135	-0.117
-299.764	154.021	-0.093	0.127
-298.749	-160.131	0.305	-0.016
-297.735	-65.980	0.045	-0.018
-296.720	-49.453	-0.240	-0.114
-295.705	-84.794	0.202	-0.063
-294.691	189.038	0.075	0.112
-293.676	37.897	0.153	-0.135
-292.662	10.840	-0.223	0.169
-291.647	574.490	0.157	0.381
-290.632	126.612	0.094	0.118
-289.618	13.686	-0.109	0.084
-288.603	800.000	0.110	0.326
-287.589	-81.641	-0.055	-0.018
-286.574	-134.008	-0.582	-0.072
-285.559	-111.080	0.175	-0.036
-284.545	800.000	0.097	0.285
-283.530	26.675	0.071	0.059
-282.516	-60.970	0.119	-0.050
-281.501	-200.000	0.008	0.048
-280.486	78.532	0.068	0.072
-279.472	-90.879	-0.027	0.008
-278.457	-63.390	0.118	-0.048
-277.443	-200.000	0.028	-0.147
-276.428	-3.403	-0.187	0.129
-275.413	-98.141	0.357	0.091
-274.399	53.684	-0.164	-0.157
-273.384	486.254	-0.079	0.178
-272.370	-5.555	0.220	-0.150
-271.355	-200.000	-0.008	0.192
-270.340	303.689	0.048	0.088
-269.326	106.226	0.074	0.087
-268.311	-0.619	-0.150	0.105
-267.297	32.563	-0.168	0.144
-266.282	-200.000	-0.011	0.179
-265.267	125.582	-0.074	-0.093
-264.253	-126.438	-0.141	0.021
-263.238	-56.462	-0.119	0.052
-262.224	-29.521	-0.220	0.125
-261.209	20.952	0.090	0.072
-260.195	-96.103	0.185	0.049
-259.180	-125.286	0.245	0.037
-258.165	-200.000	-0.014	-0.166
-257.151	-21.131	-0.283	-0.172
-256.136	130.041	-0.106	0.134
-255.122	-124.739	-0.202	-0.031
-254.107	0.200	-0.201	0.142
-253.092	138.859	0.134	-0.174
-252.078	-18.231	0.135	-0.083
-251.063	-77.000	0.313	0.108
-250.049	-200.000	0.002	0.220
-249.034	305.403	-0.122	-0.225
-248.019	91.048	-0.015	-0.017
-247.005	4.589	-0.088	-0.064
-245.990	-80.383	-0.031	-0.010
-244.976	200.502	0.167	0.254
-243.961	-135.830	0.304	0.036
-242.946	-4.846	0.349	0.238
-241.932	800.000	0.070	0.273
-240.917	-91.697	0.256	0.072
-239.903	241.533	0.065	-0.108
-238.888	85.497	-0.215	-0.234
-237.873	-200.000	-0.012	0.295
-236.859	471.853	0.078	-0.174
-235.844	-200.000	-0.048	-0.338
-234.830	800.000	0.053	0.198
-233.815	28.680	-0.217	0.182
-232.800	-21.635	-0.286	0.172
-231.786	-200.000	0.047	0.403
-230.771	750.355	-0.024	0.065
-229.757	-25.925	-0.233	-0.136
-228.742	-121.024	-0.266	-0.044
-227.727	48.360	0.279	-0.259
-226.713	-142.782	-0.323	-0.031
-225.698	800.000	0.009	-0.037
-224.684	-123.799	0.154	0.024
-223.669	-85.250	-0.087	0.027
-222.655	-19.460	-0.163	-0.100
-221.640	-200.000	-0.036	-0.233
-220.625	800.000	-0.074	0.216
-219.611	36.523	0.218	0.190
-218.596	-63.029	-0.184	-0.075
-217.582	800.000	0.059	0.177
-216.567	36.796	0.186	0.163
-215.552	484.376	0.182	0.411
-214.538	439.776	0.051	-0.110
-213.523	-126.072	-0.197	-0.029
-212.509	-150.339	-0.250	-0.019
-211.494	-30.598	-0.062	-0.035
-210.479	255.963	-0.075	0.127
-209.465	163.124	-0.039	0.055
-208.450	-127.560	-0.106	-0.015
-207.436	139.444	-0.199	-0.259
-206.421	-128.853	0.057	-0.008
-205.406	517.356	-0.105	0.243
-204.392	-200.000	-0.016	-0.093
-203.377	327.190	-0.037	-0.071
-202.363	-200.000	0.004	-0.032
-201.348	45.516	-0.102	-0.094
-200.333	25.913	-0.243	0.200
-199.319	-200.000	0.016	0.139
-198.304	800.000	-0.120	-0.431
-197.290	335.557	-0.076	0.146
-196.275	84.519	-0.149	-0.162
-195.260	-98.459	-0.147	-0.037
-194.246	24.969	0.190	-0.156
-193.231	800.000	0.081	-0.280
-192.217	135.081	0.040	-0.052
-191.202	112.281	-0.040	-0.047
-190.187	-77.201	-0.121	-0.042
-189.173	-200.000	0.045	-0.252
-188.158	117.541	0.098	0.120
-187.144	-200.000	0.114	0.000
-186.129	37.599	-0.198	-0.174
-185.114	116.349	0.114	-0.138
-184.100	218.119	0.054	-0.085
-183.085	44.252	-0.179	0.162
-182.071	133.723	-0.040	-0.051
-181.056	735.662	0.056	0.147
-180.042	20.943	0.268	0.215
-179.027	58.320	-0.125	0.121
-178.012	-90.024	-0.197	-0.057
-176.998	-172.564	-0.279	-0.009
-175.983	139.499	-0.218	0.284
-174.969	12.789	-0.208	0.159
-173.954	-200.000	-0.033	-0.325
-172.939	-200.000	-0.093	-0.457
-171.925	-200.000	-0.028	-0.201
-170.910	-92.300	0.151	-0.042
-169.896	-123.977	0.319	0.050
-168.881	-125.240	-0.166	0.025
-167.866	437.155	-0.167	-0.360
-166.852	-36.568	-0.267	-0.142
-165.837	-200.000	-0.002	0.069
-164.823	-200.000	0.185	0.000
-163.808	-89.351	0.130	-0.038
-162.793	-89.640	-0.206	-0.060
-161.779	800.000	0.018	0.075
-160.764	44.650	0.038	0.034
-159.750	-200.000	-0.010	0.207
-158.735	-89.320	0.359	-0.105
-157.720	-128.791	0.413	-0.057
-156.706	-51.149	-0.129	0.060
-155.691	800.000	-0.032	-0.100
-154.677	7.857	0.356	0.263
-153.662	478.809	-0.071	-0.158
-152.647	-147.204	-0.041	0.003
-151.633	89.088	0.095	0.104
-150.618	-96.283	-0.296	0.077
-149.604	-59.622	0.308	0.130
-148.589	-50.485	0.193	0.090
-147.574	-89.610	-0.167	0.048
-146.560	-120.688	0.076	-0.013
-145.545	-15.295	0.136	0.086
-144.531	169.176	-0.123	0.173
-143.516	-200.000	-0.033	-0.361
-142.502	-200.000	0.030	-0.513
-141.487	-200.000	-0.045	-0.237
-140.472	-200.000	-0.054	-0.348
-139.458	-200.000	0.057	-0.305
-138.443	-89.268	-0.026	-0.008
-137.429	230.707	-0.115	-0.185
-136.414	7.733	0.297	0.219
-135.399	61.715	-0.062	-0.061
-134.385	-111.872	0.073	0.015
-133.370	-108.134	0.182	-0.039
-132.356	36.631	0.210	-0.183
-131.341	412.949	0.088	0.184
-130.326	-12.200	0.183	0.118
-129.312	-103.203	0.103	-0.024
-128.297	-86.343	-0.088	0.027
-127.283	-176.293	0.107	-0.003
-126.268	-200.000	-0.003	0.116
-125.253	-200.000	0.108	0.569
-124.239	-119.362	-0.271	0.047
-123.224	172.320	0.124	0.176
-122.210	485.108	0.038	-0.086
