DTS Sentinel unit serial number:	SN413079Multiplexer serial number:	ORYXHardware model number:	OX4-SRSoftware version number:	ORYX F/W v4.00 Oryx Data Collector v3.7.2.0data status	okinstallation	princeton_trtdifferential loss correction	single-endedforward channel	channel 1reverse channel	N/Adate	2019/09/13time	23:54:35forward acquisition time	60.00reverse acquisition time	0.00gamma	496.2192k internal	0.2337k external	0.2337temperature offset calibration	1.0083default loss term (dB/km)	0.3790temperature slope calibration	1.0000multiplexer offset coefficient	1.0000multiplexer slope coefficient	1.0000fibre end	0.00T internal ref (°C)	26.56T ext. ref 1 (°C)	3.16T ext. ref 2 (°C)	21.19length (m)	temperature (°C)	Stokes	anti-Stokes-747.200	-30.309	0.264	0.150
-746.185	9.092	-0.078	0.059
-745.171	-60.634	-0.201	-0.086
-744.156	-146.272	-0.085	-0.007
-743.142	300.793	0.113	0.208
-742.127	385.483	0.104	0.214
-741.112	194.345	-0.207	0.315
-740.098	798.272	0.081	0.225
-739.083	-0.097	-0.026	-0.018
-738.069	421.701	0.037	-0.079
-737.054	-200.000	0.030	0.245
-736.039	384.531	0.094	-0.195
-735.025	-200.000	0.067	0.575
-734.010	-181.795	-0.366	-0.007
-732.996	20.486	-0.028	0.023
-731.981	324.258	-0.100	-0.192
-730.966	124.054	-0.223	-0.282
-729.952	-116.207	-0.161	-0.030
-728.937	-11.166	-0.143	0.095
-727.923	83.385	0.137	-0.150
-726.908	-80.578	-0.211	-0.071
-725.894	-111.668	0.180	0.037
-724.879	-200.000	-0.007	-0.120
-723.864	3.257	-0.123	-0.090
-722.850	-11.547	0.139	-0.092
-721.835	-7.500	-0.280	0.190
-720.821	42.895	-0.009	0.008
-719.806	-75.036	0.056	0.020
-718.791	-72.204	0.216	-0.080
-717.777	138.826	0.325	-0.428
-716.762	-76.304	-0.220	-0.078
-715.748	-20.470	-0.032	-0.020
-714.733	-33.168	0.285	-0.158
-713.718	108.688	0.118	-0.142
-712.704	-27.650	0.113	0.066
-711.689	-11.397	0.273	0.180
-710.675	-134.433	-0.392	-0.048
-709.660	-42.105	-0.045	0.023
-708.645	-200.000	0.012	-0.304
-707.631	-4.388	0.402	-0.279
-706.616	67.681	-0.050	-0.052
-705.602	-78.444	-0.035	-0.012
-704.587	-200.000	-0.029	0.263
-703.572	-23.895	-0.189	-0.114
-702.558	363.947	0.099	0.200
-701.543	432.156	-0.182	0.396
-700.529	279.882	-0.182	-0.326
-699.514	-105.899	0.168	-0.038
-698.499	-6.618	0.108	0.074
-697.485	-17.090	-0.207	-0.131
-696.470	221.204	0.102	-0.165
-695.456	231.887	-0.184	0.303
-694.441	224.897	0.154	-0.249
-693.426	36.812	-0.193	0.171
-692.412	-132.022	-0.099	0.013
-691.397	800.000	-0.044	0.169
-690.383	-200.000	0.009	0.075
-689.368	717.235	-0.031	-0.084
-688.354	30.712	0.228	-0.195
-687.339	340.486	0.095	-0.186
-686.324	39.740	-0.199	-0.178
-685.310	-8.814	-0.206	-0.138
-684.295	-143.868	-0.295	-0.028
-683.281	-200.000	-0.036	-0.349
-682.266	69.048	-0.103	-0.106
-681.251	206.335	0.162	0.252
-680.237	296.611	0.129	0.236
-679.222	800.000	-0.060	-0.218
-678.208	175.438	0.099	-0.143
-677.193	51.627	-0.314	0.299
-676.178	680.073	-0.058	0.151
-675.164	-131.810	-0.239	0.031
-674.149	26.428	0.199	0.166
-673.135	-166.481	-0.041	-0.002
-672.120	6.154	0.234	-0.173
-671.105	-192.725	0.218	-0.002
-670.091	-93.128	-0.289	-0.081
-669.076	-200.000	-0.005	-0.133
-668.062	494.007	0.057	0.130
-667.047	-108.182	-0.242	0.052
-666.032	-104.909	0.345	-0.079
-665.018	-200.000	-0.002	0.052
-664.003	-66.649	-0.281	0.111
-662.989	68.602	0.128	-0.131
-661.974	-200.000	0.004	-0.416
-660.959	-200.000	-0.030	0.141
-659.945	17.771	-0.101	-0.080
-658.930	-53.655	-0.132	-0.060
-657.916	-89.680	-0.249	0.073
-656.901	-63.323	-0.135	-0.056
-655.886	-68.938	-0.299	-0.115
-654.872	-200.000	-0.011	-0.053
-653.857	206.407	0.146	0.228
-652.843	57.818	-0.137	-0.134
-651.828	-71.291	0.179	-0.067
-650.814	52.382	0.069	-0.066
-649.799	540.617	0.070	0.166
-648.784	-33.899	0.482	-0.265
-647.770	-200.000	-0.072	0.388
-646.755	-41.899	-0.235	-0.121
-645.741	-200.000	0.035	-0.240
-644.726	117.509	-0.062	0.076
-643.711	12.305	-0.032	-0.024
-642.697	131.543	-0.055	0.071
-641.682	-113.873	0.154	0.030
-640.668	51.424	-0.255	0.243
-639.653	520.995	-0.175	-0.411
-638.638	-13.560	-0.013	0.008
-637.624	-200.000	-0.040	-0.376
-636.609	126.136	-0.247	0.312
-635.595	-200.000	-0.010	0.331
-634.580	521.774	-0.101	0.236
-633.565	-29.349	-0.150	0.086
-632.551	-200.000	0.007	-0.121
-631.536	36.067	0.106	0.094
-630.522	-163.814	0.119	-0.006
-629.507	728.493	-0.070	-0.188
-628.492	-122.737	0.239	0.039
-627.478	-68.563	0.192	0.075
-626.463	-8.744	-0.056	0.037
-625.449	455.731	-0.068	-0.150
-624.434	-82.173	0.105	0.034
-623.419	305.354	-0.060	-0.112
-622.405	20.368	0.200	0.162
-621.390	-126.945	0.131	-0.019
-620.376	147.953	-0.069	-0.093
-619.361	-200.000	-0.024	0.127
-618.346	-130.720	0.270	0.036
-617.332	-116.861	-0.360	0.066
-616.317	-74.757	0.145	0.052
-615.303	23.318	0.124	0.102
-614.288	800.000	-0.099	0.276
-613.273	-66.711	0.306	-0.121
-612.259	-104.090	-0.444	0.103
-611.244	800.000	-0.021	0.078
-610.230	-92.605	-0.365	-0.102
-609.215	-3.777	0.141	0.098
-608.201	-200.000	-0.005	-0.107
-607.186	138.928	0.036	0.047
-606.171	38.369	0.298	0.265
-605.157	-10.953	-0.266	0.176
-604.142	-44.188	-0.163	0.082
-603.128	-74.061	0.142	0.051
-602.113	85.066	-0.080	-0.088
-601.098	-200.000	-0.023	0.122
-600.084	37.284	0.379	-0.335
-599.069	-91.641	0.138	-0.039
-598.055	-81.999	-0.067	0.022
-597.040	-200.000	-0.012	0.147
-596.025	-170.029	-0.398	-0.014
-595.011	-129.001	-0.166	-0.023
-593.996	800.000	0.090	-0.315
-592.982	120.368	-0.248	-0.307
-591.967	800.000	-0.118	0.339
-590.952	192.416	0.164	0.247
-589.938	729.746	0.050	0.133
-588.923	-200.000	0.005	-0.525
-587.909	-65.333	-0.248	0.099
-586.894	-38.453	-0.232	0.122
-585.879	-200.000	-0.011	0.155
-584.865	-200.000	-0.026	-0.156
-583.850	-200.000	0.033	0.163
-582.836	-200.000	0.018	0.179
-581.821	-200.000	-0.016	-0.105
-580.806	-106.332	0.167	0.037
-579.792	233.395	-0.133	-0.219
-578.777	-40.890	0.071	0.037
-577.763	-200.000	-0.050	-0.377
-576.748	-2.396	0.222	-0.155
-575.733	-200.000	-0.035	-0.292
-574.719	178.761	-0.056	0.081
-573.704	12.965	-0.023	0.018
-572.690	81.663	0.148	0.160
-571.675	359.088	-0.063	0.126
-570.661	212.190	0.085	0.134
-569.646	-35.342	0.193	0.104
-568.631	-56.891	-0.254	-0.112
-567.617	-200.000	-0.030	-0.140
-566.602	-130.794	-0.192	0.026
-565.588	117.780	-0.066	0.081
-564.573	-85.487	-0.189	0.059
-563.558	161.204	0.092	-0.128
-562.544	18.068	-0.123	0.098
-561.529	99.438	-0.050	0.057
-560.515	90.031	0.232	0.258
-559.500	302.336	0.036	-0.066
-558.485	-200.000	-0.004	-0.226
-557.471	-38.755	-0.170	-0.089
-556.456	-200.000	-0.026	0.153
-555.442	54.313	-0.057	0.055
-554.427	-200.000	-0.033	0.151
-553.412	286.719	0.041	0.073
-552.398	506.765	0.089	0.206
-551.383	-200.000	0.047	-0.287
-550.369	4.564	-0.140	0.102
-549.354	800.000	-0.034	0.106
-548.339	274.528	0.137	0.242
-547.325	-200.000	-0.043	0.524
-546.310	800.000	-0.065	0.199
-545.296	-58.272	-0.163	0.071
-544.281	416.126	0.121	-0.257
-543.266	440.416	-0.090	-0.195
-542.252	276.365	-0.016	0.029
-541.237	326.269	-0.188	0.358
-540.223	17.228	-0.085	-0.067
-539.208	-200.000	-0.005	0.252
-538.193	-112.152	-0.158	-0.032
-537.179	-200.000	-0.043	-0.225
-536.164	29.919	-0.027	0.023
-535.150	145.232	0.174	0.232
-534.135	-200.000	-0.027	0.260
-533.121	-137.435	0.095	0.011
-532.106	-51.788	0.237	-0.110
-531.091	-107.727	0.177	0.038
-530.077	-200.000	0.024	0.390
-529.062	-93.408	0.165	-0.046
-528.048	327.182	0.109	-0.209
-527.033	173.612	0.092	-0.132
-526.018	389.639	-0.090	-0.185
-525.004	-200.000	0.005	0.048
-523.989	-200.000	-0.019	-0.181
-522.975	-67.265	0.327	-0.128
-521.960	-24.386	-0.257	0.152
-520.945	231.776	0.145	-0.237
-519.931	121.796	0.098	0.121
-518.916	800.000	-0.078	-0.242
-517.902	-200.000	-0.057	-0.260
-516.887	-150.106	0.237	0.018
-515.872	153.953	-0.119	0.162
-514.858	530.642	-0.099	0.233
-513.843	-162.363	-0.122	-0.006
-512.829	372.189	-0.102	-0.206
-511.814	166.369	-0.195	-0.275
-510.799	800.000	-0.055	-0.164
-509.785	328.139	-0.084	-0.160
-508.770	-3.992	-0.226	-0.156
-507.756	0.876	0.051	0.036
-506.741	-1.147	0.152	-0.107
-505.726	150.589	0.213	0.287
-504.712	-17.690	-0.403	-0.252
-503.697	-200.000	0.020	0.170
-502.683	-124.047	0.068	0.011
-501.668	-200.000	-0.062	-0.298
-500.653	800.000	0.109	-0.454
-499.639	-51.773	0.041	-0.019
-498.624	-200.000	-0.011	0.271
-497.610	-5.651	0.040	0.027
-496.595	-200.000	0.059	0.273
-495.581	-116.763	-0.257	0.047
-494.566	-195.852	0.157	0.001
-493.551	-142.644	-0.181	0.018
-492.537	-200.000	-0.036	-0.271
-491.522	-93.692	0.156	-0.043
-490.508	565.292	-0.104	0.250
-489.493	-200.000	-0.020	-0.140
-488.478	255.876	0.152	0.259
-487.464	-200.000	0.054	0.326
-486.449	-200.000	0.026	0.123
-485.435	50.604	-0.176	-0.165
-484.420	212.168	-0.046	-0.072
-483.405	-141.097	-0.195	0.020
-482.391	24.062	0.155	0.127
-481.376	-77.324	-0.344	0.119
-480.362	-107.834	0.168	0.036
-479.347	-72.706	0.312	-0.114
-478.332	-200.000	-0.018	-0.187
-477.318	96.975	-0.096	-0.110
-476.303	-18.398	0.148	0.092
-475.289	-52.441	0.120	-0.055
-474.274	-52.652	0.139	-0.064
-473.259	-45.588	-0.162	-0.080
-472.245	261.381	0.110	-0.188
-471.230	-88.951	-0.297	0.087
-470.216	27.105	-0.108	-0.090
-469.201	146.642	0.061	-0.082
-468.186	-200.000	0.001	0.159
-467.172	243.548	-0.075	-0.125
-466.157	-107.516	-0.219	0.048
-465.143	104.634	0.235	0.275
-464.128	800.000	0.039	-0.160
-463.113	-131.196	0.112	-0.015
-462.099	-92.317	0.247	0.069
-461.084	-92.481	-0.211	0.059
-460.070	-83.188	-0.271	0.086
-459.055	-200.000	-0.032	-0.379
-458.040	-84.289	0.174	0.055
-457.026	-25.215	0.036	0.021
-456.011	-46.173	0.323	-0.158
-454.997	-118.131	0.164	0.029
-453.982	59.263	-0.156	-0.152
-452.968	334.804	0.028	-0.054
-451.953	800.000	-0.089	-0.356
-450.938	-161.725	-0.207	-0.010
-449.924	203.306	-0.058	-0.090
-448.909	701.618	-0.019	0.050
-447.895	-110.956	-0.264	0.054
-446.880	-200.000	-0.029	-0.221
-445.865	-165.321	0.060	0.003
-444.851	-104.107	-0.037	-0.009
-443.836	-200.000	0.015	-0.067
-442.822	800.000	0.087	-0.319
-441.807	-48.148	0.225	-0.108
-440.792	-158.302	0.289	-0.017
-439.778	-184.740	-0.239	0.004
-438.763	166.913	-0.101	0.142
-437.749	360.014	0.135	0.269
-436.734	-148.316	-0.123	0.010
-435.719	-200.000	-0.029	0.198
-434.705	-155.851	-0.034	0.002
-433.690	-111.838	0.360	-0.072
-432.676	-200.000	-0.025	0.252
-431.661	182.558	0.115	-0.168
-430.646	217.221	0.239	-0.377
-429.632	-144.927	-0.119	0.011
-428.617	-69.381	0.192	-0.073
-427.603	-170.365	-0.241	-0.008
-426.588	-78.036	0.043	-0.015
-425.573	-69.678	-0.084	0.032
-424.559	-113.759	0.252	0.049
-423.544	29.745	-0.205	-0.173
-422.530	5.725	0.011	0.008
-421.515	-19.953	0.073	-0.045
-420.500	-200.000	-0.086	0.510
-419.486	58.637	0.223	-0.217
-418.471	-157.714	0.185	0.011
-417.457	-53.530	0.108	-0.049
-416.442	800.000	0.030	0.094
-415.428	-12.285	0.177	0.115
-414.413	2.258	-0.238	-0.171
-413.398	38.067	-0.194	0.171
-412.384	-91.943	-0.278	0.078
-411.369	-124.132	-0.049	-0.008
-410.355	-43.985	0.101	0.051
-409.340	-73.086	0.037	-0.014
-408.325	-108.863	-0.320	0.068
-407.311	-67.512	0.086	-0.034
-406.296	111.022	0.260	-0.310
-405.282	-38.309	0.173	0.091
-404.267	-21.948	-0.218	-0.131
-403.252	202.283	-0.069	-0.105
-402.238	-92.876	0.086	-0.024
-401.223	-89.873	-0.176	0.051
-400.209	800.000	-0.065	0.271
-399.194	508.100	-0.027	-0.061
-398.179	-132.487	0.211	-0.027
-397.165	-8.495	-0.319	-0.212
-396.150	-123.898	-0.210	0.033
-395.136	27.485	0.062	0.052
-394.121	329.676	0.082	0.157
-393.106	-200.000	0.003	0.046
-392.092	800.000	0.094	-0.278
-391.077	38.725	0.047	0.042
-390.063	-77.947	-0.202	0.069
-389.048	-200.000	-0.045	0.228
-388.033	-96.131	-0.097	-0.026
-387.019	-119.500	0.383	-0.066
-386.004	24.712	0.082	-0.067
-384.990	-104.155	0.192	-0.044
-383.975	-200.000	0.272	0.001
-382.960	271.239	0.156	0.272
-381.946	231.793	0.102	0.165
-380.931	50.374	-0.160	0.150
-379.917	310.974	-0.019	-0.036
-378.902	436.589	0.104	0.223
-377.888	520.089	0.028	-0.064
-376.873	-124.728	-0.244	-0.037
-375.858	0.540	-0.233	0.165
-374.844	-13.107	0.149	-0.096
-373.829	103.742	-0.136	0.158
-372.815	-74.070	-0.119	0.043
-371.800	183.139	-0.025	0.037
-370.785	-144.745	-0.159	-0.014
-369.771	7.368	0.288	0.213
-368.756	-61.937	-0.362	0.150
-367.742	61.615	0.210	0.206
-366.727	800.000	-0.089	0.333
-365.712	-200.000	0.063	-0.446
-364.698	-200.000	0.004	0.127
-363.683	-130.723	-0.217	0.029
-362.669	284.859	0.146	-0.260
-361.654	30.367	0.322	-0.272
-360.639	-79.753	-0.270	-0.090
-359.625	-20.508	-0.249	0.151
-358.610	-47.523	-0.058	-0.028
-357.596	213.400	-0.063	-0.099
-356.581	198.386	-0.073	-0.110
-355.566	-10.738	0.156	-0.102
-354.552	69.072	0.017	0.017
-353.537	136.584	-0.237	-0.306
-352.523	355.920	0.070	-0.137
-351.508	800.000	0.064	-0.258
-350.493	-36.274	0.106	-0.056
-349.479	-200.000	0.012	-0.145
-348.464	-95.162	-0.181	0.048
-347.450	108.226	0.091	-0.107
-346.435	-200.000	-0.026	-0.121
-345.420	-74.054	0.280	0.100
-344.406	-68.174	0.467	0.180
-343.391	-108.460	0.133	-0.028
-342.377	800.000	0.077	-0.323
-341.362	-200.000	-0.027	-0.229
-340.348	-31.742	-0.229	-0.127
-339.333	-63.778	-0.187	0.076
-338.318	-101.703	-0.313	0.075
-337.304	800.000	0.050	0.174
-336.289	70.330	-0.195	0.199
-335.275	-200.000	-0.009	-0.151
-334.260	-200.000	0.014	-0.147
-333.245	-86.080	-0.075	0.023
-332.231	-96.992	0.145	0.038
-331.216	106.875	0.177	-0.207
-330.202	461.946	-0.032	0.071
-329.187	800.000	0.078	0.216
-328.172	-94.153	-0.072	-0.019
-327.158	-200.000	0.016	0.195
-326.143	294.804	-0.265	-0.478
-325.129	-75.023	0.212	0.075
-324.114	-37.314	-0.061	-0.032
-323.099	-200.000	-0.061	0.384
-322.085	539.804	-0.087	0.203
-321.070	-17.748	0.233	0.145
-320.056	328.071	0.078	-0.147
-319.041	-200.000	-0.030	0.211
-318.026	118.697	0.120	0.146
-317.012	551.809	-0.102	0.241
-315.997	178.368	-0.099	0.143
-314.983	643.678	-0.044	-0.112
-313.968	423.412	0.074	0.156
-312.953	89.489	0.116	-0.128
-311.939	-200.000	0.000	-0.098
-310.924	-34.433	0.227	0.123
-309.910	800.000	0.079	-0.222
-308.895	157.465	0.097	0.132
-307.880	-33.326	0.221	0.121
-306.866	-112.448	-0.357	0.070
-305.851	8.134	0.201	0.149
-304.837	478.545	-0.148	-0.330
-303.822	93.743	0.363	-0.406
-302.807	-200.000	0.007	-0.172
-301.793	-200.000	0.015	-0.281
-300.778	57.206	-0.094	-0.091
-299.764	486.527	0.080	-0.181
-298.749	72.758	-0.130	0.134
-297.735	-99.267	0.072	-0.018
-296.720	-102.747	0.050	-0.012
-295.705	-59.928	-0.185	-0.078
-294.691	-71.191	0.314	0.116
-293.676	800.000	0.060	-0.164
-292.662	106.535	-0.223	-0.261
-291.647	184.591	0.060	-0.088
-290.632	-87.242	-0.154	-0.046
-289.618	387.198	-0.094	0.191
-288.603	-52.996	-0.091	-0.041
-287.589	167.651	0.141	0.198
-286.574	-200.000	0.042	-0.215
-285.559	-13.472	-0.111	0.071
-284.545	-200.000	0.052	-0.338
-283.530	-42.110	-0.393	0.198
-282.516	-153.553	0.384	-0.026
-281.501	-48.595	-0.305	0.145
-280.486	-200.000	-0.010	0.049
-279.472	-60.751	-0.393	-0.164
-278.457	78.621	-0.100	0.105
-277.443	226.870	-0.077	-0.124
-276.428	150.876	-0.029	0.039
-275.413	45.029	-0.064	0.058
-274.399	800.000	0.069	-0.262
-273.384	-122.078	-0.276	0.045
-272.370	138.429	-0.301	-0.389
-271.355	800.000	0.123	0.375
-270.340	80.791	0.227	0.241
-269.326	-200.000	-0.024	0.253
-268.311	48.335	0.122	0.113
-267.297	39.805	0.141	0.125
-266.282	-200.000	-0.052	-0.321
-265.267	280.791	-0.060	-0.106
-264.253	356.425	-0.036	-0.071
-263.238	-3.022	-0.246	-0.169
-262.224	45.744	-0.194	-0.176
-261.209	800.000	-0.069	-0.271
-260.195	-200.000	-0.013	0.078
-259.180	-118.462	0.294	0.051
-258.165	300.339	-0.152	-0.276
-257.151	227.464	0.257	-0.412
-256.136	-200.000	-0.038	0.208
-255.122	38.760	0.324	-0.285
-254.107	129.433	0.264	-0.332
-253.092	132.190	-0.116	0.147
-252.078	172.872	0.040	-0.056
-251.063	-104.883	0.283	0.064
-250.049	53.325	0.048	0.045
-249.034	-123.259	-0.320	-0.050
-248.019	387.610	-0.120	0.243
-247.005	800.000	0.017	0.054
-245.990	657.408	0.039	-0.098
-244.976	157.335	0.199	0.272
-243.961	-200.000	-0.035	0.348
-242.946	800.000	0.035	-0.119
-241.932	-200.000	-0.002	0.079
-240.917	-96.935	0.024	-0.006
-239.903	-18.193	0.096	0.059
-238.888	-200.000	0.021	0.289
-237.873	585.810	-0.092	-0.223
-236.859	466.629	0.112	0.248
-235.844	17.727	-0.179	-0.140
-234.830	38.774	0.229	-0.201
-233.815	-28.736	0.485	0.275
-232.800	-20.338	0.029	0.018
-231.786	312.382	0.167	0.308
-230.771	800.000	-0.149	0.410
-229.757	32.359	-0.165	0.141
-228.742	329.711	0.063	-0.120
-227.727	196.036	0.190	0.284
-226.713	-30.765	-0.177	-0.099
-225.698	-34.984	-0.202	0.108
-224.684	800.000	0.064	0.253
-223.669	800.000	0.068	-0.230
-222.655	-89.259	-0.025	0.007
-221.640	259.534	-0.070	-0.119
-220.625	212.626	-0.110	0.170
-219.611	-7.851	0.173	0.115
-218.596	-200.000	0.045	0.372
-217.582	-74.842	0.132	-0.047
-216.567	188.943	-0.103	0.152
-215.552	-79.499	-0.208	-0.069
-214.538	267.238	-0.024	0.042
-213.523	-75.048	-0.211	-0.074
-212.509	99.521	0.192	0.218
-211.494	136.771	-0.124	0.159
-210.479	-200.000	-0.017	0.185
-209.465	-29.007	0.185	0.104
-208.450	437.072	0.108	-0.231
-207.436	-46.561	0.218	0.105
-206.421	392.978	-0.056	-0.115
-205.406	800.000	0.177	-0.564
-204.392	192.700	-0.075	-0.111
-203.377	234.942	-0.050	0.081
-202.363	25.957	-0.227	-0.186
-201.348	-152.932	-0.318	-0.022
-200.333	-200.000	-0.018	0.274
-199.319	-200.000	0.010	0.313
-198.304	168.857	0.070	-0.098
-197.290	30.385	0.038	0.032
-196.275	47.908	0.139	0.128
-195.260	-200.000	0.058	0.345
-194.246	19.468	-0.137	0.108
-193.231	607.873	0.062	0.153
-192.217	-200.000	0.007	-0.036
-191.202	-124.616	0.007	-0.001
-190.187	-200.000	0.002	-0.212
-189.173	40.409	-0.218	-0.192
-188.158	154.530	0.137	0.185
-187.144	351.460	0.023	-0.045
-186.129	260.665	0.022	0.037
-185.114	605.556	0.095	-0.234
-184.100	462.460	-0.128	-0.281
-183.085	-200.000	0.024	0.214
-182.071	-13.845	0.290	-0.184
-181.056	80.707	-0.023	-0.025
-180.042	-56.380	0.407	-0.177
-179.027	-139.704	-0.055	-0.006
-178.012	106.446	0.183	-0.213
-176.998	15.531	-0.128	0.098
-175.983	-115.680	-0.140	-0.026
-174.969	-23.349	-0.033	0.019
-173.954	290.434	0.092	0.163
-172.939	-17.178	0.434	0.269
-171.925	47.661	-0.315	-0.288
-170.910	545.102	0.081	-0.190
-169.896	-29.420	-0.176	-0.099
-168.881	-25.952	0.096	-0.055
-167.866	800.000	0.055	0.168
-166.852	-66.362	-0.132	0.052
-165.837	-114.981	-0.252	-0.047
-164.823	270.367	-0.114	-0.197
-163.808	251.694	0.254	-0.425
-162.793	182.041	0.114	-0.164
-161.779	45.848	0.213	0.194
-160.764	-200.000	-0.023	0.188
-159.750	-200.000	-0.013	0.176
-158.735	-46.101	-0.342	-0.165
-157.720	22.019	0.074	-0.060
-156.706	-87.392	0.159	-0.047
-155.691	321.523	-0.134	0.250
-154.677	33.701	-0.123	0.105
-153.662	216.894	0.028	0.043
-152.647	-50.287	0.230	-0.107
-151.633	-85.824	0.093	-0.028
-150.618	-172.150	0.242	-0.008
-149.604	371.066	0.202	0.402
-148.589	-45.579	-0.134	-0.065
-147.574	-4.796	0.234	0.158
-146.560	-79.898	-0.396	0.131
-145.545	477.260	0.071	-0.157
-144.531	-140.307	0.329	-0.034
-143.516	-142.189	-0.189	0.018
-142.502	-110.397	0.118	0.024
-141.487	50.615	-0.174	0.161
-140.472	-120.855	0.520	-0.086
-139.458	-121.787	0.423	0.068
-138.443	-97.424	0.229	0.058
-137.429	495.939	0.133	0.299
-136.414	-118.220	0.212	-0.037
-135.399	1.743	0.241	-0.170
-134.385	-89.299	0.338	-0.098
-133.370	-77.066	-0.053	-0.018
-132.356	-21.559	-0.255	0.153
-131.341	65.164	0.207	-0.205
-130.326	-48.464	-0.211	-0.099
-129.312	-55.169	-0.193	0.085
-128.297	-64.965	-0.261	0.103
-127.283	-200.000	-0.037	0.386
-126.268	-200.000	-0.046	-0.250
-125.253	-200.000	-0.002	0.051
-124.239	-0.915	-0.047	0.033
-123.224	51.647	-0.043	-0.040
-122.210	1.058	-0.163	0.114
-121.195	-75.768	0.291	0.101
