DTS Sentinel unit serial number:	SN413079Multiplexer serial number:	ORYXHardware model number:	OX4-SRSoftware version number:	ORYX F/W v4.00 Oryx Data Collector v3.7.2.0data status	okinstallation	princeton_trtdifferential loss correction	single-endedforward channel	channel 1reverse channel	N/Adate	2019/09/10time	23:04:11forward acquisition time	60.00reverse acquisition time	0.00gamma	496.2192k internal	0.2332k external	0.2332temperature offset calibration	0.9937default loss term (dB/km)	0.3790temperature slope calibration	1.0000multiplexer offset coefficient	1.0000multiplexer slope coefficient	1.0000fibre end	0.00T internal ref (°C)	30.00T ext. ref 1 (°C)	-0.31T ext. ref 2 (°C)	23.49length (m)	temperature (°C)	Stokes	anti-Stokes-747.200	-44.280	0.114	0.058
-746.185	237.697	-0.046	0.077
-745.171	92.678	0.112	0.128
-744.156	60.455	-0.118	0.118
-743.142	-18.431	-0.190	0.120
-742.127	345.951	0.122	0.242
-741.112	800.000	0.114	-0.363
-740.098	169.098	-0.072	0.103
-739.083	-35.309	-0.243	-0.133
-738.069	458.442	-0.066	0.148
-737.054	800.000	-0.036	-0.102
-736.039	668.696	0.086	-0.223
-735.025	-32.697	-0.312	0.174
-734.010	81.934	-0.014	-0.016
-732.996	236.853	-0.148	-0.246
-731.981	29.175	-0.123	-0.105
-730.966	-142.249	0.119	0.012
-729.952	303.566	0.168	-0.314
-728.937	541.175	-0.192	-0.460
-727.923	-200.000	-0.022	-0.275
-726.908	-200.000	0.031	-0.280
-725.894	135.125	0.143	-0.187
-724.879	-134.888	0.222	-0.027
-723.864	165.601	0.035	0.050
-722.850	-73.001	0.026	-0.010
-721.835	321.686	-0.059	-0.113
-720.821	-93.480	0.105	-0.029
-719.806	-22.595	-0.300	0.183
-718.791	354.452	0.158	-0.316
-717.777	-13.666	0.179	0.117
-716.762	262.129	-0.136	0.237
-715.748	-200.000	0.024	-0.168
-714.733	-200.000	-0.013	-0.179
-713.718	800.000	-0.112	-0.382
-712.704	-165.763	0.034	-0.001
-711.689	-149.196	-0.409	0.033
-710.675	-193.615	0.208	0.002
-709.660	-200.000	0.005	0.278
-708.645	-200.000	0.018	-0.292
-707.631	800.000	0.047	-0.178
-706.616	-151.427	0.143	0.011
-705.602	138.940	0.120	0.159
-704.587	-122.646	0.221	0.036
-703.572	-52.645	0.029	-0.013
-702.558	-30.263	0.212	-0.121
-701.543	800.000	0.079	0.288
-700.529	314.952	-0.048	-0.090
-699.514	-166.045	-0.056	0.002
-698.499	9.841	0.139	0.106
-697.485	-53.313	0.102	-0.047
-696.470	-29.425	-0.008	-0.005
-695.456	-13.913	0.131	-0.085
-694.441	484.365	0.153	-0.350
-693.426	-200.000	0.008	0.060
-692.412	43.715	0.367	-0.337
-691.397	2.868	-0.272	0.198
-690.383	800.000	0.048	0.197
-689.368	57.357	-0.108	-0.106
-688.354	-142.225	-0.214	-0.021
-687.339	172.725	-0.059	-0.085
-686.324	-79.562	-0.561	-0.190
-685.310	-57.822	0.119	-0.052
-684.295	708.194	-0.132	0.349
-683.281	-145.615	0.195	-0.017
-682.266	800.000	-0.039	0.139
-681.251	-67.963	-0.412	-0.161
-680.237	-27.457	-0.198	0.116
-679.222	-47.874	0.277	0.134
-678.208	121.626	0.154	0.192
-677.193	-67.822	-0.235	-0.092
-676.178	-91.379	0.124	-0.035
-675.164	-56.198	0.128	-0.057
-674.149	-38.320	-0.152	0.081
-673.135	470.518	-0.124	0.280
-672.120	67.367	0.042	-0.043
-671.105	800.000	0.057	-0.190
-670.091	-29.845	-0.057	-0.033
-669.076	-45.756	0.132	0.065
-668.062	376.266	-0.071	-0.146
-667.047	-143.911	-0.162	-0.015
-666.032	258.952	-0.158	-0.274
-665.018	94.634	0.033	-0.038
-664.003	-113.915	-0.254	0.049
-662.989	-75.203	-0.102	0.036
-661.974	-129.338	-0.047	0.007
-660.959	81.785	-0.102	0.111
-659.945	800.000	0.041	0.136
-658.930	396.063	-0.070	0.146
-657.916	210.933	0.075	-0.118
-656.901	-200.000	0.015	-0.263
-655.886	-157.865	0.138	-0.008
-654.872	-147.888	0.147	-0.012
-653.857	-200.000	0.009	0.111
-652.843	172.396	0.101	-0.146
-651.828	-200.000	-0.009	-0.132
-650.814	249.704	-0.102	-0.173
-649.799	-177.653	-0.269	0.007
-648.784	-200.000	0.042	0.241
-647.770	-12.769	-0.192	-0.125
-646.755	98.887	0.193	0.223
-645.741	359.787	-0.107	0.214
-644.726	-82.434	-0.214	-0.070
-643.711	-88.890	-0.238	-0.071
-642.697	-171.054	0.222	-0.008
-641.682	-17.444	-0.338	-0.213
-640.668	333.675	0.134	-0.259
-639.653	323.353	-0.067	0.128
-638.638	102.951	0.128	0.150
-637.624	54.021	0.111	-0.107
-636.609	22.952	-0.258	-0.212
-635.595	740.088	-0.141	-0.379
-634.580	192.292	0.099	-0.150
-633.565	-200.000	0.034	0.185
-632.551	-114.065	0.259	-0.050
-631.536	800.000	-0.058	-0.213
-630.522	-75.876	0.057	0.020
-629.507	-30.503	0.325	-0.184
-628.492	800.000	0.037	-0.131
-627.478	-31.109	-0.118	0.067
-626.463	-142.130	0.058	0.006
-625.449	270.633	-0.182	-0.321
-624.434	-35.076	0.182	0.100
-623.419	-20.845	-0.032	0.020
-622.405	-13.405	-0.138	0.090
-621.390	-200.000	-0.012	0.150
-620.376	169.670	0.077	-0.110
-619.361	215.267	0.083	-0.132
-618.346	233.223	-0.122	-0.201
-617.332	65.845	0.017	-0.017
-616.317	-200.000	-0.000	0.234
-615.303	-84.571	-0.182	-0.057
-614.288	-185.686	0.068	-0.001
-613.273	-7.128	-0.106	0.072
-612.259	52.231	-0.174	-0.166
-611.244	800.000	0.078	-0.257
-610.230	652.803	-0.058	-0.148
-609.215	-124.718	-0.178	0.028
-608.201	-26.360	-0.298	0.175
-607.186	-200.000	0.042	0.360
-606.171	306.239	-0.060	0.111
-605.157	-101.234	-0.339	-0.083
-604.142	-200.000	-0.033	0.220
-603.128	-59.176	-0.158	0.068
-602.113	-77.691	-0.347	0.120
-601.098	89.375	-0.133	-0.148
-600.084	-200.000	-0.008	0.066
-599.069	-74.373	0.217	0.078
-598.055	89.493	-0.216	-0.241
-597.040	-99.422	0.278	-0.070
-596.025	-85.408	-0.197	-0.061
-595.011	441.509	-0.012	0.025
-593.996	-148.882	0.121	-0.010
-592.982	-200.000	-0.003	0.493
-591.967	800.000	0.089	0.379
-590.952	-35.675	-0.419	-0.227
-589.938	47.292	0.272	0.253
-588.923	-41.364	0.101	-0.052
-587.909	220.216	-0.110	0.177
-586.894	16.133	0.200	0.158
-585.879	90.949	-0.347	-0.389
-584.865	-89.024	0.346	-0.102
-583.850	-99.310	0.078	0.020
-582.836	128.931	0.113	0.144
-581.821	45.818	0.265	0.245
-580.806	-31.325	0.394	-0.222
-579.792	-123.392	0.299	0.048
-578.777	-44.032	-0.210	-0.105
-577.763	-6.486	-0.163	0.111
-576.748	-200.000	-0.035	0.174
-575.733	-200.000	0.017	0.157
-574.719	-107.594	-0.351	-0.077
-573.704	800.000	0.083	0.286
-572.690	121.579	0.135	0.168
-571.675	-123.621	0.109	-0.017
-570.661	162.809	0.058	-0.082
-569.646	-75.816	-0.181	0.064
-568.631	-200.000	0.039	0.188
-567.617	567.691	-0.120	-0.291
-566.602	-56.559	0.255	0.113
-565.588	394.324	0.132	-0.274
-564.573	-107.368	0.028	-0.006
-563.558	-200.000	0.034	-0.206
-562.544	40.411	0.062	0.056
-561.529	-84.420	-0.385	0.121
-560.515	-67.873	0.051	-0.020
-559.500	-130.504	0.243	-0.033
-558.485	-131.005	-0.553	0.074
-557.471	-36.405	0.326	-0.175
-556.456	-200.000	-0.007	0.104
-555.442	15.707	0.353	-0.277
-554.427	-117.874	-0.414	0.074
-553.412	-149.880	0.352	0.027
-552.398	54.474	-0.113	0.108
-551.383	-136.191	0.169	0.020
-550.369	201.005	-0.220	0.339
-549.354	-200.000	-0.006	0.058
-548.339	298.517	0.082	0.151
-547.325	211.459	0.045	-0.071
-546.310	35.935	-0.273	-0.240
-545.296	-79.417	-0.365	0.123
-544.281	-114.389	0.152	-0.029
-543.266	-100.105	0.275	-0.068
-542.252	151.534	0.114	-0.155
-541.237	97.632	-0.212	0.243
-540.223	-200.000	-0.036	0.169
-539.208	296.141	0.039	0.071
-538.193	800.000	-0.075	0.211
-537.179	-156.088	0.384	0.024
-536.164	-13.333	-0.053	-0.034
-535.150	-22.153	0.209	-0.126
-534.135	800.000	-0.049	-0.141
-533.121	202.326	-0.195	0.300
-532.106	-200.000	-0.085	-0.392
-531.091	-68.008	0.148	0.057
-530.077	185.121	0.030	0.045
-529.062	-43.146	0.198	0.100
-528.048	-200.000	0.009	-0.229
-527.033	-6.621	-0.153	-0.104
-526.018	123.406	-0.093	0.116
-525.004	-59.026	0.305	0.131
-523.989	102.257	-0.119	-0.138
-522.975	498.178	-0.072	0.166
-521.960	-200.000	-0.000	-0.015
-520.945	-40.635	-0.106	-0.055
-519.931	-146.043	-0.192	-0.017
-518.916	-72.603	0.041	-0.015
-517.902	38.627	0.068	-0.060
-516.887	800.000	0.045	0.158
-515.872	-136.717	-0.190	-0.022
-514.858	508.718	-0.052	-0.121
-513.843	-200.000	0.021	0.180
-512.829	-200.000	0.014	0.321
-511.814	24.553	0.117	0.097
-510.799	800.000	-0.066	0.261
-509.785	166.991	0.106	0.150
-508.770	-168.254	-0.205	0.008
-507.756	-200.000	0.045	0.320
-506.741	-15.359	0.489	-0.312
-505.726	-200.000	-0.014	-0.370
-504.712	-26.560	-0.139	-0.081
-503.697	-118.417	0.268	-0.047
-502.683	-65.904	-0.323	-0.129
-501.668	122.254	-0.193	0.240
-500.653	-88.576	-0.267	-0.079
-499.639	-80.071	0.275	0.092
-498.624	-16.687	0.262	0.165
-497.610	-104.637	0.191	-0.044
-496.595	-5.037	0.336	-0.231
-495.581	-38.488	-0.294	-0.155
-494.566	-72.476	-0.136	0.050
-493.551	-200.000	0.094	-0.000
-492.537	-115.232	-0.209	-0.039
-491.522	-139.503	0.196	-0.021
-490.508	-200.000	-0.044	0.269
-489.493	535.484	0.068	0.161
-488.478	-178.932	-0.212	0.005
-487.464	-181.721	-0.255	-0.005
-486.449	-108.733	0.027	0.006
-485.435	40.346	-0.143	-0.128
-484.420	396.455	0.036	0.076
-483.405	-4.715	0.059	0.041
-482.391	3.429	-0.190	0.138
-481.376	-134.069	-0.292	0.036
-480.362	-200.000	0.032	-0.246
-479.347	38.185	-0.113	-0.100
-478.332	-164.579	0.155	0.007
-477.318	-113.682	-0.215	0.042
-476.303	-101.115	-0.389	-0.095
-475.289	-21.769	0.424	-0.257
-474.274	146.069	-0.011	0.014
-473.259	-65.019	-0.184	-0.074
-472.245	-200.000	0.041	-0.184
-471.230	131.849	0.153	-0.195
-470.216	73.758	0.121	0.127
-469.201	228.186	0.052	-0.084
-468.186	-200.000	0.067	-0.333
-467.172	-200.000	-0.014	-0.103
-466.157	88.650	0.137	-0.151
-465.143	800.000	0.042	-0.146
-464.128	-200.000	-0.009	0.123
-463.113	-200.000	-0.003	-0.069
-462.099	-99.293	-0.139	0.035
-461.084	192.184	-0.395	0.593
-460.070	-22.502	0.141	-0.085
-459.055	290.681	-0.087	-0.157
-458.040	-143.685	-0.208	0.020
-457.026	-200.000	-0.004	-0.303
-456.011	-200.000	-0.037	0.278
-454.997	322.445	0.029	-0.055
-453.982	-47.433	-0.173	0.084
-452.968	-39.935	-0.063	-0.033
-451.953	-139.180	0.277	0.030
-450.938	-200.000	0.006	-0.060
-449.924	56.209	-0.085	-0.082
-448.909	49.998	-0.127	0.119
-447.895	273.545	0.032	-0.057
-446.880	-112.133	0.140	-0.028
-445.865	134.566	-0.169	0.218
-444.851	-153.083	0.247	0.017
-443.836	-4.626	-0.230	-0.158
-442.822	-75.639	0.275	0.097
-441.807	800.000	-0.065	-0.240
-440.792	-200.000	0.063	-0.341
-439.778	-84.307	-0.098	-0.031
-438.763	-29.441	-0.348	-0.198
-437.749	0.630	0.253	-0.180
-436.734	673.694	-0.035	-0.091
-435.719	116.317	0.195	-0.238
-434.705	55.751	0.277	-0.267
-433.690	-146.300	-0.363	-0.032
-432.676	-63.326	-0.176	-0.072
-431.661	-200.000	-0.090	-0.399
-430.646	-22.610	-0.233	0.140
-429.632	-65.438	-0.062	-0.025
-428.617	337.977	-0.068	0.131
-427.603	24.492	-0.125	0.103
-426.588	289.440	-0.076	0.137
-425.573	7.319	0.183	0.136
-424.559	-88.131	0.136	-0.041
-423.544	311.459	0.120	-0.223
-422.530	66.240	-0.139	0.140
-421.515	93.469	-0.062	-0.069
-420.500	784.000	0.068	-0.185
-419.486	800.000	-0.114	-0.330
-418.471	70.112	0.196	0.201
-417.457	-200.000	0.011	0.146
-416.442	-51.123	-0.289	0.135
-415.428	-111.376	-0.081	-0.016
-414.413	215.019	-0.216	0.341
-413.398	14.325	0.235	-0.182
-412.384	-200.000	0.050	-0.490
-411.369	-200.000	-0.041	-0.246
-410.355	-5.700	0.316	0.215
-409.340	520.134	-0.074	0.172
-408.325	800.000	-0.034	-0.142
-407.311	104.861	0.102	-0.119
-406.296	-114.828	0.418	0.079
-405.282	375.447	0.126	0.255
-404.267	800.000	-0.032	0.113
-403.252	-200.000	0.012	0.134
-402.238	-40.561	-0.271	-0.140
-401.223	-95.525	-0.333	0.089
-400.209	508.831	0.024	0.055
-399.194	518.778	-0.062	-0.143
-398.179	-132.139	-0.006	-0.001
-397.165	52.406	-0.353	-0.334
-396.150	800.000	-0.022	0.081
-395.136	30.289	-0.186	-0.158
-394.121	736.765	0.085	-0.226
-393.106	187.420	-0.074	0.110
-392.092	117.355	0.148	-0.181
-391.077	-35.410	0.313	0.169
-390.063	82.296	0.198	-0.213
-389.048	-110.374	-0.148	-0.031
-388.033	273.377	-0.075	-0.131
-387.019	107.451	0.191	0.226
-386.004	773.713	0.081	0.219
-384.990	800.000	0.075	0.265
-383.975	-200.000	-0.008	0.383
-382.960	12.750	0.083	-0.063
-381.946	-59.740	-0.234	-0.099
-380.931	-200.000	-0.006	0.092
-379.917	800.000	-0.142	0.425
-378.902	-107.418	0.516	-0.112
-377.888	144.074	0.040	-0.053
-376.873	498.965	-0.047	-0.106
-375.858	-200.000	0.053	-0.345
-374.844	54.990	0.192	0.184
-373.829	-15.850	0.275	0.173
-372.815	118.680	0.063	0.077
-371.800	87.069	0.131	-0.144
-370.785	497.117	0.100	0.227
-369.771	89.519	0.206	0.227
-368.756	-12.357	0.143	-0.093
-367.742	145.667	0.245	0.325
-366.727	-200.000	-0.027	-0.125
-365.712	288.881	0.160	-0.288
-364.698	-200.000	0.021	0.302
-363.683	202.221	-0.150	0.229
-362.669	636.084	0.063	-0.158
-361.654	4.271	0.188	-0.136
-360.639	-112.580	-0.223	0.044
-359.625	353.848	0.087	-0.171
-358.610	-154.340	-0.118	0.008
-357.596	-109.651	0.219	-0.046
-356.581	-200.000	-0.011	0.069
-355.566	-80.621	0.220	-0.073
-354.552	-56.082	-0.221	-0.098
-353.537	51.182	0.140	-0.131
-352.523	52.030	-0.083	-0.078
-351.508	337.174	0.099	0.190
-350.493	-200.000	-0.029	-0.354
-349.479	339.465	-0.046	0.089
-348.464	433.270	0.013	-0.028
-347.450	-133.746	-0.096	-0.012
-346.435	1.165	0.357	-0.254
-345.420	-200.000	-0.001	-0.276
-344.406	-200.000	0.023	-0.127
-343.391	-53.707	0.083	-0.038
-342.377	-39.485	0.269	-0.140
-341.362	-47.799	-0.080	-0.038
-340.348	800.000	0.011	0.031
-339.333	201.434	0.136	-0.207
-338.318	246.577	0.268	0.448
-337.304	800.000	0.039	0.165
-336.289	355.231	-0.141	-0.277
-335.275	-25.523	0.112	0.065
-334.260	110.228	-0.010	0.012
-333.245	-110.794	0.292	0.060
-332.231	-64.704	-0.194	0.078
-331.216	800.000	0.088	0.254
-330.202	-127.217	0.242	-0.035
-329.187	23.843	-0.302	0.246
-328.172	31.565	0.273	0.232
-327.158	-98.363	-0.135	-0.034
-326.143	354.726	-0.058	-0.114
-325.129	-200.000	-0.002	0.035
-324.114	800.000	-0.039	0.149
-323.099	51.035	0.131	0.123
-322.085	-200.000	-0.043	0.319
-321.070	-200.000	-0.035	0.207
-320.056	800.000	0.069	-0.199
-319.041	-6.195	-0.199	-0.135
-318.026	-87.588	0.237	0.071
-317.012	69.091	0.102	0.103
-315.997	800.000	-0.058	-0.207
-314.983	-182.153	0.216	-0.004
-313.968	19.330	-0.236	-0.188
-312.953	362.336	-0.044	0.087
-311.939	800.000	0.047	0.146
-310.924	-13.484	0.094	0.061
-309.910	-200.000	-0.047	0.249
-308.895	-200.000	0.008	0.066
-307.880	-78.152	-0.089	-0.030
-306.866	-200.000	0.026	0.273
-305.851	-113.395	-0.050	-0.010
-304.837	-26.446	-0.102	-0.059
-303.822	-39.315	0.238	-0.123
-302.807	800.000	0.075	-0.287
-301.793	12.370	-0.264	0.201
-300.778	-107.458	0.149	-0.032
-299.764	95.932	-0.291	0.329
-298.749	-110.105	0.226	-0.047
-297.735	-102.823	-0.162	0.038
-296.720	101.380	-0.182	-0.209
-295.705	113.422	0.163	0.195
-294.691	298.382	0.156	0.283
-293.676	800.000	-0.037	0.134
-292.662	-200.000	-0.026	-0.184
-291.647	-26.966	0.147	0.085
-290.632	-133.834	0.338	-0.042
-289.618	109.009	-0.165	0.196
-288.603	409.354	0.142	-0.298
-287.589	-68.553	0.198	-0.076
-286.574	129.638	0.055	0.069
-285.559	-132.008	-0.369	0.048
-284.545	-16.017	0.209	0.131
-283.530	800.000	-0.047	0.191
-282.516	193.736	0.123	-0.184
-281.501	258.240	0.041	0.069
-280.486	616.858	-0.079	0.196
-279.472	-121.641	-0.225	-0.037
-278.457	9.553	-0.108	0.081
-277.443	-14.923	0.281	-0.178
-276.428	-31.394	-0.370	0.206
-275.413	379.067	0.142	0.288
-274.399	540.761	0.036	0.084
-273.384	236.781	-0.084	0.138
-272.370	-0.257	-0.122	0.085
-271.355	3.887	-0.111	-0.080
-270.340	-57.920	0.256	0.110
-269.326	136.627	-0.048	-0.061
-268.311	772.844	0.085	-0.228
-267.297	-200.000	0.045	0.203
-266.282	91.948	0.246	-0.273
-265.267	131.842	-0.112	-0.142
-264.253	787.477	-0.135	-0.365
-263.238	40.246	0.073	-0.065
-262.224	268.648	0.148	0.257
-261.209	116.134	-0.295	0.357
-260.195	788.989	0.058	-0.158
-259.180	800.000	0.102	0.292
-258.165	-42.211	0.142	-0.072
-257.151	44.367	0.154	-0.139
-256.136	-127.130	-0.357	-0.052
-255.122	-200.000	-0.020	0.335
-254.107	169.003	0.071	0.100
-253.092	-200.000	-0.026	-0.190
-252.078	13.538	-0.176	-0.135
-251.063	800.000	-0.087	0.326
-250.049	798.422	-0.060	-0.164
-249.034	-72.317	-0.191	0.070
-248.019	283.113	-0.048	-0.085
-247.005	-200.000	-0.006	0.110
-245.990	480.464	-0.103	-0.230
-244.976	216.164	-0.134	0.209
-243.961	-102.014	-0.101	-0.024
-242.946	-107.825	0.235	0.051
-241.932	800.000	-0.092	-0.280
-240.917	-34.507	-0.056	-0.030
-239.903	-200.000	0.023	0.140
-238.888	151.461	-0.306	-0.411
-237.873	74.799	-0.149	0.154
-236.859	800.000	0.042	-0.152
-235.844	-29.549	-0.212	-0.119
-234.830	-200.000	0.028	-0.205
-233.815	9.302	-0.339	-0.253
-232.800	584.186	0.105	-0.255
-231.786	399.150	-0.117	-0.242
-230.771	241.073	-0.243	-0.400
-229.757	-116.102	0.306	-0.056
-228.742	800.000	0.061	0.234
-227.727	122.244	0.201	0.248
-226.713	-68.278	0.351	0.135
-225.698	800.000	0.039	-0.166
-224.684	-96.537	0.211	-0.055
-223.669	-61.117	-0.327	0.136
-222.655	-200.000	0.001	0.171
-221.640	22.521	-0.104	0.084
-220.625	-127.732	-0.099	-0.014
-219.611	51.040	0.207	0.194
-218.596	44.555	0.191	-0.173
-217.582	800.000	0.041	0.175
-216.567	388.498	-0.198	-0.405
-215.552	23.591	0.168	-0.136
-214.538	-151.999	0.202	-0.015
-213.523	10.860	-0.107	0.080
-212.509	250.406	-0.067	-0.112
-211.494	800.000	0.138	0.382
-210.479	259.537	-0.079	-0.134
-209.465	146.930	0.214	0.283
-208.450	28.626	0.161	0.135
-207.436	-18.980	0.158	0.097
-206.421	-200.000	0.026	-0.113
-205.406	-41.322	-0.149	-0.076
-204.392	-200.000	-0.021	-0.257
-203.377	153.259	0.130	-0.175
-202.363	-200.000	-0.000	-0.252
-201.348	66.376	-0.064	0.064
-200.333	-200.000	0.004	0.029
-199.319	800.000	0.117	0.441
-198.304	105.013	0.181	0.210
-197.290	-146.335	0.196	0.017
-196.275	-134.041	-0.108	-0.013
-195.260	800.000	0.065	0.188
-194.246	263.819	0.069	0.118
-193.231	-200.000	0.031	-0.197
-192.217	-86.168	0.457	-0.139
-191.202	800.000	-0.133	0.404
-190.187	-104.493	-0.106	-0.024
-189.173	45.159	0.203	-0.184
-188.158	-117.144	-0.320	0.057
-187.144	213.666	-0.120	0.186
-186.129	237.104	0.066	0.107
-185.114	150.686	-0.096	-0.128
-184.100	-200.000	0.012	-0.235
-183.085	-64.542	0.226	0.090
-182.071	-163.126	-0.154	0.007
-181.056	-200.000	0.058	0.373
-180.042	243.399	-0.100	-0.166
-179.027	-200.000	0.054	-0.290
-178.012	-200.000	-0.017	-0.115
-176.998	80.524	-0.087	0.093
-175.983	-200.000	-0.031	0.169
-174.969	-65.356	-0.045	0.018
-173.954	38.081	-0.230	-0.202
-172.939	-121.814	0.165	-0.027
-171.925	-200.000	0.007	0.125
-170.910	535.573	0.167	0.390
-169.896	-33.767	0.061	0.033
-168.881	51.211	-0.075	-0.070
-167.866	800.000	0.080	-0.331
-166.852	-196.310	-0.308	0.002
-165.837	265.751	-0.078	-0.134
-164.823	160.791	-0.102	0.139
-163.808	-147.933	-0.205	0.017
-162.793	583.251	0.048	-0.116
-161.779	261.743	0.121	-0.207
-160.764	-145.219	0.227	-0.020
-159.750	-17.108	-0.077	0.048
-158.735	242.426	-0.183	-0.301
-157.720	-82.120	-0.188	0.060
-156.706	58.233	-0.118	-0.113
-155.691	-200.000	-0.029	0.307
-154.677	460.147	-0.051	-0.111
-153.662	-55.804	-0.116	-0.051
-152.647	-48.195	-0.191	0.091
-151.633	-200.000	-0.014	0.084
-150.618	117.914	0.193	0.233
-149.604	36.557	-0.060	0.052
-148.589	181.389	0.122	-0.176
-147.574	74.447	0.197	-0.204
-146.560	-200.000	-0.010	-0.262
-145.545	637.278	-0.159	-0.397
-144.531	226.700	0.109	-0.174
-143.516	800.000	-0.039	0.118
-142.502	-100.251	-0.144	-0.035
-141.487	166.215	0.126	-0.175
-140.472	-200.000	0.020	-0.093
-139.458	-47.370	-0.390	0.186
-138.443	-200.000	0.022	-0.190
-137.429	70.211	-0.198	-0.201
-136.414	-93.735	-0.228	0.062
-135.399	-200.000	-0.032	0.327
-134.385	2.986	-0.181	0.129
-133.370	-39.097	-0.108	0.056
-132.356	800.000	0.089	-0.362
-131.341	800.000	0.110	-0.396
-130.326	75.523	0.227	-0.236
-129.312	278.864	0.116	-0.203
-128.297	120.438	-0.206	0.251
-127.283	-31.459	0.277	-0.153
-126.268	389.561	-0.151	0.306
-125.253	59.307	0.148	0.143
-124.239	800.000	-0.083	-0.313
-123.224	-27.754	0.194	-0.111
-122.210	-200.000	-0.080	-0.381
