DTS Sentinel unit serial number:	SN413079Multiplexer serial number:	ORYXHardware model number:	OX4-SRSoftware version number:	ORYX F/W v4.00 Oryx Data Collector v3.7.2.0data status	okinstallation	princeton_trtdifferential loss correction	single-endedforward channel	channel 1reverse channel	N/Adate	2019/09/15time	05:22:35forward acquisition time	60.00reverse acquisition time	0.00gamma	496.2192k internal	0.2325k external	0.2325temperature offset calibration	0.9991default loss term (dB/km)	0.3790temperature slope calibration	1.0000multiplexer offset coefficient	1.0000multiplexer slope coefficient	1.0000fibre end	0.00T internal ref (°C)	30.59T ext. ref 1 (°C)	4.78T ext. ref 2 (°C)	25.61length (m)	temperature (°C)	Stokes	anti-Stokes-747.200	361.059	0.048	-0.098
-746.185	800.000	-0.107	0.369
-745.171	-64.335	0.221	-0.091
-744.156	-57.665	0.101	0.045
-743.142	433.276	-0.090	-0.197
-742.127	-8.344	0.158	0.107
-741.112	-61.005	0.096	0.041
-740.098	195.706	-0.155	0.238
-739.083	-137.923	0.171	0.019
-738.069	371.611	0.110	0.226
-737.054	485.933	0.134	-0.309
-736.039	-145.204	-0.428	0.039
-735.025	-200.000	-0.053	0.256
-734.010	-133.422	-0.146	-0.019
-732.996	6.513	-0.326	0.245
-731.981	-200.000	-0.018	0.239
-730.966	84.519	-0.195	0.215
-729.952	61.989	-0.116	0.116
-728.937	-180.372	-0.247	0.005
-727.923	19.046	-0.153	-0.124
-726.908	800.000	-0.068	0.222
-725.894	-200.000	0.057	0.410
-724.879	176.536	0.096	-0.141
-723.864	-140.567	0.079	-0.008
-722.850	-200.000	-0.044	-0.313
-721.835	-78.130	0.214	0.074
-720.821	256.962	0.116	-0.201
-719.806	-121.091	-0.135	0.023
-718.791	-166.369	0.168	0.007
-717.777	-8.031	-0.064	-0.043
-716.762	-8.604	-0.023	0.015
-715.748	80.296	0.166	-0.180
-714.733	56.273	-0.128	-0.125
-713.718	145.026	0.118	-0.159
-712.704	800.000	-0.052	0.164
-711.689	182.604	-0.130	0.194
-710.675	340.470	0.044	-0.086
-709.660	2.057	-0.185	-0.135
-708.645	800.000	0.056	0.222
-707.631	-200.000	-0.023	-0.195
-706.616	-164.846	-0.134	0.006
-705.602	-72.397	-0.459	-0.171
-704.587	800.000	-0.138	-0.418
-703.572	-21.002	-0.330	-0.204
-702.558	-48.274	0.035	-0.017
-701.543	-200.000	0.012	0.089
-700.529	-67.648	-0.173	0.068
-699.514	-108.600	-0.314	0.068
-698.499	-30.855	0.081	-0.046
-697.485	2.956	-0.130	0.095
-696.470	-164.306	0.055	-0.003
-695.456	-111.922	-0.131	-0.027
-694.441	-82.534	0.240	0.078
-693.426	-65.701	0.267	-0.108
-692.412	216.203	-0.165	0.264
-691.397	-200.000	0.016	-0.151
-690.383	-163.722	0.179	0.008
-689.368	-8.517	-0.033	-0.022
-688.354	800.000	-0.063	0.184
-687.339	93.054	-0.141	-0.160
-686.324	8.824	0.171	0.130
-685.310	345.938	-0.235	-0.464
-684.295	-88.545	0.139	-0.042
-683.281	100.281	0.198	0.232
-682.266	487.334	0.068	-0.157
-681.251	-86.578	0.285	-0.088
-680.237	248.405	-0.048	0.082
-679.222	14.071	-0.345	0.270
-678.208	91.386	0.105	0.118
-677.193	10.957	-0.101	-0.078
-676.178	748.130	0.101	-0.274
-675.164	13.189	-0.121	-0.094
-674.149	216.281	-0.079	0.126
-673.135	125.369	0.019	-0.024
-672.120	731.092	0.054	0.144
-671.105	353.314	0.090	-0.179
-670.091	800.000	-0.032	0.097
-669.076	-147.204	-0.172	0.015
-668.062	-164.911	0.241	0.011
-667.047	78.325	0.146	0.157
-666.032	-64.915	-0.289	-0.118
-665.018	800.000	-0.130	-0.409
-664.003	-92.033	-0.168	-0.048
-662.989	230.386	-0.144	0.237
-661.974	-27.707	-0.206	0.120
-660.959	-71.464	-0.189	-0.071
-659.945	330.170	-0.233	0.450
-658.930	-80.633	-0.154	0.051
-657.916	-178.341	0.146	-0.003
-656.901	-53.965	0.171	0.078
-655.886	375.310	-0.030	-0.061
-654.872	-152.816	-0.467	0.033
-653.857	400.375	0.045	-0.096
-652.843	-200.000	-0.026	0.317
-651.828	109.817	-0.095	-0.114
-650.814	800.000	-0.014	-0.059
-649.799	-200.000	0.048	-0.256
-648.784	25.090	0.174	0.145
-647.770	334.921	0.056	-0.109
-646.755	-65.951	0.216	0.087
-645.741	-99.726	0.244	-0.061
-644.726	800.000	-0.059	-0.227
-643.711	-38.520	0.074	-0.039
-642.697	-168.430	-0.224	0.009
-641.682	-93.173	0.353	-0.099
-640.668	411.114	0.086	-0.184
-639.653	334.063	-0.097	-0.188
-638.638	355.416	-0.289	-0.577
-637.624	744.333	0.090	-0.242
-636.609	-200.000	-0.047	-0.296
-635.595	-200.000	0.012	-0.096
-634.580	-109.115	-0.049	0.010
-633.565	-58.918	-0.113	0.049
-632.551	-111.493	-0.178	0.036
-631.536	-125.682	0.239	-0.036
-630.522	159.813	0.040	0.055
-629.507	790.684	0.090	-0.248
-628.492	12.943	0.281	-0.218
-627.478	-30.620	0.157	-0.089
-626.463	199.751	0.040	0.062
-625.449	-200.000	-0.034	-0.270
-624.434	800.000	0.104	0.300
-623.419	310.755	-0.078	0.146
-622.405	-117.417	-0.331	0.060
-621.390	12.705	-0.300	0.232
-620.376	-200.000	0.066	-0.614
-619.361	45.926	-0.249	0.232
-618.346	-200.000	-0.011	-0.080
-617.332	-42.033	-0.270	0.139
-616.317	-200.000	0.051	-0.404
-615.303	530.181	0.032	-0.075
-614.288	-123.890	0.242	-0.038
-613.273	763.256	0.109	-0.297
-612.259	45.898	-0.256	0.238
-611.244	-92.188	-0.278	-0.079
-610.230	800.000	-0.071	0.226
-609.215	131.180	0.179	0.231
-608.201	800.000	-0.074	-0.295
-607.186	41.719	-0.205	-0.186
-606.171	207.129	0.109	-0.170
-605.157	-124.419	0.172	-0.027
-604.142	-27.292	0.167	0.097
-603.128	800.000	-0.132	-0.413
-602.113	-86.178	-0.210	-0.065
-601.098	-50.692	-0.221	-0.104
-600.084	7.829	0.360	-0.271
-599.069	-200.000	0.047	-0.358
-598.055	-59.378	-0.183	-0.079
-597.040	38.216	-0.131	-0.117
-596.025	-200.000	0.010	-0.137
-595.011	-139.891	0.138	0.015
-593.996	181.472	-0.088	0.130
-592.982	-200.000	0.004	-0.094
-591.967	83.813	-0.170	0.186
-590.952	36.393	0.328	-0.290
-589.938	-106.137	-0.481	-0.108
-588.923	65.065	0.181	-0.183
-587.909	-200.000	-0.015	0.110
-586.894	17.869	-0.210	0.168
-585.879	800.000	0.078	0.237
-584.865	-41.735	0.524	0.269
-583.850	36.511	0.023	0.020
-582.836	-160.195	-0.158	0.009
-581.821	-200.000	0.042	-0.195
-580.806	74.474	-0.187	-0.197
-579.792	-51.237	0.464	0.218
-578.777	800.000	0.058	-0.237
-577.763	-19.647	0.209	-0.129
-576.748	582.484	-0.103	-0.252
-575.733	383.813	-0.083	-0.172
-574.719	-108.717	-0.346	-0.074
-573.704	-200.000	0.325	0.001
-572.690	84.038	-0.116	0.127
-571.675	56.966	-0.027	-0.026
-570.661	-200.000	-0.002	0.282
-569.646	800.000	-0.064	-0.279
-568.631	-104.022	-0.369	-0.086
-567.617	80.826	0.009	-0.010
-566.602	44.178	-0.061	0.056
-565.588	-200.000	-0.024	0.244
-564.573	-65.057	0.117	-0.047
-563.558	-137.646	0.153	0.017
-562.544	800.000	0.031	0.087
-561.529	-19.968	0.041	-0.026
-560.515	-46.310	-0.413	-0.204
-559.500	-84.808	0.071	-0.022
-558.485	800.000	-0.070	0.199
-557.471	18.092	0.130	-0.104
-556.456	-24.262	0.224	-0.134
-555.442	114.526	0.287	-0.351
-554.427	800.000	0.083	-0.272
-553.412	800.000	-0.107	0.332
-552.398	14.743	0.225	-0.176
-551.383	-43.753	-0.337	0.170
-550.369	800.000	0.023	-0.079
-549.354	-200.000	0.041	0.263
-548.339	-200.000	-0.012	-0.128
-547.325	-145.456	0.106	0.010
-546.310	-180.179	-0.043	-0.001
-545.296	-88.779	0.288	-0.086
-544.281	-100.698	0.111	0.027
-543.266	280.749	0.221	0.395
-542.252	61.814	0.095	-0.095
-541.237	2.745	0.213	-0.155
-540.223	-2.041	-0.008	0.005
-539.208	152.274	0.045	-0.061
-538.193	533.194	0.067	-0.158
-537.179	-63.093	0.239	-0.099
-536.164	-34.482	-0.205	-0.112
-535.150	14.547	0.166	-0.130
-534.135	42.082	0.245	-0.223
-533.121	270.614	0.070	0.123
-532.106	340.507	-0.159	-0.310
-531.091	-200.000	0.062	-0.303
-530.077	-134.376	0.042	-0.005
-529.062	72.780	-0.146	-0.153
-528.048	237.382	0.163	-0.271
-527.033	-103.597	-0.377	-0.089
-526.018	2.785	-0.116	0.084
-525.004	-58.099	-0.103	-0.045
-523.989	800.000	-0.051	0.211
-522.975	-62.051	-0.131	-0.055
-521.960	800.000	-0.066	-0.209
-520.945	-141.516	-0.137	-0.014
-519.931	242.086	0.044	-0.074
-518.916	94.113	0.046	-0.052
-517.902	-200.000	-0.055	0.377
-516.887	133.411	-0.031	-0.041
-515.872	-35.076	0.239	-0.130
-514.858	-72.645	-0.302	0.111
-513.843	-75.986	-0.376	-0.133
-512.829	800.000	-0.056	0.171
-511.814	-200.000	-0.026	0.256
-510.799	800.000	-0.103	-0.332
-509.785	25.456	-0.330	-0.274
-508.770	-132.320	0.296	0.038
-507.756	51.976	-0.103	0.098
-506.741	167.928	0.076	-0.109
-505.726	-43.688	-0.214	-0.108
-504.712	136.307	0.081	0.105
-503.697	24.276	-0.088	-0.073
-502.683	157.572	0.091	0.125
-501.668	-28.109	-0.225	0.130
-500.653	-64.213	0.302	0.123
-499.639	181.011	-0.095	0.140
-498.624	223.670	0.085	-0.137
-497.610	-111.790	-0.289	-0.058
-496.595	-200.000	-0.024	-0.295
-495.581	241.242	-0.177	-0.295
-494.566	-200.000	0.043	-0.271
-493.551	522.776	0.201	-0.471
-492.537	-19.251	-0.157	0.097
-491.522	-47.109	0.183	0.089
-490.508	331.267	-0.085	-0.163
-489.493	800.000	-0.065	0.201
-488.478	1.800	0.091	0.066
-487.464	281.696	-0.066	0.118
-486.449	160.953	-0.044	0.061
-485.435	-31.280	-0.047	-0.026
-484.420	3.941	-0.274	-0.200
-483.405	65.668	-0.074	0.075
-482.391	-88.967	0.468	0.138
-481.376	73.341	-0.175	0.182
-480.362	103.776	-0.180	0.212
-479.347	-163.759	0.162	-0.008
-478.332	-125.565	-0.392	-0.059
-477.318	-117.659	-0.191	0.034
-476.303	-81.636	0.112	-0.037
-475.289	794.890	-0.047	-0.129
-474.274	-200.000	-0.019	-0.213
-473.259	-200.000	0.043	-0.266
-472.245	-200.000	-0.012	-0.059
-471.230	-53.160	0.170	0.078
-470.216	718.953	0.071	0.189
-469.201	-147.723	-0.073	-0.006
-468.186	-200.000	-0.012	0.358
-467.172	-32.300	0.119	0.066
-466.157	-93.467	0.125	0.034
-465.143	226.068	0.175	0.283
-464.128	800.000	0.051	0.181
-463.113	-190.856	-0.213	-0.002
-462.099	-128.057	0.256	-0.037
-461.084	0.088	-0.195	0.139
-460.070	-60.068	0.161	0.069
-459.055	-200.000	-0.029	-0.143
-458.040	-200.000	-0.056	-0.387
-457.026	-59.393	0.180	-0.077
-456.011	-200.000	-0.015	0.178
-454.997	-180.634	0.305	-0.006
-453.982	138.407	0.082	-0.108
-452.968	800.000	-0.055	-0.225
-451.953	800.000	-0.053	0.214
-450.938	-1.146	0.079	-0.056
-449.924	234.179	-0.295	-0.486
-448.909	-126.008	-0.136	0.020
-447.895	69.236	-0.276	0.283
-446.880	-84.882	0.572	-0.179
-445.865	800.000	-0.126	0.387
-444.851	514.693	0.122	0.283
-443.836	-131.208	-0.010	-0.001
-442.822	94.199	-0.150	0.169
-441.807	-159.851	-0.103	-0.006
-440.792	33.795	-0.182	0.158
-439.778	89.153	0.020	-0.022
-438.763	6.724	-0.123	-0.091
-437.749	-200.000	0.054	-0.338
-436.734	124.250	-0.223	0.280
-435.719	-101.542	0.168	-0.041
-434.705	-61.769	0.328	0.137
-433.690	470.369	0.123	0.275
-432.676	122.183	-0.093	-0.116
-431.661	-200.000	0.058	-0.372
-430.646	-52.557	0.156	-0.072
-429.632	430.311	0.090	-0.194
-428.617	143.377	-0.052	-0.069
-427.603	120.905	-0.166	-0.206
-426.588	-103.991	0.207	0.048
-425.573	800.000	0.043	-0.124
-424.559	800.000	0.037	0.102
-423.544	-33.875	0.323	0.177
-422.530	-3.752	-0.291	-0.202
-421.515	-200.000	0.028	-0.313
-420.500	-129.049	-0.273	-0.038
-419.486	800.000	0.021	0.066
-418.471	39.361	0.172	0.154
-417.457	-178.689	-0.312	-0.007
-416.442	210.331	-0.052	0.081
-415.428	-173.768	-0.215	-0.006
-414.413	-200.000	0.047	0.376
-413.398	-158.579	0.264	0.015
-412.384	76.993	0.061	0.065
-411.369	591.478	-0.095	-0.234
-410.355	-200.000	0.046	0.448
-409.340	800.000	-0.065	0.199
-408.325	445.093	-0.105	0.229
-407.311	141.283	0.198	0.261
-406.296	-47.232	-0.265	-0.128
-405.282	800.000	0.054	0.220
-404.267	1.891	0.112	0.081
-403.252	-27.017	0.417	0.242
-402.238	97.586	0.283	0.323
-401.223	382.180	-0.051	-0.105
-400.209	-96.665	0.316	0.083
-399.194	-43.910	-0.124	0.062
-398.179	326.463	-0.118	0.225
-397.165	-29.492	-0.236	-0.134
-396.150	54.701	0.145	-0.139
-395.136	51.577	0.096	0.091
-394.121	-0.237	-0.247	0.175
-393.106	126.145	-0.276	0.347
-392.092	800.000	0.063	0.264
-391.077	-126.167	-0.428	-0.064
-390.063	-200.000	-0.030	0.246
-389.048	800.000	0.039	-0.152
-388.033	800.000	-0.026	0.103
-387.019	800.000	-0.061	-0.185
-386.004	-59.762	0.083	0.035
-384.990	-177.913	0.463	0.011
-383.975	-126.996	-0.505	0.074
-382.960	44.329	-0.080	0.073
-381.946	89.449	-0.167	0.185
-380.931	-200.000	-0.006	0.266
-379.917	777.728	-0.057	0.155
-378.902	-41.222	0.190	0.097
-377.888	32.193	-0.269	0.231
-376.873	30.438	-0.145	0.123
-375.858	131.931	-0.250	0.320
-374.844	-193.707	0.125	0.001
-373.829	-152.020	-0.160	0.012
-372.815	-200.000	-0.057	-0.306
-371.800	17.592	-0.187	-0.148
-370.785	71.507	-0.077	-0.079
-369.771	151.535	-0.145	0.196
-368.756	-14.867	-0.132	-0.084
-367.742	800.000	0.086	-0.362
-366.727	-57.464	0.105	-0.046
-365.712	-200.000	0.005	0.275
-364.698	800.000	-0.182	0.566
-363.683	-35.214	0.078	-0.042
-362.669	390.351	-0.120	0.248
-361.654	109.069	-0.244	-0.291
-360.639	151.712	0.237	0.321
-359.625	113.865	0.208	0.251
-358.610	496.743	0.120	0.273
-357.596	800.000	0.083	0.298
-356.581	721.884	-0.007	0.018
-355.566	-200.000	0.001	0.309
-354.552	-200.000	0.006	0.078
-353.537	402.148	-0.106	0.221
-352.523	-54.261	-0.152	0.069
-351.508	-200.000	-0.019	0.083
-350.493	52.164	0.176	0.167
-349.479	186.460	-0.183	-0.271
-348.464	366.577	-0.169	-0.339
-347.450	800.000	-0.029	-0.097
-346.435	-9.284	0.220	0.146
-345.420	454.747	0.042	-0.093
-344.406	-200.000	0.055	0.309
-343.391	-125.975	0.235	-0.035
-342.377	-7.305	-0.272	0.183
-341.362	350.464	0.094	-0.184
-340.348	-77.569	0.180	0.062
-339.333	800.000	0.126	0.448
-338.318	-40.105	-0.302	0.156
-337.304	-100.939	0.528	-0.129
-336.289	-29.902	-0.069	0.039
-335.275	295.683	0.163	-0.296
-334.260	-17.837	-0.150	-0.094
-333.245	-126.538	0.317	-0.047
-332.231	250.352	-0.157	-0.264
-331.216	142.247	0.125	0.165
-330.202	-38.078	0.177	0.093
-329.187	-200.000	0.025	-0.123
-328.172	311.238	-0.131	-0.245
-327.158	-200.000	0.016	0.211
-326.143	670.641	-0.071	-0.182
-325.129	33.131	-0.135	0.117
-324.114	50.406	0.065	-0.061
-323.099	800.000	-0.096	-0.283
-322.085	658.542	0.041	-0.104
-321.070	-200.000	-0.028	0.177
-320.056	-124.172	0.339	-0.053
-319.041	-200.000	-0.007	0.083
-318.026	-47.576	0.370	-0.178
-317.012	211.030	-0.202	-0.316
-315.997	-59.380	-0.130	0.055
-314.983	-200.000	0.005	-0.037
-313.968	332.911	0.100	-0.193
-312.953	-141.440	0.420	-0.042
-311.939	-80.336	-0.210	0.070
-310.924	-94.221	-0.329	-0.089
-309.910	82.111	0.123	0.132
-308.895	-47.535	0.173	0.083
-307.880	800.000	0.029	-0.107
-306.866	17.218	0.307	-0.242
-305.851	74.169	-0.168	-0.175
-304.837	-200.000	-0.006	-0.276
-303.822	103.152	-0.029	-0.034
-302.807	-7.116	0.224	-0.151
-301.793	-7.360	0.095	-0.064
-300.778	-40.695	-0.217	0.112
-299.764	-89.255	-0.347	0.102
-298.749	23.447	-0.080	-0.065
-297.735	-43.733	-0.138	0.069
-296.720	203.052	-0.162	0.248
-295.705	800.000	-0.090	-0.328
-294.691	138.785	0.195	-0.253
-293.676	-101.577	-0.271	-0.065
-292.662	-55.654	0.282	-0.125
-291.647	77.518	-0.089	-0.093
-290.632	235.604	0.119	-0.195
-289.618	-176.610	0.369	0.009
-288.603	-200.000	-0.013	0.190
-287.589	-200.000	-0.018	0.312
-286.574	47.572	-0.098	-0.091
-285.559	-69.653	0.277	0.105
-284.545	-200.000	-0.002	0.127
-283.530	-58.692	-0.072	0.031
-282.516	-97.495	-0.200	0.052
-281.501	22.514	0.137	-0.111
-280.486	800.000	-0.044	-0.134
-279.472	35.260	-0.211	-0.183
-278.457	-200.000	0.014	-0.070
-277.443	342.858	-0.094	0.182
-276.428	-99.743	-0.180	-0.045
-275.413	-200.000	-0.021	0.172
-274.399	274.284	-0.044	-0.077
-273.384	498.446	0.101	0.230
-272.370	-200.000	0.020	0.178
-271.355	786.919	-0.074	0.200
-270.340	-18.196	0.388	0.240
-269.326	263.277	0.096	0.165
-268.311	-103.804	0.175	0.041
-267.297	-200.000	0.032	-0.261
-266.282	-128.147	-0.276	0.039
-265.267	-40.243	-0.025	0.013
-264.253	141.687	0.241	-0.316
-263.238	15.813	-0.059	-0.046
-262.224	-41.413	0.234	0.119
-261.209	170.098	-0.061	-0.086
-260.195	-51.126	-0.197	0.092
-259.180	-31.811	-0.175	-0.097
-258.165	693.433	0.068	-0.177
-257.151	800.000	-0.016	-0.048
-256.136	78.137	-0.145	0.153
-255.122	457.907	-0.042	0.093
-254.107	46.069	0.039	0.036
-253.092	-187.449	-0.169	0.002
-252.078	-94.609	-0.120	-0.032
-251.063	-54.482	-0.371	0.166
-250.049	-34.737	-0.111	-0.060
-249.034	-200.000	0.071	-0.320
-248.019	-72.467	-0.398	0.145
-247.005	-57.282	0.196	0.085
-245.990	-114.278	-0.312	0.060
-244.976	-30.322	-0.095	-0.053
-243.961	15.215	0.117	0.090
-242.946	800.000	-0.023	0.068
-241.932	800.000	-0.072	0.299
-240.917	-98.266	0.109	0.028
-239.903	-69.975	0.218	-0.082
-238.888	800.000	-0.019	0.062
-237.873	612.883	-0.090	0.223
-236.859	621.086	0.029	0.073
-235.844	-84.103	0.183	0.057
-234.830	-180.479	0.073	0.002
-233.815	-49.672	0.321	-0.151
-232.800	82.495	0.260	0.279
-231.786	-20.107	-0.116	-0.071
-230.771	355.681	0.136	-0.268
-229.757	54.079	0.286	0.272
-228.742	-105.437	-0.306	0.069
-227.727	146.860	0.128	0.171
-226.713	38.282	0.144	0.127
-225.698	-200.000	0.014	0.180
-224.684	-15.085	-0.209	0.132
-223.669	224.694	0.137	-0.219
-222.655	40.148	0.194	-0.172
-221.640	800.000	0.035	-0.147
-220.625	91.074	-0.238	-0.264
-219.611	-61.043	0.255	0.106
-218.596	158.804	-0.044	0.060
-217.582	-200.000	0.031	0.226
-216.567	-122.665	0.264	-0.042
-215.552	-4.032	0.004	-0.003
-214.538	309.256	0.082	-0.151
-213.523	-108.042	-0.017	-0.004
-212.509	-144.463	0.284	0.026
-211.494	27.623	-0.043	0.036
-210.479	800.000	-0.046	0.182
-209.465	-160.917	0.037	0.002
-208.450	452.184	0.052	-0.113
-207.436	304.309	0.028	0.051
-206.421	-200.000	-0.094	0.439
-205.406	-26.204	0.140	-0.081
-204.392	154.844	-0.186	0.253
-203.377	-101.981	0.273	0.065
-202.363	-30.247	-0.081	-0.045
-201.348	59.475	0.146	-0.142
-200.333	800.000	0.119	0.409
-199.319	-128.700	-0.176	-0.025
-198.304	-86.507	-0.257	0.078
-197.290	81.722	0.078	-0.083
-196.275	60.000	-0.245	0.239
-195.260	-71.111	-0.050	-0.019
-194.246	-16.402	0.246	0.154
-193.231	800.000	-0.025	0.088
-192.217	-48.483	0.208	-0.099
-191.202	-200.000	-0.005	0.193
-190.187	-200.000	-0.041	0.243
-189.173	457.543	-0.104	-0.227
-188.158	40.760	-0.208	-0.185
-187.144	137.276	0.107	0.138
-186.129	-200.000	0.018	-0.110
-185.114	167.266	-0.097	0.136
-184.100	-118.426	0.160	-0.028
-183.085	-140.422	-0.263	0.027
-182.071	-116.698	-0.070	-0.013
-181.056	-200.000	0.038	-0.248
-180.042	-108.124	-0.297	-0.064
-179.027	-62.198	-0.213	0.088
-178.012	1.515	-0.136	-0.097
-176.998	-73.915	0.230	0.082
-175.983	67.180	-0.341	0.343
-174.969	800.000	0.150	-0.420
-173.954	398.624	-0.047	-0.097
-172.939	12.295	-0.153	0.116
-171.925	-14.810	0.219	0.139
-170.910	-197.943	0.053	-0.000
-169.896	-200.000	0.045	-0.331
-168.881	-43.156	-0.073	0.037
-167.866	-200.000	0.071	0.389
-166.852	-134.299	0.055	-0.007
-165.837	800.000	0.034	0.097
-164.823	130.452	0.172	-0.217
-163.808	-124.249	0.217	0.033
-162.793	-126.170	0.156	-0.023
-161.779	-132.331	0.184	-0.023
-160.764	152.447	0.174	0.234
-159.750	226.484	-0.164	0.263
-158.735	619.501	-0.118	0.293
-157.720	-32.886	-0.139	0.076
-156.706	-115.491	-0.113	0.021
-155.691	-184.146	-0.035	-0.001
-154.677	335.013	-0.127	0.242
-153.662	-200.000	0.026	-0.300
-152.647	-51.570	0.140	0.064
-151.633	541.049	0.075	-0.176
-150.618	174.920	0.129	0.184
-149.604	703.706	-0.070	-0.182
-148.589	-125.541	-0.204	-0.031
-147.574	294.655	-0.074	-0.133
-146.560	5.695	0.206	-0.150
-145.545	5.407	0.012	-0.009
-144.531	-140.723	0.241	0.024
-143.516	-126.158	0.298	-0.044
-142.502	87.907	-0.087	-0.095
-141.487	-87.754	-0.138	0.041
-140.472	184.128	0.050	-0.073
-139.458	84.740	-0.160	0.172
-138.443	-200.000	-0.048	0.274
-137.429	800.000	-0.012	-0.044
-136.414	4.389	0.124	-0.090
-135.399	-32.563	-0.261	-0.143
-134.385	77.215	0.076	-0.079
-133.370	-200.000	-0.009	0.269
-132.356	3.139	-0.086	-0.062
-131.341	63.304	0.203	0.200
-130.326	472.846	-0.086	-0.191
-129.312	-133.753	0.200	-0.024
-128.297	800.000	0.127	-0.350
-127.283	-200.000	-0.012	-0.340
-126.268	189.564	0.153	0.226
-125.253	-57.601	0.190	-0.082
-124.239	-126.219	0.478	-0.070
-123.224	302.131	0.131	0.239
-122.210	89.700	0.228	-0.251
-121.195	-200.000	0.036	-0.176
