DTS Sentinel unit serial number:	SN413079Multiplexer serial number:	ORYXHardware model number:	OX4-SRSoftware version number:	ORYX F/W v4.00 Oryx Data Collector v3.7.2.0data status	okinstallation	princeton_trtdifferential loss correction	single-endedforward channel	channel 1reverse channel	N/Adate	2019/09/19time	06:26:35forward acquisition time	60.00reverse acquisition time	0.00gamma	496.2192k internal	0.2343k external	0.2343temperature offset calibration	1.0018default loss term (dB/km)	0.3790temperature slope calibration	1.0000multiplexer offset coefficient	1.0000multiplexer slope coefficient	1.0000fibre end	0.00T internal ref (°C)	19.06T ext. ref 1 (°C)	0.57T ext. ref 2 (°C)	12.85length (m)	temperature (°C)	Stokes	anti-Stokes-747.200	-200.000	-0.026	0.152
-746.185	1.455	-0.172	-0.124
-745.171	-85.684	-0.104	-0.032
-744.156	154.949	-0.100	0.137
-743.142	86.455	0.083	-0.092
-742.127	250.026	-0.032	0.054
-741.112	312.236	-0.189	0.356
-740.098	-117.702	-0.214	0.039
-739.083	-10.066	0.058	-0.039
-738.069	-200.000	-0.018	0.158
-737.054	197.450	-0.121	0.185
-736.039	70.703	-0.054	-0.055
-735.025	-200.000	0.061	0.461
-734.010	-200.000	0.013	0.093
-732.996	-200.000	-0.000	0.229
-731.981	-200.000	-0.012	-0.189
-730.966	-38.148	0.120	0.064
-729.952	156.070	0.195	-0.269
-728.937	573.317	-0.007	0.016
-727.923	289.063	-0.199	-0.361
-726.908	800.000	-0.052	-0.152
-725.894	563.276	-0.076	-0.183
-724.879	-200.000	0.016	-0.074
-723.864	-128.463	-0.442	-0.063
-722.850	-111.976	-0.210	-0.042
-721.835	-90.986	0.206	0.059
-720.821	-31.682	0.209	-0.117
-719.806	59.898	-0.196	-0.194
-718.791	-200.000	-0.041	-0.188
-717.777	-15.426	-0.295	0.189
-716.762	56.435	-0.129	-0.126
-715.748	-39.717	-0.164	-0.086
-714.733	-59.801	-0.237	-0.102
-713.718	800.000	-0.127	0.499
-712.704	800.000	0.003	-0.009
-711.689	-200.000	0.004	-0.198
-710.675	800.000	0.088	0.269
-709.660	101.693	0.140	-0.164
-708.645	16.749	-0.153	-0.121
-707.631	-29.004	-0.073	-0.042
-706.616	18.411	-0.049	-0.039
-705.602	800.000	-0.079	-0.310
-704.587	505.650	-0.068	-0.157
-703.572	41.764	-0.240	0.217
-702.558	800.000	-0.098	0.289
-701.543	-200.000	-0.003	-0.225
-700.529	-13.982	-0.150	0.097
-699.514	274.810	-0.081	0.143
-698.499	40.624	-0.323	-0.291
-697.485	-37.976	-0.194	0.103
-696.470	-82.799	0.306	-0.099
-695.456	-200.000	-0.004	-0.065
-694.441	-200.000	0.037	-0.286
-693.426	55.137	-0.294	0.284
-692.412	18.964	-0.121	0.097
-691.397	-200.000	-0.004	-0.053
-690.383	204.888	0.067	-0.103
-689.368	800.000	-0.079	-0.267
-688.354	68.626	-0.065	0.066
-687.339	-84.449	-0.179	-0.057
-686.324	-40.416	0.070	0.036
-685.310	-200.000	0.023	-0.170
-684.295	-68.493	0.123	0.047
-683.281	-84.984	0.108	-0.034
-682.266	173.727	-0.283	-0.408
-681.251	93.077	0.111	0.125
-680.237	341.468	0.058	0.114
-679.222	231.695	0.119	-0.195
-678.208	-163.848	-0.337	-0.016
-677.193	-80.619	0.049	0.016
-676.178	-200.000	-0.016	0.244
-675.164	179.589	-0.022	0.031
-674.149	-92.113	-0.081	0.023
-673.135	298.712	-0.117	-0.214
-672.120	55.415	0.162	-0.156
-671.105	289.045	-0.046	0.083
-670.091	114.345	-0.186	-0.227
-669.076	447.417	0.218	-0.478
-668.062	-150.091	-0.205	0.016
-667.047	29.885	0.327	-0.278
-666.032	18.709	-0.313	-0.250
-665.018	-56.628	0.160	0.071
-664.003	-94.382	-0.449	0.122
-662.989	138.706	0.068	0.089
-661.974	-137.305	-0.271	0.031
-660.959	9.751	0.054	-0.041
-659.945	332.931	-0.106	0.204
-658.930	-200.000	0.067	0.370
-657.916	-27.052	-0.156	-0.091
-656.901	-200.000	-0.007	-0.156
-655.886	54.391	0.167	0.161
-654.872	217.687	-0.231	0.368
-653.857	-60.745	-0.061	-0.026
-652.843	192.186	-0.119	-0.179
-651.828	-200.000	-0.023	-0.318
-650.814	51.742	-0.061	-0.058
-649.799	456.646	0.033	-0.072
-648.784	800.000	0.087	0.296
-647.770	-108.475	0.407	0.087
-646.755	-200.000	-0.092	-0.541
-645.741	149.004	0.158	0.213
-644.726	-65.997	0.054	-0.022
-643.711	116.852	-0.051	-0.062
-642.697	-146.634	-0.099	-0.009
-641.682	-30.684	0.266	-0.150
-640.668	640.083	0.185	0.470
-639.653	-148.017	-0.262	-0.022
-638.638	77.576	-0.246	0.261
-637.624	239.075	-0.067	0.112
-636.609	-8.301	-0.094	0.063
-635.595	-173.848	-0.226	0.007
-634.580	2.351	0.158	-0.114
-633.565	8.542	0.324	0.243
-632.551	48.840	-0.011	0.011
-631.536	-200.000	-0.047	-0.269
-630.522	277.181	-0.071	-0.126
-629.507	800.000	0.042	0.136
-628.492	-11.489	0.147	-0.097
-627.478	-200.000	-0.020	0.199
-626.463	22.527	-0.192	0.156
-625.449	-29.548	0.254	0.145
-624.434	2.221	-0.144	0.104
-623.419	-85.664	-0.283	0.088
-622.405	707.970	0.147	-0.387
-621.390	-146.061	-0.275	-0.024
-620.376	-200.000	-0.014	-0.083
-619.361	800.000	-0.065	-0.272
-618.346	100.364	-0.117	0.135
-617.332	-200.000	-0.083	0.477
-616.317	-68.958	0.137	0.053
-615.303	200.916	0.069	-0.106
-614.288	87.010	0.198	0.218
-613.273	196.240	-0.206	-0.313
-612.259	53.695	0.044	-0.042
-611.244	-200.000	-0.001	0.365
-610.230	126.402	0.194	-0.245
-609.215	46.750	0.133	0.123
-608.201	-80.039	0.383	0.128
-607.186	-47.789	-0.035	0.017
-606.171	38.652	0.121	0.108
-605.157	-42.954	0.331	-0.167
-604.142	-24.664	-0.199	0.118
-603.128	40.559	-0.208	0.186
-602.113	-153.671	0.149	0.010
-601.098	198.292	0.053	-0.081
-600.084	615.704	-0.039	0.097
-599.069	-48.449	0.100	-0.048
-598.055	800.000	0.081	0.306
-597.040	-91.465	-0.167	0.047
-596.025	98.439	-0.118	0.135
-595.011	-83.039	0.257	-0.082
-593.996	321.634	0.160	0.304
-592.982	145.722	0.104	0.138
-591.967	800.000	-0.068	0.218
-590.952	-121.600	-0.149	-0.025
-589.938	800.000	0.026	0.072
-588.923	-164.229	-0.340	0.016
-587.909	51.585	0.225	-0.213
-586.894	435.438	0.129	-0.279
-585.879	-72.815	0.090	0.033
-584.865	-46.197	-0.095	0.046
-583.850	305.963	-0.054	-0.099
-582.836	-97.589	-0.099	0.026
-581.821	-200.000	0.037	0.248
-580.806	178.362	-0.075	0.109
-579.792	-73.618	-0.066	-0.024
-578.777	11.330	0.092	0.070
-577.763	-156.455	-0.108	0.007
-576.748	-135.186	-0.173	0.021
-575.733	-200.000	-0.038	-0.223
-574.719	-200.000	0.003	0.332
-573.704	-113.869	-0.324	0.063
-572.690	-200.000	0.024	0.284
-571.675	278.976	0.087	0.155
-570.661	800.000	-0.050	0.183
-569.646	107.773	-0.130	0.154
-568.631	-200.000	-0.043	-0.201
-567.617	-104.518	-0.489	-0.112
-566.602	-200.000	-0.070	0.364
-565.588	307.113	-0.081	0.151
-564.573	-200.000	0.023	0.288
-563.558	-200.000	0.004	-0.168
-562.544	-200.000	0.029	-0.312
-561.529	-135.319	0.100	-0.012
-560.515	-78.289	-0.336	-0.115
-559.500	522.919	0.155	-0.362
-558.485	429.663	-0.215	-0.462
-557.471	-75.638	0.075	-0.026
-556.456	16.787	-0.088	-0.069
-555.442	-7.986	0.304	0.204
-554.427	20.767	0.209	-0.168
-553.412	700.788	0.056	0.146
-552.398	-149.305	-0.212	0.017
-551.383	-48.010	0.140	0.067
-550.369	58.467	-0.197	0.192
-549.354	-140.005	0.119	0.012
-548.339	233.130	-0.155	-0.254
-547.325	-70.100	-0.208	-0.079
-546.310	-200.000	0.020	-0.149
-545.296	146.197	-0.060	-0.080
-544.281	-64.796	0.187	0.075
-543.266	-185.223	0.144	-0.002
-542.252	81.889	0.113	0.122
-541.237	-66.325	-0.134	0.053
-540.223	360.025	-0.026	-0.051
-539.208	218.497	-0.100	-0.158
-538.193	268.955	-0.154	0.269
-537.179	-200.000	0.018	-0.292
-536.164	67.475	-0.032	-0.032
-535.150	10.323	-0.193	0.146
-534.135	341.392	0.212	-0.411
-533.121	-200.000	-0.000	0.145
-532.106	800.000	0.160	-0.453
-531.091	-200.000	0.058	0.264
-530.077	283.147	0.202	0.359
-529.062	23.255	0.125	-0.102
-528.048	282.234	0.150	-0.268
-527.033	-70.230	0.226	-0.085
-526.018	-46.617	-0.088	-0.043
-525.004	-2.391	0.120	0.084
-523.989	219.086	0.182	0.289
-522.975	-60.691	-0.171	0.072
-521.960	12.074	-0.103	0.079
-520.945	-200.000	0.011	0.070
-519.931	800.000	0.078	0.241
-518.916	-27.942	-0.348	-0.200
-517.902	45.220	-0.176	-0.161
-516.887	-200.000	-0.070	-0.425
-515.872	-124.366	-0.224	0.035
-514.858	800.000	0.070	0.206
-513.843	-200.000	0.014	0.139
-512.829	270.371	0.072	-0.126
-511.814	445.554	0.048	-0.105
-510.799	119.366	0.155	-0.190
-509.785	-200.000	0.017	0.256
-508.770	-131.756	0.313	-0.041
-507.756	62.463	0.097	0.097
-506.741	-23.897	0.052	-0.031
-505.726	237.723	-0.157	-0.258
-504.712	800.000	-0.029	-0.120
-503.697	-106.599	-0.166	0.037
-502.683	-192.046	-0.185	-0.002
-501.668	74.152	0.043	0.045
-500.653	232.720	0.040	0.065
-499.639	686.885	-0.031	-0.079
-498.624	205.658	-0.059	-0.091
-497.610	-200.000	0.043	-0.476
-496.595	55.480	0.067	-0.064
-495.581	-90.760	-0.216	-0.062
-494.566	278.868	0.189	0.335
-493.551	394.896	-0.111	-0.228
-492.537	-200.000	-0.001	-0.187
-491.522	581.659	0.177	0.430
-490.508	190.836	-0.104	0.155
-489.493	306.527	-0.121	0.223
-488.478	92.676	0.130	0.145
-487.464	369.150	0.130	0.260
-486.449	800.000	-0.070	0.210
-485.435	567.510	-0.057	0.137
-484.420	51.379	-0.018	-0.017
-483.405	-200.000	0.012	0.098
-482.391	-84.376	0.539	-0.169
-481.376	-154.845	-0.322	0.021
-480.362	800.000	-0.077	0.225
-479.347	37.845	-0.148	-0.130
-478.332	-200.000	0.002	0.057
-477.318	800.000	-0.015	-0.051
-476.303	381.647	-0.175	-0.356
-475.289	64.855	0.222	-0.222
-474.274	-3.899	-0.152	-0.105
-473.259	-172.688	0.234	-0.007
-472.245	-200.000	0.017	-0.115
-471.230	510.479	0.108	-0.248
-470.216	61.365	0.300	0.295
-469.201	800.000	-0.059	-0.168
-468.186	186.596	-0.115	-0.170
-467.172	171.089	0.065	0.092
-466.157	800.000	-0.088	0.296
-465.143	800.000	0.150	0.484
-464.128	64.927	-0.147	-0.147
-463.113	-82.531	0.224	-0.072
-462.099	-63.574	-0.126	-0.051
-461.084	230.646	0.067	-0.108
-460.070	234.903	-0.110	-0.179
-459.055	-106.220	0.303	0.067
-458.040	568.789	0.062	0.150
-457.026	130.314	-0.360	-0.456
-456.011	-10.129	0.060	-0.040
-454.997	-44.128	0.141	-0.070
-453.982	-116.483	-0.401	-0.073
-452.968	-200.000	0.069	0.339
-451.953	258.104	0.063	0.108
-450.938	16.600	0.060	-0.047
-449.924	-97.542	0.138	0.035
-448.909	-94.616	0.342	-0.092
-447.895	-200.000	-0.002	0.158
-446.880	145.440	0.341	0.452
-445.865	-200.000	0.010	-0.093
-444.851	195.525	-0.106	-0.159
-443.836	142.140	-0.249	-0.327
-442.822	490.654	-0.012	-0.027
-441.807	-67.901	-0.059	-0.023
-440.792	800.000	0.044	-0.125
-439.778	-52.232	0.325	-0.149
-438.763	-187.563	-0.474	-0.006
-437.749	800.000	-0.043	-0.159
-436.734	32.137	0.200	-0.171
-435.719	50.260	-0.179	0.167
-434.705	534.133	0.048	0.112
-433.690	-79.359	0.330	0.110
-432.676	441.957	-0.051	-0.111
-431.661	7.396	0.181	-0.134
-430.646	-43.966	0.209	-0.104
-429.632	8.020	-0.248	0.184
-428.617	154.184	0.160	0.218
-427.603	-37.706	-0.257	0.135
-426.588	656.296	-0.056	-0.143
-425.573	138.761	-0.286	0.371
-424.559	-200.000	0.022	0.172
-423.544	538.523	0.042	-0.099
-422.530	-42.601	0.150	0.075
-421.515	800.000	-0.061	0.191
-420.500	-200.000	0.041	-0.186
-419.486	800.000	-0.034	-0.116
-418.471	800.000	0.062	-0.170
-417.457	49.109	-0.144	-0.133
-416.442	-139.431	-0.452	0.048
-415.428	6.382	-0.295	-0.217
-414.413	-200.000	-0.433	0.002
-413.398	-19.482	0.261	-0.160
-412.384	492.002	-0.111	0.252
-411.369	-46.227	0.388	-0.189
-410.355	-47.918	0.191	0.092
-409.340	-200.000	0.008	-0.307
-408.325	-46.995	-0.277	0.134
-407.311	-137.666	-0.323	0.036
-406.296	-200.000	0.082	-0.372
-405.282	-200.000	-0.012	0.168
-404.267	-23.550	-0.470	-0.279
-403.252	-200.000	-0.007	0.070
-402.238	439.132	0.075	-0.162
-401.223	155.610	0.144	0.195
-400.209	-200.000	0.039	-0.186
-399.194	-200.000	-0.006	-0.391
-398.179	-200.000	-0.003	0.243
-397.165	-21.886	0.137	-0.082
-396.150	332.937	0.117	0.222
-395.136	155.533	-0.228	0.310
-394.121	48.291	0.176	0.163
-393.106	800.000	-0.101	-0.291
-392.092	31.011	0.216	-0.182
-391.077	33.775	-0.187	0.161
-390.063	171.333	0.061	0.086
-389.048	121.960	-0.107	0.131
-388.033	-60.013	0.034	0.014
-387.019	124.965	-0.099	-0.123
-386.004	800.000	0.046	0.196
-384.990	-129.755	-0.256	-0.035
-383.975	-119.499	0.133	-0.023
-382.960	-200.000	0.024	0.228
-381.946	114.066	-0.247	-0.296
-380.931	360.360	0.137	-0.271
-379.917	797.886	-0.090	-0.245
-378.902	-166.133	-0.318	-0.013
-377.888	-68.970	-0.219	0.084
-376.873	271.565	0.263	0.458
-375.858	257.264	-0.092	-0.155
-374.844	800.000	-0.038	-0.140
-373.829	-115.594	0.226	0.042
-372.815	757.314	-0.032	0.084
-371.800	244.360	-0.093	0.154
-370.785	-125.793	0.199	0.030
-369.771	16.609	0.437	0.341
-368.756	186.879	0.139	0.204
-367.742	62.483	-0.114	-0.112
-366.727	-200.000	0.057	-0.300
-365.712	-30.733	0.181	-0.101
-364.698	48.306	-0.199	0.184
-363.683	66.251	-0.167	-0.167
-362.669	-76.128	-0.278	-0.097
-361.654	-130.080	0.106	-0.014
-360.639	-129.217	0.192	-0.026
-359.625	-39.201	-0.212	-0.110
-358.610	-136.266	-0.170	-0.020
-357.596	-56.157	0.537	-0.236
-356.581	-39.309	0.320	-0.166
-355.566	-47.793	-0.104	0.050
-354.552	-200.000	-0.039	0.475
-353.537	292.875	0.054	0.098
-352.523	-44.939	-0.294	-0.144
-351.508	-200.000	0.040	-0.195
-350.493	-20.024	0.157	-0.095
-349.479	-200.000	0.003	-0.095
-348.464	800.000	-0.107	-0.379
-347.450	493.974	0.097	-0.220
-346.435	-54.628	0.175	0.078
-345.420	-200.000	0.004	-0.081
-344.406	-200.000	-0.031	-0.234
-343.391	-64.213	-0.292	-0.117
-342.377	800.000	0.045	0.164
-341.362	65.735	0.105	0.105
-340.348	-200.000	-0.066	-0.340
-339.333	-200.000	-0.016	-0.277
-338.318	-97.456	-0.096	0.024
-337.304	-174.653	-0.418	0.012
-336.289	93.581	0.280	-0.313
-335.275	193.752	-0.152	-0.227
-334.260	-83.421	-0.098	0.031
-333.245	800.000	-0.040	0.171
-332.231	-200.000	0.012	-0.066
-331.216	91.727	-0.265	0.294
-330.202	402.606	0.073	0.151
-329.187	184.970	-0.213	-0.311
-328.172	-38.092	0.287	0.150
-327.158	-200.000	0.002	0.014
-326.143	48.750	-0.170	-0.157
-325.129	800.000	-0.074	0.213
-324.114	-186.722	0.096	-0.001
-323.099	-144.545	0.243	0.022
-322.085	-3.597	-0.397	-0.272
-321.070	22.435	0.043	-0.034
-320.056	-150.770	0.383	0.029
-319.041	-178.801	-0.337	0.008
-318.026	419.515	0.226	0.476
-317.012	380.788	-0.110	-0.222
-315.997	-119.830	0.435	-0.074
-314.983	16.624	0.229	0.178
-313.968	175.196	-0.040	-0.058
-312.953	207.396	0.093	-0.143
-311.939	-200.000	0.007	-0.064
-310.924	-107.375	0.149	-0.032
-309.910	257.018	0.039	-0.067
-308.895	-131.597	-0.191	0.025
-307.880	568.133	0.044	-0.104
-306.866	-200.000	0.041	-0.182
-305.851	-200.000	-0.024	-0.115
-304.837	-68.170	-0.465	0.178
-303.822	-200.000	0.126	-0.001
-302.807	-9.172	-0.237	-0.156
-301.793	-0.788	0.056	-0.039
-300.778	178.883	0.175	0.251
-299.764	800.000	0.048	0.181
-298.749	607.702	-0.058	0.142
-297.735	-82.343	0.192	0.062
-296.720	-115.131	-0.152	-0.028
-295.705	-19.106	0.105	-0.064
-294.691	224.773	0.141	0.224
-293.676	154.882	0.097	0.132
-292.662	88.727	-0.061	0.067
-291.647	-200.000	0.019	0.270
-290.632	-200.000	-0.013	-0.183
-289.618	28.543	0.268	-0.223
-288.603	-77.599	-0.275	-0.094
-287.589	-88.174	-0.265	0.078
-286.574	132.721	0.083	0.105
-285.559	-64.751	-0.022	-0.009
-284.545	-114.141	0.259	0.049
-283.530	616.950	0.095	0.235
-282.516	-113.580	-0.217	-0.042
-281.501	-99.497	0.305	0.076
-280.486	-109.444	0.188	-0.039
-279.472	800.000	-0.075	-0.283
-278.457	-92.814	0.315	0.087
-277.443	-0.006	-0.178	0.125
-276.428	464.257	-0.022	-0.048
-275.413	-200.000	-0.017	-0.079
-274.399	-200.000	0.050	-0.273
-273.384	-200.000	-0.020	-0.168
-272.370	-200.000	0.015	0.233
-271.355	-14.627	0.224	0.141
-270.340	-20.629	0.095	-0.058
-269.326	74.244	-0.180	0.186
-268.311	405.415	-0.108	-0.224
-267.297	602.491	-0.054	0.131
-266.282	242.263	-0.115	-0.189
-265.267	-200.000	-0.034	-0.208
-264.253	369.062	0.061	0.122
-263.238	66.361	-0.091	-0.091
-262.224	38.516	-0.163	0.143
-261.209	-83.655	0.101	0.032
-260.195	55.657	-0.068	-0.065
-259.180	496.739	-0.140	0.316
-258.165	-109.934	-0.105	0.022
-257.151	55.161	-0.067	0.064
-256.136	-200.000	-0.016	0.198
-255.122	-30.735	0.209	0.116
-254.107	-31.935	0.363	-0.200
-253.092	-200.000	0.022	-0.275
-252.078	466.717	0.178	0.392
-251.063	-45.145	-0.139	-0.068
-250.049	800.000	0.040	0.111
-249.034	-200.000	0.007	-0.136
-248.019	-145.721	0.256	-0.022
-247.005	-91.062	-0.282	0.080
-245.990	-154.940	-0.229	-0.015
-244.976	196.556	-0.250	0.373
-243.961	-151.086	0.255	-0.019
-242.946	-90.658	-0.171	0.049
-241.932	800.000	0.022	-0.062
-240.917	-200.000	-0.014	-0.173
-239.903	29.195	0.149	0.124
-238.888	-30.561	-0.209	0.116
-237.873	-83.758	-0.247	-0.077
-236.859	70.196	-0.163	0.165
-235.844	-178.023	0.274	-0.006
-234.830	-200.000	-0.041	0.218
-233.815	7.077	-0.136	0.100
-232.800	17.559	-0.140	0.109
-231.786	503.265	-0.102	0.231
-230.771	-200.000	0.038	-0.214
-229.757	-200.000	-0.050	-0.230
-228.742	-155.200	0.137	-0.009
-227.727	-109.849	-0.114	0.023
-226.713	800.000	-0.095	-0.348
-225.698	71.175	0.154	-0.157
-224.684	317.874	0.084	-0.156
-223.669	-21.848	0.199	0.119
-222.655	38.856	-0.187	0.164
-221.640	-200.000	-0.005	0.029
-220.625	112.528	0.234	-0.278
-219.611	-197.826	0.151	-0.001
-218.596	-200.000	0.014	0.155
-217.582	800.000	0.036	-0.101
-216.567	-128.118	0.096	-0.013
-215.552	180.538	-0.191	0.275
-214.538	800.000	0.056	-0.237
-213.523	-58.994	0.197	0.083
-212.509	-118.252	-0.304	-0.053
-211.494	115.586	-0.107	-0.128
-210.479	-25.781	-0.325	-0.188
-209.465	-200.000	-0.049	0.286
-208.450	-162.503	0.527	0.026
-207.436	18.558	-0.302	0.237
-206.421	-131.309	-0.379	-0.049
-205.406	-200.000	0.025	0.130
-204.392	800.000	-0.061	0.166
-203.377	-36.753	0.112	0.059
-202.363	38.613	0.280	0.245
-201.348	-200.000	0.004	-0.317
-200.333	208.502	-0.081	0.125
-199.319	800.000	0.047	0.156
-198.304	248.123	-0.087	0.144
-197.290	-37.865	0.057	-0.030
-196.275	89.167	0.071	-0.078
-195.260	119.534	-0.192	-0.233
-194.246	123.853	-0.017	0.021
-193.231	72.165	-0.109	0.111
-192.217	-200.000	-0.014	0.084
-191.202	516.404	0.086	-0.197
-190.187	-108.179	-0.283	-0.060
-189.173	-85.877	0.266	-0.081
-188.158	-200.000	-0.028	-0.322
-187.144	214.341	-0.120	0.186
-186.129	-200.000	-0.044	-0.207
-185.114	98.292	-0.169	-0.190
-184.100	-29.694	0.139	-0.078
-183.085	-55.047	-0.213	-0.094
-182.071	51.899	0.198	0.184
-181.056	173.909	0.173	-0.245
-180.042	-200.000	-0.004	-0.074
-179.027	-147.657	0.182	-0.015
-178.012	310.619	-0.155	0.283
-176.998	-200.000	0.006	-0.137
-175.983	620.018	0.106	0.262
-174.969	84.170	0.093	0.100
-173.954	607.146	0.032	0.077
-172.939	-200.000	0.015	0.084
-171.925	-98.361	-0.157	-0.039
-170.910	74.384	0.134	-0.138
-169.896	-200.000	0.001	0.029
-168.881	800.000	-0.123	-0.444
-167.866	-200.000	0.024	-0.105
-166.852	388.060	0.196	0.396
-165.837	-141.807	0.458	-0.045
-164.823	252.368	-0.081	0.134
-163.808	372.628	-0.067	-0.134
-162.793	-95.681	-0.044	-0.012
-161.779	800.000	0.112	0.363
-160.764	482.978	0.056	0.125
-159.750	193.440	0.238	-0.353
-158.735	-200.000	-0.007	0.032
-157.720	800.000	-0.133	-0.451
-156.706	146.606	0.120	-0.158
-155.691	-88.176	-0.254	0.074
-154.677	254.038	0.111	0.186
-153.662	-61.689	-0.082	0.034
-152.647	100.368	0.125	0.142
-151.633	-102.859	0.054	-0.012
-150.618	281.604	0.195	0.341
-149.604	-200.000	0.033	0.165
-148.589	222.898	-0.447	0.705
-147.574	-82.845	0.066	-0.021
-146.560	226.476	-0.197	0.313
-145.545	-200.000	0.004	0.081
-144.531	800.000	-0.030	0.107
-143.516	-21.173	0.212	-0.127
-142.502	79.238	0.268	0.281
-141.487	-96.385	-0.106	-0.027
-140.472	46.544	0.112	0.102
-139.458	371.116	0.179	-0.354
-138.443	-200.000	-0.003	0.071
-137.429	-128.078	-0.348	0.049
-136.414	-116.218	-0.306	-0.055
-135.399	489.299	0.078	0.175
-134.385	800.000	-0.097	-0.399
-133.370	-59.636	-0.242	-0.101
-132.356	19.224	0.079	0.062
-131.341	-120.551	0.244	0.041
-130.326	693.058	0.054	0.137
-129.312	-200.000	0.003	-0.032
-128.297	107.090	0.117	-0.136
-127.283	-162.697	0.371	-0.018
-126.268	-43.780	-0.341	-0.168
-125.253	-90.664	0.144	-0.041
-124.239	-200.000	0.034	0.222
-123.224	-113.370	0.272	-0.052
-122.210	88.541	0.128	-0.139
