DTS Sentinel unit serial number:	SN413079Multiplexer serial number:	ORYXHardware model number:	OX4-SRSoftware version number:	ORYX F/W v4.00 Oryx Data Collector v3.7.2.0data status	okinstallation	princeton_trtdifferential loss correction	single-endedforward channel	channel 1reverse channel	N/Adate	2019/09/17time	07:18:35forward acquisition time	60.00reverse acquisition time	0.00gamma	496.2192k internal	0.2331k external	0.2331temperature offset calibration	0.9969default loss term (dB/km)	0.3790temperature slope calibration	1.0000multiplexer offset coefficient	1.0000multiplexer slope coefficient	1.0000fibre end	0.00T internal ref (°C)	27.25T ext. ref 1 (°C)	0.12T ext. ref 2 (°C)	21.35length (m)	temperature (°C)	Stokes	anti-Stokes-747.200	-185.119	-0.296	0.005
-746.185	800.000	-0.042	0.169
-745.171	-92.570	-0.028	-0.008
-744.156	312.988	-0.057	0.109
-743.142	30.290	0.143	0.123
-742.127	28.292	0.086	0.073
-741.112	-187.887	-0.189	-0.002
-740.098	800.000	-0.033	-0.121
-739.083	-92.930	-0.128	-0.036
-738.069	-149.604	-0.151	-0.012
-737.054	60.718	0.186	-0.186
-736.039	-85.777	-0.195	0.061
-735.025	140.088	-0.113	-0.150
-734.010	34.901	-0.263	0.232
-732.996	256.185	0.044	-0.076
-731.981	72.606	0.230	-0.241
-730.966	427.465	-0.046	0.100
-729.952	800.000	0.118	-0.455
-728.937	800.000	0.062	-0.180
-727.923	316.876	0.036	0.068
-726.908	-200.000	-0.015	0.293
-725.894	-158.623	-0.045	-0.003
-724.879	103.660	0.261	-0.308
-723.864	-88.515	-0.170	-0.051
-722.850	-115.879	0.159	0.030
-721.835	-19.583	0.300	0.187
-720.821	-200.000	-0.054	-0.526
-719.806	-200.000	-0.012	-0.112
-718.791	-147.933	0.102	0.009
-717.777	-9.052	-0.056	-0.037
-716.762	-171.316	-0.188	-0.006
-715.748	667.206	-0.081	0.209
-714.733	139.673	-0.038	0.051
-713.718	340.487	-0.043	-0.085
-712.704	367.344	-0.060	-0.122
-711.689	-18.383	-0.207	-0.130
-710.675	-44.616	0.299	0.150
-709.660	626.098	-0.175	0.445
-708.645	-132.243	-0.501	-0.065
-707.631	800.000	0.081	-0.258
-706.616	-121.669	0.248	0.041
-705.602	176.394	-0.169	-0.247
-704.587	-200.000	-0.047	-0.284
-703.572	-89.744	0.322	-0.095
-702.558	288.869	-0.143	0.260
-701.543	-136.964	0.514	-0.059
-700.529	353.315	0.045	0.089
-699.514	-200.000	-0.336	0.001
-698.499	-200.000	-0.015	-0.083
-697.485	-178.564	0.324	-0.008
-696.470	-100.564	-0.092	-0.023
-695.456	-118.266	0.318	0.057
-694.441	547.492	-0.034	0.083
-693.426	800.000	-0.053	-0.153
-692.412	182.087	-0.130	0.192
-691.397	-200.000	-0.017	-0.205
-690.383	-200.000	0.008	-0.087
-689.368	800.000	-0.079	0.300
-688.354	-2.079	-0.214	-0.151
-687.339	-71.047	-0.312	-0.118
-686.324	-150.041	0.157	0.012
-685.310	311.626	0.061	-0.114
-684.295	449.116	-0.218	-0.483
-683.281	-151.864	0.385	0.028
-682.266	-200.000	-0.049	0.338
-681.251	800.000	-0.065	-0.212
-680.237	533.107	-0.077	0.184
-679.222	-20.016	-0.085	-0.052
-678.208	77.327	-0.319	-0.340
-677.193	696.640	0.131	-0.346
-676.178	-82.343	0.303	-0.099
-675.164	155.791	0.056	0.077
-674.149	144.210	0.181	-0.242
-673.135	93.480	0.059	0.067
-672.120	150.343	-0.110	0.150
-671.105	800.000	0.030	-0.088
-670.091	-200.000	0.186	0.000
-669.076	7.454	-0.286	0.215
-668.062	-79.882	0.062	0.021
-667.047	800.000	0.085	0.350
-666.032	800.000	-0.083	0.313
-665.018	276.704	-0.267	0.477
-664.003	454.449	-0.019	0.043
-662.989	800.000	-0.070	-0.265
-661.974	-1.981	-0.124	0.088
-660.959	273.105	-0.156	-0.277
-659.945	687.037	0.084	-0.221
-658.930	-115.188	0.348	0.066
-657.916	-186.855	-0.208	-0.003
-656.901	614.867	-0.022	0.056
-655.886	88.143	0.231	0.257
-654.872	-200.000	-0.026	0.189
-653.857	-125.136	0.158	-0.024
-652.843	-200.000	-0.086	-0.493
-651.828	436.512	-0.039	0.084
-650.814	-128.463	0.158	0.022
-649.799	226.744	0.097	0.158
-648.784	267.928	-0.041	-0.073
-647.770	-200.000	-0.007	-0.187
-646.755	-81.270	-0.143	-0.047
-645.741	-55.407	-0.133	0.060
-644.726	-200.000	-0.070	-0.431
-643.711	79.579	-0.146	0.157
-642.697	16.704	-0.287	-0.227
-641.682	90.178	-0.098	-0.110
-640.668	30.440	0.207	-0.177
-639.653	-38.336	-0.289	-0.153
-638.638	-110.344	-0.048	0.010
-637.624	556.003	-0.113	0.273
-636.609	0.509	-0.203	-0.145
-635.595	-74.293	-0.205	-0.074
-634.580	-91.144	-0.098	0.028
-633.565	-200.000	-0.009	-0.148
-632.551	-138.423	0.088	0.010
-631.536	-64.807	-0.298	0.121
-630.522	-200.000	-0.005	-0.151
-629.507	-200.000	-0.027	0.159
-628.492	263.202	0.200	0.348
-627.478	-20.780	-0.401	-0.246
-626.463	37.920	-0.258	0.230
-625.449	68.328	-0.157	-0.161
-624.434	-10.336	-0.292	-0.194
-623.419	800.000	-0.053	-0.168
-622.405	-60.334	0.176	0.075
-621.390	-120.907	-0.357	0.060
-620.376	181.448	-0.043	0.063
-619.361	-200.000	0.026	0.281
-618.346	-57.294	0.182	0.080
-617.332	612.677	-0.090	-0.225
-616.317	121.453	-0.123	-0.153
-615.303	-200.000	-0.005	0.255
-614.288	-66.078	-0.158	-0.063
-613.273	19.423	-0.340	0.274
-612.259	80.525	-0.355	0.383
-611.244	-200.000	0.032	-0.322
-610.230	-27.976	0.210	0.122
-609.215	141.817	-0.063	-0.084
-608.201	369.065	0.071	-0.144
-607.186	800.000	0.056	0.206
-606.171	-76.610	0.201	-0.070
-605.157	35.760	0.197	-0.173
-604.142	194.230	-0.234	-0.354
-603.128	800.000	0.076	-0.212
-602.113	72.190	0.357	0.372
-601.098	275.614	-0.097	0.172
-600.084	23.756	-0.132	0.109
-599.069	-41.453	0.201	0.104
-598.055	66.731	-0.063	-0.064
-597.040	46.160	-0.325	-0.301
-596.025	-61.360	-0.166	0.070
-595.011	-25.319	-0.157	0.093
-593.996	-200.000	0.039	-0.485
-592.982	238.383	-0.069	0.115
-591.967	800.000	-0.023	-0.097
-590.952	447.510	0.047	-0.104
-589.938	800.000	0.015	-0.045
-588.923	800.000	0.104	-0.344
-587.909	71.949	0.137	-0.142
-586.894	-96.630	0.349	0.092
-585.879	192.245	-0.123	0.185
-584.865	-9.051	-0.076	-0.051
-583.850	50.730	0.077	0.073
-582.836	-81.553	0.197	-0.065
-581.821	-150.497	0.063	-0.005
-580.806	-200.000	0.013	-0.192
-579.792	263.982	-0.200	0.348
-578.777	-118.151	0.360	-0.064
-577.763	371.434	-0.051	0.104
-576.748	800.000	-0.115	-0.356
-575.733	-61.455	0.251	0.105
-574.719	-139.811	0.651	0.069
-573.704	176.067	-0.112	-0.162
-572.690	-126.221	-0.129	0.019
-571.675	-71.761	0.352	0.131
-570.661	-146.773	-0.291	0.025
-569.646	-10.214	0.122	0.081
-568.631	-117.599	0.407	0.073
-567.617	800.000	-0.049	-0.212
-566.602	75.586	-0.080	-0.084
-565.588	44.736	0.078	-0.072
-564.573	47.869	-0.092	-0.086
-563.558	34.423	0.336	0.293
-562.544	-28.925	-0.169	0.097
-561.529	456.171	-0.095	-0.211
-560.515	-4.616	0.106	-0.073
-559.500	499.432	-0.185	-0.425
-558.485	-200.000	0.008	-0.046
-557.471	49.255	-0.206	0.194
-556.456	297.820	-0.055	0.102
-555.442	800.000	0.059	-0.200
-554.427	-5.766	-0.447	0.306
-553.412	394.891	0.128	-0.267
-552.398	29.478	0.102	0.087
-551.383	-123.134	0.119	0.019
-550.369	32.295	-0.182	-0.157
-549.354	-61.866	0.131	-0.055
-548.339	-11.512	0.409	0.268
-547.325	589.350	0.088	-0.217
-546.310	292.999	-0.079	-0.144
-545.296	86.437	0.161	-0.177
-544.281	160.408	0.117	-0.162
-543.266	-200.000	-0.050	0.306
-542.252	-112.023	-0.140	-0.028
-541.237	73.985	0.255	0.267
-540.223	-111.539	-0.350	0.071
-539.208	127.216	-0.103	0.130
-538.193	-200.000	0.012	-0.156
-537.179	780.862	0.092	-0.252
-536.164	-200.000	0.011	-0.344
-535.150	-60.818	0.128	0.054
-534.135	54.726	-0.137	-0.132
-533.121	114.411	-0.055	0.067
-532.106	-200.000	0.044	0.203
-531.091	-200.000	0.068	-0.373
-530.077	312.373	0.192	-0.360
-529.062	-51.754	-0.063	0.029
-528.048	-200.000	0.030	0.179
-527.033	-117.896	0.024	0.004
-526.018	127.299	-0.380	0.481
-525.004	15.002	0.058	0.045
-523.989	-83.275	0.340	0.109
-522.975	-10.790	0.102	-0.067
-521.960	-158.579	0.177	0.010
-520.945	295.139	-0.219	-0.399
-519.931	27.931	-0.026	0.022
-518.916	-200.000	-0.010	-0.135
-517.902	258.460	0.100	0.171
-516.887	-98.136	-0.165	0.042
-515.872	-23.088	-0.222	-0.133
-514.858	800.000	-0.082	0.275
-513.843	-81.995	-0.100	-0.032
-512.829	102.771	-0.131	0.153
-511.814	-170.829	0.211	-0.007
-510.799	98.201	-0.170	-0.195
-509.785	201.135	-0.021	-0.032
-508.770	-59.582	-0.264	-0.113
-507.756	-200.000	0.018	-0.103
-506.741	-93.820	-0.318	0.087
-505.726	739.880	0.162	-0.434
-504.712	800.000	0.140	-0.444
-503.697	-139.613	-0.148	-0.016
-502.683	-36.336	-0.122	-0.065
-501.668	800.000	-0.056	0.192
-500.653	800.000	-0.149	-0.431
-499.639	-200.000	0.001	-0.243
-498.624	-200.000	-0.001	-0.051
-497.610	160.020	0.180	0.250
-496.595	387.293	-0.267	0.550
-495.581	-81.518	-0.140	0.046
-494.566	-200.000	-0.007	0.059
-493.551	-96.268	-0.439	0.116
-492.537	-10.244	-0.083	-0.055
-491.522	55.767	-0.033	0.031
-490.508	-49.598	-0.248	0.118
-489.493	-27.946	0.122	0.070
-488.478	-50.001	-0.233	0.110
-487.464	-200.000	0.006	0.053
-486.449	408.479	0.007	0.015
-485.435	-11.182	0.367	0.241
-484.420	62.302	-0.192	0.191
-483.405	-168.709	0.128	-0.005
-482.391	223.798	-0.067	0.108
-481.376	17.011	-0.155	-0.122
-480.362	-129.250	0.112	-0.016
-479.347	203.665	0.207	0.319
-478.332	-45.062	-0.507	0.251
-477.318	800.000	0.114	0.401
-476.303	-200.000	0.036	0.510
-475.289	-66.376	0.117	-0.046
-474.274	-200.000	0.038	0.180
-473.259	-200.000	-0.065	0.458
-472.245	99.224	0.087	0.100
-471.230	139.812	-0.202	-0.265
-470.216	-176.182	-0.167	0.004
-469.201	425.998	-0.189	0.405
-468.186	-200.000	-0.010	-0.339
-467.172	800.000	0.119	-0.336
-466.157	800.000	0.033	0.127
-465.143	-182.865	0.229	-0.004
-464.128	800.000	-0.058	0.186
-463.113	-77.385	-0.148	-0.051
-462.099	-33.513	0.428	0.235
-461.084	155.235	-0.164	-0.225
-460.070	-10.763	0.262	-0.172
-459.055	-90.888	0.242	-0.069
-458.040	54.700	-0.171	0.164
-457.026	130.374	-0.189	-0.241
-456.011	190.778	0.031	0.046
-454.997	800.000	-0.024	-0.093
-453.982	-182.542	0.159	-0.003
-452.968	484.705	0.139	0.315
-451.953	193.192	-0.063	0.095
-450.938	3.101	0.262	0.190
-449.924	800.000	0.080	-0.266
-448.909	183.079	0.107	0.157
-447.895	176.030	-0.119	0.171
-446.880	385.738	-0.093	-0.192
-445.865	-96.543	0.288	0.076
-444.851	154.699	-0.173	-0.236
-443.836	62.031	-0.093	-0.092
-442.822	-65.920	0.159	0.063
-441.807	-200.000	0.016	0.189
-440.792	15.257	-0.287	-0.224
-439.778	-61.519	0.229	0.096
-438.763	800.000	0.037	-0.150
-437.749	-37.681	-0.071	-0.038
-436.734	-200.000	-0.016	0.090
-435.719	-76.966	-0.141	0.049
-434.705	-16.677	-0.124	-0.078
-433.690	800.000	0.024	0.078
-432.676	9.120	-0.152	0.114
-431.661	146.045	-0.097	0.130
-430.646	86.519	0.168	-0.184
-429.632	800.000	0.026	0.094
-428.617	-200.000	0.035	0.235
-427.603	-166.986	0.035	-0.001
-426.588	-128.688	0.251	-0.035
-425.573	228.213	0.192	0.311
-424.559	-200.000	0.021	0.345
-423.544	-17.641	0.071	0.045
-422.530	389.161	0.110	-0.227
-421.515	33.951	0.126	-0.109
-420.500	-121.550	0.106	-0.017
-419.486	-6.436	0.194	-0.132
-418.471	-74.990	0.072	0.026
-417.457	136.268	-0.231	-0.300
-416.442	-94.604	0.438	-0.118
-415.428	208.561	-0.104	-0.162
-414.413	201.265	-0.242	-0.370
-413.398	-146.402	-0.222	0.019
-412.384	207.140	0.129	-0.199
-411.369	-88.786	0.062	0.018
-410.355	12.718	-0.041	0.032
-409.340	244.700	0.237	-0.395
-408.325	-16.406	0.468	0.295
-407.311	-104.527	0.209	-0.048
-406.296	-69.887	0.169	0.064
-405.282	-136.438	-0.354	0.041
-404.267	-58.041	0.064	0.028
-403.252	-17.097	-0.099	-0.062
-402.238	159.213	-0.168	-0.233
-401.223	-157.211	-0.127	0.008
-400.209	-161.578	0.217	0.011
-399.194	-200.000	-0.023	0.152
-398.179	296.162	-0.079	0.144
-397.165	-168.174	-0.203	-0.008
-396.150	-200.000	-0.063	-0.277
-395.136	304.620	0.058	0.106
-394.121	82.829	0.189	-0.204
-393.106	-200.000	0.029	0.187
-392.092	323.572	-0.152	0.288
-391.077	-86.029	0.176	0.054
-390.063	-200.000	0.014	-0.186
-389.048	-15.440	0.276	-0.175
-388.033	439.995	-0.074	0.160
-387.019	74.084	-0.224	0.233
-386.004	64.506	0.273	0.273
-384.990	441.879	0.188	0.409
-383.975	175.767	0.201	0.289
-382.960	-200.000	-0.001	0.121
-381.946	-200.000	0.044	0.315
-380.931	91.029	0.283	0.315
-379.917	136.336	-0.351	-0.454
-378.902	-200.000	-0.015	-0.169
-377.888	-200.000	0.022	-0.277
-376.873	81.115	-0.173	-0.185
-375.858	-1.163	-0.166	-0.116
-374.844	-94.676	-0.206	-0.055
-373.829	679.781	0.144	-0.371
-372.815	136.636	0.117	0.152
-371.800	37.315	0.121	-0.106
-370.785	-171.674	-0.102	0.003
-369.771	280.857	0.080	0.142
-368.756	28.129	0.152	-0.127
-367.742	-200.000	0.049	0.232
-366.727	198.350	-0.100	0.152
-365.712	-29.833	-0.216	0.122
-364.698	-200.000	0.003	0.013
-363.683	-58.936	0.158	-0.068
-362.669	800.000	0.082	-0.352
-361.654	-192.026	0.192	0.002
-360.639	-33.265	-0.117	-0.064
-359.625	297.569	-0.075	0.136
-358.610	-172.437	0.333	-0.010
-357.596	800.000	-0.092	-0.261
-356.581	-97.041	0.149	-0.039
-355.566	47.929	0.113	-0.105
-354.552	800.000	0.059	-0.232
-353.537	127.819	0.209	-0.263
-352.523	800.000	-0.081	-0.241
-351.508	384.038	0.060	-0.122
-350.493	434.545	-0.121	0.260
-349.479	242.181	-0.150	-0.248
-348.464	-73.892	0.256	-0.092
-347.450	-200.000	0.044	0.536
-346.435	-4.073	-0.174	-0.119
-345.420	-16.032	-0.258	0.163
-344.406	-155.098	0.409	0.027
-343.391	490.938	-0.076	0.173
-342.377	-13.831	-0.261	0.167
-341.362	72.747	0.045	0.046
-340.348	-200.000	-0.039	-0.411
-339.333	158.043	0.273	-0.375
-338.318	21.060	0.090	0.072
-337.304	436.579	-0.007	0.016
-336.289	-40.075	-0.115	0.059
-335.275	107.328	0.185	0.218
-334.260	-49.063	-0.225	0.106
-333.245	-30.941	-0.040	0.022
-332.231	228.749	-0.151	0.244
-331.216	-129.665	0.219	-0.030
-330.202	-129.113	-0.277	-0.038
-329.187	800.000	0.084	-0.250
-328.172	-148.653	-0.194	0.016
-327.158	-144.469	-0.133	0.012
-326.143	-200.000	-0.007	0.166
-325.129	800.000	-0.040	-0.125
-324.114	324.520	-0.121	0.229
-323.099	1.117	-0.204	-0.145
-322.085	187.149	0.085	0.125
-321.070	800.000	0.115	0.324
-320.056	128.335	-0.151	0.190
-319.041	-1.288	-0.232	0.162
-318.026	75.646	-0.123	-0.129
-317.012	639.878	0.031	-0.077
-315.997	-122.534	0.144	-0.023
-314.983	-13.545	0.251	-0.161
-313.968	107.365	0.125	0.148
-312.953	-200.000	0.021	0.172
-311.939	-128.909	0.162	-0.023
-310.924	-146.953	-0.455	-0.039
-309.910	760.629	-0.041	-0.110
-308.895	-143.581	0.176	0.017
-307.880	-200.000	0.005	-0.220
-306.866	268.866	0.009	-0.015
-305.851	191.129	-0.041	-0.061
-304.837	-126.465	0.140	-0.021
-303.822	175.254	0.073	-0.104
-302.807	800.000	-0.062	0.198
-301.793	-19.633	0.209	-0.128
-300.778	-149.566	-0.104	-0.008
-299.764	80.745	0.180	0.192
-298.749	-49.584	-0.142	-0.067
-297.735	92.318	-0.050	-0.056
-296.720	-200.000	0.018	-0.139
-295.705	143.787	0.072	0.094
-294.691	-121.613	0.111	-0.018
-293.676	-90.438	0.147	0.042
-292.662	206.882	0.175	0.270
-291.647	11.419	-0.117	-0.089
-290.632	-0.120	0.206	0.145
-289.618	69.376	0.165	-0.168
-288.603	130.680	-0.055	-0.070
-287.589	-60.093	-0.188	-0.079
-286.574	-80.805	-0.068	-0.022
-285.559	272.059	-0.105	-0.182
-284.545	-97.867	-0.381	0.097
-283.530	338.308	0.093	-0.179
-282.516	800.000	-0.048	0.164
-281.501	-107.034	0.132	-0.029
-280.486	443.795	-0.155	-0.337
-279.472	69.264	0.111	0.112
-278.457	231.752	0.102	-0.165
-277.443	-57.440	0.251	-0.109
-276.428	-200.000	-0.008	0.103
-275.413	-129.341	-0.082	-0.011
-274.399	-98.599	-0.212	-0.054
-273.384	333.260	0.137	-0.261
-272.370	-126.419	-0.013	-0.002
-271.355	135.543	0.164	0.210
-270.340	-53.540	0.099	0.045
-269.326	-200.000	0.034	0.452
-268.311	-75.404	-0.131	0.046
-267.297	74.231	0.160	0.166
-266.282	-200.000	-0.007	0.139
-265.267	224.970	0.062	-0.099
-264.253	80.500	-0.069	0.073
-263.238	-200.000	0.009	-0.152
-262.224	-144.645	0.333	0.030
-261.209	-200.000	-0.020	-0.142
-260.195	537.269	0.098	0.230
-259.180	53.423	0.300	-0.284
-258.165	62.825	-0.186	-0.184
-257.151	69.898	0.108	0.110
-256.136	-200.000	0.004	0.207
-255.122	119.761	-0.155	0.190
-254.107	800.000	-0.075	0.236
-253.092	-200.000	0.015	0.115
-252.078	-200.000	0.002	-0.024
-251.063	-138.726	0.156	0.017
-250.049	24.748	-0.043	-0.035
-249.034	-200.000	0.002	-0.165
-248.019	66.255	0.161	-0.161
-247.005	-200.000	-0.024	0.410
-245.990	27.303	-0.179	0.148
-244.976	49.336	0.264	0.245
-243.961	138.784	-0.112	0.145
-242.946	83.521	-0.133	-0.143
-241.932	-200.000	-0.050	-0.282
-240.917	164.471	-0.128	-0.178
-239.903	126.962	0.259	0.325
-238.888	217.220	-0.140	0.220
-237.873	523.624	-0.145	0.335
-236.859	-179.217	0.267	-0.006
-235.844	-153.699	0.294	0.020
-234.830	-200.000	-0.007	-0.087
-233.815	-82.220	0.385	0.124
-232.800	-200.000	-0.003	-0.109
-231.786	-25.490	-0.189	-0.110
-230.771	-68.636	0.150	-0.057
-229.757	93.617	0.142	0.159
-228.742	-19.680	0.250	-0.153
-227.727	160.000	0.042	0.057
-226.713	-48.821	-0.278	0.131
-225.698	239.027	-0.146	0.240
-224.684	247.396	0.067	0.111
-223.669	420.451	0.124	0.262
-222.655	-112.093	0.159	0.032
-221.640	-26.960	0.278	0.160
-220.625	-23.146	-0.147	-0.087
-219.611	47.826	0.082	0.075
-218.596	-141.193	-0.196	0.020
-217.582	-100.515	0.377	-0.092
-216.567	-103.283	0.082	0.019
-215.552	-200.000	0.003	-0.050
-214.538	107.347	-0.239	0.280
-213.523	-39.567	-0.188	0.097
-212.509	-200.000	0.006	-0.036
-211.494	-200.000	0.028	-0.569
-210.479	800.000	-0.060	-0.257
-209.465	-48.129	-0.042	-0.020
-208.450	0.062	-0.054	0.038
-207.436	-146.687	-0.233	-0.020
-206.421	372.638	-0.123	-0.247
-205.406	362.055	-0.167	-0.329
-204.392	-179.840	-0.039	-0.001
-203.377	22.350	-0.151	0.122
-202.363	432.221	0.140	0.298
-201.348	-55.733	-0.176	0.078
-200.333	435.711	-0.088	-0.188
-199.319	773.618	0.073	-0.196
-198.304	45.784	0.166	0.151
-197.290	-200.000	-0.008	-0.050
-196.275	427.539	0.127	-0.269
-195.260	20.719	-0.003	-0.002
-194.246	211.919	-0.151	0.234
-193.231	-42.168	-0.346	-0.174
-192.217	-75.022	-0.390	-0.137
-191.202	4.841	0.109	0.079
-190.187	-69.687	0.093	-0.035
-189.173	-200.000	0.015	-0.161
-188.158	-75.597	-0.178	-0.062
-187.144	800.000	0.118	0.407
-186.129	800.000	-0.051	-0.149
-185.114	361.991	0.081	-0.160
-184.100	-200.000	0.014	0.430
-183.085	-110.016	0.222	0.046
-182.071	34.298	0.032	-0.028
-181.056	8.686	-0.221	0.164
-180.042	-113.176	-0.163	-0.032
-179.027	102.079	0.152	-0.174
-178.012	3.521	-0.135	-0.097
-176.998	-200.000	-0.039	-0.192
-175.983	800.000	0.065	0.185
-174.969	596.215	0.085	-0.207
-173.954	39.773	0.146	0.129
-172.939	800.000	0.090	-0.306
-171.925	800.000	0.157	-0.587
-170.910	80.547	-0.145	0.153
-169.896	-28.617	-0.154	-0.087
-168.881	387.020	0.153	0.311
-167.866	190.389	0.063	-0.092
-166.852	-200.000	-0.031	-0.147
-165.837	-200.000	0.005	-0.235
-164.823	800.000	-0.078	0.256
-163.808	-200.000	0.033	0.253
-162.793	-59.260	0.264	-0.112
-161.779	-83.202	0.181	0.057
-160.764	-200.000	0.067	0.329
-159.750	279.142	0.195	0.342
-158.735	-76.818	-0.297	-0.102
-157.720	390.421	0.089	-0.182
-156.706	-112.569	-0.313	-0.061
-155.691	800.000	0.026	0.108
-154.677	-122.348	-0.032	-0.005
-153.662	800.000	0.050	0.164
-152.647	15.155	-0.155	-0.119
-151.633	-200.000	-0.002	-0.080
-150.618	800.000	0.030	0.121
-149.604	138.955	0.152	0.197
-148.589	-125.244	0.229	0.035
-147.574	-122.937	-0.222	-0.035
-146.560	127.972	-0.060	-0.075
-145.545	-125.991	-0.230	-0.034
-144.531	17.882	-0.209	-0.163
-143.516	56.784	0.294	0.281
-142.502	800.000	-0.069	-0.247
-141.487	24.335	0.186	-0.151
-140.472	-88.046	-0.327	-0.096
-139.458	-99.603	0.362	0.089
-138.443	-5.887	0.074	0.050
-137.429	630.119	-0.090	0.223
-136.414	-200.000	0.014	0.270
-135.399	160.725	0.105	0.144
-134.385	0.277	0.216	0.152
-133.370	-200.000	0.014	0.462
-132.356	475.443	0.158	0.350
-131.341	-86.161	-0.308	0.093
-130.326	-159.191	-0.399	-0.022
-129.312	-153.098	-0.214	0.015
-128.297	-44.717	0.218	0.107
-127.283	-200.000	-0.008	-0.305
-126.268	-127.015	-0.249	-0.036
-125.253	336.775	-0.089	0.169
-124.239	41.297	-0.141	-0.125
-123.224	98.610	0.094	-0.107
-122.210	364.869	-0.093	0.184
-121.195	-110.409	0.256	0.052
