DTS Sentinel unit serial number:	SN413079Multiplexer serial number:	ORYXHardware model number:	OX4-SRSoftware version number:	ORYX F/W v4.00 Oryx Data Collector v3.7.2.0data status	okinstallation	princeton_trtdifferential loss correction	single-endedforward channel	channel 1reverse channel	N/Adate	2019/09/17time	16:22:35forward acquisition time	60.00reverse acquisition time	0.00gamma	496.2192k internal	0.2292k external	0.2292temperature offset calibration	0.9955default loss term (dB/km)	0.3790temperature slope calibration	1.0000multiplexer offset coefficient	1.0000multiplexer slope coefficient	1.0000fibre end	0.00T internal ref (°C)	41.20T ext. ref 1 (°C)	0.36T ext. ref 2 (°C)	38.76length (m)	temperature (°C)	Stokes	anti-Stokes-747.200	-103.024	-0.213	0.052
-746.185	134.099	-0.350	0.464
-745.171	800.000	0.042	-0.120
-744.156	767.515	0.141	0.392
-743.142	-200.000	-0.001	0.086
-742.127	-200.000	0.043	0.290
-741.112	-147.348	-0.101	-0.009
-740.098	-59.474	-0.450	0.198
-739.083	506.060	0.037	-0.088
-738.069	159.914	0.271	0.386
-737.054	431.034	-0.092	-0.204
-736.039	215.814	-0.159	-0.258
-735.025	800.000	-0.030	-0.116
-734.010	9.051	0.169	0.130
-732.996	-63.070	-0.238	0.101
-731.981	273.995	-0.065	-0.118
-730.966	-200.000	-0.005	0.258
-729.952	196.863	-0.154	0.240
-728.937	-110.135	-0.149	-0.032
-727.923	148.894	0.128	-0.178
-726.908	-200.000	-0.314	-0.001
-725.894	199.153	-0.090	-0.142
-724.879	-57.729	0.011	-0.005
-723.864	66.119	-0.388	0.403
-722.850	223.739	-0.109	0.181
-721.835	84.439	0.035	-0.039
-720.821	-200.000	0.014	-0.164
-719.806	29.900	-0.141	0.123
-718.791	13.360	-0.093	-0.074
-717.777	5.396	0.072	0.054
-716.762	277.975	-0.104	0.189
-715.748	800.000	-0.036	0.158
-714.733	4.420	-0.361	0.271
-713.718	-200.000	-0.031	0.252
-712.704	-200.000	0.028	-0.136
-711.689	189.789	0.126	0.193
-710.675	96.364	0.139	-0.162
-709.660	164.068	-0.073	0.106
-708.645	52.704	-0.187	0.182
-707.631	-200.000	-0.021	0.121
-706.616	70.742	0.090	-0.095
-705.602	-8.019	0.076	0.052
-704.587	-62.844	-0.447	0.189
-703.572	65.734	-0.388	-0.402
-702.558	-113.506	-0.143	0.029
-701.543	-200.000	-0.047	0.262
-700.529	-181.341	-0.192	0.004
-699.514	-200.000	0.029	0.177
-698.499	38.928	0.110	0.100
-697.485	95.752	0.114	0.132
-696.470	-200.000	-0.061	-0.397
-695.456	59.703	0.042	0.042
-694.441	800.000	-0.068	-0.207
-693.426	586.610	-0.053	0.134
-692.412	-116.871	0.282	0.053
-691.397	184.400	-0.133	0.201
-690.383	-200.000	-0.055	-0.352
-689.368	-131.946	0.079	0.011
-688.354	800.000	-0.154	0.493
-687.339	-51.212	0.097	-0.046
-686.324	613.315	0.155	-0.396
-685.310	-200.000	-0.001	-0.249
-684.295	217.660	-0.082	-0.133
-683.281	13.209	0.069	0.055
-682.266	-6.857	-0.106	0.073
-681.251	-97.852	0.180	-0.048
-680.237	184.134	0.078	0.119
-679.222	416.702	-0.035	0.076
-678.208	-12.882	-0.424	-0.282
-677.193	800.000	-0.053	0.203
-676.178	800.000	0.110	-0.318
-675.164	-200.000	-0.012	-0.194
-674.149	434.685	0.052	-0.115
-673.135	800.000	-0.056	0.188
-672.120	483.212	0.104	0.240
-671.105	-86.695	-0.033	-0.010
-670.091	-7.492	-0.045	0.031
-669.076	44.806	0.170	0.159
-668.062	-200.000	0.085	-0.423
-667.047	800.000	0.026	-0.087
-666.032	201.873	0.103	0.161
-665.018	-200.000	0.017	0.289
-664.003	-200.000	-0.013	0.135
-662.989	-200.000	-0.037	0.207
-661.974	-89.587	-0.218	0.065
-660.959	58.464	0.035	0.035
-659.945	800.000	0.048	-0.157
-658.930	-0.062	-0.189	-0.138
-657.916	193.394	-0.066	0.102
-656.901	-176.324	0.397	-0.011
-655.886	98.612	0.050	0.059
-654.872	800.000	-0.074	-0.307
-653.857	-178.242	0.155	0.004
-652.843	712.389	-0.050	0.136
-651.828	-157.878	-0.192	0.012
-650.814	-150.329	-0.342	-0.027
-649.799	-158.282	0.165	-0.010
-648.784	-79.743	0.141	0.048
-647.770	-163.065	-0.144	-0.007
-646.755	-79.079	-0.087	-0.030
-645.741	-21.740	-0.283	-0.176
-644.726	-55.096	0.224	-0.103
-643.711	239.219	-0.106	0.179
-642.697	42.618	0.053	0.049
-641.682	-200.000	0.007	-0.044
-640.668	205.814	0.162	0.257
-639.653	-74.565	0.193	0.071
-638.638	800.000	0.021	0.090
-637.624	-200.000	0.013	-0.205
-636.609	136.998	0.174	0.232
-635.595	-200.000	0.012	-0.218
-634.580	-4.464	-0.260	0.183
-633.565	84.721	-0.223	-0.249
-632.551	-200.000	0.005	-0.032
-631.536	-39.405	0.184	0.099
-630.522	9.072	-0.095	0.073
-629.507	15.797	-0.114	-0.091
-628.492	69.633	0.114	0.120
-627.478	-39.114	-0.128	-0.068
-626.463	-99.137	-0.058	-0.015
-625.449	-200.000	0.013	-0.130
-624.434	-200.000	-0.037	-0.165
-623.419	-200.000	0.021	-0.196
-622.405	-200.000	0.025	0.130
-621.390	-140.312	0.067	0.007
-620.376	-200.000	-0.026	-0.194
-619.361	-200.000	-0.016	0.329
-618.346	-123.469	-0.122	-0.020
-617.332	181.793	0.262	-0.393
-616.317	-200.000	0.009	-0.349
-615.303	800.000	0.028	0.088
-614.288	-180.512	0.288	0.006
-613.273	-143.364	0.386	-0.038
-612.259	-143.731	-0.101	0.010
-611.244	61.127	-0.248	-0.251
-610.230	36.747	-0.150	0.135
-609.215	800.000	-0.026	-0.075
-608.201	36.547	0.069	-0.062
-607.186	800.000	-0.043	-0.124
-606.171	190.450	0.087	-0.133
-605.157	20.005	-0.101	-0.083
-604.142	-200.000	-0.027	-0.195
-603.128	141.623	0.108	0.145
-602.113	-146.660	0.360	0.032
-601.098	-96.038	0.138	-0.037
-600.084	-68.602	-0.067	-0.026
-599.069	-59.886	-0.157	0.068
-598.055	-27.709	0.287	0.169
-597.040	174.410	-0.075	0.110
-596.025	-103.019	0.167	0.040
-595.011	-148.113	0.086	0.007
-593.996	48.130	0.286	-0.272
-592.982	-50.503	0.245	-0.118
-591.967	348.864	0.078	-0.156
-590.952	-189.562	0.225	-0.003
-589.938	-49.944	-0.094	-0.046
-588.923	-14.838	-0.165	-0.108
-587.909	-18.788	-0.075	-0.048
-586.894	-169.271	-0.115	0.004
-585.879	261.435	-0.050	-0.087
-584.865	-142.034	-0.184	-0.019
-583.850	-67.599	0.200	0.080
-582.836	-165.578	-0.192	0.008
-581.821	-200.000	0.039	-0.246
-580.806	800.000	-0.071	0.253
-579.792	468.572	0.062	0.141
-578.777	433.807	0.041	0.091
-577.763	-39.787	0.198	-0.105
-576.748	422.059	0.027	-0.059
-575.733	11.474	-0.277	0.216
-574.719	-52.650	-0.330	0.155
-573.704	39.509	-0.201	0.184
-572.690	-200.000	-0.004	-0.025
-571.675	-200.000	0.029	-0.328
-570.661	187.634	-0.170	-0.257
-569.646	179.341	-0.006	-0.008
-568.631	-17.700	0.200	0.128
-567.617	-37.852	-0.148	0.080
-566.602	-200.000	-0.010	0.196
-565.588	-144.352	0.211	-0.020
-564.573	720.248	-0.076	-0.206
-563.558	-159.216	0.278	-0.016
-562.544	115.522	0.119	-0.148
-561.529	-107.672	0.261	0.058
-560.515	-200.000	-0.005	0.098
-559.500	-105.510	-0.259	-0.060
-558.485	90.821	0.081	0.092
-557.471	-200.000	0.030	0.550
-556.456	800.000	-0.020	0.087
-555.442	-148.973	-0.273	0.022
-554.427	-118.935	-0.405	0.072
-553.412	-200.000	0.004	0.073
-552.398	657.373	0.094	0.244
-551.383	-158.842	0.108	-0.006
-550.369	-15.063	-0.212	-0.138
-549.354	180.606	-0.175	-0.260
-548.339	-200.000	-0.021	-0.192
-547.325	60.494	0.110	0.110
-546.310	756.451	-0.044	0.121
-545.296	-164.001	0.242	0.011
-544.281	289.774	-0.083	0.152
-543.266	800.000	-0.073	0.215
-542.252	-21.932	-0.176	-0.109
-541.237	-4.077	0.404	-0.284
-540.223	150.180	0.148	0.204
-539.208	-76.361	-0.138	0.049
-538.193	800.000	0.050	-0.147
-537.179	258.363	0.131	0.230
-536.164	-48.455	-0.268	-0.131
-535.150	800.000	-0.046	-0.155
-534.135	-118.942	0.166	-0.030
-533.121	441.628	0.102	-0.228
-532.106	-200.000	0.029	-0.140
-531.091	15.952	-0.025	0.020
-530.077	-114.586	-0.287	0.056
-529.062	215.239	0.052	0.084
-528.048	-51.438	-0.126	-0.060
-527.033	246.506	0.185	0.317
-526.018	-96.239	-0.034	-0.009
-525.004	797.955	-0.115	-0.321
-523.989	-75.630	-0.215	-0.078
-522.975	-45.734	-0.240	0.120
-521.960	-19.819	-0.279	-0.175
-520.945	800.000	-0.062	-0.240
-519.931	106.135	0.192	-0.231
-518.916	-93.234	0.150	-0.042
-517.902	-62.611	0.298	-0.125
-516.887	239.127	0.154	0.261
-515.872	226.928	0.110	-0.182
-514.858	-72.297	0.218	0.082
-513.843	416.088	-0.066	0.142
-512.829	82.556	0.116	-0.128
-511.814	-200.000	0.059	-0.454
-510.799	319.234	-0.058	0.111
-509.785	-157.096	0.257	0.016
-508.770	-110.824	0.281	-0.059
-507.756	800.000	-0.053	-0.157
-506.741	-138.346	-0.313	-0.035
-505.726	-102.821	0.039	-0.009
-504.712	-96.108	0.105	0.028
-503.697	-149.363	0.169	0.014
-502.683	-4.244	0.237	0.166
-501.668	-145.126	-0.347	0.032
-500.653	123.278	-0.125	0.158
-499.639	178.778	-0.077	-0.114
-498.624	81.615	0.092	0.101
-497.610	800.000	0.083	-0.325
-496.595	9.403	0.153	0.118
-495.581	22.403	0.189	0.157
-494.566	415.056	-0.100	-0.215
-493.551	-131.360	0.219	0.029
-492.537	121.274	0.164	0.207
-491.522	-57.801	-0.032	-0.014
-490.508	-160.527	-0.105	-0.006
-489.493	-139.238	0.295	-0.032
-488.478	-200.000	0.025	0.203
-487.464	-200.000	-0.008	0.184
-486.449	143.708	-0.254	0.343
-485.435	86.573	-0.148	-0.166
-484.420	800.000	-0.051	-0.159
-483.405	21.947	0.106	-0.088
-482.391	-129.095	-0.148	-0.021
-481.376	800.000	-0.010	-0.039
-480.362	113.704	-0.067	-0.082
-479.347	110.743	-0.173	-0.211
-478.332	-85.113	0.359	-0.114
-477.318	43.399	0.259	-0.240
-476.303	-184.451	-0.286	0.005
-475.289	-95.684	-0.043	0.012
-474.274	-130.589	-0.069	-0.009
-473.259	-200.000	-0.001	-0.103
-472.245	261.129	0.228	0.400
-471.230	-200.000	0.019	0.242
-470.216	423.956	-0.060	-0.132
-469.201	-200.000	0.088	-0.465
-468.186	-55.327	0.212	-0.096
-467.172	-159.305	0.057	-0.003
-466.157	169.412	0.133	-0.192
-465.143	-147.098	-0.436	0.038
-464.128	-76.882	-0.357	0.126
-463.113	43.131	-0.147	-0.136
-462.099	-27.764	0.068	0.040
-461.084	-88.329	-0.293	-0.089
-460.070	57.406	-0.227	0.225
-459.055	533.283	0.099	0.237
-458.040	5.507	-0.195	0.146
-457.026	54.512	-0.158	0.154
-456.011	93.896	-0.197	0.226
-454.997	-47.559	-0.162	-0.080
-453.982	-6.539	0.348	-0.240
-452.968	-55.060	-0.306	0.140
-451.953	-78.074	0.062	0.022
-450.938	110.441	0.039	-0.048
-449.924	-200.000	-0.072	0.405
-448.909	-200.000	-0.042	0.264
-447.895	82.199	0.191	0.210
-446.880	70.153	-0.102	0.107
-445.865	800.000	-0.074	0.274
-444.851	68.702	-0.174	0.181
-443.836	-200.000	-0.050	0.306
-442.822	220.345	0.126	0.205
-441.807	-200.000	-0.012	-0.077
-440.792	151.981	0.155	-0.213
-439.778	-132.421	-0.176	0.023
-438.763	800.000	-0.050	0.180
-437.749	483.246	0.116	0.267
-436.734	33.847	0.141	0.124
-435.719	-15.198	-0.207	0.134
-434.705	-108.715	0.457	0.099
-433.690	-166.692	-0.173	0.007
-432.676	415.123	0.048	0.103
-431.661	-38.618	0.156	-0.084
-430.646	12.553	-0.028	0.022
-429.632	49.327	-0.137	-0.130
-428.617	195.175	-0.036	0.056
-427.603	800.000	-0.103	0.291
-426.588	-200.000	-0.055	0.439
-425.573	60.591	0.169	-0.169
-424.559	197.962	0.081	0.126
-423.544	-200.000	0.006	0.117
-422.530	-86.412	-0.226	0.070
-421.515	-80.479	-0.145	0.049
-420.500	-200.000	0.047	-0.356
-419.486	153.864	0.079	-0.110
-418.471	68.789	0.259	0.269
-417.457	176.951	-0.180	-0.264
-416.442	55.792	-0.105	-0.103
-415.428	-58.190	0.212	0.093
-414.413	-32.842	0.386	-0.217
-413.398	347.731	-0.049	0.098
-412.384	-200.000	0.063	-0.327
-411.369	-200.000	0.036	-0.337
-410.355	-117.999	-0.157	0.028
-409.340	49.586	-0.196	-0.186
-408.325	-132.352	0.206	-0.027
-407.311	-84.959	0.114	-0.036
-406.296	-23.359	0.361	0.219
-405.282	76.225	-0.037	0.040
-404.267	-37.802	0.258	-0.139
-403.252	-200.000	0.064	-0.338
-402.238	20.241	0.266	-0.217
-401.223	161.181	-0.059	0.083
-400.209	-81.842	0.138	0.046
-399.194	800.000	-0.049	-0.200
-398.179	74.774	-0.096	0.102
-397.165	177.281	0.140	0.206
-396.150	335.135	0.080	0.157
-395.136	-109.363	-0.596	-0.127
-394.121	-140.425	0.262	0.028
-393.106	69.148	-0.130	0.135
-392.092	20.125	0.117	0.096
-391.077	800.000	-0.058	0.199
-390.063	-168.630	0.221	0.008
-389.048	116.614	-0.118	-0.146
-388.033	32.117	0.229	0.199
-387.019	386.653	0.090	0.189
-386.004	134.845	0.122	-0.160
-384.990	-200.000	-0.028	-0.149
-383.975	-70.153	-0.126	-0.048
-382.960	-200.000	-0.007	0.058
-381.946	257.384	-0.090	-0.156
-380.931	-200.000	-0.068	-0.325
-379.917	-86.911	0.244	0.075
-378.902	-200.000	-0.012	0.136
-377.888	-59.471	-0.103	0.045
-376.873	-85.032	-0.400	-0.127
-375.858	521.139	-0.043	0.102
-374.844	-200.000	-0.021	0.106
-373.829	-200.000	-0.018	-0.116
-372.815	-159.202	-0.160	-0.009
-371.800	31.425	0.203	0.176
-370.785	667.499	0.029	0.075
-369.771	800.000	-0.067	-0.202
-368.756	-200.000	0.001	-0.031
-367.742	12.308	-0.065	0.051
-366.727	-200.000	-0.045	0.354
-365.712	-200.000	-0.021	0.340
-364.698	789.113	-0.056	0.154
-363.683	-200.000	-0.075	-0.430
-362.669	389.024	0.130	0.272
-361.654	800.000	-0.113	0.438
-360.639	-200.000	0.017	0.117
-359.625	800.000	0.052	0.195
-358.610	1.033	0.105	0.076
-357.596	-76.740	-0.165	0.058
-356.581	116.837	0.042	-0.052
-355.566	-125.442	0.380	0.058
-354.552	-58.145	0.177	0.078
-353.537	116.833	-0.144	-0.178
-352.523	-79.273	0.161	0.055
-351.508	-200.000	-0.050	0.289
-350.493	379.657	-0.194	-0.402
-349.479	-44.164	0.079	-0.040
-348.464	-200.000	-0.018	-0.167
-347.450	-134.656	-0.306	0.038
-346.435	-200.000	0.009	-0.158
-345.420	-125.562	-0.408	-0.062
-344.406	-57.163	0.099	0.044
-343.391	718.716	-0.094	0.252
-342.377	-87.986	-0.100	-0.030
-341.362	800.000	0.062	-0.233
-340.348	-200.000	-0.009	0.523
-339.333	-148.791	0.084	0.007
-338.318	-200.000	0.008	-0.180
-337.304	-200.000	0.015	0.156
-336.289	658.458	-0.042	0.109
-335.275	50.486	-0.236	-0.225
-334.260	-84.572	-0.025	0.008
-333.245	62.301	-0.022	0.022
-332.231	12.789	0.185	0.144
-331.216	-61.487	0.184	0.078
-330.202	-39.941	-0.220	-0.116
-329.187	78.981	0.133	-0.144
-328.172	-200.000	-0.033	-0.170
-327.158	800.000	-0.104	0.388
-326.143	99.193	-0.077	0.090
-325.129	-66.707	-0.197	0.078
-324.114	-200.000	-0.053	-0.365
-323.099	-148.561	0.021	-0.002
-322.085	-29.763	0.196	0.112
-321.070	-200.000	-0.007	-0.071
-320.056	-200.000	-0.025	0.328
-319.041	800.000	-0.044	0.190
-318.026	-200.000	-0.030	0.154
-317.012	-200.000	-0.025	-0.485
-315.997	-112.337	0.107	0.021
-314.983	-10.770	-0.376	0.250
-313.968	-2.131	-0.226	0.160
-312.953	768.284	0.090	-0.246
-311.939	54.659	0.042	-0.041
-310.924	-124.489	-0.137	0.021
-309.910	444.186	0.045	0.100
-308.895	-112.465	-0.154	-0.031
-307.880	172.083	-0.179	-0.259
-306.866	800.000	0.073	0.311
-305.851	-32.611	0.083	-0.047
-304.837	-81.175	0.243	0.081
-303.822	-11.897	-0.267	-0.176
-302.807	-91.114	0.085	-0.025
-301.793	230.475	0.060	0.098
-300.778	-69.280	-0.286	-0.111
-299.764	-200.000	0.035	-0.213
-298.749	-200.000	0.019	-0.221
-297.735	22.001	-0.186	0.152
-296.720	35.862	-0.232	-0.205
-295.705	-92.640	-0.418	0.118
-294.691	-50.151	-0.184	0.087
-293.676	800.000	0.073	-0.207
-292.662	-57.563	0.081	0.036
-291.647	-174.841	-0.203	0.006
-290.632	-9.445	0.175	0.118
-289.618	-134.537	0.119	0.015
-288.603	-200.000	0.030	0.469
-287.589	-14.827	0.168	-0.108
-286.574	-145.420	0.372	0.034
-285.559	-121.417	-0.054	0.009
-284.545	5.724	-0.135	-0.100
-283.530	800.000	0.059	-0.187
-282.516	12.761	0.209	-0.162
-281.501	800.000	-0.044	-0.179
-280.486	-140.320	-0.538	0.057
-279.472	-136.663	-0.188	-0.022
-278.457	295.891	-0.100	0.185
-277.443	-200.000	-0.043	0.481
-276.428	-127.501	-0.278	0.041
-275.413	228.492	0.045	0.073
-274.399	-85.287	-0.283	0.089
-273.384	-32.792	0.052	-0.029
-272.370	-161.209	-0.273	0.014
-271.355	-106.728	-0.106	0.024
-270.340	153.284	0.270	-0.371
-269.326	-200.000	0.004	-0.214
-268.311	4.708	0.160	-0.118
-267.297	0.234	0.375	-0.269
-266.282	-200.000	0.004	-0.056
-265.267	370.875	-0.064	0.130
-264.253	146.734	-0.135	-0.182
-263.238	63.065	0.138	-0.139
-262.224	12.198	-0.299	-0.231
-261.209	-120.037	-0.230	0.040
-260.195	-200.000	0.027	0.298
-259.180	538.171	0.065	-0.155
-258.165	67.133	0.020	-0.020
-257.151	-70.286	-0.117	-0.045
-256.136	-200.000	0.030	0.167
-255.122	-200.000	0.036	0.259
-254.107	72.189	0.127	-0.133
-253.092	-16.710	0.150	0.095
-252.078	-101.228	0.220	0.054
-251.063	800.000	0.006	0.020
-250.049	-48.709	0.253	-0.122
-249.034	-133.792	0.115	0.014
-248.019	-133.911	0.285	0.035
-247.005	800.000	0.018	-0.064
-245.990	800.000	0.030	-0.101
-244.976	-18.724	0.197	-0.123
-243.961	-68.824	-0.322	-0.125
-242.946	295.848	-0.147	-0.270
-241.932	73.223	-0.107	0.112
-240.917	633.806	0.064	-0.164
-239.903	82.309	0.044	0.048
-238.888	0.655	-0.111	-0.079
-237.873	800.000	-0.065	-0.288
-236.859	-200.000	0.305	-0.001
-235.844	-179.576	0.231	0.005
-234.830	11.629	-0.241	-0.186
-233.815	-200.000	-0.021	-0.211
-232.800	6.228	0.147	-0.109
-231.786	-169.540	0.232	0.008
-230.771	800.000	-0.075	0.252
-229.757	800.000	0.170	0.572
-228.742	800.000	-0.041	-0.179
-227.727	-200.000	-0.031	0.193
-226.713	-200.000	0.003	-0.061
-225.698	-36.187	-0.382	0.207
-224.684	-200.000	-0.044	-0.210
-223.669	-88.256	-0.193	-0.058
-222.655	-164.761	-0.137	0.006
-221.640	-200.000	0.029	0.324
-220.625	174.960	0.082	-0.119
-219.611	-34.938	-0.225	0.123
-218.596	-35.441	-0.094	-0.051
-217.582	800.000	-0.086	0.251
-216.567	44.835	-0.107	0.098
-215.552	116.383	0.084	-0.104
-214.538	535.154	-0.017	0.041
-213.523	149.447	0.093	-0.127
-212.509	800.000	0.055	0.179
-211.494	-61.513	0.038	0.016
-210.479	257.386	0.118	0.204
-209.465	467.328	-0.056	0.125
-208.450	74.943	0.124	-0.131
-207.436	28.470	0.178	-0.151
-206.421	-51.058	-0.229	-0.108
-205.406	248.259	0.087	0.148
-204.392	-131.436	-0.279	0.037
-203.377	-200.000	-0.033	0.298
-202.363	-100.987	-0.025	-0.006
-201.348	-129.394	-0.182	-0.025
-200.333	-38.749	-0.180	0.095
-199.319	-84.128	0.357	-0.114
-198.304	-46.032	0.124	-0.061
-197.290	310.596	-0.178	-0.334
-196.275	15.007	0.048	0.038
-195.260	-30.577	-0.104	-0.059
-194.246	-34.811	-0.069	-0.038
-193.231	526.581	0.024	-0.056
-192.217	287.205	0.028	0.051
-191.202	-66.983	0.168	-0.066
-190.187	-66.347	0.054	0.021
-189.173	-130.132	0.181	-0.025
-188.158	-139.608	-0.232	-0.025
-187.144	184.746	-0.175	-0.260
-186.129	800.000	0.090	0.303
-185.114	243.099	0.082	0.137
-184.100	-43.011	0.159	0.081
-183.085	386.042	0.068	-0.140
-182.071	-11.313	0.399	-0.263
-181.056	800.000	0.030	-0.087
-180.042	148.825	0.138	-0.187
-179.027	-29.964	0.303	-0.173
-178.012	12.426	-0.053	-0.041
-176.998	-83.703	0.397	0.127
-175.983	386.717	0.088	-0.181
-174.969	-101.939	-0.274	0.066
-173.954	-200.000	0.013	-0.227
-172.939	-200.000	-0.010	0.358
-171.925	-155.194	0.139	-0.009
-170.910	-12.704	0.131	-0.086
-169.896	-77.948	0.109	-0.038
-168.881	800.000	0.027	-0.079
-167.866	-16.141	-0.210	0.134
-166.852	723.673	-0.150	0.399
-165.837	-200.000	0.028	-0.323
-164.823	-10.279	0.250	0.166
-163.808	800.000	-0.045	-0.134
-162.793	185.831	0.126	0.187
-161.779	-128.116	-0.264	0.038
-160.764	-148.465	0.061	-0.005
-159.750	-200.000	-0.061	-0.336
-158.735	198.379	-0.086	-0.131
-157.720	-200.000	-0.013	-0.163
-156.706	41.341	0.096	-0.087
-155.691	233.856	-0.193	-0.318
-154.677	169.010	-0.084	0.119
-153.662	-173.995	0.188	-0.006
-152.647	800.000	-0.078	0.271
-151.633	-200.000	0.006	0.106
-150.618	147.893	0.339	0.457
-149.604	-59.701	-0.178	-0.076
-148.589	-44.796	-0.332	-0.166
-147.574	668.893	0.038	0.098
-146.560	-44.085	-0.209	0.105
-145.545	-73.081	-0.078	0.029
-144.531	-46.427	-0.004	-0.002
-143.516	9.748	0.098	0.074
-142.502	-200.000	-0.054	-0.277
-141.487	-200.000	-0.005	-0.124
-140.472	-24.855	0.172	-0.102
-139.458	286.765	0.131	0.236
-138.443	-173.404	0.138	0.004
-137.429	800.000	0.048	0.159
-136.414	-78.379	0.140	0.048
-135.399	124.728	0.080	-0.101
-134.385	94.854	0.270	0.307
-133.370	325.873	0.090	0.173
-132.356	-48.332	-0.175	0.084
-131.341	-18.726	-0.088	-0.055
-130.326	800.000	0.004	-0.015
-129.312	-164.281	-0.132	0.006
-128.297	16.740	-0.186	0.147
-127.283	-125.890	0.329	0.050
-126.268	527.136	0.137	-0.323
-125.253	62.596	-0.127	-0.127
-124.239	49.273	0.187	0.176
-123.224	-42.700	0.082	0.042
-122.210	800.000	-0.054	0.178
-121.195	-159.976	-0.206	0.011
