DTS Sentinel unit serial number:	SN413079Multiplexer serial number:	ORYXHardware model number:	OX4-SRSoftware version number:	ORYX F/W v4.00 Oryx Data Collector v3.7.2.0data status	okinstallation	princeton_trtdifferential loss correction	single-endedforward channel	channel 1reverse channel	N/Adate	2019/09/14time	22:46:35forward acquisition time	60.00reverse acquisition time	0.00gamma	496.2192k internal	0.2320k external	0.2320temperature offset calibration	1.0005default loss term (dB/km)	0.3790temperature slope calibration	1.0000multiplexer offset coefficient	1.0000multiplexer slope coefficient	1.0000fibre end	0.00T internal ref (°C)	32.50T ext. ref 1 (°C)	4.66T ext. ref 2 (°C)	27.50length (m)	temperature (°C)	Stokes	anti-Stokes-747.200	-31.404	-0.179	0.102
-746.185	204.525	0.191	0.300
-745.171	13.562	0.061	0.048
-744.156	-100.802	-0.063	0.016
-743.142	226.701	0.226	-0.371
-742.127	-144.546	-0.480	0.045
-741.112	800.000	0.070	0.230
-740.098	-7.690	0.192	0.131
-739.083	429.428	0.058	-0.126
-738.069	-200.000	0.036	0.219
-737.054	-43.355	-0.312	-0.160
-736.039	395.138	-0.060	-0.126
-735.025	800.000	-0.042	0.159
-734.010	61.890	0.141	-0.143
-732.996	-200.000	0.022	-0.337
-731.981	800.000	-0.120	-0.388
-730.966	59.151	0.187	-0.186
-729.952	-200.000	0.091	-0.440
-728.937	646.555	-0.062	-0.159
-727.923	800.000	-0.091	-0.328
-726.908	15.157	-0.421	-0.333
-725.894	-200.000	0.075	0.394
-724.879	-94.903	-0.207	0.057
-723.864	800.000	-0.026	-0.105
-722.850	-41.053	-0.022	0.012
-721.835	93.660	0.109	0.124
-720.821	120.057	-0.071	-0.089
-719.806	98.464	0.216	0.252
-718.791	800.000	-0.032	0.101
-717.777	90.315	0.106	-0.120
-716.762	43.950	-0.157	0.146
-715.748	-153.025	0.205	0.015
-714.733	-75.036	-0.248	-0.090
-713.718	800.000	-0.034	-0.133
-712.704	25.850	0.078	-0.066
-711.689	331.460	0.071	0.137
-710.675	33.877	0.034	0.030
-709.660	-56.614	0.153	-0.068
-708.645	192.753	-0.094	-0.143
-707.631	117.049	0.165	-0.205
-706.616	-200.000	-0.009	-0.374
-705.602	-200.000	-0.003	-0.044
-704.587	259.836	-0.006	0.010
-703.572	-200.000	-0.023	-0.203
-702.558	484.580	-0.090	-0.206
-701.543	315.016	0.153	0.290
-700.529	254.173	-0.064	0.111
-699.514	-200.000	0.002	-0.160
-698.499	-134.838	-0.145	-0.018
-697.485	-49.206	0.091	-0.044
-696.470	289.137	-0.182	-0.333
-695.456	-200.000	-0.011	-0.222
-694.441	800.000	0.053	0.218
-693.426	63.657	-0.153	0.155
-692.412	348.553	-0.045	0.089
-691.397	355.350	-0.087	-0.174
-690.383	647.738	-0.046	0.118
-689.368	219.397	-0.114	-0.184
-688.354	470.352	0.089	-0.203
-687.339	-69.251	-0.124	0.048
-686.324	-56.860	0.022	0.010
-685.310	-52.572	0.218	-0.102
-684.295	800.000	0.085	0.251
-683.281	-111.165	-0.232	0.048
-682.266	-72.008	0.142	-0.053
-681.251	-165.959	-0.235	0.010
-680.237	-158.857	-0.248	0.014
-679.222	-200.000	-0.011	-0.279
-678.208	-108.171	0.214	0.047
-677.193	800.000	0.067	-0.189
-676.178	17.610	-0.215	-0.172
-675.164	-72.018	0.089	0.033
-674.149	800.000	0.119	-0.361
-673.135	-118.862	-0.542	-0.096
-672.120	-87.474	0.062	-0.019
-671.105	-68.536	-0.261	0.102
-670.091	476.620	-0.032	0.074
-669.076	140.191	-0.149	0.198
-668.062	-174.957	0.144	0.004
-667.047	-81.800	0.165	-0.055
-666.032	-45.233	0.122	-0.061
-665.018	-200.000	-0.015	-0.452
-664.003	433.077	-0.151	-0.331
-662.989	-152.697	0.191	-0.014
-661.974	138.031	-0.021	-0.028
-660.959	800.000	0.041	0.133
-659.945	-53.795	-0.114	0.052
-658.930	-32.954	-0.365	0.204
-657.916	239.044	0.164	0.276
-656.901	423.826	0.048	-0.105
-655.886	31.106	-0.275	-0.238
-654.872	-16.734	-0.517	-0.330
-653.857	-200.000	-0.010	-0.174
-652.843	-166.923	-0.027	-0.001
-651.828	-46.456	-0.188	0.093
-650.814	-200.000	0.047	0.272
-649.799	-200.000	-0.011	0.073
-648.784	-157.206	-0.215	0.013
-647.770	-82.517	-0.286	-0.093
-646.755	-92.419	-0.329	0.093
-645.741	-59.562	0.177	0.077
-644.726	-178.877	0.159	0.004
-643.711	84.215	-0.252	-0.277
-642.697	139.605	0.176	0.234
-641.682	226.767	-0.241	-0.394
-640.668	36.021	0.186	0.165
-639.653	239.410	0.145	-0.243
-638.638	480.603	-0.147	-0.336
-637.624	800.000	0.014	0.046
-636.609	79.332	-0.125	0.134
-635.595	6.264	0.069	-0.052
-634.580	28.522	0.192	-0.164
-633.565	-122.826	-0.498	0.081
-632.551	800.000	0.076	0.279
-631.536	-150.944	0.081	-0.006
-630.522	-76.898	-0.181	-0.064
-629.507	135.440	0.146	-0.192
-628.492	-90.296	0.182	-0.053
-627.478	-105.874	-0.142	-0.032
-626.463	-200.000	-0.017	-0.192
-625.449	-59.585	-0.311	0.134
-624.434	-200.000	0.017	-0.320
-623.419	-200.000	-0.014	0.323
-622.405	164.597	-0.175	0.248
-621.390	116.567	-0.175	0.216
-620.376	-51.752	0.080	0.038
-619.361	-94.306	0.301	-0.083
-618.346	800.000	0.080	0.266
-617.332	800.000	-0.036	0.153
-616.317	-73.843	0.132	0.048
-615.303	113.300	-0.140	-0.171
-614.288	-87.707	-0.277	-0.084
-613.273	31.252	-0.227	-0.196
-612.259	-38.173	0.188	0.100
-611.244	-94.397	0.220	-0.060
-610.230	-65.897	-0.213	-0.086
-609.215	-126.703	0.426	0.063
-608.201	-93.635	-0.061	-0.017
-607.186	352.411	-0.119	0.237
-606.171	-60.286	0.279	-0.120
-605.157	-61.383	-0.234	-0.099
-604.142	-191.201	-0.221	0.002
-603.128	551.760	0.047	-0.113
-602.113	-154.539	-0.151	0.010
-601.098	657.073	-0.075	-0.194
-600.084	-26.569	-0.245	-0.144
-599.069	-105.874	0.267	-0.060
-598.055	-81.845	-0.266	-0.087
-597.040	-200.000	-0.014	-0.106
-596.025	27.212	0.213	0.180
-595.011	464.318	0.059	-0.133
-593.996	-200.000	-0.022	0.149
-592.982	-163.996	-0.236	0.011
-591.967	800.000	0.045	-0.131
-590.952	-108.977	-0.250	-0.054
-589.938	187.170	0.204	0.306
-588.923	8.440	0.207	0.156
-587.909	-155.382	0.243	-0.016
-586.894	122.469	0.136	-0.171
-585.879	-200.000	-0.069	-0.342
-584.865	442.479	0.111	-0.244
-583.850	-200.000	0.030	-0.140
-582.836	-200.000	0.012	-0.109
-581.821	-9.871	-0.400	-0.267
-580.806	-0.063	0.105	0.075
-579.792	-109.430	0.261	-0.055
-578.777	187.579	-0.119	0.178
-577.763	-46.527	-0.276	-0.136
-576.748	-57.406	-0.427	-0.189
-575.733	800.000	-0.017	-0.061
-574.719	-49.151	0.164	0.079
-573.704	-43.274	-0.113	-0.057
-572.690	8.173	-0.077	0.058
-571.675	800.000	-0.059	0.232
-570.661	-1.884	-0.193	0.136
-569.646	14.722	-0.186	0.146
-568.631	-4.993	-0.041	0.029
-567.617	-200.000	0.029	-0.193
-566.602	-44.291	0.277	0.139
-565.588	-95.526	0.115	0.031
-564.573	233.137	-0.150	-0.247
-563.558	235.443	0.144	-0.239
-562.544	-86.919	0.086	0.026
-561.529	-200.000	-0.084	-0.385
-560.515	-200.000	-0.031	-0.144
-559.500	-39.324	-0.046	-0.024
-558.485	800.000	0.096	0.346
-557.471	-106.162	0.011	-0.002
-556.456	-160.963	0.162	-0.009
-555.442	-200.000	-0.000	-0.088
-554.427	-200.000	-0.020	0.230
-553.412	38.468	-0.055	-0.049
-552.398	-200.000	0.005	-0.216
-551.383	-21.149	0.275	-0.169
-550.369	-200.000	0.034	-0.334
-549.354	56.039	-0.108	-0.105
-548.339	190.046	-0.116	-0.175
-547.325	-7.322	0.097	0.066
-546.310	20.577	-0.297	-0.241
-545.296	-200.000	0.028	0.138
-544.281	-17.926	0.381	-0.240
-543.266	34.886	-0.255	-0.224
-542.252	2.394	0.161	-0.117
-541.237	-100.390	0.180	-0.045
-540.223	-17.732	0.227	0.143
-539.208	33.408	0.149	0.130
-538.193	-200.000	0.013	-0.104
-537.179	800.000	-0.033	-0.092
-536.164	448.748	0.111	-0.246
-535.150	240.130	0.136	-0.227
-534.135	800.000	0.051	0.195
-533.121	-105.746	0.182	0.041
-532.106	800.000	-0.039	0.138
-531.091	-76.370	-0.044	-0.015
-530.077	231.053	-0.099	-0.162
-529.062	-99.853	0.278	0.070
-528.048	-200.000	0.030	-0.416
-527.033	-114.363	-0.151	0.029
-526.018	320.621	0.135	0.258
-525.004	190.993	0.088	0.133
-523.989	15.074	-0.036	0.028
-522.975	-96.340	-0.305	-0.081
-521.960	-133.501	-0.203	0.026
-520.945	112.338	0.217	-0.263
-519.931	297.415	-0.219	-0.403
-518.916	800.000	0.039	-0.131
-517.902	4.277	0.320	0.235
-516.887	-120.305	0.256	0.044
-515.872	-200.000	0.034	-0.202
-514.858	-200.000	0.024	-0.296
-513.843	611.717	0.214	-0.537
-512.829	-37.130	0.131	0.070
-511.814	-32.987	0.205	0.114
-510.799	332.891	0.069	-0.134
-509.785	-110.884	-0.356	0.073
-508.770	-200.000	0.001	0.141
-507.756	177.006	0.166	0.241
-506.741	-190.318	-0.251	-0.003
-505.726	-107.646	0.168	0.037
-504.712	-54.567	0.134	0.061
-503.697	-60.937	0.324	0.137
-502.683	-200.000	0.002	-0.193
-501.668	-200.000	0.013	-0.095
-500.653	720.489	-0.059	0.157
-499.639	-90.024	-0.144	-0.042
-498.624	238.916	-0.204	0.339
-497.610	153.897	-0.080	0.110
-496.595	27.378	0.143	-0.120
-495.581	37.820	0.220	-0.196
-494.566	-22.430	-0.155	-0.094
-493.551	-48.280	-0.058	0.028
-492.537	182.267	0.110	-0.162
-491.522	-118.655	-0.385	-0.068
-490.508	399.735	0.093	0.196
-489.493	-151.456	0.161	-0.012
-488.478	-115.021	0.213	-0.040
-487.464	-200.000	0.015	0.217
-486.449	167.413	-0.032	0.045
-485.435	778.634	0.054	-0.149
-484.420	13.638	0.211	0.164
-483.405	98.240	0.105	-0.121
-482.391	-200.000	0.003	-0.186
-481.376	-200.000	-0.027	0.234
-480.362	-200.000	0.021	-0.375
-479.347	-74.533	0.176	0.063
-478.332	70.520	0.130	0.135
-477.318	188.357	-0.094	0.141
-476.303	-200.000	-0.000	0.020
-475.289	-200.000	-0.054	0.250
-474.274	451.719	-0.120	-0.265
-473.259	800.000	-0.035	0.133
-472.245	256.467	-0.112	-0.193
-471.230	-96.229	-0.063	0.017
-470.216	-60.453	-0.113	0.048
-469.201	800.000	-0.033	0.096
-468.186	-72.917	0.114	0.042
-467.172	-80.505	0.196	0.065
-466.157	-12.618	-0.242	0.158
-465.143	-200.000	0.009	-0.357
-464.128	-49.674	-0.148	-0.071
-463.113	-190.243	0.341	0.004
-462.099	179.069	-0.151	0.221
-461.084	534.938	0.023	-0.056
-460.070	513.421	0.077	0.180
-459.055	190.603	0.108	0.162
-458.040	666.236	-0.055	0.141
-457.026	399.574	0.072	-0.152
-456.011	-93.364	0.172	0.048
-454.997	-101.021	0.198	-0.049
-453.982	-61.064	0.029	0.012
-452.968	-200.000	0.006	0.324
-451.953	-144.801	0.111	-0.010
-450.938	245.272	-0.063	0.106
-449.924	-124.003	0.121	-0.019
-448.909	800.000	-0.062	-0.255
-447.895	142.161	-0.021	-0.027
-446.880	-200.000	0.011	0.076
-445.865	-104.481	-0.210	-0.049
-444.851	-80.424	0.153	0.051
-443.836	-1.293	0.040	0.029
-442.822	-42.632	-0.181	0.092
-441.807	-198.437	0.353	-0.002
-440.792	-77.136	0.182	-0.063
-439.778	16.707	-0.208	0.165
-438.763	-200.000	0.019	-0.194
-437.749	569.150	-0.214	-0.521
-436.734	-58.592	-0.190	-0.082
-435.719	98.833	-0.178	-0.205
-434.705	-200.000	0.060	-0.339
-433.690	319.725	0.099	0.188
-432.676	-63.232	-0.218	0.090
-431.661	-79.756	0.288	-0.097
-430.646	-25.020	-0.122	-0.072
-429.632	169.769	0.189	0.270
-428.617	-113.795	-0.040	0.008
-427.603	-115.776	0.134	-0.025
-426.588	133.572	0.182	0.236
-425.573	131.661	-0.137	-0.176
-424.559	17.009	0.084	0.067
-423.544	81.816	-0.337	0.364
-422.530	-20.561	-0.127	-0.078
-421.515	75.923	-0.148	-0.157
-420.500	19.156	0.328	0.263
-419.486	800.000	-0.035	0.137
-418.471	-87.553	-0.331	-0.100
-417.457	86.714	-0.148	0.164
-416.442	-82.757	0.199	-0.064
-415.428	800.000	0.106	0.387
-414.413	77.637	-0.112	-0.119
-413.398	409.778	-0.104	0.219
-412.384	-68.607	-0.184	0.071
-411.369	76.144	-0.314	0.332
-410.355	52.210	0.167	-0.159
-409.340	470.934	0.097	0.218
-408.325	-35.306	-0.118	-0.064
-407.311	751.415	-0.130	-0.349
-406.296	800.000	0.105	0.393
-405.282	273.914	-0.034	-0.061
-404.267	-24.917	-0.194	0.115
-403.252	-138.756	-0.227	0.025
-402.238	431.266	0.117	0.252
-401.223	17.526	-0.194	-0.153
-400.209	-111.928	0.099	0.020
-399.194	61.253	0.297	0.294
-398.179	800.000	-0.093	0.270
-397.165	260.335	0.061	-0.106
-396.150	96.488	0.150	0.171
-395.136	311.196	-0.065	-0.122
-394.121	-97.038	-0.284	-0.074
-393.106	-36.820	-0.081	-0.043
-392.092	398.745	-0.029	0.060
-391.077	17.571	-0.181	0.144
-390.063	-200.000	0.019	0.314
-389.048	134.742	0.173	-0.224
-388.033	247.421	0.153	0.258
-387.019	-54.508	0.050	-0.022
-386.004	-200.000	-0.004	-0.161
-384.990	-120.533	-0.137	-0.023
-383.975	723.559	-0.126	-0.335
-382.960	-200.000	0.059	0.372
-381.946	-1.583	0.258	0.182
-380.931	-85.495	0.411	0.128
-379.917	-133.061	-0.081	-0.010
-378.902	128.507	0.215	-0.273
-377.888	-200.000	-0.045	-0.432
-376.873	24.184	0.354	0.292
-375.858	800.000	0.043	-0.133
-374.844	-44.722	-0.223	-0.111
-373.829	-74.018	-0.170	0.062
-372.815	-33.091	-0.061	0.034
-371.800	390.738	-0.046	0.095
-370.785	-136.541	-0.065	0.007
-369.771	-121.367	-0.085	-0.014
-368.756	-31.288	-0.083	0.046
-367.742	681.482	0.019	0.049
-366.727	800.000	-0.028	0.115
-365.712	-67.762	-0.249	0.097
-364.698	18.992	0.156	0.125
-363.683	-66.767	-0.366	0.144
-362.669	558.474	0.088	0.212
-361.654	45.933	0.237	0.218
-360.639	-113.538	0.255	-0.050
-359.625	-53.912	-0.390	-0.177
-358.610	-200.000	-0.007	0.187
-357.596	-154.542	0.129	-0.009
-356.581	800.000	0.063	-0.238
-355.566	-14.018	0.339	-0.218
-354.552	-200.000	0.009	-0.193
-353.537	71.130	0.083	0.086
-352.523	-100.020	-0.295	0.073
-351.508	430.688	0.044	-0.096
-350.493	181.936	0.237	-0.348
-349.479	-103.744	-0.332	-0.077
-348.464	28.606	-0.252	0.212
-347.450	673.941	0.052	0.134
-346.435	138.301	0.232	-0.302
-345.420	800.000	0.034	0.113
-344.406	-98.685	0.094	-0.024
-343.391	40.316	-0.196	0.176
-342.377	2.252	-0.038	0.027
-341.362	800.000	-0.085	-0.333
-340.348	-200.000	0.089	-0.703
-339.333	24.085	0.086	-0.071
-338.318	221.615	0.234	0.374
-337.304	-50.326	0.081	0.038
-336.289	-120.110	0.277	-0.047
-335.275	-71.821	0.302	0.112
-334.260	800.000	0.044	-0.137
-333.245	36.646	0.140	0.123
-332.231	-151.640	-0.161	-0.012
-331.216	-51.533	-0.113	-0.052
-330.202	51.808	0.098	0.093
-329.187	-1.171	0.073	0.051
-328.172	788.939	0.087	0.239
-327.158	311.483	-0.103	0.191
-326.143	32.876	0.187	0.161
-325.129	143.655	0.038	0.050
-324.114	-200.000	-0.018	0.100
-323.099	-126.292	0.258	-0.038
-322.085	-58.331	-0.255	-0.110
-321.070	-50.386	0.363	0.170
-320.056	-110.212	-0.199	-0.041
-319.041	-24.088	0.198	0.118
-318.026	160.984	-0.141	0.196
-317.012	-66.988	0.300	-0.118
-315.997	266.928	-0.151	0.262
-314.983	-15.046	0.114	0.073
-313.968	-191.178	-0.197	-0.002
-312.953	421.544	-0.032	-0.068
-311.939	82.440	-0.026	-0.029
-310.924	-128.087	-0.190	0.027
-309.910	-160.269	0.206	-0.011
-308.895	-119.117	0.474	-0.082
-307.880	60.835	-0.105	-0.103
-306.866	-59.722	-0.298	-0.127
-305.851	21.800	0.195	-0.158
-304.837	-24.299	0.208	-0.123
-303.822	256.385	0.030	0.052
-302.807	151.644	0.035	0.048
-301.793	-177.761	0.226	-0.005
-300.778	-22.396	-0.126	0.076
-299.764	-200.000	-0.039	0.266
-298.749	-121.185	0.402	0.067
-297.735	-200.000	0.002	0.070
-296.720	-165.964	-0.361	0.015
-295.705	18.935	-0.278	-0.222
-294.691	-200.000	-0.015	0.248
-293.676	-6.344	0.246	0.167
-292.662	58.839	-0.212	-0.207
-291.647	-65.653	0.183	0.073
-290.632	-46.891	-0.248	-0.120
-289.618	-113.312	-0.208	0.041
-288.603	800.000	-0.069	-0.202
-287.589	-55.861	0.203	-0.090
-286.574	119.961	-0.115	0.141
-285.559	-97.626	-0.189	-0.049
-284.545	140.100	0.091	-0.119
-283.530	-70.727	0.511	-0.192
-282.516	317.373	-0.132	-0.248
-281.501	-92.765	-0.060	0.017
-280.486	125.881	-0.084	0.105
-279.472	-200.000	-0.028	0.182
-278.457	-200.000	0.020	0.189
-277.443	343.703	-0.046	0.089
-276.428	404.538	0.079	0.166
-275.413	-75.344	0.080	0.028
-274.399	84.747	-0.091	-0.099
-273.384	-12.388	-0.057	0.037
-272.370	98.581	-0.127	0.146
-271.355	-53.486	0.035	0.016
-270.340	-35.304	-0.289	-0.156
-269.326	-200.000	0.008	-0.165
-268.311	116.835	-0.005	-0.006
-267.297	-3.637	0.003	-0.002
-266.282	113.993	-0.231	0.279
-265.267	-83.100	0.257	-0.082
-264.253	42.181	0.154	-0.139
-263.238	-60.978	-0.315	0.132
-262.224	-18.561	0.105	-0.065
-261.209	754.587	-0.047	0.127
-260.195	-200.000	0.021	0.303
-259.180	-107.284	0.180	-0.039
-258.165	355.986	0.059	0.117
-257.151	154.533	-0.053	0.072
-256.136	181.377	-0.114	0.166
-255.122	534.726	0.124	-0.292
-254.107	-63.438	0.409	0.167
-253.092	-36.268	-0.249	-0.133
-252.078	199.246	-0.124	-0.188
-251.063	7.887	0.100	0.074
-250.049	800.000	-0.012	-0.047
-249.034	-68.347	-0.359	0.138
-248.019	-85.179	-0.316	-0.098
-247.005	-119.301	0.183	0.032
-245.990	-26.950	-0.204	0.118
-244.976	-109.038	-0.093	-0.020
-243.961	468.294	-0.081	-0.180
-242.946	-168.633	-0.156	-0.006
-241.932	-67.127	-0.106	-0.041
-240.917	800.000	0.123	0.377
-239.903	-146.030	-0.138	-0.012
-238.888	-200.000	0.049	0.391
-237.873	17.293	0.220	0.173
-236.859	226.070	0.158	-0.255
-235.844	16.582	-0.148	0.116
-234.830	-124.041	-0.264	-0.041
-233.815	312.710	-0.096	-0.179
-232.800	800.000	-0.018	-0.079
-231.786	-106.872	-0.099	0.022
-230.771	800.000	0.063	-0.243
-229.757	172.559	0.099	-0.141
-228.742	-200.000	-0.011	-0.177
-227.727	-200.000	-0.036	0.170
-226.713	-186.366	0.223	0.003
-225.698	316.870	0.080	-0.149
-224.684	145.734	-0.207	0.274
-223.669	-200.000	-0.041	0.181
-222.655	-72.703	0.246	0.090
-221.640	-200.000	0.024	-0.387
-220.625	64.069	0.093	-0.092
-219.611	-66.625	0.166	0.065
-218.596	-168.237	-0.234	0.009
-217.582	-58.201	0.109	0.047
-216.567	515.910	0.072	-0.167
-215.552	-200.000	0.030	-0.147
-214.538	177.810	0.118	-0.171
-213.523	-93.673	-0.167	0.046
-212.509	800.000	-0.070	-0.233
-211.494	-105.482	0.313	0.070
-210.479	252.541	0.105	-0.178
-209.465	-132.159	-0.102	-0.013
-208.450	-191.660	0.308	0.003
-207.436	-31.935	-0.172	0.095
-206.421	-200.000	0.015	0.159
-205.406	590.605	-0.037	-0.091
-204.392	-200.000	0.023	-0.326
-203.377	800.000	0.110	0.400
-202.363	-200.000	-0.055	0.324
-201.348	800.000	0.111	0.304
-200.333	122.440	-0.059	-0.073
-199.319	239.240	0.058	-0.095
-198.304	-97.220	-0.127	-0.033
-197.290	-170.490	0.403	-0.014
-196.275	511.716	0.069	-0.159
-195.260	32.387	-0.074	0.064
-194.246	-200.000	0.029	-0.428
-193.231	-156.760	-0.591	0.036
-192.217	-200.000	-0.033	0.191
-191.202	-94.360	-0.323	-0.087
-190.187	800.000	-0.141	0.400
-189.173	69.603	-0.086	0.088
-188.158	8.816	-0.217	0.162
-187.144	-140.661	-0.150	-0.015
-186.129	44.064	-0.134	0.122
-185.114	-186.983	-0.090	0.001
-184.100	584.995	0.047	0.114
-183.085	-157.597	-0.170	-0.010
-182.071	99.126	-0.217	-0.248
-181.056	800.000	0.049	-0.182
-180.042	-57.450	0.103	0.045
-179.027	-87.313	0.244	0.073
-178.012	69.652	-0.225	-0.229
-176.998	-120.232	0.023	-0.004
-175.983	-16.116	0.066	0.042
-174.969	-50.769	0.434	0.202
-173.954	-42.184	-0.235	-0.119
-172.939	-140.609	0.244	-0.025
-171.925	-200.000	-0.020	0.157
-170.910	618.172	-0.106	-0.263
-169.896	155.398	-0.044	-0.060
-168.881	-200.000	0.004	0.034
-167.866	-131.377	0.161	0.021
-166.852	68.918	0.174	0.176
-165.837	-200.000	0.024	0.202
-164.823	323.276	-0.081	-0.152
-163.808	272.520	-0.169	0.295
-162.793	-38.516	0.379	0.198
-161.779	8.562	-0.246	0.183
-160.764	172.947	0.089	0.127
-159.750	-13.305	0.283	-0.182
-158.735	-200.000	0.020	-0.150
-157.720	-132.523	0.219	0.028
-156.706	-120.735	-0.330	-0.055
-155.691	213.676	-0.114	0.178
-154.677	800.000	-0.066	0.265
-153.662	496.072	-0.042	0.096
-152.647	-41.602	-0.162	-0.082
-151.633	-18.847	-0.375	0.231
-150.618	-101.315	-0.392	-0.095
-149.604	-160.976	0.236	0.012
-148.589	-74.188	0.186	0.067
-147.574	48.965	-0.078	0.072
-146.560	21.124	0.202	-0.162
-145.545	-116.714	-0.394	0.072
-144.531	-200.000	0.013	0.382
-143.516	301.066	0.016	0.029
-142.502	-0.220	0.331	0.233
-141.487	579.518	-0.048	0.115
-140.472	-200.000	0.019	0.158
-139.458	241.224	0.059	0.098
-138.443	-146.932	-0.181	0.015
-137.429	-36.804	0.063	-0.033
-136.414	-46.433	0.085	0.041
-135.399	94.674	-0.132	-0.148
-134.385	91.687	-0.056	-0.062
-133.370	-63.272	0.126	0.051
-132.356	-200.000	0.019	-0.271
-131.341	-26.907	0.341	0.197
-130.326	-200.000	-0.069	0.337
-129.312	-200.000	0.041	0.247
-128.297	-200.000	0.022	0.256
-127.283	-50.428	0.085	0.040
-126.268	-156.476	0.274	-0.017
-125.253	28.420	-0.258	0.215
-124.239	-200.000	0.028	-0.382
-123.224	638.203	0.114	-0.286
-122.210	-124.316	0.335	-0.052
-121.195	-200.000	-0.012	0.127
