DTS Sentinel unit serial number:	SN413079Multiplexer serial number:	ORYXHardware model number:	OX4-SRSoftware version number:	ORYX F/W v4.00 Oryx Data Collector v3.7.2.0data status	okinstallation	princeton_trtdifferential loss correction	single-endedforward channel	channel 1reverse channel	N/Adate	2019/09/13time	18:06:35forward acquisition time	60.00reverse acquisition time	0.00gamma	496.2192k internal	0.2309k external	0.2309temperature offset calibration	1.0141default loss term (dB/km)	0.3790temperature slope calibration	1.0000multiplexer offset coefficient	1.0000multiplexer slope coefficient	1.0000fibre end	0.00T internal ref (°C)	34.66T ext. ref 1 (°C)	4.60T ext. ref 2 (°C)	27.46length (m)	temperature (°C)	Stokes	anti-Stokes-747.200	81.301	-0.132	0.145
-746.185	115.237	-0.141	0.175
-745.171	159.664	0.317	0.449
-744.156	-195.301	-0.375	-0.003
-743.142	-19.415	0.210	0.132
-742.127	12.133	0.189	0.147
-741.112	-50.230	0.346	-0.166
-740.098	147.684	0.140	0.192
-739.083	-121.316	0.142	0.024
-738.069	299.204	0.133	0.248
-737.054	-149.938	-0.135	-0.011
-736.039	800.000	-0.079	0.334
-735.025	-49.121	-0.047	0.023
-734.010	281.380	-0.315	-0.573
-732.996	800.000	0.030	0.106
-731.981	10.297	-0.328	-0.253
-730.966	-56.610	0.250	-0.112
-729.952	-7.429	-0.204	0.140
-728.937	-200.000	0.007	0.000
-727.923	-200.000	-0.000	-0.025
-726.908	-200.000	-0.066	-0.330
-725.894	800.000	-0.047	-0.162
-724.879	257.095	0.116	-0.202
-723.864	-60.263	-0.362	0.157
-722.850	-200.000	-0.008	-0.253
-721.835	-76.470	-0.130	0.046
-720.821	-29.061	-0.150	0.088
-719.806	-200.000	0.053	0.297
-718.791	-104.445	0.083	0.019
-717.777	684.243	0.021	0.056
-716.762	-76.091	0.300	-0.107
-715.748	47.134	-0.237	-0.224
-714.733	-123.381	0.087	0.014
-713.718	800.000	-0.021	-0.082
-712.704	-2.390	0.122	-0.087
-711.689	1.735	-0.255	-0.186
-710.675	436.954	0.079	-0.174
-709.660	36.826	-0.181	-0.162
-708.645	-141.777	0.028	-0.003
-707.631	22.338	0.122	0.101
-706.616	-140.548	-0.221	0.023
-705.602	332.482	-0.208	-0.408
-704.587	77.487	-0.108	-0.117
-703.572	-115.499	-0.235	-0.045
-702.558	-200.000	0.125	-0.000
-701.543	-15.671	0.330	-0.214
-700.529	-87.575	0.125	0.038
-699.514	-200.000	-0.047	-0.424
-698.499	-200.000	0.045	0.323
-697.485	61.502	-0.039	-0.039
-696.470	-67.835	0.079	-0.031
-695.456	-93.929	0.532	-0.148
-694.441	-200.000	0.084	-0.548
-693.426	-104.510	-0.386	0.091
-692.412	81.739	0.252	0.276
-691.397	-90.251	0.170	0.050
-690.383	-69.317	0.158	0.062
-689.368	50.232	0.101	-0.097
-688.354	53.013	-0.124	-0.121
-687.339	-200.000	-0.061	-0.440
-686.324	286.584	0.079	0.145
-685.310	-75.336	-0.115	-0.042
-684.295	-151.878	-0.144	0.011
-683.281	312.163	0.027	-0.052
-682.266	-52.830	0.060	-0.028
-681.251	-200.000	-0.005	-0.055
-680.237	-86.216	0.303	0.095
-679.222	384.389	-0.124	-0.259
-678.208	-123.380	0.136	-0.022
-677.193	-200.000	0.048	0.483
-676.178	87.861	-0.071	-0.080
-675.164	367.551	0.071	-0.145
-674.149	371.553	-0.063	0.130
-673.135	1.752	0.248	-0.181
-672.120	37.889	-0.279	-0.251
-671.105	-200.000	0.062	-0.400
-670.091	73.585	-0.019	-0.020
-669.076	-200.000	0.018	-0.177
-668.062	-200.000	-0.014	-0.090
-667.047	-182.627	-0.087	0.002
-666.032	228.568	-0.090	-0.149
-665.018	-152.286	-0.176	0.013
-664.003	286.476	0.069	0.126
-662.989	-12.658	-0.138	0.091
-661.974	-200.000	0.057	0.363
-660.959	-200.000	0.021	0.339
-659.945	7.745	0.291	0.221
-658.930	-200.000	-0.053	0.241
-657.916	236.582	0.121	-0.202
-656.901	-173.976	0.136	-0.004
-655.886	800.000	-0.069	-0.194
-654.872	33.071	-0.067	0.059
-653.857	-124.471	0.255	-0.040
-652.843	-7.840	-0.147	-0.101
-651.828	-71.948	0.109	0.041
-650.814	0.756	-0.065	0.047
-649.799	87.807	-0.191	0.215
-648.784	87.626	-0.129	0.144
-647.770	-142.204	0.250	-0.025
-646.755	-100.482	0.175	0.044
-645.741	146.779	0.012	0.016
-644.726	-169.805	0.276	0.010
-643.711	-38.157	0.308	-0.165
-642.697	-140.302	0.115	0.012
-641.682	158.866	0.044	0.062
-640.668	294.026	0.223	-0.412
-639.653	-33.771	-0.205	0.115
-638.638	-26.662	-0.431	-0.255
-637.624	-200.000	-0.019	-0.190
-636.609	-49.988	0.108	0.052
-635.595	-8.367	0.253	0.172
-634.580	-32.115	0.105	0.059
-633.565	-104.695	0.381	-0.089
-632.551	-90.100	-0.149	0.044
-631.536	31.660	-0.312	0.271
-630.522	110.110	-0.255	0.310
-629.507	-200.000	0.037	-0.225
-628.492	63.774	0.363	-0.369
-627.478	-53.593	0.104	0.048
-626.463	59.616	-0.180	0.179
-625.449	-200.000	0.019	-0.266
-624.434	187.282	0.141	-0.213
-623.419	-10.890	-0.272	0.182
-622.405	-60.887	0.281	0.120
-621.390	88.774	0.050	0.056
-620.376	13.959	-0.242	-0.190
-619.361	-58.760	0.017	0.007
-618.346	194.027	-0.286	-0.438
-617.332	-75.286	-0.220	0.079
-616.317	-31.490	0.104	0.059
-615.303	102.721	-0.063	-0.075
-614.288	665.865	0.048	0.125
-613.273	-200.000	-0.023	-0.158
-612.259	-84.707	-0.214	0.068
-611.244	50.138	-0.162	0.155
-610.230	-108.613	0.286	0.062
-609.215	155.686	-0.059	0.082
-608.201	-74.890	0.132	-0.048
-607.186	-54.964	-0.228	0.104
-606.171	-55.522	0.124	-0.056
-605.157	-200.000	-0.016	-0.264
-604.142	374.957	-0.008	-0.017
-603.128	37.543	0.073	-0.065
-602.113	-13.209	-0.200	0.131
-601.098	-200.000	-0.034	-0.170
-600.084	-20.884	-0.199	0.123
-599.069	-184.047	-0.264	0.004
-598.055	629.766	0.049	0.126
-597.040	-122.471	-0.386	0.063
-596.025	800.000	-0.068	0.251
-595.011	191.821	0.134	0.205
-593.996	-25.210	0.063	0.038
-592.982	-200.000	-0.014	-0.149
-591.967	-112.262	0.130	0.026
-590.952	-200.000	-0.031	-0.212
-589.938	-87.974	0.306	0.093
-588.923	-159.673	-0.455	-0.025
-587.909	-173.035	0.235	-0.007
-586.894	93.691	-0.233	-0.267
-585.879	800.000	-0.091	-0.289
-584.865	-121.884	-0.086	-0.014
-583.850	-170.943	0.251	-0.009
-582.836	-200.000	0.005	0.249
-581.821	487.337	0.036	0.083
-580.806	-71.279	-0.444	-0.168
-579.792	221.918	-0.043	0.069
-578.777	-104.428	-0.307	-0.072
-577.763	104.209	0.094	-0.112
-576.748	-108.958	-0.252	-0.054
-575.733	70.001	-0.173	-0.180
-574.719	-200.000	0.037	0.260
-573.704	800.000	-0.045	0.196
-572.690	-71.658	-0.318	0.120
-571.675	-150.490	0.186	0.014
-570.661	14.173	0.183	-0.144
-569.646	-107.859	-0.142	-0.031
-568.631	635.952	0.057	0.147
-567.617	-35.481	-0.287	0.157
-566.602	-36.781	0.447	-0.242
-565.588	789.615	-0.080	0.221
-564.573	641.818	-0.061	0.157
-563.558	-15.423	-0.083	-0.054
-562.544	-34.045	0.606	-0.336
-561.529	772.002	0.052	0.142
-560.515	-69.465	-0.149	-0.058
-559.500	-200.000	-0.003	0.016
-558.485	-78.031	0.267	-0.093
-557.471	-136.699	0.090	-0.010
-556.456	-92.651	-0.151	0.043
-555.442	-200.000	0.005	0.107
-554.427	539.392	0.059	-0.142
-553.412	-200.000	0.062	0.296
-552.398	-200.000	0.011	-0.214
-551.383	95.007	-0.285	-0.327
-550.369	-200.000	0.055	0.404
-549.354	-72.997	-0.172	-0.064
-548.339	343.964	0.133	-0.262
-547.325	-200.000	0.009	0.067
-546.310	-200.000	0.014	-0.516
-545.296	-10.324	0.138	0.092
-544.281	61.439	-0.251	0.252
-543.266	180.046	0.151	0.223
-542.252	800.000	-0.071	0.208
-541.237	800.000	0.136	-0.475
-540.223	23.608	-0.086	-0.072
-539.208	-68.912	0.177	-0.069
-538.193	-36.505	-0.359	-0.195
-537.179	58.010	-0.087	-0.086
-536.164	-200.000	0.002	-0.099
-535.150	-120.009	-0.328	-0.057
-534.135	-175.668	-0.202	-0.005
-533.121	-167.881	-0.280	0.011
-532.106	104.579	-0.120	0.142
-531.091	-200.000	0.029	0.202
-530.077	-176.512	-0.126	-0.003
-529.062	218.918	0.113	0.182
-528.048	286.911	0.170	0.310
-527.033	271.570	0.045	-0.081
-526.018	-93.520	-0.291	-0.081
-525.004	378.408	-0.033	-0.067
-523.989	-82.061	0.186	0.061
-522.975	-200.000	0.038	0.219
-521.960	-128.454	0.142	0.020
-520.945	660.434	-0.126	0.328
-519.931	-200.000	-0.085	-0.414
-518.916	-164.517	-0.279	-0.013
-517.902	-200.000	0.019	0.248
-516.887	-92.382	-0.254	0.072
-515.872	-200.000	0.020	-0.118
-514.858	-110.265	0.242	-0.051
-513.843	-200.000	-0.045	0.395
-512.829	-31.742	0.152	-0.086
-511.814	48.115	-0.243	-0.229
-510.799	37.715	0.028	-0.025
-509.785	21.856	0.085	0.070
-508.770	-62.854	0.159	-0.066
-507.756	-200.000	0.003	-0.126
-506.741	69.741	-0.126	0.131
-505.726	800.000	-0.031	-0.097
-504.712	131.667	-0.247	0.320
-503.697	52.539	0.156	-0.149
-502.683	-47.459	0.375	0.184
-501.668	-12.485	0.278	0.183
-500.653	114.340	0.072	0.088
-499.639	-51.482	0.064	-0.030
-498.624	-32.174	-0.095	-0.053
-497.610	-42.199	0.225	-0.115
-496.595	800.000	-0.015	-0.053
-495.581	-127.423	0.201	-0.029
-494.566	-109.766	-0.207	-0.044
-493.551	-200.000	-0.002	-0.054
-492.537	-142.575	-0.136	-0.013
-491.522	-200.000	0.065	-0.314
-490.508	-200.000	0.033	-0.317
-489.493	162.726	0.083	-0.117
-488.478	-77.174	-0.249	0.087
-487.464	-200.000	-0.006	-0.187
-486.449	-200.000	-0.003	0.039
-485.435	10.297	0.132	0.101
-484.420	194.557	0.111	0.169
-483.405	106.191	-0.196	0.233
-482.391	138.243	0.136	0.179
-481.376	-70.660	-0.129	0.049
-480.362	800.000	0.018	0.069
-479.347	290.749	0.099	-0.180
-478.332	-200.000	0.016	0.130
-477.318	20.108	-0.050	0.040
-476.303	-185.373	0.329	-0.005
-475.289	757.386	-0.135	-0.367
-474.274	777.323	-0.063	0.174
-473.259	-90.196	0.350	-0.102
-472.245	-200.000	0.007	0.052
-471.230	192.408	0.181	0.275
-470.216	37.788	0.213	-0.190
-469.201	-144.845	-0.158	0.015
-468.186	-200.000	-0.065	0.320
-467.172	-200.000	-0.029	-0.183
-466.157	-3.258	-0.117	-0.082
-465.143	-141.783	0.221	-0.022
-464.128	3.578	-0.025	0.018
-463.113	24.692	-0.084	-0.070
-462.099	-200.000	0.028	-0.289
-461.084	46.126	0.247	0.230
-460.070	-38.913	-0.040	0.021
-459.055	-38.709	-0.243	0.129
-458.040	-7.286	0.187	-0.127
-457.026	77.891	-0.157	0.168
-456.011	175.548	0.109	-0.158
-454.997	12.441	0.136	0.105
-453.982	-136.922	0.083	-0.010
-452.968	-200.000	-0.053	-0.339
-451.953	800.000	-0.036	-0.122
-450.938	202.974	0.142	0.220
-449.924	139.522	0.210	-0.277
-448.909	21.870	0.330	0.270
-447.895	125.032	-0.198	-0.250
-446.880	-30.235	-0.122	-0.070
-445.865	-200.000	0.004	-0.128
-444.851	77.907	0.201	-0.215
-443.836	76.505	0.228	0.243
-442.822	-154.353	-0.097	-0.007
-441.807	-78.805	0.206	-0.071
-440.792	5.092	-0.185	0.136
-439.778	77.756	0.032	-0.035
-438.763	24.011	0.234	-0.194
-437.749	-200.000	0.007	0.294
-436.734	-200.000	0.003	0.043
-435.719	-122.601	0.362	-0.059
-434.705	-60.585	0.237	0.101
-433.690	-128.101	-0.136	-0.019
-432.676	-62.110	-0.105	0.044
-431.661	-19.172	0.188	0.117
-430.646	247.776	0.102	-0.172
-429.632	-1.947	0.193	0.136
-428.617	-57.682	-0.171	-0.075
-427.603	40.234	-0.069	0.062
-426.588	-92.106	0.284	0.080
-425.573	-90.414	0.385	-0.112
-424.559	-69.192	-0.131	0.050
-423.544	-200.000	-0.011	0.125
-422.530	-200.000	-0.035	0.333
-421.515	800.000	0.050	0.176
-420.500	496.662	-0.153	0.353
-419.486	161.944	-0.140	0.197
-418.471	-200.000	-0.030	0.163
-417.457	-176.788	0.098	0.002
-416.442	-200.000	-0.047	-0.382
-415.428	-110.958	-0.304	-0.063
-414.413	88.926	-0.134	-0.150
-413.398	-200.000	-0.029	-0.256
-412.384	505.929	-0.114	-0.265
-411.369	-94.191	-0.133	0.037
-410.355	-92.652	0.372	0.105
-409.340	24.131	-0.233	0.193
-408.325	647.942	0.194	0.497
-407.311	800.000	0.069	-0.190
-406.296	-200.000	-0.014	0.296
-405.282	715.908	0.085	0.227
-404.267	178.324	0.093	0.136
-403.252	149.550	-0.102	0.138
-402.238	800.000	-0.069	0.201
-401.223	7.715	-0.095	0.072
-400.209	610.471	0.134	-0.336
-399.194	-63.130	-0.419	-0.173
-398.179	123.105	0.108	-0.136
-397.165	800.000	0.117	-0.345
-396.150	38.346	-0.082	0.073
-395.136	-200.000	-0.018	0.105
-394.121	30.640	-0.381	0.327
-393.106	84.532	-0.139	-0.152
-392.092	-200.000	-0.041	0.330
-391.077	584.762	-0.073	-0.180
-390.063	-11.564	0.152	-0.100
-389.048	-200.000	-0.035	-0.169
-388.033	95.807	0.175	0.200
-387.019	319.395	-0.130	-0.247
-386.004	239.439	-0.054	0.089
-384.990	414.854	-0.055	0.118
-383.975	162.930	-0.033	0.046
-382.960	30.573	-0.144	-0.123
-381.946	-156.456	0.247	0.015
-380.931	-23.812	0.016	0.010
-379.917	-28.666	0.283	0.163
-378.902	-32.093	0.025	0.014
-377.888	-200.000	-0.086	0.544
-376.873	-200.000	0.006	0.081
-375.858	-45.806	-0.140	0.069
-374.844	257.748	0.172	-0.297
-373.829	-33.945	-0.114	0.063
-372.815	-30.196	-0.219	-0.124
-371.800	-200.000	0.013	0.160
-370.785	-111.110	0.051	0.011
-369.771	-41.560	-0.095	0.049
-368.756	544.826	0.122	-0.292
-367.742	-200.000	-0.003	0.031
-366.727	13.464	-0.201	-0.156
-365.712	-21.392	0.068	-0.042
-364.698	-200.000	0.001	-0.124
-363.683	-200.000	-0.005	0.100
-362.669	423.563	-0.097	0.209
-361.654	-70.648	0.224	0.085
-360.639	-143.108	0.047	0.005
-359.625	-37.271	-0.225	0.120
-358.610	-200.000	-0.011	0.259
-357.596	-64.555	0.305	-0.124
-356.581	-113.001	-0.216	0.043
-355.566	-200.000	0.004	0.065
-354.552	-63.354	0.040	-0.017
-353.537	-76.785	0.147	-0.051
-352.523	800.000	-0.052	0.181
-351.508	-12.726	0.148	-0.097
-350.493	28.110	0.193	-0.163
-349.479	-51.004	0.205	0.096
-348.464	-49.987	-0.082	0.039
-347.450	-200.000	-0.023	0.467
-346.435	-38.859	-0.202	0.106
-345.420	152.052	0.082	-0.112
-344.406	-200.000	-0.013	-0.215
-343.391	-78.360	0.113	0.039
-342.377	141.380	-0.104	0.138
-341.362	183.060	-0.090	0.132
-340.348	-6.619	-0.183	0.125
-339.333	29.072	0.238	-0.202
-338.318	48.106	-0.130	0.122
-337.304	-200.000	0.060	0.424
-336.289	108.249	0.058	0.069
-335.275	-93.728	0.239	-0.066
-334.260	19.932	-0.155	0.125
-333.245	32.628	-0.275	0.238
-332.231	158.636	-0.049	-0.068
-331.216	441.033	-0.122	0.266
-330.202	-200.000	-0.020	-0.094
-329.187	-103.155	0.257	-0.061
-328.172	5.081	0.021	0.015
-327.158	-26.351	0.414	-0.243
-326.143	-200.000	0.063	-0.491
-325.129	-53.048	0.079	-0.036
-324.114	800.000	0.085	0.306
-323.099	-102.958	-0.215	0.051
-322.085	-200.000	-0.025	-0.141
-321.070	-75.455	-0.242	0.086
-320.056	-113.178	0.180	-0.035
-319.041	800.000	0.040	-0.164
-318.026	-58.310	-0.104	0.045
-317.012	-132.269	0.152	0.020
-315.997	-82.363	0.189	-0.061
-314.983	-114.107	-0.141	-0.027
-313.968	-34.704	-0.315	-0.172
-312.953	-107.151	0.090	-0.020
-311.939	-49.677	-0.193	-0.091
-310.924	-154.939	0.280	0.018
-309.910	-200.000	-0.003	-0.027
-308.895	18.420	-0.220	-0.175
-307.880	-189.264	-0.287	0.003
-306.866	-200.000	0.008	0.078
-305.851	131.489	-0.103	0.132
-304.837	75.820	-0.139	-0.147
-303.822	-135.695	-0.096	0.011
-302.807	10.856	0.159	0.121
-301.793	565.099	-0.069	-0.168
-300.778	341.752	0.169	-0.331
-299.764	88.358	-0.141	-0.156
-298.749	-70.900	-0.110	-0.041
-297.735	800.000	0.046	-0.189
-296.720	-10.129	0.039	0.026
-295.705	-42.189	0.352	0.179
-294.691	-117.728	0.088	-0.016
-293.676	-155.054	-0.304	-0.020
-292.662	-200.000	0.019	-0.144
-291.647	71.258	0.102	-0.105
-290.632	281.393	-0.071	0.127
-289.618	-200.000	-0.012	-0.358
-288.603	80.691	-0.061	0.065
-287.589	-200.000	0.004	0.292
-286.574	69.436	-0.027	0.027
-285.559	-45.788	0.142	0.070
-284.545	122.205	-0.083	0.103
-283.530	-138.453	-0.151	0.017
-282.516	-200.000	0.138	0.001
-281.501	-200.000	0.004	-0.251
-280.486	636.187	-0.022	-0.055
-279.472	-66.301	0.147	-0.059
-278.457	399.562	-0.115	-0.240
-277.443	5.200	0.214	0.157
-276.428	-33.858	-0.478	0.263
-275.413	-18.048	-0.211	0.132
-274.399	16.729	-0.236	0.186
-273.384	81.090	-0.064	-0.069
-272.370	-69.763	0.212	0.081
-271.355	800.000	-0.058	-0.182
-270.340	492.365	-0.133	0.304
-269.326	800.000	-0.022	0.066
-268.311	-167.924	-0.159	-0.006
-267.297	326.136	0.132	0.253
-266.282	428.824	-0.043	-0.093
-265.267	211.204	0.072	0.113
-264.253	113.438	-0.161	-0.195
-263.238	-133.053	-0.143	0.018
-262.224	4.929	0.292	0.214
-261.209	427.598	-0.099	0.213
-260.195	-156.906	0.374	-0.023
-259.180	-81.593	0.235	0.077
-258.165	46.208	0.097	-0.089
-257.151	-200.000	0.010	0.202
-256.136	88.078	-0.111	0.123
-255.122	113.430	0.145	0.175
-254.107	672.738	-0.060	0.156
-253.092	800.000	-0.006	0.023
-252.078	564.695	0.125	-0.303
-251.063	-57.962	0.217	-0.094
-250.049	332.293	-0.072	-0.139
-249.034	424.893	-0.037	-0.080
-248.019	800.000	0.094	-0.271
-247.005	-26.095	-0.035	0.021
-245.990	-4.580	-0.157	0.108
-244.976	-75.212	0.227	0.081
-243.961	-169.095	-0.084	-0.003
-242.946	-56.954	0.033	-0.014
-241.932	96.530	0.213	-0.243
-240.917	-93.264	0.100	-0.028
-239.903	95.624	0.083	-0.094
-238.888	-200.000	0.014	-0.152
-237.873	64.305	0.106	0.106
-236.859	-83.596	-0.316	-0.101
-235.844	123.632	-0.098	0.123
-234.830	-93.732	-0.187	0.051
-233.815	-77.503	-0.242	0.083
-232.800	800.000	0.059	-0.181
-231.786	-92.932	0.238	0.066
-230.771	589.370	-0.096	-0.236
-229.757	132.276	-0.268	-0.344
-228.742	672.971	-0.101	-0.261
-227.727	-200.000	-0.022	-0.135
-226.713	-133.511	0.435	-0.054
-225.698	591.357	0.085	0.210
-224.684	-130.220	0.137	-0.019
-223.669	-200.000	-0.009	0.121
-222.655	800.000	-0.028	-0.113
-221.640	-55.191	-0.266	0.119
-220.625	-200.000	-0.056	0.447
-219.611	-92.070	0.160	0.045
-218.596	800.000	-0.101	-0.338
-217.582	-45.724	0.342	0.168
-216.567	-148.891	-0.354	0.028
-215.552	120.116	0.083	-0.102
-214.538	-200.000	-0.076	0.375
-213.523	800.000	0.047	0.140
-212.509	224.046	0.143	-0.230
-211.494	448.325	0.038	-0.084
-210.479	240.918	-0.152	0.252
-209.465	-43.987	0.128	0.064
-208.450	-28.275	0.289	0.166
-207.436	675.683	-0.020	-0.052
-206.421	800.000	-0.053	0.197
-205.406	65.714	-0.074	0.075
-204.392	-22.893	-0.136	0.082
-203.377	800.000	0.042	-0.120
-202.363	-135.242	-0.249	0.030
-201.348	-18.574	0.179	-0.111
-200.333	210.521	0.135	0.210
-199.319	-120.387	-0.181	0.031
-198.304	-47.243	0.242	-0.117
-197.290	382.714	0.054	-0.110
-196.275	800.000	0.087	0.290
-195.260	-139.074	-0.164	-0.018
-194.246	59.065	-0.189	-0.185
-193.231	-101.152	-0.362	0.088
-192.217	114.804	-0.148	-0.179
-191.202	-200.000	-0.006	-0.318
-190.187	-153.118	0.385	-0.027
-189.173	7.338	0.104	0.077
-188.158	45.831	0.119	-0.110
-187.144	-8.549	-0.289	-0.193
-186.129	-200.000	-0.066	0.349
-185.114	87.277	0.094	0.104
-184.100	422.781	-0.234	-0.500
-183.085	-200.000	-0.050	-0.221
-182.071	-73.739	0.088	0.032
-181.056	-200.000	-0.017	0.276
-180.042	800.000	0.059	0.257
-179.027	699.425	-0.062	-0.161
-178.012	-200.000	0.025	-0.116
-176.998	-93.641	0.282	0.077
-175.983	-3.743	0.277	0.191
-174.969	189.777	-0.132	-0.197
-173.954	-200.000	-0.010	0.091
-172.939	800.000	-0.088	-0.319
-171.925	-84.177	-0.342	-0.108
-170.910	-185.207	-0.279	-0.004
-169.896	-95.812	0.125	0.033
-168.881	232.817	-0.097	0.158
-167.866	0.751	0.254	-0.180
-166.852	-200.000	0.026	-0.174
-165.837	-62.944	0.243	0.100
-164.823	800.000	-0.096	-0.396
-163.808	-200.000	0.050	-0.276
-162.793	753.263	0.113	-0.304
-161.779	-191.674	0.359	0.004
-160.764	94.892	-0.043	-0.049
-159.750	-56.911	0.243	0.107
-158.735	-200.000	-0.057	0.275
-157.720	-144.938	-0.351	0.032
-156.706	-58.606	-0.168	0.072
-155.691	102.076	-0.148	0.172
-154.677	800.000	0.134	-0.405
-153.662	125.703	0.021	0.026
-152.647	514.135	0.077	-0.179
-151.633	-200.000	0.003	-0.360
-150.618	4.581	0.235	-0.171
-149.604	-54.447	0.119	-0.054
-148.589	126.983	-0.132	0.166
-147.574	-3.232	-0.082	0.057
-146.560	800.000	0.038	0.162
-145.545	-115.782	0.162	-0.030
-144.531	44.151	0.073	0.066
-143.516	-200.000	-0.021	0.147
-142.502	-20.429	-0.407	-0.248
-141.487	-67.462	-0.251	0.098
-140.472	-6.470	-0.231	0.156
-139.458	-200.000	0.007	0.276
-138.443	122.646	-0.176	0.218
-137.429	69.015	0.062	-0.064
-136.414	17.957	0.328	0.259
-135.399	-155.333	0.330	-0.021
-134.385	22.810	-0.181	-0.147
-133.370	-101.934	0.469	0.112
-132.356	259.673	-0.082	-0.140
-131.341	-78.858	-0.167	-0.056
-130.326	147.798	-0.064	0.085
-129.312	730.093	0.082	0.218
-128.297	200.197	0.164	0.250
-127.283	-40.091	0.081	-0.042
-126.268	800.000	0.085	-0.365
-125.253	-200.000	-0.046	-0.264
-124.239	35.231	0.066	0.057
-123.224	17.710	-0.229	-0.181
-122.210	800.000	-0.070	-0.221
-121.195	215.614	0.138	0.217
