DTS Sentinel unit serial number:	SN413079Multiplexer serial number:	ORYXHardware model number:	OX4-SRSoftware version number:	ORYX F/W v4.00 Oryx Data Collector v3.7.2.0data status	okinstallation	princeton_trtdifferential loss correction	single-endedforward channel	channel 1reverse channel	N/Adate	2019/09/13time	13:14:35forward acquisition time	60.00reverse acquisition time	0.00gamma	496.2192k internal	0.2304k external	0.2304temperature offset calibration	1.0162default loss term (dB/km)	0.3790temperature slope calibration	1.0000multiplexer offset coefficient	1.0000multiplexer slope coefficient	1.0000fibre end	0.00T internal ref (°C)	34.89T ext. ref 1 (°C)	4.56T ext. ref 2 (°C)	31.04length (m)	temperature (°C)	Stokes	anti-Stokes-747.200	65.499	0.183	0.188
-746.185	151.276	0.176	-0.245
-745.171	-90.608	-0.270	-0.080
-744.156	-42.726	-0.195	-0.101
-743.142	-129.158	-0.371	0.053
-742.127	-89.819	-0.120	0.036
-741.112	-200.000	0.009	-0.057
-740.098	420.302	0.075	0.164
-739.083	-45.201	0.195	0.099
-738.069	231.107	-0.126	0.210
-737.054	50.024	-0.095	0.091
-736.039	-132.921	-0.364	-0.047
-735.025	47.306	-0.103	-0.097
-734.010	257.005	-0.160	0.280
-732.996	-200.000	0.023	-0.188
-731.981	-34.544	-0.213	0.119
-730.966	-133.879	0.134	0.017
-729.952	81.571	0.170	-0.188
-728.937	116.415	-0.073	-0.091
-727.923	238.356	0.073	-0.124
-726.908	264.008	-0.107	0.189
-725.894	-96.747	-0.339	0.091
-724.879	722.683	-0.136	-0.367
-723.864	-135.307	-0.055	0.007
-722.850	-72.231	-0.255	-0.096
-721.835	-200.000	0.057	-0.300
-720.821	-71.573	-0.153	-0.058
-719.806	12.074	0.236	0.185
-718.791	232.641	-0.210	-0.351
-717.777	-89.083	-0.335	0.101
-716.762	800.000	0.089	-0.296
-715.748	-17.841	-0.156	0.100
-714.733	-168.705	0.302	0.012
-713.718	-109.790	-0.257	-0.055
-712.704	-64.285	-0.193	0.080
-711.689	-8.245	0.058	0.040
-710.675	-86.358	0.256	-0.080
-709.660	-200.000	0.069	-0.357
-708.645	-200.000	0.015	-0.170
-707.631	150.733	0.126	-0.175
-706.616	76.134	-0.089	0.096
-705.602	33.396	-0.248	0.219
-704.587	-200.000	-0.039	0.254
-703.572	13.349	-0.070	-0.055
-702.558	800.000	-0.074	-0.246
-701.543	36.632	-0.146	0.131
-700.529	574.653	0.085	-0.210
-699.514	-200.000	0.032	-0.242
-698.499	-26.107	0.274	0.163
-697.485	7.755	0.149	0.114
-696.470	-0.116	-0.091	0.066
-695.456	-103.531	-0.088	-0.021
-694.441	-166.786	-0.137	-0.006
-693.426	-174.447	-0.159	0.005
-692.412	-200.000	0.011	-0.521
-691.397	96.283	0.154	0.179
-690.383	60.428	-0.251	0.252
-689.368	97.822	-0.086	-0.101
-688.354	687.917	0.135	-0.359
-687.339	800.000	-0.083	0.273
-686.324	185.804	-0.216	-0.326
-685.310	715.008	-0.082	-0.220
-684.295	195.318	0.206	-0.317
-683.281	-129.398	-0.162	-0.023
-682.266	211.300	-0.239	-0.382
-681.251	-100.942	0.103	0.026
-680.237	-154.346	-0.182	-0.012
-679.222	-200.000	-0.038	0.229
-678.208	75.706	0.091	0.098
-677.193	-200.000	0.059	0.357
-676.178	-119.567	0.206	-0.036
-675.164	-176.612	-0.142	-0.004
-674.149	103.447	0.144	-0.171
-673.135	-44.493	-0.243	-0.123
-672.120	45.496	0.159	-0.149
-671.105	-200.000	-0.004	-0.107
-670.091	-90.414	-0.124	0.036
-669.076	-74.067	-0.326	0.120
-668.062	-66.779	0.152	0.061
-667.047	-200.000	-0.032	0.231
-666.032	-124.666	-0.155	-0.024
-665.018	248.859	-0.010	-0.017
-664.003	-31.261	0.315	-0.180
-662.989	407.098	-0.046	0.098
-661.974	-104.146	-0.520	-0.123
-660.959	-26.139	0.176	0.105
-659.945	-16.538	-0.142	0.092
-658.930	-50.231	0.089	0.043
-657.916	97.659	-0.150	-0.175
-656.901	380.263	-0.040	0.083
-655.886	-200.000	0.008	-0.144
-654.872	-51.594	0.136	-0.064
-653.857	639.054	-0.005	-0.014
-652.843	-200.000	-0.054	-0.300
-651.828	-73.669	-0.317	-0.117
-650.814	311.375	0.048	-0.091
-649.799	-147.566	-0.093	-0.008
-648.784	109.213	0.042	-0.051
-647.770	-83.703	-0.372	-0.121
-646.755	-20.939	-0.079	-0.049
-645.741	183.494	-0.225	-0.338
-644.726	177.171	-0.161	0.238
-643.711	-23.555	0.212	-0.129
-642.697	21.895	0.205	0.169
-641.682	61.959	0.113	-0.114
-640.668	40.346	-0.184	-0.168
-639.653	12.587	0.184	0.144
-638.638	436.320	-0.095	-0.209
-637.624	800.000	-0.077	-0.217
-636.609	-31.187	-0.266	-0.152
-635.595	-200.000	0.027	0.264
-634.580	-144.479	-0.275	-0.026
-633.565	-200.000	0.005	0.164
-632.551	44.420	0.115	-0.107
-631.536	-107.009	0.095	-0.021
-630.522	-2.925	-0.170	-0.120
-629.507	-188.276	0.169	-0.002
-628.492	-48.451	0.295	-0.144
-627.478	800.000	0.022	0.079
-626.463	800.000	0.014	-0.051
-625.449	800.000	-0.037	-0.146
-624.434	-131.532	0.215	0.029
-623.419	39.146	0.025	-0.023
-622.405	-69.150	-0.344	-0.134
-621.390	29.785	0.136	-0.118
-620.376	800.000	-0.162	0.547
-619.361	278.179	0.094	-0.170
-618.346	160.721	-0.040	-0.056
-617.332	-42.294	0.142	0.073
-616.317	-71.025	0.093	-0.036
-615.303	204.172	-0.133	-0.209
-614.288	-152.638	0.080	-0.006
-613.273	-111.852	0.046	0.009
-612.259	-120.624	0.121	0.021
-611.244	-200.000	-0.030	-0.179
-610.230	226.950	0.176	0.290
-609.215	-107.321	0.262	-0.058
-608.201	-126.506	-0.089	-0.013
-607.186	-200.000	-0.008	0.311
-606.171	519.431	0.035	0.084
-605.157	-132.989	0.565	0.073
-604.142	79.749	0.200	0.218
-603.128	-200.000	0.001	-0.141
-602.113	176.371	-0.157	0.231
-601.098	-46.367	-0.095	-0.047
-600.084	-83.475	-0.203	-0.066
-599.069	-75.054	0.388	-0.141
-598.055	281.772	0.066	0.119
-597.040	-43.721	-0.178	0.091
-596.025	-135.839	-0.474	0.057
-595.011	-105.283	0.220	-0.051
-593.996	332.339	0.060	-0.118
-592.982	-98.638	0.167	-0.043
-591.967	102.976	0.231	-0.274
-590.952	-200.000	0.040	-0.190
-589.938	67.275	-0.153	0.158
-588.923	60.780	-0.080	0.081
-587.909	800.000	0.070	0.209
-586.894	-1.834	0.066	0.047
-585.879	-200.000	-0.019	-0.237
-584.865	-182.965	-0.332	0.006
-583.850	-200.000	-0.026	-0.273
-582.836	-200.000	-0.017	0.152
-581.821	-146.766	-0.247	0.022
-580.806	-200.000	-0.009	0.200
-579.792	-151.704	-0.099	-0.007
-578.777	57.534	-0.350	0.346
-577.763	800.000	-0.015	-0.043
-576.748	41.168	0.169	-0.155
-575.733	-114.924	-0.351	-0.068
-574.719	510.172	-0.134	-0.316
-573.704	-200.000	0.012	-0.090
-572.690	102.141	-0.061	0.071
-571.675	-200.000	0.000	0.022
-570.661	-108.628	0.176	0.038
-569.646	-60.633	-0.289	0.124
-568.631	-10.545	0.164	-0.110
-567.617	-105.486	0.146	-0.034
-566.602	-200.000	0.003	0.175
-565.588	-200.000	-0.019	-0.373
-564.573	33.997	0.220	-0.194
-563.558	281.745	-0.069	0.125
-562.544	-126.067	-0.131	-0.020
-561.529	-161.355	0.279	0.015
-560.515	-50.047	0.136	-0.065
-559.500	-80.410	0.303	0.102
-558.485	374.742	-0.166	0.343
-557.471	-9.306	-0.177	-0.119
-556.456	382.235	0.128	0.265
-555.442	639.673	0.044	-0.114
-554.427	289.608	0.068	0.125
-553.412	9.607	-0.269	-0.206
-552.398	800.000	0.049	0.158
-551.383	-106.800	0.115	-0.026
-550.369	-184.380	-0.093	0.002
-549.354	800.000	-0.063	-0.226
-548.339	800.000	0.057	-0.201
-547.325	308.080	-0.149	-0.280
-546.310	546.005	0.092	-0.222
-545.296	-84.936	0.306	-0.097
-544.281	-12.575	0.087	-0.057
-543.266	82.106	-0.079	0.086
-542.252	-200.000	0.038	-0.389
-541.237	-37.968	-0.176	-0.094
-540.223	-104.742	0.269	-0.062
-539.208	-200.000	-0.022	0.197
-538.193	101.135	-0.037	-0.044
-537.179	454.180	0.130	-0.291
-536.164	84.460	-0.185	0.205
-535.150	494.270	-0.097	0.225
-534.135	-139.424	-0.274	-0.030
-533.121	-200.000	0.011	0.165
-532.106	-72.221	0.171	0.064
-531.091	-200.000	0.076	-0.354
-530.077	-78.899	-0.284	0.098
-529.062	-15.585	0.268	-0.173
-528.048	273.943	-0.095	-0.169
-527.033	-200.000	0.104	-0.505
-526.018	172.326	0.117	-0.169
-525.004	219.337	-0.072	0.117
-523.989	-200.000	-0.024	-0.120
-522.975	-43.543	-0.325	0.166
-521.960	6.494	-0.254	-0.191
-520.945	-99.636	0.247	-0.063
-519.931	164.376	-0.223	0.317
-518.916	596.537	0.055	-0.136
-517.902	-70.444	-0.185	-0.071
-516.887	-93.122	-0.156	0.044
-515.872	-200.000	0.001	-0.459
-514.858	697.712	-0.044	0.117
-513.843	800.000	0.087	0.318
-512.829	93.804	-0.141	0.161
-511.814	-31.331	0.151	0.086
-510.799	178.219	-0.180	-0.266
-509.785	-200.000	0.017	-0.379
-508.770	-14.545	0.214	0.139
-507.756	800.000	-0.025	0.103
-506.741	-200.000	0.033	0.159
-505.726	-138.814	-0.231	0.025
-504.712	-200.000	0.024	0.238
-503.697	425.634	0.138	-0.300
-502.683	286.856	-0.181	-0.330
-501.668	-97.054	-0.197	-0.052
-500.653	-100.123	-0.018	-0.004
-499.639	-62.685	-0.106	-0.045
-498.624	6.846	-0.072	-0.054
-497.610	-63.282	0.198	-0.082
-496.595	-145.313	0.067	-0.006
-495.581	-82.962	-0.094	0.031
-494.566	19.832	0.032	0.026
-493.551	-36.675	0.399	0.216
-492.537	-110.781	0.209	-0.043
-491.522	-10.510	-0.126	-0.084
-490.508	3.702	-0.104	0.076
-489.493	-67.585	0.137	0.054
-488.478	-134.747	0.131	0.016
-487.464	-125.956	-0.302	0.046
-486.449	-15.667	-0.206	-0.133
-485.435	-88.306	0.074	0.022
-484.420	-50.759	0.305	-0.144
-483.405	69.206	0.025	-0.026
-482.391	-100.020	0.179	0.045
-481.376	439.516	-0.076	-0.167
-480.362	79.891	0.250	-0.271
-479.347	-200.000	-0.025	-0.150
-478.332	-200.000	0.007	0.052
-477.318	800.000	-0.167	-0.523
-476.303	198.126	-0.160	-0.247
-475.289	-82.019	0.135	0.044
-474.274	216.029	-0.052	0.084
-473.259	150.636	-0.240	-0.328
-472.245	-42.928	-0.409	-0.209
-471.230	-114.570	0.137	0.026
-470.216	323.474	0.077	-0.147
-469.201	800.000	0.084	0.287
-468.186	-180.373	-0.270	0.006
-467.172	-53.460	-0.077	-0.035
-466.157	-31.974	0.256	-0.144
-465.143	-29.990	-0.176	0.101
-464.128	116.821	0.246	0.305
-463.113	170.172	-0.147	-0.212
-462.099	58.612	-0.101	0.100
-461.084	-68.739	0.278	0.108
-460.070	-155.176	0.280	-0.018
-459.055	-136.604	-0.445	0.052
-458.040	800.000	-0.077	0.267
-457.026	-154.588	-0.150	-0.010
-456.011	42.344	-0.073	0.067
-454.997	-200.000	0.039	0.230
-453.982	-200.000	-0.093	0.411
-452.968	754.355	-0.098	0.266
-451.953	-98.973	-0.123	0.031
-450.938	-54.355	0.366	0.167
-449.924	-68.523	0.299	-0.117
-448.909	800.000	-0.089	-0.291
-447.895	248.148	0.184	-0.313
-446.880	-200.000	0.039	-0.242
-445.865	88.531	0.351	0.393
-444.851	800.000	-0.053	0.150
-443.836	-200.000	-0.009	-0.231
-442.822	8.995	0.324	-0.246
-441.807	-66.512	-0.243	0.097
-440.792	-3.703	0.044	0.031
-439.778	-167.451	-0.150	-0.006
-438.763	12.342	0.225	-0.175
-437.749	-200.000	0.016	-0.126
-436.734	-9.882	-0.144	-0.096
-435.719	118.071	-0.054	-0.067
-434.705	-139.564	-0.054	0.006
-433.690	39.402	0.123	0.111
-432.676	105.249	-0.048	-0.057
-431.661	326.017	0.087	-0.167
-430.646	-29.009	0.256	-0.148
-429.632	85.364	0.172	-0.190
-428.617	378.842	0.062	-0.129
-427.603	-89.517	0.204	0.060
-426.588	373.745	0.130	0.266
-425.573	800.000	-0.134	0.426
-424.559	-200.000	-0.002	-0.207
-423.544	-145.226	-0.335	0.030
-422.530	158.754	-0.123	-0.172
-421.515	90.370	-0.097	0.109
-420.500	146.645	-0.037	0.050
-419.486	132.020	0.159	0.206
-418.471	800.000	0.193	0.564
-417.457	176.479	-0.074	0.108
-416.442	182.817	-0.185	-0.275
-415.428	-105.555	0.272	-0.062
-414.413	-108.985	-0.210	-0.045
-413.398	-71.554	0.104	-0.039
-412.384	38.779	-0.258	0.231
-411.369	109.872	0.207	0.250
-410.355	575.370	-0.249	0.610
-409.340	128.566	0.168	0.216
-408.325	124.732	0.037	-0.047
-407.311	100.928	-0.174	-0.203
-406.296	-117.704	-0.171	-0.031
-405.282	-200.000	-0.023	0.221
-404.267	311.625	-0.160	0.302
-403.252	-38.685	0.238	0.126
-402.238	662.251	-0.087	-0.224
-401.223	800.000	-0.043	-0.175
-400.209	0.976	0.104	0.075
-399.194	4.801	-0.039	-0.028
-398.179	106.487	0.230	0.274
-397.165	129.481	-0.169	0.217
-396.150	195.340	-0.140	0.214
-395.136	-200.000	-0.003	-0.029
-394.121	-14.879	0.262	-0.169
-393.106	-200.000	-0.011	-0.502
-392.092	-72.004	-0.164	0.061
-391.077	800.000	-0.093	0.294
-390.063	800.000	-0.109	0.314
-389.048	308.298	-0.052	-0.097
-388.033	-16.216	-0.033	-0.021
-387.019	-200.000	0.055	0.352
-386.004	229.285	-0.156	0.256
-384.990	10.610	-0.175	-0.134
-383.975	-180.823	-0.136	-0.003
-382.960	460.480	0.061	0.137
-381.946	-83.312	-0.495	0.160
-380.931	800.000	-0.093	-0.365
-379.917	-200.000	0.047	-0.217
-378.902	327.101	-0.148	0.284
-377.888	800.000	-0.059	-0.182
-376.873	-10.931	-0.155	0.103
-375.858	-200.000	0.016	0.124
-374.844	-188.005	-0.128	0.002
-373.829	63.834	-0.212	-0.214
-372.815	8.866	-0.045	0.034
-371.800	-200.000	0.023	-0.144
-370.785	-82.285	0.145	0.047
-369.771	-200.000	0.019	-0.227
-368.756	1.018	0.039	-0.028
-367.742	-191.639	-0.218	-0.002
-366.727	-28.233	0.199	-0.115
-365.712	-64.593	-0.384	-0.156
-364.698	-84.553	-0.095	0.030
-363.683	-61.644	0.203	-0.085
-362.669	358.492	0.059	-0.117
-361.654	410.387	0.085	0.181
-360.639	16.235	-0.085	0.067
-359.625	151.673	-0.180	0.246
-358.610	-36.799	0.062	0.033
-357.596	141.348	0.065	0.087
-356.581	-144.223	0.538	-0.050
-355.566	-82.539	0.194	-0.063
-354.552	36.575	-0.402	0.356
-353.537	800.000	0.068	-0.194
-352.523	-110.870	0.417	0.086
-351.508	800.000	0.060	-0.252
-350.493	-48.099	-0.324	-0.157
-349.479	128.254	0.048	-0.062
-348.464	36.454	0.135	0.119
-347.450	-125.445	-0.061	0.009
-346.435	489.684	-0.020	-0.047
-345.420	133.908	-0.188	0.244
-344.406	800.000	-0.005	0.015
-343.391	-200.000	-0.025	-0.329
-342.377	800.000	0.040	0.119
-341.362	-131.385	0.359	-0.048
-340.348	-31.362	-0.084	-0.048
-339.333	100.584	-0.269	0.313
-338.318	168.820	-0.152	-0.217
-337.304	-200.000	-0.019	-0.084
-336.289	-103.047	0.169	-0.040
-335.275	40.322	-0.124	0.112
-334.260	637.338	-0.065	0.167
-333.245	800.000	-0.041	0.128
-332.231	-124.022	0.258	-0.041
-331.216	-33.607	0.244	0.135
-330.202	118.175	-0.076	0.094
-329.187	-63.023	0.183	-0.076
-328.172	-44.393	0.101	0.051
-327.158	184.476	-0.226	-0.335
-326.143	-141.353	-0.401	-0.041
-325.129	334.411	-0.123	-0.239
-324.114	346.440	-0.144	-0.283
-323.099	-82.825	0.293	-0.095
-322.085	-200.000	-0.048	0.456
-321.070	-88.731	-0.361	0.108
-320.056	-200.000	0.051	-0.279
-319.041	100.902	-0.109	-0.126
-318.026	-200.000	0.256	0.001
-317.012	23.362	0.266	-0.219
-315.997	-25.648	-0.014	-0.008
-314.983	800.000	0.097	0.279
-313.968	-164.266	-0.316	-0.015
-312.953	635.170	0.052	0.132
-311.939	800.000	0.106	0.373
-310.924	-189.474	-0.021	-0.000
-309.910	557.440	0.034	0.082
-308.895	143.289	0.268	0.357
-307.880	-137.048	-0.191	0.022
-306.866	-139.733	0.178	0.019
-305.851	-21.014	0.024	0.015
-304.837	-108.534	-0.118	-0.025
-303.822	286.174	-0.226	-0.407
-302.807	-103.829	0.183	-0.043
-301.793	-113.932	0.631	0.123
-300.778	267.304	-0.057	-0.099
-299.764	-200.000	-0.045	0.349
-298.749	-119.519	0.045	-0.008
-297.735	544.023	-0.195	0.465
-296.720	505.451	0.040	-0.093
-295.705	-152.711	0.232	0.017
-294.691	-41.533	0.160	0.082
-293.676	-11.395	0.018	-0.012
-292.662	165.148	0.192	0.271
-291.647	531.996	-0.046	0.109
-290.632	70.407	0.227	0.235
-289.618	-132.670	-0.159	-0.020
-288.603	41.875	0.080	-0.072
-287.589	46.774	-0.107	-0.099
-286.574	-157.169	0.179	0.011
-285.559	-95.633	-0.088	0.023
-284.545	-108.720	-0.200	0.043
-283.530	800.000	-0.032	0.112
-282.516	409.400	-0.139	-0.295
-281.501	-141.483	-0.217	-0.022
-280.486	-64.516	0.074	-0.030
-279.472	3.924	0.419	0.306
-278.457	-68.407	0.177	-0.069
-277.443	-82.173	0.312	0.102
-276.428	97.316	-0.196	0.225
-275.413	-95.070	0.165	-0.045
-274.399	-114.851	0.277	0.053
-273.384	788.135	0.055	0.150
-272.370	-200.000	0.007	-0.072
-271.355	800.000	-0.050	-0.204
-270.340	-200.000	-0.012	-0.347
-269.326	126.219	0.107	0.135
-268.311	62.828	0.234	0.234
-267.297	800.000	0.059	0.258
-266.282	16.104	-0.057	-0.045
-265.267	800.000	0.056	-0.232
-264.253	-139.119	-0.174	-0.019
-263.238	-136.450	0.120	-0.014
-262.224	-200.000	0.007	0.125
-261.209	-200.000	-0.005	-0.418
-260.195	-71.945	0.250	0.093
-259.180	-137.936	0.241	-0.027
-258.165	82.699	0.111	0.121
-257.151	-58.958	0.346	-0.149
-256.136	-44.729	0.196	0.097
-255.122	-136.000	-0.155	-0.018
-254.107	-85.588	0.136	-0.042
-253.092	-200.000	-0.007	-0.035
-252.078	-25.359	-0.255	-0.151
-251.063	800.000	0.071	-0.281
-250.049	195.503	-0.055	0.083
-249.034	5.425	-0.186	-0.137
-248.019	155.120	-0.045	-0.062
-247.005	-166.451	0.082	0.003
-245.990	-110.200	-0.139	0.029
-244.976	-110.394	0.402	0.083
-243.961	352.923	-0.051	0.100
-242.946	228.181	-0.088	-0.143
-241.932	800.000	-0.049	-0.171
-240.917	-191.539	-0.250	-0.002
-239.903	13.677	-0.060	0.046
-238.888	-75.512	-0.239	0.085
-237.873	800.000	-0.012	0.037
-236.859	137.963	-0.117	0.153
-235.844	-83.988	-0.215	0.068
-234.830	-141.548	0.159	-0.016
-233.815	779.526	-0.113	0.308
-232.800	800.000	0.063	0.201
-231.786	20.479	0.168	-0.136
-230.771	-200.000	0.006	0.369
-229.757	-168.623	-0.358	0.014
-228.742	-24.757	-0.117	-0.069
-227.727	291.967	0.215	-0.390
-226.713	135.004	-0.138	-0.179
-225.698	800.000	0.011	-0.041
-224.684	-200.000	-0.021	-0.175
-223.669	545.324	-0.062	-0.147
-222.655	116.430	-0.217	0.265
-221.640	800.000	0.054	-0.192
-220.625	800.000	0.065	-0.281
-219.611	57.607	-0.120	0.117
-218.596	311.964	-0.160	0.300
-217.582	101.290	0.045	-0.053
-216.567	-10.226	0.148	0.098
-215.552	-11.486	-0.042	-0.028
-214.538	-200.000	0.004	0.089
-213.523	-62.278	0.200	0.083
-212.509	58.484	0.285	0.279
-211.494	152.862	-0.144	-0.196
-210.479	800.000	0.049	0.178
-209.465	-142.734	0.180	-0.017
-208.450	-12.520	0.238	0.155
-207.436	-200.000	-0.021	0.256
-206.421	455.372	-0.109	-0.242
-205.406	-105.432	-0.129	-0.029
-204.392	321.440	-0.135	0.256
-203.377	138.274	0.108	0.141
-202.363	800.000	-0.082	-0.306
-201.348	800.000	-0.028	0.122
-200.333	282.697	0.152	0.272
-199.319	-200.000	-0.064	0.335
-198.304	-83.030	-0.399	0.128
-197.290	-200.000	0.014	-0.072
-196.275	-200.000	0.061	-0.326
-195.260	-200.000	-0.000	0.096
-194.246	635.654	0.138	-0.350
-193.231	61.980	-0.158	0.157
-192.217	267.751	-0.239	-0.418
-191.202	8.424	0.191	0.143
-190.187	156.482	0.128	-0.176
-189.173	800.000	-0.051	-0.145
-188.158	-65.623	0.173	0.069
-187.144	62.405	-0.171	-0.170
-186.129	-200.000	-0.013	-0.071
-185.114	-98.600	0.182	-0.046
-184.100	-200.000	-0.026	-0.125
-183.085	-151.143	-0.356	0.027
-182.071	93.914	-0.225	-0.254
-181.056	-94.218	0.246	0.067
-180.042	-90.682	-0.261	0.075
-179.027	-68.103	0.240	-0.093
-178.012	-200.000	-0.071	-0.348
-176.998	-200.000	-0.020	0.246
-175.983	-86.264	-0.162	-0.050
-174.969	-200.000	-0.071	0.432
-173.954	-88.758	0.351	-0.104
-172.939	365.053	0.050	-0.101
-171.925	-143.650	0.152	-0.014
-170.910	147.679	-0.059	-0.079
-169.896	-45.577	-0.116	-0.057
-168.881	-11.570	-0.121	0.079
-167.866	379.819	0.077	0.157
-166.852	-14.878	0.152	0.097
-165.837	24.827	0.118	0.097
-164.823	-52.144	0.130	0.060
-163.808	-46.443	-0.252	0.123
-162.793	-12.977	-0.251	0.163
-161.779	-89.831	0.150	0.044
-160.764	134.072	0.083	-0.107
-159.750	173.633	-0.141	0.202
-158.735	-69.093	-0.515	0.197
-157.720	273.800	0.130	-0.229
-156.706	-118.593	0.217	0.038
-155.691	38.846	-0.148	0.131
-154.677	234.800	0.202	0.331
-153.662	-37.300	0.056	0.030
-152.647	-59.559	0.152	-0.065
-151.633	-143.005	0.205	0.020
-150.618	372.266	0.032	0.064
-149.604	508.779	-0.082	0.188
-148.589	-200.000	0.006	-0.264
-147.574	211.327	-0.121	0.189
-146.560	-112.108	-0.193	0.039
-145.545	-200.000	0.048	0.404
-144.531	103.975	0.285	0.333
-143.516	35.774	-0.245	-0.214
-142.502	-200.000	-0.009	-0.095
-141.487	234.446	0.159	0.260
-140.472	100.011	0.107	-0.124
-139.458	-200.000	-0.014	-0.151
-138.443	800.000	-0.065	0.217
-137.429	-200.000	-0.031	0.204
-136.414	-120.389	0.172	0.029
-135.399	-200.000	0.012	0.134
-134.385	-21.401	0.149	0.090
-133.370	38.228	0.219	-0.194
-132.356	338.460	0.082	0.158
-131.341	490.166	-0.099	-0.225
-130.326	61.747	0.245	-0.243
-129.312	121.658	-0.138	-0.171
-128.297	-58.286	-0.240	-0.104
-127.283	-177.046	-0.076	-0.002
-126.268	-179.817	-0.419	0.009
-125.253	33.021	-0.181	0.156
-124.239	-200.000	0.016	0.102
-123.224	15.383	-0.228	0.178
