DTS Sentinel unit serial number:	SN413079Multiplexer serial number:	ORYXHardware model number:	OX4-SRSoftware version number:	ORYX F/W v4.00 Oryx Data Collector v3.7.2.0data status	okinstallation	princeton_trtdifferential loss correction	single-endedforward channel	channel 1reverse channel	N/Adate	2019/09/17time	03:10:35forward acquisition time	60.00reverse acquisition time	0.00gamma	496.2192k internal	0.2323k external	0.2323temperature offset calibration	0.9962default loss term (dB/km)	0.3790temperature slope calibration	1.0000multiplexer offset coefficient	1.0000multiplexer slope coefficient	1.0000fibre end	0.00T internal ref (°C)	29.95T ext. ref 1 (°C)	0.13T ext. ref 2 (°C)	24.89length (m)	temperature (°C)	Stokes	anti-Stokes-747.200	-93.106	0.466	0.131
-746.185	-162.531	-0.241	0.012
-745.171	-130.453	0.046	0.006
-744.156	21.538	0.090	0.074
-743.142	-116.126	0.396	0.074
-742.127	36.296	-0.086	0.076
-741.112	-69.419	0.263	-0.102
-740.098	-200.000	0.014	0.079
-739.083	-173.363	-0.200	-0.006
-738.069	-200.000	0.001	0.119
-737.054	-200.000	-0.017	0.155
-736.039	-112.373	-0.270	0.055
-735.025	-200.000	0.027	-0.278
-734.010	-101.291	0.132	-0.033
-732.996	-149.904	-0.304	0.024
-731.981	250.378	-0.080	-0.138
-730.966	-18.976	0.327	-0.205
-729.952	-38.620	0.232	0.123
-728.937	226.714	-0.080	-0.131
-727.923	298.949	0.153	0.284
-726.908	-94.471	0.155	-0.043
-725.894	46.681	-0.128	-0.120
-724.879	-61.988	-0.497	-0.210
-723.864	-102.443	0.229	-0.055
-722.850	-32.660	-0.053	0.030
-721.835	-153.265	-0.293	-0.021
-720.821	261.107	-0.031	-0.054
-719.806	786.662	-0.084	0.232
-718.791	-176.107	-0.242	-0.006
-717.777	-50.879	-0.205	-0.097
-716.762	-164.181	-0.151	-0.007
-715.748	52.503	-0.259	-0.250
-714.733	-48.026	-0.394	-0.192
-713.718	68.658	0.320	-0.331
-712.704	-20.871	0.146	0.090
-711.689	-200.000	-0.028	-0.259
-710.675	-200.000	0.051	-0.242
-709.660	-150.147	-0.537	0.042
-708.645	800.000	-0.105	-0.388
-707.631	-175.944	0.128	-0.003
-706.616	-200.000	0.014	0.125
-705.602	-200.000	0.055	-0.304
-704.587	16.199	-0.245	0.195
-703.572	800.000	-0.060	0.195
-702.558	236.187	-0.057	-0.096
-701.543	-107.691	0.094	0.021
-700.529	97.275	0.094	0.109
-699.514	94.799	-0.121	-0.139
-698.499	-54.742	-0.274	-0.125
-697.485	48.603	-0.100	-0.095
-696.470	-28.660	-0.340	0.197
-695.456	-54.558	0.265	0.121
-694.441	-20.990	0.292	0.180
-693.426	136.891	0.082	-0.108
-692.412	800.000	0.021	-0.074
-691.397	342.425	0.141	-0.277
-690.383	-200.000	-0.061	-0.392
-689.368	228.474	0.105	-0.173
-688.354	800.000	-0.104	0.296
-687.339	23.431	0.144	0.120
-686.324	-116.140	0.565	-0.106
-685.310	800.000	0.058	-0.193
-684.295	82.212	-0.219	-0.239
-683.281	-168.588	-0.596	0.023
-682.266	242.498	0.265	0.447
-681.251	-46.303	-0.339	0.168
-680.237	32.019	0.059	0.051
-679.222	89.673	-0.224	-0.252
-678.208	238.064	-0.111	-0.186
-677.193	-200.000	0.016	-0.096
-676.178	-29.306	0.064	-0.037
-675.164	602.463	0.051	-0.127
-674.149	-129.758	0.168	0.023
-673.135	42.959	-0.066	-0.061
-672.120	-200.000	-0.021	0.406
-671.105	800.000	0.068	-0.198
-670.091	-120.699	0.089	0.015
-669.076	-150.389	0.410	-0.032
-668.062	147.162	0.114	-0.155
-667.047	6.097	-0.068	-0.051
-666.032	-133.620	-0.318	-0.040
-665.018	31.128	-0.265	0.229
-664.003	-200.000	-0.023	-0.245
-662.989	84.747	0.132	0.146
-661.974	-200.000	-0.010	-0.224
-660.959	154.388	0.068	-0.094
-659.945	13.225	0.252	-0.197
-658.930	-200.000	-0.003	-0.043
-657.916	4.116	-0.173	0.128
-656.901	495.669	0.103	-0.238
-655.886	-200.000	0.023	-0.125
-654.872	2.191	-0.130	0.094
-653.857	581.852	0.081	0.201
-652.843	-200.000	0.041	0.186
-651.828	34.883	-0.218	-0.192
-650.814	326.994	0.130	-0.250
-649.799	-88.139	0.165	-0.050
-648.784	-4.201	-0.233	0.162
-647.770	-167.096	0.179	-0.007
-646.755	22.025	0.263	-0.216
-645.741	57.634	0.140	0.138
-644.726	663.589	0.066	-0.171
-643.711	198.357	0.124	0.190
-642.697	67.168	-0.480	-0.492
-641.682	521.564	-0.085	-0.200
-640.668	800.000	-0.075	0.275
-639.653	42.971	-0.211	-0.193
-638.638	-61.815	-0.412	0.173
-637.624	-100.111	-0.164	0.041
-636.609	800.000	0.069	0.207
-635.595	-139.733	-0.550	0.059
-634.580	-200.000	0.013	-0.078
-633.565	105.347	-0.212	0.252
-632.551	-200.000	0.007	0.146
-631.536	-200.000	0.025	-0.233
-630.522	76.008	0.040	0.043
-629.507	256.298	-0.225	0.389
-628.492	-130.972	-0.215	-0.029
-627.478	800.000	0.063	-0.209
-626.463	215.038	0.145	-0.232
-625.449	40.801	-0.174	-0.158
-624.434	-56.665	-0.394	0.175
-623.419	250.354	0.038	-0.064
-622.405	475.326	-0.152	-0.344
-621.390	-70.190	0.031	-0.012
-620.376	108.147	-0.189	0.227
-619.361	-144.001	-0.167	-0.016
-618.346	51.950	-0.257	-0.246
-617.332	-95.820	0.178	0.048
-616.317	-67.357	-0.216	-0.085
-615.303	-14.097	0.452	0.293
-614.288	-88.109	-0.037	-0.011
-613.273	508.066	-0.181	-0.422
-612.259	-52.121	0.295	-0.137
-611.244	115.748	-0.139	-0.170
-610.230	-23.919	0.097	0.058
-609.215	-200.000	-0.000	0.007
-608.201	34.408	-0.198	-0.174
-607.186	274.347	0.066	0.117
-606.171	800.000	0.077	-0.275
-605.157	-82.815	0.098	-0.032
-604.142	-56.995	0.210	-0.093
-603.128	-200.000	-0.017	0.077
-602.113	-200.000	0.021	0.217
-601.098	-140.830	-0.466	0.048
-600.084	13.918	-0.048	0.038
-599.069	-200.000	-0.011	-0.172
-598.055	359.631	0.151	-0.303
-597.040	287.021	0.070	0.128
-596.025	281.579	-0.158	0.285
-595.011	89.424	-0.147	0.164
-593.996	1.934	-0.222	0.161
-592.982	279.139	-0.093	-0.166
-591.967	168.562	0.125	0.179
-590.952	-190.809	-0.219	0.002
-589.938	-105.962	0.107	0.024
-588.923	-200.000	-0.044	-0.340
-587.909	10.563	0.157	0.120
-586.894	116.128	-0.111	0.137
-585.879	309.232	0.131	-0.245
-584.865	-128.265	0.351	-0.050
-583.850	340.508	-0.046	-0.090
-582.836	98.128	-0.075	0.087
-581.821	-200.000	0.043	-0.233
-580.806	298.037	-0.210	-0.388
-579.792	684.543	-0.128	-0.336
-578.777	304.550	0.057	0.106
-577.763	-124.771	0.213	0.033
-576.748	344.133	0.101	0.198
-575.733	-35.052	0.128	0.070
-574.719	-114.291	0.225	0.043
-573.704	320.494	0.109	-0.208
-572.690	-200.000	-0.013	-0.326
-571.675	-200.000	-0.006	0.233
-570.661	341.836	0.200	0.392
-569.646	-118.264	0.181	-0.032
-568.631	304.399	-0.033	-0.062
-567.617	-200.000	0.039	0.232
-566.602	-26.271	-0.298	0.176
-565.588	289.198	0.213	0.387
-564.573	-99.944	-0.347	0.087
-563.558	309.400	-0.126	-0.237
-562.544	98.685	0.113	0.131
-561.529	-87.188	-0.300	-0.092
-560.515	-164.592	-0.195	0.009
-559.500	-200.000	0.041	-0.198
-558.485	22.226	-0.100	-0.082
-557.471	424.082	-0.074	-0.159
-556.456	74.737	-0.163	-0.172
-555.442	-81.447	-0.309	0.102
-554.427	4.700	-0.142	-0.104
-553.412	475.603	-0.090	-0.204
-552.398	45.898	0.107	0.100
-551.383	-9.748	-0.116	0.078
-550.369	-5.333	-0.222	0.153
-549.354	-118.557	0.142	-0.025
-548.339	658.577	0.085	0.218
-547.325	92.831	0.038	0.042
-546.310	783.613	-0.051	-0.139
-545.296	-35.708	-0.224	0.122
-544.281	675.293	0.112	0.292
-543.266	147.081	0.163	-0.220
-542.252	-200.000	0.029	0.237
-541.237	-200.000	0.063	-0.355
-540.223	-200.000	-0.008	-0.089
-539.208	519.078	-0.070	-0.164
-538.193	160.185	-0.310	-0.433
-537.179	425.493	0.148	-0.319
-536.164	-200.000	0.028	-0.401
-535.150	-155.220	0.368	0.024
-534.135	22.324	0.049	0.040
-533.121	-174.402	-0.237	0.007
-532.106	-79.716	0.105	0.035
-531.091	-71.287	0.133	-0.050
-530.077	187.361	0.088	-0.131
-529.062	164.591	0.191	0.270
-528.048	-200.000	0.050	0.293
-527.033	-200.000	0.023	-0.216
-526.018	-200.000	0.013	0.100
-525.004	-99.073	0.093	0.024
-523.989	-107.796	0.209	-0.046
-522.975	-125.707	0.377	-0.057
-521.960	-100.461	-0.280	0.069
-520.945	384.731	-0.127	0.262
-519.931	-200.000	0.220	-0.000
-518.916	-73.661	0.317	-0.116
-517.902	-73.676	-0.129	-0.047
-516.887	-48.037	0.441	-0.213
-515.872	366.272	-0.159	-0.321
-514.858	-46.747	0.347	0.170
-513.843	-200.000	0.009	-0.058
-512.829	188.754	0.138	0.207
-511.814	-6.889	-0.325	0.221
-510.799	800.000	0.022	0.089
-509.785	16.784	0.167	0.133
-508.770	297.370	0.045	0.083
-507.756	-175.606	-0.238	-0.006
-506.741	-12.518	0.026	-0.017
-505.726	-200.000	0.027	0.133
-504.712	-101.245	-0.098	0.024
-503.697	-200.000	0.017	0.114
-502.683	-109.350	0.136	-0.029
-501.668	202.226	0.146	0.226
-500.653	261.178	-0.129	0.224
-499.639	-121.877	-0.481	0.079
-498.624	-54.705	-0.067	-0.030
-497.610	-127.760	0.175	0.025
-496.595	800.000	0.044	0.151
-495.581	-18.146	0.108	0.068
-494.566	-118.901	-0.146	-0.026
-493.551	-18.210	-0.205	0.128
-492.537	247.493	0.097	0.164
-491.522	307.102	-0.020	-0.037
-490.508	-200.000	0.003	-0.118
-489.493	-18.521	0.143	-0.089
-488.478	235.422	0.170	0.281
-487.464	-200.000	-0.024	-0.283
-486.449	-3.035	0.055	0.038
-485.435	-200.000	0.049	0.278
-484.420	500.532	-0.142	-0.327
-483.405	-61.874	0.422	0.176
-482.391	21.486	-0.027	-0.022
-481.376	-136.707	-0.449	0.052
-480.362	800.000	0.039	-0.112
-479.347	23.565	-0.212	0.174
-478.332	-118.555	-0.279	-0.049
-477.318	83.009	0.106	-0.115
-476.303	-93.675	0.255	0.070
-475.289	382.208	-0.059	0.120
-474.274	73.951	0.336	-0.353
-473.259	-200.000	-0.031	-0.169
-472.245	-200.000	-0.006	0.158
-471.230	165.764	-0.156	0.221
-470.216	-20.559	0.161	-0.099
-469.201	168.250	0.111	0.157
-468.186	25.541	-0.151	-0.125
-467.172	-26.979	-0.116	-0.068
-466.157	800.000	-0.037	0.142
-465.143	59.147	-0.214	0.210
-464.128	-111.540	0.178	-0.036
-463.113	-33.405	-0.145	0.080
-462.099	-86.355	0.170	-0.052
-461.084	-60.752	0.167	-0.071
-460.070	173.311	-0.089	-0.129
-459.055	-200.000	-0.043	-0.268
-458.040	-200.000	-0.036	0.239
-457.026	78.102	-0.102	0.109
-456.011	-200.000	-0.005	-0.264
-454.997	424.979	0.090	-0.194
-453.982	351.784	-0.052	0.102
-452.968	-124.497	0.302	0.047
-451.953	-200.000	0.003	0.170
-450.938	-200.000	0.059	0.290
-449.924	189.909	-0.244	0.365
-448.909	81.846	0.103	-0.111
-447.895	104.129	0.159	-0.187
-446.880	196.770	0.016	0.024
-445.865	800.000	0.091	0.264
-444.851	122.942	-0.143	-0.178
-443.836	298.949	0.162	-0.297
-442.822	61.769	0.146	-0.145
-441.807	-200.000	-0.021	-0.205
-440.792	100.771	-0.108	0.125
-439.778	33.080	0.117	0.102
-438.763	169.387	0.313	-0.445
-437.749	-200.000	0.026	0.310
-436.734	-119.598	-0.198	-0.034
-435.719	-121.988	0.300	-0.049
-434.705	783.399	-0.099	-0.269
-433.690	174.007	-0.121	0.175
-432.676	398.249	-0.150	-0.314
-431.661	800.000	0.018	0.077
-430.646	-59.919	0.110	-0.047
-429.632	-64.863	-0.178	-0.072
-428.617	-113.613	-0.088	-0.017
-427.603	-200.000	0.039	-0.498
-426.588	204.615	0.207	-0.320
-425.573	35.026	-0.273	0.238
-424.559	-18.952	0.143	0.089
-423.544	360.535	0.119	-0.237
-422.530	-19.191	-0.222	0.137
-421.515	127.812	0.028	0.036
-420.500	-24.639	-0.189	0.112
-419.486	800.000	-0.054	-0.185
-418.471	517.209	0.152	-0.355
-417.457	41.248	-0.097	0.087
-416.442	-200.000	0.048	0.306
-415.428	-34.396	-0.203	-0.111
-414.413	345.921	-0.171	-0.335
-413.398	-200.000	-0.018	-0.123
-412.384	-200.000	0.036	0.271
-411.369	-64.542	-0.332	-0.135
-410.355	-10.393	0.022	-0.014
-409.340	533.644	0.173	-0.408
-408.325	-184.293	-0.224	0.004
-407.311	-138.288	-0.220	-0.024
-406.296	-41.025	-0.426	-0.219
-405.282	-118.109	-0.163	-0.029
-404.267	21.880	0.199	-0.162
-403.252	33.420	-0.206	0.178
-402.238	37.968	-0.250	-0.221
-401.223	-72.593	0.309	0.114
-400.209	-200.000	0.044	-0.375
-399.194	27.498	-0.235	0.197
-398.179	16.381	0.180	-0.142
-397.165	462.969	-0.095	0.211
-396.150	-64.250	0.151	0.061
-395.136	672.305	-0.103	0.265
-394.121	128.698	0.059	0.075
-393.106	178.264	-0.107	-0.155
-392.092	-200.000	-0.045	-0.282
-391.077	-24.888	0.290	-0.171
-390.063	-1.046	-0.103	0.072
-389.048	82.136	0.116	0.125
-388.033	-196.672	0.231	-0.002
-387.019	-36.858	-0.176	0.094
-386.004	-23.427	0.312	0.186
-384.990	-140.666	0.062	0.006
-383.975	172.798	0.149	-0.213
-382.960	-133.712	-0.171	-0.021
-381.946	52.843	0.064	0.061
-380.931	171.042	-0.193	0.276
-379.917	-19.403	0.251	-0.155
-378.902	-200.000	-0.003	-0.132
-377.888	-103.618	0.399	-0.093
-376.873	200.865	-0.121	0.185
-375.858	35.982	-0.156	0.137
-374.844	557.693	0.132	0.316
-373.829	-170.529	0.239	0.008
-372.815	56.519	-0.090	0.087
-371.800	-200.000	0.006	0.267
-370.785	-108.278	0.096	-0.021
-369.771	527.411	-0.068	-0.159
-368.756	37.674	-0.335	-0.296
-367.742	-137.036	0.113	-0.013
-366.727	97.500	-0.279	0.319
-365.712	800.000	-0.119	-0.336
-364.698	-200.000	0.015	0.172
-363.683	29.246	-0.158	-0.134
-362.669	481.551	0.202	0.457
-361.654	-200.000	0.070	-0.319
-360.639	282.869	-0.070	0.125
-359.625	58.413	-0.170	-0.166
-358.610	-163.324	-0.037	0.002
-357.596	800.000	-0.102	0.319
-356.581	800.000	0.042	0.118
-355.566	399.545	-0.074	-0.153
-354.552	-111.599	-0.132	-0.027
-353.537	38.391	0.182	0.162
-352.523	-58.921	0.104	-0.045
-351.508	-200.000	-0.026	0.382
-350.493	-200.000	-0.002	0.172
-349.479	-53.952	-0.062	0.028
-348.464	800.000	-0.046	0.190
-347.450	-200.000	0.050	0.363
-346.435	-25.510	-0.188	-0.111
-345.420	-15.381	-0.155	-0.099
-344.406	-85.421	0.204	-0.063
-343.391	-80.156	-0.115	0.038
-342.377	189.858	-0.088	-0.132
-341.362	189.661	-0.152	-0.227
-340.348	-200.000	0.023	-0.127
-339.333	-55.357	-0.213	0.095
-338.318	-13.825	0.127	0.082
-337.304	-62.904	-0.096	0.039
-336.289	394.328	-0.041	-0.084
-335.275	190.055	-0.079	-0.118
-334.260	-46.336	0.190	-0.093
-333.245	31.988	-0.162	-0.139
-332.231	40.317	-0.027	0.024
-331.216	-19.535	0.178	-0.110
-330.202	-61.993	-0.275	0.114
-329.187	-55.718	-0.209	0.093
-328.172	-200.000	-0.026	-0.190
-327.158	-42.844	0.238	-0.120
-326.143	208.497	-0.157	-0.244
-325.129	-59.595	-0.078	0.033
-324.114	800.000	-0.070	-0.196
-323.099	-200.000	-0.019	-0.129
-322.085	-71.779	0.228	0.084
-321.070	-82.746	-0.114	0.037
-320.056	-38.716	-0.309	0.162
-319.041	494.866	-0.036	0.082
-318.026	195.917	0.088	-0.134
-317.012	-113.619	-0.140	-0.027
-315.997	162.814	-0.195	0.272
-314.983	109.918	0.101	0.121
-313.968	264.472	0.104	0.179
-312.953	-200.000	-0.077	-0.429
-311.939	-200.000	-0.037	-0.167
-310.924	-200.000	0.027	-0.204
-309.910	-200.000	0.069	0.406
-308.895	127.574	0.258	0.326
-307.880	-53.906	-0.150	-0.068
-306.866	197.521	0.031	0.047
-305.851	800.000	-0.119	0.341
-304.837	800.000	-0.065	-0.185
-303.822	-118.458	0.421	-0.074
-302.807	364.794	0.230	0.459
-301.793	123.623	-0.063	0.078
-300.778	-84.898	0.334	-0.104
-299.764	-200.000	-0.004	0.270
-298.749	-24.929	0.227	0.134
-297.735	-200.000	-0.029	0.206
-296.720	800.000	-0.024	0.074
-295.705	251.360	0.125	-0.212
-294.691	245.492	0.189	0.315
-293.676	221.044	-0.259	0.412
-292.662	800.000	-0.076	0.245
-291.647	41.514	0.078	0.070
-290.632	-38.558	-0.182	0.095
-289.618	-17.376	0.459	-0.287
-288.603	-147.609	0.243	0.020
-287.589	-72.725	0.423	0.155
-286.574	-133.954	-0.189	-0.023
-285.559	33.951	0.187	0.162
-284.545	-200.000	-0.001	0.170
-283.530	-44.358	-0.145	-0.072
-282.516	-132.039	0.260	0.034
-281.501	-50.232	-0.136	-0.064
-280.486	79.099	0.203	-0.215
-279.472	800.000	0.038	0.113
-278.457	30.808	0.303	0.257
-277.443	72.575	-0.115	-0.119
-276.428	140.219	0.212	0.278
-275.413	-145.902	0.218	0.019
-274.399	127.332	0.157	-0.198
-273.384	58.985	-0.140	0.137
-272.370	-37.652	0.206	-0.109
-271.355	184.540	-0.058	-0.085
-270.340	58.919	0.082	-0.080
-269.326	-200.000	0.022	-0.175
-268.311	353.789	0.117	0.230
-267.297	-78.026	0.317	0.108
-266.282	-19.746	0.041	-0.025
-265.267	121.716	0.253	-0.313
-264.253	582.486	-0.090	-0.220
-263.238	-158.203	-0.241	-0.014
-262.224	465.651	-0.079	-0.176
-261.209	-200.000	0.035	0.413
-260.195	-0.821	-0.187	-0.131
-259.180	302.108	-0.110	0.201
-258.165	-124.292	0.286	-0.044
-257.151	-132.152	-0.254	0.033
-256.136	533.292	-0.060	0.140
-255.122	800.000	-0.048	-0.182
-254.107	-102.645	-0.175	0.041
-253.092	23.875	0.130	0.106
-252.078	-200.000	0.038	0.170
-251.063	322.448	-0.091	-0.172
-250.049	-123.651	-0.251	0.039
-249.034	0.242	-0.152	0.108
-248.019	-146.925	0.330	-0.028
-247.005	353.251	-0.063	-0.124
-245.990	363.409	-0.110	-0.220
-244.976	-164.855	0.198	-0.009
-243.961	800.000	0.076	0.210
-242.946	-102.941	0.129	0.030
-241.932	-84.479	0.227	-0.071
-240.917	299.831	0.156	-0.284
-239.903	800.000	0.059	0.230
-238.888	-122.036	-0.133	0.022
-237.873	-200.000	-0.024	0.286
-236.859	-123.482	-0.252	0.040
-235.844	245.541	0.147	0.246
-234.830	171.027	0.123	0.174
-233.815	-107.314	0.084	0.018
-232.800	139.359	-0.096	-0.124
-231.786	-185.562	-0.135	0.002
-230.771	334.823	-0.075	0.144
-229.757	28.680	0.144	0.121
-228.742	350.574	0.158	-0.309
-227.727	800.000	0.133	-0.368
-226.713	-111.002	-0.072	-0.015
-225.698	-129.143	0.267	-0.037
-224.684	-200.000	-0.014	-0.267
-223.669	65.362	-0.079	-0.079
-222.655	21.232	0.176	0.141
-221.640	180.842	0.236	0.344
-220.625	576.090	-0.017	0.041
-219.611	-200.000	-0.034	0.160
-218.596	-165.833	-0.349	-0.015
-217.582	182.927	0.173	0.253
-216.567	-2.921	0.111	0.077
-215.552	274.540	-0.178	0.312
-214.538	221.466	0.142	0.226
-213.523	-200.000	0.002	-0.045
-212.509	0.906	0.144	-0.102
-211.494	-200.000	-0.023	-0.233
-210.479	-98.953	0.485	-0.122
-209.465	82.719	-0.323	-0.347
-208.450	800.000	0.088	0.268
-207.436	-200.000	-0.071	-0.424
-206.421	-200.000	-0.040	0.342
-205.406	646.234	0.033	-0.083
-204.392	134.144	-0.176	0.225
-203.377	-200.000	0.032	0.242
-202.363	-95.180	-0.074	-0.020
-201.348	-200.000	0.011	0.116
-200.333	-93.712	0.375	-0.102
-199.319	800.000	-0.104	0.365
-198.304	-78.538	-0.137	-0.046
-197.290	234.291	0.171	0.278
-196.275	-139.883	0.345	0.036
-195.260	-92.208	-0.166	0.046
-194.246	-71.900	0.232	0.085
-193.231	-87.938	-0.364	-0.108
-192.217	107.849	-0.114	0.134
-191.202	44.125	0.085	0.077
-190.187	-200.000	-0.048	-0.367
-189.173	727.118	0.185	-0.489
-188.158	-200.000	0.041	-0.601
-187.144	43.027	0.054	-0.049
-186.129	-200.000	-0.050	-0.363
-185.114	17.215	-0.067	0.053
-184.100	335.504	0.142	-0.271
-183.085	-200.000	0.000	-0.204
-182.071	33.740	-0.051	-0.044
-181.056	-1.755	0.092	-0.064
-180.042	-200.000	-0.015	0.233
-179.027	-20.383	-0.226	0.137
-178.012	-28.190	-0.164	-0.094
-176.998	116.830	0.127	0.155
-175.983	-126.360	-0.298	0.044
-174.969	1.584	0.174	-0.123
-173.954	38.680	-0.055	-0.049
-172.939	-27.785	0.079	0.045
-171.925	180.852	-0.092	-0.133
-170.910	9.792	-0.103	0.077
-169.896	-43.513	-0.126	0.063
-168.881	66.829	-0.083	0.083
-167.866	-43.490	-0.296	0.147
-166.852	413.256	0.040	0.085
-165.837	37.790	0.241	0.212
-164.823	800.000	0.080	0.264
-163.808	278.732	0.024	-0.042
-162.793	-46.065	0.373	0.181
-161.779	800.000	-0.051	-0.197
-160.764	169.833	-0.200	-0.282
-159.750	-185.718	0.140	0.002
-158.735	135.498	-0.054	0.070
-157.720	109.556	-0.172	0.203
-156.706	-80.495	0.156	-0.051
-155.691	-15.793	0.087	-0.055
-154.677	800.000	-0.033	-0.094
-153.662	-10.536	-0.147	0.096
-152.647	614.651	0.129	-0.319
-151.633	285.808	-0.108	-0.191
-150.618	-21.544	-0.224	-0.134
-149.604	671.585	0.109	0.279
-148.589	-200.000	0.047	-0.304
-147.574	-37.853	-0.041	-0.022
-146.560	-200.000	-0.028	-0.204
-145.545	-200.000	0.081	0.466
-144.531	-55.472	-0.146	0.065
-143.516	-79.226	0.172	0.057
-142.502	222.956	-0.126	0.200
-141.487	606.013	-0.084	-0.207
-140.472	800.000	-0.084	0.229
-139.458	-200.000	-0.022	-0.165
-138.443	-200.000	0.003	-0.189
-137.429	198.261	0.152	0.229
-136.414	-200.000	-0.044	-0.395
-135.399	156.122	0.101	-0.137
-134.385	800.000	0.048	0.137
-133.370	-67.888	0.108	-0.042
-132.356	-126.464	0.247	0.036
-131.341	288.826	-0.120	-0.215
-130.326	43.471	0.158	-0.142
-129.312	-55.520	-0.315	0.139
-128.297	-32.168	-0.039	0.021
-127.283	800.000	-0.056	0.213
-126.268	340.528	0.115	0.222
-125.253	-98.377	0.118	0.030
-124.239	-200.000	-0.001	-0.138
-123.224	335.792	-0.205	-0.393
-122.210	-32.219	0.258	0.142
-121.195	-83.220	-0.124	0.039
