DTS Sentinel unit serial number:	SN413079Multiplexer serial number:	ORYXHardware model number:	OX4-SRSoftware version number:	ORYX F/W v4.00 Oryx Data Collector v3.7.2.0data status	okinstallation	princeton_trtdifferential loss correction	single-endedforward channel	channel 1reverse channel	N/Adate	2019/09/17time	15:18:35forward acquisition time	60.00reverse acquisition time	0.00gamma	496.2192k internal	0.2294k external	0.2294temperature offset calibration	0.9969default loss term (dB/km)	0.3790temperature slope calibration	1.0000multiplexer offset coefficient	1.0000multiplexer slope coefficient	1.0000fibre end	0.00T internal ref (°C)	37.87T ext. ref 1 (°C)	0.39T ext. ref 2 (°C)	34.92length (m)	temperature (°C)	Stokes	anti-Stokes-747.200	-32.612	0.161	0.092
-746.185	79.518	-0.279	0.306
-745.171	250.480	0.114	0.199
-744.156	-25.062	-0.239	0.145
-743.142	-145.892	0.311	0.028
-742.127	800.000	-0.106	0.360
-741.112	-200.000	0.034	-0.223
-740.098	-44.605	0.186	-0.095
-739.083	-121.088	-0.414	-0.071
-738.069	68.304	-0.106	0.111
-737.054	800.000	0.056	-0.226
-736.039	-92.422	-0.062	0.018
-735.025	76.617	0.195	0.211
-734.010	-108.375	0.259	0.057
-732.996	78.035	0.186	-0.203
-731.981	-91.828	0.347	0.101
-730.966	-33.143	0.120	0.068
-729.952	-200.000	-0.105	0.475
-728.937	-200.000	0.091	0.416
-727.923	800.000	-0.069	-0.195
-726.908	4.290	-0.043	-0.032
-725.894	-200.000	0.026	0.203
-724.879	105.927	-0.146	0.177
-723.864	74.289	0.272	-0.292
-722.850	-200.000	-0.029	-0.280
-721.835	785.155	-0.035	-0.098
-720.821	-200.000	0.062	0.531
-719.806	282.150	0.185	0.340
-718.791	-75.431	0.218	0.079
-717.777	-131.906	-0.293	0.039
-716.762	63.980	0.147	-0.151
-715.748	800.000	-0.111	-0.388
-714.733	-176.036	-0.298	0.008
-713.718	49.847	0.105	0.101
-712.704	158.318	-0.202	0.287
-711.689	800.000	0.115	0.349
-710.675	-100.443	0.499	-0.126
-709.660	-83.284	-0.168	-0.055
-708.645	-81.235	-0.458	0.154
-707.631	153.312	0.087	0.122
-706.616	-200.000	-0.021	-0.137
-705.602	-200.000	-0.002	-0.096
-704.587	800.000	-0.038	-0.167
-703.572	-152.295	-0.297	-0.022
-702.558	-114.471	0.236	0.046
-701.543	-156.798	-0.196	0.012
-700.529	-200.000	-0.013	-0.211
-699.514	44.174	-0.232	0.217
-698.499	-81.385	0.173	-0.058
-697.485	313.108	-0.128	0.246
-696.470	4.638	-0.329	-0.246
-695.456	-200.000	-0.054	-0.399
-694.441	-200.000	-0.025	-0.149
-693.426	8.334	0.141	0.108
-692.412	266.203	0.131	-0.234
-691.397	-51.520	-0.169	0.081
-690.383	-146.528	-0.231	0.021
-689.368	542.261	0.161	-0.392
-688.354	800.000	-0.043	-0.143
-687.339	-119.876	-0.282	-0.049
-686.324	577.808	-0.088	-0.219
-685.310	800.000	0.029	0.103
-684.295	-85.035	-0.163	-0.052
-683.281	38.939	-0.299	-0.272
-682.266	250.139	-0.161	-0.280
-681.251	329.035	-0.081	0.158
-680.237	-156.673	-0.096	-0.006
-679.222	2.254	0.265	-0.195
-678.208	286.898	0.148	-0.273
-677.193	-77.342	-0.078	-0.028
-676.178	-120.315	-0.277	-0.048
-675.164	-147.276	-0.236	0.020
-674.149	-42.643	-0.168	0.087
-673.135	-105.587	-0.304	0.070
-672.120	-200.000	-0.049	-0.230
-671.105	21.717	0.217	0.180
-670.091	52.047	-0.172	0.167
-669.076	-109.858	-0.508	-0.109
-668.062	-200.000	-0.017	-0.094
-667.047	28.821	0.169	0.146
-666.032	-200.000	-0.026	0.178
-665.018	-200.000	0.011	-0.223
-664.003	-79.910	-0.045	0.015
-662.989	206.091	-0.171	0.270
-661.974	171.468	0.173	0.253
-660.959	-200.000	-0.009	0.097
-659.945	-59.363	-0.260	-0.114
-658.930	-200.000	0.037	-0.185
-657.916	82.662	0.182	0.202
-656.901	369.159	-0.097	0.200
-655.886	-70.661	-0.049	-0.019
-654.872	136.491	0.169	-0.225
-653.857	800.000	0.063	0.204
-652.843	-95.915	-0.175	-0.048
-651.828	396.276	-0.142	0.302
-650.814	-167.392	0.120	-0.005
-649.799	-63.805	0.365	0.152
-648.784	-47.515	-0.159	-0.079
-647.770	-58.976	-0.301	-0.132
-646.755	-120.467	0.377	0.065
-645.741	87.163	0.288	0.324
-644.726	800.000	-0.119	-0.355
-643.711	-132.629	-0.213	0.028
-642.697	408.445	-0.060	-0.130
-641.682	226.232	-0.080	0.133
-640.668	-200.000	-0.042	0.282
-639.653	81.706	-0.437	0.482
-638.638	-6.480	-0.089	-0.062
-637.624	-200.000	0.003	-0.114
-636.609	-200.000	-0.001	-0.115
-635.595	423.039	-0.097	-0.212
-634.580	800.000	-0.023	0.075
-633.565	107.017	-0.115	0.139
-632.551	-200.000	-0.078	0.359
-631.536	45.371	0.250	-0.235
-630.522	740.365	-0.066	0.179
-629.507	-45.783	-0.251	0.126
-628.492	721.988	0.142	0.383
-627.478	20.950	-0.243	0.201
-626.463	31.740	-0.127	-0.111
-625.449	317.998	0.107	-0.206
-624.434	87.661	0.070	-0.079
-623.419	800.000	-0.139	-0.410
-622.405	9.363	-0.139	-0.107
-621.390	800.000	0.068	0.248
-620.376	-200.000	-0.018	-0.107
-619.361	-111.943	-0.240	0.049
-618.346	329.334	0.110	0.216
-617.332	-200.000	-0.058	0.401
-616.317	-200.000	0.009	-0.088
-615.303	-66.240	0.238	0.097
-614.288	800.000	-0.027	0.118
-613.273	-200.000	0.053	-0.263
-612.259	-200.000	-0.010	-0.065
-611.244	419.812	0.049	0.106
-610.230	51.951	0.251	-0.243
-609.215	-138.400	-0.444	0.050
-608.201	-200.000	0.062	0.309
-607.186	115.919	-0.109	-0.136
-606.171	-200.000	0.040	0.297
-605.157	-82.146	0.315	-0.104
-604.142	800.000	-0.055	-0.246
-603.128	-75.098	-0.158	-0.057
-602.113	63.555	-0.249	0.254
-601.098	-119.540	0.324	-0.057
-600.084	800.000	-0.072	-0.286
-599.069	800.000	0.089	-0.271
-598.055	800.000	0.025	0.103
-597.040	34.135	0.176	-0.156
-596.025	-48.413	-0.255	0.125
-595.011	-110.505	-0.153	-0.032
-593.996	-200.000	-0.027	-0.321
-592.982	187.491	0.181	-0.274
-591.967	-200.000	-0.007	0.238
-590.952	12.912	0.085	-0.067
-589.938	28.576	-0.181	0.155
-588.923	-126.663	0.163	-0.024
-587.909	201.802	0.214	-0.336
-586.894	-200.000	-0.024	0.147
-585.879	-200.000	-0.002	-0.239
-584.865	49.226	0.200	-0.191
-583.850	-200.000	-0.004	0.161
-582.836	-200.000	-0.013	0.068
-581.821	401.832	-0.255	-0.544
-580.806	-72.871	-0.116	0.043
-579.792	362.815	0.058	0.119
-578.777	-200.000	0.039	-0.267
-577.763	301.698	-0.067	-0.125
-576.748	22.779	-0.131	-0.109
-575.733	-200.000	-0.000	0.042
-574.719	6.336	0.189	-0.143
-573.704	8.644	0.094	0.072
-572.690	132.641	-0.029	-0.038
-571.675	-157.889	0.311	0.019
-570.661	61.771	0.103	-0.104
-569.646	217.140	-0.264	-0.426
-568.631	-170.487	-0.324	0.011
-567.617	204.237	0.106	-0.167
-566.602	800.000	-0.057	-0.210
-565.588	800.000	-0.051	0.195
-564.573	-68.633	0.303	0.119
-563.558	-200.000	0.037	0.178
-562.544	-200.000	-0.014	-0.120
-561.529	-134.629	-0.097	0.012
-560.515	479.415	-0.020	-0.046
-559.500	458.019	0.066	-0.149
-558.485	-52.496	-0.184	0.086
-557.471	21.918	-0.175	0.145
-556.456	4.642	-0.101	-0.075
-555.442	439.550	0.039	0.086
-554.427	-147.241	-0.182	-0.016
-553.412	-96.644	-0.173	0.046
-552.398	288.429	-0.159	-0.293
-551.383	-32.387	0.246	0.139
-550.369	-115.635	-0.123	-0.023
-549.354	-105.025	-0.359	-0.083
-548.339	-192.892	-0.595	-0.005
-547.325	-120.680	0.126	-0.022
-546.310	-200.000	-0.031	0.203
-545.296	-167.666	0.180	0.007
-544.281	-95.391	-0.260	0.071
-543.266	-69.297	-0.363	-0.141
-542.252	-21.584	0.067	-0.041
-541.237	80.234	-0.157	-0.172
-540.223	75.783	-0.066	0.071
-539.208	765.834	0.122	0.336
-538.193	-19.567	0.124	0.078
-537.179	-200.000	-0.040	-0.193
-536.164	800.000	0.021	-0.078
-535.150	276.552	-0.167	0.301
-534.135	-184.379	0.100	0.002
-533.121	800.000	0.021	-0.073
-532.106	263.821	-0.070	-0.123
-531.091	15.872	-0.183	0.146
-530.077	-117.921	-0.584	-0.106
-529.062	-200.000	-0.005	-0.025
-528.048	-108.789	0.450	-0.098
-527.033	-200.000	0.044	0.261
-526.018	15.128	-0.221	-0.176
-525.004	-26.483	0.113	0.067
-523.989	800.000	0.061	-0.238
-522.975	-108.213	-0.396	-0.087
-521.960	-64.546	-0.178	0.073
-520.945	166.245	-0.032	-0.046
-519.931	391.254	0.091	-0.192
-518.916	193.933	0.252	-0.387
-517.902	53.013	-0.344	-0.334
-516.887	34.149	-0.046	0.041
-515.872	800.000	-0.005	0.019
-514.858	-45.118	0.143	0.072
-513.843	102.503	-0.088	0.105
-512.829	-161.395	0.138	0.007
-511.814	-167.225	-0.184	-0.008
-510.799	-125.055	0.110	-0.017
-509.785	675.659	0.105	-0.277
-508.770	348.753	-0.045	0.090
-507.756	-63.447	0.194	-0.081
-506.741	-129.748	0.298	0.042
-505.726	800.000	-0.074	-0.241
-504.712	268.287	0.042	0.074
-503.697	-4.692	0.077	-0.054
-502.683	-81.065	-0.141	0.047
-501.668	222.826	0.081	-0.132
-500.653	-54.817	0.114	0.052
-499.639	243.883	0.109	0.184
-498.624	-116.014	0.228	-0.043
-497.610	-200.000	0.045	-0.506
-496.595	113.153	0.224	-0.275
-495.581	800.000	-0.053	0.157
-494.566	41.235	-0.228	-0.209
-493.551	800.000	-0.093	0.388
-492.537	577.861	-0.087	0.217
-491.522	349.135	0.165	0.331
-490.508	444.545	0.089	0.197
-489.493	252.259	-0.240	0.414
-488.478	18.843	-0.171	-0.139
-487.464	146.587	-0.029	0.040
-486.449	-57.057	-0.384	0.172
-485.435	-63.787	-0.176	0.073
-484.420	-200.000	-0.001	0.044
-483.405	-14.937	0.221	-0.143
-482.391	-66.949	0.111	0.045
-481.376	-35.273	-0.254	-0.140
-480.362	-161.492	-0.152	-0.008
-479.347	213.776	0.035	0.057
-478.332	-151.351	0.126	0.009
-477.318	726.218	-0.088	0.236
-476.303	-131.521	-0.231	-0.031
-475.289	125.897	-0.013	-0.017
-474.274	-200.000	-0.006	0.143
-473.259	-71.729	-0.283	0.107
-472.245	221.121	-0.176	0.286
-471.230	-200.000	0.000	0.231
-470.216	-200.000	0.004	0.120
-469.201	-134.714	-0.135	0.017
-468.186	56.863	0.172	-0.169
-467.172	-200.000	-0.020	0.208
-466.157	521.592	0.052	-0.124
-465.143	-103.337	0.074	0.018
-464.128	-27.364	0.091	-0.053
-463.113	-124.435	-0.228	0.036
-462.099	-110.922	0.199	-0.041
-461.084	41.499	-0.320	0.293
-460.070	-200.000	0.054	0.268
-459.055	-200.000	-0.010	-0.160
-458.040	-200.000	0.024	-0.201
-457.026	733.728	-0.080	0.217
-456.011	2.974	0.270	0.199
-454.997	242.943	0.062	-0.106
-453.982	-15.028	0.046	-0.030
-452.968	-90.313	0.379	-0.111
-451.953	-144.199	-0.214	-0.020
-450.938	115.342	-0.072	0.089
-449.924	-71.898	0.348	0.131
-448.909	193.528	-0.027	0.042
-447.895	343.478	0.161	-0.318
-446.880	50.221	-0.092	0.088
-445.865	-179.270	0.352	-0.008
-444.851	91.918	0.139	-0.158
-443.836	-80.249	-0.326	-0.110
-442.822	-200.000	0.013	-0.061
-441.807	800.000	-0.061	-0.185
-440.792	187.445	-0.363	0.547
-439.778	-50.102	0.165	-0.079
-438.763	-200.000	0.063	-0.363
-437.749	-200.000	0.015	-0.137
-436.734	769.903	-0.019	0.052
-435.719	224.414	-0.014	-0.023
-434.705	-200.000	0.041	-0.191
-433.690	194.610	-0.157	0.241
-432.676	-20.953	0.339	-0.210
-431.661	305.874	0.059	0.111
-430.646	-91.724	-0.384	-0.110
-429.632	800.000	-0.163	-0.536
-428.617	-12.065	0.080	-0.053
-427.603	-200.000	-0.033	0.190
-426.588	1.423	0.322	0.234
-425.573	-200.000	0.043	0.224
-424.559	-200.000	-0.037	0.315
-423.544	-200.000	0.024	0.185
-422.530	800.000	-0.055	0.162
-421.515	79.462	-0.120	-0.130
-420.500	-81.597	-0.153	-0.051
-419.486	-200.000	-0.011	0.143
-418.471	-160.004	-0.550	0.030
-417.457	43.113	0.039	-0.036
-416.442	-104.752	0.130	0.030
-415.428	49.411	-0.186	-0.177
-414.413	-87.761	0.270	-0.082
-413.398	-107.046	-0.191	0.043
-412.384	-18.659	0.151	0.095
-411.369	14.482	-0.322	-0.254
-410.355	24.619	-0.150	0.125
-409.340	-46.654	0.198	-0.098
-408.325	-97.495	-0.198	0.052
-407.311	-200.000	0.011	0.060
-406.296	112.658	-0.070	0.086
-405.282	-45.530	0.166	0.083
-404.267	-94.566	0.144	0.040
-403.252	284.271	0.049	-0.089
-402.238	-200.000	0.034	-0.344
-401.223	208.236	-0.082	-0.130
-400.209	475.052	-0.031	0.070
-399.194	-63.960	-0.172	0.071
-398.179	11.953	-0.335	0.260
-397.165	-53.591	0.447	0.206
-396.150	-76.465	0.088	0.031
-395.136	800.000	-0.020	-0.070
-394.121	344.903	0.169	0.334
-393.106	28.280	-0.103	-0.088
-392.092	45.758	-0.141	0.131
-391.077	-51.297	0.126	0.059
-390.063	-78.082	0.314	0.109
-389.048	-109.640	0.166	-0.035
-388.033	314.994	-0.068	-0.130
-387.019	-64.427	0.065	0.027
-386.004	301.396	-0.077	-0.143
-384.990	155.048	0.089	-0.123
-383.975	-58.950	0.183	-0.080
-382.960	9.452	-0.350	-0.267
-381.946	-200.000	0.025	0.139
-380.931	800.000	0.041	0.132
-379.917	67.742	-0.110	-0.114
-378.902	-22.485	0.179	-0.109
-377.888	226.288	-0.109	-0.178
-376.873	80.710	0.198	0.216
-375.858	166.432	0.073	-0.105
-374.844	111.527	-0.112	-0.137
-373.829	-148.234	0.011	0.001
-372.815	718.105	-0.102	-0.273
-371.800	-146.310	-0.285	0.025
-370.785	800.000	0.050	0.207
-369.771	118.539	0.124	0.154
-368.756	-200.000	-0.049	0.383
-367.742	-200.000	0.045	0.231
-366.727	88.723	-0.199	-0.223
-365.712	111.920	0.100	-0.122
-364.698	359.317	0.090	0.182
-363.683	-157.650	0.204	-0.012
-362.669	-112.898	-0.277	0.055
-361.654	296.366	0.163	-0.301
-360.639	-122.379	0.376	-0.062
-359.625	223.808	-0.204	-0.332
-358.610	63.953	0.184	0.186
-357.596	106.154	0.072	-0.085
-356.581	-200.000	-0.019	-0.220
-355.566	-41.569	-0.189	0.098
-354.552	-80.264	0.467	0.157
-353.537	-78.482	0.122	-0.042
-352.523	-200.000	0.020	0.506
-351.508	-94.476	0.477	0.131
-350.493	-63.345	0.060	-0.025
-349.479	-97.276	-0.247	-0.065
-348.464	115.774	0.224	0.275
-347.450	34.232	-0.141	0.124
-346.435	-177.324	-0.339	0.008
-345.420	-21.079	-0.104	-0.064
-344.406	800.000	0.037	0.150
-343.391	387.386	0.159	0.330
-342.377	-200.000	-0.039	-0.183
-341.362	313.752	-0.160	-0.304
-340.348	-25.443	0.082	-0.049
-339.333	-20.088	0.344	0.213
-338.318	-131.928	0.206	-0.027
-337.304	604.580	-0.097	0.243
-336.289	-200.000	-0.009	-0.176
-335.275	-136.102	0.122	0.014
-334.260	-83.705	-0.109	0.035
-333.245	9.358	-0.113	0.086
-332.231	111.834	-0.081	0.098
-331.216	68.762	0.259	0.268
-330.202	71.455	-0.082	0.086
-329.187	800.000	-0.106	-0.308
-328.172	-159.437	-0.269	0.015
-327.158	800.000	-0.016	0.045
-326.143	16.043	-0.162	-0.128
-325.129	487.166	0.137	0.315
-324.114	-187.002	0.126	0.002
-323.099	-200.000	0.235	-0.001
-322.085	-200.000	0.032	0.182
-321.070	173.216	0.111	-0.161
-320.056	-31.796	-0.098	0.055
-319.041	-200.000	0.028	-0.254
-318.026	-18.005	-0.101	-0.064
-317.012	-62.231	0.333	0.139
-315.997	140.812	-0.008	0.011
-314.983	-75.210	-0.357	0.128
-313.968	128.523	0.210	0.269
-312.953	-200.000	0.001	0.329
-311.939	40.825	-0.142	-0.129
-310.924	146.857	-0.101	-0.136
-309.910	106.920	0.253	-0.302
-308.895	-100.003	0.188	0.047
-307.880	-38.742	-0.099	-0.052
-306.866	-127.408	-0.229	-0.034
-305.851	800.000	-0.087	-0.267
-304.837	384.332	-0.093	-0.193
-303.822	-57.661	-0.161	0.071
-302.807	-26.864	0.085	0.050
-301.793	-62.636	-0.044	-0.018
-300.778	-85.190	0.346	-0.109
-299.764	89.527	0.205	-0.230
-298.749	-45.084	0.158	-0.079
-297.735	-200.000	-0.023	0.103
-296.720	219.985	0.079	0.126
-295.705	-91.132	0.112	-0.032
-294.691	-200.000	0.025	-0.526
-293.676	-101.088	-0.143	0.035
-292.662	53.732	0.175	0.169
-291.647	-183.530	-0.307	0.005
-290.632	800.000	-0.013	0.042
-289.618	508.834	-0.042	-0.099
-288.603	31.910	-0.112	-0.097
-287.589	-200.000	-0.012	-0.287
-286.574	60.759	0.092	0.092
-285.559	122.841	0.247	-0.310
-284.545	80.427	0.125	0.135
-283.530	6.685	0.075	0.056
-282.516	-93.045	0.291	-0.082
-281.501	92.723	-0.127	-0.144
-280.486	38.309	-0.125	0.112
-279.472	800.000	0.033	0.119
-278.457	-200.000	0.043	0.286
-277.443	-34.610	0.251	0.138
-276.428	545.812	0.046	0.110
-275.413	800.000	0.019	0.077
-274.399	-9.711	-0.209	0.139
-273.384	800.000	-0.031	-0.096
-272.370	-87.380	0.162	0.049
-271.355	-6.833	0.242	-0.165
-270.340	302.421	-0.082	-0.152
-269.326	-134.118	-0.168	-0.021
-268.311	-127.120	0.220	0.032
-267.297	2.294	-0.131	0.095
-266.282	172.919	-0.156	-0.226
-265.267	236.101	-0.141	-0.233
-264.253	-16.902	0.037	-0.023
-263.238	-50.321	0.146	0.069
-262.224	800.000	0.095	0.378
-261.209	-58.807	0.099	-0.043
-260.195	-200.000	0.008	0.040
-259.180	-49.576	0.329	-0.157
-258.165	240.496	0.147	-0.245
-257.151	-200.000	-0.011	0.153
-256.136	82.189	0.041	-0.044
-255.122	-24.603	-0.261	0.156
-254.107	-151.400	-0.376	-0.028
-253.092	52.234	0.209	0.200
-252.078	734.097	0.039	-0.105
-251.063	-61.951	0.123	0.052
-250.049	800.000	-0.103	0.336
-249.034	800.000	0.087	0.279
-248.019	118.245	-0.085	0.105
-247.005	-69.304	-0.507	-0.195
-245.990	11.652	0.317	0.244
-244.976	-53.516	0.335	0.154
-243.961	-104.068	-0.365	-0.085
-242.946	85.622	0.190	-0.209
-241.932	658.186	0.065	-0.169
-240.917	800.000	-0.025	0.089
-239.903	-110.832	0.195	0.040
-238.888	-46.909	-0.182	0.089
-237.873	722.050	-0.055	-0.148
-236.859	-82.734	0.119	0.038
-235.844	464.089	-0.153	-0.343
-234.830	-200.000	0.002	-0.066
-233.815	800.000	-0.100	0.405
-232.800	-109.963	-0.416	0.087
-231.786	712.451	0.045	-0.121
-230.771	-30.104	-0.269	-0.154
-229.757	800.000	-0.066	-0.277
-228.742	74.291	0.143	0.151
-227.727	-200.000	0.001	-0.133
-226.713	-22.208	-0.030	-0.018
-225.698	373.151	-0.122	0.248
-224.684	-200.000	0.009	-0.076
-223.669	-143.707	0.145	-0.014
-222.655	800.000	0.073	-0.214
-221.640	149.626	-0.116	0.158
-220.625	-200.000	0.043	-0.324
-219.611	-22.186	0.078	-0.048
-218.596	800.000	0.073	-0.276
-217.582	800.000	-0.010	-0.031
-216.567	-29.143	0.082	-0.047
-215.552	800.000	0.054	-0.197
-214.538	-200.000	-0.011	0.106
-213.523	49.827	-0.228	-0.215
-212.509	148.495	-0.057	0.077
-211.494	380.842	-0.159	0.327
-210.479	239.491	-0.244	0.406
-209.465	800.000	0.078	0.292
-208.450	413.161	0.118	0.251
-207.436	-157.222	-0.035	0.002
-206.421	-15.724	0.122	0.078
-205.406	31.794	0.020	-0.018
-204.392	68.803	-0.110	0.113
-203.377	165.656	0.144	0.204
-202.363	305.965	0.071	0.133
-201.348	0.056	0.084	0.060
-200.333	550.822	0.034	-0.083
-199.319	767.008	-0.010	0.027
-198.304	-157.771	0.045	-0.003
-197.290	800.000	0.167	-0.465
-196.275	800.000	-0.055	-0.173
-195.260	11.372	0.142	-0.109
-194.246	800.000	0.119	0.500
-193.231	-200.000	0.024	0.147
-192.217	-14.324	0.015	0.009
-191.202	-178.160	0.196	0.005
-190.187	800.000	-0.046	-0.145
-189.173	99.065	-0.153	0.177
-188.158	-189.118	0.184	0.002
-187.144	-200.000	-0.002	-0.129
-186.129	-200.000	0.000	-0.033
-185.114	-11.294	0.182	-0.120
-184.100	-67.986	-0.093	-0.036
-183.085	304.101	0.128	-0.238
-182.071	-22.192	-0.221	0.134
-181.056	72.583	0.222	-0.232
-180.042	-15.871	0.196	-0.125
-179.027	-171.269	0.313	-0.011
-178.012	751.904	0.082	0.221
-176.998	800.000	-0.025	0.078
-175.983	-102.650	-0.241	0.058
-174.969	13.930	0.084	-0.066
-173.954	-119.820	0.200	-0.034
-172.939	-200.000	0.021	0.278
-171.925	121.263	-0.228	-0.284
-170.910	-36.961	0.183	0.098
-169.896	51.698	0.251	-0.239
-168.881	800.000	0.023	-0.081
-167.866	-85.793	-0.211	0.065
-166.852	14.960	-0.073	-0.057
-165.837	-134.367	0.346	0.042
-164.823	800.000	-0.018	-0.069
-163.808	-55.929	0.126	0.056
-162.793	4.479	0.057	0.041
-161.779	-105.771	0.145	0.033
-160.764	-90.311	0.186	0.054
-159.750	112.400	0.111	-0.134
-158.735	-32.303	0.142	0.079
-157.720	268.075	-0.079	-0.138
-156.706	-145.178	0.387	0.035
-155.691	143.135	-0.022	0.029
-154.677	181.724	-0.064	-0.094
-153.662	-80.223	-0.335	0.112
-152.647	800.000	-0.028	-0.099
-151.633	-60.518	-0.269	-0.114
-150.618	-16.038	0.109	0.070
-149.604	5.345	-0.125	0.092
-148.589	94.904	0.003	-0.004
-147.574	97.271	-0.112	-0.128
-146.560	24.655	-0.070	0.058
-145.545	800.000	-0.113	0.337
-144.531	800.000	-0.085	-0.258
-143.516	800.000	0.022	0.087
-142.502	107.773	0.202	0.240
-141.487	-200.000	-0.071	0.406
-140.472	-88.821	-0.113	-0.033
-139.458	-48.280	0.180	-0.087
-138.443	163.048	-0.028	0.039
-137.429	-89.430	-0.256	0.075
-136.414	-59.678	0.162	0.070
-135.399	503.086	-0.155	0.358
-134.385	748.336	0.060	0.161
-133.370	-81.380	0.394	-0.130
-132.356	134.961	0.090	-0.116
-131.341	161.294	0.104	-0.145
-130.326	800.000	-0.077	-0.236
-129.312	43.025	0.086	-0.078
-128.297	800.000	0.028	-0.117
-127.283	176.260	0.146	0.211
-126.268	-28.140	-0.118	0.068
-125.253	-117.098	0.128	0.023
-124.239	30.641	0.243	-0.208
-123.224	-200.000	0.059	-0.348
-122.210	110.818	-0.086	0.104
-121.195	-113.491	-0.137	0.027
