DTS Sentinel unit serial number:	SN413079Multiplexer serial number:	ORYXHardware model number:	OX4-SRSoftware version number:	ORYX F/W v4.00 Oryx Data Collector v3.7.2.0data status	okinstallation	princeton_trtdifferential loss correction	single-endedforward channel	channel 1reverse channel	N/Adate	2019/09/13time	04:18:35forward acquisition time	60.00reverse acquisition time	0.00gamma	496.2192k internal	0.2334k external	0.2334temperature offset calibration	1.0160default loss term (dB/km)	0.3790temperature slope calibration	1.0000multiplexer offset coefficient	1.0000multiplexer slope coefficient	1.0000fibre end	0.00T internal ref (°C)	26.81T ext. ref 1 (°C)	4.04T ext. ref 2 (°C)	21.20length (m)	temperature (°C)	Stokes	anti-Stokes-747.200	312.846	-0.054	-0.101
-746.185	71.350	-0.159	0.166
-745.171	220.851	0.039	-0.062
-744.156	257.569	-0.257	0.445
-743.142	-17.066	-0.161	-0.102
-742.127	295.080	-0.026	0.049
-741.112	73.834	-0.139	0.147
-740.098	-81.083	-0.342	0.114
-739.083	-18.424	-0.226	-0.142
-738.069	72.698	0.231	0.242
-737.054	-131.567	-0.289	-0.038
-736.039	-47.568	-0.277	0.135
-735.025	-200.000	0.271	0.000
-734.010	142.164	-0.101	-0.135
-732.996	300.006	0.070	0.130
-731.981	175.805	-0.196	-0.286
-730.966	155.556	0.049	0.068
-729.952	800.000	0.049	0.180
-728.937	-133.889	-0.270	0.034
-727.923	38.073	0.024	0.022
-726.908	-44.926	0.139	0.069
-725.894	800.000	-0.111	0.359
-724.879	-123.000	-0.139	-0.022
-723.864	-22.022	0.117	-0.072
-722.850	352.259	0.072	0.143
-721.835	321.737	0.051	-0.097
-720.821	700.636	-0.029	0.078
-719.806	-200.000	0.020	0.260
-718.791	18.636	0.162	0.130
-717.777	-10.956	0.123	-0.081
-716.762	-66.783	-0.078	0.031
-715.748	-63.553	-0.165	0.068
-714.733	-200.000	-0.024	-0.368
-713.718	-200.000	0.035	0.249
-712.704	-200.000	0.026	0.372
-711.689	83.596	0.242	-0.265
-710.675	-107.449	-0.195	-0.043
-709.660	47.841	0.062	-0.058
-708.645	119.358	0.205	-0.255
-707.631	-51.177	-0.247	-0.116
-706.616	800.000	0.052	0.225
-705.602	583.713	-0.064	-0.158
-704.587	800.000	-0.062	-0.183
-703.572	286.280	0.091	0.164
-702.558	-161.790	0.093	-0.005
-701.543	5.165	0.100	0.074
-700.529	-30.994	-0.065	0.037
-699.514	-200.000	-0.026	0.218
-698.499	800.000	-0.076	-0.251
-697.485	39.830	-0.121	0.109
-696.470	-200.000	0.010	0.235
-695.456	-95.046	0.279	-0.076
-694.441	154.005	-0.152	-0.208
-693.426	-180.080	0.524	-0.011
-692.412	-200.000	-0.036	0.233
-691.397	325.790	-0.115	-0.221
-690.383	-200.000	-0.011	0.128
-689.368	-200.000	0.004	-0.081
-688.354	-95.317	-0.117	-0.031
-687.339	-190.215	-0.187	0.002
-686.324	56.835	-0.081	-0.079
-685.310	-13.256	0.164	0.107
-684.295	-22.460	0.216	-0.131
-683.281	800.000	-0.061	-0.245
-682.266	-108.773	0.382	-0.082
-681.251	-46.647	0.112	-0.055
-680.237	-61.058	0.202	0.085
-679.222	345.531	0.085	-0.168
-678.208	-200.000	0.015	0.297
-677.193	141.834	-0.098	0.130
-676.178	73.036	-0.188	-0.197
-675.164	17.920	0.143	0.114
-674.149	-68.325	0.172	0.067
-673.135	-200.000	0.023	-0.254
-672.120	-28.656	-0.346	-0.200
-671.105	65.656	0.234	-0.237
-670.091	301.353	-0.128	-0.237
-669.076	-18.701	0.080	-0.050
-668.062	-75.452	0.126	0.045
-667.047	-200.000	-0.002	0.083
-666.032	-200.000	-0.015	-0.126
-665.018	800.000	0.036	-0.134
-664.003	524.210	-0.103	-0.242
-662.989	23.045	-0.158	0.130
-661.974	197.482	-0.136	-0.208
-660.959	278.233	-0.094	-0.167
-659.945	-22.475	-0.281	-0.170
-658.930	800.000	0.008	-0.027
-657.916	-200.000	-0.003	-0.242
-656.901	7.537	0.039	0.029
-655.886	493.164	-0.110	-0.254
-654.872	-145.990	-0.173	-0.015
-653.857	-70.443	-0.170	-0.064
-652.843	-200.000	-0.027	-0.143
-651.828	800.000	0.074	-0.292
-650.814	800.000	0.035	-0.146
-649.799	-14.199	-0.085	0.055
-648.784	-42.984	0.248	-0.126
-647.770	-99.277	-0.163	-0.041
-646.755	-89.505	0.274	-0.080
-645.741	800.000	-0.059	0.201
-644.726	227.162	0.235	-0.383
-643.711	-35.575	0.047	-0.026
-642.697	29.349	0.087	-0.074
-641.682	-138.033	-0.190	-0.021
-640.668	-200.000	-0.023	-0.153
-639.653	-110.001	-0.226	-0.047
-638.638	441.573	-0.073	-0.160
-637.624	800.000	-0.042	0.186
-636.609	-53.382	0.205	0.094
-635.595	800.000	0.061	0.173
-634.580	-26.952	-0.114	-0.067
-633.565	212.965	0.109	0.173
-632.551	60.509	0.167	-0.166
-631.536	-141.831	-0.310	-0.031
-630.522	-200.000	-0.006	0.257
-629.507	-64.005	-0.158	-0.064
-628.492	-148.184	-0.246	-0.020
-627.478	800.000	-0.011	0.032
-626.463	449.442	0.074	-0.163
-625.449	439.806	-0.064	-0.139
-624.434	232.439	-0.128	-0.210
-623.419	800.000	0.188	0.567
-622.405	-0.408	0.095	0.068
-621.390	10.858	0.414	-0.317
-620.376	105.595	0.124	-0.147
-619.361	-70.024	0.319	0.122
-618.346	-129.042	0.178	0.025
-617.332	-100.973	0.128	-0.031
-616.317	134.950	-0.101	0.132
-615.303	-37.788	-0.253	-0.134
-614.288	18.817	-0.094	0.075
-613.273	-200.000	0.043	0.231
-612.259	-43.698	0.238	0.120
-611.244	-10.977	-0.227	0.150
-610.230	-71.337	-0.136	-0.051
-609.215	-53.216	-0.169	0.078
-608.201	235.649	-0.133	-0.220
-607.186	165.881	0.236	0.334
-606.171	-63.220	0.018	0.007
-605.157	116.766	-0.115	0.142
-604.142	-157.598	0.239	-0.014
-603.128	234.252	0.228	-0.376
-602.113	800.000	-0.116	0.381
-601.098	-200.000	-0.033	-0.310
-600.084	-128.255	0.380	-0.054
-599.069	91.138	-0.071	0.080
-598.055	-88.760	-0.173	0.051
-597.040	-166.426	0.234	0.010
-596.025	-33.273	-0.226	-0.125
-595.011	224.888	-0.234	0.379
-593.996	78.331	0.106	-0.113
-592.982	14.985	-0.084	0.066
-591.967	108.058	-0.098	-0.117
-590.952	92.636	-0.116	-0.131
-589.938	105.438	0.136	0.161
-588.923	-200.000	0.017	-0.303
-587.909	-200.000	-0.040	-0.344
-586.894	64.054	0.173	-0.174
-585.879	20.981	-0.130	0.105
-584.865	800.000	0.030	0.089
-583.850	-13.721	0.188	-0.121
-582.836	350.253	0.137	0.271
-581.821	-76.655	0.223	-0.078
-580.806	-200.000	0.003	-0.160
-579.792	-70.267	0.137	-0.052
-578.777	-127.382	-0.208	-0.030
-577.763	-200.000	-0.001	0.414
-576.748	-113.478	0.172	-0.034
-575.733	27.916	0.392	-0.330
-574.719	389.102	-0.161	-0.333
-573.704	-114.033	0.243	0.047
-572.690	-178.356	-0.204	-0.005
-571.675	-38.982	0.174	-0.091
-570.661	38.655	-0.047	0.042
-569.646	-43.153	-0.210	0.106
-568.631	800.000	-0.021	0.067
-567.617	-60.271	0.401	-0.170
-566.602	-12.650	-0.212	0.138
-565.588	-145.516	0.443	-0.040
-564.573	-171.711	-0.077	0.003
-563.558	165.111	0.283	0.400
-562.544	800.000	0.031	-0.116
-561.529	-200.000	0.006	0.086
-560.515	-57.092	0.135	-0.059
-559.500	-102.074	0.206	-0.049
-558.485	-66.504	0.356	0.141
-557.471	-18.709	-0.139	0.086
-556.456	-157.255	-0.103	0.006
-555.442	-9.310	0.113	-0.075
-554.427	16.823	-0.187	0.148
-553.412	-62.283	-0.149	0.062
-552.398	226.809	-0.102	0.165
-551.383	280.555	0.087	0.155
-550.369	-200.000	-0.027	0.377
-549.354	35.064	-0.041	0.036
-548.339	-200.000	0.102	0.602
-547.325	-6.187	-0.148	0.101
-546.310	-91.961	-0.476	0.135
-545.296	28.066	-0.299	0.251
-544.281	315.974	0.090	0.170
-543.266	457.251	0.080	0.177
-542.252	2.791	-0.326	-0.236
-541.237	-71.625	-0.343	0.128
-540.223	-145.290	0.257	-0.023
-539.208	342.941	-0.071	0.138
-538.193	436.329	0.088	0.191
-537.179	-63.276	-0.358	-0.147
-536.164	53.761	0.193	0.185
-535.150	-200.000	-0.040	0.221
-534.135	800.000	-0.032	0.120
-533.121	-95.387	0.220	-0.059
-532.106	325.860	-0.135	-0.258
-531.091	38.718	-0.180	-0.160
-530.077	124.435	-0.071	0.089
-529.062	-32.303	0.140	0.078
-528.048	675.429	0.094	0.245
-527.033	800.000	-0.019	-0.078
-526.018	-200.000	-0.017	0.188
-525.004	-86.916	-0.136	-0.041
-523.989	-56.943	-0.155	-0.068
-522.975	159.652	-0.162	-0.224
-521.960	42.490	-0.125	0.113
-520.945	-122.180	-0.367	0.060
-519.931	-113.222	0.117	0.023
-518.916	-195.342	-0.539	0.004
-517.902	358.443	0.169	0.337
-516.887	436.943	0.112	0.243
-515.872	-200.000	0.006	-0.175
-514.858	443.286	0.102	-0.224
-513.843	-200.000	-0.006	0.187
-512.829	800.000	-0.054	0.164
-511.814	-55.851	-0.107	-0.048
-510.799	-42.033	-0.357	-0.182
-509.785	-78.179	-0.405	-0.139
-508.770	-67.334	0.273	0.107
-507.756	-135.970	-0.201	-0.024
-506.741	579.632	0.041	0.100
-505.726	-200.000	0.026	-0.225
-504.712	800.000	-0.010	-0.038
-503.697	-131.457	0.028	0.004
-502.683	217.255	-0.068	-0.108
-501.668	790.354	-0.087	-0.237
-500.653	75.684	0.083	-0.087
-499.639	347.977	-0.072	0.140
-498.624	-105.702	0.006	-0.001
-497.610	15.896	-0.381	0.298
-496.595	-130.481	-0.210	-0.028
-495.581	-147.075	0.157	-0.013
-494.566	262.404	-0.218	0.376
-493.551	-92.815	-0.050	-0.014
-492.537	82.810	-0.138	0.150
-491.522	56.692	-0.174	-0.169
-490.508	280.513	-0.169	0.300
-489.493	-96.087	0.168	-0.044
-488.478	271.353	0.099	0.173
-487.464	800.000	-0.072	-0.299
-486.449	-21.213	-0.281	-0.171
-485.435	9.800	0.084	-0.063
-484.420	-200.000	0.050	-0.312
-483.405	358.355	0.099	-0.197
-482.391	-6.698	0.050	0.034
-481.376	159.372	0.240	0.332
-480.362	-78.935	-0.292	-0.099
-479.347	-71.477	0.029	-0.011
-478.332	-128.031	0.173	0.025
-477.318	-200.000	-0.025	-0.191
-476.303	-90.720	-0.309	-0.089
-475.289	800.000	0.047	-0.140
-474.274	-127.577	-0.091	-0.013
-473.259	38.423	0.268	-0.238
-472.245	800.000	0.076	-0.210
-471.230	-71.066	0.302	-0.113
-470.216	68.754	0.250	-0.256
-469.201	425.390	0.032	0.068
-468.186	715.972	0.077	-0.203
-467.172	-200.000	0.015	-0.125
-466.157	-82.546	-0.167	-0.054
-465.143	-90.647	0.226	0.065
-464.128	-53.436	-0.129	-0.059
-463.113	-119.799	-0.231	-0.039
-462.099	-33.814	-0.239	0.131
-461.084	-136.658	0.323	-0.037
-460.070	-10.652	0.046	-0.030
-459.055	800.000	0.096	0.287
-458.040	-200.000	0.017	0.076
-457.026	482.485	0.098	0.221
-456.011	483.972	0.082	-0.185
-454.997	246.872	0.117	0.196
-453.982	-106.551	-0.341	0.076
-452.968	800.000	0.098	0.373
-451.953	800.000	0.056	0.208
-450.938	11.417	-0.194	-0.148
-449.924	463.081	-0.091	-0.201
-448.909	117.930	-0.050	0.061
-447.895	-114.008	-0.229	0.044
-446.880	-145.247	-0.279	0.025
-445.865	-135.356	0.194	-0.023
-444.851	-109.392	0.176	0.037
-443.836	-10.427	-0.152	-0.100
-442.822	-200.000	-0.017	0.238
-441.807	-200.000	0.065	-0.310
-440.792	-51.572	0.563	-0.261
-439.778	-137.077	-0.165	-0.019
-438.763	-89.016	-0.146	0.043
-437.749	-184.345	-0.265	-0.004
-436.734	800.000	0.060	-0.182
-435.719	-32.752	-0.259	0.143
-434.705	-73.165	-0.266	-0.097
-433.690	800.000	0.031	-0.117
-432.676	450.375	-0.109	-0.239
-431.661	130.274	-0.163	0.207
-430.646	338.122	0.174	0.335
-429.632	-200.000	-0.085	0.522
-428.617	-67.788	0.267	0.103
-427.603	3.229	0.318	-0.230
-426.588	99.900	-0.124	-0.143
-425.573	135.360	-0.083	-0.107
-424.559	-178.393	-0.064	0.001
-423.544	204.468	0.096	0.148
-422.530	-200.000	0.056	0.331
-421.515	-173.520	0.214	-0.006
-420.500	-16.381	0.125	-0.079
-419.486	185.625	0.138	0.203
-418.471	-200.000	-0.006	-0.151
-417.457	323.991	0.152	0.288
-416.442	-200.000	0.008	0.089
-415.428	-200.000	0.056	-0.350
-414.413	-200.000	-0.011	0.370
-413.398	-168.378	0.327	0.012
-412.384	-26.333	0.109	-0.063
-411.369	-200.000	-0.045	0.199
-410.355	-55.755	-0.489	-0.217
-409.340	-102.594	0.108	-0.026
-408.325	-73.248	-0.161	-0.059
-407.311	-141.758	0.088	0.009
-406.296	797.980	0.073	-0.201
-405.282	701.453	-0.036	0.093
-404.267	-12.178	0.323	-0.210
-403.252	-10.299	-0.280	-0.184
-402.238	87.353	-0.198	0.217
-401.223	409.443	0.075	0.157
-400.209	800.000	-0.054	0.205
-399.194	-176.634	0.263	0.007
-398.179	494.646	0.097	0.222
-397.165	270.634	-0.118	0.205
-396.150	800.000	-0.046	0.165
-395.136	-200.000	0.050	0.232
-394.121	-49.498	-0.198	0.094
-393.106	-81.806	-0.253	-0.082
-392.092	92.613	0.161	-0.180
-391.077	124.804	-0.026	0.032
-390.063	199.127	0.149	0.227
-389.048	37.951	-0.086	-0.076
-388.033	-200.000	0.055	-0.387
-387.019	88.878	-0.162	-0.179
-386.004	-11.852	-0.072	0.047
-384.990	-9.719	-0.151	0.100
-383.975	800.000	-0.113	-0.355
-382.960	-164.572	0.403	-0.018
-381.946	800.000	0.057	-0.170
-380.931	331.921	0.126	0.241
-379.917	241.621	-0.001	-0.002
-378.902	-19.004	-0.074	0.046
-377.888	-200.000	0.024	-0.142
-376.873	-200.000	0.004	-0.066
-375.858	12.337	0.214	-0.163
-374.844	89.761	0.082	0.091
-373.829	800.000	-0.133	0.371
-372.815	-200.000	-0.029	0.169
-371.800	-200.000	0.053	0.316
-370.785	-55.076	-0.367	0.163
-369.771	371.927	-0.050	-0.101
-368.756	-200.000	0.019	-0.268
-367.742	-200.000	-0.056	-0.291
-366.727	-200.000	0.016	0.195
-365.712	-200.000	0.027	-0.300
-364.698	287.414	-0.108	-0.193
-363.683	186.290	0.246	0.362
-362.669	341.691	-0.096	-0.186
-361.654	27.533	-0.428	-0.357
-360.639	-48.965	-0.112	0.053
-359.625	4.495	-0.342	-0.248
-358.610	-43.427	-0.095	-0.048
-357.596	-64.197	-0.049	0.020
-356.581	-200.000	0.036	-0.242
-355.566	-143.234	0.030	-0.003
-354.552	237.143	-0.189	-0.310
-353.537	-158.736	0.301	-0.017
-352.523	800.000	0.017	0.073
-351.508	-200.000	0.016	-0.269
-350.493	-168.168	0.166	0.006
-349.479	268.688	-0.091	-0.157
-348.464	-46.288	-0.287	-0.139
-347.450	73.038	0.085	-0.088
-346.435	800.000	0.135	-0.407
-345.420	800.000	0.016	0.065
-344.406	800.000	0.033	-0.094
-343.391	-31.135	-0.227	-0.127
-342.377	-200.000	0.037	0.189
-341.362	-41.964	-0.113	-0.057
-340.348	396.138	0.072	-0.148
-339.333	257.520	-0.115	0.195
-338.318	-180.626	0.350	0.007
-337.304	-200.000	-0.014	0.152
-336.289	23.829	0.398	-0.324
-335.275	-62.767	-0.127	0.052
-334.260	-200.000	-0.043	-0.245
-333.245	-137.081	-0.298	-0.034
-332.231	179.242	0.101	0.146
-331.216	286.460	0.094	0.168
-330.202	360.648	-0.126	-0.250
-329.187	-19.676	0.505	0.309
-328.172	-83.027	-0.451	0.144
-327.158	107.228	-0.258	-0.303
-326.143	593.268	0.124	0.302
-325.129	-51.799	0.398	-0.183
-324.114	800.000	-0.061	-0.246
-323.099	-144.158	-0.170	0.016
-322.085	186.110	-0.036	-0.053
-321.070	76.335	-0.244	0.255
-320.056	-98.677	-0.136	-0.034
-319.041	71.211	-0.308	-0.316
-318.026	45.275	-0.050	0.046
-317.012	326.587	0.092	-0.174
-315.997	-200.000	-0.027	0.447
-314.983	-56.974	0.091	-0.040
-313.968	130.247	0.085	0.107
-312.953	26.412	-0.239	-0.197
-311.939	-200.000	-0.016	-0.086
-310.924	-200.000	-0.011	-0.138
-309.910	-200.000	-0.031	-0.197
-308.895	447.941	-0.072	0.156
-307.880	-137.323	0.211	-0.024
-306.866	26.680	-0.222	-0.184
-305.851	0.814	0.157	0.111
-304.837	104.231	0.099	0.116
-303.822	50.392	0.131	-0.122
-302.807	-200.000	0.007	-0.196
-301.793	692.289	-0.043	-0.111
-300.778	-156.496	0.270	0.017
-299.764	20.249	-0.351	0.280
-298.749	343.651	-0.140	-0.270
-297.735	37.841	0.114	-0.100
-296.720	-40.431	0.190	-0.098
-295.705	-200.000	0.013	-0.078
-294.691	29.685	-0.214	-0.180
-293.676	-134.629	0.031	-0.004
-292.662	18.438	0.202	-0.160
-291.647	537.376	-0.049	0.115
-290.632	-101.016	-0.364	0.088
-289.618	563.212	0.123	-0.294
-288.603	505.663	0.084	-0.193
-287.589	424.602	0.059	0.126
-286.574	2.543	0.184	0.132
-285.559	-21.499	-0.082	-0.050
-284.545	-15.403	-0.149	0.094
-283.530	-11.046	0.052	-0.034
-282.516	-82.184	-0.285	-0.092
-281.501	-200.000	0.026	0.328
-280.486	-191.387	0.134	0.001
-279.472	133.608	0.113	0.144
-278.457	800.000	-0.011	0.032
-277.443	-15.202	-0.301	-0.190
-276.428	-200.000	0.003	0.086
-275.413	-200.000	-0.053	0.242
-274.399	516.220	-0.147	-0.340
-273.384	-22.030	0.444	0.266
-272.370	-200.000	0.001	-0.215
-271.355	148.889	-0.109	0.145
-270.340	617.933	-0.082	-0.203
-269.326	800.000	-0.162	-0.537
-268.311	649.288	0.059	0.148
-267.297	24.663	0.208	-0.170
-266.282	-100.444	-0.265	-0.065
-265.267	591.195	0.091	-0.223
-264.253	-200.000	-0.004	-0.108
-263.238	159.097	-0.099	-0.136
-262.224	35.120	0.141	-0.122
-261.209	170.331	0.043	-0.061
-260.195	-129.904	0.352	0.048
-259.180	227.848	-0.063	0.101
-258.165	-200.000	0.006	-0.049
-257.151	-68.006	0.081	0.031
-256.136	800.000	-0.064	-0.178
-255.122	609.942	0.093	0.229
-254.107	800.000	-0.067	-0.225
-253.092	-61.494	-0.143	-0.059
-252.078	-88.762	0.168	-0.049
-251.063	-109.657	0.179	-0.037
-250.049	-161.790	0.207	-0.010
-249.034	341.338	-0.120	-0.231
-248.019	-94.719	0.213	-0.057
-247.005	-58.416	0.121	-0.052
-245.990	-200.000	0.018	0.155
-244.976	-134.208	0.258	0.031
-243.961	180.609	0.083	-0.120
-242.946	-200.000	-0.025	-0.201
-241.932	-200.000	-0.006	-0.100
-240.917	-12.134	-0.135	0.087
-239.903	-200.000	0.039	0.227
-238.888	-115.787	0.230	-0.042
-237.873	240.923	0.109	0.179
-236.859	3.724	-0.264	0.190
-235.844	-97.939	0.145	-0.037
-234.830	-70.101	0.124	0.046
-233.815	-119.836	0.489	0.083
-232.800	-200.000	-0.010	-0.106
-231.786	423.425	0.038	0.081
-230.771	-143.733	0.457	0.043
-229.757	-114.969	-0.174	-0.033
-228.742	-200.000	-0.001	-0.069
-227.727	681.754	0.048	0.123
-226.713	48.265	-0.146	0.134
-225.698	66.954	-0.109	-0.109
-224.684	800.000	-0.115	0.332
-223.669	452.082	0.067	-0.147
-222.655	-44.478	-0.118	-0.058
-221.640	-16.119	0.277	-0.173
-220.625	-200.000	-0.005	0.034
-219.611	155.850	-0.218	-0.296
-218.596	-100.868	0.396	-0.096
-217.582	-200.000	-0.017	0.249
-216.567	279.266	-0.097	0.170
-215.552	156.153	-0.116	0.157
-214.538	-200.000	0.035	-0.319
-213.523	-108.824	0.218	-0.046
-212.509	118.426	0.185	0.225
-211.494	79.046	-0.144	0.151
-210.479	97.652	-0.142	-0.160
-209.465	-39.488	-0.331	-0.171
-208.450	800.000	-0.046	0.138
-207.436	-57.950	0.152	0.065
-206.421	301.788	-0.102	0.185
-205.406	-24.133	0.257	0.151
-204.392	-71.155	-0.163	-0.060
-203.377	64.816	0.180	0.179
-202.363	83.979	0.113	-0.122
-201.348	-200.000	0.022	-0.157
-200.333	123.986	0.159	-0.197
-199.319	-118.026	0.237	0.042
-198.304	-200.000	0.057	0.252
-197.290	31.603	0.200	-0.169
-196.275	-200.000	-0.028	-0.152
-195.260	-73.663	0.220	0.079
-194.246	-65.262	0.052	0.020
-193.231	-26.350	0.042	-0.024
-192.217	-119.596	-0.373	-0.063
-191.202	-200.000	-0.005	-0.157
-190.187	-184.488	-0.260	0.004
-189.173	-35.767	0.049	0.026
-188.158	800.000	0.041	0.170
-187.144	-59.871	-0.254	0.107
-186.129	-200.000	0.028	-0.305
-185.114	-200.000	0.027	-0.265
-184.100	181.201	0.155	0.224
-183.085	592.998	0.061	-0.148
-182.071	800.000	0.073	0.234
-181.056	267.621	0.344	0.592
-180.042	31.021	0.150	0.126
-179.027	156.858	0.160	0.218
-178.012	122.950	0.220	0.271
-176.998	-42.421	-0.175	-0.088
-175.983	-84.445	-0.256	-0.079
-174.969	-200.000	-0.019	-0.438
-173.954	-94.142	-0.309	0.083
-172.939	-200.000	0.042	0.445
-171.925	55.464	0.092	-0.087
-170.910	41.073	-0.276	0.245
-169.896	1.739	0.184	0.131
-168.881	-200.000	0.002	0.160
-167.866	251.989	-0.079	-0.132
-166.852	800.000	-0.056	0.179
-165.837	536.087	0.126	0.294
-164.823	-128.336	-0.529	0.074
-163.808	313.962	0.034	0.063
-162.793	394.091	-0.118	-0.241
-161.779	-111.591	-0.228	-0.045
-160.764	190.691	0.183	-0.270
-159.750	-114.306	-0.135	-0.026
-158.735	157.983	0.159	0.216
-157.720	800.000	0.066	0.213
-156.706	171.704	0.059	-0.083
-155.691	800.000	0.051	-0.155
-154.677	414.657	0.051	-0.106
-153.662	-159.700	-0.080	-0.004
-152.647	97.969	0.036	0.041
-151.633	800.000	0.095	0.378
-150.618	-117.600	-0.242	0.043
-149.604	-48.912	-0.447	-0.210
-148.589	123.268	0.164	-0.202
-147.574	-200.000	0.062	-0.397
-146.560	-93.860	-0.280	-0.076
-145.545	-69.442	-0.250	0.094
-144.531	-59.835	0.412	0.173
-143.516	98.385	0.119	-0.134
-142.502	694.453	-0.054	0.139
-141.487	80.320	0.217	0.229
-140.472	622.532	0.057	-0.142
-139.458	8.702	0.049	0.036
-138.443	-70.380	0.137	0.051
-137.429	219.139	-0.094	-0.147
-136.414	-91.521	0.142	-0.040
-135.399	-46.620	0.231	-0.111
-134.385	-200.000	-0.003	-0.269
-133.370	278.645	-0.131	0.230
-132.356	-83.934	-0.403	-0.126
-131.341	-15.967	-0.047	0.029
-130.326	-200.000	-0.002	0.301
-129.312	568.905	0.215	-0.512
-128.297	-13.310	0.218	-0.139
-127.283	-1.046	0.106	-0.074
-126.268	290.518	0.198	0.354
-125.253	146.111	-0.062	0.081
-124.239	-38.785	0.251	0.130
-123.224	-83.091	-0.141	0.045
-122.210	-200.000	0.006	-0.262
