DTS Sentinel unit serial number:	SN413079Multiplexer serial number:	ORYXHardware model number:	OX4-SRSoftware version number:	ORYX F/W v4.00 Oryx Data Collector v3.7.2.0data status	okinstallation	princeton_trtdifferential loss correction	single-endedforward channel	channel 1reverse channel	N/Adate	2019/09/14time	10:14:35forward acquisition time	60.00reverse acquisition time	0.00gamma	496.2192k internal	0.2310k external	0.2310temperature offset calibration	1.0070default loss term (dB/km)	0.3790temperature slope calibration	1.0000multiplexer offset coefficient	1.0000multiplexer slope coefficient	1.0000fibre end	0.00T internal ref (°C)	33.89T ext. ref 1 (°C)	4.11T ext. ref 2 (°C)	32.53length (m)	temperature (°C)	Stokes	anti-Stokes-747.200	-53.051	-0.153	0.071
-746.185	132.423	-0.161	0.211
-745.171	56.704	0.331	0.327
-744.156	-53.852	-0.443	0.205
-743.142	-200.000	0.037	-0.187
-742.127	40.688	0.294	0.269
-741.112	192.572	0.188	-0.287
-740.098	800.000	-0.062	-0.181
-739.083	150.655	0.188	-0.259
-738.069	771.589	-0.007	0.019
-737.054	37.147	0.191	0.172
-736.039	-107.819	-0.488	0.108
-735.025	-143.114	-0.028	-0.003
-734.010	-65.486	-0.429	-0.175
-732.996	-100.300	-0.225	-0.057
-731.981	-76.781	0.073	0.026
-730.966	-93.663	0.241	0.067
-729.952	-20.323	-0.182	0.113
-728.937	-67.659	-0.303	-0.121
-727.923	-82.624	-0.241	0.079
-726.908	-200.000	0.035	0.188
-725.894	-89.769	0.073	0.022
-724.879	800.000	-0.068	0.269
-723.864	11.512	-0.545	-0.424
-722.850	307.972	0.068	0.128
-721.835	91.074	-0.155	-0.176
-720.821	426.918	-0.094	-0.205
-719.806	-200.000	-0.034	-0.156
-718.791	-100.238	-0.248	-0.062
-717.777	109.540	0.104	0.126
-716.762	245.309	0.095	-0.162
-715.748	-49.943	-0.216	0.104
-714.733	-200.000	0.023	0.301
-713.718	-117.997	-0.283	0.051
-712.704	-48.162	0.041	0.020
-711.689	179.555	-0.366	-0.544
-710.675	-14.734	-0.177	-0.115
-709.660	57.329	0.101	-0.100
-708.645	-119.998	-0.172	0.030
-707.631	-19.946	-0.177	-0.111
-706.616	488.583	-0.053	-0.124
-705.602	-200.000	-0.011	-0.243
-704.587	800.000	-0.141	-0.485
-703.572	-200.000	0.037	-0.226
-702.558	-200.000	0.155	-0.001
-701.543	522.751	-0.112	-0.267
-700.529	-200.000	0.035	-0.156
-699.514	-85.449	0.122	0.039
-698.499	-130.734	0.121	0.016
-697.485	198.575	0.127	0.197
-696.470	190.784	-0.182	-0.278
-695.456	-200.000	0.008	-0.100
-694.441	-200.000	-0.018	-0.213
-693.426	29.390	-0.123	0.106
-692.412	-200.000	0.321	-0.001
-691.397	76.822	0.134	0.144
-690.383	-65.829	-0.188	0.076
-689.368	-157.030	0.215	0.013
-688.354	19.895	-0.145	0.119
-687.339	-200.000	-0.079	-0.406
-686.324	41.568	0.139	-0.127
-685.310	47.357	-0.186	-0.176
-684.295	-139.604	0.143	-0.015
-683.281	-99.480	-0.238	0.061
-682.266	-102.885	-0.267	0.064
-681.251	-50.971	-0.173	0.082
-680.237	432.906	-0.132	-0.289
-679.222	-200.000	0.033	-0.266
-678.208	-137.999	-0.277	-0.031
-677.193	-67.982	0.125	0.049
-676.178	192.398	0.075	0.114
-675.164	304.489	-0.053	-0.100
-674.149	-200.000	0.060	-0.289
-673.135	-200.000	-0.005	-0.131
-672.120	-47.965	0.109	-0.054
-671.105	-178.146	-0.184	0.004
-670.091	-200.000	0.021	-0.140
-669.076	208.264	-0.037	0.059
-668.062	-19.851	-0.208	-0.130
-667.047	-76.470	-0.360	0.128
-666.032	-7.768	-0.162	-0.111
-665.018	121.132	0.273	0.345
-664.003	297.740	0.144	-0.268
-662.989	-54.635	-0.348	0.159
-661.974	-34.784	-0.150	-0.083
-660.959	-200.000	0.019	-0.132
-659.945	-42.345	-0.373	-0.193
-658.930	60.246	0.190	0.190
-657.916	-24.523	-0.187	0.113
-656.901	3.175	0.040	0.030
-655.886	7.437	0.186	0.141
-654.872	-200.000	0.049	0.332
-653.857	34.212	0.167	0.147
-652.843	800.000	0.078	-0.262
-651.828	-50.273	0.268	-0.128
-650.814	-200.000	0.035	-0.316
-649.799	-113.696	0.004	-0.001
-648.784	38.284	-0.093	0.084
-647.770	800.000	-0.067	-0.211
-646.755	-200.000	-0.079	-0.385
-645.741	379.028	0.078	-0.162
-644.726	-108.311	-0.100	-0.022
-643.711	-200.000	0.005	0.149
-642.697	-178.398	-0.262	0.006
-641.682	129.827	-0.136	-0.176
-640.668	-200.000	-0.003	-0.122
-639.653	-88.759	0.216	-0.065
-638.638	128.413	-0.109	-0.140
-637.624	800.000	0.067	0.229
-636.609	-13.584	0.251	-0.164
-635.595	-187.118	0.448	0.006
-634.580	39.582	-0.202	0.183
-633.565	800.000	0.057	-0.249
-632.551	40.206	0.315	-0.287
-631.536	93.248	-0.081	-0.093
-630.522	107.953	-0.159	-0.192
-629.507	-200.000	-0.025	0.435
-628.492	126.632	-0.158	0.202
-627.478	587.700	0.128	-0.318
-626.463	-200.000	0.048	-0.316
-625.449	762.418	-0.111	-0.304
-624.434	-90.450	-0.261	0.076
-623.419	60.115	-0.093	-0.093
-622.405	209.423	0.010	0.015
-621.390	488.443	0.062	0.144
-620.376	56.710	-0.176	0.173
-619.361	-43.786	0.226	-0.115
-618.346	120.561	-0.156	-0.196
-617.332	135.617	-0.186	0.245
-616.317	-176.933	0.526	-0.013
-615.303	-200.000	-0.024	0.151
-614.288	-200.000	0.040	-0.397
-613.273	201.972	-0.116	0.181
-612.259	-156.839	-0.235	-0.015
-611.244	800.000	-0.104	-0.390
-610.230	800.000	0.068	-0.255
-609.215	269.164	0.172	-0.305
-608.201	75.896	-0.045	0.048
-607.186	45.814	-0.179	-0.167
-606.171	630.067	0.061	-0.155
-605.157	-34.625	0.133	0.073
-604.142	-27.971	-0.188	-0.110
-603.128	300.021	-0.112	-0.208
-602.113	-200.000	0.011	0.117
-601.098	-142.234	0.043	0.004
-600.084	800.000	-0.010	-0.032
-599.069	144.129	-0.224	0.302
-598.055	-143.901	0.298	-0.028
-597.040	0.820	0.096	0.070
-596.025	390.086	0.233	0.489
-595.011	-200.000	0.013	0.106
-593.996	800.000	0.010	-0.035
-592.982	-3.667	-0.302	-0.212
-591.967	800.000	-0.069	0.297
-590.952	-200.000	0.016	-0.179
-589.938	-200.000	0.038	-0.250
-588.923	-200.000	-0.044	0.341
-587.909	-78.274	-0.605	-0.210
-586.894	-102.346	-0.370	-0.089
-585.879	152.535	-0.137	0.190
-584.865	142.714	-0.121	-0.162
-583.850	22.117	-0.201	-0.166
-582.836	260.925	-0.118	-0.206
-581.821	-167.421	0.265	-0.011
-580.806	49.350	0.219	-0.208
-579.792	-138.298	0.124	0.014
-578.777	-41.671	-0.259	-0.134
-577.763	-15.412	-0.108	0.070
-576.748	800.000	-0.088	-0.252
-575.733	249.737	0.150	-0.257
-574.719	-111.905	-0.195	-0.040
-573.704	64.154	-0.201	-0.204
-572.690	800.000	-0.051	-0.202
-571.675	-108.670	0.168	0.036
-570.661	-156.952	-0.110	0.007
-569.646	-159.156	-0.069	0.004
-568.631	-102.930	0.124	0.030
-567.617	800.000	-0.104	-0.396
-566.602	292.537	-0.122	-0.224
-565.588	-200.000	0.010	-0.200
-564.573	-63.703	-0.063	0.026
-563.558	-30.265	-0.388	0.222
-562.544	186.369	-0.058	0.087
-561.529	324.268	-0.151	0.291
-560.515	-44.092	-0.271	0.137
-559.500	-33.543	-0.404	0.225
-558.485	336.185	-0.073	-0.142
-557.471	-200.000	0.051	-0.396
-556.456	-46.068	0.157	-0.078
-555.442	-200.000	0.150	0.001
-554.427	-200.000	-0.007	-0.121
-553.412	-200.000	-0.031	0.187
-552.398	-42.188	0.182	0.094
-551.383	-200.000	0.383	-0.002
-550.369	-151.354	-0.121	-0.009
-549.354	800.000	0.041	0.137
-548.339	266.143	-0.067	0.118
-547.325	-37.290	0.139	-0.075
-546.310	283.386	0.114	0.206
-545.296	-70.978	-0.147	0.056
-544.281	-193.027	-0.118	-0.001
-543.266	56.567	-0.093	-0.091
-542.252	800.000	-0.065	0.231
-541.237	-159.929	0.200	-0.011
-540.223	-159.380	-0.288	-0.016
-539.208	800.000	-0.055	0.161
-538.193	-133.149	0.372	0.047
-537.179	800.000	0.057	-0.174
-536.164	181.956	-0.205	-0.304
-535.150	800.000	-0.074	-0.270
-534.135	-60.116	0.147	0.063
-533.121	198.876	0.220	0.339
-532.106	54.124	-0.180	0.175
-531.091	-200.000	-0.048	0.221
-530.077	26.669	-0.192	0.162
-529.062	333.244	0.091	0.177
-528.048	-106.668	-0.206	0.046
-527.033	-200.000	0.057	0.270
-526.018	-200.000	-0.010	-0.098
-525.004	-70.307	-0.383	-0.146
-523.989	30.561	0.058	-0.050
-522.975	-7.415	0.298	0.203
-521.960	-35.426	-0.260	0.142
-520.945	265.604	0.143	0.252
-519.931	-65.826	-0.114	0.046
-518.916	-19.054	0.232	0.145
-517.902	308.045	-0.085	-0.160
-516.887	-137.355	-0.166	0.019
-515.872	-150.517	0.315	0.024
-514.858	-13.679	0.091	-0.060
-513.843	800.000	-0.079	0.326
-512.829	7.663	-0.190	0.143
-511.814	-200.000	-0.013	-0.189
-510.799	-80.059	0.391	-0.132
-509.785	-25.047	0.124	-0.074
-508.770	-200.000	-0.022	-0.233
-507.756	-200.000	-0.012	-0.213
-506.741	198.794	-0.279	-0.429
-505.726	198.553	0.155	0.238
-504.712	145.119	-0.056	0.076
-503.697	800.000	-0.028	-0.078
-502.683	-10.320	-0.211	-0.141
-501.668	-7.325	0.225	0.153
-500.653	800.000	0.142	0.458
-499.639	-159.916	-0.053	0.003
-498.624	747.396	-0.012	-0.032
-497.610	-112.258	0.326	-0.066
-496.595	112.090	-0.077	-0.093
-495.581	-200.000	0.003	0.064
-494.566	217.666	0.151	0.241
-493.551	100.336	0.088	-0.103
-492.537	-133.201	0.393	0.050
-491.522	208.415	-0.135	-0.212
-490.508	-56.731	-0.118	-0.053
-489.493	-6.947	0.238	0.163
-488.478	800.000	-0.074	-0.270
-487.464	-200.000	0.004	0.072
-486.449	800.000	-0.050	0.211
-485.435	98.693	0.191	0.221
-484.420	-200.000	-0.017	-0.114
-483.405	459.809	-0.111	-0.249
-482.391	-82.090	0.377	0.124
-481.376	800.000	-0.046	0.202
-480.362	-9.315	0.087	0.059
-479.347	45.978	-0.021	0.020
-478.332	303.583	-0.082	-0.154
-477.318	-79.873	-0.117	-0.040
-476.303	-85.379	0.323	0.101
-475.289	-7.262	0.116	-0.079
-474.274	-17.335	0.231	-0.146
-473.259	-96.462	0.292	0.078
-472.245	-81.256	-0.176	0.059
-471.230	157.053	0.044	0.061
-470.216	-29.562	0.205	0.118
-469.201	800.000	0.059	-0.257
-468.186	-52.936	-0.390	0.180
-467.172	-11.256	0.268	0.177
-466.157	148.068	-0.067	0.090
-465.143	-129.350	0.292	0.041
-464.128	-125.902	0.379	0.057
-463.113	86.314	-0.195	0.215
-462.099	-132.185	-0.521	-0.068
-461.084	-48.775	-0.133	-0.064
-460.070	-43.149	-0.341	0.173
-459.055	-200.000	0.035	-0.232
-458.040	116.741	0.039	0.048
-457.026	-200.000	0.032	0.151
-456.011	471.139	0.130	0.293
-454.997	-200.000	-0.012	-0.205
-453.982	-42.990	-0.370	-0.188
-452.968	231.946	-0.127	0.209
-451.953	117.985	0.202	0.250
-450.938	-78.094	-0.214	-0.074
-449.924	44.950	0.052	0.048
-448.909	74.351	0.251	0.264
-447.895	-88.247	0.243	0.073
-446.880	-97.959	-0.131	0.034
-445.865	-200.000	-0.025	-0.286
-444.851	671.035	0.039	-0.102
-443.836	-191.438	0.211	-0.002
-442.822	36.476	-0.205	-0.182
-441.807	778.241	-0.083	-0.228
-440.792	-77.949	0.114	-0.039
-439.778	-189.743	-0.305	0.004
-438.763	-152.984	0.183	-0.013
-437.749	-77.870	-0.053	0.018
-436.734	-187.033	0.184	-0.003
-435.719	-81.477	0.313	-0.103
-434.705	81.782	-0.204	-0.221
-433.690	85.944	-0.030	0.033
-432.676	35.185	-0.133	-0.117
-431.661	-109.494	-0.289	0.061
-430.646	217.347	0.074	-0.118
-429.632	-200.000	0.033	0.349
-428.617	-192.367	0.615	-0.006
-427.603	-27.986	-0.191	-0.111
-426.588	800.000	-0.050	-0.203
-425.573	-200.000	0.003	-0.014
-424.559	317.099	0.096	0.183
-423.544	-171.059	0.674	0.023
-422.530	-45.191	-0.278	-0.139
-421.515	-28.952	0.188	0.108
-420.500	-165.085	0.154	-0.007
-419.486	79.151	0.147	0.158
-418.471	-100.705	-0.207	0.051
-417.457	-57.972	-0.416	0.182
-416.442	-53.626	0.193	-0.089
-415.428	-200.000	0.020	0.146
-414.413	-200.000	-0.002	0.155
-413.398	399.518	-0.136	0.285
-412.384	800.000	-0.058	-0.235
-411.369	156.745	-0.131	-0.181
-410.355	58.543	-0.097	-0.095
-409.340	32.419	0.086	-0.074
-408.325	176.847	0.103	-0.150
-407.311	233.689	0.085	0.140
-406.296	-46.963	-0.351	-0.172
-405.282	85.963	0.089	0.098
-404.267	181.804	0.337	0.497
-403.252	-22.834	0.071	-0.043
-402.238	77.090	-0.251	-0.267
-401.223	283.318	0.075	-0.135
-400.209	255.909	0.090	-0.154
-399.194	-95.016	-0.016	-0.004
-398.179	37.529	0.149	0.132
-397.165	191.288	0.187	-0.281
-396.150	-200.000	-0.000	-0.153
-395.136	336.743	-0.109	0.213
-394.121	-19.462	0.216	-0.134
-393.106	-80.916	-0.315	-0.105
-392.092	-7.374	0.177	-0.120
-391.077	119.301	0.190	0.235
-390.063	206.242	0.045	-0.070
-389.048	764.420	-0.046	-0.124
-388.033	-62.043	-0.098	-0.041
-387.019	-200.000	-0.021	-0.135
-386.004	-61.983	0.257	0.108
-384.990	757.855	0.013	0.035
-383.975	-200.000	-0.003	-0.062
-382.960	173.196	0.054	0.078
-381.946	800.000	-0.097	0.390
-380.931	-200.000	-0.024	0.249
-379.917	-52.368	-0.462	-0.214
-378.902	47.802	0.290	0.271
-377.888	-200.000	-0.018	0.177
-376.873	-122.217	-0.219	-0.036
-375.858	449.889	-0.176	-0.388
-374.844	209.106	-0.013	-0.021
-373.829	800.000	0.062	-0.206
-372.815	-16.778	0.100	-0.063
-371.800	644.768	-0.045	0.116
-370.785	341.194	-0.100	-0.196
-369.771	180.950	0.158	-0.233
-368.756	-72.969	0.192	-0.071
-367.742	-95.831	0.289	0.077
-366.727	-107.915	-0.108	0.024
-365.712	43.771	-0.214	0.196
-364.698	-200.000	0.012	-0.236
-363.683	-15.788	0.219	-0.140
-362.669	-118.830	-0.202	0.036
-361.654	-40.802	-0.469	-0.243
-360.639	-200.000	-0.002	-0.064
-359.625	-138.152	0.195	0.022
-358.610	198.685	0.082	0.126
-357.596	-18.880	-0.156	0.097
-356.581	522.354	0.106	-0.249
-355.566	-77.344	0.136	-0.047
-354.552	89.251	0.178	0.199
-353.537	240.006	-0.115	-0.191
-352.523	148.083	0.039	-0.053
-351.508	48.402	0.052	0.049
-350.493	118.830	0.073	0.090
-349.479	800.000	0.028	-0.112
-348.464	157.670	0.205	-0.284
-347.450	309.752	-0.166	-0.310
-346.435	-200.000	-0.001	0.175
-345.420	637.501	-0.081	0.205
-344.406	-30.267	0.229	0.130
-343.391	554.030	-0.044	-0.105
-342.377	800.000	-0.012	0.044
-341.362	-200.000	0.036	0.190
-340.348	0.778	0.080	0.057
-339.333	800.000	-0.022	-0.073
-338.318	-86.421	-0.093	0.028
-337.304	-40.271	0.146	0.076
-336.289	588.933	0.068	-0.167
-335.275	-89.938	0.136	0.040
-334.260	116.643	0.021	0.025
-333.245	-117.349	-0.075	0.014
-332.231	312.208	0.088	0.165
-331.216	446.679	-0.057	0.126
-330.202	-200.000	0.045	0.226
-329.187	800.000	0.084	0.236
-328.172	-95.488	-0.334	-0.089
-327.158	-200.000	0.010	0.053
-326.143	800.000	-0.028	-0.095
-325.129	-141.993	0.244	0.024
-324.114	-188.498	-0.102	0.001
-323.099	521.878	0.080	-0.187
-322.085	523.407	-0.017	0.040
-321.070	-200.000	0.038	0.250
-320.056	-200.000	-0.062	0.447
-319.041	-200.000	-0.009	0.329
-318.026	-117.300	0.097	-0.018
-317.012	-147.723	-0.342	0.029
-315.997	-100.303	-0.166	0.041
-314.983	-146.620	0.360	-0.031
-313.968	-49.953	-0.188	0.089
-312.953	449.161	-0.082	0.181
-311.939	-90.852	0.204	-0.059
-310.924	800.000	-0.054	-0.236
-309.910	173.848	0.284	-0.409
-308.895	270.897	-0.076	-0.133
-307.880	53.829	0.208	0.200
-306.866	-42.354	-0.239	-0.122
-305.851	406.679	0.051	-0.107
-304.837	-8.550	-0.169	-0.113
-303.822	101.921	-0.197	0.229
-302.807	-200.000	0.064	0.373
-301.793	-200.000	0.029	0.256
-300.778	637.330	0.121	0.306
-299.764	-31.760	-0.287	-0.160
-298.749	728.471	0.108	0.287
-297.735	-56.888	-0.085	-0.038
-296.720	-90.569	-0.150	-0.043
-295.705	800.000	0.055	-0.169
-294.691	-170.108	0.389	0.014
-293.676	-24.422	-0.202	-0.120
-292.662	-13.913	-0.248	0.160
-291.647	800.000	-0.015	-0.047
-290.632	800.000	-0.171	-0.507
-289.618	-156.065	-0.224	-0.014
-288.603	-200.000	0.024	0.217
-287.589	-81.848	0.295	-0.096
-286.574	-64.211	0.034	0.014
-285.559	151.032	-0.139	-0.189
-284.545	-200.000	0.000	0.251
-283.530	-171.865	0.125	-0.004
-282.516	45.672	0.084	0.078
-281.501	56.103	0.148	-0.143
-280.486	-48.712	0.273	0.131
-279.472	-200.000	0.020	-0.243
-278.457	702.848	-0.016	0.041
-277.443	-21.098	-0.093	0.056
-276.428	800.000	-0.069	-0.225
-275.413	-169.805	0.139	0.005
-274.399	43.573	0.132	0.120
-273.384	-23.120	-0.040	0.024
-272.370	376.387	-0.059	-0.119
-271.355	474.168	0.055	0.124
-270.340	64.831	0.167	-0.168
-269.326	376.681	-0.201	0.410
-268.311	-200.000	-0.015	0.326
-267.297	-67.139	-0.204	-0.080
-266.282	683.144	-0.096	0.249
-265.267	215.805	0.045	0.072
-264.253	-157.383	0.306	0.018
-263.238	-63.113	-0.251	-0.103
-262.224	195.949	0.136	-0.206
-261.209	-40.233	0.282	0.146
-260.195	-197.227	0.285	-0.002
-259.180	800.000	0.032	-0.122
-258.165	58.710	0.134	-0.131
-257.151	-17.570	-0.197	-0.123
-256.136	452.561	-0.107	-0.236
-255.122	-0.134	0.077	-0.054
-254.107	86.436	-0.148	0.163
-253.092	-200.000	-0.021	-0.150
-252.078	800.000	-0.029	-0.099
-251.063	99.444	0.082	-0.095
-250.049	10.705	-0.036	-0.027
-249.034	61.588	-0.321	0.318
-248.019	519.672	-0.038	0.089
-247.005	-42.329	-0.210	-0.107
-245.990	-7.911	-0.111	0.075
-244.976	800.000	-0.047	-0.141
-243.961	-108.490	0.223	0.048
-242.946	25.036	0.106	-0.087
-241.932	-2.006	0.173	0.121
-240.917	703.784	-0.057	0.151
-239.903	61.617	-0.161	0.159
-238.888	436.105	-0.076	0.165
-237.873	535.814	0.084	0.199
-236.859	-89.757	-0.314	0.092
-235.844	-19.479	-0.335	-0.207
-234.830	138.988	-0.103	0.134
-233.815	288.041	0.065	-0.116
-232.800	36.139	0.279	-0.245
-231.786	65.457	-0.131	-0.132
-230.771	-57.757	-0.218	-0.095
-229.757	369.254	-0.029	-0.058
-228.742	-82.640	0.104	-0.033
-227.727	-103.898	-0.286	0.066
-226.713	800.000	-0.080	-0.307
-225.698	24.168	-0.134	-0.110
-224.684	116.972	-0.099	0.121
-223.669	43.861	0.180	0.164
-222.655	155.496	-0.234	0.321
-221.640	72.077	0.316	-0.327
-220.625	95.997	0.180	-0.205
-219.611	355.987	0.099	0.197
-218.596	32.459	-0.165	0.142
-217.582	118.852	-0.168	0.207
-216.567	-88.779	0.459	0.136
-215.552	9.009	0.245	-0.184
-214.538	-127.639	0.501	-0.072
-213.523	-31.823	-0.265	0.148
-212.509	800.000	0.023	-0.096
-211.494	-171.042	-0.229	-0.008
-210.479	28.196	-0.172	-0.144
-209.465	-57.021	0.581	0.255
-208.450	-136.602	-0.181	0.021
-207.436	-30.313	-0.094	0.053
-206.421	-148.883	0.472	0.038
-205.406	-200.000	-0.070	-0.352
-204.392	-200.000	-0.027	-0.150
-203.377	132.549	0.257	0.329
-202.363	209.863	-0.097	0.151
-201.348	671.530	-0.039	0.100
-200.333	800.000	-0.062	0.180
-199.319	-134.718	-0.131	0.016
-198.304	-129.248	-0.135	0.019
-197.290	142.743	0.134	0.177
-196.275	305.026	0.021	0.039
-195.260	-200.000	0.069	0.354
-194.246	-43.303	0.108	0.054
-193.231	262.873	-0.028	0.049
-192.217	-95.715	0.282	0.075
-191.202	11.522	0.246	-0.187
-190.187	-167.743	-0.142	0.006
-189.173	271.488	0.065	0.114
-188.158	28.205	0.191	0.160
-187.144	-177.702	-0.141	0.003
-186.129	-34.727	0.317	-0.172
-185.114	-177.558	0.472	-0.011
-184.100	-200.000	0.008	0.160
-183.085	124.461	0.077	-0.096
-182.071	-38.696	0.082	0.043
-181.056	-200.000	0.012	0.160
-180.042	800.000	-0.084	-0.235
-179.027	169.888	-0.116	0.164
-178.012	189.092	-0.056	0.083
-176.998	340.370	-0.095	0.185
-175.983	800.000	0.113	-0.492
-174.969	-200.000	-0.018	-0.251
-173.954	-102.739	0.138	0.033
-172.939	26.313	-0.273	0.226
-171.925	451.588	0.034	-0.074
-170.910	-47.978	-0.110	0.053
-169.896	9.059	-0.510	-0.382
-168.881	23.475	-0.187	-0.153
-167.866	0.391	0.243	0.172
-166.852	-200.000	0.040	0.323
-165.837	-49.474	0.235	0.111
-164.823	-80.970	-0.350	-0.115
-163.808	503.661	0.114	-0.261
-162.793	40.748	0.244	0.218
-161.779	800.000	-0.046	0.134
-160.764	-112.262	-0.237	0.047
-159.750	-57.629	-0.308	-0.134
-158.735	47.159	0.050	0.046
-157.720	525.961	-0.154	0.361
-156.706	122.529	0.132	-0.163
-155.691	-81.357	-0.032	0.010
-154.677	800.000	-0.048	0.166
-153.662	-200.000	0.028	-0.138
-152.647	-125.947	-0.390	0.058
-151.633	-200.000	0.010	0.062
-150.618	-74.097	0.262	-0.094
-149.604	-200.000	-0.019	0.283
-148.589	11.330	0.064	-0.049
-147.574	16.173	-0.087	-0.068
-146.560	-125.331	0.301	-0.046
-145.545	-200.000	0.079	-0.416
-144.531	-7.058	-0.288	0.194
-143.516	-113.347	0.069	0.013
-142.502	-162.570	-0.157	0.008
-141.487	0.755	0.138	0.098
-140.472	800.000	0.024	0.100
-139.458	-46.677	-0.236	-0.115
-138.443	-42.050	-0.360	0.183
-137.429	-169.539	0.145	-0.005
-136.414	-200.000	-0.007	0.298
-135.399	-57.275	-0.196	0.086
-134.385	222.754	-0.199	-0.318
-133.370	-92.246	0.134	0.037
-132.356	-61.702	0.058	0.024
-131.341	172.795	-0.180	-0.258
-130.326	-200.000	0.006	0.064
-129.312	800.000	-0.057	0.157
-128.297	105.658	0.018	0.021
-127.283	-17.658	-0.196	-0.122
-126.268	70.479	-0.078	0.080
-125.253	419.476	-0.040	-0.085
-124.239	-112.100	0.058	0.012
-123.224	-54.753	-0.251	-0.112
-122.210	-56.765	0.487	0.213
-121.195	-195.679	-0.194	-0.001
