DTS Sentinel unit serial number:	SN413079Multiplexer serial number:	ORYXHardware model number:	OX4-SRSoftware version number:	ORYX F/W v4.00 Oryx Data Collector v3.7.2.0data status	okinstallation	princeton_trtdifferential loss correction	single-endedforward channel	channel 1reverse channel	N/Adate	2019/09/15time	03:14:35forward acquisition time	60.00reverse acquisition time	0.00gamma	496.2192k internal	0.2324k external	0.2324temperature offset calibration	0.9987default loss term (dB/km)	0.3790temperature slope calibration	1.0000multiplexer offset coefficient	1.0000multiplexer slope coefficient	1.0000fibre end	0.00T internal ref (°C)	31.12T ext. ref 1 (°C)	4.59T ext. ref 2 (°C)	25.72length (m)	temperature (°C)	Stokes	anti-Stokes-747.200	234.214	0.130	-0.217
-746.185	-35.691	-0.049	-0.027
-745.171	288.701	0.097	0.177
-744.156	-90.571	-0.221	0.065
-743.142	-200.000	-0.001	-0.154
-742.127	-200.000	-0.015	0.304
-741.112	-144.282	-0.128	0.012
-740.098	69.908	0.068	0.071
-739.083	-74.804	0.025	0.009
-738.069	95.368	-0.112	-0.129
-737.054	800.000	0.056	0.230
-736.039	-59.955	-0.126	0.055
-735.025	17.175	0.187	0.150
-734.010	-200.000	-0.042	0.249
-732.996	-28.335	-0.208	0.121
-731.981	19.526	0.263	-0.213
-730.966	-31.801	0.113	0.064
-729.952	-147.038	-0.157	0.014
-728.937	-108.612	-0.133	-0.029
-727.923	250.939	0.123	0.211
-726.908	-93.010	-0.284	0.080
-725.894	238.641	-0.098	-0.164
-724.879	-200.000	-0.046	0.327
-723.864	-52.671	0.340	-0.158
-722.850	800.000	-0.045	-0.176
-721.835	800.000	-0.074	0.235
-720.821	-42.629	0.255	-0.131
-719.806	-200.000	-0.041	0.305
-718.791	148.517	-0.300	-0.408
-717.777	64.796	-0.061	-0.062
-716.762	-110.139	-0.188	0.040
-715.748	-200.000	-0.041	-0.508
-714.733	-79.690	-0.092	0.031
-713.718	-62.299	0.107	-0.045
-712.704	-103.738	0.186	0.044
-711.689	207.718	0.074	-0.117
-710.675	80.655	-0.240	-0.261
-709.660	-200.000	-0.005	-0.059
-708.645	-200.000	0.011	0.063
-707.631	-154.130	-0.304	-0.021
-706.616	700.646	-0.063	0.166
-705.602	-74.797	0.175	0.063
-704.587	-87.846	0.176	-0.053
-703.572	-155.873	-0.236	0.015
-702.558	-135.889	0.255	-0.030
-701.543	-113.747	0.362	0.071
-700.529	-200.000	-0.070	0.360
-699.514	12.816	0.308	-0.240
-698.499	377.290	-0.198	-0.408
-697.485	-200.000	0.067	-0.363
-696.470	-200.000	0.015	-0.190
-695.456	-200.000	-0.014	-0.298
-694.441	43.342	0.188	0.173
-693.426	-200.000	-0.009	-0.157
-692.412	-200.000	-0.030	-0.468
-691.397	57.490	-0.180	0.177
-690.383	-26.407	0.206	0.121
-689.368	-200.000	-0.008	0.243
-688.354	800.000	-0.035	0.104
-687.339	-86.866	0.127	-0.039
-686.324	-94.719	-0.097	-0.027
-685.310	-21.204	-0.228	0.141
-684.295	-200.000	-0.029	-0.180
-683.281	223.978	0.058	-0.094
-682.266	758.131	-0.120	0.328
-681.251	-101.272	0.168	-0.041
-680.237	138.303	0.072	0.095
-679.222	26.074	-0.180	-0.151
-678.208	-44.214	0.140	0.071
-677.193	800.000	-0.039	-0.135
-676.178	53.382	0.089	-0.086
-675.164	126.900	0.172	-0.220
-674.149	121.510	0.111	-0.139
-673.135	561.828	0.089	-0.218
-672.120	-200.000	-0.029	0.161
-671.105	223.001	0.268	0.435
-670.091	800.000	0.061	0.208
-669.076	-200.000	-0.012	-0.437
-668.062	-200.000	0.015	0.296
-667.047	-57.532	-0.218	-0.096
-666.032	-55.100	0.317	0.143
-665.018	511.318	-0.087	-0.203
-664.003	34.738	-0.167	0.147
-662.989	146.903	-0.139	-0.189
-661.974	-36.701	0.095	-0.051
-660.959	-200.000	0.009	0.179
-659.945	172.534	-0.181	-0.261
-658.930	-164.165	-0.162	-0.008
-657.916	19.666	-0.031	-0.025
-656.901	-200.000	0.039	-0.206
-655.886	195.274	0.048	-0.074
-654.872	-200.000	0.042	-0.499
-653.857	-200.000	-0.065	-0.287
-652.843	-68.541	-0.208	0.081
-651.828	-150.646	0.180	-0.014
-650.814	682.221	-0.098	-0.258
-649.799	145.364	0.128	0.173
-648.784	-200.000	0.003	-0.065
-647.770	756.163	0.053	-0.144
-646.755	38.842	-0.150	0.135
-645.741	-115.264	0.098	0.019
-644.726	395.034	0.185	0.388
-643.711	800.000	-0.022	-0.090
-642.697	-55.108	-0.311	-0.141
-641.682	125.982	0.038	0.048
-640.668	187.130	-0.123	-0.185
-639.653	9.334	0.232	-0.177
-638.638	-25.579	0.159	-0.094
-637.624	-83.290	0.299	-0.096
-636.609	-104.286	0.215	0.050
-635.595	-200.000	0.036	0.286
-634.580	533.158	-0.014	-0.032
-633.565	-123.510	-0.216	-0.035
-632.551	187.593	0.145	0.217
-631.536	507.946	-0.104	0.243
-630.522	82.372	-0.109	-0.119
-629.507	22.663	0.377	0.310
-628.492	800.000	0.086	0.245
-627.478	-62.190	0.122	-0.051
-626.463	273.965	-0.074	-0.131
-625.449	-200.000	0.000	-0.107
-624.434	-160.127	0.180	0.010
-623.419	-200.000	-0.006	0.138
-622.405	-200.000	0.005	-0.103
-621.390	-27.783	-0.032	0.019
-620.376	107.904	-0.124	0.149
-619.361	-137.161	-0.262	-0.030
-618.346	179.854	-0.026	-0.039
-617.332	153.129	-0.182	0.250
-616.317	-127.276	-0.271	0.040
-615.303	0.350	0.168	-0.120
-614.288	-163.053	0.406	-0.020
-613.273	-45.814	-0.188	0.093
-612.259	99.834	-0.079	-0.092
-611.244	800.000	0.033	-0.097
-610.230	199.772	0.186	-0.286
-609.215	-176.555	-0.173	0.004
-608.201	4.437	-0.061	-0.045
-607.186	90.277	-0.146	-0.164
-606.171	295.871	0.089	-0.163
-605.157	241.402	-0.215	-0.361
-604.142	487.038	0.125	-0.286
-603.128	-73.095	0.401	0.148
-602.113	-94.868	-0.090	0.025
-601.098	-125.968	0.254	0.038
-600.084	13.108	-0.055	0.043
-599.069	-130.720	-0.189	0.026
-598.055	418.508	-0.006	-0.013
-597.040	800.000	0.049	-0.147
-596.025	111.417	-0.153	-0.185
-595.011	214.597	-0.101	-0.161
-593.996	567.898	-0.120	-0.292
-592.982	-200.000	0.079	-0.392
-591.967	503.196	0.126	-0.291
-590.952	-83.401	0.149	-0.048
-589.938	800.000	-0.031	-0.112
-588.923	450.704	-0.079	-0.175
-587.909	-13.932	0.167	0.108
-586.894	-56.222	-0.104	-0.046
-585.879	20.857	0.097	-0.079
-584.865	-31.485	-0.321	0.181
-583.850	17.254	-0.222	-0.177
-582.836	69.629	0.112	0.116
-581.821	191.208	-0.101	-0.152
-580.806	-74.883	0.345	-0.124
-579.792	800.000	-0.047	-0.188
-578.777	-112.088	0.296	-0.060
-577.763	-81.693	0.346	0.114
-576.748	293.660	-0.104	0.190
-575.733	-200.000	0.022	0.290
-574.719	11.988	-0.296	-0.228
-573.704	85.807	-0.206	-0.227
-572.690	10.761	0.133	-0.102
-571.675	-98.457	-0.213	-0.055
-570.661	-200.000	0.043	0.189
-569.646	-200.000	-0.002	0.137
-568.631	53.435	0.367	0.353
-567.617	-45.432	0.245	-0.122
-566.602	56.575	-0.277	-0.270
-565.588	-200.000	-0.021	0.210
-564.573	67.098	-0.246	-0.251
-563.558	-200.000	0.003	-0.027
-562.544	-116.191	0.250	0.046
-561.529	-132.604	-0.235	-0.030
-560.515	408.824	-0.086	-0.183
-559.500	-38.759	-0.210	0.111
-558.485	-74.560	0.253	-0.091
-557.471	800.000	0.027	0.093
-556.456	-200.000	-0.004	0.202
-555.442	-113.769	-0.376	0.073
-554.427	225.958	-0.131	-0.213
-553.412	74.183	0.261	-0.274
-552.398	10.381	-0.163	0.124
-551.383	134.465	-0.278	0.361
-550.369	-12.715	0.198	0.129
-549.354	800.000	-0.011	0.036
-548.339	-200.000	0.048	0.235
-547.325	-144.012	0.127	-0.012
-546.310	-19.024	0.046	0.028
-545.296	800.000	-0.079	-0.243
-544.281	-200.000	0.084	-0.401
-543.266	482.911	0.199	-0.452
-542.252	-158.959	-0.410	0.023
-541.237	349.052	0.100	0.197
-540.223	217.065	0.120	-0.192
-539.208	-119.487	-0.089	-0.015
-538.193	258.690	-0.289	0.498
-537.179	-200.000	0.015	-0.151
-536.164	-200.000	0.057	0.346
-535.150	-89.050	-0.329	0.097
-534.135	-67.509	-0.135	-0.053
-533.121	-200.000	0.001	-0.005
-532.106	287.260	-0.178	0.322
-531.091	93.234	0.042	0.048
-530.077	-94.307	0.405	0.111
-529.062	-200.000	-0.019	0.372
-528.048	46.670	0.263	-0.244
-527.033	800.000	-0.023	0.069
-526.018	-191.847	-0.123	0.001
-525.004	82.749	0.107	-0.117
-523.989	800.000	0.051	-0.196
-522.975	-120.274	0.148	-0.025
-521.960	-27.857	-0.139	-0.081
-520.945	289.133	-0.160	0.289
-519.931	-6.747	0.173	-0.118
-518.916	82.936	-0.128	-0.140
-517.902	-159.019	0.183	-0.010
-516.887	-200.000	0.018	0.264
-515.872	-200.000	0.052	0.278
-514.858	64.062	0.077	-0.078
-513.843	-77.360	-0.231	-0.080
-512.829	112.743	0.367	0.445
-511.814	199.640	-0.077	0.118
-510.799	800.000	-0.062	-0.221
-509.785	161.904	-0.089	-0.124
-508.770	-200.000	0.006	-0.031
-507.756	343.713	-0.106	-0.209
-506.741	800.000	-0.074	-0.232
-505.726	800.000	-0.005	0.016
-504.712	432.841	-0.237	0.515
-503.697	-200.000	0.056	0.348
-502.683	-113.685	-0.130	-0.025
-501.668	800.000	0.025	0.079
-500.653	-140.141	0.110	-0.012
-499.639	-84.149	0.204	0.065
-498.624	800.000	-0.051	-0.145
-497.610	276.786	0.128	-0.228
-496.595	-200.000	-0.031	-0.205
-495.581	207.041	0.042	-0.066
-494.566	-143.720	0.237	0.022
-493.551	-75.618	0.068	-0.024
-492.537	449.521	-0.126	-0.277
-491.522	800.000	0.031	0.113
-490.508	-105.545	0.253	-0.057
-489.493	-200.000	0.005	0.226
-488.478	-85.282	-0.174	0.054
-487.464	-85.500	-0.162	0.050
-486.449	-89.382	-0.319	-0.094
-485.435	-4.543	-0.096	0.067
-484.420	800.000	0.006	0.023
-483.405	-200.000	-0.008	0.147
-482.391	800.000	0.046	0.142
-481.376	-200.000	-0.093	0.475
-480.362	-200.000	-0.022	0.105
-479.347	49.491	-0.132	-0.125
-478.332	82.407	0.210	-0.228
-477.318	800.000	-0.210	-0.640
-476.303	-2.719	-0.225	0.157
-475.289	-28.266	0.214	0.123
-474.274	-79.783	0.156	0.053
-473.259	-25.429	0.013	0.007
-472.245	214.679	-0.083	0.131
-471.230	88.254	0.122	0.135
-470.216	209.463	0.030	-0.047
-469.201	-170.736	0.177	0.006
-468.186	-200.000	0.039	-0.248
-467.172	409.307	-0.038	-0.081
-466.157	-165.086	-0.456	0.020
-465.143	-171.394	-0.329	-0.011
-464.128	64.469	0.080	-0.080
-463.113	322.994	0.183	0.348
-462.099	8.970	-0.210	0.158
-461.084	33.025	-0.200	0.173
-460.070	187.493	0.085	0.127
-459.055	78.604	0.184	-0.196
-458.040	-8.646	0.240	-0.161
-457.026	-168.742	0.162	0.006
-456.011	-77.193	-0.322	-0.112
-454.997	-200.000	-0.031	0.142
-453.982	4.196	0.162	-0.119
-452.968	199.860	-0.067	0.103
-451.953	145.808	0.030	0.040
-450.938	141.656	-0.266	0.351
-449.924	-113.864	0.185	0.036
-448.909	-0.342	-0.225	-0.160
-447.895	368.353	0.140	0.283
-446.880	-67.725	-0.283	0.111
-445.865	-144.768	0.224	0.021
-444.851	800.000	-0.054	0.176
-443.836	-200.000	0.018	0.136
-442.822	800.000	0.055	0.159
-441.807	-200.000	0.006	-0.275
-440.792	-136.577	-0.134	0.015
-439.778	-200.000	-0.017	-0.382
-438.763	191.564	-0.134	-0.201
-437.749	800.000	-0.058	0.231
-436.734	-200.000	0.015	-0.095
-435.719	-200.000	-0.020	-0.291
-434.705	-138.510	0.187	0.021
-433.690	150.049	-0.213	-0.288
-432.676	199.719	-0.068	-0.104
-431.661	-42.779	-0.268	0.136
-430.646	16.526	0.175	0.138
-429.632	-88.013	-0.201	0.060
-428.617	-200.000	-0.029	0.235
-427.603	140.307	0.232	0.305
-426.588	550.886	0.067	0.160
-425.573	367.256	0.166	0.334
-424.559	104.278	-0.060	-0.070
-423.544	537.054	0.009	0.021
-422.530	-87.932	-0.249	0.075
-421.515	-123.331	-0.351	-0.056
-420.500	-200.000	0.008	0.143
-419.486	118.727	-0.095	-0.117
-418.471	-94.835	0.338	-0.091
-417.457	-67.304	0.045	-0.017
-416.442	-48.650	0.245	0.117
-415.428	-14.219	0.270	0.174
-414.413	407.261	-0.060	-0.126
-413.398	-200.000	0.045	0.216
-412.384	205.136	-0.183	0.283
-411.369	-200.000	-0.005	-0.117
-410.355	-133.297	0.248	-0.031
-409.340	25.632	-0.032	0.027
-408.325	-80.275	0.355	-0.118
-407.311	19.489	-0.205	0.164
-406.296	800.000	-0.033	0.112
-405.282	-82.886	-0.152	-0.049
-404.267	-157.314	-0.143	-0.009
-403.252	-178.107	-0.162	-0.004
-402.238	-200.000	0.007	0.467
-401.223	248.930	-0.070	-0.119
-400.209	-200.000	-0.010	-0.198
-399.194	-200.000	0.029	0.420
-398.179	-63.872	0.163	-0.066
-397.165	288.946	0.023	0.041
-396.150	-81.055	-0.058	-0.019
-395.136	138.543	0.156	0.203
-394.121	-55.338	-0.407	0.182
-393.106	79.255	-0.026	0.028
-392.092	156.775	0.038	-0.052
-391.077	-131.543	0.134	-0.018
-390.063	-139.756	-0.639	-0.068
-389.048	21.367	0.332	-0.269
-388.033	-30.386	-0.223	0.126
-387.019	100.884	-0.128	-0.148
-386.004	-200.000	0.023	0.149
-384.990	-58.923	-0.080	0.034
-383.975	40.325	-0.299	-0.268
-382.960	-90.830	-0.266	-0.076
-381.946	800.000	0.064	-0.256
-380.931	-106.683	-0.248	0.055
-379.917	-39.195	0.017	0.009
-378.902	-126.143	0.247	0.037
-377.888	-200.000	-0.002	0.100
-376.873	1.607	-0.196	0.140
-375.858	142.455	-0.050	0.066
-374.844	-200.000	0.014	-0.162
-373.829	133.155	0.121	-0.156
-372.815	398.388	0.046	0.095
-371.800	366.482	0.050	-0.101
-370.785	-71.509	0.143	0.053
-369.771	-62.309	0.187	0.078
-368.756	92.712	-0.154	-0.173
-367.742	166.822	0.078	0.110
-366.727	-25.948	0.322	0.189
-365.712	800.000	0.118	-0.326
-364.698	-133.758	-0.110	-0.014
-363.683	1.253	0.148	-0.105
-362.669	-147.774	-0.297	-0.025
-361.654	-105.261	0.328	-0.074
-360.639	-125.933	0.253	-0.038
-359.625	-81.306	0.245	0.080
-358.610	-91.905	0.210	0.059
-357.596	-200.000	-0.028	-0.145
-356.581	40.493	-0.111	0.100
-355.566	22.169	-0.160	-0.130
-354.552	-145.128	0.179	-0.016
-353.537	-39.448	0.166	0.087
-352.523	8.020	-0.266	-0.198
-351.508	800.000	0.052	-0.204
-350.493	84.832	0.164	-0.179
-349.479	119.972	0.110	-0.135
-348.464	-112.129	0.219	0.044
-347.450	476.294	0.030	0.067
-346.435	800.000	0.027	-0.117
-345.420	-189.593	0.245	-0.003
-344.406	-80.517	-0.244	-0.081
-343.391	-28.003	0.546	-0.314
-342.377	-46.089	-0.426	0.208
-341.362	-121.491	-0.255	0.042
-340.348	-21.967	0.066	-0.040
-339.333	-117.586	0.274	0.049
-338.318	-25.899	0.086	0.051
-337.304	-126.966	-0.107	-0.016
-336.289	-112.193	-0.202	-0.040
-335.275	-123.052	-0.142	-0.023
-334.260	-146.439	-0.122	0.011
-333.245	761.954	-0.088	0.237
-332.231	-44.038	-0.302	0.151
-331.216	45.976	0.251	0.231
-330.202	537.426	0.149	-0.353
-329.187	42.273	-0.165	0.148
-328.172	800.000	0.084	0.270
-327.158	-90.176	0.150	0.043
-326.143	-2.438	-0.027	0.018
-325.129	-200.000	-0.019	0.299
-324.114	696.696	-0.065	-0.170
-323.099	-87.021	0.192	0.058
-322.085	2.955	-0.142	0.103
-321.070	52.995	-0.212	-0.201
-320.056	-200.000	-0.016	0.113
-319.041	-95.626	-0.135	-0.036
-318.026	96.992	-0.100	0.113
-317.012	66.091	0.062	-0.062
-315.997	-139.132	0.327	0.035
-314.983	65.808	-0.267	0.269
-313.968	800.000	-0.099	0.311
-312.953	762.785	0.047	0.126
-311.939	602.571	-0.131	0.323
-310.924	474.423	0.045	0.101
-309.910	-133.604	0.172	0.021
-308.895	615.885	-0.119	0.296
-307.880	-66.449	0.408	0.161
-306.866	-44.925	-0.358	-0.177
-305.851	-194.400	-0.182	-0.001
-304.837	-98.198	-0.159	0.041
-303.822	-107.130	-0.191	0.042
-302.807	-200.000	0.004	0.059
-301.793	-105.076	0.239	-0.054
-300.778	137.861	0.052	0.067
-299.764	-200.000	-0.035	0.399
-298.749	-102.125	0.144	0.034
-297.735	-1.069	-0.127	-0.089
-296.720	-140.761	0.156	-0.016
-295.705	-200.000	0.002	0.215
-294.691	-101.455	-0.283	0.068
-293.676	-108.373	0.069	-0.015
-292.662	800.000	0.048	-0.169
-291.647	480.966	-0.141	0.317
-290.632	-87.908	0.307	-0.091
-289.618	-144.439	0.202	0.019
-288.603	-200.000	-0.021	-0.273
-287.589	-53.402	0.240	-0.109
-286.574	13.226	0.185	-0.142
-285.559	-200.000	0.038	0.194
-284.545	652.492	-0.097	-0.246
-283.530	99.178	0.107	-0.123
-282.516	-200.000	-0.025	-0.364
-281.501	307.184	-0.058	-0.106
-280.486	584.590	0.148	-0.360
-279.472	389.325	0.135	-0.278
-278.457	-177.987	0.175	-0.004
-277.443	162.388	0.063	-0.088
-276.428	-7.825	0.061	-0.041
-275.413	-22.908	-0.225	-0.134
-274.399	-200.000	-0.008	-0.363
-273.384	-183.597	0.351	0.006
-272.370	-106.096	0.166	-0.037
-271.355	-21.097	-0.083	0.050
-270.340	328.333	0.170	0.324
-269.326	-200.000	-0.057	-0.452
-268.311	637.956	-0.159	-0.400
-267.297	-101.431	0.096	-0.023
-266.282	110.303	0.271	-0.323
-265.267	117.402	0.100	0.122
-264.253	-98.744	0.381	0.096
-263.238	480.156	-0.024	-0.054
-262.224	-145.949	-0.254	0.022
-261.209	-200.000	-0.044	0.366
-260.195	688.528	0.073	-0.190
-259.180	-53.985	-0.156	0.070
-258.165	-200.000	-0.035	0.306
-257.151	745.570	-0.072	-0.192
-256.136	-113.527	0.432	0.084
-255.122	466.696	0.077	0.170
-254.107	44.316	-0.198	-0.180
-253.092	-200.000	0.355	-0.000
-252.078	800.000	-0.068	-0.190
-251.063	229.870	0.099	0.160
-250.049	-45.758	0.097	-0.048
-249.034	800.000	0.056	-0.192
-248.019	-71.013	-0.245	0.091
-247.005	18.919	0.334	-0.265
-245.990	-57.230	0.400	0.174
-244.976	-16.869	0.107	-0.067
-243.961	800.000	0.034	-0.110
-242.946	192.109	0.155	0.231
-241.932	730.600	0.096	0.254
-240.917	-146.608	0.357	-0.031
-239.903	-86.023	-0.182	0.056
-238.888	383.532	-0.122	0.248
-237.873	-16.723	-0.182	-0.114
-236.859	144.916	0.217	-0.287
-235.844	-95.686	0.075	0.020
-234.830	75.099	0.148	0.154
-233.815	-200.000	0.010	0.081
-232.800	-200.000	-0.325	-0.000
-231.786	-47.533	-0.266	-0.128
-230.771	90.345	0.378	-0.418
-229.757	256.090	0.141	-0.240
-228.742	445.101	0.120	-0.262
-227.727	-148.260	-0.133	-0.011
-226.713	66.551	-0.044	0.044
-225.698	392.601	-0.080	-0.164
-224.684	160.771	0.046	0.064
-223.669	-200.000	0.024	-0.187
-222.655	-53.151	-0.342	-0.155
-221.640	122.005	-0.139	0.172
-220.625	-9.990	-0.101	-0.066
-219.611	-117.353	-0.242	0.043
-218.596	135.179	-0.213	-0.274
-217.582	800.000	-0.052	-0.208
-216.567	26.024	-0.158	-0.131
-215.552	287.177	-0.155	-0.277
-214.538	-83.101	-0.337	0.107
-213.523	-154.241	0.122	-0.008
-212.509	-44.447	0.071	0.035
-211.494	33.959	0.271	0.233
-210.479	27.291	-0.148	-0.123
-209.465	800.000	0.126	-0.349
-208.450	-200.000	-0.043	0.262
-207.436	-105.171	-0.286	0.065
-206.421	465.525	0.094	0.208
-205.406	174.650	-0.032	0.046
-204.392	158.872	-0.166	0.228
-203.377	-64.595	-0.318	-0.127
-202.363	413.594	0.063	0.132
-201.348	-200.000	0.038	0.212
-200.333	133.628	0.239	0.306
-199.319	213.073	-0.116	-0.181
-198.304	355.807	0.167	-0.329
-197.290	-35.685	-0.335	0.180
-196.275	-200.000	0.039	0.181
-195.260	-174.839	-0.214	0.006
-194.246	-56.351	-0.095	-0.042
-193.231	-196.740	0.274	0.002
-192.217	-200.000	0.007	0.195
-191.202	446.434	0.056	0.121
-190.187	-49.324	0.268	0.127
-189.173	322.190	-0.137	0.258
-188.158	-22.228	0.307	-0.184
-187.144	16.997	-0.250	-0.196
-186.129	219.166	-0.117	-0.185
-185.114	138.430	-0.115	-0.149
-184.100	-200.000	-0.047	0.301
-183.085	-103.147	-0.263	0.061
-182.071	129.288	0.105	-0.132
-181.056	475.195	0.117	0.260
-180.042	-200.000	0.127	-0.000
-179.027	800.000	0.101	-0.304
-178.012	-103.854	-0.203	-0.047
-176.998	128.216	-0.154	-0.194
-175.983	137.279	0.113	0.146
-174.969	172.397	-0.056	-0.080
-173.954	800.000	0.094	-0.270
-172.939	800.000	0.079	0.293
-171.925	55.602	-0.215	-0.206
-170.910	-10.508	-0.166	0.108
-169.896	-13.481	0.091	-0.058
-168.881	67.596	0.097	0.098
-167.866	-126.351	0.196	0.029
-166.852	-200.000	0.002	-0.020
-165.837	-13.780	0.022	-0.014
-164.823	-200.000	0.015	-0.150
-163.808	-122.984	0.184	-0.029
-162.793	-147.006	-0.095	-0.008
-161.779	-127.834	-0.370	-0.053
-160.764	-40.107	0.316	-0.162
-159.750	266.167	0.073	0.125
-158.735	-200.000	0.001	-0.278
-157.720	-7.363	-0.116	0.077
-156.706	-200.000	0.007	0.432
-155.691	133.672	-0.075	0.096
-154.677	-57.819	-0.263	0.113
-153.662	-84.467	-0.107	-0.033
-152.647	800.000	-0.086	0.352
-151.633	800.000	-0.041	-0.168
-150.618	-42.635	-0.169	-0.085
-149.604	-200.000	-0.004	-0.229
-148.589	79.794	-0.032	-0.034
-147.574	-1.902	0.255	-0.177
-146.560	323.785	-0.143	0.270
-145.545	652.868	0.082	-0.207
-144.531	187.263	-0.039	-0.058
-143.516	-145.480	-0.388	-0.034
-142.502	144.952	-0.303	0.400
-141.487	113.282	0.169	0.203
-140.472	-200.000	-0.002	0.112
-139.458	113.581	0.066	-0.079
-138.443	-142.359	-0.113	0.011
-137.429	-30.612	0.335	-0.187
-136.414	-200.000	0.013	0.082
-135.399	-109.902	0.051	-0.011
-134.385	-22.655	0.131	-0.078
-133.370	184.942	0.229	0.335
-132.356	-200.000	0.069	0.304
-131.341	-200.000	0.007	0.160
-130.326	-132.748	-0.066	0.008
-129.312	-105.646	0.168	0.038
-128.297	-25.063	0.087	0.051
-127.283	-70.094	-0.051	-0.019
-126.268	800.000	-0.029	-0.115
-125.253	-200.000	-0.011	-0.111
-124.239	800.000	0.053	0.214
-123.224	-56.109	0.183	0.080
-122.210	5.474	0.312	0.227
