DTS Sentinel unit serial number:	SN413079Multiplexer serial number:	ORYXHardware model number:	OX4-SRSoftware version number:	ORYX F/W v4.00 Oryx Data Collector v3.7.2.0data status	okinstallation	princeton_trtdifferential loss correction	single-endedforward channel	channel 1reverse channel	N/Adate	2019/09/14time	13:18:35forward acquisition time	60.00reverse acquisition time	0.00gamma	496.2192k internal	0.2294k external	0.2294temperature offset calibration	1.0089default loss term (dB/km)	0.3790temperature slope calibration	1.0000multiplexer offset coefficient	1.0000multiplexer slope coefficient	1.0000fibre end	0.00T internal ref (°C)	37.98T ext. ref 1 (°C)	4.90T ext. ref 2 (°C)	33.55length (m)	temperature (°C)	Stokes	anti-Stokes-747.200	800.000	0.050	-0.171
-746.185	-169.652	-0.263	0.010
-745.171	800.000	-0.050	-0.144
-744.156	-51.202	-0.077	-0.037
-743.142	83.431	0.131	0.146
-742.127	41.386	0.158	0.146
-741.112	-200.000	0.004	0.153
-740.098	-49.643	0.204	0.099
-739.083	402.475	0.134	0.287
-738.069	-200.000	0.049	0.290
-737.054	-200.000	-0.007	-0.106
-736.039	-31.539	-0.219	0.126
-735.025	352.195	0.070	0.141
-734.010	800.000	-0.054	-0.184
-732.996	-117.902	-0.267	-0.049
-731.981	-200.000	0.021	-0.109
-730.966	-200.000	0.004	-0.193
-729.952	30.478	-0.394	-0.344
-728.937	-56.680	-0.274	0.124
-727.923	-31.852	-0.076	0.044
-726.908	457.105	-0.047	-0.106
-725.894	161.039	-0.135	-0.192
-724.879	-144.509	-0.209	0.020
-723.864	51.036	0.170	0.164
-722.850	800.000	0.068	-0.254
-721.835	281.349	0.175	-0.320
-720.821	-122.970	-0.073	-0.012
-719.806	60.646	-0.156	-0.158
-718.791	-54.376	-0.212	0.098
-717.777	-59.973	-0.103	-0.045
-716.762	107.881	0.159	-0.193
-715.748	-17.565	-0.199	0.128
-714.733	800.000	-0.038	-0.142
-713.718	220.887	0.097	-0.159
-712.704	-200.000	0.015	0.356
-711.689	-21.779	-0.262	-0.163
-710.675	-140.075	0.220	0.024
-709.660	135.718	0.100	-0.133
-708.645	7.290	0.009	-0.007
-707.631	-77.942	0.147	-0.052
-706.616	-83.540	-0.539	-0.176
-705.602	-73.327	0.374	-0.140
-704.587	44.908	-0.291	-0.274
-703.572	800.000	0.088	-0.277
-702.558	800.000	0.076	-0.214
-701.543	46.666	-0.342	-0.324
-700.529	-163.347	0.094	0.005
-699.514	800.000	0.023	0.073
-698.499	13.814	0.160	0.127
-697.485	800.000	0.002	0.008
-696.470	31.272	0.222	-0.194
-695.456	395.656	-0.097	-0.206
-694.441	800.000	-0.073	0.253
-693.426	5.626	-0.179	0.135
-692.412	-129.082	-0.242	0.035
-691.397	312.700	-0.012	0.023
-690.383	30.205	-0.070	-0.061
-689.368	-56.555	-0.452	-0.205
-688.354	237.537	-0.199	-0.337
-687.339	124.759	-0.187	-0.240
-686.324	235.167	0.136	0.230
-685.310	-200.000	-0.006	0.053
-684.295	-200.000	0.008	0.161
-683.281	800.000	0.135	0.527
-682.266	689.947	-0.144	0.384
-681.251	101.071	-0.308	-0.365
-680.237	239.250	-0.180	-0.305
-679.222	306.847	0.047	0.090
-678.208	-200.000	-0.047	-0.210
-677.193	-200.000	0.021	-0.183
-676.178	100.975	0.081	-0.096
-675.164	22.929	-0.146	0.122
-674.149	281.868	-0.142	-0.259
-673.135	35.978	-0.155	0.139
-672.120	140.891	0.117	0.158
-671.105	478.800	0.143	0.329
-670.091	-6.544	-0.279	0.194
-669.076	-51.845	-0.237	0.113
-668.062	96.677	-0.124	-0.145
-667.047	222.699	-0.091	0.150
-666.032	-200.000	0.016	0.218
-665.018	260.691	-0.063	-0.111
-664.003	-64.233	0.098	0.041
-662.989	-18.783	-0.164	0.104
-661.974	-6.969	-0.124	0.086
-660.959	58.234	0.111	0.111
-659.945	10.234	0.086	-0.067
-658.930	109.227	0.130	-0.158
-657.916	-87.494	0.184	-0.057
-656.901	-7.341	-0.117	-0.081
-655.886	800.000	0.067	-0.246
-654.872	-60.465	-0.234	-0.101
-653.857	208.037	0.170	-0.270
-652.843	-34.805	-0.231	0.129
-651.828	6.952	-0.139	-0.105
-650.814	69.022	0.035	-0.037
-649.799	-12.920	-0.258	-0.171
-648.784	-200.000	-0.020	-0.220
-647.770	249.648	0.058	-0.100
-646.755	-200.000	-0.014	-0.174
-645.741	-86.054	-0.138	0.043
-644.726	10.602	0.239	0.186
-643.711	96.507	-0.108	0.126
-642.697	-31.742	0.216	0.124
-641.682	463.077	-0.081	0.185
-640.668	-40.904	0.187	-0.099
-639.653	-181.377	0.112	-0.002
-638.638	497.610	0.119	-0.279
-637.624	-184.526	-0.288	-0.005
-636.609	800.000	0.045	0.186
-635.595	-58.310	0.150	-0.066
-634.580	55.809	0.227	-0.224
-633.565	-44.442	0.296	0.151
-632.551	-97.795	0.265	0.070
-631.536	157.483	-0.152	-0.214
-630.522	800.000	-0.038	-0.114
-629.507	-159.038	-0.157	-0.009
-628.492	-37.076	0.026	0.014
-627.478	121.858	-0.167	0.212
-626.463	-88.757	-0.142	0.043
-625.449	-200.000	0.044	-0.198
-624.434	800.000	0.190	-0.559
-623.419	-22.296	0.187	0.115
-622.405	-85.864	-0.087	0.027
-621.390	98.401	-0.145	-0.171
-620.376	-2.754	-0.339	-0.241
-619.361	-200.000	0.044	0.255
-618.346	-179.966	0.230	0.005
-617.332	-5.756	0.090	0.063
-616.317	-96.305	-0.329	0.089
-615.303	-100.156	-0.417	-0.105
-614.288	-178.886	0.223	0.005
-613.273	800.000	0.133	-0.486
-612.259	323.156	-0.026	0.051
-611.244	-141.166	-0.107	-0.011
-610.230	-18.340	0.105	0.067
-609.215	-15.329	0.140	0.091
-608.201	-94.209	0.286	-0.080
-607.186	-3.501	-0.318	0.225
-606.171	-41.722	-0.156	0.082
-605.157	-48.420	0.175	0.086
-604.142	-55.016	0.078	0.036
-603.128	-118.194	0.228	0.041
-602.113	-200.000	0.010	0.148
-601.098	219.813	-0.033	-0.054
-600.084	-83.022	0.079	-0.026
-599.069	-41.006	-0.169	0.089
-598.055	-96.710	-0.317	0.085
-597.040	-60.140	-0.074	-0.032
-596.025	800.000	-0.044	-0.177
-595.011	-77.327	0.042	0.015
-593.996	-11.489	-0.064	0.043
-592.982	-200.000	0.033	-0.208
-591.967	-73.128	0.123	-0.046
-590.952	220.870	0.236	0.385
-589.938	36.168	0.293	0.263
-588.923	86.144	-0.076	-0.085
-587.909	681.735	-0.068	0.180
-586.894	-161.245	-0.247	0.013
-585.879	-200.000	-0.003	-0.046
-584.865	-34.026	-0.483	-0.270
-583.850	-200.000	0.021	0.315
-582.836	85.884	-0.143	-0.160
-581.821	67.848	0.306	-0.318
-580.806	-143.964	-0.361	-0.034
-579.792	8.246	-0.068	0.052
-578.777	-98.994	0.292	-0.075
-577.763	-57.792	-0.284	-0.126
-576.748	74.266	0.215	-0.230
-575.733	26.251	0.220	0.187
-574.719	-104.144	-0.309	-0.073
-573.704	-179.369	0.188	-0.004
-572.690	6.944	-0.259	-0.196
-571.675	37.317	-0.222	-0.199
-570.661	-21.791	0.187	-0.116
-569.646	-7.345	-0.200	-0.138
-568.631	313.171	0.070	-0.134
-567.617	40.341	0.150	-0.137
-566.602	-17.401	0.069	0.044
-565.588	38.754	0.076	0.069
-564.573	-200.000	-0.025	0.193
-563.558	47.636	0.078	0.074
-562.544	-200.000	0.020	0.285
-561.529	156.707	-0.108	0.151
-560.515	-56.329	0.041	-0.018
-559.500	644.529	-0.189	-0.490
-558.485	-200.000	-0.027	-0.239
-557.471	-87.246	-0.230	-0.071
-556.456	-200.000	0.009	-0.051
-555.442	-138.424	-0.177	0.020
-554.427	-107.091	-0.060	0.014
-553.412	57.871	0.082	0.081
-552.398	-58.768	-0.185	0.081
-551.383	-76.660	-0.252	-0.090
-550.369	242.501	0.156	-0.264
-549.354	-20.071	0.365	0.228
-548.339	109.700	0.207	-0.252
-547.325	-8.168	-0.219	-0.150
-546.310	-126.309	0.435	0.066
-545.296	-69.868	0.130	-0.050
-544.281	494.165	-0.137	0.319
-543.266	-200.000	-0.023	0.110
-542.252	209.243	0.150	-0.239
-541.237	-10.776	-0.445	0.298
-540.223	-20.124	-0.152	0.095
-539.208	-123.290	-0.244	-0.040
-538.193	-160.931	0.220	0.012
-537.179	-135.286	0.271	-0.033
-536.164	165.897	-0.111	-0.159
-535.150	-200.000	0.069	0.341
-534.135	-200.000	0.037	0.411
-533.121	-176.735	0.164	0.004
-532.106	-103.657	0.097	-0.023
-531.091	127.722	-0.193	-0.249
-530.077	330.721	0.048	-0.093
-529.062	-200.000	-0.046	0.254
-528.048	356.414	0.082	0.166
-527.033	-16.040	-0.188	-0.121
-526.018	-200.000	-0.022	-0.288
-525.004	-13.422	-0.182	-0.119
-523.989	27.434	-0.221	-0.188
-522.975	-38.088	-0.066	0.035
-521.960	-83.808	0.068	0.022
-520.945	355.434	0.150	0.302
-519.931	-200.000	0.001	-0.305
-518.916	117.107	-0.093	0.115
-517.902	-200.000	-0.016	-0.400
-516.887	215.991	-0.192	-0.308
-515.872	-62.812	0.217	-0.091
-514.858	115.684	0.112	0.139
-513.843	-200.000	-0.494	0.001
-512.829	182.101	0.121	0.181
-511.814	-200.000	-0.026	-0.143
-510.799	-200.000	0.002	0.253
-509.785	375.485	-0.061	0.126
-508.770	191.598	0.039	-0.060
-507.756	-139.081	-0.060	0.007
-506.741	-144.775	-0.197	0.018
-505.726	-126.711	0.220	-0.033
-504.712	-73.569	-0.326	0.120
-503.697	-37.828	-0.053	0.029
-502.683	396.951	0.134	-0.283
-501.668	-105.932	-0.286	-0.065
-500.653	-99.288	-0.241	0.062
-499.639	-200.000	-0.006	0.064
-498.624	-153.035	0.101	-0.007
-497.610	-200.000	0.031	-0.165
-496.595	-78.476	0.195	-0.067
-495.581	-200.000	-0.001	0.261
-494.566	-200.000	-0.000	0.098
-493.551	-200.000	-0.179	-0.000
-492.537	-8.138	0.013	0.009
-491.522	-3.984	0.179	0.126
-490.508	-200.000	-0.022	-0.106
-489.493	14.279	-0.197	-0.156
-488.478	-116.323	-0.169	0.032
-487.464	509.965	0.068	-0.161
-486.449	192.727	-0.101	0.155
-485.435	-200.000	0.042	-0.220
-484.420	-18.617	0.362	0.229
-483.405	217.004	0.202	-0.326
-482.391	-6.243	0.209	-0.145
-481.376	-133.576	0.287	-0.036
-480.362	-82.242	-0.018	-0.006
-479.347	-123.440	0.569	0.092
-478.332	-173.711	0.077	0.002
-477.318	-100.042	0.069	-0.017
-476.303	-75.847	0.066	0.024
-475.289	-16.483	-0.127	-0.081
-474.274	290.881	-0.095	0.174
-473.259	-71.666	0.305	0.115
-472.245	19.201	0.094	-0.076
-471.230	-151.237	0.159	-0.012
-470.216	-156.487	0.402	0.025
-469.201	-62.704	0.297	0.125
-468.186	800.000	0.035	-0.129
-467.172	240.660	-0.087	0.147
-466.157	286.335	0.105	-0.192
-465.143	52.015	-0.085	0.082
-464.128	800.000	-0.073	-0.284
-463.113	-167.101	0.014	0.001
-462.099	-90.619	-0.166	0.049
-461.084	-200.000	0.041	0.192
-460.070	-26.780	0.040	-0.024
-459.055	-200.000	0.030	0.449
-458.040	347.497	0.075	-0.150
-457.026	-13.691	-0.125	0.082
-456.011	14.568	0.325	0.257
-454.997	-166.008	-0.316	0.014
-453.982	103.115	-0.192	0.228
-452.968	148.035	-0.047	0.065
-451.953	-200.000	-0.025	-0.228
-450.938	74.831	0.361	0.384
-449.924	-110.638	0.189	0.040
-448.909	384.166	-0.120	0.250
-447.895	462.332	-0.145	0.328
-446.880	-149.496	-0.217	-0.017
-445.865	-200.000	-0.054	0.342
-444.851	333.049	-0.032	0.062
-443.836	24.121	-0.195	-0.162
-442.822	600.252	0.165	-0.415
-441.807	211.419	-0.040	0.063
-440.792	800.000	-0.041	0.164
-439.778	719.030	0.098	0.264
-438.763	-141.789	0.387	-0.039
-437.749	-88.847	-0.108	-0.032
-436.734	-30.385	-0.283	-0.162
-435.719	-97.227	0.191	-0.050
-434.705	323.821	-0.129	0.249
-433.690	526.472	-0.074	0.176
-432.676	800.000	0.120	-0.368
-431.661	-200.000	-0.038	-0.209
-430.646	-66.037	-0.245	0.099
-429.632	-200.000	0.010	-0.436
-428.617	-162.791	0.268	0.013
-427.603	-200.000	0.009	0.105
-426.588	-168.987	-0.067	0.003
-425.573	393.538	-0.130	0.273
-424.559	-125.988	0.240	0.036
-423.544	516.066	-0.079	0.186
-422.530	123.137	0.159	-0.201
-421.515	120.207	-0.113	0.142
-420.500	-53.318	0.352	0.163
-419.486	-200.000	0.005	-0.365
-418.471	54.764	0.126	0.123
-417.457	-200.000	0.005	-0.618
-416.442	-40.808	0.309	-0.161
-415.428	800.000	0.040	-0.146
-414.413	-200.000	0.324	0.001
-413.398	-34.096	-0.080	-0.044
-412.384	418.737	-0.173	-0.374
-411.369	-82.641	-0.177	0.058
-410.355	-29.241	0.093	0.054
-409.340	-123.851	0.090	0.014
-408.325	48.470	-0.038	0.036
-407.311	800.000	-0.020	-0.074
-406.296	-4.892	-0.278	0.193
-405.282	-137.946	-0.243	-0.027
-404.267	-168.715	-0.206	-0.008
-403.252	-69.320	-0.114	-0.044
-402.238	-120.569	-0.495	-0.085
-401.223	186.168	0.095	-0.142
-400.209	38.605	0.178	-0.160
-399.194	379.512	0.073	-0.151
-398.179	76.424	0.162	0.173
-397.165	-46.979	-0.258	0.127
-396.150	-200.000	-0.026	0.202
-395.136	13.217	0.126	0.099
-394.121	-90.003	0.294	0.086
-393.106	-200.000	-0.011	0.157
-392.092	75.836	-0.270	0.288
-391.077	800.000	0.070	-0.305
-390.063	-141.917	-0.155	-0.016
-389.048	330.830	0.050	-0.097
-388.033	16.429	0.140	-0.111
-387.019	-3.924	-0.196	-0.137
-386.004	177.185	0.094	-0.138
-384.990	-46.223	0.491	0.244
-383.975	237.437	-0.085	-0.143
-382.960	-136.105	-0.061	-0.007
-381.946	90.691	-0.080	0.091
-380.931	800.000	0.108	-0.383
-379.917	58.681	0.238	-0.236
-378.902	123.404	0.086	0.108
-377.888	187.805	0.146	0.219
-376.873	-37.103	0.333	-0.180
-375.858	7.401	-0.204	-0.154
-374.844	-30.915	-0.227	0.129
-373.829	-85.865	0.102	-0.032
-372.815	-84.907	0.226	0.072
-371.800	800.000	-0.018	-0.066
-370.785	-80.270	-0.136	0.046
-369.771	150.921	0.213	0.291
-368.756	-200.000	-0.010	-0.197
-367.742	27.588	0.201	0.170
-366.727	-200.000	0.010	0.314
-365.712	-100.654	0.273	0.068
-364.698	-23.106	-0.285	-0.173
-363.683	-148.538	-0.305	-0.025
-362.669	-110.371	-0.211	-0.044
-361.654	-73.628	0.322	-0.118
-360.639	145.559	0.046	-0.063
-359.625	-40.468	0.177	-0.093
-358.610	-87.152	-0.088	-0.027
-357.596	-46.482	-0.102	-0.051
-356.581	129.275	-0.216	-0.278
-355.566	-93.641	0.135	-0.038
-354.552	48.087	-0.074	0.069
-353.537	-200.000	0.193	0.000
-352.523	-89.387	-0.106	-0.032
-351.508	-87.951	-0.142	0.043
-350.493	-11.484	-0.263	0.174
-349.479	28.882	-0.160	-0.136
-348.464	432.174	0.070	-0.154
-347.450	-200.000	-0.008	-0.120
-346.435	-200.000	0.021	0.280
-345.420	-200.000	0.004	-0.081
-344.406	536.882	0.080	0.192
-343.391	-182.287	0.206	0.004
-342.377	-54.721	-0.201	0.092
-341.362	334.808	-0.151	0.294
-340.348	-200.000	0.047	-0.272
-339.333	45.858	0.105	0.098
-338.318	-103.911	0.273	-0.064
-337.304	-40.090	-0.104	-0.054
-336.289	-72.727	-0.195	0.072
-335.275	-110.026	-0.188	-0.040
-334.260	396.321	-0.056	-0.118
-333.245	50.046	-0.247	-0.235
-332.231	800.000	-0.038	0.156
-331.216	10.355	-0.122	0.093
-330.202	270.791	0.097	-0.172
-329.187	-31.089	0.213	-0.121
-328.172	141.354	-0.149	0.199
-327.158	309.791	-0.039	-0.073
-326.143	346.776	-0.086	-0.170
-325.129	7.752	-0.081	-0.061
-324.114	27.475	-0.206	0.174
-323.099	-200.000	0.059	0.319
-322.085	-200.000	0.027	-0.267
-321.070	76.490	-0.027	-0.029
-320.056	112.685	-0.056	-0.068
-319.041	-121.066	0.188	-0.032
-318.026	-200.000	0.025	0.195
-317.012	-200.000	0.002	-0.336
-315.997	-14.190	-0.108	-0.070
-314.983	-197.241	-0.048	-0.000
-313.968	329.596	0.079	0.153
-312.953	-67.129	0.092	-0.037
-311.939	800.000	-0.038	0.121
-310.924	-122.416	-0.083	-0.014
-309.910	-17.118	-0.323	-0.205
-308.895	15.054	-0.246	0.194
-307.880	-117.061	-0.350	0.064
-306.866	-190.073	-0.423	0.005
-305.851	-74.976	0.411	-0.148
-304.837	-147.079	-0.105	-0.009
-303.822	76.266	0.026	-0.027
-302.807	-5.405	-0.196	0.136
-301.793	-73.208	0.189	0.069
-300.778	80.145	0.217	-0.234
-299.764	800.000	0.044	0.181
-298.749	-91.221	-0.153	-0.044
-297.735	-138.676	-0.207	-0.023
-296.720	-156.072	0.241	-0.015
-295.705	-38.481	-0.056	0.030
-294.691	-200.000	0.011	0.078
-293.676	80.671	0.127	-0.138
-292.662	238.686	0.175	0.293
-291.647	-94.078	0.066	-0.018
-290.632	-55.589	0.232	0.105
-289.618	-104.569	0.100	-0.023
-288.603	-200.000	0.008	-0.082
-287.589	262.089	0.227	-0.395
-286.574	693.257	0.027	-0.070
-285.559	-116.350	0.154	0.029
-284.545	43.365	-0.250	-0.229
-283.530	-110.511	-0.406	-0.084
-282.516	17.882	-0.317	-0.253
-281.501	-139.215	0.038	-0.004
-280.486	51.938	0.135	0.129
-279.472	62.203	-0.150	-0.150
-278.457	-123.737	0.281	-0.045
-277.443	231.425	-0.090	-0.149
-276.428	-108.747	-0.148	0.032
-275.413	800.000	0.028	-0.100
-274.399	417.944	-0.117	0.250
-273.384	-108.081	0.259	-0.056
-272.370	-153.716	0.050	-0.003
-271.355	800.000	0.028	0.083
-270.340	54.634	-0.198	-0.191
-269.326	-96.548	0.054	-0.014
-268.311	151.527	-0.185	-0.252
-267.297	27.465	0.140	0.118
-266.282	263.372	0.139	0.243
-265.267	-49.042	-0.218	-0.105
-264.253	370.402	0.053	0.107
-263.238	-85.120	0.117	0.037
-262.224	-200.000	-0.006	0.254
-261.209	597.608	-0.112	-0.279
-260.195	-200.000	0.024	0.357
-259.180	31.120	-0.138	-0.118
-258.165	-200.000	-0.012	0.299
-257.151	-30.209	-0.151	0.086
-256.136	-153.546	0.043	-0.003
-255.122	800.000	-0.064	-0.178
-254.107	800.000	-0.125	0.361
-253.092	245.004	-0.131	-0.221
-252.078	203.294	0.243	0.377
-251.063	339.550	0.074	-0.144
-250.049	-200.000	-0.036	-0.187
-249.034	-2.260	0.109	0.076
-248.019	-92.239	-0.532	-0.150
-247.005	136.480	0.123	-0.161
-245.990	800.000	0.071	-0.271
-244.976	-161.712	0.289	0.015
-243.961	5.692	0.235	-0.174
-242.946	-112.064	-0.336	-0.068
-241.932	798.969	-0.029	0.080
-240.917	-196.371	-0.164	0.001
-239.903	-200.000	0.013	0.073
-238.888	-200.000	0.026	0.300
-237.873	213.869	-0.077	-0.123
-236.859	-66.929	0.079	0.031
-235.844	-104.410	0.107	-0.025
-234.830	204.624	0.045	-0.070
-233.815	17.870	0.119	0.095
-232.800	-150.286	0.208	-0.016
-231.786	26.583	-0.290	-0.243
-230.771	-16.021	0.388	0.247
-229.757	-87.052	0.457	-0.139
-228.742	-200.000	-0.002	-0.069
-227.727	-200.000	-0.027	0.466
-226.713	-14.733	-0.087	0.056
-225.698	800.000	0.040	0.125
-224.684	-187.137	-0.115	0.002
-223.669	-200.000	-0.003	-0.042
-222.655	800.000	0.085	-0.359
-221.640	564.222	0.045	0.109
-220.625	-153.832	-0.163	-0.011
-219.611	-88.196	0.146	-0.044
-218.596	174.760	0.067	0.098
-217.582	-148.399	-0.309	-0.025
-216.567	-61.588	0.219	0.092
-215.552	800.000	-0.023	-0.088
-214.538	-152.910	0.391	-0.028
-213.523	135.720	-0.174	-0.226
-212.509	-200.000	0.034	-0.223
-211.494	-155.149	-0.222	-0.015
-210.479	-103.368	0.241	0.057
-209.465	-200.000	-0.004	0.230
-208.450	-200.000	-0.056	0.268
-207.436	-159.328	0.469	-0.026
-206.421	212.836	0.054	0.085
-205.406	-0.148	-0.094	0.067
-204.392	233.617	-0.031	-0.051
-203.377	-200.000	-0.023	0.233
-202.363	-200.000	0.071	0.345
-201.348	58.103	-0.222	0.218
-200.333	800.000	0.036	0.122
-199.319	617.266	0.074	0.186
-198.304	-165.977	0.529	-0.023
-197.290	-200.000	-0.026	0.155
-196.275	46.302	0.137	0.127
-195.260	-50.998	-0.211	-0.099
-194.246	176.640	-0.044	0.064
-193.231	-48.187	-0.249	-0.120
-192.217	60.279	-0.033	-0.032
-191.202	-101.289	-0.136	-0.033
-190.187	-75.881	0.075	-0.027
-189.173	343.495	0.045	0.089
-188.158	127.489	-0.198	-0.251
-187.144	-200.000	-0.034	-0.186
-186.129	566.016	0.062	0.151
-185.114	272.350	0.071	0.126
-184.100	-65.606	-0.277	0.111
-183.085	800.000	0.061	-0.199
-182.071	800.000	0.046	-0.133
-181.056	-75.498	0.092	-0.033
-180.042	205.399	0.178	-0.277
-179.027	-56.370	-0.342	-0.152
-178.012	-200.000	0.051	0.313
-176.998	185.949	-0.184	-0.274
-175.983	800.000	0.114	0.326
-174.969	-78.372	0.071	0.024
-173.954	498.685	-0.089	0.205
-172.939	-200.000	0.034	0.358
-171.925	333.824	-0.085	0.165
-170.910	104.258	-0.151	0.177
-169.896	129.454	-0.168	0.215
-168.881	217.172	-0.008	0.013
-167.866	800.000	0.100	0.295
-166.852	-200.000	-0.013	-0.196
-165.837	-200.000	-0.032	0.381
-164.823	-143.368	0.213	0.020
-163.808	-93.493	-0.213	0.059
-162.793	-68.459	0.088	0.034
-161.779	-84.244	-0.301	-0.095
-160.764	61.643	-0.054	-0.053
-159.750	424.102	-0.095	0.204
-158.735	800.000	0.075	0.313
-157.720	-200.000	-0.014	-0.128
-156.706	243.965	0.119	-0.200
-155.691	-101.767	-0.079	-0.019
-154.677	554.639	0.038	-0.091
-153.662	-200.000	0.043	0.272
-152.647	50.361	0.216	0.204
-151.633	260.406	0.086	0.149
-150.618	-200.000	-0.014	0.316
-149.604	94.157	0.171	0.194
-148.589	98.601	-0.182	-0.209
-147.574	389.691	-0.053	-0.110
-146.560	9.962	0.113	0.086
-145.545	-108.025	-0.073	0.016
-144.531	-121.538	0.187	0.031
-143.516	-33.297	0.378	0.209
-142.502	-87.314	-0.193	0.058
-141.487	-182.321	-0.293	0.005
-140.472	-107.863	-0.549	-0.119
-139.458	-200.000	-0.019	-0.260
-138.443	-76.451	0.069	0.024
-137.429	132.279	0.072	-0.093
-136.414	-86.907	-0.243	-0.074
-135.399	123.285	0.090	-0.113
-134.385	132.551	-0.169	0.218
-133.370	5.131	0.187	0.137
-132.356	335.083	0.111	-0.215
-131.341	-200.000	-0.035	-0.286
-130.326	449.458	-0.013	-0.028
-129.312	217.776	0.313	-0.499
-128.297	-70.109	0.124	-0.047
-127.283	-141.449	0.508	0.051
-126.268	229.262	0.026	-0.042
-125.253	-49.224	-0.127	0.060
-124.239	-100.688	0.040	0.010
-123.224	-122.519	-0.283	0.046
-122.210	-200.000	0.010	0.143
