DTS Sentinel unit serial number:	SN413079Multiplexer serial number:	ORYXHardware model number:	OX4-SRSoftware version number:	ORYX F/W v4.00 Oryx Data Collector v3.7.2.0data status	okinstallation	princeton_trtdifferential loss correction	single-endedforward channel	channel 1reverse channel	N/Adate	2019/09/18time	17:46:36forward acquisition time	60.00reverse acquisition time	0.00gamma	496.2192k internal	0.2292k external	0.2292temperature offset calibration	1.0006default loss term (dB/km)	0.3790temperature slope calibration	1.0000multiplexer offset coefficient	1.0000multiplexer slope coefficient	1.0000fibre end	0.00T internal ref (°C)	40.31T ext. ref 1 (°C)	0.90T ext. ref 2 (°C)	33.70length (m)	temperature (°C)	Stokes	anti-Stokes-747.200	-3.856	-0.165	-0.117
-746.185	28.440	-0.267	0.231
-745.171	-32.984	0.298	0.170
-744.156	-200.000	-0.019	0.110
-743.142	-200.000	0.005	-0.477
-742.127	-33.768	-0.148	0.084
-741.112	-114.329	0.247	-0.049
-740.098	57.183	0.220	-0.219
-739.083	-100.193	-0.171	-0.043
-738.069	3.309	-0.236	0.176
-737.054	-13.893	0.119	0.079
-736.039	335.062	-0.253	-0.502
-735.025	-72.525	0.146	-0.055
-734.010	-200.000	-0.004	-0.026
-732.996	-116.195	-0.244	-0.046
-731.981	-122.058	-0.389	-0.065
-730.966	-12.784	-0.035	0.023
-729.952	800.000	-0.048	0.190
-728.937	-104.890	-0.177	-0.042
-727.923	225.176	-0.098	0.163
-726.908	800.000	0.041	-0.135
-725.894	198.381	0.141	-0.220
-724.879	612.708	-0.089	-0.229
-723.864	232.823	-0.111	0.186
-722.850	-9.402	0.158	-0.108
-721.835	766.000	-0.115	0.319
-720.821	-200.000	-0.046	0.543
-719.806	584.524	-0.063	0.157
-718.791	-200.000	-0.010	0.233
-717.777	412.990	-0.049	-0.106
-716.762	190.975	0.017	-0.027
-715.748	-59.266	0.300	-0.132
-714.733	-17.445	-0.187	-0.120
-713.718	-12.053	0.054	-0.036
-712.704	-128.029	-0.283	-0.042
-711.689	800.000	-0.025	0.102
-710.675	-27.711	-0.148	0.088
-709.660	-52.283	-0.295	0.140
-708.645	420.230	-0.122	0.267
-707.631	142.339	-0.239	-0.324
-706.616	-200.000	0.035	-0.394
-705.602	273.984	0.138	-0.249
-704.587	251.318	0.028	-0.049
-703.572	-153.685	-0.311	0.022
-702.558	-116.964	0.243	0.045
-701.543	-200.000	-0.010	-0.150
-700.529	28.369	0.254	0.219
-699.514	-200.000	-0.006	0.167
-698.499	145.508	-0.152	-0.208
-697.485	19.010	-0.217	-0.178
-696.470	167.078	0.020	0.029
-695.456	-46.468	0.123	-0.062
-694.441	93.022	0.100	0.115
-693.426	412.299	0.118	-0.255
-692.412	-198.942	-0.043	-0.000
-691.397	800.000	-0.015	-0.046
-690.383	-52.383	-0.242	-0.114
-689.368	81.963	0.186	0.205
-688.354	-153.684	0.159	0.011
-687.339	-56.139	-0.270	-0.123
-686.324	284.347	0.012	-0.022
-685.310	-92.920	0.345	-0.098
-684.295	-90.754	0.095	0.028
-683.281	1.787	-0.181	-0.134
-682.266	-67.167	0.092	0.037
-681.251	287.059	-0.072	0.133
-680.237	-62.708	-0.314	-0.133
-679.222	138.004	-0.032	0.042
-678.208	-73.107	0.188	-0.070
-677.193	398.678	-0.135	-0.289
-676.178	-121.838	-0.141	-0.024
-675.164	-2.762	-0.056	-0.040
-674.149	-200.000	0.075	0.419
-673.135	800.000	-0.014	-0.050
-672.120	91.814	0.245	-0.282
-671.105	800.000	0.038	0.125
-670.091	-200.000	0.002	-0.031
-669.076	-200.000	0.014	-0.135
-668.062	215.494	-0.140	-0.227
-667.047	66.952	0.202	-0.210
-666.032	-200.000	-0.005	0.135
-665.018	-200.000	-0.003	-0.117
-664.003	-200.000	-0.034	0.207
-662.989	800.000	-0.058	-0.209
-661.974	-200.000	-0.025	0.198
-660.959	-200.000	0.026	-0.131
-659.945	160.420	-0.117	0.167
-658.930	109.733	0.170	-0.208
-657.916	177.830	-0.156	0.233
-656.901	198.297	0.108	-0.169
-655.886	-32.901	0.062	0.035
-654.872	-77.943	-0.288	0.101
-653.857	394.358	0.173	-0.367
-652.843	-130.665	-0.274	-0.038
-651.828	522.762	-0.181	-0.434
-650.814	94.283	-0.213	-0.246
-649.799	-200.000	0.015	-0.303
-648.784	-137.087	-0.104	-0.012
-647.770	56.857	0.091	0.091
-646.755	-127.999	0.139	-0.020
-645.741	-163.009	0.233	0.011
-644.726	11.162	-0.248	-0.194
-643.711	-200.000	-0.054	0.287
-642.697	-200.000	0.006	0.088
-641.682	-200.000	0.003	-0.046
-640.668	656.432	0.037	-0.098
-639.653	-108.095	0.180	-0.040
-638.638	100.389	-0.081	0.096
-637.624	-200.000	-0.049	0.292
-636.609	202.297	0.108	0.170
-635.595	-76.051	0.101	0.036
-634.580	126.609	-0.085	0.109
-633.565	8.073	-0.299	-0.229
-632.551	148.805	-0.140	-0.194
-631.536	-55.930	0.035	-0.016
-630.522	87.415	-0.081	-0.091
-629.507	297.111	0.022	-0.041
-628.492	-154.817	0.212	0.014
-627.478	-200.000	0.035	0.188
-626.463	22.462	-0.104	0.087
-625.449	-51.772	-0.102	0.048
-624.434	-78.056	0.361	0.127
-623.419	755.513	-0.031	0.086
-622.405	800.000	-0.009	-0.039
-621.390	-159.286	-0.162	0.009
-620.376	667.001	-0.020	-0.052
-619.361	800.000	0.030	0.095
-618.346	-86.667	-0.079	-0.025
-617.332	108.839	0.161	-0.196
-616.317	-117.657	0.156	0.029
-615.303	77.937	0.145	-0.158
-614.288	-4.533	0.241	-0.170
-613.273	-6.908	0.101	-0.070
-612.259	-127.339	-0.363	0.054
-611.244	-200.000	-0.009	0.245
-610.230	285.437	0.136	0.249
-609.215	87.531	-0.071	0.080
-608.201	-101.078	-0.227	0.057
-607.186	451.828	0.088	-0.197
-606.171	-138.186	-0.248	-0.028
-605.157	-28.359	0.077	0.045
-604.142	-172.060	0.373	-0.012
-603.128	-22.981	0.127	0.078
-602.113	-200.000	-0.043	-0.224
-601.098	77.118	0.160	-0.173
-600.084	-41.632	0.212	0.111
-599.069	-93.845	-0.146	-0.041
-598.055	-86.913	-0.627	-0.195
-597.040	34.527	-0.114	0.101
-596.025	-57.651	0.488	0.218
-595.011	45.370	-0.405	-0.380
-593.996	-34.973	-0.152	0.085
-592.982	800.000	0.085	-0.363
-591.967	-38.725	-0.071	-0.038
-590.952	74.573	-0.253	0.271
-589.938	-200.000	-0.004	0.055
-588.923	-200.000	0.057	-0.319
-587.909	-177.498	-0.139	0.003
-586.894	-49.951	-0.132	0.064
-585.879	-19.102	0.266	-0.168
-584.865	-132.969	-0.550	-0.071
-583.850	-200.000	0.026	-0.121
-582.836	-11.426	-0.284	-0.190
-581.821	290.761	0.084	-0.156
-580.806	81.542	-0.106	0.117
-579.792	-200.000	-0.011	-0.199
-578.777	-200.000	-0.030	-0.304
-577.763	-104.262	0.170	-0.040
-576.748	-143.118	-0.246	-0.024
-575.733	-200.000	-0.076	-0.362
-574.719	253.891	-0.086	-0.149
-573.704	-200.000	-0.051	0.318
-572.690	-135.143	0.275	0.034
-571.675	55.647	-0.128	0.126
-570.661	-121.614	-0.328	-0.055
-569.646	-14.898	-0.443	0.289
-568.631	118.382	-0.097	-0.122
-567.617	800.000	-0.043	0.146
-566.602	-86.589	0.226	0.071
-565.588	800.000	-0.004	-0.014
-564.573	614.859	0.016	-0.041
-563.558	800.000	-0.045	-0.158
-562.544	-200.000	0.027	-0.544
-561.529	-147.959	-0.350	0.030
-560.515	-65.128	-0.128	0.052
-559.500	501.297	-0.150	-0.351
-558.485	-42.231	-0.168	-0.087
-557.471	-200.000	0.047	-0.214
-556.456	174.439	-0.191	-0.281
-555.442	171.284	0.118	0.172
-554.427	-200.000	0.003	0.333
-553.412	800.000	0.032	-0.127
-552.398	-7.332	0.397	0.273
-551.383	17.118	-0.100	0.080
-550.369	374.317	-0.057	0.117
-549.354	255.408	-0.208	-0.362
-548.339	-200.000	-0.006	-0.106
-547.325	-88.100	-0.476	-0.145
-546.310	-200.000	0.008	-0.169
-545.296	-112.230	0.348	0.071
-544.281	800.000	0.024	0.079
-543.266	-200.000	0.016	0.208
-542.252	-76.750	-0.469	-0.167
-541.237	-137.540	-0.158	0.018
-540.223	576.141	0.050	-0.124
-539.208	-98.867	-0.090	-0.023
-538.193	-119.117	0.146	0.026
-537.179	-200.000	-0.037	0.278
-536.164	116.934	0.116	-0.144
-535.150	-33.581	0.135	-0.076
-534.135	48.463	0.200	0.190
-533.121	800.000	0.013	-0.055
-532.106	8.686	-0.237	0.181
-531.091	-24.101	0.023	0.014
-530.077	-79.712	-0.386	-0.132
-529.062	-117.030	0.156	0.029
-528.048	-200.000	0.028	0.255
-527.033	42.278	-0.173	-0.160
-526.018	-53.136	0.164	0.077
-525.004	8.656	-0.106	-0.081
-523.989	-56.137	-0.180	-0.081
-522.975	510.939	0.034	-0.080
-521.960	35.160	0.082	-0.073
-520.945	-85.349	-0.154	-0.049
-519.931	-22.030	-0.154	0.095
-518.916	-200.000	-0.001	0.353
-517.902	-138.859	-0.055	-0.006
-516.887	800.000	-0.060	0.176
-515.872	-200.000	-0.025	-0.122
-514.858	800.000	-0.047	-0.143
-513.843	188.465	-0.062	-0.094
-512.829	-59.173	-0.171	-0.075
-511.814	-200.000	-0.021	-0.125
-510.799	-200.000	0.025	0.212
-509.785	645.210	-0.107	-0.278
-508.770	-200.000	0.027	-0.375
-507.756	-200.000	-0.051	0.237
-506.741	525.151	0.160	0.382
-505.726	800.000	-0.089	0.291
-504.712	260.290	-0.050	0.089
-503.697	800.000	0.093	0.265
-502.683	51.111	-0.144	0.138
-501.668	-98.502	0.225	0.058
-500.653	-73.572	0.317	0.117
-499.639	-200.000	-0.007	-0.184
-498.624	438.805	-0.031	0.069
-497.610	-49.005	0.073	-0.035
-496.595	-0.218	0.241	0.174
-495.581	800.000	0.080	0.306
-494.566	800.000	-0.021	-0.082
-493.551	394.571	-0.176	-0.371
-492.537	-121.252	-0.395	-0.067
-491.522	-125.428	-0.135	-0.021
-490.508	-111.794	0.127	0.026
-489.493	-24.072	-0.296	-0.179
-488.478	-200.000	0.016	-0.487
-487.464	2.572	-0.131	-0.096
-486.449	800.000	-0.078	0.339
-485.435	1.529	-0.274	0.200
-484.420	-200.000	0.021	-0.108
-483.405	-200.000	-0.033	0.376
-482.391	-124.280	0.194	-0.031
-481.376	-200.000	-0.042	-0.225
-480.362	-163.537	-0.115	0.006
-479.347	-76.817	0.153	0.054
-478.332	-200.000	-0.079	0.412
-477.318	-200.000	-0.024	-0.128
-476.303	235.960	-0.037	0.061
-475.289	118.761	0.125	0.157
-474.274	82.046	0.336	0.369
-473.259	-200.000	-0.006	-0.044
-472.245	42.760	-0.295	0.272
-471.230	-63.571	-0.320	-0.133
-470.216	-109.913	0.047	-0.010
-469.201	800.000	0.053	0.166
-468.186	-38.174	0.246	0.132
-467.172	-106.662	0.372	0.084
-466.157	-185.703	0.188	0.003
-465.143	800.000	0.039	-0.121
-464.128	-141.468	0.079	-0.008
-463.113	-200.000	0.009	-0.215
-462.099	-197.558	-0.349	-0.002
-461.084	6.518	-0.088	-0.066
-460.070	-18.438	0.021	0.013
-459.055	4.040	0.062	-0.046
-458.040	800.000	0.027	-0.105
-457.026	-105.236	-0.394	0.091
-456.011	787.515	0.073	-0.204
-454.997	-128.862	-0.262	-0.037
-453.982	214.869	0.122	0.195
-452.968	-70.625	-0.103	0.039
-451.953	-64.160	-0.089	0.037
-450.938	-101.793	-0.052	0.013
-449.924	-200.000	-0.027	-0.199
-448.909	-49.116	-0.137	-0.066
-447.895	800.000	-0.055	-0.229
-446.880	240.079	0.132	-0.223
-445.865	151.871	-0.189	-0.261
-444.851	-200.000	-0.015	0.077
-443.836	251.728	0.037	0.064
-442.822	-200.000	-0.019	-0.167
-441.807	240.718	0.131	-0.221
-440.792	-106.495	-0.219	-0.049
-439.778	46.623	-0.190	0.178
-438.763	-9.522	-0.131	-0.089
-437.749	-200.000	-0.015	0.137
-436.734	800.000	-0.096	0.303
-435.719	-124.627	0.369	-0.058
-434.705	336.439	0.120	0.235
-433.690	153.410	0.068	-0.095
-432.676	-200.000	-0.051	0.432
-431.661	800.000	0.058	-0.226
-430.646	-200.000	0.024	-0.117
-429.632	-43.687	-0.384	-0.196
-428.617	800.000	-0.026	0.109
-427.603	-200.000	-0.002	0.124
-426.588	475.247	0.098	-0.224
-425.573	375.257	-0.079	-0.162
-424.559	800.000	0.092	-0.339
-423.544	100.049	-0.134	-0.157
-422.530	-112.030	-0.167	0.034
-421.515	84.107	-0.122	-0.134
-420.500	4.281	-0.013	-0.010
-419.486	-178.960	0.239	-0.005
-418.471	-200.000	0.006	-0.107
-417.457	-200.000	-0.003	0.111
-416.442	-37.256	-0.125	0.068
-415.428	-121.697	-0.174	-0.029
-414.413	-58.521	0.249	0.109
-413.398	-170.966	0.144	0.005
-412.384	354.850	0.074	0.148
-411.369	-200.000	-0.030	0.445
-410.355	-200.000	-0.016	0.108
-409.340	-101.349	0.206	0.051
-408.325	800.000	0.143	0.576
-407.311	121.744	-0.296	-0.373
-406.296	-39.165	-0.396	0.210
-405.282	1.227	-0.144	0.105
-404.267	-180.883	0.214	0.004
-403.252	106.595	-0.110	-0.131
-402.238	229.008	0.029	-0.048
-401.223	201.921	-0.126	0.196
-400.209	130.899	-0.134	0.174
-399.194	153.700	0.196	-0.271
-398.179	-200.000	-0.009	-0.117
-397.165	-68.452	-0.270	-0.106
-396.150	800.000	0.116	-0.329
-395.136	-200.000	-0.026	0.203
-394.121	-200.000	-0.002	0.088
-393.106	396.006	-0.099	0.209
-392.092	-35.898	-0.240	0.131
-391.077	-94.815	-0.306	0.084
-390.063	310.200	0.120	0.227
-389.048	159.155	-0.057	-0.080
-388.033	-27.235	0.245	0.144
-387.019	-123.240	0.181	-0.029
-386.004	49.244	0.280	0.265
-384.990	-107.723	0.106	-0.023
-383.975	800.000	-0.110	-0.484
-382.960	195.516	0.054	-0.083
-381.946	-141.512	0.087	-0.009
-380.931	327.763	0.132	0.255
-379.917	486.513	0.071	-0.163
-378.902	121.369	-0.067	-0.085
-377.888	-114.141	0.210	0.041
-376.873	-124.430	-0.191	-0.030
-375.858	52.172	-0.199	-0.191
-374.844	-200.000	-0.023	0.369
-373.829	0.351	-0.186	0.134
-372.815	-159.277	0.143	-0.008
-371.800	-26.863	0.167	-0.099
-370.785	-200.000	0.005	0.170
-369.771	-80.469	0.183	0.062
-368.756	-51.459	0.273	-0.129
-367.742	124.955	0.280	0.356
-366.727	-109.783	-0.100	-0.021
-365.712	-111.443	-0.248	-0.051
-364.698	-195.140	-0.169	-0.001
-363.683	20.648	-0.112	-0.092
-362.669	44.344	-0.148	0.137
-361.654	-56.094	0.092	-0.042
-360.639	800.000	0.101	-0.286
-359.625	-200.000	0.003	-0.061
-358.610	83.379	-0.101	0.111
-357.596	-70.827	0.490	-0.187
-356.581	-87.417	0.160	0.049
-355.566	-126.149	0.260	-0.039
-354.552	469.246	0.039	0.087
-353.537	-200.000	0.025	0.143
-352.523	-74.332	-0.160	0.058
-351.508	-160.080	-0.182	0.010
-350.493	-58.400	0.447	0.196
-349.479	-44.741	0.165	-0.083
-348.464	-51.692	0.299	0.140
-347.450	33.563	0.292	0.256
-346.435	458.557	0.141	0.316
-345.420	76.829	-0.092	-0.098
-344.406	17.185	-0.058	0.047
-343.391	-157.626	0.206	0.012
-342.377	22.984	0.223	-0.184
-341.362	566.701	-0.049	-0.119
-340.348	-103.277	0.144	-0.034
-339.333	78.685	0.027	0.029
-338.318	-31.767	0.119	-0.067
-337.304	-200.000	-0.032	-0.247
-336.289	-102.548	-0.240	-0.058
-335.275	-63.811	-0.102	0.042
-334.260	204.573	-0.173	0.270
-333.245	-147.781	0.302	-0.025
-332.231	40.465	0.134	-0.122
-331.216	-200.000	-0.007	-0.082
-330.202	50.197	-0.045	0.043
-329.187	129.932	0.051	0.066
-328.172	426.334	-0.049	0.105
-327.158	-200.000	-0.059	0.273
-326.143	-46.197	-0.354	-0.175
-325.129	-200.000	0.020	0.164
-324.114	-47.155	-0.120	0.059
-323.099	-87.439	0.245	-0.075
-322.085	-93.330	0.310	0.087
-321.070	130.360	-0.148	0.191
-320.056	-127.013	-0.150	-0.022
-319.041	-197.290	0.481	-0.003
-318.026	-94.464	0.414	-0.114
-317.012	-29.366	-0.193	0.111
-315.997	146.651	0.081	-0.110
-314.983	-10.859	0.258	-0.172
-313.968	-110.371	-0.333	-0.070
-312.953	-75.888	0.290	0.104
-311.939	-170.191	0.195	-0.007
-310.924	115.612	0.137	-0.169
-309.910	-37.713	0.157	0.084
-308.895	2.988	0.143	0.105
-307.880	49.736	0.150	-0.142
-306.866	668.995	0.092	0.239
-305.851	800.000	0.135	-0.432
-304.837	-105.252	-0.154	-0.035
-303.822	-108.535	-0.107	-0.023
-302.807	254.420	-0.046	-0.079
-301.793	91.139	-0.031	0.035
-300.778	192.974	0.098	-0.149
-299.764	246.348	-0.083	0.140
-298.749	-33.663	-0.294	-0.163
-297.735	-147.447	-0.312	-0.027
-296.720	-31.352	-0.327	0.185
-295.705	-98.647	0.059	0.015
-294.691	641.410	-0.023	-0.059
-293.676	62.773	-0.247	0.248
-292.662	91.880	-0.231	0.261
-291.647	-10.642	0.212	0.141
-290.632	122.592	0.176	-0.222
-289.618	578.353	-0.175	-0.432
-288.603	36.174	0.115	0.101
-287.589	176.438	0.281	0.411
-286.574	-53.389	0.209	0.096
-285.559	800.000	0.067	0.276
-284.545	-117.864	-0.093	0.017
-283.530	-200.000	-0.002	-0.030
-282.516	-200.000	0.017	-0.211
-281.501	-95.872	0.369	0.099
-280.486	-172.951	0.069	0.002
-279.472	470.591	0.109	-0.246
-278.457	5.430	-0.184	0.136
-277.443	43.046	0.100	-0.092
-276.428	-200.000	0.037	-0.167
-275.413	800.000	-0.071	-0.213
-274.399	800.000	0.011	0.041
-273.384	-103.734	0.330	-0.078
-272.370	-127.822	0.397	0.058
-271.355	800.000	0.055	0.164
-270.340	-200.000	-0.015	-0.158
-269.326	451.739	-0.053	-0.117
-268.311	-35.705	0.124	0.067
-267.297	46.693	-0.182	0.170
-266.282	21.567	-0.110	-0.090
-265.267	800.000	0.064	0.250
-264.253	24.523	-0.146	0.121
-263.238	54.909	-0.151	-0.146
-262.224	44.118	-0.095	0.087
-261.209	-200.000	0.042	0.258
-260.195	11.040	0.212	-0.163
-259.180	243.376	0.218	-0.368
-258.165	-200.000	0.228	-0.001
-257.151	800.000	-0.112	-0.335
-256.136	-86.320	0.177	-0.055
-255.122	-70.687	-0.278	0.105
-254.107	-200.000	0.014	-0.097
-253.092	-200.000	0.002	0.176
-252.078	-200.000	0.019	-0.180
-251.063	-133.773	0.324	-0.040
-250.049	-90.390	-0.127	-0.037
-249.034	-72.076	-0.217	0.081
-248.019	-17.210	-0.182	0.115
-247.005	166.648	0.141	-0.200
-245.990	-2.304	-0.290	0.204
-244.976	-13.686	0.535	-0.348
-243.961	54.935	0.121	0.117
-242.946	-120.984	-0.414	0.070
-241.932	-92.488	0.363	-0.102
-240.917	-92.312	0.155	-0.044
-239.903	-200.000	-0.018	-0.364
-238.888	-200.000	0.014	-0.251
-237.873	-200.000	0.045	-0.301
-236.859	-200.000	-0.031	0.231
-235.844	-131.302	0.252	0.033
-234.830	172.947	-0.090	-0.131
-233.815	-30.160	0.159	0.091
-232.800	-200.000	0.050	0.227
-231.786	599.575	-0.112	0.279
-230.771	-115.550	-0.188	-0.035
-229.757	-161.447	0.122	0.006
-228.742	-87.372	-0.178	0.054
-227.727	-13.057	-0.146	-0.096
-226.713	-53.205	-0.087	0.040
-225.698	132.264	0.152	0.197
-224.684	-176.163	0.280	-0.007
-223.669	-200.000	-0.041	0.195
-222.655	-200.000	0.019	-0.116
-221.640	800.000	0.063	-0.244
-220.625	-48.484	0.108	0.052
-219.611	590.159	0.086	-0.212
-218.596	-200.000	0.024	0.108
-217.582	308.822	-0.089	0.166
-216.567	167.265	0.120	-0.171
-215.552	309.515	0.224	0.419
-214.538	251.535	0.051	0.087
-213.523	-200.000	-0.048	-0.488
-212.509	-114.974	-0.088	0.017
-211.494	106.990	0.099	-0.118
-210.479	0.558	0.275	-0.197
-209.465	163.755	-0.278	0.392
-208.450	351.860	-0.111	-0.220
-207.436	175.942	0.151	-0.220
-206.421	-14.990	0.293	0.188
-205.406	13.887	-0.057	0.045
-204.392	-17.749	0.182	0.115
-203.377	786.272	-0.101	0.279
-202.363	195.477	-0.070	-0.107
-201.348	-78.023	-0.131	0.045
-200.333	800.000	0.087	0.266
-199.319	-108.187	-0.254	0.055
-198.304	563.257	-0.048	0.117
-197.290	81.548	0.136	0.148
-196.275	-61.164	0.176	-0.074
-195.260	60.402	0.271	0.268
-194.246	43.001	-0.158	0.144
-193.231	113.878	0.113	-0.138
-192.217	-129.417	-0.388	0.054
-191.202	-81.382	-0.456	-0.151
-190.187	5.508	0.139	-0.103
-189.173	-139.655	-0.350	-0.037
-188.158	124.031	0.063	0.079
-187.144	-156.784	-0.271	-0.017
-186.129	67.277	-0.035	0.036
-185.114	245.256	0.121	0.204
-184.100	-66.571	-0.119	-0.047
-183.085	-200.000	-0.006	0.047
-182.071	-173.800	-0.283	-0.008
-181.056	-142.608	0.102	0.010
-180.042	-200.000	0.057	-0.325
-179.027	-200.000	-0.035	-0.192
-178.012	43.400	0.216	0.197
-176.998	-200.000	0.048	0.265
-175.983	-200.000	0.026	-0.339
-174.969	-68.981	0.231	-0.089
-173.954	250.812	-0.186	0.317
-172.939	-101.265	0.136	-0.033
-171.925	-200.000	-0.005	-0.075
-170.910	-113.373	0.037	0.007
-169.896	-143.647	-0.187	-0.018
-168.881	800.000	0.052	-0.167
-167.866	-200.000	-0.011	0.120
-166.852	554.925	0.142	0.341
-165.837	701.924	0.149	-0.392
-164.823	-200.000	-0.009	-0.399
-163.808	295.892	0.053	-0.098
-162.793	237.105	0.105	-0.174
-161.779	24.825	0.286	-0.237
-160.764	107.478	0.158	-0.188
-159.750	-46.569	0.099	-0.048
-158.735	263.228	-0.109	0.189
-157.720	-200.000	-0.031	0.415
-156.706	410.547	-0.042	0.089
-155.691	-200.000	0.031	0.216
-154.677	-200.000	-0.043	0.299
-153.662	224.098	0.043	0.070
-152.647	-200.000	0.013	0.207
-151.633	-200.000	-0.058	-0.254
-150.618	-82.859	0.137	-0.044
-149.604	509.205	-0.163	0.380
-148.589	800.000	-0.119	-0.333
-147.574	-23.348	-0.333	-0.200
-146.560	-200.000	0.050	0.269
-145.545	-70.917	-0.289	0.109
-144.531	800.000	-0.054	0.171
-143.516	4.307	-0.285	0.209
-142.502	-200.000	-0.030	0.141
-141.487	800.000	-0.067	-0.261
-140.472	77.373	-0.205	0.218
-139.458	-200.000	-0.028	-0.180
-138.443	-167.607	0.069	0.003
-137.429	-159.900	-0.494	0.027
-136.414	264.030	-0.094	0.163
-135.399	800.000	0.061	0.209
-134.385	800.000	0.035	-0.124
-133.370	-133.717	-0.229	0.029
-132.356	-132.130	-0.129	-0.017
-131.341	3.245	-0.098	-0.071
-130.326	14.371	-0.185	0.144
-129.312	-200.000	0.016	-0.256
-128.297	800.000	-0.079	-0.280
-127.283	-90.518	-0.094	0.027
-126.268	-118.598	0.328	-0.058
-125.253	-64.669	-0.082	0.033
-124.239	-140.551	-0.348	0.036
-123.224	-151.089	0.125	0.009
