DTS Sentinel unit serial number:	SN413079Multiplexer serial number:	ORYXHardware model number:	OX4-SRSoftware version number:	ORYX F/W v4.00 Oryx Data Collector v3.7.2.0data status	okinstallation	princeton_trtdifferential loss correction	single-endedforward channel	channel 1reverse channel	N/Adate	2019/09/11time	21:36:11forward acquisition time	60.00reverse acquisition time	0.00gamma	496.2192k internal	0.2310k external	0.2310temperature offset calibration	1.0047default loss term (dB/km)	0.3790temperature slope calibration	1.0000multiplexer offset coefficient	1.0000multiplexer slope coefficient	1.0000fibre end	0.00T internal ref (°C)	35.89T ext. ref 1 (°C)	1.61T ext. ref 2 (°C)	30.14length (m)	temperature (°C)	Stokes	anti-Stokes-747.200	93.256	-0.036	-0.042
-746.185	98.517	-0.278	0.326
-745.171	150.827	-0.232	0.320
-744.156	800.000	-0.103	0.327
-743.142	800.000	-0.061	-0.216
-742.127	800.000	-0.039	-0.117
-741.112	159.233	-0.128	-0.181
-740.098	628.300	-0.047	-0.121
-739.083	800.000	-0.117	0.338
-738.069	800.000	-0.068	0.270
-737.054	6.203	0.338	-0.254
-736.039	148.660	-0.035	0.048
-735.025	16.950	0.069	0.056
-734.010	16.626	0.205	0.164
-732.996	-32.756	-0.089	-0.050
-731.981	-67.427	-0.120	-0.048
-730.966	-66.793	0.160	0.064
-729.952	-101.684	0.041	-0.010
-728.937	146.755	-0.242	-0.330
-727.923	-200.000	0.052	-0.492
-726.908	57.125	0.025	-0.025
-725.894	-104.331	-0.150	0.035
-724.879	-72.370	-0.115	-0.043
-723.864	-39.522	-0.152	0.081
-722.850	-103.406	-0.069	-0.017
-721.835	0.214	0.053	-0.039
-720.821	-57.038	0.314	-0.140
-719.806	-92.133	-0.384	0.110
-718.791	242.090	0.175	0.297
-717.777	107.537	-0.254	-0.307
-716.762	-200.000	0.081	0.395
-715.748	-127.514	0.114	-0.017
-714.733	800.000	-0.049	-0.172
-713.718	-200.000	-0.018	-0.113
-712.704	-14.870	0.243	0.158
-711.689	684.092	0.049	0.131
-710.675	100.348	-0.250	-0.295
-709.660	195.354	-0.183	-0.282
-708.645	648.192	-0.095	0.246
-707.631	15.909	0.322	0.257
-706.616	57.191	-0.169	0.167
-705.602	525.711	0.122	0.290
-704.587	-86.512	0.286	-0.089
-703.572	166.549	-0.134	-0.193
-702.558	-200.000	0.020	0.185
-701.543	800.000	-0.077	-0.240
-700.529	165.874	0.044	-0.063
-699.514	151.335	0.117	-0.161
-698.499	-107.264	-0.406	-0.091
-697.485	-111.427	-0.126	0.026
-696.470	-177.626	0.177	0.004
-695.456	800.000	0.038	-0.119
-694.441	800.000	-0.122	-0.392
-693.426	-56.282	-0.310	-0.139
-692.412	-200.000	0.033	0.174
-691.397	369.253	0.053	-0.109
-690.383	800.000	-0.092	-0.296
-689.368	215.370	-0.082	0.132
-688.354	404.668	-0.029	-0.063
-687.339	800.000	-0.116	-0.332
-686.324	-8.489	0.212	0.145
-685.310	800.000	-0.106	0.301
-684.295	-82.708	0.196	0.064
-683.281	324.640	-0.184	-0.356
-682.266	484.005	0.063	-0.145
-681.251	568.694	-0.012	-0.030
-680.237	800.000	-0.037	-0.137
-679.222	-182.752	-0.054	-0.001
-678.208	51.163	-0.075	-0.072
-677.193	-200.000	-0.005	0.273
-676.178	-132.609	-0.129	-0.017
-675.164	-200.000	0.014	-0.072
-674.149	-44.455	0.276	0.140
-673.135	358.920	-0.081	-0.165
-672.120	-20.600	0.093	0.058
-671.105	-38.982	0.257	-0.137
-670.091	107.303	-0.138	0.166
-669.076	-132.294	-0.350	0.046
-668.062	188.304	-0.136	-0.206
-667.047	-119.751	-0.330	0.058
-666.032	14.484	0.101	-0.080
-665.018	50.842	0.110	0.105
-664.003	-79.256	0.299	0.103
-662.989	-200.000	0.012	0.182
-661.974	800.000	0.001	-0.006
-660.959	-85.484	-0.399	0.126
-659.945	144.533	-0.042	0.057
-658.930	2.882	-0.118	-0.087
-657.916	-200.000	-0.016	-0.153
-656.901	114.755	-0.219	-0.270
-655.886	94.317	-0.132	0.152
-654.872	-29.708	-0.117	0.068
-653.857	-128.975	-0.077	-0.011
-652.843	415.877	-0.070	-0.150
-651.828	195.806	0.172	-0.265
-650.814	-200.000	0.008	0.053
-649.799	-42.212	0.114	0.059
-648.784	-200.000	-0.035	-0.242
-647.770	800.000	-0.015	-0.062
-646.755	228.885	0.149	0.246
-645.741	10.662	0.075	-0.058
-644.726	-200.000	-0.023	0.226
-643.711	-77.574	-0.290	-0.102
-642.697	-200.000	0.021	-0.273
-641.682	800.000	-0.190	-0.568
-640.668	182.230	-0.160	-0.239
-639.653	144.560	0.100	-0.135
-638.638	-200.000	0.000	0.087
-637.624	-6.130	-0.264	-0.182
-636.609	28.277	-0.050	0.043
-635.595	-51.935	-0.259	-0.122
-634.580	115.426	-0.254	-0.314
-633.565	-200.000	-0.022	0.124
-632.551	-139.720	0.160	-0.017
-631.536	-67.231	0.169	0.067
-630.522	-28.051	-0.349	0.204
-629.507	84.556	-0.152	0.168
-628.492	213.075	-0.076	-0.121
-627.478	-87.828	-0.221	-0.067
-626.463	324.131	-0.104	0.201
-625.449	-130.163	-0.089	-0.012
-624.434	-200.000	-0.005	-0.146
-623.419	347.649	0.079	0.158
-622.405	-72.962	-0.169	0.063
-621.390	-65.020	0.189	-0.077
-620.376	40.862	0.152	-0.138
-619.361	-180.586	0.295	0.006
-618.346	-200.000	-0.040	0.255
-617.332	-200.000	-0.030	-0.231
-616.317	-67.088	-0.215	0.086
-615.303	-138.541	-0.323	0.036
-614.288	-14.464	0.137	-0.089
-613.273	403.022	-0.116	0.246
-612.259	458.350	-0.033	-0.073
-611.244	-23.851	-0.030	0.018
-610.230	94.791	0.190	0.218
-609.215	62.972	-0.234	0.237
-608.201	138.422	-0.247	0.327
-607.186	-69.446	-0.174	-0.067
-606.171	-150.768	0.227	0.017
-605.157	-185.463	-0.151	-0.002
-604.142	5.845	-0.197	0.147
-603.128	114.243	-0.057	-0.070
-602.113	166.448	-0.202	0.289
-601.098	-67.097	-0.215	0.086
-600.084	256.500	0.154	-0.267
-599.069	-200.000	0.005	-0.131
-598.055	-122.935	-0.147	0.024
-597.040	-48.907	0.536	-0.259
-596.025	88.398	-0.038	0.043
-595.011	323.696	-0.068	0.131
-593.996	16.794	-0.195	0.156
-592.982	189.449	-0.101	-0.153
-591.967	-50.178	0.150	0.072
-590.952	143.701	-0.050	0.067
-589.938	-80.183	-0.223	0.075
-588.923	-200.000	0.048	0.341
-587.909	-134.367	-0.230	-0.028
-586.894	-200.000	0.004	-0.235
-585.879	120.083	-0.209	-0.262
-584.865	-96.088	-0.256	0.069
-583.850	510.926	0.150	-0.352
-582.836	-32.878	-0.147	0.083
-581.821	69.069	-0.085	-0.089
-580.806	800.000	-0.050	0.150
-579.792	-62.990	0.099	0.041
-578.777	-125.402	-0.275	-0.042
-577.763	800.000	-0.091	-0.266
-576.748	-100.616	0.318	-0.079
-575.733	-200.000	-0.007	0.038
-574.719	106.891	-0.116	0.139
-573.704	260.844	0.065	-0.114
-572.690	202.798	-0.033	0.052
-571.675	-200.000	-0.028	0.180
-570.661	-173.530	-0.158	0.005
-569.646	63.878	-0.099	0.100
-568.631	800.000	0.046	0.148
-567.617	10.946	-0.121	-0.093
-566.602	-28.218	0.230	0.134
-565.588	7.794	0.098	-0.074
-564.573	800.000	0.080	-0.273
-563.558	-185.958	0.245	-0.004
-562.544	-63.867	0.058	0.024
-561.529	-200.000	-0.014	-0.120
-560.515	800.000	0.069	0.295
-559.500	-71.398	-0.173	-0.065
-558.485	374.996	-0.155	-0.319
-557.471	800.000	0.093	-0.289
-556.456	800.000	0.026	0.083
-555.442	-44.789	0.226	-0.114
-554.427	45.600	-0.107	-0.100
-553.412	80.792	-0.214	0.232
-552.398	326.158	-0.087	-0.168
-551.383	255.319	-0.227	-0.392
-550.369	-8.740	0.200	0.135
-549.354	250.649	-0.082	0.141
-548.339	-162.658	-0.178	0.009
-547.325	6.437	0.205	0.153
-546.310	-82.475	0.282	-0.092
-545.296	27.182	0.211	-0.179
-544.281	124.008	0.147	0.186
-543.266	-200.000	0.033	0.242
-542.252	49.140	-0.140	0.133
-541.237	179.852	0.190	-0.280
-540.223	-200.000	0.001	0.103
-539.208	800.000	0.048	0.178
-538.193	-200.000	0.042	-0.255
-537.179	-72.833	0.296	-0.110
-536.164	-200.000	-0.001	-0.171
-535.150	226.634	0.212	-0.346
-534.135	-130.018	-0.143	-0.020
-533.121	42.541	0.084	0.077
-532.106	-44.866	-0.339	0.170
-531.091	7.782	-0.142	0.107
-530.077	39.674	0.150	-0.135
-529.062	78.806	0.117	-0.126
-528.048	-145.320	-0.198	0.018
-527.033	160.131	-0.306	-0.430
-526.018	-200.000	-0.022	-0.169
-525.004	70.165	0.284	0.295
-523.989	-146.406	-0.121	-0.011
-522.975	20.645	0.002	-0.002
-521.960	-78.592	-0.071	-0.024
-520.945	43.034	0.106	0.097
-519.931	-200.000	-0.002	-0.257
-518.916	54.735	-0.080	-0.078
-517.902	-69.894	0.264	-0.101
-516.887	34.108	0.020	0.017
-515.872	-39.476	0.016	0.009
-514.858	-28.881	0.151	0.087
-513.843	-200.000	0.003	0.087
-512.829	-2.182	-0.225	-0.159
-511.814	-200.000	0.029	-0.301
-510.799	-41.287	-0.115	-0.060
-509.785	-11.602	0.257	0.170
-508.770	87.514	-0.054	0.060
-507.756	-155.525	0.097	0.006
-506.741	-200.000	0.021	-0.097
-505.726	110.349	0.297	-0.359
-504.712	-108.386	-0.128	-0.028
-503.697	217.354	-0.221	-0.355
-502.683	-122.724	-0.025	0.004
-501.668	-200.000	-0.022	-0.162
-500.653	29.425	-0.121	-0.103
-499.639	363.354	0.154	-0.311
-498.624	9.797	0.185	0.141
-497.610	535.307	-0.036	-0.085
-496.595	189.019	-0.224	0.337
-495.581	-154.336	0.276	-0.019
-494.566	-1.039	0.118	-0.084
-493.551	35.339	-0.198	0.175
-492.537	-200.000	-0.010	0.204
-491.522	-127.706	-0.159	0.023
-490.508	-132.369	0.079	0.010
-489.493	-8.366	-0.286	-0.193
-488.478	-200.000	0.071	0.364
-487.464	70.220	-0.189	0.196
-486.449	279.711	0.102	0.184
-485.435	22.907	0.161	0.132
-484.420	-96.475	0.172	-0.046
-483.405	608.894	-0.151	-0.378
-482.391	-200.000	0.015	-0.296
-481.376	689.718	-0.130	-0.341
-480.362	312.721	0.077	-0.145
-479.347	-102.091	-0.218	0.053
-478.332	800.000	0.058	0.225
-477.318	-17.585	-0.144	-0.091
-476.303	-0.629	-0.190	-0.136
-475.289	-188.685	-0.123	0.002
-474.274	-45.009	0.241	-0.120
-473.259	-133.725	-0.153	0.019
-472.245	-25.528	0.295	-0.175
-471.230	-115.697	0.217	0.041
-470.216	800.000	-0.044	0.177
-469.201	141.178	-0.116	0.154
-468.186	-59.366	-0.072	0.031
-467.172	-148.208	-0.182	-0.015
-466.157	800.000	0.064	-0.190
-465.143	-200.000	-0.046	0.347
-464.128	142.670	0.095	-0.126
-463.113	-70.518	0.103	0.039
-462.099	379.984	-0.025	0.051
-461.084	63.828	0.223	0.225
-460.070	-89.996	0.346	0.101
-459.055	-200.000	-0.010	0.238
-458.040	-200.000	-0.057	0.260
-457.026	800.000	0.080	-0.263
-456.011	-200.000	0.001	-0.064
-454.997	-138.821	-0.273	0.030
-453.982	-200.000	-0.022	-0.395
-452.968	432.739	-0.233	0.508
-451.953	800.000	0.088	0.320
-450.938	800.000	-0.038	-0.141
-449.924	-34.308	0.272	0.150
-448.909	-24.858	0.193	0.115
-447.895	800.000	0.058	-0.230
-446.880	22.623	-0.261	-0.215
-445.865	-155.197	-0.273	0.018
-444.851	744.458	0.099	-0.266
-443.836	-146.230	0.186	-0.016
-442.822	-6.454	0.090	0.062
-441.807	-200.000	-0.012	-0.209
-440.792	74.891	-0.136	0.143
-439.778	-160.627	0.219	-0.012
-438.763	-200.000	0.009	-0.054
-437.749	800.000	0.080	-0.315
-436.734	99.266	0.207	0.240
-435.719	24.299	0.075	0.062
-434.705	-74.353	0.261	0.095
-433.690	414.701	-0.091	0.195
-432.676	-50.023	0.255	0.121
-431.661	158.736	0.061	0.085
-430.646	-109.958	-0.253	0.053
-429.632	-121.285	-0.252	0.042
-428.617	-200.000	0.020	-0.344
-427.603	-49.598	-0.027	-0.013
-426.588	800.000	0.088	0.255
-425.573	-17.961	0.151	0.095
-424.559	76.351	0.109	0.116
-423.544	-95.514	-0.212	-0.057
-422.530	-22.138	0.088	-0.053
-421.515	-88.276	-0.215	-0.064
-420.500	800.000	-0.027	0.089
-419.486	800.000	-0.061	0.229
-418.471	376.045	-0.033	0.068
-417.457	-144.789	-0.237	-0.022
-416.442	-187.471	-0.230	-0.003
-415.428	-25.224	-0.148	0.088
-414.413	209.307	0.201	0.315
-413.398	-72.336	0.331	0.123
-412.384	-35.957	-0.049	-0.027
-411.369	-65.036	0.453	-0.183
-410.355	199.703	-0.122	0.188
-409.340	-34.330	-0.203	-0.111
-408.325	800.000	-0.031	-0.120
-407.311	425.123	0.110	-0.237
-406.296	-51.986	0.113	-0.053
-405.282	-107.647	-0.159	-0.035
-404.267	630.302	0.127	-0.322
-403.252	-50.814	0.137	0.064
-402.238	73.861	-0.140	0.147
-401.223	-200.000	-0.003	-0.252
-400.209	57.743	0.319	0.313
-399.194	-135.042	0.126	0.015
-398.179	-200.000	0.025	0.165
-397.165	-26.063	0.159	0.094
-396.150	170.814	0.109	-0.157
-395.136	800.000	-0.111	0.343
-394.121	155.138	0.050	-0.070
-393.106	-33.479	-0.175	-0.097
-392.092	-162.026	-0.288	-0.015
-391.077	57.743	-0.130	0.127
-390.063	-200.000	-0.033	0.207
-389.048	-33.394	-0.346	-0.192
-388.033	62.747	-0.211	-0.212
-387.019	800.000	0.045	-0.198
-386.004	-4.010	-0.034	-0.024
-384.990	-200.000	0.018	-0.232
-383.975	0.043	0.307	0.219
-382.960	41.581	0.247	0.224
-381.946	-117.068	0.180	-0.033
-380.931	800.000	0.102	0.305
-379.917	-98.702	-0.017	-0.004
-378.902	44.693	0.163	0.150
-377.888	-200.000	-0.023	-0.180
-376.873	-31.954	-0.117	-0.065
-375.858	61.002	0.174	-0.173
-374.844	118.369	0.096	-0.118
-373.829	-99.847	-0.278	-0.070
-372.815	72.467	-0.124	0.129
-371.800	6.360	0.198	-0.147
-370.785	-147.161	-0.372	-0.032
-369.771	-72.476	-0.095	0.035
-368.756	-118.820	0.272	0.048
-367.742	3.216	0.134	-0.098
-366.727	-56.221	0.272	0.121
-365.712	-62.814	0.368	-0.152
-364.698	-200.000	-0.004	0.318
-363.683	283.330	0.051	0.092
-362.669	-26.255	-0.248	-0.146
-361.654	-124.921	0.287	0.044
-360.639	136.653	-0.128	0.168
-359.625	800.000	-0.037	-0.132
-358.610	800.000	-0.063	0.194
-357.596	-12.368	-0.190	-0.124
-356.581	-72.424	-0.371	0.137
-355.566	-164.337	-0.257	0.012
-354.552	-106.093	-0.275	-0.062
-353.537	-141.255	0.192	0.020
-352.523	13.865	0.074	-0.058
-351.508	-199.117	0.394	0.002
-350.493	-97.468	0.271	-0.070
-349.479	-59.056	-0.068	-0.030
-348.464	37.306	-0.118	0.105
-347.450	173.653	-0.152	-0.220
-346.435	109.778	-0.073	0.088
-345.420	238.549	-0.144	-0.239
-344.406	772.614	0.099	-0.269
-343.391	-73.666	0.442	0.161
-342.377	-35.815	-0.188	0.102
-341.362	174.411	-0.135	-0.194
-340.348	356.255	0.062	-0.123
-339.333	-100.441	0.096	0.024
-338.318	-73.560	-0.275	0.100
-337.304	-52.420	0.285	0.132
-336.289	-76.187	0.433	-0.153
-335.275	434.874	0.043	0.094
-334.260	-187.017	0.157	-0.002
-333.245	-16.647	0.244	-0.154
-332.231	-163.703	0.311	0.015
-331.216	-200.000	0.035	-0.238
-330.202	-122.116	0.342	-0.056
-329.187	43.512	0.201	-0.183
-328.172	-176.588	0.235	-0.006
-327.158	-57.416	-0.055	0.024
-326.143	800.000	0.038	-0.159
-325.129	280.312	0.125	0.222
-324.114	-73.316	-0.133	0.049
-323.099	528.593	0.064	0.150
-322.085	-51.744	-0.145	0.067
-321.070	168.441	0.114	0.162
-320.056	-68.327	0.021	-0.008
-319.041	-195.747	0.242	-0.002
-318.026	91.786	-0.220	-0.247
-317.012	-200.000	0.013	-0.205
-315.997	-117.981	-0.533	-0.095
-314.983	378.141	0.057	0.117
-313.968	61.591	0.095	-0.094
-312.953	224.749	-0.082	0.133
-311.939	129.693	0.049	0.063
-310.924	800.000	-0.049	-0.185
-309.910	114.884	0.298	-0.363
-308.895	-200.000	-0.015	-0.288
-307.880	-18.830	-0.308	0.192
-306.866	-200.000	-0.026	-0.252
-305.851	-200.000	-0.023	0.337
-304.837	-37.240	0.341	0.182
-303.822	49.161	0.111	0.104
-302.807	-88.133	-0.154	0.046
-301.793	-92.772	-0.216	-0.060
-300.778	14.143	-0.225	-0.175
-299.764	394.331	-0.126	-0.261
-298.749	121.720	0.110	-0.137
-297.735	0.249	-0.090	0.064
-296.720	800.000	0.046	0.183
-295.705	19.899	-0.130	0.104
-294.691	146.030	0.082	-0.110
-293.676	25.786	0.362	0.301
-292.662	399.807	0.180	0.376
-291.647	531.106	0.153	-0.360
-290.632	-56.442	0.178	-0.079
-289.618	-56.387	0.150	-0.067
-288.603	800.000	0.073	0.255
-287.589	-64.148	0.276	0.112
-286.574	-200.000	0.002	0.253
-285.559	-200.000	-0.043	-0.254
-284.545	-76.422	0.238	-0.083
-283.530	-51.828	0.193	0.090
-282.516	-90.060	0.125	-0.036
-281.501	-200.000	0.030	0.207
-280.486	53.030	-0.141	0.135
-279.472	-60.510	-0.341	0.144
-278.457	299.902	-0.189	0.347
-277.443	344.257	0.023	-0.045
-276.428	9.991	-0.295	0.224
-275.413	115.861	-0.036	-0.044
-274.399	-80.228	-0.111	-0.037
-273.384	6.993	0.320	-0.238
-272.370	-61.821	-0.361	0.151
-271.355	-132.957	-0.196	0.025
-270.340	32.748	-0.099	-0.086
-269.326	-200.000	0.015	0.091
-268.311	-87.255	0.033	-0.010
-267.297	495.105	-0.051	-0.116
-266.282	55.043	0.219	-0.211
-265.267	412.637	0.092	0.195
-264.253	-44.125	0.298	-0.149
-263.238	-47.619	0.144	-0.069
-262.224	31.843	-0.177	0.152
-261.209	-200.000	0.039	-0.240
-260.195	-87.839	0.263	0.079
-259.180	-49.699	-0.095	0.045
-258.165	-57.175	-0.074	-0.033
-257.151	-38.971	-0.107	0.056
-256.136	-200.000	-0.058	-0.264
-255.122	800.000	-0.078	-0.266
-254.107	-200.000	0.066	0.316
-253.092	-134.320	0.204	-0.025
-252.078	-200.000	0.042	-0.242
-251.063	-55.398	-0.407	0.182
-250.049	-196.901	-0.496	-0.003
-249.034	685.181	-0.129	-0.337
-248.019	-139.787	0.151	-0.016
-247.005	141.338	-0.108	-0.142
-245.990	-10.004	0.126	-0.083
-244.976	-191.845	0.299	-0.003
-243.961	170.093	0.029	0.042
-242.946	-111.277	-0.402	-0.082
-241.932	800.000	-0.115	0.484
-240.917	460.846	0.159	0.352
-239.903	-87.240	0.177	0.054
-238.888	-77.173	-0.134	-0.047
-237.873	-148.108	0.145	0.012
-236.859	241.881	0.180	0.300
-235.844	800.000	-0.075	-0.266
-234.830	75.280	-0.242	0.254
-233.815	-124.793	-0.258	0.040
-232.800	-9.866	0.255	0.169
-231.786	-176.004	0.182	0.005
-230.771	-135.410	-0.216	-0.026
-229.757	800.000	0.037	-0.133
-228.742	-26.653	0.492	0.287
-227.727	148.900	0.068	0.092
-226.713	-200.000	0.023	-0.232
-225.698	110.963	0.150	-0.180
-224.684	494.332	0.106	-0.243
-223.669	298.097	-0.087	-0.159
-222.655	446.256	-0.024	-0.052
-221.640	28.236	0.239	0.201
-220.625	-65.750	0.325	0.130
-219.611	2.570	-0.110	-0.079
-218.596	800.000	0.041	0.127
-217.582	-176.248	0.258	0.007
-216.567	800.000	-0.107	0.337
-215.552	-200.000	0.067	0.323
-214.538	155.708	-0.184	0.252
-213.523	-101.940	0.188	-0.045
-212.509	163.845	-0.075	-0.105
-211.494	-200.000	-0.157	-0.000
-210.479	-73.510	-0.213	0.077
-209.465	156.876	-0.245	0.337
-208.450	-83.432	0.222	-0.071
-207.436	800.000	-0.050	-0.163
-206.421	-196.598	0.103	-0.001
-205.406	-200.000	-0.011	0.190
-204.392	477.578	-0.147	-0.331
-203.377	-200.000	-0.026	0.250
-202.363	800.000	-0.040	-0.135
-201.348	-117.145	0.099	0.018
-200.333	151.239	0.067	0.090
-199.319	-125.435	-0.100	0.015
-198.304	111.526	0.206	0.247
-197.290	-200.000	0.004	0.106
-196.275	800.000	-0.064	0.245
-195.260	275.443	0.016	-0.029
-194.246	-200.000	-0.026	0.165
-193.231	518.638	-0.029	0.068
-192.217	-200.000	-0.012	-0.148
-191.202	-78.933	-0.166	-0.056
-190.187	-29.504	-0.085	0.048
-189.173	-49.707	-0.170	-0.080
-188.158	-106.417	-0.227	-0.050
-187.144	-200.000	-0.037	0.185
-186.129	40.606	0.178	-0.159
-185.114	-68.805	0.075	0.029
-184.100	93.239	-0.154	-0.173
-183.085	-169.738	-0.328	0.012
-182.071	800.000	0.037	-0.115
-181.056	-127.719	0.408	-0.059
-180.042	189.095	-0.064	-0.096
-179.027	800.000	-0.105	0.421
-178.012	-95.701	-0.141	0.038
-176.998	1.185	-0.331	-0.236
-175.983	527.982	-0.158	-0.370
-174.969	-68.387	-0.280	-0.108
-173.954	-18.224	-0.457	-0.284
-172.939	-106.253	-0.316	-0.070
-171.925	-195.310	0.373	-0.003
-170.910	800.000	0.049	-0.172
-169.896	4.643	-0.120	0.087
-168.881	283.049	0.077	0.137
-167.866	-50.683	0.129	-0.060
-166.852	514.268	0.076	-0.177
-165.837	-137.391	0.154	-0.017
-164.823	-7.585	0.023	-0.016
-163.808	-200.000	-0.013	0.186
-162.793	116.380	0.154	-0.188
-161.779	380.363	-0.033	0.067
-160.764	-98.926	0.118	-0.030
-159.750	800.000	0.025	0.107
-158.735	-61.737	0.361	0.150
-157.720	9.666	-0.129	0.097
-156.706	27.537	-0.147	0.123
-155.691	341.166	0.199	0.385
-154.677	800.000	-0.041	0.129
-153.662	800.000	-0.081	0.224
-152.647	-200.000	-0.000	0.415
-151.633	-136.794	0.148	0.017
-150.618	7.481	0.269	0.199
-149.604	504.632	0.089	0.205
-148.589	-14.821	0.097	-0.062
-147.574	800.000	0.019	0.078
-146.560	192.547	0.150	0.225
-145.545	800.000	-0.021	-0.063
-144.531	-174.124	-0.291	-0.008
-143.516	24.334	-0.366	-0.300
-142.502	556.554	0.145	0.347
-141.487	82.452	0.143	0.154
-140.472	-134.596	-0.220	-0.027
-139.458	-83.094	-0.255	-0.081
-138.443	-127.868	0.150	0.021
-137.429	35.777	0.305	-0.266
-136.414	-149.646	0.248	0.019
-135.399	175.924	0.155	-0.223
-134.385	346.855	0.056	-0.109
-133.370	-59.092	0.159	0.068
-132.356	800.000	-0.063	0.231
-131.341	422.024	0.121	-0.258
-130.326	-39.570	-0.229	-0.119
-129.312	110.205	0.150	0.178
-128.297	32.683	-0.077	-0.066
-127.283	96.626	0.058	-0.066
-126.268	-200.000	0.008	0.049
-125.253	800.000	0.112	-0.308
-124.239	369.838	-0.136	-0.274
-123.224	-144.524	-0.510	-0.047
-122.210	800.000	0.084	0.302
-121.195	-78.212	0.263	0.090
