DTS Sentinel unit serial number:	SN413079Multiplexer serial number:	ORYXHardware model number:	OX4-SRSoftware version number:	ORYX F/W v4.00 Oryx Data Collector v3.7.2.0data status	okinstallation	princeton_trtdifferential loss correction	single-endedforward channel	channel 1reverse channel	N/Adate	2019/09/16time	12:42:35forward acquisition time	60.00reverse acquisition time	0.00gamma	496.2192k internal	0.2294k external	0.2294temperature offset calibration	0.9954default loss term (dB/km)	0.3790temperature slope calibration	1.0000multiplexer offset coefficient	1.0000multiplexer slope coefficient	1.0000fibre end	0.00T internal ref (°C)	40.06T ext. ref 1 (°C)	13.45T ext. ref 2 (°C)	37.42length (m)	temperature (°C)	Stokes	anti-Stokes-747.200	800.000	0.043	0.164
-746.185	-200.000	0.041	0.316
-745.171	209.969	0.244	-0.391
-744.156	800.000	0.107	0.434
-743.142	-64.915	-0.141	0.058
-742.127	800.000	0.090	0.379
-741.112	-56.929	-0.307	-0.139
-740.098	-200.000	-0.055	0.348
-739.083	157.908	-0.013	-0.018
-738.069	800.000	-0.024	0.073
-737.054	-183.235	0.343	-0.006
-736.039	-31.192	-0.219	0.126
-735.025	-55.994	0.230	-0.105
-734.010	-98.648	-0.551	0.144
-732.996	800.000	-0.056	-0.193
-731.981	-200.000	0.016	-0.307
-730.966	-200.000	0.022	-0.477
-729.952	-150.454	-0.214	0.017
-728.937	-200.000	-0.014	0.184
-727.923	-200.000	-0.012	-0.060
-726.908	-200.000	-0.032	-0.236
-725.894	86.248	-0.212	-0.239
-724.879	-175.891	-0.101	-0.003
-723.864	70.451	0.156	-0.165
-722.850	-200.000	-0.039	-0.221
-721.835	-168.254	-0.372	0.015
-720.821	-78.781	-0.358	0.125
-719.806	-139.123	-0.072	-0.008
-718.791	800.000	-0.083	-0.245
-717.777	119.642	-0.286	-0.361
-716.762	-200.000	-0.033	0.164
-715.748	-86.272	-0.137	0.043
-714.733	-74.003	-0.366	-0.136
-713.718	58.482	0.099	0.100
-712.704	-200.000	0.050	-0.436
-711.689	406.108	-0.102	-0.219
-710.675	800.000	-0.143	-0.423
-709.660	584.404	-0.070	-0.176
-708.645	-117.672	0.049	-0.009
-707.631	800.000	0.059	-0.172
-706.616	-200.000	-0.014	-0.080
-705.602	32.597	-0.145	-0.128
-704.587	800.000	0.024	-0.099
-703.572	661.533	0.130	0.341
-702.558	-200.000	-0.042	-0.382
-701.543	419.025	0.072	-0.158
-700.529	221.055	0.209	-0.342
-699.514	-43.312	0.194	0.100
-698.499	607.776	0.062	0.157
-697.485	128.628	-0.085	0.110
-696.470	-182.978	-0.085	-0.002
-695.456	19.055	-0.194	-0.159
-694.441	-108.523	-0.136	-0.030
-693.426	714.972	-0.081	-0.220
-692.412	228.562	0.294	-0.489
-691.397	-166.298	0.200	-0.009
-690.383	-200.000	-0.036	-0.196
-689.368	125.493	-0.174	-0.224
-688.354	-66.815	0.456	0.184
-687.339	-15.893	0.221	-0.144
-686.324	800.000	0.022	-0.094
-685.310	182.007	-0.149	0.224
-684.295	6.664	-0.237	0.179
-683.281	-73.660	0.086	0.032
-682.266	-101.716	-0.191	0.047
-681.251	74.601	-0.252	-0.270
-680.237	-200.000	0.004	-0.097
-679.222	21.088	0.304	-0.252
-678.208	174.496	-0.071	-0.105
-677.193	62.438	0.084	0.085
-676.178	-200.000	-0.020	0.191
-675.164	-96.501	-0.171	0.046
-674.149	-200.000	0.017	-0.232
-673.135	275.336	0.135	-0.243
-672.120	-88.759	0.204	-0.062
-671.105	-41.341	0.059	-0.031
-670.091	-200.000	0.029	-0.172
-669.076	-8.771	0.109	-0.074
-668.062	800.000	-0.150	0.445
-667.047	800.000	0.125	-0.443
-666.032	96.870	-0.298	-0.349
-665.018	13.604	-0.055	-0.044
-664.003	-106.118	0.127	0.029
-662.989	-139.903	-0.234	-0.025
-661.974	-200.000	-0.051	-0.000
-660.959	16.549	-0.094	0.076
-659.945	-126.001	-0.230	0.035
-658.930	75.504	0.110	0.119
-657.916	46.966	0.233	-0.221
-656.901	47.361	-0.089	-0.085
-655.886	143.021	-0.119	-0.161
-654.872	766.858	-0.069	0.192
-653.857	52.514	-0.030	0.029
-652.843	-52.625	0.203	-0.095
-651.828	-200.000	-0.024	-0.123
-650.814	361.245	-0.062	0.126
-649.799	800.000	-0.062	0.268
-648.784	-159.542	0.294	0.017
-647.770	67.868	-0.062	-0.065
-646.755	-46.964	-0.404	0.201
-645.741	595.513	0.040	0.102
-644.726	623.220	0.108	-0.278
-643.711	255.130	0.070	-0.123
-642.697	-149.095	0.020	0.002
-641.682	216.283	-0.119	-0.193
-640.668	-200.000	-0.016	0.413
-639.653	40.103	-0.050	0.046
-638.638	-118.676	0.293	0.053
-637.624	-92.563	0.109	0.031
-636.609	204.847	-0.124	-0.196
-635.595	310.473	0.195	0.373
-634.580	-91.895	-0.280	-0.081
-633.565	194.536	-0.258	-0.399
-632.551	-28.337	0.142	-0.084
-631.536	747.755	0.103	-0.283
-630.522	-200.000	0.003	0.121
-629.507	800.000	0.074	-0.267
-628.492	-199.733	0.289	0.001
-627.478	-59.165	0.206	0.090
-626.463	-106.017	-0.228	0.052
-625.449	-200.000	0.004	-0.021
-624.434	-162.768	0.104	-0.005
-623.419	-200.000	0.028	-0.194
-622.405	588.431	0.045	0.112
-621.390	340.809	-0.178	-0.354
-620.376	109.063	0.231	-0.281
-619.361	64.810	0.230	0.236
-618.346	800.000	0.103	0.428
-617.332	110.105	-0.150	0.184
-616.317	242.638	0.188	-0.321
-615.303	39.997	0.268	-0.245
-614.288	-80.927	-0.225	0.076
-613.273	-15.501	-0.196	-0.127
-612.259	16.980	-0.111	0.089
-611.244	159.140	-0.111	-0.157
-610.230	-106.862	-0.159	0.036
-609.215	266.812	-0.211	-0.376
-608.201	-18.177	-0.201	-0.128
-607.186	-174.559	-0.023	0.001
-606.171	77.442	-0.294	-0.318
-605.157	-200.000	-0.012	-0.249
-604.142	51.773	0.213	-0.207
-603.128	-42.369	-0.369	0.191
-602.113	548.596	-0.072	-0.174
-601.098	141.344	0.095	-0.128
-600.084	0.741	0.178	-0.129
-599.069	51.381	0.153	-0.147
-598.055	-7.953	0.250	-0.171
-597.040	325.918	-0.092	0.178
-596.025	-99.244	-0.122	-0.031
-595.011	800.000	-0.080	-0.256
-593.996	-11.718	-0.318	-0.212
-592.982	-176.022	-0.234	-0.006
-591.967	185.344	-0.042	0.063
-590.952	11.954	-0.114	0.089
-589.938	276.994	-0.159	-0.287
-588.923	48.146	-0.157	0.149
-587.909	-85.122	-0.025	-0.008
-586.894	-200.000	0.008	0.042
-585.879	-200.000	-0.039	-0.175
-584.865	46.656	0.025	0.023
-583.850	-200.000	-0.000	-0.199
-582.836	8.354	0.188	0.144
-581.821	800.000	-0.074	0.284
-580.806	800.000	-0.065	-0.261
-579.792	800.000	-0.034	0.135
-578.777	10.314	0.039	0.030
-577.763	800.000	-0.050	-0.180
-576.748	-200.000	0.054	0.390
-575.733	88.202	0.177	0.199
-574.719	-200.000	-0.009	0.465
-573.704	-200.000	0.012	-0.557
-572.690	51.548	-0.105	-0.101
-571.675	242.758	0.042	0.072
-570.661	176.051	-0.110	0.163
-569.646	-44.370	0.186	0.095
-568.631	301.989	-0.143	0.268
-567.617	-200.000	-0.043	0.202
-566.602	-43.647	0.211	-0.108
-565.588	-76.277	-0.188	0.067
-564.573	-200.000	-0.017	-0.263
-563.558	-200.000	0.006	-0.450
-562.544	-101.799	0.061	0.015
-561.529	-179.076	0.320	0.007
-560.515	81.055	0.137	0.150
-559.500	-140.835	0.121	0.013
-558.485	527.565	0.057	-0.136
-557.471	-200.000	0.009	0.229
-556.456	-200.000	0.030	-0.429
-555.442	342.351	-0.198	-0.393
-554.427	30.131	0.091	0.079
-553.412	56.334	0.180	-0.178
-552.398	21.287	-0.251	-0.207
-551.383	-33.853	-0.063	-0.035
-550.369	173.679	0.200	0.294
-549.354	-200.000	-0.087	0.508
-548.339	159.177	-0.175	-0.247
-547.325	800.000	0.069	0.274
-546.310	16.323	-0.099	-0.080
-545.296	254.957	0.158	-0.275
-544.281	800.000	0.052	-0.164
-543.266	110.674	0.341	0.417
-542.252	166.160	0.128	-0.184
-541.237	330.597	-0.099	-0.194
-540.223	800.000	-0.061	-0.249
-539.208	555.308	0.100	0.245
-538.193	-119.877	0.076	0.013
-537.179	-11.791	0.164	-0.109
-536.164	682.484	-0.109	-0.287
-535.150	-92.710	-0.207	0.059
-534.135	261.783	0.123	0.216
-533.121	-33.054	-0.059	0.033
-532.106	-200.000	-0.008	-0.266
-531.091	-117.395	0.100	-0.018
-530.077	2.700	-0.173	0.128
-529.062	-53.440	-0.183	0.085
-528.048	800.000	-0.069	-0.240
-527.033	-0.666	-0.089	0.064
-526.018	162.144	-0.113	0.161
-525.004	688.070	-0.120	0.319
-523.989	-25.953	-0.060	0.036
-522.975	800.000	0.019	0.058
-521.960	-127.507	-0.248	-0.036
-520.945	-200.000	0.052	-0.409
-519.931	-94.313	0.243	0.067
-518.916	49.046	0.129	-0.123
-517.902	-71.150	-0.425	0.162
-516.887	37.102	-0.112	-0.100
-515.872	-12.862	-0.208	0.137
-514.858	-59.253	0.051	0.022
-513.843	800.000	-0.035	-0.118
-512.829	-73.375	0.266	-0.099
-511.814	-95.592	0.404	-0.110
-510.799	-61.479	-0.157	0.067
-509.785	41.427	-0.390	-0.357
-508.770	281.217	0.115	0.208
-507.756	424.194	-0.055	-0.120
-506.741	283.616	0.170	0.310
-505.726	800.000	0.073	0.252
-504.712	666.592	0.060	-0.156
-503.697	284.085	0.189	0.345
-502.683	-127.877	-0.038	0.006
-501.668	51.601	-0.054	0.052
-500.653	-24.766	-0.005	0.003
-499.639	648.430	-0.045	-0.117
-498.624	-13.682	-0.163	-0.107
-497.610	-113.449	0.240	-0.048
-496.595	-59.399	0.198	0.086
-495.581	15.692	0.283	0.226
-494.566	155.104	0.044	-0.061
-493.551	148.923	0.121	0.166
-492.537	-200.000	0.010	-0.141
-491.522	-2.694	0.120	0.085
-490.508	-26.659	0.266	-0.158
-489.493	75.025	-0.090	-0.096
-488.478	28.039	-0.170	0.145
-487.464	496.683	-0.130	0.303
-486.449	16.241	0.335	-0.268
-485.435	-68.172	-0.312	0.123
-484.420	-132.623	-0.252	0.033
-483.405	-99.283	-0.202	0.052
-482.391	46.312	-0.209	0.196
-481.376	84.738	0.177	-0.197
-480.362	-33.937	0.390	-0.217
-479.347	267.423	-0.211	-0.374
-478.332	-200.000	-0.015	-0.077
-477.318	315.300	-0.070	-0.134
-476.303	313.345	-0.164	-0.312
-475.289	58.045	-0.221	-0.219
-474.274	-137.037	0.308	0.036
-473.259	151.115	0.143	0.197
-472.245	440.980	0.058	0.128
-471.230	201.838	-0.155	0.241
-470.216	-157.420	0.139	0.008
-469.201	-45.154	0.371	0.187
-468.186	-114.316	0.041	-0.008
-467.172	578.281	0.034	0.084
-466.157	-200.000	-0.014	0.125
-465.143	-200.000	0.031	0.284
-464.128	800.000	-0.075	-0.237
-463.113	37.312	-0.087	-0.078
-462.099	800.000	-0.053	0.189
-461.084	-106.172	-0.082	-0.019
-460.070	331.425	0.075	-0.146
-459.055	-19.466	0.246	0.154
-458.040	-145.297	0.326	-0.030
-457.026	61.418	0.128	-0.129
-456.011	-65.246	0.129	-0.052
-454.997	17.392	0.194	-0.156
-453.982	-31.165	0.098	-0.056
-452.968	-200.000	0.018	0.197
-451.953	2.786	0.077	0.057
-450.938	800.000	0.077	0.260
-449.924	1.687	-0.189	-0.137
-448.909	-200.000	-0.036	0.198
-447.895	800.000	0.103	-0.294
-446.880	-200.000	-0.028	-0.165
-445.865	3.741	-0.215	0.158
-444.851	-77.178	-0.081	0.028
-443.836	266.166	0.039	-0.069
-442.822	-181.605	-0.064	0.001
-441.807	-200.000	-0.001	0.347
-440.792	102.362	-0.146	0.173
-439.778	-200.000	0.087	-0.000
-438.763	160.564	-0.232	-0.327
-437.749	-26.516	0.127	-0.075
-436.734	187.778	0.116	-0.175
-435.719	-47.403	0.228	0.112
-434.705	-200.000	0.015	-0.098
-433.690	-77.027	0.404	0.142
-432.676	85.388	-0.110	0.121
-431.661	13.704	-0.115	0.090
-430.646	73.849	-0.182	-0.193
-429.632	-200.000	0.014	-0.093
-428.617	37.544	-0.172	0.154
-427.603	-200.000	0.003	-0.334
-426.588	112.384	-0.179	-0.219
-425.573	-200.000	0.038	0.252
-424.559	751.402	-0.064	-0.175
-423.544	800.000	-0.014	-0.054
-422.530	169.946	0.245	0.353
-421.515	-103.340	0.619	-0.147
-420.500	700.314	0.073	-0.194
-419.486	105.769	0.212	-0.253
-418.471	486.003	-0.068	0.157
-417.457	800.000	-0.084	0.303
-416.442	8.730	0.129	-0.098
-415.428	-11.245	-0.170	0.113
-414.413	800.000	-0.133	-0.393
-413.398	-104.080	0.109	-0.026
-412.384	-70.978	-0.138	-0.053
-411.369	33.426	-0.230	0.201
-410.355	-200.000	0.002	0.032
-409.340	273.768	-0.042	0.076
-408.325	33.066	0.218	0.191
-407.311	-19.900	-0.144	0.090
-406.296	-55.016	-0.147	0.067
-405.282	5.743	-0.052	-0.039
-404.267	6.289	0.309	0.231
-403.252	800.000	-0.045	0.149
-402.238	660.596	0.047	0.122
-401.223	708.730	0.136	0.363
-400.209	39.774	-0.211	-0.191
-399.194	-3.019	0.114	-0.080
-398.179	363.670	0.089	0.181
-397.165	8.002	0.228	-0.172
-396.150	-200.000	0.046	-0.327
-395.136	-59.573	-0.245	0.106
-394.121	-48.470	-0.200	-0.097
-393.106	-200.000	-0.017	-0.401
-392.092	-200.000	0.035	-0.220
-391.077	800.000	0.036	-0.148
-390.063	-200.000	0.006	0.106
-389.048	-71.177	0.171	0.065
-388.033	-48.183	-0.325	0.158
-387.019	289.371	-0.081	0.148
-386.004	-110.003	0.244	0.052
-384.990	-15.637	0.124	0.080
-383.975	-200.000	0.029	-0.471
-382.960	124.946	-0.026	-0.032
-381.946	-81.587	-0.084	0.028
-380.931	-49.478	0.366	0.176
-379.917	-154.963	0.417	0.028
-378.902	800.000	0.096	-0.276
-377.888	-122.851	0.258	-0.042
-376.873	-200.000	0.020	-0.154
-375.858	-70.453	-0.125	0.048
-374.844	-181.629	0.100	0.002
-373.829	265.710	-0.102	0.180
-372.815	152.205	-0.049	-0.067
-371.800	-200.000	0.052	-0.244
-370.785	-82.381	0.153	-0.050
-369.771	-23.512	0.181	0.110
-368.756	800.000	0.078	-0.223
-367.742	-124.035	-0.122	0.019
-366.727	-74.415	0.054	0.019
-365.712	54.045	-0.216	0.210
-364.698	-119.968	-0.396	0.069
-363.683	-46.451	-0.205	-0.101
-362.669	-200.000	-0.010	0.223
-361.654	139.255	-0.124	-0.164
-360.639	52.240	-0.267	0.257
-359.625	-174.051	-0.153	-0.005
-358.610	-157.931	-0.110	-0.007
-357.596	-100.160	0.129	-0.032
-356.581	-46.747	-0.277	0.137
-355.566	-87.520	-0.295	0.090
-354.552	97.877	0.027	-0.031
-353.537	-55.484	-0.379	-0.171
-352.523	72.001	-0.117	-0.122
-351.508	63.187	-0.107	-0.108
-350.493	-104.269	-0.099	-0.023
-349.479	-179.037	0.252	-0.006
-348.464	61.270	0.193	0.194
-347.450	656.693	0.047	-0.122
-346.435	-8.640	0.060	0.040
-345.420	315.682	-0.091	0.172
-344.406	156.559	0.235	0.327
-343.391	-171.132	0.229	-0.008
-342.377	-88.876	-0.261	-0.078
-341.362	60.266	-0.323	0.322
-340.348	-200.000	0.036	0.183
-339.333	123.902	-0.045	0.057
-338.318	-115.271	0.156	-0.030
-337.304	146.711	0.080	0.108
-336.289	-123.297	-0.277	0.045
-335.275	-200.000	-0.281	-0.001
-334.260	103.816	-0.124	-0.146
-333.245	-105.748	0.418	-0.095
-332.231	-101.727	0.066	-0.016
-331.216	438.119	0.036	-0.078
-330.202	230.902	-0.113	0.185
-329.187	18.554	0.161	0.130
-328.172	-200.000	0.032	-0.192
-327.158	-102.889	-0.098	-0.024
-326.143	-200.000	0.000	-0.150
-325.129	-200.000	-0.053	0.349
-324.114	406.164	-0.068	-0.144
-323.099	-75.960	0.135	0.048
-322.085	95.159	-0.212	-0.242
-321.070	-200.000	-0.069	0.447
-320.056	487.975	-0.106	0.243
-319.041	-93.417	0.013	0.004
-318.026	-98.267	0.064	-0.017
-317.012	-143.473	-0.148	0.014
-315.997	88.403	0.230	-0.257
-314.983	-200.000	-0.001	0.013
-313.968	-200.000	-0.004	0.136
-312.953	43.823	0.231	0.212
-311.939	-200.000	0.008	-0.067
-310.924	-102.336	0.180	0.043
-309.910	-163.242	-0.065	0.003
-308.895	115.528	-0.286	-0.351
-307.880	-200.000	0.002	0.132
-306.866	-58.954	-0.270	0.117
-305.851	16.957	-0.324	0.258
-304.837	339.371	-0.071	0.138
-303.822	-124.870	0.245	-0.038
-302.807	-34.186	0.090	-0.050
-301.793	55.121	0.373	0.362
-300.778	16.815	-0.030	-0.024
-299.764	415.821	-0.087	0.186
-298.749	74.904	-0.228	0.241
-297.735	90.668	-0.115	0.130
-296.720	-99.613	0.329	-0.083
-295.705	800.000	-0.059	0.228
-294.691	-38.455	0.199	0.106
-293.676	517.110	-0.160	0.377
-292.662	-82.120	-0.278	-0.091
-291.647	23.843	0.071	0.059
-290.632	-46.544	0.253	-0.125
-289.618	84.331	-0.107	0.117
-288.603	-120.017	0.238	0.041
-287.589	138.627	0.207	-0.273
-286.574	137.677	0.220	-0.290
-285.559	-110.378	-0.239	0.050
-284.545	61.321	0.111	0.111
-283.530	14.121	-0.063	-0.049
-282.516	-200.000	-0.039	0.267
-281.501	58.309	0.094	-0.092
-280.486	-38.693	0.176	0.093
-279.472	61.540	-0.165	0.165
-278.457	-164.637	0.367	-0.017
-277.443	-74.626	0.242	0.087
-276.428	-98.223	-0.175	0.045
-275.413	96.458	0.069	0.080
-274.399	800.000	0.093	0.286
-273.384	-47.935	0.044	0.021
-272.370	-200.000	0.041	0.278
-271.355	-124.768	-0.069	-0.011
-270.340	17.278	0.243	-0.194
-269.326	27.988	-0.302	0.255
-268.311	116.116	-0.173	0.212
-267.297	27.494	-0.094	-0.079
-266.282	170.643	0.125	0.180
-265.267	-126.958	0.215	0.032
-264.253	-97.473	-0.338	-0.088
-263.238	-8.163	-0.089	0.060
-262.224	241.760	-0.006	0.010
-261.209	-200.000	0.009	0.069
-260.195	20.612	0.032	-0.026
-259.180	-31.000	-0.150	0.085
-258.165	-145.282	-0.171	0.016
-257.151	176.842	-0.126	-0.184
-256.136	-200.000	0.034	-0.376
-255.122	-200.000	-0.012	-0.251
-254.107	-4.341	0.329	0.228
-253.092	16.644	-0.243	-0.192
-252.078	-96.492	-0.175	-0.046
-251.063	-47.819	-0.076	-0.037
-250.049	-90.554	0.235	-0.068
-249.034	-200.000	0.001	-0.117
-248.019	-200.000	0.007	0.245
-247.005	-167.135	-0.190	0.008
-245.990	29.771	-0.122	0.105
-244.976	-68.601	-0.317	0.123
-243.961	-17.826	-0.330	-0.208
-242.946	95.436	-0.052	0.059
-241.932	800.000	0.034	-0.118
-240.917	-200.000	-0.008	0.068
-239.903	48.985	-0.171	-0.161
-238.888	129.534	-0.146	0.187
-237.873	40.465	0.193	-0.174
-236.859	146.681	-0.055	-0.075
-235.844	-123.543	0.476	-0.076
-234.830	-200.000	0.036	-0.278
-233.815	-99.343	0.054	-0.014
-232.800	-200.000	0.025	-0.223
-231.786	322.057	-0.125	0.238
-230.771	-200.000	0.034	0.258
-229.757	-84.746	0.141	0.044
-228.742	-200.000	0.028	0.389
-227.727	-18.798	0.035	-0.022
-226.713	-48.435	-0.049	-0.024
-225.698	-53.927	0.324	0.148
-224.684	374.802	-0.102	0.209
-223.669	-200.000	-0.020	-0.096
-222.655	-134.180	-0.399	-0.049
-221.640	-123.882	-0.246	0.039
-220.625	-14.994	-0.177	-0.114
-219.611	-166.044	-0.061	0.003
-218.596	-200.000	-0.002	0.049
-217.582	-200.000	-0.001	-0.120
-216.567	-71.657	0.545	-0.204
-215.552	-200.000	-0.049	-0.233
-214.538	54.152	-0.115	0.111
-213.523	-114.813	0.045	0.009
-212.509	-131.082	0.037	-0.005
-211.494	343.155	0.040	0.078
-210.479	-19.104	0.343	-0.214
-209.465	-148.235	0.387	0.032
-208.450	-115.734	-0.284	0.053
-207.436	251.922	0.114	0.195
-206.421	-4.249	-0.060	-0.042
-205.406	326.400	-0.093	0.178
-204.392	519.506	-0.076	0.178
-203.377	65.091	0.046	-0.046
-202.363	-200.000	0.154	0.000
-201.348	-106.895	-0.188	0.042
-200.333	370.666	-0.255	-0.518
-199.319	80.359	-0.234	-0.253
-198.304	373.772	-0.087	0.177
-197.290	33.945	0.160	0.139
-196.275	-1.204	-0.129	-0.092
-195.260	311.654	0.226	-0.424
-194.246	9.913	-0.116	0.088
-193.231	34.870	-0.157	0.137
-192.217	-70.770	-0.356	-0.134
-191.202	361.741	-0.009	-0.017
-190.187	-2.985	-0.263	0.184
-189.173	16.797	-0.172	0.136
-188.158	-118.142	0.295	0.053
-187.144	105.360	0.045	0.054
-186.129	-72.175	-0.185	-0.069
-185.114	51.498	0.160	-0.152
-184.100	-46.822	-0.247	-0.121
-183.085	800.000	0.063	0.222
-182.071	679.890	0.110	0.287
-181.056	-200.000	-0.010	-0.052
-180.042	-144.363	0.081	-0.008
-179.027	331.811	-0.048	-0.092
-178.012	-58.041	-0.320	-0.140
-176.998	-88.782	0.208	-0.062
-175.983	271.745	-0.047	0.082
-174.969	191.691	-0.144	0.216
-173.954	504.190	-0.030	-0.070
-172.939	279.977	0.089	0.159
-171.925	277.581	0.071	0.126
-170.910	-200.000	-0.008	0.139
-169.896	-9.532	0.362	-0.241
-168.881	800.000	0.055	0.196
-167.866	-6.019	0.373	0.255
-166.852	348.206	0.017	0.034
-165.837	85.229	-0.297	-0.325
-164.823	800.000	0.091	-0.276
-163.808	-200.000	0.004	0.093
-162.793	54.501	0.167	-0.161
-161.779	800.000	-0.051	0.158
-160.764	149.792	-0.031	-0.042
-159.750	800.000	0.050	-0.195
-158.735	85.033	0.111	-0.122
-157.720	-8.874	0.344	0.231
-156.706	-134.853	-0.236	0.029
-155.691	-49.467	-0.049	-0.023
-154.677	-69.267	0.392	0.151
-153.662	-13.883	-0.213	-0.137
-152.647	-46.320	-0.075	0.037
-151.633	267.685	0.089	-0.155
-150.618	-34.220	0.112	0.061
-149.604	-79.592	0.275	-0.093
-148.589	-72.222	-0.077	-0.028
-147.574	196.865	0.193	0.294
-146.560	-200.000	0.024	0.271
-145.545	-200.000	0.015	-0.326
-144.531	-136.527	-0.226	-0.026
-143.516	130.365	0.166	-0.212
-142.502	-200.000	0.005	-0.247
-141.487	-200.000	-0.008	0.413
-140.472	800.000	-0.015	0.061
-139.458	58.688	0.106	-0.104
-138.443	186.218	0.091	0.135
-137.429	70.737	0.162	0.167
-136.414	800.000	-0.064	-0.227
-135.399	281.092	0.034	-0.061
-134.385	95.421	-0.068	0.078
-133.370	544.051	0.025	-0.060
-132.356	-167.062	0.184	-0.007
-131.341	800.000	-0.118	0.389
-130.326	78.522	-0.226	-0.241
-129.312	-113.629	0.299	-0.058
-128.297	-200.000	-0.015	-0.151
-127.283	-200.000	0.013	-0.190
-126.268	187.132	-0.100	-0.148
-125.253	-93.674	0.140	0.038
-124.239	800.000	-0.050	-0.169
-123.224	139.674	0.066	0.087
-122.210	111.371	0.077	-0.093
-121.195	-105.477	0.081	-0.018
