DTS Sentinel unit serial number:	SN413079Multiplexer serial number:	ORYXHardware model number:	OX4-SRSoftware version number:	ORYX F/W v4.00 Oryx Data Collector v3.7.2.0data status	okinstallation	princeton_trtdifferential loss correction	single-endedforward channel	channel 1reverse channel	N/Adate	2019/09/15time	23:42:35forward acquisition time	60.00reverse acquisition time	0.00gamma	496.2192k internal	0.2332k external	0.2332temperature offset calibration	0.9970default loss term (dB/km)	0.3790temperature slope calibration	1.0000multiplexer offset coefficient	1.0000multiplexer slope coefficient	1.0000fibre end	0.00T internal ref (°C)	28.05T ext. ref 1 (°C)	9.25T ext. ref 2 (°C)	21.90length (m)	temperature (°C)	Stokes	anti-Stokes-747.200	-200.000	0.019	0.292
-746.185	800.000	-0.032	0.129
-745.171	-114.782	0.096	-0.018
-744.156	-34.689	-0.051	-0.028
-743.142	-43.338	0.089	-0.045
-742.127	800.000	0.100	0.364
-741.112	-114.783	0.125	-0.024
-740.098	-75.902	-0.266	0.095
-739.083	425.049	0.135	0.293
-738.069	291.014	0.014	-0.026
-737.054	-200.000	0.029	-0.249
-736.039	-167.134	-0.291	0.012
-735.025	149.525	-0.166	0.226
-734.010	43.049	-0.336	-0.308
-732.996	-142.644	-0.070	0.007
-731.981	-200.000	0.025	-0.176
-730.966	-35.711	0.250	-0.136
-729.952	-64.387	0.292	-0.120
-728.937	39.610	0.155	-0.140
-727.923	800.000	-0.060	-0.222
-726.908	10.216	0.069	-0.053
-725.894	-95.236	-0.071	0.019
-724.879	-32.074	-0.258	0.145
-723.864	289.202	0.056	0.102
-722.850	-5.895	0.066	0.045
-721.835	-82.715	-0.309	-0.100
-720.821	-46.822	0.085	-0.042
-719.806	-36.716	-0.129	-0.070
-718.791	89.057	-0.204	0.228
-717.777	7.390	0.097	-0.073
-716.762	-110.886	0.177	0.037
-715.748	-200.000	-0.019	0.303
-714.733	114.548	-0.138	-0.169
-713.718	-123.325	-0.100	-0.016
-712.704	800.000	0.043	0.132
-711.689	48.472	0.096	-0.090
-710.675	174.030	-0.087	-0.126
-709.660	112.811	0.266	0.324
-708.645	47.583	0.194	0.182
-707.631	-181.382	-0.227	0.004
-706.616	-25.867	0.136	0.080
-705.602	-104.191	0.187	-0.044
-704.587	-28.238	-0.200	-0.116
-703.572	78.493	-0.030	-0.032
-702.558	83.224	0.148	0.162
-701.543	28.147	-0.136	-0.115
-700.529	70.329	0.244	-0.253
-699.514	-200.000	-0.001	-0.164
-698.499	-8.617	-0.367	0.247
-697.485	406.089	0.085	0.180
-696.470	-81.019	-0.178	-0.059
-695.456	44.822	-0.050	0.047
-694.441	281.454	0.067	0.120
-693.426	214.413	-0.147	-0.233
-692.412	-161.376	0.297	-0.015
-691.397	-31.316	0.142	0.080
-690.383	800.000	-0.057	-0.183
-689.368	-20.949	-0.467	-0.287
-688.354	23.747	0.154	0.127
-687.339	108.821	0.242	-0.290
-686.324	191.673	-0.243	-0.368
-685.310	28.004	0.292	0.247
-684.295	-0.414	-0.066	0.047
-683.281	-200.000	0.011	0.315
-682.266	65.197	0.070	-0.071
-681.251	-35.358	-0.064	0.035
-680.237	-80.260	0.173	-0.058
-679.222	83.397	-0.121	0.133
-678.208	117.740	-0.027	-0.034
-677.193	-200.000	0.047	-0.237
-676.178	-81.615	-0.355	0.117
-675.164	-139.207	0.165	0.018
-674.149	-62.923	-0.184	0.077
-673.135	105.866	0.147	-0.174
-672.120	256.046	-0.208	-0.359
-671.105	652.000	0.056	0.145
-670.091	387.046	0.040	0.083
-669.076	487.479	0.059	0.136
-668.062	349.822	0.116	0.230
-667.047	-109.409	0.258	-0.055
-666.032	239.496	0.184	0.308
-665.018	58.737	-0.250	0.247
-664.003	28.866	-0.341	0.290
-662.989	544.208	-0.118	0.282
-661.974	-200.000	0.035	-0.154
-660.959	17.212	-0.295	0.235
-659.945	-36.944	-0.178	-0.096
-658.930	-200.000	-0.016	-0.092
-657.916	-200.000	-0.007	0.062
-656.901	46.861	-0.126	0.117
-655.886	-71.936	0.111	0.041
-654.872	524.728	0.059	0.139
-653.857	146.565	-0.185	0.249
-652.843	-200.000	0.010	0.054
-651.828	251.049	-0.059	-0.100
-650.814	301.676	-0.088	-0.163
-649.799	-112.416	0.213	0.043
-648.784	333.019	-0.082	0.159
-647.770	16.773	-0.215	0.171
-646.755	800.000	0.014	0.051
-645.741	399.364	-0.068	-0.142
-644.726	14.944	-0.144	0.113
-643.711	-49.862	0.157	0.075
-642.697	-97.458	0.156	-0.041
-641.682	510.337	0.037	-0.086
-640.668	-35.996	-0.094	-0.051
-639.653	-114.872	-0.412	-0.079
-638.638	14.522	-0.095	-0.074
-637.624	97.192	0.141	0.163
-636.609	-200.000	-0.014	-0.238
-635.595	73.933	-0.144	0.152
-634.580	19.569	0.086	-0.069
-633.565	212.040	-0.056	0.089
-632.551	-149.920	-0.319	0.025
-631.536	-75.422	-0.380	0.135
-630.522	286.097	0.036	-0.065
-629.507	-54.891	-0.347	-0.157
-628.492	800.000	-0.048	-0.155
-627.478	-28.333	-0.096	0.055
-626.463	214.065	0.132	0.209
-625.449	800.000	-0.045	0.143
-624.434	-200.000	-0.028	0.212
-623.419	800.000	0.127	0.410
-622.405	110.024	-0.208	0.250
-621.390	123.062	-0.168	-0.211
-620.376	48.282	0.303	0.284
-619.361	-141.240	-0.368	0.037
-618.346	-200.000	-0.032	0.155
-617.332	-171.064	0.172	0.006
-616.317	-200.000	-0.005	-0.149
-615.303	-8.029	-0.199	0.135
-614.288	88.098	0.112	-0.124
-613.273	-1.001	-0.143	0.101
-612.259	-161.038	-0.101	-0.005
-611.244	308.284	0.184	-0.344
-610.230	112.909	-0.211	-0.256
-609.215	-200.000	-0.003	-0.093
-608.201	197.884	-0.193	0.295
-607.186	-200.000	-0.004	0.082
-606.171	769.852	-0.005	0.015
-605.157	63.721	-0.097	0.098
-604.142	800.000	0.027	-0.103
-603.128	32.935	-0.275	-0.238
-602.113	-51.403	-0.263	-0.123
-601.098	-106.154	0.158	-0.035
-600.084	-200.000	0.010	-0.551
-599.069	-56.081	-0.134	0.060
-598.055	118.148	-0.134	-0.165
-597.040	-107.561	0.343	0.075
-596.025	-46.190	0.166	-0.081
-595.011	9.159	-0.210	0.159
-593.996	-200.000	0.002	-0.108
-592.982	379.005	0.136	0.279
-591.967	-200.000	-0.008	0.355
-590.952	-115.264	-0.334	-0.063
-589.938	-88.464	-0.328	0.098
-588.923	-65.378	-0.132	0.053
-587.909	-84.260	-0.157	-0.050
-586.894	156.462	0.205	-0.282
-585.879	800.000	0.031	0.092
-584.865	230.162	0.056	0.091
-583.850	37.769	0.192	-0.171
-582.836	-200.000	0.021	0.163
-581.821	-109.182	-0.155	0.033
-580.806	129.112	-0.123	0.157
-579.792	-119.979	0.196	-0.034
-578.777	4.529	0.061	0.045
-577.763	149.063	-0.192	-0.259
-576.748	-200.000	-0.002	0.067
-575.733	657.213	0.104	0.268
-574.719	-75.798	0.130	-0.046
-573.704	119.801	-0.134	0.166
-572.690	561.230	0.080	0.193
-571.675	800.000	-0.030	0.093
-570.661	-200.000	-0.017	-0.232
-569.646	27.784	0.170	-0.143
-568.631	-79.213	-0.223	-0.076
-567.617	565.631	-0.082	-0.199
-566.602	-136.754	0.394	-0.045
-565.588	-200.000	-0.005	0.104
-564.573	175.481	-0.182	-0.263
-563.558	-53.148	-0.134	-0.061
-562.544	-45.901	0.185	-0.091
-561.529	-157.540	-0.221	0.013
-560.515	-33.025	-0.265	-0.147
-559.500	-200.000	0.033	-0.249
-558.485	-96.790	0.437	-0.115
-557.471	54.152	-0.181	0.174
-556.456	53.917	-0.186	-0.178
-555.442	-130.038	-0.231	-0.032
-554.427	72.153	-0.098	0.102
-553.412	-200.000	-0.047	-0.278
-552.398	-152.741	0.248	0.018
-551.383	407.373	-0.144	-0.304
-550.369	136.943	0.051	-0.066
-549.354	-200.000	0.025	0.190
-548.339	-45.872	0.168	0.083
-547.325	18.328	-0.134	-0.107
-546.310	264.584	-0.189	-0.328
-545.296	-113.037	-0.031	-0.006
-544.281	73.617	0.240	-0.251
-543.266	-29.975	-0.143	0.081
-542.252	70.458	-0.136	0.141
-541.237	-200.000	0.006	0.118
-540.223	336.322	-0.070	-0.135
-539.208	73.355	0.127	-0.133
-538.193	-27.915	-0.221	0.128
-537.179	-62.402	-0.273	0.113
-536.164	-145.374	0.151	-0.014
-535.150	413.939	-0.101	-0.214
-534.135	-87.577	-0.143	0.043
-533.121	-200.000	-0.060	-0.305
-532.106	-125.781	0.216	0.033
-531.091	-200.000	-0.068	0.349
-530.077	56.339	0.246	0.238
-529.062	19.250	-0.106	-0.085
-528.048	-160.501	-0.160	-0.009
-527.033	-200.000	0.016	0.212
-526.018	755.619	0.068	-0.183
-525.004	181.840	-0.084	0.123
-523.989	-86.995	0.160	0.049
-522.975	36.888	-0.118	-0.104
-521.960	0.032	0.232	0.165
-520.945	-67.228	-0.467	0.183
-519.931	498.219	-0.136	-0.312
-518.916	800.000	-0.113	0.326
-517.902	800.000	-0.196	0.614
-516.887	-73.411	0.172	0.063
-515.872	344.284	-0.206	-0.404
-514.858	-38.502	-0.176	0.093
-513.843	17.234	0.118	0.094
-512.829	-200.000	-0.028	0.431
-511.814	275.125	-0.176	-0.310
-510.799	-131.459	-0.234	-0.031
-509.785	593.707	0.138	-0.341
-508.770	3.299	-0.120	-0.087
-507.756	-200.000	-0.022	0.184
-506.741	62.096	0.117	0.117
-505.726	800.000	0.055	0.153
-504.712	1.830	0.192	0.138
-503.697	-160.974	0.163	0.009
-502.683	-200.000	-0.000	0.138
-501.668	-200.000	-0.080	-0.372
-500.653	576.069	-0.127	-0.308
-499.639	18.851	0.136	0.109
-498.624	70.329	-0.031	0.032
-497.610	-140.141	0.353	-0.037
-496.595	-55.077	0.132	-0.059
-495.581	-60.423	-0.207	-0.088
-494.566	-73.967	-0.166	-0.060
-493.551	12.485	-0.286	-0.220
-492.537	-91.663	0.318	0.090
-491.522	363.196	0.075	0.149
-490.508	-200.000	0.021	-0.161
-489.493	754.288	0.159	-0.429
-488.478	298.400	0.121	-0.221
-487.464	-72.879	0.215	-0.079
-486.449	-125.675	0.146	-0.022
-485.435	-79.149	0.138	-0.047
-484.420	-170.792	0.264	-0.009
-483.405	-12.626	-0.275	0.179
-482.391	390.148	-0.113	0.232
-481.376	-200.000	0.025	0.323
-480.362	88.808	-0.170	-0.188
-479.347	-200.000	-0.006	-0.038
-478.332	45.413	-0.249	-0.229
-477.318	-50.610	0.207	0.097
-476.303	-49.751	-0.098	-0.046
-475.289	-89.449	0.291	-0.085
-474.274	359.944	-0.112	-0.224
-473.259	-148.856	-0.449	-0.036
-472.245	65.636	0.096	0.097
-471.230	286.057	-0.098	-0.177
-470.216	-88.236	0.261	0.078
-469.201	50.914	0.209	-0.197
-468.186	-34.368	0.181	-0.099
-467.172	-101.593	0.248	-0.060
-466.157	394.429	-0.035	0.072
-465.143	138.099	-0.226	0.295
-464.128	109.021	0.056	0.067
-463.113	66.459	-0.134	0.136
-462.099	17.345	0.096	-0.076
-461.084	-200.000	-0.022	0.205
-460.070	800.000	0.149	0.497
-459.055	-25.601	-0.013	0.008
-458.040	-200.000	-0.023	0.248
-457.026	631.999	-0.074	0.187
-456.011	54.826	-0.170	0.163
-454.997	9.246	0.070	0.053
-453.982	-121.640	0.315	-0.052
-452.968	9.309	-0.195	-0.147
-451.953	-200.000	-0.004	0.141
-450.938	119.003	0.150	0.184
-449.924	359.906	-0.047	-0.094
-448.909	157.214	0.179	-0.246
-447.895	-200.000	-0.037	0.243
-446.880	-170.681	0.222	0.008
-445.865	49.840	-0.189	0.178
-444.851	53.402	-0.107	0.102
-443.836	246.140	0.146	0.244
-442.822	606.506	-0.213	0.527
-441.807	278.500	0.072	-0.128
-440.792	3.929	-0.243	0.176
-439.778	-160.225	-0.307	0.017
-438.763	316.474	0.107	0.201
-437.749	298.064	-0.017	-0.032
-436.734	-50.990	-0.275	-0.128
-435.719	157.974	-0.139	-0.192
-434.705	684.885	-0.047	-0.122
-433.690	246.414	-0.185	0.311
-432.676	0.677	-0.147	0.104
-431.661	69.254	-0.092	-0.094
-430.646	-175.867	0.552	-0.015
-429.632	-70.913	-0.189	0.071
-428.617	-114.334	-0.315	0.060
-427.603	37.482	0.056	-0.050
-426.588	800.000	-0.032	0.098
-425.573	-29.767	0.238	-0.135
-424.559	660.388	-0.095	-0.244
-423.544	-69.151	0.482	-0.184
-422.530	-134.201	0.516	0.063
-421.515	-28.812	0.190	0.109
-420.500	-200.000	-0.069	0.341
-419.486	-86.921	0.092	0.028
-418.471	224.279	0.105	-0.168
-417.457	-200.000	-0.004	-0.030
-416.442	-55.370	0.144	-0.064
-415.428	26.599	-0.240	0.199
-414.413	-60.027	-0.116	-0.049
-413.398	-33.372	0.220	0.121
-412.384	90.822	-0.025	0.028
-411.369	450.127	0.148	0.324
-410.355	-200.000	0.029	-0.133
-409.340	-81.758	0.116	0.038
-408.325	-35.513	-0.225	-0.121
-407.311	-61.535	0.212	0.088
-406.296	62.121	-0.253	0.250
-405.282	-63.349	0.163	-0.067
-404.267	-92.365	0.456	0.127
-403.252	-162.144	0.150	0.007
-402.238	-3.387	-0.267	-0.185
-401.223	-200.000	-0.032	0.238
-400.209	61.555	-0.009	0.009
-399.194	800.000	0.030	0.096
-398.179	1.802	0.461	-0.330
-397.165	169.306	0.109	0.155
-396.150	-68.084	-0.478	-0.185
-395.136	-183.973	-0.212	-0.004
-394.121	-120.914	-0.146	0.024
-393.106	800.000	-0.072	0.281
-392.092	26.348	-0.179	0.148
-391.077	-64.780	0.255	-0.102
-390.063	-200.000	0.028	0.274
-389.048	-200.000	-0.012	0.250
-388.033	-164.901	-0.206	-0.009
-387.019	-200.000	-0.015	-0.258
-386.004	-100.937	0.170	-0.042
-384.990	800.000	0.045	0.144
-383.975	-86.870	0.183	-0.055
-382.960	433.594	-0.050	-0.108
-381.946	302.643	0.109	-0.201
-380.931	-170.890	0.176	0.006
-379.917	-200.000	0.031	-0.253
-378.902	-59.901	-0.404	0.172
-377.888	800.000	0.020	-0.060
-376.873	31.349	0.240	0.204
-375.858	106.029	0.158	0.185
-374.844	92.200	0.174	-0.194
-373.829	800.000	-0.046	0.150
-372.815	-129.036	-0.403	-0.056
-371.800	171.071	0.114	0.161
-370.785	15.346	-0.121	0.094
-369.771	-93.896	0.257	-0.070
-368.756	-60.069	0.261	-0.110
-367.742	-71.185	0.394	-0.147
-366.727	417.366	0.186	-0.395
-365.712	-94.060	0.052	0.014
-364.698	-109.450	0.400	0.084
-363.683	160.282	-0.077	0.106
-362.669	-111.002	0.075	0.015
-361.654	-200.000	0.002	0.062
-360.639	-68.536	-0.255	0.098
-359.625	-200.000	-0.041	-0.285
-358.610	800.000	0.022	-0.085
-357.596	24.550	-0.124	0.102
-356.581	-117.365	0.151	0.027
-355.566	-82.217	0.112	-0.036
-354.552	618.384	-0.066	-0.164
-353.537	-48.050	0.213	-0.102
-352.523	44.144	0.073	0.066
-351.508	74.986	-0.284	0.296
-350.493	118.901	0.253	0.310
-349.479	-182.421	-0.246	0.005
-348.464	-200.000	0.035	-0.201
-347.450	-36.132	0.212	0.114
-346.435	603.759	-0.089	0.220
-345.420	800.000	0.105	0.293
-344.406	-133.146	0.075	0.009
-343.391	554.501	0.063	-0.151
-342.377	-15.538	-0.327	-0.207
-341.362	-100.014	-0.177	-0.044
-340.348	-87.395	-0.040	-0.012
-339.333	-200.000	-0.034	-0.267
-338.318	182.763	0.069	-0.101
-337.304	-22.439	0.154	0.092
-336.289	-90.582	-0.175	0.050
-335.275	310.498	-0.047	-0.088
-334.260	-11.025	-0.228	-0.149
-333.245	-93.224	0.341	0.094
-332.231	-200.000	0.030	-0.153
-331.216	52.024	0.225	0.212
-330.202	-87.845	0.097	0.029
-329.187	143.798	0.030	0.040
-328.172	-145.943	-0.181	-0.016
-327.158	800.000	-0.042	0.149
-326.143	167.488	-0.144	-0.202
-325.129	271.927	0.025	-0.044
-324.114	451.240	0.126	0.275
-323.099	-62.150	0.081	0.033
-322.085	764.578	0.073	0.195
-321.070	132.303	-0.171	-0.218
-320.056	90.334	0.072	-0.080
-319.041	-0.588	0.227	-0.160
-318.026	-61.756	0.240	-0.099
-317.012	-18.592	0.201	-0.124
-315.997	22.102	-0.259	0.209
-314.983	157.085	0.107	-0.146
-313.968	-200.000	0.085	-0.431
-312.953	132.840	0.092	-0.118
-311.939	-200.000	0.007	0.183
-310.924	517.882	0.060	-0.140
-309.910	-200.000	-0.013	0.061
-308.895	122.928	-0.065	-0.080
-307.880	-38.147	0.225	0.118
-306.866	800.000	0.046	-0.176
-305.851	685.270	0.118	-0.304
-304.837	-200.000	0.043	-0.209
-303.822	-200.000	-0.029	0.264
-302.807	-35.752	-0.100	-0.054
-301.793	-200.000	-0.014	0.112
-300.778	800.000	0.031	-0.117
-299.764	-25.063	-0.118	0.069
-298.749	800.000	-0.040	0.154
-297.735	-72.836	-0.098	0.036
-296.720	12.530	-0.128	-0.098
-295.705	301.281	-0.063	0.115
-294.691	37.086	-0.016	0.014
-293.676	757.587	-0.086	0.230
-292.662	-200.000	0.004	0.042
-291.647	-200.000	0.034	-0.360
-290.632	-121.733	-0.198	-0.032
-289.618	-200.000	-0.008	-0.158
-288.603	-31.252	-0.158	-0.088
-287.589	-106.651	0.253	0.056
-286.574	59.792	-0.268	-0.261
-285.559	73.654	0.244	-0.253
-284.545	241.482	0.106	0.176
-283.530	800.000	-0.004	0.012
-282.516	43.929	0.245	-0.221
-281.501	800.000	-0.038	-0.160
-280.486	800.000	0.084	0.288
-279.472	-31.522	-0.204	0.113
-278.457	124.062	-0.156	-0.193
-277.443	-41.398	-0.255	-0.130
-276.428	404.657	-0.017	0.035
-275.413	288.457	0.070	0.125
-274.399	-84.144	-0.117	0.037
-273.384	800.000	0.056	-0.165
-272.370	22.116	0.068	-0.055
-271.355	203.234	0.087	0.133
-270.340	-99.717	0.182	-0.045
-269.326	-147.738	0.167	0.014
-268.311	8.331	-0.041	-0.031
-267.297	-122.403	-0.321	0.052
-266.282	21.879	-0.301	-0.243
-265.267	-200.000	-0.037	-0.455
-264.253	-119.058	0.247	-0.043
-263.238	-200.000	-0.044	-0.329
-262.224	-200.000	0.019	0.211
-261.209	-83.055	0.300	0.096
-260.195	-76.579	-0.256	-0.089
-259.180	-200.000	-0.010	-0.307
-258.165	-169.145	-0.205	-0.008
-257.151	-134.721	0.190	-0.023
-256.136	-71.842	-0.362	-0.133
-255.122	-161.134	-0.168	0.009
-254.107	605.957	0.094	0.230
-253.092	49.210	0.160	-0.149
-252.078	-32.522	-0.095	0.052
-251.063	-200.000	0.022	-0.222
-250.049	-200.000	0.053	-0.433
-249.034	-104.834	0.323	-0.073
-248.019	763.873	-0.153	0.409
-247.005	-47.542	-0.249	0.119
-245.990	-94.302	0.347	-0.094
-244.976	75.643	0.266	0.277
-243.961	104.638	0.068	-0.079
-242.946	-58.150	0.176	-0.076
-241.932	-158.234	-0.202	0.012
-240.917	800.000	0.014	0.040
-239.903	172.741	-0.146	0.207
-238.888	-75.249	0.196	-0.069
-237.873	-46.038	-0.063	-0.031
-236.859	-17.435	-0.178	0.110
-235.844	241.728	0.149	-0.246
-234.830	-70.364	0.096	-0.036
-233.815	172.964	0.119	0.169
-232.800	-200.000	0.003	0.341
-231.786	-200.000	-0.016	-0.109
-230.771	800.000	-0.049	-0.171
-229.757	-60.105	0.017	0.007
-228.742	29.955	0.198	0.166
-227.727	-137.854	0.263	-0.029
-226.713	-112.586	0.419	0.082
-225.698	445.041	0.017	-0.037
-224.684	616.056	-0.075	-0.186
-223.669	800.000	0.070	0.236
-222.655	9.348	-0.057	-0.043
-221.640	243.314	0.098	0.161
-220.625	373.263	0.103	-0.207
-219.611	-200.000	-0.014	-0.071
-218.596	89.100	-0.111	-0.122
-217.582	-200.000	0.012	-0.325
-216.567	375.111	0.088	-0.177
-215.552	-97.531	0.180	-0.046
-214.538	524.371	0.094	-0.218
-213.523	649.575	0.069	-0.174
-212.509	39.530	0.301	-0.266
-211.494	88.894	0.078	0.085
-210.479	-200.000	-0.015	0.101
-209.465	-50.249	-0.089	-0.041
-208.450	-200.000	0.018	-0.286
-207.436	-200.000	-0.004	-0.035
-206.421	120.591	0.039	0.047
-205.406	229.620	-0.243	0.391
-204.392	221.336	0.131	0.207
-203.377	-96.283	-0.143	0.037
-202.363	800.000	0.135	0.581
-201.348	800.000	-0.010	0.029
-200.333	-124.417	-0.486	0.075
-199.319	49.470	-0.119	-0.110
-198.304	-62.455	-0.183	0.075
-197.290	225.301	-0.048	0.077
-196.275	-200.000	0.010	0.301
-195.260	81.379	-0.116	0.124
-194.246	-200.000	0.001	-0.075
-193.231	67.513	-0.121	0.121
-192.217	175.565	-0.224	-0.319
-191.202	800.000	0.070	-0.254
-190.187	-94.659	-0.277	-0.074
-189.173	-62.915	0.182	-0.074
-188.158	-86.351	0.096	0.029
-187.144	-63.257	0.166	0.067
-186.129	-200.000	0.020	-0.207
-185.114	360.658	-0.071	0.141
-184.100	-106.346	0.059	0.013
-183.085	-138.575	-0.153	0.017
-182.071	-37.617	0.042	-0.022
-181.056	145.637	-0.071	-0.094
-180.042	186.802	0.170	-0.249
-179.027	13.552	0.200	-0.153
-178.012	-112.762	-0.124	0.024
-176.998	43.801	-0.235	0.211
-175.983	469.139	0.120	0.265
-174.969	90.693	-0.420	0.463
-173.954	-169.167	-0.007	-0.000
-172.939	88.382	0.355	0.388
-171.925	416.544	-0.081	0.170
-170.910	-40.301	-0.135	-0.069
-169.896	20.153	0.014	0.011
-168.881	480.081	-0.072	0.161
-167.866	33.152	-0.074	0.063
-166.852	152.099	-0.117	0.156
-165.837	-84.708	0.286	0.089
-164.823	-200.000	-0.028	-0.136
-163.808	-91.864	0.244	-0.068
-162.793	-200.000	0.106	0.000
-161.779	48.296	0.082	0.075
-160.764	504.068	0.018	0.041
-159.750	-45.641	0.128	-0.062
-158.735	-34.044	0.227	0.123
-157.720	800.000	-0.100	-0.356
-156.706	-108.924	0.212	0.045
-155.691	96.835	0.093	0.105
-154.677	111.965	-0.062	-0.074
-153.662	92.035	-0.129	-0.143
-152.647	-96.126	0.210	-0.055
-151.633	-200.000	-0.070	-0.309
-150.618	-101.910	-0.180	0.043
-149.604	-174.781	0.224	-0.006
-148.589	382.828	0.013	-0.027
-147.574	-85.510	-0.336	0.103
-146.560	-36.407	-0.123	0.065
-145.545	352.444	0.120	-0.234
-144.531	-200.000	0.030	-0.174
-143.516	800.000	0.124	-0.415
-142.502	-183.125	0.305	-0.005
-141.487	-50.663	-0.169	0.078
-140.472	800.000	0.047	0.155
-139.458	-24.058	0.248	-0.145
-138.443	134.518	0.139	-0.177
-137.429	143.583	-0.127	-0.166
-136.414	35.450	0.031	-0.027
-135.399	558.517	0.059	0.140
-134.385	21.877	0.147	-0.118
-133.370	236.883	-0.209	-0.340
-132.356	-48.725	0.178	0.084
-131.341	322.198	0.047	-0.088
-130.326	-135.106	0.184	0.022
-129.312	-4.319	0.131	0.089
-128.297	290.256	0.058	0.103
-127.283	111.812	0.178	-0.211
-126.268	142.698	-0.144	0.188
-125.253	54.112	-0.133	0.126
-124.239	124.760	0.210	0.260
-123.224	-56.313	-0.208	0.091
-122.210	-0.801	-0.177	0.123
-121.195	-155.880	-0.175	-0.011
-120.180	-21.763	-0.140	0.083
