DTS Sentinel unit serial number:	SN413079Multiplexer serial number:	ORYXHardware model number:	OX4-SRSoftware version number:	ORYX F/W v4.00 Oryx Data Collector v3.7.2.0data status	okinstallation	princeton_trtdifferential loss correction	single-endedforward channel	channel 1reverse channel	N/Adate	2019/09/16time	13:46:35forward acquisition time	60.00reverse acquisition time	0.00gamma	496.2192k internal	0.2294k external	0.2294temperature offset calibration	0.9952default loss term (dB/km)	0.3790temperature slope calibration	1.0000multiplexer offset coefficient	1.0000multiplexer slope coefficient	1.0000fibre end	0.00T internal ref (°C)	42.25T ext. ref 1 (°C)	13.92T ext. ref 2 (°C)	38.24length (m)	temperature (°C)	Stokes	anti-Stokes-747.200	-200.000	-0.001	-0.368
-746.185	13.019	0.233	0.184
-745.171	800.000	0.090	-0.277
-744.156	-200.000	0.025	0.167
-743.142	409.391	-0.061	0.131
-742.127	51.410	0.125	-0.121
-741.112	800.000	-0.023	-0.077
-740.098	97.568	-0.360	0.423
-739.083	-85.894	-0.122	-0.038
-738.069	-200.000	0.015	-0.089
-737.054	279.424	0.036	-0.066
-736.039	-200.000	-0.012	-0.156
-735.025	-159.153	0.059	0.003
-734.010	800.000	-0.079	-0.328
-732.996	-53.102	0.324	-0.152
-731.981	800.000	0.095	0.282
-730.966	103.855	0.135	0.162
-729.952	38.251	0.193	0.176
-728.937	497.014	-0.049	-0.116
-727.923	-200.000	-0.009	-0.189
-726.908	301.749	-0.067	0.127
-725.894	-200.000	0.025	-0.197
-724.879	432.756	-0.046	-0.102
-723.864	-45.269	0.078	-0.040
-722.850	304.074	-0.021	-0.040
-721.835	-111.607	0.065	0.014
-720.821	6.944	0.089	-0.068
-719.806	-54.729	-0.373	-0.172
-718.791	32.275	-0.147	0.130
-717.777	-171.848	0.240	0.008
-716.762	800.000	0.015	0.048
-715.748	59.123	-0.141	-0.141
-714.733	800.000	0.020	-0.068
-713.718	105.978	-0.219	0.265
-712.704	-161.159	0.141	0.008
-711.689	429.697	-0.098	-0.217
-710.675	-200.000	0.088	-0.467
-709.660	46.266	0.095	-0.089
-708.645	-166.149	-0.395	-0.017
-707.631	-200.000	0.108	-0.552
-706.616	-52.897	0.083	-0.039
-705.602	41.084	-0.285	-0.263
-704.587	-10.173	0.160	0.108
-703.572	-200.000	-0.004	-0.027
-702.558	-111.127	0.213	0.044
-701.543	-61.167	0.156	0.067
-700.529	277.896	0.005	-0.010
-699.514	-200.000	0.016	-0.176
-698.499	-95.539	-0.254	-0.069
-697.485	-187.125	-0.075	0.001
-696.470	-6.618	-0.174	-0.121
-695.456	-70.652	-0.136	-0.052
-694.441	800.000	-0.017	-0.050
-693.426	-200.000	-0.004	0.331
-692.412	64.430	-0.236	0.242
-691.397	-124.041	-0.423	-0.068
-690.383	539.185	0.025	0.061
-689.368	41.043	0.219	0.202
-688.354	195.697	-0.097	-0.151
-687.339	-200.000	-0.033	-0.151
-686.324	-80.485	0.055	-0.019
-685.310	-67.714	0.156	-0.062
-684.295	-200.000	0.032	0.181
-683.281	-113.956	0.153	-0.030
-682.266	232.588	0.235	0.393
-681.251	-30.910	-0.248	0.143
-680.237	458.093	0.060	-0.135
-679.222	-200.000	-0.098	-0.473
-678.208	-16.983	-0.283	-0.183
-677.193	62.992	-0.113	0.116
-676.178	-82.455	-0.109	0.036
-675.164	-52.350	-0.187	-0.088
-674.149	-192.459	0.074	0.001
-673.135	60.795	0.107	0.108
-672.120	-200.000	0.001	-0.287
-671.105	-67.369	-0.070	-0.028
-670.091	800.000	0.056	-0.233
-669.076	751.807	-0.125	0.344
-668.062	99.335	-0.106	0.125
-667.047	65.916	-0.158	-0.163
-666.032	-121.015	0.583	0.100
-665.018	-32.787	-0.124	0.070
-664.003	-104.595	0.181	-0.042
-662.989	-85.702	-0.292	0.092
-661.974	188.152	-0.046	-0.070
-660.959	-153.792	0.208	-0.015
-659.945	-141.515	0.146	-0.015
-658.930	-181.447	0.185	-0.004
-657.916	-34.344	0.237	-0.132
-656.901	38.068	-0.302	0.273
-655.886	-47.016	-0.197	0.098
-654.872	-75.823	-0.320	-0.115
-653.857	-200.000	-0.042	-0.214
-652.843	-7.318	0.185	-0.127
-651.828	182.380	-0.015	-0.023
-650.814	185.061	-0.019	-0.029
-649.799	-88.924	-0.020	0.006
-648.784	-85.883	0.369	-0.116
-647.770	800.000	0.078	-0.282
-646.755	-129.311	-0.156	0.022
-645.741	4.337	0.382	0.285
-644.726	75.730	0.116	-0.125
-643.711	800.000	-0.072	-0.225
-642.697	800.000	-0.054	0.217
-641.682	-3.818	-0.163	0.115
-640.668	-136.677	0.207	0.024
-639.653	800.000	-0.080	0.263
-638.638	-147.785	0.223	-0.019
-637.624	-91.054	-0.184	-0.054
-636.609	-166.523	-0.111	-0.005
-635.595	-137.676	-0.083	0.009
-634.580	-6.748	-0.115	0.080
-633.565	263.604	-0.167	0.296
-632.551	-107.391	-0.257	-0.057
-631.536	-200.000	-0.022	-0.145
-630.522	593.981	-0.092	-0.233
-629.507	302.219	-0.109	-0.205
-628.492	120.007	0.051	-0.065
-627.478	643.432	-0.124	0.321
-626.463	161.023	0.095	0.134
-625.449	137.133	-0.087	0.116
-624.434	-183.494	0.338	0.006
-623.419	57.848	-0.064	-0.064
-622.405	-112.349	0.052	-0.011
-621.390	196.867	0.113	0.176
-620.376	30.611	0.254	-0.221
-619.361	-46.017	0.066	-0.033
-618.346	-31.004	0.265	0.152
-617.332	-200.000	-0.058	-0.273
-616.317	-148.096	-0.268	0.023
-615.303	127.285	0.072	0.093
-614.288	-195.875	0.247	0.002
-613.273	-149.263	-0.173	0.014
-612.259	112.170	0.066	0.081
-611.244	-136.238	0.287	-0.034
-610.230	-200.000	0.022	-0.174
-609.215	37.170	-0.255	-0.230
-608.201	-28.002	0.242	-0.143
-607.186	3.159	0.130	0.096
-606.171	26.515	0.064	-0.054
-605.157	382.283	-0.141	0.295
-604.142	-110.141	-0.159	-0.034
-603.128	78.089	-0.167	0.182
-602.113	-168.336	0.079	-0.003
-601.098	215.005	-0.126	-0.203
-600.084	-74.819	0.382	-0.139
-599.069	546.733	-0.025	-0.060
-598.055	-200.000	0.048	0.400
-597.040	800.000	0.057	-0.228
-596.025	-200.000	0.022	-0.193
-595.011	93.664	0.176	-0.203
-593.996	240.668	-0.140	-0.237
-592.982	593.561	-0.038	-0.095
-591.967	-59.654	-0.238	0.104
-590.952	-94.182	0.261	0.073
-589.938	-76.735	-0.028	-0.010
-588.923	-200.000	-0.002	0.180
-587.909	19.645	0.244	-0.199
-586.894	-83.771	0.265	-0.086
-585.879	-37.232	0.255	0.138
-584.865	-97.424	0.155	0.041
-583.850	151.200	-0.157	0.218
-582.836	-119.978	0.180	0.031
-581.821	-91.697	-0.230	0.066
-580.806	51.614	0.121	-0.117
-579.792	-200.000	-0.050	0.224
-578.777	51.699	-0.021	-0.020
-577.763	-34.438	-0.265	-0.148
-576.748	-55.357	-0.212	0.097
-575.733	201.490	0.045	-0.071
-574.719	-6.343	0.099	-0.069
-573.704	-29.203	0.182	-0.106
-572.690	6.002	0.110	-0.082
-571.675	131.697	0.204	0.267
-570.661	-115.813	-0.305	0.058
-569.646	800.000	0.113	0.462
-568.631	-103.976	-0.262	0.062
-567.617	76.856	-0.209	-0.226
-566.602	-155.165	0.137	-0.009
-565.588	138.213	-0.109	0.145
-564.573	465.342	0.072	-0.163
-563.558	-200.000	-0.038	0.412
-562.544	800.000	-0.037	-0.164
-561.529	-88.395	-0.349	-0.106
-560.515	-76.474	-0.335	0.120
-559.500	39.356	-0.165	-0.150
-558.485	-200.000	0.065	-0.297
-557.471	409.086	-0.313	-0.673
-556.456	-200.000	-0.005	0.305
-555.442	-200.000	0.008	0.326
-554.427	-200.000	-0.004	0.111
-553.412	-123.502	-0.149	-0.024
-552.398	-138.391	0.268	-0.030
-551.383	-200.000	0.006	0.083
-550.369	-151.940	0.247	-0.018
-549.354	189.877	0.236	0.359
-548.339	72.811	0.108	-0.114
-547.325	-130.562	0.153	0.021
-546.310	118.323	-0.020	-0.025
-545.296	190.615	0.056	0.086
-544.281	32.789	-0.209	-0.184
-543.266	-0.520	0.219	-0.157
-542.252	383.809	0.007	-0.015
-541.237	-68.962	0.236	-0.092
-540.223	800.000	0.100	-0.368
-539.208	800.000	-0.114	-0.409
-538.193	-27.784	-0.090	-0.053
-537.179	-105.356	-0.220	-0.051
-536.164	59.262	-0.100	-0.100
-535.150	-152.486	-0.273	-0.020
-534.135	-200.000	0.023	-0.372
-533.121	-67.349	0.167	-0.067
-532.106	76.037	-0.092	-0.099
-531.091	687.540	0.021	-0.057
-530.077	301.555	-0.031	0.058
-529.062	-163.995	0.293	-0.014
-528.048	-13.596	0.207	0.136
-527.033	-200.000	-0.006	-0.114
-526.018	-127.415	0.269	0.040
-525.004	-5.280	0.182	-0.127
-523.989	800.000	0.012	0.048
-522.975	1.016	-0.125	-0.091
-521.960	800.000	-0.084	0.239
-520.945	-83.899	-0.178	-0.057
-519.931	-154.705	-0.038	-0.003
-518.916	-200.000	0.016	0.190
-517.902	15.429	-0.033	-0.026
-516.887	383.813	0.181	-0.378
-515.872	231.339	-0.077	-0.128
-514.858	-63.063	-0.175	-0.073
-513.843	-98.263	-0.359	-0.093
-512.829	-122.475	-0.488	0.080
-511.814	800.000	0.087	0.265
-510.799	-134.487	0.164	0.020
-509.785	47.322	-0.081	-0.077
-508.770	770.659	-0.073	-0.203
-507.756	-37.229	-0.248	0.134
-506.741	-100.834	-0.217	-0.054
-505.726	277.410	-0.001	-0.001
-504.712	266.985	0.092	0.163
-503.697	1.449	-0.121	0.088
-502.683	582.376	-0.059	-0.146
-501.668	15.253	0.103	-0.082
-500.653	-200.000	0.023	0.170
-499.639	246.201	0.167	-0.284
-498.624	-50.956	0.107	-0.051
-497.610	86.312	-0.237	-0.265
-496.595	-200.000	0.046	-0.267
-495.581	-200.000	0.049	0.374
-494.566	-82.346	-0.188	-0.062
-493.551	-200.000	0.000	-0.047
-492.537	-30.226	0.277	-0.159
-491.522	439.897	-0.073	0.161
-490.508	94.909	-0.249	0.287
-489.493	-20.265	0.487	0.303
-488.478	42.844	0.021	-0.020
-487.464	68.721	0.092	-0.096
-486.449	-64.057	-0.095	-0.039
-485.435	-30.150	-0.013	-0.008
-484.420	363.892	-0.106	0.216
-483.405	-31.242	0.165	-0.094
-482.391	435.697	0.127	0.279
-481.376	500.614	0.034	0.078
-480.362	-15.458	-0.182	-0.118
-479.347	205.809	0.095	-0.150
-478.332	33.614	-0.079	-0.069
-477.318	-68.106	0.327	0.129
-476.303	200.432	-0.024	-0.038
-475.289	10.795	0.214	-0.166
-474.274	424.402	-0.158	0.344
-473.259	11.781	0.235	-0.183
-472.245	-14.308	-0.291	-0.190
-471.230	-40.868	-0.150	-0.078
-470.216	-41.900	-0.301	0.156
-469.201	-140.160	-0.037	0.004
-468.186	296.305	0.182	0.337
-467.172	211.151	0.128	0.203
-466.157	-138.805	-0.102	0.011
-465.143	96.422	-0.287	-0.332
-464.128	-173.841	-0.263	0.008
-463.113	-57.548	0.181	0.080
-462.099	665.665	-0.055	0.143
-461.084	689.791	0.059	0.156
-460.070	89.969	-0.366	-0.413
-459.055	-110.986	-0.640	-0.133
-458.040	-68.318	0.125	-0.049
-457.026	67.537	0.175	-0.180
-456.011	209.937	-0.028	0.044
-454.997	110.947	0.258	-0.314
-453.982	-90.926	0.202	0.059
-452.968	-142.899	0.053	-0.005
-451.953	173.740	-0.242	-0.354
-450.938	0.747	-0.272	-0.197
-449.924	169.548	-0.119	-0.172
-448.909	-13.020	0.152	-0.100
-447.895	10.669	-0.154	-0.119
-446.880	800.000	-0.066	-0.185
-445.865	-72.625	-0.184	0.069
-444.851	-109.165	-0.243	-0.052
-443.836	156.631	-0.258	-0.360
-442.822	800.000	0.096	-0.345
-441.807	-122.907	-0.087	-0.014
-440.792	8.233	-0.130	-0.099
-439.778	394.058	0.121	0.254
-438.763	-200.000	0.006	0.106
-437.749	15.235	-0.093	0.073
-436.734	-89.647	-0.281	0.083
-435.719	423.932	0.110	-0.239
-434.705	729.215	-0.068	-0.184
-433.690	800.000	0.058	0.187
-432.676	631.880	0.103	0.263
-431.661	-200.000	-0.070	-0.349
-430.646	-200.000	0.015	0.244
-429.632	-41.743	0.057	0.029
-428.617	171.285	0.079	0.115
-427.603	-30.052	0.110	-0.063
-426.588	-70.906	-0.279	-0.106
-425.573	-58.288	-0.320	-0.141
-424.559	103.256	-0.140	0.166
-423.544	19.608	0.142	0.115
-422.530	152.324	-0.042	-0.059
-421.515	-106.859	0.403	-0.090
-420.500	13.841	0.167	-0.131
-419.486	200.145	0.163	0.252
-418.471	4.140	-0.020	0.015
-417.457	-200.000	-0.006	-0.289
-416.442	-200.000	0.004	0.211
-415.428	53.111	-0.301	0.291
-414.413	-143.115	0.185	-0.018
-413.398	-98.549	0.205	-0.053
-412.384	167.703	0.077	0.111
-411.369	-200.000	0.017	0.151
-410.355	-39.533	0.465	0.246
-409.340	800.000	-0.153	0.478
-408.325	-128.354	-0.359	0.052
-407.311	288.325	0.163	0.298
-406.296	800.000	0.045	0.167
-405.282	468.244	-0.084	0.190
-404.267	113.876	0.199	0.244
-403.252	800.000	-0.066	0.216
-402.238	-200.000	0.020	0.428
-401.223	351.204	-0.131	0.261
-400.209	-5.949	-0.092	-0.063
-399.194	-58.641	-0.137	0.060
-398.179	-119.662	-0.259	-0.045
-397.165	4.423	-0.059	0.044
-396.150	150.266	0.072	0.099
-395.136	99.751	-0.084	-0.098
-394.121	52.319	-0.087	0.084
-393.106	27.604	0.209	-0.178
-392.092	-106.263	0.415	-0.094
-391.077	136.731	-0.098	0.129
-390.063	126.964	-0.126	0.161
-389.048	108.768	-0.150	-0.181
-388.033	-77.765	-0.375	-0.131
-387.019	128.922	-0.207	-0.267
-386.004	-63.166	0.166	0.069
-384.990	-200.000	-0.013	-0.080
-383.975	534.165	0.105	-0.251
-382.960	-140.534	-0.434	0.045
-381.946	800.000	-0.010	0.029
-380.931	-200.000	-0.045	0.402
-379.917	39.088	-0.052	-0.047
-378.902	800.000	0.048	0.140
-377.888	11.841	-0.293	-0.227
-376.873	16.821	-0.099	0.079
-375.858	-82.139	-0.277	0.091
-374.844	167.431	-0.101	-0.145
-373.829	42.581	0.062	-0.057
-372.815	-75.573	-0.200	0.072
-371.800	-200.000	0.020	0.217
-370.785	770.284	0.014	-0.039
-369.771	-3.234	-0.020	-0.014
-368.756	-200.000	-0.018	-0.164
-367.742	43.666	-0.251	-0.231
-366.727	-165.794	-0.167	-0.007
-365.712	90.992	0.262	-0.296
-364.698	-7.573	0.179	-0.122
-363.683	800.000	-0.090	-0.325
-362.669	164.171	0.103	0.146
-361.654	25.462	-0.163	0.137
-360.639	476.876	-0.130	-0.297
-359.625	386.211	0.015	0.030
-358.610	-127.150	-0.434	-0.064
-357.596	-102.254	0.176	-0.042
-356.581	44.852	0.273	-0.253
-355.566	231.614	-0.033	-0.055
-354.552	481.106	0.088	0.202
-353.537	-200.000	0.056	0.250
-352.523	-54.055	0.241	0.111
-351.508	-87.571	0.096	-0.029
-350.493	-81.272	0.227	0.075
-349.479	54.820	-0.237	0.231
-348.464	-13.705	0.188	-0.123
-347.450	28.786	-0.213	-0.181
-346.435	78.969	0.284	-0.306
-345.420	149.916	-0.111	0.151
-344.406	-200.000	-0.000	-0.184
-343.391	-200.000	-0.042	0.214
-342.377	-155.051	0.222	-0.015
-341.362	349.112	0.206	0.409
-340.348	-200.000	-0.015	0.217
-339.333	-112.576	0.346	-0.069
-338.318	25.868	-0.127	-0.107
-337.304	-167.907	-0.119	0.005
-336.289	12.266	0.228	-0.177
-335.275	-69.536	0.188	0.073
-334.260	-115.945	0.132	0.025
-333.245	-200.000	-0.040	-0.177
-332.231	-200.000	-0.028	-0.150
-331.216	-200.000	0.004	0.034
-330.202	800.000	-0.054	0.152
-329.187	82.337	0.310	-0.338
-328.172	285.046	0.097	0.176
-327.158	94.774	-0.142	0.162
-326.143	65.808	-0.106	-0.108
-325.129	-85.980	-0.149	-0.046
-324.114	-114.778	0.249	-0.048
-323.099	-96.401	0.067	0.018
-322.085	-200.000	-0.010	0.169
-321.070	117.302	-0.110	0.136
-320.056	-100.492	-0.074	-0.019
-319.041	800.000	0.209	0.604
-318.026	-88.001	0.373	0.113
-317.012	-166.886	-0.198	-0.008
-315.997	-38.649	-0.417	-0.221
-314.983	-121.969	-0.150	-0.025
-313.968	741.742	-0.030	-0.081
-312.953	59.845	0.045	0.045
-311.939	800.000	0.034	-0.112
-310.924	90.496	-0.171	-0.192
-309.910	50.999	-0.145	0.138
-308.895	-91.921	0.269	-0.077
-307.880	-200.000	0.118	-0.000
-306.866	-200.000	0.043	0.202
-305.851	26.973	0.305	-0.257
-304.837	-106.722	0.543	-0.121
-303.822	-200.000	-0.027	0.171
-302.807	-200.000	-0.013	0.154
-301.793	-200.000	0.068	0.359
-300.778	-96.511	0.158	0.042
-299.764	-200.000	0.000	0.220
-298.749	-200.000	-0.001	-0.079
-297.735	195.758	0.119	0.181
-296.720	498.729	0.136	0.315
-295.705	643.334	-0.079	-0.203
-294.691	-22.217	-0.253	0.154
-293.676	40.657	-0.160	0.145
-292.662	470.922	0.143	0.324
-291.647	583.324	0.082	-0.203
-290.632	210.337	0.221	-0.349
-289.618	47.827	0.173	-0.162
-288.603	800.000	-0.049	0.143
-287.589	800.000	0.077	-0.290
-286.574	534.049	-0.088	0.210
-285.559	182.434	0.071	-0.106
-284.545	312.304	-0.060	0.113
-283.530	-16.684	0.163	0.103
-282.516	-200.000	-0.019	0.092
-281.501	800.000	-0.094	0.388
-280.486	-39.545	0.465	0.245
-279.472	800.000	-0.050	0.202
-278.457	-195.667	-0.423	0.003
-277.443	-149.896	0.365	-0.029
-276.428	-139.844	0.219	0.023
-275.413	800.000	0.101	-0.364
-274.399	-53.270	-0.035	0.016
-273.384	-105.369	0.097	-0.022
-272.370	800.000	-0.024	-0.070
-271.355	13.767	-0.146	0.114
-270.340	0.766	-0.040	0.029
-269.326	-200.000	0.001	-0.319
-268.311	622.378	-0.089	-0.225
-267.297	800.000	0.025	0.082
-266.282	219.779	-0.096	0.154
-265.267	-40.591	0.075	-0.039
-264.253	-22.259	0.324	-0.197
-263.238	-168.084	0.129	0.005
-262.224	-200.000	0.014	-0.092
-261.209	126.203	0.171	0.217
-260.195	-106.345	-0.103	-0.023
-259.180	400.749	-0.205	-0.431
-258.165	-200.000	0.019	-0.219
-257.151	800.000	0.040	-0.140
-256.136	-125.342	-0.253	0.039
-255.122	-93.349	0.243	0.068
-254.107	-45.953	0.166	-0.082
-253.092	-97.783	-0.445	-0.115
-252.078	34.791	-0.111	-0.097
-251.063	34.167	0.242	0.212
-250.049	-60.482	-0.066	-0.028
-249.034	-28.385	-0.130	-0.075
-248.019	69.481	0.270	-0.278
-247.005	-0.454	-0.362	-0.257
-245.990	-64.657	-0.036	-0.015
-244.976	-200.000	-0.026	0.159
-243.961	-61.546	0.061	-0.026
-242.946	-200.000	-0.031	0.255
-241.932	-200.000	0.024	0.148
-240.917	-200.000	-0.004	0.419
-239.903	-3.268	-0.124	0.087
-238.888	-44.304	0.065	0.033
-237.873	-190.113	0.110	-0.001
-236.859	-200.000	-0.022	-0.137
-235.844	566.871	-0.106	-0.258
-234.830	-29.124	0.255	-0.146
-233.815	-26.747	0.207	0.121
-232.800	-64.834	0.187	-0.076
-231.786	-102.166	0.259	0.062
-230.771	509.699	0.146	0.340
-229.757	-150.681	-0.207	0.016
-228.742	800.000	0.077	0.300
-227.727	-132.888	0.554	-0.071
-226.713	-200.000	0.003	0.205
-225.698	200.645	-0.173	0.266
-224.684	124.850	-0.114	0.144
-223.669	-70.149	-0.251	-0.096
-222.655	596.182	0.021	-0.053
-221.640	-194.936	-0.486	-0.004
-220.625	-200.000	-0.060	-0.302
-219.611	800.000	-0.044	-0.174
-218.596	193.819	0.176	-0.267
-217.582	236.948	-0.085	0.141
-216.567	67.056	0.179	0.183
-215.552	-200.000	0.033	-0.166
-214.538	524.826	0.019	0.044
-213.523	-200.000	-0.080	-0.385
-212.509	-70.778	-0.320	-0.121
-211.494	351.268	-0.073	-0.146
-210.479	129.986	0.036	-0.046
-209.465	156.765	-0.094	0.130
-208.450	-156.654	0.081	-0.005
-207.436	-162.353	-0.417	0.021
-206.421	-60.901	0.220	0.093
-205.406	-200.000	0.005	0.075
-204.392	-200.000	-0.008	0.388
-203.377	-43.542	-0.202	-0.102
-202.363	39.654	-0.225	-0.202
-201.348	-100.802	-0.168	-0.041
-200.333	800.000	0.066	0.263
-199.319	244.457	-0.160	0.268
-198.304	533.079	-0.169	0.401
-197.290	-200.000	0.012	0.160
-196.275	14.856	0.347	-0.272
-195.260	-42.178	-0.131	0.067
-194.246	800.000	0.035	0.125
-193.231	800.000	0.030	0.091
-192.217	41.696	-0.099	-0.089
-191.202	-200.000	0.043	0.431
-190.187	-10.181	-0.197	-0.131
-189.173	-200.000	0.036	-0.335
-188.158	42.595	0.191	-0.174
-187.144	-76.823	-0.123	-0.043
-186.129	20.613	0.178	-0.144
-185.114	-147.381	0.435	0.037
-184.100	-200.000	0.010	-0.105
-183.085	-62.341	0.304	-0.127
-182.071	345.956	-0.101	0.198
-181.056	800.000	-0.125	0.398
-180.042	-200.000	0.247	-0.001
-179.027	-57.099	-0.186	-0.082
-178.012	800.000	0.084	-0.231
-176.998	-69.909	0.120	0.046
-175.983	22.626	0.107	0.088
-174.969	-200.000	0.006	0.271
-173.954	-71.383	-0.386	-0.145
-172.939	-69.646	-0.148	-0.056
-171.925	682.211	0.165	0.431
-170.910	-200.000	0.009	0.058
-169.896	-36.809	-0.180	-0.096
-168.881	-77.646	0.474	-0.164
-167.866	100.620	-0.065	0.076
-166.852	288.657	-0.107	-0.195
-165.837	-88.255	-0.313	0.094
-164.823	-191.449	-0.100	0.001
-163.808	120.550	-0.038	0.047
-162.793	289.900	-0.107	0.195
-161.779	-110.463	-0.082	0.017
-160.764	-200.000	0.009	-0.397
-159.750	-94.145	0.071	-0.019
-158.735	669.458	-0.076	-0.198
-157.720	479.625	-0.034	0.078
-156.706	800.000	-0.150	0.419
-155.691	800.000	0.036	0.131
-154.677	-45.051	0.465	-0.231
-153.662	-2.803	0.111	-0.078
-152.647	66.385	0.168	-0.170
-151.633	699.553	0.052	-0.136
-150.618	-68.332	0.099	0.038
-149.604	10.822	-0.058	-0.044
-148.589	-84.840	0.055	0.017
-147.574	-200.000	-0.014	0.263
-146.560	408.464	0.082	0.173
-145.545	-64.367	-0.346	-0.141
-144.531	124.155	-0.071	0.089
-143.516	-200.000	0.016	-0.213
-142.502	227.856	-0.086	0.140
-141.487	-200.000	0.004	-0.379
-140.472	-159.462	0.405	0.023
-139.458	-178.188	-0.491	-0.012
-138.443	-200.000	0.012	-0.463
-137.429	-200.000	-0.028	-0.142
-136.414	-117.952	0.408	0.073
-135.399	-32.324	0.150	0.084
-134.385	-128.246	0.133	-0.019
-133.370	800.000	-0.018	-0.062
-132.356	351.294	-0.055	-0.108
-131.341	27.132	0.260	0.218
-130.326	566.944	0.056	0.137
-129.312	2.336	-0.227	0.164
-128.297	-67.668	0.004	0.001
-127.283	-6.006	0.327	0.223
-126.268	-18.525	0.138	-0.086
-125.253	-195.441	-0.421	-0.003
-124.239	-8.411	0.098	-0.066
-123.224	800.000	0.114	-0.334
-122.210	800.000	0.033	0.132
