DTS Sentinel unit serial number:	SN413079Multiplexer serial number:	ORYXHardware model number:	OX4-SRSoftware version number:	ORYX F/W v4.00 Oryx Data Collector v3.7.2.0data status	okinstallation	princeton_trtdifferential loss correction	single-endedforward channel	channel 1reverse channel	N/Adate	2019/09/12time	20:38:35forward acquisition time	60.00reverse acquisition time	0.00gamma	496.2192k internal	0.2324k external	0.2324temperature offset calibration	1.0150default loss term (dB/km)	0.3790temperature slope calibration	1.0000multiplexer offset coefficient	1.0000multiplexer slope coefficient	1.0000fibre end	0.00T internal ref (°C)	31.14T ext. ref 1 (°C)	3.64T ext. ref 2 (°C)	25.68length (m)	temperature (°C)	Stokes	anti-Stokes-747.200	-13.436	0.153	0.100
-746.185	200.870	0.082	0.128
-745.171	-200.000	-0.007	-0.440
-744.156	-73.980	-0.128	0.047
-743.142	34.889	0.122	-0.107
-742.127	-96.217	0.101	0.027
-741.112	13.283	0.254	0.199
-740.098	-135.597	-0.434	0.052
-739.083	134.820	-0.235	-0.308
-738.069	271.192	-0.186	0.331
-737.054	800.000	0.030	0.083
-736.039	-47.580	0.086	0.042
-735.025	-12.826	-0.141	-0.093
-734.010	38.450	-0.209	-0.188
-732.996	-200.000	-0.054	-0.352
-731.981	61.551	-0.244	0.245
-730.966	-66.884	-0.218	0.087
-729.952	-123.251	-0.090	0.015
-728.937	800.000	0.069	-0.281
-727.923	99.658	-0.109	-0.128
-726.908	-101.496	0.240	-0.059
-725.894	249.901	-0.140	-0.240
-724.879	-200.000	-0.007	0.192
-723.864	-78.481	0.222	0.077
-722.850	158.080	-0.116	0.162
-721.835	-200.000	0.049	0.227
-720.821	-89.014	-0.441	-0.132
-719.806	17.358	-0.280	-0.224
-718.791	253.705	-0.139	0.239
-717.777	800.000	-0.026	-0.093
-716.762	-83.850	0.198	-0.064
-715.748	-51.773	0.195	0.091
-714.733	223.360	0.050	0.082
-713.718	-200.000	0.034	-0.219
-712.704	800.000	-0.080	-0.315
-711.689	139.342	-0.204	0.270
-710.675	657.828	0.104	-0.270
-709.660	42.836	-0.079	-0.073
-708.645	130.619	0.099	-0.128
-707.631	154.922	-0.116	-0.161
-706.616	-80.675	0.108	0.036
-705.602	-200.000	0.026	-0.218
-704.587	798.917	0.085	-0.238
-703.572	91.033	0.022	0.025
-702.558	-200.000	0.019	0.182
-701.543	-55.095	-0.226	0.102
-700.529	451.537	0.068	0.152
-699.514	-198.041	-0.545	0.003
-698.499	-128.709	0.309	-0.044
-697.485	532.596	0.083	-0.198
-696.470	49.344	-0.155	-0.146
-695.456	800.000	0.038	0.155
-694.441	420.267	-0.156	0.336
-693.426	-200.000	-0.014	0.072
-692.412	10.323	-0.112	0.086
-691.397	-3.106	0.348	-0.244
-690.383	305.732	0.262	-0.491
-689.368	-73.832	-0.095	0.035
-688.354	-18.581	0.145	-0.091
-687.339	-39.641	-0.277	0.146
-686.324	-22.818	-0.211	0.128
-685.310	701.365	0.115	-0.305
-684.295	-51.698	-0.134	-0.063
-683.281	-6.688	0.247	-0.170
-682.266	-200.000	0.003	0.025
-681.251	-200.000	0.033	-0.168
-680.237	-200.000	0.053	-0.303
-679.222	-143.848	0.115	0.011
-678.208	250.451	0.166	-0.283
-677.193	800.000	0.137	0.518
-676.178	103.869	-0.220	0.260
-675.164	88.083	0.099	-0.110
-674.149	172.215	0.188	0.272
-673.135	476.892	-0.133	-0.303
-672.120	-200.000	-0.003	0.146
-671.105	35.481	0.244	0.216
-670.091	-128.207	0.215	0.031
-669.076	61.729	0.189	-0.190
-668.062	-28.358	-0.365	-0.212
-667.047	-80.149	0.497	0.167
-666.032	-200.000	0.010	-0.414
-665.018	-72.880	-0.302	0.112
-664.003	90.249	0.049	-0.055
-662.989	-126.904	-0.507	-0.075
-661.974	180.345	-0.079	0.117
-660.959	-200.000	0.035	-0.191
-659.945	50.138	-0.078	-0.074
-658.930	-44.689	-0.164	0.083
-657.916	-148.463	-0.184	0.015
-656.901	800.000	0.042	0.122
-655.886	46.921	0.123	-0.115
-654.872	177.506	-0.183	-0.268
-653.857	36.417	-0.171	0.151
-652.843	800.000	-0.093	-0.285
-651.828	-177.566	-0.218	0.005
-650.814	101.627	-0.308	0.362
-649.799	-200.000	-0.012	0.061
-648.784	-200.000	-0.012	0.200
-647.770	31.600	0.085	-0.074
-646.755	-31.559	-0.106	0.060
-645.741	7.627	0.105	0.079
-644.726	-64.490	-0.224	-0.091
-643.711	-31.332	0.149	-0.084
-642.697	-77.078	0.205	-0.072
-641.682	-40.405	-0.263	0.137
-640.668	243.276	-0.112	-0.189
-639.653	-60.783	-0.250	-0.107
-638.638	-20.970	-0.270	-0.166
-637.624	-17.025	-0.168	-0.107
-636.609	-75.573	0.500	0.179
-635.595	-158.886	-0.241	0.014
-634.580	-53.838	0.274	0.126
-633.565	-46.708	0.100	-0.049
-632.551	-200.000	0.023	-0.167
-631.536	-70.234	-0.003	-0.001
-630.522	-200.000	-0.007	0.065
-629.507	-119.066	0.441	-0.078
-628.492	-200.000	-0.027	0.215
-627.478	-200.000	-0.033	-0.247
-626.463	-112.872	0.136	0.027
-625.449	395.729	-0.043	0.090
-624.434	-200.000	0.079	-0.419
-623.419	-84.315	-0.318	0.101
-622.405	39.197	0.234	-0.210
-621.390	192.326	0.221	-0.336
-620.376	-200.000	0.002	-0.216
-619.361	-200.000	-0.014	-0.236
-618.346	-43.323	-0.269	0.137
-617.332	800.000	0.051	-0.169
-616.317	131.333	-0.047	0.061
-615.303	-200.000	-0.052	0.409
-614.288	408.422	-0.055	0.118
-613.273	-200.000	-0.022	0.164
-612.259	800.000	0.037	-0.139
-611.244	77.449	-0.311	0.332
-610.230	800.000	-0.062	0.194
-609.215	396.043	-0.040	0.084
-608.201	-103.972	-0.069	-0.016
-607.186	-200.000	0.003	0.429
-606.171	-20.126	-0.206	0.128
-605.157	-5.857	0.325	-0.223
-604.142	2.268	0.252	0.183
-603.128	-188.182	-0.487	0.006
-602.113	-191.926	-0.287	0.003
-601.098	800.000	-0.029	-0.090
-600.084	-81.754	0.292	-0.096
-599.069	-200.000	0.044	0.286
-598.055	91.421	-0.144	0.162
-597.040	-200.000	-0.009	0.222
-596.025	-30.222	-0.106	-0.061
-595.011	211.624	-0.262	-0.413
-593.996	800.000	-0.076	0.318
-592.982	481.722	0.127	0.289
-591.967	-160.075	-0.049	-0.003
-590.952	-109.192	-0.352	0.075
-589.938	-200.000	-0.053	0.240
-588.923	156.385	-0.041	-0.056
-587.909	-200.000	0.022	-0.132
-586.894	-200.000	-0.004	-0.280
-585.879	-177.592	0.226	-0.006
-584.865	483.072	0.081	-0.186
-583.850	800.000	-0.080	0.235
-582.836	-10.744	0.178	-0.118
-581.821	-75.056	-0.163	-0.059
-580.806	-63.045	0.047	0.020
-579.792	800.000	-0.029	-0.124
-578.777	80.896	0.109	0.118
-577.763	13.501	0.049	0.038
-576.748	-23.267	-0.134	0.081
-575.733	-126.546	-0.209	0.031
-574.719	-26.394	-0.091	-0.053
-573.704	487.965	0.178	-0.407
-572.690	-37.395	-0.112	0.060
-571.675	303.454	0.090	-0.166
-570.661	169.745	-0.105	0.151
-569.646	10.386	0.171	-0.130
-568.631	251.901	-0.059	0.101
-567.617	-113.325	0.243	0.048
-566.602	96.868	-0.119	0.137
-565.588	-127.444	-0.271	-0.040
-564.573	-54.005	0.050	-0.023
-563.558	106.534	0.189	-0.224
-562.544	-6.844	0.217	0.148
-561.529	800.000	0.047	-0.136
-560.515	101.180	0.340	-0.397
-559.500	800.000	0.016	-0.057
-558.485	128.648	-0.115	-0.147
-557.471	196.799	-0.079	-0.121
-556.456	283.092	-0.080	-0.144
-555.442	226.042	-0.118	0.191
-554.427	-200.000	-0.005	-0.021
-553.412	-19.197	0.271	0.169
-552.398	179.533	-0.068	-0.100
-551.383	-200.000	0.021	0.170
-550.369	598.663	0.105	0.261
-549.354	-48.204	-0.301	0.145
-548.339	526.012	-0.065	0.153
-547.325	74.733	0.199	0.210
-546.310	122.776	0.079	0.099
-545.296	-106.345	-0.194	-0.043
-544.281	-171.525	-0.469	-0.016
-543.266	-138.183	0.162	-0.018
-542.252	-62.657	-0.256	0.106
-541.237	-49.120	0.160	-0.076
-540.223	-200.000	0.009	-0.140
-539.208	-200.000	-0.053	-0.325
-538.193	722.579	-0.118	-0.314
-537.179	-49.830	-0.309	0.147
-536.164	125.671	-0.099	-0.125
-535.150	-60.564	-0.137	0.058
-534.135	-200.000	0.007	-0.062
-533.121	316.255	-0.241	-0.455
-532.106	-107.050	0.258	-0.057
-531.091	-200.000	-0.047	-0.211
-530.077	-58.833	-0.156	-0.067
-529.062	-107.653	0.254	-0.056
-528.048	-116.389	-0.152	0.028
-527.033	-75.715	0.074	-0.026
-526.018	-200.000	-0.013	-0.071
-525.004	-63.788	-0.109	-0.045
-523.989	-34.345	0.207	-0.114
-522.975	43.867	-0.014	0.013
-521.960	-21.565	-0.300	0.183
-520.945	-100.091	0.194	0.048
-519.931	-76.777	0.222	0.078
-518.916	110.729	-0.231	0.278
-517.902	-2.846	0.121	0.085
-516.887	138.295	0.198	-0.259
-515.872	-200.000	0.083	0.542
-514.858	-83.234	-0.376	-0.121
-513.843	-111.336	0.168	-0.034
-512.829	800.000	-0.017	0.063
-511.814	-2.218	-0.055	0.038
-510.799	-200.000	0.015	-0.143
-509.785	-107.629	0.281	-0.061
-508.770	666.208	-0.072	0.186
-507.756	-29.747	0.090	0.051
-506.741	-120.614	0.154	0.026
-505.726	-79.234	-0.237	-0.080
-504.712	-20.078	0.188	0.116
-503.697	-115.648	-0.191	-0.036
-502.683	-27.462	-0.128	-0.075
-501.668	-67.191	0.086	-0.034
-500.653	-37.212	-0.212	0.113
-499.639	-200.000	-0.036	0.183
-498.624	-200.000	0.000	0.120
-497.610	800.000	-0.025	0.093
-496.595	-159.032	0.188	0.011
-495.581	403.388	0.086	0.180
-494.566	-23.480	0.166	-0.100
-493.551	-60.590	-0.343	-0.146
-492.537	43.169	-0.061	0.055
-491.522	-200.000	0.017	-0.392
-490.508	-94.511	0.125	-0.034
-489.493	-95.070	0.199	-0.054
-488.478	0.763	0.057	0.041
-487.464	144.014	0.132	0.176
-486.449	-200.000	-0.014	0.140
-485.435	62.967	-0.220	-0.221
-484.420	76.006	0.163	0.172
-483.405	235.465	-0.028	0.047
-482.391	45.801	0.268	-0.247
-481.376	-164.085	-0.177	-0.008
-480.362	368.549	-0.056	0.113
-479.347	12.822	-0.155	-0.119
-478.332	800.000	-0.036	-0.112
-477.318	-5.077	0.071	0.049
-476.303	119.675	0.052	-0.065
-475.289	-200.000	0.040	0.446
-474.274	-96.500	-0.197	0.052
-473.259	774.121	0.012	0.033
-472.245	-102.564	0.071	0.017
-471.230	343.739	-0.151	0.295
-470.216	18.909	-0.014	-0.012
-469.201	-164.816	0.387	0.017
-468.186	-200.000	0.015	-0.136
-467.172	145.514	0.107	-0.143
-466.157	-55.066	-0.062	-0.028
-465.143	-200.000	0.009	0.053
-464.128	-41.448	-0.316	0.162
-463.113	87.235	0.272	-0.300
-462.099	-113.867	0.119	-0.023
-461.084	236.063	-0.014	0.022
-460.070	-29.209	-0.293	-0.168
-459.055	-157.880	-0.141	0.008
-458.040	-200.000	0.003	0.132
-457.026	380.687	-0.050	0.103
-456.011	-0.512	-0.202	-0.143
-454.997	139.783	0.192	-0.253
-453.982	800.000	-0.038	-0.163
-452.968	-178.149	-0.075	0.002
-451.953	-60.072	-0.062	0.026
-450.938	800.000	0.132	0.373
-449.924	56.622	0.064	0.062
-448.909	77.857	0.232	0.247
-447.895	158.908	0.169	-0.235
-446.880	404.612	0.159	-0.335
-445.865	-166.002	-0.258	0.011
-444.851	-200.000	-0.010	-0.101
-443.836	-146.630	-0.076	-0.007
-442.822	-160.459	0.203	-0.011
-441.807	12.363	-0.411	-0.316
-440.792	-142.440	0.384	-0.038
-439.778	467.151	0.134	0.300
-438.763	-200.000	-0.014	0.241
-437.749	354.733	-0.070	-0.140
-436.734	-112.167	-0.191	0.038
-435.719	-200.000	0.015	-0.154
-434.705	-86.413	-0.325	-0.100
-433.690	640.431	0.116	-0.296
-432.676	460.834	-0.061	0.135
-431.661	239.446	-0.040	-0.067
-430.646	-200.000	-0.040	0.452
-429.632	-80.625	-0.172	0.057
-428.617	81.719	0.100	0.108
-427.603	-87.586	0.331	-0.100
-426.588	313.766	0.066	0.124
-425.573	-200.000	-0.015	-0.238
-424.559	185.422	-0.205	0.304
-423.544	-179.824	-0.091	-0.002
-422.530	46.648	-0.314	-0.290
-421.515	260.215	-0.093	0.161
-420.500	-26.029	0.043	0.025
-419.486	800.000	-0.063	-0.181
-418.471	301.836	0.141	-0.261
-417.457	-27.828	0.327	-0.189
-416.442	72.957	0.233	-0.242
-415.428	485.522	-0.097	-0.219
-414.413	800.000	0.055	0.200
-413.398	80.425	-0.249	0.267
-412.384	-104.408	-0.187	0.043
-411.369	-82.626	0.273	-0.088
-410.355	-146.579	-0.134	0.012
-409.340	-105.613	0.139	0.031
-408.325	-200.000	-0.001	-0.030
-407.311	-65.043	-0.326	-0.131
-406.296	2.716	0.200	0.145
-405.282	-87.115	-0.310	-0.094
-404.267	-122.843	-0.305	0.049
-403.252	800.000	0.032	-0.088
-402.238	-8.063	0.084	-0.057
-401.223	-35.192	0.304	0.165
-400.209	202.843	-0.167	-0.256
-399.194	-200.000	-0.027	0.222
-398.179	-82.279	-0.279	0.090
-397.165	-87.357	0.268	-0.081
-396.150	100.931	0.210	0.243
-395.136	800.000	0.011	-0.031
-394.121	-1.569	-0.263	-0.185
-393.106	-28.903	-0.279	-0.160
-392.092	69.037	-0.195	0.200
-391.077	147.261	0.126	0.169
-390.063	-138.682	0.247	0.027
-389.048	-174.847	-0.382	-0.011
-388.033	145.118	0.200	-0.267
-387.019	800.000	-0.034	-0.117
-386.004	-99.640	-0.055	-0.014
-384.990	-189.070	0.111	0.001
-383.975	49.810	-0.044	0.042
-382.960	86.568	0.106	-0.116
-381.946	-174.770	0.264	0.007
-380.931	-200.000	-0.001	0.142
-379.917	-119.329	0.253	-0.044
-378.902	-95.055	-0.156	0.042
-377.888	186.647	0.122	0.181
-376.873	139.622	0.021	0.028
-375.858	-200.000	-0.012	0.140
-374.844	800.000	0.083	0.283
-373.829	6.400	0.215	0.159
-372.815	-44.276	0.205	0.102
-371.800	-1.582	-0.265	0.186
-370.785	509.363	0.109	0.252
-369.771	800.000	0.057	-0.203
-368.756	-182.891	-0.317	-0.006
-367.742	32.865	0.476	-0.410
-366.727	-200.000	0.063	-0.313
-365.712	159.643	0.053	0.073
-364.698	87.043	-0.052	-0.057
-363.683	35.744	-0.189	0.166
-362.669	800.000	0.046	-0.181
-361.654	426.922	0.068	0.145
-360.639	448.564	-0.066	0.144
-359.625	-200.000	-0.039	-0.287
-358.610	-84.003	0.065	0.021
-357.596	51.245	-0.146	0.138
-356.581	81.152	-0.121	0.130
-355.566	800.000	-0.013	-0.047
-354.552	61.996	-0.157	-0.156
-353.537	-81.130	0.271	-0.089
-352.523	16.977	0.065	0.051
-351.508	-14.353	-0.148	0.095
-350.493	-200.000	-0.015	0.145
-349.479	-200.000	-0.033	0.401
-348.464	97.785	-0.071	0.081
-347.450	-35.819	-0.347	-0.187
-346.435	56.185	0.211	0.204
-345.420	800.000	-0.086	-0.292
-344.406	-190.222	-0.056	-0.001
-343.391	22.850	-0.128	-0.105
-342.377	-200.000	0.280	0.001
-341.362	75.949	0.220	-0.231
-340.348	800.000	0.082	0.261
-339.333	83.090	0.173	0.187
-338.318	800.000	-0.088	-0.257
-337.304	-161.621	0.222	-0.011
-336.289	304.188	-0.160	0.295
-335.275	531.584	-0.067	-0.158
-334.260	506.312	0.046	-0.106
-333.245	169.610	-0.222	-0.316
-332.231	424.175	-0.074	-0.158
-331.216	301.532	-0.197	0.361
-330.202	-200.000	0.006	-0.094
-329.187	-123.356	-0.097	-0.015
-328.172	36.251	-0.129	0.113
-327.158	-87.345	-0.182	0.055
-326.143	-200.000	0.000	0.067
-325.129	-200.000	0.025	-0.109
-324.114	-40.603	0.263	0.135
-323.099	-154.977	0.268	-0.018
-322.085	-1.287	0.183	0.128
-321.070	209.175	-0.087	-0.136
-320.056	557.448	0.085	-0.203
-319.041	642.979	-0.079	0.199
-318.026	-85.529	0.292	-0.090
-317.012	22.303	-0.106	-0.086
-315.997	-80.410	-0.313	-0.104
-314.983	49.781	0.117	-0.109
-313.968	148.036	0.095	-0.128
-312.953	-75.609	0.165	-0.058
-311.939	-16.846	-0.221	0.139
-310.924	133.567	0.120	-0.154
-309.910	17.493	0.241	0.190
-308.895	-91.928	0.525	0.148
-307.880	76.575	-0.100	0.106
-306.866	136.384	-0.099	0.128
-305.851	465.919	-0.112	-0.248
-304.837	-77.842	-0.349	-0.120
-303.822	243.441	-0.074	0.123
-302.807	24.087	-0.111	-0.091
-301.793	800.000	0.036	0.146
-300.778	217.796	-0.121	0.191
-299.764	-131.421	-0.274	-0.036
-298.749	-110.268	0.147	-0.030
-297.735	800.000	0.020	0.071
-296.720	-131.240	0.105	-0.014
-295.705	-124.858	0.209	-0.032
-294.691	204.464	0.058	0.088
-293.676	203.693	-0.037	-0.056
-292.662	-200.000	0.022	0.332
-291.647	105.527	-0.028	0.033
-290.632	762.207	0.097	0.262
-289.618	575.475	-0.046	-0.112
-288.603	-99.356	0.389	0.097
-287.589	4.510	0.197	-0.144
-286.574	90.933	-0.248	-0.275
-285.559	-163.854	0.246	0.011
-284.545	263.963	-0.136	0.235
-283.530	27.572	0.049	-0.041
-282.516	-64.841	0.143	0.057
-281.501	-97.046	-0.292	-0.076
-280.486	398.390	0.107	0.222
-279.472	2.511	0.272	0.196
-278.457	207.448	0.087	-0.134
-277.443	-9.231	-0.072	-0.047
-276.428	-158.117	-0.089	0.005
-275.413	149.562	-0.097	0.131
-274.399	131.460	0.150	-0.191
-273.384	800.000	0.076	-0.303
-272.370	-93.935	0.306	-0.083
-271.355	-3.938	-0.215	-0.148
-270.340	561.189	0.055	-0.132
-269.326	361.848	0.043	-0.086
-268.311	-200.000	0.020	-0.206
-267.297	-118.277	0.367	-0.065
-266.282	212.394	0.111	-0.174
-265.267	800.000	-0.022	0.074
-264.253	-200.000	-0.007	-0.063
-263.238	800.000	0.044	0.174
-262.224	-73.932	-0.306	0.110
-261.209	-200.000	-0.031	0.147
-260.195	-200.000	-0.010	0.114
-259.180	-66.257	0.132	-0.052
-258.165	174.131	-0.147	0.210
-257.151	460.607	0.019	-0.042
-256.136	98.697	-0.211	0.241
-255.122	39.082	0.129	-0.114
-254.107	93.390	-0.236	-0.264
-253.092	209.047	-0.076	0.118
-252.078	-200.000	-0.003	0.163
-251.063	-200.000	0.018	0.082
-250.049	-200.000	0.008	-0.153
-249.034	-105.043	-0.182	-0.041
-248.019	109.512	-0.241	0.286
-247.005	-25.564	0.098	0.057
-245.990	-40.169	0.155	-0.080
-244.976	-110.103	0.320	-0.066
-243.961	-29.514	-0.034	0.019
-242.946	-77.405	-0.195	0.067
-241.932	-123.355	0.343	0.054
-240.917	-69.865	-0.207	0.078
-239.903	-200.000	0.016	-0.141
-238.888	257.175	0.086	-0.147
-237.873	-86.830	0.202	-0.061
-236.859	-200.000	0.022	-0.139
-235.844	-200.000	-0.063	-0.275
-234.830	27.534	-0.133	0.110
-233.815	-58.734	-0.022	-0.010
-232.800	172.432	0.105	0.150
-231.786	-166.887	0.124	-0.005
-230.771	54.371	0.196	-0.187
-229.757	-200.000	0.021	0.254
-228.742	19.602	-0.115	0.091
-227.727	-25.065	-0.344	-0.202
-226.713	-200.000	0.016	0.086
-225.698	800.000	0.049	-0.179
-224.684	-26.666	-0.180	-0.104
-223.669	-13.429	0.374	-0.240
-222.655	-200.000	0.001	0.140
-221.640	-134.989	-0.305	0.036
-220.625	-33.770	-0.163	0.089
-219.611	-40.075	0.203	0.105
-218.596	-164.490	0.238	-0.011
-217.582	-200.000	0.029	-0.158
-216.567	41.579	0.164	-0.147
-215.552	44.268	-0.227	0.206
-214.538	-12.651	-0.144	0.093
-213.523	176.615	-0.094	-0.135
-212.509	-126.538	0.302	-0.044
-211.494	247.153	-0.119	-0.199
-210.479	-200.000	-0.025	0.136
-209.465	112.674	-0.221	-0.264
-208.450	-200.000	0.037	0.291
-207.436	-200.000	-0.042	0.224
-206.421	194.918	0.154	0.232
-205.406	47.235	0.301	-0.277
-204.392	324.956	-0.153	-0.289
-203.377	81.899	0.237	-0.254
-202.363	-200.000	-0.085	0.387
-201.348	281.636	0.027	0.048
-200.333	800.000	-0.002	-0.008
-199.319	85.923	-0.199	-0.216
-198.304	-200.000	-0.008	0.184
-197.290	-111.755	0.109	0.022
-196.275	-121.163	0.401	-0.066
-195.260	727.196	0.040	0.105
-194.246	71.273	0.100	-0.102
-193.231	-159.331	-0.153	0.008
-192.217	-146.205	0.183	-0.016
-191.202	29.436	0.268	0.225
-190.187	-61.536	-0.144	-0.060
-189.173	-51.711	-0.486	0.224
-188.158	-133.114	0.513	-0.064
-187.144	261.775	-0.063	-0.107
-186.129	269.850	0.129	0.224
-185.114	-41.738	0.143	0.072
-184.100	-140.758	-0.140	-0.014
-183.085	167.191	0.171	-0.240
-182.071	-200.000	-0.008	0.324
-181.056	-200.000	-0.013	-0.214
-180.042	172.300	-0.042	-0.059
-179.027	-200.000	-0.013	0.286
-178.012	-6.926	-0.100	0.067
-176.998	800.000	-0.105	-0.308
-175.983	-166.306	-0.179	-0.007
-174.969	21.082	-0.013	-0.010
-173.954	-73.908	-0.077	0.028
-172.939	39.439	0.385	0.340
-171.925	-165.735	0.334	0.014
-170.910	-70.508	-0.193	0.072
-169.896	607.302	-0.072	0.177
-168.881	-200.000	0.007	-0.207
-167.866	-200.000	-0.011	-0.050
-166.852	-50.789	0.211	0.098
-165.837	220.711	-0.031	-0.049
-164.823	-172.894	-0.131	-0.004
-163.808	-32.455	-0.127	-0.070
-162.793	67.174	0.231	0.233
-161.779	-75.578	-0.110	-0.038
-160.764	682.381	-0.077	-0.198
-159.750	51.961	-0.136	-0.128
-158.735	215.157	-0.015	-0.023
-157.720	-200.000	-0.041	0.266
-156.706	-22.952	-0.058	-0.035
-155.691	-91.021	-0.407	-0.115
-154.677	-200.000	0.002	-0.386
-153.662	-34.193	-0.018	0.010
-152.647	-14.921	0.234	0.148
-151.633	-200.000	0.015	0.208
-150.618	375.214	-0.074	-0.149
-149.604	1.704	0.238	0.169
-148.589	-124.419	0.345	0.053
-147.574	289.435	0.136	-0.243
-146.560	156.567	0.047	0.063
-145.545	-154.097	0.042	0.003
-144.531	-66.479	0.233	0.091
-143.516	-51.729	0.383	-0.176
-142.502	-200.000	0.016	-0.145
-141.487	38.267	0.134	0.118
-140.472	800.000	0.017	-0.068
-139.458	223.713	-0.241	0.383
-138.443	-200.000	0.024	-0.110
-137.429	-30.304	0.255	0.143
-136.414	-139.502	-0.118	0.012
-135.399	561.338	0.137	-0.326
-134.385	26.379	-0.055	-0.045
-133.370	101.467	-0.146	-0.167
-132.356	800.000	0.104	-0.395
-131.341	-200.000	0.054	-0.283
-130.326	333.619	0.027	0.052
-129.312	-48.901	0.198	0.093
-128.297	-200.000	0.000	-0.280
-127.283	-116.542	0.176	-0.032
-126.268	30.566	0.085	0.071
-125.253	50.404	0.105	0.098
-124.239	12.628	0.065	-0.050
-123.224	66.634	0.172	0.173
-122.210	-164.288	0.401	-0.018
-121.195	-150.399	0.179	-0.014
