DTS Sentinel unit serial number:	SN413079Multiplexer serial number:	ORYXHardware model number:	OX4-SRSoftware version number:	ORYX F/W v4.00 Oryx Data Collector v3.7.2.0data status	okinstallation	princeton_trtdifferential loss correction	single-endedforward channel	channel 1reverse channel	N/Adate	2019/09/13time	04:58:35forward acquisition time	60.00reverse acquisition time	0.00gamma	496.2192k internal	0.2335k external	0.2335temperature offset calibration	1.0160default loss term (dB/km)	0.3790temperature slope calibration	1.0000multiplexer offset coefficient	1.0000multiplexer slope coefficient	1.0000fibre end	0.00T internal ref (°C)	26.50T ext. ref 1 (°C)	4.05T ext. ref 2 (°C)	20.95length (m)	temperature (°C)	Stokes	anti-Stokes-747.200	-195.531	0.248	-0.002
-746.185	-21.745	0.137	0.084
-745.171	350.542	0.091	0.181
-744.156	800.000	0.070	0.238
-743.142	660.762	-0.071	0.183
-742.127	-200.000	-0.006	0.149
-741.112	-38.677	-0.322	-0.171
-740.098	-195.718	0.117	0.001
-739.083	3.087	0.117	-0.085
-738.069	713.382	0.171	0.455
-737.054	-42.435	-0.348	-0.178
-736.039	20.249	-0.132	0.107
-735.025	400.112	0.100	-0.211
-734.010	-200.000	-0.013	-0.111
-732.996	800.000	0.086	-0.307
-731.981	84.519	-0.183	-0.202
-730.966	-200.000	0.009	0.334
-729.952	265.073	-0.125	-0.218
-728.937	32.911	-0.111	0.097
-727.923	-131.368	-0.211	0.028
-726.908	-27.772	0.050	-0.029
-725.894	-6.377	-0.280	-0.192
-724.879	-200.000	-0.019	-0.181
-723.864	86.918	0.068	-0.075
-722.850	-29.827	-0.053	0.030
-721.835	541.694	-0.084	-0.200
-720.821	-44.994	0.422	0.211
-719.806	5.970	0.085	-0.063
-718.791	-5.106	-0.181	-0.125
-717.777	-200.000	0.025	-0.137
-716.762	-53.470	-0.254	-0.117
-715.748	28.251	-0.293	-0.249
-714.733	173.246	-0.196	0.283
-713.718	-194.417	0.172	-0.001
-712.704	800.000	-0.084	0.276
-711.689	-92.874	0.339	-0.095
-710.675	132.884	-0.162	-0.210
-709.660	3.199	-0.128	-0.093
-708.645	-200.000	0.045	-0.227
-707.631	309.089	0.196	0.367
-706.616	353.508	-0.085	-0.170
-705.602	-45.224	-0.347	0.173
-704.587	62.474	0.128	0.129
-703.572	-19.474	0.401	-0.249
-702.558	3.539	-0.131	-0.096
-701.543	-45.432	-0.342	-0.170
-700.529	-200.000	-0.042	0.203
-699.514	-200.000	0.001	0.024
-698.499	800.000	0.064	-0.179
-697.485	800.000	-0.036	-0.145
-696.470	13.700	-0.202	0.157
-695.456	87.005	-0.198	-0.220
-694.441	33.702	0.322	-0.281
-693.426	434.462	-0.104	0.227
-692.412	-200.000	-0.041	0.205
-691.397	-48.743	0.156	-0.075
-690.383	-2.506	0.334	-0.235
-689.368	-100.246	-0.344	0.086
-688.354	-90.309	0.216	0.063
-687.339	-200.000	0.016	0.265
-686.324	19.714	-0.090	-0.073
-685.310	239.824	0.065	-0.109
-684.295	527.160	0.093	-0.219
-683.281	-137.241	-0.179	-0.020
-682.266	511.417	0.046	-0.108
-681.251	800.000	0.074	-0.298
-680.237	-5.853	-0.107	0.073
-679.222	-0.064	0.122	-0.087
-678.208	-200.000	-0.014	-0.113
-677.193	-200.000	-0.008	0.141
-676.178	286.969	0.099	-0.179
-675.164	-162.693	-0.288	-0.014
-674.149	-102.079	-0.397	-0.096
-673.135	194.901	-0.112	-0.170
-672.120	-200.000	-0.038	-0.223
-671.105	403.025	-0.141	-0.297
-670.091	800.000	-0.015	0.047
-669.076	800.000	-0.063	-0.260
-668.062	-29.745	-0.199	-0.114
-667.047	-200.000	-0.018	-0.190
-666.032	-33.741	0.095	-0.052
-665.018	666.232	0.123	0.318
-664.003	-146.391	-0.067	-0.006
-662.989	-200.000	-0.053	0.430
-661.974	150.548	-0.177	-0.240
-660.959	-200.000	0.003	0.353
-659.945	119.351	0.194	0.241
-658.930	582.678	-0.143	0.351
-657.916	-13.173	-0.505	-0.329
-656.901	-97.918	0.107	-0.028
-655.886	-180.030	0.247	-0.005
-654.872	-92.445	-0.171	0.048
-653.857	341.737	0.150	0.294
-652.843	265.068	0.163	0.284
-651.828	-74.215	-0.175	0.064
-650.814	15.156	-0.215	0.169
-649.799	-200.000	0.024	-0.139
-648.784	-93.917	0.190	0.052
-647.770	16.136	-0.176	-0.139
-646.755	-200.000	-0.022	-0.248
-645.741	-51.507	-0.123	0.057
-644.726	800.000	-0.102	-0.342
-643.711	-151.521	0.178	0.013
-642.697	-66.211	-0.082	-0.033
-641.682	16.424	0.273	0.216
-640.668	33.923	0.197	0.172
-639.653	-200.000	0.024	-0.148
-638.638	-200.000	-0.010	0.051
-637.624	173.230	0.287	0.414
-636.609	-179.549	-0.317	0.007
-635.595	-150.661	-0.090	-0.007
-634.580	332.988	0.100	0.194
-633.565	-56.615	-0.189	-0.084
-632.551	-67.226	-0.214	-0.084
-631.536	166.145	-0.180	0.254
-630.522	-127.062	-0.086	0.013
-629.507	10.532	0.236	-0.180
-628.492	-148.214	0.375	-0.031
-627.478	528.902	0.022	0.052
-626.463	-200.000	-0.080	0.000
-625.449	-111.510	-0.116	-0.024
-624.434	-37.972	0.092	0.049
-623.419	-131.469	-0.449	-0.059
-622.405	-11.516	0.253	0.166
-621.390	-200.000	-0.007	0.045
-620.376	800.000	-0.102	-0.367
-619.361	-84.774	0.199	-0.063
-618.346	746.188	-0.092	-0.247
-617.332	-61.686	-0.140	0.058
-616.317	42.617	0.126	0.114
-615.303	269.446	-0.070	0.123
-614.288	76.312	0.214	0.227
-613.273	736.739	-0.130	-0.348
-612.259	-200.000	-0.514	0.002
-611.244	-200.000	0.033	0.374
-610.230	-116.161	-0.113	-0.021
-609.215	-200.000	-0.015	-0.080
-608.201	-139.040	-0.144	0.016
-607.186	-31.052	0.108	-0.061
-606.171	-165.453	-0.155	0.007
-605.157	-49.923	-0.231	-0.110
-604.142	-72.988	-0.174	0.064
-603.128	-200.000	0.032	-0.227
-602.113	-106.626	0.057	0.013
-601.098	-200.000	-0.015	-0.106
-600.084	268.097	0.080	-0.141
-599.069	-28.108	-0.290	-0.167
-598.055	478.021	0.110	-0.248
-597.040	800.000	-0.045	0.140
-596.025	437.313	-0.086	-0.188
-595.011	-102.626	0.195	-0.046
-593.996	131.648	-0.210	-0.270
-592.982	262.145	-0.256	-0.443
-591.967	-21.311	-0.151	0.092
-590.952	261.914	-0.049	0.086
-589.938	-31.877	-0.110	-0.062
-588.923	44.979	0.106	0.097
-587.909	-200.000	0.015	0.116
-586.894	-80.754	-0.362	0.120
-585.879	464.799	-0.033	0.073
-584.865	54.581	0.276	-0.265
-583.850	-200.000	-0.002	-0.143
-582.836	295.014	-0.296	-0.541
-581.821	-108.238	0.247	0.053
-580.806	-14.631	0.116	0.075
-579.792	-134.585	-0.080	-0.010
-578.777	-78.958	-0.208	-0.071
-577.763	306.581	0.074	-0.137
-576.748	48.352	0.177	0.165
-575.733	265.442	-0.207	0.359
-574.719	-134.920	0.201	-0.024
-573.704	-178.736	-0.041	-0.001
-572.690	-67.544	-0.258	-0.101
-571.675	-23.963	0.097	0.058
-570.661	489.298	-0.112	-0.256
-569.646	414.905	-0.067	-0.143
-568.631	-200.000	0.008	0.545
-567.617	-200.000	-0.063	0.333
-566.602	800.000	0.081	0.348
-565.588	97.520	-0.101	-0.115
-564.573	-200.000	0.017	-0.192
-563.558	182.708	0.259	-0.381
-562.544	-71.497	0.173	-0.065
-561.529	-50.709	0.035	0.017
-560.515	-55.119	0.361	-0.162
-559.500	-64.504	0.176	0.071
-558.485	-147.433	-0.211	0.018
-557.471	79.128	0.257	-0.275
-556.456	506.987	-0.030	0.068
-555.442	121.130	-0.172	0.214
-554.427	345.342	0.049	-0.095
-553.412	-200.000	-0.030	0.293
-552.398	-200.000	0.018	0.213
-551.383	-103.951	0.081	-0.019
-550.369	-17.108	0.074	-0.046
-549.354	-144.044	0.342	-0.032
-548.339	-200.000	-0.052	-0.292
-547.325	51.914	0.177	-0.168
-546.310	-139.501	-0.085	0.009
-545.296	382.100	0.049	0.101
-544.281	282.172	0.159	0.284
-543.266	-72.069	0.370	0.137
-542.252	-107.625	-0.286	-0.062
-541.237	-136.854	-0.101	0.012
-540.223	-200.000	-0.023	-0.153
-539.208	-48.849	-0.279	-0.133
-538.193	133.188	0.152	-0.195
-537.179	68.075	0.244	0.249
-536.164	72.823	-0.163	0.170
-535.150	-93.622	0.097	0.027
-534.135	667.571	-0.073	0.187
-533.121	-108.518	0.061	0.013
-532.106	123.425	-0.181	-0.226
-531.091	548.457	-0.089	-0.213
-530.077	800.000	0.040	-0.156
-529.062	-34.117	-0.320	0.175
-528.048	-200.000	0.000	-0.099
-527.033	108.427	-0.091	-0.108
-526.018	-139.722	0.230	0.024
-525.004	-146.157	0.038	0.003
-523.989	117.201	0.134	-0.164
-522.975	121.594	0.009	-0.011
-521.960	-116.709	-0.156	0.029
-520.945	-147.860	-0.367	-0.030
-519.931	-139.263	0.437	-0.047
-518.916	-101.273	0.190	-0.046
-517.902	24.476	0.129	-0.107
-516.887	243.882	0.054	0.091
-515.872	-200.000	0.070	0.486
-514.858	495.828	-0.096	0.220
-513.843	-170.775	0.283	-0.010
-512.829	311.579	0.034	-0.063
-511.814	319.904	-0.243	-0.460
-510.799	99.820	-0.082	-0.094
-509.785	-200.000	-0.010	0.082
-508.770	800.000	0.038	-0.150
-507.756	-38.491	0.050	-0.026
-506.741	-129.817	0.287	-0.039
-505.726	-111.363	-0.141	-0.029
-504.712	-200.000	0.047	0.256
-503.697	84.399	0.199	-0.216
-502.683	169.949	-0.218	0.311
-501.668	-10.378	0.165	0.109
-500.653	42.239	0.123	0.111
-499.639	545.453	0.107	-0.254
-498.624	52.853	0.171	-0.162
-497.610	352.082	-0.071	0.140
-496.595	665.342	0.100	-0.256
-495.581	305.981	0.098	0.181
-494.566	-200.000	-0.026	-0.176
-493.551	-93.244	0.275	-0.076
-492.537	46.590	-0.157	-0.145
-491.522	800.000	-0.058	-0.181
-490.508	-200.000	0.044	-0.229
-489.493	251.823	-0.167	-0.283
-488.478	181.775	-0.120	-0.176
-487.464	183.818	0.228	-0.336
-486.449	-1.508	-0.360	-0.253
-485.435	-200.000	-0.030	-0.369
-484.420	800.000	-0.046	0.160
-483.405	-200.000	-0.036	0.365
-482.391	-54.774	-0.229	-0.103
-481.376	-191.194	0.286	0.003
-480.362	800.000	0.066	0.273
-479.347	-91.807	0.073	-0.021
-478.332	-84.028	0.253	0.080
-477.318	-200.000	0.036	0.253
-476.303	-200.000	0.010	0.054
-475.289	233.696	-0.080	-0.131
-474.274	-30.655	-0.279	0.157
-473.259	-60.836	-0.173	0.073
-472.245	453.820	-0.110	0.243
-471.230	229.500	0.089	-0.144
-470.216	-200.000	-0.011	-0.240
-469.201	-82.757	0.241	-0.078
-468.186	-41.075	-0.263	0.135
-467.172	131.013	-0.052	0.066
-466.157	110.122	-0.114	0.136
-465.143	-200.000	0.021	-0.109
-464.128	-145.723	-0.473	-0.042
-463.113	800.000	0.055	0.155
-462.099	-200.000	-0.081	-0.457
-461.084	-41.178	-0.306	0.157
-460.070	44.562	-0.086	0.079
-459.055	72.909	-0.081	0.084
-458.040	178.937	-0.053	0.078
-457.026	-33.717	-0.318	0.174
-456.011	-200.000	0.049	-0.340
-454.997	-200.000	-0.003	0.056
-453.982	-154.818	0.096	-0.006
-452.968	-83.286	-0.210	0.067
-451.953	-200.000	0.004	0.076
-450.938	-83.116	0.231	0.074
-449.924	-40.528	0.146	0.075
-448.909	-67.346	0.190	0.074
-447.895	800.000	-0.024	0.103
-446.880	800.000	0.046	0.175
-445.865	-55.128	0.037	-0.016
-444.851	-5.243	0.351	-0.240
-443.836	82.140	0.132	0.142
-442.822	145.524	-0.125	-0.167
-441.807	-60.004	-0.279	0.118
-440.792	428.826	0.137	-0.295
-439.778	-200.000	0.039	-0.266
-438.763	-200.000	0.017	-0.189
-437.749	-200.000	0.024	-0.238
-436.734	-8.000	-0.194	0.130
-435.719	-200.000	-0.002	-0.234
-434.705	102.551	0.283	-0.328
-433.690	692.646	-0.090	-0.235
-432.676	129.848	-0.077	-0.098
-431.661	55.344	-0.114	0.109
-430.646	-14.720	0.079	0.050
-429.632	-41.763	-0.435	-0.221
-428.617	-200.000	-0.001	0.319
-427.603	-200.000	-0.020	0.380
-426.588	78.352	0.176	0.187
-425.573	474.003	0.105	-0.236
-424.559	-200.000	0.051	-0.229
-423.544	800.000	0.069	0.220
-422.530	-89.441	-0.380	0.111
-421.515	260.788	-0.226	-0.387
-420.500	-110.932	-0.217	-0.044
-419.486	-99.705	-0.124	0.031
-418.471	-38.898	-0.153	-0.080
-417.457	15.878	-0.209	-0.163
-416.442	-84.933	-0.404	0.126
-415.428	800.000	0.112	0.310
-414.413	-63.816	0.469	-0.190
-413.398	326.163	-0.209	0.397
-412.384	323.944	0.199	-0.376
-411.369	635.661	0.102	-0.256
-410.355	-152.735	-0.124	0.009
-409.340	233.593	-0.118	0.193
-408.325	-122.961	0.396	0.063
-407.311	-67.448	-0.125	0.049
-406.296	268.329	0.097	0.168
-405.282	199.703	-0.049	0.074
-404.267	190.990	-0.093	-0.139
-403.252	-128.389	-0.071	0.010
-402.238	-63.064	0.197	-0.081
-401.223	-29.121	0.178	0.101
-400.209	8.441	0.028	-0.021
-399.194	-103.033	0.472	0.111
-398.179	209.816	0.079	0.122
-397.165	-86.355	-0.293	-0.089
-396.150	198.118	-0.035	-0.053
-395.136	-147.138	0.445	-0.038
-394.121	-200.000	-0.044	-0.253
-393.106	-17.942	0.113	0.070
-392.092	-36.268	0.139	0.074
-391.077	-106.402	-0.250	-0.055
-390.063	-13.552	-0.237	-0.152
-389.048	161.284	-0.140	0.194
-388.033	-200.000	0.003	-0.036
-387.019	-102.117	0.430	-0.103
-386.004	-24.663	-0.133	-0.078
-384.990	329.868	0.089	0.169
-383.975	-200.000	-0.007	-0.064
-382.960	282.433	0.131	0.233
-381.946	-156.423	-0.142	-0.009
-380.931	-147.147	-0.244	0.021
-379.917	44.171	-0.098	0.089
-378.902	43.934	0.339	0.308
-377.888	39.874	0.118	0.105
-376.873	-200.000	-0.032	-0.319
-375.858	192.324	0.042	0.063
-374.844	-130.515	0.098	-0.013
-373.829	532.877	0.045	0.105
-372.815	248.399	0.077	0.129
-371.800	220.766	-0.175	0.278
-370.785	12.690	0.169	0.129
-369.771	133.775	-0.139	0.178
-368.756	564.820	0.106	0.255
-367.742	658.804	0.084	0.213
-366.727	-65.236	-0.268	-0.107
-365.712	53.505	0.352	-0.334
-364.698	800.000	-0.067	-0.223
-363.683	-40.580	-0.096	-0.049
-362.669	-44.105	0.181	0.090
-361.654	259.098	-0.121	-0.207
-360.639	-57.227	0.089	-0.039
-359.625	-133.001	0.469	0.059
-358.610	35.632	-0.220	0.191
-357.596	-200.000	-0.066	0.421
-356.581	-0.199	0.157	0.111
-355.566	-62.471	-0.103	0.042
-354.552	-97.324	0.129	-0.033
-353.537	421.205	-0.088	0.188
-352.523	800.000	-0.128	0.351
-351.508	-110.549	0.243	0.050
-350.493	345.634	-0.080	-0.155
-349.479	-65.006	-0.061	0.024
-348.464	0.873	0.090	0.064
-347.450	25.109	0.327	0.268
-346.435	431.185	0.085	0.183
-345.420	-132.258	0.395	0.051
-344.406	127.321	-0.070	0.087
-343.391	142.270	-0.075	-0.099
-342.377	800.000	0.098	0.392
-341.362	-99.928	0.781	-0.193
-340.348	88.883	-0.221	-0.243
-339.333	800.000	-0.044	0.121
-338.318	245.997	-0.213	-0.356
-337.304	-149.081	0.213	0.017
-336.289	-19.513	0.019	-0.012
-335.275	-200.000	0.021	-0.111
-334.260	-200.000	0.028	-0.398
-333.245	-17.228	-0.405	0.252
-332.231	-66.554	-0.245	0.096
-331.216	-200.000	-0.017	0.323
-330.202	-55.240	-0.162	0.072
-329.187	69.579	-0.205	-0.209
-328.172	-12.049	-0.340	-0.220
-327.158	800.000	0.056	-0.164
-326.143	-116.970	0.501	0.091
-325.129	369.726	0.163	-0.326
-324.114	-62.112	-0.189	-0.078
-323.099	-119.761	0.100	0.017
-322.085	363.865	-0.099	0.196
-321.070	-83.759	0.194	-0.061
-320.056	259.350	-0.158	-0.270
-319.041	259.327	0.100	0.171
-318.026	-149.269	0.089	-0.007
-317.012	113.027	0.118	0.141
-315.997	-74.923	0.313	-0.111
-314.983	67.994	-0.145	0.146
-313.968	-121.214	-0.351	0.058
-312.953	169.019	-0.105	-0.148
-311.939	800.000	0.055	0.235
-310.924	-63.678	-0.260	-0.105
-309.910	408.770	-0.164	-0.343
-308.895	149.046	0.399	0.534
-307.880	8.011	0.241	0.179
-306.866	95.651	-0.115	0.130
-305.851	-200.000	0.004	-0.265
-304.837	-53.358	0.222	0.100
-303.822	94.919	-0.314	0.353
-302.807	633.990	-0.089	0.223
-301.793	-200.000	-0.022	-0.206
-300.778	-82.132	-0.172	0.055
-299.764	-95.804	-0.095	0.025
-298.749	0.625	-0.310	-0.219
-297.735	-200.000	0.208	0.001
-296.720	800.000	0.091	0.278
-295.705	800.000	-0.017	-0.063
-294.691	73.061	0.133	-0.137
-293.676	-134.830	0.221	-0.026
-292.662	238.395	-0.266	0.436
-291.647	25.149	0.121	-0.099
-290.632	65.336	0.236	-0.236
-289.618	800.000	-0.076	0.249
-288.603	-200.000	-0.029	-0.180
-287.589	-200.000	-0.023	0.164
-286.574	-170.097	-0.154	-0.005
-285.559	-49.162	-0.184	0.087
-284.545	-48.917	-0.200	0.094
-283.530	45.857	0.079	-0.072
-282.516	24.930	-0.158	-0.130
-281.501	3.039	-0.109	0.078
-280.486	6.312	-0.204	0.150
-279.472	-103.255	-0.044	-0.010
-278.457	239.393	0.205	0.337
-277.443	800.000	0.085	0.245
-276.428	-99.837	-0.217	-0.054
-275.413	206.055	-0.227	0.349
-274.399	-76.274	0.091	0.032
-273.384	-36.646	-0.060	-0.032
-272.370	95.914	-0.112	0.126
-271.355	-65.417	0.383	0.152
-270.340	-200.000	-0.067	0.302
-269.326	-200.000	0.019	0.253
-268.311	800.000	0.026	0.105
-267.297	63.807	-0.047	-0.046
-266.282	503.856	0.015	0.035
-265.267	-8.895	0.257	-0.170
-264.253	89.911	0.228	-0.251
-263.238	50.733	0.084	-0.078
-262.224	800.000	0.034	0.120
-261.209	272.328	0.076	-0.132
-260.195	-0.084	0.104	-0.073
-259.180	-200.000	0.022	-0.313
-258.165	-57.267	0.312	0.135
-257.151	86.974	0.073	-0.079
-256.136	110.809	-0.037	0.044
-255.122	800.000	-0.080	0.272
-254.107	-114.279	0.064	-0.012
-253.092	767.516	-0.055	-0.147
-252.078	331.310	0.107	0.204
-251.063	-200.000	0.008	-0.186
-250.049	-200.000	0.015	-0.078
-249.034	-9.360	0.189	0.124
-248.019	-198.728	-0.316	0.002
-247.005	521.902	-0.115	0.265
-245.990	-161.350	0.129	-0.007
-244.976	-200.000	0.021	0.089
-243.961	368.283	0.114	-0.227
-242.946	-62.897	-0.154	0.063
-241.932	24.681	0.164	-0.134
-240.917	121.255	-0.130	-0.159
-239.903	800.000	0.128	0.419
-238.888	-116.472	-0.151	-0.028
-237.873	-200.000	0.036	-0.260
-236.859	-115.764	-0.106	0.020
-235.844	292.180	-0.285	0.512
-234.830	63.469	-0.144	0.142
-233.815	-200.000	-0.026	0.317
-232.800	21.106	-0.314	0.251
-231.786	800.000	0.058	-0.167
-230.771	233.706	0.243	-0.394
-229.757	800.000	0.039	-0.116
-228.742	624.914	0.025	0.063
-227.727	-52.018	-0.249	0.114
-226.713	71.060	0.137	0.140
-225.698	-109.673	-0.225	0.047
-224.684	63.817	0.049	-0.048
-223.669	-94.818	-0.142	0.038
-222.655	-118.166	-0.279	-0.049
-221.640	-200.000	-0.037	0.228
-220.625	-46.821	0.291	0.140
-219.611	-120.011	-0.269	-0.045
-218.596	-3.219	-0.019	-0.013
-217.582	107.660	-0.035	0.041
-216.567	-110.104	-0.076	0.016
-215.552	-200.000	0.003	-0.045
-214.538	-200.000	-0.027	-0.279
-213.523	296.837	-0.040	-0.073
-212.509	-200.000	0.051	-0.272
-211.494	-42.110	0.277	0.139
-210.479	363.510	0.148	-0.293
-209.465	-200.000	-0.005	-0.113
-208.450	339.421	-0.146	-0.280
-207.436	145.669	0.126	0.167
-206.421	800.000	-0.061	-0.179
-205.406	800.000	-0.095	-0.294
-204.392	763.726	-0.055	0.148
-203.377	-109.855	0.146	0.030
-202.363	28.252	0.182	0.151
-201.348	-68.065	-0.327	0.125
-200.333	12.871	0.111	-0.084
-199.319	-154.473	-0.186	-0.012
-198.304	-109.734	0.189	0.039
-197.290	-186.781	-0.305	-0.004
-196.275	-200.000	0.004	0.096
-195.260	-123.140	-0.257	-0.040
-194.246	-195.941	0.036	0.000
-193.231	-123.503	-0.316	0.049
-192.217	-57.635	0.243	0.105
-191.202	800.000	-0.033	-0.128
-190.187	390.635	0.144	-0.293
-189.173	-25.473	-0.223	0.130
-188.158	-200.000	0.053	0.283
-187.144	113.259	-0.303	-0.362
-186.129	-13.084	0.254	0.162
-185.114	-200.000	-0.047	0.239
-184.100	118.397	-0.211	-0.256
-183.085	-200.000	-0.027	0.159
-182.071	-77.872	0.169	0.057
-181.056	283.959	0.061	-0.108
-180.042	-66.048	0.642	-0.252
-179.027	-200.000	0.034	-0.171
-178.012	-9.687	0.378	-0.248
-176.998	70.870	-0.021	0.022
-175.983	206.801	-0.086	-0.132
-174.969	-200.000	0.068	0.311
-173.954	-16.540	0.286	0.178
-172.939	565.668	-0.048	0.115
-171.925	-54.007	-0.229	-0.102
-170.910	71.622	-0.174	-0.178
-169.896	100.568	-0.116	0.133
-168.881	-108.213	0.283	-0.060
-167.866	-200.000	-0.053	0.238
-166.852	71.982	0.091	-0.093
-165.837	-165.583	0.488	-0.021
-164.823	-158.217	-0.156	-0.009
-163.808	-101.724	-0.225	0.054
-162.793	316.234	0.119	0.221
-161.779	-177.140	-0.202	-0.005
-160.764	-200.000	0.035	-0.252
-159.750	-136.739	0.351	-0.040
-158.735	214.356	-0.201	-0.312
-157.720	48.637	0.223	0.205
-156.706	-148.218	0.200	-0.016
-155.691	800.000	-0.044	0.176
-154.677	135.072	-0.098	-0.125
-153.662	800.000	0.017	-0.049
-152.647	-200.000	-0.008	-0.185
-151.633	189.764	-0.106	0.156
-150.618	-0.022	0.296	-0.207
-149.604	-152.681	-0.341	-0.024
-148.589	271.889	-0.067	0.116
-147.574	479.794	-0.051	-0.113
-146.560	-49.200	0.100	0.047
-145.545	-142.796	0.123	-0.012
-144.531	297.439	0.022	0.039
-143.516	-200.000	0.028	-0.132
-142.502	88.652	0.222	0.242
-141.487	-55.309	-0.228	0.100
-140.472	-47.255	-0.208	0.100
-139.458	-37.696	0.071	0.037
-138.443	94.258	-0.320	-0.356
-137.429	-20.590	0.188	-0.113
-136.414	343.445	0.134	0.258
-135.399	-56.830	0.124	-0.054
-134.385	-164.277	0.279	0.013
-133.370	-176.827	-0.237	0.006
-132.356	-146.205	0.373	0.032
-131.341	-85.972	-0.122	0.037
-130.326	-200.000	0.027	0.307
-129.312	-163.216	0.354	-0.017
-128.297	-200.000	0.045	-0.317
-127.283	307.613	-0.145	0.266
-126.268	132.604	0.139	-0.176
-125.253	74.908	0.149	0.154
-124.239	-43.361	0.216	-0.107
-123.224	-85.912	-0.070	-0.021
-122.210	112.736	0.138	0.164
