DTS Sentinel unit serial number:	SN413079Multiplexer serial number:	ORYXHardware model number:	OX4-SRSoftware version number:	ORYX F/W v4.00 Oryx Data Collector v3.7.2.0data status	okinstallation	princeton_trtdifferential loss correction	single-endedforward channel	channel 1reverse channel	N/Adate	2019/09/13time	11:38:35forward acquisition time	60.00reverse acquisition time	0.00gamma	496.2192k internal	0.2314k external	0.2314temperature offset calibration	1.0153default loss term (dB/km)	0.3790temperature slope calibration	1.0000multiplexer offset coefficient	1.0000multiplexer slope coefficient	1.0000fibre end	0.00T internal ref (°C)	33.00T ext. ref 1 (°C)	4.46T ext. ref 2 (°C)	30.12length (m)	temperature (°C)	Stokes	anti-Stokes-747.200	800.000	-0.044	-0.148
-746.185	-200.000	0.006	-0.029
-745.171	-34.447	0.093	0.052
-744.156	-60.590	-0.093	0.040
-743.142	-91.078	-0.044	-0.013
-742.127	800.000	-0.088	0.349
-741.112	195.797	-0.246	-0.379
-740.098	587.729	0.083	0.206
-739.083	-64.095	0.130	0.054
-738.069	381.117	0.183	0.381
-737.054	-154.618	0.245	0.017
-736.039	269.589	-0.136	-0.243
-735.025	97.914	0.130	0.152
-734.010	-9.300	0.107	-0.072
-732.996	-83.069	-0.113	0.037
-731.981	-107.720	-0.023	-0.005
-730.966	235.704	0.053	0.089
-729.952	30.985	0.071	0.062
-728.937	-89.882	0.164	0.049
-727.923	800.000	0.154	-0.471
-726.908	-200.000	0.009	-0.144
-725.894	-117.730	-0.182	-0.033
-724.879	168.034	0.128	-0.184
-723.864	-94.367	0.292	-0.081
-722.850	454.371	-0.111	0.250
-721.835	-92.121	-0.172	0.049
-720.821	461.995	0.149	0.336
-719.806	-49.692	-0.176	-0.085
-718.791	-139.837	0.245	0.026
-717.777	-105.350	-0.087	-0.020
-716.762	-35.976	-0.315	0.173
-715.748	43.249	-0.254	0.235
-714.733	-38.996	-0.316	-0.169
-713.718	45.613	-0.136	-0.128
-712.704	51.993	0.124	0.119
-711.689	-52.200	0.072	0.034
-710.675	13.879	0.302	0.238
-709.660	110.043	0.139	-0.169
-708.645	-9.596	0.152	-0.103
-707.631	162.164	-0.256	0.364
-706.616	83.739	0.127	0.140
-705.602	-26.419	-0.437	-0.260
-704.587	-75.338	0.033	0.012
-703.572	503.281	-0.191	0.448
-702.558	-135.233	0.317	0.038
-701.543	-160.017	-0.209	-0.012
-700.529	65.163	-0.080	-0.082
-699.514	-200.000	0.044	0.236
-698.499	-200.000	0.022	-0.201
-697.485	-132.135	0.139	-0.018
-696.470	-200.000	-0.018	0.272
-695.456	-200.000	-0.024	-0.110
-694.441	-91.073	-0.161	0.047
-693.426	142.661	-0.180	0.242
-692.412	7.890	-0.170	-0.129
-691.397	-200.000	0.039	-0.209
-690.383	571.376	-0.154	0.379
-689.368	109.281	-0.135	-0.163
-688.354	116.610	0.174	0.216
-687.339	-81.922	-0.320	-0.106
-686.324	109.657	0.133	0.161
-685.310	44.187	-0.209	-0.194
-684.295	-200.000	0.031	0.246
-683.281	42.182	-0.304	-0.279
-682.266	161.169	-0.063	-0.089
-681.251	3.462	0.132	0.098
-680.237	-61.722	-0.315	-0.133
-679.222	-130.847	-0.172	-0.023
-678.208	60.288	0.134	0.134
-677.193	-132.053	0.128	0.017
-676.178	184.565	-0.105	-0.158
-675.164	-63.917	-0.217	-0.090
-674.149	-141.428	0.227	-0.023
-673.135	33.510	0.181	-0.159
-672.120	18.989	-0.087	0.070
-671.105	71.220	0.241	-0.252
-670.091	-87.259	0.235	-0.072
-669.076	28.139	0.274	-0.234
-668.062	-200.000	0.002	0.205
-667.047	-200.000	0.036	-0.359
-666.032	-45.602	-0.028	-0.014
-665.018	17.567	0.113	-0.090
-664.003	-58.104	0.196	-0.086
-662.989	-72.900	-0.068	-0.025
-661.974	58.569	-0.180	-0.179
-660.959	-46.138	-0.265	-0.132
-659.945	-68.808	0.152	-0.059
-658.930	-82.840	-0.248	-0.081
-657.916	159.205	0.213	-0.299
-656.901	-78.597	0.079	0.027
-655.886	-99.821	0.218	0.055
-654.872	800.000	-0.097	-0.286
-653.857	11.898	0.025	-0.019
-652.843	80.347	0.035	-0.039
-651.828	413.646	0.031	-0.066
-650.814	249.924	0.109	-0.187
-649.799	-200.000	0.008	-0.228
-648.784	297.212	-0.115	0.213
-647.770	-200.000	-0.026	0.152
-646.755	35.863	0.124	-0.110
-645.741	42.252	-0.120	-0.110
-644.726	494.233	0.068	-0.158
-643.711	104.399	0.058	0.069
-642.697	800.000	0.048	0.163
-641.682	-59.161	-0.246	0.107
-640.668	-157.242	0.638	0.039
-639.653	38.649	0.296	0.267
-638.638	124.148	-0.190	0.242
-637.624	-200.000	-0.009	-0.070
-636.609	800.000	-0.022	0.071
-635.595	-62.120	0.123	0.052
-634.580	122.898	0.059	0.075
-633.565	40.071	-0.033	0.030
-632.551	-200.000	0.023	0.208
-631.536	-55.824	-0.190	-0.086
-630.522	800.000	0.021	0.066
-629.507	800.000	-0.033	-0.125
-628.492	50.074	-0.164	-0.156
-627.478	44.648	-0.201	0.187
-626.463	156.804	-0.091	0.127
-625.449	299.155	0.107	-0.199
-624.434	-200.000	-0.006	0.132
-623.419	-130.124	-0.196	-0.027
-622.405	106.277	-0.042	-0.051
-621.390	-200.000	-0.013	0.087
-620.376	-200.000	0.000	0.010
-619.361	84.100	0.095	0.105
-618.346	-62.593	-0.350	-0.147
-617.332	523.008	0.023	-0.055
-616.317	-34.114	0.177	-0.098
-615.303	-48.307	0.124	-0.060
-614.288	-5.462	-0.091	0.063
-613.273	779.340	0.080	0.221
-612.259	-200.000	-0.013	-0.235
-611.244	-135.677	-0.313	0.037
-610.230	-20.868	-0.246	-0.152
-609.215	800.000	-0.027	-0.079
-608.201	-200.000	-0.045	0.335
-607.186	-117.400	-0.067	0.012
-606.171	98.428	-0.071	-0.083
-605.157	-163.828	-0.184	0.009
-604.142	-116.917	0.049	-0.009
-603.128	194.147	-0.081	0.124
-602.113	-169.979	0.395	-0.014
-601.098	-118.481	-0.368	-0.066
-600.084	-22.575	0.312	0.190
-599.069	-139.651	0.519	-0.056
-598.055	-200.000	-0.003	0.152
-597.040	32.168	0.121	0.105
-596.025	267.863	0.092	-0.163
-595.011	-124.802	0.234	-0.036
-593.996	11.053	-0.159	0.123
-592.982	472.626	-0.070	0.160
-591.967	-112.384	-0.130	-0.026
-590.952	-104.923	0.256	-0.059
-589.938	18.650	0.094	0.076
-588.923	713.708	-0.109	-0.291
-587.909	152.791	-0.125	-0.172
-586.894	800.000	0.045	0.199
-585.879	-200.000	-0.001	0.110
-584.865	-60.112	0.039	-0.017
-583.850	249.336	-0.120	-0.205
-582.836	800.000	0.024	-0.071
-581.821	-200.000	0.006	-0.114
-580.806	22.517	-0.038	0.031
-579.792	271.661	0.032	0.057
-578.777	227.714	0.029	0.048
-577.763	226.923	-0.076	-0.125
-576.748	754.923	-0.184	-0.501
-575.733	276.069	-0.078	0.139
-574.719	-18.586	0.278	0.175
-573.704	14.563	-0.314	-0.247
-572.690	718.709	-0.060	-0.160
-571.675	37.823	0.065	-0.058
-570.661	28.689	0.138	0.118
-569.646	-200.000	-0.066	-0.588
-568.631	-15.220	0.151	-0.097
-567.617	-92.159	-0.232	0.066
-566.602	95.960	0.081	0.094
-565.588	127.815	-0.071	0.091
-564.573	-67.872	0.138	0.054
-563.558	-132.543	0.131	-0.017
-562.544	-19.631	0.302	-0.188
-561.529	800.000	0.071	-0.307
-560.515	69.766	-0.179	-0.186
-559.500	127.260	-0.141	-0.180
-558.485	-79.158	-0.196	0.067
-557.471	7.616	0.444	-0.335
-556.456	176.781	-0.097	0.142
-555.442	-10.952	-0.299	0.199
-554.427	-17.603	-0.205	0.129
-553.412	16.760	-0.168	-0.133
-552.398	-0.845	0.123	-0.088
-551.383	-113.167	0.134	-0.027
-550.369	-119.981	-0.319	0.055
-549.354	622.679	0.017	0.042
-548.339	533.266	-0.066	0.156
-547.325	-131.645	0.223	0.030
-546.310	-48.707	-0.145	-0.070
-545.296	140.745	-0.023	0.030
-544.281	31.910	-0.203	-0.176
-543.266	308.866	-0.074	-0.139
-542.252	54.938	-0.142	-0.138
-541.237	-4.683	-0.389	-0.270
-540.223	-53.779	0.242	-0.111
-539.208	243.291	-0.132	0.223
-538.193	29.437	-0.065	0.056
-537.179	-28.677	-0.123	0.071
-536.164	-83.006	0.101	0.033
-535.150	-19.822	0.076	0.047
-534.135	28.503	-0.186	-0.158
-533.121	184.001	-0.119	0.177
-532.106	390.462	0.041	0.085
-531.091	-200.000	0.010	-0.068
-530.077	64.791	-0.165	0.168
-529.062	-22.681	-0.108	0.065
-528.048	108.482	-0.239	0.287
-527.033	800.000	0.100	-0.288
-526.018	579.909	-0.062	0.153
-525.004	95.459	0.146	-0.167
-523.989	110.007	0.100	0.121
-522.975	800.000	0.121	-0.339
-521.960	-107.696	0.175	0.038
-520.945	-200.000	-0.040	0.191
-519.931	-26.308	0.129	-0.076
-518.916	-53.555	-0.108	0.050
-517.902	-49.209	-0.223	0.107
-516.887	-44.992	0.405	-0.202
-515.872	140.657	-0.084	0.111
-514.858	568.064	0.072	-0.175
-513.843	-200.000	0.044	-0.220
-512.829	-115.970	-0.093	-0.017
-511.814	147.934	-0.004	0.006
-510.799	-47.122	0.181	-0.089
-509.785	472.547	0.047	0.105
-508.770	-35.804	-0.400	-0.217
-507.756	-84.595	0.301	-0.095
-506.741	40.430	0.194	0.175
-505.726	491.097	-0.048	-0.110
-504.712	-200.000	-0.026	0.281
-503.697	738.585	0.066	0.177
-502.683	231.741	-0.068	0.112
-501.668	-200.000	-0.017	-0.091
-500.653	-100.243	0.112	0.028
-499.639	77.591	-0.114	0.122
-498.624	24.796	-0.153	0.127
-497.610	-33.726	-0.093	0.052
-496.595	-3.966	0.166	0.115
-495.581	207.500	0.079	0.123
-494.566	-124.237	-0.449	0.070
-493.551	209.336	-0.160	-0.252
-492.537	-114.262	-0.203	0.039
-491.522	-6.512	-0.053	-0.036
-490.508	-50.062	0.150	-0.071
-489.493	-73.192	0.120	-0.044
-488.478	104.590	0.067	-0.079
-487.464	-53.282	0.189	-0.087
-486.449	279.981	-0.139	0.248
-485.435	287.420	-0.167	0.303
-484.420	140.140	-0.087	0.115
-483.405	-87.566	-0.467	0.142
-482.391	-103.709	-0.298	0.070
-481.376	361.671	-0.015	0.030
-480.362	-69.221	-0.146	-0.056
-479.347	675.226	0.052	0.136
-478.332	-23.990	-0.161	0.097
-477.318	78.065	0.081	0.087
-476.303	-137.352	-0.320	0.036
-475.289	-118.661	-0.096	0.017
-474.274	431.468	0.052	-0.113
-473.259	8.967	0.311	0.236
-472.245	-0.704	-0.143	0.102
-471.230	-7.873	0.244	0.165
-470.216	-200.000	0.041	-0.253
-469.201	-200.000	0.019	0.110
-468.186	248.455	-0.172	0.291
-467.172	46.709	0.198	-0.184
-466.157	800.000	0.083	0.320
-465.143	-42.713	0.145	0.074
-464.128	-200.000	0.050	-0.360
-463.113	50.752	0.387	0.368
-462.099	-97.849	-0.278	-0.072
-461.084	-17.816	0.175	-0.110
-460.070	-200.000	0.000	0.171
-459.055	-110.817	0.263	0.054
-458.040	-200.000	0.011	0.050
-457.026	-117.561	-0.075	-0.014
-456.011	548.888	-0.025	0.060
-454.997	800.000	0.073	0.222
-453.982	-17.048	-0.169	0.107
-452.968	-73.326	0.196	0.072
-451.953	83.014	-0.235	0.256
-450.938	-161.166	0.137	0.007
-449.924	-200.000	-0.102	0.000
-448.909	116.027	0.166	0.203
-447.895	191.206	0.294	0.444
-446.880	-200.000	-0.054	-0.554
-445.865	181.890	0.165	-0.243
-444.851	-200.000	-0.034	-0.289
-443.836	-15.314	0.230	-0.147
-442.822	116.157	-0.111	0.136
-441.807	49.943	-0.059	0.056
-440.792	65.886	-0.050	0.050
-439.778	95.834	0.373	-0.426
-438.763	-26.727	0.008	-0.005
-437.749	366.235	-0.161	0.326
-436.734	800.000	0.067	-0.257
-435.719	-200.000	0.028	0.234
-434.705	185.888	0.174	-0.260
-433.690	-55.514	0.079	0.036
-432.676	-200.000	0.042	0.194
-431.661	74.275	-0.231	0.243
-430.646	509.432	-0.034	-0.078
-429.632	-55.137	0.341	-0.154
-428.617	-95.706	-0.120	0.032
-427.603	-85.257	0.411	-0.129
-426.588	295.938	-0.048	-0.088
-425.573	35.331	0.126	-0.110
-424.559	800.000	-0.047	-0.156
-423.544	800.000	0.066	-0.226
-422.530	31.557	-0.036	0.031
-421.515	-59.506	-0.309	0.133
-420.500	-200.000	0.008	-0.247
-419.486	104.892	0.060	-0.071
-418.471	-200.000	0.131	0.601
-417.457	141.100	0.154	-0.204
-416.442	475.239	0.016	0.036
-415.428	-16.597	0.102	-0.065
-414.413	-200.000	0.209	0.000
-413.398	176.105	-0.102	-0.149
-412.384	248.859	-0.088	-0.149
-411.369	800.000	0.061	-0.222
-410.355	-98.222	-0.360	0.093
-409.340	-137.346	0.160	0.018
-408.325	-82.512	0.093	-0.030
-407.311	-200.000	-0.019	-0.298
-406.296	561.068	-0.054	-0.131
-405.282	415.447	0.142	0.303
-404.267	-24.884	0.124	-0.074
-403.252	-87.816	-0.145	0.044
-402.238	41.074	0.184	0.166
-401.223	158.888	0.112	0.156
-400.209	7.139	-0.149	0.111
-399.194	13.298	-0.091	-0.071
-398.179	-200.000	-0.042	-0.269
-397.165	-1.694	-0.096	-0.068
-396.150	65.792	-0.111	0.113
-395.136	-64.755	0.086	0.035
-394.121	-80.112	0.207	-0.069
-393.106	176.421	0.209	0.303
-392.092	-88.187	-0.159	-0.048
-391.077	-200.000	0.017	0.179
-390.063	458.382	-0.087	0.194
-389.048	-57.787	-0.159	0.069
-388.033	-99.489	-0.268	-0.067
-387.019	587.610	-0.058	0.143
-386.004	-40.496	-0.131	0.068
-384.990	-74.432	0.289	0.104
-383.975	-8.471	0.154	0.103
-382.960	335.923	-0.132	0.257
-381.946	205.869	0.125	0.194
-380.931	475.297	-0.072	-0.162
-379.917	-200.000	0.011	-0.088
-378.902	-95.203	0.167	-0.045
-377.888	96.593	0.128	0.146
-376.873	17.123	0.119	0.094
-375.858	152.920	0.102	0.140
-374.844	-138.974	-0.424	-0.046
-373.829	80.874	0.145	0.157
-372.815	-55.252	-0.321	-0.144
-371.800	407.568	0.128	-0.270
-370.785	-81.674	-0.420	0.138
-369.771	800.000	0.085	-0.302
-368.756	-200.000	-0.000	0.103
-367.742	32.142	0.198	-0.170
-366.727	-41.512	0.121	-0.062
-365.712	576.588	-0.058	0.141
-364.698	103.783	-0.064	-0.075
-363.683	292.288	-0.104	0.190
-362.669	-36.972	0.285	0.153
-361.654	-12.738	-0.115	-0.075
-360.639	63.585	0.274	-0.275
-359.625	-91.396	0.131	0.037
-358.610	-38.153	0.172	-0.091
-357.596	-90.654	-0.352	-0.102
-356.581	-200.000	-0.072	-0.329
-355.566	800.000	-0.113	-0.472
-354.552	800.000	-0.079	-0.236
-353.537	-200.000	0.004	0.274
-352.523	61.324	0.152	0.151
-351.508	-91.944	-0.283	-0.080
-350.493	-200.000	0.007	-0.138
-349.479	26.381	-0.137	0.114
-348.464	-200.000	-0.026	0.179
-347.450	-118.443	-0.188	-0.033
-346.435	-3.367	0.135	-0.094
-345.420	-155.894	0.258	-0.016
-344.406	130.751	-0.065	-0.083
-343.391	515.338	0.138	-0.323
-342.377	602.038	0.067	0.166
-341.362	-111.772	0.221	0.045
-340.348	296.759	-0.047	-0.086
-339.333	800.000	0.085	-0.282
-338.318	-200.000	-0.019	0.133
-337.304	24.197	-0.077	-0.064
-336.289	-200.000	0.048	-0.387
-335.275	-47.142	-0.107	0.052
-334.260	279.641	-0.080	0.142
-333.245	-200.000	-0.039	0.312
-332.231	-7.944	0.051	0.034
-331.216	-82.345	-0.122	0.040
-330.202	58.301	0.264	0.258
-329.187	304.181	-0.124	-0.229
-328.172	-200.000	-0.010	-0.159
-327.158	-200.000	0.030	-0.227
-326.143	-104.831	0.334	0.077
-325.129	-116.328	0.156	-0.029
-324.114	14.909	0.115	-0.090
-323.099	40.520	0.021	-0.019
-322.085	-14.708	0.233	0.149
-321.070	-200.000	0.019	-0.144
-320.056	800.000	0.074	-0.264
-319.041	-50.559	0.207	0.097
-318.026	284.554	-0.135	0.243
-317.012	-30.451	0.296	-0.167
-315.997	578.333	-0.105	-0.256
-314.983	306.061	-0.043	-0.081
-313.968	-200.000	0.020	-0.164
-312.953	-200.000	-0.014	0.133
-311.939	-45.870	0.129	0.064
-310.924	800.000	-0.077	0.218
-309.910	15.612	0.482	0.378
-308.895	-200.000	0.035	-0.339
-307.880	226.706	0.108	0.175
-306.866	-2.400	0.094	-0.066
-305.851	0.738	-0.112	-0.080
-304.837	800.000	-0.044	0.171
-303.822	329.823	-0.025	0.048
-302.807	-102.661	-0.304	0.072
-301.793	28.920	-0.165	-0.139
-300.778	-29.935	0.283	0.161
-299.764	-117.198	0.148	-0.027
-298.749	-149.133	-0.190	0.015
-297.735	-57.152	-0.108	-0.048
-296.720	447.105	-0.108	0.236
-295.705	-100.716	0.418	-0.103
-294.691	-73.520	0.217	0.079
-293.676	72.125	-0.047	-0.049
-292.662	-2.004	0.353	-0.247
-291.647	-26.220	-0.162	0.095
-290.632	15.915	-0.121	0.095
-289.618	-200.000	-0.104	0.519
-288.603	-0.699	-0.240	0.170
-287.589	-53.692	-0.240	0.109
-286.574	221.072	-0.073	-0.117
-285.559	15.490	0.224	-0.175
-284.545	-200.000	-0.002	-0.310
-283.530	800.000	0.121	-0.415
-282.516	-19.460	-0.106	0.065
-281.501	199.415	0.064	-0.097
-280.486	-200.000	-0.015	-0.169
-279.472	-108.620	0.158	-0.034
-278.457	650.286	0.090	-0.230
-277.443	154.916	-0.087	-0.119
-276.428	33.724	0.161	0.139
-275.413	-200.000	-0.035	-0.198
-274.399	400.722	-0.039	0.081
-273.384	-117.876	0.344	-0.061
-272.370	-181.493	0.026	0.001
-271.355	-200.000	0.005	0.103
-270.340	-200.000	0.037	0.243
-269.326	800.000	-0.082	0.347
-268.311	-200.000	0.024	0.109
-267.297	34.244	-0.166	0.144
-266.282	40.761	0.125	-0.112
-265.267	141.986	-0.056	-0.074
-264.253	43.242	-0.275	-0.250
-263.238	-200.000	-0.007	0.296
-262.224	-101.257	0.126	-0.031
-261.209	800.000	-0.073	0.264
-260.195	-200.000	0.007	0.054
-259.180	-200.000	0.022	-0.271
-258.165	682.867	0.055	-0.142
-257.151	-200.000	0.002	-0.347
-256.136	-21.199	-0.257	-0.156
-255.122	574.845	0.048	-0.117
-254.107	-143.196	-0.226	-0.022
-253.092	-46.132	0.213	-0.104
-252.078	219.514	-0.067	0.106
-251.063	-200.000	-0.035	-0.201
-250.049	-162.798	0.129	0.006
-249.034	353.919	-0.061	-0.121
-248.019	550.905	-0.082	-0.195
-247.005	26.552	-0.124	0.104
-245.990	-108.345	-0.083	-0.018
-244.976	130.048	0.131	0.167
-243.961	-126.628	-0.387	-0.057
-242.946	147.809	0.069	0.092
-241.932	-200.000	-0.023	-0.275
-240.917	332.479	-0.167	0.320
-239.903	139.209	-0.178	-0.232
-238.888	769.001	-0.043	-0.116
-237.873	135.273	-0.133	0.172
-236.859	153.508	0.143	0.195
-235.844	152.373	0.134	-0.182
-234.830	-78.191	0.105	-0.036
-233.815	324.848	0.105	-0.199
-232.800	230.400	0.097	-0.158
-231.786	594.256	-0.025	-0.061
-230.771	-200.000	0.073	-0.425
-229.757	-200.000	0.066	-0.328
-228.742	26.620	-0.118	0.098
-227.727	199.773	-0.053	0.080
-226.713	800.000	0.038	-0.154
-225.698	-200.000	-0.021	-0.295
-224.684	-127.958	-0.198	-0.028
-223.669	-62.220	-0.105	0.043
-222.655	800.000	-0.071	-0.198
-221.640	-200.000	0.012	0.187
-220.625	800.000	0.126	0.401
-219.611	-52.067	0.402	-0.185
-218.596	-12.011	0.095	0.062
-217.582	-50.398	-0.178	0.084
-216.567	-200.000	-0.026	0.134
-215.552	-51.111	-0.189	0.088
-214.538	-72.656	-0.170	-0.062
-213.523	-15.287	0.208	0.132
-212.509	-200.000	-0.033	0.214
-211.494	-19.841	-0.245	0.150
-210.479	800.000	0.093	0.298
-209.465	2.865	-0.243	0.175
-208.450	618.630	-0.100	0.249
-207.436	47.005	-0.059	-0.055
-206.421	-136.662	-0.159	-0.018
-205.406	-46.062	-0.229	0.112
-204.392	-185.280	0.378	0.006
-203.377	25.039	-0.189	-0.156
-202.363	132.684	0.043	-0.055
-201.348	-200.000	-0.053	0.358
-200.333	17.436	-0.070	-0.055
-199.319	-200.000	-0.055	-0.258
-198.304	-146.612	0.299	-0.026
-197.290	152.520	0.052	-0.070
-196.275	-154.709	-0.169	-0.011
-195.260	135.838	-0.082	0.106
-194.246	800.000	-0.091	0.314
-193.231	-200.000	0.020	0.103
-192.217	117.546	0.264	0.322
-191.202	222.053	-0.182	0.291
-190.187	-200.000	0.046	-0.260
-189.173	800.000	-0.043	-0.146
-188.158	63.050	-0.068	0.067
-187.144	-200.000	0.018	-0.428
-186.129	-109.579	-0.264	-0.055
-185.114	-97.548	0.208	-0.053
-184.100	221.034	-0.064	-0.102
-183.085	-186.602	-0.038	-0.001
-182.071	-101.433	-0.330	-0.080
-181.056	-77.916	0.007	0.002
-180.042	-200.000	0.019	-0.210
-179.027	-19.143	0.146	0.090
-178.012	-95.028	0.230	0.062
-176.998	76.703	0.249	0.262
-175.983	-200.000	0.026	0.114
-174.969	-140.654	-0.105	-0.011
-173.954	-100.564	-0.381	-0.093
-172.939	30.909	0.110	-0.093
-171.925	-95.976	-0.078	0.021
-170.910	73.511	-0.137	0.143
-169.896	84.095	0.111	0.120
-168.881	-200.000	-0.043	0.470
-167.866	-200.000	0.031	0.254
-166.852	86.700	0.238	-0.260
-165.837	-102.572	-0.041	-0.010
-164.823	30.198	0.130	-0.110
-163.808	417.914	-0.036	-0.076
-162.793	84.560	0.078	0.084
-161.779	-129.358	-0.393	-0.054
-160.764	122.361	0.058	-0.072
-159.750	-146.372	-0.368	-0.032
-158.735	-107.071	0.167	-0.037
-157.720	-130.512	0.253	-0.034
-156.706	35.378	0.220	0.191
-155.691	435.094	0.013	0.027
-154.677	-200.000	-0.048	0.515
-153.662	800.000	-0.078	-0.219
-152.647	27.363	-0.106	-0.088
-151.633	-149.166	0.348	-0.028
-150.618	-200.000	-0.032	-0.299
-149.604	-200.000	0.002	-0.074
-148.589	613.290	0.156	-0.387
-147.574	-24.023	-0.232	-0.137
-146.560	373.202	0.216	0.435
-145.545	-117.360	0.121	-0.022
-144.531	-140.397	-0.134	-0.014
-143.516	11.247	0.211	0.160
-142.502	657.733	0.054	-0.137
-141.487	137.445	-0.170	0.220
-140.472	800.000	0.031	0.099
-139.458	-117.477	0.119	0.021
-138.443	169.234	0.183	-0.258
-137.429	-155.404	-0.410	0.026
-136.414	694.576	0.177	0.460
-135.399	800.000	-0.100	0.281
-134.385	66.765	0.363	-0.366
-133.370	-86.835	0.220	-0.066
-132.356	-13.693	0.019	-0.012
-131.341	-200.000	0.006	0.114
-130.326	-25.332	0.088	0.052
-129.312	110.922	-0.136	0.162
-128.297	-90.520	-0.042	0.012
-127.283	41.065	0.224	0.200
-126.268	-56.488	0.399	0.175
-125.253	-200.000	0.062	0.286
-124.239	67.743	-0.097	-0.099
-123.224	-62.569	-0.128	-0.053
-122.210	570.520	0.130	-0.313
-121.195	-76.527	-0.221	-0.077
-120.180	-200.000	0.012	-0.083
