DTS Sentinel unit serial number:	SN413079Multiplexer serial number:	ORYXHardware model number:	OX4-SRSoftware version number:	ORYX F/W v4.00 Oryx Data Collector v3.7.2.0data status	okinstallation	princeton_trtdifferential loss correction	single-endedforward channel	channel 1reverse channel	N/Adate	2019/09/12time	04:16:11forward acquisition time	60.00reverse acquisition time	0.00gamma	496.2192k internal	0.2323k external	0.2323temperature offset calibration	1.0083default loss term (dB/km)	0.3790temperature slope calibration	1.0000multiplexer offset coefficient	1.0000multiplexer slope coefficient	1.0000fibre end	0.00T internal ref (°C)	31.81T ext. ref 1 (°C)	2.21T ext. ref 2 (°C)	25.47length (m)	temperature (°C)	Stokes	anti-Stokes-747.200	433.626	-0.106	0.233
-746.185	-3.463	0.074	-0.052
-745.171	141.006	0.157	-0.209
-744.156	-69.386	-0.422	0.164
-743.142	-200.000	-0.019	0.163
-742.127	74.013	-0.149	-0.157
-741.112	-92.758	-0.142	0.040
-740.098	-83.566	-0.185	0.060
-739.083	800.000	-0.097	-0.397
-738.069	-143.552	-0.291	-0.028
-737.054	38.059	0.205	0.184
-736.039	-74.316	-0.339	-0.124
-735.025	189.461	0.218	0.330
-734.010	-111.421	0.178	0.037
-732.996	-200.000	0.013	0.313
-731.981	-71.946	0.189	-0.071
-730.966	202.484	-0.042	-0.065
-729.952	-134.509	0.315	-0.039
-728.937	-114.298	-0.396	0.077
-727.923	-200.000	-0.025	-0.202
-726.908	-21.410	-0.388	-0.239
-725.894	-139.186	-0.225	0.025
-724.879	160.481	0.043	-0.060
-723.864	701.896	-0.068	-0.182
-722.850	-36.597	0.413	0.224
-721.835	127.573	-0.094	-0.121
-720.821	-200.000	0.030	-0.278
-719.806	176.233	0.147	-0.215
-718.791	401.953	-0.101	-0.213
-717.777	583.903	-0.124	0.307
-716.762	-160.788	-0.283	-0.015
-715.748	-170.751	0.148	-0.005
-714.733	-200.000	0.018	0.203
-713.718	-80.775	-0.311	-0.104
-712.704	-101.879	0.045	0.011
-711.689	-200.000	-0.003	0.234
-710.675	117.439	0.166	0.206
-709.660	-146.561	-0.334	-0.029
-708.645	57.897	0.182	-0.180
-707.631	-24.415	-0.204	0.123
-706.616	50.409	0.102	-0.097
-705.602	234.453	0.054	-0.090
-704.587	109.220	0.109	-0.132
-703.572	800.000	0.022	-0.067
-702.558	0.113	0.294	-0.211
-701.543	-59.100	0.224	0.098
-700.529	160.225	-0.170	-0.239
-699.514	-109.639	-0.292	-0.062
-698.499	-200.000	0.018	-0.267
-697.485	-127.089	-0.273	0.040
-696.470	-189.666	-0.232	0.003
-695.456	13.876	0.060	-0.047
-694.441	614.513	-0.118	0.298
-693.426	47.239	0.371	0.348
-692.412	98.449	-0.177	0.206
-691.397	-143.092	-0.282	-0.027
-690.383	-43.377	0.370	-0.189
-689.368	110.029	-0.271	-0.328
-688.354	62.644	0.106	0.107
-687.339	800.000	-0.078	0.250
-686.324	336.503	0.044	-0.087
-685.310	-200.000	-0.017	0.188
-684.295	621.984	0.074	-0.189
-683.281	-24.200	-0.114	0.068
-682.266	46.908	-0.126	-0.118
-681.251	-159.191	0.469	0.027
-680.237	-96.912	0.210	-0.055
-679.222	-200.000	-0.084	-0.388
-678.208	-33.410	-0.159	0.089
-677.193	800.000	0.035	-0.107
-676.178	45.539	-0.201	0.187
-675.164	534.030	-0.022	0.053
-674.149	43.769	-0.162	-0.149
-673.135	181.265	0.037	0.054
-672.120	-200.000	0.029	0.134
-671.105	-1.024	0.167	-0.119
-670.091	800.000	-0.046	-0.148
-669.076	45.717	-0.042	0.039
-668.062	-200.000	0.004	-0.105
-667.047	77.709	-0.198	-0.212
-666.032	-200.000	-0.003	0.085
-665.018	-39.365	-0.171	0.090
-664.003	214.791	0.128	-0.205
-662.989	-200.000	-0.022	-0.111
-661.974	31.035	-0.187	0.161
-660.959	-108.717	0.139	-0.030
-659.945	353.842	-0.108	-0.216
-658.930	-118.211	-0.281	0.050
-657.916	-14.655	-0.078	0.050
-656.901	89.192	-0.193	0.216
-655.886	57.981	-0.169	0.166
-654.872	541.095	0.024	-0.058
-653.857	-200.000	-0.028	-0.539
-652.843	-200.000	0.017	-0.197
-651.828	-25.335	-0.112	0.067
-650.814	300.853	0.147	-0.273
-649.799	800.000	-0.069	0.202
-648.784	71.573	0.181	-0.189
-647.770	800.000	0.015	-0.064
-646.755	-129.547	-0.278	0.039
-645.741	-117.000	0.178	-0.033
-644.726	-167.051	0.056	0.002
-643.711	-6.723	0.186	0.127
-642.697	344.479	-0.176	-0.348
-641.682	800.000	-0.090	0.316
-640.668	74.306	-0.150	0.159
-639.653	-45.624	-0.258	-0.128
-638.638	-95.863	-0.159	0.043
-637.624	16.091	-0.104	-0.083
-636.609	800.000	-0.078	0.268
-635.595	-92.448	-0.135	0.038
-634.580	135.232	0.175	0.228
-633.565	48.593	0.269	0.254
-632.551	-53.871	-0.219	-0.100
-631.536	19.752	0.185	0.150
-630.522	-78.776	0.094	0.032
-629.507	67.609	-0.134	0.138
-628.492	800.000	-0.028	-0.108
-627.478	-200.000	0.003	0.288
-626.463	76.914	0.053	-0.056
-625.449	800.000	0.037	-0.111
-624.434	-200.000	0.065	-0.391
-623.419	-33.309	-0.166	-0.092
-622.405	-141.209	0.494	0.051
-621.390	67.033	-0.280	0.287
-620.376	-184.508	0.122	0.002
-619.361	-88.742	0.206	-0.061
-618.346	-30.243	0.128	0.073
-617.332	10.882	-0.115	-0.088
-616.317	-83.943	-0.319	-0.102
-615.303	-200.000	0.032	-0.172
-614.288	-200.000	-0.008	0.323
-613.273	-200.000	0.073	-0.357
-612.259	800.000	0.094	-0.414
-611.244	130.223	0.037	0.048
-610.230	-57.323	0.284	-0.125
-609.215	-0.302	0.317	-0.226
-608.201	39.429	0.135	-0.121
-607.186	186.454	0.186	0.278
-606.171	-200.000	-0.036	0.346
-605.157	224.380	0.143	-0.233
-604.142	-40.915	-0.214	-0.111
-603.128	-200.000	-0.013	-0.102
-602.113	-200.000	-0.008	0.375
-601.098	235.683	0.181	0.300
-600.084	228.460	0.133	0.218
-599.069	-59.000	-0.230	0.100
-598.055	800.000	0.040	-0.154
-597.040	-69.090	-0.335	0.129
-596.025	319.478	0.112	0.213
-595.011	241.892	-0.083	-0.139
-593.996	253.792	-0.024	-0.042
-592.982	137.246	-0.140	0.184
-591.967	-87.829	-0.606	0.183
-590.952	800.000	0.056	-0.156
-589.938	-110.254	0.249	0.052
-588.923	-151.117	0.252	0.019
-587.909	800.000	-0.095	-0.350
-586.894	731.741	0.048	-0.130
-585.879	-182.364	0.436	-0.008
-584.865	93.160	0.064	-0.072
-583.850	-200.000	0.001	-0.018
-582.836	53.861	0.100	-0.096
-581.821	800.000	0.096	-0.273
-580.806	-48.525	0.224	-0.108
-579.792	75.027	-0.089	0.094
-578.777	22.845	-0.110	-0.091
-577.763	-200.000	-0.015	-0.213
-576.748	39.985	0.126	0.113
-575.733	96.433	0.031	0.035
-574.719	-82.877	-0.133	0.043
-573.704	415.517	0.124	0.266
-572.690	103.287	0.173	0.203
-571.675	-24.209	-0.195	-0.117
-570.661	253.603	-0.135	-0.231
-569.646	-200.000	0.058	-0.305
-568.631	-97.853	-0.263	0.068
-567.617	264.454	-0.138	-0.240
-566.602	34.000	-0.204	-0.178
-565.588	164.584	-0.115	-0.163
-564.573	266.253	0.104	0.182
-563.558	-77.310	-0.145	-0.050
-562.544	-16.996	0.348	0.220
-561.529	0.536	-0.273	0.195
-560.515	-164.730	-0.256	-0.012
-559.500	536.304	0.113	-0.269
-558.485	-149.875	0.180	0.014
-557.471	800.000	0.130	0.446
-556.456	800.000	0.070	0.228
-555.442	-22.297	0.133	-0.081
-554.427	-200.000	0.023	0.105
-553.412	-174.147	0.098	0.003
-552.398	29.119	-0.038	0.032
-551.383	-136.075	0.207	0.024
-550.369	73.412	0.104	0.109
-549.354	146.605	-0.208	0.280
-548.339	167.922	0.092	0.131
-547.325	-66.367	0.088	0.035
-546.310	399.470	0.166	-0.348
-545.296	0.329	-0.122	-0.087
-544.281	51.681	-0.154	0.146
-543.266	-112.268	0.423	-0.085
-542.252	141.914	0.051	-0.067
-541.237	46.503	0.068	-0.063
-540.223	-193.456	-0.447	0.004
-539.208	126.067	0.183	-0.232
-538.193	800.000	0.052	0.158
-537.179	-75.439	0.142	0.051
-536.164	408.776	0.127	-0.270
-535.150	-67.320	0.305	0.120
-534.135	-88.255	-0.126	-0.038
-533.121	360.215	-0.066	0.132
-532.106	10.215	0.238	-0.182
-531.091	629.298	0.136	-0.345
-530.077	238.547	-0.120	0.200
-529.062	-93.633	0.258	-0.071
-528.048	-200.000	-0.015	-0.168
-527.033	-118.671	0.147	0.026
-526.018	-200.000	-0.021	-0.139
-525.004	-138.897	-0.322	0.035
-523.989	-104.517	0.203	-0.047
-522.975	228.102	-0.197	0.321
-521.960	30.816	0.341	-0.292
-520.945	-79.626	-0.034	0.011
-519.931	-23.781	0.313	-0.187
-518.916	-88.800	-0.096	-0.029
-517.902	800.000	0.034	0.111
-516.887	200.790	0.050	0.077
-515.872	-83.525	0.308	-0.098
-514.858	622.357	-0.137	0.345
-513.843	185.710	0.106	0.157
-512.829	97.677	-0.139	0.160
-511.814	18.170	-0.163	-0.130
-510.799	31.981	-0.144	-0.124
-509.785	342.171	0.145	0.284
-508.770	175.235	-0.187	-0.271
-507.756	-73.397	-0.171	-0.063
-506.741	-32.331	-0.143	0.080
-505.726	-200.000	-0.047	-0.448
-504.712	-91.769	0.073	-0.021
-503.697	45.556	0.095	0.088
-502.683	-142.898	-0.222	0.022
-501.668	389.961	-0.055	0.113
-500.653	-95.053	0.055	0.015
-499.639	-35.439	-0.398	-0.216
-498.624	87.500	0.156	0.173
-497.610	-17.019	-0.071	0.045
-496.595	-200.000	0.010	-0.207
-495.581	-98.148	0.237	0.061
-494.566	-66.419	-0.428	0.170
-493.551	518.095	-0.070	0.165
-492.537	800.000	0.083	0.318
-491.522	683.974	-0.062	0.163
-490.508	800.000	0.065	0.267
-489.493	15.959	-0.302	0.238
-488.478	-85.748	0.351	0.109
-487.464	59.834	-0.206	-0.203
-486.449	-200.000	-0.057	0.264
-485.435	295.604	-0.240	0.440
-484.420	-77.293	-0.218	0.076
-483.405	-23.288	0.234	-0.141
-482.391	-93.109	0.131	-0.036
-481.376	102.341	0.094	-0.110
-480.362	-48.401	-0.281	0.135
-479.347	-93.713	-0.351	0.097
-478.332	-132.402	0.269	0.035
-477.318	-89.399	0.275	0.081
-476.303	800.000	-0.052	-0.146
-475.289	-18.825	-0.236	-0.147
-474.274	-200.000	0.009	-0.148
-473.259	-19.308	-0.325	-0.202
-472.245	259.881	0.033	-0.058
-471.230	128.134	0.108	0.138
-470.216	-59.341	-0.346	-0.149
-469.201	120.742	-0.115	-0.143
-468.186	-149.176	-0.354	-0.028
-467.172	190.212	0.127	-0.191
-466.157	-200.000	0.045	0.209
-465.143	65.138	0.124	-0.125
-464.128	-52.685	-0.107	0.049
-463.113	-200.000	0.016	-0.097
-462.099	800.000	0.030	0.087
-461.084	109.456	0.170	0.204
-460.070	-186.841	0.326	-0.005
-459.055	-141.015	-0.092	0.009
-458.040	800.000	-0.006	-0.024
-457.026	-129.943	0.074	-0.010
-456.011	-111.145	0.213	-0.044
-454.997	21.358	-0.361	-0.293
-453.982	318.970	0.110	0.209
-452.968	68.074	-0.090	0.092
-451.953	-200.000	0.016	-0.355
-450.938	800.000	-0.045	-0.156
-449.924	-72.406	-0.311	-0.115
-448.909	194.871	-0.124	-0.188
-447.895	52.331	-0.073	-0.070
-446.880	-87.123	-0.191	0.058
-445.865	-86.509	-0.201	0.062
-444.851	-11.754	0.229	0.150
-443.836	-200.000	0.020	0.324
-442.822	-200.000	-0.022	0.222
-441.807	800.000	-0.125	-0.505
-440.792	230.795	-0.104	0.170
-439.778	-55.971	-0.229	-0.102
-438.763	-200.000	-0.061	0.395
-437.749	-46.274	0.163	-0.080
-436.734	37.873	0.296	-0.262
-435.719	229.185	-0.124	0.202
-434.705	48.138	0.135	-0.126
-433.690	-7.856	0.145	0.097
-432.676	99.856	-0.035	-0.041
-431.661	-31.625	0.089	-0.050
-430.646	14.072	-0.291	0.226
-429.632	800.000	-0.104	-0.427
-428.617	504.811	-0.079	-0.182
-427.603	-200.000	0.019	0.090
-426.588	152.500	0.013	-0.018
-425.573	-74.353	0.235	-0.085
-424.559	800.000	-0.095	-0.289
-423.544	115.308	-0.076	0.092
-422.530	-89.474	-0.157	0.046
-421.515	455.773	0.052	-0.115
-420.500	326.139	-0.013	-0.025
-419.486	-155.513	-0.370	-0.024
-418.471	750.042	0.042	-0.113
-417.457	39.178	-0.127	0.114
-416.442	-48.445	0.275	-0.132
-415.428	46.775	0.165	0.153
-414.413	800.000	-0.027	0.113
-413.398	3.850	-0.209	0.152
-412.384	-34.226	-0.276	-0.151
-411.369	50.016	-0.343	-0.322
-410.355	800.000	-0.038	-0.165
-409.340	-68.729	0.213	0.082
-408.325	73.795	0.209	-0.218
-407.311	-104.959	0.121	0.028
-406.296	-200.000	0.073	-0.455
-405.282	-108.211	0.071	-0.015
-404.267	-78.011	-0.354	0.122
-403.252	-95.060	-0.433	-0.117
-402.238	165.903	0.092	0.130
-401.223	-80.303	0.121	0.040
-400.209	-152.143	-0.197	0.014
-399.194	-48.916	0.447	0.213
-398.179	-200.000	-0.022	-0.118
-397.165	84.804	0.178	0.195
-396.150	80.827	-0.060	0.065
-395.136	533.771	0.016	0.038
-394.121	124.626	0.177	0.222
-393.106	-71.627	-0.326	-0.121
-392.092	800.000	-0.073	0.253
-391.077	-61.252	-0.130	0.054
-390.063	800.000	0.046	0.129
-389.048	-93.986	-0.266	-0.073
-388.033	773.071	-0.051	-0.137
-387.019	-29.012	0.214	-0.122
-386.004	-88.558	-0.159	0.047
-384.990	-75.005	-0.245	0.087
-383.975	13.504	0.179	0.138
-382.960	176.313	0.272	0.394
-381.946	213.411	0.173	0.272
-380.931	-40.127	0.221	-0.115
-379.917	-200.000	0.038	-0.192
-378.902	-93.262	-0.045	0.013
-377.888	-4.339	-0.331	0.228
-376.873	99.676	-0.285	-0.328
-375.858	-108.609	0.206	-0.044
-374.844	-126.487	-0.391	0.058
-373.829	-49.687	-0.155	0.073
-372.815	-125.576	0.131	0.020
-371.800	-175.026	-0.129	0.004
-370.785	356.686	-0.164	-0.325
-369.771	-101.133	-0.078	-0.019
-368.756	-195.753	0.194	0.001
-367.742	396.717	0.202	-0.420
-366.727	55.260	-0.144	0.139
-365.712	-38.422	-0.165	-0.087
-364.698	50.929	0.139	0.131
-363.683	26.422	0.144	0.119
-362.669	800.000	-0.066	-0.234
-361.654	-200.000	-0.024	-0.175
-360.639	-33.424	0.217	-0.120
-359.625	800.000	-0.091	0.364
-358.610	-200.000	-0.010	-0.448
-357.596	276.900	-0.018	0.031
-356.581	-151.552	0.186	0.014
-355.566	800.000	0.101	-0.400
-354.552	-80.955	0.376	0.124
-353.537	-34.574	0.244	0.133
-352.523	-189.094	-0.108	-0.001
-351.508	-85.193	0.285	0.089
-350.493	114.749	0.132	-0.160
-349.479	800.000	-0.037	-0.131
-348.464	135.634	0.145	0.187
-347.450	235.587	-0.119	0.196
-346.435	-148.713	0.093	-0.008
-345.420	128.449	-0.061	-0.078
-344.406	33.658	-0.219	0.190
-343.391	-3.003	-0.232	-0.161
-342.377	-200.000	-0.027	-0.241
-341.362	-103.648	-0.340	-0.079
-340.348	-143.117	-0.084	0.008
-339.333	407.643	-0.075	0.158
-338.318	75.141	0.173	0.181
-337.304	-8.146	0.204	0.137
-336.289	800.000	-0.032	0.129
-335.275	-168.885	0.194	-0.007
-334.260	3.237	-0.147	0.106
-333.245	34.422	-0.370	-0.321
-332.231	28.470	-0.214	-0.180
-331.216	-200.000	-0.015	-0.096
-330.202	-200.000	-0.007	0.140
-329.187	-40.513	-0.150	-0.077
-328.172	-35.557	0.135	-0.073
-327.158	800.000	0.042	-0.172
-326.143	-77.268	0.256	0.088
-325.129	35.183	0.200	-0.174
-324.114	-200.000	-0.020	0.212
-323.099	800.000	-0.069	0.244
-322.085	800.000	-0.044	-0.170
-321.070	-200.000	-0.036	0.157
-320.056	59.254	0.149	-0.146
-319.041	114.155	0.180	0.218
-318.026	800.000	-0.100	0.433
-317.012	52.216	-0.175	0.166
-315.997	337.652	-0.017	-0.032
-314.983	250.681	0.231	0.389
-313.968	-81.532	-0.383	0.125
-312.953	-25.676	0.297	-0.174
-311.939	56.273	0.019	0.018
-310.924	800.000	0.025	-0.100
-309.910	593.973	-0.076	-0.186
-308.895	363.574	0.088	0.176
-307.880	229.238	-0.109	-0.176
-306.866	1.611	-0.267	0.190
-305.851	50.892	-0.117	0.110
-304.837	14.684	0.114	0.088
-303.822	800.000	0.048	0.187
-302.807	60.834	0.196	0.193
-301.793	184.712	0.210	0.308
-300.778	800.000	-0.049	0.155
-299.764	0.998	0.149	0.106
-298.749	800.000	-0.054	-0.208
-297.735	-200.000	-0.041	-0.379
-296.720	-87.117	0.371	-0.112
-295.705	-40.648	-0.080	0.041
-294.691	-110.547	-0.025	0.005
-293.676	800.000	-0.102	0.368
-292.662	-200.000	-0.042	0.255
-291.647	-112.819	0.238	-0.047
-290.632	-79.060	-0.021	-0.007
-289.618	35.643	0.019	-0.016
-288.603	137.695	-0.146	0.189
-287.589	140.577	0.246	-0.322
-286.574	800.000	-0.030	0.099
-285.559	-132.369	0.192	-0.025
-284.545	-22.115	-0.172	-0.104
-283.530	-200.000	0.002	-0.264
-282.516	800.000	0.097	0.281
-281.501	-200.000	0.015	-0.146
-280.486	72.430	0.233	-0.241
-279.472	-125.663	0.293	0.044
-278.457	10.706	-0.091	0.069
-277.443	36.904	0.212	-0.186
-276.428	5.923	0.378	-0.278
-275.413	-137.209	-0.086	0.010
-274.399	122.925	-0.207	-0.257
-273.384	98.291	-0.169	-0.193
-272.370	-200.000	0.101	-0.456
-271.355	-161.003	-0.335	-0.017
-270.340	38.611	-0.330	0.292
-269.326	-82.076	0.109	0.035
-268.311	331.445	0.157	0.300
-267.297	-89.341	0.031	0.009
-266.282	-200.000	-0.001	-0.125
-265.267	139.140	-0.234	-0.305
-264.253	471.396	-0.097	-0.217
-263.238	220.441	-0.221	0.351
-262.224	-25.550	0.330	0.193
-261.209	126.067	-0.065	-0.081
-260.195	179.594	0.078	0.113
-259.180	800.000	-0.030	-0.123
-258.165	727.584	-0.059	-0.156
-257.151	-200.000	0.061	0.403
-256.136	-9.640	-0.275	0.181
-255.122	-134.098	-0.079	0.010
-254.107	202.218	-0.119	0.182
-253.092	6.348	-0.108	-0.080
-252.078	438.379	-0.165	-0.357
-251.063	34.726	-0.203	-0.176
-250.049	-139.932	0.323	0.034
-249.034	-200.000	-0.038	-0.174
-248.019	-11.292	-0.256	0.167
-247.005	139.135	0.059	-0.077
-245.990	50.100	-0.136	0.127
-244.976	-136.203	-0.303	0.035
-243.961	-200.000	0.005	-0.317
-242.946	-105.505	0.210	-0.047
-241.932	-78.439	-0.221	0.075
-240.917	800.000	0.079	-0.286
-239.903	-200.000	0.009	0.055
-238.888	172.579	0.100	-0.142
-237.873	115.693	0.163	-0.197
-236.859	-71.994	0.307	0.113
-235.844	274.532	-0.145	0.254
-234.830	-29.950	-0.163	-0.092
-233.815	304.172	0.157	-0.288
-232.800	41.403	-0.133	0.119
-231.786	-182.283	-0.232	-0.004
-230.771	-161.288	0.042	-0.002
-229.757	104.488	-0.085	-0.099
-228.742	20.422	0.359	-0.287
-227.727	-114.615	-0.128	0.024
-226.713	752.166	-0.014	0.038
-225.698	-141.768	0.209	0.021
-224.684	-200.000	-0.044	0.316
-223.669	-200.000	-0.003	-0.272
-222.655	-125.024	0.245	0.037
-221.640	800.000	-0.044	0.158
-220.625	-200.000	0.008	-0.209
-219.611	-200.000	-0.070	-0.366
-218.596	-96.145	-0.171	0.045
-217.582	690.723	0.035	-0.091
-216.567	-69.946	-0.236	-0.089
-215.552	160.349	-0.199	0.274
-214.538	417.791	0.139	-0.294
-213.523	-200.000	0.035	-0.353
-212.509	-200.000	0.000	-0.069
-211.494	794.833	-0.053	0.145
-210.479	588.971	-0.084	-0.205
-209.465	800.000	0.028	0.118
-208.450	800.000	-0.179	0.587
-207.436	-32.338	-0.162	0.089
-206.421	616.930	0.080	-0.198
-205.406	315.041	-0.158	-0.294
-204.392	-200.000	0.013	0.456
-203.377	-189.219	-0.125	-0.001
-202.363	-110.546	-0.110	0.022
-201.348	-64.485	0.186	-0.075
-200.333	45.869	-0.224	-0.205
-199.319	173.530	0.198	-0.282
-198.304	-174.307	0.230	0.007
-197.290	-200.000	-0.021	0.137
-196.275	16.190	0.375	0.292
-195.260	-1.119	0.399	0.279
-194.246	-67.703	0.396	-0.153
-193.231	-50.212	-0.241	0.113
-192.217	-150.662	-0.176	0.013
-191.202	65.428	-0.137	-0.137
-190.187	-3.868	0.209	-0.143
-189.173	-136.689	-0.174	0.020
-188.158	-200.000	-0.071	-0.327
-187.144	-0.723	-0.193	0.135
-186.129	463.661	0.190	0.420
-185.114	-51.583	0.290	-0.133
-184.100	800.000	0.050	-0.216
-183.085	41.468	-0.053	0.047
-182.071	800.000	0.079	0.271
-181.056	69.511	-0.149	0.152
-180.042	450.211	0.132	0.288
-179.027	285.650	-0.060	0.107
-178.012	-78.410	-0.178	-0.060
-176.998	-144.720	0.246	-0.022
-175.983	13.691	-0.279	0.214
-174.969	-184.212	0.308	-0.005
-173.954	-125.986	0.253	-0.038
-172.939	324.590	0.061	0.115
-171.925	26.018	0.117	0.097
-170.910	-175.000	0.220	-0.006
-169.896	-200.000	0.002	-0.166
-168.881	-200.000	0.011	0.076
-167.866	-65.634	0.089	-0.035
-166.852	-94.657	0.422	-0.113
-165.837	627.988	-0.080	-0.200
-164.823	143.187	0.041	-0.053
-163.808	126.208	0.080	0.100
-162.793	28.610	0.094	-0.078
-161.779	360.060	-0.064	-0.127
-160.764	-17.759	0.346	-0.214
-159.750	800.000	-0.096	0.395
-158.735	-135.441	-0.125	0.015
-157.720	-200.000	-0.017	0.103
-156.706	-200.000	0.005	0.261
-155.691	110.114	-0.061	-0.073
-154.677	-88.854	0.118	0.034
-153.662	648.082	-0.087	0.220
-152.647	-20.574	-0.236	0.143
-151.633	-39.748	-0.097	0.050
-150.618	-44.411	0.069	0.034
-149.604	800.000	0.021	0.079
-148.589	117.061	0.146	-0.177
-147.574	-106.088	-0.083	-0.018
-146.560	105.747	0.227	-0.265
-145.545	-200.000	0.002	0.160
-144.531	92.808	0.289	0.321
-143.516	122.773	0.103	-0.127
-142.502	-200.000	-0.040	0.193
-141.487	262.991	0.121	0.207
-140.472	-125.001	0.101	0.015
-139.458	-101.351	-0.198	-0.048
-138.443	800.000	-0.058	0.217
-137.429	-97.335	0.181	0.046
-136.414	7.260	0.291	0.214
-135.399	800.000	-0.064	0.257
-134.385	-200.000	0.014	0.082
-133.370	-200.000	0.040	0.350
-132.356	-57.692	0.268	-0.116
-131.341	-149.566	-0.111	0.009
-130.326	190.961	-0.110	0.164
-129.312	-142.107	0.349	0.034
-128.297	-158.227	-0.191	0.011
-127.283	20.943	0.104	0.083
-126.268	-6.805	-0.245	-0.164
-125.253	192.207	-0.278	0.413
-124.239	-107.490	-0.263	0.057
-123.224	-200.000	-0.011	-0.144
-122.210	-200.000	-0.006	0.197
-121.195	-135.984	-0.094	-0.011
-120.180	-134.649	-0.160	-0.019
