DTS Sentinel unit serial number:	SN413079Multiplexer serial number:	ORYXHardware model number:	OX4-SRSoftware version number:	ORYX F/W v4.00 Oryx Data Collector v3.7.2.0data status	okinstallation	princeton_trtdifferential loss correction	single-endedforward channel	channel 1reverse channel	N/Adate	2019/09/16time	14:26:35forward acquisition time	60.00reverse acquisition time	0.00gamma	496.2192k internal	0.2293k external	0.2293temperature offset calibration	0.9955default loss term (dB/km)	0.3790temperature slope calibration	1.0000multiplexer offset coefficient	1.0000multiplexer slope coefficient	1.0000fibre end	0.00T internal ref (°C)	42.00T ext. ref 1 (°C)	14.21T ext. ref 2 (°C)	36.26length (m)	temperature (°C)	Stokes	anti-Stokes-747.200	340.450	0.127	0.254
-746.185	-111.719	-0.025	0.005
-745.171	90.095	-0.200	-0.228
-744.156	156.231	-0.019	0.027
-743.142	-69.231	-0.102	-0.040
-742.127	-200.000	-0.030	0.375
-741.112	532.819	0.078	0.189
-740.098	-136.436	-0.260	-0.031
-739.083	-100.686	-0.066	-0.017
-738.069	795.311	-0.116	0.326
-737.054	-37.584	-0.205	-0.112
-736.039	125.229	-0.129	-0.167
-735.025	36.070	0.091	-0.082
-734.010	-0.030	-0.126	-0.092
-732.996	-71.161	-0.339	-0.130
-731.981	124.452	0.104	0.134
-730.966	-96.065	0.166	-0.045
-729.952	192.572	-0.137	-0.212
-728.937	131.548	0.104	-0.137
-727.923	26.631	-0.241	0.206
-726.908	-135.030	-0.142	-0.017
-725.894	-21.321	-0.142	0.089
-724.879	-130.385	-0.089	0.012
-723.864	-42.955	-0.268	0.139
-722.850	-73.883	0.080	-0.030
-721.835	790.757	0.096	-0.268
-720.821	596.266	-0.126	0.319
-719.806	113.617	-0.138	0.171
-718.791	800.000	0.022	0.091
-717.777	49.096	0.111	-0.107
-716.762	210.395	-0.177	0.285
-715.748	108.653	-0.195	0.237
-714.733	-200.000	-0.022	0.144
-713.718	180.617	-0.260	-0.389
-712.704	233.144	-0.094	0.157
-711.689	-200.000	-0.027	0.135
-710.675	7.308	-0.115	-0.088
-709.660	106.476	-0.086	0.105
-708.645	556.188	-0.194	0.477
-707.631	-139.435	0.222	-0.024
-706.616	156.518	-0.151	0.212
-705.602	800.000	-0.011	-0.037
-704.587	-200.000	0.016	0.152
-703.572	-200.000	-0.018	-0.325
-702.558	705.507	-0.064	-0.172
-701.543	-153.898	0.573	-0.040
-700.529	-200.000	0.007	-0.079
-699.514	-66.379	-0.313	0.127
-698.499	-180.665	-0.250	0.005
-697.485	800.000	-0.012	-0.054
-696.470	-120.289	0.051	-0.009
-695.456	-109.239	0.063	0.014
-694.441	-200.000	-0.027	0.365
-693.426	209.574	-0.139	-0.223
-692.412	187.064	-0.053	-0.081
-691.397	-122.882	-0.178	-0.029
-690.383	6.980	-0.093	-0.071
-689.368	-26.246	-0.214	-0.128
-688.354	-34.793	-0.151	0.084
-687.339	-46.232	-0.083	-0.042
-686.324	663.997	0.148	-0.390
-685.310	-54.643	-0.032	0.015
-684.295	-129.815	-0.164	0.023
-683.281	-200.000	0.012	0.127
-682.266	-200.000	-0.019	0.175
-681.251	40.188	-0.063	-0.058
-680.237	-63.043	-0.168	0.071
-679.222	174.455	-0.062	-0.092
-678.208	99.917	-0.224	0.265
-677.193	-133.970	-0.177	0.022
-676.178	52.091	0.041	0.040
-675.164	-20.356	-0.140	-0.088
-674.149	3.899	-0.106	-0.079
-673.135	-12.305	-0.052	-0.035
-672.120	800.000	-0.138	0.474
-671.105	533.840	0.095	-0.229
-670.091	-143.689	-0.188	0.018
-669.076	69.450	-0.339	0.356
-668.062	-42.657	-0.306	-0.159
-667.047	-32.649	-0.052	0.030
-666.032	-200.000	-0.006	0.187
-665.018	-200.000	-0.027	0.296
-664.003	-148.942	-0.212	0.017
-662.989	-63.403	-0.261	0.109
-661.974	37.430	0.127	-0.115
-660.959	-159.041	-0.379	0.022
-659.945	-29.486	0.213	0.124
-658.930	-200.000	-0.034	-0.172
-657.916	-126.070	-0.244	-0.037
-656.901	758.216	0.051	0.142
-655.886	375.010	0.077	0.160
-654.872	-17.462	-0.111	-0.071
-653.857	800.000	-0.103	0.399
-652.843	-38.163	0.241	0.130
-651.828	349.101	-0.118	0.238
-650.814	382.387	-0.079	-0.165
-649.799	-40.413	-0.237	-0.126
-648.784	351.698	-0.248	-0.501
-647.770	-200.000	0.040	-0.422
-646.755	155.468	0.040	-0.056
-645.741	51.296	0.108	0.105
-644.726	-200.000	-0.191	-0.001
-643.711	-200.000	-0.028	0.202
-642.697	73.421	-0.047	0.050
-641.682	-97.183	-0.136	-0.036
-640.668	-78.209	-0.418	-0.146
-639.653	800.000	-0.130	-0.460
-638.638	20.392	-0.153	0.126
-637.624	800.000	0.021	-0.085
-636.609	63.620	0.170	-0.174
-635.595	-200.000	0.002	0.214
-634.580	800.000	0.020	0.065
-633.565	-4.646	0.114	0.080
-632.551	179.932	-0.067	-0.100
-631.536	-164.061	-0.180	0.009
-630.522	800.000	0.067	0.244
-629.507	-116.364	0.295	-0.055
-628.492	-200.000	0.012	0.107
-627.478	66.189	-0.076	0.079
-626.463	228.241	0.152	0.252
-625.449	-200.000	0.012	-0.126
-624.434	280.782	0.041	0.075
-623.419	-200.000	-0.034	0.258
-622.405	55.600	0.105	0.104
-621.390	642.820	0.052	-0.134
-620.376	16.818	0.161	0.130
-619.361	111.126	-0.180	0.221
-618.346	-200.000	0.033	-0.167
-617.332	-99.689	-0.178	0.045
-616.317	332.133	0.073	-0.144
-615.303	-200.000	-0.045	-0.287
-614.288	243.176	0.038	-0.065
-613.273	-123.401	0.043	-0.007
-612.259	-200.000	-0.004	-0.277
-611.244	-108.700	-0.302	0.066
-610.230	-102.459	-0.230	-0.056
-609.215	-1.422	-0.175	0.125
-608.201	-41.241	-0.152	0.080
-607.186	-151.783	-0.133	-0.010
-606.171	53.715	-0.218	0.213
-605.157	356.294	0.054	-0.110
-604.142	-16.327	0.186	0.120
-603.128	800.000	0.074	0.229
-602.113	7.778	0.204	0.155
-601.098	106.766	0.177	-0.214
-600.084	-151.426	-0.064	0.005
-599.069	-82.943	0.018	-0.006
-598.055	-160.962	0.085	0.005
-597.040	124.922	-0.171	0.219
-596.025	-168.780	-0.211	-0.008
-595.011	-9.481	0.422	0.286
-593.996	800.000	-0.084	0.243
-592.982	-84.470	0.081	-0.026
-591.967	552.522	0.073	0.178
-590.952	514.296	-0.065	0.154
-589.938	20.945	0.150	-0.123
-588.923	-200.000	0.039	-0.253
-587.909	-200.000	0.022	0.180
-586.894	800.000	0.110	0.364
-585.879	188.321	0.178	-0.270
-584.865	128.875	0.131	-0.170
-583.850	-88.305	0.171	-0.052
-582.836	266.709	-0.168	0.298
-581.821	-58.781	-0.103	-0.045
-580.806	-200.000	-0.000	-0.100
-579.792	166.588	0.105	-0.151
-578.777	168.649	-0.018	-0.026
-577.763	-33.247	0.188	-0.106
-576.748	-118.875	-0.218	-0.039
-575.733	-200.000	0.052	-0.369
-574.719	-114.367	0.218	-0.043
-573.704	369.591	-0.012	0.024
-572.690	800.000	0.075	-0.285
-571.675	607.935	0.135	-0.343
-570.661	93.826	-0.158	-0.181
-569.646	-145.723	0.119	0.011
-568.631	-200.000	0.020	-0.344
-567.617	-200.000	0.007	0.214
-566.602	455.393	-0.068	0.154
-565.588	-100.402	-0.092	-0.023
-564.573	52.315	-0.228	0.220
-563.558	20.567	-0.102	0.084
-562.544	95.684	-0.055	0.064
-561.529	-12.584	-0.166	0.110
-560.515	-200.000	-0.082	0.371
-559.500	-126.996	-0.148	0.022
-558.485	-81.990	-0.329	-0.109
-557.471	-156.179	-0.131	-0.008
-556.456	100.059	0.104	0.123
-555.442	558.306	-0.132	0.322
-554.427	52.935	0.204	-0.198
-553.412	237.738	0.231	-0.388
-552.398	-72.117	-0.091	0.034
-551.383	392.629	-0.062	-0.131
-550.369	800.000	0.042	0.165
-549.354	-200.000	0.078	0.411
-548.339	153.107	0.010	0.014
-547.325	-100.072	-0.206	-0.052
-546.310	-38.319	-0.126	0.068
-545.296	-60.608	0.178	-0.077
-544.281	-26.718	0.186	-0.111
-543.266	-200.000	0.010	0.173
-542.252	314.773	-0.023	0.044
-541.237	-200.000	0.010	0.052
-540.223	245.900	-0.279	0.476
-539.208	-52.186	0.262	-0.123
-538.193	-51.063	0.311	-0.148
-537.179	-90.759	0.140	0.041
-536.164	800.000	-0.122	0.465
-535.150	-84.753	-0.238	-0.076
-534.135	-16.821	-0.234	0.150
-533.121	563.974	-0.073	-0.178
-532.106	-121.372	-0.340	0.057
-531.091	700.345	-0.022	0.060
-530.077	71.892	-0.157	0.166
-529.062	-50.628	-0.103	-0.049
-528.048	720.264	0.111	-0.299
-527.033	-43.533	-0.183	0.094
-526.018	60.218	0.206	0.207
-525.004	800.000	0.105	-0.338
-523.989	100.234	-0.091	0.107
-522.975	-59.511	0.155	0.067
-521.960	45.671	-0.090	-0.084
-520.945	-95.773	-0.392	-0.106
-519.931	315.154	0.035	0.067
-518.916	285.233	-0.090	0.164
-517.902	27.679	-0.022	-0.018
-516.887	682.631	-0.060	0.160
-515.872	800.000	0.055	0.168
-514.858	22.184	-0.142	0.118
-513.843	-33.406	0.141	-0.079
-512.829	-200.000	0.032	0.236
-511.814	-200.000	-0.009	0.235
-510.799	81.408	0.068	-0.075
-509.785	224.150	0.097	0.159
-508.770	453.119	-0.162	0.364
-507.756	800.000	-0.070	-0.233
-506.741	-56.429	-0.211	-0.095
-505.726	276.848	-0.129	0.232
-504.712	-164.786	0.194	-0.009
-503.697	-200.000	0.027	-0.194
-502.683	11.761	-0.256	-0.199
-501.668	-108.779	0.132	0.029
-500.653	-200.000	0.029	0.195
-499.639	-43.038	0.239	-0.123
-498.624	50.594	0.230	-0.220
-497.610	196.096	0.081	0.124
-496.595	800.000	0.081	0.247
-495.581	168.402	-0.104	-0.150
-494.566	-111.604	-0.218	-0.045
-493.551	-131.581	-0.156	-0.021
-492.537	-200.000	0.058	0.264
-491.522	-200.000	-0.017	0.159
-490.508	-165.625	0.113	0.005
-489.493	-200.000	0.017	-0.088
-488.478	-46.931	-0.093	0.046
-487.464	-50.832	0.232	0.110
-486.449	261.839	0.093	-0.163
-485.435	-148.736	-0.107	0.009
-484.420	-98.386	-0.416	-0.108
-483.405	47.206	-0.195	-0.183
-482.391	800.000	-0.068	0.210
-481.376	429.734	-0.108	0.237
-480.362	-52.217	-0.207	0.097
-479.347	76.302	0.068	0.073
-478.332	-141.017	-0.024	-0.002
-477.318	154.555	-0.158	0.220
-476.303	800.000	-0.120	-0.407
-475.289	-200.000	-0.007	-0.058
-474.274	-59.193	0.107	0.047
-473.259	15.145	-0.152	-0.121
-472.245	800.000	0.091	0.254
-471.230	91.455	0.231	0.263
-470.216	-60.817	-0.105	0.045
-469.201	48.297	0.148	0.140
-468.186	800.000	-0.047	0.192
-467.172	-83.289	-0.267	-0.087
-466.157	-10.986	-0.221	0.148
-465.143	215.467	-0.155	-0.249
-464.128	-27.695	-0.155	-0.091
-463.113	800.000	0.064	-0.244
-462.099	-200.000	0.003	0.113
-461.084	-6.952	-0.173	0.119
-460.070	206.352	0.024	0.037
-459.055	4.234	0.138	-0.102
-458.040	-25.065	-0.285	0.171
-457.026	0.318	-0.266	0.192
-456.011	52.226	0.146	0.140
-454.997	-71.955	-0.403	0.151
-453.982	98.582	-0.204	-0.238
-452.968	157.907	0.088	-0.123
-451.953	-83.378	-0.061	-0.020
-450.938	800.000	-0.069	0.221
-449.924	374.665	0.088	-0.182
-448.909	-72.541	-0.232	0.087
-447.895	184.993	0.165	0.247
-446.880	-115.829	-0.368	0.070
-445.865	226.653	0.068	0.112
-444.851	-200.000	-0.033	-0.190
-443.836	44.495	0.369	-0.343
-442.822	64.878	-0.198	0.202
-441.807	-200.000	0.004	-0.137
-440.792	-159.080	0.407	-0.023
-439.778	800.000	0.037	-0.147
-438.763	-184.984	0.100	-0.002
-437.749	-27.451	0.103	0.061
-436.734	-129.843	-0.063	0.009
-435.719	-200.000	-0.028	-0.218
-434.705	104.833	0.062	0.074
-433.690	37.784	0.106	0.095
-432.676	351.130	-0.100	-0.199
-431.661	288.906	-0.041	0.075
-430.646	446.591	-0.084	0.186
-429.632	129.635	0.186	0.240
-428.617	41.142	0.197	-0.179
-427.603	748.182	0.101	0.276
-426.588	-81.688	0.213	-0.071
-425.573	-200.000	-0.052	0.290
-424.559	-133.799	-0.144	-0.018
-423.544	-25.357	0.185	0.110
-422.530	255.441	-0.164	0.283
-421.515	14.900	0.192	0.152
-420.500	-80.443	0.243	-0.082
-419.486	-72.990	-0.302	0.112
-418.471	-200.000	-0.003	-0.107
-417.457	245.343	0.082	-0.139
-416.442	92.867	0.141	-0.161
-415.428	-200.000	0.019	-0.214
-414.413	-200.000	-0.002	-0.079
-413.398	383.323	-0.045	0.093
-412.384	-200.000	0.113	0.000
-411.369	203.487	-0.063	0.098
-410.355	-200.000	0.046	0.308
-409.340	-18.547	-0.173	0.109
-408.325	234.673	0.069	0.116
-407.311	-200.000	0.036	0.280
-406.296	-200.000	0.005	-0.060
-405.282	520.492	-0.092	-0.219
-404.267	-129.682	-0.120	-0.017
-403.252	496.237	-0.198	-0.459
-402.238	-118.828	0.063	0.011
-401.223	-200.000	0.023	0.296
-400.209	-57.983	-0.312	0.137
-399.194	-188.003	0.291	0.004
-398.179	78.413	0.175	-0.188
-397.165	-41.751	-0.288	0.149
-396.150	-45.399	0.269	0.135
-395.136	-106.282	0.180	-0.041
-394.121	-181.806	0.228	-0.004
-393.106	90.470	0.209	-0.236
-392.092	-19.474	0.297	0.186
-391.077	-172.211	0.259	-0.008
-390.063	-200.000	-0.040	0.200
-389.048	5.855	-0.280	0.209
-388.033	-200.000	-0.003	0.161
-387.019	-200.000	0.005	0.114
-386.004	66.450	0.137	0.140
-384.990	-108.941	0.154	0.033
-383.975	-200.000	0.076	-0.354
-382.960	-52.220	-0.058	0.027
-381.946	624.912	-0.043	0.109
-380.931	390.668	-0.111	-0.233
-379.917	-200.000	-0.005	0.175
-378.902	-200.000	-0.043	-0.194
-377.888	35.313	-0.188	-0.166
-376.873	-115.241	0.235	-0.045
-375.858	3.504	0.207	-0.152
-374.844	17.919	-0.156	0.125
-373.829	-118.778	0.200	-0.035
-372.815	463.270	0.104	0.234
-371.800	161.760	-0.068	-0.096
-370.785	21.100	0.208	0.170
-369.771	599.250	-0.158	0.394
-368.756	192.349	0.218	0.331
-367.742	-200.000	0.001	-0.137
-366.727	-130.293	-0.027	-0.004
-365.712	-200.000	0.010	-0.049
-364.698	-109.605	0.171	-0.036
-363.683	-5.210	0.143	0.099
-362.669	78.292	-0.100	-0.107
-361.654	-176.188	0.271	0.007
-360.639	231.367	-0.138	0.227
-359.625	-200.000	0.017	-0.117
-358.610	302.162	0.140	-0.260
-357.596	-200.000	-0.036	-0.227
-356.581	-200.000	-0.008	-0.177
-355.566	14.815	0.516	-0.407
-354.552	-37.256	-0.218	-0.117
-353.537	-94.992	0.255	0.070
-352.523	-107.179	0.298	-0.066
-351.508	142.092	-0.136	-0.182
-350.493	6.997	0.017	-0.013
-349.479	-200.000	-0.019	0.205
-348.464	-66.864	-0.263	0.105
-347.450	-200.000	-0.038	-0.309
-346.435	-163.427	-0.228	0.011
-345.420	-26.923	-0.074	0.043
-344.406	-90.898	-0.126	0.037
-343.391	178.449	0.140	-0.206
-342.377	175.604	-0.128	0.187
-341.362	265.889	0.146	-0.257
-340.348	-200.000	-0.010	0.134
-339.333	-88.855	-0.235	-0.070
-338.318	80.158	-0.140	0.151
-337.304	-99.721	-0.194	0.049
-336.289	-131.393	-0.189	0.025
-335.275	-200.000	0.003	-0.043
-334.260	-116.564	0.401	0.074
-333.245	176.178	-0.076	0.112
-332.231	259.558	0.070	-0.121
-331.216	40.101	-0.218	-0.198
-330.202	-200.000	-0.024	-0.124
-329.187	-200.000	0.004	-0.078
-328.172	-200.000	0.002	0.116
-327.158	-89.318	0.436	0.129
-326.143	383.293	0.022	0.046
-325.129	25.671	0.165	-0.138
-324.114	-200.000	0.017	-0.288
-323.099	412.953	-0.117	-0.251
-322.085	-176.372	-0.179	0.005
-321.070	-72.366	-0.300	0.112
-320.056	-200.000	-0.006	0.126
-319.041	50.671	-0.207	0.197
-318.026	184.014	-0.117	-0.175
-317.012	27.141	-0.184	-0.156
-315.997	800.000	0.029	0.083
-314.983	124.904	0.172	0.218
-313.968	-22.732	-0.124	-0.076
-312.953	20.058	-0.104	0.085
-311.939	151.672	-0.146	-0.200
-310.924	-200.000	-0.032	0.276
-309.910	-200.000	-0.022	-0.237
-308.895	-126.067	0.050	-0.008
-307.880	-107.102	-0.226	-0.050
-306.866	-86.998	0.172	0.053
-305.851	94.270	-0.082	-0.093
-304.837	171.937	-0.050	-0.073
-303.822	-49.563	-0.061	0.029
-302.807	-200.000	0.046	0.325
-301.793	-125.783	0.278	-0.042
-300.778	-57.295	0.320	0.142
-299.764	-46.577	0.079	-0.039
-298.749	-63.553	-0.223	-0.092
-297.735	-106.002	-0.233	0.053
-296.720	800.000	-0.085	-0.296
-295.705	201.425	0.120	0.186
-294.691	-200.000	0.026	0.210
-293.676	-121.710	0.408	-0.068
-292.662	151.506	-0.134	0.184
-291.647	159.530	-0.109	0.153
-290.632	14.902	0.310	-0.244
-289.618	32.274	0.026	-0.022
-288.603	-10.254	0.265	0.177
-287.589	-95.672	-0.233	-0.063
-286.574	800.000	-0.084	-0.292
-285.559	25.185	0.076	0.063
-284.545	215.457	0.153	-0.244
-283.530	-107.953	0.275	-0.060
-282.516	-55.260	0.143	-0.065
-281.501	-49.902	0.034	-0.016
-280.486	129.328	0.261	-0.335
-279.472	-7.583	-0.321	-0.218
-278.457	206.732	0.111	-0.174
-277.443	-156.729	0.214	-0.013
-276.428	-200.000	0.029	-0.137
-275.413	800.000	0.073	-0.267
-274.399	269.083	-0.141	0.249
-273.384	-200.000	0.053	-0.321
-272.370	15.666	-0.118	-0.093
-271.355	-200.000	-0.002	-0.442
-270.340	44.587	-0.232	-0.214
-269.326	91.383	0.056	-0.063
-268.311	-32.965	-0.153	-0.085
-267.297	464.775	-0.072	0.161
-266.282	-148.714	-0.201	0.016
-265.267	66.915	0.126	-0.129
-264.253	-2.740	0.170	0.120
-263.238	49.709	0.233	0.220
-262.224	-200.000	0.017	-0.134
-261.209	24.495	0.185	-0.153
-260.195	-200.000	0.032	-0.250
-259.180	129.630	-0.074	0.095
-258.165	-50.957	-0.226	-0.107
-257.151	-116.462	0.168	-0.031
-256.136	-128.484	-0.235	0.033
-255.122	224.420	0.134	0.217
-254.107	-152.831	-0.428	0.030
-253.092	89.980	-0.088	0.099
-252.078	50.653	0.092	-0.088
-251.063	-200.000	0.031	0.496
-250.049	-105.768	-0.104	0.023
-249.034	-35.362	0.270	0.148
-248.019	800.000	0.111	0.377
-247.005	433.523	-0.078	-0.170
-245.990	47.879	-0.076	-0.071
-244.976	158.478	0.147	0.205
-243.961	656.734	0.072	0.186
-242.946	53.243	0.060	0.058
-241.932	200.241	0.249	0.384
-240.917	8.092	-0.291	0.219
-239.903	-200.000	0.013	0.165
-238.888	-200.000	0.003	-0.112
-237.873	-46.237	0.362	0.179
-236.859	189.176	0.161	0.241
-235.844	-110.388	0.169	-0.035
-234.830	-138.899	-0.235	-0.026
-233.815	-103.428	0.184	0.043
-232.800	20.211	0.181	-0.146
-231.786	800.000	-0.052	-0.180
-230.771	441.270	-0.111	0.243
-229.757	800.000	-0.020	0.085
-228.742	737.934	-0.021	0.056
-227.727	-85.166	0.081	0.025
-226.713	-134.281	-0.213	-0.026
-225.698	800.000	-0.121	-0.407
-224.684	-200.000	-0.003	-0.220
-223.669	-12.767	0.260	0.170
-222.655	137.461	-0.167	-0.219
-221.640	55.303	0.168	0.163
-220.625	-90.057	0.173	-0.051
-219.611	365.359	-0.134	-0.271
-218.596	-64.655	-0.099	-0.040
-217.582	-59.800	0.269	-0.115
-216.567	115.837	0.122	-0.149
-215.552	-139.145	-0.260	0.028
-214.538	-2.370	0.056	0.040
-213.523	31.400	-0.105	-0.090
-212.509	-99.646	-0.166	-0.042
-211.494	651.266	0.121	-0.311
-210.479	246.170	0.054	0.090
-209.465	794.309	-0.062	-0.172
-208.450	-82.629	-0.173	0.056
-207.436	-81.952	-0.151	-0.049
-206.421	800.000	0.075	0.285
-205.406	800.000	-0.091	0.360
-204.392	-200.000	0.016	-0.155
-203.377	32.407	-0.112	-0.097
-202.363	-55.055	0.231	0.104
-201.348	-121.210	0.365	0.061
-200.333	-25.629	-0.111	0.066
-199.319	-200.000	-0.019	0.096
-198.304	800.000	-0.095	-0.282
-197.290	-83.772	0.261	-0.083
-196.275	800.000	-0.057	-0.162
-195.260	703.287	0.039	0.102
-194.246	20.887	0.002	0.002
-193.231	-11.066	0.066	0.044
-192.217	-13.258	-0.301	-0.196
-191.202	-36.812	-0.130	-0.070
-190.187	-183.556	0.315	0.005
-189.173	-24.418	-0.183	0.109
-188.158	-200.000	0.031	-0.157
-187.144	76.950	-0.200	-0.213
-186.129	-98.310	-0.085	-0.022
-185.114	135.849	-0.054	0.071
-184.100	-200.000	-0.014	0.219
-183.085	-27.622	0.017	0.010
-182.071	34.400	0.387	-0.338
-181.056	-49.621	0.304	-0.145
-180.042	-33.822	0.213	-0.117
-179.027	-99.844	0.300	0.075
-178.012	251.456	0.127	-0.217
-176.998	291.031	0.045	-0.083
-175.983	184.140	0.131	-0.194
-174.969	19.414	-0.226	0.182
-173.954	-91.940	0.390	0.111
-172.939	-23.616	-0.250	-0.150
-171.925	579.601	-0.077	-0.189
-170.910	-70.693	0.367	-0.139
-169.896	239.063	-0.168	-0.279
-168.881	-23.003	-0.188	-0.113
-167.866	-2.729	0.076	-0.053
-166.852	-186.001	0.178	-0.003
-165.837	-80.674	-0.137	0.046
-164.823	-144.201	-0.006	-0.001
-163.808	74.963	-0.047	0.050
-162.793	417.316	0.098	-0.210
-161.779	376.630	-0.070	0.143
-160.764	-200.000	0.024	-0.166
-159.750	4.680	-0.061	-0.045
-158.735	725.000	-0.102	-0.271
-157.720	43.837	-0.151	-0.138
-156.706	-8.302	-0.255	0.172
-155.691	-27.599	0.331	0.192
-154.677	-18.779	-0.078	-0.049
-153.662	70.387	0.054	0.056
-152.647	-136.127	0.177	0.021
-151.633	-69.136	-0.042	-0.016
-150.618	635.978	-0.152	0.385
-149.604	82.912	-0.198	-0.216
-148.589	-200.000	-0.057	-0.285
-147.574	148.240	0.195	-0.262
-146.560	-57.251	0.204	0.090
-145.545	136.312	-0.217	0.283
-144.531	237.754	-0.032	0.054
-143.516	133.514	-0.050	-0.065
-142.502	-169.602	0.120	0.004
-141.487	-45.800	0.073	0.036
-140.472	299.144	-0.092	0.169
-139.458	800.000	0.061	0.182
-138.443	-86.363	-0.219	-0.067
-137.429	550.392	0.099	-0.237
-136.414	800.000	0.075	0.267
-135.399	9.559	-0.207	0.157
-134.385	-76.019	-0.359	-0.127
-133.370	145.570	0.070	-0.094
-132.356	-112.596	-0.213	-0.042
-131.341	80.705	0.200	0.215
-130.326	-60.637	-0.093	-0.039
-129.312	-61.508	-0.220	0.092
-128.297	-200.000	-0.061	0.268
-127.283	-200.000	0.009	0.210
-126.268	246.680	0.151	0.254
-125.253	534.410	0.192	0.454
-124.239	-167.527	-0.297	-0.012
-123.224	-16.018	0.177	0.113
-122.210	-200.000	-0.020	0.223
-121.195	800.000	0.070	0.298
