DTS Sentinel unit serial number:	SN413079Multiplexer serial number:	ORYXHardware model number:	OX4-SRSoftware version number:	ORYX F/W v4.00 Oryx Data Collector v3.7.2.0data status	okinstallation	princeton_trtdifferential loss correction	single-endedforward channel	channel 1reverse channel	N/Adate	2019/09/11time	01:36:11forward acquisition time	60.00reverse acquisition time	0.00gamma	496.2192k internal	0.2331k external	0.2331temperature offset calibration	0.9930default loss term (dB/km)	0.3790temperature slope calibration	1.0000multiplexer offset coefficient	1.0000multiplexer slope coefficient	1.0000fibre end	0.00T internal ref (°C)	29.14T ext. ref 1 (°C)	-0.30T ext. ref 2 (°C)	23.46length (m)	temperature (°C)	Stokes	anti-Stokes-747.200	-127.489	0.354	-0.052
-746.185	-158.201	-0.310	-0.018
-745.171	3.589	-0.109	-0.080
-744.156	7.601	-0.247	0.186
-743.142	67.578	0.107	-0.110
-742.127	-173.586	-0.082	-0.002
-741.112	25.736	-0.187	0.156
-740.098	65.726	0.030	-0.031
-739.083	-98.077	0.369	-0.096
-738.069	-200.000	-0.030	0.224
-737.054	-11.271	0.375	-0.249
-736.039	-75.856	-0.070	-0.025
-735.025	99.352	0.091	0.106
-734.010	103.505	0.222	-0.262
-732.996	-200.000	0.026	-0.121
-731.981	-50.222	0.081	-0.039
-730.966	56.925	-0.141	-0.138
-729.952	-200.000	0.113	0.000
-728.937	-84.228	-0.165	-0.053
-727.923	645.435	-0.136	-0.348
-726.908	134.276	-0.085	0.111
-725.894	6.008	0.293	0.218
-724.879	-68.271	-0.241	-0.094
-723.864	670.446	-0.129	-0.335
-722.850	281.285	0.087	-0.156
-721.835	-46.967	-0.259	0.127
-720.821	-119.721	-0.070	0.012
-719.806	270.032	-0.121	0.215
-718.791	80.116	0.213	0.231
-717.777	483.753	-0.102	0.233
-716.762	-149.587	-0.156	-0.012
-715.748	-46.825	-0.163	-0.080
-714.733	269.827	-0.079	-0.139
-713.718	-46.343	-0.535	-0.264
-712.704	260.274	0.074	-0.129
-711.689	461.892	0.167	-0.374
-710.675	396.579	0.023	-0.049
-709.660	12.872	0.031	0.024
-708.645	199.457	-0.070	-0.108
-707.631	361.951	-0.074	-0.150
-706.616	-31.222	0.191	-0.108
-705.602	84.968	0.095	-0.105
-704.587	287.111	-0.057	0.103
-703.572	131.509	-0.300	-0.387
-702.558	-35.805	-0.286	0.156
-701.543	130.357	0.153	-0.197
-700.529	-200.000	0.021	-0.313
-699.514	-37.479	-0.372	-0.200
-698.499	3.062	-0.260	-0.190
-697.485	35.361	-0.121	-0.107
-696.470	-52.463	0.341	-0.158
-695.456	253.908	-0.163	0.280
-694.441	-7.481	0.078	-0.053
-693.426	-109.420	0.107	0.023
-692.412	602.892	0.015	-0.037
-691.397	275.362	-0.243	-0.432
-690.383	-200.000	0.005	-0.221
-689.368	-200.000	0.017	0.274
-688.354	55.978	-0.238	0.232
-687.339	130.270	-0.138	0.177
-686.324	800.000	-0.068	0.245
-685.310	103.648	-0.219	0.258
-684.295	-200.000	0.044	-0.199
-683.281	-0.909	-0.145	0.103
-682.266	-23.249	-0.178	-0.108
-681.251	-200.000	0.030	-0.479
-680.237	-103.944	-0.340	-0.080
-679.222	86.448	0.049	-0.054
-678.208	-200.000	0.018	0.277
-677.193	-129.875	0.047	0.006
-676.178	26.497	-0.188	0.158
-675.164	413.705	0.103	-0.221
-674.149	-80.841	0.151	-0.050
-673.135	-86.507	-0.214	0.066
-672.120	111.586	0.081	0.098
-671.105	-87.364	0.057	-0.017
-670.091	286.076	-0.109	0.197
-669.076	117.570	-0.089	0.109
-668.062	-141.180	0.207	-0.021
-667.047	32.776	-0.065	0.057
-666.032	800.000	0.021	-0.079
-665.018	122.926	-0.172	0.216
-664.003	-100.267	-0.003	0.001
-662.989	800.000	-0.089	0.286
-661.974	800.000	-0.036	-0.155
-660.959	800.000	-0.048	0.158
-659.945	-123.875	0.308	-0.049
-658.930	-200.000	0.010	-0.168
-657.916	-200.000	-0.055	-0.246
-656.901	-62.315	0.100	0.042
-655.886	-113.287	-0.166	0.033
-654.872	800.000	0.020	-0.079
-653.857	-122.377	-0.207	0.034
-652.843	-200.000	0.024	0.230
-651.828	800.000	0.079	0.229
-650.814	-25.621	0.299	-0.177
-649.799	-176.303	-0.339	-0.009
-648.784	-94.187	0.102	0.028
-647.770	-200.000	-0.017	-0.084
-646.755	-200.000	-0.024	-0.283
-645.741	-200.000	0.040	0.356
-644.726	800.000	0.033	0.130
-643.711	-124.853	-0.219	-0.034
-642.697	24.688	-0.315	-0.262
-641.682	236.701	0.216	0.359
-640.668	-94.999	-0.292	-0.079
-639.653	201.670	0.220	-0.339
-638.638	-32.738	0.148	-0.083
-637.624	565.481	-0.086	-0.210
-636.609	792.202	0.118	0.325
-635.595	-94.683	-0.228	-0.062
-634.580	527.873	-0.092	0.217
-633.565	-200.000	-0.025	-0.121
-632.551	-11.100	-0.144	-0.095
-631.536	800.000	0.061	0.215
-630.522	390.531	-0.171	0.356
-629.507	158.188	-0.147	-0.205
-628.492	800.000	0.127	-0.384
-627.478	800.000	-0.042	0.139
-626.463	-125.761	0.209	0.032
-625.449	-84.900	0.054	-0.017
-624.434	-200.000	0.009	-0.117
-623.419	-17.467	0.173	0.109
-622.405	-200.000	0.004	-0.079
-621.390	-34.345	-0.146	0.080
-620.376	800.000	0.016	0.058
-619.361	-200.000	-0.005	-0.449
-618.346	-18.887	0.141	0.088
-617.332	-75.064	-0.236	0.085
-616.317	-18.479	-0.162	0.101
-615.303	-179.578	0.179	0.004
-614.288	443.012	-0.108	-0.236
-613.273	-196.971	0.054	0.000
-612.259	800.000	0.063	0.191
-611.244	66.888	-0.115	-0.118
-610.230	-39.311	-0.341	-0.179
-609.215	-27.362	-0.070	-0.041
-608.201	800.000	-0.120	-0.346
-607.186	-70.634	-0.097	-0.037
-606.171	91.814	0.080	-0.090
-605.157	169.282	-0.165	-0.236
-604.142	142.707	0.158	-0.210
-603.128	-200.000	-0.023	0.171
-602.113	800.000	-0.050	-0.196
-601.098	7.839	0.084	-0.063
-600.084	-65.163	0.097	0.039
-599.069	-59.473	-0.140	0.060
-598.055	66.633	0.155	0.158
-597.040	160.344	0.101	-0.142
-596.025	476.740	-0.096	0.216
-595.011	-83.182	-0.134	-0.043
-593.996	-200.000	-0.015	-0.145
-592.982	-123.838	0.093	-0.015
-591.967	-111.549	-0.246	-0.050
-590.952	338.154	0.139	0.270
-589.938	197.075	-0.208	-0.317
-588.923	-200.000	-0.064	0.287
-587.909	-96.432	0.491	0.130
-586.894	800.000	0.024	0.069
-585.879	34.491	0.131	0.114
-584.865	800.000	-0.072	-0.221
-583.850	361.114	0.152	-0.304
-582.836	107.194	-0.215	-0.256
-581.821	-22.704	-0.330	0.199
-580.806	-24.724	-0.145	0.086
-579.792	460.307	-0.155	0.344
-578.777	35.283	0.070	0.062
-577.763	-76.554	0.232	-0.082
-576.748	800.000	-0.045	0.141
-575.733	47.897	0.135	-0.126
-574.719	800.000	0.028	-0.090
-573.704	773.205	-0.160	0.438
-572.690	-200.000	-0.061	0.379
-571.675	-134.613	0.243	0.030
-570.661	-118.348	-0.358	-0.064
-569.646	-200.000	0.012	-0.145
-568.631	-154.478	-0.219	-0.015
-567.617	-17.034	0.186	-0.118
-566.602	-200.000	0.016	0.139
-565.588	-85.008	-0.228	-0.072
-564.573	100.498	0.099	-0.115
-563.558	-35.705	0.505	-0.274
-562.544	73.499	0.131	0.137
-561.529	-161.339	-0.406	0.021
-560.515	11.858	0.147	-0.113
-559.500	-131.453	-0.375	0.050
-558.485	-200.000	0.016	0.077
-557.471	34.432	-0.289	0.252
-556.456	-200.000	0.017	0.379
-555.442	-13.642	0.133	0.086
-554.427	-200.000	-0.002	-0.405
-553.412	-55.925	-0.205	-0.092
-552.398	-200.000	0.016	-0.072
-551.383	-87.718	-0.098	-0.030
-550.369	190.488	0.184	0.275
-549.354	703.061	0.143	0.375
-548.339	131.353	0.076	0.098
-547.325	-68.819	0.206	-0.079
-546.310	156.180	-0.092	0.127
-545.296	800.000	0.041	-0.136
-544.281	113.572	0.226	-0.274
-543.266	800.000	-0.058	-0.207
-542.252	60.122	0.356	-0.352
-541.237	354.135	-0.165	0.327
-540.223	-200.000	0.066	0.409
-539.208	-179.919	0.336	0.007
-538.193	-9.338	0.201	-0.134
-537.179	-82.407	-0.446	-0.145
-536.164	293.551	0.207	-0.377
-535.150	31.366	-0.046	-0.039
-534.135	-184.668	0.142	0.002
-533.121	21.063	-0.105	0.085
-532.106	35.599	-0.095	0.084
-531.091	199.364	-0.077	-0.118
-530.077	800.000	-0.058	-0.188
-529.062	-86.593	0.157	-0.048
-528.048	-1.080	-0.214	0.151
-527.033	-91.577	0.076	0.022
-526.018	800.000	-0.008	-0.033
-525.004	-200.000	-0.011	0.064
-523.989	143.657	0.091	-0.121
-522.975	-130.769	0.139	-0.019
-521.960	-200.000	-0.015	0.244
-520.945	302.028	-0.083	0.152
-519.931	-8.154	-0.084	-0.056
-518.916	-96.335	-0.022	-0.006
-517.902	312.578	-0.071	-0.133
-516.887	223.512	-0.169	-0.272
-515.872	800.000	0.109	0.309
-514.858	535.626	-0.028	-0.066
-513.843	-96.005	0.081	0.022
-512.829	5.255	-0.319	0.234
-511.814	79.616	-0.251	0.268
-510.799	-100.429	-0.162	0.040
-509.785	-93.968	-0.276	-0.076
-508.770	-200.000	-0.003	-0.144
-507.756	-24.479	0.280	-0.166
-506.741	-200.000	-0.031	-0.157
-505.726	800.000	-0.065	-0.208
-504.712	102.280	0.224	0.261
-503.697	773.572	0.064	-0.173
-502.683	246.151	-0.207	-0.348
-501.668	158.140	0.158	-0.219
-500.653	-83.308	0.296	-0.095
-499.639	-60.117	0.104	-0.044
-498.624	-47.654	-0.185	0.089
-497.610	64.809	-0.097	0.098
-496.595	234.382	-0.270	-0.444
-495.581	-126.866	-0.094	0.014
-494.566	15.321	0.134	-0.104
-493.551	-17.921	0.313	-0.196
-492.537	33.207	0.127	-0.110
-491.522	287.047	0.073	0.131
-490.508	-186.999	-0.158	-0.002
-489.493	-59.568	0.166	-0.071
-488.478	8.586	0.108	-0.081
-487.464	-200.000	-0.001	0.028
-486.449	-132.839	-0.217	0.028
-485.435	-28.621	0.047	0.027
-484.420	654.731	-0.113	-0.288
-483.405	590.203	-0.072	0.176
-482.391	-125.228	-0.319	-0.049
-481.376	-200.000	0.002	0.117
-480.362	-97.731	0.202	-0.052
-479.347	48.969	-0.330	0.309
-478.332	77.787	0.216	-0.229
-477.318	145.186	-0.067	0.089
-476.303	-200.000	0.045	0.208
-475.289	648.877	-0.034	-0.088
-474.274	-112.270	0.171	0.034
-473.259	65.684	-0.189	-0.190
-472.245	800.000	0.021	0.079
-471.230	-0.005	0.379	-0.269
-470.216	-87.906	0.200	0.060
-469.201	272.054	-0.161	-0.283
-468.186	622.620	0.062	-0.156
-467.172	245.694	0.129	0.216
-466.157	248.366	0.118	0.199
-465.143	800.000	0.033	0.142
-464.128	-74.403	-0.145	0.052
-463.113	800.000	-0.061	-0.171
-462.099	756.392	-0.058	0.156
-461.084	419.705	-0.033	-0.069
-460.070	-200.000	-0.004	-0.041
-459.055	-51.728	0.047	0.022
-458.040	-200.000	0.016	0.151
-457.026	236.181	-0.128	0.210
-456.011	-110.006	-0.164	0.034
-454.997	212.740	0.091	0.143
-453.982	56.388	0.251	0.243
-452.968	-165.961	0.095	0.004
-451.953	-77.914	0.185	-0.064
-450.938	-5.307	-0.186	-0.127
-449.924	-200.000	0.031	-0.250
-448.909	50.327	-0.055	0.052
-447.895	-66.950	0.097	-0.038
-446.880	-196.821	0.121	0.001
-445.865	-139.472	0.247	0.026
-444.851	176.197	-0.209	0.302
-443.836	-48.841	-0.203	0.097
-442.822	-46.938	0.208	-0.101
-441.807	-200.000	-0.002	0.195
-440.792	41.218	-0.067	-0.061
-439.778	150.904	-0.109	0.148
-438.763	-120.164	0.193	-0.033
-437.749	635.850	0.035	0.087
-436.734	-82.382	0.248	-0.080
-435.719	82.544	-0.109	-0.117
-434.705	-106.642	-0.238	0.053
-433.690	13.611	0.222	-0.171
-432.676	-86.308	-0.260	-0.080
-431.661	8.525	0.220	-0.165
-430.646	100.036	-0.178	-0.206
-429.632	-96.029	0.190	-0.050
-428.617	-108.377	0.137	0.029
-427.603	189.061	-0.140	0.208
-426.588	-157.395	-0.078	0.005
-425.573	-74.770	-0.051	-0.018
-424.559	42.560	-0.366	0.331
-423.544	-200.000	0.014	-0.311
-422.530	200.126	0.139	0.212
-421.515	-146.960	0.290	-0.025
-420.500	57.143	0.121	-0.117
-419.486	-111.092	0.178	-0.036
-418.471	-176.230	0.209	-0.005
-417.457	-182.557	-0.019	0.000
-416.442	60.484	0.315	0.310
-415.428	280.830	-0.104	0.184
-414.413	-200.000	0.008	0.072
-413.398	-13.889	-0.283	-0.182
-412.384	-39.937	-0.246	0.128
-411.369	-76.484	-0.309	0.108
-410.355	339.976	0.145	0.281
-409.340	-77.475	0.242	0.083
-408.325	370.760	0.134	-0.269
-407.311	-124.307	-0.171	0.026
-406.296	3.628	0.115	-0.084
-405.282	524.458	-0.032	0.075
-404.267	222.802	-0.079	0.126
-403.252	-39.247	-0.132	0.069
-402.238	-116.068	0.186	-0.034
-401.223	30.548	0.226	-0.192
-400.209	-200.000	-0.002	-0.232
-399.194	-200.000	0.026	-0.118
-398.179	9.794	-0.501	0.377
-397.165	51.956	-0.193	0.183
-396.150	97.438	0.203	0.232
-395.136	339.393	-0.170	0.329
-394.121	-136.267	-0.302	0.035
-393.106	-200.000	0.008	-0.100
-392.092	-6.113	-0.451	-0.306
-391.077	81.100	-0.104	-0.112
-390.063	2.575	0.004	-0.003
-389.048	81.691	-0.303	0.325
-388.033	-200.000	0.017	0.144
-387.019	-200.000	0.016	0.199
-386.004	-108.127	0.215	-0.046
-384.990	742.301	0.039	0.103
-383.975	133.215	-0.029	0.037
-382.960	-44.077	0.178	0.089
-381.946	800.000	0.090	-0.299
-380.931	-95.536	0.171	-0.046
-379.917	-34.570	0.081	0.044
-378.902	102.393	-0.101	0.118
-377.888	792.660	0.104	-0.283
-376.873	-27.637	-0.122	0.070
-375.858	-102.895	-0.273	-0.064
-374.844	-100.480	0.309	0.076
-373.829	88.462	0.070	0.077
-372.815	-200.000	0.055	0.339
-371.800	4.602	0.199	-0.145
-370.785	22.399	-0.132	-0.107
-369.771	-200.000	0.027	0.298
-368.756	69.277	0.183	-0.187
-367.742	-149.424	0.169	0.013
-366.727	56.003	-0.189	0.182
-365.712	42.083	-0.257	-0.232
-364.698	161.907	0.135	0.188
-363.683	149.631	-0.288	-0.387
-362.669	71.672	-0.193	-0.198
-361.654	-145.067	-0.207	-0.019
-360.639	-71.681	-0.164	-0.061
-359.625	8.920	-0.160	-0.120
-358.610	-93.087	-0.510	0.141
-357.596	-138.136	-0.201	-0.022
-356.581	-77.877	0.349	-0.119
-355.566	118.466	-0.200	0.245
-354.552	-200.000	0.382	0.001
-353.537	-40.549	-0.030	-0.016
-352.523	-175.822	-0.272	-0.007
-351.508	132.960	0.199	-0.254
-350.493	-200.000	-0.003	-0.071
-349.479	82.722	0.033	-0.036
-348.464	-78.012	-0.059	-0.020
-347.450	299.064	0.149	0.272
-346.435	-200.000	-0.190	0.001
-345.420	-200.000	0.024	0.149
-344.406	-143.170	-0.266	-0.025
-343.391	-33.636	0.170	0.093
-342.377	505.800	-0.047	0.107
-341.362	630.097	-0.122	-0.306
-340.348	800.000	-0.011	-0.046
-339.333	-200.000	0.017	-0.205
-338.318	67.238	-0.204	0.206
-337.304	692.258	0.069	0.179
-336.289	-64.118	-0.305	-0.123
-335.275	520.215	0.139	-0.322
-334.260	-175.170	-0.171	-0.005
-333.245	421.011	-0.073	0.155
-332.231	196.498	-0.110	0.166
-331.216	-200.000	0.006	-0.255
-330.202	-200.000	-0.005	-0.196
-329.187	39.987	0.087	-0.078
-328.172	-200.000	0.013	-0.078
-327.158	115.268	-0.031	-0.037
-326.143	158.959	-0.141	0.195
-325.129	14.977	-0.161	0.125
-324.114	-76.252	-0.183	0.064
-323.099	800.000	0.038	-0.126
-322.085	-20.019	0.265	-0.162
-321.070	78.261	-0.082	-0.086
-320.056	619.786	-0.031	0.077
-319.041	-107.321	0.136	-0.030
-318.026	-200.000	-0.010	0.085
-317.012	-200.000	0.030	0.299
-315.997	-200.000	0.036	-0.206
-314.983	28.242	0.241	-0.202
-313.968	-157.049	0.102	-0.006
-312.953	-41.359	0.184	0.094
-311.939	210.402	0.046	-0.071
-310.924	-200.000	0.003	0.021
-309.910	6.379	-0.079	0.058
-308.895	20.089	-0.169	0.135
-307.880	5.661	0.130	0.095
-306.866	96.498	-0.220	0.249
-305.851	-101.948	-0.087	0.021
-304.837	174.221	-0.056	-0.080
-303.822	800.000	0.113	-0.308
-302.807	-200.000	-0.004	-0.104
-301.793	-144.283	0.226	0.021
-300.778	-200.000	0.012	0.143
-299.764	102.623	-0.092	-0.106
-298.749	-103.555	0.186	0.043
-297.735	248.781	0.138	-0.232
-296.720	-134.350	0.226	0.027
-295.705	482.335	-0.133	0.298
-294.691	-30.946	-0.122	0.068
-293.676	-3.668	0.084	0.058
-292.662	301.411	-0.056	0.103
-291.647	-115.924	0.226	0.042
-290.632	-30.455	0.166	-0.093
-289.618	14.366	-0.250	-0.193
-288.603	244.100	0.020	0.032
-287.589	56.657	0.103	0.099
-286.574	800.000	-0.070	0.238
-285.559	-200.000	-0.073	0.355
-284.545	-19.438	-0.290	0.177
-283.530	-175.594	0.226	-0.006
-282.516	56.624	0.164	0.158
-281.501	-158.081	0.209	-0.012
-280.486	-46.283	0.351	-0.171
-279.472	-200.000	-0.018	0.101
-278.457	-200.000	-0.015	-0.095
-277.443	2.877	-0.128	0.092
-276.428	-64.697	-0.479	0.192
-275.413	-200.000	-0.002	0.222
-274.399	81.438	-0.061	0.065
-273.384	-107.048	-0.192	-0.042
-272.370	-164.627	-0.111	0.005
-271.355	100.370	0.178	0.204
-270.340	236.180	-0.187	-0.306
-269.326	-32.867	0.290	0.159
-268.311	-89.470	0.118	-0.034
-267.297	-85.343	0.522	-0.161
-266.282	800.000	0.077	-0.306
-265.267	800.000	0.073	0.214
-264.253	57.955	0.154	0.149
-263.238	-121.245	0.103	-0.017
-262.224	151.043	-0.198	0.266
-261.209	-200.000	-0.023	0.129
-260.195	-97.992	-0.080	0.020
-259.180	800.000	0.027	0.099
-258.165	42.886	-0.105	-0.095
-257.151	-68.608	-0.147	0.056
-256.136	800.000	-0.147	0.562
-255.122	-69.690	0.498	-0.188
-254.107	-104.897	-0.403	-0.091
-253.092	-125.625	0.349	-0.052
-252.078	-90.130	-0.093	-0.027
-251.063	-200.000	0.165	0.001
-250.049	-10.082	0.221	0.145
-249.034	92.063	0.178	-0.198
-248.019	-200.000	0.044	-0.268
-247.005	-14.381	0.150	-0.096
-245.990	-35.001	0.207	-0.111
-244.976	0.087	-0.310	0.218
-243.961	-30.090	-0.066	-0.037
-242.946	-97.583	-0.220	-0.056
-241.932	-69.730	0.275	-0.104
-240.917	-200.000	-0.038	-0.238
-239.903	800.000	-0.129	-0.396
-238.888	-137.679	-0.385	0.043
-237.873	350.790	-0.096	-0.188
-236.859	-200.000	0.027	0.389
-235.844	-31.578	0.373	0.207
-234.830	766.524	0.110	0.296
-233.815	-54.426	-0.298	0.133
-232.800	-172.489	0.464	-0.015
-231.786	-132.546	0.123	-0.016
-230.771	-138.588	-0.244	0.026
-229.757	339.569	-0.089	-0.172
-228.742	90.495	0.170	-0.187
-227.727	69.257	-0.186	-0.188
-226.713	-200.000	0.020	0.182
-225.698	54.745	-0.192	-0.183
-224.684	-133.907	-0.170	0.021
-223.669	-107.200	-0.303	-0.066
-222.655	-150.934	0.262	-0.020
-221.640	-12.623	0.178	-0.114
-220.625	-105.275	0.018	0.004
-219.611	-200.000	0.065	-0.296
-218.596	800.000	0.028	0.083
-217.582	207.358	0.051	0.078
-216.567	-62.815	-0.109	0.044
-215.552	-98.375	0.260	-0.066
-214.538	397.470	-0.078	-0.161
-213.523	361.803	0.042	-0.082
-212.509	-30.335	0.165	-0.092
-211.494	-48.896	-0.180	0.085
-210.479	92.239	-0.140	0.155
-209.465	800.000	0.056	-0.166
-208.450	542.503	0.062	0.147
-207.436	-3.543	0.353	0.242
-206.421	99.534	-0.146	0.167
-205.406	462.999	0.066	-0.144
-204.392	-200.000	-0.009	0.293
-203.377	71.345	0.282	0.289
-202.363	-157.947	-0.095	0.006
-201.348	-20.052	-0.303	0.184
-200.333	-143.583	0.164	-0.015
-199.319	-34.587	0.187	-0.101
-198.304	134.263	0.045	0.058
-197.290	470.746	0.048	0.106
-196.275	7.588	-0.113	-0.083
-195.260	-73.391	0.177	-0.064
-194.246	-200.000	-0.050	-0.281
-193.231	31.876	0.182	-0.154
-192.217	34.511	0.226	-0.195
-191.202	-200.000	0.035	-0.286
-190.187	114.580	-0.114	-0.137
-189.173	740.139	0.101	0.267
-188.158	-200.000	-0.011	0.117
-187.144	-200.000	-0.008	0.133
-186.129	-200.000	0.019	0.271
-185.114	-165.129	-0.063	-0.003
-184.100	-89.984	0.094	0.027
-183.085	175.457	0.131	-0.187
-182.071	601.237	0.127	0.311
-181.056	36.835	0.138	0.120
-180.042	307.346	-0.085	-0.157
-179.027	-14.401	-0.102	0.065
-178.012	538.326	-0.027	-0.062
-176.998	800.000	0.045	-0.147
-175.983	684.322	-0.139	-0.358
-174.969	-17.520	0.284	0.176
-173.954	800.000	-0.101	-0.411
-172.939	-200.000	0.070	-0.305
-171.925	153.733	-0.161	-0.217
-170.910	-22.213	-0.016	0.009
-169.896	-200.000	-0.005	0.105
-168.881	103.972	0.074	0.085
-167.866	-200.000	-0.050	-0.371
-166.852	-200.000	0.009	0.063
-165.837	75.503	0.175	0.182
-164.823	-200.000	0.005	0.382
-163.808	-200.000	0.011	0.076
-162.793	-200.000	0.002	0.170
-161.779	150.489	-0.085	0.114
-160.764	41.215	0.039	0.035
-159.750	-86.353	0.281	0.085
-158.735	-200.000	0.062	0.289
-157.720	-37.915	0.204	-0.107
-156.706	72.069	0.188	-0.193
-155.691	549.587	0.084	-0.197
-154.677	268.562	-0.026	0.044
-153.662	-200.000	0.003	-0.108
-152.647	-54.887	-0.358	0.159
-151.633	800.000	-0.052	-0.206
-150.618	626.810	0.087	-0.215
-149.604	-187.943	-0.459	0.006
-148.589	800.000	-0.024	0.102
-147.574	369.429	-0.061	-0.122
-146.560	-77.928	-0.260	-0.088
-145.545	123.186	-0.122	0.151
-144.531	-200.000	0.004	0.052
-143.516	73.642	0.237	0.244
-142.502	800.000	-0.043	-0.131
-141.487	300.262	-0.161	0.293
-140.472	-109.735	-0.246	-0.051
-139.458	29.475	-0.195	0.163
-138.443	123.818	-0.197	0.244
-137.429	-200.000	0.002	-0.063
-136.414	147.100	0.210	0.278
-135.399	800.000	-0.042	0.151
-134.385	308.494	0.035	-0.063
-133.370	-116.073	-0.217	-0.040
-132.356	-200.000	0.001	-0.204
-131.341	-200.000	0.036	-0.234
-130.326	-145.411	0.243	-0.021
-129.312	-152.169	-0.177	-0.013
-128.297	140.285	-0.103	0.133
-127.283	578.254	0.135	0.325
-126.268	509.068	-0.128	0.292
-125.253	-71.547	-0.067	-0.024
-124.239	-44.353	0.325	0.160
-123.224	-137.424	-0.169	0.019
-122.210	291.743	0.118	-0.211
-121.195	-44.053	-0.023	-0.011
