DTS Sentinel unit serial number:	SN413079Multiplexer serial number:	ORYXHardware model number:	OX4-SRSoftware version number:	ORYX F/W v4.00 Oryx Data Collector v3.7.2.0data status	okinstallation	princeton_trtdifferential loss correction	single-endedforward channel	channel 1reverse channel	N/Adate	2019/09/12time	20:02:34forward acquisition time	15.00reverse acquisition time	0.00gamma	496.2192k internal	0.2324k external	0.2324temperature offset calibration	1.0142default loss term (dB/km)	0.3790temperature slope calibration	1.0000multiplexer offset coefficient	1.0000multiplexer slope coefficient	1.0000fibre end	0.00T internal ref (°C)	31.75T ext. ref 1 (°C)	3.50T ext. ref 2 (°C)	26.26length (m)	temperature (°C)	Stokes	anti-Stokes-747.200	66.640	0.395	-0.406
-746.185	31.513	-0.162	-0.141
-745.171	799.024	0.228	0.635
-744.156	-128.972	-1.096	0.155
-743.142	800.000	0.008	0.023
-742.127	13.041	-0.550	-0.430
-741.112	-63.984	0.277	-0.114
-740.098	426.212	0.378	0.822
-739.083	-110.894	0.541	-0.112
-738.069	-200.000	-0.046	0.334
-737.054	-111.584	0.194	0.040
-736.039	-157.654	0.429	0.026
-735.025	-53.452	0.689	-0.318
-734.010	800.000	-0.069	0.214
-732.996	-119.928	-1.135	-0.197
-731.981	-56.958	-0.322	0.143
-730.966	91.795	-0.263	0.299
-729.952	-5.958	-0.855	0.590
-728.937	30.312	-0.635	-0.547
-727.923	-42.498	-0.559	-0.288
-726.908	-29.394	0.926	-0.534
-725.894	-48.370	-0.371	0.180
-724.879	-200.000	0.006	-0.286
-723.864	-200.000	0.062	0.755
-722.850	383.638	0.099	0.206
-721.835	-193.343	0.129	-0.001
-720.821	5.213	0.640	-0.476
-719.806	146.576	0.488	-0.661
-718.791	-94.767	1.015	0.278
-717.777	-65.969	-0.501	-0.202
-716.762	201.957	-0.432	-0.672
-715.748	137.965	0.365	0.482
-714.733	51.878	-0.417	-0.400
-713.718	-96.844	0.185	0.049
-712.704	-29.879	-0.738	-0.424
-711.689	359.178	-0.191	-0.386
-710.675	40.062	0.065	0.059
-709.660	-141.351	0.575	-0.059
-708.645	-200.000	0.021	-0.764
-707.631	800.000	0.127	-0.382
-706.616	800.000	0.114	-0.407
-705.602	25.943	-0.328	-0.276
-704.587	-200.000	0.006	-0.083
-703.572	-13.829	0.638	0.416
-702.558	171.960	-0.139	-0.201
-701.543	-48.043	0.469	-0.229
-700.529	-110.948	0.491	-0.102
-699.514	-200.000	-0.056	0.454
-698.499	-200.000	-0.008	0.306
-697.485	800.000	0.224	-0.979
-696.470	-42.337	-0.628	0.323
-695.456	25.672	0.312	-0.262
-694.441	-61.961	-0.037	0.016
-693.426	0.687	0.057	0.041
-692.412	-94.118	1.387	0.383
-691.397	-164.058	0.173	-0.008
-690.383	-60.914	1.044	0.445
-689.368	-110.384	-0.420	-0.088
-688.354	72.501	-0.324	0.340
-687.339	-61.436	0.449	0.190
-686.324	-123.252	-0.710	-0.114
-685.310	-107.783	0.912	0.200
-684.295	180.494	-0.465	0.687
-683.281	-200.000	0.034	-0.192
-682.266	800.000	0.087	0.272
-681.251	-162.119	-1.018	0.051
-680.237	2.255	0.564	-0.411
-679.222	-166.491	0.374	0.016
-678.208	-200.000	-0.064	-0.550
-677.193	-54.622	0.292	-0.133
-676.178	61.402	0.185	-0.185
-675.164	800.000	-0.082	0.241
-674.149	132.803	0.685	0.891
-673.135	-200.000	-0.115	0.525
-672.120	360.365	0.463	0.934
-671.105	248.002	0.128	-0.218
-670.091	800.000	-0.165	0.717
-669.076	-133.454	0.731	-0.092
-668.062	-154.644	0.514	0.034
-667.047	-114.773	0.437	0.084
-666.032	187.533	0.323	0.485
-665.018	-200.000	-0.090	-0.543
-664.003	120.755	0.066	-0.082
-662.989	12.341	0.291	0.226
-661.974	-124.203	0.605	-0.095
-660.959	-94.788	0.281	0.077
-659.945	21.998	0.745	0.612
-658.930	82.477	-0.295	0.322
-657.916	-20.388	-0.672	0.416
-656.901	755.210	-0.071	-0.193
-655.886	33.891	-0.495	0.433
-654.872	-34.689	-0.501	0.276
-653.857	-127.501	-0.429	0.063
-652.843	471.819	0.116	0.262
-651.828	281.323	-0.289	0.521
-650.814	43.932	0.408	0.376
-649.799	-142.754	0.348	0.034
-648.784	234.331	-0.157	0.260
-647.770	-200.000	0.038	0.339
-646.755	-200.000	-0.066	-0.448
-645.741	1.720	-0.344	0.249
-644.726	800.000	-0.126	0.384
-643.711	33.226	-0.415	0.362
-642.697	-39.047	-0.417	-0.221
-641.682	96.619	-0.781	0.899
-640.668	-45.317	-0.197	-0.098
-639.653	-32.890	0.238	0.133
-638.638	-20.390	-0.380	0.235
-637.624	309.583	-0.179	0.336
-636.609	-200.000	0.010	-1.229
-635.595	2.469	0.531	0.387
-634.580	106.891	0.053	0.064
-633.565	-7.640	0.188	-0.127
-632.551	189.216	0.371	0.559
-631.536	-200.000	0.037	-1.216
-630.522	254.487	-0.316	0.543
-629.507	-42.553	-0.329	0.168
-628.492	-200.000	0.051	0.284
-627.478	-74.239	-0.177	-0.064
-626.463	-200.000	-0.096	-0.566
-625.449	-200.000	-0.045	-0.304
-624.434	-37.240	-0.423	-0.228
-623.419	13.143	0.375	0.292
-622.405	140.728	0.365	0.485
-621.390	-3.953	0.479	-0.334
-620.376	-102.281	0.576	0.139
-619.361	48.526	-0.457	0.431
-618.346	-77.656	0.475	0.165
-617.332	-155.090	-1.213	-0.080
-616.317	11.741	1.044	0.805
-615.303	-105.099	0.387	0.089
-614.288	95.146	0.261	-0.298
-613.273	-200.000	-0.011	0.183
-612.259	-105.807	-0.849	0.193
-611.244	-200.000	-0.006	0.689
-610.230	-104.066	-0.527	-0.123
-609.215	2.553	0.980	-0.713
-608.201	42.193	0.155	0.141
-607.186	51.972	0.364	0.348
-606.171	800.000	0.026	0.104
-605.157	-105.090	-0.710	-0.163
-604.142	-200.000	-0.008	-0.050
-603.128	383.878	-0.095	-0.197
-602.113	53.288	0.533	0.513
-601.098	77.831	0.446	-0.477
-600.084	32.308	0.541	-0.469
-599.069	-89.658	-0.204	0.060
-598.055	-115.968	-0.120	-0.023
-597.040	388.446	0.553	-1.148
-596.025	-164.042	-0.065	0.003
-595.011	107.935	-0.539	-0.644
-593.996	-48.633	0.197	-0.095
-592.982	170.780	-0.366	-0.526
-591.967	101.082	0.137	-0.160
-590.952	96.915	0.380	0.437
-589.938	83.010	0.253	0.276
-588.923	-200.000	-0.058	0.565
-587.909	213.569	0.128	-0.203
-586.894	125.747	-0.514	-0.652
-585.879	-200.000	0.048	0.256
-584.865	21.779	-0.502	0.410
-583.850	800.000	-0.038	-0.136
-582.836	-40.475	0.424	-0.221
-581.821	16.988	0.157	0.125
-580.806	41.765	-0.221	-0.201
-579.792	-200.000	-0.108	0.676
-578.777	-200.000	-0.124	-0.783
-577.763	-136.981	0.219	-0.025
-576.748	-110.507	-0.895	-0.186
-575.733	294.023	-0.058	0.107
-574.719	534.395	-0.277	0.658
-573.704	-143.295	0.445	0.043
-572.690	110.077	0.236	-0.284
-571.675	122.954	0.560	-0.703
-570.661	754.224	0.376	-1.021
-569.646	192.830	-0.389	0.589
-568.631	800.000	-0.082	0.302
-567.617	800.000	-0.140	-0.578
-566.602	-43.995	0.283	0.143
-565.588	95.195	-0.270	-0.308
-564.573	221.161	0.171	0.275
-563.558	-50.337	0.639	-0.303
-562.544	800.000	-0.241	-0.929
-561.529	214.653	0.138	-0.219
-560.515	800.000	-0.301	-0.849
-559.500	-74.154	-0.690	-0.250
-558.485	-60.405	-0.670	0.286
-557.471	51.771	0.383	0.365
-556.456	800.000	0.079	-0.228
-555.442	85.947	0.248	0.273
-554.427	800.000	0.078	-0.336
-553.412	346.980	0.232	-0.457
-552.398	-200.000	-0.017	0.439
-551.383	-200.000	0.002	0.474
-550.369	235.319	-0.622	-1.030
-549.354	-104.984	0.262	-0.060
-548.339	620.087	-0.094	0.237
-547.325	-28.472	0.651	0.376
-546.310	-133.427	-0.346	0.044
-545.296	-13.263	-0.199	-0.130
-544.281	-34.217	0.632	-0.348
-543.266	-70.829	1.050	0.397
-542.252	-200.000	-0.058	0.503
-541.237	800.000	-0.308	-0.871
-540.223	161.318	-0.249	0.349
-539.208	94.968	0.572	0.652
-538.193	152.819	0.294	0.403
-537.179	-106.357	-0.699	0.157
-536.164	583.441	0.428	-1.052
-535.150	-200.000	0.142	-1.085
-534.135	-114.865	0.072	0.014
-533.121	119.539	0.279	0.345
-532.106	244.797	0.429	-0.722
-531.091	-36.156	-0.053	0.028
-530.077	800.000	0.071	0.245
-529.062	-120.378	-0.997	0.170
-528.048	-164.113	-0.199	-0.009
-527.033	-74.759	0.923	0.332
-526.018	-200.000	-0.026	0.179
-525.004	11.979	0.145	0.111
-523.989	468.123	0.198	0.446
-522.975	20.707	0.143	-0.116
-521.960	-185.125	-0.167	-0.003
-520.945	-116.173	-0.587	-0.109
-519.931	101.067	-0.121	0.141
-518.916	-8.819	0.433	-0.290
-517.902	800.000	0.086	-0.299
-516.887	121.955	0.700	-0.874
-515.872	800.000	0.201	0.664
-514.858	92.212	0.244	0.275
-513.843	800.000	-0.093	0.280
-512.829	-35.796	-0.725	-0.393
-511.814	-200.000	-0.036	-0.226
-510.799	399.081	-0.192	-0.403
-509.785	659.719	-0.033	-0.085
-508.770	325.788	-0.254	-0.487
-507.756	53.227	-0.450	0.431
-506.741	-200.000	0.012	-0.579
-505.726	-20.720	0.224	-0.138
-504.712	153.210	0.154	0.211
-503.697	201.988	-0.235	0.363
-502.683	-200.000	0.057	0.504
-501.668	345.099	0.428	0.841
-500.653	291.247	-0.334	-0.607
-499.639	-130.749	-0.576	0.077
-498.624	-112.746	0.530	-0.105
-497.610	800.000	0.109	0.460
-496.595	27.936	0.310	0.262
-495.581	204.509	0.341	-0.528
-494.566	50.947	0.405	0.383
-493.551	-42.609	0.366	-0.186
-492.537	133.982	-0.334	-0.432
-491.522	-0.766	-0.999	0.708
-490.508	800.000	-0.132	0.502
-489.493	-65.082	-0.792	0.320
-488.478	74.665	0.433	-0.455
-487.464	-200.000	0.023	-0.422
-486.449	108.839	-0.339	0.405
-485.435	200.384	0.129	-0.198
-484.420	-200.000	0.029	0.309
-483.405	-135.127	0.640	0.077
-482.391	53.002	-0.570	-0.545
-481.376	7.496	-0.593	-0.443
-480.362	41.998	-0.392	-0.355
-479.347	489.165	-0.227	-0.519
-478.332	-200.000	-0.007	0.906
-477.318	106.321	0.317	-0.375
-476.303	504.741	-0.303	-0.702
-475.289	-8.140	-0.404	0.272
-474.274	-200.000	0.026	-0.874
-473.259	800.000	-0.046	-0.174
-472.245	142.579	0.336	0.446
-471.230	-41.369	-0.142	0.073
-470.216	181.751	-0.080	-0.118
-469.201	800.000	-0.052	0.217
-468.186	-200.000	0.008	0.433
-467.172	-200.000	0.065	0.684
-466.157	-200.000	-0.066	0.724
-465.143	723.791	0.237	-0.631
-464.128	-18.948	-1.034	-0.642
-463.113	440.691	0.233	-0.508
-462.099	-200.000	0.043	-0.686
-461.084	800.000	0.153	-0.552
-460.070	-75.607	-0.520	-0.184
-459.055	-36.687	-0.034	-0.018
-458.040	306.208	0.148	0.274
-457.026	-77.365	0.249	-0.086
-456.011	-96.598	-0.409	0.108
-454.997	-150.540	-0.247	0.019
-453.982	-169.262	-0.689	0.025
-452.968	-123.885	0.596	-0.094
-451.953	58.835	-0.623	-0.611
-450.938	499.050	0.188	-0.432
-449.924	-63.265	0.857	-0.352
-448.909	-200.000	-0.002	0.591
-447.895	800.000	0.329	1.057
-446.880	94.770	0.179	0.203
-445.865	-127.302	-0.049	-0.007
-444.851	-25.446	0.903	0.532
-443.836	800.000	-0.068	0.227
-442.822	800.000	-0.215	0.666
-441.807	116.654	0.631	-0.772
-440.792	-200.000	-0.086	0.521
-439.778	-200.000	-0.044	0.352
-438.763	582.729	-0.200	0.491
-437.749	150.263	0.389	-0.527
-436.734	-200.000	0.044	0.469
-435.719	-6.848	-0.271	0.184
-434.705	-65.587	0.242	0.097
-433.690	-200.000	-0.028	-0.329
-432.676	-129.218	0.662	-0.092
-431.661	-129.872	0.711	-0.097
-430.646	-200.000	-0.003	-0.448
-429.632	6.098	-0.309	-0.229
-428.617	-56.057	-0.123	-0.055
-427.603	-94.202	0.487	0.133
-426.588	50.798	-0.266	-0.251
-425.573	-79.041	-0.853	-0.289
-424.559	-10.419	0.109	-0.072
-423.544	-87.034	0.333	-0.101
-422.530	247.647	0.409	0.689
-421.515	-48.195	-0.528	-0.254
-420.500	-9.743	-0.293	0.194
-419.486	-38.891	0.407	0.214
-418.471	121.914	0.401	0.499
-417.457	-27.689	-0.346	0.200
-416.442	-55.498	0.403	0.180
-415.428	82.314	0.417	-0.451
-414.413	159.638	-0.448	0.622
-413.398	800.000	-0.136	-0.426
-412.384	-113.956	-0.771	-0.149
-411.369	800.000	0.192	0.686
-410.355	-200.000	0.067	-0.955
-409.340	73.906	-0.102	0.107
-408.325	-119.128	0.935	-0.163
-407.311	-200.000	0.029	-0.375
-406.296	-58.789	-0.102	-0.044
-405.282	-6.195	0.279	0.190
-404.267	51.816	0.595	0.564
-403.252	-54.713	-0.802	-0.361
-402.238	-200.000	0.078	-0.671
-401.223	-52.738	0.667	0.307
-400.209	-200.000	-0.063	-0.347
-399.194	46.858	-0.441	0.409
-398.179	-200.000	-0.053	0.436
-397.165	9.100	0.839	0.631
-396.150	0.571	0.224	-0.159
-395.136	-200.000	0.128	-0.650
-394.121	-88.557	-0.596	0.177
-393.106	-10.067	-0.867	0.574
-392.092	-200.000	0.050	0.604
-391.077	-200.000	0.094	-0.631
-390.063	-16.802	-0.575	0.362
-389.048	-94.683	1.034	-0.280
-388.033	6.452	-0.363	0.268
-387.019	800.000	0.037	-0.104
-386.004	-72.661	0.504	0.185
-384.990	-26.683	-0.640	0.373
-383.975	800.000	-0.171	-0.613
-382.960	-200.000	0.018	0.901
-381.946	-130.863	-0.709	-0.095
-380.931	144.986	0.330	-0.439
-379.917	206.747	-0.091	0.142
-378.902	-117.363	-1.155	0.208
-377.888	-200.000	0.003	-0.516
-376.873	-200.000	0.068	0.373
-375.858	-200.000	-0.044	0.479
-374.844	-200.000	-0.480	-0.001
-373.829	-200.000	0.013	-0.895
-372.815	-29.626	0.487	0.277
-371.800	-150.654	0.169	0.013
-370.785	-152.564	-0.110	-0.008
-369.771	-11.642	-0.530	-0.347
-368.756	112.066	-0.189	0.227
-367.742	-200.000	0.021	0.252
-366.727	-9.066	-0.245	-0.163
-365.712	202.299	0.208	0.319
-364.698	800.000	-0.140	-0.425
-363.683	-100.456	-0.331	-0.082
-362.669	410.334	0.197	-0.415
-361.654	-28.744	0.445	-0.255
-360.639	630.301	-0.236	-0.593
-359.625	-89.537	-0.378	-0.110
-358.610	495.752	-0.285	0.651
-357.596	-132.687	0.921	0.117
-356.581	288.150	0.329	-0.593
-355.566	17.417	0.352	-0.278
-354.552	800.000	0.152	0.482
-353.537	277.114	0.311	0.550
-352.523	528.407	-0.271	0.635
-351.508	80.847	0.355	-0.381
-350.493	50.079	-0.575	0.540
-349.479	800.000	-0.169	0.734
-348.464	-98.545	-1.000	0.254
-347.450	800.000	-0.087	0.295
-346.435	-29.977	-0.352	0.199
-345.420	-200.000	0.042	-0.421
-344.406	86.602	0.087	-0.095
-343.391	-200.000	0.155	1.230
-342.377	-161.513	-0.147	-0.008
-341.362	-111.453	-0.766	0.155
-340.348	-82.450	0.803	0.259
-339.333	-200.000	0.023	-0.115
-338.318	-200.000	-0.077	-0.502
-337.304	292.731	-0.181	0.328
-336.289	493.877	0.252	-0.575
-335.275	62.465	0.476	0.472
-334.260	93.179	0.610	0.685
-333.245	-54.761	-1.011	0.454
-332.231	-0.840	0.300	0.211
-331.216	-24.092	0.362	0.215
-330.202	-200.000	-0.075	-0.431
-329.187	45.302	-0.135	0.123
-328.172	65.902	-0.536	-0.540
-327.158	-117.334	1.020	-0.184
-326.143	-24.536	0.467	0.276
-325.129	52.548	0.269	-0.256
-324.114	23.778	-0.214	-0.175
-323.099	4.327	0.462	-0.336
-322.085	-130.764	0.306	0.041
-321.070	-108.121	-0.428	0.092
-320.056	-200.000	-0.051	0.676
-319.041	106.479	-0.531	-0.625
-318.026	-200.000	-0.011	0.264
-317.012	-200.000	-0.039	-0.269
-315.997	10.802	0.416	-0.315
-314.983	800.000	-0.134	0.564
-313.968	-121.994	0.624	0.102
-312.953	-5.915	-0.562	0.382
-311.939	-157.039	-0.360	-0.022
-310.924	-143.012	0.459	0.044
-309.910	44.760	0.437	0.399
-308.895	7.182	-0.350	-0.259
-307.880	316.239	-0.141	0.265
-306.866	192.673	0.264	-0.396
-305.851	-38.265	-0.401	0.211
-304.837	-73.007	-0.720	0.262
-303.822	68.336	0.289	0.294
-302.807	-200.000	-0.153	-0.871
-301.793	278.373	0.276	-0.488
-300.778	-200.000	-0.095	-0.810
-299.764	-200.000	0.017	0.713
-298.749	-28.922	-0.622	0.355
-297.735	264.232	0.219	-0.378
-296.720	213.060	0.276	-0.432
-295.705	8.458	0.331	0.247
-294.691	800.000	0.160	0.659
-293.676	-200.000	0.005	0.186
-292.662	122.230	0.374	0.463
-291.647	428.612	0.253	0.542
-290.632	-66.242	0.735	0.290
-289.618	343.388	0.104	0.203
-288.603	-120.067	0.146	-0.025
-287.589	-200.000	0.070	-0.625
-286.574	-95.180	1.148	0.307
-285.559	-84.706	-0.527	0.165
-284.545	91.200	0.184	0.205
-283.530	106.903	0.342	-0.402
-282.516	1.798	0.384	-0.275
-281.501	-200.000	-0.013	-0.432
-280.486	152.362	0.111	-0.150
-279.472	-80.322	-0.286	-0.095
-278.457	-85.126	0.327	-0.102
-277.443	800.000	0.162	-0.462
-276.428	-45.864	-0.697	-0.341
-275.413	-70.881	-0.433	-0.162
-274.399	-157.831	0.458	0.027
-273.384	74.251	-0.385	0.401
-272.370	-34.706	-0.717	-0.389
-271.355	319.009	0.358	-0.673
-270.340	19.816	-0.261	-0.208
-269.326	78.917	0.596	-0.632
-268.311	149.140	0.282	-0.378
-267.297	-17.180	0.312	0.195
-266.282	-45.183	-0.179	0.088
-265.267	-169.655	-0.408	-0.015
-264.253	-200.000	0.005	-0.037
-263.238	800.000	0.068	-0.199
-262.224	-200.000	0.005	-0.123
-261.209	402.094	-0.100	-0.208
-260.195	-74.061	0.450	-0.161
-259.180	326.966	-0.161	0.305
-258.165	13.647	0.129	-0.099
-257.151	-23.895	0.461	0.273
-256.136	-37.857	-1.215	0.640
-255.122	-66.619	0.234	0.092
-254.107	-98.529	-0.268	-0.068
-253.092	332.258	0.210	0.401
-252.078	-24.675	0.389	-0.229
-251.063	47.543	0.204	0.188
-250.049	-200.000	0.092	-0.681
-249.034	-32.903	0.362	-0.199
-248.019	386.466	-0.251	-0.512
-247.005	161.448	-0.271	-0.375
-245.990	-42.600	0.431	-0.217
-244.976	-24.407	-0.316	0.187
-243.961	130.328	-0.183	0.232
-242.946	292.946	0.278	-0.501
-241.932	-44.937	0.413	-0.203
-240.917	-94.246	-0.547	-0.148
-239.903	142.522	-0.491	-0.645
-238.888	515.404	-0.106	-0.246
-237.873	-152.400	-0.607	-0.043
-236.859	-200.000	-0.039	-0.806
-235.844	-89.954	0.703	0.203
-234.830	-10.818	-0.715	-0.468
-233.815	162.644	0.376	-0.523
-232.800	-200.000	-0.019	-0.483
-231.786	-200.000	-0.039	-0.197
-230.771	221.615	0.011	0.018
-229.757	392.761	0.150	0.308
-228.742	133.680	0.293	-0.375
-227.727	356.903	0.349	0.689
-226.713	-54.229	0.643	0.289
-225.698	38.840	0.433	-0.382
-224.684	800.000	0.055	-0.164
-223.669	-34.902	0.980	-0.529
-222.655	-25.443	-0.490	0.286
-221.640	-106.604	-0.810	0.178
-220.625	-28.124	0.589	0.337
-219.611	-44.287	0.266	0.132
-218.596	800.000	0.080	-0.344
-217.582	-33.665	-0.181	0.099
-216.567	-35.492	0.922	-0.495
-215.552	-112.055	0.265	-0.053
-214.538	-82.717	-0.263	0.084
-213.523	800.000	0.014	0.050
-212.509	409.804	-0.746	1.564
-211.494	49.789	0.411	0.383
-210.479	-200.000	0.002	0.656
-209.465	115.571	-0.487	0.589
-208.450	680.648	-0.150	-0.387
-207.436	78.985	0.792	0.839
-206.421	-200.000	-0.064	0.368
-205.406	-110.049	0.442	-0.091
-204.392	-27.764	-0.107	-0.061
-203.377	-78.087	-1.107	-0.377
-202.363	60.170	0.713	-0.697
-201.348	186.933	-0.437	-0.644
-200.333	-80.310	-0.355	0.117
-199.319	-110.433	0.600	0.123
-198.304	50.814	0.317	-0.297
-197.290	261.579	-0.323	-0.552
-196.275	800.000	-0.081	0.344
-195.260	-83.624	0.050	0.016
-194.246	-179.522	-0.413	0.009
-193.231	-53.964	0.748	-0.336
-192.217	33.640	-0.561	0.482
-191.202	75.935	0.300	0.313
-190.187	-200.000	0.065	0.496
-189.173	131.946	-0.442	0.563
-188.158	800.000	-0.167	0.520
-187.144	800.000	-0.021	-0.063
-186.129	-160.803	-0.930	-0.049
-185.114	-200.000	0.013	-0.134
-184.100	-40.005	-0.314	0.162
-183.085	480.945	-0.108	-0.243
-182.071	426.435	0.207	0.441
-181.056	-116.302	0.416	-0.076
-180.042	-84.471	-0.387	0.121
-179.027	800.000	-0.233	-0.785
-178.012	-73.248	-0.512	0.185
-176.998	-20.156	-0.423	0.257
-175.983	-39.906	-0.087	0.045
-174.969	-149.074	-0.293	0.023
-173.954	-33.916	-0.700	-0.380
-172.939	149.382	-0.713	0.954
-171.925	-35.098	-0.347	-0.187
-170.910	800.000	0.130	-0.428
-169.896	-200.000	0.034	0.893
-168.881	-165.615	-0.685	-0.029
-167.866	-41.215	-0.628	-0.320
-166.852	151.443	-0.322	0.433
-165.837	14.530	-0.310	0.239
-164.823	-142.955	0.209	0.020
-163.808	-26.858	-0.239	-0.138
-162.793	8.805	0.417	0.311
-161.779	-98.585	0.480	0.121
-160.764	16.879	-0.804	0.628
-159.750	-0.101	-0.390	0.274
-158.735	-80.933	0.753	0.246
-157.720	-2.668	0.516	0.356
-156.706	455.834	-0.102	0.223
-155.691	-200.000	0.040	-0.444
-154.677	-200.000	0.032	0.349
-153.662	-48.663	0.922	0.437
-152.647	118.357	0.232	-0.283
-151.633	52.351	-0.674	-0.634
-150.618	-200.000	0.044	0.263
-149.604	133.479	0.286	0.364
-148.589	-32.861	0.631	0.346
-147.574	95.596	0.412	0.464
-146.560	-75.826	0.461	-0.161
-145.545	-200.000	0.078	-0.548
-144.531	452.790	-0.079	0.172
-143.516	-97.867	0.535	0.136
-142.502	-195.957	-0.407	-0.003
-141.487	800.000	0.158	0.679
-140.472	367.345	0.440	0.877
-139.458	110.842	-0.469	-0.556
-138.443	-200.000	-0.058	-0.463
-137.429	368.154	0.091	0.182
-136.414	-200.000	0.286	0.000
-135.399	541.775	-0.138	0.324
-134.385	-125.113	-0.271	0.041
-133.370	11.085	-0.520	0.392
-132.356	178.154	0.199	-0.286
-131.341	-200.000	0.031	-0.558
-130.326	-200.000	0.128	-0.615
-129.312	349.015	-0.139	-0.270
-128.297	130.313	-0.508	-0.641
-127.283	291.240	0.440	-0.789
-126.268	565.511	0.297	-0.710
-125.253	129.513	-0.325	-0.410
-124.239	37.259	0.219	-0.191
-123.224	-32.029	0.616	-0.340
-122.210	-172.975	-0.325	0.010
-121.195	-58.012	-0.416	0.179
-120.180	25.075	0.358	0.292
-119.166	25.942	-0.192	0.158
