DTS Sentinel unit serial number:	SN413079Multiplexer serial number:	ORYXHardware model number:	OX4-SRSoftware version number:	ORYX F/W v4.00 Oryx Data Collector v3.7.2.0data status	okinstallation	princeton_trtdifferential loss correction	single-endedforward channel	channel 1reverse channel	N/Adate	2019/09/12time	22:18:35forward acquisition time	60.00reverse acquisition time	0.00gamma	496.2192k internal	0.2326k external	0.2326temperature offset calibration	1.0152default loss term (dB/km)	0.3790temperature slope calibration	1.0000multiplexer offset coefficient	1.0000multiplexer slope coefficient	1.0000fibre end	0.00T internal ref (°C)	29.81T ext. ref 1 (°C)	3.73T ext. ref 2 (°C)	24.41length (m)	temperature (°C)	Stokes	anti-Stokes-747.200	-58.806	-0.171	-0.075
-746.185	356.961	-0.109	0.219
-745.171	129.965	-0.125	0.161
-744.156	279.448	0.090	-0.162
-743.142	800.000	-0.100	-0.324
-742.127	-97.671	-0.069	0.018
-741.112	-33.100	-0.345	-0.193
-740.098	237.904	-0.167	0.280
-739.083	69.766	0.097	-0.101
-738.069	354.715	0.159	0.319
-737.054	-200.000	-0.010	-0.145
-736.039	-55.964	-0.315	0.142
-735.025	473.005	0.108	0.246
-734.010	495.676	-0.183	0.424
-732.996	-97.198	-0.165	-0.043
-731.981	-91.420	-0.422	-0.121
-730.966	-200.000	-0.042	0.357
-729.952	-23.801	-0.120	0.072
-728.937	-124.016	-0.176	0.028
-727.923	-50.425	0.143	-0.068
-726.908	-110.469	0.008	-0.002
-725.894	-105.998	-0.258	0.059
-724.879	-42.535	0.308	-0.158
-723.864	-138.583	-0.429	0.047
-722.850	17.042	0.100	-0.080
-721.835	218.316	-0.074	0.119
-720.821	-200.000	-0.003	0.384
-719.806	-116.662	-0.388	0.072
-718.791	-200.000	0.094	-0.561
-717.777	-122.379	0.341	-0.056
-716.762	-108.712	-0.175	0.038
-715.748	102.635	0.052	-0.061
-714.733	800.000	0.100	-0.297
-713.718	149.469	-0.265	-0.361
-712.704	-200.000	-0.007	-0.131
-711.689	-147.863	-0.191	0.016
-710.675	800.000	-0.029	0.108
-709.660	29.734	-0.186	-0.160
-708.645	50.004	-0.265	-0.252
-707.631	-200.000	-0.044	0.211
-706.616	-67.788	0.189	0.075
-705.602	70.610	-0.047	-0.049
-704.587	-200.000	0.022	-0.272
-703.572	171.543	-0.143	0.206
-702.558	-200.000	0.045	0.291
-701.543	303.758	-0.059	0.111
-700.529	35.601	-0.140	-0.124
-699.514	-70.628	0.456	-0.174
-698.499	-200.000	-0.050	-0.349
-697.485	209.290	0.169	-0.266
-696.470	-200.000	-0.004	-0.109
-695.456	-12.076	-0.138	0.091
-694.441	60.534	-0.038	0.038
-693.426	56.423	-0.247	-0.242
-692.412	-200.000	0.018	0.097
-691.397	185.681	0.134	0.200
-690.383	-78.185	0.291	0.101
-689.368	56.893	0.398	-0.390
-688.354	-9.041	-0.149	-0.101
-687.339	-45.122	0.311	-0.156
-686.324	371.297	-0.141	0.288
-685.310	800.000	-0.038	0.121
-684.295	-153.197	-0.424	0.030
-683.281	-153.257	-0.222	-0.016
-682.266	-9.434	0.087	-0.058
-681.251	237.382	-0.145	-0.243
-680.237	-89.537	-0.163	0.048
-679.222	800.000	-0.009	-0.028
-678.208	296.456	0.250	0.461
-677.193	-138.642	-0.125	-0.014
-676.178	9.892	-0.107	-0.082
-675.164	96.087	-0.160	0.184
-674.149	212.869	0.064	-0.102
-673.135	119.856	0.174	0.217
-672.120	-134.606	0.156	-0.019
-671.105	43.381	-0.054	0.050
-670.091	-200.000	0.024	-0.140
-669.076	-144.842	-0.145	0.013
-668.062	77.937	0.188	0.201
-667.047	47.891	-0.162	0.152
-666.032	-200.000	0.021	-0.169
-665.018	-101.847	0.120	-0.029
-664.003	-141.782	-0.221	-0.022
-662.989	189.661	0.017	-0.026
-661.974	-200.000	-0.009	-0.098
-660.959	700.507	0.120	-0.318
-659.945	-200.000	0.004	-0.095
-658.930	800.000	0.116	-0.381
-657.916	-10.421	-0.050	0.033
-656.901	-121.568	0.164	-0.027
-655.886	16.170	-0.215	-0.171
-654.872	-81.248	0.425	0.141
-653.857	-49.369	-0.347	-0.167
-652.843	-32.688	-0.206	-0.115
-651.828	21.743	0.216	0.177
-650.814	-131.354	0.436	-0.058
-649.799	280.825	0.147	-0.264
-648.784	-42.415	0.113	0.058
-647.770	2.971	0.190	-0.139
-646.755	-200.000	0.001	0.082
-645.741	128.333	-0.118	0.151
-644.726	29.961	0.064	0.055
-643.711	-200.000	0.074	0.367
-642.697	-27.586	0.152	0.089
-641.682	-200.000	0.010	0.116
-640.668	-200.000	-0.029	0.150
-639.653	-200.000	-0.051	0.227
-638.638	-200.000	-0.023	0.303
-637.624	45.551	0.221	-0.205
-636.609	107.868	-0.148	-0.177
-635.595	-200.000	-0.001	-0.076
-634.580	-17.856	0.162	0.102
-633.565	47.104	-0.097	0.090
-632.551	30.072	0.144	-0.124
-631.536	153.535	0.168	-0.231
-630.522	-200.000	0.041	-0.243
-629.507	-200.000	0.004	0.067
-628.492	6.265	-0.229	-0.170
-627.478	-106.052	0.318	-0.072
-626.463	4.959	-0.118	0.087
-625.449	-92.755	-0.125	0.035
-624.434	800.000	0.100	-0.313
-623.419	-34.359	0.044	-0.024
-622.405	-66.679	-0.116	-0.046
-621.390	569.409	-0.077	-0.188
-620.376	47.144	-0.223	-0.208
-619.361	60.695	0.136	0.136
-618.346	179.062	0.065	-0.095
-617.332	-52.346	-0.266	0.124
-616.317	583.084	-0.076	0.188
-615.303	-16.943	-0.198	0.126
-614.288	156.919	-0.040	0.056
-613.273	-15.220	-0.012	-0.008
-612.259	132.589	0.067	-0.087
-611.244	-113.507	-0.234	-0.046
-610.230	-179.429	-0.194	-0.004
-609.215	211.901	-0.012	-0.019
-608.201	454.526	-0.106	0.236
-607.186	-200.000	-0.020	-0.122
-606.171	-90.746	0.215	-0.062
-605.157	-190.645	-0.250	0.003
-604.142	800.000	-0.031	-0.099
-603.128	315.214	-0.121	0.228
-602.113	-200.000	-0.012	0.290
-601.098	800.000	0.035	-0.109
-600.084	9.836	0.204	0.155
-599.069	-200.000	0.033	0.177
-598.055	-136.699	-0.089	0.010
-597.040	30.267	0.275	-0.235
-596.025	36.270	-0.356	0.314
-595.011	-103.031	-0.071	0.017
-593.996	800.000	0.053	-0.223
-592.982	-200.000	0.004	-0.143
-591.967	-47.815	0.145	0.070
-590.952	-120.127	-0.164	-0.028
-589.938	-200.000	0.009	-0.287
-588.923	-23.891	-0.104	-0.062
-587.909	180.276	-0.131	0.193
-586.894	-79.124	0.294	-0.100
-585.879	-200.000	-0.007	-0.089
-584.865	-129.598	-0.310	0.043
-583.850	145.467	-0.106	0.142
-582.836	575.367	-0.129	-0.316
-581.821	-200.000	-0.030	-0.225
-580.806	80.357	0.055	0.059
-579.792	-13.337	0.262	0.170
-578.777	-107.443	0.109	-0.024
-577.763	-200.000	0.023	-0.144
-576.748	-66.810	-0.181	-0.072
-575.733	-200.000	0.009	0.106
-574.719	411.053	0.077	0.164
-573.704	-200.000	0.034	0.328
-572.690	-122.829	0.149	-0.024
-571.675	202.261	0.067	-0.103
-570.661	-200.000	0.007	0.102
-569.646	-200.000	-0.005	0.215
-568.631	300.649	-0.041	0.075
-567.617	780.521	-0.062	-0.170
-566.602	-52.995	-0.174	-0.080
-565.588	-146.169	0.074	-0.007
-564.573	488.527	-0.111	0.253
-563.558	46.150	0.387	0.359
-562.544	221.258	0.069	0.112
-561.529	209.084	-0.092	0.145
-560.515	-200.000	0.378	-0.000
-559.500	-200.000	0.027	-0.282
-558.485	-118.196	0.222	-0.040
-557.471	-149.257	-0.082	0.007
-556.456	83.999	-0.156	-0.171
-555.442	-200.000	-0.015	-0.325
-554.427	-200.000	-0.019	0.094
-553.412	800.000	0.049	0.144
-552.398	-105.189	0.250	-0.057
-551.383	800.000	-0.037	-0.154
-550.369	800.000	0.100	-0.341
-549.354	800.000	0.036	0.142
-548.339	215.710	-0.116	0.185
-547.325	-82.975	0.199	-0.064
-546.310	-111.387	-0.188	-0.038
-545.296	-112.471	-0.308	-0.062
-544.281	629.611	-0.167	-0.422
-543.266	-200.000	-0.005	-0.209
-542.252	-32.545	-0.480	0.268
-541.237	-200.000	0.008	0.138
-540.223	-30.194	0.197	-0.112
-539.208	57.882	-0.276	-0.270
-538.193	748.661	0.101	-0.273
-537.179	-52.168	0.105	-0.049
-536.164	276.695	0.085	-0.151
-535.150	-69.567	-0.226	0.087
-534.135	518.172	0.079	-0.185
-533.121	-180.612	0.295	-0.006
-532.106	-137.272	-0.110	-0.012
-531.091	76.003	0.302	0.320
-530.077	-93.410	0.244	-0.068
-529.062	-62.241	-0.081	-0.034
-528.048	176.137	-0.122	-0.177
-527.033	49.989	-0.412	-0.388
-526.018	784.410	0.017	0.046
-525.004	-151.223	-0.508	-0.038
-523.989	-106.755	0.273	-0.061
-522.975	310.240	-0.150	0.281
-521.960	-86.484	-0.476	-0.146
-520.945	289.284	-0.174	-0.316
-519.931	-200.000	0.006	-0.352
-518.916	104.286	0.150	0.176
-517.902	264.034	-0.194	-0.337
-516.887	-85.990	0.022	-0.007
-515.872	-94.269	0.080	-0.022
-514.858	-116.162	-0.218	-0.041
-513.843	-200.000	0.007	0.153
-512.829	106.428	0.131	-0.156
-511.814	-80.299	0.232	-0.077
-510.799	233.283	0.096	0.158
-509.785	-137.264	-0.166	0.019
-508.770	22.368	-0.182	-0.149
-507.756	-102.064	0.155	-0.037
-506.741	-200.000	-0.018	-0.241
-505.726	-137.026	0.113	0.013
-504.712	534.898	-0.017	-0.041
-503.697	-200.000	-0.078	0.458
-502.683	-71.180	-0.218	-0.082
-501.668	4.298	0.450	-0.329
-500.653	800.000	0.063	0.255
-499.639	-130.933	-0.252	0.034
-498.624	67.292	-0.114	0.116
-497.610	-200.000	-0.005	-0.201
-496.595	-200.000	-0.010	0.071
-495.581	621.621	-0.110	0.277
-494.566	-200.000	-0.029	0.441
-493.551	277.388	-0.125	0.223
-492.537	15.099	0.074	-0.058
-491.522	-14.960	-0.144	-0.092
-490.508	247.027	-0.095	-0.160
-489.493	-200.000	-0.088	0.414
-488.478	23.758	0.174	0.143
-487.464	-126.054	0.185	0.028
-486.449	800.000	0.022	-0.067
-485.435	37.784	0.152	-0.135
-484.420	437.854	0.068	0.147
-483.405	400.253	-0.057	-0.120
-482.391	-33.857	0.258	-0.142
-481.376	800.000	-0.054	-0.177
-480.362	-27.979	-0.216	0.125
-479.347	800.000	0.063	0.251
-478.332	-58.485	-0.340	0.147
-477.318	800.000	0.109	-0.301
-476.303	-52.421	-0.186	-0.086
-475.289	-20.964	0.123	-0.075
-474.274	-166.932	0.131	0.005
-473.259	800.000	0.028	0.095
-472.245	297.558	0.072	0.132
-471.230	-84.894	-0.225	-0.071
-470.216	-200.000	-0.057	0.318
-469.201	-200.000	-0.020	0.243
-468.186	800.000	0.071	0.208
-467.172	-125.913	0.105	0.016
-466.157	84.670	0.259	-0.282
-465.143	-17.182	-0.132	0.083
-464.128	178.745	0.204	-0.297
-463.113	-200.000	0.107	-0.612
-462.099	36.709	0.206	0.182
-461.084	12.875	-0.139	-0.107
-460.070	45.244	-0.175	-0.161
-459.055	63.534	-0.206	0.207
-458.040	-145.491	0.138	0.012
-457.026	-78.615	-0.227	-0.077
-456.011	-113.180	-0.080	-0.016
-454.997	-200.000	0.035	0.197
-453.982	99.978	0.078	0.090
-452.968	9.692	-0.190	-0.143
-451.953	-200.000	-0.005	-0.075
-450.938	3.391	-0.086	0.063
-449.924	-31.316	-0.049	0.028
-448.909	800.000	-0.033	0.104
-447.895	-145.561	-0.111	-0.010
-446.880	248.650	0.036	0.060
-445.865	800.000	0.039	0.130
-444.851	800.000	0.070	-0.288
-443.836	415.149	-0.135	-0.287
-442.822	-128.909	-0.124	-0.017
-441.807	63.024	0.250	-0.249
-440.792	-86.436	0.318	0.097
-439.778	800.000	0.027	-0.078
-438.763	-43.375	0.192	-0.097
-437.749	485.387	-0.039	-0.089
-436.734	158.964	-0.140	-0.193
-435.719	-200.000	0.007	-0.246
-434.705	-113.218	0.111	0.022
-433.690	46.110	-0.189	0.174
-432.676	150.360	-0.093	-0.125
-431.661	-200.000	0.008	-0.037
-430.646	-59.811	-0.068	0.029
-429.632	-149.104	-0.223	0.018
-428.617	-72.507	-0.299	-0.110
-427.603	-20.962	-0.256	0.156
-426.588	80.502	-0.079	-0.085
-425.573	-200.000	0.023	0.111
-424.559	-93.424	0.233	0.064
-423.544	-99.647	-0.148	-0.037
-422.530	-150.898	0.091	0.007
-421.515	-200.000	0.007	-0.178
-420.500	-9.626	0.196	-0.130
-419.486	800.000	-0.060	0.211
-418.471	16.367	-0.191	0.150
-417.457	-152.307	0.312	-0.022
-416.442	16.503	-0.457	-0.359
-415.428	431.241	0.161	-0.348
-414.413	49.915	0.117	0.109
-413.398	-200.000	-0.023	-0.152
-412.384	157.397	0.217	-0.299
-411.369	-53.409	-0.157	0.072
-410.355	751.714	-0.133	0.357
-409.340	325.516	-0.046	-0.087
-408.325	800.000	0.102	-0.345
-407.311	-74.061	0.361	-0.130
-406.296	30.557	0.375	-0.319
-405.282	-172.427	0.178	-0.006
-404.267	120.942	0.039	-0.049
-403.252	177.679	0.349	-0.506
-402.238	412.101	-0.107	-0.227
-401.223	-200.000	-0.062	-0.412
-400.209	104.976	-0.306	-0.359
-399.194	122.752	0.271	-0.338
-398.179	-127.975	0.146	-0.021
-397.165	800.000	0.087	0.275
-396.150	-67.419	-0.101	-0.039
-395.136	-134.282	0.283	0.035
-394.121	-200.000	0.023	0.299
-393.106	-60.550	-0.204	0.086
-392.092	217.948	-0.125	0.198
-391.077	-7.252	0.097	-0.066
-390.063	345.013	0.013	-0.026
-389.048	-77.876	-0.273	0.094
-388.033	800.000	0.071	-0.197
-387.019	590.710	-0.124	-0.304
-386.004	-200.000	-0.021	0.154
-384.990	-200.000	0.063	-0.305
-383.975	49.970	0.394	-0.369
-382.960	-48.470	0.120	-0.058
-381.946	-131.445	0.214	0.028
-380.931	800.000	0.075	-0.266
-379.917	-58.273	0.057	-0.024
-378.902	591.763	0.101	0.248
-377.888	-200.000	0.007	0.257
-376.873	9.989	0.228	-0.172
-375.858	-186.722	0.224	0.003
-374.844	-104.082	-0.194	-0.045
-373.829	-103.843	-0.266	0.062
-372.815	800.000	-0.046	-0.139
-371.800	-200.000	-0.025	-0.211
-370.785	-102.572	0.198	-0.047
-369.771	-39.053	0.123	-0.064
-368.756	-200.000	0.053	-0.265
-367.742	-65.218	0.111	0.044
-366.727	59.034	-0.224	-0.219
-365.712	-44.674	-0.111	0.055
-364.698	-112.517	-0.117	0.023
-363.683	800.000	0.037	-0.146
-362.669	-200.000	0.055	-0.337
-361.654	168.217	0.194	0.274
-360.639	58.518	0.084	0.082
-359.625	-73.651	0.117	-0.042
-358.610	-106.924	-0.021	-0.005
-357.596	-84.891	-0.144	-0.045
-356.581	-200.000	-0.007	0.291
-355.566	18.086	0.018	-0.014
-354.552	-200.000	-0.011	0.214
-353.537	-71.049	0.055	0.020
-352.523	-200.000	-0.024	0.152
-351.508	-200.000	-0.005	0.049
-350.493	-200.000	0.033	0.364
-349.479	5.200	0.103	-0.075
-348.464	-118.769	-0.440	0.077
-347.450	-31.992	-0.088	0.049
-346.435	286.604	0.114	-0.204
-345.420	157.518	-0.204	0.281
-344.406	-158.732	-0.323	-0.018
-343.391	-200.000	0.042	-0.207
-342.377	-200.000	-0.010	0.055
-341.362	-95.823	-0.212	0.056
-340.348	-193.479	-0.222	-0.002
-339.333	19.344	-0.057	0.045
-338.318	800.000	-0.075	-0.219
-337.304	-4.741	0.190	0.130
-336.289	28.172	-0.195	0.163
-335.275	-25.218	-0.066	-0.039
-334.260	43.495	0.082	0.074
-333.245	57.136	0.134	0.130
-332.231	800.000	0.044	0.142
-331.216	800.000	0.039	0.125
-330.202	642.749	-0.183	0.463
-329.187	800.000	-0.015	-0.046
-328.172	800.000	0.030	0.122
-327.158	800.000	-0.075	0.210
-326.143	-25.924	-0.047	-0.027
-325.129	-46.235	0.340	0.166
-324.114	401.460	-0.028	0.059
-323.099	15.323	0.182	0.142
-322.085	-21.196	-0.114	0.069
-321.070	-20.858	-0.270	0.164
-320.056	154.203	-0.124	-0.168
-319.041	9.184	0.056	0.042
-318.026	15.654	0.060	0.047
-317.012	800.000	0.026	-0.083
-315.997	800.000	0.081	0.352
-314.983	800.000	0.087	-0.349
-313.968	-200.000	-0.016	0.200
-312.953	-200.000	-0.016	0.335
-311.939	-200.000	0.015	-0.193
-310.924	-122.182	-0.026	-0.004
-309.910	-200.000	0.030	0.298
-308.895	-86.159	0.112	-0.034
-307.880	-67.968	0.237	0.092
-306.866	-200.000	-0.032	0.417
-305.851	107.525	0.084	0.099
-304.837	800.000	0.027	0.107
-303.822	-200.000	0.019	-0.324
-302.807	-123.101	-0.061	-0.010
-301.793	58.635	0.025	-0.024
-300.778	594.395	0.024	-0.058
-299.764	74.950	0.110	-0.115
-298.749	483.205	-0.072	-0.161
-297.735	89.319	-0.213	-0.236
-296.720	-22.165	-0.182	-0.109
-295.705	-30.930	0.175	-0.098
-294.691	-200.000	-0.033	-0.329
-293.676	393.227	0.011	0.023
-292.662	-200.000	-0.015	-0.301
-291.647	-85.685	-0.201	-0.062
-290.632	564.606	0.148	0.356
-289.618	15.135	0.094	0.073
-288.603	52.024	-0.250	0.236
-287.589	359.448	0.034	0.068
-286.574	-121.690	-0.274	0.045
-285.559	-83.508	-0.262	0.083
-284.545	-173.426	0.353	0.011
-283.530	800.000	0.072	-0.218
-282.516	132.494	0.161	-0.206
-281.501	251.098	-0.171	0.288
-280.486	-63.096	-0.260	-0.106
-279.472	75.560	-0.127	-0.133
-278.457	2.262	0.269	0.193
-277.443	345.260	-0.073	0.143
-276.428	-200.000	0.036	0.401
-275.413	-165.173	-0.326	0.014
-274.399	574.729	0.071	-0.170
-273.384	102.134	0.152	0.176
-272.370	385.198	0.201	0.410
-271.355	38.301	-0.062	0.055
-270.340	16.591	0.189	0.148
-269.326	-144.522	-0.085	0.008
-268.311	-46.058	-0.299	-0.146
-267.297	62.476	0.226	0.224
-266.282	-149.908	-0.480	0.037
-265.267	-22.712	0.186	0.111
-264.253	-137.131	-0.229	-0.026
-263.238	41.117	0.076	-0.068
-262.224	-200.000	-0.015	0.206
-261.209	-95.990	0.056	0.015
-260.195	-130.524	-0.248	0.033
-259.180	-199.221	-0.418	-0.002
-258.165	240.788	-0.098	0.162
-257.151	-26.466	0.026	-0.015
-256.136	267.958	0.069	0.119
-255.122	-66.081	-0.198	0.078
-254.107	-137.536	0.058	-0.007
-253.092	-79.373	0.205	-0.069
-252.078	-28.585	-0.060	-0.034
-251.063	-200.000	-0.011	-0.178
-250.049	-108.357	0.587	-0.125
-249.034	61.607	-0.084	-0.083
-248.019	-200.000	0.284	0.001
-247.005	-152.414	-0.269	-0.019
-245.990	376.726	-0.061	-0.124
-244.976	-200.000	0.032	-0.149
-243.961	760.416	-0.104	0.278
-242.946	458.497	0.041	0.090
-241.932	-200.000	0.007	0.039
-240.917	10.214	0.275	0.207
-239.903	87.509	-0.132	-0.144
-238.888	130.496	-0.118	0.149
-237.873	28.718	-0.131	0.110
-236.859	149.819	-0.142	0.190
-235.844	-111.154	-0.080	0.016
-234.830	-136.912	-0.070	0.008
-233.815	135.790	0.192	0.247
-232.800	-28.686	0.148	-0.084
-231.786	364.242	-0.035	0.069
-230.771	-138.079	-0.223	0.025
-229.757	447.771	-0.152	-0.331
-228.742	800.000	0.097	-0.270
-227.727	-200.000	-0.001	0.041
-226.713	-200.000	0.003	0.420
-225.698	469.064	0.075	0.167
-224.684	800.000	0.073	0.266
-223.669	-200.000	-0.031	0.234
-222.655	346.052	0.162	0.314
-221.640	800.000	0.104	0.292
-220.625	-126.500	0.074	0.011
-219.611	28.255	0.137	-0.115
-218.596	-111.208	-0.132	-0.027
-217.582	140.721	-0.041	0.053
-216.567	733.384	0.090	-0.239
-215.552	-112.382	-0.194	-0.038
-214.538	2.521	0.274	-0.196
-213.523	46.768	-0.272	-0.250
-212.509	-108.582	-0.135	-0.029
-211.494	-72.904	0.104	0.038
-210.479	800.000	0.056	-0.198
-209.465	230.231	0.216	-0.349
-208.450	59.991	0.214	0.209
-207.436	-200.000	-0.102	0.501
-206.421	-200.000	0.002	0.189
-205.406	3.964	-0.263	0.190
-204.392	-79.872	0.285	0.095
-203.377	-200.000	-0.017	0.270
-202.363	-89.266	-0.058	0.017
-201.348	800.000	-0.022	-0.067
-200.333	217.127	0.134	-0.210
-199.319	103.867	-0.091	0.106
-198.304	-28.879	0.295	0.167
-197.290	-77.662	0.360	-0.123
-196.275	-200.000	0.023	0.208
-195.260	-110.214	0.203	-0.042
-194.246	-200.000	-0.084	-0.407
-193.231	-143.890	-0.195	-0.018
-192.217	701.206	0.083	0.215
-191.202	24.567	0.043	-0.035
-190.187	-88.479	0.218	-0.064
-189.173	-200.000	0.110	0.512
-188.158	-28.085	0.226	0.129
-187.144	229.985	-0.112	-0.180
-186.129	-81.536	0.216	-0.070
-185.114	-72.215	0.298	-0.109
-184.100	453.175	0.127	0.277
-183.085	-200.000	-0.019	-0.102
-182.071	-128.183	-0.051	0.007
-181.056	-200.000	0.094	0.469
-180.042	37.305	-0.207	-0.181
-179.027	-114.387	-0.147	-0.028
-178.012	216.255	-0.089	0.139
-176.998	39.605	-0.117	-0.103
-175.983	-141.269	-0.043	0.004
-174.969	800.000	-0.080	-0.226
-173.954	79.561	0.419	-0.444
-172.939	-72.701	0.379	-0.138
-171.925	722.734	-0.107	0.280
-170.910	208.007	0.079	0.121
-169.896	-86.180	0.162	0.049
-168.881	-200.000	-0.025	0.142
-167.866	-111.252	-0.118	0.024
-166.852	-200.000	-0.000	-0.426
-165.837	-60.800	-0.088	0.037
-164.823	77.573	-0.120	-0.126
-163.808	-82.947	0.270	-0.086
-162.793	391.249	-0.112	0.229
-161.779	-33.257	0.083	-0.045
-160.764	-200.000	0.042	0.289
-159.750	105.625	-0.017	-0.020
-158.735	378.634	-0.090	0.181
-157.720	-184.590	-0.278	-0.004
-156.706	22.578	-0.127	-0.103
-155.691	192.579	0.197	-0.294
-154.677	469.842	0.146	0.322
-153.662	120.182	-0.132	0.162
-152.647	-3.585	-0.048	-0.033
-151.633	-119.112	-0.054	-0.009
-150.618	-200.000	0.056	0.351
-149.604	676.028	-0.018	-0.045
-148.589	-200.000	-0.027	0.117
-147.574	-96.384	-0.133	0.035
-146.560	14.890	0.120	-0.092
-145.545	-95.128	-0.268	0.071
-144.531	169.614	0.062	0.087
-143.516	-128.171	0.208	0.029
-142.502	123.931	0.062	-0.077
-141.487	10.117	-0.239	-0.179
-140.472	263.768	0.166	0.284
-139.458	350.178	-0.201	0.391
-138.443	220.358	-0.049	-0.077
-137.429	227.634	-0.114	-0.183
-136.414	-145.690	0.224	-0.020
-135.399	-123.078	0.258	-0.041
-134.385	444.930	-0.084	0.181
-133.370	15.043	-0.136	-0.105
-132.356	-200.000	-0.020	-0.147
-131.341	-200.000	0.066	0.333
-130.326	-94.507	0.331	0.089
-129.312	800.000	0.009	-0.035
-128.297	78.438	0.135	-0.141
-127.283	29.966	0.126	0.105
-126.268	800.000	-0.100	0.294
-125.253	-200.000	0.016	-0.119
-124.239	95.896	0.219	-0.246
-123.224	15.631	-0.114	0.089
-122.210	128.362	-0.154	-0.193
