DTS Sentinel unit serial number:	SN413079Multiplexer serial number:	ORYXHardware model number:	OX4-SRSoftware version number:	ORYX F/W v4.00 Oryx Data Collector v3.7.2.0data status	okinstallation	princeton_trtdifferential loss correction	single-endedforward channel	channel 1reverse channel	N/Adate	2019/09/17time	00:58:35forward acquisition time	60.00reverse acquisition time	0.00gamma	496.2192k internal	0.2324k external	0.2324temperature offset calibration	0.9957default loss term (dB/km)	0.3790temperature slope calibration	1.0000multiplexer offset coefficient	1.0000multiplexer slope coefficient	1.0000fibre end	0.00T internal ref (°C)	29.44T ext. ref 1 (°C)	0.11T ext. ref 2 (°C)	24.10length (m)	temperature (°C)	Stokes	anti-Stokes-747.200	-85.057	0.189	0.060
-746.185	-36.105	0.164	0.089
-745.171	203.028	-0.097	0.152
-744.156	16.992	-0.190	0.152
-743.142	-64.977	-0.207	0.084
-742.127	100.847	0.151	0.177
-741.112	13.859	0.101	0.079
-740.098	530.525	0.254	0.606
-739.083	-200.000	-0.017	0.380
-738.069	-200.000	-0.022	0.192
-737.054	-144.884	0.287	0.027
-736.039	800.000	-0.094	0.290
-735.025	-200.000	0.038	0.262
-734.010	66.492	-0.159	-0.163
-732.996	800.000	-0.163	-0.457
-731.981	-200.000	-0.038	-0.227
-730.966	800.000	0.066	0.202
-729.952	778.251	0.037	0.101
-728.937	-138.274	-0.309	0.035
-727.923	800.000	0.068	-0.276
-726.908	54.307	-0.285	-0.277
-725.894	-200.000	-0.024	-0.289
-724.879	-40.338	-0.179	-0.094
-723.864	-200.000	-0.003	-0.160
-722.850	-118.417	0.234	0.042
-721.835	-200.000	-0.010	-0.209
-720.821	193.735	0.178	-0.272
-719.806	144.279	0.040	0.054
-718.791	62.073	0.126	-0.127
-717.777	800.000	-0.108	-0.344
-716.762	93.274	0.052	0.059
-715.748	-24.579	0.230	0.138
-714.733	-34.364	0.130	-0.072
-713.718	107.688	-0.315	-0.378
-712.704	-130.514	-0.174	0.024
-711.689	-55.774	0.167	0.075
-710.675	253.621	-0.131	-0.226
-709.660	135.934	-0.158	0.208
-708.645	399.906	-0.049	-0.103
-707.631	-16.522	0.017	0.011
-706.616	463.203	-0.064	-0.145
-705.602	70.976	-0.142	-0.149
-704.587	-136.508	-0.203	-0.024
-703.572	-200.000	0.036	-0.221
-702.558	-162.205	-0.258	0.013
-701.543	90.051	-0.189	0.212
-700.529	19.355	0.138	-0.112
-699.514	-123.611	-0.318	0.051
-698.499	800.000	-0.118	-0.392
-697.485	-95.459	0.130	0.035
-696.470	18.329	-0.066	-0.053
-695.456	129.376	-0.243	0.313
-694.441	800.000	-0.100	0.390
-693.426	73.487	0.185	0.195
-692.412	-96.477	0.135	0.036
-691.397	19.093	0.109	-0.088
-690.383	66.934	-0.218	0.224
-689.368	132.921	-0.187	-0.243
-688.354	800.000	-0.123	-0.518
-687.339	-104.958	-0.117	0.027
-686.324	-57.969	-0.338	0.148
-685.310	308.822	0.067	-0.126
-684.295	-60.530	-0.242	-0.104
-683.281	-200.000	-0.010	-0.288
-682.266	800.000	0.037	0.151
-681.251	-200.000	0.219	-0.001
-680.237	-200.000	0.073	0.375
-679.222	-8.526	-0.159	0.108
-678.208	-176.523	-0.299	-0.008
-677.193	-196.260	-0.075	-0.001
-676.178	325.887	-0.075	-0.144
-675.164	82.804	0.160	-0.175
-674.149	2.938	0.060	-0.044
-673.135	-113.853	0.380	0.074
-672.120	-54.136	-0.287	-0.131
-671.105	-200.000	-0.002	-0.206
-670.091	800.000	-0.203	-0.583
-669.076	210.240	0.095	0.149
-668.062	-148.098	-0.098	-0.008
-667.047	175.586	-0.148	0.216
-666.032	-200.000	0.026	-0.203
-665.018	-200.000	0.001	-0.252
-664.003	-109.121	0.043	0.009
-662.989	-101.184	-0.220	-0.054
-661.974	213.171	0.058	0.093
-660.959	60.933	-0.125	-0.125
-659.945	347.608	-0.086	0.170
-658.930	-70.708	0.063	-0.024
-657.916	373.855	0.170	-0.349
-656.901	800.000	0.040	0.122
-655.886	-172.188	-0.403	0.013
-654.872	126.712	0.345	-0.439
-653.857	-199.984	-0.379	0.002
-652.843	32.891	-0.156	0.136
-651.828	-67.328	-0.094	0.037
-650.814	114.351	-0.336	-0.411
-649.799	102.574	-0.180	-0.211
-648.784	800.000	-0.075	-0.232
-647.770	-120.259	-0.125	-0.021
-646.755	61.164	-0.172	-0.172
-645.741	-110.903	-0.121	0.025
-644.726	-53.814	0.363	0.166
-643.711	67.900	0.287	-0.295
-642.697	-52.562	-0.195	0.090
-641.682	800.000	0.071	-0.235
-640.668	-34.395	0.126	0.069
-639.653	-48.902	-0.107	-0.051
-638.638	-200.000	0.065	0.350
-637.624	201.159	0.013	-0.020
-636.609	-17.183	-0.118	-0.075
-635.595	-169.135	-0.090	0.003
-634.580	76.555	0.071	-0.076
-633.565	33.649	-0.200	0.174
-632.551	76.477	0.128	0.137
-631.536	229.917	-0.080	0.131
-630.522	-40.897	-0.112	0.058
-629.507	800.000	-0.030	0.094
-628.492	49.171	0.204	-0.193
-627.478	-114.596	-0.268	-0.052
-626.463	800.000	0.072	-0.224
-625.449	-90.122	0.064	-0.019
-624.434	345.100	0.042	-0.082
-623.419	-200.000	-0.030	-0.211
-622.405	-28.260	-0.322	0.187
-621.390	62.797	-0.245	0.246
-620.376	-42.664	0.218	-0.111
-619.361	2.976	-0.328	-0.240
-618.346	800.000	0.063	0.218
-617.332	72.378	0.096	0.100
-616.317	104.829	-0.087	0.103
-615.303	-79.588	-0.361	-0.122
-614.288	792.405	0.070	0.194
-613.273	-145.857	0.320	-0.029
-612.259	-70.684	-0.140	-0.053
-611.244	127.670	-0.112	-0.143
-610.230	-64.598	0.116	0.047
-609.215	179.981	0.255	-0.375
-608.201	-133.672	-0.095	-0.012
-607.186	800.000	0.072	-0.232
-606.171	26.845	0.262	-0.220
-605.157	306.463	0.084	0.157
-604.142	132.398	0.165	0.213
-603.128	102.350	-0.200	0.234
-602.113	-63.581	-0.080	-0.033
-601.098	-51.771	-0.311	-0.145
-600.084	24.799	-0.044	0.036
-599.069	169.830	0.199	-0.285
-598.055	800.000	0.067	-0.222
-597.040	703.949	-0.066	0.175
-596.025	177.883	-0.171	0.250
-595.011	-51.842	0.032	-0.015
-593.996	800.000	0.064	0.188
-592.982	-82.727	-0.430	0.140
-591.967	158.241	-0.051	-0.071
-590.952	-55.901	-0.282	0.126
-589.938	-106.530	-0.291	0.065
-588.923	-49.704	-0.415	-0.198
-587.909	-53.601	0.086	-0.040
-586.894	66.548	-0.208	0.212
-585.879	17.228	0.159	-0.126
-584.865	246.720	0.111	0.189
-583.850	-200.000	0.016	0.105
-582.836	800.000	-0.056	-0.175
-581.821	-200.000	0.027	-0.181
-580.806	800.000	0.036	0.152
-579.792	800.000	0.078	0.326
-578.777	-200.000	-0.017	0.092
-577.763	90.964	0.221	-0.248
-576.748	68.400	-0.033	0.034
-575.733	-115.457	0.248	0.047
-574.719	-200.000	0.020	0.147
-573.704	-170.183	0.203	0.007
-572.690	-200.000	0.013	0.318
-571.675	-200.000	0.016	0.209
-570.661	-42.019	0.228	-0.117
-569.646	800.000	-0.104	-0.413
-568.631	-67.956	0.255	-0.100
-567.617	-66.778	-0.167	0.066
-566.602	66.175	-0.165	-0.168
-565.588	123.940	0.191	-0.241
-564.573	49.208	-0.240	-0.226
-563.558	800.000	-0.046	0.195
-562.544	26.527	0.153	-0.128
-561.529	-200.000	-0.007	-0.072
-560.515	800.000	-0.055	0.177
-559.500	-200.000	0.016	0.128
-558.485	-97.740	0.187	-0.049
-557.471	-147.452	0.148	0.013
-556.456	-101.968	0.089	-0.022
-555.442	139.896	-0.145	-0.192
-554.427	-200.000	0.004	-0.292
-553.412	-200.000	0.042	0.269
-552.398	22.703	0.092	-0.075
-551.383	-131.567	-0.305	-0.040
-550.369	12.803	0.256	-0.198
-549.354	800.000	0.032	-0.116
-548.339	-35.153	0.346	-0.189
-547.325	348.191	-0.038	-0.075
-546.310	-200.000	0.030	0.219
-545.296	15.011	-0.199	-0.156
-544.281	-200.000	0.044	0.461
-543.266	-70.935	-0.268	0.101
-542.252	-200.000	0.029	0.306
-541.237	325.013	0.079	0.151
-540.223	-28.020	-0.128	0.074
-539.208	12.198	-0.114	0.088
-538.193	-200.000	0.015	0.103
-537.179	800.000	0.104	-0.292
-536.164	800.000	0.033	0.141
-535.150	-32.780	0.089	0.049
-534.135	-127.431	0.357	0.052
-533.121	8.406	0.100	0.075
-532.106	103.245	-0.250	0.294
-531.091	100.803	-0.013	-0.015
-530.077	-21.783	-0.157	-0.096
-529.062	245.640	-0.159	-0.267
-528.048	-122.982	-0.167	0.027
-527.033	-200.000	-0.008	-0.100
-526.018	-200.000	-0.036	-0.180
-525.004	-165.670	0.211	-0.009
-523.989	55.571	-0.148	0.144
-522.975	-36.984	-0.045	0.024
-521.960	266.488	-0.185	0.324
-520.945	-78.663	0.228	-0.078
-519.931	-104.418	-0.114	0.026
-518.916	-200.000	-0.010	0.220
-517.902	-53.974	-0.110	-0.050
-516.887	262.666	0.130	-0.225
-515.872	-59.995	0.246	-0.105
-514.858	-128.110	0.206	-0.029
-513.843	194.362	0.233	-0.354
-512.829	-22.242	-0.111	0.067
-511.814	48.113	0.091	0.085
-510.799	551.273	-0.071	0.170
-509.785	-136.518	0.174	-0.020
-508.770	800.000	0.023	0.079
-507.756	800.000	-0.079	0.292
-506.741	172.507	-0.151	-0.218
-505.726	110.119	-0.151	-0.182
-504.712	26.292	-0.126	-0.105
-503.697	-134.754	-0.224	-0.027
-502.683	-87.595	-0.180	0.054
-501.668	-165.230	-0.514	0.023
-500.653	49.328	0.118	0.111
-499.639	743.272	0.064	0.171
-498.624	571.547	-0.110	-0.267
-497.610	24.938	-0.105	0.087
-496.595	-107.471	-0.165	0.036
-495.581	800.000	0.070	-0.200
-494.566	327.199	0.131	-0.251
-493.551	-200.000	-0.016	-0.119
-492.537	-200.000	-0.040	-0.329
-491.522	-78.089	0.176	-0.061
-490.508	-200.000	0.018	-0.122
-489.493	-40.891	0.313	0.162
-488.478	800.000	0.077	-0.259
-487.464	599.193	-0.047	-0.117
-486.449	616.065	0.106	0.266
-485.435	380.972	-0.143	0.293
-484.420	279.783	-0.060	-0.107
-483.405	-200.000	-0.015	0.124
-482.391	-200.000	-0.015	-0.110
-481.376	-145.744	0.160	-0.014
-480.362	57.395	-0.045	0.044
-479.347	-84.136	0.248	-0.079
-478.332	-135.308	-0.024	0.003
-477.318	-111.088	0.087	0.018
-476.303	87.376	-0.194	-0.214
-475.289	57.930	0.082	-0.080
-474.274	800.000	0.027	0.081
-473.259	-12.707	-0.060	0.039
-472.245	156.529	0.206	0.284
-471.230	-79.328	0.043	-0.015
-470.216	-200.000	0.001	0.389
-469.201	-200.000	0.067	-0.452
-468.186	-8.405	0.138	0.092
-467.172	-52.889	0.305	0.140
-466.157	11.606	-0.056	0.043
-465.143	-43.166	-0.283	-0.143
-464.128	16.177	0.200	0.157
-463.113	-135.111	-0.117	0.014
-462.099	-32.641	0.249	-0.138
-461.084	-47.347	-0.121	-0.059
-460.070	-200.000	-0.027	0.199
-459.055	-116.744	-0.082	-0.015
-458.040	-200.000	-0.009	0.132
-457.026	8.514	0.113	-0.085
-456.011	282.198	0.101	-0.180
-454.997	-200.000	-0.008	0.188
-453.982	16.421	0.308	0.243
-452.968	-86.039	0.139	0.043
-451.953	89.372	-0.187	0.208
-450.938	800.000	-0.023	0.078
-449.924	97.039	0.179	-0.205
-448.909	-53.486	-0.271	0.124
-447.895	-200.000	0.007	-0.148
-446.880	-160.848	-0.106	0.006
-445.865	-0.817	-0.035	0.025
-444.851	3.115	0.206	0.149
-443.836	594.422	-0.095	-0.234
-442.822	29.664	-0.149	0.127
-441.807	450.127	-0.057	-0.124
-440.792	-122.875	-0.210	-0.034
-439.778	-200.000	-0.015	0.252
-438.763	-112.192	0.133	0.027
-437.749	-200.000	-0.010	-0.238
-436.734	81.806	-0.175	0.189
-435.719	41.665	-0.102	0.092
-434.705	171.971	0.111	0.159
-433.690	800.000	-0.128	0.479
-432.676	784.413	0.088	-0.242
-431.661	-88.918	0.407	0.120
-430.646	-29.593	-0.325	0.185
-429.632	-96.554	0.290	-0.076
-428.617	-46.662	0.097	0.047
-427.603	-154.644	0.263	-0.017
-426.588	507.095	0.087	0.201
-425.573	97.135	-0.045	0.051
-424.559	-148.614	0.175	0.014
-423.544	262.552	-0.066	0.113
-422.530	-114.110	0.148	0.029
-421.515	-200.000	-0.034	0.397
-420.500	800.000	0.111	0.343
-419.486	4.124	-0.198	0.145
-418.471	-97.256	-0.317	0.082
-417.457	145.628	0.083	0.111
-416.442	-200.000	-0.041	0.283
-415.428	-162.682	0.338	0.017
-414.413	216.973	-0.087	0.137
-413.398	13.244	-0.270	-0.208
-412.384	-70.067	-0.264	0.100
-411.369	138.340	0.083	-0.108
-410.355	-174.271	-0.245	0.007
-409.340	45.860	-0.029	0.027
-408.325	-37.316	-0.229	0.122
-407.311	23.726	-0.458	0.375
-406.296	514.816	-0.009	0.021
-405.282	-104.831	0.058	-0.013
-404.267	-9.344	-0.237	-0.158
-403.252	114.919	-0.234	-0.284
-402.238	-143.029	0.178	-0.017
-401.223	-122.171	-0.404	-0.066
-400.209	123.488	-0.206	0.257
-399.194	-200.000	0.082	-0.449
-398.179	-136.996	-0.331	-0.038
-397.165	800.000	0.019	-0.078
-396.150	373.268	-0.090	-0.182
-395.136	-28.161	0.177	0.102
-394.121	561.131	-0.046	-0.112
-393.106	564.236	-0.054	-0.130
-392.092	-34.799	0.061	0.033
-391.077	94.868	0.094	-0.107
-390.063	-152.523	0.087	0.006
-389.048	-200.000	-0.043	-0.444
-388.033	154.151	0.135	0.185
-387.019	31.052	0.069	-0.059
-386.004	100.461	-0.185	-0.213
-384.990	-0.605	0.091	-0.064
-383.975	374.590	-0.075	0.151
-382.960	-109.033	-0.119	0.025
-381.946	800.000	-0.204	-0.639
-380.931	-30.470	0.110	-0.062
-379.917	-44.325	0.157	0.078
-378.902	637.689	0.043	0.109
-377.888	69.995	-0.184	0.189
-376.873	-128.910	0.217	0.030
-375.858	54.138	0.245	0.235
-374.844	-101.583	-0.085	-0.021
-373.829	69.260	0.245	-0.251
-372.815	253.779	-0.089	0.151
-371.800	-17.571	0.349	0.218
-370.785	-146.520	-0.095	-0.008
-369.771	504.293	0.074	0.169
-368.756	-19.219	-0.251	0.155
-367.742	-200.000	-0.034	-0.277
-366.727	-42.989	-0.128	0.065
-365.712	-200.000	0.029	-0.159
-364.698	315.415	-0.155	0.292
-363.683	149.985	-0.021	-0.029
-362.669	-136.314	0.300	0.035
-361.654	-84.995	-0.167	-0.052
-360.639	-105.332	-0.238	-0.054
-359.625	-200.000	-0.001	-0.100
-358.610	645.054	0.084	-0.212
-357.596	800.000	0.067	-0.238
-356.581	17.758	-0.083	-0.066
-355.566	-93.415	0.148	-0.041
-354.552	70.310	0.166	0.171
-353.537	63.218	0.314	0.312
-352.523	-111.383	0.114	0.023
-351.508	58.673	-0.064	-0.063
-350.493	228.382	-0.064	0.104
-349.479	-21.436	0.409	0.248
-348.464	255.352	-0.248	-0.422
-347.450	-200.000	-0.011	-0.212
-346.435	-9.325	-0.061	-0.041
-345.420	800.000	0.115	-0.351
-344.406	-131.355	-0.235	-0.031
-343.391	-200.000	0.028	-0.245
-342.377	-200.000	0.034	-0.393
-341.362	800.000	0.084	0.263
-340.348	630.148	0.037	0.093
-339.333	82.374	-0.062	-0.067
-338.318	-59.991	0.024	-0.010
-337.304	88.996	-0.136	0.151
-336.289	800.000	0.027	0.086
-335.275	134.156	-0.113	0.145
-334.260	-55.894	0.159	0.070
-333.245	-108.268	0.178	-0.038
-332.231	-147.005	0.341	0.029
-331.216	-120.183	0.175	-0.030
-330.202	800.000	0.066	0.210
-329.187	-31.700	-0.106	-0.059
-328.172	217.541	0.246	0.389
-327.158	-200.000	-0.034	-0.177
-326.143	-153.314	-0.453	0.031
-325.129	-21.207	0.144	0.088
-324.114	435.514	-0.089	0.193
-323.099	-30.251	0.086	0.048
-322.085	-193.661	0.096	0.001
-321.070	454.673	-0.105	-0.232
-320.056	-200.000	0.065	-0.309
-319.041	-121.759	0.085	-0.014
-318.026	54.993	-0.023	0.022
-317.012	800.000	-0.045	0.125
-315.997	-47.818	-0.249	-0.120
-314.983	-88.281	0.186	-0.055
-313.968	-84.358	0.334	-0.105
-312.953	-87.670	-0.221	-0.066
-311.939	-67.821	-0.228	0.089
-310.924	-120.137	0.465	0.079
-309.910	800.000	0.093	-0.286
-308.895	10.487	-0.033	0.025
-307.880	149.225	0.073	-0.098
-306.866	-40.411	0.038	-0.020
-305.851	19.030	-0.063	-0.050
-304.837	-144.310	0.117	0.011
-303.822	-168.253	-0.219	0.008
-302.807	93.022	-0.132	-0.148
-301.793	-200.000	0.015	-0.120
-300.778	248.164	0.075	-0.127
-299.764	-21.881	0.338	0.204
-298.749	24.932	0.186	0.153
-297.735	53.215	-0.267	-0.253
-296.720	800.000	-0.048	-0.135
-295.705	69.190	-0.026	0.027
-294.691	-200.000	0.032	0.178
-293.676	-63.871	-0.197	0.080
-292.662	69.242	-0.201	0.205
-291.647	-157.654	-0.360	0.021
-290.632	20.848	-0.277	-0.223
-289.618	-61.351	0.230	-0.096
-288.603	800.000	-0.062	0.215
-287.589	800.000	-0.085	0.241
-286.574	207.420	0.076	0.117
-285.559	-200.000	0.058	-0.274
-284.545	212.159	0.011	-0.017
-283.530	800.000	0.109	0.305
-282.516	99.047	0.372	-0.426
-281.501	269.645	0.005	-0.010
-280.486	-23.406	-0.224	-0.134
-279.472	0.754	0.141	0.100
-278.457	-18.530	0.284	0.176
-277.443	-30.539	0.124	-0.070
-276.428	34.960	-0.191	-0.166
-275.413	-200.000	-0.021	0.146
-274.399	379.097	-0.105	0.213
-273.384	234.565	-0.257	0.420
-272.370	-61.635	0.294	-0.122
-271.355	800.000	0.041	-0.122
-270.340	-175.337	0.236	-0.006
-269.326	183.364	-0.114	0.166
-268.311	323.646	0.257	0.486
-267.297	12.205	-0.064	0.049
-266.282	-84.318	-0.165	-0.052
-265.267	-69.049	-0.372	-0.142
-264.253	21.782	-0.316	0.255
-263.238	-200.000	-0.028	-0.243
-262.224	251.580	0.064	0.108
-261.209	-31.161	-0.234	0.130
-260.195	312.895	0.218	0.406
-259.180	128.972	-0.163	-0.206
-258.165	-103.215	0.078	0.018
-257.151	-59.277	-0.307	0.131
-256.136	-51.215	0.294	-0.136
-255.122	-200.000	-0.053	-0.317
-254.107	-200.000	0.070	0.353
-253.092	-29.658	0.397	0.225
-252.078	-93.319	-0.221	0.061
-251.063	58.308	0.227	-0.221
-250.049	-33.500	0.088	-0.048
-249.034	248.603	0.033	-0.056
-248.019	-200.000	0.026	0.321
-247.005	67.778	0.167	-0.169
-245.990	-69.726	0.243	0.092
-244.976	39.957	0.135	0.120
-243.961	-200.000	-0.013	-0.121
-242.946	-79.903	0.193	-0.064
-241.932	-180.340	-0.372	0.008
-240.917	-55.030	0.481	-0.214
-239.903	-71.177	-0.187	-0.070
-238.888	-200.000	-0.056	0.340
-237.873	-10.903	0.256	-0.167
-236.859	-19.727	-0.284	-0.174
-235.844	113.582	-0.275	-0.331
-234.830	800.000	0.070	0.194
-233.815	-159.325	-0.133	0.007
-232.800	69.284	-0.187	0.190
-231.786	-14.204	-0.273	-0.174
-230.771	-103.342	0.065	0.015
-229.757	-200.000	-0.014	-0.148
-228.742	-25.386	0.063	0.037
-227.727	-9.604	-0.283	0.187
-226.713	523.100	0.081	0.189
-225.698	-200.000	-0.014	-0.239
-224.684	468.614	0.089	-0.197
-223.669	-40.632	0.069	0.035
-222.655	-200.000	-0.029	0.154
-221.640	-7.571	0.104	-0.069
-220.625	541.414	0.092	-0.217
-219.611	-74.278	0.120	-0.043
-218.596	-80.663	-0.165	-0.054
-217.582	-155.796	0.220	0.014
-216.567	18.959	0.205	-0.162
-215.552	44.168	0.071	-0.064
-214.538	-200.000	0.015	-0.081
-213.523	-40.530	0.079	0.040
-212.509	800.000	-0.026	0.090
-211.494	-200.000	0.019	-0.087
-210.479	-17.896	0.293	-0.182
-209.465	36.158	-0.078	0.068
-208.450	-200.000	-0.034	0.354
-207.436	100.834	-0.179	0.206
-206.421	115.124	0.091	0.110
-205.406	-24.328	-0.310	0.183
-204.392	800.000	-0.044	0.158
-203.377	-10.757	-0.324	-0.212
-202.363	-80.247	0.341	0.113
-201.348	-116.144	0.077	0.014
-200.333	189.686	0.059	0.087
-199.319	573.148	-0.026	-0.063
-198.304	-60.021	0.218	-0.092
-197.290	409.771	0.179	0.375
-196.275	-137.385	-0.128	-0.014
-195.260	-183.628	0.164	0.003
-194.246	800.000	0.043	-0.160
-193.231	-15.400	-0.136	0.086
-192.217	332.553	-0.063	0.121
-191.202	-200.000	-0.057	-0.361
-190.187	-200.000	0.004	0.103
-189.173	-14.424	0.405	-0.257
-188.158	419.668	-0.130	-0.275
-187.144	47.656	0.102	0.094
-186.129	303.961	-0.050	0.091
-185.114	-75.626	-0.271	-0.095
-184.100	-200.000	-0.016	-0.157
-183.085	-32.563	0.255	-0.140
-182.071	63.508	-0.106	0.105
-181.056	22.014	0.146	0.118
-180.042	465.549	0.135	0.299
-179.027	169.592	-0.191	-0.269
-178.012	-64.944	-0.046	0.018
-176.998	-75.792	0.202	-0.071
-175.983	-9.417	0.036	-0.024
-174.969	40.505	0.271	-0.241
-173.954	-94.912	0.150	0.040
-172.939	533.553	0.218	-0.510
-171.925	151.668	0.218	-0.293
-170.910	-134.157	0.100	-0.012
-169.896	247.784	-0.112	-0.187
-168.881	11.938	-0.152	0.116
-167.866	10.841	-0.128	0.096
-166.852	357.115	-0.135	0.266
-165.837	719.879	-0.088	0.232
-164.823	-6.403	0.215	0.145
-163.808	111.850	-0.261	-0.311
-162.793	-200.000	-0.026	0.155
-161.779	-102.129	-0.306	0.073
-160.764	6.529	-0.221	-0.162
-159.750	-53.132	-0.266	-0.121
-158.735	-43.442	0.378	-0.189
-157.720	-120.591	-0.294	0.049
-156.706	26.182	0.105	-0.087
-155.691	552.395	-0.062	-0.148
-154.677	36.119	0.265	-0.230
-153.662	63.386	-0.117	-0.116
-152.647	-62.570	0.110	-0.045
-151.633	-200.000	-0.103	0.458
-150.618	686.031	-0.071	0.183
-149.604	-114.283	0.376	0.071
-148.589	-162.557	-0.133	0.006
-147.574	49.287	-0.087	-0.080
-146.560	304.619	-0.118	-0.216
-145.545	800.000	0.136	0.398
-144.531	176.505	0.176	0.252
-143.516	-22.159	-0.196	-0.117
-142.502	-13.891	0.276	0.176
-141.487	118.403	-0.218	-0.265
-140.472	54.771	-0.211	-0.200
-139.458	-130.691	0.199	0.026
-138.443	-22.178	0.357	-0.214
-137.429	213.281	0.063	-0.098
-136.414	-54.798	0.255	0.114
-135.399	28.113	0.053	-0.044
-134.385	150.167	-0.205	0.275
-133.370	-151.802	-0.475	-0.034
-132.356	192.720	0.174	0.258
-131.341	277.967	-0.106	0.185
-130.326	-142.554	0.313	0.030
-129.312	-30.651	-0.273	0.152
-128.297	-200.000	-0.007	-0.087
-127.283	-48.027	0.132	0.063
-126.268	86.375	-0.161	0.175
-125.253	-66.551	0.388	0.152
-124.239	800.000	0.071	0.224
-123.224	35.236	0.133	-0.115
-122.210	254.984	0.050	-0.084
-121.195	307.438	0.093	0.171
-120.180	-34.610	-0.470	-0.253
