DTS Sentinel unit serial number:	SN413079Multiplexer serial number:	ORYXHardware model number:	OX4-SRSoftware version number:	ORYX F/W v4.00 Oryx Data Collector v3.7.2.0data status	okinstallation	princeton_trtdifferential loss correction	single-endedforward channel	channel 1reverse channel	N/Adate	2019/09/15time	23:10:35forward acquisition time	60.00reverse acquisition time	0.00gamma	496.2192k internal	0.2331k external	0.2331temperature offset calibration	0.9966default loss term (dB/km)	0.3790temperature slope calibration	1.0000multiplexer offset coefficient	1.0000multiplexer slope coefficient	1.0000fibre end	0.00T internal ref (°C)	28.42T ext. ref 1 (°C)	9.03T ext. ref 2 (°C)	22.19length (m)	temperature (°C)	Stokes	anti-Stokes-747.200	-159.187	-0.301	-0.017
-746.185	99.840	-0.192	0.224
-745.171	257.504	-0.084	-0.146
-744.156	-200.000	-0.041	-0.266
-743.142	237.938	-0.060	0.101
-742.127	-51.840	-0.155	0.073
-741.112	133.302	-0.286	0.373
-740.098	-50.260	-0.381	0.181
-739.083	-169.228	0.200	-0.007
-738.069	-200.000	0.019	0.406
-737.054	-141.279	-0.207	-0.021
-736.039	45.465	-0.134	-0.124
-735.025	800.000	0.048	0.198
-734.010	429.812	-0.049	0.107
-732.996	3.441	-0.376	0.276
-731.981	-200.000	-0.037	-0.203
-730.966	216.778	0.181	-0.290
-729.952	-109.146	-0.441	-0.094
-728.937	-127.448	-0.238	0.035
-727.923	129.029	0.197	-0.253
-726.908	-117.174	-0.138	0.025
-725.894	167.043	0.046	-0.066
-724.879	71.646	-0.166	0.174
-723.864	36.475	0.226	-0.201
-722.850	98.665	0.061	0.071
-721.835	90.103	0.156	-0.175
-720.821	12.316	0.153	0.118
-719.806	16.695	-0.063	0.050
-718.791	-200.000	0.026	0.145
-717.777	-154.439	0.065	-0.004
-716.762	146.242	0.219	0.296
-715.748	232.620	-0.014	0.023
-714.733	-79.722	-0.486	0.165
-713.718	-200.000	-0.004	0.403
-712.704	185.339	-0.219	-0.326
-711.689	381.534	-0.158	-0.327
-710.675	191.436	-0.053	0.081
-709.660	74.290	0.349	-0.369
-708.645	-44.890	-0.108	0.054
-707.631	47.802	-0.138	-0.129
-706.616	-58.181	-0.152	-0.067
-705.602	218.664	-0.165	0.265
-704.587	-200.000	-0.016	-0.133
-703.572	-200.000	0.031	0.347
-702.558	-114.688	0.364	-0.070
-701.543	-200.000	-0.029	-0.128
-700.529	-89.874	0.239	0.070
-699.514	103.976	0.164	-0.194
-698.499	-200.000	0.015	0.396
-697.485	177.514	-0.033	-0.049
-696.470	-169.859	0.193	-0.007
-695.456	-185.229	-0.092	0.001
-694.441	519.266	-0.050	-0.118
-693.426	347.200	-0.145	-0.287
-692.412	245.627	-0.035	0.059
-691.397	-200.000	-0.016	-0.108
-690.383	-101.851	-0.250	0.061
-689.368	276.216	-0.111	-0.198
-688.354	-200.000	0.034	-0.173
-687.339	-200.000	0.010	0.123
-686.324	60.617	0.120	0.120
-685.310	87.531	0.207	0.230
-684.295	244.506	-0.205	-0.346
-683.281	-155.088	-0.292	-0.019
-682.266	-137.910	-0.361	0.040
-681.251	-90.961	0.370	0.107
-680.237	-83.760	0.171	0.055
-679.222	57.980	-0.132	-0.130
-678.208	43.449	0.187	-0.172
-677.193	-200.000	-0.022	-0.133
-676.178	-200.000	-0.032	-0.241
-675.164	-200.000	0.001	-0.094
-674.149	137.743	0.067	-0.088
-673.135	-121.964	-0.278	-0.046
-672.120	-36.433	-0.264	0.143
-671.105	59.135	-0.167	0.165
-670.091	-1.212	0.117	0.083
-669.076	-100.559	-0.302	-0.075
-668.062	-168.239	-0.183	0.007
-667.047	-138.847	0.278	0.030
-666.032	-44.057	-0.271	-0.137
-665.018	-144.289	0.011	0.001
-664.003	-200.000	-0.071	0.340
-662.989	-200.000	0.177	-0.001
-661.974	679.591	-0.167	-0.437
-660.959	42.288	0.078	0.071
-659.945	800.000	0.059	-0.216
-658.930	200.329	-0.077	0.118
-657.916	-141.375	0.403	-0.041
-656.901	-200.000	-0.017	-0.141
-655.886	800.000	-0.076	-0.296
-654.872	-110.567	0.333	0.069
-653.857	-200.000	-0.018	-0.167
-652.843	-88.130	0.262	-0.079
-651.828	-186.217	0.407	-0.006
-650.814	152.097	-0.117	-0.160
-649.799	-200.000	0.033	-0.265
-648.784	-200.000	0.057	-0.352
-647.770	35.644	0.200	-0.177
-646.755	-136.770	0.187	0.022
-645.741	-200.000	-0.019	-0.235
-644.726	457.082	0.098	-0.217
-643.711	31.861	0.080	-0.069
-642.697	27.195	0.228	-0.192
-641.682	-200.000	0.009	0.259
-640.668	-200.000	0.032	-0.186
-639.653	-181.237	-0.157	-0.003
-638.638	-87.441	0.338	-0.103
-637.624	-156.153	0.096	0.006
-636.609	-200.000	-0.003	-0.156
-635.595	-200.000	-0.053	-0.289
-634.580	-182.232	0.122	-0.002
-633.565	-200.000	-0.008	0.055
-632.551	15.132	-0.183	-0.144
-631.536	595.791	-0.047	-0.118
-630.522	-200.000	0.047	-0.375
-629.507	-200.000	-0.022	-0.219
-628.492	-147.879	-0.169	-0.014
-627.478	-114.113	0.026	0.005
-626.463	-200.000	-0.045	0.221
-625.449	51.680	-0.140	-0.133
-624.434	131.864	0.129	0.166
-623.419	97.613	-0.120	-0.138
-622.405	-128.749	-0.134	-0.019
-621.390	-129.951	-0.167	-0.023
-620.376	400.725	-0.240	-0.505
-619.361	608.395	0.084	-0.209
-618.346	-18.167	-0.266	-0.167
-617.332	-200.000	0.031	-0.271
-616.317	81.239	-0.265	-0.286
-615.303	800.000	0.023	0.089
-614.288	-146.925	-0.327	0.028
-613.273	205.511	-0.093	0.144
-612.259	173.454	0.140	-0.202
-611.244	68.449	-0.193	0.199
-610.230	-70.050	-0.151	0.057
-609.215	-34.932	-0.273	-0.149
-608.201	69.693	0.014	-0.015
-607.186	-143.920	0.085	-0.008
-606.171	236.406	-0.298	0.493
-605.157	343.059	-0.050	-0.099
-604.142	137.694	-0.162	0.212
-603.128	-65.888	0.181	-0.072
-602.113	-200.000	-0.014	-0.131
-601.098	-29.863	0.439	-0.250
-600.084	-60.873	-0.319	0.135
-599.069	800.000	-0.048	-0.151
-598.055	180.351	-0.211	-0.309
-597.040	-200.000	-0.022	-0.193
-596.025	-30.681	0.161	-0.091
-595.011	-86.833	0.134	0.041
-593.996	-200.000	-0.053	0.283
-592.982	253.019	-0.150	0.255
-591.967	-200.000	-0.008	-0.039
-590.952	-140.556	-0.171	-0.018
-589.938	35.234	0.164	-0.144
-588.923	-42.062	-0.194	0.100
-587.909	-200.000	-0.030	0.164
-586.894	-97.811	0.287	0.074
-585.879	-19.697	-0.103	-0.064
-584.865	91.667	0.156	-0.175
-583.850	627.467	0.115	0.291
-582.836	-67.295	-0.230	0.090
-581.821	25.820	0.242	-0.202
-580.806	45.739	0.087	-0.080
-579.792	-200.000	0.040	-0.388
-578.777	-27.792	-0.082	-0.048
-577.763	-71.073	0.176	-0.066
-576.748	57.569	-0.147	-0.143
-575.733	122.169	-0.166	-0.207
-574.719	41.970	-0.079	-0.072
-573.704	-200.000	-0.040	0.235
-572.690	-200.000	-0.050	-0.301
-571.675	-116.049	-0.378	0.070
-570.661	-200.000	0.036	-0.187
-569.646	33.882	-0.148	-0.128
-568.631	102.139	0.217	-0.254
-567.617	394.412	0.135	-0.280
-566.602	-79.833	0.185	0.062
-565.588	-123.936	-0.154	0.024
-564.573	146.034	-0.248	-0.332
-563.558	-63.424	-0.503	0.207
-562.544	-200.000	-0.009	-0.175
-561.529	-128.586	-0.436	-0.062
-560.515	800.000	0.020	0.062
-559.500	378.128	0.120	0.245
-558.485	-46.448	0.414	0.203
-557.471	-99.053	0.130	-0.033
-556.456	36.974	-0.128	-0.114
-555.442	800.000	-0.087	0.302
-554.427	88.957	0.063	0.070
-553.412	278.721	0.176	-0.313
-552.398	800.000	0.067	0.209
-551.383	-5.838	-0.074	-0.051
-550.369	648.789	0.060	0.152
-549.354	225.269	0.158	0.255
-548.339	-53.736	0.185	-0.084
-547.325	-200.000	-0.005	0.051
-546.310	-141.619	-0.469	0.047
-545.296	349.382	0.143	-0.281
-544.281	-138.051	0.235	-0.026
-543.266	-82.195	0.033	0.011
-542.252	-59.609	-0.202	0.086
-541.237	-56.388	-0.054	0.024
-540.223	-88.391	-0.252	0.075
-539.208	-200.000	-0.014	-0.312
-538.193	-7.518	-0.160	0.108
-537.179	-200.000	0.060	0.364
-536.164	768.285	-0.094	0.256
-535.150	-77.672	-0.345	0.119
-534.135	224.612	0.110	0.177
-533.121	200.543	-0.235	-0.360
-532.106	800.000	-0.093	-0.313
-531.091	-200.000	-0.087	-0.489
-530.077	-200.000	0.031	-0.155
-529.062	768.708	0.087	0.237
-528.048	59.357	0.116	0.114
-527.033	-188.621	-0.136	-0.002
-526.018	-3.313	-0.027	0.019
-525.004	-41.898	0.144	0.073
-523.989	47.722	0.087	-0.081
-522.975	-63.396	-0.186	0.076
-521.960	181.934	0.179	0.263
-520.945	-81.276	-0.198	0.065
-519.931	-114.204	0.175	0.034
-518.916	-64.278	-0.219	0.089
-517.902	53.921	-0.153	-0.147
-516.887	-146.922	-0.037	0.003
-515.872	-121.381	-0.074	-0.012
-514.858	-200.000	-0.012	-0.246
-513.843	362.801	-0.145	-0.290
-512.829	86.949	0.071	0.078
-511.814	800.000	-0.091	-0.332
-510.799	26.816	0.216	0.181
-509.785	229.060	-0.089	0.144
-508.770	225.998	0.042	0.068
-507.756	-72.050	-0.157	0.058
-506.741	28.364	0.127	-0.107
-505.726	-200.000	0.023	0.130
-504.712	-200.000	0.005	-0.225
-503.697	-0.401	-0.161	0.114
-502.683	-200.000	0.012	0.240
-501.668	-3.002	0.243	-0.169
-500.653	64.348	-0.152	0.152
-499.639	144.922	0.162	0.216
-498.624	800.000	0.003	-0.011
-497.610	-45.160	0.069	0.034
-496.595	-200.000	0.003	-0.065
-495.581	-72.461	-0.097	0.036
-494.566	-23.043	0.023	0.014
-493.551	800.000	-0.154	0.456
-492.537	-119.894	-0.276	-0.047
-491.522	-200.000	0.053	0.369
-490.508	-135.849	-0.198	-0.023
-489.493	-200.000	0.015	0.315
-488.478	25.197	-0.229	-0.189
-487.464	-87.008	0.261	0.079
-486.449	-119.316	-0.195	-0.034
-485.435	-200.000	0.023	-0.142
-484.420	-20.274	-0.212	-0.130
-483.405	-88.703	-0.341	0.101
-482.391	-166.402	-0.065	-0.003
-481.376	-118.726	-0.294	-0.052
-480.362	645.280	-0.062	-0.157
-479.347	49.082	0.226	0.212
-478.332	453.829	0.075	0.166
-477.318	201.536	-0.228	0.350
-476.303	800.000	-0.067	0.254
-475.289	50.632	-0.311	0.293
-474.274	-75.851	0.233	-0.082
-473.259	800.000	-0.047	0.188
-472.245	800.000	-0.081	-0.323
-471.230	-200.000	-0.045	-0.213
-470.216	595.359	-0.114	0.282
-469.201	-123.677	-0.498	0.079
-468.186	-69.967	-0.212	-0.080
-467.172	-200.000	-0.056	-0.279
-466.157	159.670	0.175	0.242
-465.143	-128.547	0.076	0.011
-464.128	42.039	0.042	0.038
-463.113	-200.000	0.044	-0.257
-462.099	-60.631	0.378	-0.160
-461.084	139.801	-0.170	-0.223
-460.070	258.234	0.034	-0.058
-459.055	-81.114	0.211	-0.069
-458.040	-34.045	-0.168	-0.092
-457.026	-154.024	0.197	0.013
-456.011	59.241	-0.090	-0.089
-454.997	328.349	-0.028	0.053
-453.982	-200.000	0.011	-0.050
-452.968	800.000	-0.065	-0.256
-451.953	-7.800	0.157	0.106
-450.938	52.822	0.241	-0.229
-449.924	-200.000	-0.018	0.095
-448.909	-54.923	-0.145	-0.065
-447.895	-158.415	0.398	0.023
-446.880	-114.075	-0.287	0.055
-445.865	-158.630	0.163	0.009
-444.851	-200.000	0.041	0.305
-443.836	54.479	0.177	0.169
-442.822	-200.000	-0.002	-0.100
-441.807	-148.029	0.136	0.011
-440.792	800.000	0.087	-0.255
-439.778	323.645	0.061	-0.116
-438.763	800.000	-0.081	-0.236
-437.749	-100.052	0.183	0.045
-436.734	800.000	0.044	0.178
-435.719	-200.000	-0.025	0.173
-434.705	-48.161	-0.203	-0.097
-433.690	-200.000	-0.021	-0.168
-432.676	-87.298	-0.349	-0.105
-431.661	-156.315	-0.287	0.018
-430.646	-79.814	0.212	-0.071
-429.632	52.869	0.066	-0.063
-428.617	-144.337	0.435	0.040
-427.603	281.656	0.129	0.230
-426.588	-97.595	-0.240	0.062
-425.573	516.972	-0.024	0.057
-424.559	606.461	-0.125	-0.311
-423.544	800.000	0.030	-0.115
-422.530	-123.534	0.228	0.036
-421.515	-200.000	-0.032	-0.148
-420.500	-152.848	-0.287	-0.020
-419.486	-2.804	0.348	-0.242
-418.471	66.368	-0.082	-0.083
-417.457	464.520	-0.068	-0.150
-416.442	800.000	-0.086	-0.247
-415.428	112.574	-0.163	-0.196
-414.413	-80.288	0.100	0.033
-413.398	-110.262	-0.197	0.041
-412.384	-130.630	0.157	-0.021
-411.369	17.414	-0.123	-0.097
-410.355	4.114	-0.085	-0.062
-409.340	-14.179	-0.280	-0.180
-408.325	800.000	0.127	0.475
-407.311	81.888	0.106	-0.114
-406.296	33.306	-0.062	-0.053
-405.282	-51.183	0.217	-0.101
-404.267	-42.246	0.252	-0.128
-403.252	44.889	0.192	-0.175
-402.238	331.467	-0.116	0.222
-401.223	800.000	-0.197	0.540
-400.209	800.000	0.043	0.163
-399.194	15.916	0.176	0.137
-398.179	-200.000	0.026	-0.236
-397.165	-200.000	-0.039	0.189
-396.150	1.794	0.027	0.019
-395.136	-100.910	-0.252	-0.061
-394.121	-134.528	0.302	0.037
-393.106	-200.000	-0.031	0.202
-392.092	-200.000	0.009	-0.141
-391.077	134.033	-0.072	0.093
-390.063	-200.000	0.007	0.100
-389.048	800.000	0.099	-0.295
-388.033	-55.710	0.066	-0.029
-387.019	-7.546	0.142	-0.095
-386.004	-200.000	-0.031	-0.416
-384.990	-85.318	0.179	0.055
-383.975	375.317	-0.048	0.098
-382.960	-92.710	0.280	0.078
-381.946	-64.507	-0.071	0.029
-380.931	-200.000	0.080	0.379
-379.917	800.000	0.032	-0.089
-378.902	51.978	-0.140	0.132
-377.888	423.507	0.052	0.111
-376.873	-200.000	-0.044	0.362
-375.858	800.000	-0.069	0.237
-374.844	-200.000	0.012	-0.105
-373.829	-123.902	-0.353	0.055
-372.815	132.586	0.120	0.153
-371.800	-142.772	0.276	-0.027
-370.785	766.936	0.058	0.157
-369.771	57.882	0.037	0.035
-368.756	-48.785	-0.206	-0.098
-367.742	-27.346	0.215	-0.124
-366.727	-8.459	0.158	-0.106
-365.712	16.051	0.174	0.136
-364.698	161.671	-0.097	-0.134
-363.683	800.000	-0.021	0.070
-362.669	39.341	0.170	0.151
-361.654	-200.000	0.027	0.162
-360.639	-200.000	0.016	-0.168
-359.625	800.000	0.078	-0.282
-358.610	39.927	0.121	0.108
-357.596	127.421	-0.053	0.067
-356.581	-200.000	-0.004	-0.094
-355.566	-172.540	-0.251	-0.008
-354.552	-0.368	-0.219	-0.154
-353.537	-139.210	-0.314	0.034
-352.523	-92.331	0.396	0.110
-351.508	-94.607	-0.174	0.047
-350.493	-94.157	0.218	0.059
-349.479	-200.000	0.013	-0.129
-348.464	800.000	-0.062	0.214
-347.450	-200.000	-0.004	0.163
-346.435	59.566	-0.112	-0.109
-345.420	-99.296	-0.348	-0.087
-344.406	800.000	-0.115	0.341
-343.391	-52.825	0.391	-0.178
-342.377	231.530	-0.172	0.280
-341.362	471.663	-0.073	-0.164
-340.348	271.745	0.053	-0.093
-339.333	-127.936	-0.240	-0.034
-338.318	-15.269	-0.195	0.123
-337.304	460.302	0.055	0.122
-336.289	354.749	0.068	-0.134
-335.275	438.966	-0.126	0.273
-334.260	71.035	0.023	-0.023
-333.245	-138.002	0.346	-0.038
-332.231	94.521	-0.149	-0.168
-331.216	75.354	0.085	0.089
-330.202	29.161	-0.199	0.167
-329.187	12.148	0.221	-0.169
-328.172	-200.000	-0.012	0.087
-327.158	26.369	0.397	0.328
-326.143	-200.000	0.003	0.013
-325.129	-200.000	0.003	-0.204
-324.114	-117.106	0.290	-0.052
-323.099	-147.928	0.221	-0.018
-322.085	-101.376	0.191	0.046
-321.070	99.498	0.265	0.304
-320.056	723.822	0.087	0.231
-319.041	653.431	-0.071	0.181
-318.026	-200.000	0.010	0.198
-317.012	800.000	0.022	-0.076
-315.997	-200.000	0.061	0.271
-314.983	32.545	-0.159	0.136
-313.968	202.744	-0.253	-0.387
-312.953	285.373	-0.117	0.208
-311.939	-135.186	0.187	0.022
-310.924	800.000	-0.120	-0.426
-309.910	-149.363	0.410	0.032
-308.895	215.166	0.115	0.181
-307.880	-24.779	0.117	0.068
-306.866	-166.646	0.199	0.008
-305.851	395.972	0.045	-0.093
-304.837	587.501	-0.063	-0.152
-303.822	-200.000	0.005	0.189
-302.807	-117.418	-0.448	0.080
-301.793	208.911	0.203	0.314
-300.778	-127.471	0.297	-0.043
-299.764	-200.000	-0.009	0.216
-298.749	443.128	0.051	-0.111
-297.735	-150.882	0.143	-0.011
-296.720	800.000	-0.039	-0.137
-295.705	800.000	-0.034	0.097
-294.691	209.273	0.240	0.372
-293.676	29.101	-0.247	-0.207
-292.662	81.422	-0.156	0.166
-291.647	-0.793	0.328	0.230
-290.632	800.000	0.045	0.152
-289.618	79.625	0.187	-0.198
-288.603	-58.379	0.121	-0.052
-287.589	18.462	0.230	0.182
-286.574	-200.000	-0.003	0.097
-285.559	-111.542	0.158	0.032
-284.545	-200.000	-0.011	-0.254
-283.530	702.401	-0.097	-0.253
-282.516	40.897	-0.079	0.071
-281.501	54.649	0.202	-0.192
-280.486	-200.000	-0.008	0.100
-279.472	-200.000	-0.040	-0.350
-278.457	500.651	0.117	-0.268
-277.443	-99.894	-0.157	0.039
-276.428	544.389	0.046	0.109
-275.413	97.765	-0.226	0.256
-274.399	303.295	0.212	0.388
-273.384	94.656	0.165	-0.185
-272.370	-88.614	0.399	0.117
-271.355	-42.349	0.218	-0.110
-270.340	800.000	-0.086	-0.284
-269.326	-200.000	-0.139	-0.000
-268.311	-200.000	0.030	0.231
-267.297	-13.050	-0.120	0.077
-266.282	114.437	0.138	0.166
-265.267	6.543	-0.399	-0.293
-264.253	554.667	0.101	0.239
-263.238	-200.000	0.017	-0.202
-262.224	-200.000	0.054	-0.380
-261.209	800.000	0.020	0.084
-260.195	-139.179	-0.246	0.026
-259.180	283.753	-0.026	-0.047
-258.165	-45.939	0.024	-0.012
-257.151	238.563	0.142	0.233
-256.136	-96.653	-0.005	-0.001
-255.122	-200.000	0.001	-0.115
-254.107	-13.219	-0.257	0.165
-253.092	-200.000	0.005	0.022
-252.078	-56.281	0.204	-0.089
-251.063	-117.383	-0.135	-0.024
-250.049	127.042	-0.207	0.259
-249.034	-200.000	-0.004	0.022
-248.019	30.164	0.099	0.083
-247.005	800.000	0.102	0.317
-245.990	474.390	0.048	0.106
-244.976	-91.111	0.510	-0.144
-243.961	137.395	0.176	-0.228
-242.946	100.865	-0.084	0.096
-241.932	-113.716	-0.294	-0.057
-240.917	149.895	0.052	0.069
-239.903	-200.000	0.004	0.119
-238.888	-87.680	0.055	0.016
-237.873	4.072	0.194	-0.140
-236.859	14.808	0.114	-0.088
-235.844	373.405	0.198	0.397
-234.830	-46.323	-0.064	-0.031
-233.815	-200.000	0.047	-0.431
-232.800	147.961	-0.058	0.078
-231.786	-59.046	-0.045	-0.019
-230.771	800.000	-0.094	0.330
-229.757	-92.437	-0.237	-0.066
-228.742	59.768	-0.158	-0.154
-227.727	361.937	-0.058	0.116
-226.713	-187.934	0.275	0.004
-225.698	-76.682	-0.222	-0.077
-224.684	800.000	-0.180	0.501
-223.669	-200.000	0.000	0.104
-222.655	-128.960	0.232	0.032
-221.640	34.104	0.082	-0.071
-220.625	87.742	-0.093	0.102
-219.611	246.509	-0.270	0.448
-218.596	-62.831	0.231	-0.094
-217.582	87.931	-0.237	-0.259
-216.567	-200.000	0.023	0.213
-215.552	305.226	0.059	0.109
-214.538	-200.000	-0.018	-0.263
-213.523	-124.382	0.180	-0.028
-212.509	-178.390	0.366	0.008
-211.494	800.000	-0.042	0.180
-210.479	666.139	0.058	-0.148
-209.465	-200.000	0.033	-0.180
-208.450	-13.272	-0.469	0.300
-207.436	-25.358	0.371	0.216
-206.421	-200.000	-0.008	-0.140
-205.406	-200.000	-0.014	-0.554
-204.392	111.571	0.046	0.055
-203.377	-120.014	-0.095	0.016
-202.363	47.642	0.219	0.202
-201.348	-42.442	0.208	0.105
-200.333	-200.000	0.018	-0.279
-199.319	30.940	0.193	0.163
-198.304	-48.069	-0.252	0.120
-197.290	-200.000	0.054	0.272
-196.275	-200.000	0.014	0.137
-195.260	-88.956	0.374	-0.109
-194.246	-160.082	0.139	-0.007
-193.231	-92.965	-0.047	-0.013
-192.217	-200.000	0.014	0.260
-191.202	43.576	-0.079	-0.071
-190.187	137.837	-0.048	0.061
-189.173	-45.017	0.158	-0.078
-188.158	-48.912	-0.085	0.040
-187.144	-200.000	0.024	0.129
-186.129	-153.212	0.253	0.017
-185.114	800.000	0.058	0.215
-184.100	-128.893	0.155	-0.021
-183.085	-200.000	0.016	0.136
-182.071	-91.412	-0.296	-0.083
-181.056	-99.586	-0.148	0.037
-180.042	671.438	-0.070	0.180
-179.027	78.747	0.075	0.079
-178.012	800.000	-0.139	-0.406
-176.998	-71.904	-0.322	0.118
-175.983	800.000	-0.130	-0.520
-174.969	49.913	-0.278	0.258
-173.954	-19.910	0.349	0.212
-172.939	215.665	0.059	-0.092
-171.925	800.000	-0.070	-0.205
-170.910	-33.953	0.062	-0.034
-169.896	-49.698	0.504	0.236
-168.881	800.000	-0.035	0.099
-167.866	-200.000	-0.003	0.196
-166.852	318.512	-0.109	0.204
-165.837	327.863	0.089	-0.168
-164.823	22.829	0.171	-0.138
-163.808	84.598	-0.185	-0.199
-162.793	100.450	0.120	0.137
-161.779	160.018	0.041	0.056
-160.764	-7.379	0.155	0.103
-159.750	33.722	-0.094	-0.080
-158.735	258.597	-0.104	-0.176
-157.720	-176.307	-0.141	-0.004
-156.706	-114.699	-0.170	-0.032
-155.691	-159.075	-0.044	-0.002
-154.677	2.758	-0.206	-0.147
-153.662	139.983	-0.084	0.108
-152.647	110.594	0.158	-0.186
-151.633	-200.000	-0.013	0.367
-150.618	-200.000	0.015	-0.209
-149.604	150.266	0.076	-0.102
-148.589	203.258	-0.153	0.232
-147.574	-200.000	0.025	0.396
-146.560	52.588	-0.143	0.134
-145.545	13.778	-0.070	0.054
-144.531	-78.545	-0.269	-0.091
-143.516	-44.509	-0.100	0.049
-142.502	-64.387	0.181	-0.073
-141.487	-200.000	0.001	0.084
-140.472	2.026	-0.231	0.164
-139.458	134.335	-0.169	0.216
-138.443	-32.688	0.216	0.118
-137.429	73.814	0.154	0.158
-136.414	41.363	0.239	-0.213
-135.399	89.283	-0.220	-0.241
-134.385	-97.025	0.135	0.035
-133.370	-200.000	-0.093	-0.404
-132.356	140.326	0.064	0.084
-131.341	-135.349	0.146	0.017
-130.326	-200.000	0.037	-0.162
-129.312	-123.149	0.251	0.040
-128.297	218.053	-0.132	-0.207
-127.283	79.011	-0.122	-0.129
-126.268	77.480	0.137	-0.143
-125.253	731.874	0.068	0.178
-124.239	-200.000	0.042	-0.350
-123.224	314.581	0.084	-0.156
-122.210	56.221	-0.193	0.184
