DTS Sentinel unit serial number:	SN413079Multiplexer serial number:	ORYXHardware model number:	OX4-SRSoftware version number:	ORYX F/W v4.00 Oryx Data Collector v3.7.2.0data status	okinstallation	princeton_trtdifferential loss correction	single-endedforward channel	channel 1reverse channel	N/Adate	2019/09/15time	22:22:35forward acquisition time	60.00reverse acquisition time	0.00gamma	496.2192k internal	0.2331k external	0.2331temperature offset calibration	0.9970default loss term (dB/km)	0.3790temperature slope calibration	1.0000multiplexer offset coefficient	1.0000multiplexer slope coefficient	1.0000fibre end	0.00T internal ref (°C)	29.31T ext. ref 1 (°C)	8.69T ext. ref 2 (°C)	22.74length (m)	temperature (°C)	Stokes	anti-Stokes-747.200	458.162	-0.108	-0.241
-746.185	800.000	-0.041	-0.135
-745.171	799.267	0.034	-0.095
-744.156	-52.302	-0.322	0.150
-743.142	40.764	0.185	0.168
-742.127	519.619	0.116	0.274
-741.112	40.167	-0.159	0.144
-740.098	-200.000	-0.021	0.595
-739.083	71.740	-0.223	0.233
-738.069	-200.000	-0.075	0.413
-737.054	124.506	0.148	0.188
-736.039	-136.775	-0.244	-0.028
-735.025	-200.000	0.023	-0.159
-734.010	375.759	0.122	0.251
-732.996	178.680	0.022	-0.033
-731.981	-131.521	-0.208	-0.028
-730.966	-131.283	-0.196	0.026
-729.952	800.000	0.062	-0.203
-728.937	-200.000	0.001	0.137
-727.923	-56.903	-0.017	0.008
-726.908	-31.092	-0.045	-0.025
-725.894	-200.000	-0.035	0.264
-724.879	-27.686	-0.168	-0.098
-723.864	-200.000	0.006	-0.081
-722.850	-200.000	-0.026	-0.193
-721.835	-200.000	-0.339	-0.000
-720.821	66.455	0.106	-0.108
-719.806	-200.000	0.012	-0.138
-718.791	347.538	0.178	-0.352
-717.777	-11.187	0.116	0.077
-716.762	-85.225	0.280	0.088
-715.748	359.515	0.042	0.085
-714.733	-84.266	0.078	-0.025
-713.718	-176.183	0.312	-0.008
-712.704	-122.103	-0.084	0.014
-711.689	-52.104	-0.076	0.035
-710.675	-200.000	-0.015	0.188
-709.660	-115.672	0.159	-0.030
-708.645	-44.764	0.314	0.158
-707.631	78.083	0.181	-0.194
-706.616	-96.590	0.168	-0.045
-705.602	-3.341	0.085	-0.059
-704.587	-200.000	-0.061	-0.460
-703.572	236.786	0.045	-0.075
-702.558	35.031	-0.318	-0.280
-701.543	99.392	0.090	-0.105
-700.529	191.343	-0.246	-0.373
-699.514	-41.588	0.250	0.129
-698.499	-97.171	0.339	-0.089
-697.485	-200.000	-0.015	-0.103
-696.470	-10.638	0.016	0.011
-695.456	-102.454	-0.265	-0.064
-694.441	-73.242	-0.312	0.115
-693.426	-200.000	-0.021	0.209
-692.412	-46.907	0.204	-0.100
-691.397	227.905	0.221	0.361
-690.383	-200.000	0.013	-0.166
-689.368	-200.000	-0.013	-0.216
-688.354	-115.030	0.148	0.028
-687.339	237.659	-0.113	0.188
-686.324	738.931	-0.171	0.461
-685.310	-80.826	0.143	0.048
-684.295	800.000	-0.007	0.029
-683.281	-111.071	-0.245	0.051
-682.266	105.379	0.262	-0.311
-681.251	-200.000	0.031	-0.194
-680.237	-200.000	-0.020	0.144
-679.222	-60.372	0.340	-0.145
-678.208	51.592	0.166	0.159
-677.193	61.082	0.212	-0.211
-676.178	-59.353	0.194	-0.084
-675.164	142.239	-0.302	-0.403
-674.149	-145.416	0.208	-0.019
-673.135	448.138	0.154	0.341
-672.120	254.707	0.163	0.281
-671.105	-200.000	-0.002	0.243
-670.091	800.000	0.005	-0.018
-669.076	-200.000	-0.000	0.118
-668.062	1.493	-0.140	0.101
-667.047	228.921	-0.184	0.302
-666.032	24.963	-0.203	0.169
-665.018	-46.446	0.084	0.041
-664.003	270.243	-0.012	0.021
-662.989	-86.649	-0.138	0.042
-661.974	264.911	0.105	0.183
-660.959	191.961	-0.161	-0.244
-659.945	-186.310	-0.077	0.001
-658.930	-200.000	0.065	0.398
-657.916	59.761	0.137	0.135
-656.901	171.027	0.254	0.366
-655.886	-42.253	0.223	0.114
-654.872	549.763	-0.110	0.265
-653.857	-16.267	0.174	-0.111
-652.843	13.088	-0.057	-0.044
-651.828	-89.151	0.421	-0.125
-650.814	-71.466	-0.232	-0.087
-649.799	-200.000	0.099	0.525
-648.784	75.884	-0.179	-0.190
-647.770	-62.966	-0.243	0.101
-646.755	414.876	-0.048	0.102
-645.741	298.223	-0.108	-0.198
-644.726	-15.635	-0.099	-0.063
-643.711	106.689	0.127	0.151
-642.697	129.866	-0.214	-0.274
-641.682	-137.109	0.071	-0.008
-640.668	-102.937	0.308	0.073
-639.653	322.246	-0.041	0.078
-638.638	-200.000	-0.034	-0.192
-637.624	105.644	0.251	-0.297
-636.609	-200.000	-0.021	0.142
-635.595	-30.960	0.022	0.012
-634.580	-3.836	0.135	-0.094
-633.565	-109.816	-0.299	0.063
-632.551	-200.000	-0.032	-0.192
-631.536	-200.000	0.021	-0.162
-630.522	-200.000	-0.004	0.220
-629.507	176.303	-0.107	0.156
-628.492	-80.237	0.087	-0.029
-627.478	12.031	-0.324	0.250
-626.463	-200.000	-0.014	0.261
-625.449	296.416	-0.077	-0.141
-624.434	-200.000	-0.020	-0.128
-623.419	-31.613	-0.245	-0.138
-622.405	320.265	0.033	-0.063
-621.390	-200.000	0.029	0.384
-620.376	-148.474	-0.368	-0.030
-619.361	597.648	0.081	0.201
-618.346	111.138	0.270	0.325
-617.332	0.078	0.052	-0.037
-616.317	197.295	-0.173	0.265
-615.303	276.752	-0.053	0.094
-614.288	-75.221	-0.084	0.030
-613.273	647.312	0.116	0.297
-612.259	7.048	0.041	0.031
-611.244	96.150	0.081	-0.093
-610.230	-133.967	0.138	0.017
-609.215	-200.000	-0.085	0.457
-608.201	800.000	-0.036	-0.124
-607.186	-66.135	-0.200	-0.080
-606.171	370.525	-0.156	-0.317
-605.157	146.580	-0.163	0.219
-604.142	-44.161	0.213	0.107
-603.128	23.806	0.069	-0.057
-602.113	501.107	-0.128	0.296
-601.098	306.296	-0.015	0.029
-600.084	238.778	0.123	-0.205
-599.069	-14.323	0.117	0.075
-598.055	-90.786	-0.137	0.039
-597.040	-200.000	-0.081	-0.534
-596.025	-44.011	-0.236	-0.119
-595.011	113.404	-0.125	-0.152
-593.996	538.182	0.106	-0.253
-592.982	-85.003	-0.070	0.022
-591.967	-15.488	-0.203	0.130
-590.952	-123.239	0.173	-0.028
-589.938	166.916	0.073	-0.104
-588.923	465.067	-0.127	-0.284
-587.909	651.074	-0.120	-0.307
-586.894	53.260	0.101	-0.097
-585.879	-94.335	0.275	0.075
-584.865	-186.507	0.235	0.003
-583.850	-50.990	-0.229	0.108
-582.836	-95.448	-0.221	-0.059
-581.821	253.742	0.145	-0.247
-580.806	-200.000	-0.053	-0.250
-579.792	-200.000	-0.012	-0.142
-578.777	65.377	-0.227	-0.230
-577.763	373.257	0.163	0.332
-576.748	350.008	-0.108	-0.213
-575.733	800.000	0.039	-0.115
-574.719	-76.719	-0.196	0.068
-573.704	-30.730	0.168	-0.095
-572.690	-200.000	-0.009	-0.111
-571.675	-200.000	0.028	-0.208
-570.661	800.000	-0.052	-0.198
-569.646	-200.000	0.098	0.449
-568.631	-119.220	-0.228	-0.040
-567.617	126.186	0.105	-0.132
-566.602	570.271	-0.095	0.230
-565.588	-30.662	0.340	0.192
-564.573	800.000	-0.043	0.128
-563.558	0.172	0.338	0.241
-562.544	439.640	-0.095	0.208
-561.529	122.848	-0.093	-0.116
-560.515	-67.338	-0.397	0.156
-559.500	189.989	0.241	-0.361
-558.485	-35.875	-0.369	-0.200
-557.471	-178.506	0.304	0.007
-556.456	-81.769	0.170	0.056
-555.442	-126.060	0.172	0.026
-554.427	800.000	0.088	-0.299
-553.412	-142.670	0.280	0.027
-552.398	132.630	-0.103	0.133
-551.383	-94.712	-0.351	0.095
-550.369	61.044	0.377	-0.374
-549.354	-200.000	0.053	0.319
-548.339	254.917	-0.082	-0.140
-547.325	800.000	-0.019	0.068
-546.310	-86.656	-0.205	0.063
-545.296	-104.139	-0.230	-0.053
-544.281	800.000	0.049	-0.177
-543.266	406.553	0.180	-0.380
-542.252	53.069	0.132	-0.126
-541.237	61.382	0.260	-0.258
-540.223	11.501	-0.072	0.055
-539.208	-30.592	0.182	0.103
-538.193	55.872	0.258	-0.250
-537.179	19.125	-0.098	-0.078
-536.164	-42.158	-0.280	0.143
-535.150	-200.000	0.046	0.383
-534.135	-200.000	0.027	-0.261
-533.121	11.865	-0.099	0.076
-532.106	-141.406	-0.188	-0.019
-531.091	722.388	0.042	0.110
-530.077	54.542	-0.074	0.071
-529.062	800.000	0.094	0.308
-528.048	-136.430	-0.207	0.024
-527.033	251.861	0.120	-0.204
-526.018	-32.086	0.245	0.137
-525.004	-108.661	-0.231	-0.049
-523.989	800.000	0.052	0.203
-522.975	428.944	-0.078	-0.169
-521.960	-200.000	0.004	-0.184
-520.945	-48.991	-0.245	0.117
-519.931	-200.000	0.017	-0.076
-518.916	-95.678	0.096	-0.026
-517.902	24.674	0.122	-0.101
-516.887	-200.000	0.097	-0.599
-515.872	-200.000	-0.012	0.074
-514.858	800.000	0.089	-0.257
-513.843	119.863	0.189	0.233
-512.829	459.379	0.145	0.322
-511.814	-200.000	0.044	-0.245
-510.799	144.362	0.202	-0.268
-509.785	-72.377	0.114	-0.042
-508.770	-131.652	-0.361	0.047
-507.756	800.000	0.058	-0.204
-506.741	29.016	-0.228	-0.193
-505.726	-65.581	0.322	0.129
-504.712	-90.925	0.317	-0.091
-503.697	-96.994	0.231	-0.060
-502.683	-200.000	0.004	0.456
-501.668	205.901	0.101	-0.157
-500.653	-84.404	0.392	0.124
-499.639	252.264	-0.183	0.312
-498.624	-200.000	-0.051	-0.382
-497.610	-200.000	0.013	-0.314
-496.595	383.486	0.181	0.372
-495.581	28.504	-0.255	0.215
-494.566	-200.000	-0.031	0.463
-493.551	800.000	0.024	0.102
-492.537	15.434	0.024	0.019
-491.522	-44.136	0.140	0.070
-490.508	281.165	-0.034	0.060
-489.493	169.756	-0.123	-0.175
-488.478	-166.855	-0.284	-0.012
-487.464	-200.000	0.027	0.290
-486.449	-62.922	-0.100	0.041
-485.435	-200.000	-0.115	0.000
-484.420	-200.000	0.024	-0.232
-483.405	27.217	-0.179	-0.150
-482.391	-200.000	0.010	-0.070
-481.376	-98.423	-0.343	0.087
-480.362	161.112	-0.024	-0.033
-479.347	-21.443	0.279	-0.170
-478.332	109.719	-0.153	-0.182
-477.318	-123.161	0.127	-0.020
-476.303	-200.000	-0.099	0.526
-475.289	-200.000	0.013	0.205
-474.274	19.158	0.151	-0.120
-473.259	-200.000	0.028	-0.132
-472.245	800.000	-0.106	0.315
-471.230	276.154	0.093	0.165
-470.216	-200.000	-0.044	-0.201
-469.201	-200.000	-0.060	0.269
-468.186	-200.000	0.025	-0.158
-467.172	127.763	-0.021	-0.027
-466.157	-200.000	-0.011	-0.494
-465.143	800.000	0.079	-0.276
-464.128	-200.000	0.000	0.496
-463.113	225.445	0.023	0.037
-462.099	704.273	-0.063	-0.164
-461.084	206.192	0.015	-0.023
-460.070	-101.187	0.292	0.071
-459.055	83.425	-0.151	0.164
-458.040	-142.519	0.037	-0.004
-457.026	22.123	0.109	-0.089
-456.011	-54.338	-0.132	0.059
-454.997	128.831	0.101	0.129
-453.982	52.881	0.039	0.037
-452.968	-69.873	0.193	0.073
-451.953	-8.188	0.254	0.170
-450.938	-200.000	-0.012	-0.110
-449.924	68.480	-0.313	0.319
-448.909	-121.049	0.061	0.010
-447.895	-37.698	-0.343	-0.182
-446.880	-200.000	-0.026	-0.259
-445.865	-200.000	-0.015	-0.189
-444.851	46.798	0.059	0.055
-443.836	597.990	0.155	-0.383
-442.822	-0.771	-0.157	0.111
-441.807	31.386	-0.130	-0.111
-440.792	-200.000	0.061	0.307
-439.778	-181.682	-0.236	-0.005
-438.763	504.596	0.147	-0.338
-437.749	206.654	0.139	-0.216
-436.734	390.155	-0.056	-0.116
-435.719	-30.649	0.121	0.068
-434.705	-69.816	-0.077	0.029
-433.690	11.969	0.203	0.155
-432.676	167.837	0.030	0.043
-431.661	-187.095	0.321	-0.004
-430.646	-147.733	0.163	0.014
-429.632	-43.029	-0.158	0.079
-428.617	-200.000	0.044	0.249
-427.603	148.989	-0.061	0.083
-426.588	-200.000	0.004	0.173
-425.573	3.195	0.064	-0.046
-424.559	66.818	0.084	-0.085
-423.544	376.373	0.263	-0.533
-422.530	176.177	-0.192	-0.277
-421.515	-8.892	-0.083	-0.055
-420.500	65.524	-0.124	0.125
-419.486	80.998	-0.077	0.082
-418.471	-200.000	-0.057	-0.318
-417.457	253.494	-0.074	-0.125
-416.442	-100.353	-0.201	0.050
-415.428	37.156	-0.131	-0.116
-414.413	132.610	0.119	-0.152
-413.398	800.000	0.031	0.094
-412.384	-200.000	-0.013	0.126
-411.369	365.177	-0.138	-0.276
-410.355	-200.000	-0.018	0.191
-409.340	282.665	-0.040	0.071
-408.325	-49.354	0.082	0.039
-407.311	34.612	0.171	-0.148
-406.296	-88.113	0.359	0.107
-405.282	-200.000	-0.026	0.172
-404.267	16.739	0.132	-0.104
-403.252	-120.758	-0.093	0.016
-402.238	800.000	0.056	0.203
-401.223	-2.254	0.132	-0.092
-400.209	-146.997	-0.342	0.029
-399.194	15.724	0.026	0.020
-398.179	800.000	0.027	0.111
-397.165	-200.000	0.051	-0.609
-396.150	5.139	-0.109	-0.080
-395.136	-200.000	-0.497	0.002
-394.121	-200.000	0.021	0.221
-393.106	65.562	-0.074	0.074
-392.092	8.369	0.169	-0.126
-391.077	-12.174	-0.137	-0.089
-390.063	800.000	-0.067	-0.209
-389.048	39.176	0.217	0.193
-388.033	-94.806	0.207	-0.056
-387.019	-132.284	-0.095	-0.012
-386.004	392.671	-0.048	-0.099
-384.990	800.000	0.032	-0.098
-383.975	101.384	0.217	-0.250
-382.960	675.525	-0.074	0.192
-381.946	46.997	0.122	-0.112
-380.931	-200.000	0.038	0.250
-379.917	-111.426	-0.228	-0.046
-378.902	293.155	0.052	-0.095
-377.888	-96.621	-0.067	0.018
-376.873	-156.845	-0.322	-0.020
-375.858	72.472	0.125	0.129
-374.844	130.571	0.128	-0.163
-373.829	-200.000	0.015	-0.348
-372.815	106.342	-0.317	-0.373
-371.800	-200.000	-0.079	0.431
-370.785	-12.351	0.107	-0.070
-369.771	-24.298	0.209	0.124
-368.756	435.124	-0.068	-0.147
-367.742	800.000	0.077	-0.244
-366.727	-131.877	0.195	0.025
-365.712	-44.391	0.251	0.125
-364.698	800.000	-0.030	0.111
-363.683	-91.006	-0.082	-0.023
-362.669	-200.000	-0.042	0.423
-361.654	-200.000	-0.018	0.273
-360.639	800.000	-0.103	-0.317
-359.625	69.666	-0.151	-0.154
-358.610	225.887	0.034	-0.054
-357.596	-148.447	-0.016	0.001
-356.581	800.000	-0.025	0.094
-355.566	-72.585	-0.278	-0.102
-354.552	-200.000	0.025	-0.475
-353.537	187.853	0.143	0.212
-352.523	-200.000	-0.036	-0.183
-351.508	-13.542	-0.116	0.074
-350.493	-200.000	-0.006	0.055
-349.479	1.960	0.154	-0.110
-348.464	192.003	0.128	0.192
-347.450	46.866	-0.184	-0.170
-346.435	800.000	0.026	-0.092
-345.420	-200.000	0.004	-0.035
-344.406	-127.540	-0.263	0.038
-343.391	-200.000	-0.002	0.241
-342.377	4.336	0.141	-0.102
-341.362	453.115	0.130	0.285
-340.348	268.713	-0.186	-0.323
-339.333	800.000	-0.028	0.113
-338.318	275.786	0.021	0.038
-337.304	-200.000	0.016	-0.108
-336.289	-89.290	0.190	0.056
-335.275	-156.227	-0.414	0.026
-334.260	398.133	0.051	0.106
-333.245	-200.000	-0.045	-0.221
-332.231	0.132	-0.208	-0.147
-331.216	588.942	-0.093	-0.226
-330.202	-31.970	-0.144	0.080
-329.187	-22.762	0.249	0.149
-328.172	75.027	-0.183	0.191
-327.158	-41.175	-0.192	-0.098
-326.143	9.870	-0.154	0.116
-325.129	741.352	-0.066	0.176
-324.114	72.149	-0.132	0.136
-323.099	-200.000	0.013	-0.059
-322.085	-128.970	-0.243	0.034
-321.070	8.114	-0.059	0.044
-320.056	-142.792	-0.167	-0.016
-319.041	179.764	-0.023	-0.033
-318.026	-32.769	0.120	-0.066
-317.012	-17.651	0.207	0.128
-315.997	800.000	0.043	0.175
-314.983	-46.406	-0.201	-0.098
-313.968	-61.780	-0.195	-0.081
-312.953	800.000	0.080	0.281
-311.939	-200.000	-0.060	-0.380
-310.924	-3.423	0.047	-0.032
-309.910	-98.028	0.446	-0.114
-308.895	18.988	0.191	-0.152
-307.880	-200.000	-0.003	0.062
-306.866	-55.065	-0.127	0.057
-305.851	-14.821	0.337	0.214
-304.837	-150.579	0.134	-0.010
-303.822	-136.086	-0.163	-0.019
-302.807	135.360	0.100	-0.128
-301.793	800.000	0.048	-0.134
-300.778	587.335	0.072	0.175
-299.764	30.681	0.030	0.025
-298.749	270.745	0.133	-0.232
-297.735	-200.000	0.010	-0.185
-296.720	36.622	-0.174	0.152
-295.705	147.464	-0.074	0.099
-294.691	-200.000	0.050	0.255
-293.676	306.703	-0.069	-0.128
-292.662	-7.320	0.174	-0.116
-291.647	-200.000	0.020	-0.254
-290.632	-81.326	0.280	0.091
-289.618	-76.003	0.280	-0.098
-288.603	4.966	-0.206	-0.150
-287.589	-200.000	-0.053	0.261
-286.574	-200.000	0.012	0.374
-285.559	800.000	-0.082	0.267
-284.545	-159.674	0.034	-0.002
-283.530	332.552	-0.041	0.079
-282.516	-152.298	-0.228	0.016
-281.501	-46.595	-0.235	-0.114
-280.486	15.724	0.163	-0.127
-279.472	30.673	-0.152	-0.129
-278.457	800.000	0.100	0.325
-277.443	39.611	-0.101	0.089
-276.428	19.893	-0.094	-0.075
-275.413	419.084	-0.030	-0.063
-274.399	-200.000	-0.034	0.162
-273.384	-150.278	0.079	0.006
-272.370	-200.000	-0.002	-0.424
-271.355	215.691	0.071	-0.111
-270.340	87.731	0.141	-0.154
-269.326	598.545	0.083	0.204
-268.311	454.854	0.083	-0.182
-267.297	45.547	0.074	-0.067
-266.282	800.000	0.062	0.254
-265.267	-104.389	0.060	0.014
-264.253	311.843	0.218	-0.405
-263.238	-79.386	-0.248	-0.083
-262.224	-200.000	-0.008	-0.054
-261.209	-200.000	0.008	-0.063
-260.195	94.562	-0.317	-0.356
-259.180	185.037	0.085	0.124
-258.165	-12.218	0.255	0.165
-257.151	-200.000	0.025	0.127
-256.136	-11.288	0.185	0.120
-255.122	151.175	-0.054	-0.072
-254.107	372.038	-0.166	0.333
-253.092	-75.687	0.230	0.081
-252.078	-200.000	-0.055	-0.263
-251.063	-73.427	-0.278	-0.100
-250.049	-30.829	0.214	0.119
-249.034	89.833	-0.104	0.114
-248.019	483.699	-0.098	-0.219
-247.005	800.000	0.110	0.415
-245.990	96.733	0.164	0.186
-244.976	-62.383	-0.190	0.078
-243.961	174.507	0.133	0.190
-242.946	13.599	-0.237	0.181
-241.932	-3.225	0.368	0.253
-240.917	6.189	0.240	0.175
-239.903	-200.000	0.017	0.226
-238.888	-200.000	-0.020	0.380
-237.873	17.601	0.176	0.138
-236.859	-150.950	0.220	-0.016
-235.844	1.954	0.125	0.089
-234.830	138.565	-0.173	-0.224
-233.815	-161.056	0.076	-0.004
-232.800	-153.017	0.146	0.010
-231.786	386.935	0.044	0.089
-230.771	-108.049	-0.122	-0.026
-229.757	800.000	-0.063	-0.225
-228.742	507.822	0.038	0.088
-227.727	-51.244	-0.102	-0.047
-226.713	-200.000	-0.039	-0.198
-225.698	-200.000	0.081	-0.380
-224.684	259.504	-0.157	-0.267
-223.669	-200.000	0.009	-0.117
-222.655	129.841	0.037	-0.046
-221.640	-113.937	0.336	0.064
-220.625	-200.000	-0.066	0.295
-219.611	600.772	0.102	0.250
-218.596	-71.031	-0.321	0.119
-217.582	800.000	-0.079	-0.300
-216.567	612.192	-0.092	-0.226
-215.552	616.301	0.072	-0.179
-214.538	-41.201	0.049	0.025
-213.523	206.550	-0.075	-0.115
-212.509	-200.000	0.018	-0.124
-211.494	152.502	0.075	-0.101
-210.479	-62.929	0.143	0.058
-209.465	69.595	0.056	-0.057
-208.450	-131.414	0.190	-0.025
-207.436	6.577	-0.255	-0.187
-206.421	377.291	-0.169	0.339
-205.406	-192.227	-0.341	0.003
-204.392	800.000	0.030	-0.116
-203.377	257.750	0.055	-0.093
-202.363	211.619	-0.155	0.240
-201.348	-200.000	-0.004	-0.154
-200.333	800.000	0.070	-0.251
-199.319	-44.432	0.084	-0.042
-198.304	-93.447	0.364	0.099
-197.290	-154.061	-0.123	-0.008
-196.275	-131.424	0.446	-0.058
-195.260	-94.725	-0.291	-0.078
-194.246	100.561	0.151	-0.172
-193.231	-151.127	0.324	-0.024
-192.217	203.235	0.156	-0.237
-191.202	108.384	-0.102	-0.120
-190.187	-134.276	-0.396	-0.048
-189.173	-200.000	0.036	-0.213
-188.158	800.000	-0.055	0.150
-187.144	-200.000	-0.077	-0.348
-186.129	-67.735	0.120	0.046
-185.114	-97.938	-0.441	0.112
-184.100	-200.000	0.023	0.196
-183.085	800.000	0.073	0.208
-182.071	-200.000	-0.022	0.206
-181.056	2.233	0.062	0.044
-180.042	48.894	-0.055	-0.051
-179.027	-200.000	-0.032	-0.298
-178.012	122.931	-0.177	0.218
-176.998	800.000	-0.045	0.128
-175.983	462.450	-0.192	0.423
-174.969	226.145	0.197	0.314
-173.954	-183.784	-0.200	-0.003
-172.939	-200.000	0.028	0.247
-171.925	32.789	-0.184	0.156
-170.910	4.055	-0.141	-0.102
-169.896	-168.096	0.552	-0.021
-168.881	-200.000	-0.017	0.415
-167.866	-45.742	0.203	-0.099
-166.852	211.195	0.149	-0.230
-165.837	-156.653	-0.303	0.018
-164.823	-39.327	-0.546	0.282
-163.808	88.998	-0.133	0.146
-162.793	800.000	0.049	-0.139
-161.779	-200.000	0.022	0.362
-160.764	-200.000	0.055	0.384
-159.750	31.394	0.263	0.223
-158.735	467.696	0.066	0.145
-157.720	-200.000	0.083	0.438
-156.706	40.290	0.159	0.141
-155.691	800.000	-0.051	-0.164
-154.677	38.665	-0.026	0.023
-153.662	800.000	0.021	0.075
-152.647	800.000	0.060	0.205
-151.633	-103.649	0.204	-0.047
-150.618	-78.368	-0.248	-0.084
-149.604	-46.553	0.118	-0.057
-148.589	-68.530	-0.123	0.047
-147.574	182.133	0.127	0.184
-146.560	-128.310	-0.118	-0.017
-145.545	73.592	0.185	0.190
-144.531	-200.000	-0.055	0.483
-143.516	-200.000	-0.027	0.251
-142.502	800.000	0.023	0.088
-141.487	-52.080	0.292	-0.133
-140.472	-124.264	0.168	-0.026
-139.458	-42.282	0.206	0.103
-138.443	-57.304	0.268	-0.116
-137.429	276.048	-0.125	0.219
-136.414	-125.087	0.251	0.038
-135.399	27.773	0.263	0.218
-134.385	-88.794	0.478	0.140
-133.370	-89.647	-0.289	-0.083
-132.356	-200.000	0.045	-0.376
-131.341	186.094	-0.061	0.089
-130.326	-200.000	0.057	0.324
-129.312	710.567	0.017	0.044
-128.297	800.000	-0.072	-0.289
-127.283	209.766	0.117	-0.181
-126.268	203.146	-0.259	0.393
-125.253	-49.698	0.302	0.141
-124.239	-141.803	-0.355	-0.035
-123.224	-200.000	-0.001	0.269
-122.210	-66.731	0.278	0.108
-121.195	116.715	0.045	0.054
