DTS Sentinel unit serial number:	SN413079Multiplexer serial number:	ORYXHardware model number:	OX4-SRSoftware version number:	ORYX F/W v4.00 Oryx Data Collector v3.7.2.0data status	okinstallation	princeton_trtdifferential loss correction	single-endedforward channel	channel 1reverse channel	N/Adate	2019/09/16time	22:54:35forward acquisition time	60.00reverse acquisition time	0.00gamma	496.2192k internal	0.2325k external	0.2325temperature offset calibration	0.9958default loss term (dB/km)	0.3790temperature slope calibration	1.0000multiplexer offset coefficient	1.0000multiplexer slope coefficient	1.0000fibre end	0.00T internal ref (°C)	30.44T ext. ref 1 (°C)	0.09T ext. ref 2 (°C)	24.00length (m)	temperature (°C)	Stokes	anti-Stokes-747.200	507.479	0.116	0.271
-746.185	-5.442	-0.219	0.152
-745.171	71.891	0.263	0.276
-744.156	317.514	-0.087	0.166
-743.142	-200.000	-0.007	0.307
-742.127	-69.460	-0.414	-0.160
-741.112	16.831	0.269	-0.215
-740.098	-20.449	-0.338	0.210
-739.083	-200.000	-0.007	0.103
-738.069	-64.295	0.127	-0.052
-737.054	-104.023	-0.368	0.087
-736.039	-21.613	-0.353	0.217
-735.025	-148.736	0.322	0.026
-734.010	161.835	-0.075	-0.106
-732.996	-12.115	-0.170	-0.112
-731.981	-164.337	0.040	-0.002
-730.966	-67.730	0.207	-0.082
-729.952	596.400	-0.100	0.251
-728.937	-143.534	-0.164	0.016
-727.923	76.617	0.186	0.198
-726.908	800.000	0.038	-0.132
-725.894	25.295	-0.270	-0.226
-724.879	-110.207	0.099	-0.021
-723.864	90.933	0.112	0.127
-722.850	-11.548	0.158	-0.105
-721.835	800.000	0.064	0.187
-720.821	29.891	0.087	0.074
-719.806	-200.000	0.031	0.358
-718.791	-14.740	0.178	0.115
-717.777	202.315	0.131	0.204
-716.762	800.000	0.101	-0.376
-715.748	212.938	0.047	-0.075
-714.733	-147.505	0.016	-0.001
-713.718	800.000	-0.025	-0.088
-712.704	468.208	0.081	0.183
-711.689	-148.396	0.136	0.011
-710.675	70.586	-0.196	0.205
-709.660	38.413	0.324	-0.291
-708.645	139.471	-0.339	0.450
-707.631	209.257	0.157	0.248
-706.616	399.022	0.115	-0.244
-705.602	-185.073	-0.464	-0.007
-704.587	-125.231	-0.063	-0.010
-703.572	-200.000	-0.050	-0.230
-702.558	90.824	-0.102	0.116
-701.543	194.190	-0.188	-0.287
-700.529	-50.082	0.144	-0.069
-699.514	-117.818	-0.102	0.018
-698.499	-126.579	-0.296	0.044
-697.485	-200.000	-0.011	0.116
-696.470	-200.000	-0.025	-0.232
-695.456	-152.891	-0.196	-0.014
-694.441	-200.000	-0.012	-0.222
-693.426	-14.933	-0.328	0.212
-692.412	800.000	-0.025	-0.105
-691.397	49.554	0.184	-0.175
-690.383	-47.290	-0.298	-0.146
-689.368	56.723	0.129	0.126
-688.354	63.475	0.128	0.129
-687.339	-33.678	-0.231	-0.128
-686.324	-200.000	-0.042	-0.219
-685.310	-114.141	-0.254	0.050
-684.295	-68.560	-0.146	-0.057
-683.281	800.000	0.088	0.332
-682.266	-143.307	0.054	0.005
-681.251	1.054	-0.057	0.041
-680.237	-139.489	-0.190	-0.020
-679.222	-110.766	-0.188	-0.039
-678.208	142.639	-0.170	-0.228
-677.193	247.731	-0.120	0.204
-676.178	800.000	-0.079	0.221
-675.164	-81.532	-0.311	0.103
-674.149	237.726	0.137	-0.228
-673.135	800.000	-0.074	-0.287
-672.120	800.000	0.050	-0.172
-671.105	434.757	-0.083	0.181
-670.091	-200.000	0.035	-0.343
-669.076	-170.312	0.526	-0.019
-668.062	415.873	-0.216	-0.463
-667.047	-53.031	-0.174	-0.080
-666.032	-73.279	0.320	-0.118
-665.018	-200.000	-0.082	-0.390
-664.003	-94.785	-0.422	-0.115
-662.989	42.493	0.039	0.035
-661.974	-200.000	0.046	0.473
-660.959	10.516	-0.213	-0.163
-659.945	800.000	-0.016	-0.058
-658.930	-200.000	0.105	-0.501
-657.916	-106.673	0.183	-0.041
-656.901	106.942	0.060	0.072
-655.886	121.886	-0.134	-0.168
-654.872	139.991	0.085	-0.113
-653.857	55.875	-0.088	-0.086
-652.843	800.000	-0.054	-0.172
-651.828	50.768	-0.136	-0.129
-650.814	-148.294	-0.320	-0.026
-649.799	-36.133	0.114	-0.062
-648.784	317.920	-0.054	0.103
-647.770	-142.213	0.049	0.005
-646.755	404.048	-0.127	-0.269
-645.741	-76.986	-0.208	-0.073
-644.726	-75.900	-0.225	0.080
-643.711	-183.594	-0.378	0.007
-642.697	54.319	0.085	-0.082
-641.682	-77.509	0.408	0.142
-640.668	205.472	0.057	0.088
-639.653	84.250	-0.066	0.073
-638.638	-135.233	-0.253	-0.030
-637.624	-200.000	0.003	-0.044
-636.609	-123.251	0.149	-0.024
-635.595	-200.000	-0.019	-0.238
-634.580	6.879	0.164	-0.122
-633.565	-103.287	-0.267	-0.063
-632.551	-200.000	-0.019	0.483
-631.536	800.000	0.069	0.204
-630.522	48.667	0.248	0.234
-629.507	47.658	-0.312	-0.292
-628.492	-127.391	-0.184	0.027
-627.478	-93.581	-0.303	-0.084
-626.463	-138.316	-0.285	-0.032
-625.449	-175.977	-0.206	0.005
-624.434	8.923	-0.073	0.055
-623.419	800.000	-0.077	-0.229
-622.405	800.000	0.128	0.401
-621.390	-34.053	0.176	0.097
-620.376	10.202	0.079	0.060
-619.361	-58.071	-0.336	0.147
-618.346	-13.390	0.224	-0.146
-617.332	-99.371	0.107	-0.027
-616.317	-200.000	-0.001	0.045
-615.303	170.073	-0.221	0.317
-614.288	-49.245	-0.285	-0.137
-613.273	-140.821	0.164	-0.017
-612.259	-200.000	0.003	0.187
-611.244	444.405	-0.062	-0.138
-610.230	-200.000	-0.028	-0.410
-609.215	-200.000	-0.064	-0.284
-608.201	-103.162	-0.335	-0.080
-607.186	-99.251	0.169	-0.043
-606.171	231.036	-0.126	0.207
-605.157	57.305	0.154	0.151
-604.142	800.000	0.051	-0.199
-603.128	73.762	0.128	0.135
-602.113	-9.810	0.121	-0.081
-601.098	292.903	-0.221	-0.405
-600.084	-114.659	0.311	0.060
-599.069	-124.132	0.240	0.038
-598.055	-200.000	0.032	-0.389
-597.040	-102.367	0.075	-0.018
-596.025	800.000	-0.074	-0.236
-595.011	43.435	0.288	0.264
-593.996	800.000	0.126	-0.355
-592.982	-53.053	-0.112	-0.052
-591.967	-52.327	-0.238	-0.110
-590.952	-200.000	-0.017	0.128
-589.938	-200.000	-0.066	0.330
-588.923	149.589	0.043	0.059
-587.909	289.331	-0.076	-0.138
-586.894	-187.083	-0.161	0.002
-585.879	800.000	-0.057	0.161
-584.865	-97.027	-0.198	0.052
-583.850	-140.535	0.161	-0.017
-582.836	-200.000	-0.074	0.364
-581.821	-126.956	0.293	0.043
-580.806	-146.456	0.456	-0.040
-579.792	-50.158	-0.183	-0.087
-578.777	54.876	-0.078	0.075
-577.763	-200.000	-0.024	-0.133
-576.748	-94.448	-0.249	0.068
-575.733	-18.785	-0.069	-0.043
-574.719	73.915	0.265	-0.279
-573.704	143.448	0.288	-0.384
-572.690	51.245	-0.271	-0.257
-571.675	59.358	0.274	0.270
-570.661	254.003	0.079	0.135
-569.646	-42.631	0.164	0.084
-568.631	-111.460	0.129	0.026
-567.617	296.490	-0.141	-0.259
-566.602	37.555	-0.127	-0.113
-565.588	-159.105	-0.124	-0.007
-564.573	-130.846	0.073	0.010
-563.558	296.679	-0.045	-0.082
-562.544	-107.177	-0.323	-0.071
-561.529	-200.000	-0.110	0.000
-560.515	-25.380	0.111	-0.066
-559.500	-54.247	-0.191	0.087
-558.485	800.000	-0.063	0.209
-557.471	-22.540	-0.164	-0.099
-556.456	-140.615	-0.231	0.024
-555.442	136.948	-0.030	0.039
-554.427	68.574	0.238	-0.245
-553.412	-200.000	-0.006	-0.061
-552.398	-70.381	0.228	0.087
-551.383	-14.182	-0.343	-0.221
-550.369	-168.537	0.140	0.005
-549.354	364.413	0.030	0.061
-548.339	124.064	0.195	-0.246
-547.325	614.806	0.110	-0.276
-546.310	-200.000	0.010	-0.313
-545.296	-200.000	0.019	0.155
-544.281	548.378	-0.058	-0.140
-543.266	196.908	0.186	-0.283
-542.252	-76.853	-0.320	0.112
-541.237	-96.242	0.154	0.041
-540.223	-200.000	-0.022	0.348
-539.208	-180.580	0.149	0.003
-538.193	-17.377	-0.380	-0.239
-537.179	-200.000	0.010	-0.077
-536.164	29.246	-0.077	0.065
-535.150	-154.450	0.331	0.022
-534.135	-14.685	0.333	0.214
-533.121	-200.000	0.044	0.255
-532.106	470.673	-0.074	-0.166
-531.091	463.616	0.034	-0.077
-530.077	800.000	0.052	-0.177
-529.062	195.142	0.225	-0.341
-528.048	-200.000	0.008	0.354
-527.033	-109.883	-0.074	-0.015
-526.018	177.746	-0.205	0.299
-525.004	79.189	-0.149	-0.159
-523.989	-86.996	-0.269	-0.082
-522.975	459.228	-0.083	-0.184
-521.960	82.521	-0.011	-0.012
-520.945	-129.142	0.376	-0.053
-519.931	-67.014	-0.431	-0.170
-518.916	-95.095	-0.116	0.031
-517.902	-200.000	0.021	-0.261
-516.887	556.931	0.039	-0.095
-515.872	-120.844	-0.210	0.035
-514.858	-37.863	-0.388	0.206
-513.843	164.640	-0.028	0.039
-512.829	406.029	0.238	0.503
-511.814	-200.000	0.025	0.238
-510.799	-200.000	0.027	0.165
-509.785	-25.598	0.385	0.227
-508.770	-67.561	-0.183	0.072
-507.756	-103.964	0.135	-0.031
-506.741	-161.498	-0.287	0.015
-505.726	-200.000	-0.018	0.164
-504.712	-190.888	-0.188	-0.002
-503.697	-142.920	-0.408	0.040
-502.683	276.240	0.108	0.192
-501.668	-200.000	0.024	0.300
-500.653	146.486	0.168	-0.225
-499.639	44.187	0.059	0.054
-498.624	197.639	-0.087	0.133
-497.610	146.240	0.140	-0.188
-496.595	380.396	0.122	-0.251
-495.581	401.787	0.050	-0.106
-494.566	632.632	0.055	-0.140
-493.551	41.231	-0.319	0.288
-492.537	-90.594	-0.358	0.103
-491.522	-12.633	0.110	0.072
-490.508	-20.559	0.263	0.161
-489.493	-80.001	0.368	-0.123
-488.478	-63.652	-0.186	-0.076
-487.464	-68.869	0.134	0.052
-486.449	-62.774	-0.082	0.034
-485.435	503.974	-0.083	0.192
-484.420	661.539	0.224	0.577
-483.405	24.506	-0.180	0.149
-482.391	131.471	0.102	-0.131
-481.376	-200.000	-0.000	-0.071
-480.362	-144.282	0.028	0.003
-479.347	-159.627	-0.266	-0.015
-478.332	-69.489	-0.122	0.047
-477.318	-98.227	-0.224	0.057
-476.303	-200.000	-0.012	-0.183
-475.289	146.912	-0.232	-0.312
-474.274	-92.360	0.151	-0.042
-473.259	-200.000	0.017	-0.108
-472.245	-130.742	-0.162	0.022
-471.230	800.000	0.060	-0.249
-470.216	166.375	-0.123	0.174
-469.201	190.400	0.111	0.166
-468.186	38.475	0.245	0.218
-467.172	304.444	0.186	0.345
-466.157	313.166	0.168	0.315
-465.143	-114.209	-0.286	0.055
-464.128	201.808	-0.197	-0.304
-463.113	285.789	-0.068	-0.122
-462.099	756.547	0.019	-0.052
-461.084	-33.556	0.407	0.224
-460.070	-112.983	-0.319	-0.063
-459.055	178.887	0.168	0.245
-458.040	205.980	0.212	0.329
-457.026	723.739	-0.032	0.086
-456.011	6.521	-0.108	0.080
-454.997	-39.102	0.249	-0.131
-453.982	259.876	-0.085	0.147
-452.968	87.729	-0.058	0.064
-451.953	-200.000	0.004	0.446
-450.938	229.987	-0.017	0.027
-449.924	-2.607	-0.122	0.085
-448.909	-156.281	-0.249	0.016
-447.895	-83.765	-0.114	-0.036
-446.880	78.454	0.129	0.137
-445.865	-200.000	-0.049	0.277
-444.851	91.683	0.432	0.485
-443.836	373.849	-0.116	-0.235
-442.822	-28.790	0.295	-0.169
-441.807	564.712	0.179	0.432
-440.792	-34.299	-0.103	-0.056
-439.778	-68.217	0.331	0.129
-438.763	-27.726	-0.323	0.187
-437.749	-87.465	-0.343	0.103
-436.734	32.085	-0.061	-0.053
-435.719	-105.674	-0.117	0.026
-434.705	-200.000	0.002	0.376
-433.690	585.481	-0.069	0.168
-432.676	375.878	-0.144	-0.292
-431.661	-112.578	-0.280	-0.056
-430.646	-59.338	-0.125	-0.054
-429.632	-30.447	-0.185	-0.104
-428.617	-56.703	-0.402	-0.177
-427.603	-53.517	-0.154	-0.070
-426.588	-131.451	-0.467	-0.061
-425.573	47.255	-0.145	0.135
-424.559	-64.156	0.351	-0.142
-423.544	800.000	0.055	0.155
-422.530	-200.000	0.023	-0.165
-421.515	-200.000	-0.008	-0.303
-420.500	-97.684	0.267	0.069
-419.486	-200.000	-0.016	-0.073
-418.471	125.586	0.034	0.043
-417.457	753.342	-0.117	-0.314
-416.442	38.459	-0.118	-0.104
-415.428	-200.000	0.019	0.203
-414.413	554.042	0.005	-0.011
-413.398	218.290	-0.069	0.110
-412.384	323.549	-0.106	-0.202
-411.369	-21.313	-0.259	-0.158
-410.355	-6.552	-0.123	-0.084
-409.340	-200.000	-0.010	-0.225
-408.325	-18.790	0.226	0.140
-407.311	41.854	0.113	0.102
-406.296	313.909	-0.109	0.204
-405.282	-53.573	-0.114	-0.052
-404.267	800.000	0.080	-0.319
-403.252	800.000	0.047	0.169
-402.238	270.505	0.119	-0.208
-401.223	-178.994	-0.075	-0.002
-400.209	-118.832	0.293	0.051
-399.194	-69.515	-0.084	-0.032
-398.179	22.046	0.233	-0.189
-397.165	265.927	0.103	0.180
-396.150	-85.482	0.221	0.068
-395.136	182.919	0.120	-0.177
-394.121	23.491	-0.104	0.085
-393.106	37.549	-0.292	-0.258
-392.092	-116.611	-0.342	-0.063
-391.077	-39.602	-0.104	-0.054
-390.063	-9.169	-0.255	0.170
-389.048	632.901	-0.074	0.186
-388.033	22.739	-0.013	0.010
-387.019	-121.083	0.023	-0.004
-386.004	152.881	0.093	-0.126
-384.990	-70.867	-0.393	-0.148
-383.975	31.527	-0.084	0.072
-382.960	-38.135	0.253	-0.134
-381.946	8.422	-0.310	0.232
-380.931	-135.432	0.515	-0.061
-379.917	-200.000	0.026	0.289
-378.902	800.000	0.062	-0.172
-377.888	46.208	0.063	0.058
-376.873	-77.447	0.134	0.046
-375.858	-200.000	0.007	0.272
-374.844	375.734	0.068	0.138
-373.829	800.000	-0.104	0.342
-372.815	-139.140	-0.448	0.048
-371.800	-200.000	-0.058	-0.360
-370.785	401.923	0.099	-0.207
-369.771	800.000	0.086	-0.312
-368.756	-200.000	-0.004	-0.228
-367.742	449.818	0.050	-0.111
-366.727	-200.000	0.004	-0.151
-365.712	800.000	-0.121	-0.379
-364.698	-73.360	0.151	0.055
-363.683	243.610	-0.100	0.166
-362.669	-38.589	0.055	-0.029
-361.654	-200.000	-0.054	-0.290
-360.639	-200.000	-0.015	-0.274
-359.625	-43.611	0.150	0.075
-358.610	1.252	0.046	-0.033
-357.596	110.061	0.184	-0.220
-356.581	-140.858	-0.278	0.028
-355.566	230.482	0.188	0.306
-354.552	62.879	-0.041	0.040
-353.537	-177.608	0.313	-0.008
-352.523	-200.000	0.057	0.254
-351.508	562.932	0.052	0.126
-350.493	-121.032	0.034	0.006
-349.479	800.000	-0.029	-0.117
-348.464	-200.000	-0.018	0.285
-347.450	77.487	-0.174	0.184
-346.435	-200.000	-0.049	0.235
-345.420	-147.340	0.146	0.012
-344.406	134.770	0.248	-0.320
-343.391	-82.542	0.134	-0.043
-342.377	-200.000	0.001	-0.345
-341.362	210.245	-0.095	0.147
-340.348	800.000	-0.061	-0.172
-339.333	-176.496	0.370	0.009
-338.318	102.946	0.113	-0.132
-337.304	709.828	0.055	-0.143
-336.289	43.893	0.165	-0.150
-335.275	249.612	-0.187	-0.315
-334.260	-79.607	0.234	-0.078
-333.245	-78.458	-0.335	-0.114
-332.231	187.887	-0.162	0.240
-331.216	-144.560	0.354	-0.033
-330.202	430.208	0.015	-0.032
-329.187	590.113	0.093	-0.227
-328.172	-81.707	-0.221	-0.072
-327.158	-28.708	0.126	0.072
-326.143	800.000	0.052	-0.191
-325.129	-200.000	-0.003	-0.156
-324.114	-200.000	-0.040	-0.280
-323.099	-99.655	0.127	0.032
-322.085	354.464	-0.162	-0.319
-321.070	-119.610	-0.271	-0.047
-320.056	-200.000	0.030	0.247
-319.041	265.851	-0.145	-0.251
-318.026	5.502	-0.110	-0.080
-317.012	800.000	-0.028	-0.101
-315.997	20.006	0.224	0.179
-314.983	-200.000	0.121	-0.541
-313.968	-90.944	0.073	0.021
-312.953	-18.712	0.434	0.268
-311.939	250.291	0.129	0.217
-310.924	63.545	-0.169	0.169
-309.910	57.041	-0.234	-0.227
-308.895	649.487	0.033	-0.084
-307.880	800.000	-0.026	0.092
-306.866	8.388	0.168	0.125
-305.851	-48.747	0.106	-0.051
-304.837	-133.205	0.313	-0.039
-303.822	167.404	0.074	0.105
-302.807	-172.381	0.164	0.005
-301.793	227.413	0.045	-0.072
-300.778	120.742	-0.115	-0.142
-299.764	-72.990	0.452	0.165
-298.749	77.062	-0.103	0.108
-297.735	800.000	0.107	0.339
-296.720	-112.410	0.057	0.011
-295.705	-88.332	-0.353	-0.105
-294.691	-47.064	0.167	0.081
-293.676	30.237	0.195	-0.165
-292.662	17.124	-0.293	-0.230
-291.647	21.834	-0.139	0.113
-290.632	-146.400	0.039	0.003
-289.618	-46.774	-0.294	0.142
-288.603	-200.000	-0.053	-0.234
-287.589	514.052	-0.116	0.267
-286.574	1.999	-0.076	-0.054
-285.559	285.306	0.122	-0.218
-284.545	-41.442	-0.111	0.056
-283.530	-43.082	0.213	-0.107
-282.516	-85.701	-0.211	-0.065
-281.501	-63.039	0.181	0.074
-280.486	-106.231	0.106	0.023
-279.472	-200.000	0.052	-0.442
-278.457	699.938	-0.220	0.575
-277.443	-52.152	-0.261	-0.120
-276.428	-200.000	-0.099	0.000
-275.413	200.068	0.220	0.334
-274.399	45.769	-0.264	0.242
-273.384	365.921	0.094	0.187
-272.370	106.590	-0.068	0.080
-271.355	-80.655	0.449	-0.148
-270.340	244.508	0.153	-0.255
-269.326	1.448	0.213	0.151
-268.311	140.041	-0.165	0.215
-267.297	-1.131	-0.169	-0.118
-266.282	141.246	-0.184	0.241
-265.267	-40.981	0.078	0.040
-264.253	-77.278	0.204	-0.070
-263.238	720.195	-0.068	-0.179
-262.224	-51.162	0.306	0.142
-261.209	-200.000	0.004	0.078
-260.195	1.416	0.213	-0.152
-259.180	8.840	0.107	0.080
-258.165	-78.540	-0.066	-0.022
-257.151	77.649	-0.138	0.146
-256.136	-86.244	-0.456	-0.139
-255.122	-200.000	-0.028	0.428
-254.107	-64.005	0.232	0.094
-253.092	-69.503	-0.216	-0.082
-252.078	215.430	0.127	0.200
-251.063	45.560	-0.145	-0.132
-250.049	800.000	0.020	0.079
-249.034	-40.256	0.187	-0.096
-248.019	-200.000	-0.036	-0.245
-247.005	325.882	0.095	0.180
-245.990	44.835	-0.320	0.292
-244.976	78.522	0.240	0.253
-243.961	-92.375	-0.219	0.061
-242.946	-98.390	0.106	0.027
-241.932	-113.048	-0.156	0.030
-240.917	-52.406	-0.158	-0.072
-239.903	-10.801	-0.345	-0.225
-238.888	-90.797	-0.212	-0.060
-237.873	800.000	0.074	-0.239
-236.859	-200.000	-0.012	-0.122
-235.844	-90.409	-0.275	-0.079
-234.830	-81.477	0.170	-0.055
-233.815	800.000	0.030	0.113
-232.800	-200.000	0.051	0.245
-231.786	-200.000	0.029	0.246
-230.771	-200.000	-0.014	0.163
-229.757	20.965	0.228	0.183
-228.742	-200.000	0.034	0.170
-227.727	13.687	0.089	-0.068
-226.713	-84.381	0.251	0.079
-225.698	-24.102	0.243	-0.143
-224.684	359.683	-0.132	0.261
-223.669	117.302	0.198	0.241
-222.655	114.323	-0.045	-0.055
-221.640	-200.000	-0.005	-0.095
-220.625	-112.530	0.109	-0.021
-219.611	586.457	-0.047	0.115
-218.596	297.942	0.114	-0.208
-217.582	118.494	-0.049	0.059
-216.567	-138.699	0.287	-0.031
-215.552	131.993	0.256	0.326
-214.538	-200.000	0.045	0.220
-213.523	-66.791	0.213	-0.083
-212.509	177.932	-0.076	0.110
-211.494	-200.000	0.049	-0.437
-210.479	76.522	0.204	-0.214
-209.465	800.000	-0.093	0.264
-208.450	-200.000	0.036	-0.264
-207.436	-23.110	0.488	-0.290
-206.421	-98.976	0.136	-0.034
-205.406	759.633	0.163	-0.436
-204.392	-94.440	-0.203	0.055
-203.377	-57.186	0.195	0.085
-202.363	-200.000	-0.022	0.200
-201.348	-76.947	-0.081	-0.028
-200.333	51.205	-0.127	0.119
-199.319	-200.000	0.013	-0.148
-198.304	-22.746	-0.275	-0.164
-197.290	106.873	0.087	-0.102
-196.275	800.000	0.029	-0.117
-195.260	-162.289	0.190	-0.009
-194.246	-200.000	0.053	0.242
-193.231	82.673	0.089	-0.096
-192.217	-131.842	0.252	0.033
-191.202	800.000	0.079	0.235
-190.187	123.766	-0.037	-0.045
-189.173	167.875	-0.097	-0.136
-188.158	-122.164	-0.171	0.028
-187.144	800.000	-0.070	0.280
-186.129	-142.291	0.215	-0.021
-185.114	-53.557	0.112	0.051
-184.100	28.590	0.036	0.030
-183.085	800.000	0.082	-0.306
-182.071	-63.571	0.269	0.109
-181.056	24.613	0.222	0.181
-180.042	-135.767	-0.189	0.022
-179.027	1.778	-0.069	0.049
-178.012	-79.420	0.114	-0.038
-176.998	167.482	0.079	-0.110
-175.983	160.538	0.265	0.365
-174.969	-34.221	0.200	-0.108
-173.954	65.247	-0.388	-0.387
-172.939	25.600	0.248	0.204
-171.925	127.453	0.086	0.108
-170.910	736.403	0.148	0.392
-169.896	189.718	-0.100	0.148
-168.881	352.575	-0.063	0.124
-167.866	-31.846	-0.151	-0.083
-166.852	-95.242	-0.290	0.077
-165.837	711.073	-0.053	-0.140
-164.823	481.093	0.175	-0.391
-163.808	175.365	0.063	-0.090
-162.793	-132.942	-0.255	0.032
-161.779	6.892	0.128	0.094
-160.764	-113.702	0.230	0.044
-159.750	32.027	0.100	0.085
-158.735	450.769	-0.003	-0.006
-157.720	-177.090	0.305	0.008
-156.706	-76.255	-0.240	-0.084
-155.691	32.215	-0.273	-0.233
-154.677	-200.000	0.024	-0.183
-153.662	-42.197	-0.233	-0.117
-152.647	-165.998	-0.141	-0.006
-151.633	-200.000	-0.030	-0.284
-150.618	389.840	0.064	-0.130
-149.604	32.753	0.027	0.023
-148.589	-200.000	-0.004	0.226
-147.574	800.000	-0.018	-0.069
-146.560	-96.573	-0.061	-0.016
-145.545	12.326	0.221	0.168
-144.531	-68.131	0.132	0.051
-143.516	346.591	-0.107	0.207
-142.502	-200.000	0.025	0.168
-141.487	-200.000	-0.025	-0.377
-140.472	-50.151	0.144	-0.067
-139.458	-36.343	-0.396	-0.210
-138.443	-200.000	-0.003	-0.263
-137.429	-119.244	0.194	-0.033
-136.414	15.171	0.052	0.040
-135.399	-137.077	-0.402	0.045
-134.385	-126.097	0.077	-0.011
-133.370	30.813	0.097	-0.082
-132.356	166.488	0.055	-0.077
-131.341	65.684	-0.185	0.185
-130.326	800.000	0.112	0.364
-129.312	463.344	0.089	0.196
-128.297	158.193	0.046	0.062
-127.283	800.000	0.096	-0.267
-126.268	-13.208	-0.246	0.157
-125.253	159.001	0.175	0.239
-124.239	-52.320	0.378	0.172
-123.224	427.968	-0.052	-0.110
-122.210	617.785	0.045	0.112
-121.195	92.399	0.186	-0.207
