DTS Sentinel unit serial number:	SN413079Multiplexer serial number:	ORYXHardware model number:	OX4-SRSoftware version number:	ORYX F/W v4.00 Oryx Data Collector v3.7.2.0data status	okinstallation	princeton_trtdifferential loss correction	single-endedforward channel	channel 1reverse channel	N/Adate	2019/09/19time	00:30:35forward acquisition time	60.00reverse acquisition time	0.00gamma	496.2192k internal	0.2342k external	0.2342temperature offset calibration	1.0023default loss term (dB/km)	0.3790temperature slope calibration	1.0000multiplexer offset coefficient	1.0000multiplexer slope coefficient	1.0000fibre end	0.00T internal ref (°C)	22.44T ext. ref 1 (°C)	0.73T ext. ref 2 (°C)	15.39length (m)	temperature (°C)	Stokes	anti-Stokes-747.200	-16.438	0.419	-0.266
-746.185	800.000	-0.112	0.389
-745.171	261.523	0.012	-0.021
-744.156	429.085	-0.190	0.411
-743.142	-23.219	0.179	0.108
-742.127	-3.833	0.255	0.177
-741.112	391.862	-0.143	0.298
-740.098	-56.820	0.204	-0.090
-739.083	-57.545	0.222	0.097
-738.069	129.414	-0.065	-0.083
-737.054	415.722	0.079	-0.169
-736.039	-19.164	-0.441	-0.274
-735.025	-200.000	-0.012	0.259
-734.010	126.888	-0.283	-0.359
-732.996	-89.179	0.305	-0.090
-731.981	418.851	-0.127	0.272
-730.966	800.000	-0.045	0.192
-729.952	-200.000	-0.021	0.202
-728.937	-8.664	0.330	-0.221
-727.923	-19.659	-0.335	-0.208
-726.908	153.708	0.075	0.103
-725.894	800.000	-0.051	-0.150
-724.879	-195.959	-0.263	-0.002
-723.864	85.145	-0.142	-0.156
-722.850	94.699	-0.141	-0.160
-721.835	800.000	0.021	-0.074
-720.821	800.000	-0.065	0.252
-719.806	-116.336	0.206	0.038
-718.791	-200.000	0.045	-0.202
-717.777	-200.000	0.024	-0.292
-716.762	-91.022	0.132	-0.038
-715.748	-200.000	0.000	-0.243
-714.733	-63.745	-0.128	0.052
-713.718	484.355	-0.103	-0.234
-712.704	-76.987	0.170	0.059
-711.689	86.261	0.205	-0.226
-710.675	-200.000	0.028	-0.200
-709.660	-106.070	-0.169	-0.038
-708.645	123.483	0.182	-0.228
-707.631	33.965	0.343	-0.299
-706.616	59.757	-0.129	-0.128
-705.602	-200.000	-0.006	-0.043
-704.587	135.048	-0.303	0.394
-703.572	-109.842	0.507	0.106
-702.558	73.068	0.073	0.076
-701.543	435.087	-0.100	0.216
-700.529	-112.401	0.174	0.035
-699.514	-200.000	0.038	0.420
-698.499	-200.000	0.023	-0.363
-697.485	642.348	-0.063	0.159
-696.470	-19.628	0.191	-0.118
-695.456	229.999	-0.203	0.331
-694.441	800.000	-0.038	0.109
-693.426	800.000	0.059	-0.246
-692.412	355.510	-0.069	0.137
-691.397	-103.009	-0.109	-0.026
-690.383	-23.303	0.204	0.122
-689.368	-82.832	-0.228	0.074
-688.354	-94.498	-0.116	0.032
-687.339	-22.110	-0.180	0.109
-686.324	-92.449	-0.235	-0.066
-685.310	35.958	-0.281	-0.247
-684.295	9.129	-0.238	0.179
-683.281	-200.000	0.003	-0.126
-682.266	-44.393	-0.308	-0.154
-681.251	-53.412	0.018	0.008
-680.237	-200.000	-0.018	0.080
-679.222	125.436	0.109	-0.137
-678.208	800.000	-0.035	0.130
-677.193	-119.866	0.086	-0.015
-676.178	338.792	0.049	-0.096
-675.164	-74.648	-0.125	0.045
-674.149	12.915	-0.126	-0.097
-673.135	-200.000	-0.055	-0.302
-672.120	-200.000	0.001	0.205
-671.105	-80.456	-0.271	-0.090
-670.091	800.000	0.037	0.149
-669.076	-92.383	0.401	0.113
-668.062	-200.000	0.000	-0.064
-667.047	-134.681	-0.059	0.007
-666.032	-26.925	0.070	0.041
-665.018	-96.417	0.159	0.042
-664.003	-200.000	-0.017	-0.075
-662.989	-95.347	0.052	0.014
-661.974	312.856	0.142	-0.267
-660.959	84.945	-0.116	-0.127
-659.945	-21.115	-0.091	0.056
-658.930	-77.232	0.215	0.075
-657.916	324.635	0.122	-0.232
-656.901	-200.000	-0.021	-0.144
-655.886	-200.000	0.015	-0.201
-654.872	136.492	0.004	-0.006
-653.857	-71.548	-0.296	0.111
-652.843	-163.404	-0.316	-0.015
-651.828	78.666	0.287	0.306
-650.814	-200.000	0.067	-0.327
-649.799	74.208	-0.231	0.242
-648.784	287.986	0.137	0.247
-647.770	-200.000	-0.035	-0.208
-646.755	-111.891	0.462	-0.093
-645.741	-161.284	-0.067	-0.003
-644.726	-84.064	0.119	0.038
-643.711	-11.204	-0.142	0.094
-642.697	-200.000	0.025	0.209
-641.682	-109.095	-0.149	-0.032
-640.668	-200.000	0.010	0.212
-639.653	591.914	-0.142	-0.349
-638.638	-111.150	-0.029	0.006
-637.624	352.067	-0.044	0.086
-636.609	-91.922	-0.413	-0.117
-635.595	-47.966	0.290	0.140
-634.580	-200.000	0.014	0.177
-633.565	46.495	-0.068	0.063
-632.551	-91.943	-0.380	0.108
-631.536	-15.380	0.213	-0.136
-630.522	556.086	-0.135	0.325
-629.507	85.456	0.061	0.067
-628.492	-200.000	-0.041	-0.259
-627.478	-144.121	0.174	-0.016
-626.463	457.989	-0.152	0.338
-625.449	610.432	0.102	0.254
-624.434	-87.567	-0.310	-0.094
-623.419	800.000	0.103	-0.314
-622.405	800.000	-0.021	-0.074
-621.390	-77.244	-0.160	-0.055
-620.376	204.726	0.147	-0.228
-619.361	277.960	-0.087	0.155
-618.346	-69.099	0.296	-0.114
-617.332	-178.661	-0.288	0.007
-616.317	-31.588	-0.042	-0.024
-615.303	216.430	0.045	-0.071
-614.288	28.181	0.080	-0.068
-613.273	800.000	0.063	0.255
-612.259	-153.186	-0.160	-0.011
-611.244	-157.300	-0.528	0.032
-610.230	198.256	0.160	0.243
-609.215	-200.000	0.021	-0.262
-608.201	-62.608	-0.605	-0.250
-607.186	-49.118	0.200	-0.095
-606.171	-47.579	-0.131	0.063
-605.157	-200.000	0.035	0.223
-604.142	-32.561	0.323	-0.179
-603.128	0.719	-0.244	-0.174
-602.113	-165.037	-0.105	-0.005
-601.098	394.652	0.183	0.380
-600.084	-16.379	0.098	0.062
-599.069	45.717	0.233	-0.215
-598.055	-200.000	-0.003	0.240
-597.040	-34.057	0.272	-0.149
-596.025	-200.000	0.034	0.166
-595.011	111.246	-0.026	0.031
-593.996	-200.000	0.045	-0.291
-592.982	800.000	0.071	0.209
-591.967	800.000	0.062	0.267
-590.952	-200.000	0.244	-0.001
-589.938	493.658	-0.093	-0.213
-588.923	-200.000	0.020	-0.143
-587.909	129.730	-0.066	-0.084
-586.894	188.336	0.141	0.210
-585.879	66.541	0.162	0.164
-584.865	-118.795	-0.196	-0.034
-583.850	6.743	-0.204	-0.151
-582.836	146.072	-0.022	-0.029
-581.821	567.662	-0.097	-0.234
-580.806	320.770	-0.125	0.237
-579.792	-56.522	0.188	-0.083
-578.777	29.537	0.059	0.050
-577.763	25.112	-0.399	0.330
-576.748	685.804	0.083	0.215
-575.733	-143.348	-0.203	0.019
-574.719	126.600	-0.223	-0.281
-573.704	-200.000	-0.030	0.133
-572.690	-85.264	-0.042	-0.013
-571.675	34.662	0.133	-0.116
-570.661	89.878	-0.289	0.321
-569.646	22.023	-0.280	0.227
-568.631	-19.924	-0.079	0.049
-567.617	-200.000	-0.055	0.343
-566.602	-27.395	-0.137	-0.079
-565.588	19.410	0.185	0.148
-564.573	-200.000	-0.057	0.388
-563.558	129.054	-0.011	0.014
-562.544	-159.009	0.214	0.012
-561.529	-50.643	0.081	-0.038
-560.515	175.220	0.129	-0.186
-559.500	630.577	-0.050	-0.126
-558.485	-46.556	0.104	-0.051
-557.471	122.832	-0.150	0.186
-556.456	-150.461	0.022	-0.002
-555.442	14.831	0.101	-0.079
-554.427	574.956	0.069	-0.169
-553.412	-200.000	0.020	-0.184
-552.398	800.000	0.049	-0.186
-551.383	-41.460	-0.277	0.142
-550.369	-39.817	0.213	0.110
-549.354	-55.470	0.145	0.065
-548.339	-174.091	-0.161	0.005
-547.325	-139.374	-0.218	0.023
-546.310	-51.605	-0.143	0.066
-545.296	-161.418	0.192	-0.010
-544.281	800.000	-0.044	-0.139
-543.266	-31.302	-0.219	-0.123
-542.252	-98.953	-0.091	-0.023
-541.237	-160.073	-0.479	0.026
-540.223	-200.000	0.009	-0.087
-539.208	800.000	0.052	0.158
-538.193	-200.000	0.059	0.310
-537.179	-200.000	0.013	-0.296
-536.164	-200.000	0.044	0.302
-535.150	-200.000	0.047	0.380
-534.135	508.402	0.042	-0.098
-533.121	-73.601	-0.162	-0.059
-532.106	-200.000	0.003	-0.145
-531.091	-34.511	-0.244	-0.133
-530.077	-200.000	-0.035	-0.437
-529.062	36.359	0.374	0.327
-528.048	147.097	0.256	-0.343
-527.033	28.802	-0.138	-0.116
-526.018	-21.772	-0.233	0.141
-525.004	-200.000	0.000	-0.233
-523.989	-200.000	-0.028	-0.158
-522.975	800.000	-0.054	0.227
-521.960	211.619	-0.085	0.133
-520.945	90.070	-0.135	0.150
-519.931	-200.000	-0.034	-0.204
-518.916	148.423	-0.058	0.078
-517.902	368.946	0.050	-0.101
-516.887	385.396	-0.146	-0.299
-515.872	673.608	-0.159	-0.408
-514.858	300.989	0.129	0.236
-513.843	620.842	0.108	-0.270
-512.829	-74.810	0.209	0.075
-511.814	-189.827	0.309	0.003
-510.799	-58.046	0.128	-0.055
-509.785	591.377	-0.135	0.331
-508.770	123.051	0.284	0.353
-507.756	-200.000	0.004	-0.055
-506.741	800.000	0.039	-0.143
-505.726	-200.000	-0.001	-0.030
-504.712	282.908	-0.109	-0.195
-503.697	-127.600	-0.057	0.008
-502.683	-19.048	0.127	-0.079
-501.668	82.774	-0.164	-0.177
-500.653	-61.067	0.342	-0.143
-499.639	5.267	-0.214	-0.156
-498.624	-47.274	0.155	0.075
-497.610	-200.000	-0.026	0.154
-496.595	4.065	-0.428	0.311
-495.581	-95.154	0.149	0.040
-494.566	177.790	0.146	0.211
-493.551	39.709	0.188	0.168
-492.537	-200.000	0.025	-0.297
-491.522	394.235	-0.065	0.135
-490.508	575.460	-0.107	0.258
-489.493	312.447	0.102	-0.191
-488.478	800.000	-0.042	-0.153
-487.464	-59.527	0.077	-0.033
-486.449	238.917	-0.157	0.259
-485.435	800.000	0.048	0.159
-484.420	-148.575	0.175	0.014
-483.405	800.000	-0.083	0.245
-482.391	-155.905	0.340	0.021
-481.376	218.836	0.170	-0.269
-480.362	-79.497	-0.192	-0.064
-479.347	-200.000	-0.015	0.066
-478.332	-90.996	-0.234	0.067
-477.318	-109.287	-0.425	0.089
-476.303	193.185	0.053	-0.080
-475.289	-106.284	-0.171	-0.038
-474.274	-200.000	0.059	-0.359
-473.259	5.809	0.121	-0.089
-472.245	-162.805	-0.088	0.004
-471.230	-200.000	-0.047	0.508
-470.216	-103.854	0.235	-0.055
-469.201	-125.788	-0.190	0.028
-468.186	-24.787	-0.213	0.126
-467.172	65.481	0.164	-0.164
-466.157	119.075	-0.116	0.142
-465.143	30.921	-0.066	-0.056
-464.128	123.691	-0.260	-0.324
-463.113	133.697	-0.113	-0.145
-462.099	800.000	0.045	-0.147
-461.084	-10.420	-0.319	-0.209
-460.070	-60.958	0.398	-0.167
-459.055	-104.979	-0.201	-0.046
-458.040	-185.358	-0.511	-0.008
-457.026	-37.476	0.313	0.166
-456.011	-111.173	0.158	-0.032
-454.997	-79.115	0.298	-0.100
-453.982	142.632	0.191	0.251
-452.968	-168.276	-0.115	-0.004
-451.953	-200.000	-0.017	-0.281
-450.938	-114.408	-0.177	-0.034
-449.924	-136.011	0.220	-0.026
-448.909	-44.087	-0.262	0.130
-447.895	-80.555	0.354	0.117
-446.880	713.973	0.055	-0.143
-445.865	-200.000	-0.050	-0.337
-444.851	-80.590	0.364	-0.120
-443.836	800.000	0.053	0.219
-442.822	14.011	-0.095	0.073
-441.807	342.659	-0.059	0.115
-440.792	56.613	-0.065	-0.063
-439.778	-141.100	-0.336	-0.034
-438.763	-64.676	-0.100	-0.040
-437.749	-200.000	0.006	-0.254
-436.734	531.001	0.050	-0.117
-435.719	-51.363	0.161	-0.074
-434.705	-115.898	-0.162	-0.030
-433.690	-59.984	0.187	-0.079
-432.676	-200.000	-0.002	0.044
-431.661	87.418	0.102	-0.112
-430.646	-36.152	0.079	0.042
-429.632	57.288	-0.053	0.051
-428.617	-200.000	-0.001	0.027
-427.603	-200.000	-0.043	0.202
-426.588	-57.510	-0.103	0.045
-425.573	149.196	0.106	0.142
-424.559	-200.000	-0.074	-0.384
-423.544	-156.967	0.227	0.014
-422.530	-22.474	0.073	-0.044
-421.515	-74.544	0.069	-0.025
-420.500	43.699	-0.279	-0.252
-419.486	-200.000	0.004	-0.016
-418.471	-149.502	-0.173	-0.014
-417.457	28.912	-0.124	-0.104
-416.442	-7.920	-0.249	0.166
-415.428	-64.917	0.102	0.041
-414.413	-200.000	-0.001	-0.179
-413.398	319.059	0.131	0.246
-412.384	-67.142	-0.191	-0.074
-411.369	-28.645	-0.098	0.056
-410.355	-200.000	-0.045	-0.216
-409.340	27.552	-0.407	-0.339
-408.325	313.997	0.193	-0.358
-407.311	292.997	-0.178	0.320
-406.296	120.000	0.082	0.100
-405.282	46.389	-0.086	-0.079
-404.267	-138.683	-0.180	0.020
-403.252	-200.000	-0.037	-0.317
-402.238	620.740	0.118	-0.294
-401.223	-147.822	-0.184	-0.015
-400.209	142.659	0.245	0.322
-399.194	75.150	0.069	0.071
-398.179	-19.252	0.137	-0.084
-397.165	-1.050	0.149	0.104
-396.150	265.608	0.075	0.130
-395.136	-1.386	-0.141	-0.099
-394.121	67.006	0.094	-0.095
-393.106	-103.067	0.151	0.035
-392.092	800.000	0.101	-0.435
-391.077	-61.987	-0.195	0.080
-390.063	-145.941	0.065	-0.006
-389.048	-82.953	0.246	-0.078
-388.033	730.702	-0.075	-0.198
-387.019	-122.644	0.229	0.037
-386.004	-200.000	-0.029	-0.288
-384.990	-200.000	-0.003	0.059
-383.975	-147.290	-0.321	-0.027
-382.960	-45.020	0.206	-0.101
-381.946	-112.052	0.219	-0.044
-380.931	-153.944	0.129	-0.009
-379.917	-151.912	-0.067	-0.005
-378.902	-154.459	0.161	0.011
-377.888	52.618	0.044	-0.041
-376.873	36.399	0.200	-0.174
-375.858	24.348	0.050	0.041
-374.844	-200.000	0.027	0.145
-373.829	-150.520	0.117	-0.009
-372.815	-200.000	0.010	-0.232
-371.800	327.181	-0.109	-0.206
-370.785	432.410	0.140	0.300
-369.771	232.344	-0.212	0.344
-368.756	62.897	-0.063	0.062
-367.742	190.889	-0.039	0.058
-366.727	-42.555	0.551	0.277
-365.712	-200.000	0.006	0.059
-364.698	-121.005	0.213	-0.035
-363.683	800.000	-0.027	-0.099
-362.669	-200.000	-0.030	0.223
-361.654	-200.000	-0.003	0.205
-360.639	-200.000	-0.032	-0.229
-359.625	-151.053	0.173	-0.013
-358.610	800.000	0.088	0.241
-357.596	440.891	-0.124	-0.268
-356.581	-23.859	-0.324	0.192
-355.566	-119.386	-0.169	0.029
-354.552	-51.215	-0.044	0.020
-353.537	231.234	0.056	-0.090
-352.523	-9.782	0.236	0.155
-351.508	-73.088	0.137	0.050
-350.493	53.447	0.222	-0.210
-349.479	219.489	-0.065	0.103
-348.464	285.878	-0.070	-0.124
-347.450	-181.151	0.231	-0.005
-346.435	-171.100	-0.242	-0.008
-345.420	-200.000	-0.055	0.319
-344.406	-136.120	0.295	0.034
-343.391	800.000	-0.026	-0.076
-342.377	57.919	-0.206	-0.199
-341.362	-200.000	0.011	0.241
-340.348	-55.876	-0.090	-0.040
-339.333	288.442	0.288	0.514
-338.318	-98.286	0.251	0.063
-337.304	-117.166	0.094	0.017
-336.289	-50.854	-0.204	0.095
-335.275	380.661	0.194	-0.391
-334.260	800.000	-0.071	0.249
-333.245	269.251	-0.046	-0.080
-332.231	-130.208	0.397	-0.053
-331.216	104.401	0.029	0.033
-330.202	-200.000	0.033	-0.175
-329.187	800.000	0.060	0.187
-328.172	-200.000	-0.048	0.392
-327.158	-74.467	-0.170	0.060
-326.143	-147.327	-0.123	-0.010
-325.129	-11.949	-0.167	0.108
-324.114	-200.000	-0.004	0.175
-323.099	-110.474	-0.125	0.026
-322.085	171.018	0.267	-0.377
-321.070	32.311	0.253	-0.215
-320.056	-100.089	-0.341	-0.084
-319.041	509.845	-0.107	0.245
-318.026	-67.890	0.148	0.057
-317.012	188.123	0.159	0.235
-315.997	800.000	-0.010	0.036
-314.983	50.952	-0.077	0.071
-313.968	-200.000	0.003	0.154
-312.953	-139.094	0.289	0.031
-311.939	-110.723	0.112	0.023
-310.924	-200.000	-0.030	0.339
-309.910	800.000	-0.037	0.118
-308.895	210.579	0.026	-0.040
-307.880	-200.000	-0.008	0.224
-306.866	-100.531	0.197	0.048
-305.851	-106.073	-0.146	-0.032
-304.837	82.046	-0.075	-0.080
-303.822	36.718	-0.071	-0.062
-302.807	127.845	0.157	-0.197
-301.793	366.209	0.090	0.178
-300.778	-200.000	0.001	-0.016
-299.764	-5.849	-0.169	-0.114
-298.749	-41.930	0.027	0.014
-297.735	-200.000	0.045	-0.324
-296.720	236.327	0.066	-0.107
-295.705	139.388	-0.056	0.073
-294.691	595.956	-0.019	0.047
-293.676	-82.858	-0.168	-0.053
-292.662	580.727	0.159	0.382
-291.647	-200.000	0.016	-0.358
-290.632	54.462	0.071	-0.067
-289.618	-200.000	0.006	-0.062
-288.603	648.865	-0.102	-0.257
-287.589	-200.000	-0.041	0.240
-286.574	-138.238	0.155	0.017
-285.559	16.124	0.277	0.215
-284.545	-165.959	0.157	0.007
-283.530	-82.930	-0.141	-0.045
-282.516	99.412	0.015	-0.017
-281.501	-7.239	-0.430	0.287
-280.486	514.272	-0.156	-0.358
-279.472	-200.000	-0.032	0.524
-278.457	82.071	-0.074	0.078
-277.443	-58.036	0.082	0.035
-276.428	-200.000	-0.033	0.213
-275.413	-200.000	0.018	-0.170
-274.399	-46.052	0.122	-0.059
-273.384	83.459	-0.113	-0.121
-272.370	210.937	-0.267	-0.412
-271.355	-61.233	0.296	0.123
-270.340	180.619	-0.170	0.245
-269.326	-138.085	-0.143	0.016
-268.311	10.368	0.165	-0.124
-267.297	129.662	0.190	0.239
-266.282	-81.928	0.099	-0.032
-265.267	-60.430	0.120	-0.050
-264.253	-102.463	0.178	0.042
-263.238	86.325	0.325	-0.352
-262.224	108.664	-0.065	0.076
-261.209	-84.115	0.104	-0.033
-260.195	-90.847	0.089	-0.025
-259.180	378.957	0.108	-0.218
-258.165	-200.000	-0.017	0.312
-257.151	-154.762	-0.190	-0.012
-256.136	390.473	0.015	0.030
-255.122	800.000	-0.030	0.095
-254.107	70.248	-0.155	0.158
-253.092	-200.000	-0.051	-0.312
-252.078	653.618	0.089	-0.224
-251.063	800.000	-0.097	0.408
-250.049	-22.362	-0.368	-0.219
-249.034	235.669	-0.179	-0.290
-248.019	800.000	-0.045	-0.174
-247.005	-132.796	-0.267	-0.033
-245.990	338.111	0.072	0.138
-244.976	128.309	0.072	0.091
-243.961	-97.374	0.286	0.073
-242.946	585.406	-0.207	-0.499
-241.932	-200.000	-0.026	0.141
-240.917	-97.015	0.274	-0.071
-239.903	155.596	0.045	-0.060
-238.888	71.099	0.174	-0.177
-237.873	-81.092	0.261	-0.085
-236.859	205.891	-0.068	0.104
-235.844	-200.000	-0.009	-0.125
-234.830	800.000	-0.132	-0.535
-233.815	521.015	0.097	0.223
-232.800	-113.351	-0.423	-0.082
-231.786	-87.125	0.218	-0.065
-230.771	321.917	0.139	0.259
-229.757	-40.953	0.037	-0.019
-228.742	613.550	-0.088	-0.217
-227.727	-98.906	-0.222	0.055
-226.713	22.362	0.273	-0.219
-225.698	9.371	-0.122	0.091
-224.684	79.769	-0.172	0.181
-223.669	-164.479	0.204	0.009
-222.655	132.847	-0.171	0.217
-221.640	-86.755	-0.147	0.044
-220.625	-200.000	-0.035	-0.405
-219.611	166.939	0.137	0.191
-218.596	-200.000	-0.063	0.273
-217.582	327.550	0.122	-0.230
-216.567	14.980	-0.163	0.125
-215.552	-85.280	-0.131	-0.040
-214.538	-82.599	0.245	-0.078
-213.523	-200.000	0.013	-0.248
-212.509	100.099	-0.316	-0.359
-211.494	551.081	0.022	0.051
-210.479	-150.665	0.368	0.028
-209.465	99.255	-0.312	0.354
-208.450	800.000	-0.049	0.195
-207.436	-125.405	0.235	-0.035
-206.421	-176.126	0.140	-0.004
-205.406	139.815	-0.112	0.144
-204.392	81.954	-0.087	-0.093
-203.377	-98.336	0.282	-0.071
-202.363	74.734	0.195	-0.201
-201.348	-200.000	-0.009	0.228
-200.333	23.506	-0.165	-0.133
-199.319	-200.000	-0.073	0.423
-198.304	243.528	0.077	0.126
-197.290	271.193	0.074	-0.128
-196.275	-135.122	0.094	0.011
-195.260	769.608	-0.150	0.401
-194.246	608.198	-0.081	-0.199
-193.231	-166.574	-0.151	-0.006
-192.217	-61.756	-0.043	-0.018
-191.202	-66.934	-0.346	0.134
-190.187	-200.000	-0.003	0.094
-189.173	-105.509	0.265	-0.059
-188.158	374.490	-0.110	0.219
-187.144	156.741	0.061	-0.082
-186.129	-200.000	0.062	-0.270
-185.114	-200.000	-0.013	0.170
-184.100	-144.780	0.083	0.008
-183.085	366.054	-0.146	0.288
-182.071	-200.000	-0.036	-0.186
-181.056	-66.011	-0.208	-0.082
-180.042	347.867	-0.035	-0.067
-179.027	-39.029	0.223	-0.115
-178.012	-144.938	0.375	-0.034
-176.998	-200.000	-0.041	0.246
-175.983	108.882	0.278	-0.325
-174.969	-27.236	-0.233	0.133
-173.954	-181.972	-0.332	0.006
-172.939	479.469	-0.057	-0.126
-171.925	-151.118	0.148	0.011
-170.910	-200.000	0.020	0.237
-169.896	44.595	-0.072	-0.065
-168.881	137.753	-0.115	0.147
-167.866	149.416	0.043	0.058
-166.852	-200.000	-0.004	-0.305
-165.837	800.000	-0.052	-0.154
-164.823	17.435	0.319	0.248
-163.808	343.810	0.083	-0.160
-162.793	800.000	0.062	-0.259
-161.779	193.039	-0.307	-0.454
-160.764	800.000	0.023	-0.086
-159.750	-102.554	0.148	0.035
-158.735	553.345	0.065	-0.154
-157.720	95.771	-0.276	0.309
-156.706	-200.000	-0.005	0.255
-155.691	-14.443	-0.187	0.118
-154.677	-200.000	-0.031	-0.229
-153.662	-105.595	0.434	0.096
-152.647	-55.253	0.205	0.090
-151.633	366.101	0.133	0.262
-150.618	178.565	-0.046	0.065
-149.604	139.546	-0.147	0.189
-148.589	-200.000	0.035	0.181
-147.574	-100.046	-0.131	0.032
-146.560	-200.000	-0.029	0.142
-145.545	169.938	0.183	-0.256
-144.531	218.441	-0.153	-0.239
-143.516	-142.356	0.136	-0.013
-142.502	-181.534	-0.144	-0.003
-141.487	-53.631	-0.353	0.158
-140.472	-200.000	0.027	0.145
-139.458	-5.896	-0.286	0.192
-138.443	-130.698	-0.272	0.036
-137.429	35.698	-0.195	0.167
-136.414	-79.808	0.245	-0.081
-135.399	-23.379	-0.445	-0.262
-134.385	-148.279	-0.154	0.012
-133.370	-200.000	0.014	0.110
-132.356	26.872	0.174	-0.142
-131.341	-83.199	-0.018	0.006
-130.326	145.682	0.157	0.206
-129.312	122.210	-0.027	-0.033
-128.297	22.869	0.040	0.032
-127.283	179.516	-0.095	-0.136
-126.268	800.000	0.057	-0.167
-125.253	-74.986	0.189	0.066
-124.239	279.049	0.297	-0.518
-123.224	-103.623	-0.215	0.049
