DTS Sentinel unit serial number:	SN413079Multiplexer serial number:	ORYXHardware model number:	OX4-SRSoftware version number:	ORYX F/W v4.00 Oryx Data Collector v3.7.2.0data status	okinstallation	princeton_trtdifferential loss correction	single-endedforward channel	channel 1reverse channel	N/Adate	2019/09/15time	08:38:35forward acquisition time	60.00reverse acquisition time	0.00gamma	496.2192k internal	0.2319k external	0.2319temperature offset calibration	0.9992default loss term (dB/km)	0.3790temperature slope calibration	1.0000multiplexer offset coefficient	1.0000multiplexer slope coefficient	1.0000fibre end	0.00T internal ref (°C)	31.94T ext. ref 1 (°C)	4.98T ext. ref 2 (°C)	29.27length (m)	temperature (°C)	Stokes	anti-Stokes-747.200	84.129	0.151	-0.166
-746.185	108.263	0.057	0.069
-745.171	-20.607	-0.176	0.110
-744.156	309.804	0.143	-0.271
-743.142	-2.843	0.144	-0.102
-742.127	-64.471	-0.043	0.018
-741.112	-89.466	-0.250	0.074
-740.098	-45.381	-0.250	0.125
-739.083	-200.000	0.026	0.448
-738.069	800.000	-0.065	0.254
-737.054	578.632	-0.072	-0.179
-736.039	39.001	0.147	0.132
-735.025	-115.202	0.312	0.060
-734.010	-79.598	0.324	-0.111
-732.996	-67.534	-0.072	0.028
-731.981	-103.263	-0.169	-0.040
-730.966	97.234	0.041	-0.048
-729.952	-29.483	-0.086	-0.049
-728.937	-120.447	-0.221	-0.038
-727.923	54.537	-0.087	-0.084
-726.908	77.895	-0.117	0.126
-725.894	-38.973	0.295	-0.157
-724.879	-200.000	0.006	-0.293
-723.864	130.669	-0.117	0.151
-722.850	-55.805	-0.119	-0.054
-721.835	-5.655	0.074	0.052
-720.821	-72.381	-0.115	0.043
-719.806	800.000	-0.026	-0.078
-718.791	-200.000	0.012	-0.140
-717.777	800.000	-0.034	0.111
-716.762	-74.693	0.182	-0.066
-715.748	-200.000	0.009	0.150
-714.733	104.364	0.100	-0.119
-713.718	-82.007	0.221	-0.073
-712.704	544.221	-0.020	-0.049
-711.689	3.469	-0.183	-0.135
-710.675	-40.474	-0.036	-0.019
-709.660	276.087	-0.095	-0.170
-708.645	800.000	-0.058	-0.236
-707.631	-104.193	-0.396	0.093
-706.616	-74.463	0.104	0.038
-705.602	-64.365	0.319	-0.131
-704.587	21.105	-0.211	-0.173
-703.572	209.174	0.156	-0.247
-702.558	800.000	-0.001	-0.004
-701.543	192.754	0.101	-0.155
-700.529	167.059	-0.107	0.153
-699.514	-200.000	0.006	-0.122
-698.499	218.557	0.149	-0.240
-697.485	-43.707	0.284	-0.144
-696.470	108.019	-0.152	-0.183
-695.456	-80.930	0.164	-0.055
-694.441	-61.853	-0.351	0.148
-693.426	-145.216	-0.087	-0.008
-692.412	-2.285	-0.049	0.035
-691.397	-168.871	-0.301	-0.011
-690.383	209.704	0.121	0.192
-689.368	12.764	0.164	-0.128
-688.354	142.116	-0.076	0.101
-687.339	215.707	0.173	-0.277
-686.324	66.789	0.220	0.226
-685.310	-29.213	-0.277	-0.160
-684.295	51.042	0.089	0.085
-683.281	-69.757	-0.089	-0.034
-682.266	-93.588	0.164	-0.046
-681.251	617.057	0.031	-0.077
-680.237	121.893	-0.186	0.234
-679.222	105.051	0.098	0.117
-678.208	-118.847	-0.357	-0.063
-677.193	-116.917	-0.456	-0.084
-676.178	-127.915	-0.111	0.016
-675.164	-200.000	0.031	-0.151
-674.149	322.974	-0.124	-0.239
-673.135	-200.000	-0.027	-0.166
-672.120	-28.420	0.111	0.064
-671.105	-200.000	0.071	0.473
-670.091	-111.889	0.227	0.046
-669.076	-5.178	-0.161	-0.112
-668.062	-137.560	0.137	-0.016
-667.047	-200.000	0.051	0.348
-666.032	94.344	-0.254	-0.290
-665.018	68.500	-0.137	0.142
-664.003	195.815	0.031	0.047
-662.989	-149.016	0.086	0.007
-661.974	447.430	-0.047	-0.104
-660.959	-63.223	0.166	-0.069
-659.945	119.484	-0.030	-0.038
-658.930	800.000	0.012	0.039
-657.916	-200.000	0.058	-0.315
-656.901	-95.411	0.297	0.080
-655.886	2.248	0.205	0.149
-654.872	800.000	0.075	-0.238
-653.857	-167.141	-0.385	-0.016
-652.843	-177.747	-0.306	0.007
-651.828	-200.000	0.032	-0.145
-650.814	-87.541	0.113	-0.035
-649.799	-128.051	-0.246	0.036
-648.784	-200.000	-0.024	-0.279
-647.770	-116.001	-0.202	-0.038
-646.755	76.210	-0.062	-0.066
-645.741	395.714	0.038	-0.080
-644.726	-33.100	-0.079	0.044
-643.711	-200.000	-0.023	0.114
-642.697	-46.098	-0.223	-0.110
-641.682	-77.928	-0.177	0.062
-640.668	-41.464	-0.074	0.038
-639.653	800.000	-0.063	0.198
-638.638	-83.760	0.200	-0.064
-637.624	-44.321	-0.175	-0.089
-636.609	-71.697	-0.071	-0.027
-635.595	115.219	-0.130	-0.160
-634.580	47.824	-0.019	0.018
-633.565	-53.860	0.016	0.008
-632.551	-200.000	0.001	-0.240
-631.536	319.174	-0.082	0.157
-630.522	-167.287	0.401	-0.016
-629.507	129.605	0.058	-0.074
-628.492	258.317	0.067	-0.117
-627.478	-147.827	-0.158	0.013
-626.463	276.851	-0.168	-0.300
-625.449	-34.924	0.171	-0.094
-624.434	-125.675	-0.073	-0.011
-623.419	-148.250	-0.366	0.030
-622.405	-123.853	-0.264	0.042
-621.390	590.255	-0.115	0.286
-620.376	-143.788	0.175	0.017
-619.361	11.400	-0.289	0.223
-618.346	-200.000	-0.027	0.122
-617.332	-66.227	0.133	0.053
-616.317	-22.266	0.203	0.124
-615.303	-32.710	-0.202	0.113
-614.288	-200.000	-0.002	-0.277
-613.273	-200.000	0.040	-0.414
-612.259	-82.692	-0.178	0.058
-611.244	50.080	-0.095	-0.090
-610.230	-200.000	-0.057	-0.296
-609.215	-76.298	0.067	0.024
-608.201	-25.381	-0.147	0.088
-607.186	-12.173	0.269	0.177
-606.171	64.179	-0.205	0.208
-605.157	-129.642	-0.192	0.027
-604.142	130.170	-0.166	0.213
-603.128	800.000	0.030	-0.083
-602.113	140.362	-0.243	-0.323
-601.098	-131.280	0.184	0.025
-600.084	484.422	-0.086	0.197
-599.069	-41.390	0.037	0.019
-598.055	-13.977	-0.229	0.149
-597.040	-200.000	0.008	-0.041
-596.025	440.861	-0.135	0.296
-595.011	-134.297	0.045	-0.006
-593.996	-137.720	0.051	-0.006
-592.982	-186.846	-0.320	-0.004
-591.967	-12.962	0.127	0.083
-590.952	220.959	-0.113	-0.182
-589.938	286.044	0.141	-0.255
-588.923	357.186	-0.102	-0.204
-587.909	-73.951	0.070	0.025
-586.894	-200.000	-0.018	-0.201
-585.879	599.846	0.070	-0.175
-584.865	14.643	-0.181	0.142
-583.850	401.034	-0.017	0.035
-582.836	800.000	-0.102	-0.385
-581.821	-36.226	0.129	-0.070
-580.806	-169.646	-0.201	-0.007
-579.792	-149.179	-0.270	0.022
-578.777	-67.085	0.077	-0.030
-577.763	-69.384	0.190	-0.073
-576.748	8.728	0.271	-0.205
-575.733	52.381	-0.216	-0.207
-574.719	-200.000	-0.021	-0.127
-573.704	96.980	-0.076	0.088
-572.690	124.340	-0.096	0.121
-571.675	-108.521	0.051	0.011
-570.661	-200.000	0.016	-0.314
-569.646	108.133	-0.126	-0.151
-568.631	502.725	0.150	-0.349
-567.617	800.000	-0.026	-0.113
-566.602	-57.180	0.126	0.056
-565.588	-200.000	0.018	0.210
-564.573	626.025	-0.115	-0.290
-563.558	-25.619	0.173	-0.103
-562.544	-69.407	0.120	-0.046
-561.529	-42.762	-0.335	-0.171
-560.515	72.958	0.132	-0.139
-559.500	800.000	-0.013	-0.047
-558.485	16.209	0.079	-0.063
-557.471	-9.451	0.059	0.040
-556.456	-36.701	-0.190	-0.102
-555.442	27.947	0.321	-0.272
-554.427	-200.000	0.055	-0.260
-553.412	304.039	0.015	0.028
-552.398	157.829	-0.079	-0.110
-551.383	800.000	-0.048	-0.152
-550.369	-200.000	0.020	-0.348
-549.354	-200.000	0.014	-0.192
-548.339	116.375	0.012	-0.015
-547.325	-84.669	-0.148	0.047
-546.310	-80.317	-0.076	-0.026
-545.296	800.000	-0.043	-0.137
-544.281	135.045	0.084	-0.110
-543.266	-107.774	0.159	0.035
-542.252	71.449	-0.092	-0.095
-541.237	-200.000	0.011	-0.099
-540.223	-41.115	0.469	0.243
-539.208	263.211	0.157	0.273
-538.193	-200.000	-0.002	-0.447
-537.179	20.057	-0.099	-0.080
-536.164	-200.000	0.009	0.157
-535.150	-61.902	-0.296	0.124
-534.135	-88.848	0.020	0.006
-533.121	-200.000	0.011	0.102
-532.106	318.204	-0.138	-0.262
-531.091	8.996	-0.130	0.098
-530.077	220.769	-0.135	-0.218
-529.062	-200.000	-0.023	0.211
-528.048	495.460	-0.065	0.150
-527.033	-101.674	-0.063	-0.015
-526.018	357.377	0.133	-0.266
-525.004	800.000	-0.090	-0.277
-523.989	673.844	0.063	-0.163
-522.975	-53.633	-0.339	0.155
-521.960	-169.075	-0.232	-0.009
-520.945	130.592	-0.118	0.151
-519.931	-130.738	-0.216	-0.029
-518.916	-153.301	-0.204	-0.014
-517.902	341.519	-0.058	-0.113
-516.887	111.721	0.045	0.054
-515.872	-95.376	-0.392	0.106
-514.858	570.676	0.091	0.222
-513.843	-21.393	0.243	0.149
-512.829	218.594	0.093	-0.149
-511.814	132.695	0.038	-0.050
-510.799	51.146	-0.075	0.071
-509.785	-46.413	-0.085	-0.042
-508.770	59.841	0.060	-0.060
-507.756	-181.978	-0.154	0.003
-506.741	-41.750	-0.189	0.097
-505.726	27.499	-0.075	0.064
-504.712	-147.071	0.192	0.017
-503.697	53.715	0.153	-0.148
-502.683	-131.804	-0.036	-0.005
-501.668	235.873	0.078	-0.130
-500.653	-87.295	0.204	-0.062
-499.639	439.393	-0.119	-0.260
-498.624	5.077	-0.106	-0.078
-497.610	555.724	0.099	-0.238
-496.595	164.466	-0.039	-0.055
-495.581	-66.440	0.091	0.036
-494.566	-200.000	-0.001	-0.081
-493.551	62.388	-0.241	0.241
-492.537	57.947	-0.226	0.222
-491.522	-200.000	-0.086	0.433
-490.508	-84.361	-0.223	0.071
-489.493	-78.397	0.390	0.134
-488.478	800.000	-0.093	0.260
-487.464	-200.000	0.042	0.210
-486.449	-200.000	0.058	-0.436
-485.435	78.577	-0.074	0.080
-484.420	-200.000	0.023	0.249
-483.405	-120.402	-0.276	0.047
-482.391	-128.789	0.164	-0.023
-481.376	-3.546	-0.204	0.142
-480.362	-8.195	-0.111	0.075
-479.347	71.134	-0.221	0.229
-478.332	-69.751	-0.330	-0.126
-477.318	-8.663	0.094	-0.063
-476.303	800.000	-0.067	-0.248
-475.289	99.975	0.262	-0.304
-474.274	45.295	-0.063	0.058
-473.259	-117.154	-0.151	0.028
-472.245	255.051	0.020	0.034
-471.230	254.959	-0.077	0.132
-470.216	68.617	-0.091	0.093
-469.201	-200.000	0.060	0.353
-468.186	41.878	-0.191	-0.173
-467.172	-136.525	-0.228	-0.026
-466.157	800.000	-0.096	-0.325
-465.143	764.145	0.076	0.206
-464.128	-200.000	0.008	-0.246
-463.113	5.072	0.159	-0.117
-462.099	-200.000	-0.031	0.190
-461.084	24.460	0.201	0.166
-460.070	-156.335	0.256	0.016
-459.055	116.643	-0.237	-0.291
-458.040	-200.000	-0.033	0.177
-457.026	-200.000	0.065	0.298
-456.011	-200.000	0.008	-0.093
-454.997	452.866	0.067	-0.149
-453.982	-120.073	0.163	0.028
-452.968	-127.269	0.159	0.023
-451.953	88.887	-0.164	0.182
-450.938	241.845	0.053	-0.088
-449.924	12.351	0.138	-0.106
-448.909	136.708	-0.149	0.194
-447.895	-2.758	0.437	-0.305
-446.880	-90.428	0.109	0.032
-445.865	-106.007	-0.188	0.042
-444.851	539.913	-0.041	-0.098
-443.836	36.311	0.277	-0.244
-442.822	-200.000	0.003	0.032
-441.807	-100.564	0.032	0.008
-440.792	-200.000	-0.056	-0.266
-439.778	-41.116	0.086	-0.045
-438.763	-19.030	0.100	0.062
-437.749	122.970	-0.154	0.193
-436.734	184.503	-0.108	-0.160
-435.719	754.525	0.019	0.051
-434.705	128.047	0.230	-0.292
-433.690	525.191	0.034	-0.081
-432.676	154.884	-0.153	0.210
-431.661	-72.133	0.167	0.062
-430.646	75.624	0.139	-0.147
-429.632	800.000	0.063	-0.211
-428.617	411.473	0.114	-0.241
-427.603	104.916	-0.153	0.180
-426.588	379.108	-0.066	-0.135
-425.573	160.557	0.046	0.064
-424.559	58.131	-0.214	0.210
-423.544	800.000	-0.072	-0.226
-422.530	-200.000	0.053	-0.393
-421.515	-200.000	0.018	-0.105
-420.500	-110.880	-0.148	-0.030
-419.486	-139.666	0.092	0.010
-418.471	-157.893	0.299	0.018
-417.457	658.106	0.105	-0.269
-416.442	-122.640	-0.413	-0.067
-415.428	-200.000	-0.038	0.169
-414.413	800.000	-0.079	0.290
-413.398	-4.972	0.222	0.153
-412.384	-200.000	0.204	0.001
-411.369	167.396	0.142	-0.202
-410.355	-200.000	-0.003	0.059
-409.340	800.000	-0.146	-0.493
-408.325	-200.000	-0.009	0.106
-407.311	2.401	-0.093	-0.067
-406.296	-200.000	0.009	0.156
-405.282	-145.860	-0.154	-0.014
-404.267	503.385	0.106	-0.245
-403.252	-152.121	0.121	-0.009
-402.238	77.688	-0.104	0.111
-401.223	-148.716	0.046	0.004
-400.209	800.000	-0.042	-0.183
-399.194	38.138	0.184	0.164
-398.179	-88.581	-0.107	-0.032
-397.165	-42.710	0.168	0.085
-396.150	-113.653	-0.063	-0.012
-395.136	-200.000	-0.334	0.002
-394.121	75.860	-0.185	0.195
-393.106	-200.000	-0.125	0.589
-392.092	-200.000	-0.044	0.269
-391.077	-89.607	-0.137	0.040
-390.063	-157.323	-0.073	0.004
-389.048	-17.485	0.136	0.086
-388.033	800.000	0.064	-0.192
-387.019	258.559	0.060	-0.103
-386.004	-126.001	0.198	-0.030
-384.990	157.359	-0.174	0.240
-383.975	30.954	0.224	0.191
-382.960	-200.000	0.021	0.321
-381.946	-133.925	0.187	0.023
-380.931	-58.154	0.311	0.135
-379.917	90.456	-0.103	-0.115
-378.902	43.767	0.205	-0.187
-377.888	800.000	-0.017	-0.053
-376.873	-82.287	-0.098	0.032
-375.858	-163.881	0.289	0.013
-374.844	771.798	0.111	-0.301
-373.829	-200.000	-0.036	-0.311
-372.815	-200.000	0.045	0.219
-371.800	204.506	-0.041	-0.063
-370.785	-10.390	-0.189	0.125
-369.771	-60.354	-0.259	0.110
-368.756	448.219	0.086	-0.188
-367.742	-102.685	0.164	-0.039
-366.727	-71.990	0.511	0.189
-365.712	-200.000	-0.021	0.210
-364.698	-50.057	0.189	0.089
-363.683	-113.915	-0.194	-0.037
-362.669	202.600	0.292	0.450
-361.654	588.099	-0.123	0.301
-360.639	236.629	0.101	0.166
-359.625	800.000	0.017	-0.049
-358.610	-97.766	-0.079	-0.020
-357.596	800.000	-0.041	-0.158
-356.581	-200.000	-0.003	-0.111
-355.566	-200.000	-0.042	0.215
-354.552	-200.000	0.034	-0.158
-353.537	800.000	0.041	-0.161
-352.523	-7.363	0.236	-0.159
-351.508	137.023	-0.044	-0.057
-350.493	630.795	0.011	-0.028
-349.479	-72.733	-0.209	0.077
-348.464	-159.773	0.100	-0.005
-347.450	26.389	0.087	-0.072
-346.435	-49.717	-0.185	-0.088
-345.420	-200.000	-0.006	0.382
-344.406	290.688	-0.043	0.077
-343.391	-142.542	0.039	0.004
-342.377	183.450	-0.120	-0.177
-341.362	40.420	0.162	-0.145
-340.348	-71.419	0.354	-0.132
-339.333	-200.000	-0.012	-0.305
-338.318	-89.425	0.200	-0.059
-337.304	-78.260	-0.218	0.074
-336.289	62.372	0.171	0.170
-335.275	-100.457	0.215	0.053
-334.260	-200.000	0.000	0.116
-333.245	282.980	-0.079	0.141
-332.231	-195.103	0.115	-0.001
-331.216	-200.000	-0.003	0.049
-330.202	-116.564	-0.148	0.027
-329.187	800.000	-0.088	0.324
-328.172	31.760	-0.383	-0.328
-327.158	-130.523	-0.152	0.020
-326.143	-34.657	0.197	-0.107
-325.129	-140.500	0.140	0.015
-324.114	616.250	-0.044	-0.109
-323.099	-65.638	0.375	0.149
-322.085	-98.772	-0.110	0.028
-321.070	-170.774	-0.541	0.019
-320.056	-200.000	-0.018	0.207
-319.041	800.000	0.141	0.402
-318.026	136.711	-0.160	-0.208
-317.012	-20.026	-0.050	0.031
-315.997	403.799	0.088	-0.184
-314.983	-200.000	0.015	0.094
-313.968	-82.713	0.063	0.020
-312.953	-92.304	0.126	-0.035
-311.939	-139.499	-0.338	-0.036
-310.924	-112.615	0.212	0.042
-309.910	125.804	0.242	-0.303
-308.895	798.018	-0.108	-0.297
-307.880	-200.000	-0.007	0.134
-306.866	49.800	0.387	0.363
-305.851	150.340	-0.129	0.174
-304.837	800.000	-0.054	0.198
-303.822	249.001	-0.060	0.100
-302.807	98.780	-0.115	-0.132
-301.793	164.838	0.222	0.311
-300.778	-200.000	-0.016	0.217
-299.764	83.716	-0.125	-0.136
-298.749	-117.887	0.177	0.032
-297.735	-200.000	-0.020	-0.093
-296.720	68.266	0.117	0.119
-295.705	-200.000	-0.184	0.000
-294.691	10.514	0.100	-0.076
-293.676	-200.000	-0.060	0.397
-292.662	-41.478	0.367	0.188
-291.647	-38.382	-0.067	0.035
-290.632	-166.782	-0.254	-0.010
-289.618	60.205	-0.160	0.157
-288.603	0.331	0.146	0.104
-287.589	-200.000	-0.164	0.000
-286.574	43.405	0.299	0.272
-285.559	608.887	0.083	0.206
-284.545	238.540	0.126	0.208
-283.530	-59.594	-0.348	-0.148
-282.516	-75.613	0.203	0.072
-281.501	500.187	0.036	-0.081
-280.486	-25.643	-0.232	-0.136
-279.472	44.587	-0.133	0.121
-278.457	90.762	-0.218	0.243
-277.443	47.004	0.088	-0.081
-276.428	-92.443	0.281	0.078
-275.413	-190.231	-0.192	0.002
-274.399	800.000	0.036	0.136
-273.384	35.314	-0.095	-0.083
-272.370	213.004	-0.068	-0.106
-271.355	-200.000	0.031	0.275
-270.340	-200.000	0.026	0.247
-269.326	60.348	0.203	0.200
-268.311	-110.306	0.213	0.044
-267.297	24.427	0.251	-0.206
-266.282	-196.084	-0.208	0.001
-265.267	-27.249	0.071	-0.041
-264.253	-20.210	-0.079	-0.048
-263.238	685.881	0.032	-0.084
-262.224	532.325	-0.058	-0.137
-261.209	-72.510	0.124	-0.045
-260.195	18.290	-0.211	0.167
-259.180	-200.000	0.053	-0.285
-258.165	-77.136	0.177	0.061
-257.151	92.434	0.040	0.045
-256.136	-59.813	-0.148	-0.063
-255.122	-200.000	0.008	0.034
-254.107	-119.619	0.099	0.017
-253.092	-135.032	-0.194	0.023
-252.078	487.398	0.142	0.322
-251.063	-107.584	-0.391	0.085
-250.049	-152.961	0.259	-0.018
-249.034	635.805	0.058	-0.145
-248.019	302.790	-0.246	0.452
-247.005	-200.000	-0.001	0.193
-245.990	-87.710	0.130	-0.039
-244.976	-72.663	0.286	-0.105
-243.961	-140.799	-0.220	0.023
-242.946	800.000	-0.044	0.190
-241.932	-2.629	0.179	0.124
-240.917	72.268	-0.175	-0.181
-239.903	-84.664	-0.338	0.106
-238.888	-82.719	0.209	0.067
-237.873	-67.685	0.094	0.037
-236.859	-48.031	0.207	-0.099
-235.844	-1.067	0.048	-0.034
-234.830	193.193	-0.028	0.042
-233.815	3.018	0.290	0.209
-232.800	149.251	0.210	-0.281
-231.786	-168.713	0.205	0.008
-230.771	-61.321	0.485	0.202
-229.757	490.142	-0.061	0.138
-228.742	59.133	-0.102	0.099
-227.727	800.000	0.039	-0.155
-226.713	-14.939	-0.099	0.063
-225.698	-35.213	0.278	0.150
-224.684	-121.428	0.192	0.032
-223.669	-72.270	0.173	0.064
-222.655	-159.861	-0.164	0.009
-221.640	-12.892	0.078	0.050
-220.625	-15.402	-0.233	0.148
-219.611	-91.758	0.083	-0.023
-218.596	-134.338	0.307	-0.037
-217.582	-200.000	0.009	0.316
-216.567	224.563	0.091	0.146
-215.552	680.134	-0.060	-0.154
-214.538	-200.000	0.025	-0.249
-213.523	-89.324	0.209	-0.061
-212.509	172.516	0.044	0.063
-211.494	-30.477	-0.105	-0.059
-210.479	-122.247	0.100	-0.016
-209.465	-27.833	0.178	-0.102
-208.450	65.602	0.050	0.051
-207.436	800.000	-0.043	-0.143
-206.421	132.167	0.085	-0.108
-205.406	-200.000	0.016	-0.080
-204.392	800.000	0.074	0.257
-203.377	-37.500	-0.433	-0.229
-202.363	-61.838	-0.303	0.125
-201.348	15.821	0.248	-0.193
-200.333	-46.311	0.176	-0.086
-199.319	-161.576	-0.045	-0.002
-198.304	-58.257	0.208	-0.090
-197.290	-59.285	-0.030	0.013
-196.275	136.833	0.086	-0.111
-195.260	458.734	-0.073	-0.161
-194.246	-55.075	-0.043	-0.019
-193.231	-94.629	-0.090	-0.024
-192.217	-11.852	-0.181	0.117
-191.202	-73.471	0.324	0.117
-190.187	121.318	0.043	-0.053
-189.173	86.299	0.062	-0.068
-188.158	-200.000	0.019	0.189
-187.144	800.000	0.024	-0.100
-186.129	-111.997	-0.171	0.034
-185.114	-57.451	0.471	0.205
-184.100	-60.178	0.071	-0.030
-183.085	-200.000	0.011	-0.169
-182.071	-21.858	-0.183	0.110
-181.056	159.055	0.148	0.203
-180.042	-43.150	-0.209	0.105
-179.027	-64.533	-0.056	-0.022
-178.012	40.421	0.153	0.137
-176.998	-32.979	0.245	0.134
-175.983	507.397	0.149	0.342
-174.969	-200.000	0.041	0.200
-173.954	-87.044	-0.166	-0.050
-172.939	-124.516	-0.171	-0.026
-171.925	-200.000	-0.005	0.050
-170.910	158.230	0.167	-0.229
-169.896	-167.826	-0.354	-0.014
-168.881	124.180	-0.081	-0.100
-167.866	-162.608	0.363	-0.018
-166.852	476.072	0.141	0.314
-165.837	496.959	0.059	0.135
-164.823	-97.199	-0.528	0.136
-163.808	457.941	-0.137	0.301
-162.793	-200.000	-0.009	-0.165
-161.779	40.464	0.045	-0.040
-160.764	270.204	0.172	-0.298
-159.750	-10.247	0.237	0.155
-158.735	-200.000	0.008	-0.253
-157.720	62.333	-0.102	-0.100
-156.706	87.603	0.018	-0.020
-155.691	800.000	-0.084	-0.251
-154.677	207.980	0.118	-0.182
-153.662	45.483	0.231	0.210
-152.647	-115.721	-0.307	-0.057
-151.633	98.388	0.192	-0.219
-150.618	-144.606	0.214	0.020
-149.604	-13.111	-0.076	-0.049
-148.589	304.044	-0.128	0.235
-147.574	-0.287	0.028	-0.020
-146.560	-145.757	0.235	-0.021
-145.545	-110.327	0.304	0.063
-144.531	-106.024	0.349	-0.078
-143.516	-200.000	-0.006	-0.080
-142.502	-200.000	-0.006	0.359
-141.487	-72.766	0.147	-0.053
-140.472	75.226	0.103	-0.107
-139.458	27.180	0.321	-0.266
-138.443	72.665	-0.079	0.081
-137.429	543.148	0.084	0.199
-136.414	450.798	0.043	0.093
-135.399	800.000	-0.103	0.294
-134.385	-112.028	-0.310	-0.062
-133.370	-26.514	0.268	0.155
-132.356	-200.000	0.037	0.272
-131.341	-71.261	0.254	0.094
-130.326	4.936	-0.083	-0.060
-129.312	-200.000	-0.008	0.110
-128.297	800.000	0.026	-0.072
-127.283	-123.219	-0.232	0.037
-126.268	307.815	-0.092	-0.170
-125.253	-110.390	-0.188	-0.039
-124.239	296.198	-0.110	-0.198
-123.224	-17.482	0.140	-0.087
-122.210	-101.753	0.248	-0.059
-121.195	-59.179	0.178	0.076
