DTS Sentinel unit serial number:	SN413079Multiplexer serial number:	ORYXHardware model number:	OX4-SRSoftware version number:	ORYX F/W v4.00 Oryx Data Collector v3.7.2.0data status	okinstallation	princeton_trtdifferential loss correction	single-endedforward channel	channel 1reverse channel	N/Adate	2019/09/13time	03:18:35forward acquisition time	60.00reverse acquisition time	0.00gamma	496.2192k internal	0.2331k external	0.2331temperature offset calibration	1.0159default loss term (dB/km)	0.3790temperature slope calibration	1.0000multiplexer offset coefficient	1.0000multiplexer slope coefficient	1.0000fibre end	0.00T internal ref (°C)	27.37T ext. ref 1 (°C)	4.07T ext. ref 2 (°C)	22.08length (m)	temperature (°C)	Stokes	anti-Stokes-747.200	173.629	0.109	-0.158
-746.185	-200.000	-0.071	-0.326
-745.171	-200.000	0.008	0.218
-744.156	357.083	0.113	0.226
-743.142	26.183	-0.043	0.036
-742.127	-200.000	0.219	0.000
-741.112	-53.641	0.240	0.110
-740.098	-15.557	-0.110	0.071
-739.083	-147.234	0.223	0.019
-738.069	213.767	-0.067	0.106
-737.054	-13.019	0.097	0.064
-736.039	121.541	0.050	-0.063
-735.025	16.887	0.259	0.207
-734.010	176.164	-0.144	-0.210
-732.996	149.884	0.036	-0.049
-731.981	264.501	-0.071	-0.125
-730.966	90.829	-0.206	-0.232
-729.952	-116.461	-0.190	-0.035
-728.937	26.849	-0.083	0.070
-727.923	800.000	0.058	-0.162
-726.908	-40.632	-0.114	-0.060
-725.894	-12.913	-0.205	-0.134
-724.879	-66.715	-0.056	-0.022
-723.864	-196.582	0.051	0.000
-722.850	-200.000	-0.026	0.149
-721.835	3.273	-0.148	-0.108
-720.821	-168.414	-0.049	-0.002
-719.806	477.050	0.150	-0.340
-718.791	208.687	0.111	0.174
-717.777	521.059	0.027	0.064
-716.762	415.939	0.118	0.253
-715.748	-104.859	0.459	-0.106
-714.733	43.459	-0.233	-0.214
-713.718	-3.988	0.347	-0.242
-712.704	-46.326	-0.235	-0.116
-711.689	800.000	0.078	-0.237
-710.675	-200.000	0.019	0.192
-709.660	800.000	0.081	0.299
-708.645	800.000	0.047	-0.185
-707.631	-200.000	0.002	0.049
-706.616	107.752	0.173	-0.207
-705.602	-13.206	-0.177	-0.116
-704.587	-153.746	-0.214	0.015
-703.572	-173.080	-0.050	0.002
-702.558	-200.000	-0.061	0.392
-701.543	-120.743	0.251	-0.043
-700.529	468.799	-0.074	0.167
-699.514	-6.227	0.053	0.036
-698.499	-200.000	-0.018	0.178
-697.485	456.956	0.025	-0.055
-696.470	-200.000	-0.009	-0.119
-695.456	-103.201	-0.138	0.033
-694.441	-200.000	-0.020	0.214
-693.426	-200.000	-0.030	0.195
-692.412	800.000	0.061	-0.218
-691.397	-72.075	0.180	-0.067
-690.383	-200.000	-0.057	0.342
-689.368	37.618	0.206	-0.184
-688.354	218.290	0.111	-0.179
-687.339	-200.000	0.005	-0.315
-686.324	274.279	-0.108	-0.192
-685.310	-50.378	0.053	-0.025
-684.295	-200.000	-0.006	-0.079
-683.281	-131.997	-0.190	-0.025
-682.266	410.582	-0.103	-0.219
-681.251	87.146	0.107	-0.119
-680.237	111.569	0.160	0.194
-679.222	-62.383	-0.135	-0.056
-678.208	-128.824	0.378	-0.053
-677.193	800.000	-0.042	-0.167
-676.178	800.000	0.106	-0.454
-675.164	-91.852	-0.215	-0.061
-674.149	243.143	0.101	0.170
-673.135	800.000	0.009	0.029
-672.120	-139.441	0.128	-0.014
-671.105	-98.006	-0.050	-0.013
-670.091	44.488	-0.108	-0.099
-669.076	630.917	0.018	-0.046
-668.062	-58.234	0.055	-0.024
-667.047	-118.964	0.055	-0.010
-666.032	10.902	-0.300	0.230
-665.018	-32.986	0.143	-0.080
-664.003	-86.543	0.175	0.054
-662.989	52.929	-0.095	0.091
-661.974	750.055	-0.105	-0.285
-660.959	400.567	0.019	-0.040
-659.945	-200.000	0.012	-0.083
-658.930	185.049	-0.099	0.147
-657.916	-58.761	0.199	0.086
-656.901	-200.000	0.009	0.045
-655.886	-153.109	0.195	-0.014
-654.872	-97.347	-0.297	-0.078
-653.857	33.266	0.184	-0.160
-652.843	-66.698	-0.083	-0.033
-651.828	-107.901	-0.249	0.054
-650.814	58.522	-0.107	-0.106
-649.799	96.250	-0.162	0.186
-648.784	-188.168	0.310	-0.004
-647.770	-200.000	-0.042	0.250
-646.755	-37.549	0.216	-0.116
-645.741	51.271	-0.061	0.058
-644.726	-53.170	-0.323	-0.149
-643.711	-200.000	-0.029	-0.223
-642.697	26.980	-0.221	0.186
-641.682	71.252	0.306	0.319
-640.668	172.730	-0.043	-0.063
-639.653	-200.000	0.005	0.368
-638.638	163.308	-0.044	-0.062
-637.624	684.156	-0.031	0.080
-636.609	-131.250	-0.057	-0.008
-635.595	-76.419	-0.339	-0.119
-634.580	-42.875	-0.120	0.061
-633.565	-41.575	-0.158	-0.081
-632.551	-159.400	0.058	-0.003
-631.536	-197.194	0.270	-0.002
-630.522	115.533	-0.022	0.027
-629.507	247.270	-0.119	0.201
-628.492	-22.143	0.193	0.118
-627.478	-90.101	0.175	-0.051
-626.463	-200.000	0.036	-0.253
-625.449	-38.173	-0.137	0.073
-624.434	23.769	-0.159	-0.131
-623.419	11.967	-0.251	0.193
-622.405	212.056	0.156	0.247
-621.390	-39.152	0.175	0.092
-620.376	-1.543	-0.085	-0.060
-619.361	485.574	0.081	0.184
-618.346	800.000	0.022	-0.071
-617.332	492.603	0.128	-0.293
-616.317	800.000	-0.069	-0.229
-615.303	155.932	0.096	0.132
-614.288	-108.635	-0.116	0.025
-613.273	-158.609	-0.290	-0.017
-612.259	-83.946	0.269	-0.086
-611.244	603.073	0.063	0.157
-610.230	-44.675	-0.297	0.149
-609.215	-113.377	-0.227	-0.045
-608.201	-43.564	-0.280	-0.141
-607.186	-63.800	-0.192	-0.079
-606.171	-114.957	-0.033	-0.006
-605.157	-139.954	0.436	0.046
-604.142	456.714	-0.020	-0.045
-603.128	414.018	-0.055	-0.117
-602.113	61.144	-0.155	-0.154
-601.098	397.842	-0.058	-0.121
-600.084	-200.000	0.032	-0.431
-599.069	77.479	-0.119	0.127
-598.055	56.159	0.230	-0.223
-597.040	352.209	-0.078	0.156
-596.025	-119.307	-0.213	0.037
-595.011	800.000	-0.047	-0.170
-593.996	299.310	-0.107	0.196
-592.982	-38.745	-0.135	0.071
-591.967	800.000	0.048	-0.141
-590.952	313.914	0.043	-0.080
-589.938	-200.000	-0.051	-0.270
-588.923	-73.906	0.104	0.038
-587.909	-200.000	-0.025	0.116
-586.894	94.940	-0.193	0.219
-585.879	42.390	-0.172	0.156
-584.865	-126.988	0.222	0.033
-583.850	-200.000	-0.017	0.315
-582.836	81.468	0.311	-0.336
-581.821	-1.544	-0.243	-0.171
-580.806	-13.697	-0.122	0.079
-579.792	663.774	0.003	-0.009
-578.777	312.511	-0.113	-0.211
-577.763	191.884	-0.029	-0.043
-576.748	-68.122	-0.424	-0.165
-575.733	279.583	-0.080	0.142
-574.719	201.884	-0.079	-0.121
-573.704	363.447	-0.089	-0.179
-572.690	-136.050	-0.246	-0.029
-571.675	-102.748	-0.235	-0.056
-570.661	-200.000	0.032	-0.234
-569.646	-200.000	-0.015	-0.229
-568.631	-34.375	0.217	-0.119
-567.617	-109.243	-0.136	-0.029
-566.602	23.105	0.211	0.173
-565.588	-108.672	0.265	0.057
-564.573	800.000	0.127	-0.419
-563.558	-128.330	-0.088	-0.013
-562.544	240.806	-0.088	0.147
-561.529	-96.620	-0.443	-0.117
-560.515	107.774	-0.183	0.218
-559.500	-69.323	-0.198	-0.076
-558.485	-46.408	0.257	-0.126
-557.471	56.480	-0.067	0.065
-556.456	15.687	0.299	0.235
-555.442	152.439	0.023	-0.031
-554.427	-10.428	-0.015	0.010
-553.412	-200.000	0.004	-0.315
-552.398	-172.143	0.122	0.004
-551.383	-112.732	0.082	-0.016
-550.369	-200.000	-0.168	0.000
-549.354	800.000	-0.074	-0.238
-548.339	800.000	-0.058	-0.235
-547.325	-200.000	0.055	0.259
-546.310	800.000	-0.028	0.082
-545.296	-62.811	-0.186	0.077
-544.281	63.432	-0.105	0.105
-543.266	-71.944	0.117	-0.044
-542.252	485.203	-0.078	-0.178
-541.237	-200.000	0.021	-0.338
-540.223	-186.273	-0.189	0.003
-539.208	-200.000	-0.026	-0.345
-538.193	195.427	-0.159	0.241
-537.179	-102.424	-0.148	-0.035
-536.164	-62.761	-0.247	0.102
-535.150	-80.151	-0.182	0.061
-534.135	20.252	-0.105	0.084
-533.121	-25.202	0.234	0.138
-532.106	27.684	0.022	-0.019
-531.091	-200.000	0.031	-0.243
-530.077	-84.445	0.122	0.039
-529.062	451.305	0.098	-0.215
-528.048	-200.000	-0.009	0.197
-527.033	-200.000	-0.001	-0.216
-526.018	731.703	0.088	-0.235
-525.004	800.000	0.115	0.370
-523.989	-82.276	-0.147	-0.048
-522.975	-46.932	-0.283	-0.138
-521.960	-80.296	-0.232	0.077
-520.945	62.954	0.006	-0.006
-519.931	800.000	-0.058	0.209
-518.916	445.471	-0.066	0.145
-517.902	-158.648	0.061	0.003
-516.887	462.544	-0.086	-0.192
-515.872	109.042	0.113	-0.135
-514.858	-112.626	-0.246	0.049
-513.843	-3.154	0.160	0.111
-512.829	-93.685	0.471	0.130
-511.814	206.492	-0.043	-0.066
-510.799	161.737	0.077	-0.107
-509.785	-128.179	-0.278	0.040
-508.770	-48.473	0.109	-0.052
-507.756	-115.894	0.120	0.022
-506.741	18.135	-0.052	0.041
-505.726	70.092	-0.113	0.116
-504.712	-35.925	0.256	-0.138
-503.697	-200.000	-0.014	0.138
-502.683	9.415	-0.313	0.236
-501.668	499.676	-0.139	0.319
-500.653	800.000	-0.018	-0.051
-499.639	-7.308	0.329	0.222
-498.624	171.586	-0.134	-0.191
-497.610	148.616	0.110	0.149
-496.595	-28.861	-0.244	0.140
-495.581	-30.225	-0.215	-0.122
-494.566	-54.838	-0.255	0.115
-493.551	762.506	0.238	-0.644
-492.537	-112.324	0.219	0.044
-491.522	800.000	0.114	0.351
-490.508	546.892	-0.039	-0.093
-489.493	43.214	-0.244	-0.222
-488.478	150.008	-0.158	-0.214
-487.464	-57.022	0.279	-0.123
-486.449	-29.007	-0.278	0.159
-485.435	800.000	-0.035	-0.108
-484.420	-117.281	0.235	-0.042
-483.405	-200.000	0.012	-0.145
-482.391	315.934	-0.056	0.105
-481.376	-60.666	-0.437	-0.185
-480.362	-71.085	-0.323	0.121
-479.347	-128.044	-0.194	0.028
-478.332	-93.928	0.118	0.032
-477.318	322.740	0.075	-0.142
-476.303	63.736	-0.040	0.040
-475.289	-200.000	-0.003	0.025
-474.274	-151.220	-0.178	0.013
-473.259	-41.852	-0.335	0.171
-472.245	-126.173	-0.121	-0.018
-471.230	152.015	-0.164	0.223
-470.216	23.898	0.120	0.098
-469.201	314.302	0.111	0.208
-468.186	800.000	-0.067	0.235
-467.172	-200.000	-0.030	-0.142
-466.157	538.445	0.028	0.066
-465.143	65.875	-0.071	-0.071
-464.128	800.000	-0.092	0.393
-463.113	-200.000	-0.016	0.209
-462.099	-167.256	-0.034	0.001
-461.084	-200.000	0.003	0.364
-460.070	42.125	-0.319	0.288
-459.055	-98.685	-0.509	0.129
-458.040	260.154	0.083	0.142
-457.026	6.687	-0.191	0.141
-456.011	-147.738	0.229	0.019
-454.997	203.965	0.136	0.209
-453.982	-144.011	0.302	-0.028
-452.968	660.848	0.039	-0.100
-451.953	-82.739	-0.164	-0.053
-450.938	-76.228	-0.426	-0.149
-449.924	227.076	-0.136	-0.220
-448.909	48.282	-0.212	-0.197
-447.895	-104.996	-0.268	-0.061
-446.880	193.877	-0.096	0.145
-445.865	-200.000	0.025	-0.132
-444.851	-53.064	0.162	-0.074
-443.836	-91.558	-0.390	-0.111
-442.822	153.582	0.162	0.221
-441.807	-36.075	0.364	-0.196
-440.792	-172.810	0.032	-0.001
-439.778	5.957	0.269	-0.198
-438.763	800.000	-0.037	-0.137
-437.749	139.332	-0.157	-0.206
-436.734	-200.000	0.032	-0.190
-435.719	20.018	0.272	0.218
-434.705	44.141	-0.238	-0.217
-433.690	-50.437	-0.238	0.112
-432.676	-23.365	-0.127	0.076
-431.661	-37.229	-0.250	0.133
-430.646	-118.210	0.246	-0.043
-429.632	85.359	-0.103	-0.113
-428.617	171.802	0.144	-0.205
-427.603	19.469	-0.282	-0.225
-426.588	-200.000	-0.035	-0.199
-425.573	-200.000	-0.062	0.294
-424.559	800.000	0.012	-0.038
-423.544	1.868	0.076	0.054
-422.530	21.319	-0.247	0.200
-421.515	111.028	0.178	-0.213
-420.500	-200.000	0.024	-0.229
-419.486	-21.558	-0.072	-0.043
-418.471	-0.369	-0.112	0.079
-417.457	174.007	0.204	0.293
-416.442	-40.626	-0.061	0.031
-415.428	-162.388	-0.114	-0.006
-414.413	23.080	-0.088	-0.072
-413.398	161.266	0.222	0.309
-412.384	216.708	-0.270	-0.427
-411.369	-139.359	0.124	-0.013
-410.355	193.694	-0.087	0.131
-409.340	-116.570	0.129	0.024
-408.325	-200.000	-0.059	0.310
-407.311	18.882	0.124	-0.098
-406.296	-200.000	0.067	-0.304
-405.282	-200.000	-0.001	-0.166
-404.267	190.297	0.259	0.386
-403.252	-200.000	0.015	-0.284
-402.238	-200.000	0.069	0.370
-401.223	-200.000	-0.050	0.239
-400.209	-32.417	0.377	-0.209
-399.194	64.277	0.151	0.151
-398.179	-200.000	-0.029	0.197
-397.165	-200.000	-0.004	0.086
-396.150	800.000	0.069	0.251
-395.136	178.615	-0.188	0.272
-394.121	-200.000	0.048	-0.480
-393.106	-102.264	-0.176	0.042
-392.092	-97.185	0.100	0.026
-391.077	-37.213	0.194	-0.103
-390.063	-200.000	-0.021	0.202
-389.048	1.665	-0.086	-0.062
-388.033	716.016	-0.147	-0.387
-387.019	-124.078	-0.321	0.050
-386.004	14.256	-0.199	-0.154
-384.990	-200.000	0.005	-0.254
-383.975	-93.299	-0.198	0.054
-382.960	-123.441	0.380	-0.060
-381.946	800.000	0.041	0.120
-380.931	295.181	-0.047	0.085
-379.917	-21.320	0.155	0.094
-378.902	229.134	-0.182	0.294
-377.888	-102.096	-0.428	-0.102
-376.873	108.705	-0.105	0.125
-375.858	49.470	0.208	0.195
-374.844	80.733	0.301	0.322
-373.829	-73.740	-0.117	0.042
-372.815	-120.903	0.135	-0.023
-371.800	-10.746	0.056	0.037
-370.785	21.106	-0.067	0.054
-369.771	-30.601	0.181	-0.102
-368.756	-68.110	-0.147	0.057
-367.742	504.898	0.019	-0.043
-366.727	800.000	0.042	0.129
-365.712	269.959	-0.213	-0.371
-364.698	75.798	0.087	-0.091
-363.683	-200.000	-0.022	0.111
-362.669	-200.000	-0.004	0.179
-361.654	-6.591	0.067	-0.045
-360.639	-200.000	0.002	-0.084
-359.625	-1.776	0.401	-0.280
-358.610	-161.392	-0.211	-0.011
-357.596	308.273	-0.039	-0.071
-356.581	-41.156	0.386	-0.197
-355.566	-129.829	-0.126	0.017
-354.552	500.433	0.097	-0.222
-353.537	-110.651	-0.169	-0.035
-352.523	800.000	0.008	0.032
-351.508	-114.864	0.309	0.058
-350.493	578.979	0.105	0.256
-349.479	-27.942	-0.335	0.192
-348.464	53.642	0.138	0.131
-347.450	-168.517	0.221	0.008
-346.435	-153.609	-0.066	0.005
-345.420	-120.484	0.180	0.030
-344.406	800.000	0.033	0.136
-343.391	-200.000	-0.004	0.096
-342.377	-200.000	-0.006	0.113
-341.362	-78.087	-0.298	0.102
-340.348	-152.010	0.028	-0.002
-339.333	688.281	-0.041	0.107
-338.318	-123.986	-0.158	-0.025
-337.304	64.768	0.220	-0.220
-336.289	-18.571	0.120	-0.074
-335.275	-200.000	-0.033	-0.189
-334.260	-50.395	-0.149	-0.070
-333.245	-3.977	0.086	0.059
-332.231	658.087	0.165	0.419
-331.216	-200.000	0.010	-0.086
-330.202	-200.000	0.009	-0.180
-329.187	800.000	0.096	-0.272
-328.172	800.000	-0.061	0.240
-327.158	-200.000	0.006	-0.095
-326.143	800.000	0.082	0.257
-325.129	131.986	-0.049	-0.062
-324.114	800.000	0.081	-0.322
-323.099	52.109	0.166	0.156
-322.085	543.425	-0.058	-0.137
-321.070	-200.000	-0.007	-0.247
-320.056	-151.304	-0.143	0.011
-319.041	149.574	0.097	0.130
-318.026	800.000	0.072	-0.272
-317.012	-184.204	-0.067	0.001
-315.997	239.158	-0.120	0.198
-314.983	-200.000	0.011	0.099
-313.968	26.832	-0.148	-0.123
-312.953	-159.086	-0.174	-0.010
-311.939	-200.000	-0.030	0.289
-310.924	-119.132	-0.149	-0.026
-309.910	657.148	0.043	-0.109
-308.895	784.799	0.180	0.487
-307.880	800.000	0.032	0.112
-306.866	-176.854	0.146	-0.004
-305.851	-41.034	0.267	-0.136
-304.837	-58.973	0.263	0.113
-303.822	235.203	-0.125	0.204
-302.807	-146.869	0.228	-0.019
-301.793	-105.152	-0.173	0.039
-300.778	800.000	0.103	-0.304
-299.764	237.479	-0.057	0.094
-298.749	-200.000	0.006	-0.063
-297.735	-128.076	0.194	-0.027
-296.720	58.185	0.211	-0.205
-295.705	-141.331	-0.233	-0.023
-294.691	475.793	0.064	-0.144
-293.676	-200.000	0.016	-0.143
-292.662	-37.282	0.323	-0.170
-291.647	-155.314	0.433	0.028
-290.632	44.213	-0.150	0.136
-289.618	-124.069	0.142	-0.022
-288.603	-161.969	0.296	-0.015
-287.589	-79.480	0.090	-0.030
-286.574	281.212	0.041	0.073
-285.559	-25.987	0.098	0.057
-284.545	-162.874	-0.098	-0.005
-283.530	749.019	-0.108	-0.287
-282.516	800.000	0.058	0.162
-281.501	183.974	0.053	0.077
-280.486	-13.541	-0.164	0.105
-279.472	-200.000	0.019	0.167
-278.457	529.190	0.054	0.125
-277.443	-166.366	0.065	0.003
-276.428	800.000	-0.095	-0.273
-275.413	-200.000	-0.005	0.065
-274.399	231.066	-0.140	0.227
-273.384	32.957	0.258	-0.221
-272.370	-200.000	-0.014	-0.154
-271.355	607.239	0.064	-0.157
-270.340	47.041	0.090	-0.083
-269.326	-4.847	-0.211	0.144
-268.311	800.000	-0.056	-0.160
-267.297	-74.383	-0.063	0.023
-266.282	-76.643	0.210	-0.073
-265.267	0.948	-0.153	0.108
-264.253	-173.479	0.117	0.003
-263.238	-186.010	0.268	0.004
-262.224	-41.109	-0.147	0.075
-261.209	245.081	0.072	-0.119
-260.195	2.983	0.250	0.180
-259.180	-200.000	0.052	-0.225
-258.165	-200.000	0.032	0.260
-257.151	574.010	0.031	0.074
-256.136	800.000	0.101	0.317
-255.122	-52.511	0.142	-0.065
-254.107	-27.004	-0.083	-0.048
-253.092	800.000	-0.038	0.163
-252.078	-116.122	0.153	0.028
-251.063	-200.000	-0.054	-0.257
-250.049	155.229	-0.143	-0.194
-249.034	-200.000	-0.022	-0.140
-248.019	-200.000	0.041	-0.183
-247.005	-200.000	0.054	0.344
-245.990	43.208	-0.146	-0.132
-244.976	74.737	0.139	-0.144
-243.961	-166.681	-0.277	0.011
-242.946	-55.557	0.281	-0.124
-241.932	58.862	-0.103	0.100
-240.917	95.853	0.089	0.100
-239.903	-135.382	0.172	0.020
-238.888	-105.953	-0.194	0.043
-237.873	1.296	-0.234	-0.166
-236.859	-153.487	-0.048	0.003
-235.844	14.113	-0.101	-0.078
-234.830	-92.594	-0.267	-0.074
-233.815	269.713	-0.154	-0.267
-232.800	267.054	-0.228	0.394
-231.786	-200.000	-0.018	0.621
-230.771	368.302	-0.136	-0.270
-229.757	800.000	-0.042	-0.130
-228.742	-24.733	0.202	0.119
-227.727	-200.000	0.026	-0.113
-226.713	-19.810	0.333	0.203
-225.698	-120.209	0.161	0.027
-224.684	110.350	0.222	0.263
-223.669	515.177	0.081	0.186
-222.655	-200.000	0.015	0.067
-221.640	-96.672	0.049	0.013
-220.625	800.000	-0.069	-0.190
-219.611	-62.785	0.196	-0.080
-218.596	9.587	-0.099	0.074
-217.582	-94.774	0.400	-0.107
-216.567	-200.000	0.021	-0.147
-215.552	-29.043	0.231	0.131
-214.538	800.000	-0.064	-0.232
-213.523	65.161	0.234	-0.233
-212.509	321.059	0.080	0.150
-211.494	800.000	0.018	-0.058
-210.479	88.574	0.181	-0.198
-209.465	189.517	0.150	-0.222
-208.450	12.924	0.364	0.277
-207.436	-200.000	0.026	-0.233
-206.421	286.962	-0.116	-0.207
-205.406	-89.012	-0.204	0.060
-204.392	-169.684	0.160	0.006
-203.377	-200.000	-0.061	-0.397
-202.363	449.852	-0.123	0.268
-201.348	-92.384	-0.199	0.055
-200.333	800.000	-0.108	-0.324
-199.319	58.339	0.136	-0.131
-198.304	-66.436	-0.257	0.100
-197.290	-150.668	-0.177	0.013
-196.275	208.530	0.023	0.035
-195.260	-200.000	0.065	0.413
-194.246	800.000	0.089	0.257
-193.231	167.994	0.225	-0.315
-192.217	121.373	0.136	0.167
-191.202	-112.592	0.445	0.087
-190.187	279.571	-0.127	0.224
-189.173	-85.849	-0.197	-0.060
-188.158	52.770	0.280	-0.264
-187.144	800.000	0.086	0.275
-186.129	611.350	-0.086	0.212
-185.114	-95.468	-0.238	-0.063
-184.100	-41.683	0.169	-0.085
-183.085	-48.350	-0.103	0.049
-182.071	-131.879	0.137	0.018
-181.056	420.735	-0.179	-0.378
-180.042	-127.155	0.243	-0.035
-179.027	-90.269	0.386	-0.110
-178.012	-200.000	-0.019	0.221
-176.998	760.925	-0.045	0.119
-175.983	-146.404	0.229	0.020
-174.969	-6.274	0.235	0.158
-173.954	128.634	0.151	-0.189
-172.939	-87.817	0.094	-0.028
-171.925	800.000	-0.100	-0.309
-170.910	-122.853	0.408	0.065
-169.896	228.028	0.235	0.376
-168.881	-200.000	0.003	0.275
-167.866	70.014	0.263	-0.267
-166.852	80.569	0.148	0.157
-165.837	260.268	-0.060	-0.103
-164.823	401.431	-0.063	0.130
-163.808	16.116	0.230	0.179
-162.793	-200.000	0.055	-0.273
-161.779	-73.957	-0.220	0.078
-160.764	-39.716	-0.109	-0.056
-159.750	73.219	0.114	-0.117
-158.735	-33.143	0.160	0.087
-157.720	-200.000	0.057	0.304
-156.706	238.354	-0.121	-0.197
-155.691	99.159	0.098	-0.111
-154.677	-144.126	0.096	-0.009
-153.662	91.022	0.162	0.179
-152.647	800.000	0.035	0.137
-151.633	-200.000	0.011	-0.187
-150.618	407.902	0.153	0.317
-149.604	-200.000	0.023	0.285
-148.589	22.243	-0.099	0.080
-147.574	-28.897	0.262	0.148
-146.560	49.217	0.254	-0.235
-145.545	-200.000	0.034	-0.211
-144.531	511.653	-0.097	-0.223
-143.516	-92.974	0.272	-0.075
-142.502	643.418	0.045	-0.113
-141.487	23.927	0.148	0.120
-140.472	166.613	-0.216	0.302
-139.458	-3.398	0.089	-0.061
-138.443	800.000	-0.057	-0.215
-137.429	-117.777	-0.151	0.027
-136.414	111.946	0.051	0.060
-135.399	-134.129	-0.054	0.007
-134.385	344.867	0.069	0.133
-133.370	127.520	0.079	-0.099
-132.356	455.878	-0.116	0.252
-131.341	-84.157	-0.279	-0.087
-130.326	92.460	0.154	0.170
-129.312	-111.737	0.065	-0.013
-128.297	-176.503	0.348	0.009
-127.283	-200.000	-0.021	-0.217
-126.268	-137.173	0.238	-0.027
-125.253	507.849	0.082	0.186
-124.239	-195.719	-0.196	0.001
-123.224	-54.109	0.394	0.176
-122.210	187.299	0.105	-0.154
