DTS Sentinel unit serial number:	SN413079Multiplexer serial number:	ORYXHardware model number:	OX4-SRSoftware version number:	ORYX F/W v4.00 Oryx Data Collector v3.7.2.0data status	okinstallation	princeton_trtdifferential loss correction	single-endedforward channel	channel 1reverse channel	N/Adate	2019/09/12time	22:26:35forward acquisition time	60.00reverse acquisition time	0.00gamma	496.2192k internal	0.2327k external	0.2327temperature offset calibration	1.0146default loss term (dB/km)	0.3790temperature slope calibration	1.0000multiplexer offset coefficient	1.0000multiplexer slope coefficient	1.0000fibre end	0.00T internal ref (°C)	29.75T ext. ref 1 (°C)	3.72T ext. ref 2 (°C)	24.28length (m)	temperature (°C)	Stokes	anti-Stokes-747.200	42.119	0.143	-0.131
-746.185	800.000	-0.096	0.319
-745.171	-15.122	0.403	0.260
-744.156	168.561	-0.097	0.140
-743.142	-96.331	0.415	0.111
-742.127	-200.000	-0.009	0.382
-741.112	-33.587	-0.106	-0.059
-740.098	800.000	-0.026	-0.097
-739.083	-200.000	-0.033	-0.146
-738.069	693.007	-0.088	0.234
-737.054	-106.367	-0.437	0.098
-736.039	-33.334	-0.493	0.275
-735.025	-24.207	0.106	0.064
-734.010	-1.033	-0.082	-0.058
-732.996	126.848	-0.134	-0.171
-731.981	-200.000	0.038	-0.276
-730.966	201.351	-0.145	-0.225
-729.952	-146.232	-0.160	-0.014
-728.937	800.000	0.091	0.321
-727.923	-143.538	-0.325	-0.031
-726.908	800.000	0.100	-0.314
-725.894	136.969	-0.203	0.267
-724.879	174.966	-0.183	-0.267
-723.864	-50.980	-0.227	-0.107
-722.850	777.988	0.147	0.406
-721.835	-200.000	0.006	-0.116
-720.821	349.238	-0.072	0.142
-719.806	-200.000	0.018	0.226
-718.791	-52.976	0.119	0.055
-717.777	30.387	-0.261	-0.224
-716.762	154.654	-0.125	0.173
-715.748	-200.000	-0.031	0.442
-714.733	-200.000	-0.005	0.157
-713.718	58.379	-0.047	0.047
-712.704	-200.000	0.010	0.074
-711.689	-83.099	0.130	-0.042
-710.675	415.869	0.146	-0.313
-709.660	41.398	-0.122	-0.111
-708.645	-125.489	0.182	-0.028
-707.631	603.078	-0.149	0.372
-706.616	-27.371	-0.042	0.025
-705.602	-11.627	-0.043	-0.029
-704.587	-88.804	-0.336	0.101
-703.572	-6.462	-0.131	0.090
-702.558	218.304	-0.158	0.254
-701.543	800.000	-0.064	-0.237
-700.529	320.842	0.145	0.277
-699.514	800.000	0.068	0.198
-698.499	732.409	-0.095	-0.256
-697.485	89.125	0.146	-0.164
-696.470	-105.501	0.228	-0.052
-695.456	403.694	-0.207	-0.438
-694.441	-200.000	0.028	0.194
-693.426	185.172	0.082	0.122
-692.412	57.664	-0.132	0.130
-691.397	-115.982	-0.087	0.016
-690.383	-2.656	0.197	0.139
-689.368	-200.000	0.023	-0.118
-688.354	800.000	0.109	-0.355
-687.339	-200.000	-0.036	0.158
-686.324	5.845	-0.166	-0.123
-685.310	84.272	0.165	-0.182
-684.295	7.994	-0.139	-0.105
-683.281	-43.137	-0.274	-0.140
-682.266	170.109	-0.101	-0.145
-681.251	-200.000	-0.019	0.236
-680.237	800.000	0.093	-0.267
-679.222	570.300	-0.035	-0.087
-678.208	-200.000	-0.053	-0.499
-677.193	522.861	0.128	-0.302
-676.178	-120.740	0.193	-0.033
-675.164	498.757	-0.058	-0.135
-674.149	-5.198	-0.139	0.096
-673.135	83.758	-0.184	0.202
-672.120	79.703	-0.055	-0.059
-671.105	-161.955	-0.396	0.020
-670.091	-99.033	-0.152	-0.039
-669.076	-94.769	0.119	-0.033
-668.062	-200.000	0.003	0.108
-667.047	-172.457	0.216	-0.007
-666.032	-59.127	0.105	0.045
-665.018	210.511	-0.219	0.345
-664.003	746.721	0.093	0.251
-662.989	-54.938	-0.192	-0.087
-661.974	-132.801	0.322	-0.041
-660.959	-200.000	0.011	-0.312
-659.945	-151.850	0.114	0.008
-658.930	-23.318	-0.171	-0.103
-657.916	-72.247	-0.069	-0.026
-656.901	800.000	-0.094	-0.273
-655.886	-5.739	0.118	0.081
-654.872	-119.750	0.094	-0.016
-653.857	-185.116	-0.185	0.003
-652.843	212.634	-0.239	-0.379
-651.828	-200.000	-0.017	0.105
-650.814	800.000	-0.054	-0.183
-649.799	-200.000	0.052	-0.269
-648.784	-91.325	0.252	0.072
-647.770	52.455	-0.106	0.102
-646.755	230.793	-0.136	0.224
-645.741	227.950	0.124	0.203
-644.726	800.000	-0.022	0.089
-643.711	-69.579	0.213	-0.082
-642.697	-200.000	0.014	-0.099
-641.682	800.000	-0.054	0.150
-640.668	336.702	-0.096	0.188
-639.653	261.997	-0.168	-0.292
-638.638	124.982	0.041	0.052
-637.624	800.000	0.118	0.378
-636.609	-117.632	0.196	-0.035
-635.595	-200.000	0.001	0.014
-634.580	139.080	0.097	0.129
-633.565	-70.160	-0.241	0.092
-632.551	290.160	0.085	0.155
-631.536	515.258	0.112	-0.262
-630.522	-12.790	-0.336	-0.220
-629.507	444.200	-0.109	0.240
-628.492	800.000	0.037	-0.120
-627.478	-127.293	0.265	0.039
-626.463	141.266	-0.086	-0.115
-625.449	-89.373	-0.156	0.046
-624.434	800.000	0.038	0.148
-623.419	800.000	0.074	0.304
-622.405	-85.765	-0.082	0.026
-621.390	93.268	-0.216	-0.245
-620.376	168.028	-0.081	0.116
-619.361	261.024	-0.071	0.123
-618.346	-11.456	-0.093	-0.062
-617.332	7.665	-0.186	-0.140
-616.317	-34.189	-0.270	0.149
-615.303	-200.000	-0.041	0.263
-614.288	152.980	0.069	0.095
-613.273	-200.000	-0.080	0.458
-612.259	46.179	-0.218	-0.202
-611.244	800.000	0.032	-0.094
-610.230	-185.304	-0.311	-0.005
-609.215	-48.402	0.289	0.139
-608.201	41.049	0.064	0.058
-607.186	174.256	0.042	0.061
-606.171	-11.104	0.063	-0.041
-605.157	-100.967	-0.417	-0.103
-604.142	-3.275	-0.119	0.083
-603.128	102.069	0.226	0.264
-602.113	-152.807	0.218	-0.015
-601.098	-121.775	-0.197	-0.033
-600.084	4.109	0.164	0.120
-599.069	-4.676	-0.187	-0.129
-598.055	800.000	0.041	-0.142
-597.040	-199.522	-0.013	0.000
-596.025	-35.638	-0.074	-0.040
-595.011	44.689	-0.075	-0.069
-593.996	-200.000	0.046	0.289
-592.982	-37.552	0.090	-0.048
-591.967	-97.775	-0.205	-0.053
-590.952	213.657	-0.106	0.168
-589.938	-102.137	-0.423	0.102
-588.923	-87.066	0.057	-0.017
-587.909	270.033	0.251	-0.443
-586.894	-200.000	-0.001	-0.160
-585.879	-171.702	-0.056	-0.002
-584.865	800.000	0.077	0.232
-583.850	8.959	0.194	0.147
-582.836	-130.957	-0.171	0.023
-581.821	-122.948	-0.156	-0.025
-580.806	-141.376	-0.132	-0.013
-579.792	800.000	0.042	0.125
-578.777	-166.581	0.137	-0.006
-577.763	-200.000	-0.023	0.113
-576.748	800.000	-0.061	-0.181
-575.733	-65.316	0.174	-0.070
-574.719	-200.000	-0.072	-0.381
-573.704	535.397	0.091	0.217
-572.690	200.727	0.064	0.098
-571.675	-200.000	0.027	0.244
-570.661	149.613	0.296	-0.401
-569.646	-124.002	0.164	-0.026
-568.631	800.000	-0.141	0.395
-567.617	200.035	0.061	0.093
-566.602	-170.134	0.232	-0.008
-565.588	154.061	-0.191	0.263
-564.573	-98.728	0.213	-0.054
-563.558	-37.004	-0.121	-0.065
-562.544	1.078	0.095	-0.068
-561.529	-66.201	0.069	-0.027
-560.515	35.357	-0.148	-0.130
-559.500	274.698	-0.179	-0.318
-558.485	-200.000	0.057	-0.293
-557.471	128.322	-0.165	-0.210
-556.456	8.945	0.218	0.164
-555.442	-149.503	-0.094	-0.007
-554.427	16.760	-0.267	-0.211
-553.412	-200.000	0.010	-0.203
-552.398	751.327	-0.146	0.395
-551.383	133.687	-0.164	-0.212
-550.369	548.799	0.018	0.043
-549.354	93.437	0.072	0.081
-548.339	245.968	0.063	0.106
-547.325	-67.735	-0.272	0.107
-546.310	-40.517	-0.349	-0.181
-545.296	111.738	0.115	-0.139
-544.281	-143.704	-0.165	0.016
-543.266	800.000	-0.025	-0.102
-542.252	800.000	-0.057	-0.187
-541.237	-38.670	-0.150	0.079
-540.223	-111.649	-0.236	-0.048
-539.208	522.340	-0.161	0.379
-538.193	189.331	0.164	-0.246
-537.179	8.485	0.238	0.179
-536.164	-200.000	-0.135	-0.000
-535.150	174.376	0.041	-0.059
-534.135	800.000	-0.040	0.156
-533.121	-110.693	0.064	0.013
-532.106	93.448	-0.339	0.383
-531.091	-1.858	-0.085	0.059
-530.077	-115.531	-0.350	-0.066
-529.062	-4.589	0.104	0.071
-528.048	530.344	0.113	-0.267
-527.033	5.564	0.169	-0.124
-526.018	-152.073	0.322	0.023
-525.004	800.000	0.060	0.225
-523.989	-200.000	0.007	0.265
-522.975	-89.466	-0.291	-0.086
-521.960	-48.740	0.503	0.242
-520.945	800.000	0.104	-0.336
-519.931	-134.774	0.073	-0.009
-518.916	94.645	0.177	0.201
-517.902	-18.105	-0.138	0.086
-516.887	-138.502	0.178	0.020
-515.872	-200.000	-0.019	-0.180
-514.858	-115.959	0.278	0.052
-513.843	78.100	0.235	-0.251
-512.829	-51.295	-0.202	0.095
-511.814	-39.508	0.114	-0.060
-510.799	-121.628	-0.240	-0.040
-509.785	135.229	0.032	-0.042
-508.770	309.255	-0.150	-0.280
-507.756	262.468	-0.089	-0.154
-506.741	-100.155	0.239	0.059
-505.726	-78.925	0.196	0.067
-504.712	284.410	0.117	0.210
-503.697	223.036	0.029	-0.047
-502.683	800.000	-0.082	0.290
-501.668	448.592	0.094	-0.206
-500.653	-200.000	-0.051	-0.420
-499.639	127.467	0.099	-0.126
-498.624	1.722	0.468	-0.337
-497.610	-200.000	-0.015	0.145
-496.595	18.519	0.113	-0.090
-495.581	800.000	-0.061	0.195
-494.566	34.243	-0.077	0.067
-493.551	21.141	-0.156	-0.126
-492.537	-68.171	-0.276	-0.107
-491.522	800.000	-0.134	0.393
-490.508	-200.000	-0.023	0.102
-489.493	-134.049	0.128	0.016
-488.478	-72.136	-0.142	-0.053
-487.464	-145.039	-0.065	0.006
-486.449	-34.627	0.136	0.074
-485.435	800.000	0.038	-0.115
-484.420	-36.025	-0.206	-0.111
-483.405	508.809	0.137	0.319
-482.391	-72.005	-0.179	-0.066
-481.376	725.103	0.016	-0.043
-480.362	-1.371	0.131	-0.092
-479.347	-17.962	-0.184	-0.115
-478.332	-200.000	-0.006	-0.181
-477.318	-97.012	-0.276	0.072
-476.303	97.016	-0.150	-0.172
-475.289	-200.000	0.055	-0.332
-474.274	67.696	-0.076	-0.078
-473.259	-164.866	0.128	-0.006
-472.245	-102.854	0.117	0.028
-471.230	130.532	-0.059	-0.076
-470.216	18.877	0.210	-0.168
-469.201	101.400	0.145	0.168
-468.186	-125.394	0.128	-0.020
-467.172	2.300	0.134	0.097
-466.157	8.267	-0.120	0.090
-465.143	-47.418	-0.336	0.163
-464.128	-130.570	-0.163	0.022
-463.113	-72.516	0.323	0.119
-462.099	-151.757	-0.163	-0.012
-461.084	-200.000	-0.066	-0.313
-460.070	294.811	-0.120	-0.218
-459.055	-36.728	0.129	-0.069
-458.040	217.550	0.129	0.205
-457.026	-91.487	0.252	0.072
-456.011	-200.000	0.041	0.196
-454.997	155.938	-0.083	-0.114
-453.982	73.169	0.235	-0.245
-452.968	-12.988	-0.074	0.048
-451.953	-32.126	0.183	-0.102
-450.938	-200.000	-0.028	-0.174
-449.924	103.051	0.228	0.267
-448.909	-82.678	0.295	-0.095
-447.895	-53.555	-0.363	-0.166
-446.880	800.000	-0.021	-0.064
-445.865	173.985	0.124	0.178
-444.851	-200.000	0.002	0.201
-443.836	234.313	-0.114	0.187
-442.822	294.475	0.102	0.185
-441.807	123.818	-0.125	-0.156
-440.792	-200.000	0.025	-0.123
-439.778	-31.709	-0.232	-0.130
-438.763	-200.000	0.020	-0.281
-437.749	-200.000	-0.015	-0.406
-436.734	183.004	-0.137	0.201
-435.719	-200.000	0.027	0.143
-434.705	373.013	0.099	-0.200
-433.690	415.745	0.049	0.103
-432.676	18.873	-0.301	-0.240
-431.661	616.893	0.100	0.250
-430.646	800.000	-0.082	-0.287
-429.632	-95.312	-0.457	0.122
-428.617	81.290	-0.046	-0.049
-427.603	-75.787	-0.235	-0.083
-426.588	-33.992	0.085	0.047
-425.573	-126.402	0.274	-0.041
-424.559	800.000	0.051	-0.218
-423.544	-85.250	-0.359	0.112
-422.530	-200.000	0.023	0.152
-421.515	196.116	0.153	-0.232
-420.500	-30.296	-0.299	-0.169
-419.486	16.329	-0.134	0.105
-418.471	-19.052	-0.273	0.169
-417.457	26.896	-0.030	-0.025
-416.442	430.758	0.062	0.133
-415.428	-87.365	0.376	-0.113
-414.413	-29.967	-0.300	0.170
-413.398	3.268	-0.126	-0.092
-412.384	70.096	-0.176	-0.181
-411.369	164.272	-0.133	0.187
-410.355	42.568	-0.128	-0.116
-409.340	800.000	0.055	0.207
-408.325	-25.707	0.206	0.121
-407.311	-200.000	0.040	-0.410
-406.296	623.515	0.090	-0.227
-405.282	174.188	-0.245	-0.352
-404.267	-85.834	0.454	0.140
-403.252	157.393	-0.112	0.154
-402.238	38.732	-0.059	0.052
-401.223	-200.000	-0.013	-0.323
-400.209	-63.051	0.318	-0.131
-399.194	-19.056	0.232	0.144
-398.179	-200.000	-0.059	-0.269
-397.165	36.594	0.337	-0.296
-396.150	800.000	0.020	0.068
-395.136	-33.909	0.068	-0.037
-394.121	-134.395	-0.130	-0.016
-393.106	-200.000	-0.024	0.128
-392.092	-200.000	0.095	-0.436
-391.077	543.982	0.070	-0.167
-390.063	-1.696	-0.175	0.122
-389.048	-200.000	0.049	-0.335
-388.033	276.964	-0.082	0.145
-387.019	-70.956	0.143	-0.054
-386.004	-200.000	-0.055	-0.375
-384.990	-148.670	-0.333	-0.027
-383.975	800.000	0.049	-0.141
-382.960	582.419	0.105	-0.256
-381.946	225.186	0.103	-0.166
-380.931	-115.243	-0.427	-0.080
-379.917	3.083	0.298	-0.215
-378.902	144.151	-0.204	0.270
-377.888	430.216	0.228	0.491
-376.873	-11.924	0.199	-0.130
-375.858	-25.650	0.128	-0.075
-374.844	-55.772	-0.155	0.069
-373.829	-200.000	0.044	-0.507
-372.815	-28.337	0.268	-0.154
-371.800	10.195	0.089	0.067
-370.785	184.235	-0.058	-0.085
-369.771	-69.088	-0.221	0.084
-368.756	27.589	0.209	0.175
-367.742	-90.825	0.083	-0.024
-366.727	-135.100	-0.168	0.020
-365.712	-200.000	0.009	0.250
-364.698	220.859	-0.201	-0.320
-363.683	-162.127	0.043	0.002
-362.669	-62.382	-0.235	0.097
-361.654	-200.000	-0.034	-0.399
-360.639	-200.000	0.005	0.205
-359.625	-114.415	0.287	0.055
-358.610	39.566	0.249	0.221
-357.596	187.661	-0.118	0.174
-356.581	-153.493	-0.243	-0.017
-355.566	-136.799	0.134	0.015
-354.552	-1.124	0.110	-0.077
-353.537	-100.532	0.081	0.020
-352.523	461.384	0.036	0.081
-351.508	45.352	0.146	-0.133
-350.493	35.183	-0.296	-0.257
-349.479	-160.217	-0.181	0.010
-348.464	266.769	0.196	-0.340
-347.450	-200.000	0.055	-0.246
-346.435	-200.000	-0.038	0.171
-345.420	350.652	0.211	-0.414
-344.406	136.572	-0.238	0.308
-343.391	541.964	0.100	0.238
-342.377	-109.829	-0.171	0.036
-341.362	121.228	0.090	-0.112
-340.348	-36.374	-0.014	-0.007
-339.333	-43.888	0.179	0.090
-338.318	-200.000	0.020	0.146
-337.304	241.958	0.126	0.210
-336.289	800.000	0.087	-0.245
-335.275	120.345	-0.222	-0.273
-334.260	-94.419	-0.339	0.092
-333.245	85.213	0.115	0.125
-332.231	-34.743	-0.119	0.064
-331.216	146.865	0.102	0.136
-330.202	108.844	0.090	0.107
-329.187	114.651	0.103	0.124
-328.172	-42.850	-0.221	0.111
-327.158	4.567	0.206	0.150
-326.143	731.259	-0.064	-0.169
-325.129	74.731	-0.232	-0.242
-324.114	219.217	0.062	-0.099
-323.099	322.101	0.072	0.136
-322.085	472.293	-0.037	0.083
-321.070	-132.187	-0.064	0.008
-320.056	48.938	0.097	0.090
-319.041	326.721	-0.150	0.286
-318.026	-200.000	0.145	0.701
-317.012	291.337	-0.023	-0.042
-315.997	-147.672	0.357	-0.030
-314.983	36.283	0.370	-0.323
-313.968	800.000	0.042	0.120
-312.953	-105.905	-0.152	0.034
-311.939	-200.000	-0.047	0.297
-310.924	-101.212	0.076	0.018
-309.910	32.913	-0.263	-0.226
-308.895	346.383	-0.108	-0.210
-307.880	-19.014	-0.297	-0.183
-306.866	148.317	0.168	-0.225
-305.851	28.769	-0.273	-0.229
-304.837	800.000	-0.093	-0.392
-303.822	104.678	0.248	-0.289
-302.807	-166.217	0.108	0.005
-301.793	-37.513	0.220	0.116
-300.778	13.268	-0.114	-0.088
-299.764	39.970	0.179	-0.160
-298.749	-200.000	-0.029	0.262
-297.735	-169.676	-0.126	0.005
-296.720	-111.934	-0.252	-0.050
-295.705	-83.934	0.162	-0.051
-294.691	800.000	0.012	-0.053
-293.676	572.651	0.055	-0.133
-292.662	329.336	-0.066	0.126
-291.647	-7.927	0.143	0.095
-290.632	-54.447	-0.131	-0.059
-289.618	-196.705	0.486	0.003
-288.603	-73.148	-0.222	-0.081
-287.589	120.702	0.270	0.332
-286.574	-200.000	-0.039	0.235
-285.559	120.387	0.027	-0.033
-284.545	49.110	0.201	0.187
-283.530	620.575	0.028	-0.070
-282.516	291.223	-0.164	-0.295
-281.501	-71.584	-0.522	-0.193
-280.486	774.845	-0.114	0.309
-279.472	-110.546	0.351	0.072
-278.457	29.305	-0.125	0.105
-277.443	-49.762	0.504	-0.237
-276.428	-78.693	0.067	-0.023
-275.413	-102.623	-0.214	0.051
-274.399	800.000	-0.103	0.322
-273.384	-161.063	0.454	0.024
-272.370	-6.317	-0.019	-0.013
-271.355	-106.073	-0.196	0.044
-270.340	3.395	-0.167	0.120
-269.326	87.392	-0.186	-0.204
-268.311	800.000	0.074	0.241
-267.297	36.650	0.169	0.148
-266.282	380.183	0.200	0.406
-265.267	-106.242	-0.388	-0.086
-264.253	-158.133	-0.122	0.007
-263.238	-76.965	0.312	0.108
-262.224	169.969	0.159	-0.225
-261.209	-200.000	0.007	0.167
-260.195	-77.691	-0.263	0.090
-259.180	-200.000	-0.011	-0.184
-258.165	-92.486	0.317	0.088
-257.151	238.325	-0.074	0.121
-256.136	-157.118	-0.364	0.022
-255.122	595.464	-0.059	0.143
-254.107	-91.801	0.158	0.044
-253.092	-151.093	0.121	0.009
-252.078	-86.012	-0.271	-0.083
-251.063	63.198	-0.017	-0.017
-250.049	-18.482	0.320	-0.197
-249.034	600.233	-0.078	0.190
-248.019	-189.073	-0.107	0.001
-247.005	-46.221	0.244	0.119
-245.990	416.920	-0.104	0.219
-244.976	-200.000	-0.016	0.220
-243.961	-15.042	0.148	0.094
-242.946	163.690	-0.117	0.163
-241.932	-200.000	-0.035	-0.251
-240.917	308.362	-0.095	-0.176
-239.903	117.175	-0.167	-0.203
-238.888	-200.000	-0.017	-0.087
-237.873	202.124	-0.079	0.120
-236.859	11.558	0.289	0.219
-235.844	-200.000	-0.042	0.315
-234.830	113.845	0.251	-0.301
-233.815	274.433	-0.010	0.018
-232.800	219.733	-0.013	0.021
-231.786	-200.000	-0.031	-0.273
-230.771	-200.000	0.058	0.433
-229.757	132.601	-0.108	0.137
-228.742	613.874	0.039	0.097
-227.727	800.000	-0.063	0.249
-226.713	-114.216	0.193	-0.037
-225.698	-138.271	-0.173	0.019
-224.684	27.899	-0.123	0.103
-223.669	-200.000	-0.034	0.327
-222.655	-11.148	0.131	-0.085
-221.640	-77.997	0.073	-0.025
-220.625	800.000	-0.016	0.052
-219.611	604.172	0.041	-0.100
-218.596	-74.413	-0.314	0.112
-217.582	-200.000	0.268	-0.001
-216.567	330.204	-0.032	0.061
-215.552	157.277	0.019	-0.026
-214.538	-31.922	0.106	0.058
-213.523	-166.751	-0.333	-0.014
-212.509	42.340	0.251	0.225
-211.494	-32.904	-0.213	-0.117
-210.479	-70.872	0.228	-0.085
-209.465	-105.790	0.160	-0.036
-208.450	-30.231	0.136	-0.076
-207.436	-200.000	-0.077	-0.337
-206.421	248.499	0.237	-0.397
-205.406	96.818	0.150	0.170
-204.392	35.173	-0.134	0.116
-203.377	-200.000	-0.025	0.180
-202.363	112.337	0.233	-0.279
-201.348	125.457	-0.044	-0.055
-200.333	-85.112	-0.077	0.024
-199.319	-17.772	-0.273	0.169
-198.304	42.656	0.235	0.211
-197.290	-115.487	0.476	0.089
-196.275	-52.528	0.220	0.101
-195.260	76.748	0.096	-0.101
-194.246	-32.888	-0.209	0.115
-193.231	800.000	-0.016	-0.066
-192.217	-200.000	0.013	-0.161
-191.202	73.148	0.041	0.042
-190.187	-91.091	0.185	0.052
-189.173	-12.239	-0.240	-0.155
-188.158	-33.123	-0.191	-0.104
-187.144	44.179	-0.174	0.157
-186.129	31.130	0.129	-0.109
-185.114	-126.385	0.323	-0.048
-184.100	475.782	-0.076	-0.170
-183.085	-200.000	-0.016	0.077
-182.071	-200.000	-0.016	-0.103
-181.056	321.572	0.178	0.333
-180.042	-93.600	-0.018	0.005
-179.027	800.000	-0.103	0.390
-178.012	307.881	-0.097	-0.179
-176.998	378.057	0.095	-0.191
-175.983	-173.138	0.111	0.003
-174.969	471.777	0.023	-0.050
-173.954	-16.691	-0.252	-0.157
-172.939	89.941	-0.309	-0.341
-171.925	800.000	0.117	-0.349
-170.910	-33.035	0.103	-0.056
-169.896	-152.837	-0.224	-0.016
-168.881	-200.000	0.004	0.371
-167.866	-200.000	-0.037	0.275
-166.852	-118.802	0.156	-0.027
-165.837	800.000	0.094	0.378
-164.823	148.872	-0.116	-0.154
-163.808	19.862	-0.174	0.138
-162.793	-200.000	0.036	0.313
-161.779	49.200	0.171	0.158
-160.764	213.909	0.058	0.091
-159.750	800.000	0.109	0.409
-158.735	-49.049	0.306	-0.144
-157.720	-83.409	0.113	-0.036
-156.706	-200.000	-0.086	0.000
-155.691	-94.861	-0.237	-0.063
-154.677	800.000	0.021	0.076
-153.662	339.133	-0.065	-0.125
-152.647	-52.476	-0.184	0.084
-151.633	-61.665	0.112	0.046
-150.618	537.484	0.114	-0.266
-149.604	-101.233	0.415	-0.100
-148.589	279.545	-0.048	0.084
-147.574	-131.421	-0.373	0.049
-146.560	-200.000	0.100	0.447
-145.545	96.343	0.186	-0.210
-144.531	86.979	-0.065	-0.071
-143.516	-120.177	-0.077	-0.013
-142.502	144.746	0.090	-0.118
-141.487	-136.198	-0.408	0.047
-140.472	-200.000	0.016	0.194
-139.458	675.813	0.086	-0.219
-138.443	22.483	0.201	-0.162
-137.429	-124.465	-0.489	0.075
-136.414	-39.844	0.156	-0.080
-135.399	-200.000	0.008	-0.264
-134.385	-114.895	0.109	-0.020
-133.370	-105.115	0.517	-0.116
-132.356	65.944	-0.128	0.128
-131.341	-20.491	-0.101	0.061
-130.326	-89.933	0.410	0.118
-129.312	15.678	-0.335	-0.259
-128.297	-26.068	-0.135	-0.078
-127.283	432.359	0.019	-0.041
-126.268	252.825	0.182	0.305
-125.253	-64.954	-0.215	-0.086
-124.239	-95.948	-0.200	0.052
-123.224	-97.284	-0.173	0.044
-122.210	-200.000	-0.003	0.122
-121.195	333.318	-0.073	0.140
