DTS Sentinel unit serial number:	SN413079Multiplexer serial number:	ORYXHardware model number:	OX4-SRSoftware version number:	ORYX F/W v4.00 Oryx Data Collector v3.7.2.0data status	okinstallation	princeton_trtdifferential loss correction	single-endedforward channel	channel 1reverse channel	N/Adate	2019/09/16time	22:02:36forward acquisition time	60.00reverse acquisition time	0.00gamma	496.2192k internal	0.2324k external	0.2324temperature offset calibration	0.9953default loss term (dB/km)	0.3790temperature slope calibration	1.0000multiplexer offset coefficient	1.0000multiplexer slope coefficient	1.0000fibre end	0.00T internal ref (°C)	31.16T ext. ref 1 (°C)	0.07T ext. ref 2 (°C)	25.22length (m)	temperature (°C)	Stokes	anti-Stokes-747.200	-200.000	0.015	-0.103
-746.185	615.831	0.110	0.278
-745.171	297.651	-0.241	0.447
-744.156	7.054	-0.514	0.386
-743.142	-83.038	0.210	0.068
-742.127	572.025	-0.065	0.161
-741.112	-200.000	0.035	0.174
-740.098	-200.000	0.023	0.402
-739.083	800.000	0.069	0.217
-738.069	800.000	-0.010	-0.032
-737.054	-200.000	0.094	-0.562
-736.039	-59.578	-0.388	-0.168
-735.025	48.017	0.162	0.153
-734.010	-109.052	-0.416	-0.089
-732.996	-63.557	-0.399	-0.165
-731.981	-191.990	0.360	-0.004
-730.966	-1.510	0.143	0.101
-729.952	-171.968	-0.316	-0.010
-728.937	104.231	0.257	0.305
-727.923	800.000	-0.014	-0.042
-726.908	79.353	-0.220	0.238
-725.894	-200.000	0.014	0.175
-724.879	-78.192	0.269	-0.093
-723.864	66.235	-0.152	-0.156
-722.850	-200.000	-0.034	0.268
-721.835	-63.587	-0.438	-0.181
-720.821	-116.677	0.134	-0.025
-719.806	-59.713	-0.162	-0.070
-718.791	447.118	-0.087	0.193
-717.777	103.060	0.273	0.322
-716.762	640.919	-0.101	-0.259
-715.748	10.199	-0.331	0.254
-714.733	800.000	0.078	0.248
-713.718	257.328	0.097	0.169
-712.704	-200.000	0.037	-0.256
-711.689	17.058	-0.361	-0.289
-710.675	800.000	-0.094	-0.316
-709.660	-182.993	-0.085	0.002
-708.645	800.000	-0.091	0.269
-707.631	72.693	0.163	-0.171
-706.616	-97.237	-0.065	0.017
-705.602	663.267	0.090	0.235
-704.587	800.000	-0.061	0.184
-703.572	8.415	0.047	-0.036
-702.558	371.253	-0.123	-0.252
-701.543	-94.349	0.022	-0.006
-700.529	-50.206	0.211	0.100
-699.514	-200.000	-0.038	0.191
-698.499	-75.923	0.139	0.049
-697.485	25.898	-0.141	0.118
-696.470	146.453	0.182	0.246
-695.456	-70.943	0.178	-0.067
-694.441	-200.000	0.078	0.358
-693.426	-8.639	0.285	0.193
-692.412	261.085	0.043	-0.075
-691.397	307.550	-0.248	-0.466
-690.383	-200.000	-0.013	0.182
-689.368	306.874	-0.180	-0.337
-688.354	-106.113	-0.158	0.036
-687.339	-103.627	0.384	0.091
-686.324	279.208	-0.049	0.088
-685.310	-98.352	0.042	0.011
-684.295	447.917	0.092	0.204
-683.281	-200.000	0.025	-0.119
-682.266	-138.341	0.238	0.026
-681.251	-59.191	-0.251	-0.109
-680.237	-162.718	0.067	0.003
-679.222	-138.126	0.362	-0.040
-678.208	18.032	0.079	-0.063
-677.193	183.477	-0.176	0.261
-676.178	-88.344	0.138	0.042
-675.164	-152.874	0.337	-0.024
-674.149	800.000	-0.052	0.211
-673.135	319.830	-0.055	-0.105
-672.120	-200.000	0.033	-0.168
-671.105	-14.763	-0.102	0.066
-670.091	-85.510	-0.247	-0.077
-669.076	-102.664	-0.146	-0.035
-668.062	63.182	-0.138	0.139
-667.047	29.957	0.216	0.185
-666.032	-46.931	0.152	0.075
-665.018	564.230	0.066	0.160
-664.003	800.000	0.051	-0.177
-662.989	-32.331	0.139	-0.078
-661.974	-135.749	0.344	-0.041
-660.959	-40.563	-0.177	0.092
-659.945	-63.878	-0.270	0.111
-658.930	30.579	0.173	0.149
-657.916	-88.227	-0.250	-0.075
-656.901	-49.623	-0.186	0.089
-655.886	-87.944	0.212	0.064
-654.872	-135.639	0.250	0.030
-653.857	-200.000	-0.011	-0.076
-652.843	-146.244	-0.275	-0.024
-651.828	800.000	0.039	0.144
-650.814	-88.342	0.461	-0.138
-649.799	-200.000	-0.006	-0.229
-648.784	-200.000	0.026	-0.146
-647.770	-200.000	0.005	-0.420
-646.755	-133.778	0.060	-0.008
-645.741	-200.000	0.013	-0.104
-644.726	224.092	-0.169	0.274
-643.711	489.198	0.067	0.155
-642.697	68.008	0.272	0.279
-641.682	104.502	0.139	0.164
-640.668	-110.758	0.342	0.071
-639.653	-200.000	-0.032	0.288
-638.638	-119.993	-0.122	0.021
-637.624	-150.558	0.028	-0.002
-636.609	101.047	-0.154	0.180
-635.595	30.053	0.079	-0.068
-634.580	800.000	-0.145	-0.420
-633.565	330.535	0.154	0.298
-632.551	-200.000	-0.011	-0.175
-631.536	81.161	0.133	-0.144
-630.522	366.407	-0.118	0.239
-629.507	-200.000	-0.024	-0.179
-628.492	-52.496	-0.085	0.039
-627.478	-84.333	0.124	0.040
-626.463	473.857	-0.095	0.214
-625.449	-55.547	0.183	0.082
-624.434	-103.685	-0.330	-0.078
-623.419	17.782	-0.099	-0.079
-622.405	-31.283	0.281	-0.159
-621.390	-62.927	-0.210	-0.087
-620.376	-137.035	-0.311	-0.036
-619.361	800.000	-0.065	-0.191
-618.346	328.403	-0.025	0.048
-617.332	-131.480	-0.346	0.046
-616.317	-200.000	0.018	-0.175
-615.303	800.000	-0.139	-0.451
-614.288	800.000	0.062	-0.259
-613.273	-177.267	-0.136	-0.003
-612.259	47.262	-0.175	0.164
-611.244	800.000	-0.021	-0.093
-610.230	162.059	-0.110	0.155
-609.215	101.621	0.152	0.178
-608.201	422.404	-0.031	0.066
-607.186	-200.000	0.053	0.243
-606.171	800.000	-0.079	-0.273
-605.157	-120.964	0.082	-0.014
-604.142	105.943	-0.163	0.193
-603.128	-200.000	-0.001	-0.241
-602.113	128.937	-0.056	-0.072
-601.098	560.937	-0.095	-0.231
-600.084	-154.467	0.409	0.028
-599.069	-200.000	-0.038	0.343
-598.055	94.857	0.089	0.102
-597.040	-119.748	-0.062	0.011
-596.025	-116.193	-0.252	0.047
-595.011	195.669	-0.075	-0.115
-593.996	-43.566	-0.076	0.039
-592.982	-200.000	-0.028	-0.198
-591.967	-11.828	-0.194	-0.128
-590.952	-200.000	0.023	0.204
-589.938	472.345	0.115	0.259
-588.923	12.644	-0.195	-0.151
-587.909	663.669	0.059	-0.152
-586.894	422.913	-0.117	0.253
-585.879	-44.489	-0.141	-0.071
-584.865	-200.000	0.003	0.107
-583.850	-200.000	-0.014	0.207
-582.836	200.343	-0.141	-0.218
-581.821	62.134	-0.097	0.097
-580.806	-37.490	0.091	0.049
-579.792	17.201	0.293	-0.233
-578.777	-166.421	-0.199	0.008
-577.763	-2.634	0.111	0.078
-576.748	345.710	0.140	0.276
-575.733	-200.000	0.005	-0.134
-574.719	51.660	-0.388	-0.370
-573.704	329.779	-0.104	0.201
-572.690	-98.915	0.035	-0.009
-571.675	180.329	-0.219	0.322
-570.661	48.471	-0.252	-0.237
-569.646	-200.000	-0.010	-0.213
-568.631	800.000	0.043	0.136
-567.617	-46.476	-0.283	-0.139
-566.602	-200.000	-0.061	-0.367
-565.588	205.091	0.009	-0.014
-564.573	94.405	-0.165	-0.188
-563.558	290.338	-0.099	-0.181
-562.544	-114.621	-0.380	0.073
-561.529	64.562	-0.154	-0.156
-560.515	-166.961	-0.194	-0.008
-559.500	231.422	0.232	-0.380
-558.485	-200.000	-0.014	-0.112
-557.471	-200.000	-0.028	-0.179
-556.456	-62.979	0.518	-0.214
-555.442	-149.932	0.244	-0.019
-554.427	-83.879	-0.148	0.047
-553.412	800.000	-0.016	0.054
-552.398	30.898	0.190	-0.163
-551.383	800.000	0.039	-0.115
-550.369	283.542	0.081	0.147
-549.354	352.036	-0.123	0.244
-548.339	157.754	0.151	-0.210
-547.325	-200.000	0.019	-0.288
-546.310	-200.000	-0.028	0.213
-545.296	72.406	0.189	-0.197
-544.281	-171.998	0.225	0.007
-543.266	530.971	-0.076	0.181
-542.252	99.097	0.059	-0.068
-541.237	146.532	0.140	0.189
-540.223	40.434	-0.315	-0.284
-539.208	-150.167	0.344	-0.027
-538.193	511.406	-0.086	0.200
-537.179	-19.874	-0.339	-0.210
-536.164	-57.080	0.087	0.038
-535.150	800.000	-0.013	0.051
-534.135	126.719	0.070	-0.089
-533.121	29.207	0.112	-0.095
-532.106	263.206	-0.242	-0.420
-531.091	800.000	-0.069	0.234
-530.077	128.469	-0.119	-0.152
-529.062	6.478	0.092	-0.069
-528.048	-9.384	0.127	-0.085
-527.033	103.324	0.050	0.059
-526.018	-2.370	0.113	0.079
-525.004	800.000	0.091	0.319
-523.989	-126.494	0.030	0.004
-522.975	232.347	0.112	0.183
-521.960	800.000	0.024	0.076
-520.945	31.907	0.313	-0.270
-519.931	13.118	0.143	-0.111
-518.916	-49.295	-0.311	0.149
-517.902	-200.000	0.029	-0.163
-516.887	-7.437	0.081	-0.055
-515.872	-16.754	0.135	0.085
-514.858	87.057	0.117	-0.129
-513.843	-37.614	0.117	0.062
-512.829	131.265	-0.012	-0.016
-511.814	-200.000	-0.002	-0.175
-510.799	352.081	-0.140	-0.278
-509.785	92.008	-0.088	-0.099
-508.770	410.622	0.148	0.314
-507.756	-134.619	-0.184	-0.022
-506.741	-42.500	0.220	0.112
-505.726	93.173	-0.217	0.245
-504.712	800.000	0.012	0.047
-503.697	-79.522	-0.120	-0.040
-502.683	-72.943	-0.052	-0.019
-501.668	-53.096	-0.267	-0.123
-500.653	800.000	-0.090	-0.314
-499.639	-76.292	-0.230	-0.081
-498.624	148.480	0.131	-0.177
-497.610	-128.808	-0.218	0.031
-496.595	-200.000	-0.015	-0.084
-495.581	-62.440	-0.113	-0.047
-494.566	237.161	-0.034	-0.056
-493.551	177.361	-0.202	0.294
-492.537	150.390	-0.186	0.252
-491.522	40.190	-0.075	0.067
-490.508	-50.121	0.481	-0.228
-489.493	800.000	0.033	-0.141
-488.478	244.089	-0.163	-0.274
-487.464	800.000	-0.032	0.092
-486.449	-83.557	-0.457	-0.146
-485.435	-116.047	0.429	0.080
-484.420	-114.781	-0.275	0.052
-483.405	-144.136	-0.278	0.026
-482.391	297.150	-0.041	-0.076
-481.376	25.843	-0.060	0.050
-480.362	800.000	-0.030	-0.119
-479.347	-103.822	0.198	-0.046
-478.332	-200.000	-0.002	-0.068
-477.318	111.981	0.101	-0.122
-476.303	34.144	-0.085	0.074
-475.289	720.380	0.078	0.208
-474.274	21.477	-0.030	0.024
-473.259	256.774	0.141	-0.241
-472.245	-22.465	-0.314	0.190
-471.230	-84.934	-0.132	-0.041
-470.216	575.620	-0.084	-0.205
-469.201	-16.458	0.268	-0.170
-468.186	-112.127	-0.216	0.043
-467.172	11.113	-0.119	0.091
-466.157	225.117	-0.240	-0.388
-465.143	311.206	0.138	-0.257
-464.128	-28.813	0.258	-0.148
-463.113	800.000	0.099	-0.278
-462.099	-112.851	0.148	-0.029
-461.084	84.738	-0.054	0.059
-460.070	-101.767	0.109	-0.026
-459.055	-161.232	-0.101	0.005
-458.040	-116.360	-0.181	-0.033
-457.026	-84.382	-0.200	0.063
-456.011	800.000	0.025	-0.104
-454.997	-200.000	-0.035	0.265
-453.982	455.073	0.145	0.321
-452.968	800.000	-0.136	0.430
-451.953	-200.000	0.043	-0.297
-450.938	14.769	-0.255	0.199
-449.924	800.000	-0.073	0.314
-448.909	-57.105	0.317	0.140
-447.895	37.462	-0.087	0.077
-446.880	800.000	0.040	0.124
-445.865	92.122	0.201	0.226
-444.851	-200.000	0.013	0.118
-443.836	-160.133	-0.374	0.020
-442.822	-55.292	-0.080	-0.036
-441.807	-110.466	0.434	0.090
-440.792	-200.000	0.058	0.315
-439.778	132.749	-0.095	-0.122
-438.763	-200.000	0.004	0.045
-437.749	107.226	-0.123	0.145
-436.734	185.308	-0.170	-0.252
-435.719	-67.516	0.225	0.088
-434.705	-87.614	0.144	-0.043
-433.690	133.092	-0.052	0.067
-432.676	164.244	-0.109	-0.153
-431.661	800.000	-0.037	0.136
-430.646	469.758	0.084	0.187
-429.632	-90.034	0.047	-0.014
-428.617	100.160	-0.207	-0.240
-427.603	800.000	0.065	-0.277
-426.588	-2.426	0.286	0.200
-425.573	32.790	0.250	0.216
-424.559	-71.947	0.433	-0.160
-423.544	-200.000	0.005	0.108
-422.530	-182.415	-0.288	-0.005
-421.515	-165.678	0.417	0.018
-420.500	-78.147	0.407	-0.139
-419.486	12.446	0.133	-0.103
-418.471	188.486	-0.116	-0.173
-417.457	-60.885	0.344	0.145
-416.442	-200.000	0.003	0.031
-415.428	-47.206	-0.034	-0.017
-414.413	-88.478	0.302	-0.090
-413.398	767.066	-0.095	0.259
-412.384	-140.671	-0.128	-0.013
-411.369	800.000	-0.180	-0.509
-410.355	-200.000	0.026	-0.266
-409.340	654.946	0.046	-0.118
-408.325	-170.789	0.333	-0.011
-407.311	800.000	0.068	-0.189
-406.296	-200.000	-0.041	-0.296
-405.282	-200.000	-0.023	0.197
-404.267	800.000	0.012	-0.041
-403.252	134.610	0.108	-0.140
-402.238	-64.264	0.054	0.022
-401.223	800.000	0.021	-0.073
-400.209	636.420	-0.029	0.073
-399.194	800.000	-0.109	0.440
-398.179	-161.833	-0.092	0.005
-397.165	-63.226	0.294	0.120
-396.150	-23.683	-0.287	0.171
-395.136	-120.237	0.043	0.007
-394.121	576.667	0.045	0.110
-393.106	-170.625	0.160	0.006
-392.092	493.106	-0.102	-0.232
-391.077	171.025	0.160	-0.229
-390.063	38.721	0.179	0.159
-389.048	800.000	-0.080	0.348
-388.033	-43.970	0.197	-0.099
-387.019	-110.885	-0.338	-0.069
-386.004	105.083	0.208	-0.244
-384.990	158.643	-0.165	-0.228
-383.975	-146.645	0.283	0.024
-382.960	-28.302	0.216	0.124
-381.946	-95.950	-0.122	0.032
-380.931	120.977	-0.158	-0.196
-379.917	21.398	-0.151	-0.122
-378.902	-94.616	0.146	0.040
-377.888	-174.782	0.160	0.004
-376.873	-200.000	0.002	-0.288
-375.858	460.168	0.043	0.095
-374.844	-99.350	0.008	0.002
-373.829	-113.028	0.096	0.019
-372.815	-143.468	-0.209	-0.020
-371.800	1.997	0.199	0.143
-370.785	-34.868	0.231	-0.126
-369.771	5.456	0.282	0.207
-368.756	-5.757	-0.266	0.181
-367.742	-138.063	0.326	0.036
-366.727	-9.725	-0.129	-0.085
-365.712	29.198	0.268	-0.226
-364.698	-14.759	-0.065	-0.042
-363.683	-17.134	-0.310	-0.194
-362.669	-200.000	0.044	-0.336
-361.654	17.205	-0.359	0.283
-360.639	159.372	-0.110	0.152
-359.625	-63.992	-0.283	0.115
-358.610	235.154	-0.266	-0.436
-357.596	-200.000	0.025	0.288
-356.581	-111.515	-0.301	0.061
-355.566	231.389	-0.117	-0.191
-354.552	258.034	0.096	-0.164
-353.537	-120.650	-0.178	0.030
-352.523	159.728	-0.248	0.344
-351.508	-87.838	-0.166	-0.050
-350.493	-200.000	0.035	0.402
-349.479	-181.303	-0.233	-0.005
-348.464	604.965	-0.085	-0.209
-347.450	-200.000	-0.046	0.360
-346.435	-122.211	0.197	0.032
-345.420	183.034	-0.045	0.066
-344.406	-200.000	0.005	0.188
-343.391	-15.991	-0.124	0.078
-342.377	3.053	0.074	0.053
-341.362	-72.108	0.289	0.106
-340.348	542.384	0.109	0.258
-339.333	230.210	0.133	0.215
-338.318	-200.000	0.040	0.356
-337.304	-14.497	-0.057	-0.036
-336.289	800.000	0.045	-0.155
-335.275	-116.496	0.170	-0.031
-334.260	-200.000	0.011	0.129
-333.245	-200.000	0.006	0.344
-332.231	-154.061	-0.227	0.015
-331.216	-54.993	0.110	-0.049
-330.202	121.676	-0.267	-0.330
-329.187	800.000	-0.071	0.247
-328.172	160.436	0.051	-0.070
-327.158	153.363	-0.134	-0.182
-326.143	-56.898	0.088	-0.038
-325.129	-16.896	0.117	-0.073
-324.114	9.560	-0.085	-0.064
-323.099	-200.000	-0.047	0.235
-322.085	-200.000	0.027	0.528
-321.070	-97.322	-0.138	-0.036
-320.056	-157.133	0.111	0.007
-319.041	800.000	0.028	-0.087
-318.026	78.621	0.088	0.094
-317.012	-79.478	0.099	0.033
-315.997	-200.000	-0.012	0.088
-314.983	54.342	0.212	0.203
-313.968	537.230	-0.117	-0.276
-312.953	-42.413	0.191	0.097
-311.939	-106.453	-0.145	-0.032
-310.924	-118.129	0.159	-0.028
-309.910	10.496	0.151	0.114
-308.895	-84.513	0.063	0.020
-307.880	-123.704	-0.299	0.047
-306.866	-145.967	-0.170	-0.015
-305.851	107.909	0.240	0.284
-304.837	800.000	0.071	0.284
-303.822	-28.497	0.190	-0.109
-302.807	-200.000	0.038	0.349
-301.793	-146.992	-0.381	0.032
-300.778	-73.300	-0.073	-0.027
-299.764	-44.019	-0.208	0.104
-298.749	-200.000	0.019	-0.214
-297.735	-36.846	0.195	-0.104
-296.720	800.000	-0.098	0.300
-295.705	800.000	0.127	0.361
-294.691	65.007	0.195	-0.196
-293.676	-63.680	-0.249	-0.101
-292.662	65.640	-0.247	-0.248
-291.647	800.000	-0.043	-0.162
-290.632	-96.457	0.225	0.059
-289.618	-76.881	-0.152	-0.053
-288.603	-100.344	-0.141	0.035
-287.589	800.000	-0.153	0.451
-286.574	-200.000	-0.059	0.401
-285.559	-160.248	0.306	0.016
-284.545	-33.906	0.032	-0.018
-283.530	-200.000	0.002	0.160
-282.516	-200.000	0.011	-0.250
-281.501	130.848	0.067	-0.085
-280.486	-200.000	0.034	0.275
-279.472	-142.674	0.154	-0.015
-278.457	-100.810	0.205	0.050
-277.443	-129.201	-0.166	0.023
-276.428	96.056	-0.114	0.129
-275.413	-156.397	-0.220	-0.014
-274.399	315.529	-0.109	-0.204
-273.384	-91.353	0.078	-0.022
-272.370	458.916	0.167	-0.368
-271.355	15.390	-0.239	0.186
-270.340	-200.000	0.055	-0.255
-269.326	-200.000	0.003	-0.057
-268.311	91.747	0.176	-0.196
-267.297	-194.451	-0.144	-0.001
-266.282	235.835	0.163	0.267
-265.267	13.381	0.077	0.059
-264.253	-62.899	0.220	0.090
-263.238	-200.000	-0.003	0.049
-262.224	223.204	-0.042	-0.067
-261.209	-2.948	0.135	0.093
-260.195	261.505	-0.057	0.098
-259.180	-200.000	-0.018	-0.241
-258.165	22.674	-0.246	0.199
-257.151	-18.069	0.071	0.044
-256.136	-41.200	-0.267	-0.137
-255.122	-14.174	0.315	0.201
-254.107	95.710	0.245	-0.276
-253.092	800.000	0.066	0.185
-252.078	800.000	-0.057	0.239
-251.063	-179.512	0.409	-0.009
-250.049	72.246	-0.204	0.210
-249.034	-200.000	-0.014	-0.187
-248.019	-170.670	0.107	-0.004
-247.005	132.563	-0.057	-0.072
-245.990	800.000	-0.069	0.295
-244.976	187.139	-0.234	-0.345
-243.961	-200.000	0.013	-0.059
-242.946	251.883	0.073	-0.123
-241.932	-200.000	-0.017	-0.125
-240.917	-3.498	-0.273	0.188
-239.903	152.146	-0.238	0.322
-238.888	800.000	-0.006	0.022
-237.873	800.000	0.181	-0.538
-236.859	15.979	0.176	-0.137
-235.844	15.075	0.345	0.267
-234.830	213.162	0.112	0.175
-233.815	60.026	-0.154	0.151
-232.800	800.000	-0.052	-0.154
-231.786	1.309	-0.193	0.137
-230.771	800.000	0.087	-0.284
-229.757	432.668	0.088	0.188
-228.742	533.366	-0.111	-0.259
-227.727	-184.781	-0.219	0.003
-226.713	654.110	-0.056	0.141
-225.698	-32.127	0.220	0.122
-224.684	437.312	-0.033	0.070
-223.669	19.993	0.155	0.123
-222.655	-65.576	0.124	-0.049
-221.640	-13.504	-0.079	0.051
-220.625	327.272	-0.052	-0.099
-219.611	613.987	-0.079	-0.195
-218.596	-170.115	-0.390	0.014
-217.582	-52.809	-0.303	0.138
-216.567	-168.818	-0.110	-0.004
-215.552	389.484	-0.103	-0.211
-214.538	-200.000	-0.006	0.308
-213.523	-200.000	-0.002	0.197
-212.509	29.368	0.232	0.195
-211.494	-121.166	0.160	0.026
-210.479	-200.000	-0.026	0.307
-209.465	-89.722	-0.212	-0.061
-208.450	79.717	0.050	-0.053
-207.436	7.045	-0.259	0.191
-206.421	-20.918	-0.255	-0.154
-205.406	339.294	0.097	-0.186
-204.392	-39.956	0.387	-0.199
-203.377	-51.796	0.266	0.123
-202.363	81.144	-0.085	0.090
-201.348	-69.006	-0.308	0.117
-200.333	281.912	0.103	0.182
-199.319	-104.574	0.109	0.025
-198.304	208.865	-0.082	0.127
-197.290	668.539	-0.101	-0.259
-196.275	-43.813	0.291	0.145
-195.260	61.918	-0.093	-0.091
-194.246	-82.907	0.212	0.067
-193.231	180.587	0.117	0.170
-192.217	-167.439	0.586	0.023
-191.202	753.884	0.048	0.127
-190.187	-85.006	0.068	-0.021
-189.173	180.155	0.132	0.191
-188.158	307.191	0.123	0.227
-187.144	43.939	0.139	0.126
-186.129	800.000	0.046	-0.187
-185.114	-160.193	-0.314	0.017
-184.100	45.054	0.147	-0.133
-183.085	-93.357	-0.103	-0.028
-182.071	-111.586	-0.179	0.036
-181.056	66.026	0.069	0.069
-180.042	-129.605	-0.174	-0.024
-179.027	-200.000	0.046	-0.557
-178.012	-43.417	-0.235	-0.117
-176.998	453.391	-0.138	-0.301
-175.983	78.623	-0.109	-0.115
-174.969	-53.385	0.132	-0.060
-173.954	97.776	0.160	0.181
-172.939	-38.148	0.054	-0.028
-171.925	123.543	0.088	-0.110
-170.910	-182.626	0.319	-0.006
-169.896	-200.000	-0.020	-0.131
-168.881	-76.718	0.158	-0.055
-167.866	-101.972	0.178	0.043
-166.852	100.117	0.252	-0.289
-165.837	-5.406	0.186	0.126
-164.823	-15.795	-0.366	0.230
-163.808	-78.892	0.089	0.030
-162.793	-25.796	0.207	-0.120
-161.779	-200.000	-0.004	-0.100
-160.764	203.948	0.211	0.323
-159.750	-18.389	-0.130	-0.080
-158.735	-200.000	0.022	-0.317
-157.720	-3.621	0.174	0.119
-156.706	-200.000	0.066	0.391
-155.691	51.427	0.252	-0.236
-154.677	800.000	-0.022	-0.083
-153.662	132.689	-0.074	-0.094
-152.647	-165.917	-0.073	-0.003
-151.633	-143.685	-0.180	0.017
-150.618	318.370	-0.176	-0.329
-149.604	-147.775	0.178	-0.015
-148.589	-133.442	-0.160	-0.020
-147.574	64.933	-0.162	0.161
-146.560	136.740	-0.080	-0.103
-145.545	-200.000	0.013	0.134
-144.531	-41.739	-0.184	0.093
-143.516	99.641	-0.226	-0.258
-142.502	93.846	-0.072	0.080
-141.487	11.183	0.097	-0.073
-140.472	-100.862	-0.424	-0.103
-139.458	-137.192	0.304	-0.034
-138.443	-117.358	0.198	0.035
-137.429	46.057	-0.042	0.038
-136.414	-110.992	0.046	0.009
-135.399	168.168	-0.182	-0.256
-134.385	163.553	0.178	-0.247
-133.370	800.000	0.048	0.141
-132.356	3.174	-0.049	-0.035
-131.341	117.796	0.449	-0.545
-130.326	158.376	0.070	0.096
-129.312	103.654	-0.067	0.078
-128.297	-200.000	0.030	-0.140
-127.283	-200.000	0.060	-0.311
-126.268	7.949	-0.467	0.345
-125.253	800.000	-0.028	0.099
-124.239	-119.451	0.075	0.013
-123.224	4.477	0.091	-0.065
-122.210	187.753	0.081	0.119
-121.195	504.773	-0.186	0.425
