DTS Sentinel unit serial number:	SN413079Multiplexer serial number:	ORYXHardware model number:	OX4-SRSoftware version number:	ORYX F/W v4.00 Oryx Data Collector v3.7.2.0data status	okinstallation	princeton_trtdifferential loss correction	single-endedforward channel	channel 1reverse channel	N/Adate	2019/09/19time	11:42:35forward acquisition time	60.00reverse acquisition time	0.00gamma	496.2192k internal	0.2337k external	0.2337temperature offset calibration	1.0010default loss term (dB/km)	0.3790temperature slope calibration	1.0000multiplexer offset coefficient	1.0000multiplexer slope coefficient	1.0000fibre end	0.00T internal ref (°C)	25.62T ext. ref 1 (°C)	0.80T ext. ref 2 (°C)	21.45length (m)	temperature (°C)	Stokes	anti-Stokes-747.200	-123.241	0.103	0.017
-746.185	-10.032	0.102	0.068
-745.171	-57.088	-0.149	0.066
-744.156	95.770	-0.072	0.082
-743.142	-48.080	-0.224	-0.109
-742.127	720.978	0.084	-0.225
-741.112	61.803	-0.166	0.166
-740.098	79.270	0.216	0.232
-739.083	60.545	-0.260	0.258
-738.069	-148.807	-0.233	-0.019
-737.054	-112.085	-0.232	-0.047
-736.039	-58.259	-0.317	0.138
-735.025	-55.381	0.247	0.111
-734.010	-133.512	-0.227	0.029
-732.996	193.321	0.150	-0.227
-731.981	58.629	-0.057	0.056
-730.966	5.538	0.163	-0.121
-729.952	39.278	-0.132	-0.118
-728.937	800.000	0.092	-0.298
-727.923	-38.075	0.316	-0.168
-726.908	-110.231	-0.243	-0.051
-725.894	-127.472	-0.159	0.023
-724.879	16.315	-0.174	0.138
-723.864	-120.948	-0.068	0.011
-722.850	-200.000	0.015	-0.236
-721.835	800.000	-0.048	-0.188
-720.821	-200.000	-0.010	0.052
-719.806	-66.984	-0.119	-0.047
-718.791	-200.000	0.009	0.153
-717.777	143.142	-0.121	0.161
-716.762	-37.681	-0.093	0.050
-715.748	238.219	0.112	0.186
-714.733	409.325	0.079	-0.167
-713.718	345.986	0.131	-0.259
-712.704	184.601	0.225	-0.335
-711.689	-200.000	-0.080	-0.361
-710.675	-72.079	-0.284	-0.106
-709.660	800.000	0.096	0.297
-708.645	-75.786	-0.359	0.128
-707.631	263.260	-0.054	-0.094
-706.616	334.394	0.082	0.160
-705.602	97.171	-0.022	-0.026
-704.587	164.115	-0.115	0.163
-703.572	366.261	0.060	-0.122
-702.558	800.000	-0.086	0.244
-701.543	-159.418	-0.312	0.017
-700.529	-174.014	0.096	-0.003
-699.514	800.000	-0.048	-0.161
-698.499	-45.607	-0.093	-0.046
-697.485	-51.216	0.356	-0.167
-696.470	94.435	-0.121	-0.138
-695.456	-129.450	0.287	0.040
-694.441	286.343	0.090	-0.162
-693.426	38.153	0.108	-0.096
-692.412	24.905	-0.359	-0.298
-691.397	24.053	0.146	0.121
-690.383	448.451	-0.058	-0.128
-689.368	410.427	0.093	-0.197
-688.354	-200.000	-0.014	-0.083
-687.339	-151.158	0.240	-0.018
-686.324	-126.333	-0.120	0.018
-685.310	-47.709	-0.099	-0.048
-684.295	-26.779	0.292	-0.171
-683.281	-200.000	-0.039	-0.254
-682.266	-180.092	0.126	-0.003
-681.251	-136.222	-0.385	0.045
-680.237	-200.000	-0.010	0.266
-679.222	-63.006	0.136	-0.056
-678.208	-200.000	-0.015	0.175
-677.193	439.673	-0.103	0.224
-676.178	165.542	-0.079	0.112
-675.164	-85.886	0.155	-0.048
-674.149	-78.999	0.284	-0.097
-673.135	-192.116	-0.192	0.002
-672.120	-136.944	-0.332	0.038
-671.105	-138.601	-0.097	-0.011
-670.091	101.390	0.211	-0.246
-669.076	739.767	0.177	-0.476
-668.062	-107.322	-0.180	0.040
-667.047	-135.412	-0.236	-0.028
-666.032	260.809	-0.192	0.332
-665.018	-11.672	-0.223	0.147
-664.003	-93.314	0.091	0.025
-662.989	153.835	-0.157	-0.215
-661.974	59.777	-0.110	-0.109
-660.959	-49.905	0.384	-0.182
-659.945	-59.443	-0.433	-0.186
-658.930	33.675	-0.074	0.064
-657.916	12.444	-0.132	0.102
-656.901	152.050	-0.097	-0.133
-655.886	56.387	0.209	-0.204
-654.872	150.881	0.089	0.121
-653.857	-94.224	-0.166	0.046
-652.843	40.957	0.175	-0.158
-651.828	-200.000	0.049	0.339
-650.814	-176.814	0.231	-0.006
-649.799	-200.000	-0.010	-0.216
-648.784	-36.069	-0.064	-0.035
-647.770	19.286	0.142	-0.114
-646.755	-175.710	0.296	-0.008
-645.741	-92.693	-0.226	-0.063
-644.726	-200.000	-0.015	-0.229
-643.711	88.017	0.217	0.240
-642.697	-200.000	0.011	-0.068
-641.682	113.397	-0.334	0.406
-640.668	-200.000	-0.023	0.223
-639.653	-200.000	0.009	-0.281
-638.638	-73.065	-0.309	0.113
-637.624	-66.884	0.537	0.212
-636.609	12.208	0.200	0.154
-635.595	-20.851	0.257	0.158
-634.580	220.669	-0.158	0.253
-633.565	-200.000	0.065	-0.416
-632.551	-44.221	-0.392	0.197
-631.536	702.018	-0.107	-0.283
-630.522	5.627	-0.345	0.255
-629.507	10.848	-0.304	0.232
-628.492	-29.988	-0.574	-0.326
-627.478	-143.718	0.387	-0.037
-626.463	43.666	0.219	0.201
-625.449	796.705	-0.041	0.112
-624.434	245.066	-0.189	0.318
-623.419	800.000	-0.034	0.148
-622.405	87.607	0.065	-0.072
-621.390	218.476	0.241	0.385
-620.376	-138.920	-0.033	0.004
-619.361	370.372	-0.070	0.142
-618.346	-43.189	-0.073	0.037
-617.332	-76.098	-0.149	0.053
-616.317	-142.239	-0.095	-0.009
-615.303	-141.251	-0.527	0.054
-614.288	-114.442	0.151	0.029
-613.273	-53.959	-0.157	0.071
-612.259	328.571	-0.151	0.289
-611.244	-94.147	-0.116	0.032
-610.230	128.955	-0.159	-0.202
-609.215	87.624	0.142	-0.157
-608.201	-9.004	0.045	-0.030
-607.186	-200.000	0.024	0.152
-606.171	45.637	0.070	-0.064
-605.157	-22.015	0.286	0.174
-604.142	-200.000	-0.015	-0.121
-603.128	800.000	0.111	0.355
-602.113	800.000	0.007	0.032
-601.098	-177.603	-0.416	-0.010
-600.084	-200.000	0.321	0.002
-599.069	800.000	0.071	0.264
-598.055	129.654	-0.075	0.096
-597.040	435.469	-0.070	-0.152
-596.025	800.000	-0.093	0.306
-595.011	333.282	0.105	0.202
-593.996	246.361	-0.089	-0.149
-592.982	79.793	-0.047	-0.051
-591.967	31.172	0.043	0.037
-590.952	-38.206	-0.194	-0.103
-589.938	800.000	0.079	-0.276
-588.923	-200.000	0.023	-0.113
-587.909	106.189	-0.094	-0.111
-586.894	94.043	-0.275	-0.311
-585.879	800.000	0.116	-0.466
-584.865	-200.000	-0.008	-0.284
-583.850	49.678	0.026	-0.024
-582.836	185.240	0.199	0.295
-581.821	339.368	0.028	-0.054
-580.806	-89.677	-0.337	0.098
-579.792	221.244	-0.102	0.164
-578.777	465.420	0.058	0.130
-577.763	19.419	0.172	-0.138
-576.748	130.082	-0.149	0.190
-575.733	87.485	0.115	-0.127
-574.719	289.741	0.203	-0.368
-573.704	19.727	0.135	-0.108
-572.690	-119.648	0.072	-0.012
-571.675	278.275	-0.200	-0.356
-570.661	-200.000	0.014	-0.084
-569.646	-200.000	-0.002	0.297
-568.631	-101.821	-0.281	-0.068
-567.617	379.806	-0.167	-0.341
-566.602	594.248	-0.240	-0.591
-565.588	49.327	0.099	0.093
-564.573	-200.000	-0.006	0.143
-563.558	-142.349	-0.345	0.034
-562.544	618.383	0.084	-0.211
-561.529	16.192	0.281	-0.221
-560.515	800.000	-0.089	-0.262
-559.500	-8.620	-0.170	-0.114
-558.485	-200.000	-0.022	0.294
-557.471	257.288	-0.100	0.172
-556.456	22.386	-0.296	-0.241
-555.442	-63.298	-0.311	-0.127
-554.427	-58.078	-0.210	0.091
-553.412	-157.561	-0.245	-0.015
-552.398	-95.063	-0.157	-0.042
-551.383	-17.293	-0.117	0.073
-550.369	-165.863	0.097	-0.004
-549.354	49.786	0.323	-0.303
-548.339	17.180	-0.092	-0.073
-547.325	1.154	0.083	-0.059
-546.310	536.442	0.101	-0.239
-545.296	-92.643	-0.199	-0.056
-544.281	-125.888	0.278	-0.042
-543.266	-200.000	-0.031	0.146
-542.252	-200.000	-0.017	0.192
-541.237	271.962	0.051	-0.090
-540.223	-25.802	0.210	-0.123
-539.208	-121.919	-0.239	-0.039
-538.193	-200.000	-0.051	-0.388
-537.179	-112.748	0.107	0.021
-536.164	105.124	-0.126	0.148
-535.150	-16.740	0.107	-0.067
-534.135	-200.000	-0.004	-0.046
-533.121	-75.993	-0.127	0.045
-532.106	-200.000	0.014	0.341
-531.091	108.097	0.293	0.347
-530.077	51.480	-0.421	-0.398
-529.062	447.048	-0.074	-0.162
-528.048	-184.823	-0.235	-0.004
-527.033	4.496	0.267	0.195
-526.018	-119.235	-0.041	0.007
-525.004	60.065	-0.214	-0.211
-523.989	255.152	0.096	-0.164
-522.975	-27.161	-0.320	0.185
-521.960	800.000	0.090	-0.381
-520.945	65.848	-0.207	0.209
-519.931	64.210	0.095	0.095
-518.916	344.957	0.120	-0.234
-517.902	-90.628	-0.316	0.091
-516.887	-22.826	-0.184	-0.110
-515.872	-164.038	0.335	-0.015
-514.858	418.199	0.101	-0.216
-513.843	646.926	0.141	-0.357
-512.829	-95.420	0.171	-0.046
-511.814	-52.223	-0.156	0.072
-510.799	9.946	-0.043	-0.032
-509.785	800.000	-0.025	-0.102
-508.770	800.000	0.022	-0.088
-507.756	-200.000	0.018	0.125
-506.741	-50.181	-0.231	-0.109
-505.726	-122.319	-0.218	-0.035
-504.712	-200.000	0.072	-0.344
-503.697	-81.134	0.258	-0.085
-502.683	-169.106	-0.219	0.008
-501.668	-91.641	0.366	-0.104
-500.653	-200.000	-0.071	0.551
-499.639	800.000	-0.038	-0.107
-498.624	800.000	-0.048	0.137
-497.610	-65.874	0.154	-0.061
-496.595	51.778	-0.136	0.129
-495.581	800.000	-0.122	-0.427
-494.566	-200.000	0.009	0.392
-493.551	-44.456	-0.096	0.048
-492.537	-64.136	-0.344	0.140
-491.522	-34.560	0.163	-0.089
-490.508	-11.634	0.395	-0.258
-489.493	-200.000	0.000	0.276
-488.478	800.000	-0.065	0.181
-487.464	-145.895	-0.187	-0.016
-486.449	800.000	-0.103	0.334
-485.435	-72.063	-0.189	0.070
-484.420	800.000	-0.048	-0.210
-483.405	-75.432	-0.179	0.063
-482.391	-200.000	0.022	0.186
-481.376	-200.000	-0.019	0.107
-480.362	89.147	0.172	0.190
-479.347	800.000	-0.076	-0.247
-478.332	800.000	0.057	-0.232
-477.318	-127.750	0.245	0.035
-476.303	-200.000	0.006	-0.175
-475.289	42.349	-0.198	0.179
-474.274	39.246	0.042	-0.037
-473.259	8.372	-0.247	0.184
-472.245	188.760	-0.331	-0.492
-471.230	234.398	0.133	-0.218
-470.216	-90.625	0.451	0.130
-469.201	-57.374	-0.170	0.074
-468.186	97.928	-0.213	0.243
-467.172	-131.799	-0.127	0.016
-466.157	-121.131	-0.050	-0.008
-465.143	12.244	0.102	0.078
-464.128	-200.000	-0.009	-0.308
-463.113	459.254	-0.104	0.229
-462.099	-23.468	-0.190	0.114
-461.084	46.027	0.101	-0.092
-460.070	-8.882	-0.350	-0.233
-459.055	36.297	-0.158	0.139
-458.040	750.098	0.040	0.108
-457.026	654.916	0.064	0.163
-456.011	95.606	0.276	0.313
-454.997	-115.443	-0.072	0.014
-453.982	-76.810	-0.383	-0.133
-452.968	-58.167	-0.141	0.061
-451.953	-102.282	-0.290	0.069
-450.938	-200.000	0.023	0.150
-449.924	800.000	0.050	0.143
-448.909	139.508	0.041	-0.053
-447.895	223.447	0.120	0.192
-446.880	800.000	-0.046	-0.142
-445.865	-45.508	0.380	0.187
-444.851	-169.373	-0.273	-0.010
-443.836	220.750	-0.132	0.211
-442.822	-56.455	0.272	-0.120
-441.807	-6.676	0.111	0.075
-440.792	-99.710	-0.154	0.038
-439.778	-200.000	-0.025	0.191
-438.763	-27.097	0.288	-0.166
-437.749	109.746	0.178	0.211
-436.734	-96.362	0.295	-0.078
-435.719	800.000	0.071	0.210
-434.705	-200.000	-0.034	0.162
-433.690	303.596	0.089	-0.163
-432.676	-179.031	0.133	0.003
-431.661	120.343	0.173	0.213
-430.646	-170.260	0.196	-0.007
-429.632	-167.331	0.228	0.009
-428.617	54.471	-0.137	-0.131
-427.603	131.208	0.071	0.090
-426.588	-200.000	0.071	-0.330
-425.573	-30.652	-0.249	0.140
-424.559	-87.326	0.103	-0.031
-423.544	-171.605	-0.324	-0.011
-422.530	-2.304	0.087	-0.061
-421.515	800.000	-0.116	0.359
-420.500	-13.747	0.226	-0.145
-419.486	800.000	-0.051	-0.209
-418.471	-44.933	0.250	0.123
-417.457	717.241	0.089	0.235
-416.442	-38.552	-0.143	0.075
-415.428	198.051	0.257	0.390
-414.413	-56.843	0.196	-0.086
-413.398	113.241	-0.194	-0.233
-412.384	-200.000	0.052	0.316
-411.369	800.000	0.009	-0.034
-410.355	66.646	0.116	-0.117
-409.340	-145.180	0.166	-0.015
-408.325	337.121	0.141	0.271
-407.311	-160.318	-0.127	-0.007
-406.296	116.186	-0.126	0.153
-405.282	315.924	-0.149	0.278
-404.267	19.299	0.047	-0.037
-403.252	311.296	0.130	-0.242
-402.238	-200.000	-0.015	-0.225
-401.223	-200.000	-0.020	-0.099
-400.209	169.493	0.052	-0.073
-399.194	-200.000	-0.007	0.307
-398.179	255.128	0.041	0.069
-397.165	21.873	-0.029	0.023
-396.150	-200.000	-0.015	0.200
-395.136	-200.000	-0.013	-0.196
-394.121	388.414	-0.092	0.188
-393.106	-21.747	0.127	-0.076
-392.092	-82.276	0.090	0.029
-391.077	-200.000	-0.049	-0.269
-390.063	-200.000	-0.015	0.166
-389.048	141.967	0.196	0.257
-388.033	16.252	-0.244	-0.191
-387.019	-200.000	0.011	-0.063
-386.004	734.215	0.113	0.300
-384.990	-107.395	0.165	0.036
-383.975	-38.239	0.127	0.067
-382.960	70.506	0.287	-0.294
-381.946	-169.107	-0.198	-0.007
-380.931	-170.475	-0.247	0.009
-379.917	-41.958	-0.029	0.015
-378.902	178.138	-0.076	-0.109
-377.888	-119.571	-0.339	-0.058
-376.873	-123.434	-0.278	0.044
-375.858	89.970	-0.124	-0.137
-374.844	-200.000	-0.004	-0.172
-373.829	-106.400	-0.320	0.071
-372.815	-81.760	0.206	-0.067
-371.800	89.427	-0.209	-0.230
-370.785	-46.189	0.120	0.058
-369.771	111.706	-0.131	0.157
-368.756	-11.213	0.213	-0.139
-367.742	22.305	-0.103	-0.083
-366.727	800.000	-0.006	-0.016
-365.712	800.000	0.091	-0.373
-364.698	-200.000	0.017	0.122
-363.683	-200.000	0.013	-0.117
-362.669	-27.508	0.317	0.182
-361.654	-122.967	0.153	0.024
-360.639	-80.021	0.259	0.086
-359.625	800.000	0.089	-0.310
-358.610	293.906	-0.043	0.077
-357.596	800.000	0.035	0.112
-356.581	-14.716	0.318	-0.202
-355.566	-171.436	0.130	0.004
-354.552	187.745	-0.190	-0.281
-353.537	-200.000	-0.029	0.225
-352.523	10.172	-0.121	0.091
-351.508	-84.997	0.289	-0.090
-350.493	540.055	-0.081	-0.190
-349.479	35.561	-0.348	-0.302
-348.464	-42.411	-0.124	-0.062
-347.450	-169.023	-0.093	-0.003
-346.435	131.957	-0.212	-0.270
-345.420	-200.000	-0.026	-0.149
-344.406	-98.591	0.187	0.047
-343.391	-130.762	-0.259	0.034
-342.377	-200.000	0.005	-0.222
-341.362	122.757	0.163	0.201
-340.348	5.191	0.275	-0.200
-339.333	-24.654	0.112	0.066
-338.318	-89.727	-0.177	0.051
-337.304	65.889	-0.062	0.062
-336.289	111.476	0.129	0.154
-335.275	44.690	0.359	0.326
-334.260	-113.726	-0.221	-0.043
-333.245	-3.751	0.393	-0.269
-332.231	-33.029	-0.087	-0.047
-331.216	648.536	0.072	0.182
-330.202	-113.542	-0.322	-0.062
-329.187	192.407	-0.077	0.115
-328.172	-91.355	-0.275	0.078
-327.158	77.576	0.038	-0.040
-326.143	13.450	0.116	-0.089
-325.129	785.185	-0.112	0.302
-324.114	-132.039	0.108	-0.014
-323.099	-22.846	-0.207	-0.124
-322.085	12.185	0.246	-0.187
-321.070	305.503	0.168	-0.309
-320.056	-2.362	0.256	0.177
-319.041	-134.533	-0.296	-0.036
-318.026	-14.720	0.169	-0.107
-317.012	800.000	0.026	0.074
-315.997	-41.088	-0.188	0.096
-314.983	-142.127	-0.200	0.020
-313.968	-67.017	-0.405	-0.158
-312.953	800.000	-0.045	0.187
-311.939	347.078	-0.067	-0.130
-310.924	800.000	-0.051	-0.187
-309.910	-200.000	-0.019	0.099
-308.895	130.418	0.095	0.121
-307.880	800.000	-0.037	-0.129
-306.866	65.715	-0.147	-0.147
-305.851	-200.000	-0.040	0.368
-304.837	-200.000	-0.137	0.000
-303.822	691.531	0.052	0.135
-302.807	-200.000	0.003	-0.068
-301.793	-200.000	-0.091	-0.400
-300.778	-200.000	-0.015	-0.153
-299.764	-200.000	-0.030	-0.183
-298.749	616.623	-0.053	0.132
-297.735	-106.284	0.049	-0.011
-296.720	800.000	0.028	-0.112
-295.705	142.713	-0.257	-0.337
-294.691	-50.237	-0.165	0.077
-293.676	231.765	0.255	-0.412
-292.662	-200.000	-0.000	-0.148
-291.647	-103.970	0.379	-0.087
-290.632	-158.056	0.317	0.018
-289.618	-147.057	0.261	0.022
-288.603	-44.195	0.210	0.104
-287.589	605.136	0.103	0.252
-286.574	-70.822	0.169	-0.063
-285.559	133.462	0.156	-0.199
-284.545	-14.449	-0.285	0.181
-283.530	158.816	0.295	-0.404
-282.516	-200.000	-0.028	0.148
-281.501	-200.000	0.066	0.383
-280.486	800.000	0.047	0.175
-279.472	-144.817	0.406	0.037
-278.457	105.516	-0.155	0.180
-277.443	-191.426	-0.187	-0.002
-276.428	-142.648	0.145	-0.014
-275.413	-27.844	0.140	0.080
-274.399	-138.726	-0.128	-0.014
-273.384	207.337	-0.069	-0.106
-272.370	-124.975	0.071	0.011
-271.355	315.760	0.088	-0.164
-270.340	49.379	-0.210	-0.195
-269.326	-88.936	0.205	-0.060
-268.311	2.806	0.181	0.130
-267.297	-200.000	-0.014	-0.138
-266.282	359.923	0.124	0.245
-265.267	-200.000	-0.032	0.146
-264.253	96.604	-0.142	-0.161
-263.238	-148.409	-0.051	-0.004
-262.224	66.974	0.092	-0.093
-261.209	2.452	0.151	-0.108
-260.195	-61.698	0.324	0.134
-259.180	-101.866	-0.498	0.119
-258.165	-172.938	0.151	-0.005
-257.151	57.702	-0.179	-0.173
-256.136	137.333	-0.079	-0.101
-255.122	-138.506	-0.121	-0.013
-254.107	404.995	-0.107	0.221
-253.092	470.394	-0.100	0.220
-252.078	207.538	-0.102	-0.156
-251.063	-200.000	-0.020	0.147
-250.049	160.898	0.090	-0.124
-249.034	-43.863	0.212	-0.105
-248.019	181.461	-0.018	0.026
-247.005	227.660	0.191	-0.307
-245.990	102.759	-0.230	-0.265
-244.976	-200.000	0.003	0.059
-243.961	344.459	-0.129	0.249
-242.946	-183.897	0.416	-0.007
-241.932	-12.991	-0.059	-0.038
-240.917	-83.594	0.195	-0.061
-239.903	-20.634	0.088	0.053
-238.888	285.484	-0.067	0.119
-237.873	-132.752	0.261	-0.033
-236.859	382.362	0.140	0.282
-235.844	8.171	0.119	-0.088
-234.830	7.230	-0.038	-0.028
-233.815	-0.480	0.042	0.029
-232.800	-93.276	0.364	-0.100
-231.786	-200.000	0.010	0.240
-230.771	-115.277	0.170	0.032
-229.757	800.000	0.093	-0.318
-228.742	138.326	0.072	-0.093
-227.727	-52.548	0.393	0.179
-226.713	284.940	0.043	0.076
-225.698	25.181	-0.149	0.122
-224.684	-200.000	-0.013	0.351
-223.669	-106.434	-0.302	0.066
-222.655	-115.914	0.165	0.030
-221.640	-107.711	0.141	0.030
-220.625	14.332	-0.262	-0.201
-219.611	-119.400	0.069	0.012
-218.596	-200.000	0.012	0.261
-217.582	16.634	0.174	0.135
-216.567	-114.569	-0.326	0.062
-215.552	-200.000	-0.025	0.164
-214.538	-200.000	-0.003	-0.264
-213.523	331.167	-0.025	-0.046
-212.509	-106.689	-0.262	0.057
-211.494	-158.192	0.323	0.019
-210.479	-89.013	-0.131	-0.038
-209.465	120.404	0.094	-0.115
-208.450	251.062	-0.150	0.251
-207.436	21.717	0.075	0.060
-206.421	-3.667	-0.365	-0.250
-205.406	800.000	-0.111	-0.453
-204.392	393.828	-0.046	0.093
-203.377	206.726	0.041	0.063
-202.363	-200.000	0.040	0.224
-201.348	44.194	-0.035	0.032
-200.333	800.000	0.020	-0.064
-199.319	478.151	-0.134	0.298
-198.304	800.000	0.081	0.270
-197.290	44.792	-0.126	-0.114
-196.275	-121.319	0.094	0.015
-195.260	322.592	-0.232	-0.435
-194.246	-6.169	0.159	0.107
-193.231	-55.913	-0.083	-0.037
-192.217	88.525	-0.137	0.149
-191.202	800.000	0.078	0.285
-190.187	147.480	0.117	-0.155
-189.173	0.860	0.149	-0.105
-188.158	81.655	-0.030	-0.031
-187.144	-18.016	0.186	0.115
-186.129	249.728	-0.181	0.302
-185.114	512.111	0.115	0.264
-184.100	35.903	0.198	0.171
-183.085	4.244	0.258	-0.186
-182.071	-2.369	0.244	-0.168
-181.056	-0.037	0.148	-0.103
-180.042	321.854	0.066	-0.123
-179.027	186.991	-0.052	0.076
-178.012	264.219	0.145	0.248
-176.998	-200.000	-0.025	0.145
-175.983	-94.414	0.286	0.077
-174.969	184.886	-0.131	0.191
-173.954	-84.057	-0.225	-0.070
-172.939	-21.134	0.185	0.111
-171.925	-27.420	0.091	-0.052
-170.910	548.730	0.079	-0.185
-169.896	447.620	0.092	-0.199
-168.881	135.159	0.124	-0.158
-167.866	-200.000	0.008	-0.043
-166.852	-132.446	0.431	-0.055
-165.837	214.224	0.097	-0.151
-164.823	-200.000	0.013	-0.109
-163.808	164.317	-0.080	-0.111
-162.793	-118.543	-0.326	0.057
-161.779	-43.771	-0.050	-0.025
-160.764	483.124	-0.132	0.294
-159.750	343.412	-0.178	0.342
-158.735	625.730	0.046	0.115
-157.720	-90.255	-0.042	-0.012
-156.706	-200.000	0.024	0.109
-155.691	179.860	0.107	-0.153
-154.677	-76.492	0.134	0.046
-153.662	-15.814	0.296	-0.185
-152.647	-200.000	-0.021	0.119
-151.633	603.996	0.116	0.283
-150.618	-81.956	-0.247	-0.079
-149.604	38.821	-0.312	-0.273
-148.589	130.606	0.086	-0.108
-147.574	-7.544	-0.084	-0.056
-146.560	-13.446	0.074	0.047
-145.545	-59.388	0.130	-0.055
-144.531	-149.197	-0.007	0.001
-143.516	-200.000	0.028	0.296
-142.502	-124.116	0.188	-0.029
-141.487	226.870	0.046	0.074
-140.472	800.000	-0.025	-0.084
-139.458	-33.698	0.098	-0.053
-138.443	-200.000	-0.000	0.107
-137.429	-108.830	0.193	-0.040
-136.414	584.521	-0.037	0.090
-135.399	40.938	0.167	0.148
-134.385	-48.118	0.294	0.139
-133.370	189.135	-0.061	0.090
-132.356	-109.571	0.366	-0.076
-131.341	-4.332	-0.197	0.133
-130.326	85.339	0.151	0.162
-129.312	-127.603	0.463	-0.066
-128.297	644.559	0.077	0.193
-127.283	800.000	-0.085	0.248
-126.268	96.061	0.155	0.174
-125.253	-98.654	0.366	-0.092
-124.239	-141.781	0.047	0.005
-123.224	-200.000	0.003	-0.233
-122.210	800.000	-0.046	0.129
-121.195	-145.004	-0.170	-0.015
