DTS Sentinel unit serial number:	SN413079Multiplexer serial number:	ORYXHardware model number:	OX4-SRSoftware version number:	ORYX F/W v4.00 Oryx Data Collector v3.7.2.0data status	okinstallation	princeton_trtdifferential loss correction	single-endedforward channel	channel 1reverse channel	N/Adate	2019/09/13time	08:06:35forward acquisition time	60.00reverse acquisition time	0.00gamma	496.2192k internal	0.2332k external	0.2332temperature offset calibration	1.0161default loss term (dB/km)	0.3790temperature slope calibration	1.0000multiplexer offset coefficient	1.0000multiplexer slope coefficient	1.0000fibre end	0.00T internal ref (°C)	26.98T ext. ref 1 (°C)	4.25T ext. ref 2 (°C)	23.21length (m)	temperature (°C)	Stokes	anti-Stokes-747.200	-200.000	-0.016	0.141
-746.185	-170.541	0.126	-0.004
-745.171	-200.000	0.043	-0.295
-744.156	800.000	-0.166	0.516
-743.142	-200.000	0.032	0.464
-742.127	-134.551	-0.026	-0.003
-741.112	-134.185	-0.299	-0.037
-740.098	411.517	0.147	0.315
-739.083	-48.146	0.174	0.085
-738.069	55.282	0.096	0.093
-737.054	-10.718	-0.296	-0.197
-736.039	116.713	-0.142	-0.175
-735.025	-113.767	0.295	0.058
-734.010	-200.000	0.057	-0.360
-732.996	177.471	-0.116	-0.169
-731.981	-131.828	0.367	-0.048
-730.966	-200.000	0.016	0.252
-729.952	-123.559	-0.209	-0.033
-728.937	-167.165	0.217	-0.009
-727.923	-149.669	0.261	-0.021
-726.908	4.591	-0.388	-0.287
-725.894	800.000	0.044	0.150
-724.879	-200.000	-0.079	-0.408
-723.864	-155.483	0.127	-0.008
-722.850	-183.429	0.049	-0.001
-721.835	-119.362	-0.339	0.059
-720.821	-74.332	-0.315	0.114
-719.806	-125.445	-0.275	0.042
-718.791	32.414	-0.078	0.068
-717.777	-111.974	0.310	0.063
-716.762	-69.689	-0.175	-0.067
-715.748	257.019	0.030	-0.052
-714.733	-46.124	0.196	0.097
-713.718	35.437	-0.120	-0.106
-712.704	-55.740	-0.288	-0.129
-711.689	82.961	-0.072	0.079
-710.675	125.505	-0.169	-0.214
-709.660	-200.000	0.029	0.139
-708.645	-87.119	0.179	0.055
-707.631	-32.254	-0.104	0.058
-706.616	-103.797	-0.124	-0.029
-705.602	-33.408	0.177	-0.098
-704.587	-200.000	-0.031	-0.330
-703.572	606.687	0.025	0.063
-702.558	-200.000	-0.024	0.132
-701.543	-124.105	0.203	-0.032
-700.529	-200.000	0.028	-0.181
-699.514	50.751	-0.350	-0.333
-698.499	-87.476	-0.216	-0.066
-697.485	-174.892	-0.214	-0.006
-696.470	105.104	-0.097	-0.115
-695.456	-151.109	-0.337	0.025
-694.441	-65.121	-0.079	-0.032
-693.426	-21.753	-0.094	-0.058
-692.412	-107.794	-0.251	-0.055
-691.397	232.851	0.132	0.219
-690.383	-155.376	0.054	-0.004
-689.368	-200.000	-0.003	0.037
-688.354	-129.012	-0.253	0.036
-687.339	-53.184	-0.232	0.107
-686.324	800.000	0.054	-0.211
-685.310	-88.343	0.199	-0.060
-684.295	-200.000	-0.012	-0.122
-683.281	-17.174	0.164	0.104
-682.266	296.427	-0.038	0.071
-681.251	17.728	0.172	0.137
-680.237	182.810	0.163	-0.242
-679.222	800.000	-0.106	0.444
-678.208	-119.357	-0.473	0.083
-677.193	-167.421	-0.130	0.005
-676.178	-7.183	-0.096	0.065
-675.164	260.595	0.100	-0.173
-674.149	764.885	0.071	-0.192
-673.135	84.071	-0.178	-0.195
-672.120	-29.492	-0.110	-0.063
-671.105	-110.537	0.190	-0.039
-670.091	141.589	-0.084	-0.111
-669.076	6.901	-0.169	0.126
-668.062	69.482	0.082	-0.084
-667.047	-56.800	0.101	-0.045
-666.032	0.247	0.309	-0.221
-665.018	-75.030	-0.216	-0.078
-664.003	258.927	-0.108	-0.188
-662.989	800.000	0.139	-0.503
-661.974	382.153	0.040	-0.082
-660.959	353.030	-0.099	0.196
-659.945	623.208	0.064	0.163
-658.930	800.000	-0.164	-0.581
-657.916	-131.258	0.121	-0.016
-656.901	500.256	0.029	-0.068
-655.886	65.721	0.088	0.089
-654.872	800.000	0.039	0.158
-653.857	-129.790	-0.246	-0.034
-652.843	-200.000	-0.075	0.333
-651.828	-200.000	0.034	-0.422
-650.814	-141.973	0.222	-0.022
-649.799	-101.821	-0.145	-0.035
-648.784	1.202	0.113	-0.081
-647.770	-0.678	-0.215	0.153
-646.755	800.000	0.021	0.064
-645.741	527.559	-0.118	0.279
-644.726	-200.000	-0.015	0.144
-643.711	-146.748	0.097	-0.008
-642.697	-136.569	-0.279	0.032
-641.682	33.772	0.097	0.084
-640.668	-200.000	-0.050	0.333
-639.653	800.000	-0.089	-0.304
-638.638	-31.128	0.073	0.041
-637.624	-3.934	-0.078	0.054
-636.609	-148.920	-0.163	-0.013
-635.595	-129.652	0.200	0.028
-634.580	-200.000	0.006	0.055
-633.565	476.798	0.060	0.135
-632.551	-200.000	-0.006	0.143
-631.536	-136.308	0.066	0.008
-630.522	-107.317	-0.281	0.062
-629.507	-101.173	-0.226	-0.055
-628.492	-155.093	-0.100	0.007
-627.478	-92.019	0.145	0.041
-626.463	394.396	-0.085	0.178
-625.449	-172.748	0.086	0.003
-624.434	192.620	-0.218	-0.330
-623.419	114.376	0.150	0.183
-622.405	-151.432	-0.208	0.015
-621.390	-17.500	0.261	-0.164
-620.376	-75.633	0.009	0.003
-619.361	-44.686	0.151	-0.076
-618.346	136.933	-0.174	-0.228
-617.332	-124.081	0.170	-0.027
-616.317	-85.452	0.161	0.050
-615.303	254.795	-0.104	-0.178
-614.288	94.214	-0.225	0.256
-613.273	6.846	0.032	-0.024
-612.259	-200.000	-0.028	0.133
-611.244	-30.035	0.201	0.114
-610.230	-200.000	0.037	-0.421
-609.215	-18.962	0.140	-0.087
-608.201	155.670	0.149	0.205
-607.186	-106.557	-0.074	-0.017
-606.171	46.971	0.107	-0.100
-605.157	-200.000	0.016	-0.088
-604.142	402.892	0.060	0.127
-603.128	112.388	0.143	0.174
-602.113	-200.000	-0.007	0.328
-601.098	248.956	0.151	0.256
-600.084	59.445	0.226	-0.223
-599.069	-200.000	-0.002	-0.032
-598.055	147.415	-0.155	0.209
-597.040	-94.667	-0.531	0.144
-596.025	-150.973	0.378	0.029
-595.011	16.534	0.114	0.090
-593.996	-102.052	-0.132	0.032
-592.982	64.331	-0.260	0.262
-591.967	800.000	-0.085	-0.244
-590.952	-101.386	0.339	-0.083
-589.938	-179.173	-0.368	0.008
-588.923	-200.000	-0.008	0.092
-587.909	194.442	-0.149	-0.226
-586.894	71.312	-0.221	0.229
-585.879	-200.000	-0.008	0.097
-584.865	-50.951	-0.063	0.030
-583.850	-104.413	-0.071	0.017
-582.836	800.000	0.067	-0.206
-581.821	132.618	-0.228	-0.294
-580.806	-33.823	-0.477	-0.263
-579.792	-133.158	-0.073	-0.009
-578.777	-200.000	0.001	-0.103
-577.763	-62.025	-0.127	0.053
-576.748	-200.000	-0.035	-0.161
-575.733	334.866	-0.062	-0.121
-574.719	66.138	0.066	0.067
-573.704	-45.866	0.251	0.124
-572.690	800.000	0.041	-0.116
-571.675	-200.000	-0.000	-0.221
-570.661	-157.271	-0.447	0.027
-569.646	5.404	0.103	-0.076
-568.631	-200.000	-0.043	-0.187
-567.617	-104.503	-0.299	0.069
-566.602	96.845	-0.004	-0.004
-565.588	-129.561	-0.248	-0.034
-564.573	-115.515	0.237	-0.044
-563.558	44.777	-0.258	-0.237
-562.544	-101.833	0.235	-0.057
-561.529	-122.532	-0.413	-0.067
-560.515	-125.263	0.186	-0.028
-559.500	-200.000	-0.033	0.279
-558.485	427.302	0.146	0.314
-557.471	-200.000	-0.006	0.145
-556.456	-21.494	0.420	-0.256
-555.442	-31.020	0.289	-0.163
-554.427	-200.000	0.031	0.261
-553.412	-56.294	0.389	0.173
-552.398	-93.531	-0.059	0.016
-551.383	19.997	-0.157	-0.127
-550.369	203.703	-0.107	0.165
-549.354	-200.000	-0.020	-0.271
-548.339	62.858	-0.256	-0.256
-547.325	-39.552	0.086	-0.045
-546.310	144.934	0.130	-0.173
-545.296	91.418	0.218	-0.245
-544.281	-173.508	-0.127	-0.004
-543.266	-14.405	0.129	0.083
-542.252	-71.530	0.147	-0.055
-541.237	122.103	0.068	-0.085
-540.223	143.086	-0.120	0.159
-539.208	-187.887	0.133	-0.002
-538.193	-57.384	-0.243	-0.107
-537.179	-71.682	-0.257	0.096
-536.164	-42.554	-0.194	0.099
-535.150	-52.448	0.216	-0.100
-534.135	158.660	-0.185	0.257
-533.121	-138.523	0.158	-0.017
-532.106	46.745	-0.246	0.228
-531.091	499.005	-0.118	0.271
-530.077	-200.000	0.011	-0.050
-529.062	-91.637	0.296	-0.084
-528.048	800.000	0.119	0.356
-527.033	87.687	0.166	-0.184
-526.018	800.000	-0.065	0.225
-525.004	337.694	0.045	-0.087
-523.989	-53.307	0.448	0.205
-522.975	253.286	-0.090	0.154
-521.960	-20.458	0.035	0.022
-520.945	176.096	0.271	-0.392
-519.931	220.734	0.223	-0.357
-518.916	264.106	0.097	0.169
-517.902	742.166	0.024	-0.064
-516.887	18.957	0.173	-0.138
-515.872	-93.407	0.170	-0.047
-514.858	11.452	0.037	-0.028
-513.843	-114.678	-0.258	0.049
-512.829	28.990	0.165	-0.140
-511.814	53.838	0.112	-0.108
-510.799	800.000	0.052	-0.153
-509.785	86.809	0.183	0.202
-508.770	800.000	0.039	-0.159
-507.756	-200.000	0.000	0.099
-506.741	-200.000	0.001	-0.130
-505.726	-135.760	-0.162	0.019
-504.712	-187.816	-0.360	-0.005
-503.697	-102.385	-0.212	0.051
-502.683	-200.000	0.035	0.230
-501.668	-18.755	0.065	0.040
-500.653	143.145	-0.090	0.120
-499.639	-100.383	0.195	-0.048
-498.624	-68.381	-0.160	-0.062
-497.610	130.492	-0.065	0.083
-496.595	239.311	-0.124	0.206
-495.581	163.925	-0.223	-0.312
-494.566	333.746	0.086	-0.166
-493.551	-200.000	0.080	0.409
-492.537	800.000	0.075	0.268
-491.522	344.534	0.165	0.324
-490.508	-86.787	0.147	0.045
-489.493	363.981	-0.072	0.144
-488.478	-52.538	0.244	0.112
-487.464	800.000	0.061	-0.216
-486.449	6.292	0.055	-0.040
-485.435	241.234	-0.191	-0.318
-484.420	-51.576	0.355	0.165
-483.405	-200.000	0.040	0.286
-482.391	-96.949	-0.201	0.053
-481.376	285.734	0.046	0.083
-480.362	96.824	0.143	-0.163
-479.347	-2.211	0.218	-0.152
-478.332	215.605	-0.042	0.067
-477.318	165.423	-0.169	0.237
-476.303	-68.701	-0.113	0.044
-475.289	259.373	-0.105	-0.180
-474.274	-168.470	0.527	0.020
-473.259	-150.438	0.236	-0.018
-472.245	800.000	0.068	0.201
-471.230	-30.451	0.162	-0.091
-470.216	-23.067	0.032	-0.019
-469.201	203.362	-0.132	0.204
-468.186	-200.000	0.042	0.197
-467.172	144.004	0.111	0.148
-466.157	-109.860	-0.513	-0.107
-465.143	234.009	0.170	-0.279
-464.128	-200.000	-0.034	0.233
-463.113	259.008	0.150	-0.258
-462.099	-200.000	0.005	-0.076
-461.084	-200.000	0.030	0.135
-460.070	-22.997	0.047	-0.028
-459.055	-79.890	-0.142	0.047
-458.040	-200.000	0.043	0.195
-457.026	-4.386	0.125	0.086
-456.011	390.291	-0.082	0.169
-454.997	-116.669	-0.191	-0.035
-453.982	-97.844	-0.310	0.080
-452.968	-26.306	-0.204	0.119
-451.953	-200.000	-0.018	-0.151
-450.938	-200.000	-0.031	0.158
-449.924	-47.024	0.384	-0.187
-448.909	73.513	-0.292	-0.304
-447.895	173.234	0.136	-0.195
-446.880	-52.601	-0.178	-0.082
-445.865	13.512	0.085	-0.066
-444.851	800.000	0.067	-0.188
-443.836	388.782	-0.029	-0.059
-442.822	-106.313	-0.189	0.042
-441.807	-200.000	-0.001	-0.299
-440.792	555.590	-0.101	-0.243
-439.778	-189.453	0.200	-0.002
-438.763	583.600	-0.073	0.179
-437.749	-37.747	-0.159	0.084
-436.734	134.336	-0.263	-0.338
-435.719	75.904	0.124	-0.130
-434.705	-55.473	0.431	0.192
-433.690	197.299	0.080	0.121
-432.676	-139.745	-0.267	0.028
-431.661	15.271	0.136	0.106
-430.646	24.960	-0.287	-0.236
-429.632	-30.856	-0.368	0.207
-428.617	50.434	0.122	0.114
-427.603	-200.000	0.005	0.365
-426.588	139.576	0.033	-0.043
-425.573	259.365	0.014	0.024
-424.559	400.611	-0.111	0.232
-423.544	-158.290	0.157	0.009
-422.530	-200.000	0.013	0.099
-421.515	-118.251	0.108	0.019
-420.500	-83.626	0.110	-0.035
-419.486	-32.944	-0.142	-0.079
-418.471	10.116	0.121	0.091
-417.457	612.889	-0.127	-0.316
-416.442	-185.139	-0.132	-0.002
-415.428	427.135	-0.111	-0.239
-414.413	800.000	0.047	0.150
-413.398	146.508	0.104	-0.138
-412.384	800.000	-0.050	-0.178
-411.369	-64.379	-0.114	0.046
-410.355	254.451	0.030	-0.052
-409.340	-200.000	-0.017	-0.168
-408.325	176.543	0.233	0.336
-407.311	-21.987	-0.139	-0.084
-406.296	-161.598	0.207	0.011
-405.282	-100.411	0.180	-0.044
-404.267	-86.838	0.130	-0.040
-403.252	81.276	0.238	0.255
-402.238	30.501	-0.239	0.203
-401.223	-14.723	-0.176	0.112
-400.209	-200.000	0.016	-0.125
-399.194	-52.236	-0.244	-0.112
-398.179	-126.216	0.120	-0.018
-397.165	208.405	-0.052	0.080
-396.150	-200.000	0.021	-0.142
-395.136	106.734	-0.055	-0.064
-394.121	800.000	-0.048	0.139
-393.106	-200.000	0.029	-0.356
-392.092	291.468	-0.054	-0.098
-391.077	62.517	0.231	-0.229
-390.063	800.000	-0.101	0.297
-389.048	163.355	0.102	0.143
-388.033	-157.143	0.213	-0.013
-387.019	-176.918	-0.187	-0.005
-386.004	-200.000	0.023	0.263
-384.990	-30.354	-0.062	0.035
-383.975	-200.000	-0.022	0.259
-382.960	-38.168	-0.236	-0.124
-381.946	800.000	0.056	-0.187
-380.931	-108.611	-0.236	0.050
-379.917	-200.000	-0.013	-0.083
-378.902	-60.634	0.413	-0.174
-377.888	-34.037	0.236	-0.129
-376.873	224.784	-0.117	-0.188
-375.858	-200.000	-0.013	0.071
-374.844	103.144	0.219	-0.255
-373.829	-96.219	0.060	0.016
-372.815	131.914	-0.168	0.215
-371.800	-73.606	0.079	-0.028
-370.785	-175.820	-0.365	0.010
-369.771	-41.920	-0.101	0.052
-368.756	99.414	0.237	-0.272
-367.742	17.016	0.097	-0.076
-366.727	85.279	-0.186	0.202
-365.712	450.971	0.077	0.168
-364.698	42.084	0.112	0.101
-363.683	800.000	0.135	-0.423
-362.669	-17.685	-0.303	0.188
-361.654	-151.080	0.279	0.021
-360.639	-23.767	-0.107	-0.063
-359.625	800.000	-0.070	-0.267
-358.610	35.753	-0.075	0.065
-357.596	774.290	-0.119	-0.323
-356.581	-200.000	0.008	0.132
-355.566	84.790	0.075	-0.081
-354.552	-200.000	-0.014	0.209
-353.537	26.698	-0.319	-0.264
-352.523	800.000	0.052	-0.151
-351.508	-31.271	0.175	-0.098
-350.493	71.781	0.098	-0.101
-349.479	-200.000	0.022	-0.349
-348.464	-96.600	0.184	0.048
-347.450	28.081	-0.414	-0.346
-346.435	-61.123	0.070	-0.029
-345.420	-141.574	0.159	0.016
-344.406	294.510	0.167	0.302
-343.391	800.000	0.045	0.191
-342.377	169.414	0.159	0.225
-341.362	-200.000	-0.002	0.125
-340.348	200.872	0.133	0.203
-339.333	732.265	0.060	0.158
-338.318	800.000	-0.051	-0.162
-337.304	185.854	0.068	-0.100
-336.289	-200.000	-0.081	0.470
-335.275	-69.164	-0.166	-0.063
-334.260	-200.000	0.064	-0.309
-333.245	-40.996	-0.356	-0.182
-332.231	12.633	0.153	0.117
-331.216	-70.717	-0.088	0.033
-330.202	-20.760	0.233	-0.142
-329.187	-82.280	-0.071	-0.023
-328.172	57.119	-0.208	-0.201
-327.158	97.909	-0.208	-0.237
-326.143	-200.000	-0.005	0.074
-325.129	-200.000	0.059	-0.412
-324.114	339.225	-0.058	0.112
-323.099	-53.432	-0.329	-0.149
-322.085	-109.570	-0.171	0.036
-321.070	-138.123	0.335	0.037
-320.056	-200.000	-0.010	-0.256
-319.041	102.792	0.197	0.228
-318.026	-149.187	0.302	0.024
-317.012	-200.000	-0.004	-0.177
-315.997	-51.535	-0.254	0.118
-314.983	-200.000	-0.001	-0.089
-313.968	-101.751	-0.161	-0.039
-312.953	106.778	0.217	-0.255
-311.939	284.181	-0.120	0.213
-310.924	-146.017	0.242	-0.021
-309.910	-200.000	0.011	0.180
-308.895	-73.838	0.279	-0.100
-307.880	-81.799	0.187	-0.061
-306.866	248.022	-0.185	0.309
-305.851	12.729	0.067	-0.051
-304.837	89.401	0.134	-0.148
-303.822	-184.967	-0.396	-0.006
-302.807	309.116	-0.047	-0.086
-301.793	105.519	0.184	-0.215
-300.778	-132.797	-0.118	-0.015
-299.764	149.595	-0.128	0.172
-298.749	-143.225	0.192	0.018
-297.735	35.743	-0.095	0.083
-296.720	120.744	0.084	-0.104
-295.705	-155.073	-0.347	-0.022
-294.691	370.514	-0.138	0.276
-293.676	-75.708	0.175	0.061
-292.662	-200.000	-0.099	0.447
-291.647	-200.000	-0.026	-0.173
-290.632	800.000	0.059	-0.180
-289.618	-200.000	-0.068	0.475
-288.603	-72.757	0.289	-0.105
-287.589	800.000	-0.054	-0.205
-286.574	-43.772	0.177	0.088
-285.559	70.820	0.151	-0.155
-284.545	800.000	0.077	0.239
-283.530	-36.509	0.200	0.106
-282.516	306.798	0.089	-0.163
-281.501	418.836	-0.119	0.251
-280.486	53.246	0.252	0.238
-279.472	-62.704	-0.160	-0.066
-278.457	-17.726	0.106	0.066
-277.443	-53.704	-0.147	-0.066
-276.428	-29.629	-0.102	0.057
-275.413	-7.772	0.201	0.134
-274.399	318.694	-0.114	0.213
-273.384	714.814	-0.116	0.304
-272.370	-30.359	0.062	0.035
-271.355	800.000	-0.022	-0.089
-270.340	-136.528	0.140	0.016
-269.326	-91.092	0.173	0.049
-268.311	606.513	-0.151	-0.372
-267.297	800.000	-0.032	-0.089
-266.282	-200.000	-0.018	-0.157
-265.267	-161.146	0.200	0.010
-264.253	-157.475	0.072	-0.004
-263.238	-102.769	-0.134	0.031
-262.224	-63.054	-0.212	0.087
-261.209	94.141	0.209	0.234
-260.195	-200.000	-0.036	-0.191
-259.180	-10.526	0.057	-0.037
-258.165	-200.000	0.006	0.382
-257.151	-10.244	-0.096	-0.063
-256.136	108.920	0.267	-0.315
-255.122	523.179	-0.114	0.265
-254.107	361.533	-0.038	0.075
-253.092	108.893	0.120	-0.142
-252.078	587.984	-0.027	0.065
-251.063	-139.986	0.135	-0.014
-250.049	-77.361	0.127	-0.044
-249.034	-31.908	0.285	0.157
-248.019	-111.663	-0.135	-0.027
-247.005	77.771	-0.058	0.061
-245.990	23.148	-0.152	0.123
-244.976	-150.155	0.251	0.019
-243.961	424.410	-0.010	0.022
-242.946	615.810	-0.054	0.134
-241.932	-200.000	0.006	0.058
-240.917	194.740	-0.089	0.133
-239.903	187.094	0.040	0.059
-238.888	106.700	-0.229	0.268
-237.873	-200.000	-0.010	0.186
-236.859	-33.725	-0.215	0.117
-235.844	800.000	-0.073	0.220
-234.830	-200.000	-0.032	0.267
-233.815	-47.782	-0.295	-0.141
-232.800	-130.722	0.691	-0.092
-231.786	45.363	-0.095	-0.086
-230.771	29.816	0.222	0.187
-229.757	-32.316	-0.100	0.055
-228.742	-133.930	0.147	0.018
-227.727	-78.916	0.238	-0.080
-226.713	43.334	-0.223	-0.201
-225.698	226.751	-0.075	-0.120
-224.684	-71.408	0.524	0.193
-223.669	-91.495	0.080	-0.023
-222.655	-50.622	0.127	-0.059
-221.640	277.863	-0.083	0.146
-220.625	39.651	-0.189	-0.167
-219.611	36.120	0.153	-0.133
-218.596	-200.000	0.000	-0.034
-217.582	-200.000	0.008	0.138
-216.567	-2.100	-0.019	-0.013
-215.552	-160.530	0.473	0.025
-214.538	800.000	-0.101	0.314
-213.523	-73.625	0.044	0.016
-212.509	92.439	0.146	-0.163
-211.494	-81.283	-0.204	-0.066
-210.479	192.699	0.008	-0.012
-209.465	473.921	0.006	-0.012
-208.450	94.123	0.161	-0.180
-207.436	-47.845	0.440	0.210
-206.421	-200.000	-0.019	-0.272
-205.406	-99.866	-0.394	-0.097
-204.392	-134.471	-0.630	0.076
-203.377	-2.511	-0.084	-0.058
-202.363	-77.231	0.229	0.079
-201.348	-117.342	-0.268	0.048
-200.333	-20.988	-0.258	-0.156
-199.319	460.291	-0.060	-0.131
-198.304	-200.000	0.015	-0.154
-197.290	-4.884	-0.008	-0.005
-196.275	29.745	-0.394	-0.330
-195.260	104.966	-0.127	-0.148
-194.246	-79.794	-0.240	0.079
-193.231	221.669	0.058	0.092
-192.217	431.960	0.100	-0.214
-191.202	-45.326	0.367	-0.179
-190.187	-78.200	0.322	0.109
-189.173	-59.720	-0.362	0.153
-188.158	-94.394	0.140	0.038
-187.144	390.801	-0.119	0.244
-186.129	-129.666	-0.386	-0.052
-185.114	429.810	-0.108	0.231
-184.100	-165.962	0.382	0.016
-183.085	0.841	0.148	0.104
-182.071	-50.065	-0.169	0.079
-181.056	-72.133	0.408	-0.149
-180.042	-98.239	0.255	-0.064
-179.027	771.454	0.091	0.245
-178.012	234.608	-0.051	-0.082
-176.998	257.726	-0.258	-0.436
-175.983	-90.765	-0.303	-0.086
-174.969	685.610	-0.090	-0.230
-173.954	-37.011	-0.207	-0.109
-172.939	-156.312	-0.298	-0.018
-171.925	-91.718	-0.128	-0.036
-170.910	-200.000	0.005	0.137
-169.896	-167.180	-0.068	0.003
-168.881	400.096	-0.055	-0.113
-167.866	800.000	-0.102	-0.314
-166.852	591.897	-0.084	-0.204
-165.837	-49.301	0.119	-0.056
-164.823	337.869	0.206	0.394
-163.808	29.365	-0.143	-0.120
-162.793	-87.243	-0.168	-0.050
-161.779	275.950	0.139	-0.243
-160.764	-90.914	0.157	-0.044
-159.750	-200.000	0.034	0.215
-158.735	-161.502	-0.241	0.012
-157.720	-141.423	0.167	0.017
-156.706	-46.938	-0.398	-0.191
-155.691	63.315	0.170	-0.168
-154.677	-56.997	-0.242	-0.105
-153.662	276.324	-0.161	0.282
-152.647	-200.000	0.007	0.103
-151.633	-67.446	0.432	-0.167
-150.618	-136.992	-0.201	-0.023
-149.604	-200.000	0.007	0.247
-148.589	-200.000	-0.011	0.124
-147.574	-100.660	0.211	0.051
-146.560	85.653	-0.245	-0.264
-145.545	503.739	-0.077	-0.174
-144.531	800.000	-0.068	-0.267
-143.516	-200.000	-0.005	-0.150
-142.502	-200.000	-0.009	-0.273
-141.487	-200.000	0.013	0.114
-140.472	-110.732	-0.255	0.052
-139.458	-29.339	0.226	-0.127
-138.443	-139.587	0.203	-0.021
-137.429	21.196	-0.176	-0.141
-136.414	-89.931	-0.118	0.034
-135.399	127.350	-0.078	-0.098
-134.385	35.024	0.222	-0.191
-133.370	561.730	-0.027	-0.063
-132.356	126.506	0.078	-0.097
-131.341	-147.318	0.207	0.017
-130.326	-200.000	0.028	-0.322
-129.312	-171.895	0.082	-0.003
-128.297	800.000	0.069	-0.211
-127.283	-28.822	0.088	-0.049
-126.268	68.209	0.130	-0.131
-125.253	-77.926	-0.052	-0.018
-124.239	103.450	-0.178	0.205
-123.224	104.011	-0.097	0.112
