DTS Sentinel unit serial number:	SN413079Multiplexer serial number:	ORYXHardware model number:	OX4-SRSoftware version number:	ORYX F/W v4.00 Oryx Data Collector v3.7.2.0data status	okinstallation	princeton_trtdifferential loss correction	single-endedforward channel	channel 1reverse channel	N/Adate	2019/09/18time	19:50:35forward acquisition time	60.00reverse acquisition time	0.00gamma	496.2192k internal	0.2327k external	0.2327temperature offset calibration	1.0029default loss term (dB/km)	0.3790temperature slope calibration	1.0000multiplexer offset coefficient	1.0000multiplexer slope coefficient	1.0000fibre end	0.00T internal ref (°C)	31.11T ext. ref 1 (°C)	1.06T ext. ref 2 (°C)	21.95length (m)	temperature (°C)	Stokes	anti-Stokes-747.200	120.141	-0.114	0.142
-746.185	-77.980	-0.374	0.130
-745.171	-114.893	0.242	0.046
-744.156	258.258	-0.174	-0.302
-743.142	800.000	-0.058	-0.185
-742.127	186.989	-0.127	-0.190
-741.112	-81.939	0.147	-0.048
-740.098	168.995	-0.256	0.368
-739.083	-200.000	-0.049	0.260
-738.069	-200.000	-0.036	0.187
-737.054	23.400	-0.240	0.199
-736.039	-101.544	-0.185	-0.045
-735.025	-200.000	0.000	-0.076
-734.010	487.705	0.064	0.147
-732.996	-5.516	-0.394	-0.272
-731.981	-131.930	-0.111	-0.015
-730.966	-200.000	-0.018	-0.238
-729.952	-126.695	-0.418	-0.062
-728.937	-200.000	-0.028	0.250
-727.923	157.485	-0.144	-0.201
-726.908	415.200	0.090	-0.194
-725.894	133.160	-0.172	-0.223
-724.879	-81.165	0.050	0.017
-723.864	800.000	-0.079	-0.334
-722.850	800.000	0.146	-0.451
-721.835	140.690	0.206	-0.274
-720.821	-86.225	-0.314	-0.097
-719.806	-200.000	0.067	-0.330
-718.791	-14.813	-0.175	0.113
-717.777	15.065	0.038	0.030
-716.762	-81.048	-0.338	0.113
-715.748	-200.000	0.064	0.283
-714.733	-39.105	-0.107	0.057
-713.718	-87.067	-0.144	0.044
-712.704	800.000	-0.076	-0.241
-711.689	-64.747	-0.456	-0.186
-710.675	-177.544	-0.245	-0.006
-709.660	142.014	0.038	0.051
-708.645	4.778	-0.373	-0.276
-707.631	-200.000	0.009	-0.166
-706.616	479.208	0.065	0.147
-705.602	800.000	-0.077	-0.231
-704.587	-47.816	-0.303	0.148
-703.572	74.176	0.239	0.252
-702.558	46.164	0.242	0.225
-701.543	340.667	0.054	-0.106
-700.529	183.878	-0.254	-0.379
-699.514	128.521	0.215	-0.276
-698.499	-200.000	-0.038	-0.293
-697.485	-76.351	0.047	-0.017
-696.470	-105.464	-0.057	0.013
-695.456	-70.387	-0.109	-0.042
-694.441	-90.079	-0.174	0.051
-693.426	-200.000	-0.025	-0.136
-692.412	155.176	-0.104	0.145
-691.397	-64.845	0.302	0.123
-690.383	-114.842	-0.202	-0.039
-689.368	52.953	-0.298	-0.287
-688.354	250.873	-0.235	0.401
-687.339	143.140	-0.220	0.294
-686.324	-34.028	0.215	0.119
-685.310	-157.848	0.149	-0.009
-684.295	-96.938	-0.347	0.092
-683.281	93.975	-0.184	0.210
-682.266	-121.346	0.216	0.036
-681.251	336.672	-0.156	0.304
-680.237	112.213	0.153	0.186
-679.222	145.257	0.219	-0.295
-678.208	127.763	-0.182	0.233
-677.193	25.556	0.084	-0.070
-676.178	-170.639	-0.168	0.006
-675.164	-28.255	0.077	-0.045
-674.149	124.984	-0.198	0.250
-673.135	-161.831	-0.440	0.022
-672.120	25.993	0.347	-0.291
-671.105	170.032	0.125	-0.179
-670.091	56.433	0.230	-0.224
-669.076	-89.008	0.150	-0.045
-668.062	195.297	-0.108	-0.165
-667.047	127.281	-0.273	-0.348
-666.032	-183.074	0.155	-0.003
-665.018	760.552	0.109	0.297
-664.003	-200.000	-0.013	0.182
-662.989	158.943	0.203	-0.284
-661.974	149.939	0.202	-0.276
-660.959	-200.000	0.030	0.187
-659.945	108.529	-0.142	-0.171
-658.930	251.471	-0.143	-0.245
-657.916	75.367	0.086	-0.091
-656.901	-200.000	-0.125	-0.000
-655.886	-200.000	-0.007	-0.115
-654.872	70.285	-0.180	0.187
-653.857	800.000	0.030	-0.086
-652.843	-200.000	-0.003	-0.199
-651.828	-200.000	-0.001	-0.268
-650.814	-200.000	0.019	0.162
-649.799	-145.368	-0.196	0.018
-648.784	-0.393	-0.126	0.090
-647.770	-150.720	0.378	-0.029
-646.755	64.576	-0.308	0.311
-645.741	370.464	0.047	-0.096
-644.726	-200.000	-0.057	0.250
-643.711	69.867	-0.159	0.165
-642.697	-81.495	0.273	0.090
-641.682	4.155	0.103	-0.076
-640.668	207.177	-0.107	-0.168
-639.653	-51.588	0.313	0.147
-638.638	-37.631	-0.187	0.100
-637.624	-200.000	0.019	-0.226
-636.609	435.669	0.066	-0.145
-635.595	-200.000	-0.009	-0.472
-634.580	270.670	0.145	-0.256
-633.565	53.792	0.146	0.141
-632.551	-39.191	-0.268	0.142
-631.536	-148.792	0.271	0.022
-630.522	-200.000	0.016	0.214
-629.507	28.786	0.058	0.049
-628.492	204.963	-0.033	0.051
-627.478	-9.971	-0.086	-0.057
-626.463	299.247	-0.030	0.055
-625.449	-10.513	0.077	0.051
-624.434	345.164	-0.072	0.142
-623.419	-82.042	0.192	-0.063
-622.405	-45.734	0.260	-0.129
-621.390	-21.684	0.284	-0.174
-620.376	800.000	0.090	0.265
-619.361	779.469	-0.033	0.091
-618.346	800.000	-0.038	-0.136
-617.332	-34.771	-0.041	-0.023
-616.317	-167.411	0.313	-0.013
-615.303	-109.076	0.192	0.041
-614.288	-65.903	-0.365	-0.146
-613.273	289.108	0.166	-0.301
-612.259	-8.150	-0.205	0.138
-611.244	151.034	-0.126	-0.172
-610.230	491.173	-0.045	0.103
-609.215	-153.063	-0.037	-0.003
-608.201	800.000	-0.148	0.541
-607.186	-136.031	-0.191	0.022
-606.171	56.803	-0.091	-0.089
-605.157	208.143	0.147	-0.230
-604.142	-94.587	0.287	-0.078
-603.128	-7.601	0.218	0.148
-602.113	113.338	-0.124	0.151
-601.098	318.380	0.111	-0.211
-600.084	-200.000	-0.018	-0.121
-599.069	363.199	0.033	0.066
-598.055	-23.515	0.161	0.097
-597.040	445.275	0.100	0.219
-596.025	800.000	0.065	0.240
-595.011	-48.889	-0.146	0.070
-593.996	-148.415	0.345	-0.028
-592.982	-200.000	0.025	0.298
-591.967	-200.000	0.009	-0.107
-590.952	53.915	-0.120	0.116
-589.938	161.204	0.079	0.110
-588.923	-155.422	-0.255	-0.017
-587.909	41.497	0.078	-0.071
-586.894	-200.000	0.001	0.288
-585.879	-89.495	0.083	0.025
-584.865	-94.513	-0.297	0.081
-583.850	-200.000	0.010	0.077
-582.836	-172.217	0.317	-0.010
-581.821	66.216	0.087	-0.089
-580.806	-68.802	-0.438	-0.170
-579.792	-90.523	0.252	-0.073
-578.777	-67.048	0.458	0.181
-577.763	321.386	-0.086	0.164
-576.748	-131.413	0.080	-0.011
-575.733	-181.211	-0.345	0.007
-574.719	-5.002	0.083	-0.057
-573.704	115.743	0.162	0.198
-572.690	366.095	-0.092	0.187
-571.675	-115.163	-0.257	-0.049
-570.661	-65.788	0.238	-0.096
-569.646	50.763	-0.175	0.166
-568.631	-200.000	0.005	-0.264
-567.617	264.123	-0.107	-0.187
-566.602	-36.632	0.178	-0.096
-565.588	-108.145	-0.177	0.038
-564.573	-200.000	0.040	-0.181
-563.558	153.225	-0.066	-0.091
-562.544	586.097	-0.109	0.267
-561.529	1.482	-0.306	-0.221
-560.515	-96.454	-0.209	0.055
-559.500	508.490	-0.122	-0.283
-558.485	441.176	0.029	0.064
-557.471	-85.419	-0.036	-0.011
-556.456	-200.000	0.022	0.122
-555.442	15.511	-0.130	-0.102
-554.427	231.364	-0.217	-0.356
-553.412	-98.608	0.218	0.056
-552.398	567.011	-0.125	0.303
-551.383	-83.040	0.095	-0.031
-550.369	-81.716	0.158	0.052
-549.354	-12.306	0.206	0.135
-548.339	-9.919	-0.100	0.066
-547.325	23.505	0.126	0.104
-546.310	-135.430	-0.202	0.024
-545.296	32.036	0.068	0.058
-544.281	800.000	-0.118	0.368
-543.266	80.772	0.276	-0.298
-542.252	159.158	-0.103	-0.143
-541.237	-200.000	0.013	0.323
-540.223	-200.000	-0.044	-0.272
-539.208	-200.000	0.027	0.201
-538.193	-200.000	-0.052	-0.307
-537.179	132.332	0.175	0.226
-536.164	557.576	-0.073	0.177
-535.150	-121.098	0.316	0.053
-534.135	401.499	0.078	-0.163
-533.121	-97.081	-0.171	-0.045
-532.106	-200.000	0.018	0.118
-531.091	209.539	-0.007	-0.011
-530.077	10.969	-0.065	-0.050
-529.062	-200.000	0.015	-0.330
-528.048	36.650	0.131	-0.115
-527.033	-145.829	-0.145	-0.013
-526.018	137.434	-0.163	-0.213
-525.004	-135.367	0.316	0.038
-523.989	800.000	-0.149	-0.470
-522.975	401.669	-0.079	0.166
-521.960	-23.686	-0.136	-0.082
-520.945	228.564	0.173	0.281
-519.931	658.791	0.019	0.050
-518.916	-174.346	-0.263	0.008
-517.902	79.761	0.079	-0.085
-516.887	81.772	0.231	0.250
-515.872	-54.966	-0.078	-0.035
-514.858	-2.438	0.021	-0.015
-513.843	-169.464	-0.246	0.009
-512.829	722.936	0.123	-0.327
-511.814	-200.000	-0.006	0.043
-510.799	-200.000	-0.025	-0.167
-509.785	173.899	-0.169	-0.244
-508.770	15.616	-0.239	-0.187
-507.756	42.350	-0.392	-0.356
-506.741	169.783	0.220	0.315
-505.726	-80.571	0.153	-0.051
-504.712	117.477	-0.108	0.133
-503.697	800.000	-0.032	0.137
-502.683	96.195	-0.189	-0.216
-501.668	249.073	-0.123	0.208
-500.653	800.000	-0.041	-0.135
-499.639	-200.000	0.017	0.266
-498.624	85.706	0.195	0.214
-497.610	-200.000	0.006	-0.038
-496.595	-91.209	-0.275	-0.079
-495.581	785.593	-0.129	0.354
-494.566	-150.035	0.137	-0.011
-493.551	-59.453	0.097	0.042
-492.537	-157.623	-0.217	0.013
-491.522	62.589	0.080	0.080
-490.508	77.747	0.131	-0.140
-489.493	-200.000	-0.001	0.196
-488.478	-66.081	-0.197	-0.079
-487.464	-69.940	-0.247	0.094
-486.449	800.000	0.104	-0.304
-485.435	-39.724	-0.169	-0.088
-484.420	93.844	0.060	0.068
-483.405	-121.629	0.441	-0.073
-482.391	800.000	0.053	0.212
-481.376	800.000	0.028	-0.112
-480.362	-24.230	0.231	0.138
-479.347	443.297	0.026	0.057
-478.332	116.286	0.084	0.103
-477.318	-200.000	-0.031	0.269
-476.303	-43.477	-0.203	-0.102
-475.289	-122.262	0.234	0.038
-474.274	79.525	0.053	-0.057
-473.259	-147.323	0.103	-0.009
-472.245	-156.214	-0.210	-0.013
-471.230	-94.938	-0.369	0.100
-470.216	-17.743	-0.193	-0.121
-469.201	266.804	0.163	-0.284
-468.186	800.000	-0.057	-0.224
-467.172	-68.184	-0.089	0.035
-466.157	-200.000	-0.075	-0.000
-465.143	-80.638	-0.156	-0.052
-464.128	-55.098	-0.167	0.075
-463.113	123.085	0.066	-0.083
-462.099	800.000	0.055	-0.157
-461.084	-171.120	-0.086	-0.003
-460.070	800.000	-0.019	-0.077
-459.055	-103.295	-0.042	0.010
-458.040	800.000	-0.029	0.099
-457.026	800.000	-0.055	-0.174
-456.011	35.909	0.217	0.190
-454.997	-200.000	0.007	0.166
-453.982	386.635	0.044	-0.090
-452.968	132.720	-0.090	-0.116
-451.953	64.151	0.068	0.068
-450.938	101.141	0.103	-0.119
-449.924	800.000	-0.059	-0.258
-448.909	126.857	-0.022	-0.028
-447.895	131.671	-0.153	0.196
-446.880	116.813	0.112	0.137
-445.865	-200.000	0.028	-0.193
-444.851	-140.869	-0.238	0.024
-443.836	133.884	-0.172	-0.222
-442.822	309.353	0.169	0.315
-441.807	-200.000	0.001	-0.086
-440.792	-82.295	-0.055	0.018
-439.778	-13.671	-0.102	-0.066
-438.763	-200.000	0.024	-0.130
-437.749	-200.000	0.039	0.241
-436.734	-3.946	-0.010	-0.007
-435.719	161.458	0.115	0.160
-434.705	-200.000	0.032	-0.147
-433.690	-44.176	-0.121	-0.060
-432.676	-196.753	-0.257	0.002
-431.661	-107.156	-0.091	-0.020
-430.646	160.608	0.174	-0.242
-429.632	-200.000	-0.008	0.224
-428.617	-97.851	-0.236	0.061
-427.603	123.358	-0.133	0.166
-426.588	217.149	-0.140	0.222
-425.573	-3.012	0.065	-0.045
-424.559	-113.696	0.264	-0.051
-423.544	-101.217	-0.290	0.071
-422.530	198.691	-0.105	0.160
-421.515	114.206	0.107	-0.130
-420.500	266.759	0.176	0.306
-419.486	-200.000	0.006	-0.153
-418.471	81.027	-0.152	-0.164
-417.457	-97.740	0.300	0.077
-416.442	50.320	-0.117	0.110
-415.428	129.545	-0.125	0.159
-414.413	-142.946	-0.144	0.014
-413.398	-200.000	-0.055	-0.467
-412.384	-200.000	0.016	-0.509
-411.369	14.329	-0.073	-0.056
-410.355	-165.639	-0.053	0.002
-409.340	66.225	-0.153	-0.155
-408.325	-79.495	-0.282	-0.095
-407.311	330.001	-0.039	-0.075
-406.296	-99.985	-0.142	0.035
-405.282	-101.028	-0.060	0.015
-404.267	-119.371	0.113	-0.020
-403.252	141.579	0.043	0.056
-402.238	-77.888	0.157	0.054
-401.223	245.084	0.013	-0.023
-400.209	124.043	-0.071	0.089
-399.194	60.302	0.148	-0.146
-398.179	800.000	0.029	-0.111
-397.165	-200.000	-0.007	-0.404
-396.150	716.241	0.015	0.039
-395.136	-85.743	-0.141	-0.043
-394.121	-43.209	-0.394	0.198
-393.106	-58.337	0.275	-0.119
-392.092	-1.760	-0.179	0.125
-391.077	-111.649	-0.334	0.067
-390.063	205.509	0.054	0.084
-389.048	150.614	0.112	-0.152
-388.033	46.373	0.253	0.233
-387.019	800.000	0.079	0.329
-386.004	-94.677	0.154	-0.042
-384.990	-74.413	-0.096	0.034
-383.975	800.000	-0.069	-0.211
-382.960	775.393	0.119	-0.324
-381.946	-70.935	0.155	-0.058
-380.931	-200.000	-0.011	-0.361
-379.917	183.673	-0.142	0.209
-378.902	-23.320	-0.107	0.064
-377.888	-19.850	0.427	-0.262
-376.873	-200.000	0.010	0.274
-375.858	22.831	-0.093	-0.075
-374.844	299.828	0.121	0.222
-373.829	-200.000	0.006	0.109
-372.815	-200.000	0.010	0.084
-371.800	-14.302	-0.059	0.037
-370.785	64.512	-0.100	0.100
-369.771	-153.903	0.284	-0.019
-368.756	90.133	-0.115	-0.128
-367.742	34.369	0.113	-0.098
-366.727	-200.000	-0.047	0.284
-365.712	-48.690	0.271	-0.129
-364.698	-72.902	-0.092	0.034
-363.683	-200.000	-0.034	0.183
-362.669	-128.576	0.236	0.033
-361.654	-24.074	-0.340	-0.202
-360.639	-72.024	0.401	-0.148
-359.625	-200.000	-0.030	0.270
-358.610	-45.097	-0.145	0.072
-357.596	-19.514	0.223	0.137
-356.581	-193.992	-0.376	-0.003
-355.566	294.623	-0.115	-0.209
-354.552	800.000	0.066	-0.277
-353.537	115.238	-0.156	0.189
-352.523	-54.131	-0.063	0.028
-351.508	-90.151	-0.269	0.078
-350.493	-200.000	0.004	0.255
-349.479	103.970	-0.214	0.249
-348.464	299.032	0.046	-0.084
-347.450	-200.000	-0.064	-0.362
-346.435	19.884	-0.219	-0.175
-345.420	174.291	-0.146	-0.210
-344.406	-2.735	0.260	0.180
-343.391	-200.000	0.046	0.316
-342.377	800.000	0.064	0.189
-341.362	9.326	0.272	-0.204
-340.348	-30.087	-0.156	-0.088
-339.333	800.000	0.050	-0.197
-338.318	-164.871	0.263	-0.012
-337.304	79.643	-0.119	0.127
-336.289	205.814	-0.056	-0.086
-335.275	-105.857	0.500	0.112
-334.260	-33.102	-0.233	-0.128
-333.245	-91.090	0.206	-0.059
-332.231	-22.432	-0.189	0.113
-331.216	-200.000	-0.027	0.250
-330.202	11.376	-0.177	-0.135
-329.187	341.333	0.228	-0.441
-328.172	-29.244	0.088	0.050
-327.158	-2.279	-0.167	-0.116
-326.143	75.871	0.016	-0.016
-325.129	-106.192	-0.213	0.047
-324.114	-85.300	0.192	-0.060
-323.099	-200.000	-0.062	0.351
-322.085	214.715	-0.059	-0.093
-321.070	-200.000	0.008	-0.115
-320.056	31.652	0.266	0.227
-319.041	-73.219	-0.099	-0.036
-318.026	51.913	0.130	-0.122
-317.012	-200.000	-0.003	-0.507
-315.997	17.506	0.078	-0.061
-314.983	21.262	-0.159	-0.128
-313.968	-156.525	0.474	-0.029
-312.953	800.000	0.115	-0.317
-311.939	-67.075	-0.139	0.055
-310.924	-49.023	0.312	0.148
-309.910	-135.202	-0.353	0.042
-308.895	-200.000	-0.046	0.251
-307.880	-124.901	-0.367	-0.056
-306.866	-80.084	-0.285	0.095
-305.851	3.280	0.112	0.081
-304.837	-200.000	0.012	0.053
-303.822	-41.188	-0.205	0.105
-302.807	790.425	-0.105	0.287
-301.793	-78.795	-0.077	0.026
-300.778	-31.441	0.146	-0.081
-299.764	-82.636	-0.338	-0.109
-298.749	41.171	-0.049	0.044
-297.735	-138.541	-0.224	-0.024
-296.720	-136.880	0.182	-0.021
-295.705	-133.762	0.223	0.027
-294.691	-200.000	0.020	0.251
-293.676	-134.757	-0.507	0.061
-292.662	143.517	-0.163	0.216
-291.647	106.823	0.272	-0.320
-290.632	-7.387	0.138	-0.093
-289.618	60.026	0.074	0.072
-288.603	134.610	0.158	0.203
-287.589	208.921	0.044	0.069
-286.574	-147.770	0.422	-0.035
-285.559	-200.000	-0.014	0.116
-284.545	76.855	0.098	0.103
-283.530	-200.000	0.034	0.183
-282.516	-122.842	-0.021	-0.003
-281.501	-72.519	0.299	-0.109
-280.486	-187.265	-0.270	0.004
-279.472	631.163	0.145	0.362
-278.457	-200.000	0.008	0.276
-277.443	-200.000	0.020	0.383
-276.428	17.706	0.285	0.225
-275.413	-127.545	-0.226	-0.033
-274.399	-119.465	-0.147	-0.025
-273.384	69.153	0.254	-0.258
-272.370	196.776	0.068	0.103
-271.355	232.408	0.143	0.233
-270.340	70.302	-0.212	0.217
-269.326	185.107	-0.115	-0.168
-268.311	369.788	-0.073	-0.147
-267.297	-167.194	0.170	-0.007
-266.282	-133.553	-0.154	-0.019
-265.267	-200.000	0.001	0.012
-264.253	-120.013	-0.269	0.046
-263.238	-200.000	-0.015	-0.207
-262.224	-99.785	-0.171	0.042
-261.209	-136.815	-0.206	0.023
-260.195	116.001	0.258	-0.313
-259.180	-200.000	0.008	-0.147
-258.165	-0.405	0.088	-0.062
-257.151	535.980	0.046	0.109
-256.136	800.000	-0.058	-0.223
-255.122	800.000	0.039	-0.143
-254.107	-200.000	0.033	0.196
-253.092	451.405	-0.143	-0.313
-252.078	-200.000	-0.068	-0.424
-251.063	51.288	0.125	0.117
-250.049	-76.124	0.220	-0.077
-249.034	-176.626	-0.241	0.006
-248.019	28.447	0.114	0.096
-247.005	78.661	-0.108	-0.114
-245.990	-200.000	0.012	0.184
-244.976	35.606	0.222	-0.193
-243.961	-200.000	-0.032	0.153
-242.946	800.000	0.062	0.246
-241.932	800.000	-0.066	0.189
-240.917	-147.025	-0.246	0.021
-239.903	135.617	-0.093	0.119
-238.888	-200.000	0.004	-0.027
-237.873	99.159	-0.077	0.088
-236.859	-71.576	0.171	0.063
-235.844	7.561	-0.139	0.103
-234.830	-49.097	0.124	0.059
-233.815	-35.155	0.172	-0.092
-232.800	-63.106	0.175	0.071
-231.786	-200.000	-0.001	-0.096
-230.771	128.483	-0.150	0.189
-229.757	-71.194	0.201	0.074
-228.742	-53.670	0.234	-0.105
-227.727	120.278	0.317	-0.389
-226.713	-52.362	0.183	-0.084
-225.698	800.000	-0.064	-0.239
-224.684	-44.961	-0.230	0.113
-223.669	-5.378	0.103	-0.070
-222.655	-71.977	-0.379	-0.139
-221.640	-26.292	0.347	0.201
-220.625	-200.000	-0.039	-0.287
-219.611	-200.000	-0.043	-0.265
-218.596	332.292	-0.007	0.013
-217.582	-153.687	-0.130	0.009
-216.567	-200.000	-0.033	-0.305
-215.552	178.176	-0.258	-0.372
-214.538	-65.983	0.191	-0.075
-213.523	-200.000	-0.001	0.478
-212.509	-200.000	-0.039	0.260
-211.494	-70.973	0.335	0.125
-210.479	116.992	0.215	0.260
-209.465	-200.000	-0.015	0.130
-208.450	27.170	0.108	-0.090
-207.436	375.115	-0.047	0.095
-206.421	-76.453	0.320	0.111
-205.406	-200.000	0.018	-0.131
-204.392	295.483	0.130	-0.235
-203.377	-77.441	0.197	-0.068
-202.363	175.514	0.082	0.117
-201.348	-26.736	-0.280	-0.161
-200.333	185.624	0.096	-0.140
-199.319	249.190	-0.167	-0.280
-198.304	-133.186	-0.187	0.023
-197.290	-200.000	0.026	0.367
-196.275	224.474	0.078	-0.124
-195.260	800.000	0.045	0.148
-194.246	-114.080	0.163	-0.031
-193.231	800.000	-0.108	0.339
-192.217	-51.671	0.262	-0.120
-191.202	48.665	0.268	0.247
-190.187	-200.000	0.063	0.319
-189.173	-165.493	-0.205	0.009
-188.158	-40.960	0.178	-0.091
-187.144	320.706	-0.089	-0.166
-186.129	269.313	-0.108	0.187
-185.114	90.813	0.094	0.104
-184.100	253.777	-0.073	0.123
-183.085	800.000	-0.111	-0.360
-182.071	-200.000	0.034	0.167
-181.056	-110.242	-0.021	0.004
-180.042	59.436	-0.080	0.077
-179.027	-200.000	0.064	-0.298
-178.012	266.803	-0.161	-0.278
-176.998	-200.000	-0.036	0.185
-175.983	-5.282	0.316	0.214
-174.969	50.617	-0.195	0.182
-173.954	31.979	-0.194	-0.165
-172.939	-47.631	0.313	0.150
-171.925	127.001	0.127	0.159
-170.910	183.199	-0.039	-0.056
-169.896	-81.636	0.135	0.044
-168.881	528.055	0.094	-0.219
-167.866	-200.000	-0.019	-0.229
-166.852	489.766	-0.057	-0.128
-165.837	-18.928	0.093	0.057
-164.823	-83.913	-0.201	-0.063
-163.808	-133.923	-0.139	-0.017
-162.793	368.523	0.036	-0.072
-161.779	340.833	-0.131	-0.251
-160.764	-141.072	-0.301	0.030
-159.750	450.588	0.054	-0.117
-158.735	-67.987	0.163	-0.063
-157.720	159.306	-0.202	-0.277
-156.706	-138.208	-0.061	-0.007
-155.691	157.992	-0.148	0.202
-154.677	12.325	0.038	-0.029
-153.662	-167.001	0.110	-0.004
-152.647	-54.667	0.317	0.141
-151.633	-85.107	0.193	-0.059
-150.618	139.707	0.161	0.208
-149.604	14.532	-0.144	0.111
-148.589	-200.000	-0.005	0.098
-147.574	97.328	0.060	0.067
-146.560	-200.000	-0.040	-0.463
-145.545	-103.482	-0.008	-0.002
-144.531	-200.000	-0.006	-0.212
-143.516	701.124	-0.042	0.108
-142.502	-44.079	-0.114	0.056
-141.487	-140.713	-0.020	-0.002
-140.472	-49.361	0.129	-0.061
-139.458	-35.765	-0.179	-0.095
-138.443	-26.607	0.301	0.174
-137.429	-200.000	0.002	0.157
-136.414	800.000	0.156	-0.435
-135.399	-146.171	0.265	-0.023
-134.385	461.410	0.072	0.159
-133.370	43.606	0.256	-0.231
-132.356	52.584	-0.119	0.112
-131.341	-200.000	0.001	-0.193
-130.326	-200.000	0.000	-0.115
-129.312	273.879	0.061	-0.105
-128.297	1.504	-0.131	-0.092
-127.283	-16.412	0.085	-0.053
-126.268	1.105	0.110	0.078
-125.253	-128.443	0.109	0.015
-124.239	-90.993	-0.130	-0.037
-123.224	-200.000	-0.025	0.188
-122.210	-19.524	-0.168	-0.102
