DTS Sentinel unit serial number:	SN413079Multiplexer serial number:	ORYXHardware model number:	OX4-SRSoftware version number:	ORYX F/W v4.00 Oryx Data Collector v3.7.2.0data status	okinstallation	princeton_trtdifferential loss correction	single-endedforward channel	channel 1reverse channel	N/Adate	2019/09/13time	23:46:36forward acquisition time	60.00reverse acquisition time	0.00gamma	496.2192k internal	0.2337k external	0.2337temperature offset calibration	1.0080default loss term (dB/km)	0.3790temperature slope calibration	1.0000multiplexer offset coefficient	1.0000multiplexer slope coefficient	1.0000fibre end	0.00T internal ref (°C)	26.62T ext. ref 1 (°C)	3.16T ext. ref 2 (°C)	20.93length (m)	temperature (°C)	Stokes	anti-Stokes-747.200	-51.590	-0.247	0.116
-746.185	800.000	0.038	0.169
-745.171	-200.000	0.032	-0.261
-744.156	590.276	-0.149	0.368
-743.142	48.828	-0.204	-0.192
-742.127	800.000	0.156	0.502
-741.112	-200.000	0.063	0.394
-740.098	-115.326	0.094	-0.018
-739.083	-77.812	-0.194	0.067
-738.069	25.103	-0.199	0.165
-737.054	-200.000	0.053	0.299
-736.039	-62.537	-0.513	-0.214
-735.025	-179.070	-0.259	0.006
-734.010	-43.777	-0.068	-0.034
-732.996	71.182	0.044	-0.046
-731.981	466.237	0.039	-0.089
-730.966	273.041	-0.162	-0.287
-729.952	-145.325	-0.203	-0.018
-728.937	800.000	-0.139	-0.417
-727.923	-200.000	0.006	0.072
-726.908	17.913	0.199	-0.159
-725.894	800.000	0.128	-0.480
-724.879	-86.210	-0.357	0.110
-723.864	44.262	0.327	-0.301
-722.850	235.454	0.076	0.126
-721.835	150.885	0.023	-0.031
-720.821	72.606	-0.215	-0.225
-719.806	-115.652	0.249	-0.047
-718.791	-55.484	0.196	0.088
-717.777	-127.389	-0.104	-0.015
-716.762	78.329	-0.119	0.128
-715.748	-91.751	0.088	-0.025
-714.733	-111.295	0.047	-0.010
-713.718	218.398	0.166	0.266
-712.704	31.930	-0.114	0.099
-711.689	-62.989	-0.127	-0.053
-710.675	243.727	-0.148	-0.248
-709.660	-129.686	0.539	-0.074
-708.645	-200.000	0.037	0.433
-707.631	165.171	-0.032	-0.045
-706.616	-200.000	0.006	-0.216
-705.602	-200.000	-0.020	0.290
-704.587	-91.206	0.059	0.017
-703.572	-200.000	-0.026	-0.156
-702.558	-55.901	0.306	0.137
-701.543	308.844	0.085	-0.159
-700.529	-200.000	0.021	0.142
-699.514	-196.703	0.484	-0.003
-698.499	-38.751	-0.195	0.103
-697.485	-133.384	-0.142	-0.018
-696.470	-200.000	-0.001	-0.029
-695.456	-80.103	0.238	0.080
-694.441	-200.000	0.013	0.462
-693.426	7.284	-0.363	0.271
-692.412	-71.210	0.273	-0.103
-691.397	-200.000	0.070	-0.386
-690.383	563.712	0.111	-0.268
-689.368	11.157	0.110	-0.084
-688.354	800.000	0.050	0.190
-687.339	-58.601	0.164	-0.071
-686.324	-159.768	0.305	0.017
-685.310	37.093	-0.198	0.175
-684.295	760.509	-0.143	-0.387
-683.281	2.963	-0.065	-0.047
-682.266	77.058	-0.191	-0.203
-681.251	-200.000	0.014	-0.190
-680.237	97.406	0.232	0.267
-679.222	-104.323	0.190	0.044
-678.208	-85.643	-0.560	-0.174
-677.193	-200.000	-0.001	-0.173
-676.178	-26.844	-0.146	-0.085
-675.164	-22.356	0.166	0.101
-674.149	-70.786	-0.101	-0.038
-673.135	18.553	-0.137	0.110
-672.120	111.723	-0.138	-0.167
-671.105	800.000	0.096	0.315
-670.091	43.651	-0.208	0.191
-669.076	52.359	0.108	-0.103
-668.062	-41.454	-0.075	0.039
-667.047	-64.212	0.165	0.067
-666.032	-200.000	-0.035	-0.451
-665.018	28.280	-0.061	-0.052
-664.003	-135.729	-0.184	-0.022
-662.989	-91.183	0.146	0.042
-661.974	-200.000	0.097	-0.502
-660.959	-132.944	0.270	0.034
-659.945	800.000	-0.116	-0.382
-658.930	453.729	0.076	-0.168
-657.916	-200.000	0.000	0.095
-656.901	-200.000	0.025	-0.443
-655.886	-165.853	0.153	0.007
-654.872	397.225	0.153	-0.319
-653.857	-106.435	0.214	0.048
-652.843	557.329	0.031	0.075
-651.828	-200.000	0.031	0.191
-650.814	-196.479	-0.094	0.001
-649.799	-22.865	0.099	0.060
-648.784	800.000	-0.016	0.070
-647.770	0.609	-0.313	-0.224
-646.755	-9.854	-0.241	0.160
-645.741	-88.943	-0.091	-0.027
-644.726	164.362	0.039	0.056
-643.711	-200.000	-0.004	0.159
-642.697	786.755	0.020	0.056
-641.682	-141.698	-0.150	-0.015
-640.668	-62.876	-0.089	0.037
-639.653	279.316	0.067	0.119
-638.638	-200.000	-0.014	0.174
-637.624	-41.134	0.111	0.057
-636.609	348.668	0.114	-0.225
-635.595	800.000	-0.086	-0.378
-634.580	800.000	0.078	-0.323
-633.565	-200.000	-0.002	-0.232
-632.551	-200.000	-0.038	-0.172
-631.536	-93.392	-0.158	0.044
-630.522	-168.999	-0.162	-0.006
-629.507	-20.918	-0.264	-0.162
-628.492	-200.000	0.010	0.077
-627.478	-82.500	-0.266	0.086
-626.463	800.000	-0.066	0.216
-625.449	-32.561	-0.059	-0.033
-624.434	800.000	-0.042	-0.118
-623.419	-31.967	-0.296	0.166
-622.405	-69.457	0.240	0.092
-621.390	6.323	-0.272	0.202
-620.376	-119.515	0.106	0.018
-619.361	-44.633	0.240	0.120
-618.346	37.559	0.084	0.074
-617.332	234.980	-0.106	-0.175
-616.317	-54.449	0.055	-0.025
-615.303	15.331	-0.026	-0.020
-614.288	-33.495	-0.285	-0.158
-613.273	27.203	0.173	0.145
-612.259	601.205	0.193	-0.479
-611.244	377.841	0.114	-0.234
-610.230	793.434	-0.143	0.394
-609.215	-24.005	0.294	0.176
-608.201	251.907	0.131	-0.222
-607.186	-69.722	0.510	0.195
-606.171	64.267	0.242	0.243
-605.157	-50.034	-0.361	-0.171
-604.142	384.501	-0.163	-0.335
-603.128	800.000	0.069	-0.226
-602.113	-144.032	0.236	0.022
-601.098	-95.672	0.408	0.109
-600.084	-125.626	-0.272	0.041
-599.069	160.845	0.176	-0.245
-598.055	133.333	-0.154	-0.199
-597.040	422.906	-0.147	0.315
-596.025	161.329	-0.070	-0.097
-595.011	-182.093	-0.076	-0.001
-593.996	-80.439	0.246	-0.082
-592.982	202.114	0.133	-0.204
-591.967	-112.616	-0.189	-0.038
-590.952	123.097	-0.195	-0.244
-589.938	361.884	-0.069	-0.138
-588.923	-77.396	0.263	0.091
-587.909	-150.824	-0.275	0.021
-586.894	18.560	0.128	-0.103
-585.879	-139.837	0.238	-0.025
-584.865	-200.000	-0.033	0.168
-583.850	-136.628	-0.233	-0.027
-582.836	800.000	-0.040	0.116
-581.821	13.319	0.106	0.082
-580.806	-94.811	-0.189	-0.051
-579.792	196.175	0.081	0.122
-578.777	41.627	0.148	0.134
-577.763	-200.000	-0.035	0.171
-576.748	-157.605	0.136	-0.008
-575.733	-24.008	0.059	0.035
-574.719	47.239	-0.173	0.160
-573.704	-53.949	-0.227	-0.103
-572.690	-137.053	-0.059	-0.007
-571.675	800.000	0.154	-0.577
-570.661	-200.000	0.012	0.288
-569.646	-188.032	-0.124	-0.002
-568.631	800.000	-0.073	0.228
-567.617	-200.000	0.004	0.161
-566.602	-72.624	-0.240	-0.088
-565.588	24.885	-0.408	0.337
-564.573	105.242	0.102	0.120
-563.558	-200.000	-0.127	0.000
-562.544	-33.660	0.196	0.108
-561.529	-78.326	-0.061	-0.021
-560.515	115.071	-0.110	0.134
-559.500	149.585	0.200	0.270
-558.485	800.000	0.078	-0.259
-557.471	800.000	0.029	0.125
-556.456	-200.000	-0.004	0.257
-555.442	-96.852	0.310	-0.081
-554.427	800.000	0.022	0.093
-553.412	800.000	-0.047	-0.203
-552.398	-200.000	0.000	-0.119
-551.383	30.829	-0.113	0.096
-550.369	124.532	-0.090	-0.112
-549.354	-200.000	-0.052	-0.241
-548.339	800.000	-0.048	0.206
-547.325	-138.664	-0.207	0.023
-546.310	-24.323	-0.453	-0.269
-545.296	292.327	0.035	0.064
-544.281	-57.277	-0.399	0.175
-543.266	800.000	0.042	0.169
-542.252	-119.313	-0.311	0.054
-541.237	70.072	0.292	-0.300
-540.223	-157.028	0.277	-0.017
-539.208	77.987	0.109	0.116
-538.193	75.188	-0.128	0.134
-537.179	80.693	-0.091	-0.098
-536.164	-102.926	0.223	-0.053
-535.150	18.395	0.169	0.134
-534.135	359.554	-0.124	-0.247
-533.121	-155.005	0.512	-0.034
-532.106	-58.976	0.080	-0.034
-531.091	-131.691	-0.030	-0.004
-530.077	5.050	0.192	-0.141
-529.062	-200.000	-0.010	0.146
-528.048	-138.569	0.242	0.026
-527.033	-200.000	-0.002	0.111
-526.018	-108.841	-0.148	-0.031
-525.004	-182.003	0.294	0.006
-523.989	22.793	0.158	-0.129
-522.975	-200.000	0.023	-0.120
-521.960	-125.600	-0.211	-0.032
-520.945	-131.968	0.122	-0.016
-519.931	800.000	-0.056	0.240
-518.916	-125.049	0.079	-0.012
-517.902	689.856	-0.088	-0.228
-516.887	800.000	0.104	-0.420
-515.872	-200.000	0.020	0.176
-514.858	109.118	-0.135	0.161
-513.843	156.774	-0.063	0.087
-512.829	-200.000	-0.007	0.248
-511.814	-164.479	0.253	0.011
-510.799	-192.608	-0.383	-0.004
-509.785	-112.571	0.050	0.010
-508.770	-200.000	0.004	-0.137
-507.756	-200.000	-0.018	0.082
-506.741	800.000	0.097	0.297
-505.726	18.171	0.228	0.181
-504.712	-158.305	-0.309	-0.018
-503.697	800.000	-0.039	-0.161
-502.683	-200.000	0.026	-0.207
-501.668	800.000	-0.152	-0.450
-500.653	-200.000	-0.014	0.125
-499.639	236.223	0.093	-0.154
-498.624	386.549	-0.046	-0.095
-497.610	-200.000	0.040	-0.208
-496.595	800.000	0.069	-0.268
-495.581	59.350	-0.080	0.078
-494.566	129.567	-0.142	-0.180
-493.551	194.831	-0.027	-0.041
-492.537	-152.391	0.237	0.017
-491.522	62.326	0.181	0.180
-490.508	-74.451	0.076	-0.027
-489.493	35.110	-0.131	-0.114
-488.478	330.930	0.086	0.164
-487.464	255.879	0.168	0.286
-486.449	26.857	0.070	0.059
-485.435	-200.000	0.011	-0.089
-484.420	-42.730	0.286	0.145
-483.405	800.000	-0.081	0.303
-482.391	-58.611	0.335	0.144
-481.376	49.369	0.034	-0.032
-480.362	48.917	0.272	0.254
-479.347	-200.000	0.046	0.510
-478.332	-200.000	0.000	-0.135
-477.318	125.095	0.107	-0.133
-476.303	-200.000	-0.020	-0.345
-475.289	216.602	0.112	0.178
-474.274	800.000	0.026	-0.111
-473.259	-200.000	-0.026	-0.292
-472.245	800.000	-0.126	-0.493
-471.230	100.782	-0.134	-0.154
-470.216	-122.373	-0.179	-0.029
-469.201	-49.555	-0.112	0.053
-468.186	800.000	-0.120	0.460
-467.172	-200.000	0.560	0.002
-466.157	-200.000	0.024	-0.148
-465.143	-200.000	-0.021	-0.181
-464.128	77.852	-0.040	0.042
-463.113	-19.383	-0.022	0.014
-462.099	236.956	0.177	-0.291
-461.084	-76.293	-0.323	-0.113
-460.070	-90.280	-0.363	0.105
-459.055	189.759	-0.137	-0.204
-458.040	184.215	0.220	-0.324
-457.026	-27.617	-0.072	-0.041
-456.011	-51.945	0.174	-0.080
-454.997	-93.626	0.215	0.059
-453.982	-175.995	-0.213	-0.006
-452.968	750.628	-0.174	0.466
-451.953	-74.360	0.291	0.104
-450.938	-12.011	-0.120	-0.078
-449.924	30.765	0.177	0.150
-448.909	-180.209	-0.180	0.004
-447.895	33.428	-0.124	0.107
-446.880	-130.335	0.109	0.015
-445.865	-58.389	-0.416	0.179
-444.851	221.964	0.111	0.178
-443.836	-67.643	-0.149	0.058
-442.822	-200.000	-0.025	-0.324
-441.807	656.966	-0.131	0.334
-440.792	-70.675	-0.157	0.059
-439.778	-200.000	-0.007	0.037
-438.763	800.000	0.041	-0.124
-437.749	406.971	0.030	0.063
-436.734	800.000	0.054	0.202
-435.719	-37.638	0.148	0.078
-434.705	-113.217	-0.330	0.064
-433.690	-155.141	0.493	0.032
-432.676	36.887	0.341	-0.299
-431.661	296.316	-0.123	0.224
-430.646	-5.871	-0.099	-0.067
-429.632	528.019	0.168	0.394
-428.617	-20.635	0.144	-0.088
-427.603	-200.000	0.056	-0.319
-426.588	-200.000	-0.012	-0.114
-425.573	800.000	0.026	0.077
-424.559	-91.810	0.252	-0.071
-423.544	-108.826	0.173	-0.037
-422.530	5.837	0.120	-0.088
-421.515	320.705	-0.127	0.239
-420.500	-112.454	-0.162	0.032
-419.486	132.850	0.111	-0.142
-418.471	290.952	0.104	-0.187
-417.457	-99.651	-0.098	0.024
-416.442	44.086	0.116	0.105
-415.428	8.446	-0.255	-0.190
-414.413	-5.376	0.200	-0.136
-413.398	320.791	-0.061	0.114
-412.384	61.573	0.067	0.066
-411.369	-85.100	-0.231	0.072
-410.355	-111.023	-0.085	-0.017
-409.340	58.504	0.233	0.227
-408.325	495.075	-0.101	-0.230
-407.311	-69.621	-0.160	0.061
-406.296	80.114	-0.167	0.178
-405.282	481.200	-0.149	-0.335
-404.267	-25.299	-0.083	0.049
-403.252	21.852	-0.222	-0.179
-402.238	127.406	-0.145	0.182
-401.223	-200.000	-0.029	0.168
-400.209	230.526	0.219	-0.355
-399.194	-55.147	0.205	-0.091
-398.179	-18.017	-0.126	0.078
-397.165	800.000	-0.031	0.111
-396.150	-151.198	-0.525	0.039
-395.136	-13.013	0.110	-0.071
-394.121	1.344	0.146	-0.104
-393.106	320.186	-0.158	-0.296
-392.092	-200.000	0.055	0.577
-391.077	-18.287	0.080	0.050
-390.063	106.495	-0.246	0.288
-389.048	-200.000	-0.012	0.103
-388.033	280.103	-0.106	0.187
-387.019	-147.110	-0.565	0.048
-386.004	53.644	0.244	-0.232
-384.990	-113.716	-0.480	0.093
-383.975	800.000	0.092	-0.266
-382.960	507.197	0.031	-0.072
-381.946	206.348	0.279	-0.429
-380.931	-108.632	0.207	0.044
-379.917	-5.469	0.280	0.190
-378.902	-46.221	-0.307	0.150
-377.888	202.705	0.124	-0.189
-376.873	-125.090	0.051	-0.008
-375.858	-46.535	-0.105	0.051
-374.844	165.269	-0.090	-0.125
-373.829	-32.451	0.222	-0.122
-372.815	104.760	0.239	0.279
-371.800	-43.617	-0.162	-0.081
-370.785	559.143	-0.070	0.166
-369.771	-200.000	-0.030	-0.235
-368.756	800.000	-0.020	-0.064
-367.742	97.110	-0.033	0.037
-366.727	605.022	-0.047	-0.115
-365.712	-200.000	-0.021	0.128
-364.698	-95.866	-0.160	0.042
-363.683	-180.618	-0.214	0.004
-362.669	396.532	-0.130	-0.269
-361.654	118.504	-0.090	-0.110
-360.639	-82.990	0.129	0.041
-359.625	800.000	0.073	-0.315
-358.610	-22.049	-0.149	0.090
-357.596	-200.000	0.074	-0.374
-356.581	-60.096	-0.258	-0.109
-355.566	-196.567	-0.164	0.001
-354.552	-200.000	0.008	-0.204
-353.537	-90.420	-0.038	0.011
-352.523	448.269	0.133	-0.289
-351.508	226.794	0.156	-0.250
-350.493	24.626	-0.109	0.089
-349.479	159.408	-0.048	-0.065
-348.464	-200.000	-0.125	0.000
-347.450	-133.120	-0.166	-0.021
-346.435	-158.825	0.172	0.010
-345.420	30.254	0.145	-0.122
-344.406	333.423	-0.099	-0.189
-343.391	-200.000	0.027	0.000
-342.377	83.783	0.337	0.363
-341.362	189.325	-0.103	0.152
-340.348	-25.203	-0.141	0.083
-339.333	-15.583	-0.190	0.120
-338.318	800.000	-0.047	-0.181
-337.304	-200.000	0.033	0.420
-336.289	118.664	0.239	0.292
-335.275	201.016	0.097	-0.147
-334.260	-12.510	0.055	0.036
-333.245	157.411	0.087	0.119
-332.231	-58.893	0.136	-0.058
-331.216	-142.241	0.054	0.005
-330.202	-200.000	0.019	0.176
-329.187	-200.000	0.051	0.327
-328.172	800.000	0.028	-0.090
-327.158	-172.237	-0.322	-0.010
-326.143	-96.149	-0.193	0.051
-325.129	-200.000	-0.052	-0.263
-324.114	800.000	0.044	0.178
-323.099	-200.000	-0.008	-0.041
-322.085	-200.000	-0.091	0.480
-321.070	800.000	0.125	-0.371
-320.056	-59.580	-0.361	-0.153
-319.041	-114.595	0.242	0.046
-318.026	-22.373	-0.079	0.048
-317.012	-200.000	0.065	0.309
-315.997	-200.000	0.065	-0.560
-314.983	82.794	0.042	0.045
-313.968	-51.137	0.199	0.092
-312.953	-66.531	-0.094	0.037
-311.939	800.000	0.163	-0.566
-310.924	23.232	0.103	0.083
-309.910	-200.000	-0.007	0.194
-308.895	380.034	-0.140	-0.284
-307.880	76.747	0.158	-0.165
-306.866	-124.469	0.252	0.039
-305.851	77.754	0.115	0.121
-304.837	800.000	0.046	-0.144
-303.822	-200.000	0.057	0.285
-302.807	392.312	-0.023	-0.047
-301.793	210.263	-0.041	0.064
-300.778	-135.807	-0.233	0.027
-299.764	-71.255	-0.087	-0.032
-298.749	-140.097	0.015	-0.002
-297.735	0.832	0.251	-0.178
-296.720	-11.498	0.278	-0.180
-295.705	-57.298	-0.287	-0.125
-294.691	32.659	-0.009	-0.008
-293.676	-9.820	-0.098	-0.064
-292.662	263.458	0.033	-0.057
-291.647	800.000	0.122	-0.356
-290.632	290.786	0.085	0.153
-289.618	58.010	-0.083	0.080
-288.603	295.478	0.088	-0.158
-287.589	-115.681	0.121	0.022
-286.574	37.940	0.185	-0.162
-285.559	-58.250	-0.283	-0.122
-284.545	800.000	0.045	0.153
-283.530	-148.965	-0.319	-0.025
-282.516	91.867	-0.220	-0.244
-281.501	-116.605	-0.123	-0.022
-280.486	-45.071	0.228	-0.112
-279.472	-200.000	-0.084	0.388
-278.457	-98.087	0.059	-0.015
-277.443	-84.944	-0.253	0.078
-276.428	77.586	-0.255	0.268
-275.413	-72.938	0.508	-0.184
-274.399	-200.000	-0.106	0.511
-273.384	66.497	0.091	-0.091
-272.370	-15.459	0.254	0.160
-271.355	210.308	-0.064	0.100
-270.340	247.165	-0.014	0.024
-269.326	429.816	-0.191	0.407
-268.311	-70.186	-0.287	0.107
-267.297	-200.000	-0.002	-0.047
-266.282	126.142	0.219	-0.273
-265.267	-200.000	-0.021	-0.177
-264.253	62.739	0.145	0.143
-263.238	64.909	-0.021	-0.021
-262.224	149.393	0.109	-0.145
-261.209	-5.049	0.341	-0.231
-260.195	-150.833	0.180	-0.013
-259.180	-84.818	-0.435	-0.135
-258.165	-67.039	0.187	0.072
-257.151	-59.457	-0.301	-0.127
-256.136	-29.654	0.075	0.042
-255.122	109.841	0.200	0.236
-254.107	361.538	0.121	-0.238
-253.092	-103.439	0.193	0.045
-252.078	-8.001	0.196	0.130
-251.063	-200.000	0.018	0.284
-250.049	-200.000	0.050	-0.326
-249.034	-114.740	0.368	-0.069
-248.019	800.000	0.010	-0.037
-247.005	-184.657	-0.209	0.003
-245.990	800.000	0.045	-0.155
-244.976	22.367	0.232	-0.186
-243.961	-102.032	-0.373	-0.089
-242.946	296.809	-0.088	0.159
-241.932	-154.638	0.137	-0.009
-240.917	22.784	-0.075	0.061
-239.903	-137.889	-0.039	-0.004
-238.888	-200.000	0.020	-0.348
-237.873	-82.773	0.333	0.106
-236.859	-151.776	-0.129	-0.009
-235.844	-3.000	-0.396	0.272
-234.830	314.811	-0.100	0.185
-233.815	-200.000	-0.002	-0.135
-232.800	4.467	0.236	0.170
-231.786	-200.000	-0.028	0.255
-230.771	800.000	0.056	0.157
-229.757	-53.674	-0.218	0.098
-228.742	120.403	-0.206	-0.252
-227.727	-200.000	0.011	-0.109
-226.713	588.903	0.170	-0.411
-225.698	253.124	0.135	-0.227
-224.684	96.167	-0.060	0.068
-223.669	800.000	-0.078	0.326
-222.655	415.523	-0.047	-0.099
-221.640	-70.449	-0.134	-0.050
-220.625	122.698	0.276	-0.339
-219.611	-129.620	-0.093	0.013
-218.596	800.000	-0.095	-0.373
-217.582	7.886	-0.118	0.087
-216.567	-164.714	-0.207	-0.009
-215.552	364.417	0.041	0.081
-214.538	-200.000	-0.193	0.001
-213.523	33.208	-0.104	0.089
-212.509	60.287	0.067	0.065
-211.494	-10.671	-0.238	0.155
-210.479	-15.286	0.190	0.120
-209.465	-138.040	0.085	0.009
-208.450	175.271	-0.193	-0.275
-207.436	653.026	0.066	0.166
-206.421	-16.952	-0.262	0.163
-205.406	-192.423	-0.171	-0.002
-204.392	800.000	0.085	-0.362
-203.377	180.817	-0.174	0.252
-202.363	800.000	-0.019	0.072
-201.348	339.346	-0.116	-0.222
-200.333	-200.000	0.012	0.148
-199.319	107.512	0.067	-0.079
-198.304	-125.481	0.434	0.065
-197.290	-200.000	0.032	0.398
-196.275	-81.349	-0.165	-0.053
-195.260	-200.000	-0.021	-0.114
-194.246	800.000	0.081	0.290
-193.231	-47.708	0.052	-0.025
-192.217	73.584	-0.132	0.135
-191.202	88.737	-0.043	0.047
-190.187	-74.046	0.170	0.061
-189.173	187.114	-0.127	0.185
-188.158	-111.342	0.306	0.061
-187.144	800.000	-0.023	-0.076
-186.129	131.093	0.121	0.153
-185.114	26.074	0.163	0.134
-184.100	-56.469	-0.389	0.170
-183.085	72.314	0.172	-0.176
-182.071	239.281	0.190	-0.310
-181.056	565.523	0.174	0.413
-180.042	-143.256	0.380	0.036
-179.027	800.000	0.042	-0.168
-178.012	-22.990	0.280	0.166
-176.998	-200.000	0.014	-0.140
-175.983	367.726	0.048	-0.095
-174.969	-200.000	0.081	0.435
-173.954	337.915	-0.174	0.332
-172.939	29.130	-0.099	0.082
-171.925	770.562	0.032	0.086
-170.910	131.127	0.043	0.054
-169.896	26.022	0.215	0.176
-168.881	71.708	0.214	-0.218
-167.866	145.461	-0.108	0.142
-166.852	800.000	-0.050	0.175
-165.837	800.000	-0.016	0.066
-164.823	214.511	-0.053	-0.083
-163.808	38.494	0.317	-0.277
-162.793	-72.613	-0.180	-0.065
-161.779	-138.966	0.101	0.011
-160.764	-200.000	0.021	-0.203
-159.750	800.000	0.018	0.075
-158.735	184.182	-0.128	0.186
-157.720	277.856	0.091	0.160
-156.706	700.420	0.153	-0.396
-155.691	22.927	0.058	-0.046
-154.677	-200.000	0.045	0.320
-153.662	11.029	-0.367	0.275
-152.647	-47.928	-0.181	0.086
-151.633	-159.814	-0.129	-0.007
-150.618	46.379	0.281	0.256
-149.604	-128.031	0.240	0.034
-148.589	-200.000	0.002	-0.163
-147.574	800.000	0.060	-0.181
-146.560	-7.665	0.161	0.107
-145.545	65.305	0.361	-0.358
-144.531	159.480	0.168	0.229
-143.516	-200.000	0.021	0.198
-142.502	-28.672	0.097	-0.055
-141.487	-200.000	0.043	-0.503
-140.472	106.426	0.165	-0.191
-139.458	28.333	0.081	0.067
-138.443	800.000	-0.074	-0.274
-137.429	800.000	0.030	0.087
-136.414	-110.737	0.152	0.031
-135.399	240.150	-0.120	-0.197
-134.385	101.583	0.143	-0.163
-133.370	222.111	0.227	0.358
-132.356	741.330	-0.037	0.098
-131.341	116.903	0.064	-0.077
-130.326	-10.993	0.182	-0.118
-129.312	-40.406	0.271	-0.138
-128.297	-5.525	0.049	-0.033
-127.283	9.644	-0.267	0.198
-126.268	-200.000	-0.015	0.315
-125.253	800.000	0.073	0.198
-124.239	565.198	-0.039	-0.093
-123.224	-138.711	0.169	-0.018
-122.210	-79.233	-0.247	-0.082
-121.195	-44.809	-0.275	-0.134
