DTS Sentinel unit serial number:	SN413079Multiplexer serial number:	ORYXHardware model number:	OX4-SRSoftware version number:	ORYX F/W v4.00 Oryx Data Collector v3.7.2.0data status	okinstallation	princeton_trtdifferential loss correction	single-endedforward channel	channel 1reverse channel	N/Adate	2019/09/13time	14:42:35forward acquisition time	60.00reverse acquisition time	0.00gamma	496.2192k internal	0.2300k external	0.2300temperature offset calibration	1.0161default loss term (dB/km)	0.3790temperature slope calibration	1.0000multiplexer offset coefficient	1.0000multiplexer slope coefficient	1.0000fibre end	0.00T internal ref (°C)	35.44T ext. ref 1 (°C)	4.67T ext. ref 2 (°C)	32.43length (m)	temperature (°C)	Stokes	anti-Stokes-747.200	800.000	-0.110	-0.405
-746.185	338.485	-0.075	0.149
-745.171	-32.820	-0.356	0.202
-744.156	-142.386	-0.280	0.028
-743.142	310.461	-0.042	0.080
-742.127	800.000	0.098	0.357
-741.112	-200.000	-0.195	-0.000
-740.098	361.223	-0.054	-0.110
-739.083	-200.000	-0.019	-0.444
-738.069	-29.127	0.249	-0.146
-737.054	195.224	0.140	-0.216
-736.039	106.659	-0.307	-0.371
-735.025	-200.000	-0.028	-0.201
-734.010	-41.957	-0.215	-0.112
-732.996	-200.000	-0.039	-0.285
-731.981	-116.968	0.201	-0.038
-730.966	237.636	-0.073	0.123
-729.952	659.098	-0.100	-0.261
-728.937	-100.206	0.339	-0.086
-727.923	41.065	-0.126	-0.116
-726.908	231.570	-0.205	-0.342
-725.894	-63.721	-0.167	-0.070
-724.879	33.928	0.145	-0.129
-723.864	-133.743	-0.235	-0.030
-722.850	399.919	-0.111	-0.237
-721.835	-69.085	-0.328	-0.129
-720.821	7.135	-0.447	-0.340
-719.806	434.971	-0.108	-0.238
-718.791	-68.678	-0.104	-0.041
-717.777	92.319	0.274	0.314
-716.762	800.000	0.046	-0.149
-715.748	-143.868	-0.121	0.012
-714.733	48.684	-0.201	-0.192
-713.718	-200.000	0.053	-0.404
-712.704	-200.000	-0.011	-0.146
-711.689	-97.440	-0.076	0.020
-710.675	-200.000	0.002	0.276
-709.660	-200.000	0.027	-0.318
-708.645	-200.000	0.015	-0.151
-707.631	-200.000	0.187	0.000
-706.616	-129.309	-0.129	-0.018
-705.602	113.712	-0.064	-0.080
-704.587	-92.701	0.187	0.053
-703.572	-77.405	-0.229	-0.081
-702.558	-91.938	-0.211	-0.061
-701.543	520.456	0.040	0.095
-700.529	800.000	-0.031	0.098
-699.514	42.060	-0.010	-0.010
-698.499	668.176	-0.061	-0.161
-697.485	-46.531	-0.083	-0.041
-696.470	440.157	0.056	0.126
-695.456	-200.000	-0.006	-0.051
-694.441	279.808	-0.044	-0.081
-693.426	91.963	-0.126	0.144
-692.412	-31.797	-0.041	0.023
-691.397	168.749	0.203	0.294
-690.383	-87.974	-0.347	0.106
-689.368	296.928	0.129	-0.242
-688.354	238.727	-0.055	0.092
-687.339	-200.000	0.019	-0.181
-686.324	-200.000	0.003	-0.169
-685.310	-107.986	0.079	-0.017
-684.295	-40.778	0.195	0.103
-683.281	-200.000	0.007	0.049
-682.266	142.165	0.020	0.027
-681.251	-99.239	0.155	-0.040
-680.237	800.000	-0.098	-0.326
-679.222	-112.148	-0.343	-0.070
-678.208	33.227	0.363	-0.320
-677.193	-95.282	-0.263	-0.072
-676.178	-181.847	-0.062	-0.001
-675.164	-160.220	0.104	-0.006
-674.149	609.208	0.082	-0.209
-673.135	104.446	0.166	-0.199
-672.120	-36.214	0.250	-0.137
-671.105	-124.972	0.116	0.018
-670.091	471.603	0.064	-0.146
-669.076	593.372	0.090	-0.225
-668.062	-200.000	0.004	-0.154
-667.047	800.000	-0.034	0.115
-666.032	-105.247	0.211	0.049
-665.018	519.803	-0.134	-0.320
-664.003	-200.000	-0.025	-0.266
-662.989	-200.000	-0.034	0.253
-661.974	49.426	0.144	-0.138
-660.959	-113.985	0.406	0.080
-659.945	-29.440	-0.236	-0.137
-658.930	-200.000	0.002	-0.278
-657.916	52.220	-0.095	0.092
-656.901	9.165	0.131	0.101
-655.886	-69.138	0.167	0.065
-654.872	18.953	0.180	0.147
-653.857	-99.553	-0.197	-0.050
-652.843	-42.131	-0.196	0.102
-651.828	2.500	0.113	0.083
-650.814	-144.706	-0.422	0.039
-649.799	-128.102	-0.371	-0.054
-648.784	16.749	0.074	-0.059
-647.770	150.069	0.078	-0.108
-646.755	611.967	-0.018	-0.044
-645.741	-155.630	-0.496	0.032
-644.726	-12.182	-0.199	0.132
-643.711	-38.388	0.410	-0.221
-642.697	-200.000	0.002	-0.371
-641.682	372.339	-0.079	0.162
-640.668	-19.423	-0.117	0.074
-639.653	42.518	-0.228	-0.211
-638.638	346.083	0.173	-0.345
-637.624	-200.000	-0.030	-0.220
-636.609	201.205	-0.139	-0.218
-635.595	68.620	0.091	0.095
-634.580	213.873	-0.028	-0.044
-633.565	153.517	0.077	0.107
-632.551	-6.384	0.192	0.133
-631.536	800.000	0.067	0.253
-630.522	-36.005	-0.354	-0.195
-629.507	800.000	-0.024	0.104
-628.492	-65.318	-0.360	-0.147
-627.478	9.421	-0.051	-0.039
-626.463	-55.975	0.158	0.071
-625.449	-115.248	-0.194	0.037
-624.434	-7.307	-0.323	-0.222
-623.419	-200.000	-0.097	0.553
-622.405	362.394	0.134	-0.272
-621.390	-184.250	0.026	0.000
-620.376	22.534	-0.284	0.236
-619.361	13.210	-0.279	-0.219
-618.346	-44.018	0.133	0.068
-617.332	91.737	-0.250	-0.285
-616.317	-121.361	0.034	0.006
-615.303	74.120	-0.096	0.102
-614.288	134.354	-0.057	0.075
-613.273	367.920	0.155	0.318
-612.259	-200.000	-0.022	0.179
-611.244	-78.833	0.295	0.102
-610.230	55.126	-0.230	-0.225
-609.215	340.144	-0.089	0.177
-608.201	-200.000	0.018	-0.194
-607.186	-200.000	-0.025	-0.123
-606.171	634.078	0.068	0.176
-605.157	-200.000	0.027	0.153
-604.142	87.920	0.153	0.172
-603.128	-26.279	-0.063	-0.038
-602.113	649.531	0.135	-0.351
-601.098	430.430	0.069	-0.151
-600.084	-33.048	0.092	-0.051
-599.069	-23.811	0.137	-0.083
-598.055	330.516	-0.136	-0.266
-597.040	-154.963	-0.202	0.014
-596.025	-14.715	0.207	-0.135
-595.011	-5.086	0.301	0.210
-593.996	-34.620	-0.237	0.132
-592.982	168.945	-0.176	-0.254
-591.967	-182.241	0.107	-0.002
-590.952	-200.000	0.010	-0.153
-589.938	-200.000	0.014	0.125
-588.923	-44.499	-0.298	0.151
-587.909	-200.000	0.064	0.386
-586.894	-200.000	-0.015	-0.513
-585.879	-200.000	-0.020	0.162
-584.865	-1.060	-0.198	0.142
-583.850	576.450	-0.086	0.214
-582.836	145.139	0.061	0.082
-581.821	-99.756	0.061	-0.015
-580.806	800.000	0.112	0.364
-579.792	-86.059	-0.301	0.094
-578.777	-68.260	-0.294	0.116
-577.763	-34.197	0.118	-0.066
-576.748	-200.000	0.038	-0.253
-575.733	44.516	0.214	-0.199
-574.719	51.087	-0.049	0.047
-573.704	83.672	-0.098	0.109
-572.690	-70.086	-0.059	-0.023
-571.675	-71.015	0.207	-0.079
-570.661	-101.480	0.274	0.068
-569.646	-74.607	-0.116	0.042
-568.631	-200.000	-0.000	-0.329
-567.617	-119.575	0.260	0.046
-566.602	-200.000	-0.008	0.068
-565.588	-200.000	0.037	0.212
-564.573	555.084	0.237	-0.578
-563.558	511.769	0.067	0.159
-562.544	-96.606	0.065	0.017
-561.529	-106.761	0.129	0.029
-560.515	-34.676	-0.509	-0.282
-559.500	-200.000	0.022	-0.146
-558.485	-200.000	0.032	-0.266
-557.471	12.441	0.220	0.172
-556.456	-34.253	-0.087	-0.048
-555.442	-107.353	-0.263	0.058
-554.427	127.246	-0.068	0.087
-553.412	73.193	0.107	0.114
-552.398	412.729	0.124	-0.267
-551.383	86.572	0.155	-0.173
-550.369	434.756	-0.104	-0.230
-549.354	-200.000	0.024	0.169
-548.339	259.949	-0.131	0.229
-547.325	-200.000	-0.009	0.281
-546.310	-30.899	-0.296	0.169
-545.296	800.000	0.031	0.123
-544.281	-200.000	0.024	0.206
-543.266	275.315	-0.069	0.125
-542.252	440.457	-0.120	-0.265
-541.237	-105.880	-0.246	-0.056
-540.223	800.000	-0.055	0.195
-539.208	-128.186	-0.127	-0.018
-538.193	-113.926	0.290	-0.057
-537.179	-74.960	0.244	-0.088
-536.164	-200.000	-0.053	0.249
-535.150	-161.955	-0.242	0.012
-534.135	-80.772	-0.092	0.031
-533.121	-200.000	0.029	0.144
-532.106	-97.157	-0.280	-0.074
-531.091	-68.115	0.204	-0.080
-530.077	407.911	0.124	0.265
-529.062	-17.517	-0.237	0.151
-528.048	-176.785	-0.219	0.006
-527.033	-132.432	-0.124	0.016
-526.018	348.574	0.044	0.087
-525.004	-80.197	-0.061	0.021
-523.989	502.473	0.159	-0.372
-522.975	98.336	0.130	0.151
-521.960	800.000	0.023	0.093
-520.945	106.051	0.073	0.087
-519.931	-105.728	-0.124	-0.028
-518.916	176.777	-0.164	0.241
-517.902	-99.371	0.436	0.111
-516.887	-51.801	0.157	-0.074
-515.872	41.721	-0.033	0.030
-514.858	107.906	0.101	0.121
-513.843	-117.327	0.084	-0.015
-512.829	-200.000	-0.027	-0.228
-511.814	-83.002	0.290	0.094
-510.799	-84.110	-0.338	0.108
-509.785	583.549	-0.058	0.144
-508.770	571.036	-0.106	-0.260
-507.756	-45.481	0.060	0.030
-506.741	-200.000	-0.015	-0.118
-505.726	800.000	0.022	-0.089
-504.712	721.615	0.070	0.188
-503.697	-178.453	0.189	0.004
-502.683	800.000	-0.032	0.112
-501.668	733.999	-0.087	0.234
-500.653	509.526	-0.156	0.366
-499.639	111.322	-0.142	-0.173
-498.624	338.923	0.090	0.178
-497.610	137.953	0.127	-0.168
-496.595	-39.767	0.197	-0.104
-495.581	800.000	0.041	0.149
-494.566	-39.694	-0.161	-0.085
-493.551	-104.173	0.241	-0.056
-492.537	800.000	0.048	0.167
-491.522	-186.710	0.239	0.003
-490.508	88.877	0.109	0.122
-489.493	-136.461	-0.496	0.058
-488.478	-200.000	0.004	0.052
-487.464	120.807	0.113	0.141
-486.449	3.570	0.213	-0.156
-485.435	-200.000	0.005	-0.362
-484.420	-200.000	-0.018	0.105
-483.405	-200.000	0.020	0.192
-482.391	-14.364	-0.163	0.106
-481.376	16.377	-0.286	-0.228
-480.362	-200.000	-0.046	-0.286
-479.347	9.984	0.222	0.170
-478.332	162.749	-0.078	0.111
-477.318	-200.000	0.042	0.341
-476.303	-87.252	-0.100	-0.031
-475.289	-112.995	0.291	0.058
-474.274	-37.790	-0.227	0.122
-473.259	67.822	0.064	0.066
-472.245	800.000	-0.054	0.213
-471.230	544.892	0.218	0.526
-470.216	177.024	0.088	0.129
-469.201	-115.847	0.137	0.026
-468.186	-200.000	-0.026	0.260
-467.172	800.000	-0.085	0.304
-466.157	-38.789	0.102	-0.054
-465.143	482.222	-0.095	-0.217
-464.128	2.450	0.154	-0.112
-463.113	247.850	-0.109	-0.186
-462.099	-124.616	-0.166	0.026
-461.084	60.741	0.151	-0.151
-460.070	230.792	0.140	-0.231
-459.055	265.687	-0.095	-0.168
-458.040	-16.427	-0.193	-0.124
-457.026	-48.752	0.221	0.107
-456.011	-200.000	0.019	-0.181
-454.997	263.628	-0.196	0.343
-453.982	-200.000	-0.069	-0.347
-452.968	166.141	-0.116	-0.166
-451.953	545.587	-0.110	0.265
-450.938	-42.231	-0.045	0.023
-449.924	313.225	-0.095	-0.180
-448.909	4.098	0.086	-0.063
-447.895	-20.037	0.369	-0.229
-446.880	800.000	0.053	-0.162
-445.865	16.720	-0.084	0.067
-444.851	86.741	0.044	0.049
-443.836	-200.000	-0.032	-0.176
-442.822	443.223	0.142	-0.313
-441.807	75.807	-0.156	0.166
-440.792	178.874	-0.180	-0.265
-439.778	-63.714	0.197	-0.081
-438.763	800.000	0.024	0.074
-437.749	66.415	-0.091	-0.093
-436.734	483.799	-0.136	-0.311
-435.719	-200.000	-0.011	-0.433
-434.705	-27.538	0.153	0.090
-433.690	-139.643	0.298	0.032
-432.676	419.795	-0.132	-0.285
-431.661	-44.268	-0.355	0.179
-430.646	-109.677	0.146	0.031
-429.632	7.773	-0.098	0.074
-428.617	20.925	-0.184	0.151
-427.603	800.000	0.077	-0.293
-426.588	-18.246	0.210	-0.132
-425.573	-200.000	0.041	-0.187
-424.559	-112.529	0.268	0.054
-423.544	-144.946	-0.107	0.010
-422.530	181.561	0.049	0.072
-421.515	-119.769	0.186	-0.032
-420.500	-200.000	-0.023	-0.142
-419.486	85.662	0.262	-0.290
-418.471	-200.000	-0.006	-0.216
-417.457	-85.368	0.115	0.036
-416.442	-200.000	-0.007	-0.390
-415.428	-79.019	0.437	-0.150
-414.413	-191.723	0.297	0.003
-413.398	63.066	0.171	-0.172
-412.384	-192.749	-0.386	0.004
-411.369	-200.000	-0.018	-0.143
-410.355	-110.957	0.181	-0.037
-409.340	216.765	0.106	0.170
-408.325	-132.455	-0.155	0.020
-407.311	352.790	-0.191	-0.380
-406.296	-200.000	0.058	-0.269
-405.282	800.000	-0.041	0.181
-404.267	800.000	-0.084	-0.334
-403.252	-48.841	0.189	0.091
-402.238	-89.329	-0.274	0.081
-401.223	-121.363	-0.180	0.030
-400.209	-21.876	0.069	-0.042
-399.194	-81.335	-0.083	0.027
-398.179	-87.520	-0.370	0.113
-397.165	231.464	-0.070	0.116
-396.150	-85.737	-0.077	0.024
-395.136	324.686	-0.054	0.104
-394.121	-108.779	-0.077	0.017
-393.106	-74.009	-0.165	-0.060
-392.092	-148.395	-0.076	-0.006
-391.077	98.802	0.209	-0.243
-390.063	-200.000	-0.008	-0.139
-389.048	800.000	-0.110	0.324
-388.033	126.447	-0.060	0.076
-387.019	-200.000	-0.023	-0.319
-386.004	108.682	-0.372	0.447
-384.990	215.659	-0.105	-0.168
-383.975	-78.163	-0.231	0.080
-382.960	4.637	0.205	0.152
-381.946	-200.000	0.054	-0.318
-380.931	267.738	-0.027	0.047
-379.917	-73.526	0.098	-0.036
-378.902	-200.000	0.018	-0.169
-377.888	-200.000	-0.020	0.158
-376.873	-200.000	-0.002	0.024
-375.858	-53.844	0.111	0.051
-374.844	63.173	-0.155	0.156
-373.829	229.847	-0.194	0.319
-372.815	-138.748	0.277	-0.030
-371.800	-23.272	-0.054	-0.033
-370.785	-200.000	0.008	0.194
-369.771	-26.620	-0.492	0.289
-368.756	800.000	0.025	-0.085
-367.742	80.848	0.140	-0.151
-366.727	-78.904	0.146	0.050
-365.712	-43.760	-0.175	-0.089
-364.698	-200.000	0.012	0.484
-363.683	-200.000	-0.043	-0.188
-362.669	-85.148	-0.167	-0.053
-361.654	-200.000	-0.028	-0.127
-360.639	-140.285	-0.207	0.022
-359.625	12.480	0.149	0.115
-358.610	-200.000	-0.013	-0.347
-357.596	39.817	-0.137	0.124
-356.581	265.851	-0.044	0.076
-355.566	800.000	0.056	-0.164
-354.552	-92.901	-0.390	-0.109
-353.537	480.998	-0.097	-0.220
-352.523	494.062	0.128	-0.295
-351.508	-50.239	0.257	0.122
-350.493	-89.542	0.383	0.113
-349.479	800.000	-0.020	0.075
-348.464	-8.352	0.138	-0.094
-347.450	-200.000	0.010	-0.286
-346.435	-185.676	0.300	-0.005
-345.420	-200.000	0.012	-0.136
-344.406	-89.456	-0.196	-0.058
-343.391	-91.101	-0.292	-0.084
-342.377	658.104	0.179	-0.461
-341.362	-112.879	-0.363	0.072
-340.348	43.506	-0.057	0.052
-339.333	-23.308	0.239	-0.144
-338.318	146.461	0.136	-0.184
-337.304	-24.835	0.408	-0.243
-336.289	227.576	0.095	-0.155
-335.275	-24.951	0.184	-0.110
-334.260	34.124	0.086	0.075
-333.245	-132.156	-0.230	-0.030
-332.231	-200.000	-0.002	0.087
-331.216	-200.000	-0.009	-0.147
-330.202	-28.324	0.326	-0.189
-329.187	-165.711	-0.168	0.007
-328.172	-200.000	0.015	-0.121
-327.158	-113.453	-0.178	-0.035
-326.143	-142.191	0.466	-0.046
-325.129	395.940	-0.210	0.439
-324.114	-95.384	0.397	0.107
-323.099	-96.819	0.231	-0.061
-322.085	-93.722	-0.261	-0.072
-321.070	80.921	0.187	-0.203
-320.056	72.147	-0.166	-0.174
-319.041	42.009	0.065	0.059
-318.026	21.903	0.344	-0.281
-317.012	-136.087	-0.375	0.044
-315.997	-200.000	0.084	0.000
-314.983	517.869	-0.122	0.287
-313.968	-58.599	-0.024	0.010
-312.953	92.625	0.171	-0.194
-311.939	-200.000	-0.065	0.416
-310.924	121.249	-0.147	0.184
-309.910	-109.625	-0.197	-0.042
-308.895	537.897	0.128	-0.305
-307.880	-129.316	0.145	0.020
-306.866	42.432	0.204	0.186
-305.851	-200.000	0.028	0.173
-304.837	-57.315	0.144	0.063
-303.822	-69.383	-0.249	0.096
-302.807	234.118	0.195	0.323
-301.793	215.458	0.054	-0.086
-300.778	273.897	0.136	0.241
-299.764	-98.672	0.062	-0.016
-298.749	-200.000	-0.029	-0.202
-297.735	-24.215	-0.281	-0.168
-296.720	115.411	0.349	-0.427
-295.705	-45.870	-0.221	-0.109
-294.691	-15.092	0.252	-0.162
-293.676	-153.157	-0.134	0.009
-292.662	-132.881	0.204	-0.026
-291.647	66.611	-0.083	-0.085
-290.632	-67.077	-0.308	-0.122
-289.618	-64.156	-0.108	-0.044
-288.603	79.177	0.087	-0.093
-287.589	-129.482	-0.262	0.036
-286.574	137.697	-0.117	0.154
-285.559	148.081	0.094	-0.128
-284.545	93.361	0.149	0.169
-283.530	107.816	-0.219	0.261
-282.516	-148.876	0.235	0.019
-281.501	127.467	0.187	0.238
-280.486	-23.640	0.339	-0.204
-279.472	-200.000	0.007	-0.080
-278.457	-26.896	-0.076	0.045
-277.443	-133.403	0.203	0.026
-276.428	4.651	-0.221	0.162
-275.413	42.965	0.095	0.087
-274.399	800.000	-0.113	-0.327
-273.384	46.152	0.220	0.204
-272.370	89.671	-0.162	0.181
-271.355	-128.302	-0.310	-0.044
-270.340	-106.578	-0.368	0.082
-269.326	-134.411	-0.205	0.025
-268.311	-200.000	0.026	0.212
-267.297	214.541	0.170	0.269
-266.282	22.341	-0.086	0.070
-265.267	-138.752	-0.407	0.044
-264.253	-25.645	0.162	0.096
-263.238	-26.753	0.116	0.068
-262.224	57.924	-0.108	0.106
-261.209	143.806	0.179	0.238
-260.195	76.268	0.124	-0.131
-259.180	13.024	-0.049	0.038
-258.165	-66.477	0.214	-0.085
-257.151	6.477	-0.231	-0.172
-256.136	-8.318	0.081	-0.055
-255.122	120.921	0.243	-0.302
-254.107	30.278	0.276	0.235
-253.092	52.789	-0.056	-0.053
-252.078	-174.472	-0.212	0.006
-251.063	7.676	-0.106	-0.079
-250.049	-99.971	0.216	-0.054
-249.034	245.625	-0.028	0.047
-248.019	47.593	0.246	-0.230
-247.005	-43.449	0.095	0.048
-245.990	-60.215	0.155	-0.066
-244.976	-158.421	0.260	-0.015
-243.961	800.000	-0.031	0.121
-242.946	-200.000	-0.024	-0.132
-241.932	109.001	-0.203	-0.243
-240.917	800.000	0.129	0.443
-239.903	484.532	0.126	0.287
-238.888	30.598	-0.084	0.072
-237.873	211.598	-0.105	0.165
-236.859	54.462	0.164	0.158
-235.844	-200.000	-0.078	0.398
-234.830	-6.491	-0.110	0.075
-233.815	800.000	0.024	0.087
-232.800	800.000	0.022	-0.063
-231.786	-46.934	0.407	0.199
-230.771	316.701	0.107	-0.203
-229.757	-143.842	-0.310	0.029
-228.742	-155.644	0.279	0.018
-227.727	800.000	-0.022	-0.093
-226.713	-65.998	-0.186	-0.074
-225.698	179.400	0.149	-0.217
-224.684	-74.193	0.180	-0.065
-223.669	221.137	-0.198	-0.317
-222.655	15.003	0.291	0.227
-221.640	-54.931	-0.139	0.063
-220.625	-158.132	-0.095	-0.006
-219.611	-200.000	-0.016	-0.092
-218.596	800.000	-0.104	0.294
-217.582	74.137	0.163	0.171
-216.567	11.420	0.243	-0.186
-215.552	109.716	0.113	-0.136
-214.538	137.181	-0.202	0.264
-213.523	756.951	0.069	-0.185
-212.509	-17.659	-0.281	-0.176
-211.494	-62.477	0.075	0.031
-210.479	-91.655	-0.068	-0.019
-209.465	9.682	-0.245	0.186
-208.450	-113.568	0.358	0.070
-207.436	23.197	0.141	-0.116
-206.421	-200.000	-0.003	0.197
-205.406	77.354	0.226	0.240
-204.392	-98.167	-0.202	-0.052
-203.377	131.061	-0.071	0.091
-202.363	160.321	0.038	0.053
-201.348	88.754	0.141	0.156
-200.333	-200.000	-0.002	-0.128
-199.319	36.399	-0.191	0.168
-198.304	-93.304	-0.037	0.010
-197.290	-159.588	0.408	-0.023
-196.275	116.732	-0.152	0.186
-195.260	-200.000	-0.020	0.146
-194.246	14.493	-0.123	-0.096
-193.231	-93.841	0.209	0.057
-192.217	347.005	-0.097	-0.191
-191.202	800.000	0.015	-0.057
-190.187	-54.861	-0.324	0.146
-189.173	21.442	0.109	0.088
-188.158	17.095	0.325	-0.257
-187.144	-72.102	0.130	0.048
-186.129	-1.151	0.034	-0.024
-185.114	534.145	0.148	0.350
-184.100	22.618	-0.280	-0.228
-183.085	800.000	-0.082	-0.272
-182.071	-95.119	0.092	0.025
-181.056	-130.759	-0.144	-0.019
-180.042	134.910	-0.215	0.279
-179.027	91.599	0.056	0.063
-178.012	-13.014	-0.212	0.138
-176.998	-72.718	0.103	0.038
-175.983	253.423	0.152	-0.260
-174.969	22.312	-0.179	0.146
-173.954	338.399	-0.066	-0.129
-172.939	-114.475	0.443	-0.085
-171.925	-182.409	0.069	-0.001
-170.910	-200.000	0.006	-0.048
-169.896	262.910	0.038	0.066
-168.881	157.896	-0.172	0.237
-167.866	20.477	0.186	0.150
-166.852	-200.000	0.010	-0.133
-165.837	31.861	-0.169	0.145
-164.823	338.229	0.071	-0.137
-163.808	-25.818	-0.044	-0.026
-162.793	800.000	0.017	0.066
-161.779	800.000	0.047	-0.165
-160.764	-74.585	-0.108	-0.039
-159.750	800.000	-0.086	0.252
-158.735	-200.000	-0.028	0.185
-157.720	800.000	-0.087	0.288
-156.706	-103.397	0.177	0.042
-155.691	-163.131	0.095	-0.005
-154.677	534.180	-0.166	0.391
-153.662	-67.368	-0.205	0.080
-152.647	522.448	-0.023	-0.054
-151.633	-112.791	0.189	0.037
-150.618	-101.628	-0.158	-0.038
-149.604	503.094	-0.074	0.170
-148.589	72.740	0.073	0.076
-147.574	-200.000	0.014	0.277
-146.560	151.677	0.120	0.163
-145.545	165.868	0.216	-0.305
-144.531	-10.300	-0.235	0.155
-143.516	-144.007	-0.074	0.007
-142.502	-5.907	0.322	0.220
-141.487	-200.000	-0.026	0.144
-140.472	407.676	-0.061	0.129
-139.458	-62.224	0.204	-0.085
-138.443	370.927	0.078	0.158
-137.429	162.999	-0.053	0.074
-136.414	313.289	0.065	0.121
-135.399	-104.716	-0.171	0.039
-134.385	-77.602	0.124	-0.043
-133.370	500.844	-0.102	-0.233
-132.356	203.813	-0.161	0.247
-131.341	800.000	0.140	-0.443
-130.326	-101.986	-0.107	0.026
-129.312	-23.703	-0.160	0.096
-128.297	-96.849	0.241	-0.063
-127.283	-180.992	0.122	0.002
-126.268	-71.679	-0.106	0.039
-125.253	-26.319	0.290	0.169
-124.239	130.036	0.206	0.262
-123.224	67.626	-0.182	0.185
-122.210	42.452	0.079	0.071
-121.195	800.000	0.085	-0.261
