DTS Sentinel unit serial number:	SN413079Multiplexer serial number:	ORYXHardware model number:	OX4-SRSoftware version number:	ORYX F/W v4.00 Oryx Data Collector v3.7.2.0data status	okinstallation	princeton_trtdifferential loss correction	single-endedforward channel	channel 1reverse channel	N/Adate	2019/09/13time	09:46:35forward acquisition time	60.00reverse acquisition time	0.00gamma	496.2192k internal	0.2325k external	0.2325temperature offset calibration	1.0160default loss term (dB/km)	0.3790temperature slope calibration	1.0000multiplexer offset coefficient	1.0000multiplexer slope coefficient	1.0000fibre end	0.00T internal ref (°C)	29.83T ext. ref 1 (°C)	4.45T ext. ref 2 (°C)	26.54length (m)	temperature (°C)	Stokes	anti-Stokes-747.200	-200.000	0.000	-0.262
-746.185	-43.752	0.204	0.104
-745.171	-200.000	0.064	-0.533
-744.156	-200.000	0.018	0.297
-743.142	330.020	0.128	0.249
-742.127	472.972	0.136	0.310
-741.112	37.705	0.383	0.343
-740.098	139.584	-0.077	0.102
-739.083	-152.619	-0.260	0.019
-738.069	65.880	-0.182	0.186
-737.054	-200.000	0.008	0.092
-736.039	495.942	0.092	-0.214
-735.025	-7.202	0.121	0.083
-734.010	-16.586	-0.258	0.165
-732.996	-11.764	-0.265	0.176
-731.981	-14.232	-0.134	0.087
-730.966	572.595	-0.115	-0.282
-729.952	-200.000	0.024	0.194
-728.937	-114.003	-0.018	-0.004
-727.923	143.793	-0.095	-0.128
-726.908	299.214	-0.203	0.377
-725.894	800.000	0.097	-0.301
-724.879	-58.952	0.185	0.080
-723.864	-200.000	-0.012	-0.407
-722.850	-92.911	0.188	-0.053
-721.835	-200.000	0.046	-0.206
-720.821	64.746	-0.002	-0.002
-719.806	-200.000	0.023	0.201
-718.791	-65.150	-0.171	-0.070
-717.777	-160.543	-0.187	-0.010
-716.762	-200.000	0.015	-0.123
-715.748	87.773	0.166	0.186
-714.733	13.402	-0.271	0.212
-713.718	151.527	0.081	0.111
-712.704	-1.172	-0.131	0.093
-711.689	138.343	-0.150	0.198
-710.675	-76.442	0.144	0.051
-709.660	-50.616	0.226	-0.107
-708.645	-112.354	0.200	0.040
-707.631	-25.294	0.006	0.003
-706.616	237.438	-0.199	0.332
-705.602	-114.373	-0.189	-0.037
-704.587	-200.000	0.009	0.088
-703.572	-67.261	-0.221	0.088
-702.558	276.620	0.125	-0.225
-701.543	-7.894	-0.166	0.113
-700.529	88.814	-0.153	0.172
-699.514	611.559	-0.124	-0.312
-698.499	-68.048	0.251	-0.099
-697.485	236.073	0.179	0.299
-696.470	-200.000	-0.022	-0.110
-695.456	132.482	-0.207	-0.269
-694.441	-80.793	-0.135	0.045
-693.426	800.000	-0.047	-0.146
-692.412	-174.046	-0.343	0.010
-691.397	-16.163	-0.061	-0.039
-690.383	-60.761	0.096	0.041
-689.368	149.900	-0.169	-0.231
-688.354	46.384	-0.231	0.216
-687.339	-8.303	-0.212	-0.144
-686.324	-41.806	0.242	-0.125
-685.310	-10.871	-0.210	-0.140
-684.295	-106.142	-0.160	0.036
-683.281	800.000	-0.073	-0.283
-682.266	284.014	-0.222	0.402
-681.251	-49.904	0.190	0.091
-680.237	-68.522	0.218	-0.085
-679.222	800.000	0.060	-0.205
-678.208	-64.749	-0.248	-0.101
-677.193	800.000	-0.076	-0.264
-676.178	-33.353	-0.129	-0.072
-675.164	-46.366	-0.381	-0.188
-674.149	326.720	-0.133	-0.256
-673.135	800.000	-0.060	0.205
-672.120	-200.000	-0.049	-0.324
-671.105	-200.000	0.033	0.313
-670.091	-63.972	0.189	-0.078
-669.076	379.341	-0.124	-0.256
-668.062	-111.315	0.241	-0.050
-667.047	787.624	0.018	0.048
-666.032	-60.464	0.259	0.111
-665.018	-33.415	-0.008	-0.004
-664.003	69.148	-0.176	0.182
-662.989	800.000	0.025	0.082
-661.974	-200.000	0.018	-0.311
-660.959	84.871	0.107	0.118
-659.945	-27.687	0.210	-0.122
-658.930	800.000	-0.062	-0.194
-657.916	39.668	0.163	0.147
-656.901	800.000	-0.026	0.077
-655.886	27.020	-0.103	-0.087
-654.872	208.184	-0.149	-0.234
-653.857	800.000	0.038	0.115
-652.843	300.469	0.205	0.380
-651.828	537.051	0.096	0.228
-650.814	-105.119	0.138	0.032
-649.799	-200.000	0.020	0.339
-648.784	-91.194	-0.073	-0.021
-647.770	-200.000	-0.041	-0.199
-646.755	-103.431	-0.202	0.048
-645.741	-55.217	0.088	0.040
-644.726	-95.238	-0.112	-0.030
-643.711	82.859	0.226	0.247
-642.697	-121.217	0.241	0.041
-641.682	68.832	0.325	-0.335
-640.668	-200.000	0.077	-0.535
-639.653	-200.000	0.024	0.115
-638.638	-37.480	-0.251	-0.135
-637.624	-200.000	0.009	0.078
-636.609	-200.000	-0.006	0.189
-635.595	-94.617	-0.153	-0.042
-634.580	-92.660	-0.224	-0.063
-633.565	-2.833	-0.099	-0.070
-632.551	531.377	-0.047	0.113
-631.536	53.100	-0.174	-0.168
-630.522	88.201	-0.045	-0.050
-629.507	-137.449	0.254	-0.029
-628.492	165.814	-0.154	0.219
-627.478	560.500	0.057	0.139
-626.463	114.389	0.138	0.168
-625.449	-163.675	0.137	-0.006
-624.434	87.049	0.070	-0.078
-623.419	-200.000	-0.029	0.198
-622.405	289.120	-0.026	0.048
-621.390	311.226	-0.171	-0.322
-620.376	-143.811	0.466	0.044
-619.361	-24.724	0.155	0.093
-618.346	3.678	-0.121	0.089
-617.332	-200.000	0.002	-0.172
-616.317	-64.023	0.085	-0.035
-615.303	-200.000	0.018	0.257
-614.288	128.932	-0.156	-0.200
-613.273	-103.730	0.134	0.031
-612.259	-200.000	0.027	0.172
-611.244	259.998	-0.070	0.121
-610.230	-200.000	0.022	0.302
-609.215	-105.794	0.185	0.042
-608.201	-200.000	-0.009	0.700
-607.186	468.496	0.016	-0.037
-606.171	56.111	0.315	-0.307
-605.157	-50.062	-0.298	0.142
-604.142	-108.129	-0.047	0.010
-603.128	-93.095	-0.152	-0.042
-602.113	242.027	0.119	-0.199
-601.098	800.000	0.017	-0.060
-600.084	140.674	-0.289	0.383
-599.069	-46.916	0.326	0.160
-598.055	-36.923	0.101	-0.054
-597.040	1.840	0.172	-0.124
-596.025	112.075	0.064	0.078
-595.011	-124.138	-0.167	0.026
-593.996	91.578	0.082	0.093
-592.982	-25.329	-0.313	0.186
-591.967	800.000	-0.043	-0.141
-590.952	-7.191	-0.075	0.051
-589.938	250.635	-0.088	0.149
-588.923	-32.085	0.231	-0.129
-587.909	-86.253	-0.043	-0.013
-586.894	65.159	0.196	-0.199
-585.879	-119.464	-0.252	-0.044
-584.865	736.704	0.083	0.222
-583.850	-115.257	-0.108	-0.020
-582.836	-200.000	0.007	0.044
-581.821	-76.758	0.118	-0.041
-580.806	74.639	0.167	0.176
-579.792	511.046	0.157	0.365
-578.777	438.253	-0.067	0.146
-577.763	800.000	0.075	-0.214
-576.748	64.135	0.188	-0.189
-575.733	-185.031	-0.140	-0.002
-574.719	60.985	-0.224	-0.223
-573.704	-155.096	-0.124	-0.008
-572.690	-99.204	-0.170	0.043
-571.675	103.485	-0.263	-0.309
-570.661	-200.000	0.046	-0.328
-569.646	-200.000	0.001	0.102
-568.631	-200.000	0.045	0.233
-567.617	-88.357	-0.108	0.032
-566.602	116.378	0.184	0.226
-565.588	-63.878	0.188	0.077
-564.573	18.674	-0.111	-0.089
-563.558	154.491	-0.132	0.181
-562.544	-14.892	0.254	-0.164
-561.529	800.000	-0.022	0.075
-560.515	-130.142	0.122	0.017
-559.500	243.829	0.211	-0.355
-558.485	-46.397	0.132	0.065
-557.471	-200.000	-0.000	-0.444
-556.456	800.000	0.036	0.104
-555.442	37.761	-0.389	-0.346
-554.427	800.000	-0.042	-0.148
-553.412	800.000	-0.028	-0.079
-552.398	724.769	-0.119	-0.318
-551.383	-94.366	0.323	-0.088
-550.369	-46.352	0.294	0.145
-549.354	-121.623	0.381	0.063
-548.339	-16.212	0.059	0.037
-547.325	414.767	-0.194	0.414
-546.310	-148.706	0.250	0.020
-545.296	655.888	0.041	0.105
-544.281	800.000	-0.041	0.175
-543.266	-93.443	-0.199	-0.055
-542.252	-200.000	-0.019	-0.145
-541.237	90.669	-0.126	-0.141
-540.223	800.000	0.035	0.120
-539.208	29.988	0.039	0.034
-538.193	133.120	-0.176	0.228
-537.179	-200.000	-0.003	-0.190
-536.164	-105.415	-0.296	-0.067
-535.150	800.000	-0.053	0.190
-534.135	-172.025	-0.417	0.014
-533.121	-48.962	0.070	-0.034
-532.106	-40.324	-0.196	0.102
-531.091	-200.000	0.001	-0.126
-530.077	-20.565	0.291	0.179
-529.062	800.000	0.046	-0.128
-528.048	120.432	0.276	-0.343
-527.033	64.544	0.137	0.138
-526.018	-144.469	-0.106	0.010
-525.004	-61.492	-0.349	-0.147
-523.989	388.920	0.042	0.086
-522.975	-117.679	-0.111	0.020
-521.960	153.282	-0.135	-0.186
-520.945	-172.468	0.285	-0.009
-519.931	238.984	-0.163	0.272
-518.916	229.433	-0.157	-0.257
-517.902	156.420	0.091	0.126
-516.887	50.252	-0.121	0.114
-515.872	-193.895	0.350	-0.003
-514.858	52.964	-0.027	0.026
-513.843	-200.000	0.020	-0.126
-512.829	800.000	0.062	-0.184
-511.814	111.020	0.197	0.237
-510.799	559.700	-0.124	-0.301
-509.785	76.062	0.252	0.267
-508.770	58.285	-0.159	-0.156
-507.756	-50.325	0.208	0.098
-506.741	220.416	-0.080	0.129
-505.726	78.663	-0.238	0.254
-504.712	-30.259	-0.102	0.058
-503.697	-72.677	0.442	0.163
-502.683	305.967	0.151	0.281
-501.668	463.575	0.154	0.345
-500.653	14.077	0.123	0.096
-499.639	800.000	0.032	0.141
-498.624	448.580	-0.049	0.109
-497.610	0.773	0.134	-0.096
-496.595	37.239	0.426	-0.377
-495.581	-167.730	0.162	0.006
-494.566	-200.000	-0.053	-0.236
-493.551	-125.593	-0.275	0.042
-492.537	-43.099	0.110	-0.056
-491.522	34.471	-0.218	-0.191
-490.508	-98.067	0.322	-0.083
-489.493	359.699	-0.022	-0.044
-488.478	508.158	0.070	0.163
-487.464	154.909	0.082	0.113
-486.449	-67.069	-0.383	0.151
-485.435	-147.472	-0.085	0.007
-484.420	144.135	-0.115	0.153
-483.405	374.271	0.047	-0.095
-482.391	76.897	-0.257	-0.273
-481.376	11.282	0.087	-0.066
-480.362	28.443	-0.153	-0.129
-479.347	165.293	-0.082	0.115
-478.332	64.711	-0.083	0.084
-477.318	-31.085	-0.216	0.122
-476.303	-40.308	0.117	-0.061
-475.289	-41.087	0.184	-0.095
-474.274	130.708	-0.096	-0.123
-473.259	-17.311	0.107	-0.068
-472.245	300.144	-0.067	-0.124
-471.230	28.824	-0.189	0.160
-470.216	-200.000	0.003	-0.079
-469.201	-46.321	0.129	-0.063
-468.186	352.675	-0.029	-0.057
-467.172	-200.000	0.027	0.167
-466.157	240.583	-0.122	0.203
-465.143	-115.265	0.149	0.028
-464.128	800.000	-0.085	0.246
-463.113	531.010	0.153	-0.361
-462.099	-80.360	0.140	0.047
-461.084	-200.000	-0.000	-0.035
-460.070	-195.910	-0.123	-0.001
-459.055	-200.000	0.007	-0.057
-458.040	-78.641	0.298	-0.102
-457.026	-100.403	-0.103	0.025
-456.011	800.000	-0.087	0.305
-454.997	-144.659	-0.455	-0.042
-453.982	-41.426	0.250	0.129
-452.968	-92.805	0.229	-0.064
-451.953	-89.404	-0.247	-0.073
-450.938	346.631	-0.129	-0.253
-449.924	-19.830	-0.196	0.121
-448.909	278.967	-0.143	-0.255
-447.895	-200.000	-0.065	-0.321
-446.880	-200.000	0.004	0.043
-445.865	419.619	-0.132	-0.281
-444.851	-43.330	-0.284	0.143
-443.836	-89.955	0.392	-0.114
-442.822	51.778	-0.255	-0.242
-441.807	-170.393	-0.199	-0.007
-440.792	435.679	0.035	0.076
-439.778	467.218	0.072	0.162
-438.763	83.068	-0.144	-0.156
-437.749	-200.000	0.237	0.000
-436.734	115.704	0.144	0.176
-435.719	81.830	-0.045	-0.048
-434.705	83.996	0.187	-0.204
-433.690	-22.591	-0.173	0.104
-432.676	-71.798	0.084	0.031
-431.661	-193.124	0.165	-0.001
-430.646	-62.834	0.043	0.018
-429.632	56.350	0.076	0.074
-428.617	-93.411	-0.015	-0.004
-427.603	-200.000	-0.037	0.347
-426.588	251.122	-0.146	-0.248
-425.573	446.706	0.053	0.117
-424.559	-200.000	0.013	-0.089
-423.544	-144.265	-0.110	0.010
-422.530	94.753	0.146	-0.165
-421.515	800.000	0.068	-0.292
-420.500	302.936	0.185	-0.342
-419.486	-134.087	-0.199	0.024
-418.471	146.640	-0.040	-0.053
-417.457	567.868	-0.110	-0.267
-416.442	-68.310	0.172	0.066
-415.428	-200.000	0.009	0.095
-414.413	-77.989	0.097	-0.033
-413.398	228.400	-0.147	-0.239
-412.384	4.008	-0.044	0.032
-411.369	408.116	-0.020	0.042
-410.355	800.000	0.015	0.046
-409.340	142.482	-0.184	-0.244
-408.325	-2.629	-0.288	-0.201
-407.311	-13.182	0.037	-0.024
-406.296	-70.971	0.190	-0.071
-405.282	-27.578	-0.298	-0.173
-404.267	-200.000	-0.018	0.241
-403.252	54.597	-0.166	0.160
-402.238	-62.736	0.200	-0.083
-401.223	100.853	-0.107	-0.124
-400.209	-75.926	-0.313	-0.110
-399.194	-200.000	0.014	0.162
-398.179	58.192	0.149	0.145
-397.165	112.242	-0.128	0.154
-396.150	-29.894	-0.253	-0.143
-395.136	-8.536	0.240	0.160
-394.121	-200.000	0.001	-0.069
-393.106	88.837	-0.139	-0.154
-392.092	291.124	-0.118	-0.214
-391.077	-76.319	0.213	0.075
-390.063	4.106	-0.167	0.121
-389.048	671.477	0.158	0.406
-388.033	-60.387	0.283	0.120
-387.019	-114.533	-0.227	0.043
-386.004	271.920	-0.120	-0.211
-384.990	800.000	-0.024	0.095
-383.975	265.447	-0.228	0.395
-382.960	96.216	0.111	0.126
-381.946	-101.244	-0.181	0.044
-380.931	491.194	0.092	0.209
-379.917	-200.000	-0.002	-0.048
-378.902	-68.764	-0.105	-0.040
-377.888	473.596	0.119	0.266
-376.873	5.337	-0.071	0.052
-375.858	-66.478	-0.332	0.131
-374.844	42.427	0.055	-0.050
-373.829	-200.000	0.019	0.125
-372.815	-200.000	-0.063	-0.419
-371.800	-200.000	0.001	-0.477
-370.785	800.000	0.084	-0.239
-369.771	-8.576	-0.131	-0.088
-368.756	-5.129	0.286	-0.196
-367.742	-110.390	-0.396	-0.082
-366.727	-50.465	0.106	0.050
-365.712	-111.904	-0.146	0.029
-364.698	-120.048	-0.179	-0.031
-363.683	289.804	-0.020	0.037
-362.669	-62.628	-0.321	-0.132
-361.654	-165.359	-0.322	-0.014
-360.639	800.000	-0.091	0.279
-359.625	-200.000	0.018	0.080
-358.610	800.000	-0.051	0.170
-357.596	533.215	0.100	-0.234
-356.581	89.357	0.250	0.277
-355.566	4.262	-0.405	0.295
-354.552	-114.134	-0.340	0.065
-353.537	-200.000	-0.017	-0.155
-352.523	800.000	0.102	0.390
-351.508	32.823	-0.140	-0.120
-350.493	-50.766	0.142	0.066
-349.479	-4.364	-0.278	0.191
-348.464	800.000	0.113	-0.316
-347.450	90.412	-0.099	0.110
-346.435	208.138	-0.091	0.141
-345.420	43.698	-0.124	-0.113
-344.406	800.000	0.077	-0.263
-343.391	339.711	-0.074	-0.143
-342.377	-58.209	0.097	-0.042
-341.362	30.212	-0.169	0.143
-340.348	21.612	-0.186	0.151
-339.333	746.530	-0.076	-0.204
-338.318	425.959	0.160	0.342
-337.304	410.100	0.083	0.176
-336.289	-131.503	-0.207	0.027
-335.275	-2.893	-0.004	-0.003
-334.260	254.941	0.068	-0.115
-333.245	-117.774	-0.111	0.020
-332.231	302.036	-0.064	0.118
-331.216	351.338	-0.176	0.346
-330.202	800.000	0.077	-0.243
-329.187	-38.446	-0.076	-0.040
-328.172	-65.346	0.204	0.081
-327.158	280.918	0.092	-0.164
-326.143	-200.000	-0.021	-0.217
-325.129	-133.106	-0.152	0.019
-324.114	-86.083	-0.148	-0.045
-323.099	-137.598	0.184	-0.021
-322.085	-200.000	0.038	0.185
-321.070	-71.356	0.174	-0.065
-320.056	164.878	0.023	-0.032
-319.041	-65.105	-0.357	0.143
-318.026	113.120	0.192	0.232
-317.012	111.315	0.063	0.076
-315.997	-68.645	0.247	-0.095
-314.983	-200.000	0.031	-0.174
-313.968	-200.000	-0.041	0.320
-312.953	-47.294	-0.565	-0.273
-311.939	800.000	-0.032	-0.100
-310.924	-86.699	-0.185	-0.056
-309.910	-36.049	-0.195	0.105
-308.895	71.051	0.229	0.236
-307.880	169.215	-0.082	0.117
-306.866	41.138	0.268	0.240
-305.851	-114.013	0.226	-0.043
-304.837	-32.220	0.116	0.064
-303.822	62.218	-0.262	-0.259
-302.807	628.950	0.058	-0.146
-301.793	101.313	-0.055	-0.064
-300.778	512.389	0.133	0.308
-299.764	-56.549	-0.251	-0.110
-298.749	41.775	-0.154	0.139
-297.735	13.504	-0.019	0.014
-296.720	271.197	0.067	-0.118
-295.705	-47.567	0.291	-0.140
-294.691	274.305	-0.048	0.084
-293.676	-35.309	0.188	-0.101
-292.662	-130.482	0.125	0.017
-291.647	658.957	0.012	-0.031
-290.632	-200.000	-0.006	-0.401
-289.618	-117.149	0.066	-0.012
-288.603	-200.000	0.005	-0.314
-287.589	-0.734	0.193	-0.135
-286.574	-113.436	0.096	0.019
-285.559	800.000	-0.111	0.398
-284.545	-44.786	-0.253	-0.125
-283.530	66.962	-0.292	-0.295
-282.516	522.635	0.013	-0.031
-281.501	22.205	0.033	0.026
-280.486	547.362	0.066	-0.157
-279.472	60.464	-0.071	-0.070
-278.457	59.073	-0.114	0.111
-277.443	-47.507	0.202	-0.097
-276.428	-89.493	0.202	0.059
-275.413	-29.433	-0.058	0.033
-274.399	-71.541	0.173	-0.064
-273.384	-85.412	0.392	-0.121
-272.370	27.364	0.120	-0.100
-271.355	59.289	0.183	0.179
-270.340	-200.000	-0.033	0.366
-269.326	-145.513	-0.050	-0.004
-268.311	-200.000	0.090	-0.402
-267.297	-200.000	0.053	-0.310
-266.282	-134.495	-0.165	-0.020
-265.267	-102.652	0.275	-0.065
-264.253	88.470	0.212	-0.233
-263.238	-200.000	-0.004	-0.059
-262.224	-200.000	-0.058	0.340
-261.209	-10.573	0.380	-0.249
-260.195	-106.909	0.310	0.068
-259.180	800.000	0.099	0.394
-258.165	150.973	0.148	0.199
-257.151	-56.804	-0.240	0.105
-256.136	-171.329	-0.158	0.005
-255.122	800.000	-0.068	-0.257
-254.107	81.904	0.147	0.158
-253.092	-97.771	-0.257	0.066
-252.078	-59.333	0.120	0.051
-251.063	42.555	0.120	0.108
-250.049	117.745	-0.156	0.190
-249.034	75.085	0.065	-0.067
-248.019	435.673	-0.092	-0.197
-247.005	95.452	-0.251	0.283
-245.990	608.213	0.025	-0.061
-244.976	1.766	0.150	-0.107
-243.961	-163.964	0.352	0.016
-242.946	-200.000	0.006	-0.219
-241.932	-81.461	-0.414	0.135
-240.917	-41.331	-0.270	-0.138
-239.903	41.106	0.258	-0.231
-238.888	31.820	0.163	-0.139
-237.873	437.796	0.074	-0.160
-236.859	47.502	0.109	0.100
-235.844	-41.848	-0.112	-0.057
-234.830	141.708	-0.199	-0.260
-233.815	230.340	0.118	0.191
-232.800	-108.701	-0.102	-0.022
-231.786	31.951	-0.224	-0.191
-230.771	800.000	-0.040	-0.116
-229.757	-6.757	0.291	-0.195
-228.742	-55.670	-0.383	0.169
-227.727	304.618	0.093	0.171
-226.713	370.788	-0.144	-0.289
-225.698	794.111	-0.048	-0.130
-224.684	260.220	0.082	0.139
-223.669	-84.476	-0.059	-0.019
-222.655	-163.807	0.441	-0.020
-221.640	-60.502	-0.141	0.059
-220.625	-50.640	0.120	-0.056
-219.611	-117.188	-0.139	0.025
-218.596	-41.246	-0.336	0.171
-217.582	64.846	0.124	-0.124
-216.567	74.669	0.281	-0.292
-215.552	85.386	0.056	-0.061
-214.538	800.000	0.059	-0.214
-213.523	148.743	0.293	0.391
-212.509	8.835	-0.224	0.167
-211.494	130.275	-0.086	0.109
-210.479	565.359	0.140	0.336
-209.465	-167.575	0.199	-0.008
-208.450	800.000	0.027	0.091
-207.436	-200.000	-0.052	-0.280
-206.421	721.673	-0.038	-0.100
-205.406	-66.702	0.178	0.070
-204.392	183.328	0.161	0.235
-203.377	293.901	-0.129	0.232
-202.363	800.000	0.130	-0.477
-201.348	27.905	0.059	0.049
-200.333	-200.000	0.035	0.334
-199.319	351.338	0.058	-0.113
-198.304	-6.896	0.277	0.186
-197.290	800.000	0.030	0.115
-196.275	384.307	-0.094	-0.191
-195.260	756.321	0.024	-0.065
-194.246	162.956	0.171	-0.237
-193.231	-136.246	0.043	-0.005
-192.217	65.739	0.156	-0.156
-191.202	-200.000	-0.008	-0.178
-190.187	-158.685	0.241	0.014
-189.173	800.000	-0.092	0.272
-188.158	-124.683	0.100	0.015
-187.144	800.000	0.111	-0.309
-186.129	-40.568	0.151	0.077
-185.114	-21.408	0.422	0.254
-184.100	800.000	0.175	0.491
-183.085	-106.172	0.372	-0.082
-182.071	-7.685	-0.255	-0.170
-181.056	-200.000	-0.046	0.288
-180.042	258.039	-0.260	0.442
-179.027	-110.039	0.139	-0.029
-178.012	800.000	-0.058	-0.181
-176.998	-170.407	-0.403	-0.014
-175.983	71.732	0.315	0.324
-174.969	483.876	-0.049	-0.110
-173.954	-40.917	0.235	0.120
-172.939	-69.412	-0.330	-0.125
-171.925	-89.107	-0.114	-0.033
-170.910	164.379	-0.069	0.096
-169.896	-12.822	-0.230	0.148
-168.881	76.524	-0.164	0.171
-167.866	800.000	-0.062	0.175
-166.852	-200.000	0.031	-0.288
-165.837	-61.456	0.200	0.083
-164.823	-51.904	0.132	-0.060
-163.808	-43.610	0.151	0.075
-162.793	0.297	-0.200	-0.141
-161.779	358.190	-0.088	-0.172
-160.764	-74.267	-0.341	0.122
-159.750	-100.503	0.171	0.042
-158.735	-122.922	-0.118	0.019
-157.720	124.086	-0.179	0.221
-156.706	800.000	0.072	-0.201
-155.691	52.543	-0.114	0.107
-154.677	146.264	0.048	0.064
-153.662	227.156	0.088	0.141
-152.647	-111.477	0.132	-0.027
-151.633	-200.000	0.107	-0.540
-150.618	-68.372	-0.111	0.042
-149.604	-38.366	-0.131	-0.069
-148.589	-200.000	-0.035	0.258
-147.574	-93.896	-0.157	-0.043
-146.560	-15.534	-0.209	-0.132
-145.545	223.250	-0.281	0.446
-144.531	-200.000	0.007	-0.088
-143.516	-140.077	-0.186	-0.019
-142.502	-50.810	0.198	-0.092
-141.487	-200.000	0.146	0.000
-140.472	40.196	0.165	-0.147
-139.458	-130.705	-0.375	0.050
-138.443	250.329	-0.228	-0.382
-137.429	14.771	0.181	-0.139
-136.414	-59.277	0.361	0.153
-135.399	-200.000	-0.032	-0.187
-134.385	469.691	0.096	-0.213
-133.370	15.257	-0.202	0.156
-132.356	279.886	0.103	-0.182
-131.341	323.829	-0.111	0.209
-130.326	800.000	-0.034	-0.109
-129.312	93.001	-0.044	-0.050
-128.297	120.299	0.215	-0.263
-127.283	635.518	-0.095	-0.238
-126.268	208.193	-0.040	0.061
-125.253	176.992	0.099	-0.141
-124.239	201.013	-0.095	0.145
-123.224	-136.298	-0.327	0.038
-122.210	72.649	-0.160	0.164
-121.195	-200.000	0.019	0.468
-120.180	-152.120	0.118	-0.008
