DTS Sentinel unit serial number:	SN413079Multiplexer serial number:	ORYXHardware model number:	OX4-SRSoftware version number:	ORYX F/W v4.00 Oryx Data Collector v3.7.2.0data status	okinstallation	princeton_trtdifferential loss correction	single-endedforward channel	channel 1reverse channel	N/Adate	2019/09/10time	23:40:11forward acquisition time	60.00reverse acquisition time	0.00gamma	496.2192k internal	0.2332k external	0.2332temperature offset calibration	0.9934default loss term (dB/km)	0.3790temperature slope calibration	1.0000multiplexer offset coefficient	1.0000multiplexer slope coefficient	1.0000fibre end	0.00T internal ref (°C)	29.61T ext. ref 1 (°C)	-0.32T ext. ref 2 (°C)	22.95length (m)	temperature (°C)	Stokes	anti-Stokes-747.200	-93.709	-0.198	0.055
-746.185	-66.025	0.295	0.118
-745.171	-147.407	0.405	-0.035
-744.156	800.000	-0.057	-0.223
-743.142	-134.501	-0.138	-0.017
-742.127	95.111	-0.063	-0.073
-741.112	78.164	0.099	-0.106
-740.098	-68.810	-0.242	0.094
-739.083	226.492	0.105	-0.172
-738.069	378.087	-0.011	0.022
-737.054	-93.433	-0.060	0.017
-736.039	32.711	0.246	-0.214
-735.025	-153.988	0.187	0.013
-734.010	-162.816	-0.073	0.004
-732.996	-70.054	-0.239	0.091
-731.981	-62.416	-0.141	0.059
-730.966	-104.414	0.410	-0.095
-729.952	102.511	-0.101	-0.119
-728.937	69.461	0.206	-0.213
-727.923	81.174	-0.219	0.237
-726.908	-200.000	0.009	0.352
-725.894	800.000	0.042	0.140
-724.879	-50.434	-0.446	-0.212
-723.864	-118.845	-0.202	-0.036
-722.850	89.615	0.178	0.199
-721.835	635.841	0.094	0.240
-720.821	800.000	-0.044	-0.156
-719.806	-25.706	-0.228	-0.135
-718.791	-130.287	-0.346	-0.047
-717.777	-123.050	-0.652	0.105
-716.762	452.872	0.013	0.030
-715.748	65.029	-0.113	0.115
-714.733	2.343	-0.189	-0.138
-713.718	-146.614	0.300	0.026
-712.704	722.108	0.032	-0.084
-711.689	83.211	-0.089	0.098
-710.675	145.373	-0.122	0.164
-709.660	-49.254	0.130	0.063
-708.645	-95.559	-0.322	0.087
-707.631	246.045	0.066	0.112
-706.616	-38.077	0.356	-0.190
-705.602	-200.000	-0.030	-0.364
-704.587	114.306	0.123	0.150
-703.572	-140.176	0.122	-0.013
-702.558	-14.586	0.270	-0.174
-701.543	-43.508	-0.236	0.120
-700.529	9.778	-0.147	-0.112
-699.514	4.642	-0.227	-0.168
-698.499	800.000	-0.044	-0.145
-697.485	-132.422	0.225	-0.029
-696.470	59.321	-0.081	-0.080
-695.456	8.037	-0.125	-0.094
-694.441	-127.421	0.441	-0.064
-693.426	-99.633	0.258	0.065
-692.412	24.502	-0.275	-0.229
-691.397	-3.653	-0.128	-0.089
-690.383	-116.387	-0.379	0.070
-689.368	63.059	-0.382	-0.384
-688.354	7.210	-0.236	-0.177
-687.339	-113.109	0.404	-0.080
-686.324	536.096	-0.095	-0.227
-685.310	707.773	-0.071	0.188
-684.295	34.353	-0.188	-0.164
-683.281	101.575	0.085	-0.099
-682.266	-200.000	-0.016	-0.074
-681.251	800.000	0.019	-0.059
-680.237	-61.278	0.185	-0.078
-679.222	-81.725	-0.203	-0.067
-678.208	800.000	0.068	-0.211
-677.193	-200.000	0.001	-0.124
-676.178	-169.083	-0.197	-0.007
-675.164	-200.000	0.025	0.126
-674.149	-110.707	0.153	-0.032
-673.135	-151.199	-0.293	0.022
-672.120	-99.558	-0.241	-0.061
-671.105	546.004	0.098	-0.236
-670.091	152.653	-0.126	-0.172
-669.076	233.021	-0.066	0.108
-668.062	-79.558	0.222	-0.075
-667.047	-101.003	0.088	-0.022
-666.032	-3.849	-0.426	0.296
-665.018	-200.000	0.064	-0.443
-664.003	-151.781	-0.126	-0.009
-662.989	-30.410	-0.141	0.080
-661.974	-43.314	-0.116	0.059
-660.959	-134.576	-0.236	0.029
-659.945	-48.884	0.293	0.141
-658.930	-55.008	0.216	0.098
-657.916	-0.201	0.136	-0.097
-656.901	-16.383	0.135	-0.086
-655.886	-171.930	-0.257	0.008
-654.872	194.044	0.138	-0.210
-653.857	-200.000	0.040	-0.253
-652.843	384.809	-0.026	-0.054
-651.828	-200.000	0.006	-0.529
-650.814	306.442	-0.170	-0.317
-649.799	-41.286	0.340	-0.175
-648.784	800.000	-0.105	-0.305
-647.770	421.693	-0.233	-0.500
-646.755	-38.616	-0.209	0.111
-645.741	800.000	0.094	-0.335
-644.726	800.000	0.057	-0.176
-643.711	-107.147	0.313	-0.069
-642.697	57.559	-0.211	0.207
-641.682	-5.052	0.213	-0.147
-640.668	64.154	0.076	-0.077
-639.653	39.446	-0.279	0.250
-638.638	79.760	-0.067	-0.072
-637.624	-85.234	0.101	0.032
-636.609	100.682	0.175	-0.204
-635.595	-92.203	0.199	0.056
-634.580	-200.000	-0.050	0.293
-633.565	-158.231	0.123	0.007
-632.551	170.582	-0.178	-0.256
-631.536	183.663	-0.112	-0.166
-630.522	-200.000	0.010	0.163
-629.507	-80.269	0.282	0.095
-628.492	-187.754	0.183	0.002
-627.478	-40.218	0.192	0.100
-626.463	79.514	-0.036	-0.039
-625.449	243.489	0.096	-0.161
-624.434	-200.000	-0.025	0.192
-623.419	-23.293	0.136	-0.082
-622.405	-53.657	0.282	0.129
-621.390	800.000	0.045	-0.145
-620.376	177.206	-0.127	0.185
-619.361	73.705	0.184	-0.193
-618.346	800.000	-0.029	-0.083
-617.332	-76.284	-0.230	-0.081
-616.317	-200.000	0.064	-0.517
-615.303	-161.448	-0.315	0.016
-614.288	-154.004	0.271	0.018
-613.273	16.530	-0.337	0.267
-612.259	-200.000	0.037	0.369
-611.244	131.968	-0.062	-0.080
-610.230	87.685	0.126	-0.140
-609.215	-48.204	0.148	0.071
-608.201	-59.583	0.064	0.028
-607.186	-123.367	-0.268	-0.043
-606.171	-200.000	0.039	0.419
-605.157	398.143	-0.167	-0.351
-604.142	298.283	-0.054	0.099
-603.128	480.104	0.065	0.148
-602.113	800.000	-0.086	-0.293
-601.098	178.251	-0.140	0.204
-600.084	774.637	-0.039	0.107
-599.069	-128.593	0.079	0.011
-598.055	352.515	-0.070	0.139
-597.040	417.598	0.070	-0.149
-596.025	226.769	-0.081	-0.132
-595.011	-200.000	-0.059	-0.348
-593.996	346.837	-0.058	-0.114
-592.982	-67.024	-0.038	0.015
-591.967	133.114	0.101	-0.131
-590.952	158.255	0.054	0.075
-589.938	103.193	-0.140	0.164
-588.923	-121.039	0.291	0.049
-587.909	221.197	-0.030	-0.049
-586.894	-133.537	0.208	0.026
-585.879	-168.936	-0.330	0.012
-584.865	-75.852	-0.167	0.059
-583.850	800.000	-0.094	0.307
-582.836	148.162	-0.083	0.112
-581.821	9.150	-0.500	-0.378
-580.806	477.359	-0.179	-0.404
-579.792	539.747	-0.039	0.092
-578.777	-200.000	0.031	-0.259
-577.763	219.466	0.184	0.294
-576.748	-200.000	-0.037	0.222
-575.733	-102.917	0.127	-0.030
-574.719	-200.000	0.062	0.383
-573.704	-62.059	-0.306	-0.128
-572.690	-200.000	0.009	-0.104
-571.675	-40.157	0.123	-0.064
-570.661	-139.880	-0.064	0.007
-569.646	800.000	-0.105	-0.443
-568.631	-77.186	-0.218	0.076
-567.617	-200.000	-0.031	-0.165
-566.602	-23.677	0.152	-0.091
-565.588	-153.963	-0.035	0.002
-564.573	48.511	0.195	-0.183
-563.558	211.712	-0.096	-0.152
-562.544	44.983	-0.164	0.150
-561.529	53.880	0.279	0.268
-560.515	65.039	-0.178	0.179
-559.500	-200.000	-0.035	0.210
-558.485	541.953	-0.080	0.191
-557.471	671.187	0.094	-0.243
-556.456	255.688	-0.070	-0.120
-555.442	-59.702	-0.149	-0.064
-554.427	-200.000	-0.016	0.123
-553.412	14.535	0.156	0.122
-552.398	227.122	0.135	0.220
-551.383	800.000	-0.052	-0.218
-550.369	-200.000	0.010	0.088
-549.354	-76.338	-0.298	0.105
-548.339	-200.000	0.043	-0.190
-547.325	-200.000	0.003	0.502
-546.310	-129.747	0.253	-0.035
-545.296	79.368	0.209	-0.224
-544.281	-200.000	0.032	0.201
-543.266	8.571	0.150	0.112
-542.252	205.338	-0.045	-0.070
-541.237	-154.652	-0.188	0.012
-540.223	-200.000	0.013	-0.458
-539.208	58.633	-0.440	-0.431
-538.193	-200.000	0.075	-0.445
-537.179	525.809	0.053	-0.125
-536.164	-200.000	-0.025	0.119
-535.150	220.783	0.205	0.328
-534.135	-40.794	0.112	0.058
-533.121	800.000	0.073	0.316
-532.106	86.694	-0.060	0.066
-531.091	80.769	0.197	0.212
-530.077	-200.000	-0.051	-0.227
-529.062	-36.045	-0.152	-0.082
-528.048	-51.515	0.237	0.110
-527.033	731.212	0.044	-0.116
-526.018	396.253	0.090	-0.188
-525.004	-97.645	-0.240	-0.062
-523.989	-165.114	-0.246	0.011
-522.975	-143.120	-0.170	-0.016
-521.960	-200.000	-0.329	0.000
-520.945	-61.484	-0.244	0.102
-519.931	109.870	-0.143	0.171
-518.916	180.411	-0.087	-0.127
-517.902	-159.127	0.043	0.002
-516.887	-167.889	-0.205	0.008
-515.872	-84.875	0.249	0.078
-514.858	800.000	0.066	0.194
-513.843	-85.491	-0.291	0.090
-512.829	241.010	0.107	0.179
-511.814	99.371	-0.119	-0.138
-510.799	-113.451	-0.120	0.023
-509.785	-139.105	0.079	0.009
-508.770	-200.000	-0.063	0.326
-507.756	701.676	-0.100	0.263
-506.741	605.450	0.102	0.253
-505.726	-200.000	-0.058	0.441
-504.712	20.155	-0.187	-0.150
-503.697	156.120	0.248	-0.341
-502.683	-200.000	-0.002	0.091
-501.668	112.445	-0.123	-0.148
-500.653	195.134	-0.105	-0.159
-499.639	80.596	0.215	0.231
-498.624	382.968	0.107	-0.219
-497.610	-35.602	-0.065	0.035
-496.595	179.601	0.040	0.059
-495.581	-200.000	0.030	-0.220
-494.566	-116.588	-0.130	-0.024
-493.551	-69.522	-0.078	0.030
-492.537	181.921	-0.079	-0.116
-491.522	-156.238	-0.303	-0.019
-490.508	86.530	-0.141	0.155
-489.493	279.267	0.162	0.288
-488.478	-0.106	-0.089	-0.063
-487.464	-103.602	0.182	-0.043
-486.449	768.606	0.062	-0.169
-485.435	800.000	-0.070	-0.203
-484.420	-200.000	0.001	0.126
-483.405	800.000	0.026	0.085
-482.391	-36.852	0.456	-0.243
-481.376	13.009	0.141	0.109
-480.362	-200.000	-0.064	-0.280
-479.347	-200.000	-0.007	-0.273
-478.332	-80.683	0.164	-0.054
-477.318	-78.801	0.334	-0.114
-476.303	427.582	-0.104	-0.224
-475.289	-200.000	0.007	0.129
-474.274	-136.807	-0.171	0.020
-473.259	-200.000	0.009	-0.066
-472.245	-90.300	-0.227	-0.066
-471.230	493.578	0.074	0.170
-470.216	-120.513	0.189	0.032
-469.201	157.189	-0.032	-0.044
-468.186	74.353	0.218	-0.228
-467.172	-78.371	-0.098	0.033
-466.157	800.000	0.111	-0.330
-465.143	-64.355	-0.221	-0.089
-464.128	-156.563	0.200	0.012
-463.113	-23.677	0.103	0.062
-462.099	-76.886	0.302	-0.105
-461.084	58.507	-0.210	0.205
-460.070	162.050	-0.180	-0.251
-459.055	800.000	0.050	-0.157
-458.040	26.415	-0.166	-0.138
-457.026	-14.892	-0.126	0.081
-456.011	1.966	0.212	0.152
-454.997	598.246	0.103	0.253
-453.982	57.342	-0.239	0.232
-452.968	800.000	-0.070	0.260
-451.953	122.292	0.035	0.043
-450.938	93.506	-0.192	0.216
-449.924	74.143	-0.204	0.213
-448.909	-33.450	-0.374	0.206
-447.895	-129.198	0.270	0.037
-446.880	800.000	0.039	-0.124
-445.865	800.000	0.098	0.280
-444.851	-200.000	-0.053	-0.318
-443.836	-122.606	0.118	0.019
-442.822	641.612	-0.130	0.330
-441.807	800.000	0.115	0.358
-440.792	-11.631	0.055	0.036
-439.778	-200.000	-0.006	0.103
-438.763	111.752	-0.260	-0.312
-437.749	-200.000	0.052	-0.240
-436.734	308.715	0.067	-0.124
-435.719	-19.442	0.130	0.080
-434.705	45.746	-0.495	0.454
-433.690	-89.240	0.310	0.091
-432.676	-200.000	0.062	0.281
-431.661	-28.713	-0.146	-0.083
-430.646	-8.759	-0.211	-0.140
-429.632	15.059	-0.072	0.056
-428.617	-200.000	0.012	0.113
-427.603	155.900	-0.025	-0.034
-426.588	-160.934	-0.240	-0.013
-425.573	52.421	0.215	-0.204
-424.559	131.491	-0.119	0.152
-423.544	-59.326	-0.316	-0.135
-422.530	-71.407	0.122	-0.045
-421.515	-161.056	0.299	-0.016
-420.500	-85.503	-0.091	0.028
-419.486	-145.063	0.125	-0.011
-418.471	-57.036	-0.443	-0.194
-417.457	-62.354	-0.080	-0.033
-416.442	-98.947	-0.142	0.036
-415.428	519.406	0.152	-0.355
-414.413	-124.214	-0.115	-0.018
-413.398	800.000	0.052	0.165
-412.384	-113.505	0.036	-0.007
-411.369	-200.000	-0.019	-0.258
-410.355	415.148	0.018	0.039
-409.340	-96.063	0.270	0.071
-408.325	800.000	0.049	0.166
-407.311	800.000	-0.155	0.470
-406.296	315.945	0.169	0.317
-405.282	504.170	0.053	0.122
-404.267	50.877	0.165	-0.156
-403.252	103.041	0.264	-0.307
-402.238	-200.000	0.019	-0.198
-401.223	-200.000	-0.138	0.001
-400.209	800.000	-0.073	-0.208
-399.194	3.744	-0.207	0.150
-398.179	-200.000	-0.016	0.069
-397.165	800.000	0.116	-0.436
-396.150	-135.518	-0.289	0.034
-395.136	138.011	0.132	0.172
-394.121	323.619	0.142	-0.268
-393.106	-200.000	-0.067	0.298
-392.092	-16.934	0.402	0.252
-391.077	-200.000	0.031	0.289
-390.063	47.669	-0.271	0.251
-389.048	-42.562	0.138	-0.070
-388.033	306.302	-0.019	-0.034
-387.019	-185.617	0.279	0.004
-386.004	-13.909	-0.240	0.154
-384.990	800.000	-0.087	0.319
-383.975	-68.150	0.250	-0.097
-382.960	-200.000	0.010	-0.181
-381.946	-124.215	-0.309	0.048
-380.931	196.335	-0.055	0.083
-379.917	800.000	-0.098	-0.282
-378.902	676.754	-0.179	-0.460
-377.888	800.000	-0.083	-0.288
-376.873	53.959	-0.276	-0.263
-375.858	800.000	-0.075	-0.294
-374.844	-18.929	0.204	0.126
-373.829	-10.507	0.279	0.183
-372.815	149.544	-0.101	-0.136
-371.800	-200.000	-0.010	0.129
-370.785	800.000	-0.029	0.106
-369.771	-46.881	-0.074	-0.036
-368.756	374.457	-0.146	-0.294
-367.742	-72.626	0.184	0.067
-366.727	47.392	0.132	-0.122
-365.712	-75.692	-0.111	0.039
-364.698	-200.000	-0.009	0.112
-363.683	268.224	0.053	-0.093
-362.669	21.964	-0.216	0.175
-361.654	253.298	-0.146	-0.248
-360.639	-162.424	0.332	-0.016
-359.625	-108.950	-0.105	0.022
-358.610	125.276	0.074	-0.093
-357.596	22.272	-0.279	-0.226
-356.581	120.143	0.131	0.161
-355.566	-66.353	-0.080	-0.032
-354.552	-200.000	0.022	0.111
-353.537	138.735	0.049	-0.064
-352.523	-56.956	0.356	0.156
-351.508	644.610	-0.138	0.349
-350.493	150.774	0.154	0.207
-349.479	24.086	-0.197	0.161
-348.464	-23.849	0.068	0.040
-347.450	27.473	0.328	0.273
-346.435	800.000	0.025	0.096
-345.420	-200.000	0.042	-0.201
-344.406	304.844	-0.156	0.287
-343.391	511.258	-0.097	0.225
-342.377	567.988	-0.044	0.105
-341.362	250.513	0.075	-0.126
-340.348	-90.781	-0.151	0.043
-339.333	244.110	-0.136	0.226
-338.318	800.000	0.026	-0.072
-337.304	-5.190	0.204	0.139
-336.289	19.933	-0.277	0.221
-335.275	-13.877	0.164	-0.105
-334.260	157.573	0.069	0.095
-333.245	395.990	-0.077	0.159
-332.231	-200.000	0.002	0.115
-331.216	-149.738	0.176	0.014
-330.202	-170.785	0.075	0.003
-329.187	395.284	0.070	-0.144
-328.172	101.775	-0.119	0.137
-327.158	-200.000	0.019	-0.265
-326.143	144.931	-0.221	0.293
-325.129	800.000	0.091	0.252
-324.114	-200.000	0.055	0.266
-323.099	-143.481	0.202	0.019
-322.085	-200.000	-0.016	0.242
-321.070	-171.949	0.160	-0.005
-320.056	800.000	0.056	-0.216
-319.041	-53.535	-0.444	0.201
-318.026	-143.323	-0.342	-0.032
-317.012	88.340	0.368	0.404
-315.997	800.000	-0.021	-0.061
-314.983	122.391	-0.218	0.270
-313.968	-108.251	0.220	-0.047
-312.953	-200.000	0.001	0.206
-311.939	-120.290	0.067	0.011
-310.924	-10.045	0.218	-0.143
-309.910	191.458	-0.059	0.088
-308.895	-72.912	0.184	0.067
-307.880	265.050	0.174	0.300
-306.866	-78.371	0.346	-0.117
-305.851	29.912	0.043	0.036
-304.837	46.803	0.169	-0.155
-303.822	335.452	-0.060	-0.115
-302.807	-48.340	0.036	-0.017
-301.793	-43.844	0.103	0.051
-300.778	-28.985	-0.074	0.042
-299.764	-200.000	0.000	0.089
-298.749	-132.990	0.313	-0.039
-297.735	-138.841	0.218	-0.023
-296.720	54.922	0.190	-0.181
-295.705	-98.152	-0.142	0.036
-294.691	-119.652	-0.047	0.008
-293.676	-111.540	0.108	-0.022
-292.662	-18.514	0.209	0.129
-291.647	-200.000	0.039	0.197
-290.632	482.368	-0.003	-0.008
-289.618	387.207	-0.094	0.192
-288.603	-200.000	-0.068	0.540
-287.589	361.192	0.084	0.165
-286.574	-200.000	-0.033	-0.193
-285.559	-200.000	-0.032	0.263
-284.545	-133.611	0.193	0.024
-283.530	-125.996	-0.376	0.056
-282.516	-49.070	0.101	0.048
-281.501	-96.369	-0.281	-0.073
-280.486	-79.173	0.091	0.031
-279.472	60.359	0.165	-0.161
-278.457	-200.000	0.042	0.193
-277.443	139.472	0.084	-0.109
-276.428	233.533	0.102	-0.166
-275.413	-52.270	-0.460	0.210
-274.399	-65.476	0.199	0.079
-273.384	-0.862	-0.211	-0.148
-272.370	-57.196	-0.250	0.109
-271.355	13.421	-0.085	-0.065
-270.340	-8.255	0.216	0.144
-269.326	190.293	0.059	0.087
-268.311	109.316	-0.221	-0.261
-267.297	9.672	-0.268	-0.201
-266.282	-82.528	0.171	-0.055
-265.267	209.503	-0.014	0.021
-264.253	-31.666	-0.235	-0.130
-263.238	-200.000	0.051	0.224
-262.224	800.000	-0.067	-0.270
-261.209	508.180	-0.046	-0.106
-260.195	-130.051	-0.232	0.031
-259.180	800.000	0.077	0.234
-258.165	-95.212	0.229	-0.061
-257.151	175.497	-0.150	-0.215
-256.136	-32.837	-0.017	0.010
-255.122	-12.829	0.274	-0.176
-254.107	-148.199	-0.427	0.035
-253.092	51.660	-0.135	-0.126
-252.078	-49.311	0.368	0.173
-251.063	800.000	-0.071	-0.279
-250.049	-158.041	-0.508	0.029
-249.034	96.361	-0.176	-0.199
-248.019	-118.676	-0.233	0.041
-247.005	-162.120	0.239	-0.012
-245.990	84.310	-0.188	0.203
-244.976	672.376	-0.096	0.244
-243.961	41.620	0.095	-0.085
-242.946	-5.097	-0.103	-0.070
-241.932	-200.000	-0.012	0.208
-240.917	11.794	0.093	0.071
-239.903	-200.000	0.010	-0.304
-238.888	96.784	0.036	-0.040
-237.873	47.232	0.168	-0.154
-236.859	-169.893	-0.083	-0.003
-235.844	-146.265	0.279	0.024
-234.830	63.739	0.231	0.229
-233.815	-13.760	0.117	-0.074
-232.800	632.537	-0.046	-0.114
-231.786	800.000	0.076	-0.287
-230.771	-131.060	0.040	0.005
-229.757	27.270	0.203	0.168
-228.742	108.554	0.220	0.259
-227.727	3.809	-0.040	-0.029
-226.713	-125.341	-0.252	0.038
-225.698	5.476	0.106	-0.077
-224.684	-200.000	0.003	-0.050
-223.669	-74.815	0.262	-0.093
-222.655	-82.741	0.333	-0.106
-221.640	483.302	0.070	-0.158
-220.625	800.000	0.096	-0.374
-219.611	-200.000	0.008	-0.068
-218.596	146.797	-0.015	-0.020
-217.582	597.927	-0.078	0.190
-216.567	-200.000	-0.146	-0.000
-215.552	-7.146	0.166	-0.111
-214.538	-200.000	-0.005	-0.200
-213.523	-200.000	0.040	-0.260
-212.509	-47.475	-0.199	0.095
-211.494	63.706	-0.087	0.086
-210.479	-147.208	-0.223	-0.019
-209.465	-9.856	-0.552	0.362
-208.450	-200.000	-0.003	0.036
-207.436	166.735	0.199	0.278
-206.421	471.254	-0.114	-0.252
-205.406	800.000	0.029	-0.088
-204.392	273.091	0.154	-0.268
-203.377	-200.000	0.004	0.177
-202.363	-175.903	0.288	-0.008
-201.348	69.639	0.100	-0.101
-200.333	155.376	0.076	0.103
-199.319	800.000	-0.065	-0.194
-198.304	-200.000	0.003	0.135
-197.290	237.951	-0.065	-0.106
-196.275	-120.412	0.190	0.032
-195.260	34.471	-0.111	0.096
-194.246	-25.551	-0.257	-0.149
-193.231	271.326	-0.214	-0.371
-192.217	-200.000	-0.072	-0.399
-191.202	800.000	0.081	-0.290
-190.187	-200.000	0.032	-0.214
-189.173	-200.000	-0.020	0.126
-188.158	-29.036	0.186	-0.105
-187.144	17.376	0.195	-0.152
-186.129	118.791	0.257	-0.313
-185.114	118.080	-0.184	0.223
-184.100	34.955	0.155	0.134
-183.085	-200.000	-0.032	0.315
-182.071	308.536	-0.114	0.210
-181.056	-20.926	0.131	0.079
-180.042	25.579	-0.156	-0.128
-179.027	386.214	-0.064	-0.130
-178.012	82.998	0.071	0.076
-176.998	-200.000	-0.041	-0.186
-175.983	-83.381	-0.259	-0.082
-174.969	800.000	-0.018	0.051
-173.954	-134.245	-0.257	-0.031
-172.939	-18.613	-0.121	-0.074
-171.925	-200.000	-0.030	0.188
-170.910	-124.816	0.418	0.063
-169.896	-30.833	0.237	-0.132
-168.881	166.577	-0.260	-0.363
-167.866	729.020	-0.058	-0.154
-166.852	119.838	-0.185	0.225
-165.837	800.000	0.136	0.399
-164.823	-16.814	0.130	-0.081
-163.808	288.279	-0.216	-0.384
-162.793	243.054	-0.030	-0.050
-161.779	-69.553	0.159	-0.060
-160.764	-120.165	0.098	-0.016
-159.750	441.766	0.106	-0.228
-158.735	1.945	0.126	0.089
-157.720	-112.545	0.472	0.093
-156.706	-132.604	0.043	0.005
-155.691	20.691	0.043	-0.035
-154.677	-28.364	0.269	0.153
-153.662	427.701	0.012	-0.025
-152.647	-200.000	-0.008	-0.182
-151.633	-147.800	0.307	0.025
-150.618	185.278	-0.074	0.108
-149.604	55.239	0.139	0.132
-148.589	-53.440	-0.167	-0.075
-147.574	-200.000	0.025	-0.140
-146.560	-33.044	0.171	-0.093
-145.545	9.238	-0.070	-0.052
-144.531	-49.075	-0.316	0.149
-143.516	800.000	0.049	-0.134
-142.502	36.143	-0.264	-0.228
-141.487	244.030	-0.131	-0.216
-140.472	-88.855	0.112	-0.033
-139.458	-172.200	0.187	-0.006
-138.443	461.952	-0.048	-0.105
-137.429	219.225	0.137	0.215
-136.414	23.366	0.276	0.223
-135.399	800.000	-0.087	-0.235
-134.385	-79.156	-0.270	0.090
-133.370	549.853	0.031	-0.074
-132.356	64.611	0.255	0.252
-131.341	77.077	0.198	-0.207
-130.326	516.268	-0.114	-0.263
-129.312	-147.881	0.102	0.008
-128.297	-112.413	0.243	0.048
-127.283	-115.457	0.312	-0.058
-126.268	79.487	-0.158	-0.167
-125.253	180.235	0.073	-0.106
-124.239	177.161	-0.116	0.167
-123.224	-40.443	0.087	0.044
-122.210	-10.698	0.165	0.107
-121.195	-39.429	-0.021	-0.011
