DTS Sentinel unit serial number:	SN413079Multiplexer serial number:	ORYXHardware model number:	OX4-SRSoftware version number:	ORYX F/W v4.00 Oryx Data Collector v3.7.2.0data status	okinstallation	princeton_trtdifferential loss correction	single-endedforward channel	channel 1reverse channel	N/Adate	2019/09/16time	11:38:35forward acquisition time	60.00reverse acquisition time	0.00gamma	496.2192k internal	0.2296k external	0.2296temperature offset calibration	0.9964default loss term (dB/km)	0.3790temperature slope calibration	1.0000multiplexer offset coefficient	1.0000multiplexer slope coefficient	1.0000fibre end	0.00T internal ref (°C)	37.92T ext. ref 1 (°C)	13.01T ext. ref 2 (°C)	35.30length (m)	temperature (°C)	Stokes	anti-Stokes-747.200	-200.000	-0.002	-0.222
-746.185	200.344	-0.174	0.273
-745.171	740.258	-0.093	0.256
-744.156	97.704	-0.028	0.033
-743.142	57.250	0.269	-0.268
-742.127	3.238	-0.157	0.117
-741.112	800.000	-0.044	-0.123
-740.098	138.775	0.235	0.316
-739.083	720.795	0.104	-0.283
-738.069	15.363	-0.360	0.288
-737.054	662.932	-0.134	-0.354
-736.039	-200.000	-0.029	-0.286
-735.025	299.882	-0.096	0.181
-734.010	-45.509	-0.312	-0.158
-732.996	685.863	0.038	0.100
-731.981	-200.000	-0.037	-0.236
-730.966	-200.000	0.270	0.001
-729.952	-178.456	-0.074	0.002
-728.937	-65.162	0.187	0.077
-727.923	39.212	-0.138	-0.126
-726.908	-38.400	-0.398	-0.215
-725.894	596.214	-0.116	0.293
-724.879	100.026	-0.101	-0.120
-723.864	143.039	-0.083	0.112
-722.850	800.000	-0.019	-0.057
-721.835	-200.000	0.007	-0.123
-720.821	3.834	-0.084	0.063
-719.806	800.000	-0.020	-0.068
-718.791	-200.000	-0.004	-0.446
-717.777	800.000	-0.040	0.133
-716.762	-200.000	-0.043	-0.364
-715.748	6.441	-0.032	0.024
-714.733	-135.703	0.324	-0.039
-713.718	173.012	-0.182	-0.268
-712.704	-78.215	-0.189	-0.066
-711.689	800.000	0.098	0.293
-710.675	-125.041	-0.103	-0.016
-709.660	-96.856	-0.334	0.089
-708.645	-22.457	0.339	0.209
-707.631	800.000	0.051	-0.220
-706.616	298.127	0.096	0.180
-705.602	-200.000	-0.018	-0.248
-704.587	128.049	0.057	-0.074
-703.572	11.544	-0.118	0.092
-702.558	31.869	-0.266	0.234
-701.543	-30.445	0.120	0.069
-700.529	100.612	0.191	-0.226
-699.514	667.916	-0.043	-0.115
-698.499	800.000	0.092	-0.294
-697.485	161.720	-0.164	0.234
-696.470	800.000	-0.077	0.225
-695.456	67.302	0.111	0.116
-694.441	-200.000	-0.031	-0.187
-693.426	800.000	-0.067	0.229
-692.412	415.882	0.054	0.118
-691.397	-182.997	-0.255	-0.005
-690.383	512.703	-0.093	-0.221
-689.368	439.426	-0.037	0.082
-688.354	-55.959	-0.456	-0.207
-687.339	508.788	-0.109	-0.259
-686.324	138.096	0.160	-0.214
-685.310	193.683	0.103	0.160
-684.295	-101.144	-0.231	0.058
-683.281	-200.000	-0.027	-0.172
-682.266	-133.011	-0.446	0.058
-681.251	-38.721	-0.146	0.078
-680.237	-96.958	0.218	0.058
-679.222	-113.404	0.172	-0.034
-678.208	-115.360	0.293	0.056
-677.193	13.407	0.114	-0.090
-676.178	83.926	-0.097	-0.108
-675.164	-70.913	0.150	0.057
-674.149	355.228	-0.074	-0.151
-673.135	-200.000	0.041	-0.276
-672.120	-99.025	0.220	-0.057
-671.105	-78.853	-0.208	-0.072
-670.091	33.021	0.096	0.085
-669.076	211.845	0.060	-0.096
-668.062	800.000	-0.028	0.092
-667.047	-70.401	-0.111	-0.043
-666.032	128.553	0.121	0.157
-665.018	300.777	0.124	-0.232
-664.003	800.000	-0.097	-0.319
-662.989	-105.803	-0.266	0.061
-661.974	-200.000	-0.056	0.396
-660.959	-135.948	0.167	-0.020
-659.945	-125.340	-0.293	-0.046
-658.930	532.823	0.122	0.293
-657.916	493.104	0.068	0.158
-656.901	-89.876	-0.137	0.041
-655.886	-5.516	-0.018	-0.013
-654.872	281.473	0.119	-0.216
-653.857	512.909	-0.120	0.284
-652.843	-25.816	-0.092	0.055
-651.828	332.486	0.079	-0.155
-650.814	323.336	-0.124	0.240
-649.799	-200.000	0.030	0.196
-648.784	-100.534	0.253	0.064
-647.770	-200.000	-0.018	-0.229
-646.755	-11.578	0.242	-0.162
-645.741	-200.000	-0.005	-0.225
-644.726	25.327	-0.301	-0.254
-643.711	11.981	-0.277	-0.216
-642.697	-200.000	0.066	0.419
-641.682	639.229	-0.117	-0.303
-640.668	-195.234	0.229	0.002
-639.653	65.814	0.064	-0.066
-638.638	-64.777	0.224	-0.092
-637.624	-71.444	0.193	0.073
-636.609	290.078	0.131	-0.242
-635.595	566.624	-0.120	-0.297
-634.580	333.104	0.066	-0.130
-633.565	-166.171	-0.158	0.007
-632.551	-200.000	-0.021	0.110
-631.536	-200.000	-0.034	0.167
-630.522	43.441	0.201	-0.187
-629.507	-32.606	0.312	-0.177
-628.492	129.994	0.141	-0.184
-627.478	-157.700	-0.054	-0.003
-626.463	-200.000	-0.038	-0.350
-625.449	-200.000	0.022	0.248
-624.434	-200.000	-0.016	0.221
-623.419	800.000	0.111	-0.460
-622.405	251.798	0.140	-0.242
-621.390	-200.000	-0.065	0.470
-620.376	-200.000	-0.012	0.195
-619.361	343.632	-0.052	-0.104
-618.346	-52.274	-0.342	-0.161
-617.332	-61.032	0.125	0.054
-616.317	-200.000	0.001	-0.029
-615.303	800.000	0.069	-0.197
-614.288	361.905	-0.122	0.249
-613.273	-200.000	0.001	0.300
-612.259	122.972	0.181	0.230
-611.244	11.037	-0.096	-0.075
-610.230	-200.000	-0.018	-0.106
-609.215	536.467	-0.088	-0.212
-608.201	110.036	-0.114	-0.139
-607.186	-200.000	-0.026	-0.155
-606.171	-200.000	-0.008	-0.260
-605.157	-88.121	-0.261	-0.079
-604.142	55.695	-0.079	-0.078
-603.128	156.199	0.085	0.119
-602.113	173.212	0.053	0.078
-601.098	800.000	-0.044	0.155
-600.084	-59.486	0.048	0.021
-599.069	84.247	-0.229	0.254
-598.055	-20.395	-0.194	-0.121
-597.040	-200.000	0.012	0.068
-596.025	27.999	-0.091	0.078
-595.011	446.817	-0.060	-0.134
-593.996	365.263	0.165	-0.339
-592.982	155.623	0.063	0.089
-591.967	-44.251	-0.057	-0.029
-590.952	-64.107	-0.114	-0.047
-589.938	549.467	0.064	0.155
-588.923	-200.000	0.024	0.271
-587.909	-200.000	-0.038	-0.212
-586.894	287.180	0.148	-0.271
-585.879	275.634	0.152	-0.273
-584.865	-200.000	0.161	0.001
-583.850	118.307	0.034	0.042
-582.836	26.240	0.028	0.024
-581.821	-36.134	-0.194	-0.106
-580.806	57.104	0.250	0.248
-579.792	-147.572	0.067	0.006
-578.777	199.406	-0.019	0.030
-577.763	23.344	0.086	-0.072
-576.748	410.095	-0.082	0.177
-575.733	48.607	-0.289	0.274
-574.719	-166.996	-0.250	0.010
-573.704	-200.000	-0.093	0.486
-572.690	237.471	0.048	-0.080
-571.675	-8.139	0.213	0.146
-570.661	800.000	0.031	-0.113
-569.646	-200.000	-0.034	-0.299
-568.631	178.031	-0.067	-0.099
-567.617	-200.000	-0.057	-0.471
-566.602	-17.654	-0.158	0.101
-565.588	-200.000	0.032	0.152
-564.573	193.338	-0.048	-0.074
-563.558	102.230	-0.017	-0.020
-562.544	-108.942	0.078	0.017
-561.529	269.074	0.145	0.258
-560.515	-164.521	-0.273	0.013
-559.500	-200.000	-0.002	0.153
-558.485	-200.000	0.014	-0.081
-557.471	800.000	0.119	0.369
-556.456	-200.000	-0.009	0.238
-555.442	126.733	0.165	-0.212
-554.427	-200.000	0.063	0.287
-553.412	800.000	-0.032	-0.104
-552.398	800.000	-0.008	-0.034
-551.383	150.170	-0.136	0.187
-550.369	-92.262	-0.164	0.047
-549.354	-55.312	0.141	0.064
-548.339	-14.305	-0.326	0.213
-547.325	-24.282	-0.041	0.025
-546.310	188.364	0.068	-0.103
-545.296	-86.815	-0.147	0.046
-544.281	-61.047	0.184	0.079
-543.266	-200.000	0.006	0.323
-542.252	31.010	0.154	0.134
-541.237	-72.098	-0.275	-0.104
-540.223	-200.000	-0.013	0.337
-539.208	-21.516	-0.170	-0.105
-538.193	116.598	0.138	-0.171
-537.179	131.462	-0.162	0.211
-536.164	94.242	-0.336	0.387
-535.150	-200.000	-0.059	0.425
-534.135	18.837	-0.191	-0.155
-533.121	-48.425	-0.215	0.105
-532.106	66.585	0.066	-0.068
-531.091	-200.000	-0.037	0.269
-530.077	-200.000	0.036	0.361
-529.062	275.432	-0.014	0.025
-528.048	18.054	0.102	-0.083
-527.033	-200.000	0.069	-0.542
-526.018	-45.339	0.133	-0.067
-525.004	-30.238	0.068	0.039
-523.989	-169.761	-0.224	-0.008
-522.975	50.556	-0.107	-0.103
-521.960	-200.000	0.005	-0.063
-520.945	316.555	0.194	0.371
-519.931	-9.102	-0.111	0.075
-518.916	29.541	0.100	0.087
-517.902	800.000	-0.050	0.202
-516.887	800.000	0.054	0.198
-515.872	22.974	0.296	-0.245
-514.858	800.000	-0.020	0.055
-513.843	-158.299	0.234	0.014
-512.829	351.016	-0.132	0.264
-511.814	-200.000	-0.015	0.291
-510.799	411.220	-0.188	-0.403
-509.785	-45.449	0.163	0.082
-508.770	129.032	0.079	-0.102
-507.756	94.341	-0.157	0.181
-506.741	-23.070	0.022	0.013
-505.726	-78.923	0.104	0.036
-504.712	230.333	0.038	0.062
-503.697	468.757	-0.097	-0.220
-502.683	800.000	0.094	-0.318
-501.668	-31.823	-0.172	-0.098
-500.653	-163.141	-0.103	0.005
-499.639	36.491	0.115	0.103
-498.624	469.197	0.117	0.266
-497.610	-200.000	0.033	0.215
-496.595	-200.000	-0.035	-0.191
-495.581	-92.735	0.131	-0.037
-494.566	295.928	0.040	-0.073
-493.551	-119.834	-0.238	0.041
-492.537	-139.233	-0.435	-0.047
-491.522	47.091	-0.165	-0.155
-490.508	-13.431	0.267	-0.175
-489.493	5.116	-0.130	-0.097
-488.478	94.094	0.153	-0.176
-487.464	556.187	0.018	-0.045
-486.449	-108.561	-0.283	-0.061
-485.435	637.748	-0.065	-0.167
-484.420	-19.649	-0.109	-0.068
-483.405	800.000	0.089	0.280
-482.391	-200.000	0.027	0.129
-481.376	-35.014	-0.080	0.044
-480.362	530.440	0.069	0.164
-479.347	-16.244	0.121	0.077
-478.332	295.771	0.169	-0.312
-477.318	800.000	-0.095	-0.319
-476.303	102.481	0.126	0.149
-475.289	-200.000	0.036	0.230
-474.274	116.926	-0.281	-0.349
-473.259	-200.000	0.002	-0.110
-472.245	-200.000	-0.001	0.191
-471.230	360.431	0.072	0.145
-470.216	-22.783	-0.115	0.070
-469.201	42.853	0.088	0.081
-468.186	-38.347	-0.247	-0.132
-467.172	-20.954	0.249	-0.154
-466.157	232.934	-0.158	0.263
-465.143	292.994	0.129	-0.237
-464.128	-146.719	0.135	0.012
-463.113	-45.791	-0.277	0.138
-462.099	-19.544	-0.139	-0.087
-461.084	-200.000	-0.049	-0.371
-460.070	7.037	0.204	0.154
-459.055	189.009	-0.135	0.204
-458.040	252.020	-0.138	-0.237
-457.026	-174.137	0.236	0.007
-456.011	-124.409	-0.450	-0.071
-454.997	-2.940	0.301	0.212
-453.982	800.000	-0.014	-0.057
-452.968	800.000	0.079	0.282
-451.953	-200.000	-0.019	-0.124
-450.938	160.974	0.092	-0.130
-449.924	800.000	-0.009	-0.037
-448.909	-64.389	-0.256	0.105
-447.895	-28.850	-0.276	-0.160
-446.880	-135.544	0.078	0.009
-445.865	56.175	-0.181	0.178
-444.851	135.367	0.160	-0.210
-443.836	-18.987	0.053	-0.033
-442.822	198.623	0.172	-0.267
-441.807	114.901	-0.087	-0.107
-440.792	-63.942	0.116	0.048
-439.778	766.363	-0.090	0.248
-438.763	-170.633	-0.459	-0.016
-437.749	310.475	0.095	-0.179
-436.734	-133.250	0.227	-0.029
-435.719	-135.233	-0.237	-0.029
-434.705	471.617	-0.095	-0.215
-433.690	144.253	0.181	-0.244
-432.676	7.499	0.117	-0.088
-431.661	-6.705	-0.144	0.099
-430.646	154.061	-0.114	0.158
-429.632	-200.000	-0.014	-0.282
-428.617	-6.687	0.231	0.159
-427.603	116.721	0.188	-0.233
-426.588	5.451	0.315	-0.235
-425.573	-200.000	0.028	-0.592
-424.559	-161.847	0.249	0.013
-423.544	144.288	-0.044	0.059
-422.530	-28.999	0.150	-0.087
-421.515	-134.097	0.468	-0.058
-420.500	-200.000	0.025	-0.118
-419.486	62.783	0.166	0.168
-418.471	471.830	-0.109	0.248
-417.457	-42.582	0.157	0.080
-416.442	-6.567	0.364	0.250
-415.428	-48.900	0.067	0.033
-414.413	86.087	-0.023	-0.025
-413.398	-200.000	0.042	0.230
-412.384	293.447	-0.120	0.221
-411.369	800.000	-0.021	-0.071
-410.355	-200.000	-0.006	0.103
-409.340	-19.782	-0.140	0.087
-408.325	-21.148	0.064	0.040
-407.311	-120.336	-0.369	0.063
-406.296	-171.028	-0.287	-0.010
-405.282	-200.000	-0.034	0.177
-404.267	139.292	-0.215	0.286
-403.252	-109.665	-0.081	0.017
-402.238	800.000	-0.122	-0.347
-401.223	-200.000	0.063	0.375
-400.209	-29.391	0.119	0.069
-399.194	383.414	-0.158	0.327
-398.179	-175.225	-0.058	0.002
-397.165	48.821	-0.129	-0.122
-396.150	-60.220	0.172	-0.074
-395.136	37.266	0.220	-0.196
-394.121	-136.592	0.298	-0.035
-393.106	-137.905	0.124	-0.014
-392.092	-82.565	-0.045	0.015
-391.077	-200.000	-0.049	0.279
-390.063	174.714	0.229	0.333
-389.048	-67.897	0.079	-0.031
-388.033	-179.139	0.423	-0.010
-387.019	-53.266	-0.373	0.172
-386.004	-30.675	-0.243	0.139
-384.990	294.964	0.136	0.250
-383.975	-11.207	-0.133	0.088
-382.960	241.299	0.109	-0.183
-381.946	-200.000	0.040	0.247
-380.931	493.729	-0.113	0.262
-379.917	-200.000	-0.303	0.000
-378.902	-200.000	-0.018	-0.244
-377.888	800.000	0.077	-0.305
-376.873	-145.197	-0.183	0.017
-375.858	254.566	-0.185	-0.319
-374.844	51.644	0.066	0.063
-373.829	-85.164	-0.218	-0.069
-372.815	44.525	0.184	-0.170
-371.800	-22.013	-0.137	0.084
-370.785	-200.000	-0.041	0.191
-369.771	-147.867	0.048	-0.004
-368.756	-138.411	0.081	-0.009
-367.742	800.000	0.127	-0.419
-366.727	-153.681	0.325	0.023
-365.712	62.901	-0.056	-0.056
-364.698	465.345	0.023	0.052
-363.683	-76.339	0.157	-0.056
-362.669	-200.000	-0.021	0.121
-361.654	-200.000	0.009	0.090
-360.639	-200.000	-0.009	0.109
-359.625	-74.040	-0.302	-0.110
-358.610	-39.536	0.027	-0.014
-357.596	114.835	-0.308	-0.377
-356.581	198.802	0.181	-0.279
-355.566	-0.509	0.123	0.088
-354.552	-82.634	-0.148	0.048
-353.537	-77.180	-0.373	-0.131
-352.523	146.467	-0.183	-0.247
-351.508	225.825	0.049	0.080
-350.493	76.723	-0.104	0.111
-349.479	152.360	0.050	-0.068
-348.464	-145.653	0.236	0.021
-347.450	-200.000	-0.035	0.499
-346.435	-200.000	0.023	-0.184
-345.420	92.444	-0.048	0.054
-344.406	98.797	0.134	0.156
-343.391	800.000	0.039	0.145
-342.377	17.728	0.440	-0.352
-341.362	118.275	-0.174	-0.216
-340.348	800.000	-0.076	0.236
-339.333	-200.000	-0.026	0.147
-338.318	180.773	0.107	-0.158
-337.304	13.447	0.224	-0.174
-336.289	232.088	-0.210	0.347
-335.275	-47.993	0.228	-0.111
-334.260	-45.189	-0.192	-0.096
-333.245	-105.058	0.330	-0.076
-332.231	-71.481	0.208	-0.078
-331.216	800.000	-0.087	-0.259
-330.202	587.028	0.008	-0.019
-329.187	800.000	-0.083	0.333
-328.172	73.666	-0.071	0.075
-327.158	33.839	-0.090	0.078
-326.143	-200.000	0.032	0.196
-325.129	-200.000	0.002	-0.069
-324.114	-44.227	-0.059	0.030
-323.099	-133.081	-0.299	0.038
-322.085	-146.647	0.435	-0.038
-321.070	-200.000	-0.030	-0.180
-320.056	800.000	0.027	-0.078
-319.041	745.439	0.033	-0.089
-318.026	-200.000	0.098	0.510
-317.012	-128.709	0.061	0.009
-315.997	75.575	-0.196	0.208
-314.983	800.000	-0.079	0.296
-313.968	-200.000	-0.026	0.219
-312.953	-164.510	0.286	-0.013
-311.939	-200.000	0.014	-0.354
-310.924	-45.503	-0.063	-0.032
-309.910	-200.000	0.006	-0.093
-308.895	6.532	-0.084	0.063
-307.880	5.855	0.279	0.208
-306.866	82.057	-0.167	0.182
-305.851	413.288	0.029	0.062
-304.837	36.298	-0.045	0.040
-303.822	-25.180	0.322	-0.191
-302.807	78.511	0.198	-0.213
-301.793	26.756	-0.034	0.029
-300.778	110.694	-0.094	-0.114
-299.764	800.000	0.187	-0.522
-298.749	110.756	-0.163	-0.197
-297.735	-166.338	-0.092	-0.004
-296.720	4.428	0.271	-0.200
-295.705	-92.639	0.150	-0.042
-294.691	-11.802	0.250	0.164
-293.676	86.775	0.253	0.280
-292.662	-1.643	-0.190	0.134
-291.647	-45.614	-0.068	-0.034
-290.632	-200.000	-0.088	-0.479
-289.618	51.421	-0.179	-0.171
-288.603	-146.329	0.092	-0.008
-287.589	800.000	-0.071	0.275
-286.574	800.000	0.148	0.492
-285.559	-145.839	0.381	0.034
-284.545	56.022	-0.194	-0.189
-283.530	-200.000	-0.006	0.092
-282.516	248.487	-0.045	-0.076
-281.501	-92.877	-0.245	-0.069
-280.486	436.110	-0.113	0.247
-279.472	306.669	0.013	0.024
-278.457	-1.484	0.201	0.142
-277.443	-200.000	0.046	-0.238
-276.428	-77.545	0.240	-0.083
-275.413	-175.137	0.097	-0.003
-274.399	-200.000	0.074	-0.432
-273.384	148.614	0.064	-0.086
-272.370	-126.478	0.360	0.054
-271.355	800.000	0.044	-0.148
-270.340	538.147	-0.065	0.156
-269.326	-113.766	0.335	-0.065
-268.311	2.369	0.260	0.188
-267.297	232.894	0.146	0.241
-266.282	-154.978	0.133	-0.009
-265.267	-200.000	-0.031	0.219
-264.253	24.727	0.256	0.212
-263.238	-178.043	-0.188	-0.004
-262.224	-90.913	-0.079	-0.023
-261.209	206.552	-0.145	-0.227
-260.195	-25.964	-0.126	-0.074
-259.180	117.109	0.162	0.200
-258.165	-200.000	0.016	-0.115
-257.151	-59.181	-0.302	-0.131
-256.136	66.214	-0.182	-0.186
-255.122	-200.000	-0.074	-0.465
-254.107	-200.000	-0.019	-0.090
-253.092	-89.178	-0.246	-0.073
-252.078	46.433	-0.074	-0.069
-251.063	-200.000	0.030	-0.223
-250.049	800.000	-0.055	-0.212
-249.034	86.485	-0.190	0.210
-248.019	-200.000	0.025	0.119
-247.005	-180.702	-0.375	0.008
-245.990	-63.643	0.126	0.052
-244.976	735.783	-0.167	-0.447
-243.961	58.407	-0.092	0.090
-242.946	-96.938	0.323	0.085
-241.932	-200.000	0.009	0.065
-240.917	-200.000	-0.064	0.345
-239.903	-167.972	0.261	0.010
-238.888	-131.501	0.042	-0.006
-237.873	296.927	-0.091	-0.168
-236.859	-65.896	-0.223	-0.089
-235.844	-31.938	-0.044	0.025
-234.830	196.341	0.105	-0.161
-233.815	-176.485	-0.211	0.005
-232.800	653.168	0.049	-0.127
-231.786	-200.000	0.031	0.303
-230.771	-200.000	0.020	0.093
-229.757	-200.000	0.038	-0.284
-228.742	-22.211	0.151	0.092
-227.727	-79.044	0.308	0.105
-226.713	65.100	0.223	-0.226
-225.698	-92.386	-0.122	-0.034
-224.684	283.755	-0.101	-0.182
-223.669	315.558	0.121	-0.228
-222.655	47.369	0.103	0.096
-221.640	157.537	0.173	-0.239
-220.625	-62.153	-0.205	-0.086
-219.611	-19.352	-0.054	-0.034
-218.596	-200.000	-0.015	-0.125
-217.582	372.022	0.087	-0.177
-216.567	-200.000	0.269	-0.000
-215.552	122.583	0.158	0.197
-214.538	-121.114	0.052	0.009
-213.523	-200.000	-0.038	-0.238
-212.509	230.413	-0.050	-0.082
-211.494	-66.651	-0.342	-0.136
-210.479	-33.231	0.098	-0.055
-209.465	-3.088	-0.127	0.089
-208.450	-200.000	-0.053	0.345
-207.436	-83.394	-0.498	-0.160
-206.421	-22.515	-0.133	0.080
-205.406	77.921	-0.122	-0.131
-204.392	550.495	-0.138	0.331
-203.377	800.000	-0.048	0.132
-202.363	-200.000	0.006	0.180
-201.348	800.000	0.028	0.095
-200.333	4.677	0.254	0.187
-199.319	132.304	-0.166	0.214
-198.304	32.946	-0.047	-0.041
-197.290	44.067	0.109	0.100
-196.275	-107.721	-0.195	-0.042
-195.260	27.803	0.057	-0.048
-194.246	632.737	-0.116	-0.294
-193.231	-55.692	-0.173	0.077
-192.217	521.565	0.046	0.107
-191.202	-136.345	0.332	-0.039
-190.187	16.212	-0.038	0.030
-189.173	214.783	-0.122	0.193
-188.158	-31.758	-0.127	-0.071
-187.144	55.588	-0.203	0.197
-186.129	-131.017	-0.011	0.001
-185.114	-20.851	-0.116	-0.071
-184.100	-154.063	-0.313	-0.021
-183.085	82.398	0.274	-0.298
-182.071	232.405	-0.127	0.208
-181.056	152.462	-0.066	-0.090
-180.042	289.426	-0.095	0.172
-179.027	800.000	0.017	0.066
-178.012	-48.200	0.076	0.036
-176.998	351.843	-0.122	0.241
-175.983	119.413	0.246	0.305
-174.969	-200.000	-0.013	0.122
-173.954	-200.000	0.030	-0.201
-172.939	-200.000	-0.053	0.232
-171.925	18.382	-0.144	-0.115
-170.910	800.000	0.059	-0.172
-169.896	339.064	-0.072	0.140
-168.881	-53.181	0.127	0.058
-167.866	167.525	-0.104	-0.148
-166.852	-115.667	-0.076	-0.014
-165.837	-200.000	-0.038	0.256
-164.823	-68.680	-0.149	0.058
-163.808	-58.962	0.239	-0.103
-162.793	-187.260	0.254	-0.003
-161.779	266.976	0.020	0.035
-160.764	557.043	0.109	-0.263
-159.750	-169.111	0.115	0.004
-158.735	-109.880	-0.278	0.058
-157.720	338.066	0.097	0.189
-156.706	33.911	0.125	-0.109
-155.691	-60.142	-0.261	-0.111
-154.677	228.969	-0.030	0.049
-153.662	-137.473	0.153	-0.017
-152.647	-200.000	0.021	-0.177
-151.633	549.272	0.093	0.222
-150.618	-22.375	0.065	0.039
-149.604	-79.152	0.438	0.148
-148.589	-4.726	0.190	-0.131
-147.574	119.492	0.027	-0.033
-146.560	800.000	0.053	0.158
-145.545	286.939	-0.120	-0.216
-144.531	-32.693	0.200	0.111
-143.516	-92.387	0.431	0.121
-142.502	-140.989	0.292	-0.030
-141.487	-120.433	-0.102	0.017
-140.472	8.766	-0.047	-0.035
-139.458	100.525	0.171	-0.198
-138.443	296.632	-0.069	0.126
-137.429	-200.000	-0.065	0.316
-136.414	117.029	-0.129	-0.158
-135.399	197.774	0.116	-0.177
-134.385	-0.219	0.196	0.139
-133.370	116.719	-0.179	-0.220
-132.356	188.557	0.069	0.102
-131.341	29.334	0.114	0.096
-130.326	-53.067	-0.059	-0.027
-129.312	150.499	-0.125	0.169
-128.297	713.814	-0.173	0.457
-127.283	800.000	0.115	-0.412
-126.268	87.854	0.133	-0.147
-125.253	67.962	0.178	0.182
-124.239	101.262	0.161	0.186
-123.224	-14.500	0.133	-0.085
-122.210	-7.669	-0.181	0.122
-121.195	280.996	-0.060	0.107
