DTS Sentinel unit serial number:	SN413079Multiplexer serial number:	ORYXHardware model number:	OX4-SRSoftware version number:	ORYX F/W v4.00 Oryx Data Collector v3.7.2.0data status	okinstallation	princeton_trtdifferential loss correction	single-endedforward channel	channel 1reverse channel	N/Adate	2019/09/14time	23:46:35forward acquisition time	60.00reverse acquisition time	0.00gamma	496.2192k internal	0.2320k external	0.2320temperature offset calibration	0.9994default loss term (dB/km)	0.3790temperature slope calibration	1.0000multiplexer offset coefficient	1.0000multiplexer slope coefficient	1.0000fibre end	0.00T internal ref (°C)	32.30T ext. ref 1 (°C)	4.64T ext. ref 2 (°C)	27.27length (m)	temperature (°C)	Stokes	anti-Stokes-747.200	302.047	0.079	-0.149
-746.185	163.227	-0.049	-0.070
-745.171	-38.449	0.074	-0.039
-744.156	-93.217	0.274	0.077
-743.142	153.459	-0.026	-0.036
-742.127	236.873	-0.171	0.287
-741.112	4.169	-0.177	0.131
-740.098	-112.182	0.148	-0.030
-739.083	-105.574	-0.240	0.055
-738.069	-200.000	-0.070	0.353
-737.054	11.432	-0.084	-0.065
-736.039	122.338	0.066	0.084
-735.025	-200.000	0.003	-0.068
-734.010	-128.064	-0.104	-0.015
-732.996	-59.611	-0.365	0.158
-731.981	211.587	0.131	0.209
-730.966	-200.000	0.030	0.253
-729.952	-200.000	-0.021	-0.213
-728.937	106.779	-0.173	-0.207
-727.923	147.964	0.129	-0.176
-726.908	52.858	0.106	0.103
-725.894	27.293	0.107	-0.091
-724.879	-29.162	-0.102	0.059
-723.864	-26.890	0.157	-0.093
-722.850	-200.000	-0.042	-0.258
-721.835	17.109	-0.036	0.029
-720.821	-92.801	-0.169	-0.048
-719.806	-167.743	-0.240	0.010
-718.791	-55.180	-0.229	0.104
-717.777	105.699	0.190	-0.227
-716.762	-19.291	-0.257	-0.161
-715.748	-84.568	-0.116	0.037
-714.733	25.615	0.211	-0.177
-713.718	-112.517	-0.350	-0.071
-712.704	800.000	0.078	0.258
-711.689	624.756	-0.043	-0.110
-710.675	492.513	0.117	-0.272
-709.660	-120.105	0.153	-0.026
-708.645	800.000	-0.035	0.151
-707.631	314.375	0.008	0.015
-706.616	800.000	-0.110	-0.361
-705.602	136.698	0.049	-0.065
-704.587	-91.022	0.082	0.024
-703.572	-128.157	0.157	0.023
-702.558	22.895	0.221	-0.183
-701.543	800.000	-0.131	0.467
-700.529	130.600	-0.132	0.171
-699.514	-200.000	0.246	-0.001
-698.499	-200.000	0.024	0.297
-697.485	-97.569	0.068	-0.018
-696.470	-109.549	-0.344	-0.073
-695.456	-108.497	-0.441	-0.096
-694.441	149.444	0.105	-0.143
-693.426	-200.000	-0.016	-0.087
-692.412	-76.884	-0.163	-0.058
-691.397	90.870	-0.197	0.223
-690.383	345.900	-0.095	0.189
-689.368	-94.816	0.449	0.123
-688.354	-79.497	0.028	-0.009
-687.339	-123.868	0.293	0.047
-686.324	76.614	0.115	-0.123
-685.310	-200.000	0.007	0.147
-684.295	2.132	-0.368	0.268
-683.281	-73.217	-0.134	-0.049
-682.266	190.031	0.081	0.122
-681.251	800.000	0.147	0.426
-680.237	317.571	0.099	0.190
-679.222	47.444	-0.199	-0.187
-678.208	537.189	-0.114	0.272
-677.193	-169.537	-0.193	0.007
-676.178	19.001	-0.175	0.142
-675.164	-135.282	0.188	0.023
-674.149	800.000	0.042	0.137
-673.135	-153.245	-0.035	0.002
-672.120	-137.387	0.214	-0.024
-671.105	800.000	-0.054	0.215
-670.091	553.167	-0.055	0.133
-669.076	-200.000	0.005	0.249
-668.062	-79.760	-0.279	0.095
-667.047	472.273	-0.056	-0.128
-666.032	-200.000	0.013	-0.367
-665.018	-55.181	0.182	0.082
-664.003	-19.018	0.169	-0.106
-662.989	-200.000	-0.012	0.153
-661.974	-200.000	-0.062	-0.333
-660.959	-200.000	-0.040	-0.207
-659.945	-126.569	-0.159	0.024
-658.930	800.000	-0.048	-0.168
-657.916	-57.639	0.185	-0.082
-656.901	-67.564	0.124	-0.049
-655.886	-32.566	0.248	-0.139
-654.872	-137.453	-0.187	-0.021
-653.857	-200.000	0.033	0.213
-652.843	-200.000	-0.005	-0.024
-651.828	-72.488	-0.266	0.099
-650.814	-110.434	0.344	0.072
-649.799	-24.809	0.093	-0.056
-648.784	800.000	-0.020	-0.085
-647.770	-200.000	0.006	0.098
-646.755	92.336	0.258	-0.292
-645.741	-200.000	-0.008	-0.191
-644.726	-123.776	0.198	0.032
-643.711	-68.008	-0.025	0.010
-642.697	800.000	-0.054	-0.206
-641.682	376.657	-0.144	-0.296
-640.668	-98.283	0.035	-0.009
-639.653	-65.786	-0.114	-0.046
-638.638	92.168	-0.037	0.042
-637.624	800.000	-0.111	-0.338
-636.609	130.947	-0.100	0.130
-635.595	-58.171	-0.024	0.010
-634.580	-138.402	-0.350	0.039
-633.565	800.000	0.145	0.507
-632.551	94.806	0.106	0.121
-631.536	-70.949	0.198	0.075
-630.522	86.203	0.104	0.115
-629.507	65.745	-0.229	0.234
-628.492	21.364	0.302	0.247
-627.478	227.247	0.112	-0.183
-626.463	112.791	-0.181	-0.221
-625.449	541.137	0.201	-0.481
-624.434	-70.944	0.124	0.047
-623.419	-116.831	0.153	0.028
-622.405	484.971	-0.015	0.035
-621.390	573.469	-0.015	-0.037
-620.376	-58.396	-0.094	0.041
-619.361	-200.000	0.018	0.248
-618.346	800.000	0.063	0.229
-617.332	223.212	0.070	-0.114
-616.317	18.062	0.160	-0.128
-615.303	-200.000	0.033	0.156
-614.288	800.000	-0.043	-0.132
-613.273	-119.993	0.228	-0.039
-612.259	800.000	-0.077	0.235
-611.244	-5.334	0.170	-0.117
-610.230	64.764	-0.087	-0.089
-609.215	-114.477	-0.120	-0.023
-608.201	299.371	0.145	-0.268
-607.186	622.145	-0.060	-0.152
-606.171	-67.472	-0.070	-0.028
-605.157	-126.038	0.208	-0.031
-604.142	-158.259	0.044	-0.003
-603.128	-55.308	0.127	-0.057
-602.113	-137.431	-0.168	0.019
-601.098	-64.808	-0.298	-0.121
-600.084	-200.000	0.025	-0.262
-599.069	17.899	-0.269	-0.216
-598.055	800.000	-0.040	-0.147
-597.040	109.856	0.065	-0.078
-596.025	-43.364	-0.190	-0.096
-595.011	-200.000	0.001	0.010
-593.996	241.982	0.147	-0.247
-592.982	-18.420	0.069	0.043
-591.967	800.000	-0.063	0.268
-590.952	-200.000	-0.163	-0.000
-589.938	-93.117	0.101	0.028
-588.923	-87.804	-0.255	0.077
-587.909	-94.496	-0.213	-0.058
-586.894	62.065	-0.064	0.065
-585.879	800.000	0.029	0.106
-584.865	-174.166	-0.286	0.008
-583.850	-26.744	0.056	0.033
-582.836	-68.283	0.287	0.112
-581.821	-26.340	0.102	-0.060
-580.806	-171.188	-0.108	-0.004
-579.792	5.597	-0.174	-0.129
-578.777	574.698	0.120	0.294
-577.763	115.413	0.080	0.099
-576.748	251.820	0.090	-0.153
-575.733	148.180	-0.084	-0.114
-574.719	131.868	-0.138	-0.179
-573.704	26.823	-0.143	-0.120
-572.690	231.712	0.095	-0.157
-571.675	14.782	-0.181	0.142
-570.661	-153.094	0.220	-0.016
-569.646	-138.162	0.228	-0.025
-568.631	-196.539	0.145	-0.001
-567.617	419.079	-0.160	-0.344
-566.602	800.000	0.098	-0.343
-565.588	-121.894	-0.051	-0.009
-564.573	-78.519	-0.298	-0.102
-563.558	-200.000	-0.023	-0.170
-562.544	175.919	-0.197	0.287
-561.529	-69.434	-0.235	-0.091
-560.515	-18.150	-0.114	0.071
-559.500	26.873	0.090	-0.076
-558.485	-200.000	0.066	-0.301
-557.471	117.326	0.063	0.078
-556.456	-200.000	-0.043	0.332
-555.442	-43.920	-0.043	0.022
-554.427	-102.091	0.096	-0.023
-553.412	-41.009	0.083	0.043
-552.398	-85.900	0.333	0.103
-551.383	-74.141	0.070	0.026
-550.369	285.670	0.067	-0.122
-549.354	-115.278	-0.206	0.039
-548.339	130.109	0.132	-0.170
-547.325	135.477	0.111	0.146
-546.310	22.405	-0.110	-0.090
-545.296	153.754	-0.058	-0.080
-544.281	162.934	-0.111	0.157
-543.266	-44.747	-0.321	0.161
-542.252	58.558	0.158	0.155
-541.237	250.381	-0.152	0.258
-540.223	-200.000	0.062	0.329
-539.208	270.383	-0.118	-0.208
-538.193	-27.396	0.149	0.087
-537.179	47.334	-0.025	0.023
-536.164	17.904	-0.112	-0.090
-535.150	512.274	0.028	-0.064
-534.135	-43.309	-0.003	0.002
-533.121	-1.097	-0.134	-0.095
-532.106	68.701	0.327	-0.336
-531.091	-0.251	0.239	-0.170
-530.077	-10.119	0.021	-0.014
-529.062	252.147	0.117	0.200
-528.048	800.000	0.105	-0.307
-527.033	27.983	-0.305	0.258
-526.018	207.796	0.283	-0.443
-525.004	481.513	0.167	0.381
-523.989	63.223	0.028	0.028
-522.975	0.070	-0.154	0.110
-521.960	61.102	0.035	0.035
-520.945	49.037	0.343	-0.323
-519.931	-200.000	0.061	-0.428
-518.916	369.800	0.068	0.139
-517.902	-140.728	0.326	-0.034
-516.887	-104.387	-0.233	-0.054
-515.872	175.610	0.167	0.242
-514.858	-200.000	-0.028	-0.536
-513.843	800.000	0.074	-0.210
-512.829	-42.348	-0.439	0.225
-511.814	-27.504	0.060	-0.035
-510.799	-200.000	0.035	0.366
-509.785	237.624	-0.033	0.054
-508.770	-71.743	0.260	-0.097
-507.756	-100.634	-0.109	0.027
-506.741	1.666	0.209	0.150
-505.726	117.852	-0.105	0.130
-504.712	-58.863	0.156	0.068
-503.697	800.000	0.040	-0.138
-502.683	-172.160	0.284	0.009
-501.668	12.927	0.173	0.134
-500.653	-200.000	0.002	0.073
-499.639	281.652	0.122	-0.220
-498.624	800.000	0.058	0.202
-497.610	-136.165	0.603	-0.071
-496.595	194.291	0.124	0.189
-495.581	216.326	-0.038	-0.060
-494.566	-200.000	0.004	-0.337
-493.551	-85.253	-0.182	0.057
-492.537	-87.504	-0.218	0.066
-491.522	-113.230	0.500	0.099
-490.508	70.959	-0.184	0.191
-489.493	-30.232	0.164	-0.093
-488.478	-98.709	-0.212	0.054
-487.464	11.212	-0.231	-0.177
-486.449	800.000	-0.064	0.186
-485.435	800.000	-0.037	0.112
-484.420	-52.959	-0.122	-0.056
-483.405	-59.015	0.043	0.019
-482.391	-200.000	0.290	0.000
-481.376	64.724	0.231	-0.234
-480.362	-107.856	0.266	-0.058
-479.347	224.147	0.077	0.124
-478.332	67.591	-0.102	0.104
-477.318	-126.884	-0.152	-0.022
-476.303	196.068	-0.110	0.168
-475.289	87.510	0.116	-0.129
-474.274	-26.002	0.011	0.006
-473.259	-200.000	-0.012	0.093
-472.245	-93.677	0.175	0.048
-471.230	800.000	-0.087	-0.272
-470.216	-110.620	0.069	-0.014
-469.201	144.092	0.141	0.188
-468.186	11.229	0.334	-0.256
-467.172	-71.055	-0.283	-0.107
-466.157	-28.514	0.086	0.050
-465.143	-24.834	-0.254	0.151
-464.128	430.900	0.033	-0.073
-463.113	-90.686	-0.081	0.024
-462.099	-91.289	0.188	-0.054
-461.084	343.566	0.073	0.142
-460.070	-50.580	-0.065	0.031
-459.055	-109.489	-0.107	-0.023
-458.040	-66.970	-0.136	0.054
-457.026	-81.637	-0.419	0.137
-456.011	-88.622	-0.153	-0.046
-454.997	800.000	-0.059	-0.236
-453.982	168.039	-0.010	-0.015
-452.968	-140.426	-0.329	0.034
-451.953	-144.266	-0.313	-0.029
-450.938	-138.647	-0.128	0.014
-449.924	-76.313	-0.258	-0.091
-448.909	800.000	-0.040	-0.119
-447.895	-92.513	0.249	-0.070
-446.880	800.000	0.067	0.205
-445.865	64.525	0.098	-0.098
-444.851	18.430	-0.244	-0.195
-443.836	-38.817	0.158	-0.083
-442.822	383.662	0.173	0.356
-441.807	-69.768	0.377	-0.144
-440.792	-30.722	0.057	0.032
-439.778	800.000	-0.021	0.090
-438.763	-200.000	-0.031	-0.174
-437.749	-200.000	-0.018	0.111
-436.734	37.032	0.268	0.237
-435.719	-200.000	0.022	-0.169
-434.705	800.000	0.022	-0.087
-433.690	-200.000	-0.022	0.107
-432.676	-200.000	0.012	-0.191
-431.661	-144.017	-0.325	-0.031
-430.646	-75.332	0.401	-0.143
-429.632	31.346	-0.198	-0.170
-428.617	8.415	-0.125	-0.094
-427.603	75.464	-0.079	-0.083
-426.588	-12.745	0.326	0.212
-425.573	-200.000	-0.029	0.197
-424.559	800.000	0.049	-0.185
-423.544	-35.478	-0.221	-0.120
-422.530	-114.104	-0.173	0.033
-421.515	-25.112	-0.257	0.152
-420.500	93.715	0.252	0.285
-419.486	171.589	0.056	0.080
-418.471	-135.756	0.227	-0.027
-417.457	-6.451	0.189	-0.129
-416.442	68.862	-0.005	0.006
-415.428	353.141	-0.133	0.264
-414.413	171.492	0.228	-0.327
-413.398	800.000	-0.032	-0.123
-412.384	159.957	-0.089	-0.123
-411.369	-121.977	0.271	0.045
-410.355	-166.890	-0.205	-0.008
-409.340	-200.000	0.011	-0.194
-408.325	-52.846	-0.653	-0.300
-407.311	-107.381	0.171	-0.037
-406.296	280.283	0.076	0.136
-405.282	25.385	-0.200	0.166
-404.267	-15.738	0.140	-0.089
-403.252	-86.114	0.020	-0.006
-402.238	-200.000	-0.011	0.111
-401.223	-57.846	0.173	0.075
-400.209	-110.872	-0.173	-0.035
-399.194	-13.529	-0.118	-0.076
-398.179	547.045	-0.107	0.255
-397.165	111.419	-0.150	0.180
-396.150	4.528	-0.086	0.063
-395.136	525.719	-0.070	0.164
-394.121	800.000	0.018	-0.069
-393.106	-18.349	0.225	0.140
-392.092	-165.012	0.082	-0.004
-391.077	210.948	0.128	0.201
-390.063	246.378	0.051	-0.087
-389.048	-142.358	-0.205	0.020
-388.033	-200.000	-0.007	-0.168
-387.019	-43.585	0.308	0.155
-386.004	150.893	-0.065	0.088
-384.990	161.312	-0.275	-0.383
-383.975	-107.972	0.198	0.043
-382.960	116.930	0.079	-0.097
-381.946	-93.690	-0.304	0.084
-380.931	36.843	-0.083	-0.073
-379.917	46.371	-0.025	-0.023
-378.902	-36.062	-0.229	-0.123
-377.888	-12.494	-0.149	0.097
-376.873	800.000	0.057	0.213
-375.858	-91.390	0.162	-0.046
-374.844	800.000	0.059	0.211
-373.829	800.000	-0.016	-0.058
-372.815	-64.817	-0.101	-0.041
-371.800	157.069	-0.147	-0.203
-370.785	-200.000	-0.032	-0.190
-369.771	-43.202	-0.076	-0.038
-368.756	-155.660	0.268	-0.017
-367.742	-200.000	0.030	0.278
-366.727	800.000	0.072	0.277
-365.712	319.702	0.115	0.217
-364.698	-60.232	-0.152	-0.065
-363.683	800.000	0.036	-0.109
-362.669	602.672	0.054	-0.134
-361.654	-85.860	0.235	-0.073
-360.639	800.000	0.080	0.265
-359.625	27.845	-0.299	-0.251
-358.610	-200.000	0.002	0.082
-357.596	114.107	-0.397	0.481
-356.581	-105.042	-0.117	-0.027
-355.566	274.519	-0.108	0.190
-354.552	423.689	0.080	0.171
-353.537	-200.000	0.007	-0.135
-352.523	123.899	0.088	-0.110
-351.508	-5.197	0.088	0.060
-350.493	-51.390	-0.170	-0.079
-349.479	130.432	-0.147	0.188
-348.464	534.490	0.085	-0.200
-347.450	-200.000	-0.010	-0.381
-346.435	-163.824	-0.228	0.011
-345.420	8.535	-0.417	-0.312
-344.406	800.000	-0.067	-0.191
-343.391	800.000	-0.016	0.052
-342.377	-200.000	-0.042	-0.293
-341.362	-74.707	0.282	-0.101
-340.348	-41.155	0.309	0.159
-339.333	-138.092	0.351	0.039
-338.318	215.462	0.049	0.077
-337.304	-200.000	-0.095	0.451
-336.289	-73.837	0.209	0.076
-335.275	75.784	-0.150	-0.157
-334.260	-92.901	0.159	0.044
-333.245	-112.985	-0.363	0.072
-332.231	-28.349	0.202	-0.116
-331.216	-48.364	0.222	-0.106
-330.202	64.358	0.153	0.154
-329.187	188.784	0.185	-0.275
-328.172	-25.225	-0.098	-0.058
-327.158	800.000	-0.143	0.400
-326.143	-88.138	-0.212	-0.063
-325.129	-200.000	-0.003	-0.320
-324.114	343.340	0.007	0.013
-323.099	623.905	0.048	0.121
-322.085	-58.787	-0.166	0.071
-321.070	-200.000	0.000	0.173
-320.056	226.709	-0.164	0.265
-319.041	-200.000	-0.035	0.462
-318.026	800.000	-0.034	-0.094
-317.012	-110.017	-0.404	-0.084
-315.997	-115.179	0.107	-0.020
-314.983	-200.000	0.048	0.305
-313.968	5.440	0.150	-0.110
-312.953	-137.147	-0.035	-0.004
-311.939	-3.557	0.118	-0.082
-310.924	-12.088	0.117	0.076
-309.910	12.164	-0.152	0.116
-308.895	123.054	-0.109	0.136
-307.880	-120.204	0.316	0.054
-306.866	-136.178	-0.259	-0.030
-305.851	739.955	0.100	0.267
-304.837	-57.731	-0.277	0.120
-303.822	-28.718	-0.268	-0.153
-302.807	-200.000	-0.031	0.277
-301.793	153.743	0.059	0.081
-300.778	-133.085	-0.305	-0.038
-299.764	-7.786	-0.143	-0.096
-298.749	166.103	-0.177	0.249
-297.735	2.336	-0.084	0.061
-296.720	800.000	-0.049	-0.208
-295.705	800.000	0.064	0.245
-294.691	157.055	-0.113	-0.155
-293.676	200.077	0.203	0.310
-292.662	234.906	0.222	0.364
-291.647	-48.258	-0.135	-0.065
-290.632	-200.000	0.005	0.101
-289.618	121.891	0.151	-0.188
-288.603	-69.110	0.147	0.056
-287.589	-200.000	0.053	0.234
-286.574	-200.000	0.028	0.152
-285.559	50.514	-0.267	0.251
-284.545	-33.865	0.113	0.062
-283.530	-49.307	-0.381	-0.181
-282.516	-200.000	0.011	-0.090
-281.501	540.111	-0.052	-0.124
-280.486	-37.891	-0.119	-0.063
-279.472	185.124	-0.090	0.133
-278.457	181.544	-0.243	-0.356
-277.443	800.000	0.036	-0.130
-276.428	153.152	-0.124	-0.169
-275.413	4.318	0.244	-0.178
-274.399	-23.728	-0.108	0.064
-273.384	-200.000	0.013	-0.361
-272.370	192.909	-0.199	-0.299
-271.355	14.068	0.052	-0.040
-270.340	79.599	0.077	-0.083
-269.326	-158.447	0.058	-0.003
-268.311	-55.448	0.357	0.159
-267.297	200.693	0.069	-0.106
-266.282	5.253	0.263	-0.192
-265.267	-113.508	-0.136	0.026
-264.253	38.229	0.174	0.153
-263.238	-76.756	-0.106	0.037
-262.224	-57.266	0.246	0.107
-261.209	266.522	0.113	-0.196
-260.195	-200.000	0.032	0.379
-259.180	220.338	0.054	-0.085
-258.165	800.000	-0.061	-0.189
-257.151	408.038	-0.046	-0.096
-256.136	800.000	0.076	-0.248
-255.122	77.752	0.209	-0.221
-254.107	-200.000	0.031	0.210
-253.092	659.109	-0.028	0.071
-252.078	108.585	0.135	-0.160
-251.063	572.041	0.060	0.146
-250.049	-200.000	-0.017	0.079
-249.034	-32.182	0.329	-0.182
-248.019	39.243	-0.114	0.101
-247.005	-200.000	-0.001	0.056
-245.990	-154.847	0.360	-0.024
-244.976	102.076	-0.081	-0.093
-243.961	800.000	-0.094	0.267
-242.946	55.593	0.138	0.132
-241.932	-9.395	-0.184	-0.122
-240.917	-200.000	-0.011	-0.073
-239.903	107.067	0.194	0.228
-238.888	-200.000	0.029	-0.487
-237.873	-200.000	-0.002	0.059
-236.859	800.000	-0.060	0.171
-235.844	-128.699	-0.148	-0.021
-234.830	-200.000	-0.027	-0.217
-233.815	-140.503	0.022	0.002
-232.800	-30.044	-0.045	-0.026
-231.786	66.932	-0.329	0.332
-230.771	30.176	-0.050	-0.043
-229.757	-24.215	0.260	0.154
-228.742	800.000	-0.071	0.296
-227.727	-200.000	-0.003	-0.017
-226.713	141.976	-0.117	-0.154
-225.698	53.317	-0.209	-0.199
-224.684	-200.000	0.091	0.501
-223.669	39.971	0.305	-0.272
-222.655	-24.238	-0.106	-0.063
-221.640	-32.968	-0.295	0.162
-220.625	249.733	0.049	0.082
-219.611	800.000	-0.021	-0.069
-218.596	53.041	0.306	0.290
-217.582	-200.000	0.004	-0.050
-216.567	-45.005	-0.249	0.123
-215.552	125.481	0.076	-0.094
-214.538	-200.000	-0.009	-0.169
-213.523	76.764	-0.213	0.224
-212.509	52.480	-0.100	0.095
-211.494	-30.253	-0.113	0.064
-210.479	204.335	0.149	0.229
-209.465	-70.121	0.223	0.084
-208.450	-67.260	0.182	-0.071
-207.436	-55.317	0.194	0.086
-206.421	-140.591	0.317	-0.033
-205.406	-72.648	0.366	-0.134
-204.392	-200.000	0.033	-0.262
-203.377	-200.000	-0.047	0.334
-202.363	-200.000	0.021	0.157
-201.348	134.870	0.075	0.097
-200.333	113.254	-0.113	-0.136
-199.319	-132.090	0.270	-0.035
-198.304	133.414	0.145	0.186
-197.290	-200.000	-0.004	-0.287
-196.275	-200.000	-0.004	-0.092
-195.260	-200.000	-0.046	0.226
-194.246	800.000	-0.112	0.486
-193.231	60.958	0.148	-0.145
-192.217	-165.559	-0.215	-0.009
-191.202	-200.000	-0.017	-0.075
-190.187	-109.722	-0.277	-0.058
-189.173	-57.917	0.209	-0.090
-188.158	-82.726	0.028	-0.009
-187.144	-200.000	-0.006	0.058
-186.129	-190.485	-0.240	-0.003
-185.114	-130.603	-0.176	0.024
-184.100	-125.742	0.217	0.032
-183.085	-34.025	0.088	0.048
-182.071	-200.000	-0.003	-0.146
-181.056	-18.281	-0.304	0.188
-180.042	-75.383	0.288	0.101
-179.027	116.151	-0.244	0.296
-178.012	-16.872	-0.128	0.080
-176.998	-76.008	0.129	0.045
-175.983	-15.310	-0.333	-0.210
-174.969	-96.645	-0.137	-0.036
-173.954	-112.970	-0.107	-0.021
-172.939	58.235	-0.014	-0.014
-171.925	81.392	0.089	0.095
-170.910	100.497	-0.174	0.200
-169.896	-141.547	0.167	-0.017
-168.881	159.910	-0.264	-0.363
-167.866	-107.053	-0.344	0.075
-166.852	170.662	-0.156	0.221
-165.837	173.029	0.131	-0.186
-164.823	69.268	-0.089	-0.090
-163.808	306.564	0.183	-0.336
-162.793	104.306	0.143	-0.166
-161.779	-6.159	-0.087	-0.059
-160.764	-200.000	0.003	-0.110
-159.750	-77.670	0.236	0.081
-158.735	61.454	-0.104	0.103
-157.720	486.312	0.043	0.098
-156.706	-200.000	-0.002	0.281
-155.691	19.688	0.035	0.028
-154.677	-60.276	-0.106	0.044
-153.662	-200.000	-0.030	0.223
-152.647	-78.049	-0.116	-0.039
-151.633	-200.000	-0.096	-0.470
-150.618	243.356	-0.133	-0.220
-149.604	-22.331	-0.507	0.304
-148.589	-121.628	0.318	-0.052
-147.574	43.459	0.193	0.174
-146.560	111.864	-0.141	0.168
-145.545	239.259	0.183	0.301
-144.531	102.343	-0.061	0.070
-143.516	-57.791	0.246	-0.106
-142.502	-159.895	0.098	-0.005
-141.487	-116.119	-0.200	0.037
-140.472	16.459	-0.240	0.188
-139.458	13.765	0.036	-0.028
-138.443	-12.641	0.356	-0.229
-137.429	-35.468	0.115	-0.062
-136.414	-200.000	-0.007	0.054
-135.399	43.768	-0.150	-0.136
-134.385	190.259	-0.066	-0.098
-133.370	224.427	-0.177	0.283
-132.356	-69.004	-0.136	0.052
-131.341	800.000	0.073	0.257
-130.326	433.632	-0.084	-0.181
-129.312	-200.000	-0.040	-0.283
-128.297	-71.181	0.258	0.096
-127.283	-200.000	0.003	-0.271
-126.268	-70.169	-0.250	0.094
-125.253	-124.403	0.328	0.050
-124.239	-177.748	-0.303	-0.007
-123.224	-200.000	0.009	0.040
-122.210	800.000	0.088	-0.253
-121.195	-55.054	0.273	0.121
