DTS Sentinel unit serial number:	SN413079Multiplexer serial number:	ORYXHardware model number:	OX4-SRSoftware version number:	ORYX F/W v4.00 Oryx Data Collector v3.7.2.0data status	okinstallation	princeton_trtdifferential loss correction	single-endedforward channel	channel 1reverse channel	N/Adate	2019/09/13time	11:46:35forward acquisition time	60.00reverse acquisition time	0.00gamma	496.2192k internal	0.2313k external	0.2313temperature offset calibration	1.0163default loss term (dB/km)	0.3790temperature slope calibration	1.0000multiplexer offset coefficient	1.0000multiplexer slope coefficient	1.0000fibre end	0.00T internal ref (°C)	33.20T ext. ref 1 (°C)	4.53T ext. ref 2 (°C)	30.19length (m)	temperature (°C)	Stokes	anti-Stokes-747.200	-60.542	0.008	-0.004
-746.185	-200.000	-0.015	-0.142
-745.171	109.214	0.176	0.214
-744.156	800.000	0.070	-0.244
-743.142	-78.299	0.258	-0.090
-742.127	280.041	-0.164	0.296
-741.112	25.776	-0.248	-0.210
-740.098	6.463	-0.048	-0.036
-739.083	35.709	0.162	-0.144
-738.069	511.818	-0.137	0.323
-737.054	99.995	-0.154	-0.181
-736.039	123.774	-0.156	0.198
-735.025	-200.000	0.023	0.261
-734.010	-6.634	-0.087	0.060
-732.996	-149.581	0.114	0.009
-731.981	-200.000	-0.049	0.308
-730.966	10.808	-0.067	0.052
-729.952	-200.000	0.047	-0.413
-728.937	-121.109	-0.279	0.047
-727.923	-103.629	-0.207	0.049
-726.908	-63.187	0.167	0.070
-725.894	385.283	0.152	-0.317
-724.879	-129.033	0.120	0.017
-723.864	473.410	-0.044	-0.100
-722.850	142.950	-0.042	0.056
-721.835	-165.758	-0.172	0.008
-720.821	793.554	-0.021	-0.059
-719.806	-153.250	-0.024	-0.002
-718.791	-42.634	-0.378	0.195
-717.777	448.149	-0.116	-0.258
-716.762	-50.158	-0.283	0.136
-715.748	-200.000	-0.014	0.276
-714.733	-1.876	-0.223	0.159
-713.718	-12.131	-0.108	0.072
-712.704	-124.802	-0.062	-0.010
-711.689	286.685	-0.170	-0.311
-710.675	-121.197	0.448	-0.076
-709.660	-120.059	-0.019	-0.003
-708.645	-183.567	0.165	-0.003
-707.631	-13.603	-0.109	0.071
-706.616	-28.587	0.341	0.199
-705.602	-41.365	0.206	0.107
-704.587	800.000	-0.033	-0.101
-703.572	124.996	0.062	-0.079
-702.558	56.260	0.140	-0.138
-701.543	-40.499	-0.161	0.085
-700.529	36.628	0.122	0.109
-699.514	-81.577	0.297	0.099
-698.499	-200.000	-0.010	0.078
-697.485	-116.223	0.041	-0.008
-696.470	-92.890	-0.305	0.086
-695.456	-137.660	0.299	0.034
-694.441	-33.603	0.228	0.127
-693.426	-26.892	-0.471	-0.279
-692.412	469.834	-0.054	0.124
-691.397	37.757	-0.023	0.020
-690.383	-16.379	0.352	-0.226
-689.368	-200.000	-0.052	-0.286
-688.354	-173.601	0.189	0.006
-687.339	-187.973	-0.154	0.002
-686.324	-61.466	0.320	-0.136
-685.310	-200.000	0.027	-0.222
-684.295	202.713	-0.139	-0.218
-683.281	-128.637	0.173	-0.025
-682.266	-165.235	0.157	-0.007
-681.251	693.773	-0.075	-0.200
-680.237	-35.979	0.060	-0.033
-679.222	136.466	0.144	0.190
-678.208	-106.974	0.125	-0.028
-677.193	3.215	-0.162	-0.119
-676.178	-87.541	-0.285	0.087
-675.164	-200.000	-0.014	0.068
-674.149	-115.825	-0.455	-0.086
-673.135	-200.000	-0.041	-0.273
-672.120	13.121	-0.266	-0.209
-671.105	-200.000	0.020	-0.379
-670.091	366.059	-0.202	-0.412
-669.076	-96.176	-0.220	-0.059
-668.062	-200.000	-0.003	-0.380
-667.047	-87.549	-0.184	0.056
-666.032	-12.984	-0.130	-0.086
-665.018	-152.943	0.313	0.022
-664.003	-2.619	0.226	0.160
-662.989	131.303	0.135	0.175
-661.974	-200.000	0.045	0.224
-660.959	800.000	-0.029	0.115
-659.945	47.622	-0.105	-0.099
-658.930	550.778	0.099	-0.241
-657.916	-139.761	0.117	0.013
-656.901	-78.310	0.336	0.117
-655.886	800.000	-0.053	0.179
-654.872	-200.000	0.048	0.231
-653.857	-2.510	-0.074	0.053
-652.843	781.679	0.095	0.263
-651.828	164.839	0.059	-0.085
-650.814	406.965	-0.121	0.259
-649.799	-106.433	-0.366	-0.083
-648.784	-131.649	0.173	0.023
-647.770	-55.837	0.119	-0.054
-646.755	633.218	-0.095	-0.244
-645.741	1.686	0.250	0.182
-644.726	800.000	-0.100	0.359
-643.711	-92.655	-0.160	0.045
-642.697	-152.296	0.178	0.013
-641.682	141.330	0.102	-0.137
-640.668	-113.512	-0.054	0.011
-639.653	-23.881	-0.030	0.018
-638.638	311.917	-0.106	0.201
-637.624	124.296	-0.100	0.127
-636.609	800.000	-0.099	-0.319
-635.595	-89.803	-0.180	0.053
-634.580	-105.552	0.234	-0.054
-633.565	-200.000	0.023	0.120
-632.551	800.000	0.053	0.158
-631.536	543.509	0.034	0.083
-630.522	-98.040	-0.253	0.066
-629.507	-63.624	-0.187	0.077
-628.492	800.000	0.071	0.280
-627.478	-14.056	0.254	0.165
-626.463	800.000	0.060	0.248
-625.449	800.000	-0.067	-0.290
-624.434	-200.000	0.038	-0.255
-623.419	71.978	0.261	-0.274
-622.405	-200.000	0.013	-0.154
-621.390	-168.256	-0.222	-0.009
-620.376	356.291	0.063	0.128
-619.361	-152.919	-0.061	-0.004
-618.346	-83.040	0.339	-0.110
-617.332	-200.000	-0.020	-0.135
-616.317	44.953	0.060	-0.056
-615.303	-15.527	0.036	0.023
-614.288	-89.495	0.084	0.025
-613.273	190.052	0.174	-0.264
-612.259	283.952	0.173	0.313
-611.244	466.275	-0.120	0.272
-610.230	-200.000	-0.026	-0.195
-609.215	-44.664	0.228	-0.115
-608.201	-150.968	0.087	-0.007
-607.186	146.314	-0.101	-0.137
-606.171	663.000	0.133	0.345
-605.157	-200.000	0.040	-0.273
-604.142	-200.000	-0.008	-0.080
-603.128	-200.000	-0.005	-0.158
-602.113	207.481	0.138	0.218
-601.098	-83.733	-0.033	0.010
-600.084	234.860	0.134	-0.223
-599.069	-68.254	0.123	0.048
-598.055	-25.299	-0.240	0.143
-597.040	-101.581	-0.083	-0.020
-596.025	-58.436	-0.057	0.025
-595.011	238.881	-0.077	-0.130
-593.996	49.763	0.212	-0.201
-592.982	-1.793	-0.452	-0.321
-591.967	494.350	0.036	-0.084
-590.952	-153.517	0.252	-0.018
-589.938	-200.000	-0.008	0.106
-588.923	189.216	-0.156	-0.236
-587.909	800.000	-0.039	-0.130
-586.894	800.000	-0.106	0.415
-585.879	113.731	-0.124	-0.152
-584.865	48.091	0.316	-0.298
-583.850	-39.362	0.226	-0.119
-582.836	19.759	0.083	-0.067
-581.821	214.819	-0.066	-0.105
-580.806	97.623	0.189	0.218
-579.792	-29.672	-0.187	0.108
-578.777	-100.526	-0.044	0.011
-577.763	171.076	-0.022	0.031
-576.748	-178.209	-0.146	-0.003
-575.733	45.057	0.088	-0.082
-574.719	-8.446	-0.175	-0.119
-573.704	112.236	-0.093	-0.114
-572.690	-200.000	-0.011	0.163
-571.675	-130.305	0.261	0.036
-570.661	-24.206	0.150	0.090
-569.646	70.335	-0.208	0.216
-568.631	800.000	-0.148	0.418
-567.617	-200.000	-0.005	0.116
-566.602	17.286	-0.112	0.089
-565.588	800.000	0.045	0.160
-564.573	-200.000	-0.014	-0.328
-563.558	60.412	-0.236	-0.235
-562.544	-24.222	-0.138	0.083
-561.529	-144.065	-0.317	0.030
-560.515	0.789	0.239	0.172
-559.500	-120.899	-0.100	0.017
-558.485	-28.512	-0.018	-0.010
-557.471	-200.000	-0.032	0.209
-556.456	-88.166	-0.227	-0.068
-555.442	258.868	0.208	0.361
-554.427	-65.363	-0.125	0.051
-553.412	99.055	-0.217	-0.252
-552.398	-200.000	-0.021	-0.262
-551.383	800.000	0.019	-0.069
-550.369	188.877	0.039	0.058
-549.354	800.000	0.022	0.095
-548.339	800.000	-0.019	0.053
-547.325	319.728	0.119	0.228
-546.310	-200.000	-0.014	-0.114
-545.296	7.554	-0.158	-0.119
-544.281	-64.132	0.150	-0.062
-543.266	203.341	-0.157	-0.244
-542.252	-195.056	0.084	-0.001
-541.237	182.136	0.184	0.273
-540.223	-28.435	0.292	0.170
-539.208	-200.000	-0.005	0.303
-538.193	-163.928	0.179	0.008
-537.179	99.482	0.361	0.421
-536.164	-83.600	-0.108	0.035
-535.150	80.203	0.188	0.204
-534.135	492.759	-0.136	-0.315
-533.121	-200.000	-0.073	-0.397
-532.106	734.655	-0.065	0.175
-531.091	708.787	0.072	-0.191
-530.077	-82.912	0.192	0.062
-529.062	-135.704	-0.337	0.040
-528.048	-115.865	0.077	0.015
-527.033	-115.593	-0.116	-0.022
-526.018	514.899	-0.049	0.116
-525.004	-159.928	0.118	0.006
-523.989	-133.939	0.184	0.023
-522.975	-150.393	-0.235	-0.018
-521.960	12.156	0.263	0.203
-520.945	77.380	-0.310	0.332
-519.931	-200.000	-0.025	-0.145
-518.916	-200.000	-0.041	0.217
-517.902	-159.172	-0.268	-0.015
-516.887	-68.842	0.112	-0.043
-515.872	-63.094	0.249	-0.103
-514.858	-34.772	-0.072	-0.039
-513.843	404.784	0.122	-0.258
-512.829	95.290	0.058	0.066
-511.814	-48.394	0.037	-0.018
-510.799	35.877	0.246	-0.217
-509.785	-200.000	-0.005	-0.022
-508.770	800.000	-0.094	-0.327
-507.756	72.289	0.088	-0.092
-506.741	-177.002	-0.397	0.010
-505.726	313.419	0.138	0.261
-504.712	-77.528	0.246	-0.086
-503.697	-60.704	0.107	-0.046
-502.683	800.000	-0.060	-0.237
-501.668	107.125	0.123	-0.147
-500.653	51.144	-0.049	0.047
-499.639	-133.725	0.017	-0.002
-498.624	-70.358	0.400	0.152
-497.610	-70.692	0.142	0.054
-496.595	-86.590	-0.229	0.070
-495.581	-70.299	0.166	-0.063
-494.566	34.176	-0.371	-0.325
-493.551	-83.404	-0.212	0.068
-492.537	-116.625	-0.431	-0.080
-491.522	-144.125	-0.132	0.012
-490.508	119.574	-0.073	0.091
-489.493	-200.000	-0.014	-0.090
-488.478	800.000	-0.016	0.056
-487.464	92.328	-0.097	-0.109
-486.449	130.656	-0.107	0.137
-485.435	-145.696	0.246	-0.022
-484.420	-81.190	-0.288	0.095
-483.405	19.770	0.179	-0.144
-482.391	191.778	0.108	0.164
-481.376	-49.978	-0.368	0.175
-480.362	-200.000	-0.023	-0.105
-479.347	98.170	-0.088	0.101
-478.332	-173.875	-0.042	-0.001
-477.318	-122.315	-0.093	-0.015
-476.303	-200.000	0.055	0.262
-475.289	-65.265	-0.562	0.227
-474.274	52.467	-0.186	0.178
-473.259	308.771	-0.255	0.478
-472.245	-87.200	-0.201	0.061
-471.230	-200.000	-0.022	-0.169
-470.216	-92.293	-0.044	0.013
-469.201	-3.605	0.126	0.088
-468.186	371.705	0.054	-0.110
-467.172	545.932	0.127	-0.306
-466.157	-160.607	-0.351	-0.019
-465.143	-23.631	0.285	-0.171
-464.128	531.840	-0.135	-0.321
-463.113	-200.000	0.034	0.319
-462.099	339.286	0.094	0.184
-461.084	-57.743	0.215	-0.094
-460.070	-122.913	0.304	0.049
-459.055	1.869	0.228	0.165
-458.040	-127.580	-0.143	0.021
-457.026	-6.652	-0.238	0.163
-456.011	-60.834	0.117	-0.050
-454.997	104.470	-0.070	0.083
-453.982	54.436	-0.297	-0.287
-452.968	-89.273	-0.073	0.022
-451.953	-106.662	0.165	-0.037
-450.938	-200.000	-0.138	0.001
-449.924	26.115	-0.202	0.169
-448.909	16.067	0.093	0.074
-447.895	176.328	0.055	-0.080
-446.880	-200.000	0.013	0.268
-445.865	96.734	-0.213	0.245
-444.851	-186.729	0.267	-0.004
-443.836	470.461	-0.038	0.085
-442.822	56.260	0.087	-0.084
-441.807	-170.611	0.331	-0.011
-440.792	-200.000	-0.020	0.226
-439.778	-78.706	-0.137	0.047
-438.763	-200.000	0.022	0.200
-437.749	-78.242	-0.154	-0.053
-436.734	-8.886	0.069	-0.047
-435.719	99.841	-0.057	-0.066
-434.705	121.690	-0.100	0.125
-433.690	60.637	-0.162	-0.161
-432.676	12.815	0.179	-0.139
-431.661	103.267	-0.101	-0.119
-430.646	-200.000	0.002	0.027
-429.632	106.686	0.147	-0.175
-428.617	-200.000	-0.015	-0.220
-427.603	720.821	-0.125	0.334
-426.588	-82.825	-0.332	-0.107
-425.573	-121.050	0.317	-0.053
-424.559	800.000	-0.077	0.231
-423.544	-107.616	0.002	-0.000
-422.530	268.093	0.097	-0.171
-421.515	800.000	-0.051	0.201
-420.500	-12.431	0.177	0.116
-419.486	91.695	0.191	0.215
-418.471	273.476	-0.178	0.315
-417.457	210.181	0.021	0.033
-416.442	762.257	-0.076	-0.207
-415.428	147.187	-0.061	0.082
-414.413	-200.000	-0.018	0.174
-413.398	408.837	0.049	-0.104
-412.384	79.242	-0.160	-0.172
-411.369	354.169	0.173	-0.344
-410.355	96.237	0.074	0.085
-409.340	192.596	0.166	0.252
-408.325	145.450	-0.161	0.216
-407.311	-130.568	-0.194	0.026
-406.296	800.000	-0.065	0.191
-405.282	187.819	-0.115	0.172
-404.267	800.000	-0.035	-0.113
-403.252	-18.302	-0.336	-0.210
-402.238	-200.000	-0.044	-0.340
-401.223	800.000	0.094	-0.291
-400.209	411.976	0.121	-0.257
-399.194	-89.220	-0.071	0.021
-398.179	307.035	-0.074	0.137
-397.165	691.279	0.094	0.246
-396.150	52.364	-0.102	-0.098
-395.136	-200.000	0.004	0.058
-394.121	-24.182	-0.232	-0.139
-393.106	-200.000	0.061	-0.552
-392.092	-16.601	0.330	0.209
-391.077	351.665	0.060	-0.119
-390.063	-42.272	0.113	0.058
-389.048	-200.000	-0.039	0.193
-388.033	113.459	0.105	0.127
-387.019	-118.116	0.118	-0.021
-386.004	77.237	-0.309	0.329
-384.990	592.692	-0.038	0.095
-383.975	-68.307	-0.050	0.019
-382.960	-200.000	-0.077	-0.481
-381.946	-162.908	0.414	0.020
-380.931	-200.000	0.058	0.285
-379.917	-64.580	0.144	-0.059
-378.902	800.000	-0.072	-0.265
-377.888	-200.000	-0.033	0.204
-376.873	55.917	0.027	-0.027
-375.858	800.000	0.035	0.140
-374.844	-200.000	-0.029	0.212
-373.829	800.000	-0.091	-0.271
-372.815	-179.755	-0.094	0.002
-371.800	-112.741	0.247	0.049
-370.785	139.951	-0.108	-0.142
-369.771	-200.000	-0.012	0.130
-368.756	-141.577	0.163	-0.016
-367.742	-46.645	0.174	-0.085
-366.727	800.000	-0.028	0.106
-365.712	-200.000	-0.039	0.404
-364.698	81.328	0.142	-0.153
-363.683	-200.000	-0.091	-0.450
-362.669	-200.000	-0.013	-0.237
-361.654	-200.000	0.061	-0.301
-360.639	-91.611	0.446	-0.127
-359.625	-123.787	0.107	0.017
-358.610	-200.000	0.031	0.188
-357.596	65.052	0.112	0.113
-356.581	-200.000	-0.018	-0.341
-355.566	474.372	0.188	0.424
-354.552	-5.209	0.113	-0.077
-353.537	-200.000	0.048	0.289
-352.523	-200.000	-0.017	-0.115
-351.508	-117.907	-0.083	0.015
-350.493	-128.549	-0.243	-0.034
-349.479	159.050	-0.234	-0.324
-348.464	-153.476	0.050	-0.003
-347.450	800.000	-0.035	0.101
-346.435	281.278	-0.033	-0.060
-345.420	3.755	0.234	0.170
-344.406	-49.937	0.236	-0.112
-343.391	-108.684	0.291	0.062
-342.377	800.000	-0.065	0.281
-341.362	36.127	-0.268	-0.235
-340.348	-85.322	0.176	0.055
-339.333	101.759	0.019	-0.022
-338.318	9.658	-0.201	-0.152
-337.304	-200.000	-0.007	0.183
-336.289	800.000	0.063	-0.192
-335.275	-51.379	-0.238	0.111
-334.260	270.524	0.036	-0.064
-333.245	486.992	0.074	0.168
-332.231	-103.673	-0.111	0.026
-331.216	-15.201	-0.210	-0.134
-330.202	-86.888	0.315	0.096
-329.187	-200.000	0.006	0.061
-328.172	800.000	-0.108	0.312
-327.158	350.149	-0.160	-0.316
-326.143	-183.911	-0.242	-0.004
-325.129	151.528	-0.212	-0.289
-324.114	-129.372	0.387	-0.054
-323.099	211.461	-0.057	0.089
-322.085	800.000	0.019	-0.079
-321.070	-68.512	0.121	-0.047
-320.056	26.662	-0.176	-0.147
-319.041	383.657	-0.134	-0.275
-318.026	35.018	0.115	-0.100
-317.012	800.000	-0.030	-0.096
-315.997	46.681	-0.062	-0.057
-314.983	32.644	0.271	-0.233
-313.968	513.408	-0.158	-0.368
-312.953	95.260	-0.038	-0.043
-311.939	503.923	0.022	-0.052
-310.924	133.900	0.140	0.180
-309.910	-70.970	0.228	0.085
-308.895	391.684	-0.090	-0.186
-307.880	422.616	-0.115	0.246
-306.866	-200.000	0.054	0.286
-305.851	610.444	0.046	-0.115
-304.837	-200.000	0.013	-0.084
-303.822	-116.511	-0.107	0.020
-302.807	240.227	-0.117	0.195
-301.793	192.852	0.165	-0.249
-300.778	88.418	-0.129	0.143
-299.764	671.378	-0.079	0.203
-298.749	-80.036	-0.069	-0.023
-297.735	-95.711	-0.156	-0.042
-296.720	292.013	0.082	0.149
-295.705	303.091	-0.029	0.054
-294.691	-93.369	-0.135	0.037
-293.676	-175.513	-0.205	-0.006
-292.662	-27.876	0.346	-0.200
-291.647	800.000	0.066	-0.215
-290.632	193.537	0.010	-0.016
-289.618	800.000	-0.016	-0.057
-288.603	-91.734	-0.379	0.107
-287.589	-84.127	-0.217	-0.069
-286.574	26.489	0.266	0.221
-285.559	-26.722	0.234	-0.136
-284.545	-0.307	0.064	0.045
-283.530	331.850	0.104	0.200
-282.516	-200.000	0.020	0.114
-281.501	-90.620	0.303	0.087
-280.486	-51.779	0.270	-0.125
-279.472	-200.000	-0.023	0.108
-278.457	522.370	-0.040	-0.095
-277.443	38.162	-0.172	-0.153
-276.428	-200.000	0.007	0.103
-275.413	35.790	0.220	0.193
-274.399	478.626	-0.043	0.098
-273.384	-200.000	-0.009	-0.205
-272.370	-96.621	-0.411	-0.108
-271.355	-77.754	0.212	0.073
-270.340	-200.000	0.072	-0.385
-269.326	-58.555	0.483	-0.209
-268.311	-94.244	-0.264	0.072
-267.297	3.890	-0.050	-0.037
-266.282	115.021	-0.166	-0.202
-265.267	800.000	-0.031	0.123
-264.253	-75.778	0.220	-0.078
-263.238	258.215	0.065	0.112
-262.224	-26.454	-0.322	-0.188
-261.209	287.675	0.129	-0.233
-260.195	-95.588	-0.257	0.068
-259.180	-126.116	-0.211	-0.032
-258.165	-198.827	0.072	0.000
-257.151	50.245	-0.038	0.036
-256.136	-135.537	-0.271	-0.032
-255.122	-51.410	0.145	0.067
-254.107	-134.231	0.449	-0.055
-253.092	386.101	-0.067	0.138
-252.078	-28.521	-0.127	0.073
-251.063	-200.000	-0.076	-0.334
-250.049	-141.701	-0.231	-0.023
-249.034	155.548	0.044	-0.060
-248.019	-95.689	-0.305	0.081
-247.005	-200.000	0.056	0.343
-245.990	800.000	-0.032	0.111
-244.976	800.000	-0.028	-0.103
-243.961	281.394	0.123	-0.219
-242.946	38.466	-0.073	-0.065
-241.932	73.809	-0.228	-0.238
-240.917	-67.257	0.397	-0.156
-239.903	-59.554	-0.245	0.105
-238.888	258.245	0.179	0.306
-237.873	40.054	-0.056	-0.050
-236.859	-16.648	-0.376	0.237
-235.844	-60.041	0.134	0.057
-234.830	-148.181	-0.248	-0.020
-233.815	-108.756	0.252	0.054
-232.800	114.693	-0.164	0.199
-231.786	103.895	-0.181	-0.211
-230.771	-12.514	0.298	-0.193
-229.757	309.943	0.140	-0.260
-228.742	434.773	0.163	0.352
-227.727	225.221	0.039	-0.063
-226.713	-48.444	0.255	-0.122
-225.698	-200.000	-0.007	-0.269
-224.684	101.900	0.137	0.159
-223.669	-114.524	-0.203	0.039
-222.655	4.335	-0.087	0.064
-221.640	800.000	0.054	0.187
-220.625	123.850	0.175	0.219
-219.611	337.887	0.122	-0.235
-218.596	-105.832	-0.118	0.027
-217.582	257.111	-0.172	-0.293
-216.567	-83.195	-0.324	-0.103
-215.552	355.511	-0.186	0.367
-214.538	-11.816	0.275	-0.180
-213.523	-200.000	0.017	0.209
-212.509	77.662	-0.170	-0.179
-211.494	-174.190	-0.373	0.011
-210.479	-128.659	0.101	0.014
-209.465	-200.000	0.024	0.266
-208.450	692.863	-0.011	-0.029
-207.436	656.260	0.023	-0.059
-206.421	63.166	-0.298	0.296
-205.406	-23.650	0.158	0.094
-204.392	478.166	-0.060	-0.135
-203.377	234.788	0.057	-0.093
-202.363	86.462	0.405	0.443
-201.348	-200.000	-0.046	0.373
-200.333	-147.639	-0.559	-0.047
-199.319	-31.179	0.237	0.133
-198.304	166.684	0.085	0.120
-197.290	800.000	0.060	0.223
-196.275	-158.224	-0.273	0.016
-195.260	-58.237	0.290	0.125
-194.246	800.000	-0.011	0.046
-193.231	-51.226	-0.129	-0.060
-192.217	-174.525	0.359	0.010
-191.202	81.409	-0.061	0.066
-190.187	-129.765	-0.187	-0.026
-189.173	-89.865	0.388	-0.113
-188.158	-122.898	0.076	0.012
-187.144	106.426	0.333	-0.392
-186.129	-48.264	0.329	-0.157
-185.114	42.024	-0.360	0.325
-184.100	298.918	-0.120	0.220
-183.085	-200.000	0.004	-0.211
-182.071	0.101	0.224	-0.159
-181.056	-200.000	0.022	-0.308
-180.042	-186.343	-0.336	-0.005
-179.027	800.000	0.114	-0.332
-178.012	-200.000	-0.060	0.269
-176.998	28.023	-0.102	-0.085
-175.983	111.711	-0.189	0.227
-174.969	-64.290	-0.269	0.109
-173.954	296.637	0.051	-0.092
-172.939	-91.041	0.324	-0.092
-171.925	800.000	0.015	-0.061
-170.910	63.981	-0.007	-0.007
-169.896	-35.830	-0.140	-0.075
-168.881	-47.306	0.347	-0.168
-167.866	-132.259	0.252	0.032
-166.852	-154.566	-0.167	-0.011
-165.837	165.475	0.050	0.070
-164.823	-157.347	-0.132	-0.008
-163.808	-41.377	0.251	0.128
-162.793	-96.142	-0.131	0.035
-161.779	182.210	0.193	0.282
-160.764	178.208	0.137	0.198
-159.750	800.000	0.055	-0.167
-158.735	-71.839	0.306	0.113
-157.720	-200.000	0.001	-0.447
-156.706	-41.953	0.130	0.066
-155.691	800.000	-0.097	-0.341
-154.677	-32.746	0.050	0.028
-153.662	-200.000	0.025	-0.268
-152.647	-200.000	0.000	-0.029
-151.633	-64.160	-0.063	0.025
-150.618	-200.000	-0.043	-0.203
-149.604	-103.523	-0.045	0.010
-148.589	-140.798	-0.135	0.014
-147.574	336.985	0.123	-0.236
-146.560	-60.698	-0.363	0.152
-145.545	-200.000	0.005	0.249
-144.531	-185.599	-0.194	0.003
-143.516	-200.000	-0.015	-0.401
-142.502	-90.033	-0.196	-0.056
-141.487	534.663	-0.041	-0.097
-140.472	-200.000	0.017	-0.278
-139.458	-94.375	0.122	0.033
-138.443	-73.406	-0.243	-0.088
-137.429	-60.368	-0.382	0.161
-136.414	218.461	-0.053	0.084
-135.399	232.264	-0.121	-0.196
-134.385	-200.000	0.005	-0.125
-133.370	49.689	-0.272	0.254
-132.356	-86.871	0.111	-0.034
-131.341	108.302	-0.182	-0.215
-130.326	100.738	-0.160	0.184
-129.312	-35.506	-0.201	0.108
-128.297	800.000	0.029	-0.111
-127.283	800.000	-0.072	-0.197
-126.268	-200.000	-0.011	0.116
-125.253	-200.000	0.017	0.174
-124.239	222.487	-0.155	0.248
-123.224	-200.000	-0.000	0.037
-122.210	800.000	-0.057	-0.236
