DTS Sentinel unit serial number:	SN413079Multiplexer serial number:	ORYXHardware model number:	OX4-SRSoftware version number:	ORYX F/W v4.00 Oryx Data Collector v3.7.2.0data status	okinstallation	princeton_trtdifferential loss correction	single-endedforward channel	channel 1reverse channel	N/Adate	2019/09/13time	06:14:35forward acquisition time	60.00reverse acquisition time	0.00gamma	496.2192k internal	0.2335k external	0.2335temperature offset calibration	1.0160default loss term (dB/km)	0.3790temperature slope calibration	1.0000multiplexer offset coefficient	1.0000multiplexer slope coefficient	1.0000fibre end	0.00T internal ref (°C)	26.12T ext. ref 1 (°C)	4.08T ext. ref 2 (°C)	20.86length (m)	temperature (°C)	Stokes	anti-Stokes-747.200	-39.976	-0.171	-0.090
-746.185	287.346	-0.178	0.324
-745.171	-34.906	-0.259	0.142
-744.156	106.739	0.259	0.308
-743.142	-25.855	0.251	-0.149
-742.127	494.578	0.106	0.245
-741.112	-99.833	0.467	0.117
-740.098	152.333	0.023	-0.031
-739.083	-167.933	-0.109	0.004
-738.069	800.000	-0.112	0.358
-737.054	211.227	-0.099	0.156
-736.039	-200.000	-0.007	-0.188
-735.025	660.679	0.137	0.354
-734.010	-174.255	-0.295	0.009
-732.996	-173.883	-0.315	-0.009
-731.981	-27.467	-0.167	0.098
-730.966	53.423	0.123	-0.118
-729.952	-36.382	-0.113	0.061
-728.937	-114.668	-0.152	-0.029
-727.923	-10.204	0.213	0.142
-726.908	8.023	-0.185	0.139
-725.894	-200.000	-0.047	-0.375
-724.879	158.949	-0.171	0.238
-723.864	-200.000	0.007	-0.279
-722.850	-43.368	0.162	0.082
-721.835	-11.645	-0.099	-0.065
-720.821	800.000	0.085	-0.281
-719.806	-140.295	-0.316	-0.033
-718.791	-39.825	-0.112	-0.059
-717.777	-109.045	-0.125	0.027
-716.762	-118.352	0.334	0.060
-715.748	110.055	-0.246	-0.296
-714.733	-200.000	0.012	0.314
-713.718	-172.856	-0.218	0.007
-712.704	-182.190	0.103	-0.002
-711.689	-126.702	-0.477	0.071
-710.675	145.267	0.069	0.093
-709.660	-70.561	0.208	-0.079
-708.645	292.893	-0.083	-0.151
-707.631	-33.309	-0.120	-0.067
-706.616	165.161	0.120	0.170
-705.602	-200.000	-0.027	0.317
-704.587	-89.643	-0.164	-0.048
-703.572	-200.000	-0.005	0.149
-702.558	-46.426	-0.322	-0.159
-701.543	-13.753	0.133	0.086
-700.529	153.337	0.106	0.145
-699.514	277.236	-0.233	-0.415
-698.499	-18.965	-0.089	0.055
-697.485	800.000	-0.048	-0.149
-696.470	-52.644	-0.195	0.090
-695.456	-46.922	-0.182	0.089
-694.441	52.698	0.194	-0.186
-693.426	556.675	-0.129	0.311
-692.412	-200.000	0.068	0.408
-691.397	-45.675	-0.119	-0.059
-690.383	-66.750	0.079	-0.031
-689.368	133.608	-0.013	-0.016
-688.354	-85.144	-0.044	0.014
-687.339	-200.000	-0.027	-0.287
-686.324	-35.452	0.242	-0.132
-685.310	-40.462	-0.034	-0.018
-684.295	-55.296	-0.130	-0.059
-683.281	-186.654	0.254	-0.004
-682.266	-101.137	-0.266	-0.065
-681.251	-149.695	0.229	0.018
-680.237	-29.884	0.042	-0.024
-679.222	-59.649	0.249	-0.107
-678.208	462.354	-0.044	-0.097
-677.193	42.164	-0.120	-0.109
-676.178	17.185	0.100	0.080
-675.164	-148.560	0.191	-0.016
-674.149	296.382	-0.246	-0.451
-673.135	-200.000	0.005	-0.094
-672.120	-200.000	-0.006	0.159
-671.105	150.037	-0.053	0.072
-670.091	-200.000	-0.017	-0.140
-669.076	-82.050	0.099	-0.032
-668.062	-134.752	-0.332	0.040
-667.047	-88.139	0.524	-0.157
-666.032	17.585	-0.035	-0.028
-665.018	-44.213	-0.179	0.090
-664.003	-31.338	-0.214	-0.121
-662.989	-118.741	0.208	-0.037
-661.974	800.000	-0.033	-0.128
-660.959	-181.813	-0.288	-0.006
-659.945	32.483	0.079	0.068
-658.930	-49.709	-0.313	-0.149
-657.916	-96.626	0.197	-0.052
-656.901	327.043	-0.064	-0.123
-655.886	800.000	-0.051	0.147
-654.872	353.303	-0.187	-0.372
-653.857	-32.611	-0.160	-0.089
-652.843	-200.000	-0.027	0.248
-651.828	197.930	0.115	-0.176
-650.814	-1.657	-0.052	-0.037
-649.799	193.129	-0.181	-0.274
-648.784	125.994	0.143	0.181
-647.770	-200.000	0.035	-0.232
-646.755	-17.174	-0.048	-0.030
-645.741	169.875	0.063	0.090
-644.726	-83.389	-0.093	-0.030
-643.711	-200.000	0.017	-0.081
-642.697	-28.711	0.142	0.082
-641.682	-78.480	0.198	-0.068
-640.668	132.008	0.018	-0.023
-639.653	800.000	0.063	-0.209
-638.638	473.286	-0.067	-0.150
-637.624	-200.000	-0.273	0.001
-636.609	27.187	-0.168	-0.141
-635.595	-68.189	-0.061	-0.024
-634.580	-200.000	0.014	0.165
-633.565	122.216	-0.043	-0.054
-632.551	-200.000	-0.105	0.513
-631.536	-200.000	0.324	0.001
-630.522	130.323	-0.193	-0.247
-629.507	-32.848	0.046	-0.025
-628.492	-200.000	0.070	-0.357
-627.478	-66.075	0.218	-0.087
-626.463	-70.347	-0.070	0.027
-625.449	282.554	0.080	-0.144
-624.434	-200.000	0.007	-0.062
-623.419	59.582	-0.014	-0.014
-622.405	46.875	0.164	-0.152
-621.390	-52.159	-0.338	0.157
-620.376	0.352	-0.063	0.045
-619.361	584.484	0.123	0.301
-618.346	-116.556	0.117	0.022
-617.332	800.000	-0.047	-0.197
-616.317	-48.748	-0.238	-0.114
-615.303	-110.817	0.347	0.071
-614.288	60.134	-0.123	-0.122
-613.273	580.499	0.049	0.119
-612.259	-95.046	-0.247	0.067
-611.244	-200.000	-0.047	0.269
-610.230	-68.895	0.246	-0.095
-609.215	-81.230	-0.197	-0.065
-608.201	-44.400	0.128	0.064
-607.186	-200.000	0.033	-0.240
-606.171	-94.478	0.473	0.129
-605.157	112.421	-0.191	-0.231
-604.142	83.281	0.211	-0.230
-603.128	-124.420	0.324	0.051
-602.113	717.681	0.061	0.163
-601.098	-106.561	0.184	-0.041
-600.084	800.000	-0.065	0.264
-599.069	-200.000	0.003	-0.064
-598.055	-179.213	-0.233	0.005
-597.040	-147.223	-0.274	-0.023
-596.025	60.967	0.132	-0.130
-595.011	118.064	0.194	-0.239
-593.996	-177.682	0.050	-0.001
-592.982	13.663	-0.189	-0.147
-591.967	-124.104	-0.129	-0.020
-590.952	-150.156	0.280	0.022
-589.938	63.638	0.121	-0.121
-588.923	21.382	-0.238	0.193
-587.909	-200.000	0.054	-0.376
-586.894	-200.000	-0.041	-0.231
-585.879	-80.976	-0.301	-0.099
-584.865	303.094	0.137	0.254
-583.850	-200.000	-0.016	0.243
-582.836	-200.000	0.072	-0.344
-581.821	676.245	0.142	0.369
-580.806	-200.000	-0.023	-0.194
-579.792	35.854	0.141	0.124
-578.777	122.795	-0.063	0.079
-577.763	-53.026	-0.344	-0.158
-576.748	231.898	-0.075	-0.123
-575.733	-16.935	0.157	-0.099
-574.719	-149.144	-0.145	-0.012
-573.704	21.052	-0.152	0.123
-572.690	13.758	0.237	-0.184
-571.675	171.604	0.303	0.435
-570.661	106.547	-0.140	0.166
-569.646	-121.046	0.152	0.025
-568.631	622.107	0.081	-0.203
-567.617	-193.765	0.092	-0.001
-566.602	-200.000	-0.014	0.266
-565.588	-200.000	0.015	0.275
-564.573	800.000	0.010	-0.028
-563.558	-116.612	-0.372	-0.068
-562.544	-148.273	0.235	0.019
-561.529	-49.286	-0.164	0.078
-560.515	-85.007	-0.212	-0.066
-559.500	-104.782	0.078	-0.018
-558.485	800.000	-0.028	-0.111
-557.471	667.586	0.049	0.128
-556.456	-110.192	0.094	-0.020
-555.442	-200.000	0.006	-0.180
-554.427	33.853	0.353	-0.306
-553.412	45.420	0.061	-0.056
-552.398	-67.181	-0.203	0.080
-551.383	-66.244	0.241	-0.096
-550.369	-127.443	0.222	0.032
-549.354	-122.077	-0.153	-0.025
-548.339	-200.000	-0.023	0.109
-547.325	98.137	-0.207	0.237
-546.310	-200.000	0.016	-0.264
-545.296	25.834	-0.182	-0.151
-544.281	46.209	-0.195	0.180
-543.266	-200.000	0.029	0.207
-542.252	81.445	-0.068	0.074
-541.237	-111.082	-0.189	-0.039
-540.223	208.524	0.064	-0.100
-539.208	173.265	0.087	-0.125
-538.193	299.829	0.056	0.103
-537.179	-154.618	-0.172	0.011
-536.164	-107.914	0.157	0.034
-535.150	-87.411	0.274	0.083
-534.135	51.668	-0.035	0.033
-533.121	-200.000	0.015	0.186
-532.106	800.000	-0.047	0.175
-531.091	-200.000	-0.025	-0.117
-530.077	-200.000	-0.057	0.267
-529.062	81.588	-0.156	0.169
-528.048	-200.000	-0.032	0.194
-527.033	-91.686	-0.078	-0.022
-526.018	15.595	-0.307	0.240
-525.004	36.900	0.100	0.088
-523.989	-8.018	0.521	0.350
-522.975	-148.039	-0.235	0.019
-521.960	15.062	0.222	0.173
-520.945	357.111	-0.291	-0.577
-519.931	296.433	-0.006	-0.010
-518.916	-200.000	0.024	0.143
-517.902	38.068	0.132	-0.117
-516.887	800.000	0.019	-0.057
-515.872	158.988	-0.133	0.184
-514.858	-60.581	0.063	-0.027
-513.843	721.980	-0.145	-0.383
-512.829	800.000	0.122	-0.355
-511.814	-200.000	0.013	0.117
-510.799	91.384	-0.017	0.019
-509.785	16.852	0.301	-0.237
-508.770	-135.584	0.018	-0.002
-507.756	222.303	-0.091	-0.146
-506.741	-200.000	-0.021	0.114
-505.726	-56.810	-0.087	-0.038
-504.712	184.357	0.048	-0.071
-503.697	313.985	-0.055	0.102
-502.683	-151.616	-0.122	-0.009
-501.668	46.924	-0.042	-0.039
-500.653	89.955	-0.135	0.150
-499.639	-1.045	0.089	-0.062
-498.624	800.000	0.043	-0.182
-497.610	29.490	-0.069	-0.058
-496.595	800.000	-0.051	0.143
-495.581	135.307	-0.090	-0.117
-494.566	-140.107	0.245	-0.026
-493.551	-79.349	-0.165	-0.056
-492.537	-200.000	0.014	-0.111
-491.522	-97.533	0.330	0.085
-490.508	188.060	-0.203	-0.301
-489.493	198.377	0.237	-0.361
-488.478	1.977	-0.207	-0.148
-487.464	-200.000	-0.077	0.351
-486.449	69.891	-0.241	0.247
-485.435	224.593	-0.204	0.328
-484.420	7.098	-0.075	0.056
-483.405	16.506	0.206	0.162
-482.391	-150.867	0.069	0.005
-481.376	-130.185	-0.408	0.055
-480.362	73.721	0.188	-0.196
-479.347	674.847	-0.056	0.145
-478.332	-61.362	-0.105	0.044
-477.318	-163.198	-0.218	-0.010
-476.303	800.000	-0.099	-0.304
-475.289	-67.563	-0.212	-0.083
-474.274	-139.576	0.261	-0.028
-473.259	73.917	-0.166	-0.173
-472.245	292.697	0.137	-0.248
-471.230	-193.098	-0.453	-0.004
-470.216	200.259	0.156	-0.238
-469.201	14.166	0.147	0.114
-468.186	258.855	0.021	0.037
-467.172	22.084	-0.021	-0.017
-466.157	-42.431	0.212	0.108
-465.143	87.783	-0.108	-0.119
-464.128	-200.000	-0.010	0.089
-463.113	-61.689	0.139	0.058
-462.099	63.168	0.265	-0.264
-461.084	-200.000	-0.033	0.286
-460.070	42.590	0.125	0.113
-459.055	-200.000	-0.015	-0.145
-458.040	66.387	0.075	0.075
-457.026	-118.568	-0.291	-0.051
-456.011	163.001	0.152	0.212
-454.997	327.439	-0.072	0.136
-453.982	-23.592	0.088	-0.052
-452.968	282.138	0.073	0.130
-451.953	41.018	0.078	-0.070
-450.938	-53.405	-0.238	-0.108
-449.924	-200.000	-0.018	-0.096
-448.909	494.516	-0.071	-0.161
-447.895	-126.386	-0.122	0.018
-446.880	-200.000	-0.030	0.135
-445.865	-200.000	-0.083	-0.365
-444.851	659.510	0.069	-0.176
-443.836	-200.000	-0.053	0.387
-442.822	-54.532	-0.280	0.126
-441.807	-164.369	0.246	-0.011
-440.792	-162.249	-0.075	0.004
-439.778	42.521	-0.056	-0.051
-438.763	-50.012	0.333	-0.157
-437.749	-19.716	-0.337	-0.207
-436.734	-110.552	-0.020	0.004
-435.719	266.867	-0.057	0.098
-434.705	-200.000	-0.023	0.132
-433.690	-92.991	0.159	-0.044
-432.676	13.312	-0.345	0.266
-431.661	-103.342	-0.460	0.108
-430.646	46.483	-0.162	0.149
-429.632	353.188	0.088	0.172
-428.617	103.064	0.023	-0.027
-427.603	688.044	-0.109	0.283
-426.588	-58.302	0.054	0.023
-425.573	-178.880	-0.180	-0.004
-424.559	-200.000	0.017	-0.164
-423.544	94.948	-0.096	0.109
-422.530	93.443	0.132	-0.148
-421.515	750.082	0.076	0.204
-420.500	-175.770	0.268	0.007
-419.486	-200.000	-0.017	-0.117
-418.471	800.000	-0.021	-0.081
-417.457	443.088	-0.097	0.212
-416.442	-62.701	-0.404	-0.166
-415.428	27.736	0.190	-0.159
-414.413	-111.050	-0.285	0.058
-413.398	162.674	0.149	0.207
-412.384	76.804	-0.143	-0.151
-411.369	800.000	0.018	-0.069
-410.355	128.369	0.084	-0.107
-409.340	-200.000	0.026	-0.173
-408.325	51.003	-0.144	-0.136
-407.311	-171.248	-0.308	-0.010
-406.296	-200.000	-0.034	0.383
-405.282	-128.930	0.421	-0.059
-404.267	-136.472	0.257	0.030
-403.252	-200.000	0.046	-0.208
-402.238	800.000	-0.057	-0.192
-401.223	-164.220	0.188	0.009
-400.209	86.370	0.232	0.253
-399.194	106.881	-0.200	-0.236
-398.179	323.979	-0.142	-0.269
-397.165	49.869	-0.262	0.244
-396.150	-200.000	0.004	-0.021
-395.136	-130.805	0.220	-0.029
-394.121	-200.000	0.018	-0.127
-393.106	182.656	0.163	-0.238
-392.092	-200.000	0.008	0.110
-391.077	-135.587	-0.241	0.028
-390.063	-115.099	0.113	-0.021
-389.048	542.177	-0.019	-0.044
-388.033	36.936	0.185	0.162
-387.019	435.383	-0.109	-0.234
-386.004	53.256	0.201	-0.190
-384.990	-91.664	-0.237	-0.067
-383.975	-200.000	0.020	-0.285
-382.960	12.857	0.076	0.058
-381.946	800.000	-0.069	-0.265
-380.931	137.471	0.238	-0.308
-379.917	470.416	-0.095	0.212
-378.902	-11.627	0.055	0.036
-377.888	-200.000	-0.020	0.276
-376.873	800.000	0.051	-0.152
-375.858	136.423	-0.140	-0.181
-374.844	285.763	-0.068	0.122
-373.829	-70.494	-0.334	-0.125
-372.815	-11.471	0.182	-0.119
-371.800	390.568	-0.105	-0.216
-370.785	-67.345	0.132	0.052
-369.771	-200.000	0.011	-0.293
-368.756	194.808	0.107	-0.161
-367.742	541.341	-0.087	-0.206
-366.727	459.561	0.114	0.250
-365.712	327.034	0.090	0.171
-364.698	22.735	0.246	-0.200
-363.683	42.478	0.167	-0.150
-362.669	641.917	-0.026	-0.066
-361.654	629.263	0.146	-0.365
-360.639	8.138	0.053	0.039
-359.625	-114.417	-0.357	0.068
-358.610	-71.693	-0.242	-0.089
-357.596	-200.000	-0.026	0.320
-356.581	75.390	-0.193	-0.201
-355.566	-200.000	-0.016	0.273
-354.552	65.427	-0.219	0.219
-353.537	-46.379	-0.231	0.112
-352.523	-200.000	0.039	0.365
-351.508	-38.479	0.142	-0.074
-350.493	-184.853	0.518	0.008
-349.479	-16.295	-0.227	0.143
-348.464	-113.700	0.126	0.024
-347.450	-200.000	-0.040	0.322
-346.435	257.583	0.147	-0.250
-345.420	-143.659	-0.166	0.016
-344.406	-200.000	0.013	0.104
-343.391	23.989	0.198	0.162
-342.377	31.041	0.254	-0.215
-341.362	41.944	0.105	0.094
-340.348	250.993	0.147	0.246
-339.333	36.571	-0.120	-0.104
-338.318	-51.489	-0.248	0.115
-337.304	-0.555	-0.296	0.207
-336.289	-73.481	-0.073	-0.026
-335.275	9.603	0.293	-0.219
-334.260	800.000	0.068	-0.237
-333.245	-200.000	-0.075	-0.473
-332.231	-0.986	0.187	0.131
-331.216	-111.498	0.061	0.012
-330.202	-113.854	-0.343	0.066
-329.187	-139.442	0.097	0.010
-328.172	-58.366	0.148	-0.063
-327.158	-200.000	0.023	-0.141
-326.143	-28.580	-0.303	0.172
-325.129	-93.396	-0.135	0.037
-324.114	160.441	-0.087	0.119
-323.099	-40.884	-0.176	0.090
-322.085	71.770	0.053	0.055
-321.070	-200.000	-0.033	0.333
-320.056	-200.000	0.058	0.287
-319.041	-63.835	-0.390	0.158
-318.026	95.283	0.086	0.097
-317.012	-200.000	-0.001	0.035
-315.997	-6.715	0.288	-0.194
-314.983	746.175	-0.100	0.267
-313.968	93.275	-0.119	0.133
-312.953	165.486	-0.187	-0.262
-311.939	-103.883	0.358	-0.082
-310.924	-73.321	0.107	0.039
-309.910	-158.262	0.155	-0.009
-308.895	29.194	0.216	0.181
-307.880	-137.690	-0.120	0.013
-306.866	-123.940	-0.115	-0.018
-305.851	22.864	-0.073	0.059
-304.837	800.000	-0.036	0.100
-303.822	12.351	-0.086	0.065
-302.807	-47.662	0.081	-0.039
-301.793	-120.878	-0.213	0.035
-300.778	-25.079	0.237	-0.139
-299.764	-200.000	0.049	-0.246
-298.749	25.398	0.117	-0.096
-297.735	-192.297	0.235	0.002
-296.720	-142.039	-0.174	-0.017
-295.705	-115.219	0.140	-0.026
-294.691	-105.086	0.357	-0.081
-293.676	-36.328	-0.179	0.096
-292.662	150.800	0.073	-0.098
-291.647	-200.000	-0.027	0.365
-290.632	210.256	-0.084	-0.131
-289.618	3.016	0.219	-0.157
-288.603	800.000	-0.030	-0.116
-287.589	74.651	0.131	0.136
-286.574	-200.000	-0.019	-0.100
-285.559	-200.000	-0.029	-0.228
-284.545	-200.000	0.047	-0.220
-283.530	-161.339	-0.230	-0.012
-282.516	81.541	-0.194	0.207
-281.501	762.579	-0.204	0.547
-280.486	70.471	-0.250	0.255
-279.472	262.257	-0.079	0.135
-278.457	39.172	0.230	0.203
-277.443	-200.000	0.046	-0.206
-276.428	800.000	0.045	-0.136
-275.413	307.894	-0.072	0.132
-274.399	-45.765	0.572	0.279
-273.384	55.381	-0.329	0.314
-272.370	-86.570	-0.246	0.074
-271.355	-80.311	-0.103	0.034
-270.340	-49.866	-0.069	0.032
-269.326	-40.572	-0.092	-0.047
-268.311	149.400	0.138	0.184
-267.297	800.000	0.025	-0.079
-266.282	-57.361	-0.124	0.054
-265.267	-161.493	0.266	0.013
-264.253	64.010	-0.200	-0.198
-263.238	598.408	0.080	-0.196
-262.224	-200.000	-0.044	0.275
-261.209	-69.372	-0.242	-0.091
-260.195	-183.764	-0.496	-0.008
-259.180	-200.000	0.068	0.317
-258.165	440.413	0.084	0.181
-257.151	-114.340	-0.246	0.047
-256.136	-186.380	0.272	0.004
-255.122	-84.145	0.049	-0.015
-254.107	-200.000	0.021	0.106
-253.092	43.508	0.080	0.072
-252.078	-61.628	0.087	-0.036
-251.063	-123.749	0.214	0.033
-250.049	586.291	0.119	0.289
-249.034	800.000	0.113	-0.315
-248.019	-28.539	0.075	-0.042
-247.005	-200.000	-0.026	-0.241
-245.990	800.000	0.117	-0.372
-244.976	6.072	-0.207	0.151
-243.961	-91.353	-0.109	-0.031
-242.946	-58.893	0.117	-0.050
-241.932	62.014	0.262	0.258
-240.917	-32.536	0.094	0.051
-239.903	-99.750	0.214	0.053
-238.888	37.899	0.086	0.075
-237.873	800.000	-0.029	-0.116
-236.859	29.218	-0.098	-0.082
-235.844	-72.650	-0.442	0.160
-234.830	37.599	-0.209	0.183
-233.815	-200.000	0.045	0.305
-232.800	-110.136	0.341	-0.070
-231.786	28.684	-0.203	0.169
-230.771	-62.563	-0.463	0.189
-229.757	-30.076	-0.193	-0.108
-228.742	-164.151	0.163	0.007
-227.727	-53.910	0.334	-0.150
-226.713	-135.093	0.082	-0.010
-225.698	371.129	0.064	-0.129
-224.684	800.000	0.029	-0.122
-223.669	104.974	0.066	-0.076
-222.655	-90.443	-0.168	0.048
-221.640	-2.815	-0.184	0.127
-220.625	-55.700	-0.055	-0.024
-219.611	-11.626	-0.242	0.157
-218.596	-200.000	-0.020	-0.160
-217.582	42.226	0.322	-0.288
-216.567	27.593	-0.305	-0.253
-215.552	-87.876	0.416	-0.123
-214.538	620.361	0.063	0.155
-213.523	395.676	0.139	-0.285
-212.509	-120.326	-0.177	-0.030
-211.494	129.256	0.052	0.065
-210.479	124.010	0.088	-0.108
-209.465	-137.586	-0.243	0.027
-208.450	-200.000	-0.043	0.281
-207.436	302.805	0.206	0.374
-206.421	800.000	-0.081	0.345
-205.406	-22.655	-0.283	0.169
-204.392	-19.332	0.108	-0.066
-203.377	-149.064	0.263	-0.021
-202.363	-20.298	0.214	-0.129
-201.348	-71.449	0.149	0.055
-200.333	279.528	-0.174	0.305
-199.319	-102.682	0.271	0.063
-198.304	-93.206	0.077	0.021
-197.290	167.793	0.160	0.224
-196.275	302.476	0.016	-0.030
-195.260	-200.000	-0.008	-0.258
-194.246	252.346	0.257	0.430
-193.231	-179.879	0.437	-0.009
-192.217	-16.399	-0.074	0.046
-191.202	-200.000	-0.019	0.095
-190.187	-114.439	-0.431	-0.081
-189.173	800.000	-0.046	-0.166
-188.158	355.804	0.089	-0.174
-187.144	-74.540	0.308	-0.109
-186.129	91.382	-0.191	0.211
-185.114	-32.386	0.047	0.026
-184.100	215.382	-0.148	-0.230
-183.085	-25.595	-0.248	-0.144
-182.071	273.053	0.210	0.365
-181.056	-200.000	-0.027	-0.327
-180.042	683.705	0.084	-0.216
-179.027	-80.372	0.094	-0.031
-178.012	6.492	0.090	-0.066
-176.998	-161.492	-0.059	-0.003
-175.983	-108.478	-0.297	-0.063
-174.969	-25.888	0.283	-0.164
-173.954	315.018	-0.144	0.267
-172.939	-78.589	-0.407	0.137
-171.925	208.056	-0.065	0.100
-170.910	225.370	-0.064	0.101
-169.896	-26.629	0.312	0.180
-168.881	500.267	0.219	0.497
-167.866	464.495	-0.196	-0.431
-166.852	34.719	0.147	0.126
-165.837	44.745	-0.300	-0.271
-164.823	593.156	0.042	0.102
-163.808	-150.504	0.148	-0.011
-162.793	-85.285	-0.290	0.089
-161.779	-74.311	0.140	-0.050
-160.764	-99.741	0.137	0.034
-159.750	800.000	0.090	0.279
-158.735	-200.000	0.011	0.063
-157.720	800.000	0.084	-0.335
-156.706	-200.000	0.005	-0.347
-155.691	544.572	0.027	0.062
-154.677	-150.415	0.368	-0.028
-153.662	523.250	0.145	-0.335
-152.647	138.813	-0.042	-0.055
-151.633	33.695	0.065	-0.055
-150.618	-2.575	-0.090	0.062
-149.604	73.792	-0.109	-0.112
-148.589	-144.321	-0.172	0.016
-147.574	-167.512	0.425	-0.017
-146.560	800.000	-0.093	0.344
-145.545	554.141	0.017	0.040
-144.531	-65.053	0.451	0.179
-143.516	-50.854	0.595	-0.274
-142.502	34.703	-0.180	-0.155
-141.487	-13.610	-0.053	-0.034
-140.472	-119.590	0.230	0.039
-139.458	-157.183	-0.461	0.027
-138.443	137.648	-0.057	-0.074
-137.429	202.258	-0.101	0.153
-136.414	-164.888	0.135	0.006
-135.399	318.367	0.036	-0.068
-134.385	77.804	0.280	0.293
-133.370	68.904	0.142	-0.143
-132.356	9.700	0.332	-0.247
-131.341	730.019	-0.008	-0.020
-130.326	206.238	0.031	-0.047
-129.312	-73.925	0.329	-0.117
-128.297	-60.131	-0.143	-0.060
-127.283	-20.188	0.283	-0.171
-126.268	-200.000	-0.066	-0.284
-125.253	-58.373	-0.146	0.062
-124.239	800.000	0.071	-0.211
-123.224	-138.346	0.256	-0.028
-122.210	-200.000	0.068	-0.475
