DTS Sentinel unit serial number:	SN413079Multiplexer serial number:	ORYXHardware model number:	OX4-SRSoftware version number:	ORYX F/W v4.00 Oryx Data Collector v3.7.2.0data status	okinstallation	princeton_trtdifferential loss correction	single-endedforward channel	channel 1reverse channel	N/Adate	2019/09/12time	08:52:11forward acquisition time	60.00reverse acquisition time	0.00gamma	496.2192k internal	0.2310k external	0.2310temperature offset calibration	1.0043default loss term (dB/km)	0.3790temperature slope calibration	1.0000multiplexer offset coefficient	1.0000multiplexer slope coefficient	1.0000fibre end	0.00T internal ref (°C)	34.03T ext. ref 1 (°C)	1.73T ext. ref 2 (°C)	30.91length (m)	temperature (°C)	Stokes	anti-Stokes-747.200	-77.475	-0.194	0.069
-746.185	775.533	-0.130	0.362
-745.171	-140.770	-0.217	0.023
-744.156	-200.000	0.013	0.104
-743.142	-138.124	0.293	0.033
-742.127	800.000	0.091	0.390
-741.112	-8.119	0.242	0.165
-740.098	197.861	-0.261	0.404
-739.083	367.109	0.086	0.176
-738.069	-53.751	-0.181	0.084
-737.054	3.464	-0.007	-0.005
-736.039	800.000	-0.158	0.457
-735.025	-67.032	0.199	0.080
-734.010	8.377	-0.249	-0.190
-732.996	256.227	-0.060	-0.104
-731.981	-200.000	-0.023	-0.236
-730.966	-126.812	-0.184	0.028
-729.952	43.551	-0.027	0.025
-728.937	-139.402	0.267	-0.029
-727.923	-181.365	-0.150	0.003
-726.908	-159.433	-0.338	0.019
-725.894	-67.041	0.446	0.178
-724.879	-200.000	0.040	-0.211
-723.864	-57.435	-0.316	-0.141
-722.850	-200.000	0.008	0.268
-721.835	-116.436	-0.129	0.024
-720.821	-200.000	-0.007	0.030
-719.806	-161.702	0.226	-0.012
-718.791	-7.184	0.186	0.128
-717.777	-71.103	-0.196	0.075
-716.762	800.000	0.111	-0.428
-715.748	276.461	0.119	0.214
-714.733	171.997	-0.081	0.118
-713.718	144.759	0.133	0.180
-712.704	-200.000	0.009	-0.227
-711.689	-200.000	0.041	-0.389
-710.675	800.000	0.048	-0.165
-709.660	352.543	-0.195	-0.393
-708.645	-102.614	0.020	-0.005
-707.631	1.939	-0.298	-0.218
-706.616	-200.000	-0.029	0.293
-705.602	355.711	0.117	0.236
-704.587	800.000	-0.063	0.241
-703.572	179.688	0.078	-0.116
-702.558	305.957	0.061	0.116
-701.543	800.000	-0.104	0.324
-700.529	-75.877	-0.257	-0.092
-699.514	800.000	-0.198	0.694
-698.499	146.662	-0.115	0.157
-697.485	-17.004	-0.160	-0.102
-696.470	-152.392	0.360	0.026
-695.456	241.043	0.137	-0.232
-694.441	-6.810	0.353	0.244
-693.426	-109.268	-0.235	0.051
-692.412	42.431	-0.038	0.035
-691.397	-129.760	0.187	-0.026
-690.383	-144.128	-0.352	-0.033
-689.368	295.015	0.182	0.337
-688.354	-101.695	0.231	-0.057
-687.339	-34.439	-0.031	0.017
-686.324	53.559	0.231	0.224
-685.310	-83.956	-0.179	-0.058
-684.295	800.000	-0.053	0.180
-683.281	103.914	0.113	-0.134
-682.266	-51.515	0.130	-0.062
-681.251	-42.169	-0.152	0.079
-680.237	20.274	0.211	0.173
-679.222	-30.777	-0.295	0.169
-678.208	-127.953	-0.461	-0.067
-677.193	-68.646	0.234	0.092
-676.178	464.209	0.150	-0.340
-675.164	42.772	-0.158	0.146
-674.149	109.883	-0.147	-0.179
-673.135	-29.644	-0.249	-0.144
-672.120	-38.550	-0.335	0.179
-671.105	-67.387	-0.103	-0.041
-670.091	724.805	0.092	0.249
-669.076	93.483	-0.059	0.067
-668.062	-61.988	-0.102	-0.043
-667.047	-62.716	0.200	-0.084
-666.032	-19.819	0.180	-0.113
-665.018	25.639	-0.350	-0.295
-664.003	-0.967	0.139	-0.100
-662.989	800.000	0.023	0.098
-661.974	381.679	-0.144	-0.300
-660.959	195.246	0.125	-0.192
-659.945	-10.571	-0.180	-0.121
-658.930	800.000	-0.030	-0.094
-657.916	-71.677	-0.123	0.046
-656.901	800.000	0.093	0.297
-655.886	-200.000	-0.018	0.191
-654.872	-178.928	-0.292	0.007
-653.857	-200.000	0.024	0.109
-652.843	-102.003	-0.189	-0.046
-651.828	-200.000	0.002	-0.112
-650.814	-15.646	-0.267	0.172
-649.799	61.434	0.165	0.166
-648.784	-81.282	-0.214	-0.071
-647.770	-200.000	0.099	-0.441
-646.755	517.506	-0.110	-0.261
-645.741	767.182	-0.024	-0.065
-644.726	-101.575	-0.078	-0.019
-643.711	441.397	-0.095	0.209
-642.697	-168.569	-0.157	-0.006
-641.682	127.714	0.188	-0.241
-640.668	49.572	-0.167	-0.159
-639.653	-75.757	0.285	-0.102
-638.638	-99.240	-0.458	-0.117
-637.624	33.388	-0.298	-0.262
-636.609	59.680	0.043	0.043
-635.595	-71.323	0.320	-0.121
-634.580	7.183	0.159	-0.120
-633.565	95.882	-0.151	0.175
-632.551	4.317	0.295	-0.219
-631.536	-103.285	0.106	-0.025
-630.522	-21.534	-0.203	-0.125
-629.507	-200.000	-0.036	-0.277
-628.492	-200.000	0.256	0.000
-627.478	44.542	-0.169	-0.157
-626.463	100.439	-0.035	0.041
-625.449	162.599	0.114	-0.162
-624.434	190.347	-0.048	-0.073
-623.419	147.405	-0.088	-0.119
-622.405	320.423	-0.118	-0.226
-621.390	-45.748	-0.187	-0.093
-620.376	208.869	0.070	-0.111
-619.361	645.912	-0.072	-0.185
-618.346	12.900	-0.150	-0.117
-617.332	800.000	0.058	-0.189
-616.317	394.811	-0.115	0.242
-615.303	43.046	0.340	-0.313
-614.288	-89.168	0.461	-0.138
-613.273	50.759	-0.082	-0.079
-612.259	800.000	0.065	-0.242
-611.244	35.507	-0.211	0.187
-610.230	118.353	0.262	0.327
-609.215	-191.407	-0.407	0.004
-608.201	-72.899	-0.114	0.042
-607.186	-83.562	-0.178	0.058
-606.171	597.245	-0.084	-0.211
-605.157	-53.179	0.070	0.032
-604.142	79.468	0.188	-0.204
-603.128	-172.100	-0.182	0.006
-602.113	136.433	0.024	0.032
-601.098	20.006	-0.278	-0.227
-600.084	-0.424	-0.331	-0.238
-599.069	24.954	-0.119	-0.099
-598.055	98.083	0.182	0.212
-597.040	-49.952	0.407	0.195
-596.025	134.041	0.228	-0.298
-595.011	-69.048	0.028	-0.011
-593.996	-200.000	0.008	-0.154
-592.982	-200.000	0.018	-0.364
-591.967	800.000	0.151	-0.432
-590.952	-172.022	0.131	-0.004
-589.938	-155.560	-0.248	-0.016
-588.923	-68.377	-0.297	0.117
-587.909	687.344	-0.040	0.106
-586.894	-116.215	-0.443	0.083
-585.879	-23.539	0.201	0.122
-584.865	-57.112	0.418	0.186
-583.850	-116.942	0.110	-0.020
-582.836	-103.330	-0.378	-0.090
-581.821	-95.027	0.079	0.022
-580.806	-68.002	0.155	0.061
-579.792	-181.710	-0.230	0.004
-578.777	61.668	0.161	-0.161
-577.763	-104.054	-0.227	0.053
-576.748	71.747	0.176	-0.184
-575.733	-56.146	-0.232	0.104
-574.719	195.794	0.152	-0.233
-573.704	-200.000	-0.035	-0.251
-572.690	-91.774	0.220	-0.063
-571.675	56.402	0.176	-0.172
-570.661	-10.177	0.171	0.115
-569.646	69.946	-0.116	0.121
-568.631	-200.000	0.028	-0.323
-567.617	443.448	-0.252	0.557
-566.602	143.205	-0.143	-0.192
-565.588	800.000	-0.077	-0.310
-564.573	800.000	0.099	0.375
-563.558	480.760	0.045	0.102
-562.544	217.265	-0.050	0.081
-561.529	800.000	-0.093	-0.294
-560.515	249.310	0.136	-0.233
-559.500	-136.729	-0.022	0.003
-558.485	-200.000	-0.027	0.172
-557.471	-57.178	0.117	-0.052
-556.456	-54.848	-0.350	-0.159
-555.442	187.303	0.151	-0.226
-554.427	32.161	-0.158	0.137
-553.412	190.127	-0.090	0.137
-552.398	-200.000	-0.001	-0.014
-551.383	49.213	0.135	-0.128
-550.369	-173.792	0.139	-0.004
-549.354	134.253	-0.119	-0.155
-548.339	-81.457	0.223	0.074
-547.325	-200.000	0.042	0.240
-546.310	632.125	-0.040	0.103
-545.296	-95.498	0.102	0.027
-544.281	-75.030	0.293	-0.106
-543.266	-200.000	0.017	-0.113
-542.252	742.916	-0.162	-0.438
-541.237	800.000	0.019	0.068
-540.223	75.722	-0.177	0.188
-539.208	36.315	0.176	0.156
-538.193	747.078	0.069	0.186
-537.179	55.786	0.124	0.122
-536.164	50.094	0.127	0.121
-535.150	10.032	0.081	0.062
-534.135	368.093	-0.059	0.120
-533.121	258.739	-0.104	-0.181
-532.106	-200.000	0.039	0.200
-531.091	800.000	0.035	-0.141
-530.077	-111.764	0.153	0.031
-529.062	-35.905	0.200	0.109
-528.048	-136.370	-0.262	-0.031
-527.033	34.408	-0.175	-0.154
-526.018	216.604	0.167	0.268
-525.004	-49.373	0.201	-0.097
-523.989	800.000	0.032	0.093
-522.975	400.954	0.078	0.165
-521.960	50.988	0.254	0.243
-520.945	416.155	0.083	0.178
-519.931	54.719	0.242	0.235
-518.916	-123.254	0.081	-0.013
-517.902	-190.605	-0.165	0.002
-516.887	-108.338	-0.247	0.054
-515.872	-197.019	-0.090	-0.001
-514.858	-200.000	0.011	0.172
-513.843	-132.493	-0.133	0.017
-512.829	76.076	0.103	-0.110
-511.814	-125.874	-0.128	-0.019
-510.799	13.474	-0.345	-0.269
-509.785	-42.451	-0.130	0.067
-508.770	88.475	-0.151	0.168
-507.756	-92.659	0.041	0.011
-506.741	70.784	0.193	0.201
-505.726	-64.964	-0.082	0.034
-504.712	21.366	-0.088	0.072
-503.697	-200.000	0.020	-0.345
-502.683	-115.915	0.268	-0.050
-501.668	-0.874	0.217	0.154
-500.653	-111.262	0.273	-0.056
-499.639	-30.714	-0.230	0.131
-498.624	-20.382	-0.071	-0.044
-497.610	-112.604	-0.174	0.035
-496.595	-200.000	0.070	-0.640
-495.581	-46.549	0.201	0.099
-494.566	-192.315	0.252	0.002
-493.551	800.000	-0.043	-0.137
-492.537	-86.874	0.219	0.067
-491.522	233.256	0.068	0.113
-490.508	-52.915	0.183	0.085
-489.493	-3.583	-0.052	-0.036
-488.478	800.000	0.117	-0.499
-487.464	112.945	-0.203	-0.247
-486.449	504.557	0.013	-0.031
-485.435	-113.144	0.182	0.036
-484.420	-171.434	-0.212	-0.007
-483.405	-200.000	-0.020	-0.125
-482.391	-166.377	0.190	0.008
-481.376	53.432	0.157	-0.151
-480.362	-200.000	0.010	0.332
-479.347	62.107	-0.180	-0.180
-478.332	-200.000	0.008	0.070
-477.318	292.946	0.087	0.160
-476.303	17.593	-0.119	0.095
-475.289	224.547	0.135	-0.219
-474.274	-1.477	-0.088	0.062
-473.259	-200.000	0.026	0.151
-472.245	-20.216	-0.177	0.110
-471.230	-200.000	-0.048	-0.241
-470.216	-200.000	-0.064	0.333
-469.201	309.375	0.072	-0.136
-468.186	-200.000	0.037	-0.302
-467.172	-100.322	0.161	0.040
-466.157	-200.000	0.011	-0.064
-465.143	192.451	-0.191	-0.290
-464.128	-79.456	0.240	0.081
-463.113	800.000	0.061	0.180
-462.099	1.279	0.183	-0.132
-461.084	-48.791	-0.308	0.149
-460.070	-15.414	-0.100	0.064
-459.055	-142.591	-0.115	0.011
-458.040	89.563	0.202	-0.227
-457.026	381.864	0.112	-0.232
-456.011	62.023	-0.073	-0.073
-454.997	-95.533	0.062	0.017
-453.982	216.986	-0.042	-0.067
-452.968	-200.000	0.002	0.251
-451.953	-200.000	-0.003	0.066
-450.938	667.769	0.156	-0.404
-449.924	61.527	-0.048	-0.048
-448.909	800.000	0.086	0.361
-447.895	-106.190	-0.130	0.029
-446.880	-5.577	-0.346	-0.238
-445.865	639.311	-0.019	-0.047
-444.851	254.005	0.089	0.153
-443.836	800.000	0.022	-0.076
-442.822	-70.638	-0.200	0.076
-441.807	4.552	0.088	-0.065
-440.792	-200.000	0.010	-0.396
-439.778	136.450	0.160	-0.210
-438.763	-156.090	-0.229	0.015
-437.749	196.640	-0.075	0.114
-436.734	800.000	-0.035	-0.106
-435.719	103.879	-0.188	0.222
-434.705	-200.000	0.062	0.276
-433.690	112.374	0.106	-0.128
-432.676	-7.352	-0.229	0.155
-431.661	16.405	0.096	0.076
-430.646	-157.803	-0.399	-0.024
-429.632	-200.000	0.006	0.070
-428.617	26.085	-0.163	0.136
-427.603	-39.839	0.518	0.271
-426.588	-193.702	0.139	-0.001
-425.573	-56.455	0.053	0.024
-424.559	-138.264	0.238	0.026
-423.544	-200.000	0.040	0.207
-422.530	181.728	0.116	0.172
-421.515	800.000	0.099	0.349
-420.500	800.000	-0.100	-0.329
-419.486	245.810	0.166	0.280
-418.471	8.388	-0.214	0.161
-417.457	368.389	-0.116	-0.235
-416.442	-72.792	-0.234	0.086
-415.428	-135.764	0.136	-0.016
-414.413	394.102	-0.044	-0.092
-413.398	-61.381	-0.115	-0.049
-412.384	800.000	0.020	-0.060
-411.369	800.000	-0.014	0.061
-410.355	-200.000	-0.004	0.066
-409.340	760.607	-0.024	-0.064
-408.325	326.779	0.045	-0.087
-407.311	410.798	-0.042	0.089
-406.296	-200.000	-0.031	-0.146
-405.282	-200.000	0.002	-0.158
-404.267	105.452	0.185	-0.219
-403.252	-200.000	0.098	-0.476
-402.238	500.365	-0.050	-0.115
-401.223	356.852	0.143	0.286
-400.209	-121.652	0.121	-0.020
-399.194	-96.888	-0.078	0.020
-398.179	-86.308	0.098	-0.030
-397.165	800.000	0.033	0.128
-396.150	-60.949	-0.283	-0.120
-395.136	318.414	0.080	0.152
-394.121	-200.000	0.031	-0.285
-393.106	-23.473	0.096	-0.058
-392.092	-109.135	0.522	-0.111
-391.077	-70.861	-0.185	-0.070
-390.063	-31.749	-0.149	-0.084
-389.048	-200.000	0.030	0.151
-388.033	143.739	0.228	0.304
-387.019	12.203	0.057	0.044
-386.004	158.547	0.196	-0.272
-384.990	73.864	-0.150	0.158
-383.975	43.483	0.211	0.193
-382.960	201.976	0.197	0.304
-381.946	317.641	-0.102	0.194
-380.931	21.970	0.187	0.153
-379.917	63.010	0.276	-0.277
-378.902	800.000	0.026	0.073
-377.888	-145.224	0.096	-0.009
-376.873	800.000	-0.044	0.130
-375.858	9.672	0.207	-0.157
-374.844	55.955	0.080	0.078
-373.829	77.577	-0.075	-0.080
-372.815	-165.827	-0.052	0.002
-371.800	-200.000	0.031	0.306
-370.785	-200.000	-0.020	0.100
-369.771	17.930	0.037	0.029
-368.756	24.856	-0.228	0.189
-367.742	-32.868	0.135	-0.075
-366.727	13.288	0.137	-0.106
-365.712	-96.839	0.314	-0.083
-364.698	248.948	-0.232	0.393
-363.683	113.976	0.145	0.176
-362.669	78.878	-0.079	0.085
-361.654	96.984	0.220	-0.253
-360.639	-110.359	-0.156	-0.032
-359.625	-111.728	-0.054	-0.011
-358.610	-116.280	-0.231	-0.043
-357.596	-86.298	-0.259	0.080
-356.581	28.292	0.240	0.203
-355.566	-7.176	-0.151	-0.102
-354.552	-69.960	-0.114	-0.043
-353.537	-200.000	-0.029	-0.372
-352.523	-118.072	-0.241	-0.043
-351.508	4.842	0.332	0.245
-350.493	18.733	-0.031	0.025
-349.479	-200.000	0.001	0.040
-348.464	344.123	0.147	0.289
-347.450	-144.739	-0.035	-0.003
-346.435	175.239	-0.078	0.112
-345.420	-78.897	-0.177	-0.060
-344.406	42.000	0.023	0.021
-343.391	-30.130	-0.100	0.057
-342.377	-93.083	0.309	0.086
-341.362	310.443	-0.120	0.225
-340.348	-13.409	0.167	-0.109
-339.333	275.318	0.086	0.153
-338.318	800.000	-0.085	-0.260
-337.304	-200.000	0.001	-0.209
-336.289	-200.000	-0.023	-0.118
-335.275	-61.319	0.199	-0.084
-334.260	-128.036	0.282	-0.040
-333.245	39.347	-0.216	0.193
-332.231	-200.000	-0.058	0.485
-331.216	-26.351	0.392	0.230
-330.202	131.806	0.207	-0.266
-329.187	800.000	0.117	-0.327
-328.172	800.000	-0.008	0.036
-327.158	-145.719	-0.358	0.032
-326.143	-141.305	0.100	0.010
-325.129	-29.994	-0.290	0.165
-324.114	-180.056	-0.132	-0.003
-323.099	58.090	0.224	-0.219
-322.085	-47.775	0.253	-0.123
-321.070	376.300	-0.100	0.204
-320.056	-38.765	-0.271	-0.143
-319.041	-106.891	0.139	0.031
-318.026	-200.000	-0.021	0.101
-317.012	-103.790	-0.423	0.099
-315.997	-133.835	0.186	0.023
-314.983	800.000	0.113	0.350
-313.968	-180.627	0.044	0.001
-312.953	240.874	-0.165	0.274
-311.939	-118.564	-0.452	0.080
-310.924	800.000	0.052	-0.214
-309.910	97.293	-0.200	0.229
-308.895	110.190	0.134	0.161
-307.880	-105.405	-0.189	-0.043
-306.866	82.164	-0.239	-0.259
-305.851	402.736	0.085	0.177
-304.837	72.241	-0.179	0.186
-303.822	30.809	0.091	0.077
-302.807	800.000	0.176	-0.494
-301.793	33.818	-0.128	0.111
-300.778	171.118	-0.282	-0.404
-299.764	390.154	-0.118	0.244
-298.749	112.022	0.091	-0.109
-297.735	115.736	0.262	-0.320
-296.720	280.042	-0.057	0.101
-295.705	-78.781	-0.232	-0.079
-294.691	-146.748	0.048	-0.004
-293.676	385.179	0.081	-0.166
-292.662	-97.732	-0.364	-0.094
-291.647	-153.618	0.198	-0.014
-290.632	95.393	-0.246	-0.280
-289.618	-167.966	0.037	-0.001
-288.603	-200.000	-0.061	-0.346
-287.589	-139.124	-0.131	0.014
-286.574	365.694	0.083	0.167
-285.559	800.000	-0.059	-0.232
-284.545	-200.000	0.082	0.592
-283.530	-45.335	0.104	-0.051
-282.516	104.356	-0.080	0.094
-281.501	224.689	0.138	0.222
-280.486	-37.943	0.254	-0.135
-279.472	-200.000	0.056	0.341
-278.457	-81.940	-0.124	-0.040
-277.443	-200.000	-0.014	-0.240
-276.428	-40.369	0.250	0.130
-275.413	800.000	0.170	0.551
-274.399	-200.000	-0.037	0.311
-273.384	-107.844	-0.260	0.057
-272.370	-168.959	-0.080	0.003
-271.355	-200.000	-0.039	0.309
-270.340	-156.205	-0.260	0.016
-269.326	72.556	-0.341	-0.355
-268.311	293.090	-0.062	-0.113
-267.297	-91.555	0.114	-0.032
-266.282	-40.340	0.218	0.113
-265.267	-18.660	-0.198	0.123
-264.253	-96.591	-0.075	-0.020
-263.238	-41.664	-0.359	0.184
-262.224	-185.553	0.117	-0.002
-261.209	800.000	0.014	-0.057
-260.195	135.470	-0.095	0.123
-259.180	227.717	-0.100	0.163
-258.165	-200.000	-0.005	-0.079
-257.151	-137.633	0.111	-0.012
-256.136	550.990	-0.137	0.327
-255.122	-86.922	-0.052	-0.016
-254.107	68.524	0.129	0.132
-253.092	800.000	-0.026	-0.104
-252.078	-23.047	0.046	-0.028
-251.063	-104.711	-0.120	-0.028
-250.049	-21.298	0.318	0.193
-249.034	613.187	0.123	0.306
-248.019	350.105	-0.080	-0.157
-247.005	304.117	0.035	-0.064
-245.990	-200.000	0.002	-0.040
-244.976	-200.000	0.064	0.296
-243.961	-200.000	0.002	0.321
-242.946	35.962	0.209	-0.183
-241.932	-200.000	0.016	-0.288
-240.917	-106.925	-0.203	0.045
-239.903	-53.959	0.111	-0.050
-238.888	93.972	-0.172	-0.194
-237.873	275.800	0.238	0.420
-236.859	44.365	0.160	0.146
-235.844	-200.000	0.011	0.192
-234.830	-68.129	-0.183	-0.071
-233.815	-200.000	-0.003	0.290
-232.800	176.747	0.046	-0.067
-231.786	244.954	-0.167	0.280
-230.771	-6.808	-0.034	-0.023
-229.757	340.353	0.011	-0.021
-228.742	21.149	0.044	0.035
-227.727	455.154	-0.087	0.192
-226.713	291.898	-0.022	0.041
-225.698	800.000	0.024	-0.073
-224.684	151.382	0.033	-0.045
-223.669	800.000	-0.066	0.239
-222.655	215.141	-0.028	-0.045
-221.640	-200.000	-0.009	-0.074
-220.625	68.642	0.123	0.126
-219.611	69.130	0.296	-0.303
-218.596	-35.863	-0.236	0.127
-217.582	-138.450	-0.205	0.022
-216.567	-104.355	-0.110	-0.025
-215.552	-82.031	-0.100	-0.033
-214.538	-16.756	-0.359	-0.226
-213.523	115.899	-0.285	0.347
-212.509	118.743	-0.033	-0.040
-211.494	771.661	0.111	0.302
-210.479	34.544	-0.129	0.112
-209.465	30.221	-0.171	0.145
-208.450	173.710	-0.107	-0.154
-207.436	-32.017	-0.142	-0.079
-206.421	133.236	0.060	-0.077
-205.406	-138.446	-0.026	0.003
-204.392	195.419	0.257	-0.388
-203.377	-60.414	-0.098	0.041
-202.363	140.461	-0.076	0.100
-201.348	-200.000	-0.015	-0.104
-200.333	-22.138	0.030	0.018
-199.319	800.000	0.154	0.501
-198.304	800.000	-0.087	-0.269
-197.290	77.858	0.042	0.045
-196.275	-200.000	0.002	-0.350
-195.260	-82.811	-0.131	-0.042
-194.246	-200.000	-0.077	-0.545
-193.231	-177.848	0.429	0.010
-192.217	800.000	-0.034	-0.099
-191.202	800.000	-0.057	0.180
-190.187	-135.667	-0.058	0.007
-189.173	-123.331	-0.070	0.011
-188.158	103.386	-0.100	-0.116
-187.144	-130.516	0.118	0.016
-186.129	-200.000	-0.064	-0.278
-185.114	-83.812	0.343	-0.109
-184.100	-105.067	0.399	0.091
-183.085	-53.691	-0.316	0.143
-182.071	-15.815	-0.306	0.193
-181.056	-200.000	0.029	0.155
-180.042	-200.000	-0.029	0.260
-179.027	-155.938	-0.155	-0.010
-178.012	717.108	-0.014	-0.038
-176.998	-116.794	-0.299	0.054
-175.983	-79.216	-0.347	0.117
-174.969	-181.890	-0.134	0.003
-173.954	9.345	0.063	-0.047
-172.939	151.546	-0.168	-0.227
-171.925	-77.774	-0.176	-0.060
-170.910	4.293	0.023	0.017
-169.896	133.362	-0.051	0.065
-168.881	178.399	0.267	0.388
-167.866	-183.778	0.045	0.001
-166.852	83.454	-0.150	0.163
-165.837	-38.562	-0.171	0.090
-164.823	-200.000	0.217	-0.000
-163.808	-104.119	0.231	0.053
-162.793	29.031	0.159	-0.134
-161.779	-200.000	0.066	0.311
-160.764	720.260	-0.129	-0.340
-159.750	51.462	-0.497	-0.469
-158.735	800.000	0.049	0.148
-157.720	-101.099	0.375	0.091
-156.706	-64.827	0.249	-0.100
-155.691	-71.049	0.376	-0.140
-154.677	-170.367	0.362	0.013
-153.662	57.424	0.114	0.111
-152.647	34.390	-0.045	-0.039
-151.633	-200.000	0.080	0.533
-150.618	85.531	0.084	-0.091
-149.604	234.643	0.067	-0.110
-148.589	-200.000	0.014	0.216
-147.574	328.370	0.118	0.225
-146.560	1.193	-0.414	0.295
-145.545	-156.737	0.152	-0.009
-144.531	213.871	0.069	0.109
-143.516	-82.765	-0.042	-0.013
-142.502	-155.889	-0.294	-0.019
-141.487	-93.902	0.433	0.118
-140.472	140.823	-0.123	-0.161
-139.458	-120.180	0.158	-0.027
-138.443	104.410	-0.086	-0.100
-137.429	-200.000	0.007	-0.213
-136.414	-200.000	0.019	0.248
-135.399	231.114	0.198	-0.321
-134.385	131.632	0.071	0.091
-133.370	-122.695	0.395	-0.063
-132.356	-14.216	0.217	0.139
-131.341	800.000	0.061	0.191
-130.326	237.596	0.132	0.218
-129.312	-48.057	-0.141	-0.068
-128.297	800.000	0.091	-0.289
-127.283	-200.000	0.019	0.085
-126.268	190.934	-0.106	0.158
-125.253	-91.461	0.028	0.008
-124.239	-4.085	0.075	0.052
-123.224	85.653	0.156	0.170
-122.210	361.053	-0.126	0.251
-121.195	800.000	0.005	0.014
-120.180	70.207	0.156	0.160
