DTS Sentinel unit serial number:	SN413079Multiplexer serial number:	ORYXHardware model number:	OX4-SRSoftware version number:	ORYX F/W v4.00 Oryx Data Collector v3.7.2.0data status	okinstallation	princeton_trtdifferential loss correction	single-endedforward channel	channel 1reverse channel	N/Adate	2019/09/12time	09:48:11forward acquisition time	60.00reverse acquisition time	0.00gamma	496.2192k internal	0.2300k external	0.2300temperature offset calibration	1.0043default loss term (dB/km)	0.3790temperature slope calibration	1.0000multiplexer offset coefficient	1.0000multiplexer slope coefficient	1.0000fibre end	0.00T internal ref (°C)	36.00T ext. ref 1 (°C)	1.84T ext. ref 2 (°C)	32.44length (m)	temperature (°C)	Stokes	anti-Stokes-747.200	-106.331	-0.087	0.020
-746.185	-192.610	-0.265	0.003
-745.171	493.477	-0.114	-0.266
-744.156	-23.454	0.289	0.177
-743.142	800.000	0.060	0.181
-742.127	170.180	0.059	0.086
-741.112	-102.801	0.345	-0.084
-740.098	-47.413	0.007	0.004
-739.083	340.857	0.055	-0.110
-738.069	-200.000	0.101	0.554
-737.054	800.000	0.044	-0.138
-736.039	425.263	0.025	0.054
-735.025	-73.492	-0.077	0.029
-734.010	-123.476	-0.337	-0.055
-732.996	35.159	-0.205	-0.183
-731.981	800.000	0.124	0.411
-730.966	-42.924	-0.212	0.110
-729.952	99.861	-0.171	0.202
-728.937	-29.511	-0.223	-0.130
-727.923	97.527	0.104	-0.122
-726.908	545.619	-0.198	-0.483
-725.894	77.950	-0.364	-0.395
-724.879	-97.035	0.139	-0.037
-723.864	-56.080	-0.124	-0.056
-722.850	-88.024	-0.113	-0.035
-721.835	362.425	0.105	-0.214
-720.821	-63.793	-0.123	0.051
-719.806	-65.356	0.147	0.060
-718.791	-200.000	-0.018	-0.294
-717.777	-193.459	0.322	-0.003
-716.762	-100.292	-0.203	-0.051
-715.748	7.076	0.085	-0.064
-714.733	20.613	0.102	0.084
-713.718	-20.213	-0.131	0.082
-712.704	-89.466	-0.253	-0.076
-711.689	-200.000	0.011	-0.166
-710.675	-200.000	-0.013	0.086
-709.660	127.867	0.222	0.288
-708.645	-200.000	0.009	-0.295
-707.631	302.432	0.081	0.153
-706.616	680.849	0.069	0.183
-705.602	-200.000	-0.021	-0.181
-704.587	-200.000	-0.029	0.320
-703.572	800.000	-0.050	-0.160
-702.558	2.787	-0.307	-0.227
-701.543	-89.224	0.070	0.021
-700.529	-136.375	-0.252	0.030
-699.514	-200.000	-0.000	0.002
-698.499	-77.989	-0.311	0.109
-697.485	407.266	-0.115	-0.248
-696.470	-91.442	-0.267	-0.078
-695.456	269.773	-0.071	0.127
-694.441	98.971	-0.140	-0.164
-693.426	-166.058	-0.428	0.019
-692.412	-200.000	0.013	-0.085
-691.397	-34.894	-0.369	0.205
-690.383	-180.737	0.145	0.003
-689.368	-200.000	0.011	-0.095
-688.354	-128.948	-0.113	0.016
-687.339	-58.462	-0.237	0.105
-686.324	-104.282	-0.280	-0.066
-685.310	83.278	0.195	0.216
-684.295	191.884	-0.331	-0.507
-683.281	-60.528	0.296	0.128
-682.266	800.000	-0.125	-0.360
-681.251	-200.000	-0.045	-0.209
-680.237	-200.000	-0.017	-0.196
-679.222	-200.000	-0.015	0.096
-678.208	-6.945	-0.591	-0.409
-677.193	733.725	0.061	0.167
-676.178	153.575	0.017	-0.023
-675.164	-146.209	0.446	0.040
-674.149	800.000	0.093	0.334
-673.135	-59.375	0.145	0.064
-672.120	-36.646	-0.110	0.060
-671.105	205.705	-0.169	-0.268
-670.091	-200.000	0.028	-0.296
-669.076	-13.754	-0.164	0.108
-668.062	-76.884	-0.228	-0.081
-667.047	-200.000	0.079	0.471
-666.032	160.908	0.103	-0.146
-665.018	-93.122	-0.374	-0.106
-664.003	42.684	-0.146	0.136
-662.989	-26.059	-0.216	-0.129
-661.974	-23.415	0.168	-0.103
-660.959	-141.637	0.160	-0.016
-659.945	203.053	-0.043	-0.068
-658.930	197.535	0.079	0.123
-657.916	800.000	-0.063	0.201
-656.901	26.279	0.255	-0.216
-655.886	-64.486	-0.053	-0.022
-654.872	800.000	0.135	0.552
-653.857	245.401	-0.108	-0.185
-652.843	800.000	-0.051	0.144
-651.828	-200.000	0.010	0.207
-650.814	34.490	-0.226	0.200
-649.799	3.891	0.113	-0.084
-648.784	-200.000	-0.026	-0.354
-647.770	-57.977	0.220	-0.098
-646.755	-14.949	-0.086	-0.056
-645.741	-47.039	0.363	0.180
-644.726	-200.000	-0.029	0.314
-643.711	25.059	-0.322	-0.272
-642.697	65.261	-0.067	-0.069
-641.682	46.917	-0.096	-0.091
-640.668	213.807	-0.204	0.328
-639.653	-200.000	-0.052	0.357
-638.638	-200.000	-0.031	-0.277
-637.624	-200.000	0.036	0.240
-636.609	187.488	-0.154	0.233
-635.595	61.082	-0.121	0.122
-634.580	-47.323	-0.404	-0.200
-633.565	602.694	-0.058	-0.146
-632.551	-12.241	0.157	0.104
-631.536	96.028	-0.247	-0.286
-630.522	-132.146	-0.155	0.020
-629.507	-21.522	0.172	-0.106
-628.492	-200.000	-0.026	-0.197
-627.478	14.018	0.214	0.169
-626.463	-55.391	0.199	-0.090
-625.449	-61.988	-0.203	0.086
-624.434	619.678	-0.161	-0.411
-623.419	102.249	0.174	0.206
-622.405	800.000	-0.059	-0.169
-621.390	264.032	-0.008	0.014
-620.376	305.871	0.067	0.126
-619.361	315.471	0.074	0.141
-618.346	195.340	0.104	-0.161
-617.332	-1.773	-0.169	-0.121
-616.317	-27.392	-0.116	0.068
-615.303	-84.303	0.076	-0.024
-614.288	76.922	0.290	-0.312
-613.273	-147.359	-0.175	0.015
-612.259	-200.000	-0.002	-0.292
-611.244	30.446	0.122	0.106
-610.230	800.000	0.051	0.166
-609.215	45.036	-0.144	0.134
-608.201	65.592	-0.061	-0.063
-607.186	-84.493	0.271	-0.087
-606.171	481.198	-0.030	0.069
-605.157	111.968	0.100	-0.123
-604.142	-200.000	0.012	-0.109
-603.128	38.587	0.168	0.152
-602.113	48.955	-0.086	-0.082
-601.098	-118.602	0.202	0.036
-600.084	58.173	0.272	0.270
-599.069	-59.172	-0.210	0.092
-598.055	312.236	-0.132	0.252
-597.040	216.708	0.096	-0.155
-596.025	134.127	-0.219	-0.288
-595.011	-109.583	0.191	0.041
-593.996	-77.116	0.171	-0.060
-592.982	-76.613	-0.275	-0.098
-591.967	647.134	0.240	-0.622
-590.952	141.656	-0.096	-0.129
-589.938	-200.000	-0.074	0.380
-588.923	-54.286	0.034	-0.016
-587.909	14.479	0.123	0.097
-586.894	-7.287	0.190	0.131
-585.879	-16.593	-0.125	0.080
-584.865	61.201	0.128	0.129
-583.850	91.460	-0.367	-0.418
-582.836	-51.436	0.247	0.117
-581.821	-83.262	-0.198	-0.065
-580.806	800.000	-0.053	-0.209
-579.792	800.000	-0.015	0.056
-578.777	-39.070	0.216	-0.115
-577.763	-23.728	0.213	0.129
-576.748	-200.000	0.017	-0.203
-575.733	279.797	0.012	-0.021
-574.719	25.490	0.159	-0.134
-573.704	0.529	-0.101	0.073
-572.690	-151.915	0.153	0.011
-571.675	-85.768	-0.296	-0.093
-570.661	-160.194	-0.202	-0.011
-569.646	309.544	0.154	-0.292
-568.631	-22.427	-0.487	-0.299
-567.617	33.994	-0.058	0.051
-566.602	-33.394	0.099	0.055
-565.588	-190.340	0.239	0.003
-564.573	182.488	0.199	0.297
-563.558	-200.000	0.048	0.332
-562.544	-200.000	0.025	-0.245
-561.529	-171.520	-0.216	0.007
-560.515	-140.961	0.252	0.026
-559.500	-200.000	0.031	0.386
-558.485	-171.838	-0.299	-0.010
-557.471	-200.000	0.052	0.402
-556.456	364.441	0.042	0.085
-555.442	-182.740	-0.412	0.008
-554.427	93.891	-0.069	0.079
-553.412	184.270	-0.167	0.251
-552.398	-200.000	0.003	0.135
-551.383	800.000	0.121	-0.472
-550.369	12.539	0.122	-0.095
-549.354	-200.000	-0.005	-0.042
-548.339	264.561	-0.052	0.092
-547.325	122.205	-0.108	0.136
-546.310	259.248	0.073	0.128
-545.296	-3.158	0.207	-0.146
-544.281	112.294	-0.221	0.271
-543.266	-116.015	0.261	0.049
-542.252	-200.000	-0.058	-0.466
-541.237	-142.405	0.407	0.041
-540.223	-70.198	0.079	0.030
-539.208	-108.306	0.126	0.027
-538.193	-61.207	-0.389	0.166
-537.179	249.771	0.097	-0.166
-536.164	321.459	0.184	-0.355
-535.150	50.529	-0.086	0.083
-534.135	-181.533	0.221	0.004
-533.121	58.977	0.151	0.151
-532.106	-113.643	0.403	-0.080
-531.091	292.846	0.065	-0.120
-530.077	4.410	0.258	-0.191
-529.062	142.729	-0.159	0.214
-528.048	-99.883	-0.174	-0.044
-527.033	800.000	0.096	-0.320
-526.018	180.263	0.080	-0.118
-525.004	579.885	-0.083	-0.206
-523.989	8.803	-0.102	-0.078
-522.975	-100.859	-0.232	-0.058
-521.960	-150.902	-0.025	-0.002
-520.945	800.000	0.088	-0.320
-519.931	-96.073	0.123	-0.033
-518.916	28.486	-0.090	0.077
-517.902	-37.134	-0.216	-0.117
-516.887	72.970	0.412	0.435
-515.872	-92.601	0.257	0.073
-514.858	449.365	0.048	0.107
-513.843	-66.351	-0.325	0.131
-512.829	-26.695	-0.266	0.158
-511.814	-200.000	0.019	-0.254
-510.799	800.000	0.048	0.163
-509.785	-79.947	-0.141	0.048
-508.770	-133.063	-0.305	-0.039
-507.756	-200.000	0.009	-0.097
-506.741	-11.926	0.425	-0.282
-505.726	-7.532	-0.049	-0.034
-504.712	301.557	-0.080	-0.149
-503.697	-40.557	-0.168	0.088
-502.683	-63.821	0.342	0.142
-501.668	153.730	0.106	-0.147
-500.653	-17.327	-0.164	-0.104
-499.639	-34.828	-0.166	0.092
-498.624	-50.004	0.176	-0.084
-497.610	198.211	-0.028	0.044
-496.595	-100.644	0.199	0.050
-495.581	119.191	-0.090	0.112
-494.566	-169.267	0.204	-0.008
-493.551	46.501	-0.182	0.171
-492.537	3.681	0.187	-0.138
-491.522	-159.510	0.048	0.003
-490.508	-111.465	0.306	-0.063
-489.493	674.454	0.069	-0.180
-488.478	-30.818	-0.265	-0.151
-487.464	283.924	0.101	0.183
-486.449	100.950	-0.096	-0.113
-485.435	800.000	0.054	-0.199
-484.420	-5.151	0.241	-0.167
-483.405	-102.754	-0.207	0.050
-482.391	-176.978	-0.065	-0.002
-481.376	78.848	0.070	0.076
-480.362	-89.022	-0.181	-0.054
-479.347	800.000	-0.073	-0.275
-478.332	-131.566	-0.049	0.007
-477.318	800.000	0.033	-0.092
-476.303	233.709	0.151	-0.251
-475.289	82.991	-0.114	0.125
-474.274	-200.000	0.017	-0.087
-473.259	83.254	0.158	-0.174
-472.245	-54.589	-0.117	-0.054
-471.230	800.000	0.016	0.047
-470.216	-200.000	-0.010	0.170
-469.201	-101.426	-0.238	-0.058
-468.186	-200.000	0.010	0.139
-467.172	-200.000	-0.025	-0.247
-466.157	1.828	-0.291	-0.211
-465.143	-126.591	-0.232	-0.035
-464.128	148.375	0.128	-0.174
-463.113	333.610	-0.107	-0.210
-462.099	-128.714	-0.246	-0.035
-461.084	800.000	0.012	-0.041
-460.070	-200.000	-0.042	-0.334
-459.055	-48.980	-0.241	0.116
-458.040	-200.000	-0.023	0.125
-457.026	-169.640	0.176	0.006
-456.011	138.511	-0.182	-0.241
-454.997	167.888	-0.081	-0.116
-453.982	4.891	0.177	0.131
-452.968	92.565	0.319	0.363
-451.953	455.976	-0.082	-0.183
-450.938	-137.764	-0.153	-0.017
-449.924	-200.000	-0.225	-0.001
-448.909	43.841	0.269	-0.248
-447.895	257.111	-0.134	0.232
-446.880	-11.404	0.137	0.091
-445.865	381.652	-0.153	-0.317
-444.851	-97.230	-0.247	-0.065
-443.836	-104.578	0.181	-0.042
-442.822	146.943	0.036	0.049
-441.807	142.681	-0.120	0.160
-440.792	-92.506	0.195	-0.055
-439.778	371.902	-0.048	0.099
-438.763	-149.454	0.265	-0.021
-437.749	-107.873	-0.343	0.075
-436.734	51.613	0.054	0.051
-435.719	-98.211	-0.200	-0.052
-434.705	47.803	0.087	-0.082
-433.690	800.000	-0.018	-0.067
-432.676	-200.000	0.051	-0.303
-431.661	237.198	0.150	0.250
-430.646	-200.000	-0.050	-0.254
-429.632	800.000	0.051	-0.217
-428.617	21.856	0.079	-0.065
-427.603	-125.001	0.247	-0.038
-426.588	-106.538	-0.343	0.077
-425.573	-22.411	-0.055	0.034
-424.559	-84.675	0.447	-0.142
-423.544	7.071	-0.258	0.194
-422.530	748.233	0.045	-0.121
-421.515	-148.872	-0.377	0.031
-420.500	43.937	-0.129	-0.119
-419.486	80.309	0.055	-0.060
-418.471	-200.000	0.012	-0.223
-417.457	-156.456	0.238	0.015
-416.442	-193.211	-0.440	0.004
-415.428	-147.541	-0.073	0.006
-414.413	-43.835	0.090	0.046
-413.398	-172.312	0.313	0.010
-412.384	41.650	-0.043	0.039
-411.369	-28.206	0.289	-0.168
-410.355	-200.000	0.024	0.333
-409.340	-200.000	-0.007	-0.307
-408.325	-200.000	-0.127	-0.582
-407.311	800.000	0.079	0.293
-406.296	48.178	0.070	-0.066
-405.282	-4.811	-0.061	-0.042
-404.267	-87.251	-0.053	-0.016
-403.252	800.000	-0.062	0.181
-402.238	-200.000	0.001	0.173
-401.223	-98.949	0.277	-0.071
-400.209	533.829	0.007	0.016
-399.194	-140.984	0.181	-0.019
-398.179	-22.756	0.225	-0.137
-397.165	-33.265	-0.171	0.095
-396.150	-82.841	-0.384	0.125
-395.136	186.100	0.093	0.139
-394.121	37.406	-0.172	-0.153
-393.106	475.477	0.018	0.041
-392.092	-83.476	-0.396	-0.127
-391.077	247.659	-0.094	-0.159
-390.063	-112.510	-0.164	0.033
-389.048	358.029	0.144	0.289
-388.033	7.657	0.109	-0.082
-387.019	-19.147	-0.310	-0.193
-386.004	-135.544	0.199	-0.024
-384.990	218.790	-0.291	0.467
-383.975	113.076	0.055	0.068
-382.960	266.967	0.162	-0.285
-381.946	-148.096	0.359	0.030
-380.931	-36.026	-0.070	0.038
-379.917	217.597	-0.168	-0.269
-378.902	214.826	0.134	-0.214
-377.888	569.410	-0.182	0.446
-376.873	-59.588	0.020	0.009
-375.858	245.190	0.014	0.023
-374.844	-174.925	-0.180	-0.005
-373.829	800.000	0.163	0.468
-372.815	800.000	0.021	-0.071
-371.800	800.000	0.073	0.264
-370.785	-56.777	0.351	0.156
-369.771	-193.756	-0.221	-0.002
-368.756	-3.502	0.119	-0.083
-367.742	-90.229	-0.096	0.028
-366.727	48.834	-0.075	-0.071
-365.712	99.076	-0.091	-0.105
-364.698	-117.944	0.124	0.022
-363.683	-93.189	-0.164	0.046
-362.669	-200.000	-0.023	0.291
-361.654	-200.000	0.021	0.177
-360.639	-200.000	-0.083	-0.464
-359.625	64.874	-0.144	0.146
-358.610	-88.554	-0.146	-0.044
-357.596	-103.054	-0.326	-0.078
-356.581	294.162	0.055	-0.101
-355.566	-152.623	0.274	0.020
-354.552	256.460	-0.073	0.125
-353.537	-28.135	-0.164	-0.095
-352.523	-200.000	0.003	0.077
-351.508	-1.024	0.123	-0.087
-350.493	-39.653	0.289	-0.152
-349.479	-44.880	0.462	0.231
-348.464	-107.488	0.299	0.066
-347.450	-9.586	0.188	-0.126
-346.435	77.141	0.203	0.216
-345.420	226.976	-0.155	0.253
-344.406	-17.059	-0.161	-0.102
-343.391	-107.300	-0.326	0.072
-342.377	-200.000	-0.008	0.087
-341.362	-200.000	-0.019	-0.147
-340.348	529.316	-0.102	0.242
-339.333	-89.181	-0.209	0.062
-338.318	-121.960	0.135	-0.022
-337.304	800.000	-0.038	-0.145
-336.289	412.023	-0.059	0.125
-335.275	800.000	0.145	0.428
-334.260	-200.000	0.007	-0.055
-333.245	35.530	-0.095	0.084
-332.231	800.000	-0.015	-0.056
-331.216	800.000	-0.021	0.066
-330.202	-181.778	-0.130	0.003
-329.187	154.178	0.117	0.161
-328.172	61.562	0.086	-0.086
-327.158	-68.206	-0.323	-0.126
-326.143	-87.014	-0.096	0.029
-325.129	800.000	0.121	0.490
-324.114	-98.010	-0.141	0.036
-323.099	12.937	-0.261	0.203
-322.085	-13.850	0.239	0.155
-321.070	-200.000	0.061	-0.473
-320.056	800.000	0.070	0.244
-319.041	74.064	-0.040	-0.042
-318.026	24.305	0.086	-0.071
-317.012	-4.720	-0.138	0.096
-315.997	-200.000	0.028	0.334
-314.983	-200.000	0.020	0.214
-313.968	42.329	0.328	0.299
-312.953	236.829	-0.107	0.177
-311.939	158.501	-0.209	0.291
-310.924	481.223	-0.059	-0.135
-309.910	800.000	-0.104	0.336
-308.895	-200.000	-0.005	-0.161
-307.880	317.478	0.132	-0.250
-306.866	160.889	-0.164	-0.229
-305.851	-70.693	-0.253	-0.096
-304.837	-62.575	0.120	-0.050
-303.822	-138.194	0.314	0.035
-302.807	350.540	0.055	0.109
-301.793	-21.233	-0.287	0.176
-300.778	151.284	0.154	0.210
-299.764	183.905	0.103	0.153
-298.749	-200.000	-0.029	-0.176
-297.735	61.284	0.254	-0.253
-296.720	-56.461	-0.047	-0.021
-295.705	-200.000	0.003	-0.014
-294.691	-200.000	-0.008	-0.072
-293.676	-26.207	-0.177	0.104
-292.662	441.103	0.044	0.097
-291.647	22.749	-0.022	0.018
-290.632	539.022	0.025	-0.059
-289.618	296.947	0.086	0.158
-288.603	-6.208	-0.113	0.077
-287.589	-51.577	-0.161	0.075
-286.574	304.964	-0.021	-0.039
-285.559	800.000	-0.089	-0.273
-284.545	318.652	-0.188	0.358
-283.530	-200.000	0.010	-0.227
-282.516	-200.000	-0.014	-0.274
-281.501	-134.304	0.164	-0.020
-280.486	800.000	0.064	-0.251
-279.472	-200.000	-0.010	0.062
-278.457	18.519	0.333	0.267
-277.443	35.713	-0.289	0.254
-276.428	190.297	-0.197	-0.296
-275.413	104.218	0.057	0.068
-274.399	38.842	0.288	-0.257
-273.384	-22.420	0.284	-0.172
-272.370	-200.000	0.021	-0.211
-271.355	800.000	-0.077	-0.295
-270.340	-2.716	0.177	0.124
-269.326	-26.985	-0.238	0.139
-268.311	-200.000	-0.019	0.182
-267.297	701.706	-0.019	0.050
-266.282	-178.667	0.157	0.004
-265.267	-200.000	-0.006	0.173
-264.253	114.616	0.033	0.040
-263.238	499.443	-0.026	-0.061
-262.224	-81.182	-0.215	0.071
-261.209	620.152	0.056	0.140
-260.195	800.000	-0.094	0.413
-259.180	-18.043	0.217	0.136
-258.165	218.035	-0.080	-0.128
-257.151	136.363	0.174	0.227
-256.136	-75.367	0.327	0.117
-255.122	77.529	-0.148	0.158
-254.107	367.904	0.060	-0.122
-253.092	800.000	0.041	-0.133
-252.078	32.831	0.417	0.361
-251.063	249.701	-0.075	-0.128
-250.049	273.102	-0.128	0.226
-249.034	233.974	0.083	0.136
-248.019	-188.352	-0.287	0.004
-247.005	50.148	0.035	-0.033
-245.990	-27.363	0.144	-0.084
-244.976	-158.101	0.108	0.006
-243.961	-59.856	-0.199	0.085
-242.946	458.236	0.099	0.220
-241.932	546.292	-0.191	-0.458
-240.917	800.000	0.040	-0.113
-239.903	194.866	0.135	-0.204
-238.888	434.437	-0.114	-0.249
-237.873	-200.000	-0.016	-0.295
-236.859	82.482	-0.226	0.245
-235.844	-163.415	0.260	0.012
-234.830	-200.000	-0.040	-0.246
-233.815	300.203	0.147	-0.272
-232.800	-117.637	-0.295	0.053
-231.786	-31.348	-0.077	0.043
-230.771	73.767	0.061	0.064
-229.757	-105.391	-0.076	-0.017
-228.742	-78.251	0.116	-0.040
-227.727	-30.294	-0.359	-0.204
-226.713	-200.000	0.033	-0.153
-225.698	-200.000	0.004	-0.060
-224.684	51.919	-0.043	0.041
-223.669	369.181	0.038	-0.078
-222.655	391.297	0.028	-0.057
-221.640	486.322	0.024	0.055
-220.625	-121.948	0.468	0.077
-219.611	205.865	0.144	0.224
-218.596	40.423	0.301	-0.271
-217.582	800.000	0.029	-0.106
-216.567	520.895	0.029	0.068
-215.552	-200.000	-0.021	0.158
-214.538	626.825	-0.053	-0.134
-213.523	710.899	-0.115	-0.303
-212.509	800.000	0.030	-0.119
-211.494	-55.106	-0.022	0.010
-210.479	-143.996	-0.093	0.009
-209.465	429.906	0.098	0.213
-208.450	-41.361	-0.243	-0.125
-207.436	800.000	0.015	0.042
-206.421	71.017	-0.065	-0.067
-205.406	-171.260	-0.240	0.008
-204.392	-200.000	0.053	-0.447
-203.377	100.562	0.139	0.162
-202.363	-118.577	-0.141	-0.025
-201.348	-170.578	0.076	-0.003
-200.333	-165.270	-0.159	-0.007
-199.319	-200.000	-0.005	0.261
-198.304	-5.112	0.208	0.143
-197.290	-27.682	-0.148	-0.085
-196.275	296.757	0.075	-0.137
-195.260	-141.873	0.339	-0.034
-194.246	800.000	-0.154	0.543
-193.231	-81.559	-0.024	0.008
-192.217	-72.904	-0.227	-0.083
-191.202	-200.000	-0.353	-0.000
-190.187	-134.866	0.211	-0.026
-189.173	-200.000	0.021	0.327
-188.158	-200.000	-0.002	-0.373
-187.144	-4.976	-0.153	-0.105
-186.129	578.322	-0.154	0.376
-185.114	-95.677	-0.469	0.125
-184.100	6.398	0.299	0.221
-183.085	-200.000	-0.004	0.260
-182.071	-45.366	-0.126	-0.063
-181.056	377.574	-0.021	-0.043
-180.042	-200.000	0.029	0.257
-179.027	-136.238	0.211	0.025
-178.012	-122.792	-0.374	-0.060
-176.998	-200.000	-0.013	0.119
-175.983	-26.521	-0.110	0.064
-174.969	46.470	-0.087	-0.081
-173.954	71.878	-0.111	0.115
-172.939	-47.631	0.195	0.094
-171.925	-200.000	0.019	-0.143
-170.910	-121.264	0.122	-0.020
-169.896	800.000	0.105	-0.293
-168.881	-122.534	-0.088	0.014
-167.866	800.000	0.090	0.262
-166.852	800.000	0.077	0.279
-165.837	-75.404	-0.310	0.110
-164.823	-131.502	0.271	-0.036
-163.808	25.896	0.259	0.215
-162.793	800.000	0.059	0.244
-161.779	-67.258	0.108	0.042
-160.764	36.852	0.110	-0.097
-159.750	-200.000	0.015	0.304
-158.735	-60.715	0.197	-0.083
-157.720	-182.684	0.138	0.003
-156.706	-71.193	0.256	0.096
-155.691	-92.035	-0.265	-0.075
-154.677	-200.000	-0.033	0.145
-153.662	74.969	0.047	0.049
-152.647	-85.586	0.035	0.011
-151.633	-200.000	-0.013	0.219
-150.618	-200.000	0.012	0.258
-149.604	-200.000	-0.040	-0.395
-148.589	800.000	-0.021	-0.079
-147.574	-115.071	0.362	-0.068
-146.560	-133.906	0.310	0.038
-145.545	650.392	0.059	0.150
-144.531	7.298	0.383	-0.285
-143.516	134.458	-0.173	-0.223
-142.502	-16.337	0.149	0.094
-141.487	16.609	-0.288	-0.227
-140.472	-142.019	-0.152	0.015
-139.458	352.871	0.063	0.124
-138.443	-130.102	0.394	0.054
-137.429	-143.919	-0.208	-0.019
-136.414	40.051	-0.208	0.186
-135.399	-98.242	-0.387	0.099
-134.385	-48.881	0.473	0.226
-133.370	-200.000	-0.013	0.280
-132.356	800.000	0.092	-0.294
-131.341	52.809	0.044	0.042
-130.326	-102.177	-0.047	0.011
-129.312	238.240	-0.218	0.360
-128.297	-1.402	-0.151	0.106
-127.283	39.623	0.046	-0.041
-126.268	43.278	0.134	-0.122
-125.253	-69.357	-0.472	-0.180
-124.239	668.478	0.104	0.268
-123.224	141.159	0.071	0.094
-122.210	231.909	-0.064	-0.105
-121.195	7.450	0.073	-0.054
