DTS Sentinel unit serial number:	SN413079Multiplexer serial number:	ORYXHardware model number:	OX4-SRSoftware version number:	ORYX F/W v4.00 Oryx Data Collector v3.7.2.0data status	okinstallation	princeton_trtdifferential loss correction	single-endedforward channel	channel 1reverse channel	N/Adate	2019/09/16time	16:10:36forward acquisition time	60.00reverse acquisition time	0.00gamma	496.2192k internal	0.2293k external	0.2293temperature offset calibration	0.9959default loss term (dB/km)	0.3790temperature slope calibration	1.0000multiplexer offset coefficient	1.0000multiplexer slope coefficient	1.0000fibre end	0.00T internal ref (°C)	40.75T ext. ref 1 (°C)	14.95T ext. ref 2 (°C)	34.94length (m)	temperature (°C)	Stokes	anti-Stokes-747.200	643.187	-0.085	0.221
-746.185	77.478	-0.176	0.192
-745.171	80.504	-0.217	-0.240
-744.156	0.636	0.219	-0.160
-743.142	-31.337	0.299	0.172
-742.127	-133.435	0.250	-0.032
-741.112	-18.798	0.273	-0.174
-740.098	492.804	0.059	0.139
-739.083	235.236	-0.071	-0.121
-738.069	-172.113	0.277	-0.009
-737.054	357.702	-0.062	0.126
-736.039	-66.343	-0.324	0.132
-735.025	-190.779	0.234	-0.003
-734.010	-7.276	-0.238	0.165
-732.996	-170.012	-0.423	0.015
-731.981	-161.971	-0.435	0.022
-730.966	-53.789	0.219	-0.102
-729.952	91.718	-0.153	0.176
-728.937	78.419	0.362	-0.395
-727.923	800.000	-0.059	-0.195
-726.908	800.000	0.080	0.262
-725.894	-200.000	0.069	0.426
-724.879	800.000	-0.017	0.074
-723.864	-171.035	-0.195	-0.007
-722.850	800.000	0.021	0.078
-721.835	-65.187	-0.176	0.073
-720.821	-62.929	0.023	-0.010
-719.806	-90.894	-0.340	-0.100
-718.791	800.000	-0.040	-0.124
-717.777	-200.000	0.027	-0.274
-716.762	116.199	-0.076	-0.095
-715.748	-155.616	0.225	-0.015
-714.733	-59.832	-0.102	-0.045
-713.718	-200.000	-0.006	-0.191
-712.704	130.448	-0.277	-0.362
-711.689	-91.124	-0.282	-0.083
-710.675	-143.044	-0.165	0.016
-709.660	800.000	-0.070	-0.249
-708.645	5.914	-0.328	0.248
-707.631	381.675	-0.125	0.263
-706.616	7.793	-0.034	-0.026
-705.602	800.000	0.063	-0.184
-704.587	800.000	-0.143	0.488
-703.572	0.962	-0.182	0.133
-702.558	-67.971	-0.297	-0.118
-701.543	-43.457	0.114	-0.059
-700.529	45.958	0.216	-0.204
-699.514	59.586	0.143	-0.144
-698.499	-69.831	0.267	-0.104
-697.485	-1.199	0.130	0.094
-696.470	41.026	0.102	-0.094
-695.456	432.308	-0.091	0.201
-694.441	-98.059	0.194	0.051
-693.426	800.000	0.086	-0.383
-692.412	-151.581	0.367	0.028
-691.397	-82.677	0.067	-0.022
-690.383	768.930	-0.135	0.374
-689.368	-17.528	-0.039	-0.025
-688.354	-200.000	-0.041	0.311
-687.339	800.000	0.104	0.329
-686.324	-122.377	0.125	-0.021
-685.310	-200.000	0.024	0.107
-684.295	593.490	-0.086	0.216
-683.281	-62.704	0.335	-0.142
-682.266	4.814	-0.202	-0.151
-681.251	-82.356	0.382	-0.127
-680.237	-85.114	0.290	0.093
-679.222	-105.073	-0.221	0.052
-678.208	-181.274	-0.382	0.008
-677.193	-170.435	-0.268	0.010
-676.178	191.468	0.173	-0.266
-675.164	162.563	0.099	-0.142
-674.149	656.935	0.063	-0.165
-673.135	-106.327	-0.059	-0.013
-672.120	-66.190	-0.080	-0.033
-671.105	-200.000	-0.024	-0.284
-670.091	212.316	-0.128	-0.206
-669.076	58.771	-0.171	-0.171
-668.062	-200.000	-0.016	0.319
-667.047	-200.000	-0.022	-0.239
-666.032	340.396	-0.097	0.193
-665.018	-2.255	-0.282	-0.202
-664.003	173.488	-0.117	-0.173
-662.989	53.583	-0.156	0.152
-661.974	-200.000	-0.020	0.122
-660.959	92.856	0.088	-0.102
-659.945	89.265	-0.078	-0.089
-658.930	38.027	-0.122	-0.110
-657.916	-200.000	0.028	0.126
-656.901	-34.179	-0.278	0.156
-655.886	-200.000	-0.009	0.255
-654.872	392.597	-0.119	-0.252
-653.857	-120.868	0.251	0.043
-652.843	612.632	-0.126	0.322
-651.828	246.919	-0.101	0.175
-650.814	-112.902	-0.266	0.054
-649.799	800.000	0.039	0.135
-648.784	-32.707	0.169	0.096
-647.770	51.261	0.039	-0.038
-646.755	-120.928	0.436	0.075
-645.741	-82.914	-0.121	0.040
-644.726	239.416	-0.079	0.133
-643.711	-39.503	-0.247	0.132
-642.697	156.894	-0.058	0.081
-641.682	-23.475	-0.080	-0.049
-640.668	53.416	-0.163	-0.159
-639.653	-142.706	0.191	-0.019
-638.638	-28.052	-0.258	0.152
-637.624	143.236	0.267	-0.362
-636.609	-200.000	0.013	-0.077
-635.595	-200.000	-0.002	0.185
-634.580	-200.000	-0.007	0.304
-633.565	-30.251	0.138	-0.080
-632.551	46.977	-0.243	-0.231
-631.536	800.000	-0.081	0.341
-630.522	-113.120	0.266	-0.054
-629.507	-66.781	0.182	0.073
-628.492	-79.275	-0.104	-0.036
-627.478	32.405	-0.114	0.101
-626.463	-162.846	-0.130	-0.006
-625.449	-185.401	-0.218	0.003
-624.434	-200.000	0.037	-0.215
-623.419	-200.000	0.029	-0.455
-622.405	329.138	-0.076	-0.149
-621.390	-200.000	0.017	-0.220
-620.376	174.830	0.074	-0.110
-619.361	-18.293	-0.292	-0.186
-618.346	85.909	0.114	-0.127
-617.332	-200.000	0.007	-0.146
-616.317	-45.076	0.336	0.170
-615.303	-68.124	-0.194	-0.077
-614.288	110.120	-0.119	-0.145
-613.273	-143.277	-0.299	0.029
-612.259	-2.816	-0.119	0.085
-611.244	629.601	0.045	-0.116
-610.230	-79.234	0.139	-0.048
-609.215	-16.474	-0.135	-0.087
-608.201	159.230	0.153	0.217
-607.186	-30.291	-0.079	0.046
-606.171	77.563	-0.145	0.158
-605.157	221.386	-0.226	-0.370
-604.142	89.681	0.203	-0.231
-603.128	800.000	0.068	0.210
-602.113	84.072	-0.085	0.094
-601.098	188.272	0.113	-0.172
-600.084	-16.046	-0.093	-0.060
-599.069	-15.257	-0.026	-0.017
-598.055	-116.273	-0.157	0.030
-597.040	8.776	0.227	0.174
-596.025	43.188	-0.130	0.120
-595.011	-96.769	0.142	0.038
-593.996	1.447	0.263	-0.192
-592.982	147.387	-0.128	-0.175
-591.967	-200.000	0.045	0.372
-590.952	143.475	0.145	0.196
-589.938	-200.000	-0.041	0.239
-588.923	-127.840	0.217	0.032
-587.909	684.786	-0.139	-0.368
-586.894	104.293	0.236	0.283
-585.879	-164.157	-0.533	0.025
-584.865	-84.604	0.249	0.080
-583.850	104.236	-0.038	0.045
-582.836	-111.063	0.227	-0.047
-581.821	-95.110	0.192	0.053
-580.806	800.000	0.044	-0.136
-579.792	51.340	-0.220	0.212
-578.777	-70.998	0.143	-0.055
-577.763	51.675	-0.180	-0.174
-576.748	-136.894	-0.292	0.034
-575.733	-200.000	0.040	0.249
-574.719	-86.128	0.395	0.124
-573.704	-117.714	0.168	0.031
-572.690	-96.057	0.248	-0.067
-571.675	-138.662	-0.296	-0.033
-570.661	437.226	0.053	0.117
-569.646	-200.000	0.010	-0.166
-568.631	-200.000	-0.032	-0.302
-567.617	-200.000	0.100	-0.543
-566.602	106.908	-0.019	-0.023
-565.588	-134.214	-0.193	0.024
-564.573	155.494	-0.069	0.097
-563.558	123.366	-0.164	-0.209
-562.544	-70.244	0.269	0.104
-561.529	-58.591	-0.135	0.059
-560.515	14.239	-0.128	-0.101
-559.500	-115.340	-0.410	-0.079
-558.485	-62.259	-0.250	-0.106
-557.471	-190.552	-0.114	0.001
-556.456	-111.093	0.068	-0.014
-555.442	-200.000	0.001	-0.088
-554.427	519.773	-0.097	0.231
-553.412	289.951	-0.087	-0.161
-552.398	111.486	-0.230	0.282
-551.383	-32.541	0.189	-0.107
-550.369	563.653	0.064	-0.157
-549.354	-200.000	-0.006	0.317
-548.339	-65.139	0.206	0.084
-547.325	53.570	-0.191	-0.186
-546.310	80.285	-0.132	-0.145
-545.296	-200.000	0.006	-0.337
-544.281	-177.420	-0.227	-0.006
-543.266	400.655	-0.087	-0.186
-542.252	29.202	0.364	-0.314
-541.237	242.757	0.058	0.099
-540.223	-38.210	-0.393	-0.211
-539.208	-145.721	0.068	0.006
-538.193	52.745	-0.117	0.114
-537.179	50.410	0.279	-0.268
-536.164	60.434	0.137	-0.138
-535.150	84.373	0.215	0.238
-534.135	43.952	-0.073	-0.068
-533.121	-166.841	-0.411	-0.017
-532.106	-105.483	-0.229	-0.053
-531.091	118.098	0.072	0.090
-530.077	-71.962	0.138	0.052
-529.062	800.000	-0.013	0.056
-528.048	-200.000	-0.015	0.116
-527.033	-200.000	0.007	0.130
-526.018	-100.770	-0.312	0.078
-525.004	-114.658	0.241	0.047
-523.989	-164.188	0.076	0.004
-522.975	-200.000	0.012	-0.157
-521.960	-172.701	0.150	-0.005
-520.945	49.586	0.145	-0.139
-519.931	-200.000	0.060	0.396
-518.916	-52.921	-0.238	0.111
-517.902	-49.466	-0.537	0.260
-516.887	-200.000	0.003	0.035
-515.872	-146.552	0.554	0.049
-514.858	-179.661	-0.084	0.002
-513.843	-65.164	-0.180	0.073
-512.829	-74.320	0.245	-0.090
-511.814	78.742	-0.252	0.273
-510.799	181.826	0.241	-0.359
-509.785	-120.845	0.250	0.043
-508.770	672.238	0.135	-0.356
-507.756	-127.663	0.040	-0.006
-506.741	-81.158	0.207	-0.069
-505.726	800.000	0.026	-0.085
-504.712	-46.783	0.176	-0.087
-503.697	-37.665	0.219	0.118
-502.683	525.740	0.095	0.227
-501.668	147.109	-0.154	-0.210
-500.653	15.642	0.085	0.067
-499.639	-189.540	-0.115	-0.001
-498.624	-61.671	-0.355	0.151
-497.610	-101.344	-0.241	-0.060
-496.595	-200.000	0.043	0.215
-495.581	19.391	-0.233	0.190
-494.566	-22.275	-0.210	0.129
-493.551	-151.167	-0.338	0.026
-492.537	-164.530	-0.353	0.016
-491.522	800.000	-0.077	-0.264
-490.508	-200.000	0.012	-0.333
-489.493	-104.116	-0.296	0.070
-488.478	-129.322	0.168	-0.024
-487.464	-50.003	-0.186	-0.089
-486.449	441.624	-0.058	-0.128
-485.435	201.974	-0.094	0.147
-484.420	559.969	-0.063	0.154
-483.405	212.122	0.152	-0.243
-482.391	-129.579	0.555	-0.078
-481.376	163.669	0.052	-0.074
-480.362	-133.970	0.144	-0.018
-479.347	-54.303	-0.162	-0.075
-478.332	800.000	0.040	0.120
-477.318	-155.981	-0.180	0.012
-476.303	90.394	0.372	-0.422
-475.289	-84.085	-0.213	0.068
-474.274	-98.974	0.252	-0.065
-473.259	173.787	-0.034	0.049
-472.245	800.000	0.021	0.082
-471.230	-87.010	0.280	-0.086
-470.216	33.877	0.067	0.059
-469.201	94.889	0.145	0.167
-468.186	-20.485	0.102	0.064
-467.172	-45.852	-0.070	-0.035
-466.157	159.726	0.062	-0.088
-465.143	283.642	0.057	0.104
-464.128	-48.213	0.092	-0.045
-463.113	-4.303	0.078	-0.055
-462.099	-200.000	0.058	0.432
-461.084	-200.000	0.022	0.131
-460.070	-64.748	-0.354	0.145
-459.055	-200.000	-0.025	-0.125
-458.040	-167.782	0.087	0.003
-457.026	-200.000	0.017	0.509
-456.011	86.151	-0.121	0.134
-454.997	27.220	-0.254	0.216
-453.982	-139.798	-0.216	0.023
-452.968	-76.673	0.220	0.078
-451.953	-45.404	0.108	0.054
-450.938	-200.000	-0.065	-0.303
-449.924	800.000	-0.064	-0.276
-448.909	118.267	0.103	-0.128
-447.895	-200.000	0.033	-0.429
-446.880	-152.353	0.286	-0.021
-445.865	221.975	0.106	0.173
-444.851	800.000	0.069	-0.274
-443.836	244.881	-0.208	-0.354
-442.822	13.491	0.132	0.104
-441.807	-94.726	-0.401	-0.110
-440.792	-148.828	0.363	-0.030
-439.778	-200.000	0.008	0.078
-438.763	725.745	0.020	0.053
-437.749	-101.813	0.096	0.024
-436.734	-200.000	0.025	-0.128
-435.719	-59.623	0.420	-0.182
-434.705	-200.000	0.018	0.197
-433.690	99.016	-0.077	-0.090
-432.676	117.539	0.100	0.124
-431.661	24.256	-0.289	0.242
-430.646	-65.017	0.451	0.184
-429.632	800.000	-0.031	0.115
-428.617	-124.579	-0.308	-0.048
-427.603	800.000	-0.034	0.133
-426.588	-200.000	-0.002	-0.102
-425.573	-114.380	0.055	0.011
-424.559	119.407	0.243	0.304
-423.544	-21.341	0.074	0.046
-422.530	-43.465	-0.156	-0.079
-421.515	51.347	-0.004	-0.004
-420.500	-121.445	0.325	-0.055
-419.486	-22.285	0.121	-0.074
-418.471	120.826	0.124	-0.155
-417.457	585.816	0.134	0.332
-416.442	800.000	0.039	-0.114
-415.428	-6.458	-0.257	0.177
-414.413	541.435	0.041	0.099
-413.398	-78.618	0.183	-0.063
-412.384	-3.705	0.064	-0.045
-411.369	-160.886	-0.445	0.024
-410.355	-200.000	0.012	0.202
-409.340	155.338	-0.212	0.295
-408.325	-115.205	-0.338	0.065
-407.311	-118.847	-0.154	-0.027
-406.296	-155.493	-0.248	-0.016
-405.282	111.762	0.146	-0.178
-404.267	-35.654	-0.135	0.074
-403.252	-54.514	-0.159	-0.073
-402.238	-77.080	0.054	-0.019
-401.223	-125.547	0.360	-0.055
-400.209	-186.356	-0.264	0.004
-399.194	626.620	0.017	0.043
-398.179	-44.811	0.290	-0.146
-397.165	-130.924	-0.173	0.023
-396.150	-29.674	0.424	0.244
-395.136	-200.000	-0.008	0.107
-394.121	800.000	0.012	0.040
-393.106	58.734	0.106	0.105
-392.092	34.396	-0.145	0.128
-391.077	-124.038	0.305	0.048
-390.063	209.025	-0.053	-0.084
-389.048	-200.000	-0.028	-0.274
-388.033	-93.099	-0.301	-0.085
-387.019	800.000	0.040	-0.169
-386.004	5.424	0.227	-0.169
-384.990	410.583	-0.083	-0.178
-383.975	35.892	0.215	-0.191
-382.960	-200.000	-0.041	-0.425
-381.946	26.474	0.414	-0.349
-380.931	96.761	0.375	0.434
-379.917	88.740	0.192	0.215
-378.902	19.328	0.128	-0.104
-377.888	-110.339	-0.110	-0.023
-376.873	-200.000	-0.029	-0.188
-375.858	-134.796	-0.046	-0.006
-374.844	-200.000	0.030	0.152
-373.829	10.266	0.226	0.174
-372.815	332.778	-0.068	-0.133
-371.800	-46.846	-0.232	-0.114
-370.785	-145.256	-0.196	0.018
-369.771	-153.378	-0.065	0.005
-368.756	778.043	0.146	0.404
-367.742	-176.677	0.235	0.006
-366.727	-68.838	0.445	-0.173
-365.712	347.817	-0.168	0.335
-364.698	-89.163	-0.265	0.079
-363.683	27.597	0.326	0.277
-362.669	800.000	0.102	0.326
-361.654	-56.776	0.160	-0.071
-360.639	380.324	-0.041	-0.084
-359.625	165.450	0.161	0.230
-358.610	-111.123	-0.369	0.076
-357.596	107.438	-0.053	-0.063
-356.581	138.311	0.144	0.191
-355.566	179.335	-0.029	-0.043
-354.552	-172.345	-0.510	0.016
-353.537	62.945	0.058	-0.059
-352.523	-94.782	-0.090	-0.025
-351.508	45.675	0.105	0.098
-350.493	-27.888	-0.240	0.140
-349.479	-78.126	0.145	0.050
-348.464	-101.717	-0.034	-0.008
-347.450	-200.000	0.049	0.232
-346.435	541.291	-0.100	-0.240
-345.420	800.000	-0.021	-0.080
-344.406	-200.000	0.012	0.158
-343.391	369.078	-0.113	0.230
-342.377	-110.015	-0.247	0.052
-341.362	-39.548	-0.120	0.063
-340.348	-140.663	-0.301	0.031
-339.333	627.217	-0.238	-0.606
-338.318	800.000	-0.042	-0.167
-337.304	77.970	0.017	-0.018
-336.289	-78.660	0.317	0.109
-335.275	-200.000	-0.000	-0.140
-334.260	-148.433	0.104	-0.009
-333.245	233.641	0.042	-0.070
-332.231	800.000	-0.060	0.234
-331.216	-174.923	-0.299	0.008
-330.202	-179.896	0.285	0.006
-329.187	341.443	0.152	-0.300
-328.172	-71.891	0.150	-0.056
-327.158	800.000	-0.044	-0.135
-326.143	-6.838	-0.348	0.238
-325.129	368.728	-0.173	0.353
-324.114	732.864	0.102	0.275
-323.099	-60.903	0.361	-0.154
-322.085	338.912	0.091	-0.179
-321.070	172.409	-0.069	0.100
-320.056	345.049	0.059	0.116
-319.041	88.858	0.091	0.102
-318.026	-108.642	-0.382	0.082
-317.012	289.578	-0.050	-0.091
-315.997	-200.000	-0.013	0.113
-314.983	-47.131	-0.198	0.097
-313.968	-49.475	0.322	0.154
-312.953	143.686	-0.129	0.173
-311.939	26.509	-0.215	-0.181
-310.924	-200.000	-0.056	0.395
-309.910	-58.984	0.341	0.148
-308.895	-144.918	-0.289	-0.027
-307.880	42.992	0.399	-0.366
-306.866	-200.000	0.011	0.075
-305.851	129.096	0.265	-0.340
-304.837	800.000	-0.045	0.157
-303.822	49.064	-0.065	-0.061
-302.807	-200.000	0.067	-0.307
-301.793	638.036	0.075	0.191
-300.778	-59.273	0.285	-0.124
-299.764	-200.000	0.018	0.102
-298.749	-24.879	0.087	0.052
-297.735	-200.000	0.001	-0.321
-296.720	243.807	0.092	-0.155
-295.705	273.340	-0.238	0.423
-294.691	715.820	-0.042	0.112
-293.676	-93.907	0.260	0.072
-292.662	-113.713	0.345	0.068
-291.647	-130.721	-0.275	0.037
-290.632	112.777	-0.088	0.107
-289.618	259.876	0.100	0.174
-288.603	-98.188	-0.481	-0.124
-287.589	-62.671	0.218	-0.091
-286.574	388.583	-0.146	-0.304
-285.559	576.417	0.060	-0.148
-284.545	22.856	-0.037	0.031
-283.530	-200.000	-0.002	-0.199
-282.516	-17.424	0.125	-0.079
-281.501	800.000	-0.079	0.321
-280.486	-200.000	0.037	0.198
-279.472	100.549	0.265	0.309
-278.457	202.062	-0.065	0.101
-277.443	212.288	0.086	-0.137
-276.428	-53.483	-0.248	-0.114
-275.413	-138.373	-0.295	0.033
-274.399	24.920	0.161	0.134
-273.384	107.349	-0.207	0.248
-272.370	-53.461	-0.259	0.119
-271.355	800.000	0.030	-0.121
-270.340	-200.000	-0.029	0.169
-269.326	24.693	0.321	-0.267
-268.311	139.877	0.089	-0.117
-267.297	-86.636	-0.212	-0.065
-266.282	-20.180	0.199	0.123
-265.267	-159.352	-0.136	-0.008
-264.253	169.390	0.132	-0.190
-263.238	-13.109	0.133	0.087
-262.224	-200.000	-0.049	-0.279
-261.209	800.000	-0.034	0.126
-260.195	259.256	0.112	0.194
-259.180	800.000	0.073	0.238
-258.165	-200.000	-0.003	0.103
-257.151	800.000	-0.109	-0.323
-256.136	16.649	0.241	0.191
-255.122	800.000	-0.044	0.180
-254.107	87.729	0.170	0.189
-253.092	-96.638	0.141	-0.037
-252.078	746.283	-0.112	0.302
-251.063	800.000	-0.070	0.243
-250.049	251.686	-0.141	-0.241
-249.034	-84.964	-0.143	0.045
-248.019	-150.043	0.124	-0.010
-247.005	-103.286	-0.353	0.084
-245.990	224.762	0.066	-0.107
-244.976	-80.741	-0.168	0.056
-243.961	463.819	0.125	-0.281
-242.946	-57.792	0.177	-0.078
-241.932	186.844	0.010	-0.015
-240.917	800.000	-0.042	-0.127
-239.903	-200.000	-0.008	-0.091
-238.888	-56.525	0.136	-0.061
-237.873	18.692	-0.073	0.059
-236.859	190.487	-0.134	-0.202
-235.844	-200.000	-0.014	-0.158
-234.830	-129.694	0.099	0.014
-233.815	7.963	-0.139	0.104
-232.800	-53.165	-0.261	-0.120
-231.786	-200.000	0.024	-0.236
-230.771	-200.000	-0.055	-0.258
-229.757	800.000	0.054	-0.232
-228.742	76.525	-0.167	-0.177
-227.727	-200.000	0.031	-0.505
-226.713	7.548	-0.184	-0.138
-225.698	-124.216	0.291	-0.046
-224.684	28.119	0.122	-0.103
-223.669	-200.000	-0.002	-0.054
-222.655	-107.570	-0.430	-0.094
-221.640	251.538	-0.260	0.443
-220.625	-1.930	0.039	-0.027
-219.611	2.172	-0.086	0.063
-218.596	-162.347	-0.168	0.008
-217.582	48.380	0.011	-0.010
-216.567	87.812	-0.063	-0.070
-215.552	-92.974	-0.192	-0.054
-214.538	800.000	-0.097	-0.333
-213.523	-39.190	-0.080	-0.042
-212.509	69.660	-0.144	0.149
-211.494	-1.906	-0.182	-0.128
-210.479	-109.245	0.243	0.052
-209.465	110.718	0.020	0.024
-208.450	-53.082	-0.060	0.028
-207.436	-200.000	0.075	-0.507
-206.421	30.614	-0.246	-0.211
-205.406	-165.814	-0.327	-0.014
-204.392	513.949	0.059	0.138
-203.377	148.096	-0.149	0.201
-202.363	-16.754	0.084	0.053
-201.348	-122.159	-0.088	0.014
-200.333	-27.730	-0.219	0.127
-199.319	18.522	-0.325	0.260
-198.304	576.776	-0.098	0.239
-197.290	-200.000	0.004	-0.049
-196.275	-200.000	-0.014	0.213
-195.260	-85.143	0.122	-0.038
-194.246	-164.069	0.296	-0.014
-193.231	12.905	0.050	0.039
-192.217	-200.000	0.014	0.172
-191.202	21.853	-0.163	-0.133
-190.187	-69.415	-0.246	-0.094
-189.173	-39.637	-0.196	0.103
-188.158	800.000	0.040	0.137
-187.144	-42.709	0.057	0.029
-186.129	-16.268	0.202	0.129
-185.114	800.000	0.053	0.202
-184.100	192.440	-0.236	0.356
-183.085	17.329	0.260	0.207
-182.071	282.325	0.061	-0.110
-181.056	133.069	0.133	-0.171
-180.042	-167.771	-0.141	0.006
-179.027	90.318	-0.073	-0.082
-178.012	40.370	0.157	-0.141
-176.998	30.822	-0.133	0.114
-175.983	-0.058	0.038	0.027
-174.969	-200.000	0.021	-0.212
-173.954	69.661	0.167	0.172
-172.939	690.003	-0.012	0.031
-171.925	588.640	-0.037	0.091
-170.910	361.185	0.213	0.428
-169.896	-15.935	0.249	-0.159
-168.881	800.000	0.026	-0.075
-167.866	800.000	0.142	-0.419
-166.852	69.963	0.519	-0.536
-165.837	-67.746	0.346	-0.136
-164.823	769.025	-0.102	0.278
-163.808	0.601	0.466	0.334
-162.793	-157.412	-0.416	0.025
-161.779	-78.900	0.370	0.126
-160.764	800.000	0.081	0.310
-159.750	-200.000	0.018	-0.169
-158.735	-200.000	-0.085	-0.405
-157.720	-200.000	-0.020	-0.162
-156.706	161.240	-0.246	-0.343
-155.691	80.347	0.136	0.146
-154.677	-40.619	0.156	0.081
-153.662	-200.000	-0.030	0.139
-152.647	800.000	-0.042	0.120
-151.633	-108.964	0.122	0.026
-150.618	442.061	-0.153	0.336
-149.604	70.997	0.013	0.013
-148.589	469.376	-0.154	-0.346
-147.574	258.457	0.027	0.046
-146.560	800.000	0.050	-0.194
-145.545	-200.000	-0.038	-0.247
-144.531	28.254	0.301	-0.254
-143.516	676.352	0.070	0.183
-142.502	331.053	-0.107	0.206
-141.487	240.670	0.115	0.191
-140.472	800.000	0.065	-0.217
-139.458	-200.000	-0.098	-0.447
-138.443	-91.259	-0.311	-0.089
-137.429	162.816	-0.284	0.399
-136.414	379.737	-0.138	0.282
-135.399	597.396	0.174	0.431
-134.385	-60.387	0.150	-0.064
-133.370	70.287	-0.216	-0.223
-132.356	-92.405	-0.230	0.065
-131.341	-200.000	0.045	0.209
-130.326	82.894	-0.065	-0.071
-129.312	-200.000	-0.003	-0.066
-128.297	-92.648	0.194	-0.054
-127.283	98.935	-0.319	-0.368
-126.268	-32.272	0.123	-0.068
-125.253	-200.000	0.021	0.185
-124.239	800.000	0.020	0.076
-123.224	24.970	0.047	-0.039
-122.210	-200.000	0.012	-0.239
-121.195	-49.935	-0.277	0.131
