DTS Sentinel unit serial number:	SN413079Multiplexer serial number:	ORYXHardware model number:	OX4-SRSoftware version number:	ORYX F/W v4.00 Oryx Data Collector v3.7.2.0data status	okinstallation	princeton_trtdifferential loss correction	single-endedforward channel	channel 1reverse channel	N/Adate	2019/09/15time	04:06:35forward acquisition time	60.00reverse acquisition time	0.00gamma	496.2192k internal	0.2323k external	0.2323temperature offset calibration	0.9990default loss term (dB/km)	0.3790temperature slope calibration	1.0000multiplexer offset coefficient	1.0000multiplexer slope coefficient	1.0000fibre end	0.00T internal ref (°C)	30.94T ext. ref 1 (°C)	4.62T ext. ref 2 (°C)	25.83length (m)	temperature (°C)	Stokes	anti-Stokes-747.200	-37.306	-0.082	-0.044
-746.185	-54.213	-0.051	-0.024
-745.171	100.611	0.045	0.052
-744.156	66.733	-0.193	-0.198
-743.142	800.000	0.061	0.199
-742.127	226.674	-0.123	0.202
-741.112	-2.042	-0.080	-0.057
-740.098	-143.961	0.137	0.013
-739.083	91.893	0.066	-0.075
-738.069	-200.000	-0.007	0.214
-737.054	-200.000	0.004	-0.346
-736.039	118.591	0.114	-0.142
-735.025	70.995	0.077	0.081
-734.010	-200.000	-0.022	-0.230
-732.996	-98.042	0.099	0.026
-731.981	-200.000	-0.026	-0.221
-730.966	-200.000	-0.014	-0.214
-729.952	206.231	-0.041	-0.064
-728.937	71.042	0.079	-0.083
-727.923	260.739	-0.158	-0.276
-726.908	739.605	-0.106	-0.288
-725.894	800.000	-0.034	-0.103
-724.879	-187.373	0.413	-0.006
-723.864	-200.000	-0.083	-0.391
-722.850	342.323	-0.055	-0.109
-721.835	-200.000	0.008	0.215
-720.821	800.000	0.139	-0.484
-719.806	-200.000	-0.027	-0.140
-718.791	-178.956	-0.122	-0.003
-717.777	430.548	-0.038	-0.083
-716.762	9.855	-0.233	-0.178
-715.748	-63.666	0.242	-0.100
-714.733	-200.000	-0.072	-0.322
-713.718	54.184	0.112	-0.109
-712.704	-200.000	-0.044	-0.248
-711.689	800.000	0.137	0.430
-710.675	112.131	0.103	0.126
-709.660	-133.422	-0.142	0.018
-708.645	551.516	-0.098	0.238
-707.631	161.549	0.191	-0.270
-706.616	-88.206	-0.572	-0.173
-705.602	-200.000	-0.025	0.317
-704.587	395.681	0.090	0.189
-703.572	800.000	0.022	0.062
-702.558	188.378	0.137	0.206
-701.543	513.202	-0.108	-0.253
-700.529	-200.000	-0.009	-0.122
-699.514	49.803	-0.078	-0.074
-698.499	-159.096	-0.252	-0.014
-697.485	-200.000	0.015	0.339
-696.470	49.019	0.100	0.095
-695.456	-120.224	0.253	0.044
-694.441	54.662	0.193	-0.188
-693.426	800.000	-0.068	0.236
-692.412	77.336	0.058	0.062
-691.397	12.798	0.237	-0.185
-690.383	-100.161	-0.272	0.068
-689.368	-148.530	-0.194	-0.016
-688.354	218.615	-0.080	0.128
-687.339	-99.076	-0.149	-0.038
-686.324	-92.903	0.231	-0.065
-685.310	-86.165	-0.085	-0.026
-684.295	146.590	0.162	0.219
-683.281	-6.432	0.197	-0.135
-682.266	-41.734	-0.303	-0.157
-681.251	654.500	-0.096	-0.247
-680.237	-120.794	-0.285	0.048
-679.222	561.548	-0.049	-0.119
-678.208	24.420	0.269	0.224
-677.193	-19.640	-0.234	0.146
-676.178	-8.202	-0.152	0.103
-675.164	-200.000	-0.015	-0.090
-674.149	-28.659	-0.303	-0.175
-673.135	436.458	-0.076	-0.167
-672.120	562.237	-0.084	-0.204
-671.105	-36.995	-0.093	0.050
-670.091	50.021	-0.229	-0.218
-669.076	53.053	0.071	-0.068
-668.062	-200.000	0.038	0.239
-667.047	-46.017	0.049	0.025
-666.032	-200.000	0.073	-0.349
-665.018	115.786	0.067	-0.083
-664.003	107.588	-0.131	-0.157
-662.989	82.424	-0.137	0.150
-661.974	685.064	0.167	0.439
-660.959	-15.858	0.210	-0.135
-659.945	541.026	-0.143	0.344
-658.930	800.000	-0.083	-0.309
-657.916	-111.622	-0.139	-0.028
-656.901	0.131	-0.221	-0.159
-655.886	-113.700	0.302	0.059
-654.872	-126.725	0.418	-0.062
-653.857	22.392	-0.320	-0.264
-652.843	-200.000	-0.028	-0.306
-651.828	-7.135	0.050	0.034
-650.814	209.178	-0.131	-0.206
-649.799	-121.927	-0.100	-0.017
-648.784	55.272	-0.245	0.238
-647.770	-19.445	0.087	-0.054
-646.755	83.154	0.159	-0.174
-645.741	-56.853	-0.107	0.048
-644.726	-118.006	0.103	-0.019
-643.711	-127.840	0.115	-0.017
-642.697	-200.000	-0.002	0.057
-641.682	100.342	0.031	-0.036
-640.668	-100.917	0.292	0.072
-639.653	-137.110	-0.256	0.029
-638.638	137.781	0.108	-0.142
-637.624	-39.760	0.038	-0.020
-636.609	800.000	-0.018	-0.076
-635.595	81.150	-0.200	0.217
-634.580	102.033	-0.109	-0.128
-633.565	343.817	-0.142	-0.279
-632.551	-200.000	-0.010	-0.051
-631.536	800.000	0.040	-0.113
-630.522	-151.311	-0.257	-0.019
-629.507	-164.658	0.184	0.008
-628.492	-45.734	0.299	0.149
-627.478	-148.089	-0.260	-0.022
-626.463	522.530	-0.015	0.035
-625.449	20.699	0.260	-0.211
-624.434	-62.129	0.143	-0.060
-623.419	-200.000	0.041	-0.247
-622.405	-140.150	-0.401	0.042
-621.390	-106.545	-0.244	-0.055
-620.376	-200.000	-0.006	-0.110
-619.361	82.064	0.044	-0.048
-618.346	87.743	-0.196	0.218
-617.332	-200.000	0.040	-0.345
-616.317	40.056	-0.224	-0.202
-615.303	-97.172	0.190	0.050
-614.288	-132.305	-0.257	-0.033
-613.273	-200.000	0.016	0.185
-612.259	249.406	-0.029	0.049
-611.244	449.480	-0.116	-0.258
-610.230	360.950	-0.076	0.153
-609.215	-1.262	0.291	0.207
-608.201	-200.000	0.011	-0.060
-607.186	-81.209	0.048	0.016
-606.171	693.878	0.088	0.232
-605.157	55.766	-0.257	-0.250
-604.142	-42.085	-0.308	-0.158
-603.128	130.915	0.088	0.113
-602.113	-121.866	0.319	0.053
-601.098	-38.468	-0.119	0.063
-600.084	-21.619	0.254	0.155
-599.069	153.584	-0.199	0.274
-598.055	-157.552	-0.201	0.012
-597.040	-135.341	-0.219	-0.026
-596.025	304.740	-0.102	0.190
-595.011	-200.000	0.033	0.271
-593.996	-119.087	0.310	0.054
-592.982	-101.173	-0.275	0.068
-591.967	-200.000	0.013	0.129
-590.952	20.094	0.090	-0.073
-589.938	-200.000	0.265	0.000
-588.923	-3.824	0.239	0.167
-587.909	-19.320	-0.126	0.078
-586.894	679.733	0.075	-0.195
-585.879	-200.000	-0.013	0.062
-584.865	-58.496	0.410	0.179
-583.850	-93.829	-0.094	-0.026
-582.836	210.930	0.207	-0.326
-581.821	-83.873	-0.423	-0.135
-580.806	337.422	-0.137	-0.267
-579.792	234.824	-0.007	-0.012
-578.777	-119.675	-0.204	-0.035
-577.763	5.329	-0.210	-0.155
-576.748	89.155	-0.123	-0.137
-575.733	-47.393	-0.175	0.086
-574.719	-108.594	0.107	-0.023
-573.704	800.000	0.136	-0.419
-572.690	-138.943	0.085	0.009
-571.675	-65.848	0.182	0.073
-570.661	23.526	0.296	0.244
-569.646	-135.007	-0.160	-0.019
-568.631	303.839	-0.203	-0.377
-567.617	-200.000	0.004	-0.339
-566.602	-74.418	-0.228	0.082
-565.588	68.422	-0.253	0.260
-564.573	39.026	-0.252	-0.226
-563.558	89.353	-0.139	0.156
-562.544	-200.000	0.012	0.249
-561.529	176.840	-0.131	-0.191
-560.515	-95.768	0.306	-0.082
-559.500	209.085	-0.123	-0.193
-558.485	262.504	-0.136	-0.237
-557.471	-200.000	-0.011	0.182
-556.456	-200.000	0.001	0.186
-555.442	4.146	0.118	0.087
-554.427	800.000	0.021	-0.077
-553.412	32.533	0.184	0.159
-552.398	17.041	-0.149	0.118
-551.383	35.035	0.168	0.148
-550.369	449.775	-0.038	0.084
-549.354	223.529	-0.215	-0.348
-548.339	800.000	-0.083	-0.270
-547.325	30.661	-0.102	-0.088
-546.310	137.829	0.107	-0.141
-545.296	63.534	-0.063	0.063
-544.281	29.240	0.189	0.161
-543.266	-200.000	0.020	0.344
-542.252	-16.087	-0.364	0.232
-541.237	67.215	0.167	0.171
-540.223	200.221	-0.143	-0.220
-539.208	114.733	0.184	-0.224
-538.193	-19.912	-0.171	-0.106
-537.179	-200.000	-0.005	0.027
-536.164	-96.171	0.093	0.025
-535.150	800.000	-0.124	0.367
-534.135	-41.305	0.189	0.098
-533.121	-200.000	0.003	0.087
-532.106	-200.000	0.012	-0.173
-531.091	24.627	0.031	0.026
-530.077	114.925	0.074	0.090
-529.062	77.852	0.223	-0.237
-528.048	-40.997	0.132	0.069
-527.033	223.328	0.079	0.127
-526.018	-183.784	-0.386	0.007
-525.004	82.890	-0.114	-0.124
-523.989	-200.000	0.023	0.191
-522.975	34.782	-0.145	-0.127
-521.960	-200.000	0.014	-0.248
-520.945	800.000	-0.057	-0.186
-519.931	-136.096	0.193	-0.023
-518.916	-160.156	-0.180	-0.010
-517.902	137.823	0.147	-0.192
-516.887	7.504	0.264	-0.198
-515.872	-9.249	0.082	-0.055
-514.858	-20.901	-0.179	-0.110
-513.843	-66.372	0.313	0.125
-512.829	10.286	-0.053	0.041
-511.814	18.487	0.177	-0.142
-510.799	-27.666	-0.069	0.040
-509.785	3.742	-0.008	0.006
-508.770	-130.331	0.373	0.051
-507.756	317.482	-0.239	-0.453
-506.741	272.117	0.240	-0.424
-505.726	800.000	-0.106	-0.310
-504.712	800.000	-0.042	-0.131
-503.697	-17.521	-0.406	0.255
-502.683	94.813	0.202	-0.230
-501.668	58.328	-0.136	0.133
-500.653	-46.120	-0.024	0.012
-499.639	-200.000	0.079	-0.423
-498.624	93.445	0.083	-0.094
-497.610	-200.000	0.033	0.313
-496.595	-135.430	0.265	-0.032
-495.581	63.755	-0.179	0.180
-494.566	-32.431	-0.188	0.105
-493.551	-73.373	-0.231	0.084
-492.537	-127.707	0.218	-0.031
-491.522	-200.000	0.002	0.158
-490.508	-122.614	0.321	0.052
-489.493	-103.999	-0.267	0.062
-488.478	-200.000	0.014	0.113
-487.464	148.371	-0.187	0.252
-486.449	-200.000	0.015	0.252
-485.435	569.287	0.022	0.054
-484.420	-200.000	-0.019	0.118
-483.405	-127.452	0.121	-0.018
-482.391	800.000	0.027	-0.109
-481.376	-9.440	-0.255	0.170
-480.362	-24.228	0.176	-0.105
-479.347	187.063	0.254	-0.379
-478.332	-19.442	-0.244	0.151
-477.318	-124.029	0.483	0.076
-476.303	-200.000	-0.007	0.079
-475.289	-130.109	0.271	-0.037
-474.274	526.007	-0.026	-0.062
-473.259	271.201	-0.047	0.083
-472.245	641.553	0.033	-0.085
-471.230	-197.646	0.151	0.001
-470.216	435.963	-0.093	0.203
-469.201	259.524	-0.010	-0.017
-468.186	-55.050	-0.189	0.085
-467.172	-200.000	0.015	-0.113
-466.157	-71.321	0.390	0.146
-465.143	-36.511	-0.091	-0.049
-464.128	-200.000	0.042	0.309
-463.113	-45.353	0.179	0.089
-462.099	-1.731	-0.350	-0.246
-461.084	236.656	0.143	0.236
-460.070	737.972	-0.155	0.415
-459.055	-131.425	-0.366	0.048
-458.040	19.364	0.154	0.123
-457.026	-128.479	0.401	-0.057
-456.011	86.887	0.193	0.213
-454.997	303.101	-0.223	-0.413
-453.982	-108.123	-0.116	-0.025
-452.968	-35.118	0.171	0.093
-451.953	75.729	-0.146	-0.154
-450.938	-65.547	-0.017	-0.007
-449.924	696.929	0.174	-0.457
-448.909	575.693	-0.092	-0.224
-447.895	-111.759	-0.321	0.065
-446.880	-59.775	-0.123	-0.053
-445.865	-120.399	-0.172	0.029
-444.851	-200.000	-0.011	-0.057
-443.836	110.843	0.066	-0.079
-442.822	-145.858	-0.182	-0.016
-441.807	-174.283	-0.199	-0.006
-440.792	800.000	-0.082	-0.322
-439.778	-200.000	0.008	0.312
-438.763	367.743	-0.093	0.187
-437.749	-41.999	0.288	-0.147
-436.734	7.100	0.146	0.108
-435.719	-105.518	0.126	0.029
-434.705	-200.000	0.054	0.351
-433.690	-200.000	0.002	0.128
-432.676	-200.000	-0.034	0.173
-431.661	800.000	-0.049	0.167
-430.646	66.042	-0.105	0.107
-429.632	40.495	0.223	-0.200
-428.617	-88.855	0.140	0.041
-427.603	-150.558	0.147	-0.011
-426.588	-111.587	0.321	0.065
-425.573	800.000	0.074	0.310
-424.559	63.460	-0.158	0.158
-423.544	-200.000	-0.019	0.098
-422.530	-38.667	0.268	0.141
-421.515	800.000	0.038	0.129
-420.500	557.250	-0.166	0.398
-419.486	-200.000	-0.005	-0.062
-418.471	-94.425	-0.282	0.077
-417.457	800.000	0.042	0.142
-416.442	611.338	0.099	-0.247
-415.428	-111.586	0.220	0.044
-414.413	175.966	-0.047	0.068
-413.398	-200.000	-0.002	-0.016
-412.384	-33.487	-0.201	0.111
-411.369	800.000	-0.064	0.177
-410.355	93.273	-0.116	-0.130
-409.340	-7.207	0.157	-0.106
-408.325	-125.727	-0.158	0.024
-407.311	144.981	-0.155	0.207
-406.296	131.912	0.068	0.087
-405.282	52.506	-0.292	0.278
-404.267	377.440	0.046	-0.093
-403.252	41.947	0.058	0.053
-402.238	-200.000	0.007	-0.098
-401.223	-175.175	-0.311	-0.009
-400.209	72.574	-0.165	0.172
-399.194	116.340	0.200	-0.244
-398.179	-48.448	-0.190	-0.091
-397.165	198.614	0.083	0.126
-396.150	115.128	0.085	0.103
-395.136	5.391	0.218	-0.160
-394.121	-37.981	-0.122	0.064
-393.106	-135.706	0.209	0.025
-392.092	-200.000	0.025	-0.199
-391.077	-122.663	0.158	-0.026
-390.063	800.000	-0.048	0.137
-389.048	-134.517	0.172	-0.021
-388.033	-29.790	-0.232	-0.132
-387.019	325.777	-0.086	0.163
-386.004	115.139	-0.180	0.218
-384.990	-95.401	-0.090	0.024
-383.975	-200.000	-0.069	-0.336
-382.960	-71.253	-0.142	-0.053
-381.946	-155.161	-0.057	-0.004
-380.931	800.000	0.166	0.549
-379.917	-200.000	-0.031	0.408
-378.902	-89.722	-0.044	0.013
-377.888	-86.710	0.186	-0.057
-376.873	800.000	0.053	-0.188
-375.858	-134.724	0.322	0.039
-374.844	35.194	0.269	-0.235
-373.829	-2.269	0.232	0.162
-372.815	-132.803	0.290	0.037
-371.800	-164.709	0.305	0.014
-370.785	360.244	-0.115	-0.228
-369.771	-156.089	0.230	0.014
-368.756	255.251	-0.098	-0.167
-367.742	-22.409	0.248	0.149
-366.727	8.012	-0.196	-0.147
-365.712	800.000	0.048	0.178
-364.698	-60.589	0.091	-0.039
-363.683	800.000	0.047	-0.157
-362.669	-6.848	-0.113	0.077
-361.654	176.007	0.170	0.246
-360.639	-38.782	-0.141	0.074
-359.625	-130.758	0.310	-0.041
-358.610	668.233	0.116	-0.297
-357.596	13.879	0.268	0.208
-356.581	-24.916	0.178	0.105
-355.566	-9.492	-0.285	0.189
-354.552	-200.000	0.004	0.036
-353.537	-196.595	0.084	-0.001
-352.523	177.754	-0.101	-0.146
-351.508	45.392	-0.083	-0.076
-350.493	112.070	0.041	0.050
-349.479	800.000	0.101	0.283
-348.464	203.435	0.079	0.122
-347.450	-100.541	0.189	0.047
-346.435	-172.468	-0.195	0.006
-345.420	-200.000	0.042	-0.192
-344.406	-200.000	-0.047	-0.215
-343.391	800.000	0.057	-0.200
-342.377	57.097	0.154	0.149
-341.362	2.231	-0.198	-0.143
-340.348	-71.764	-0.262	-0.097
-339.333	-11.492	0.099	0.064
-338.318	-133.933	-0.127	0.016
-337.304	-144.798	-0.043	0.004
-336.289	11.514	0.141	0.107
-335.275	497.207	-0.133	-0.304
-334.260	264.985	0.132	-0.228
-333.245	-60.239	0.226	-0.095
-332.231	-26.149	-0.115	-0.067
-331.216	-200.000	-0.033	-0.261
-330.202	88.733	0.095	0.105
-329.187	203.609	-0.092	-0.142
-328.172	-200.000	-0.005	0.191
-327.158	-200.000	-0.010	0.223
-326.143	264.984	0.126	-0.218
-325.129	-51.228	0.113	0.052
-324.114	1.345	0.125	-0.089
-323.099	-24.491	0.230	-0.136
-322.085	-5.612	-0.244	0.166
-321.070	-200.000	-0.006	0.279
-320.056	800.000	0.059	-0.202
-319.041	0.259	-0.305	-0.216
-318.026	134.330	-0.111	-0.143
-317.012	190.466	-0.136	-0.203
-315.997	260.281	0.057	0.099
-314.983	189.005	0.205	-0.305
-313.968	-126.856	0.217	0.032
-312.953	4.832	0.340	0.249
-311.939	249.493	0.222	-0.373
-310.924	30.674	-0.245	0.208
-309.910	-99.191	-0.196	0.049
-308.895	-117.207	0.415	0.075
-307.880	-22.290	0.197	-0.119
-306.866	-24.006	-0.336	0.199
-305.851	-200.000	0.043	-0.192
-304.837	800.000	-0.072	-0.282
-303.822	-89.609	-0.235	-0.068
-302.807	-34.888	0.135	0.073
-301.793	46.961	-0.108	-0.100
-300.778	-96.173	0.096	0.025
-299.764	68.902	-0.091	-0.092
-298.749	800.000	-0.061	0.192
-297.735	531.518	-0.060	0.141
-296.720	-13.030	0.117	-0.075
-295.705	31.300	-0.113	-0.096
-294.691	-200.000	-0.014	0.149
-293.676	-9.749	0.086	0.057
-292.662	72.396	-0.136	-0.140
-291.647	-37.751	-0.068	0.036
-290.632	-200.000	-0.004	0.040
-289.618	174.029	0.052	0.074
-288.603	-140.504	-0.159	0.016
-287.589	278.483	0.052	0.091
-286.574	-110.317	0.046	0.010
-285.559	-200.000	0.048	0.216
-284.545	91.102	-0.185	0.206
-283.530	-158.567	-0.266	0.015
-282.516	800.000	0.080	0.277
-281.501	51.001	0.137	-0.129
-280.486	100.258	0.021	0.024
-279.472	-95.836	-0.097	0.026
-278.457	-145.727	0.043	-0.004
-277.443	800.000	0.087	-0.274
-276.428	369.461	0.035	0.070
-275.413	396.861	-0.051	0.105
-274.399	18.476	-0.413	0.327
-273.384	-200.000	0.000	0.008
-272.370	-200.000	-0.003	-0.029
-271.355	95.944	0.135	-0.153
-270.340	370.284	-0.145	-0.290
-269.326	-200.000	-0.078	-0.358
-268.311	-200.000	0.012	-0.250
-267.297	1.194	0.184	-0.131
-266.282	46.133	-0.137	-0.126
-265.267	-200.000	0.011	0.172
-264.253	577.810	-0.063	-0.153
-263.238	-124.951	0.401	-0.061
-262.224	800.000	0.192	0.530
-261.209	-30.550	0.011	-0.006
-260.195	222.775	-0.070	-0.111
-259.180	-87.429	-0.182	0.055
-258.165	-139.865	0.128	0.013
-257.151	708.748	-0.049	-0.129
-256.136	800.000	-0.036	0.105
-255.122	115.350	-0.110	0.134
-254.107	-200.000	-0.024	-0.387
-253.092	-25.324	-0.050	0.029
-252.078	-6.160	0.175	0.118
-251.063	126.301	-0.181	-0.227
-250.049	-133.341	-0.136	0.017
-249.034	-84.917	-0.445	-0.138
-248.019	-200.000	-0.017	0.249
-247.005	39.397	-0.205	0.181
-245.990	800.000	0.047	0.181
-244.976	-125.074	0.302	0.046
-243.961	-81.625	0.213	-0.069
-242.946	144.841	-0.080	-0.106
-241.932	-79.062	0.125	-0.042
-240.917	170.022	-0.058	0.082
-239.903	800.000	0.093	-0.344
-238.888	17.445	-0.148	-0.116
-237.873	34.143	-0.141	0.122
-236.859	-61.474	0.260	0.108
-235.844	800.000	-0.019	-0.057
-234.830	-200.000	0.009	-0.113
-233.815	68.401	0.092	0.093
-232.800	581.365	-0.072	0.174
-231.786	-169.107	-0.165	-0.006
-230.771	-29.780	-0.121	-0.069
-229.757	4.196	0.378	-0.274
-228.742	4.406	0.331	0.240
-227.727	-104.303	-0.365	0.084
-226.713	-175.213	0.371	0.010
-225.698	128.944	0.100	0.126
-224.684	-104.915	-0.429	0.097
-223.669	-83.958	-0.286	-0.090
-222.655	-200.000	-0.037	-0.315
-221.640	-200.000	-0.006	0.148
-220.625	-200.000	-0.014	-0.097
-219.611	205.767	-0.118	-0.181
-218.596	-89.906	0.155	0.045
-217.582	800.000	0.163	0.454
-216.567	-17.180	-0.221	0.138
-215.552	-87.531	0.177	-0.053
-214.538	17.456	0.321	0.252
-213.523	-78.388	-0.073	-0.025
-212.509	346.138	-0.047	0.092
-211.494	80.072	0.085	-0.091
-210.479	-42.018	0.146	-0.074
-209.465	800.000	-0.075	0.216
-208.450	-200.000	-0.001	0.070
-207.436	-159.824	-0.040	-0.002
-206.421	572.122	-0.042	-0.101
-205.406	199.186	-0.046	0.069
-204.392	512.470	-0.061	0.140
-203.377	5.338	0.157	-0.114
-202.363	767.771	0.043	-0.116
-201.348	37.113	-0.179	0.157
-200.333	-200.000	-0.013	0.104
-199.319	-46.486	-0.066	-0.032
-198.304	7.219	-0.302	-0.222
-197.290	-86.615	-0.085	-0.026
-196.275	-47.545	-0.285	-0.137
-195.260	800.000	0.088	0.297
-194.246	373.120	-0.140	-0.281
-193.231	-200.000	-0.003	-0.029
-192.217	175.548	-0.127	0.183
-191.202	238.649	-0.256	-0.421
-190.187	199.051	-0.100	-0.151
-189.173	-45.825	0.209	0.102
-188.158	89.525	0.082	-0.091
-187.144	52.468	-0.192	0.181
-186.129	-200.000	-0.007	-0.138
-185.114	105.607	0.093	0.108
-184.100	379.967	0.085	0.172
-183.085	6.754	-0.178	-0.131
-182.071	-200.000	-0.044	0.215
-181.056	228.696	0.131	0.211
-180.042	-52.360	0.239	0.109
-179.027	-173.661	-0.170	-0.005
-178.012	331.327	-0.146	-0.278
-176.998	304.431	-0.065	0.119
-175.983	17.718	-0.103	0.081
-174.969	36.061	-0.247	-0.215
-173.954	-187.313	0.075	-0.001
-172.939	254.818	0.101	0.171
-171.925	-82.020	-0.294	0.095
-170.910	-200.000	0.017	-0.123
-169.896	-94.640	0.224	0.060
-168.881	-200.000	0.110	-0.491
-167.866	-138.941	-0.086	0.009
-166.852	-200.000	0.035	-0.239
-165.837	28.277	0.046	-0.038
-164.823	64.398	0.041	-0.040
-163.808	225.036	0.080	0.128
-162.793	149.606	0.133	0.177
-161.779	-200.000	0.030	0.133
-160.764	-103.463	0.141	-0.033
-159.750	-83.757	0.104	-0.033
-158.735	-73.510	-0.032	-0.012
-157.720	-118.613	0.046	-0.008
-156.706	-91.165	0.193	-0.054
-155.691	-39.549	0.179	0.093
-154.677	800.000	-0.047	0.160
-153.662	-95.779	-0.228	0.060
-152.647	-200.000	0.059	-0.385
-151.633	5.785	0.109	-0.080
-150.618	-56.801	0.236	0.103
-149.604	800.000	-0.061	0.236
-148.589	219.119	-0.128	-0.202
-147.574	-200.000	0.032	-0.318
-146.560	-200.000	0.010	0.150
-145.545	30.636	-0.237	0.200
-144.531	-200.000	-0.028	-0.431
-143.516	-18.799	0.186	0.114
-142.502	207.791	0.009	-0.013
-141.487	-109.265	-0.233	-0.049
-140.472	352.280	0.058	-0.114
-139.458	-23.672	-0.086	0.051
-138.443	-200.000	-0.020	-0.174
-137.429	105.194	0.089	0.104
-136.414	322.554	-0.158	-0.297
-135.399	-200.000	0.002	-0.076
-134.385	-8.739	-0.185	0.123
-133.370	497.094	0.035	-0.080
-132.356	-141.963	-0.227	0.022
-131.341	-75.054	0.259	0.091
-130.326	-200.000	0.019	-0.140
-129.312	800.000	0.110	0.337
-128.297	-148.367	0.081	0.007
-127.283	-200.000	-0.031	-0.189
-126.268	501.463	0.117	0.265
-125.253	134.806	-0.135	0.172
-124.239	-127.834	-0.177	0.025
-123.224	-68.575	0.125	0.048
-122.210	268.212	0.094	-0.162
-121.195	776.080	-0.169	-0.455
