DTS Sentinel unit serial number:	SN413079Multiplexer serial number:	ORYXHardware model number:	OX4-SRSoftware version number:	ORYX F/W v4.00 Oryx Data Collector v3.7.2.0data status	okinstallation	princeton_trtdifferential loss correction	single-endedforward channel	channel 1reverse channel	N/Adate	2019/09/13time	06:34:35forward acquisition time	60.00reverse acquisition time	0.00gamma	496.2192k internal	0.2336k external	0.2336temperature offset calibration	1.0159default loss term (dB/km)	0.3790temperature slope calibration	1.0000multiplexer offset coefficient	1.0000multiplexer slope coefficient	1.0000fibre end	0.00T internal ref (°C)	26.05T ext. ref 1 (°C)	4.09T ext. ref 2 (°C)	20.61length (m)	temperature (°C)	Stokes	anti-Stokes-747.200	180.854	-0.146	0.216
-746.185	800.000	0.140	0.472
-745.171	-154.612	0.329	-0.022
-744.156	-200.000	0.004	0.048
-743.142	122.800	0.119	-0.150
-742.127	-138.830	-0.232	0.025
-741.112	-6.089	0.125	0.086
-740.098	-95.032	0.165	0.045
-739.083	259.682	0.125	0.217
-738.069	-10.988	0.099	-0.066
-737.054	-200.000	0.047	0.253
-736.039	23.656	-0.280	0.232
-735.025	800.000	0.053	0.169
-734.010	800.000	0.085	-0.289
-732.996	-146.729	0.083	0.007
-731.981	-33.428	0.231	0.128
-730.966	7.706	-0.047	-0.035
-729.952	-200.000	-0.039	-0.186
-728.937	0.167	0.156	-0.112
-727.923	-95.162	0.236	-0.064
-726.908	100.406	0.157	0.183
-725.894	750.554	0.112	-0.304
-724.879	-200.000	0.004	0.207
-723.864	-141.867	-0.073	-0.007
-722.850	225.610	-0.019	0.031
-721.835	-27.304	-0.253	0.148
-720.821	-76.806	0.362	-0.127
-719.806	276.867	0.150	-0.267
-718.791	206.901	-0.128	-0.201
-717.777	166.915	-0.064	0.092
-716.762	-153.394	0.144	0.010
-715.748	102.739	-0.148	-0.173
-714.733	266.548	-0.156	0.273
-713.718	-48.432	-0.240	-0.116
-712.704	65.081	0.125	-0.126
-711.689	-38.056	-0.247	-0.132
-710.675	-138.859	-0.270	0.030
-709.660	659.216	0.041	-0.106
-708.645	439.733	0.159	0.349
-707.631	206.101	-0.037	-0.058
-706.616	-200.000	-0.016	-0.131
-705.602	64.604	0.173	-0.175
-704.587	800.000	0.098	0.362
-703.572	20.044	0.187	-0.151
-702.558	-39.728	0.182	-0.095
-701.543	-109.680	-0.387	0.082
-700.529	-67.860	0.179	-0.070
-699.514	-90.152	0.249	-0.073
-698.499	-2.151	-0.272	-0.191
-697.485	-80.154	0.047	0.016
-696.470	57.652	-0.213	0.209
-695.456	-5.417	-0.070	0.048
-694.441	107.607	-0.245	-0.292
-693.426	-200.000	0.001	0.051
-692.412	-37.482	0.167	-0.090
-691.397	312.463	-0.062	0.117
-690.383	600.264	0.085	0.211
-689.368	-164.035	-0.077	-0.004
-688.354	-200.000	0.039	0.271
-687.339	-200.000	-0.037	0.261
-686.324	284.859	-0.101	-0.183
-685.310	-200.000	-0.024	-0.177
-684.295	-200.000	0.028	0.168
-683.281	100.841	0.124	0.144
-682.266	89.370	0.057	0.064
-681.251	232.092	-0.089	-0.146
-680.237	800.000	-0.056	-0.186
-679.222	-25.027	-0.061	-0.036
-678.208	-52.917	0.259	-0.120
-677.193	-71.023	0.167	0.063
-676.178	-55.053	0.330	-0.149
-675.164	-59.870	-0.238	-0.102
-674.149	-130.493	-0.036	-0.005
-673.135	10.185	-0.165	-0.126
-672.120	179.811	-0.085	0.125
-671.105	169.952	0.090	0.129
-670.091	800.000	0.119	-0.485
-669.076	800.000	0.100	-0.394
-668.062	-23.608	0.315	-0.189
-667.047	-29.560	0.189	-0.108
-666.032	378.054	-0.085	0.173
-665.018	71.127	-0.195	-0.203
-664.003	-63.679	0.184	-0.075
-662.989	13.715	0.173	0.134
-661.974	-200.000	-0.025	-0.122
-660.959	-86.485	-0.222	0.068
-659.945	800.000	-0.018	-0.078
-658.930	463.602	0.046	0.102
-657.916	615.768	-0.010	0.025
-656.901	-96.278	-0.274	-0.073
-655.886	-29.131	0.290	0.166
-654.872	49.766	-0.090	0.084
-653.857	8.705	-0.228	0.172
-652.843	-200.000	0.025	-0.281
-651.828	379.941	0.099	0.203
-650.814	-76.094	0.072	0.026
-649.799	488.794	0.217	-0.495
-648.784	800.000	-0.049	0.175
-647.770	-97.312	0.237	-0.062
-646.755	11.484	0.107	0.082
-645.741	-12.960	-0.166	0.108
-644.726	200.707	0.109	0.167
-643.711	-40.465	-0.296	-0.154
-642.697	-200.000	0.092	-0.560
-641.682	196.227	-0.057	-0.087
-640.668	-35.646	-0.064	-0.034
-639.653	-56.485	-0.145	0.064
-638.638	-50.475	0.214	-0.101
-637.624	125.233	0.266	-0.336
-636.609	-4.976	-0.071	-0.049
-635.595	522.715	0.100	-0.234
-634.580	-55.297	0.348	-0.156
-633.565	-189.216	-0.378	-0.004
-632.551	232.617	-0.096	0.158
-631.536	-200.000	-0.027	-0.122
-630.522	-200.000	0.040	-0.252
-629.507	800.000	-0.024	-0.087
-628.492	-70.215	0.172	-0.065
-627.478	-143.527	-0.275	0.026
-626.463	382.303	0.084	-0.173
-625.449	-200.000	-0.007	-0.074
-624.434	-112.477	0.170	0.034
-623.419	-58.515	-0.270	0.117
-622.405	16.207	0.210	-0.166
-621.390	-38.493	-0.016	-0.008
-620.376	-200.000	-0.098	0.492
-619.361	-58.202	0.350	-0.152
-618.346	-20.309	-0.401	0.247
-617.332	389.044	0.069	-0.143
-616.317	-78.529	0.139	-0.048
-615.303	699.033	0.051	-0.135
-614.288	-48.460	0.085	-0.041
-613.273	-41.073	0.174	0.090
-612.259	-200.000	-0.013	0.198
-611.244	-200.000	0.017	0.245
-610.230	565.439	-0.075	0.182
-609.215	23.830	0.186	-0.153
-608.201	-103.196	-0.210	-0.050
-607.186	-200.000	0.009	-0.282
-606.171	-93.300	-0.424	-0.117
-605.157	-200.000	0.068	0.310
-604.142	-39.528	0.559	-0.292
-603.128	81.356	0.313	0.338
-602.113	-200.000	0.007	0.092
-601.098	-200.000	-0.066	-0.388
-600.084	-56.683	0.083	-0.037
-599.069	-44.141	-0.185	-0.093
-598.055	-49.857	-0.045	-0.021
-597.040	-200.000	-0.035	-0.199
-596.025	800.000	-0.130	-0.386
-595.011	-160.449	0.094	0.005
-593.996	-100.275	0.126	0.031
-592.982	800.000	0.112	-0.319
-591.967	-200.000	-0.010	-0.284
-590.952	-106.757	0.286	-0.063
-589.938	-10.572	-0.258	-0.171
-588.923	-200.000	0.001	-0.327
-587.909	-105.824	0.292	-0.066
-586.894	800.000	-0.069	-0.198
-585.879	-200.000	-0.060	-0.347
-584.865	-91.157	-0.201	-0.058
-583.850	419.345	-0.096	-0.206
-582.836	-49.340	0.155	-0.074
-581.821	-64.551	0.090	0.037
-580.806	274.198	-0.102	-0.181
-579.792	162.781	-0.135	0.189
-578.777	800.000	0.141	-0.423
-577.763	347.904	0.169	-0.333
-576.748	-200.000	-0.012	-0.058
-575.733	-93.431	-0.070	-0.019
-574.719	53.968	-0.154	0.148
-573.704	574.708	-0.113	0.276
-572.690	-93.844	-0.525	0.144
-571.675	54.939	-0.149	-0.144
-570.661	47.390	0.052	-0.048
-569.646	-117.977	0.154	-0.027
-568.631	229.892	-0.119	0.193
-567.617	-133.479	0.040	0.005
-566.602	391.069	-0.044	-0.090
-565.588	-143.362	-0.226	-0.022
-564.573	102.102	-0.168	0.196
-563.558	214.236	-0.085	-0.135
-562.544	-129.022	0.164	-0.023
-561.529	-200.000	-0.046	0.226
-560.515	399.704	-0.104	0.218
-559.500	279.617	0.091	-0.163
-558.485	-5.040	-0.257	0.176
-557.471	-139.416	-0.304	0.032
-556.456	74.145	-0.164	0.171
-555.442	230.645	-0.110	0.180
-554.427	-37.754	0.127	-0.068
-553.412	27.676	-0.079	-0.067
-552.398	-58.973	-0.254	-0.109
-551.383	49.998	-0.154	-0.145
-550.369	111.089	-0.197	0.237
-549.354	118.245	-0.154	-0.190
-548.339	273.925	0.063	-0.111
-547.325	-173.394	-0.237	-0.007
-546.310	-91.476	-0.351	-0.100
-545.296	-22.156	0.104	-0.063
-544.281	13.584	0.132	-0.102
-543.266	-98.093	-0.141	-0.036
-542.252	238.600	0.213	0.354
-541.237	155.498	-0.126	0.173
-540.223	135.906	0.319	-0.414
-539.208	800.000	-0.015	0.048
-538.193	89.357	0.104	-0.115
-537.179	14.086	-0.260	-0.201
-536.164	62.256	0.119	-0.118
-535.150	112.600	-0.124	-0.150
-534.135	-200.000	-0.009	0.135
-533.121	-64.330	0.108	0.044
-532.106	621.278	-0.026	-0.065
-531.091	-120.260	0.200	0.034
-530.077	92.432	0.129	0.145
-529.062	31.782	0.106	0.091
-528.048	518.964	0.134	0.314
-527.033	181.976	0.115	0.169
-526.018	83.457	0.105	-0.114
-525.004	-200.000	-0.033	-0.307
-523.989	90.310	-0.193	-0.215
-522.975	318.227	-0.159	-0.300
-521.960	-152.879	0.525	-0.037
-520.945	-127.318	0.374	0.054
-519.931	-200.000	-0.027	0.150
-518.916	-140.786	-0.357	0.037
-517.902	800.000	-0.031	0.115
-516.887	274.923	0.010	0.018
-515.872	-200.000	0.007	0.080
-514.858	-132.660	0.314	-0.040
-513.843	7.659	0.062	0.046
-512.829	-91.492	-0.144	-0.041
-511.814	743.786	0.058	-0.155
-510.799	101.294	-0.069	-0.080
-509.785	-42.660	-0.379	0.192
-508.770	-10.193	0.046	-0.031
-507.756	95.338	-0.068	0.077
-506.741	-97.224	-0.191	0.050
-505.726	-139.847	-0.293	0.031
-504.712	800.000	0.091	0.314
-503.697	-144.055	0.049	0.005
-502.683	-200.000	-0.019	0.252
-501.668	-30.116	0.136	-0.077
-500.653	800.000	0.066	-0.205
-499.639	444.116	-0.208	0.453
-498.624	89.733	-0.092	0.103
-497.610	186.694	-0.158	0.235
-496.595	28.431	0.080	0.067
-495.581	-99.020	-0.302	0.076
-494.566	-80.099	0.168	0.056
-493.551	800.000	0.084	0.302
-492.537	487.737	0.100	0.228
-491.522	-81.976	-0.198	0.064
-490.508	86.180	-0.042	0.046
-489.493	-86.655	0.298	-0.091
-488.478	-200.000	0.009	-0.074
-487.464	-132.769	-0.367	0.047
-486.449	330.535	0.119	-0.228
-485.435	-200.000	-0.001	0.165
-484.420	-200.000	-0.017	-0.202
-483.405	109.638	0.174	0.207
-482.391	-72.956	-0.278	-0.102
-481.376	-29.730	-0.125	-0.071
-480.362	800.000	0.047	0.178
-479.347	293.190	0.092	-0.167
-478.332	-75.105	-0.309	0.110
-477.318	379.696	0.094	0.191
-476.303	-3.853	0.367	0.253
-475.289	250.948	-0.054	0.091
-474.274	213.567	0.070	0.111
-473.259	693.105	-0.035	-0.092
-472.245	18.812	0.187	0.149
-471.230	-131.086	-0.063	0.008
-470.216	332.213	-0.131	0.252
-469.201	335.362	-0.123	0.236
-468.186	800.000	-0.101	0.371
-467.172	-110.800	0.178	0.036
-466.157	160.198	0.154	0.214
-465.143	203.742	0.110	0.169
-464.128	-20.313	-0.269	0.165
-463.113	-120.958	0.065	0.011
-462.099	-119.218	0.276	0.048
-461.084	12.055	0.207	-0.158
-460.070	157.912	0.241	-0.331
-459.055	119.304	0.042	0.052
-458.040	-185.556	-0.392	0.006
-457.026	-28.846	0.148	-0.085
-456.011	-74.095	0.242	-0.087
-454.997	800.000	-0.064	-0.234
-453.982	-38.175	0.244	0.129
-452.968	-37.088	0.259	0.138
-451.953	-15.121	0.301	0.191
-450.938	99.248	-0.167	-0.191
-449.924	800.000	0.098	-0.390
-448.909	676.925	-0.032	-0.084
-447.895	-43.529	0.265	-0.133
-446.880	-134.165	-0.149	-0.018
-445.865	-200.000	0.019	0.224
-444.851	5.503	0.187	-0.137
-443.836	-120.106	0.271	-0.046
-442.822	478.337	-0.106	-0.238
-441.807	800.000	-0.051	0.167
-440.792	-127.345	-0.155	0.022
-439.778	-8.904	0.355	-0.236
-438.763	-61.266	0.184	0.077
-437.749	800.000	-0.037	0.119
-436.734	-139.642	0.094	-0.010
-435.719	-200.000	-0.054	0.286
-434.705	296.491	0.134	-0.245
-433.690	-200.000	-0.026	0.219
-432.676	347.098	0.038	0.073
-431.661	-0.390	-0.258	0.182
-430.646	-200.000	0.018	-0.096
-429.632	308.458	-0.091	-0.169
-428.617	-177.634	-0.390	-0.009
-427.603	451.243	-0.114	-0.251
-426.588	-28.501	-0.349	0.200
-425.573	-52.399	0.259	0.119
-424.559	-200.000	0.011	0.436
-423.544	-14.495	-0.194	0.124
-422.530	334.453	0.083	-0.159
-421.515	113.272	0.174	0.209
-420.500	-200.000	-0.058	0.275
-419.486	35.278	-0.111	-0.097
-418.471	27.870	-0.217	-0.181
-417.457	222.923	0.099	0.159
-416.442	-65.809	0.127	-0.050
-415.428	-200.000	-0.013	-0.058
-414.413	91.437	-0.072	-0.080
-413.398	-102.170	-0.119	0.028
-412.384	-40.193	0.296	0.153
-411.369	85.596	0.282	-0.308
-410.355	389.977	0.029	-0.059
-409.340	-195.161	-0.301	-0.002
-408.325	800.000	0.113	-0.366
-407.311	195.147	0.153	-0.230
-406.296	-134.446	-0.387	-0.047
-405.282	744.087	-0.073	-0.196
-404.267	-108.602	0.356	0.076
-403.252	-185.619	0.157	0.002
-402.238	72.074	0.052	0.053
-401.223	-200.000	-0.065	-0.314
-400.209	3.732	-0.066	-0.047
-399.194	-112.171	-0.315	0.063
-398.179	800.000	-0.051	-0.170
-397.165	-155.825	-0.310	0.020
-396.150	-80.193	-0.269	-0.089
-395.136	-38.696	-0.219	0.114
-394.121	-62.607	0.250	0.103
-393.106	-141.557	-0.089	-0.009
-392.092	99.301	0.101	0.116
-391.077	-150.075	-0.060	-0.005
-390.063	21.453	0.184	0.148
-389.048	-57.972	0.268	-0.116
-388.033	-32.022	-0.086	-0.048
-387.019	-98.636	-0.251	0.063
-386.004	-141.347	-0.200	0.020
-384.990	-81.554	-0.323	-0.105
-383.975	-68.947	0.171	0.065
-382.960	111.090	0.230	-0.274
-381.946	-194.958	0.434	-0.003
-380.931	-7.685	-0.051	-0.034
-379.917	49.383	0.271	0.253
-378.902	22.380	-0.061	-0.049
-377.888	586.122	0.068	-0.166
-376.873	-73.460	0.289	-0.104
-375.858	-61.862	-0.190	-0.079
-374.844	188.085	-0.066	-0.098
-373.829	-156.821	0.136	0.008
-372.815	800.000	0.037	-0.156
-371.800	-200.000	0.022	-0.405
-370.785	-57.113	0.348	-0.152
-369.771	-36.487	0.144	-0.077
-368.756	118.567	0.216	-0.264
-367.742	-85.436	-0.140	-0.043
-366.727	80.369	0.261	-0.278
-365.712	268.550	-0.225	0.391
-364.698	-89.128	0.096	0.028
-363.683	-200.000	-0.008	-0.048
-362.669	-28.617	-0.280	0.160
-361.654	32.700	-0.128	0.110
-360.639	800.000	-0.085	0.323
-359.625	-15.424	0.256	0.162
-358.610	800.000	-0.102	0.310
-357.596	-123.829	-0.032	0.005
-356.581	262.512	-0.162	-0.279
-355.566	-187.930	-0.229	0.003
-354.552	-200.000	-0.008	-0.193
-353.537	12.573	0.189	0.145
-352.523	800.000	-0.046	0.181
-351.508	-200.000	-0.021	-0.097
-350.493	228.967	-0.086	0.139
-349.479	-55.356	-0.218	0.097
-348.464	-106.850	-0.120	0.026
-347.450	6.337	-0.476	-0.350
-346.435	72.164	-0.094	0.097
-345.420	-200.000	-0.060	0.298
-344.406	772.661	-0.066	-0.177
-343.391	-54.771	-0.206	-0.092
-342.377	800.000	-0.125	0.359
-341.362	258.446	-0.089	-0.152
-340.348	-30.999	0.174	-0.097
-339.333	268.400	-0.112	0.193
-338.318	-200.000	0.002	0.237
-337.304	-200.000	0.007	0.077
-336.289	-41.089	0.266	0.136
-335.275	800.000	-0.110	-0.347
-334.260	-200.000	0.007	0.252
-333.245	58.340	0.216	-0.209
-332.231	17.979	-0.175	-0.138
-331.216	684.797	0.110	0.285
-330.202	-15.726	-0.318	-0.200
-329.187	-200.000	-0.021	-0.209
-328.172	-200.000	0.008	0.285
-327.158	-200.000	-0.030	-0.265
-326.143	58.422	0.155	-0.150
-325.129	192.426	0.160	0.239
-324.114	6.949	-0.209	-0.154
-323.099	-200.000	-0.029	-0.162
-322.085	-45.978	0.150	-0.073
-321.070	453.491	0.093	0.204
-320.056	16.249	0.165	-0.129
-319.041	378.810	-0.143	0.289
-318.026	-1.532	-0.054	-0.038
-317.012	141.096	-0.039	-0.051
-315.997	-76.215	0.173	-0.060
-314.983	-160.672	-0.357	-0.019
-313.968	319.944	-0.033	0.062
-312.953	-78.450	-0.060	0.020
-311.939	-170.281	-0.061	-0.002
-310.924	-200.000	0.006	-0.078
-309.910	463.012	-0.134	0.295
-308.895	417.469	-0.096	0.201
-307.880	-140.070	0.199	-0.021
-306.866	-83.066	-0.344	-0.109
-305.851	-200.000	0.040	0.187
-304.837	800.000	0.043	0.184
-303.822	-200.000	0.006	0.219
-302.807	-200.000	-0.007	-0.045
-301.793	-76.327	-0.230	-0.080
-300.778	71.815	0.186	0.190
-299.764	268.785	0.097	0.169
-298.749	-50.419	0.084	-0.039
-297.735	-200.000	0.027	0.265
-296.720	-98.074	0.037	-0.009
-295.705	146.842	0.151	-0.201
-294.691	-59.446	-0.159	0.068
-293.676	202.010	-0.097	-0.147
-292.662	800.000	0.080	0.277
-291.647	800.000	0.023	0.083
-290.632	-200.000	-0.021	0.172
-289.618	-200.000	0.017	0.411
-288.603	11.439	0.194	0.146
-287.589	800.000	0.054	-0.153
-286.574	800.000	0.098	0.298
-285.559	564.894	0.108	0.257
-284.545	800.000	-0.072	-0.256
-283.530	-200.000	-0.033	-0.181
-282.516	532.035	0.089	0.208
-281.501	-200.000	-0.057	0.326
-280.486	-94.495	-0.242	-0.065
-279.472	97.596	0.176	0.199
-278.457	-26.091	-0.089	0.051
-277.443	652.582	0.118	-0.298
-276.428	5.622	0.206	0.150
-275.413	26.251	-0.049	0.040
-274.399	-81.304	0.353	0.115
-273.384	136.557	-0.036	0.046
-272.370	269.921	0.082	0.142
-271.355	-100.697	0.069	0.017
-270.340	3.595	-0.185	0.133
-269.326	-200.000	-0.016	0.124
-268.311	800.000	-0.031	-0.119
-267.297	56.365	0.040	0.038
-266.282	-27.525	0.136	-0.078
-265.267	8.807	0.416	0.309
-264.253	-200.000	0.026	-0.404
-263.238	-64.908	-0.249	0.099
-262.224	-56.339	-0.271	-0.119
-261.209	-35.599	-0.435	0.233
-260.195	-200.000	-0.059	0.292
-259.180	14.609	-0.138	-0.106
-258.165	800.000	-0.098	-0.395
-257.151	100.620	-0.099	0.114
-256.136	73.086	0.143	0.148
-255.122	-200.000	-0.008	-0.106
-254.107	59.283	-0.053	0.051
-253.092	7.045	-0.061	-0.045
-252.078	-83.921	0.023	-0.007
-251.063	-200.000	0.016	0.098
-250.049	134.418	-0.150	-0.191
-249.034	67.908	0.022	-0.022
-248.019	216.711	-0.115	0.181
-247.005	-77.646	-0.247	0.084
-245.990	-90.126	-0.319	0.092
-244.976	716.614	-0.117	-0.307
-243.961	68.615	0.285	0.288
-242.946	-200.000	0.083	0.374
-241.932	-200.000	0.042	0.241
-240.917	-200.000	0.021	0.179
-239.903	800.000	0.038	-0.152
-238.888	-200.000	0.026	-0.356
-237.873	-200.000	0.020	0.166
-236.859	-157.674	-0.166	0.010
-235.844	800.000	0.096	-0.389
-234.830	-111.906	0.098	0.020
-233.815	-200.000	0.056	-0.312
-232.800	-133.050	-0.115	0.014
-231.786	-51.815	-0.107	-0.049
-230.771	92.049	-0.076	-0.084
-229.757	48.246	-0.102	0.094
-228.742	-200.000	0.030	-0.208
-227.727	249.284	0.025	-0.041
-226.713	-200.000	0.032	0.351
-225.698	800.000	0.106	0.319
-224.684	-200.000	0.016	0.294
-223.669	-200.000	0.048	0.359
-222.655	-26.729	-0.253	-0.145
-221.640	-91.862	-0.085	0.024
-220.625	-83.014	0.105	-0.033
-219.611	-200.000	0.025	-0.124
-218.596	-182.200	-0.160	0.003
-217.582	-140.605	0.388	0.040
-216.567	276.717	0.175	-0.307
-215.552	140.619	0.100	-0.130
-214.538	-34.180	-0.273	0.147
-213.523	237.867	0.139	-0.227
-212.509	258.645	0.037	-0.062
-211.494	49.558	-0.274	-0.254
-210.479	800.000	-0.084	-0.351
-209.465	323.408	0.113	-0.212
-208.450	-27.088	0.219	-0.126
-207.436	-159.490	-0.209	-0.011
-206.421	173.218	-0.057	0.081
-205.406	-166.120	0.306	-0.013
-204.392	-200.000	-0.005	0.144
-203.377	2.568	-0.126	0.090
-202.363	522.903	-0.037	0.085
-201.348	-200.000	-0.047	0.361
-200.333	-128.270	0.249	-0.035
-199.319	-103.018	-0.397	0.092
-198.304	-62.171	-0.184	0.075
-197.290	721.123	0.068	-0.178
-196.275	-18.491	0.107	-0.066
-195.260	138.914	0.033	-0.042
-194.246	-11.245	0.172	0.111
-193.231	-36.554	-0.178	0.094
-192.217	-72.736	0.030	0.011
-191.202	230.986	0.233	0.374
-190.187	-21.871	0.096	-0.057
-189.173	-200.000	0.045	0.233
-188.158	-47.263	0.065	-0.031
-187.144	61.678	-0.048	-0.047
-186.129	691.263	-0.041	-0.105
-185.114	-64.317	0.276	-0.110
-184.100	-148.297	-0.225	0.018
-183.085	-74.856	0.234	-0.082
-182.071	96.966	-0.035	0.039
-181.056	-50.675	-0.121	0.056
-180.042	-200.000	0.011	-0.262
-179.027	442.720	0.126	-0.272
-178.012	-10.319	-0.282	0.184
-176.998	36.868	-0.238	0.207
-175.983	-122.818	-0.209	-0.033
-174.969	315.943	0.164	0.305
-173.954	637.888	0.105	-0.262
-172.939	-107.457	0.245	0.053
-171.925	10.209	-0.291	0.218
-170.910	-200.000	0.033	-0.186
-169.896	163.953	0.096	-0.133
-168.881	113.959	-0.038	-0.046
-167.866	-81.251	0.197	-0.064
-166.852	-119.949	-0.209	-0.035
-165.837	-200.000	0.018	-0.124
-164.823	-96.971	0.285	0.073
-163.808	-79.540	0.186	-0.062
-162.793	127.634	0.139	-0.173
-161.779	36.789	0.101	0.088
-160.764	33.279	0.194	-0.165
-159.750	800.000	0.122	0.466
-158.735	-167.602	0.372	0.015
-157.720	-200.000	0.043	-0.261
-156.706	-200.000	0.002	-0.236
-155.691	-146.441	0.293	-0.025
-154.677	-162.289	-0.039	0.002
-153.662	-28.389	0.273	0.154
-152.647	800.000	-0.054	0.175
-151.633	445.794	-0.076	-0.164
-150.618	-200.000	-0.009	0.476
-149.604	-80.419	-0.339	0.111
-148.589	-18.368	0.080	-0.049
-147.574	145.707	-0.063	0.083
-146.560	-126.162	-0.217	0.032
-145.545	-200.000	-0.022	-0.182
-144.531	-146.235	0.160	0.014
-143.516	239.501	0.170	0.278
-142.502	-132.885	-0.069	0.009
-141.487	800.000	0.087	-0.251
-140.472	94.551	0.212	0.236
-139.458	-5.006	0.227	-0.154
-138.443	-16.790	0.314	0.195
-137.429	-200.000	0.042	0.261
-136.414	-59.233	0.118	0.050
-135.399	-27.379	0.136	-0.078
-134.385	-200.000	-0.021	-0.105
-133.370	132.085	0.163	0.206
-132.356	-58.646	0.324	0.138
-131.341	197.744	0.104	-0.155
-130.326	-112.122	-0.180	-0.036
-129.312	-93.714	0.300	0.081
-128.297	-109.939	0.066	0.014
-127.283	-68.251	-0.233	-0.089
-126.268	-49.953	0.198	0.092
-125.253	699.947	-0.077	0.199
-124.239	57.622	-0.180	0.172
-123.224	-14.612	0.119	-0.075
-122.210	-104.130	-0.050	-0.011
-121.195	800.000	-0.020	0.058
