DTS Sentinel unit serial number:	SN413079Multiplexer serial number:	ORYXHardware model number:	OX4-SRSoftware version number:	ORYX F/W v4.00 Oryx Data Collector v3.7.2.0data status	okinstallation	princeton_trtdifferential loss correction	single-endedforward channel	channel 1reverse channel	N/Adate	2019/09/14time	21:26:35forward acquisition time	60.00reverse acquisition time	0.00gamma	496.2192k internal	0.2318k external	0.2318temperature offset calibration	1.0015default loss term (dB/km)	0.3790temperature slope calibration	1.0000multiplexer offset coefficient	1.0000multiplexer slope coefficient	1.0000fibre end	0.00T internal ref (°C)	32.89T ext. ref 1 (°C)	4.76T ext. ref 2 (°C)	27.73length (m)	temperature (°C)	Stokes	anti-Stokes-747.200	234.844	0.192	-0.320
-746.185	-57.376	0.066	-0.029
-745.171	800.000	-0.195	0.615
-744.156	709.723	-0.153	0.409
-743.142	92.710	0.071	0.081
-742.127	183.907	-0.091	0.136
-741.112	321.062	-0.106	0.205
-740.098	-200.000	-0.021	0.222
-739.083	-30.627	0.241	0.138
-738.069	-200.000	-0.020	0.327
-737.054	-7.557	0.098	-0.067
-736.039	-76.584	-0.235	-0.084
-735.025	-2.217	0.356	0.253
-734.010	68.059	-0.150	-0.156
-732.996	92.011	-0.128	-0.146
-731.981	597.469	-0.128	0.322
-730.966	-200.000	-0.016	0.184
-729.952	-200.000	0.015	0.136
-728.937	-186.355	-0.142	0.002
-727.923	-108.937	-0.105	-0.023
-726.908	731.591	0.032	0.087
-725.894	800.000	0.044	-0.130
-724.879	216.823	-0.192	-0.308
-723.864	11.273	0.193	-0.149
-722.850	-200.000	-0.067	-0.382
-721.835	78.323	-0.054	-0.058
-720.821	66.984	-0.161	0.166
-719.806	-158.816	0.163	-0.009
-718.791	29.214	0.253	0.218
-717.777	800.000	-0.119	-0.368
-716.762	116.627	-0.057	0.070
-715.748	433.204	-0.094	-0.207
-714.733	93.195	-0.197	-0.225
-713.718	4.099	-0.154	0.114
-712.704	-19.757	-0.079	0.050
-711.689	-84.464	0.371	-0.118
-710.675	-69.232	0.243	0.094
-709.660	800.000	0.048	0.144
-708.645	109.245	0.088	0.106
-707.631	164.166	-0.113	0.161
-706.616	488.361	-0.096	0.222
-705.602	-87.212	0.294	-0.090
-704.587	-18.876	0.080	0.050
-703.572	-75.538	-0.185	-0.066
-702.558	-93.978	0.283	0.079
-701.543	128.035	0.067	0.087
-700.529	-200.000	0.030	-0.153
-699.514	800.000	-0.056	-0.225
-698.499	-200.000	0.008	-0.188
-697.485	-26.301	-0.114	-0.068
-696.470	-200.000	-0.011	-0.084
-695.456	-106.791	0.416	-0.093
-694.441	-37.577	0.114	0.061
-693.426	-200.000	-0.006	0.101
-692.412	352.580	0.174	-0.348
-691.397	-200.000	0.015	-0.349
-690.383	-200.000	-0.003	-0.258
-689.368	270.632	0.106	0.188
-688.354	-200.000	0.001	-0.324
-687.339	130.331	-0.067	0.087
-686.324	-147.887	-0.245	0.021
-685.310	-49.798	-0.230	-0.110
-684.295	-61.220	0.221	0.094
-683.281	-87.249	0.286	0.088
-682.266	137.410	-0.211	-0.279
-681.251	103.550	-0.212	-0.251
-680.237	446.514	-0.036	0.080
-679.222	57.601	-0.025	-0.025
-678.208	-200.000	-0.004	-0.038
-677.193	243.668	0.089	-0.151
-676.178	54.696	-0.153	-0.149
-675.164	-101.280	-0.382	-0.094
-674.149	-200.000	0.018	-0.242
-673.135	-200.000	0.020	-0.124
-672.120	-200.000	0.008	-0.073
-671.105	-5.806	0.114	0.079
-670.091	-42.302	-0.315	-0.163
-669.076	-116.685	-0.307	0.057
-668.062	172.185	0.050	-0.072
-667.047	217.968	0.218	-0.351
-666.032	800.000	-0.055	0.209
-665.018	-65.873	0.074	0.030
-664.003	39.153	-0.104	0.094
-662.989	-200.000	-0.019	-0.104
-661.974	25.725	-0.285	-0.239
-660.959	-127.813	0.206	-0.030
-659.945	-191.478	0.394	0.004
-658.930	415.404	0.087	0.187
-657.916	-200.000	-0.008	-0.130
-656.901	-200.000	0.012	0.173
-655.886	150.595	0.109	-0.149
-654.872	-50.300	0.309	-0.147
-653.857	-44.713	-0.435	-0.219
-652.843	-200.000	0.001	-0.259
-651.828	-31.623	0.091	0.052
-650.814	78.430	0.195	0.210
-649.799	-200.000	-0.020	0.130
-648.784	314.254	-0.119	-0.227
-647.770	-200.000	-0.055	-0.314
-646.755	308.870	-0.038	-0.071
-645.741	163.420	-0.092	0.130
-644.726	49.191	0.090	0.085
-643.711	-148.126	0.247	0.021
-642.697	-127.892	-0.080	0.012
-641.682	800.000	-0.056	0.200
-640.668	46.995	-0.066	0.062
-639.653	186.114	-0.141	-0.211
-638.638	137.733	-0.138	-0.182
-637.624	160.928	-0.072	-0.102
-636.609	800.000	-0.101	0.400
-635.595	-117.503	0.278	-0.051
-634.580	-200.000	0.048	-0.288
-633.565	173.469	-0.324	-0.471
-632.551	-97.005	0.429	-0.113
-631.536	44.303	0.268	0.248
-630.522	371.987	0.097	0.198
-629.507	107.628	0.141	0.169
-628.492	600.262	0.038	-0.095
-627.478	-200.000	0.036	-0.191
-626.463	-87.323	0.170	-0.052
-625.449	-196.928	-0.088	0.001
-624.434	680.436	0.105	-0.275
-623.419	-200.000	-0.271	-0.000
-622.405	-200.000	-0.031	0.171
-621.390	220.967	0.085	0.137
-620.376	65.216	-0.172	0.176
-619.361	19.365	-0.276	0.224
-618.346	-200.000	0.027	0.200
-617.332	653.506	-0.071	-0.184
-616.317	-58.435	0.051	0.022
-615.303	-200.000	-0.000	-0.470
-614.288	184.488	0.162	0.242
-613.273	-125.334	0.403	-0.062
-612.259	-200.000	-0.021	-0.137
-611.244	-103.258	-0.054	-0.013
-610.230	-11.012	-0.071	-0.047
-609.215	800.000	0.026	-0.083
-608.201	-27.883	-0.146	0.085
-607.186	378.147	-0.119	0.246
-606.171	-89.400	-0.149	-0.044
-605.157	9.627	-0.092	-0.070
-604.142	-200.000	0.008	-0.346
-603.128	-47.852	-0.298	0.145
-602.113	-59.340	0.043	-0.019
-601.098	354.949	0.073	0.145
-600.084	-97.826	-0.072	-0.019
-599.069	-142.793	0.205	-0.020
-598.055	-61.814	-0.239	-0.101
-597.040	-200.000	-0.021	0.163
-596.025	393.778	0.102	-0.215
-595.011	23.910	0.318	-0.264
-593.996	-73.586	-0.143	0.052
-592.982	-22.627	0.219	-0.133
-591.967	-200.000	0.010	-0.077
-590.952	111.316	0.215	0.260
-589.938	6.692	-0.023	0.017
-588.923	5.655	0.144	-0.107
-587.909	800.000	-0.206	0.637
-586.894	-126.616	0.081	0.012
-585.879	-86.316	0.227	0.070
-584.865	506.105	-0.127	0.296
-583.850	-135.898	-0.107	-0.013
-582.836	42.243	0.163	-0.149
-581.821	-2.421	-0.208	0.146
-580.806	-81.785	-0.366	-0.121
-579.792	-200.000	0.059	0.356
-578.777	-18.065	-0.144	-0.091
-577.763	-12.588	0.185	0.121
-576.748	253.811	-0.129	-0.221
-575.733	-144.711	0.078	-0.007
-574.719	694.942	-0.074	-0.196
-573.704	-173.293	-0.178	0.005
-572.690	401.203	-0.072	-0.152
-571.675	-48.739	-0.133	0.064
-570.661	-200.000	0.014	0.109
-569.646	25.763	-0.205	0.172
-568.631	-200.000	-0.017	0.377
-567.617	27.650	-0.242	0.205
-566.602	-76.077	-0.381	-0.135
-565.588	-13.849	0.174	0.113
-564.573	-57.034	0.325	0.144
-563.558	800.000	-0.033	-0.144
-562.544	-10.327	-0.233	0.155
-561.529	345.813	-0.129	-0.256
-560.515	43.273	-0.140	0.128
-559.500	-147.844	0.156	-0.013
-558.485	-200.000	-0.050	0.357
-557.471	-91.944	-0.111	0.032
-556.456	-168.985	0.114	0.004
-555.442	220.823	-0.117	-0.188
-554.427	181.779	0.209	-0.309
-553.412	-200.000	0.034	-0.314
-552.398	800.000	0.042	-0.156
-551.383	-200.000	0.029	0.251
-550.369	37.893	-0.079	-0.071
-549.354	-200.000	-0.005	-0.073
-548.339	509.340	0.051	-0.119
-547.325	800.000	0.086	-0.364
-546.310	342.463	0.091	-0.178
-545.296	-99.139	-0.070	-0.018
-544.281	-43.629	0.234	0.118
-543.266	-98.788	0.435	-0.111
-542.252	40.121	0.111	0.100
-541.237	-43.623	-0.207	0.105
-540.223	-67.706	-0.145	-0.057
-539.208	-158.748	-0.144	0.008
-538.193	438.714	0.086	-0.189
-537.179	-71.927	0.098	-0.037
-536.164	-100.998	-0.278	0.068
-535.150	-98.372	0.198	0.051
-534.135	167.831	0.172	-0.245
-533.121	8.595	-0.108	-0.081
-532.106	444.422	0.113	-0.249
-531.091	-200.000	0.030	0.205
-530.077	-200.000	0.011	-0.058
-529.062	-78.685	-0.076	-0.026
-528.048	-200.000	0.016	0.109
-527.033	156.025	-0.137	0.189
-526.018	110.053	0.135	0.162
-525.004	-117.866	-0.340	-0.061
-523.989	-138.056	-0.381	-0.042
-522.975	143.928	-0.053	0.071
-521.960	-141.439	-0.238	-0.024
-520.945	-112.321	-0.505	-0.101
-519.931	498.647	0.084	0.194
-518.916	-134.892	0.414	0.050
-517.902	-92.836	-0.377	-0.106
-516.887	239.269	-0.118	-0.197
-515.872	-37.774	-0.123	-0.066
-514.858	-200.000	-0.016	0.073
-513.843	-92.692	0.075	-0.021
-512.829	118.658	-0.135	0.167
-511.814	6.799	-0.170	-0.127
-510.799	-94.894	0.197	0.053
-509.785	15.805	-0.195	0.154
-508.770	-40.600	0.185	-0.096
-507.756	-136.916	0.253	0.029
-506.741	23.208	0.162	0.133
-505.726	95.442	-0.066	-0.076
-504.712	385.833	0.114	0.236
-503.697	-122.720	0.235	-0.038
-502.683	-200.000	-0.011	-0.250
-501.668	5.517	-0.438	0.324
-500.653	-36.121	0.251	0.136
-499.639	230.485	-0.168	-0.276
-498.624	264.809	0.124	0.217
-497.610	107.765	-0.139	-0.165
-496.595	193.059	-0.098	0.149
-495.581	800.000	0.043	-0.141
-494.566	-137.986	0.364	0.041
-493.551	-200.000	-0.038	0.419
-492.537	-122.575	0.103	-0.017
-491.522	-75.110	-0.194	-0.069
-490.508	218.409	-0.036	-0.058
-489.493	-46.050	0.154	0.076
-488.478	26.504	-0.010	-0.009
-487.464	60.073	-0.280	0.277
-486.449	321.577	-0.061	-0.117
-485.435	291.212	0.185	0.337
-484.420	-154.465	-0.110	0.007
-483.405	-135.793	0.260	-0.031
-482.391	397.973	-0.076	0.158
-481.376	-120.557	-0.079	0.013
-480.362	-103.393	-0.328	0.077
-479.347	-111.732	-0.146	0.030
-478.332	-35.272	0.109	-0.060
-477.318	-78.762	-0.316	0.108
-476.303	-70.894	-0.233	-0.088
-475.289	-115.552	0.300	-0.056
-474.274	51.856	0.323	0.307
-473.259	18.498	-0.160	-0.128
-472.245	800.000	-0.057	0.238
-471.230	31.276	-0.160	0.138
-470.216	-29.831	0.264	0.151
-469.201	-113.225	-0.384	-0.076
-468.186	292.088	0.227	0.414
-467.172	-63.227	0.135	-0.056
-466.157	-200.000	0.045	-0.455
-465.143	52.662	0.210	-0.201
-464.128	-184.138	-0.190	-0.003
-463.113	119.746	-0.139	0.172
-462.099	800.000	-0.043	0.122
-461.084	-200.000	0.020	0.385
-460.070	-200.000	-0.035	-0.154
-459.055	384.929	-0.058	-0.119
-458.040	270.600	0.336	0.591
-457.026	-200.000	-0.047	0.427
-456.011	-109.161	0.227	0.048
-454.997	758.653	-0.072	-0.195
-453.982	787.908	0.123	-0.338
-452.968	-58.000	0.064	-0.028
-451.953	-71.229	-0.147	-0.055
-450.938	800.000	-0.039	-0.114
-449.924	101.777	0.102	-0.119
-448.909	-200.000	0.089	0.429
-447.895	198.981	-0.087	0.133
-446.880	-98.815	-0.052	0.013
-445.865	347.609	-0.080	-0.158
-444.851	21.291	-0.045	-0.037
-443.836	800.000	-0.090	0.265
-442.822	643.384	-0.036	0.091
-441.807	-30.647	0.277	-0.157
-440.792	759.796	-0.109	-0.296
-439.778	-200.000	-0.008	0.113
-438.763	-200.000	-0.027	-0.124
-437.749	-46.795	-0.223	0.109
-436.734	99.102	0.139	-0.161
-435.719	782.464	0.096	0.262
-434.705	-200.000	0.007	-0.081
-433.690	7.442	-0.181	0.135
-432.676	-33.055	-0.248	-0.137
-431.661	-200.000	0.005	0.037
-430.646	-64.401	0.222	-0.090
-429.632	-55.305	-0.137	-0.061
-428.617	279.211	-0.063	-0.112
-427.603	-200.000	0.010	-0.046
-426.588	117.765	0.194	-0.239
-425.573	106.931	-0.173	0.205
-424.559	800.000	0.103	0.347
-423.544	29.854	0.079	-0.067
-422.530	-110.372	-0.174	0.036
-421.515	127.597	0.130	0.165
-420.500	-93.582	0.211	0.058
-419.486	601.356	-0.107	-0.265
-418.471	216.297	0.085	-0.135
-417.457	591.326	0.045	0.111
-416.442	-17.485	-0.097	0.061
-415.428	-123.419	-0.115	-0.018
-414.413	591.017	0.054	-0.132
-413.398	276.200	-0.220	-0.390
-412.384	207.027	-0.268	-0.418
-411.369	-57.591	0.332	0.145
-410.355	-61.769	-0.245	0.102
-409.340	-33.908	0.164	-0.090
-408.325	800.000	-0.059	0.193
-407.311	60.053	-0.095	-0.093
-406.296	107.494	-0.118	0.140
-405.282	-84.695	0.402	0.126
-404.267	-32.492	-0.124	-0.069
-403.252	-200.000	-0.009	0.120
-402.238	-71.222	0.275	-0.103
-401.223	-121.390	-0.194	-0.032
-400.209	-200.000	0.019	-0.089
-399.194	159.881	0.115	-0.161
-398.179	-99.498	-0.268	0.067
-397.165	-17.163	0.163	0.102
-396.150	-69.077	-0.083	0.032
-395.136	551.716	0.060	-0.144
-394.121	-174.159	-0.311	0.009
-393.106	-108.723	0.103	0.022
-392.092	171.947	0.113	-0.162
-391.077	279.341	0.084	0.149
-390.063	800.000	0.018	-0.072
-389.048	-67.010	-0.221	-0.087
-388.033	37.054	0.288	-0.254
-387.019	318.345	-0.125	-0.237
-386.004	-72.578	-0.261	-0.096
-384.990	267.669	0.101	-0.176
-383.975	-200.000	0.021	-0.130
-382.960	800.000	0.073	-0.219
-381.946	327.657	0.213	-0.408
-380.931	-39.248	-0.143	-0.075
-379.917	-173.161	0.321	-0.010
-378.902	-109.225	0.081	-0.017
-377.888	102.844	-0.095	0.111
-376.873	75.287	-0.099	-0.104
-375.858	-86.911	0.055	0.017
-374.844	800.000	0.017	0.056
-373.829	-200.000	0.012	0.111
-372.815	253.628	-0.181	-0.309
-371.800	-81.589	-0.151	-0.049
-370.785	330.495	0.076	-0.146
-369.771	-23.399	0.134	-0.081
-368.756	-85.969	-0.088	0.027
-367.742	273.998	0.065	0.115
-366.727	800.000	0.124	0.370
-365.712	556.701	0.159	0.382
-364.698	388.672	-0.037	-0.077
-363.683	-90.526	0.103	0.030
-362.669	-200.000	-0.041	-0.393
-361.654	-9.913	-0.121	-0.080
-360.639	19.306	0.235	-0.188
-359.625	-5.501	0.190	-0.130
-358.610	-162.924	0.228	-0.011
-357.596	233.624	-0.085	0.140
-356.581	800.000	-0.070	-0.253
-355.566	137.676	0.172	0.224
-354.552	-96.086	0.347	0.092
-353.537	-200.000	0.009	-0.073
-352.523	-62.450	0.242	-0.100
-351.508	-96.870	-0.564	0.148
-350.493	17.053	-0.006	0.004
-349.479	307.549	0.085	0.158
-348.464	60.122	-0.162	-0.159
-347.450	-62.034	-0.176	0.073
-346.435	-36.954	-0.284	0.152
-345.420	-117.705	-0.178	-0.032
-344.406	-54.616	0.269	-0.121
-343.391	9.712	-0.206	0.156
-342.377	800.000	-0.033	-0.114
-341.362	2.944	0.247	-0.179
-340.348	-17.543	-0.445	-0.279
-339.333	576.401	0.058	0.140
-338.318	82.362	0.124	0.134
-337.304	241.811	0.062	-0.104
-336.289	-200.000	-0.024	0.200
-335.275	-200.000	-0.011	-0.183
-334.260	-199.530	-0.671	-0.003
-333.245	-200.000	0.042	0.190
-332.231	305.020	0.081	0.150
-331.216	523.656	-0.063	0.147
-330.202	-200.000	-0.010	-0.196
-329.187	205.406	-0.089	-0.138
-328.172	800.000	0.101	0.300
-327.158	600.235	0.109	0.269
-326.143	-200.000	-0.021	0.136
-325.129	-70.434	0.094	0.035
-324.114	-149.061	-0.027	0.002
-323.099	800.000	0.045	0.151
-322.085	-114.148	0.094	-0.018
-321.070	-86.746	0.144	0.044
-320.056	-103.101	-0.117	-0.028
-319.041	-102.239	0.217	-0.052
-318.026	800.000	-0.097	0.421
-317.012	65.738	0.184	-0.185
-315.997	215.149	-0.268	-0.423
-314.983	800.000	-0.028	0.091
-313.968	-200.000	0.046	0.407
-312.953	-41.519	0.167	-0.085
-311.939	68.597	-0.041	-0.042
-310.924	-163.501	0.305	0.014
-309.910	-45.684	-0.431	-0.212
-308.895	-155.383	-0.090	0.006
-307.880	-25.776	0.195	0.114
-306.866	82.850	-0.051	-0.055
-305.851	77.238	0.227	-0.240
-304.837	524.047	0.027	0.063
-303.822	32.293	-0.141	-0.121
-302.807	800.000	0.042	-0.170
-301.793	88.571	0.152	-0.168
-300.778	-147.556	0.354	0.030
-299.764	6.120	0.084	-0.062
-298.749	800.000	0.080	-0.221
-297.735	-88.863	-0.073	-0.022
-296.720	228.225	0.192	0.311
-295.705	800.000	0.005	-0.017
-294.691	-200.000	-0.019	0.095
-293.676	-200.000	0.026	-0.192
-292.662	-47.296	-0.091	0.044
-291.647	-68.684	0.111	-0.043
-290.632	22.423	0.187	0.152
-289.618	21.318	0.158	-0.127
-288.603	-118.100	-0.261	0.046
-287.589	-132.288	0.125	-0.016
-286.574	-137.696	-0.263	-0.029
-285.559	-200.000	0.098	-0.442
-284.545	715.932	-0.163	0.429
-283.530	4.023	-0.043	0.032
-282.516	-31.283	0.152	-0.085
-281.501	-200.000	-0.013	-0.144
-280.486	-108.214	0.202	0.044
-279.472	134.719	0.182	0.235
-278.457	800.000	0.136	-0.388
-277.443	-19.063	0.090	-0.055
-276.428	-200.000	0.023	0.147
-275.413	-14.411	-0.132	-0.085
-274.399	-95.909	0.075	0.020
-273.384	-200.000	0.050	-0.385
-272.370	44.802	0.065	-0.059
-271.355	-200.000	0.006	-0.046
-270.340	800.000	0.124	-0.480
-269.326	-89.439	-0.152	0.045
-268.311	-91.088	-0.267	0.076
-267.297	-200.000	0.005	0.126
-266.282	-163.561	0.240	0.011
-265.267	492.550	0.037	-0.085
-264.253	-200.000	0.028	0.414
-263.238	796.414	0.114	0.311
-262.224	800.000	-0.050	-0.180
-261.209	800.000	-0.037	-0.131
-260.195	710.049	-0.082	-0.216
-259.180	-128.752	-0.051	0.007
-258.165	-3.557	0.345	0.238
-257.151	-200.000	-0.017	0.098
-256.136	367.378	-0.068	0.137
-255.122	49.091	0.033	-0.031
-254.107	-200.000	0.019	0.140
-253.092	-0.069	-0.217	0.153
-252.078	271.949	0.123	0.216
-251.063	800.000	-0.049	-0.186
-250.049	572.257	0.124	0.300
-249.034	-3.667	0.152	-0.105
-248.019	-8.997	0.145	-0.096
-247.005	-81.453	0.138	0.045
-245.990	-76.273	-0.072	-0.025
-244.976	-8.811	-0.122	0.081
-243.961	197.226	0.064	-0.097
-242.946	293.435	-0.054	0.098
-241.932	-0.402	0.061	0.043
-240.917	800.000	0.092	0.312
-239.903	-113.618	-0.162	0.031
-238.888	-200.000	-0.023	0.195
-237.873	-60.991	-0.099	-0.041
-236.859	-200.000	-0.016	0.137
-235.844	-200.000	-0.064	-0.304
-234.830	-101.852	-0.132	0.032
-233.815	-184.060	0.098	0.002
-232.800	-72.149	0.199	0.073
-231.786	-103.539	-0.147	0.034
-230.771	526.294	-0.048	-0.112
-229.757	-86.139	-0.253	0.077
-228.742	800.000	0.092	-0.257
-227.727	613.420	0.140	-0.348
-226.713	-200.000	-0.027	-0.231
-225.698	-169.270	0.377	0.014
-224.684	-21.278	-0.201	-0.122
-223.669	-200.000	0.025	-0.384
-222.655	-92.894	0.199	0.055
-221.640	-200.000	-0.027	0.153
-220.625	-200.000	0.029	0.140
-219.611	54.628	0.259	0.247
-218.596	800.000	0.045	0.155
-217.582	800.000	0.172	0.482
-216.567	-39.672	-0.212	-0.110
-215.552	-121.376	0.234	-0.039
-214.538	367.071	-0.091	0.181
-213.523	-148.155	-0.205	0.017
-212.509	125.447	0.096	0.120
-211.494	-18.448	0.126	0.078
-210.479	-200.000	0.012	-0.325
-209.465	-131.513	0.134	-0.018
-208.450	-200.000	-0.023	0.115
-207.436	-200.000	-0.001	0.276
-206.421	-153.725	-0.332	-0.023
-205.406	-151.782	-0.363	0.026
-204.392	-114.315	-0.079	0.015
-203.377	67.232	-0.065	0.066
-202.363	9.089	0.184	0.138
-201.348	150.010	-0.085	-0.114
-200.333	-200.000	-0.077	0.418
-199.319	800.000	-0.011	0.043
-198.304	442.506	0.091	-0.196
-197.290	-200.000	0.039	-0.210
-196.275	-57.290	-0.279	-0.122
-195.260	185.661	-0.171	0.251
-194.246	-22.730	0.187	0.112
-193.231	266.192	-0.163	0.283
-192.217	-77.145	0.339	0.117
-191.202	-69.965	-0.041	0.015
-190.187	-200.000	-0.010	-0.109
-189.173	-29.584	0.108	-0.061
-188.158	-113.785	0.399	-0.077
-187.144	-11.872	-0.043	0.028
-186.129	28.956	-0.090	0.075
-185.114	800.000	-0.030	0.129
-184.100	-67.722	-0.467	-0.181
-183.085	-125.122	0.047	-0.007
-182.071	-34.156	0.250	-0.136
-181.056	-155.601	-0.534	0.034
-180.042	-92.284	-0.335	-0.094
-179.027	800.000	0.038	0.139
-178.012	6.447	-0.162	-0.119
-176.998	-91.150	-0.038	0.011
-175.983	109.857	0.023	-0.027
-174.969	441.476	-0.045	-0.098
-173.954	800.000	0.071	0.306
-172.939	-200.000	0.032	-0.262
-171.925	-200.000	0.070	-0.485
-170.910	210.759	0.111	-0.172
-169.896	-170.492	-0.068	0.002
-168.881	-112.351	-0.137	-0.027
-167.866	-80.151	0.302	-0.100
-166.852	41.595	0.171	0.153
-165.837	-200.000	0.034	0.454
-164.823	94.658	-0.106	-0.119
-163.808	311.077	0.169	0.313
-162.793	-86.363	-0.281	-0.085
-161.779	107.211	-0.334	-0.393
-160.764	800.000	0.039	-0.134
-159.750	-200.000	-0.028	0.129
-158.735	-150.637	0.482	0.036
-157.720	16.497	0.150	0.117
-156.706	-40.049	0.258	0.133
-155.691	8.800	-0.113	-0.084
-154.677	52.387	0.244	-0.230
-153.662	-43.920	0.170	0.084
-152.647	-200.000	-0.019	-0.412
-151.633	129.461	-0.092	0.116
-150.618	123.158	0.133	0.165
-149.604	800.000	0.072	-0.220
-148.589	-33.928	-0.259	0.141
-147.574	115.450	-0.106	-0.128
-146.560	-168.223	-0.059	-0.002
-145.545	800.000	-0.013	-0.041
-144.531	-200.000	0.010	0.225
-143.516	-120.751	0.347	0.058
-142.502	168.968	0.172	0.243
-141.487	386.177	0.088	0.179
-140.472	-179.892	0.350	0.007
-139.458	800.000	0.071	-0.215
-138.443	712.914	0.103	0.271
-137.429	165.504	0.210	0.293
-136.414	-200.000	0.014	-0.072
-135.399	-43.069	0.091	-0.045
-134.385	267.541	0.189	0.327
-133.370	-28.480	-0.019	0.011
-132.356	-19.875	-0.200	0.122
-131.341	38.395	-0.108	0.095
-130.326	-200.000	-0.010	0.088
-129.312	-200.000	0.012	-0.143
-128.297	800.000	0.055	0.181
-127.283	618.211	-0.016	-0.041
-126.268	-113.674	0.361	-0.070
-125.253	450.516	-0.135	-0.295
-124.239	800.000	0.097	0.400
-123.224	-150.933	0.443	0.033
-122.210	90.323	0.112	-0.124
