DTS Sentinel unit serial number:	SN413079Multiplexer serial number:	ORYXHardware model number:	OX4-SRSoftware version number:	ORYX F/W v4.00 Oryx Data Collector v3.7.2.0data status	okinstallation	princeton_trtdifferential loss correction	single-endedforward channel	channel 1reverse channel	N/Adate	2019/09/18time	03:14:35forward acquisition time	60.00reverse acquisition time	0.00gamma	496.2192k internal	0.2341k external	0.2341temperature offset calibration	0.9978default loss term (dB/km)	0.3790temperature slope calibration	1.0000multiplexer offset coefficient	1.0000multiplexer slope coefficient	1.0000fibre end	0.00T internal ref (°C)	22.77T ext. ref 1 (°C)	0.16T ext. ref 2 (°C)	16.89length (m)	temperature (°C)	Stokes	anti-Stokes-747.200	-200.000	-0.005	0.166
-746.185	-145.320	0.318	-0.029
-745.171	-81.744	0.271	0.089
-744.156	81.331	0.079	-0.085
-743.142	-96.978	0.174	-0.046
-742.127	458.349	0.115	0.256
-741.112	199.911	0.176	0.271
-740.098	-16.006	-0.499	0.318
-739.083	-61.190	0.363	-0.153
-738.069	-200.000	-0.016	0.494
-737.054	-1.672	0.230	-0.162
-736.039	281.261	-0.072	0.129
-735.025	-40.159	-0.053	-0.028
-734.010	148.176	-0.137	-0.185
-732.996	-200.000	0.004	-0.213
-731.981	800.000	-0.094	-0.284
-730.966	800.000	-0.034	-0.112
-729.952	24.963	-0.177	0.147
-728.937	-200.000	-0.031	-0.288
-727.923	-200.000	-0.025	0.224
-726.908	202.099	0.179	0.276
-725.894	-200.000	0.030	-0.486
-724.879	-30.811	-0.276	0.156
-723.864	138.647	-0.085	-0.112
-722.850	432.477	-0.077	-0.167
-721.835	-133.544	-0.316	-0.040
-720.821	0.531	0.220	0.157
-719.806	-24.750	0.204	-0.122
-718.791	-169.823	-0.185	0.007
-717.777	-200.000	-0.026	0.215
-716.762	800.000	0.099	0.320
-715.748	177.082	-0.131	-0.190
-714.733	-34.380	0.123	-0.067
-713.718	53.845	-0.093	-0.089
-712.704	-200.000	0.002	-0.197
-711.689	-109.929	0.211	-0.044
-710.675	-39.794	0.501	0.262
-709.660	-13.905	0.169	-0.110
-708.645	23.566	-0.268	-0.221
-707.631	800.000	-0.061	-0.223
-706.616	-99.769	0.195	0.049
-705.602	-200.000	-0.080	-0.367
-704.587	-78.394	-0.181	-0.062
-703.572	-200.000	-0.001	-0.085
-702.558	-144.354	-0.413	0.038
-701.543	-200.000	-0.011	0.076
-700.529	-200.000	-0.022	-0.384
-699.514	466.063	-0.164	0.367
-698.499	161.012	0.056	-0.078
-697.485	-200.000	-0.025	0.209
-696.470	74.168	-0.181	0.190
-695.456	800.000	0.029	-0.080
-694.441	15.810	0.128	-0.101
-693.426	-200.000	-0.004	-0.026
-692.412	739.052	-0.055	0.148
-691.397	283.417	0.141	-0.253
-690.383	-200.000	-0.006	-0.441
-689.368	-92.422	-0.225	0.063
-688.354	15.300	-0.088	-0.069
-687.339	-37.701	-0.067	0.036
-686.324	800.000	-0.090	-0.334
-685.310	-21.808	-0.146	-0.089
-684.295	280.343	-0.074	-0.133
-683.281	75.294	0.228	0.241
-682.266	800.000	-0.065	0.274
-681.251	170.797	0.127	-0.182
-680.237	-146.816	-0.314	-0.027
-679.222	-27.917	0.200	0.116
-678.208	180.730	-0.153	0.224
-677.193	149.911	-0.153	-0.208
-676.178	223.309	-0.055	-0.089
-675.164	391.256	-0.085	0.177
-674.149	-118.257	0.372	-0.066
-673.135	-200.000	0.036	0.197
-672.120	800.000	-0.069	-0.273
-671.105	-153.396	-0.262	-0.018
-670.091	-53.804	-0.390	-0.178
-669.076	380.898	0.111	-0.228
-668.062	-61.496	-0.189	-0.079
-667.047	203.982	0.238	0.369
-666.032	-163.347	-0.174	0.008
-665.018	800.000	0.014	-0.054
-664.003	-152.771	0.222	0.016
-662.989	-200.000	-0.001	0.086
-661.974	-200.000	-0.001	0.020
-660.959	-131.369	0.405	0.054
-659.945	340.221	0.124	-0.242
-658.930	368.002	0.134	-0.270
-657.916	-164.512	0.102	-0.005
-656.901	-139.126	0.328	-0.035
-655.886	-200.000	-0.016	0.091
-654.872	-22.158	0.112	-0.068
-653.857	67.807	-0.101	0.103
-652.843	470.567	0.157	-0.353
-651.828	15.982	0.171	-0.135
-650.814	281.842	-0.237	-0.425
-649.799	-200.000	0.030	-0.402
-648.784	-200.000	0.213	0.001
-647.770	40.242	0.173	0.155
-646.755	-10.051	-0.211	-0.140
-645.741	-200.000	-0.012	-0.172
-644.726	669.730	-0.071	0.184
-643.711	800.000	0.081	-0.259
-642.697	-156.716	-0.276	0.017
-641.682	-83.455	0.265	0.085
-640.668	800.000	0.100	-0.279
-639.653	-106.667	0.363	0.081
-638.638	-200.000	-0.048	0.270
-637.624	-200.000	-0.008	-0.165
-636.609	-110.574	-0.271	0.056
-635.595	-47.298	-0.374	0.182
-634.580	631.178	0.140	-0.353
-633.565	4.547	-0.054	-0.039
-632.551	256.531	-0.232	-0.397
-631.536	701.328	-0.031	-0.083
-630.522	7.942	-0.063	0.047
-629.507	-99.892	-0.233	0.058
-628.492	84.230	-0.187	-0.204
-627.478	-130.833	-0.455	-0.061
-626.463	319.817	0.103	0.196
-625.449	-5.218	0.044	0.030
-624.434	269.101	-0.191	-0.335
-623.419	-20.659	-0.109	0.067
-622.405	442.665	0.050	-0.108
-621.390	-148.323	0.092	0.008
-620.376	-147.018	-0.042	0.004
-619.361	60.930	-0.237	0.234
-618.346	182.691	-0.066	-0.097
-617.332	-183.059	0.261	-0.005
-616.317	-200.000	-0.008	-0.036
-615.303	490.607	0.081	0.185
-614.288	142.158	-0.134	-0.178
-613.273	-200.000	-0.011	-0.153
-612.259	800.000	0.014	0.042
-611.244	-200.000	0.001	0.176
-610.230	111.333	0.174	0.210
-609.215	-38.952	-0.195	-0.102
-608.201	-200.000	0.098	-0.465
-607.186	394.990	-0.157	-0.326
-606.171	-1.825	0.255	-0.179
-605.157	101.516	-0.152	0.176
-604.142	-200.000	-0.010	-0.223
-603.128	-200.000	-0.006	-0.404
-602.113	-200.000	-0.047	-0.219
-601.098	81.837	0.187	-0.202
-600.084	-4.365	-0.152	-0.105
-599.069	409.097	-0.058	0.121
-598.055	-128.433	-0.258	0.037
-597.040	21.477	0.308	-0.249
-596.025	800.000	-0.128	-0.383
-595.011	800.000	0.050	-0.149
-593.996	-71.065	0.393	0.147
-592.982	-200.000	-0.036	-0.198
-591.967	-157.088	-0.304	0.018
-590.952	-89.434	0.360	-0.106
-589.938	179.079	0.031	-0.046
-588.923	172.550	0.123	0.177
-587.909	348.312	-0.127	-0.249
-586.894	-63.672	0.507	-0.207
-585.879	-78.186	0.309	0.106
-584.865	-69.447	-0.175	0.067
-583.850	-32.342	-0.159	0.088
-582.836	87.008	0.208	-0.229
-581.821	-3.080	0.528	-0.367
-580.806	-200.000	0.091	0.419
-579.792	-200.000	-0.007	0.379
-578.777	800.000	0.068	0.251
-577.763	-16.618	0.084	0.053
-576.748	-152.359	0.300	0.022
-575.733	345.072	-0.081	-0.159
-574.719	800.000	-0.026	0.078
-573.704	19.296	-0.136	-0.109
-572.690	-100.907	0.194	-0.047
-571.675	-199.354	-0.097	0.001
-570.661	-45.871	-0.068	0.033
-569.646	389.055	-0.184	0.379
-568.631	800.000	-0.098	-0.309
-567.617	455.662	-0.069	-0.152
-566.602	517.642	-0.084	-0.196
-565.588	-115.076	-0.524	-0.099
-564.573	50.009	-0.041	0.038
-563.558	800.000	-0.019	-0.078
-562.544	-80.420	-0.252	0.084
-561.529	88.154	0.079	-0.087
-560.515	-123.086	-0.182	-0.029
-559.500	63.851	0.116	0.116
-558.485	2.715	-0.127	-0.092
-557.471	368.925	0.113	-0.227
-556.456	-191.289	-0.276	0.003
-555.442	-26.075	0.132	-0.077
-554.427	-187.167	0.239	0.003
-553.412	-58.252	-0.177	-0.077
-552.398	198.324	0.080	-0.122
-551.383	-20.914	0.203	-0.123
-550.369	661.180	-0.072	0.184
-549.354	-113.201	-0.192	-0.038
-548.339	303.048	-0.099	0.182
-547.325	-200.000	0.011	0.090
-546.310	24.715	0.088	0.072
-545.296	-168.321	-0.033	0.001
-544.281	-200.000	0.052	-0.233
-543.266	101.578	-0.180	-0.209
-542.252	-73.691	-0.296	-0.107
-541.237	619.174	-0.092	0.229
-540.223	-79.194	0.185	-0.063
-539.208	-200.000	-0.001	-0.268
-538.193	-200.000	0.037	-0.259
-537.179	-96.817	0.225	-0.059
-536.164	-81.900	-0.252	0.082
-535.150	-200.000	0.007	-0.153
-534.135	-98.860	-0.274	-0.069
-533.121	32.689	-0.148	0.128
-532.106	201.115	-0.028	-0.043
-531.091	-200.000	-0.015	0.108
-530.077	-164.578	0.372	-0.017
-529.062	7.120	-0.195	-0.145
-528.048	605.998	-0.077	0.190
-527.033	120.669	0.274	-0.338
-526.018	-22.895	0.306	0.184
-525.004	-8.592	-0.050	-0.033
-523.989	-62.902	-0.162	-0.067
-522.975	88.007	0.175	0.193
-521.960	-113.572	-0.151	0.029
-520.945	100.435	0.207	0.239
-519.931	403.370	0.110	0.230
-518.916	-200.000	-0.018	-0.105
-517.902	-200.000	-0.030	0.353
-516.887	144.912	0.168	0.224
-515.872	-20.321	0.108	0.066
-514.858	-200.000	0.005	-0.326
-513.843	-63.168	0.261	-0.107
-512.829	-8.064	0.114	0.076
-511.814	523.139	-0.149	-0.349
-510.799	-200.000	0.041	-0.183
-509.785	-111.791	-0.123	0.025
-508.770	-169.664	0.101	0.004
-507.756	525.611	0.088	-0.205
-506.741	800.000	0.036	-0.151
-505.726	-27.437	0.148	0.086
-504.712	-200.000	-0.022	0.160
-503.697	800.000	-0.060	-0.192
-502.683	367.429	0.022	-0.045
-501.668	336.245	-0.110	0.213
-500.653	-105.569	0.126	-0.028
-499.639	50.003	-0.035	0.032
-498.624	-75.108	-0.124	-0.044
-497.610	102.931	0.072	0.083
-496.595	317.387	0.039	-0.073
-495.581	150.689	0.268	0.361
-494.566	-200.000	0.042	-0.271
-493.551	-200.000	-0.040	-0.283
-492.537	73.312	-0.089	0.092
-491.522	800.000	-0.009	0.033
-490.508	-164.537	0.100	0.005
-489.493	-54.331	0.228	0.102
-488.478	313.262	-0.084	0.156
-487.464	-22.993	0.056	-0.033
-486.449	29.839	0.159	-0.134
-485.435	-47.233	-0.297	-0.144
-484.420	203.675	-0.026	-0.040
-483.405	-2.691	0.195	-0.135
-482.391	-96.724	0.136	0.035
-481.376	254.097	-0.303	-0.514
-480.362	800.000	0.051	-0.221
-479.347	-16.345	-0.409	0.257
-478.332	-200.000	-0.051	-0.250
-477.318	-111.976	-0.190	-0.038
-476.303	599.016	0.127	-0.312
-475.289	-144.765	0.131	-0.012
-474.274	-200.000	-0.004	-0.047
-473.259	-200.000	0.018	-0.228
-472.245	49.235	-0.305	-0.284
-471.230	103.453	0.045	-0.053
-470.216	800.000	0.073	-0.216
-469.201	-121.842	0.397	0.065
-468.186	-200.000	0.050	0.249
-467.172	-165.938	0.119	-0.005
-466.157	317.777	-0.112	-0.210
-465.143	642.908	0.070	-0.176
-464.128	89.999	-0.116	0.128
-463.113	-200.000	-0.011	0.402
-462.099	142.237	0.204	0.268
-461.084	68.039	0.068	0.069
-460.070	-107.612	0.056	-0.012
-459.055	43.983	0.261	-0.237
-458.040	800.000	0.087	0.348
-457.026	57.354	-0.117	-0.113
-456.011	324.764	-0.058	-0.110
-454.997	481.820	0.019	-0.042
-453.982	800.000	-0.091	0.369
-452.968	264.154	0.086	0.148
-451.953	18.288	0.224	0.177
-450.938	-200.000	0.083	-0.453
-449.924	97.653	0.290	-0.331
-448.909	-72.553	-0.341	0.125
-447.895	548.276	0.044	0.105
-446.880	309.513	-0.147	0.272
-445.865	507.852	-0.148	-0.339
-444.851	-25.502	-0.320	-0.187
-443.836	-200.000	-0.043	0.196
-442.822	-80.604	-0.145	-0.048
-441.807	54.087	0.087	-0.083
-440.792	800.000	-0.074	0.238
-439.778	-153.801	-0.441	-0.030
-438.763	-144.734	0.264	0.024
-437.749	-200.000	-0.044	-0.197
-436.734	-200.000	-0.069	0.319
-435.719	54.374	-0.231	0.220
-434.705	59.893	-0.238	-0.233
-433.690	-200.000	0.003	0.352
-432.676	-200.000	-0.010	0.066
-431.661	67.479	0.083	0.084
-430.646	-60.822	-0.369	0.155
-429.632	-8.424	0.073	0.048
-428.617	-124.390	-0.162	0.025
-427.603	800.000	-0.041	0.118
-426.588	245.739	-0.142	0.237
-425.573	411.117	-0.100	0.209
-424.559	121.007	0.175	0.215
-423.544	4.235	-0.029	-0.021
-422.530	-72.152	-0.326	-0.120
-421.515	34.533	0.080	0.069
-420.500	800.000	-0.019	0.067
-419.486	157.263	0.066	0.090
-418.471	34.570	-0.111	0.096
-417.457	-52.064	0.101	-0.047
-416.442	81.486	-0.130	-0.140
-415.428	76.496	0.043	-0.045
-414.413	-167.950	-0.275	0.011
-413.398	-99.170	-0.531	0.133
-412.384	-200.000	-0.068	-0.319
-411.369	-78.819	-0.234	0.079
-410.355	-112.264	-0.256	-0.051
-409.340	198.010	-0.150	0.227
-408.325	-99.090	0.322	0.081
-407.311	800.000	-0.034	0.143
-406.296	-87.869	0.262	-0.078
-405.282	422.863	-0.114	-0.242
-404.267	30.100	0.430	-0.363
-403.252	81.983	0.137	-0.147
-402.238	-107.954	-0.109	-0.023
-401.223	59.096	-0.095	0.092
-400.209	-130.392	-0.046	-0.006
-399.194	800.000	-0.013	0.040
-398.179	-56.497	0.035	0.015
-397.165	-106.924	0.160	0.035
-396.150	159.182	0.206	0.283
-395.136	58.749	-0.186	-0.181
-394.121	329.008	-0.139	0.264
-393.106	-72.472	0.153	0.056
-392.092	-90.559	0.371	-0.106
-391.077	-200.000	-0.031	-0.157
-390.063	333.567	-0.084	-0.161
-389.048	-200.000	-0.012	-0.122
-388.033	-105.117	-0.285	-0.064
-387.019	102.269	-0.155	0.179
-386.004	75.349	-0.147	0.153
-384.990	-110.561	-0.270	-0.055
-383.975	87.140	-0.089	0.097
-382.960	-200.000	-0.009	0.294
-381.946	-200.000	-0.051	-0.317
-380.931	-200.000	-0.080	0.434
-379.917	-200.000	0.022	0.192
-378.902	-60.204	-0.249	-0.105
-377.888	-122.002	0.074	-0.012
-376.873	209.643	0.130	0.202
-375.858	-155.802	-0.335	-0.021
-374.844	-1.060	0.113	0.079
-373.829	69.969	0.152	0.154
-372.815	-57.741	0.093	0.040
-371.800	43.012	-0.161	0.145
-370.785	800.000	0.132	0.462
-369.771	8.702	-0.090	0.067
-368.756	392.595	0.040	0.083
-367.742	-10.085	0.157	-0.103
-366.727	800.000	-0.071	0.201
-365.712	242.586	0.178	-0.294
-364.698	-93.434	0.285	-0.078
-363.683	14.242	-0.155	0.119
-362.669	-106.438	-0.169	0.037
-361.654	-121.459	0.251	-0.041
-360.639	-112.545	-0.322	0.063
-359.625	-200.000	0.010	-0.043
-358.610	199.236	0.028	-0.042
-357.596	103.166	-0.101	-0.116
-356.581	192.762	0.092	-0.137
-355.566	390.701	0.124	-0.255
-354.552	184.014	0.070	-0.103
-353.537	-200.000	0.039	0.219
-352.523	173.487	-0.198	-0.282
-351.508	41.882	0.131	-0.117
-350.493	-119.051	0.057	-0.010
-349.479	0.044	0.086	-0.061
-348.464	-25.154	-0.197	-0.115
-347.450	-49.400	-0.057	-0.027
-346.435	-53.033	0.160	0.073
-345.420	-200.000	0.007	0.166
-344.406	-200.000	-0.002	0.374
-343.391	-6.469	-0.309	0.208
-342.377	-31.554	-0.164	0.091
-341.362	521.555	0.118	-0.273
-340.348	800.000	0.104	0.364
-339.333	-131.396	0.224	0.029
-338.318	-154.951	0.141	-0.009
-337.304	124.234	-0.079	0.098
-336.289	800.000	-0.022	-0.064
-335.275	11.005	-0.183	0.138
-334.260	550.127	-0.071	-0.168
-333.245	-200.000	-0.005	0.383
-332.231	51.783	-0.116	0.109
-331.216	-200.000	-0.022	0.191
-330.202	-149.546	0.064	0.005
-329.187	800.000	0.048	-0.193
-328.172	-26.981	-0.117	-0.067
-327.158	-135.966	-0.206	0.024
-326.143	-171.640	-0.208	-0.007
-325.129	800.000	-0.114	-0.388
-324.114	581.352	0.187	-0.452
-323.099	173.520	-0.159	0.226
-322.085	71.589	-0.080	-0.082
-321.070	-96.217	0.023	-0.006
-320.056	34.613	-0.169	0.146
-319.041	200.297	-0.103	0.157
-318.026	77.055	0.110	0.115
-317.012	-200.000	-0.017	-0.189
-315.997	202.812	0.193	0.294
-314.983	40.689	0.156	-0.139
-313.968	57.454	-0.148	0.142
-312.953	-11.006	-0.188	0.122
-311.939	-50.652	0.159	0.074
-310.924	800.000	0.032	-0.117
-309.910	-200.000	0.012	0.055
-308.895	-200.000	-0.013	-0.385
-307.880	-200.000	0.013	-0.117
-306.866	-135.700	0.043	0.005
-305.851	-165.392	-0.325	-0.014
-304.837	28.564	0.147	0.122
-303.822	-58.121	0.256	0.110
-302.807	-58.169	0.186	-0.080
-301.793	92.370	0.220	0.245
-300.778	-39.668	-0.289	-0.149
-299.764	124.602	0.168	0.208
-298.749	-200.000	-0.023	0.113
-297.735	136.571	-0.075	-0.096
-296.720	38.156	-0.172	0.150
-295.705	-200.000	0.022	0.159
-294.691	-104.035	0.238	-0.055
-293.676	-95.690	-0.186	0.049
-292.662	-124.134	-0.415	0.064
-291.647	-98.807	-0.226	0.056
-290.632	800.000	0.035	0.143
-289.618	102.118	0.106	-0.122
-288.603	-62.347	0.163	-0.067
-287.589	139.055	-0.148	-0.191
-286.574	331.252	-0.108	-0.205
-285.559	800.000	0.017	-0.051
-284.545	-92.174	-0.320	-0.089
-283.530	94.520	0.139	0.156
-282.516	-200.000	0.055	-0.248
-281.501	297.318	0.181	0.328
-280.486	800.000	0.042	0.175
-279.472	166.896	0.160	0.223
-278.457	-111.192	-0.166	-0.033
-277.443	189.038	0.167	-0.246
-276.428	-26.305	-0.254	0.147
-275.413	20.023	0.109	-0.087
-274.399	-132.104	-0.157	-0.020
-273.384	552.064	0.095	-0.224
-272.370	380.754	-0.101	0.205
-271.355	17.601	0.087	0.068
-270.340	-175.149	0.039	-0.001
-269.326	-151.767	-0.223	0.016
-268.311	800.000	0.108	-0.320
-267.297	-78.732	0.230	-0.077
-266.282	800.000	0.030	-0.083
-265.267	70.680	-0.107	0.109
-264.253	269.619	0.160	0.276
-263.238	-200.000	0.094	-0.477
-262.224	-15.059	0.060	0.038
-261.209	-200.000	0.048	-0.505
-260.195	800.000	-0.046	0.174
-259.180	-93.717	0.223	0.060
-258.165	800.000	-0.049	0.156
-257.151	-150.820	0.357	0.027
-256.136	-200.000	-0.061	-0.374
-255.122	-114.142	-0.257	0.049
-254.107	-68.246	0.232	-0.089
-253.092	130.172	0.176	0.222
-252.078	12.328	0.152	0.115
-251.063	161.230	0.182	-0.250
-250.049	-52.379	0.242	0.110
-249.034	35.632	0.075	-0.065
-248.019	-32.641	-0.188	-0.103
-247.005	402.947	-0.124	0.257
-245.990	225.057	-0.126	-0.201
-244.976	73.991	-0.062	-0.064
-243.961	-200.000	-0.002	-0.083
-242.946	-55.551	0.150	0.066
-241.932	1.629	0.249	0.176
-240.917	-200.000	0.013	0.148
-239.903	297.488	0.156	0.282
-238.888	-88.896	0.448	0.131
-237.873	623.570	0.078	-0.193
-236.859	-83.650	0.064	0.020
-235.844	-30.544	0.343	0.191
-234.830	1.338	0.150	0.106
-233.815	-91.960	-0.106	0.030
-232.800	97.352	-0.016	-0.018
-231.786	196.767	0.062	0.092
-230.771	-38.726	0.253	0.131
-229.757	70.010	-0.169	-0.171
-228.742	-200.000	0.002	-0.063
-227.727	800.000	0.021	-0.089
-226.713	800.000	-0.026	-0.089
-225.698	-105.620	-0.192	0.043
-224.684	-170.951	-0.202	-0.007
-223.669	-91.931	0.303	0.084
-222.655	-169.722	0.120	-0.004
-221.640	132.560	-0.201	0.254
-220.625	389.333	-0.158	-0.321
-219.611	-200.000	0.002	-0.285
-218.596	51.881	0.055	0.051
-217.582	-200.000	-0.013	-0.110
-216.567	500.347	0.215	0.487
-215.552	293.991	0.043	-0.077
-214.538	-181.297	-0.264	0.005
-213.523	0.153	0.176	-0.123
-212.509	-200.000	0.066	0.286
-211.494	-55.631	0.170	0.075
-210.479	229.203	-0.232	-0.372
-209.465	-148.251	-0.426	0.034
-208.450	220.473	-0.126	0.198
-207.436	96.995	0.061	0.069
-206.421	239.400	0.075	0.123
-205.406	106.336	0.106	-0.124
-204.392	16.055	-0.284	0.219
-203.377	-92.811	-0.391	0.107
-202.363	10.938	-0.120	-0.090
-201.348	171.490	0.267	0.376
-200.333	-200.000	0.050	0.235
-199.319	800.000	0.079	0.283
-198.304	-200.000	0.033	0.283
-197.290	18.221	-0.102	0.080
-196.275	478.768	0.128	0.284
-195.260	-152.716	0.070	0.005
-194.246	71.781	0.278	0.284
-193.231	164.546	0.046	0.064
-192.217	232.376	-0.012	-0.020
-191.202	800.000	0.044	-0.134
-190.187	-88.724	0.310	0.090
-189.173	-200.000	0.019	0.348
-188.158	38.351	-0.277	-0.242
-187.144	-122.622	-0.331	0.053
-186.129	-1.098	0.155	-0.108
-185.114	386.523	-0.118	-0.238
-184.100	-37.420	0.192	-0.101
-183.085	-77.175	-0.131	-0.045
-182.071	-136.064	-0.113	0.013
-181.056	-21.785	-0.092	0.055
-180.042	-131.819	-0.260	-0.033
-179.027	52.277	0.065	0.061
-178.012	-106.825	0.298	-0.065
-176.998	-200.000	-0.008	0.345
-175.983	-72.092	-0.272	0.099
-174.969	-200.000	-0.009	-0.066
-173.954	-50.836	0.117	0.054
-172.939	98.677	-0.071	0.080
-171.925	67.066	0.332	-0.332
-170.910	-48.262	0.330	-0.156
-169.896	-111.439	-0.205	-0.041
-168.881	-32.519	-0.093	-0.051
-167.866	100.013	0.034	-0.039
-166.852	-43.250	0.501	0.249
-165.837	112.495	-0.028	-0.033
-164.823	49.317	0.122	0.112
-163.808	2.135	0.059	-0.042
-162.793	45.665	0.146	-0.132
-161.779	800.000	0.105	0.302
-160.764	-51.132	0.047	0.021
-159.750	-89.877	-0.322	0.092
-158.735	-73.544	0.381	0.136
-157.720	-133.535	-0.085	0.010
-156.706	-132.776	0.186	-0.023
-155.691	296.784	-0.128	0.231
-154.677	731.619	0.127	0.334
-153.662	38.505	0.157	0.137
-152.647	26.106	0.122	0.099
-151.633	800.000	-0.029	-0.088
-150.618	-145.735	-0.138	-0.012
-149.604	185.696	0.063	0.092
-148.589	639.984	0.018	0.044
-147.574	-135.010	-0.331	0.039
-146.560	-42.231	0.231	-0.115
-145.545	-9.529	0.022	-0.014
-144.531	-63.848	-0.457	0.183
-143.516	141.851	-0.057	-0.074
-142.502	9.147	0.059	-0.044
-141.487	-48.080	0.252	0.119
-140.472	-200.000	0.013	0.210
-139.458	267.807	0.085	-0.145
-138.443	-118.711	-0.113	0.019
-137.429	-66.200	0.126	0.049
-136.414	-200.000	-0.001	-0.134
-135.399	800.000	-0.023	0.067
-134.385	23.742	0.152	0.122
-133.370	-23.107	0.285	-0.168
-132.356	96.831	0.180	-0.201
-131.341	-134.575	0.100	0.012
-130.326	134.760	0.180	0.229
-129.312	-200.000	0.069	0.351
-128.297	-200.000	0.018	0.433
-127.283	-200.000	-0.025	0.136
-126.268	800.000	-0.143	0.390
-125.253	214.911	-0.076	0.118
-124.239	12.144	0.033	0.025
-123.224	48.549	-0.038	0.035
-122.210	-8.689	-0.085	0.056
-121.195	221.087	0.126	-0.197
