DTS Sentinel unit serial number:	SN413079Multiplexer serial number:	ORYXHardware model number:	OX4-SRSoftware version number:	ORYX F/W v4.00 Oryx Data Collector v3.7.2.0data status	okinstallation	princeton_trtdifferential loss correction	single-endedforward channel	channel 1reverse channel	N/Adate	2019/09/14time	17:34:35forward acquisition time	60.00reverse acquisition time	0.00gamma	496.2192k internal	0.2297k external	0.2297temperature offset calibration	1.0050default loss term (dB/km)	0.3790temperature slope calibration	1.0000multiplexer offset coefficient	1.0000multiplexer slope coefficient	1.0000fibre end	0.00T internal ref (°C)	37.62T ext. ref 1 (°C)	5.04T ext. ref 2 (°C)	32.13length (m)	temperature (°C)	Stokes	anti-Stokes-747.200	-58.777	0.298	0.132
-746.185	36.057	-0.365	0.328
-745.171	-130.522	-0.064	-0.009
-744.156	-200.000	-0.034	0.202
-743.142	2.346	0.108	0.080
-742.127	-143.260	-0.286	-0.028
-741.112	-113.661	0.050	-0.010
-740.098	-3.850	-0.398	0.282
-739.083	-51.359	0.185	-0.088
-738.069	-200.000	-0.054	0.491
-737.054	800.000	-0.018	-0.078
-736.039	294.798	-0.140	-0.262
-735.025	-83.644	0.092	-0.030
-734.010	623.884	-0.079	-0.202
-732.996	282.536	-0.246	-0.450
-731.981	-38.054	-0.118	-0.064
-730.966	128.134	-0.175	-0.228
-729.952	-70.425	-0.260	0.101
-728.937	-151.098	-0.378	-0.029
-727.923	46.616	-0.050	-0.047
-726.908	800.000	-0.111	-0.399
-725.894	-53.830	0.029	-0.014
-724.879	-200.000	0.053	-0.345
-723.864	-85.315	0.245	-0.078
-722.850	-200.000	-0.047	-0.286
-721.835	307.986	-0.129	0.246
-720.821	800.000	0.048	0.196
-719.806	739.934	0.067	-0.183
-718.791	717.330	-0.063	0.170
-717.777	-200.000	-0.004	-0.036
-716.762	-137.539	0.177	-0.020
-715.748	199.803	0.038	-0.059
-714.733	-200.000	-0.020	-0.147
-713.718	800.000	-0.083	-0.298
-712.704	-129.568	-0.151	0.021
-711.689	266.356	-0.115	0.206
-710.675	-37.570	0.356	-0.194
-709.660	202.458	0.108	-0.170
-708.645	-12.528	-0.128	0.085
-707.631	-48.793	-0.324	-0.158
-706.616	-88.285	-0.077	-0.024
-705.602	-44.178	-0.075	0.038
-704.587	800.000	-0.035	0.157
-703.572	-8.915	-0.411	-0.281
-702.558	-200.000	0.011	-0.086
-701.543	-82.405	0.483	0.160
-700.529	-200.000	0.044	-0.503
-699.514	-200.000	0.036	0.265
-698.499	63.403	-0.104	-0.106
-697.485	-113.568	-0.083	0.016
-696.470	59.683	0.038	-0.038
-695.456	296.840	0.155	0.289
-694.441	55.701	0.163	-0.161
-693.426	-121.096	-0.327	-0.056
-692.412	216.538	0.079	0.128
-691.397	-8.638	-0.194	0.133
-690.383	-3.636	-0.351	-0.249
-689.368	61.912	0.174	-0.177
-688.354	49.864	0.093	-0.089
-687.339	371.236	0.042	-0.087
-686.324	-110.035	-0.125	0.027
-685.310	583.452	-0.095	-0.238
-684.295	251.172	0.154	-0.267
-683.281	67.338	-0.127	0.133
-682.266	-200.000	0.051	-0.347
-681.251	33.722	-0.083	-0.073
-680.237	656.816	-0.097	-0.255
-679.222	4.671	0.069	-0.052
-678.208	249.992	-0.012	-0.020
-677.193	800.000	0.087	-0.277
-676.178	-111.289	-0.210	-0.044
-675.164	800.000	-0.065	0.184
-674.149	-200.000	-0.013	0.375
-673.135	49.886	-0.175	-0.168
-672.120	-200.000	0.007	-0.244
-671.105	487.837	0.124	-0.289
-670.091	-200.000	-0.016	-0.371
-669.076	-200.000	-0.046	0.362
-668.062	484.055	-0.129	-0.298
-667.047	-73.758	0.168	-0.062
-666.032	-60.303	-0.300	0.130
-665.018	56.271	0.113	0.112
-664.003	-84.051	0.025	0.008
-662.989	-120.632	-0.062	-0.011
-661.974	-200.000	0.028	-0.171
-660.959	-200.000	-0.031	0.152
-659.945	9.438	-0.163	-0.126
-658.930	-135.137	-0.153	-0.019
-657.916	326.392	-0.115	0.224
-656.901	-200.000	0.086	-0.450
-655.886	-55.561	0.160	-0.073
-654.872	-54.212	-0.105	-0.049
-653.857	-200.000	0.074	-0.372
-652.843	37.133	-0.096	0.086
-651.828	57.904	-0.303	-0.302
-650.814	247.008	0.104	0.179
-649.799	462.001	-0.153	-0.348
-648.784	705.689	-0.158	-0.424
-647.770	38.891	-0.191	0.174
-646.755	283.416	-0.041	0.074
-645.741	800.000	-0.066	-0.289
-644.726	37.048	0.213	-0.191
-643.711	52.025	0.166	-0.160
-642.697	-60.514	0.146	-0.063
-641.682	-0.535	0.180	0.130
-640.668	800.000	-0.047	0.181
-639.653	-109.178	-0.219	0.047
-638.638	-200.000	-0.043	0.000
-637.624	227.369	-0.019	0.031
-636.609	215.604	-0.174	0.282
-635.595	10.199	0.320	0.247
-634.580	36.662	-0.155	-0.140
-633.565	383.133	0.109	0.227
-632.551	296.253	-0.057	0.106
-631.536	87.676	0.079	0.089
-630.522	-200.000	-0.025	0.270
-629.507	800.000	-0.050	0.178
-628.492	426.062	-0.148	0.324
-627.478	-120.981	-0.211	0.036
-626.463	-200.000	-0.000	-0.049
-625.449	-15.327	0.154	0.100
-624.434	-110.114	0.275	0.058
-623.419	-5.408	0.153	-0.107
-622.405	-125.927	-0.109	0.017
-621.390	-69.833	0.175	0.068
-620.376	800.000	0.028	-0.103
-619.361	-161.005	0.414	-0.022
-618.346	19.678	0.137	0.112
-617.332	109.326	0.066	-0.080
-616.317	-84.410	0.031	-0.010
-615.303	1.702	0.241	-0.177
-614.288	-200.000	0.090	-0.567
-613.273	-32.406	0.206	-0.117
-612.259	113.176	0.277	0.341
-611.244	-32.986	0.142	-0.080
-610.230	77.851	0.138	0.149
-609.215	-104.282	0.056	0.013
-608.201	52.592	-0.203	-0.197
-607.186	141.500	0.075	0.101
-606.171	43.616	-0.192	-0.179
-605.157	43.176	0.307	0.285
-604.142	-112.184	0.224	-0.046
-603.128	435.127	-0.099	-0.218
-602.113	-4.254	-0.221	-0.155
-601.098	239.680	-0.171	-0.288
-600.084	450.289	0.115	-0.258
-599.069	-74.193	0.021	-0.008
-598.055	-4.427	-0.214	0.150
-597.040	-40.812	-0.329	0.173
-596.025	-78.572	0.321	-0.111
-595.011	635.575	-0.057	0.146
-593.996	35.891	-0.317	-0.284
-592.982	-100.362	0.201	0.051
-591.967	-97.538	0.149	-0.039
-590.952	96.618	-0.212	-0.246
-589.938	-9.932	-0.218	0.147
-588.923	162.539	0.177	-0.252
-587.909	39.476	-0.177	0.161
-586.894	800.000	-0.100	0.287
-585.879	217.996	0.115	0.186
-584.865	305.953	-0.155	-0.292
-583.850	800.000	-0.074	0.238
-582.836	-178.012	0.133	-0.003
-581.821	-10.779	-0.351	-0.235
-580.806	-200.000	0.053	0.311
-579.792	-122.895	0.167	-0.027
-578.777	343.665	-0.213	-0.423
-577.763	-142.127	-0.063	0.006
-576.748	-200.000	-0.019	0.126
-575.733	-145.681	0.062	0.006
-574.719	-29.789	-0.047	-0.027
-573.704	-77.163	-0.243	0.086
-572.690	80.024	-0.163	-0.178
-571.675	-136.957	-0.129	0.015
-570.661	-121.348	-0.249	0.042
-569.646	-125.322	0.135	0.021
-568.631	126.847	0.024	0.031
-567.617	50.242	-0.254	-0.243
-566.602	-117.074	-0.173	-0.032
-565.588	23.137	0.038	-0.032
-564.573	-72.622	0.284	0.106
-563.558	150.031	-0.102	-0.140
-562.544	-108.975	-0.239	0.052
-561.529	-138.062	0.065	-0.007
-560.515	-29.763	-0.227	0.131
-559.500	-54.098	-0.249	-0.115
-558.485	4.245	-0.069	0.052
-557.471	800.000	0.083	-0.239
-556.456	-195.236	-0.183	0.001
-555.442	-154.736	0.136	0.009
-554.427	439.953	0.055	-0.121
-553.412	83.429	-0.079	0.088
-552.398	735.172	-0.072	-0.197
-551.383	-52.302	-0.194	-0.091
-550.369	-90.657	0.118	0.035
-549.354	-146.239	0.197	-0.018
-548.339	-145.428	0.350	0.032
-547.325	800.000	0.030	0.124
-546.310	29.437	-0.263	0.226
-545.296	800.000	0.101	-0.289
-544.281	800.000	-0.050	0.140
-543.266	-76.545	-0.294	-0.105
-542.252	74.384	-0.380	-0.405
-541.237	-6.054	0.302	0.209
-540.223	157.971	-0.218	0.307
-539.208	5.364	-0.167	-0.125
-538.193	-94.054	0.031	0.009
-537.179	-96.966	0.182	0.048
-536.164	232.456	0.130	0.216
-535.150	102.136	-0.186	0.220
-534.135	-69.681	0.106	-0.041
-533.121	-200.000	-0.003	-0.118
-532.106	-12.852	0.143	-0.094
-531.091	121.437	0.026	-0.033
-530.077	59.815	-0.180	-0.180
-529.062	492.849	0.056	0.129
-528.048	-24.953	0.178	-0.107
-527.033	85.048	0.148	-0.164
-526.018	13.851	-0.203	-0.160
-525.004	703.139	0.162	-0.432
-523.989	-200.000	-0.049	0.234
-522.975	473.679	-0.127	0.290
-521.960	-200.000	-0.017	-0.128
-520.945	800.000	0.089	0.280
-519.931	32.191	-0.136	-0.119
-518.916	-200.000	0.008	-0.084
-517.902	71.065	-0.057	-0.059
-516.887	-200.000	0.015	-0.177
-515.872	117.859	0.089	0.111
-514.858	113.119	-0.219	-0.269
-513.843	76.432	0.216	0.231
-512.829	74.808	-0.179	0.191
-511.814	79.313	-0.247	0.268
-510.799	800.000	0.112	-0.486
-509.785	36.761	-0.180	-0.161
-508.770	-113.608	-0.231	-0.046
-507.756	-200.000	-0.018	-0.126
-506.741	-200.000	-0.004	-0.090
-505.726	-47.916	0.168	0.082
-504.712	800.000	0.080	0.325
-503.697	582.129	-0.118	0.293
-502.683	-140.705	0.241	-0.025
-501.668	-135.369	-0.256	-0.031
-500.653	-51.856	0.255	0.120
-499.639	-160.251	0.295	-0.016
-498.624	-200.000	0.072	0.355
-497.610	-43.151	0.246	-0.126
-496.595	186.812	-0.096	-0.144
-495.581	-200.000	-0.005	0.562
-494.566	237.519	-0.057	0.096
-493.551	-200.000	-0.082	0.391
-492.537	167.989	0.104	0.149
-491.522	37.313	0.111	-0.099
-490.508	-88.282	-0.108	-0.033
-489.493	149.395	-0.106	-0.145
-488.478	-76.935	-0.187	0.066
-487.464	-66.629	0.181	0.073
-486.449	277.307	0.016	0.028
-485.435	276.189	0.085	0.153
-484.420	23.313	-0.110	0.091
-483.405	-41.383	0.443	-0.231
-482.391	-52.550	-0.371	-0.173
-481.376	800.000	0.073	0.217
-480.362	-119.384	-0.194	0.034
-479.347	-77.091	0.015	-0.005
-478.332	245.037	-0.070	-0.120
-477.318	-26.440	0.021	0.013
-476.303	641.729	0.087	0.224
-475.289	-90.515	-0.159	-0.047
-474.274	71.730	-0.095	-0.100
-473.259	122.414	0.209	-0.264
-472.245	-25.850	-0.086	0.051
-471.230	209.479	-0.068	-0.108
-470.216	209.032	-0.100	0.159
-469.201	-145.007	-0.030	0.003
-468.186	75.163	0.285	-0.304
-467.172	357.158	-0.153	-0.307
-466.157	-35.989	-0.210	-0.114
-465.143	196.370	-0.106	-0.163
-464.128	68.526	-0.058	0.060
-463.113	301.178	0.055	-0.102
-462.099	-82.001	-0.290	-0.096
-461.084	313.220	0.095	-0.180
-460.070	6.507	0.271	-0.203
-459.055	800.000	0.128	0.369
-458.040	208.662	0.073	-0.116
-457.026	62.050	-0.120	0.121
-456.011	-88.986	0.351	-0.105
-454.997	165.738	0.121	-0.173
-453.982	18.481	0.117	0.095
-452.968	96.010	-0.234	-0.269
-451.953	800.000	-0.091	-0.348
-450.938	800.000	0.029	-0.081
-449.924	800.000	-0.106	0.311
-448.909	2.758	0.233	-0.170
-447.895	371.613	-0.167	0.343
-446.880	395.946	0.113	0.237
-445.865	-15.986	-0.068	0.043
-444.851	-55.745	-0.077	-0.035
-443.836	59.319	0.023	-0.023
-442.822	-102.401	0.275	0.067
-441.807	800.000	0.044	-0.139
-440.792	800.000	-0.007	0.024
-439.778	109.409	-0.151	0.182
-438.763	-117.118	-0.273	0.050
-437.749	-15.127	0.279	0.181
-436.734	-136.707	-0.396	0.046
-435.719	-83.421	0.142	0.046
-434.705	43.320	-0.186	0.172
-433.690	-101.811	-0.065	-0.016
-432.676	-200.000	-0.005	0.207
-431.661	-81.906	-0.202	-0.067
-430.646	-200.000	0.001	0.111
-429.632	221.455	-0.054	0.088
-428.617	669.789	0.139	-0.363
-427.603	-64.696	0.234	0.096
-426.588	148.165	-0.101	-0.137
-425.573	19.343	-0.352	-0.285
-424.559	182.600	-0.086	-0.128
-423.544	800.000	-0.042	-0.128
-422.530	-48.516	-0.246	0.120
-421.515	102.110	-0.215	0.254
-420.500	800.000	0.025	0.095
-419.486	7.087	0.035	0.026
-418.471	-141.204	0.057	-0.006
-417.457	-83.268	0.180	0.058
-416.442	-200.000	-0.035	0.222
-415.428	6.712	-0.125	0.094
-414.413	-67.421	-0.226	-0.089
-413.398	-200.000	0.034	-0.174
-412.384	180.251	0.168	0.248
-411.369	-158.753	0.177	0.010
-410.355	35.835	-0.224	-0.198
-409.340	128.011	0.138	-0.178
-408.325	-126.378	0.011	-0.002
-407.311	-200.000	0.067	0.343
-406.296	19.381	0.172	-0.139
-405.282	-122.203	-0.240	-0.040
-404.267	166.131	0.214	-0.305
-403.252	-181.250	0.195	-0.004
-402.238	624.332	0.121	0.307
-401.223	-37.564	0.114	-0.061
-400.209	-179.942	0.059	-0.001
-399.194	800.000	-0.065	0.212
-398.179	196.878	-0.045	-0.068
-397.165	284.974	-0.110	0.200
-396.150	-141.004	0.455	-0.047
-395.136	-88.074	0.173	-0.052
-394.121	86.349	0.100	-0.111
-393.106	-200.000	-0.028	0.267
-392.092	207.022	-0.062	-0.097
-391.077	-200.000	-0.005	-0.065
-390.063	-200.000	-0.002	0.220
-389.048	416.151	0.035	-0.075
-388.033	142.420	0.056	-0.075
-387.019	101.940	-0.105	-0.124
-386.004	-9.463	-0.248	-0.167
-384.990	-64.798	0.254	-0.103
-383.975	-112.482	-0.283	0.057
-382.960	692.028	0.048	-0.126
-381.946	251.397	-0.073	-0.125
-380.931	51.255	0.040	-0.038
-379.917	310.370	0.120	0.226
-378.902	-160.427	0.238	0.013
-377.888	-119.936	0.103	-0.018
-376.873	17.981	0.288	0.231
-375.858	6.376	-0.088	-0.066
-374.844	340.855	0.199	-0.391
-373.829	-200.000	0.014	0.162
-372.815	-38.524	0.145	0.077
-371.800	-61.668	0.253	-0.107
-370.785	-200.000	-0.009	-0.145
-369.771	-4.076	-0.127	-0.089
-368.756	-30.358	0.243	0.139
-367.742	24.251	0.267	-0.222
-366.727	-74.415	0.214	-0.078
-365.712	-200.000	-0.003	-0.327
-364.698	79.732	0.138	0.149
-363.683	319.427	0.087	-0.166
-362.669	266.289	0.079	-0.140
-361.654	195.169	0.063	-0.096
-360.639	-200.000	0.003	-0.162
-359.625	120.644	0.162	0.202
-358.610	800.000	-0.114	0.331
-357.596	12.542	0.238	0.185
-356.581	-131.450	0.304	0.040
-355.566	391.513	0.167	-0.349
-354.552	800.000	0.040	0.113
-353.537	161.870	-0.196	-0.277
-352.523	-105.613	-0.279	0.063
-351.508	800.000	-0.081	0.276
-350.493	-200.000	-0.027	-0.137
-349.479	29.570	-0.247	0.211
-348.464	800.000	0.023	-0.063
-347.450	-25.330	-0.056	-0.033
-346.435	-200.000	0.029	0.271
-345.420	61.247	-0.316	-0.316
-344.406	-185.769	0.140	-0.002
-343.391	-11.457	-0.267	0.177
-342.377	-200.000	-0.017	-0.204
-341.362	-123.801	-0.368	-0.058
-340.348	38.558	-0.165	0.148
-339.333	-152.081	-0.385	-0.028
-338.318	-50.061	0.139	0.066
-337.304	-136.667	0.109	-0.013
-336.289	-126.313	-0.261	-0.039
-335.275	800.000	0.095	-0.337
-334.260	10.321	-0.175	-0.134
-333.245	-200.000	-0.052	-0.274
-332.231	607.574	-0.032	-0.081
-331.216	18.540	0.073	-0.059
-330.202	-65.105	-0.100	-0.041
-329.187	93.426	-0.037	0.043
-328.172	49.147	-0.030	0.028
-327.158	297.217	0.063	-0.116
-326.143	-11.624	-0.087	0.057
-325.129	64.165	0.019	-0.020
-324.114	-156.751	-0.459	0.028
-323.099	-179.299	0.256	0.006
-322.085	165.966	0.145	-0.206
-321.070	-40.547	-0.279	0.145
-320.056	-65.433	0.327	-0.132
-319.041	-200.000	0.011	0.064
-318.026	322.754	0.130	0.248
-317.012	800.000	-0.066	0.185
-315.997	-99.282	0.106	0.027
-314.983	709.807	0.046	0.123
-313.968	58.978	0.100	0.098
-312.953	-103.936	-0.395	-0.093
-311.939	-145.867	-0.126	0.011
-310.924	-17.411	0.247	0.156
-309.910	178.740	0.106	-0.156
-308.895	-63.828	-0.249	0.102
-307.880	583.299	-0.090	0.221
-306.866	-194.413	-0.177	-0.001
-305.851	5.686	0.057	0.042
-304.837	-115.950	0.068	0.013
-303.822	-81.234	-0.137	-0.045
-302.807	60.964	-0.196	-0.196
-301.793	-200.000	0.020	-0.281
-300.778	-200.000	0.030	0.167
-299.764	-26.007	-0.193	0.114
-298.749	-200.000	-0.008	-0.054
-297.735	296.061	0.079	-0.146
-296.720	141.213	0.059	-0.078
-295.705	123.177	-0.012	-0.015
-294.691	421.638	0.111	-0.239
-293.676	800.000	-0.020	0.074
-292.662	179.008	0.135	0.198
-291.647	268.680	-0.113	-0.199
-290.632	300.929	0.193	-0.358
-289.618	-74.299	0.143	-0.052
-288.603	-69.572	-0.220	0.084
-287.589	-71.100	0.091	0.034
-286.574	-4.302	-0.030	0.021
-285.559	-200.000	0.089	-0.415
-284.545	257.358	-0.157	0.270
-283.530	-123.297	0.216	-0.035
-282.516	226.929	0.129	0.210
-281.501	-125.273	0.378	-0.058
-280.486	-42.120	0.210	0.108
-279.472	63.570	-0.087	0.088
-278.457	-70.547	-0.306	0.116
-277.443	419.080	-0.041	0.088
-276.428	800.000	0.050	-0.144
-275.413	140.189	0.077	-0.102
-274.399	22.615	-0.169	-0.139
-273.384	48.695	-0.203	0.191
-272.370	129.058	0.126	0.161
-271.355	800.000	-0.082	-0.238
-270.340	508.125	-0.111	-0.259
-269.326	-48.013	0.164	-0.079
-268.311	137.797	0.098	0.129
-267.297	-14.387	-0.115	-0.074
-266.282	-65.867	-0.182	-0.073
-265.267	-91.155	-0.232	-0.067
-264.253	226.863	-0.192	-0.312
-263.238	710.451	0.043	-0.114
-262.224	173.591	-0.128	0.185
-261.209	-77.861	-0.237	0.082
-260.195	18.589	0.219	-0.175
-259.180	-52.962	-0.100	-0.046
-258.165	58.673	0.016	0.016
-257.151	800.000	0.037	0.122
-256.136	-54.685	-0.340	-0.154
-255.122	800.000	-0.097	-0.416
-254.107	-120.937	0.099	-0.017
-253.092	572.910	0.136	0.333
-252.078	535.645	0.145	0.346
-251.063	-50.606	0.132	-0.062
-250.049	-62.839	-0.376	0.156
-249.034	118.387	0.097	0.120
-248.019	0.927	0.198	-0.142
-247.005	643.943	-0.181	0.461
-245.990	5.107	-0.233	0.172
-244.976	-52.909	0.362	-0.167
-243.961	311.436	0.121	-0.227
-242.946	-66.407	0.401	-0.160
-241.932	-95.188	0.291	-0.078
-240.917	-200.000	-0.008	-0.037
-239.903	176.291	-0.039	0.056
-238.888	-200.000	-0.023	0.226
-237.873	-200.000	-0.008	0.098
-236.859	371.011	0.105	0.214
-235.844	504.605	0.154	0.356
-234.830	-40.728	-0.157	-0.081
-233.815	-81.229	0.501	-0.166
-232.800	800.000	0.114	0.371
-231.786	212.509	0.182	0.288
-230.771	-73.888	-0.168	-0.061
-229.757	744.907	-0.005	-0.014
-228.742	800.000	0.029	-0.106
-227.727	-24.715	0.481	0.286
-226.713	131.556	0.102	0.131
-225.698	800.000	-0.097	-0.275
-224.684	61.398	-0.294	0.292
-223.669	-172.893	0.165	-0.005
-222.655	124.966	-0.086	0.108
-221.640	-107.253	-0.333	-0.073
-220.625	800.000	0.114	-0.333
-219.611	-96.409	0.251	0.066
-218.596	-57.631	-0.118	-0.052
-217.582	-56.192	-0.144	0.064
-216.567	-200.000	-0.004	0.027
-215.552	-73.523	-0.173	-0.063
-214.538	-200.000	-0.019	0.127
-213.523	113.308	0.284	0.345
-212.509	-3.091	-0.172	0.120
-211.494	-200.000	-0.040	0.259
-210.479	-200.000	-0.016	0.222
-209.465	295.915	0.071	0.129
-208.450	-200.000	-0.046	-0.274
-207.436	-76.932	-0.547	-0.191
-206.421	-142.154	0.095	-0.009
-205.406	244.118	0.021	-0.035
-204.392	147.321	-0.120	0.161
-203.377	-82.136	0.266	0.087
-202.363	483.290	-0.158	-0.360
-201.348	800.000	-0.045	-0.133
-200.333	4.066	0.161	0.118
-199.319	67.155	-0.004	0.004
-198.304	-200.000	-0.003	-0.173
-197.290	-200.000	0.002	0.037
-196.275	-177.522	0.299	-0.007
-195.260	-38.181	0.233	-0.123
-194.246	61.046	0.214	0.212
-193.231	-128.356	0.210	-0.030
-192.217	108.432	-0.175	0.208
-191.202	249.196	-0.062	-0.104
-190.187	-200.000	0.049	0.302
-189.173	-191.675	0.141	0.001
-188.158	-101.544	0.128	-0.031
-187.144	-153.595	-0.102	-0.007
-186.129	-148.448	0.361	-0.030
-185.114	-52.610	-0.183	0.084
-184.100	262.078	0.096	-0.166
-183.085	-157.336	0.168	0.010
-182.071	-16.433	-0.417	-0.264
-181.056	97.949	-0.032	0.037
-180.042	800.000	0.047	0.170
-179.027	-67.732	0.282	-0.110
-178.012	185.322	-0.144	-0.214
-176.998	-52.549	-0.235	-0.108
-175.983	109.882	-0.131	-0.156
-174.969	76.248	-0.135	0.143
-173.954	25.702	-0.224	0.186
-172.939	-125.733	-0.191	0.029
-171.925	-36.418	-0.328	-0.176
-170.910	346.270	-0.087	-0.170
-169.896	205.841	0.079	-0.123
-168.881	117.172	0.309	0.380
-167.866	229.619	0.224	0.364
-166.852	-120.377	-0.215	0.037
-165.837	-200.000	0.005	0.089
-164.823	-87.627	-0.042	-0.013
-163.808	42.801	0.204	0.185
-162.793	172.455	0.105	0.150
-161.779	-119.861	-0.396	0.068
-160.764	-100.031	0.185	0.046
-159.750	-136.089	0.184	-0.022
-158.735	24.291	0.135	0.112
-157.720	800.000	0.068	0.278
-156.706	2.691	-0.176	0.127
-155.691	83.495	0.139	-0.151
-154.677	-102.266	0.021	-0.005
-153.662	800.000	0.090	0.342
-152.647	62.182	0.151	-0.151
-151.633	-61.110	-0.207	-0.087
-150.618	-47.614	0.215	0.104
-149.604	800.000	-0.046	0.166
-148.589	-155.054	0.187	-0.012
-147.574	142.652	-0.094	-0.124
-146.560	-53.222	-0.029	-0.013
-145.545	-17.663	-0.169	0.106
-144.531	-49.093	-0.198	-0.094
-143.516	673.408	-0.069	0.178
-142.502	228.018	-0.061	0.100
-141.487	73.779	0.094	0.098
-140.472	-94.318	0.147	-0.040
-139.458	-132.788	-0.238	-0.030
-138.443	-200.000	0.022	-0.103
-137.429	80.341	-0.357	0.383
-136.414	169.066	0.315	-0.448
-135.399	48.493	0.242	0.226
-134.385	-132.104	0.171	0.022
-133.370	155.542	-0.108	-0.149
-132.356	-200.000	-0.016	0.081
-131.341	-50.817	0.042	0.020
-130.326	115.675	0.040	-0.049
-129.312	-126.920	0.279	-0.041
-128.297	800.000	0.037	-0.153
-127.283	-200.000	0.009	-0.145
-126.268	-52.237	0.174	-0.081
-125.253	107.901	-0.102	-0.121
-124.239	-200.000	-0.013	-0.407
-123.224	-18.060	0.162	0.101
-122.210	216.053	0.071	0.113
-121.195	-62.670	-0.194	-0.080
