DTS Sentinel unit serial number:	SN413079Multiplexer serial number:	ORYXHardware model number:	OX4-SRSoftware version number:	ORYX F/W v4.00 Oryx Data Collector v3.7.2.0data status	okinstallation	princeton_trtdifferential loss correction	single-endedforward channel	channel 1reverse channel	N/Adate	2019/09/18time	20:58:35forward acquisition time	60.00reverse acquisition time	0.00gamma	496.2192k internal	0.2340k external	0.2340temperature offset calibration	1.0039default loss term (dB/km)	0.3790temperature slope calibration	1.0000multiplexer offset coefficient	1.0000multiplexer slope coefficient	1.0000fibre end	0.00T internal ref (°C)	26.62T ext. ref 1 (°C)	1.08T ext. ref 2 (°C)	18.07length (m)	temperature (°C)	Stokes	anti-Stokes-747.200	5.036	-0.088	0.065
-746.185	-200.000	-0.013	0.058
-745.171	-200.000	-0.036	-0.162
-744.156	2.750	-0.284	-0.207
-743.142	415.962	0.049	0.104
-742.127	270.789	-0.157	0.277
-741.112	49.155	-0.111	-0.105
-740.098	10.939	-0.250	0.191
-739.083	-130.721	-0.269	-0.036
-738.069	416.932	-0.146	0.313
-737.054	-5.689	0.303	0.208
-736.039	-200.000	-0.003	0.049
-735.025	-87.093	0.381	-0.116
-734.010	-200.000	-0.070	-0.371
-732.996	105.771	-0.127	-0.150
-731.981	34.714	0.220	-0.192
-730.966	111.650	-0.111	-0.134
-729.952	-42.311	-0.048	-0.025
-728.937	-35.003	0.223	0.122
-727.923	-105.883	-0.165	-0.037
-726.908	396.385	0.206	-0.431
-725.894	-78.076	-0.457	-0.158
-724.879	-156.030	0.106	0.007
-723.864	800.000	0.115	-0.328
-722.850	95.122	-0.190	-0.217
-721.835	-200.000	-0.013	0.142
-720.821	9.246	-0.421	0.319
-719.806	-1.227	-0.167	0.118
-718.791	-138.248	-0.106	0.012
-717.777	-200.000	-0.009	0.082
-716.762	-200.000	0.005	-0.582
-715.748	752.912	-0.051	0.139
-714.733	-81.543	-0.177	-0.058
-713.718	-164.667	0.188	0.008
-712.704	-112.198	-0.099	-0.020
-711.689	-89.012	0.092	-0.027
-710.675	-22.862	-0.033	0.020
-709.660	-26.944	0.097	0.057
-708.645	-137.602	-0.278	-0.031
-707.631	3.156	0.143	-0.104
-706.616	-16.229	0.027	0.017
-705.602	-144.723	-0.144	0.013
-704.587	-97.582	0.030	-0.008
-703.572	93.320	0.114	0.130
-702.558	-77.768	0.072	-0.025
-701.543	-78.061	0.307	0.106
-700.529	587.171	0.186	0.459
-699.514	800.000	0.021	-0.078
-698.499	-200.000	-0.034	-0.310
-697.485	-159.305	-0.224	-0.013
-696.470	-200.000	0.008	-0.151
-695.456	-200.000	0.102	-0.494
-694.441	-150.500	0.142	0.011
-693.426	-200.000	0.059	-0.349
-692.412	-145.657	-0.273	0.024
-691.397	-200.000	0.317	-0.001
-690.383	-86.042	-0.230	0.071
-689.368	556.949	0.008	0.019
-688.354	-46.696	-0.215	-0.105
-687.339	-79.926	0.182	-0.061
-686.324	-117.227	-0.305	0.055
-685.310	-162.098	0.247	-0.012
-684.295	-124.694	0.255	-0.040
-683.281	208.452	-0.264	-0.413
-682.266	-200.000	0.008	-0.134
-681.251	-200.000	0.014	-0.070
-680.237	151.309	0.009	-0.013
-679.222	9.404	0.185	-0.140
-678.208	800.000	0.071	0.246
-677.193	-15.054	0.177	-0.113
-676.178	21.012	0.140	0.114
-675.164	-85.747	-0.145	-0.045
-674.149	171.453	0.163	0.234
-673.135	800.000	0.047	0.206
-672.120	55.369	-0.275	-0.266
-671.105	-69.510	0.167	0.064
-670.091	147.711	-0.129	-0.174
-669.076	678.144	0.015	0.039
-668.062	-23.796	-0.080	0.048
-667.047	-200.000	-0.014	-0.180
-666.032	-156.568	-0.264	-0.016
-665.018	133.084	-0.072	-0.093
-664.003	-200.000	-0.010	-0.074
-662.989	-200.000	-0.032	-0.144
-661.974	800.000	-0.040	-0.115
-660.959	-200.000	-0.003	0.116
-659.945	266.160	-0.107	-0.187
-658.930	254.164	-0.144	-0.246
-657.916	-200.000	-0.019	0.138
-656.901	-200.000	0.012	-0.293
-655.886	135.943	-0.194	0.253
-654.872	-6.360	-0.098	0.067
-653.857	-5.305	-0.123	0.085
-652.843	-200.000	0.076	-0.342
-651.828	-200.000	0.037	0.210
-650.814	-200.000	0.085	-0.423
-649.799	152.623	0.161	-0.220
-648.784	-173.484	-0.425	0.013
-647.770	-136.080	0.309	0.036
-646.755	800.000	-0.041	0.129
-645.741	-200.000	0.047	-0.707
-644.726	800.000	0.120	0.379
-643.711	-200.000	-0.059	0.319
-642.697	-58.588	0.094	-0.041
-641.682	-200.000	0.007	-0.406
-640.668	800.000	-0.019	-0.070
-639.653	146.859	0.055	-0.074
-638.638	553.429	0.176	-0.421
-637.624	127.883	-0.048	0.061
-636.609	-78.507	-0.212	-0.072
-635.595	-34.058	0.337	0.185
-634.580	-49.005	0.449	0.214
-633.565	601.798	-0.186	0.462
-632.551	-128.861	0.228	-0.032
-631.536	-49.861	-0.376	-0.178
-630.522	-163.465	-0.213	0.010
-629.507	-108.704	0.179	0.038
-628.492	-111.968	0.302	0.061
-627.478	-200.000	-0.032	0.149
-626.463	506.251	-0.050	-0.115
-625.449	-200.000	0.022	-0.114
-624.434	-101.468	0.111	0.027
-623.419	-62.894	-0.232	0.096
-622.405	250.242	0.078	0.132
-621.390	588.769	-0.112	-0.276
-620.376	-3.088	-0.207	-0.144
-619.361	590.905	-0.097	-0.238
-618.346	800.000	-0.028	-0.118
-617.332	-200.000	0.045	0.351
-616.317	160.498	-0.147	-0.205
-615.303	-69.926	-0.118	-0.045
-614.288	1.238	0.285	-0.204
-613.273	299.664	0.017	0.031
-612.259	-167.953	-0.261	-0.010
-611.244	533.277	0.087	-0.206
-610.230	800.000	-0.136	-0.386
-609.215	268.459	0.032	0.056
-608.201	623.914	0.058	0.145
-607.186	77.171	-0.214	-0.227
-606.171	800.000	-0.019	-0.079
-605.157	-200.000	-0.045	0.245
-604.142	0.129	0.080	-0.057
-603.128	-110.477	-0.293	-0.061
-602.113	-200.000	-0.027	-0.292
-601.098	-110.375	-0.187	-0.039
-600.084	-200.000	-0.034	-0.186
-599.069	22.769	-0.216	0.176
-598.055	800.000	0.070	0.226
-597.040	-110.443	0.019	-0.004
-596.025	-200.000	0.019	-0.166
-595.011	-47.709	-0.040	0.019
-593.996	6.606	0.207	0.153
-592.982	-12.295	-0.024	-0.016
-591.967	345.522	0.049	0.096
-590.952	164.516	-0.212	-0.299
-589.938	-55.500	0.158	0.071
-588.923	-14.956	0.280	-0.179
-587.909	109.727	-0.081	-0.096
-586.894	247.591	0.073	0.122
-585.879	-63.891	-0.257	0.105
-584.865	-200.000	0.031	-0.337
-583.850	-200.000	0.027	-0.119
-582.836	3.869	0.112	-0.081
-581.821	17.435	-0.094	-0.074
-580.806	79.814	-0.160	-0.171
-579.792	-9.270	-0.151	-0.100
-578.777	-29.805	0.182	0.103
-577.763	487.832	-0.196	-0.447
-576.748	-50.260	0.193	-0.091
-575.733	-34.911	0.244	-0.132
-574.719	460.876	0.099	-0.221
-573.704	-73.504	-0.054	0.019
-572.690	784.574	-0.038	-0.102
-571.675	432.468	0.050	-0.108
-570.661	-136.604	-0.190	0.022
-569.646	374.786	0.158	-0.321
-568.631	-79.801	-0.206	-0.069
-567.617	35.304	0.104	-0.091
-566.602	-200.000	-0.096	0.434
-565.588	-13.446	0.278	0.179
-564.573	275.249	-0.155	-0.274
-563.558	-10.013	0.089	-0.059
-562.544	185.389	0.185	0.273
-561.529	-156.774	0.363	0.022
-560.515	-39.390	0.174	-0.091
-559.500	-200.000	0.014	-0.137
-558.485	252.269	-0.143	0.243
-557.471	-58.281	0.016	-0.007
-556.456	-141.207	0.182	0.018
-555.442	-107.667	0.145	0.031
-554.427	-130.135	-0.085	-0.011
-553.412	-200.000	0.040	0.268
-552.398	800.000	-0.140	-0.519
-551.383	-200.000	0.026	-0.132
-550.369	800.000	0.118	0.431
-549.354	46.886	-0.144	0.133
-548.339	-133.859	-0.169	0.021
-547.325	31.286	0.099	-0.085
-546.310	-78.106	-0.254	0.087
-545.296	-173.249	0.265	0.008
-544.281	-57.557	-0.108	-0.047
-543.266	187.530	-0.050	-0.074
-542.252	-49.411	0.340	-0.161
-541.237	-6.565	0.098	0.066
-540.223	95.502	0.068	-0.077
-539.208	137.109	-0.008	0.010
-538.193	26.331	-0.254	0.211
-537.179	162.992	0.154	0.216
-536.164	-27.866	-0.473	-0.273
-535.150	-66.398	-0.119	0.047
-534.135	319.327	0.068	-0.129
-533.121	-131.241	0.196	-0.026
-532.106	-81.324	-0.086	0.028
-531.091	-200.000	-0.048	0.233
-530.077	-13.749	0.113	0.073
-529.062	-200.000	-0.001	-0.392
-528.048	-200.000	0.010	-0.437
-527.033	800.000	0.021	-0.063
-526.018	-200.000	0.024	-0.162
-525.004	111.634	0.138	-0.166
-523.989	-200.000	0.001	0.134
-522.975	800.000	0.101	0.374
-521.960	-108.238	-0.294	-0.063
-520.945	-24.381	-0.195	0.116
-519.931	800.000	-0.049	-0.143
-518.916	70.592	-0.310	-0.319
-517.902	401.018	0.166	-0.347
-516.887	-32.692	0.194	0.107
-515.872	-148.773	0.095	0.008
-514.858	-36.800	0.090	0.048
-513.843	-83.346	-0.107	0.034
-512.829	108.730	-0.235	0.280
-511.814	181.536	0.010	-0.015
-510.799	-6.111	-0.320	-0.217
-509.785	800.000	0.049	0.138
-508.770	-200.000	-0.007	0.273
-507.756	13.521	-0.197	0.152
-506.741	482.826	-0.057	-0.128
-505.726	-170.448	0.147	0.005
-504.712	-200.000	-0.013	0.196
-503.697	-200.000	-0.083	0.447
-502.683	587.060	-0.073	-0.178
-501.668	800.000	0.042	0.137
-500.653	98.116	-0.127	0.146
-499.639	58.314	-0.167	-0.163
-498.624	-200.000	0.026	-0.667
-497.610	-152.804	0.207	-0.015
-496.595	-168.574	0.340	-0.013
-495.581	215.654	0.070	-0.110
-494.566	800.000	-0.047	-0.175
-493.551	96.190	0.238	0.270
-492.537	-200.000	-0.016	0.082
-491.522	-146.190	0.115	0.010
-490.508	-200.000	-0.016	0.107
-489.493	71.730	0.053	0.055
-488.478	-108.437	-0.120	0.026
-487.464	-200.000	-0.001	-0.088
-486.449	357.306	0.009	-0.018
-485.435	21.814	-0.207	-0.167
-484.420	211.218	0.072	0.112
-483.405	43.243	0.172	0.156
-482.391	481.650	-0.087	-0.196
-481.376	38.181	-0.185	0.163
-480.362	-47.779	0.158	0.076
-479.347	390.654	0.099	-0.204
-478.332	80.147	0.174	0.186
-477.318	800.000	0.065	-0.187
-476.303	-185.758	-0.257	-0.004
-475.289	-22.111	0.122	0.073
-474.274	381.060	-0.093	-0.190
-473.259	-104.302	0.028	0.006
-472.245	-200.000	0.032	0.251
-471.230	35.006	-0.077	-0.067
-470.216	-200.000	0.015	0.093
-469.201	-23.932	-0.156	-0.093
-468.186	-200.000	0.010	-0.162
-467.172	56.967	-0.149	-0.144
-466.157	-106.739	0.347	-0.077
-465.143	-161.847	-0.046	0.002
-464.128	135.751	0.139	0.180
-463.113	133.681	-0.164	-0.211
-462.099	-200.000	-0.056	0.418
-461.084	30.785	0.260	0.221
-460.070	-25.397	-0.311	-0.182
-459.055	51.180	0.062	0.058
-458.040	53.104	0.185	-0.176
-457.026	-200.000	-0.005	-0.090
-456.011	300.966	0.149	0.273
-454.997	-84.369	0.066	0.021
-453.982	308.725	0.032	0.059
-452.968	21.042	-0.149	-0.120
-451.953	20.793	0.181	0.146
-450.938	-171.277	-0.256	0.009
-449.924	34.182	0.029	-0.025
-448.909	800.000	-0.031	0.129
-447.895	-19.454	-0.192	-0.118
-446.880	-200.000	-0.048	0.471
-445.865	130.343	0.239	0.303
-444.851	141.247	-0.144	0.188
-443.836	-14.355	0.154	0.098
-442.822	496.382	0.063	0.144
-441.807	606.140	0.045	0.111
-440.792	800.000	-0.028	-0.086
-439.778	496.227	-0.072	-0.164
-438.763	136.871	0.280	0.362
-437.749	32.851	0.055	-0.048
-436.734	317.424	-0.107	-0.201
-435.719	-61.358	-0.186	0.078
-434.705	26.461	0.088	-0.073
-433.690	-198.523	-0.111	0.001
-432.676	-200.000	-0.003	0.168
-431.661	-70.255	0.158	0.059
-430.646	800.000	0.026	0.106
-429.632	380.495	0.018	-0.036
-428.617	-72.475	-0.116	-0.042
-427.603	-112.262	0.065	-0.013
-426.588	-104.250	0.098	0.022
-425.573	-89.528	0.108	-0.031
-424.559	11.751	-0.203	-0.155
-423.544	-123.905	-0.087	-0.014
-422.530	-111.430	0.214	-0.043
-421.515	774.468	0.169	0.458
-420.500	-200.000	0.006	0.245
-419.486	-77.221	-0.150	-0.052
-418.471	-161.685	-0.066	-0.003
-417.457	-9.538	-0.112	0.074
-416.442	-24.765	0.182	0.107
-415.428	47.568	0.282	-0.261
-414.413	-5.560	0.223	0.151
-413.398	219.437	-0.155	0.246
-412.384	-179.243	-0.064	-0.001
-411.369	-136.172	-0.129	-0.015
-410.355	80.607	0.229	0.244
-409.340	-195.185	-0.095	-0.001
-408.325	-113.800	-0.279	0.054
-407.311	-42.887	0.104	-0.052
-406.296	-93.940	0.248	0.067
-405.282	-37.341	-0.172	0.091
-404.267	266.816	0.091	-0.158
-403.252	800.000	0.051	-0.178
-402.238	279.779	-0.031	0.056
-401.223	69.798	0.039	0.039
-400.209	226.228	-0.192	-0.308
-399.194	-200.000	0.022	-0.099
-398.179	-72.065	0.261	0.096
-397.165	676.432	-0.026	0.066
-396.150	647.606	0.140	-0.355
-395.136	-105.189	-0.396	-0.089
-394.121	-31.338	0.308	-0.172
-393.106	-200.000	-0.009	0.141
-392.092	-54.987	-0.078	0.035
-391.077	75.144	0.090	-0.094
-390.063	55.990	0.152	-0.146
-389.048	-200.000	-0.178	-0.001
-388.033	-154.588	-0.127	-0.008
-387.019	19.091	0.188	0.149
-386.004	-200.000	0.016	-0.098
-384.990	-31.356	-0.273	0.152
-383.975	476.984	0.076	-0.171
-382.960	18.676	-0.258	0.204
-381.946	-200.000	0.061	-0.368
-380.931	-35.646	0.221	0.118
-379.917	315.259	-0.105	-0.195
-378.902	439.920	-0.124	-0.269
-377.888	-80.137	0.127	0.042
-376.873	-87.467	-0.226	-0.067
-375.858	-126.857	0.235	0.034
-374.844	-146.413	-0.122	0.011
-373.829	-107.433	-0.102	-0.022
-372.815	-87.831	-0.265	-0.079
-371.800	13.171	0.072	0.055
-370.785	538.957	0.137	0.322
-369.771	-41.474	-0.150	-0.076
-368.756	277.528	0.019	-0.033
-367.742	354.491	-0.083	0.163
-366.727	139.640	0.165	-0.215
-365.712	-72.427	0.282	-0.103
-364.698	-200.000	-0.033	-0.366
-363.683	800.000	0.082	-0.230
-362.669	-200.000	0.071	0.387
-361.654	78.398	-0.050	0.053
-360.639	-34.192	0.076	-0.041
-359.625	50.960	0.127	0.119
-358.610	-170.433	-0.184	-0.006
-357.596	-3.427	0.248	0.171
-356.581	-108.051	0.293	-0.063
-355.566	800.000	-0.075	-0.220
-354.552	592.045	-0.076	-0.186
-353.537	-126.228	-0.125	-0.018
-352.523	-89.642	-0.298	0.086
-351.508	4.599	-0.205	-0.148
-350.493	-4.017	-0.278	-0.190
-349.479	269.273	0.132	-0.229
-348.464	-107.283	0.245	-0.053
-347.450	649.219	-0.052	0.132
-346.435	-64.436	-0.179	0.072
-345.420	-90.281	0.204	0.058
-344.406	-80.697	0.170	0.056
-343.391	30.672	0.132	-0.112
-342.377	10.710	0.213	-0.160
-341.362	800.000	-0.058	0.186
-340.348	-43.261	-0.061	-0.031
-339.333	-200.000	-0.060	0.383
-338.318	800.000	-0.031	0.084
-337.304	-63.665	-0.180	0.073
-336.289	-26.159	0.286	0.166
-335.275	-45.747	-0.060	0.029
-334.260	-200.000	-0.014	0.270
-333.245	-200.000	-0.023	-0.272
-332.231	-200.000	0.021	0.128
-331.216	-200.000	-0.017	0.271
-330.202	12.592	0.272	-0.207
-329.187	800.000	-0.043	-0.138
-328.172	-36.125	-0.160	-0.085
-327.158	-55.766	-0.142	0.063
-326.143	800.000	0.099	0.350
-325.129	-151.061	-0.023	-0.002
-324.114	-148.261	-0.308	-0.025
-323.099	-200.000	-0.003	0.239
-322.085	-162.897	-0.169	-0.008
-321.070	-179.749	0.233	0.005
-320.056	-27.858	-0.326	0.186
-319.041	-16.374	-0.128	0.080
-318.026	800.000	0.114	0.333
-317.012	515.451	0.130	-0.299
-315.997	215.827	-0.077	-0.121
-314.983	5.483	0.358	0.261
-313.968	-32.575	0.209	-0.115
-312.953	71.687	0.305	0.312
-311.939	1.094	0.072	-0.051
-310.924	23.549	0.261	-0.212
-309.910	800.000	-0.023	-0.085
-308.895	-181.149	0.162	0.003
-307.880	-18.732	-0.381	-0.234
-306.866	-199.720	-0.370	-0.002
-305.851	-200.000	-0.011	0.139
-304.837	800.000	-0.012	0.038
-303.822	-12.254	-0.257	-0.166
-302.807	762.853	-0.043	0.114
-301.793	-39.488	0.196	0.101
-300.778	182.087	0.151	-0.219
-299.764	57.467	-0.086	0.083
-298.749	-200.000	-0.017	0.106
-297.735	-200.000	-0.022	-0.123
-296.720	-200.000	0.019	0.091
-295.705	64.092	-0.047	0.047
-294.691	603.027	-0.034	-0.083
-293.676	-144.788	-0.287	-0.026
-292.662	-83.303	0.293	-0.093
-291.647	-19.158	-0.090	-0.055
-290.632	-151.490	-0.259	-0.019
-289.618	-119.982	0.171	-0.029
-288.603	38.947	-0.034	-0.030
-287.589	353.206	0.061	0.119
-286.574	98.551	0.221	0.251
-285.559	-147.930	-0.273	-0.022
-284.545	-105.985	-0.212	-0.047
-283.530	800.000	0.061	-0.180
-282.516	4.935	0.186	0.135
-281.501	800.000	-0.050	0.149
-280.486	176.930	-0.027	-0.039
-279.472	800.000	0.100	-0.383
-278.457	94.119	-0.169	-0.189
-277.443	362.229	0.050	-0.099
-276.428	-200.000	-0.043	0.187
-275.413	148.034	-0.068	0.090
-274.399	183.743	0.014	-0.020
-273.384	-6.186	-0.383	0.257
-272.370	178.203	0.196	0.281
-271.355	51.608	-0.266	-0.249
-270.340	195.493	-0.069	0.104
-269.326	72.769	-0.286	-0.293
-268.311	-42.148	0.247	0.124
-267.297	-73.380	-0.166	-0.060
-266.282	-89.331	0.102	-0.030
-265.267	51.099	0.149	0.139
-264.253	800.000	0.127	-0.369
-263.238	-200.000	-0.003	-0.087
-262.224	252.814	-0.025	-0.041
-261.209	321.206	0.167	0.313
-260.195	599.123	0.067	0.163
-259.180	-56.845	-0.077	0.033
-258.165	800.000	0.085	-0.254
-257.151	-48.553	-0.363	-0.172
-256.136	800.000	-0.033	0.118
-255.122	-111.742	0.118	-0.023
-254.107	30.348	0.167	-0.140
-253.092	-93.135	0.100	0.027
-252.078	193.610	0.104	0.155
-251.063	800.000	-0.051	0.164
-250.049	-73.196	0.104	-0.037
-249.034	-36.466	-0.280	-0.148
-248.019	682.096	-0.037	0.094
-247.005	-85.054	-0.453	0.139
-245.990	-20.457	0.320	0.194
-244.976	-102.512	-0.240	0.057
-243.961	-200.000	0.067	0.336
-242.946	325.741	-0.086	-0.163
-241.932	30.770	-0.194	-0.164
-240.917	48.623	0.121	0.111
-239.903	-87.348	-0.124	0.037
-238.888	-105.025	0.331	-0.074
-237.873	83.789	0.222	0.238
-236.859	-53.725	0.325	0.146
-235.844	462.064	-0.102	0.224
-234.830	800.000	-0.043	-0.167
-233.815	321.390	0.045	-0.084
-232.800	800.000	0.119	0.488
-231.786	-127.476	0.215	0.031
-230.771	373.654	0.197	0.393
-229.757	355.447	0.065	-0.128
-228.742	337.430	0.164	-0.313
-227.727	44.104	0.146	-0.132
-226.713	-11.054	-0.117	0.076
-225.698	-56.838	-0.650	-0.282
-224.684	98.034	0.200	0.226
-223.669	28.887	-0.096	-0.080
-222.655	-155.601	0.197	-0.012
-221.640	337.978	0.066	-0.126
-220.625	349.887	0.143	0.277
-219.611	800.000	0.067	0.233
-218.596	385.941	0.110	0.223
-217.582	-152.573	0.214	0.015
-216.567	-39.996	-0.286	0.146
-215.552	-200.000	-0.011	0.105
-214.538	-35.363	0.082	0.044
-213.523	-49.905	-0.085	0.040
-212.509	800.000	0.079	-0.305
-211.494	-46.153	-0.305	0.148
-210.479	331.755	-0.074	0.141
-209.465	656.935	0.096	-0.243
-208.450	422.109	-0.088	-0.186
-207.436	35.202	-0.190	-0.163
-206.421	776.741	-0.065	0.173
-205.406	290.735	-0.064	0.115
-204.392	384.050	0.049	0.100
-203.377	-200.000	-0.072	0.348
-202.363	385.534	0.111	-0.226
-201.348	-200.000	0.031	0.179
-200.333	-200.000	0.048	0.429
-199.319	-127.483	-0.198	0.028
-198.304	155.307	0.181	-0.244
-197.290	581.225	0.179	-0.431
-196.275	800.000	0.078	-0.250
-195.260	-200.000	-0.003	0.218
-194.246	-200.000	-0.195	0.001
-193.231	84.150	-0.089	-0.096
-192.217	-10.343	0.232	-0.151
-191.202	-28.256	-0.170	-0.096
-190.187	179.211	-0.094	-0.134
-189.173	-22.814	0.125	0.074
-188.158	23.699	-0.123	0.100
-187.144	-200.000	0.034	0.194
-186.129	800.000	-0.104	0.320
-185.114	800.000	0.022	-0.066
-184.100	-153.985	-0.156	0.010
-183.085	-45.351	-0.139	0.068
-182.071	23.648	0.126	-0.102
-181.056	179.236	0.251	0.361
-180.042	66.143	-0.107	-0.107
-179.027	59.726	-0.274	-0.265
-178.012	-135.068	0.276	-0.033
-176.998	470.781	-0.210	0.463
-175.983	-99.839	-0.322	-0.079
-174.969	-42.205	-0.193	0.097
-173.954	117.956	0.113	-0.137
-172.939	-70.585	-0.134	0.050
-171.925	311.917	-0.087	0.160
-170.910	-200.000	-0.063	-0.410
-169.896	45.471	-0.102	-0.092
-168.881	221.749	-0.187	0.295
-167.866	-63.549	0.128	0.051
-166.852	-103.137	-0.121	0.028
-165.837	800.000	0.053	-0.146
-164.823	-131.161	-0.152	0.020
-163.808	-200.000	-0.045	-0.229
-162.793	747.118	-0.084	0.221
-161.779	-32.938	0.145	-0.079
-160.764	-28.542	0.063	0.036
-159.750	800.000	-0.055	0.152
-158.735	-101.978	0.116	0.027
-157.720	-35.980	0.168	-0.089
-156.706	92.982	-0.088	-0.097
-155.691	87.812	0.143	-0.155
-154.677	-200.000	0.040	-0.217
-153.662	548.479	0.185	0.435
-152.647	9.935	-0.035	-0.026
-151.633	-82.695	0.172	0.054
-150.618	141.000	0.141	0.183
-149.604	483.831	0.121	-0.269
-148.589	-95.707	0.323	0.085
-147.574	-19.638	0.169	0.102
-146.560	678.357	0.038	-0.098
-145.545	-50.861	-0.213	-0.098
-144.531	84.425	0.294	-0.315
-143.516	-75.217	0.026	0.009
-142.502	-183.499	0.092	-0.002
-141.487	-43.895	-0.380	0.187
-140.472	268.215	-0.169	0.290
-139.458	-200.000	-0.000	-0.485
-138.443	-200.000	-0.027	0.356
-137.429	280.229	-0.048	-0.084
-136.414	13.987	0.037	0.028
-135.399	229.110	-0.166	0.265
-134.385	-200.000	-0.043	-0.468
-133.370	-30.073	0.308	-0.171
-132.356	800.000	-0.076	-0.261
-131.341	-66.214	0.174	0.068
-130.326	-166.626	0.224	-0.009
-129.312	-172.784	0.263	0.008
-128.297	-200.000	-0.028	0.149
-127.283	227.059	-0.059	-0.093
-126.268	183.525	-0.037	-0.054
-125.253	-85.714	-0.232	-0.070
-124.239	207.483	-0.082	0.126
-123.224	-178.306	-0.137	0.003
-122.210	251.430	0.086	0.144
