DTS Sentinel unit serial number:	SN413079Multiplexer serial number:	ORYXHardware model number:	OX4-SRSoftware version number:	ORYX F/W v4.00 Oryx Data Collector v3.7.2.0data status	okinstallation	princeton_trtdifferential loss correction	single-endedforward channel	channel 1reverse channel	N/Adate	2019/09/14time	11:58:35forward acquisition time	60.00reverse acquisition time	0.00gamma	496.2192k internal	0.2296k external	0.2296temperature offset calibration	1.0081default loss term (dB/km)	0.3790temperature slope calibration	1.0000multiplexer offset coefficient	1.0000multiplexer slope coefficient	1.0000fibre end	0.00T internal ref (°C)	37.33T ext. ref 1 (°C)	4.65T ext. ref 2 (°C)	35.18length (m)	temperature (°C)	Stokes	anti-Stokes-747.200	-200.000	-0.068	0.534
-746.185	-200.000	-0.016	0.430
-745.171	-74.055	0.239	0.089
-744.156	-200.000	0.051	0.449
-743.142	637.177	-0.115	0.297
-742.127	-200.000	-0.015	0.303
-741.112	599.396	0.195	0.494
-740.098	-200.000	0.009	0.420
-739.083	527.770	-0.147	-0.355
-738.069	-200.000	-0.057	0.394
-737.054	800.000	0.051	-0.179
-736.039	6.741	0.233	0.177
-735.025	-37.949	0.226	0.123
-734.010	17.841	0.088	-0.072
-732.996	800.000	0.054	-0.237
-731.981	185.023	-0.094	-0.142
-730.966	371.309	-0.112	-0.232
-729.952	12.495	-0.222	-0.175
-728.937	42.210	-0.233	-0.216
-727.923	100.333	0.220	0.260
-726.908	42.085	-0.200	-0.186
-725.894	27.418	0.188	-0.162
-724.879	-145.311	-0.305	-0.028
-723.864	46.596	-0.058	0.055
-722.850	81.529	-0.179	-0.197
-721.835	-159.776	-0.034	0.002
-720.821	17.518	-0.058	0.047
-719.806	800.000	0.067	-0.192
-718.791	-200.000	0.009	-0.083
-717.777	27.230	0.253	0.217
-716.762	-200.000	-0.009	-0.276
-715.748	15.800	-0.242	0.195
-714.733	-50.986	0.158	0.076
-713.718	-143.419	-0.192	-0.019
-712.704	-8.553	-0.271	0.186
-711.689	-200.000	-0.266	-0.001
-710.675	-67.422	-0.186	-0.075
-709.660	28.543	-0.063	0.055
-708.645	-14.885	0.115	0.076
-707.631	-72.176	-0.225	0.085
-706.616	800.000	0.050	0.178
-705.602	-200.000	0.016	-0.156
-704.587	-31.044	-0.061	-0.035
-703.572	-127.759	-0.196	0.029
-702.558	-85.241	-0.085	-0.027
-701.543	-200.000	0.015	0.218
-700.529	-21.589	-0.161	0.100
-699.514	-138.479	0.094	0.011
-698.499	-171.324	0.292	0.010
-697.485	-28.112	-0.252	-0.148
-696.470	461.426	-0.131	-0.297
-695.456	191.974	-0.139	0.214
-694.441	15.224	0.221	-0.177
-693.426	-47.024	0.178	0.088
-692.412	-200.000	0.005	-0.051
-691.397	800.000	-0.021	0.082
-690.383	-99.302	0.281	-0.072
-689.368	151.189	0.157	-0.218
-688.354	67.878	-0.074	0.077
-687.339	15.958	-0.194	-0.156
-686.324	-49.408	-0.067	0.033
-685.310	240.836	-0.134	-0.228
-684.295	-141.912	0.274	0.028
-683.281	105.671	-0.123	0.149
-682.266	-44.193	-0.251	0.128
-681.251	-147.993	-0.135	0.011
-680.237	-64.101	0.123	-0.051
-679.222	104.924	-0.148	-0.178
-678.208	-40.601	0.250	0.132
-677.193	-157.130	0.122	0.008
-676.178	-200.000	0.033	0.228
-675.164	580.684	0.110	0.275
-674.149	-68.297	-0.354	-0.140
-673.135	800.000	-0.102	-0.332
-672.120	800.000	-0.045	-0.142
-671.105	5.114	-0.179	-0.134
-670.091	-63.380	0.194	-0.081
-669.076	129.456	0.120	-0.156
-668.062	-119.586	-0.130	-0.023
-667.047	-106.555	0.175	-0.040
-666.032	15.228	0.483	-0.386
-665.018	800.000	-0.040	-0.117
-664.003	-200.000	-0.001	0.046
-662.989	391.753	-0.042	0.090
-661.974	100.886	-0.081	0.097
-660.959	-33.445	0.340	-0.192
-659.945	-114.364	-0.278	-0.054
-658.930	-200.000	0.036	0.299
-657.916	-200.000	-0.033	0.261
-656.901	183.720	0.275	-0.415
-655.886	579.455	-0.090	-0.225
-654.872	-200.000	0.030	-0.315
-653.857	-174.456	0.323	-0.009
-652.843	-200.000	0.029	0.135
-651.828	-200.000	-0.029	0.369
-650.814	340.522	-0.113	-0.224
-649.799	19.594	-0.248	-0.203
-648.784	800.000	0.040	0.146
-647.770	537.946	0.041	-0.099
-646.755	198.728	-0.071	0.110
-645.741	211.610	-0.081	0.129
-644.726	37.140	0.206	0.185
-643.711	-200.000	0.001	0.201
-642.697	-41.341	0.207	0.108
-641.682	339.767	0.123	0.244
-640.668	13.962	-0.058	-0.046
-639.653	412.526	0.041	0.088
-638.638	8.047	0.093	-0.071
-637.624	472.751	0.168	0.384
-636.609	162.108	-0.130	0.186
-635.595	-200.000	-0.050	-0.280
-634.580	-104.030	0.412	0.098
-633.565	-124.637	-0.176	0.028
-632.551	-0.630	-0.208	-0.150
-631.536	37.262	-0.138	0.124
-630.522	-157.708	-0.252	0.015
-629.507	-200.000	0.015	0.154
-628.492	-89.282	0.058	0.017
-627.478	218.686	0.147	-0.238
-626.463	-110.530	-0.369	0.078
-625.449	-135.907	-0.071	0.009
-624.434	-154.774	0.092	0.006
-623.419	-200.000	-0.039	0.406
-622.405	75.899	-0.053	-0.057
-621.390	99.176	0.035	-0.042
-620.376	-88.509	0.145	0.044
-619.361	-112.902	0.321	-0.065
-618.346	800.000	-0.068	-0.206
-617.332	-108.126	-0.242	0.053
-616.317	-200.000	-0.001	0.063
-615.303	109.739	-0.120	0.146
-614.288	459.386	-0.106	0.239
-613.273	4.717	0.080	0.059
-612.259	800.000	-0.076	0.252
-611.244	94.063	0.046	0.053
-610.230	39.460	0.219	0.200
-609.215	-72.051	-0.140	0.053
-608.201	-200.000	0.050	0.266
-607.186	6.207	-0.011	0.008
-606.171	43.791	-0.163	0.152
-605.157	-84.487	-0.260	0.083
-604.142	-58.990	0.188	0.083
-603.128	112.180	0.054	-0.066
-602.113	-128.342	-0.167	-0.024
-601.098	-54.384	-0.247	0.114
-600.084	-200.000	0.010	-0.073
-599.069	-6.310	0.255	0.177
-598.055	-93.534	-0.276	-0.078
-597.040	-77.555	-0.370	-0.130
-596.025	-200.000	0.022	0.202
-595.011	800.000	-0.007	-0.023
-593.996	105.486	-0.107	-0.129
-592.982	-200.000	-0.058	-0.370
-591.967	-200.000	0.056	-0.579
-590.952	210.047	0.196	0.312
-589.938	41.166	0.211	0.194
-588.923	-90.990	-0.284	0.083
-587.909	18.421	-0.256	-0.208
-586.894	76.041	0.138	0.148
-585.879	-200.000	0.008	-0.073
-584.865	19.907	0.242	-0.198
-583.850	-200.000	-0.026	0.117
-582.836	545.144	-0.060	-0.147
-581.821	-200.000	0.026	0.174
-580.806	-200.000	-0.027	-0.269
-579.792	800.000	-0.023	0.099
-578.777	-0.566	-0.276	-0.199
-577.763	-200.000	0.012	-0.202
-576.748	187.557	0.154	-0.234
-575.733	-76.023	-0.192	0.069
-574.719	-200.000	-0.035	-0.214
-573.704	-200.000	-0.007	-0.208
-572.690	-25.179	-0.167	-0.101
-571.675	222.735	-0.061	0.100
-570.661	104.244	0.084	-0.100
-569.646	-92.521	0.398	0.114
-568.631	800.000	0.048	-0.161
-567.617	52.223	0.160	0.155
-566.602	-200.000	-0.022	-0.232
-565.588	-200.000	0.006	0.121
-564.573	-200.000	0.038	0.332
-563.558	-61.850	0.384	0.163
-562.544	570.451	-0.054	0.134
-561.529	-200.000	-0.059	-0.330
-560.515	800.000	0.066	0.259
-559.500	12.024	-0.093	-0.072
-558.485	-161.640	0.076	-0.004
-557.471	218.715	0.109	0.177
-556.456	-200.000	0.060	-0.294
-555.442	-65.177	0.080	-0.033
-554.427	-61.370	0.325	0.139
-553.412	800.000	0.056	-0.170
-552.398	784.894	-0.089	-0.247
-551.383	85.070	0.206	-0.229
-550.369	121.329	-0.128	-0.161
-549.354	-69.705	0.342	0.133
-548.339	621.234	-0.016	-0.041
-547.325	33.213	-0.059	-0.052
-546.310	-15.228	0.250	-0.162
-545.296	-31.498	-0.377	0.215
-544.281	-45.647	-0.026	0.013
-543.266	254.357	-0.141	0.244
-542.252	-155.999	-0.312	0.020
-541.237	-65.842	-0.149	-0.060
-540.223	-200.000	-0.042	0.216
-539.208	-15.362	-0.122	0.079
-538.193	93.545	0.086	-0.099
-537.179	252.478	-0.106	0.183
-536.164	-54.280	-0.219	-0.101
-535.150	-184.413	-0.241	0.004
-534.135	800.000	-0.032	-0.127
-533.121	124.676	0.150	0.191
-532.106	81.302	0.169	0.185
-531.091	-19.917	-0.079	-0.049
-530.077	800.000	-0.051	-0.186
-529.062	70.923	-0.086	-0.090
-528.048	138.182	0.174	-0.231
-527.033	29.463	0.062	-0.053
-526.018	-188.096	0.244	0.003
-525.004	-114.003	-0.240	0.047
-523.989	-200.000	0.001	0.037
-522.975	371.788	-0.037	0.077
-521.960	535.227	-0.163	0.392
-520.945	78.428	-0.057	0.062
-519.931	370.453	0.075	-0.154
-518.916	-200.000	-0.034	-0.000
-517.902	-74.859	0.146	0.053
-516.887	-200.000	0.050	-0.223
-515.872	800.000	0.045	-0.162
-514.858	6.297	0.193	-0.145
-513.843	196.036	0.149	-0.229
-512.829	800.000	-0.023	-0.090
-511.814	-40.321	-0.286	0.150
-510.799	-46.951	-0.072	-0.035
-509.785	32.587	0.170	0.149
-508.770	-36.708	0.161	-0.088
-507.756	222.734	0.095	-0.156
-506.741	44.905	0.178	-0.166
-505.726	-200.000	0.035	-0.214
-504.712	-200.000	0.037	-0.235
-503.697	800.000	-0.073	0.274
-502.683	800.000	-0.092	-0.276
-501.668	-62.957	-0.184	-0.077
-500.653	-166.618	-0.187	-0.008
-499.639	-187.901	0.241	0.003
-498.624	7.944	0.188	0.142
-497.610	-163.076	-0.195	0.010
-496.595	14.776	0.156	0.124
-495.581	78.957	0.227	-0.246
-494.566	195.934	0.183	0.282
-493.551	-20.262	-0.184	-0.115
-492.537	800.000	-0.093	0.293
-491.522	32.103	0.122	0.106
-490.508	-38.394	0.191	-0.102
-489.493	-131.289	0.263	0.035
-488.478	725.289	-0.109	-0.294
-487.464	-38.993	0.074	0.040
-486.449	207.570	-0.093	-0.147
-485.435	800.000	-0.075	-0.318
-484.420	102.102	-0.134	0.158
-483.405	-136.736	-0.221	-0.026
-482.391	-54.928	-0.261	0.119
-481.376	-200.000	-0.007	0.163
-480.362	278.561	-0.080	-0.145
-479.347	-171.706	0.233	0.008
-478.332	-37.716	0.322	0.173
-477.318	800.000	0.077	0.268
-476.303	705.169	0.021	-0.056
-475.289	-159.378	0.272	-0.015
-474.274	800.000	0.048	-0.174
-473.259	-166.479	0.236	0.010
-472.245	-200.000	-0.036	0.264
-471.230	172.837	0.230	-0.334
-470.216	7.105	-0.140	0.106
-469.201	-200.000	-0.025	0.117
-468.186	198.924	0.041	0.063
-467.172	-200.000	-0.029	-0.209
-466.157	-73.321	-0.296	-0.110
-465.143	-28.831	0.200	0.116
-464.128	-10.880	-0.124	-0.083
-463.113	-200.000	0.020	-0.095
-462.099	186.699	0.162	0.244
-461.084	-77.230	-0.265	-0.093
-460.070	-10.665	-0.238	-0.159
-459.055	-25.967	-0.158	0.094
-458.040	-74.420	0.185	0.068
-457.026	162.664	-0.288	0.408
-456.011	800.000	-0.074	-0.306
-454.997	-67.642	-0.147	-0.058
-453.982	800.000	-0.032	-0.100
-452.968	-11.568	-0.158	-0.105
-451.953	202.402	-0.148	-0.231
-450.938	49.523	-0.095	-0.090
-449.924	800.000	0.113	-0.383
-448.909	-81.349	-0.157	-0.052
-447.895	-200.000	-0.017	0.112
-446.880	212.116	-0.129	-0.205
-445.865	-133.666	-0.092	0.012
-444.851	-200.000	-0.037	0.230
-443.836	94.319	-0.137	0.157
-442.822	-168.374	0.091	-0.004
-441.807	-200.000	0.032	-0.307
-440.792	324.716	0.224	-0.432
-439.778	188.272	-0.116	0.174
-438.763	283.863	0.042	0.077
-437.749	68.072	0.223	0.230
-436.734	-200.000	0.024	-0.121
-435.719	800.000	-0.032	0.106
-434.705	67.927	0.156	0.161
-433.690	-162.146	-0.243	0.012
-432.676	343.644	-0.138	0.273
-431.661	-200.000	0.073	0.411
-430.646	13.541	-0.120	-0.094
-429.632	646.742	-0.044	0.115
-428.617	-67.110	0.077	-0.031
-427.603	-29.446	0.070	0.041
-426.588	194.938	0.052	-0.080
-425.573	800.000	-0.072	0.221
-424.559	-200.000	-0.003	-0.048
-423.544	-160.876	-0.086	0.005
-422.530	-62.185	0.179	0.075
-421.515	101.094	0.055	-0.064
-420.500	800.000	-0.060	0.239
-419.486	146.675	-0.035	-0.048
-418.471	89.581	0.242	0.273
-417.457	47.657	0.086	0.081
-416.442	-117.147	0.185	-0.034
-415.428	-119.797	0.508	0.088
-414.413	26.880	-0.261	-0.221
-413.398	-117.123	0.249	-0.046
-412.384	8.585	-0.155	-0.118
-411.369	-196.245	0.088	-0.001
-410.355	359.043	0.225	0.454
-409.340	-53.943	0.181	0.083
-408.325	247.249	-0.171	-0.291
-407.311	0.891	0.192	-0.139
-406.296	563.106	0.165	0.402
-405.282	192.264	0.058	0.088
-404.267	-34.143	-0.250	0.139
-403.252	482.040	-0.093	0.212
-402.238	-36.367	0.185	-0.101
-401.223	-140.140	-0.179	0.019
-400.209	111.852	-0.048	0.058
-399.194	99.690	0.125	0.146
-398.179	717.049	0.058	0.154
-397.165	-137.182	-0.222	-0.026
-396.150	285.937	-0.135	-0.246
-395.136	214.747	-0.070	0.112
-394.121	-97.626	-0.087	-0.023
-393.106	71.187	-0.219	-0.229
-392.092	-105.103	0.203	0.047
-391.077	-200.000	0.055	-0.323
-390.063	-36.266	0.187	0.101
-389.048	-76.144	-0.113	0.040
-388.033	-200.000	0.011	0.366
-387.019	295.663	0.066	0.122
-386.004	-123.895	0.219	-0.035
-384.990	-118.899	-0.221	0.039
-383.975	20.446	0.258	0.210
-382.960	23.182	0.037	-0.030
-381.946	679.145	0.015	-0.039
-380.931	-120.433	-0.130	-0.022
-379.917	52.833	-0.058	-0.056
-378.902	-200.000	0.038	-0.255
-377.888	56.182	0.111	-0.109
-376.873	13.333	-0.175	0.137
-375.858	-183.098	0.405	-0.007
-374.844	48.448	0.201	0.190
-373.829	-70.977	0.350	-0.133
-372.815	-65.817	0.196	0.079
-371.800	-200.000	0.017	0.177
-370.785	-200.000	-0.011	-0.122
-369.771	-80.541	0.133	-0.044
-368.756	689.011	-0.097	0.255
-367.742	-197.772	0.251	0.002
-366.727	-200.000	0.008	-0.157
-365.712	800.000	0.097	-0.294
-364.698	-200.000	-0.014	-0.079
-363.683	566.846	-0.088	-0.215
-362.669	116.039	0.096	0.119
-361.654	800.000	-0.063	-0.213
-360.639	-150.311	0.355	0.028
-359.625	-200.000	-0.003	0.117
-358.610	-96.117	0.334	0.089
-357.596	-200.000	0.046	-0.287
-356.581	-152.087	0.229	0.017
-355.566	-111.452	0.247	-0.051
-354.552	-200.000	-0.002	-0.233
-353.537	185.130	0.172	0.257
-352.523	800.000	-0.069	-0.192
-351.508	800.000	0.054	0.199
-350.493	-50.306	0.422	-0.201
-349.479	800.000	0.042	0.152
-348.464	-200.000	0.016	-0.091
-347.450	39.701	-0.031	-0.028
-346.435	49.960	-0.287	-0.272
-345.420	-200.000	0.004	-0.286
-344.406	-33.084	-0.177	-0.099
-343.391	50.442	-0.124	0.118
-342.377	-200.000	0.028	0.298
-341.362	-117.061	-0.044	0.008
-340.348	34.049	0.067	-0.058
-339.333	29.491	-0.074	-0.063
-338.318	91.133	-0.061	-0.069
-337.304	41.685	-0.043	0.039
-336.289	-54.698	-0.081	0.037
-335.275	78.201	0.131	-0.140
-334.260	-97.822	0.130	0.034
-333.245	-53.703	-0.127	-0.058
-332.231	82.558	-0.095	-0.104
-331.216	-63.712	-0.069	-0.028
-330.202	180.228	0.319	-0.471
-329.187	-50.632	0.064	-0.030
-328.172	-55.776	-0.180	-0.081
-327.158	-64.382	-0.094	-0.038
-326.143	-29.827	0.211	0.121
-325.129	-200.000	-0.050	-0.237
-324.114	-28.941	0.274	-0.158
-323.099	-50.205	-0.050	0.024
-322.085	293.693	-0.129	-0.237
-321.070	-200.000	-0.233	0.000
-320.056	800.000	-0.026	-0.103
-319.041	-200.000	0.011	-0.147
-318.026	125.785	0.082	-0.104
-317.012	-46.184	0.171	0.085
-315.997	-66.029	-0.230	-0.092
-314.983	-89.951	-0.126	-0.037
-313.968	-200.000	0.009	-0.166
-312.953	66.260	-0.053	0.054
-311.939	-138.738	-0.258	0.028
-310.924	89.374	-0.196	-0.220
-309.910	76.751	0.160	-0.171
-308.895	-200.000	-0.022	0.112
-307.880	-31.456	-0.275	0.155
-306.866	-200.000	0.001	0.191
-305.851	-15.786	0.162	-0.104
-304.837	800.000	-0.076	-0.214
-303.822	-26.423	-0.198	-0.117
-302.807	109.665	-0.075	-0.091
-301.793	266.917	-0.114	-0.200
-300.778	217.193	-0.078	0.124
-299.764	31.891	-0.123	-0.107
-298.749	-142.650	0.108	-0.011
-297.735	800.000	-0.039	-0.116
-296.720	133.891	-0.075	-0.097
-295.705	171.691	-0.196	-0.282
-294.691	760.422	0.043	0.117
-293.676	309.568	0.186	-0.349
-292.662	-57.861	-0.069	-0.030
-291.647	-37.718	0.205	-0.110
-290.632	-13.586	-0.314	-0.204
-289.618	-2.417	0.160	0.112
-288.603	92.861	-0.095	-0.108
-287.589	-182.587	0.195	-0.004
-286.574	-188.474	-0.174	-0.002
-285.559	-107.714	-0.251	-0.055
-284.545	-30.502	-0.333	0.189
-283.530	-200.000	0.012	0.056
-282.516	24.521	0.121	-0.100
-281.501	-59.208	0.290	-0.126
-280.486	526.476	-0.054	0.127
-279.472	8.439	-0.227	-0.171
-278.457	-18.534	0.070	0.044
-277.443	-105.620	-0.177	0.040
-276.428	800.000	0.090	0.317
-275.413	1.191	0.162	0.117
-274.399	-200.000	-0.012	0.263
-273.384	112.727	0.050	0.061
-272.370	213.103	0.152	0.241
-271.355	800.000	-0.104	0.345
-270.340	-117.216	0.252	0.046
-269.326	105.494	0.143	0.170
-268.311	-70.735	0.083	-0.031
-267.297	-96.204	-0.067	0.018
-266.282	-117.948	-0.202	0.036
-265.267	800.000	-0.052	0.226
-264.253	-200.000	0.075	0.379
-263.238	-122.223	0.143	-0.023
-262.224	-63.952	0.357	0.146
-261.209	148.339	-0.148	0.201
-260.195	-102.588	0.133	0.032
-259.180	-102.944	-0.239	-0.057
-258.165	800.000	-0.093	-0.283
-257.151	-74.689	0.205	-0.074
-256.136	-31.948	0.244	-0.137
-255.122	769.800	-0.077	-0.210
-254.107	141.364	0.045	0.060
-253.092	2.670	0.293	0.213
-252.078	-200.000	-0.005	0.140
-251.063	-3.761	-0.047	0.033
-250.049	-166.661	-0.277	-0.012
-249.034	-45.498	-0.339	0.168
-248.019	-111.715	-0.293	0.059
-247.005	127.148	-0.261	-0.332
-245.990	-100.791	-0.146	0.036
-244.976	-200.000	-0.058	-0.342
-243.961	774.556	-0.062	-0.169
-242.946	50.031	-0.179	0.169
-241.932	-4.334	0.293	0.203
-240.917	-200.000	-0.012	0.196
-239.903	-8.959	0.079	0.053
-238.888	-27.022	0.288	0.168
-237.873	-158.919	-0.338	-0.019
-236.859	-39.543	0.099	0.052
-235.844	-73.574	-0.184	-0.067
-234.830	519.909	-0.060	0.141
-233.815	321.868	0.188	0.358
-232.800	-200.000	-0.004	-0.034
-231.786	-105.648	0.146	-0.033
-230.771	28.108	0.197	-0.167
-229.757	-200.000	-0.007	0.109
-228.742	227.727	0.169	0.275
-227.727	-200.000	-0.034	-0.246
-226.713	-30.635	0.039	-0.022
-225.698	-139.366	-0.356	-0.038
-224.684	118.457	-0.169	0.209
-223.669	-100.899	-0.264	0.065
-222.655	-66.841	0.394	-0.156
-221.640	53.134	0.085	0.082
-220.625	-200.000	-0.280	-0.001
-219.611	227.485	0.031	0.050
-218.596	-200.000	-0.014	0.163
-217.582	-14.586	-0.095	-0.061
-216.567	289.530	-0.171	0.310
-215.552	55.526	-0.196	0.190
-214.538	-34.494	0.104	0.057
-213.523	-200.000	-0.017	-0.271
-212.509	83.582	-0.104	-0.113
-211.494	71.523	-0.059	-0.061
-210.479	60.201	0.171	0.169
-209.465	-200.000	0.026	-0.216
-208.450	-200.000	0.041	0.245
-207.436	800.000	0.070	0.214
-206.421	25.335	0.100	-0.083
-205.406	-76.799	0.146	0.051
-204.392	-154.393	0.115	-0.008
-203.377	-48.284	-0.362	0.175
-202.363	-38.548	0.274	0.145
-201.348	-73.887	0.259	0.094
-200.333	-200.000	0.037	-0.270
-199.319	18.785	-0.197	0.158
-198.304	25.770	-0.083	-0.069
-197.290	373.349	-0.059	-0.119
-196.275	-200.000	0.023	0.116
-195.260	204.403	0.121	-0.188
-194.246	-200.000	0.015	0.098
-193.231	-90.119	-0.106	-0.031
-192.217	-190.918	-0.397	-0.004
-191.202	17.303	-0.089	0.071
-190.187	-122.405	-0.164	-0.027
-189.173	-54.750	0.310	0.140
-188.158	133.445	0.026	0.034
-187.144	68.963	-0.199	-0.205
-186.129	-200.000	-0.024	-0.105
-185.114	-146.726	0.126	-0.011
-184.100	-137.706	-0.228	0.026
-183.085	82.593	-0.058	-0.063
-182.071	-200.000	0.037	-0.168
-181.056	86.979	-0.163	-0.180
-180.042	132.419	-0.195	0.252
-179.027	557.600	-0.105	0.252
-178.012	-42.514	-0.059	0.030
-176.998	649.714	0.067	-0.172
-175.983	800.000	0.099	-0.328
-174.969	14.421	-0.205	0.160
-173.954	37.568	0.121	-0.108
-172.939	-200.000	-0.023	0.310
-171.925	133.882	-0.128	-0.165
-170.910	-200.000	0.030	-0.307
-169.896	258.352	0.144	-0.248
-168.881	-95.316	-0.161	-0.043
-167.866	-94.094	0.353	0.097
-166.852	111.168	0.080	0.096
-165.837	-14.634	0.055	-0.035
-164.823	774.105	0.121	-0.329
-163.808	152.975	-0.196	0.267
-162.793	491.331	0.060	0.136
-161.779	-200.000	0.040	0.350
-160.764	-34.856	-0.074	0.041
-159.750	-65.476	-0.281	-0.113
-158.735	389.231	-0.076	0.157
-157.720	-194.212	0.257	-0.002
-156.706	-200.000	0.022	-0.153
-155.691	90.235	-0.256	0.286
-154.677	-118.545	0.080	-0.014
-153.662	-89.540	-0.168	-0.049
-152.647	-200.000	0.008	-0.169
-151.633	-200.000	0.044	-0.431
-150.618	32.715	-0.187	-0.161
-149.604	189.362	0.118	-0.177
-148.589	-111.662	0.135	-0.027
-147.574	-200.000	0.009	-0.062
-146.560	-92.332	0.221	0.062
-145.545	800.000	0.040	0.135
-144.531	-108.735	-0.093	0.020
-143.516	-200.000	-0.011	0.154
-142.502	-52.555	0.328	-0.151
-141.487	-200.000	-0.020	0.174
-140.472	800.000	-0.042	-0.143
-139.458	-126.485	-0.218	0.032
-138.443	-56.246	-0.191	-0.085
-137.429	-106.823	0.103	-0.023
-136.414	-103.978	-0.271	-0.063
-135.399	216.758	0.182	-0.290
-134.385	573.366	0.059	0.143
-133.370	-200.000	0.031	0.173
-132.356	-145.864	-0.264	-0.023
-131.341	-200.000	-0.002	0.370
-130.326	82.092	0.055	0.060
-129.312	220.080	0.039	-0.063
-128.297	-49.088	0.368	-0.176
-127.283	161.223	-0.086	-0.119
-126.268	-200.000	0.013	-0.126
-125.253	-47.690	-0.189	-0.091
-124.239	-200.000	-0.030	-0.144
-123.224	-90.816	-0.285	0.082
-122.210	147.723	-0.076	0.103
