DTS Sentinel unit serial number:	SN413079Multiplexer serial number:	ORYXHardware model number:	OX4-SRSoftware version number:	ORYX F/W v4.00 Oryx Data Collector v3.7.2.0data status	okinstallation	princeton_trtdifferential loss correction	single-endedforward channel	channel 1reverse channel	N/Adate	2019/09/16time	02:50:35forward acquisition time	60.00reverse acquisition time	0.00gamma	496.2192k internal	0.2331k external	0.2331temperature offset calibration	0.9976default loss term (dB/km)	0.3790temperature slope calibration	1.0000multiplexer offset coefficient	1.0000multiplexer slope coefficient	1.0000fibre end	0.00T internal ref (°C)	27.75T ext. ref 1 (°C)	10.36T ext. ref 2 (°C)	22.24length (m)	temperature (°C)	Stokes	anti-Stokes-747.200	800.000	0.065	0.207
-746.185	-17.593	0.187	0.118
-745.171	0.505	-0.084	0.061
-744.156	-71.779	-0.097	-0.036
-743.142	-200.000	0.027	0.217
-742.127	-200.000	0.016	0.203
-741.112	205.947	0.077	0.121
-740.098	-200.000	0.057	0.527
-739.083	-200.000	-0.012	0.210
-738.069	800.000	0.074	0.260
-737.054	-20.524	-0.265	0.164
-736.039	63.370	-0.326	-0.329
-735.025	-118.349	0.149	-0.027
-734.010	-47.535	0.196	-0.096
-732.996	147.238	-0.245	-0.332
-731.981	-32.817	0.222	-0.124
-730.966	140.513	-0.183	0.244
-729.952	59.874	0.163	0.162
-728.937	-116.209	-0.281	-0.052
-727.923	71.409	-0.118	0.123
-726.908	-104.823	0.182	-0.042
-725.894	-74.911	-0.174	-0.063
-724.879	-98.465	0.201	0.052
-723.864	380.611	0.229	-0.472
-722.850	-200.000	-0.039	-0.173
-721.835	-62.650	0.054	-0.023
-720.821	-200.000	-0.011	0.105
-719.806	-92.290	-0.256	-0.073
-718.791	16.852	-0.121	0.097
-717.777	-16.635	-0.103	-0.065
-716.762	35.320	0.150	-0.132
-715.748	132.883	0.130	-0.169
-714.733	252.253	0.088	-0.151
-713.718	361.633	0.058	-0.117
-712.704	-14.535	-0.369	-0.239
-711.689	-165.797	0.043	0.002
-710.675	329.695	-0.177	-0.343
-709.660	4.496	0.204	0.151
-708.645	532.134	-0.028	-0.067
-707.631	-26.955	-0.130	-0.076
-706.616	428.357	0.244	-0.531
-705.602	-200.000	-0.014	-0.271
-704.587	-23.859	-0.192	0.115
-703.572	16.604	0.044	0.035
-702.558	-200.000	0.026	-0.204
-701.543	-13.729	0.192	0.125
-700.529	94.683	-0.054	0.061
-699.514	-100.903	0.119	0.029
-698.499	96.128	0.164	-0.188
-697.485	-66.750	0.118	0.047
-696.470	-39.253	0.049	0.026
-695.456	-92.016	-0.352	-0.100
-694.441	800.000	-0.051	-0.144
-693.426	800.000	-0.055	0.229
-692.412	-108.498	-0.344	0.074
-691.397	423.056	0.163	0.351
-690.383	88.159	0.266	-0.297
-689.368	635.764	0.030	-0.076
-688.354	-73.446	-0.189	0.069
-687.339	-200.000	-0.043	0.420
-686.324	-153.373	0.334	0.023
-685.310	800.000	0.055	-0.213
-684.295	-149.376	0.077	0.006
-683.281	-174.078	-0.180	-0.005
-682.266	-141.729	0.327	-0.033
-681.251	97.095	-0.119	0.138
-680.237	-200.000	-0.001	-0.018
-679.222	-152.384	0.254	-0.018
-678.208	358.502	-0.155	0.311
-677.193	-200.000	-0.014	-0.094
-676.178	125.979	-0.148	-0.188
-675.164	-63.052	0.027	-0.011
-674.149	-127.821	0.248	0.036
-673.135	-200.000	0.058	0.266
-672.120	-200.000	0.018	0.137
-671.105	-200.000	0.027	-0.306
-670.091	-200.000	-0.038	-0.176
-669.076	800.000	0.030	-0.085
-668.062	415.717	-0.051	-0.110
-667.047	239.955	-0.085	-0.142
-666.032	80.195	0.199	-0.215
-665.018	61.380	-0.242	0.241
-664.003	-99.500	0.322	-0.081
-662.989	-200.000	0.009	-0.202
-661.974	239.895	0.146	0.243
-660.959	8.218	-0.154	-0.116
-659.945	-165.108	-0.063	-0.003
-658.930	22.916	0.050	-0.041
-657.916	105.828	0.148	-0.175
-656.901	-157.411	0.137	-0.008
-655.886	192.174	-0.199	-0.301
-654.872	175.698	-0.069	-0.101
-653.857	-38.308	-0.113	-0.060
-652.843	-200.000	0.001	0.094
-651.828	356.536	0.062	-0.124
-650.814	-67.072	0.212	0.084
-649.799	-130.994	-0.355	0.048
-648.784	-134.678	-0.061	0.007
-647.770	100.686	0.331	-0.386
-646.755	-170.742	-0.106	-0.004
-645.741	15.906	-0.115	0.090
-644.726	-47.310	-0.297	-0.145
-643.711	-57.800	0.251	-0.110
-642.697	46.190	-0.113	0.104
-641.682	148.996	-0.110	0.150
-640.668	-131.073	0.290	-0.039
-639.653	-86.146	-0.196	-0.061
-638.638	58.546	-0.045	-0.044
-637.624	-164.895	-0.079	-0.004
-636.609	-200.000	0.007	0.077
-635.595	-117.570	-0.091	0.017
-634.580	58.156	-0.074	0.073
-633.565	-121.814	0.091	-0.015
-632.551	-200.000	-0.030	-0.188
-631.536	65.843	0.080	-0.081
-630.522	106.048	-0.108	-0.129
-629.507	-111.529	0.487	0.099
-628.492	-17.245	0.077	-0.049
-627.478	158.520	0.037	0.051
-626.463	800.000	0.039	0.121
-625.449	262.651	0.199	0.346
-624.434	-200.000	0.015	0.077
-623.419	189.670	-0.302	-0.453
-622.405	-133.963	0.261	-0.032
-621.390	-34.823	0.206	0.113
-620.376	-65.958	-0.148	-0.059
-619.361	800.000	0.085	-0.324
-618.346	78.421	0.203	0.218
-617.332	27.155	-0.397	-0.334
-616.317	108.083	-0.149	-0.177
-615.303	-44.764	-0.335	0.168
-614.288	-178.742	0.302	-0.007
-613.273	786.417	-0.047	-0.130
-612.259	-200.000	0.029	-0.389
-611.244	-200.000	0.046	-0.239
-610.230	-200.000	0.032	-0.263
-609.215	-116.225	0.186	-0.035
-608.201	-3.791	0.146	-0.102
-607.186	174.191	0.165	-0.239
-606.171	399.325	0.040	0.084
-605.157	-88.973	0.106	-0.031
-604.142	800.000	0.008	0.021
-603.128	-114.187	0.261	0.050
-602.113	356.087	0.064	0.127
-601.098	99.438	0.064	-0.075
-600.084	-99.876	-0.243	0.061
-599.069	698.055	0.074	0.194
-598.055	800.000	-0.048	-0.187
-597.040	-60.502	-0.075	-0.032
-596.025	-200.000	-0.026	0.365
-595.011	-200.000	0.000	-0.233
-593.996	-109.181	-0.056	0.012
-592.982	773.592	-0.132	-0.360
-591.967	-17.394	-0.100	-0.063
-590.952	-167.993	-0.250	-0.010
-589.938	-59.061	0.114	0.049
-588.923	-71.764	-0.128	0.048
-587.909	-36.624	0.181	0.097
-586.894	800.000	0.133	0.480
-585.879	-200.000	-0.025	0.586
-584.865	800.000	0.071	0.243
-583.850	-200.000	-0.029	0.511
-582.836	-4.813	0.034	-0.024
-581.821	-63.874	0.239	-0.098
-580.806	36.072	-0.143	0.126
-579.792	-200.000	-0.027	0.211
-578.777	115.213	-0.090	0.110
-577.763	800.000	0.047	-0.137
-576.748	-200.000	0.029	0.176
-575.733	-200.000	0.023	-0.195
-574.719	-200.000	-0.005	0.207
-573.704	-33.111	-0.137	0.076
-572.690	281.634	0.121	-0.217
-571.675	-61.532	-0.217	-0.091
-570.661	-115.753	0.068	0.013
-569.646	5.872	-0.162	-0.120
-568.631	387.303	0.089	0.184
-567.617	417.176	0.082	-0.175
-566.602	-126.949	-0.216	-0.032
-565.588	278.049	0.175	-0.311
-564.573	-73.035	-0.076	-0.028
-563.558	-36.100	-0.241	-0.130
-562.544	-159.179	-0.321	-0.018
-561.529	-119.733	0.169	-0.029
-560.515	37.570	0.161	0.143
-559.500	135.439	-0.376	-0.489
-558.485	-68.582	-0.140	0.054
-557.471	340.761	-0.141	0.275
-556.456	-6.208	0.385	-0.263
-555.442	29.512	0.187	0.159
-554.427	-200.000	-0.026	0.237
-553.412	-43.510	0.239	0.120
-552.398	800.000	0.037	-0.123
-551.383	-26.294	-0.080	-0.047
-550.369	-104.055	-0.088	0.020
-549.354	-200.000	0.022	0.106
-548.339	-187.620	0.233	-0.003
-547.325	800.000	-0.035	0.125
-546.310	66.155	0.230	-0.233
-545.296	104.781	0.106	-0.125
-544.281	800.000	0.029	0.099
-543.266	-49.227	-0.278	-0.132
-542.252	-139.198	0.214	0.023
-541.237	363.660	-0.075	0.150
-540.223	646.067	0.041	-0.104
-539.208	-139.180	-0.115	-0.012
-538.193	1.465	0.078	-0.056
-537.179	398.682	0.038	0.080
-536.164	94.894	-0.104	-0.118
-535.150	-74.170	-0.242	0.088
-534.135	-84.005	0.129	0.041
-533.121	44.210	-0.425	-0.390
-532.106	-189.822	-0.063	-0.001
-531.091	-83.347	-0.242	0.077
-530.077	-55.865	-0.310	-0.138
-529.062	32.721	0.157	0.136
-528.048	44.012	-0.292	0.267
-527.033	-200.000	-0.062	-0.358
-526.018	204.956	-0.058	0.089
-525.004	-97.277	0.091	0.024
-523.989	-107.689	-0.052	0.011
-522.975	-66.067	0.074	-0.029
-521.960	249.307	0.045	-0.075
-520.945	-19.650	-0.185	-0.114
-519.931	158.592	-0.116	0.160
-518.916	-156.157	0.178	0.011
-517.902	84.056	-0.171	0.186
-516.887	74.551	-0.191	-0.200
-515.872	92.051	-0.128	0.144
-514.858	-97.090	-0.256	0.067
-513.843	-94.692	0.245	-0.067
-512.829	102.822	0.113	0.132
-511.814	397.428	0.161	0.337
-510.799	-104.199	-0.176	0.041
-509.785	800.000	0.042	0.151
-508.770	-200.000	-0.036	0.272
-507.756	-27.806	0.161	-0.093
-506.741	-200.000	0.002	0.064
-505.726	-62.815	0.337	-0.139
-504.712	-200.000	0.040	0.200
-503.697	-35.538	-0.066	-0.036
-502.683	-142.672	0.088	0.009
-501.668	136.515	0.025	-0.033
-500.653	-29.516	0.203	0.116
-499.639	189.023	0.224	-0.334
-498.624	-100.028	-0.324	-0.081
-497.610	43.339	-0.112	0.102
-496.595	-200.000	0.020	-0.144
-495.581	-63.813	0.170	0.070
-494.566	-150.401	-0.325	-0.025
-493.551	-29.761	-0.027	0.015
-492.537	94.229	-0.204	0.230
-491.522	-200.000	0.019	-0.218
-490.508	2.377	-0.347	0.250
-489.493	-200.000	-0.036	-0.277
-488.478	388.776	0.120	-0.248
-487.464	-17.260	-0.018	0.011
-486.449	182.738	0.175	-0.257
-485.435	-63.838	0.115	-0.047
-484.420	-42.860	0.307	-0.155
-483.405	-53.170	0.197	-0.090
-482.391	-2.181	0.155	-0.108
-481.376	-200.000	-0.004	-0.248
-480.362	375.446	-0.108	0.220
-479.347	-11.707	0.040	-0.026
-478.332	-147.400	0.200	0.017
-477.318	567.632	-0.056	0.134
-476.303	127.466	-0.053	0.067
-475.289	410.666	0.038	0.080
-474.274	-95.183	-0.103	0.028
-473.259	-96.737	0.414	-0.109
-472.245	-84.700	0.330	-0.104
-471.230	572.823	-0.046	0.113
-470.216	-117.990	-0.066	-0.012
-469.201	800.000	-0.088	0.336
-468.186	572.995	0.061	0.147
-467.172	-200.000	-0.011	-0.153
-466.157	-200.000	0.021	-0.161
-465.143	-114.732	-0.608	0.116
-464.128	-114.309	0.157	-0.030
-463.113	38.038	-0.213	-0.188
-462.099	583.944	0.124	-0.304
-461.084	-200.000	-0.027	-0.166
-460.070	29.656	0.253	0.214
-459.055	-56.082	-0.220	0.097
-458.040	-200.000	0.029	-0.342
-457.026	16.213	0.134	0.105
-456.011	-30.615	0.170	-0.096
-454.997	-200.000	0.010	0.301
-453.982	261.202	-0.174	0.300
-452.968	-200.000	0.033	-0.334
-451.953	24.068	-0.132	-0.108
-450.938	421.496	0.115	0.245
-449.924	104.384	0.254	-0.297
-448.909	93.177	-0.117	0.131
-447.895	28.569	0.252	-0.212
-446.880	-200.000	0.057	-0.417
-445.865	-200.000	0.006	-0.264
-444.851	-119.881	-0.219	0.037
-443.836	-51.390	0.206	-0.096
-442.822	202.852	0.110	0.170
-441.807	342.635	-0.034	-0.067
-440.792	144.463	-0.107	-0.142
-439.778	800.000	0.018	0.058
-438.763	-200.000	-0.062	0.273
-437.749	-150.060	-0.410	0.032
-436.734	668.529	0.154	0.397
-435.719	-136.229	0.272	-0.032
-434.705	147.554	-0.080	-0.107
-433.690	-200.000	0.033	-0.229
-432.676	189.206	0.109	-0.162
-431.661	50.199	0.225	0.211
-430.646	-200.000	0.009	-0.153
-429.632	-91.161	0.119	-0.034
-428.617	-15.453	-0.176	-0.112
-427.603	-200.000	-0.022	0.124
-426.588	-103.376	-0.207	-0.049
-425.573	-200.000	0.008	0.066
-424.559	-74.520	0.373	-0.134
-423.544	-30.624	-0.291	0.164
-422.530	800.000	0.131	0.442
-421.515	72.357	-0.254	-0.263
-420.500	61.577	-0.108	-0.107
-419.486	-139.635	0.189	0.020
-418.471	-200.000	-0.012	0.140
-417.457	94.176	-0.131	0.148
-416.442	-17.522	0.167	-0.104
-415.428	-200.000	-0.014	0.142
-414.413	-200.000	-0.022	0.338
-413.398	-80.422	-0.229	-0.076
-412.384	-112.390	0.319	-0.063
-411.369	-52.881	-0.174	0.080
-410.355	427.106	0.064	-0.136
-409.340	-31.331	0.110	-0.061
-408.325	141.441	0.168	-0.221
-407.311	18.387	0.372	-0.295
-406.296	24.774	-0.332	-0.273
-405.282	-114.727	-0.274	-0.052
-404.267	-152.634	0.078	0.006
-403.252	-13.360	-0.163	0.105
-402.238	-200.000	0.014	-0.168
-401.223	-200.000	-0.019	-0.123
-400.209	800.000	-0.071	0.224
-399.194	99.725	-0.080	-0.092
-398.179	109.683	-0.110	0.131
-397.165	-98.828	-0.370	0.094
-396.150	-107.976	-0.110	0.024
-395.136	109.119	-0.247	0.294
-394.121	800.000	-0.052	0.145
-393.106	-113.827	-0.183	0.035
-392.092	-18.724	0.097	-0.060
-391.077	118.360	-0.104	0.128
-390.063	13.873	0.201	0.155
-389.048	800.000	-0.048	-0.200
-388.033	130.439	-0.117	-0.149
-387.019	-185.713	-0.303	0.005
-386.004	82.107	0.143	0.154
-384.990	64.073	0.116	0.115
-383.975	-82.072	-0.356	0.115
-382.960	-40.940	0.153	0.079
-381.946	19.726	-0.122	-0.097
-380.931	-200.000	-0.046	0.228
-379.917	82.918	0.021	0.022
-378.902	800.000	0.048	0.167
-377.888	800.000	-0.075	0.250
-376.873	11.717	0.180	-0.137
-375.858	-3.958	-0.187	0.129
-374.844	-93.436	0.116	-0.032
-373.829	-200.000	-0.002	-0.042
-372.815	513.081	0.019	-0.043
-371.800	-96.778	-0.080	-0.021
-370.785	-105.133	0.215	0.049
-369.771	-124.958	0.147	-0.022
-368.756	152.025	0.136	0.184
-367.742	280.288	-0.127	0.224
-366.727	-63.509	0.155	0.063
-365.712	-81.355	0.321	0.105
-364.698	75.668	0.208	-0.218
-363.683	-142.185	-0.239	0.024
-362.669	-137.950	0.133	0.015
-361.654	-200.000	-0.099	0.476
-360.639	-200.000	0.003	0.353
-359.625	-200.000	0.020	0.168
-358.610	-200.000	-0.053	-0.241
-357.596	-173.892	0.293	-0.009
-356.581	33.951	-0.366	-0.316
-355.566	-64.351	-0.115	-0.046
-354.552	-171.375	-0.361	0.012
-353.537	-200.000	-0.045	0.675
-352.523	-172.342	0.416	-0.013
-351.508	-14.081	-0.081	0.052
-350.493	-80.619	-0.158	-0.052
-349.479	-75.178	0.392	-0.139
-348.464	-200.000	-0.052	-0.401
-347.450	-167.170	0.117	-0.005
-346.435	-82.822	-0.229	-0.073
-345.420	-96.669	-0.245	-0.064
-344.406	-70.843	-0.079	-0.029
-343.391	-131.892	0.120	0.015
-342.377	334.015	0.057	-0.110
-341.362	261.519	0.104	-0.179
-340.348	800.000	0.056	0.225
-339.333	-61.713	-0.084	0.035
-338.318	800.000	0.006	0.020
-337.304	-145.510	-0.141	0.013
-336.289	-30.793	-0.372	0.208
-335.275	89.571	-0.140	0.155
-334.260	-14.021	0.116	-0.074
-333.245	5.149	0.281	-0.205
-332.231	-36.822	-0.163	0.087
-331.216	-20.659	0.156	0.095
-330.202	74.730	0.172	0.179
-329.187	0.431	0.023	0.017
-328.172	-102.514	0.175	0.041
-327.158	-24.759	0.150	-0.088
-326.143	-69.693	0.251	0.095
-325.129	57.522	-0.169	-0.164
-324.114	800.000	-0.131	0.530
-323.099	-136.589	-0.354	-0.041
-322.085	-60.796	-0.409	-0.171
-321.070	20.076	0.155	-0.124
-320.056	800.000	-0.079	0.282
-319.041	-142.338	-0.177	0.017
-318.026	653.121	0.200	-0.507
-317.012	-166.364	0.369	0.015
-315.997	-200.000	-0.007	0.234
-314.983	133.965	0.154	-0.197
-313.968	800.000	0.050	0.135
-312.953	-200.000	0.053	-0.343
-311.939	469.385	-0.043	0.096
-310.924	297.791	0.019	-0.035
-309.910	-200.000	0.052	-0.365
-308.895	127.873	-0.166	-0.209
-307.880	-200.000	0.021	-0.113
-306.866	9.167	0.157	0.117
-305.851	-156.312	-0.169	-0.010
-304.837	-96.000	-0.371	-0.098
-303.822	272.192	0.044	0.076
-302.807	324.376	0.042	0.079
-301.793	-200.000	-0.005	-0.113
-300.778	407.536	-0.034	0.070
-299.764	146.455	-0.072	0.096
-298.749	16.260	-0.310	0.242
-297.735	-68.340	-0.106	-0.041
-296.720	-28.912	-0.117	0.067
-295.705	-32.615	-0.204	0.113
-294.691	412.201	-0.073	0.153
-293.676	126.675	-0.028	0.035
-292.662	66.470	-0.395	-0.397
-291.647	-54.364	0.151	0.068
-290.632	-54.984	0.140	0.063
-289.618	-84.861	0.131	-0.041
-288.603	27.933	0.247	0.206
-287.589	66.399	0.150	0.151
-286.574	800.000	-0.055	0.153
-285.559	26.792	0.286	0.237
-284.545	-30.210	0.107	-0.060
-283.530	-129.046	-0.555	0.077
-282.516	800.000	0.138	-0.424
-281.501	-59.357	-0.394	0.167
-280.486	-48.756	0.177	0.084
-279.472	-200.000	0.020	-0.174
-278.457	-200.000	-0.042	-0.230
-277.443	-110.154	0.185	-0.038
-276.428	78.937	0.130	-0.137
-275.413	-42.955	-0.026	0.013
-274.399	-87.353	0.015	0.005
-273.384	156.756	0.062	0.084
-272.370	-30.129	0.183	-0.103
-271.355	-113.194	0.256	0.050
-270.340	-45.010	0.253	0.124
-269.326	52.998	0.110	0.104
-268.311	-79.244	0.213	-0.071
-267.297	-200.000	0.029	-0.169
-266.282	23.184	-0.240	-0.195
-265.267	-200.000	0.050	0.350
-264.253	-106.829	-0.256	0.056
-263.238	-145.157	0.278	-0.025
-262.224	-100.268	0.066	0.016
-261.209	-161.761	-0.117	0.006
-260.195	55.336	0.077	0.073
-259.180	80.343	0.091	-0.097
-258.165	-200.000	-0.026	0.179
-257.151	800.000	-0.059	-0.246
-256.136	-53.994	-0.323	-0.145
-255.122	24.949	-0.101	-0.083
-254.107	143.942	0.046	-0.061
-253.092	471.174	0.092	0.204
-252.078	44.684	-0.345	0.313
-251.063	586.352	0.137	0.333
-250.049	682.921	-0.016	0.042
-249.034	800.000	0.087	0.295
-248.019	139.006	-0.272	0.353
-247.005	26.677	-0.086	-0.071
-245.990	-200.000	-0.025	0.221
-244.976	-98.697	0.307	0.077
-243.961	127.429	-0.177	-0.221
-242.946	-200.000	0.007	0.368
-241.932	-178.931	0.018	-0.000
-240.917	-9.320	0.255	-0.168
-239.903	-65.927	-0.189	0.074
-238.888	-98.919	0.368	0.092
-237.873	-33.317	-0.258	0.141
-236.859	134.841	0.110	0.141
-235.844	-198.532	-0.153	-0.001
-234.830	-41.640	0.259	0.131
-233.815	-3.232	0.451	-0.310
-232.800	-68.747	0.265	0.101
-231.786	122.530	0.156	0.192
-230.771	21.292	0.223	0.179
-229.757	296.086	0.174	0.315
-228.742	-138.052	-0.381	-0.042
-227.727	94.340	0.181	-0.203
-226.713	180.502	0.102	0.148
-225.698	-24.394	-0.258	-0.152
-224.684	-200.000	-0.021	-0.236
-223.669	-5.783	0.181	0.122
-222.655	14.797	-0.212	0.164
-221.640	35.765	-0.045	-0.039
-220.625	-28.130	-0.255	0.146
-219.611	56.618	-0.305	-0.293
-218.596	27.401	0.028	-0.023
-217.582	-200.000	-0.012	0.142
-216.567	17.669	-0.082	0.064
-215.552	-11.147	-0.147	-0.096
-214.538	-93.101	0.226	-0.062
-213.523	43.162	-0.040	-0.036
-212.509	143.621	0.134	-0.176
-211.494	-176.921	0.172	-0.004
-210.479	-113.139	-0.259	0.050
-209.465	5.354	-0.288	0.210
-208.450	-67.750	0.076	-0.029
-207.436	-35.780	0.145	-0.078
-206.421	23.559	-0.286	-0.232
-205.406	-110.222	-0.258	-0.053
-204.392	76.586	0.174	-0.182
-203.377	0.175	0.185	-0.130
-202.363	38.817	0.107	-0.094
-201.348	-114.648	-0.295	0.056
-200.333	800.000	0.091	0.252
-199.319	-1.082	-0.141	-0.098
-198.304	-80.509	0.494	0.162
-197.290	248.296	0.221	-0.368
-196.275	19.176	0.079	-0.062
-195.260	337.720	-0.157	-0.301
-194.246	67.563	0.168	-0.169
-193.231	-55.419	0.176	0.078
-192.217	351.893	-0.092	-0.180
-191.202	79.341	0.085	0.089
-190.187	-34.570	0.222	-0.120
-189.173	47.792	0.322	-0.296
-188.158	-121.159	-0.397	0.065
-187.144	-113.706	-0.179	-0.034
-186.129	-123.586	-0.361	-0.056
-185.114	369.216	0.184	-0.367
-184.100	4.032	-0.330	-0.237
-183.085	800.000	-0.059	0.166
-182.071	-200.000	-0.073	0.320
-181.056	-165.690	-0.360	0.015
-180.042	-91.033	0.321	0.091
-179.027	25.700	0.143	-0.117
-178.012	312.049	0.327	-0.605
-176.998	-54.814	0.160	-0.071
-175.983	107.027	-0.125	0.147
-174.969	-200.000	0.069	0.000
-173.954	-200.000	0.007	-0.146
-172.939	800.000	0.094	0.370
-171.925	800.000	0.033	0.103
-170.910	-50.347	0.229	0.107
-169.896	121.787	0.125	0.154
-168.881	800.000	0.046	0.173
-167.866	-55.902	-0.343	-0.151
-166.852	26.776	-0.132	0.109
-165.837	-80.957	-0.067	-0.022
-164.823	489.644	0.120	-0.269
-163.808	-110.089	-0.228	0.047
-162.793	35.628	-0.038	0.033
-161.779	194.021	-0.148	0.221
-160.764	-200.000	0.004	0.192
-159.750	43.953	0.276	-0.249
-158.735	128.805	0.207	-0.259
-157.720	182.091	0.208	-0.301
-156.706	96.094	-0.112	0.126
-155.691	-123.983	0.044	0.007
-154.677	800.000	-0.017	0.050
-153.662	310.672	0.084	-0.156
-152.647	28.855	-0.115	0.096
-151.633	9.829	0.076	-0.057
-150.618	-47.943	-0.238	-0.113
-149.604	-200.000	0.016	0.203
-148.589	-126.267	0.161	-0.024
-147.574	72.144	0.341	0.349
-146.560	263.167	0.065	0.111
-145.545	800.000	0.018	0.058
-144.531	273.159	0.166	0.289
-143.516	108.210	0.340	0.399
-142.502	95.395	0.092	-0.103
-141.487	-56.122	-0.130	-0.057
-140.472	8.542	0.183	-0.135
-139.458	800.000	-0.035	-0.121
-138.443	195.261	-0.087	0.130
-137.429	7.051	0.137	0.101
-136.414	5.398	0.177	-0.128
-135.399	-200.000	0.009	0.315
-134.385	-200.000	-0.001	0.207
-133.370	800.000	-0.083	0.291
-132.356	-29.896	-0.242	-0.136
-131.341	-65.383	-0.096	0.038
-130.326	-200.000	0.066	-0.300
-129.312	-165.643	0.298	0.013
-128.297	332.008	-0.209	-0.396
-127.283	-87.135	0.440	-0.131
-126.268	-95.845	-0.330	0.087
-125.253	144.438	0.165	0.216
-124.239	297.545	0.088	0.159
-123.224	349.608	-0.178	0.345
-122.210	-129.172	0.417	0.057
-121.195	-200.000	-0.026	0.126
-120.180	-32.834	-0.417	0.227
