DTS Sentinel unit serial number:	SN413079Multiplexer serial number:	ORYXHardware model number:	OX4-SRSoftware version number:	ORYX F/W v4.00 Oryx Data Collector v3.7.2.0data status	okinstallation	princeton_trtdifferential loss correction	single-endedforward channel	channel 1reverse channel	N/Adate	2019/09/11time	09:52:11forward acquisition time	60.00reverse acquisition time	0.00gamma	496.2192k internal	0.2303k external	0.2303temperature offset calibration	0.9953default loss term (dB/km)	0.3790temperature slope calibration	1.0000multiplexer offset coefficient	1.0000multiplexer slope coefficient	1.0000fibre end	0.00T internal ref (°C)	35.11T ext. ref 1 (°C)	0.12T ext. ref 2 (°C)	32.30length (m)	temperature (°C)	Stokes	anti-Stokes-747.200	3.053	-0.148	-0.110
-746.185	53.546	-0.152	0.148
-745.171	-110.075	-0.097	0.021
-744.156	288.907	0.111	0.204
-743.142	800.000	-0.090	0.266
-742.127	-15.630	-0.296	0.192
-741.112	-139.777	0.056	0.006
-740.098	-82.403	-0.155	0.051
-739.083	212.773	0.012	-0.019
-738.069	-17.972	0.141	0.090
-737.054	-83.141	0.167	-0.055
-736.039	76.037	-0.115	0.124
-735.025	-101.664	0.201	-0.050
-734.010	-41.041	-0.262	-0.138
-732.996	-200.000	0.007	-0.133
-731.981	-17.075	-0.246	-0.158
-730.966	-28.223	-0.164	-0.096
-729.952	392.027	0.029	-0.062
-728.937	712.059	-0.103	-0.277
-727.923	238.158	0.073	0.123
-726.908	304.616	-0.080	0.150
-725.894	179.034	-0.056	-0.083
-724.879	-54.934	-0.161	0.074
-723.864	-5.569	-0.331	-0.231
-722.850	-149.353	0.109	0.009
-721.835	-151.764	-0.250	0.019
-720.821	-104.890	0.066	0.015
-719.806	800.000	-0.101	0.372
-718.791	117.347	0.163	0.204
-717.777	-40.691	-0.219	-0.116
-716.762	-166.905	-0.286	0.012
-715.748	-200.000	0.042	0.187
-714.733	168.863	-0.252	0.366
-713.718	-200.000	0.018	-0.206
-712.704	-185.880	0.210	-0.003
-711.689	78.420	0.346	0.376
-710.675	-200.000	-0.058	-0.311
-709.660	-170.115	0.139	0.005
-708.645	336.817	0.226	-0.447
-707.631	-66.790	-0.056	0.023
-706.616	53.181	-0.228	-0.222
-705.602	-5.695	-0.423	-0.295
-704.587	233.182	0.162	0.270
-703.572	-17.462	-0.255	0.163
-702.558	31.752	-0.201	0.176
-701.543	-80.675	-0.211	-0.071
-700.529	-200.000	-0.027	0.185
-699.514	-77.513	-0.155	0.055
-698.499	-71.031	-0.166	-0.064
-697.485	314.245	0.194	-0.371
-696.470	-200.000	0.026	0.208
-695.456	-63.411	0.226	0.095
-694.441	-21.404	-0.109	-0.068
-693.426	230.229	-0.170	-0.282
-692.412	102.131	0.180	0.214
-691.397	-46.259	-0.271	-0.136
-690.383	800.000	-0.117	-0.339
-689.368	-4.341	0.085	-0.060
-688.354	228.454	0.027	0.045
-687.339	-66.980	0.091	-0.037
-686.324	225.029	-0.085	0.140
-685.310	-58.812	-0.340	0.149
-684.295	-69.470	0.154	0.060
-683.281	-200.000	0.047	-0.340
-682.266	800.000	0.070	-0.223
-681.251	800.000	0.086	-0.249
-680.237	-0.502	0.192	-0.138
-679.222	-86.776	-0.098	-0.030
-678.208	-200.000	0.063	-0.483
-677.193	-106.670	-0.244	-0.055
-676.178	-130.502	-0.057	0.008
-675.164	-50.401	-0.184	0.088
-674.149	-126.409	-0.173	-0.026
-673.135	-69.231	0.246	0.096
-672.120	236.395	-0.127	0.213
-671.105	-130.024	-0.371	0.052
-670.091	800.000	0.051	0.213
-669.076	-200.000	-0.281	0.001
-668.062	310.354	0.085	0.161
-667.047	-53.006	0.251	-0.117
-666.032	3.327	0.096	-0.071
-665.018	-10.757	-0.251	0.169
-664.003	-200.000	0.011	0.092
-662.989	-152.345	-0.120	0.009
-661.974	178.046	-0.232	-0.343
-660.959	-79.833	0.191	-0.065
-659.945	-200.000	-0.051	0.530
-658.930	-16.261	0.131	-0.085
-657.916	393.705	-0.103	-0.217
-656.901	-49.998	-0.103	-0.049
-655.886	-189.211	-0.204	0.002
-654.872	-79.067	-0.146	-0.050
-653.857	-200.000	-0.019	-0.190
-652.843	-200.000	-0.033	-0.393
-651.828	33.150	-0.138	-0.122
-650.814	-82.617	-0.260	0.086
-649.799	20.210	-0.221	0.181
-648.784	-147.246	0.302	0.026
-647.770	800.000	0.089	0.338
-646.755	-200.000	-0.004	0.240
-645.741	210.546	0.177	0.282
-644.726	800.000	0.040	-0.115
-643.711	-42.317	0.155	0.080
-642.697	-89.530	-0.234	-0.070
-641.682	-58.302	0.067	0.030
-640.668	-27.761	-0.083	-0.049
-639.653	214.084	-0.176	-0.283
-638.638	528.521	0.139	-0.334
-637.624	800.000	-0.039	-0.170
-636.609	-16.239	-0.098	-0.063
-635.595	-110.904	-0.288	0.060
-634.580	-34.670	-0.054	0.030
-633.565	-111.162	-0.128	-0.027
-632.551	75.392	0.162	-0.174
-631.536	-106.362	0.360	-0.082
-630.522	329.974	-0.089	0.174
-629.507	60.156	0.016	0.016
-628.492	272.311	0.134	0.240
-627.478	-200.000	-0.043	0.439
-626.463	20.078	0.103	0.084
-625.449	800.000	0.021	0.069
-624.434	-200.000	0.023	0.278
-623.419	13.702	-0.134	0.106
-622.405	112.902	-0.127	-0.157
-621.390	111.895	0.181	-0.221
-620.376	541.256	-0.097	-0.234
-619.361	800.000	0.013	0.052
-618.346	-42.628	0.106	-0.055
-617.332	686.831	-0.035	0.092
-616.317	5.779	-0.294	-0.221
-615.303	-96.362	0.212	-0.057
-614.288	126.905	-0.078	-0.100
-613.273	-152.457	-0.034	0.002
-612.259	-200.000	0.032	-0.254
-611.244	479.155	-0.100	0.229
-610.230	-19.555	-0.193	0.121
-609.215	470.564	-0.217	-0.494
-608.201	800.000	0.048	-0.153
-607.186	-61.599	0.387	-0.165
-606.171	81.397	0.152	-0.167
-605.157	313.855	0.049	-0.094
-604.142	-118.911	-0.226	0.040
-603.128	-106.181	0.321	0.073
-602.113	-40.023	0.134	-0.071
-601.098	321.889	-0.263	0.506
-600.084	800.000	0.052	0.171
-599.069	126.365	0.088	-0.112
-598.055	-99.067	-0.193	-0.049
-597.040	314.311	-0.120	-0.229
-596.025	46.642	0.026	0.024
-595.011	-26.805	-0.159	-0.094
-593.996	-200.000	-0.017	-0.093
-592.982	94.730	-0.111	-0.128
-591.967	-3.926	0.273	-0.192
-590.952	-200.000	-0.060	0.318
-589.938	-133.249	0.157	0.020
-588.923	116.360	0.261	-0.324
-587.909	-75.483	0.416	-0.150
-586.894	80.797	-0.059	-0.065
-585.879	-33.437	-0.370	0.207
-584.865	19.121	-0.121	-0.099
-583.850	-136.626	-0.271	0.032
-582.836	-93.951	-0.350	0.097
-581.821	237.031	-0.117	-0.196
-580.806	-200.000	0.027	-0.263
-579.792	-24.979	-0.097	0.058
-578.777	21.158	0.157	0.129
-577.763	73.610	0.100	0.106
-576.748	-200.000	0.027	0.152
-575.733	-126.576	0.135	-0.020
-574.719	-120.746	-0.126	-0.022
-573.704	800.000	0.037	-0.105
-572.690	-200.000	-0.046	-0.216
-571.675	-96.631	0.137	0.037
-570.661	-77.351	-0.233	-0.082
-569.646	49.659	-0.041	-0.039
-568.631	-200.000	0.032	0.199
-567.617	187.905	-0.083	-0.126
-566.602	-200.000	0.002	-0.028
-565.588	-200.000	-0.021	0.108
-564.573	-200.000	-0.009	0.141
-563.558	336.539	0.098	0.192
-562.544	163.925	-0.062	-0.089
-561.529	-200.000	0.025	0.139
-560.515	40.418	0.159	-0.145
-559.500	-109.264	-0.314	-0.067
-558.485	15.372	-0.205	0.162
-557.471	194.332	0.096	-0.146
-556.456	-200.000	-0.032	-0.175
-555.442	8.641	0.345	-0.263
-554.427	300.380	0.116	-0.216
-553.412	-79.467	-0.171	-0.058
-552.398	-97.691	-0.324	0.085
-551.383	51.804	0.150	-0.144
-550.369	-18.103	-0.328	0.207
-549.354	800.000	0.029	-0.108
-548.339	40.600	0.025	0.022
-547.325	50.897	0.135	0.130
-546.310	-200.000	-0.007	0.230
-545.296	75.408	-0.041	-0.043
-544.281	-28.993	0.251	-0.146
-543.266	160.210	0.139	0.196
-542.252	-4.245	0.159	0.111
-541.237	800.000	0.035	-0.109
-540.223	74.249	-0.233	-0.247
-539.208	173.418	0.196	0.286
-538.193	285.316	-0.130	-0.238
-537.179	-75.459	0.245	0.088
-536.164	-22.353	-0.263	0.161
-535.150	316.325	0.125	0.239
-534.135	800.000	-0.019	-0.071
-533.121	162.538	-0.241	-0.341
-532.106	67.441	0.186	0.192
-531.091	100.682	-0.164	-0.193
-530.077	-117.180	0.462	0.085
-529.062	181.132	0.142	0.210
-528.048	28.760	0.134	0.115
-527.033	800.000	-0.018	0.058
-526.018	-154.783	0.436	-0.029
-525.004	-200.000	0.003	-0.257
-523.989	178.984	-0.123	0.182
-522.975	-200.000	-0.018	0.112
-521.960	142.499	0.276	-0.371
-520.945	-155.294	-0.165	-0.011
-519.931	349.116	-0.067	0.133
-518.916	-191.896	-0.029	0.000
-517.902	14.291	-0.152	-0.120
-516.887	-79.119	0.235	0.080
-515.872	800.000	0.048	0.152
-514.858	-200.000	-0.185	-0.001
-513.843	-121.898	-0.104	0.017
-512.829	-56.308	0.246	-0.110
-511.814	-200.000	0.014	-0.299
-510.799	-102.869	-0.299	-0.072
-509.785	-166.282	0.601	-0.026
-508.770	-4.530	0.034	0.024
-507.756	199.253	-0.168	-0.259
-506.741	-200.000	-0.006	0.045
-505.726	-172.714	-0.321	-0.010
-504.712	-200.000	0.018	-0.119
-503.697	-66.422	-0.150	0.060
-502.683	65.867	0.089	-0.091
-501.668	-123.811	0.088	-0.014
-500.653	37.903	-0.148	-0.133
-499.639	139.757	-0.093	0.124
-498.624	186.158	-0.045	-0.068
-497.610	-125.512	0.269	-0.041
-496.595	-72.058	-0.324	0.121
-495.581	109.237	-0.130	-0.157
-494.566	800.000	-0.040	-0.127
-493.551	800.000	0.070	0.208
-492.537	-71.246	-0.126	-0.048
-491.522	-200.000	-0.042	0.000
-490.508	-125.206	0.484	0.075
-489.493	-183.240	0.181	0.003
-488.478	564.866	0.090	-0.219
-487.464	-85.493	-0.331	0.104
-486.449	35.866	0.048	0.042
-485.435	116.253	0.119	-0.147
-484.420	-127.026	0.330	-0.049
-483.405	268.110	-0.090	-0.159
-482.391	-116.576	-0.042	0.008
-481.376	32.224	0.028	-0.025
-480.362	336.205	-0.148	-0.289
-479.347	800.000	0.042	-0.179
-478.332	-200.000	-0.054	0.437
-477.318	90.097	0.127	0.143
-476.303	-200.000	0.049	-0.231
-475.289	-200.000	-0.025	-0.277
-474.274	-200.000	0.001	-0.083
-473.259	-112.083	-0.213	-0.043
-472.245	-114.139	-0.219	-0.043
-471.230	-88.469	0.185	-0.056
-470.216	-200.000	-0.005	0.126
-469.201	-97.938	-0.195	-0.051
-468.186	-152.864	0.144	-0.010
-467.172	362.037	0.026	-0.053
-466.157	800.000	-0.126	-0.362
-465.143	2.111	-0.055	-0.040
-464.128	-142.337	-0.100	0.010
-463.113	-54.711	-0.200	-0.091
-462.099	-33.553	0.163	-0.091
-461.084	-19.994	-0.107	-0.067
-460.070	405.072	0.074	0.157
-459.055	47.645	-0.154	-0.145
-458.040	27.996	0.182	0.155
-457.026	-89.007	-0.295	-0.088
-456.011	800.000	-0.044	-0.190
-454.997	-21.477	-0.020	0.012
-453.982	39.441	-0.198	0.178
-452.968	-127.710	-0.346	0.050
-451.953	-120.405	-0.146	0.025
-450.938	-121.354	-0.193	0.032
-449.924	-200.000	-0.015	0.120
-448.909	-61.176	-0.336	-0.143
-447.895	83.669	-0.079	-0.087
-446.880	89.929	0.024	-0.027
-445.865	151.501	0.107	-0.147
-444.851	-145.223	-0.200	0.018
-443.836	-200.000	-0.037	0.221
-442.822	377.915	0.222	0.457
-441.807	327.641	0.109	0.211
-440.792	26.370	0.189	-0.159
-439.778	-171.066	-0.230	0.008
-438.763	483.720	-0.202	-0.463
-437.749	51.681	0.231	0.221
-436.734	18.257	0.160	-0.129
-435.719	368.080	-0.135	0.274
-434.705	67.037	-0.357	-0.366
-433.690	94.853	-0.098	-0.113
-432.676	-1.496	0.326	-0.232
-431.661	456.435	0.035	-0.078
-430.646	14.950	-0.173	0.136
-429.632	83.243	-0.289	-0.316
-428.617	165.151	0.043	-0.062
-427.603	-200.000	-0.038	0.304
-426.588	-6.817	-0.082	0.056
-425.573	-200.000	0.012	-0.063
-424.559	18.908	0.225	-0.182
-423.544	-148.407	0.270	-0.022
-422.530	-200.000	-0.011	0.225
-421.515	-200.000	0.029	-0.178
-420.500	-100.376	0.100	-0.025
-419.486	39.841	0.236	-0.213
-418.471	335.503	0.120	0.234
-417.457	-61.101	0.089	-0.038
-416.442	206.568	-0.075	-0.118
-415.428	24.729	-0.206	-0.172
-414.413	-162.493	-0.258	0.013
-413.398	15.759	-0.419	0.331
-412.384	150.305	-0.045	0.061
-411.369	-158.550	-0.233	-0.014
-410.355	-27.078	0.158	-0.093
-409.340	-200.000	-0.001	0.179
-408.325	462.040	0.138	0.309
-407.311	-23.689	-0.245	-0.148
-406.296	-173.639	0.215	0.006
-405.282	-7.448	-0.166	0.113
-404.267	-28.342	0.335	0.195
-403.252	-39.093	-0.155	0.082
-402.238	-96.230	-0.230	-0.061
-401.223	-141.979	0.253	0.025
-400.209	204.156	0.177	0.276
-399.194	29.006	0.196	-0.167
-398.179	23.702	0.164	0.136
-397.165	800.000	0.070	-0.232
-396.150	405.476	-0.017	0.037
-395.136	786.072	-0.146	-0.403
-394.121	7.144	-0.109	-0.082
-393.106	-22.504	-0.284	-0.173
-392.092	-200.000	-0.052	-0.238
-391.077	-48.075	0.098	-0.048
-390.063	173.587	-0.091	-0.132
-389.048	-30.432	0.307	0.175
-388.033	-18.544	0.167	0.105
-387.019	-109.247	-0.150	0.032
-386.004	20.399	0.221	-0.179
-384.990	269.985	-0.073	0.129
-383.975	263.542	-0.185	0.324
-382.960	34.884	-0.236	0.207
-381.946	305.703	-0.103	0.193
-380.931	-90.659	-0.208	-0.060
-379.917	-124.822	0.188	-0.029
-378.902	-73.592	-0.225	0.082
-377.888	-77.979	0.231	-0.080
-376.873	-52.363	0.026	0.012
-375.858	-128.557	0.222	0.032
-374.844	-77.494	-0.301	-0.105
-373.829	16.598	-0.110	0.088
-372.815	215.166	-0.013	0.021
-371.800	468.161	-0.119	-0.269
-370.785	-34.622	-0.202	-0.111
-369.771	-200.000	-0.098	0.430
-368.756	-74.986	-0.208	-0.075
-367.742	800.000	-0.041	0.141
-366.727	-96.876	0.132	-0.035
-365.712	-200.000	0.034	-0.232
-364.698	-39.805	-0.104	-0.055
-363.683	-28.664	0.233	0.135
-362.669	70.593	-0.217	0.225
-361.654	-200.000	0.001	-0.153
-360.639	62.670	0.074	0.075
-359.625	-200.000	-0.016	-0.304
-358.610	-93.623	-0.143	0.040
-357.596	32.008	0.257	0.222
-356.581	305.944	0.074	-0.138
-355.566	-44.148	0.115	-0.058
-354.552	-89.292	0.236	-0.070
-353.537	163.852	-0.111	0.157
-352.523	-200.000	-0.041	0.439
-351.508	720.159	0.105	-0.281
-350.493	-122.600	-0.149	-0.024
-349.479	220.122	0.165	-0.265
-348.464	769.409	-0.141	-0.385
-347.450	-132.206	-0.239	-0.031
-346.435	-200.000	0.004	-0.252
-345.420	-200.000	0.008	0.069
-344.406	-136.279	0.180	0.021
-343.391	-200.000	-0.023	-0.203
-342.377	-107.994	0.404	0.088
-341.362	-129.588	0.146	-0.020
-340.348	165.154	0.222	0.315
-339.333	-87.983	-0.308	0.093
-338.318	-200.000	-0.023	0.316
-337.304	-150.101	-0.127	0.010
-336.289	123.563	0.133	0.167
-335.275	96.496	-0.160	0.183
-334.260	5.225	0.229	0.169
-333.245	31.265	-0.081	0.070
-332.231	-144.519	0.144	-0.013
-331.216	334.823	-0.054	-0.105
-330.202	-132.807	0.283	-0.036
-329.187	-81.969	0.193	-0.063
-328.172	755.851	-0.049	0.134
-327.158	-70.430	-0.031	-0.012
-326.143	-15.220	0.123	0.079
-325.129	-77.347	0.380	0.133
-324.114	155.386	0.174	0.240
-323.099	317.618	-0.090	-0.171
-322.085	-91.479	0.082	0.023
-321.070	182.282	-0.087	0.129
-320.056	-103.905	0.204	-0.048
-319.041	-5.119	-0.141	-0.097
-318.026	800.000	-0.024	0.073
-317.012	-116.353	-0.506	0.094
-315.997	-162.413	-0.427	-0.021
-314.983	207.381	-0.167	-0.260
-313.968	48.737	-0.078	-0.073
-312.953	800.000	0.070	-0.266
-311.939	-131.191	0.161	-0.021
-310.924	-58.873	0.470	-0.204
-309.910	47.584	-0.334	-0.312
-308.895	-200.000	0.010	-0.132
-307.880	-109.221	-0.081	-0.017
-306.866	-200.000	0.029	0.138
-305.851	800.000	-0.055	-0.190
-304.837	-141.559	0.215	0.022
-303.822	-200.000	0.010	0.285
-302.807	800.000	-0.009	-0.029
-301.793	-58.436	-0.216	-0.094
-300.778	-3.269	0.101	0.070
-299.764	-109.354	-0.260	0.055
-298.749	165.143	0.038	0.053
-297.735	-29.416	0.109	-0.063
-296.720	0.038	-0.152	0.108
-295.705	-93.430	0.142	0.039
-294.691	-200.000	0.017	-0.228
-293.676	-3.249	-0.236	-0.164
-292.662	228.293	-0.070	-0.115
-291.647	127.814	0.254	0.323
-290.632	33.910	-0.324	0.282
-289.618	-39.889	-0.082	0.043
-288.603	-122.126	0.189	-0.031
-287.589	76.475	-0.105	0.112
-286.574	-200.000	0.032	0.142
-285.559	109.198	-0.173	-0.207
-284.545	-44.665	-0.274	-0.137
-283.530	-200.000	-0.007	0.175
-282.516	-125.128	0.243	0.037
-281.501	800.000	0.059	0.245
-280.486	105.451	-0.156	0.184
-279.472	-26.549	0.053	0.031
-278.457	-43.153	0.300	-0.152
-277.443	118.308	-0.183	-0.226
-276.428	-33.919	-0.135	-0.074
-275.413	-82.829	0.368	0.119
-274.399	-150.097	0.194	-0.015
-273.384	2.260	-0.356	0.258
-272.370	-200.000	0.007	0.089
-271.355	-200.000	-0.038	0.239
-270.340	-148.422	-0.204	-0.017
-269.326	-200.000	0.012	0.080
-268.311	119.178	0.125	-0.154
-267.297	-58.439	-0.112	-0.049
-266.282	-6.351	-0.287	-0.195
-265.267	637.258	-0.194	0.492
-264.253	-99.481	-0.314	0.079
-263.238	-186.224	0.052	-0.001
-262.224	170.826	0.057	-0.082
-261.209	-193.174	-0.150	0.001
-260.195	186.493	0.010	0.016
-259.180	317.187	-0.137	-0.259
-258.165	48.287	0.098	0.092
-257.151	800.000	-0.098	0.324
-256.136	139.423	-0.139	-0.182
-255.122	3.742	0.104	0.076
-254.107	-200.000	0.050	-0.233
-253.092	-200.000	0.008	-0.239
-252.078	-200.000	0.017	0.215
-251.063	7.594	0.246	0.184
-250.049	109.715	-0.133	0.160
-249.034	64.975	0.176	-0.177
-248.019	216.545	-0.141	0.224
-247.005	-42.614	0.119	-0.060
-245.990	91.645	0.115	0.129
-244.976	-80.158	0.225	-0.075
-243.961	132.206	0.236	0.304
-242.946	752.745	0.027	0.073
-241.932	257.245	-0.059	-0.101
-240.917	800.000	-0.016	0.048
-239.903	-87.281	-0.062	0.019
-238.888	-50.005	0.195	0.092
-237.873	157.235	-0.111	0.154
-236.859	-200.000	0.085	0.426
-235.844	19.127	0.110	0.088
-234.830	-21.776	-0.090	-0.055
-233.815	-63.266	0.259	-0.106
-232.800	-200.000	-0.023	-0.384
-231.786	800.000	-0.165	0.513
-230.771	-57.477	-0.126	-0.055
-229.757	-131.464	0.224	0.029
-228.742	-14.942	-0.014	-0.009
-227.727	-104.825	-0.145	-0.033
-226.713	63.389	0.185	0.185
-225.698	800.000	0.092	0.329
-224.684	729.970	0.091	0.244
-223.669	-200.000	0.008	0.084
-222.655	12.577	0.133	-0.103
-221.640	-65.603	0.308	-0.123
-220.625	206.194	-0.176	-0.274
-219.611	-143.057	0.347	-0.033
-218.596	-200.000	0.016	0.074
-217.582	532.325	0.041	-0.096
-216.567	800.000	0.102	0.341
-215.552	-200.000	0.045	0.261
-214.538	-107.924	-0.251	0.054
-213.523	330.932	-0.135	0.260
-212.509	-123.229	0.446	-0.071
-211.494	-200.000	0.004	0.024
-210.479	384.671	0.184	-0.378
-209.465	43.922	-0.142	0.130
-208.450	-107.238	0.229	-0.050
-207.436	56.832	0.077	0.075
-206.421	-62.755	0.318	0.132
-205.406	-53.743	-0.089	0.041
-204.392	-118.873	-0.197	-0.035
-203.377	113.200	0.127	-0.153
-202.363	-200.000	-0.004	-0.272
-201.348	-121.904	0.324	0.053
-200.333	-105.022	-0.181	-0.041
-199.319	800.000	0.116	0.391
-198.304	397.475	-0.067	0.139
-197.290	401.903	-0.092	0.193
-196.275	800.000	-0.065	-0.215
-195.260	495.573	0.168	-0.385
-194.246	131.834	0.132	-0.169
-193.231	171.030	-0.053	0.076
-192.217	304.563	0.092	0.170
-191.202	108.251	0.150	-0.178
-190.187	-78.666	0.198	-0.067
-189.173	214.823	-0.163	-0.257
-188.158	-77.317	-0.327	0.113
-187.144	-29.227	0.106	-0.061
-186.129	5.050	-0.180	0.132
-185.114	-200.000	0.019	0.174
-184.100	-200.000	0.047	0.297
-183.085	38.604	0.122	-0.108
-182.071	103.222	0.210	-0.245
-181.056	297.279	-0.080	-0.147
-180.042	-89.155	-0.203	-0.060
-179.027	-62.404	-0.261	-0.108
-178.012	800.000	0.074	0.233
-176.998	-104.891	-0.054	-0.012
-175.983	-69.093	0.328	0.126
-174.969	-158.106	0.156	0.009
-173.954	-42.721	0.306	-0.155
-172.939	800.000	0.088	0.251
-171.925	-71.651	0.204	0.076
-170.910	-24.200	0.203	-0.121
-169.896	369.000	0.063	0.127
-168.881	122.358	-0.461	0.574
-167.866	235.310	0.099	-0.162
-166.852	70.277	-0.101	-0.104
-165.837	-94.729	-0.241	-0.065
-164.823	-200.000	-0.016	0.181
-163.808	-31.975	-0.221	-0.123
-162.793	468.401	0.059	0.133
-161.779	-77.942	-0.102	0.035
-160.764	800.000	0.073	-0.271
-159.750	-150.570	0.140	0.011
-158.735	-29.351	0.104	0.059
-157.720	800.000	0.094	0.404
-156.706	-185.334	-0.188	-0.003
-155.691	-56.245	-0.177	-0.079
-154.677	154.437	0.196	-0.268
-153.662	800.000	0.057	-0.226
-152.647	800.000	-0.057	0.170
-151.633	-3.039	-0.108	-0.075
-150.618	-147.409	0.137	0.012
-149.604	-16.899	-0.116	0.073
-148.589	-5.658	0.258	-0.176
-147.574	159.885	-0.141	-0.196
-146.560	233.718	0.087	0.143
-145.545	251.835	-0.149	0.253
-144.531	-96.874	-0.043	-0.011
-143.516	232.706	-0.137	0.224
-142.502	-200.000	-0.018	0.208
-141.487	800.000	-0.049	0.140
-140.472	-15.040	0.094	-0.060
-139.458	-42.035	0.156	0.079
-138.443	-53.188	-0.135	0.062
-137.429	54.742	0.423	0.406
-136.414	127.564	0.104	-0.132
-135.399	63.956	-0.114	-0.114
-134.385	-20.202	0.021	-0.013
-133.370	-136.947	-0.385	-0.044
-132.356	-29.992	0.138	-0.078
-131.341	104.387	-0.259	-0.303
-130.326	190.291	-0.199	-0.297
-129.312	-200.000	0.002	-0.303
-128.297	253.377	0.117	0.198
-127.283	24.794	-0.136	0.112
-126.268	-74.845	0.137	-0.049
-125.253	-107.580	-0.217	-0.047
-124.239	12.040	0.245	-0.187
-123.224	62.971	-0.225	-0.224
-122.210	-47.428	0.454	-0.219
-121.195	50.998	0.133	0.125
