DTS Sentinel unit serial number:	SN413079Multiplexer serial number:	ORYXHardware model number:	OX4-SRSoftware version number:	ORYX F/W v4.00 Oryx Data Collector v3.7.2.0data status	okinstallation	princeton_trtdifferential loss correction	single-endedforward channel	channel 1reverse channel	N/Adate	2019/09/11time	03:24:11forward acquisition time	60.00reverse acquisition time	0.00gamma	496.2192k internal	0.2331k external	0.2331temperature offset calibration	0.9929default loss term (dB/km)	0.3790temperature slope calibration	1.0000multiplexer offset coefficient	1.0000multiplexer slope coefficient	1.0000fibre end	0.00T internal ref (°C)	29.42T ext. ref 1 (°C)	-0.29T ext. ref 2 (°C)	24.19length (m)	temperature (°C)	Stokes	anti-Stokes-747.200	-127.211	0.317	0.047
-746.185	729.406	0.086	0.230
-745.171	1.532	-0.143	0.103
-744.156	9.306	-0.143	-0.109
-743.142	-200.000	0.049	0.260
-742.127	-200.000	0.024	0.184
-741.112	42.332	-0.093	-0.085
-740.098	42.783	0.093	-0.085
-739.083	-2.893	-0.166	-0.117
-738.069	-16.536	-0.244	0.155
-737.054	-59.413	-0.200	0.086
-736.039	-43.943	-0.246	0.124
-735.025	50.622	0.077	-0.073
-734.010	679.524	-0.137	-0.358
-732.996	270.348	0.169	-0.299
-731.981	192.802	-0.171	-0.259
-730.966	800.000	-0.070	0.299
-729.952	-80.788	0.174	0.058
-728.937	-132.919	-0.593	0.076
-727.923	-200.000	-0.017	-0.128
-726.908	-54.912	-0.252	0.114
-725.894	-62.422	-0.427	-0.179
-724.879	-76.840	0.110	-0.039
-723.864	-8.497	0.131	0.088
-722.850	-77.002	-0.152	-0.054
-721.835	-200.000	0.041	-0.349
-720.821	800.000	0.011	0.047
-719.806	-200.000	0.005	-0.097
-718.791	187.422	0.318	0.477
-717.777	187.154	0.159	-0.239
-716.762	133.414	0.204	-0.265
-715.748	27.789	0.190	-0.161
-714.733	-200.000	-0.069	-0.358
-713.718	496.473	-0.097	-0.225
-712.704	308.684	-0.087	0.163
-711.689	-113.291	0.150	-0.030
-710.675	-200.000	-0.051	0.233
-709.660	800.000	0.039	-0.138
-708.645	800.000	0.115	-0.449
-707.631	-192.100	0.238	0.002
-706.616	244.631	-0.156	0.263
-705.602	91.484	-0.079	0.090
-704.587	87.140	0.046	0.051
-703.572	40.501	-0.098	-0.089
-702.558	71.763	0.041	0.043
-701.543	-200.000	-0.083	-0.495
-700.529	800.000	0.035	0.112
-699.514	-200.000	0.077	-0.342
-698.499	173.679	-0.135	-0.196
-697.485	-152.833	0.255	-0.018
-696.470	108.574	0.043	-0.051
-695.456	-154.708	0.351	-0.023
-694.441	800.000	0.013	-0.045
-693.426	-142.007	0.112	-0.011
-692.412	-88.214	-0.323	0.097
-691.397	-200.000	0.068	0.316
-690.383	-177.747	0.291	-0.007
-689.368	225.245	0.148	0.241
-688.354	-36.304	-0.394	-0.213
-687.339	200.383	-0.161	-0.248
-686.324	-113.079	0.243	0.048
-685.310	0.538	-0.096	-0.069
-684.295	45.034	-0.141	0.130
-683.281	49.009	0.307	0.290
-682.266	-134.509	0.524	0.064
-681.251	160.829	-0.168	0.235
-680.237	-188.766	-0.283	-0.003
-679.222	196.577	0.161	-0.246
-678.208	46.738	0.162	-0.151
-677.193	-200.000	0.056	-0.415
-676.178	-200.000	-0.018	-0.142
-675.164	645.646	-0.067	-0.171
-674.149	-200.000	-0.024	-0.268
-673.135	800.000	-0.043	-0.180
-672.120	-49.184	-0.116	-0.056
-671.105	452.100	0.169	-0.374
-670.091	44.103	0.216	-0.198
-669.076	-34.739	0.100	0.055
-668.062	303.736	0.090	-0.168
-667.047	22.890	-0.130	0.107
-666.032	-200.000	-0.035	-0.195
-665.018	-141.227	-0.558	0.057
-664.003	800.000	0.081	-0.257
-662.989	57.316	0.124	0.121
-661.974	-200.000	0.009	-0.118
-660.959	-161.586	-0.108	-0.006
-659.945	-200.000	0.001	-0.025
-658.930	696.101	-0.091	-0.241
-657.916	800.000	-0.111	-0.482
-656.901	800.000	-0.058	-0.235
-655.886	56.943	0.150	0.146
-654.872	450.667	-0.160	0.354
-653.857	-200.000	0.000	0.109
-652.843	-44.258	-0.391	0.196
-651.828	478.004	0.200	-0.453
-650.814	144.478	-0.130	-0.174
-649.799	139.931	-0.172	0.227
-648.784	-48.285	-0.394	-0.191
-647.770	-200.000	0.051	-0.243
-646.755	-104.716	-0.119	-0.027
-645.741	-59.034	0.206	0.089
-644.726	96.069	0.075	-0.086
-643.711	-200.000	-0.033	0.162
-642.697	568.696	0.019	-0.047
-641.682	67.047	0.195	0.199
-640.668	257.538	0.156	0.268
-639.653	14.617	-0.219	0.172
-638.638	-200.000	-0.094	-0.416
-637.624	-2.339	-0.264	-0.185
-636.609	244.905	0.137	-0.231
-635.595	-45.545	0.085	0.042
-634.580	123.353	-0.056	0.070
-633.565	36.901	-0.275	0.244
-632.551	124.341	0.180	-0.226
-631.536	45.931	0.134	-0.124
-630.522	504.147	0.079	-0.184
-629.507	-128.360	-0.393	0.056
-628.492	634.637	-0.081	-0.207
-627.478	450.414	-0.171	-0.378
-626.463	800.000	0.042	0.132
-625.449	-125.007	0.172	-0.026
-624.434	52.788	0.159	-0.152
-623.419	673.354	-0.049	0.128
-622.405	-9.367	0.112	-0.075
-621.390	800.000	-0.025	0.089
-620.376	42.707	-0.201	0.183
-619.361	406.417	-0.104	0.220
-618.346	-53.456	-0.063	0.029
-617.332	-159.742	-0.238	0.013
-616.317	503.934	-0.124	-0.287
-615.303	370.220	0.194	-0.393
-614.288	-200.000	-0.052	0.229
-613.273	-189.957	-0.151	-0.002
-612.259	290.139	-0.108	-0.196
-611.244	125.516	0.125	0.157
-610.230	-116.834	0.160	-0.029
-609.215	361.092	0.024	0.047
-608.201	-200.000	0.003	0.036
-607.186	176.227	-0.058	-0.085
-606.171	107.900	0.122	0.145
-605.157	205.515	-0.035	0.054
-604.142	-1.094	0.101	-0.072
-603.128	15.545	-0.105	-0.083
-602.113	-178.509	-0.150	0.003
-601.098	8.639	0.220	0.166
-600.084	-200.000	-0.002	-0.171
-599.069	800.000	-0.037	-0.156
-598.055	-200.000	0.019	-0.213
-597.040	-200.000	-0.033	-0.337
-596.025	778.019	-0.049	-0.135
-595.011	-181.673	0.189	0.004
-593.996	-200.000	0.019	-0.092
-592.982	507.322	0.139	0.322
-591.967	-33.637	0.226	0.125
-590.952	-200.000	0.031	-0.142
-589.938	-200.000	0.025	-0.348
-588.923	-24.457	0.090	0.054
-587.909	-34.911	-0.127	0.069
-586.894	-13.838	-0.104	-0.067
-585.879	800.000	0.050	-0.161
-584.865	-64.885	0.249	0.101
-583.850	-130.074	0.255	-0.035
-582.836	-79.049	0.157	-0.054
-581.821	800.000	0.041	-0.116
-580.806	800.000	0.069	0.257
-579.792	-200.000	0.036	0.233
-578.777	212.623	0.071	0.112
-577.763	-86.420	-0.135	0.041
-576.748	112.604	-0.159	-0.193
-575.733	96.186	0.153	0.175
-574.719	476.017	-0.111	0.250
-573.704	-95.370	-0.174	-0.047
-572.690	43.243	0.184	0.168
-571.675	-200.000	0.008	-0.271
-570.661	-160.348	0.354	-0.019
-569.646	-108.723	-0.233	-0.050
-568.631	99.429	-0.116	0.134
-567.617	-57.969	0.093	-0.041
-566.602	-162.222	0.269	-0.013
-565.588	-32.125	0.122	-0.068
-564.573	-146.597	0.083	0.007
-563.558	32.351	0.262	0.226
-562.544	105.865	-0.084	0.099
-561.529	-50.199	0.336	0.159
-560.515	386.689	0.030	-0.062
-559.500	800.000	-0.072	0.245
-558.485	-99.382	0.303	0.076
-557.471	-68.147	0.291	0.113
-556.456	308.876	0.139	0.259
-555.442	319.748	0.172	0.326
-554.427	-77.012	0.233	0.081
-553.412	180.758	0.002	0.004
-552.398	299.763	-0.109	0.201
-551.383	51.672	-0.133	0.126
-550.369	-138.053	-0.424	-0.047
-549.354	-136.089	0.222	0.026
-548.339	15.939	-0.175	0.138
-547.325	301.311	0.089	0.164
-546.310	12.435	0.217	-0.167
-545.296	-2.736	0.091	-0.063
-544.281	433.410	0.072	0.155
-543.266	-88.277	0.119	-0.036
-542.252	-21.396	-0.371	-0.226
-541.237	-144.747	0.232	0.021
-540.223	-40.860	0.132	-0.068
-539.208	-113.111	0.101	0.020
-538.193	174.934	0.192	-0.277
-537.179	88.788	0.109	-0.121
-536.164	800.000	0.043	0.148
-535.150	-76.503	-0.211	-0.074
-534.135	-200.000	0.038	-0.383
-533.121	54.037	0.093	-0.089
-532.106	668.099	-0.048	0.123
-531.091	-44.878	-0.095	-0.047
-530.077	197.265	-0.306	-0.466
-529.062	800.000	0.076	-0.318
-528.048	-143.808	0.177	-0.017
-527.033	-54.781	0.100	-0.045
-526.018	-140.931	0.377	0.039
-525.004	-65.001	0.060	-0.024
-523.989	-57.115	-0.267	-0.117
-522.975	154.833	-0.130	0.179
-521.960	800.000	0.062	-0.247
-520.945	121.408	0.055	0.069
-519.931	-182.498	-0.109	-0.002
-518.916	-89.423	0.049	0.014
-517.902	58.287	-0.259	0.253
-516.887	-30.605	-0.202	0.114
-515.872	-200.000	-0.015	0.128
-514.858	798.046	-0.108	-0.298
-513.843	66.816	-0.076	0.077
-512.829	-71.680	0.230	-0.086
-511.814	-200.000	0.041	-0.230
-510.799	800.000	0.083	-0.333
-509.785	201.810	-0.239	-0.367
-508.770	800.000	0.099	-0.278
-507.756	-174.677	-0.255	0.007
-506.741	-43.761	-0.021	0.011
-505.726	-68.153	-0.251	-0.097
-504.712	-200.000	0.004	0.123
-503.697	-116.773	-0.302	0.055
-502.683	800.000	-0.104	0.301
-501.668	216.084	-0.116	-0.184
-500.653	102.127	0.141	-0.164
-499.639	-85.862	-0.258	0.080
-498.624	-200.000	0.038	0.242
-497.610	434.277	0.056	-0.122
-496.595	-200.000	-0.068	-0.487
-495.581	-19.481	0.391	0.241
-494.566	-124.886	-0.581	0.089
-493.551	97.831	0.062	-0.071
-492.537	576.321	-0.031	-0.076
-491.522	475.011	-0.155	-0.348
-490.508	-52.357	0.503	0.232
-489.493	-200.000	0.001	0.171
-488.478	-112.889	-0.229	0.045
-487.464	-93.585	-0.091	-0.025
-486.449	-78.842	-0.198	0.067
-485.435	-12.171	-0.261	-0.170
-484.420	21.913	-0.256	0.208
-483.405	800.000	-0.056	-0.155
-482.391	-151.675	0.193	-0.014
-481.376	-4.048	0.110	-0.076
-480.362	362.850	0.039	0.077
-479.347	-157.989	0.070	0.004
-478.332	3.429	0.168	-0.122
-477.318	5.559	-0.190	-0.140
-476.303	-135.722	-0.260	0.031
-475.289	382.633	0.128	0.262
-474.274	800.000	0.054	-0.186
-473.259	-83.874	-0.353	-0.112
-472.245	-161.323	0.387	-0.020
-471.230	800.000	-0.042	-0.137
-470.216	-158.324	0.342	0.020
-469.201	-69.423	-0.028	-0.011
-468.186	-48.829	0.082	0.039
-467.172	-200.000	0.019	0.092
-466.157	800.000	0.078	0.280
-465.143	800.000	0.093	-0.397
-464.128	-76.925	-0.174	0.060
-463.113	-69.369	-0.271	0.104
-462.099	-200.000	0.018	0.104
-461.084	53.291	-0.235	0.224
-460.070	-200.000	-0.021	0.420
-459.055	-200.000	0.014	0.183
-458.040	184.451	0.125	-0.184
-457.026	-200.000	0.020	-0.176
-456.011	182.519	0.103	-0.151
-454.997	57.174	0.222	0.216
-453.982	-73.168	0.060	0.022
-452.968	-126.281	0.137	0.020
-451.953	66.479	0.101	-0.103
-450.938	-11.154	0.106	0.070
-449.924	103.158	-0.065	0.076
-448.909	152.251	-0.080	0.109
-447.895	-28.249	0.108	0.062
-446.880	-200.000	-0.017	0.351
-445.865	-200.000	0.005	0.129
-444.851	-137.783	-0.339	-0.038
-443.836	48.208	-0.171	0.159
-442.822	-8.039	0.268	0.180
-441.807	213.846	-0.165	0.260
-440.792	800.000	0.165	0.474
-439.778	-57.577	-0.185	-0.081
-438.763	151.057	0.078	0.105
-437.749	-200.000	0.003	0.080
-436.734	-67.599	-0.125	-0.049
-435.719	76.732	-0.041	-0.043
-434.705	-14.330	0.191	0.122
-433.690	19.109	0.191	0.152
-432.676	-113.159	0.225	0.044
-431.661	97.831	-0.141	-0.161
-430.646	-200.000	0.014	-0.155
-429.632	79.691	-0.064	-0.069
-428.617	-200.000	0.062	-0.340
-427.603	-121.420	-0.197	0.033
-426.588	323.546	-0.020	-0.038
-425.573	-200.000	-0.004	0.018
-424.559	-76.996	0.159	-0.055
-423.544	-121.308	-0.256	0.043
-422.530	195.842	0.159	-0.240
-421.515	16.794	-0.133	-0.105
-420.500	2.665	0.191	0.137
-419.486	-74.774	-0.241	0.086
-418.471	12.243	-0.032	0.024
-417.457	339.715	-0.126	0.245
-416.442	-1.253	0.168	-0.118
-415.428	-101.146	-0.160	0.039
-414.413	-32.344	0.197	0.109
-413.398	182.606	-0.112	0.164
-412.384	685.248	-0.110	0.284
-411.369	204.736	0.022	-0.033
-410.355	-87.296	-0.207	-0.062
-409.340	-59.029	-0.136	-0.058
-408.325	4.521	-0.421	-0.307
-407.311	-54.353	-0.098	-0.044
-406.296	800.000	-0.105	0.312
-405.282	39.157	-0.151	-0.135
-404.267	108.171	0.094	-0.112
-403.252	-200.000	-0.010	-0.261
-402.238	86.181	-0.123	-0.135
-401.223	-41.900	-0.212	0.108
-400.209	-115.548	0.186	-0.035
-399.194	-23.241	0.107	-0.064
-398.179	-88.512	-0.120	0.035
-397.165	3.794	-0.206	0.149
-396.150	-59.409	0.161	0.069
-395.136	-38.492	-0.204	-0.107
-394.121	183.978	0.183	-0.268
-393.106	-23.572	0.147	-0.088
-392.092	-60.692	-0.127	0.054
-391.077	-115.234	-0.180	-0.034
-390.063	401.729	-0.056	-0.117
-389.048	84.037	0.439	-0.476
-388.033	-179.038	0.083	0.002
-387.019	26.357	0.030	0.025
-386.004	-70.543	-0.296	0.111
-384.990	215.796	0.167	0.263
-383.975	-200.000	-0.008	-0.101
-382.960	-33.413	0.054	0.029
-381.946	352.769	0.097	0.191
-380.931	-33.618	-0.250	0.137
-379.917	414.498	-0.130	-0.275
-378.902	-200.000	0.028	-0.168
-377.888	-15.887	-0.201	-0.127
-376.873	396.314	-0.187	-0.386
-375.858	-102.845	-0.232	-0.055
-374.844	-93.454	0.205	0.056
-373.829	-72.354	-0.304	0.112
-372.815	13.983	0.247	-0.191
-371.800	-200.000	0.005	0.135
-370.785	60.201	-0.395	0.387
-369.771	-109.357	0.340	0.071
-368.756	-79.044	-0.172	-0.058
-367.742	81.754	0.112	0.120
-366.727	-42.669	-0.123	-0.062
-365.712	16.173	0.252	-0.197
-364.698	-200.000	-0.003	0.386
-363.683	92.426	0.045	-0.051
-362.669	42.372	0.253	-0.228
-361.654	405.620	0.037	0.078
-360.639	318.839	0.043	-0.080
-359.625	-171.407	0.124	0.004
-358.610	38.296	-0.365	0.322
-357.596	204.533	-0.237	0.365
-356.581	-200.000	-0.007	-0.082
-355.566	-101.837	-0.184	0.044
-354.552	25.726	0.187	0.155
-353.537	124.806	-0.172	0.214
-352.523	-28.509	-0.401	0.229
-351.508	244.877	-0.141	0.236
-350.493	75.448	0.032	0.033
-349.479	-200.000	-0.011	0.152
-348.464	81.603	0.171	-0.183
-347.450	78.886	0.179	-0.190
-346.435	57.910	0.292	0.283
-345.420	-200.000	0.014	-0.271
-344.406	-89.442	-0.306	0.089
-343.391	-200.000	-0.043	0.199
-342.377	628.516	-0.105	-0.264
-341.362	-200.000	0.003	-0.060
-340.348	279.318	0.166	0.294
-339.333	-80.753	-0.255	-0.084
-338.318	-50.693	0.114	0.053
-337.304	-108.560	0.155	0.033
-336.289	-117.637	0.155	-0.028
-335.275	-160.060	-0.191	-0.010
-334.260	-198.527	0.252	-0.001
-333.245	263.851	-0.100	-0.172
-332.231	116.280	-0.159	-0.193
-331.216	29.443	0.125	0.105
-330.202	283.280	0.012	-0.021
-329.187	-20.391	-0.222	-0.135
-328.172	76.335	-0.061	0.064
-327.158	800.000	0.119	0.333
-326.143	-200.000	0.025	-0.243
-325.129	-142.948	0.537	-0.052
-324.114	-200.000	-0.022	-0.132
-323.099	-138.990	-0.335	-0.036
-322.085	388.905	-0.106	-0.218
-321.070	144.706	0.092	0.122
-320.056	270.609	-0.140	0.244
-319.041	-200.000	0.024	0.125
-318.026	-115.687	0.203	0.038
-317.012	1.021	0.108	0.077
-315.997	-137.587	0.226	-0.025
-314.983	794.341	-0.116	0.315
-313.968	-49.672	-0.222	0.104
-312.953	-83.677	-0.100	0.032
-311.939	-200.000	-0.064	0.000
-310.924	-153.899	0.063	0.004
-309.910	800.000	0.032	-0.113
-308.895	-200.000	0.011	-0.216
-307.880	-200.000	-0.022	-0.316
-306.866	-200.000	-0.021	0.119
-305.851	245.144	0.159	0.264
-304.837	-200.000	-0.088	-0.426
-303.822	23.589	0.104	0.085
-302.807	-200.000	-0.065	0.350
-301.793	90.966	0.286	0.317
-300.778	-50.048	0.089	-0.042
-299.764	148.386	-0.049	0.066
-298.749	-45.581	0.239	-0.117
-297.735	-200.000	0.017	-0.179
-296.720	90.997	-0.019	-0.021
-295.705	66.177	0.143	-0.143
-294.691	-36.808	0.312	-0.166
-293.676	-135.753	0.088	0.010
-292.662	-162.790	-0.254	0.012
-291.647	92.496	0.145	0.162
-290.632	-200.000	0.002	-0.065
-289.618	-200.000	-0.010	0.110
-288.603	-200.000	0.022	0.329
-287.589	-118.074	-0.184	-0.032
-286.574	-200.000	-0.017	-0.436
-285.559	-86.405	0.124	-0.038
-284.545	800.000	0.094	0.347
-283.530	-64.586	-0.126	-0.050
-282.516	800.000	-0.023	-0.088
-281.501	-12.828	0.052	0.033
-280.486	800.000	-0.081	-0.262
-279.472	-37.717	0.222	-0.117
-278.457	-200.000	-0.009	-0.136
-277.443	504.496	0.114	0.261
-276.428	610.702	0.107	-0.264
-275.413	158.397	-0.096	0.131
-274.399	50.442	-0.400	-0.374
-273.384	-80.559	0.147	0.048
-272.370	800.000	-0.034	0.102
-271.355	52.885	-0.067	0.063
-270.340	-163.097	0.201	-0.010
-269.326	-200.000	0.030	0.262
-268.311	-74.470	0.152	0.054
-267.297	109.365	-0.089	0.106
-266.282	81.141	0.125	0.134
-265.267	-121.067	-0.408	-0.068
-264.253	-200.000	0.022	0.183
-263.238	122.393	0.079	-0.098
-262.224	-62.272	-0.171	-0.070
-261.209	-125.407	-0.152	0.023
-260.195	15.243	0.078	0.061
-259.180	-200.000	-0.059	-0.286
-258.165	343.890	0.093	0.180
-257.151	-200.000	-0.001	0.035
-256.136	-10.772	-0.225	-0.147
-255.122	-143.945	0.210	0.020
-254.107	-200.000	0.024	0.231
-253.092	-83.657	-0.052	0.016
-252.078	632.133	0.100	0.249
-251.063	-168.199	0.363	-0.014
-250.049	-34.538	0.086	0.046
-249.034	254.506	0.125	0.210
-248.019	141.434	0.260	-0.340
-247.005	-100.994	-0.245	0.059
-245.990	445.285	-0.088	0.190
-244.976	-200.000	-0.014	-0.184
-243.961	36.454	0.162	-0.141
-242.946	-71.849	-0.161	0.059
-241.932	58.592	-0.188	-0.182
-240.917	800.000	0.065	-0.198
-239.903	800.000	-0.044	-0.153
-238.888	-200.000	0.059	0.284
-237.873	-85.924	-0.248	0.076
-236.859	-200.000	-0.002	-0.073
-235.844	340.799	0.107	0.207
-234.830	641.056	-0.045	0.113
-233.815	501.774	0.162	-0.370
-232.800	332.104	0.049	0.094
-231.786	-31.059	0.148	0.082
-230.771	46.795	0.223	-0.204
-229.757	-200.000	-0.005	-0.312
-228.742	30.474	-0.326	-0.275
-227.727	-197.837	-0.161	-0.001
-226.713	-121.706	-0.164	-0.027
-225.698	188.535	-0.156	-0.231
-224.684	30.793	0.182	-0.153
-223.669	-105.015	0.219	0.049
-222.655	37.607	0.107	0.094
-221.640	-200.000	0.023	-0.152
-220.625	-200.000	-0.037	-0.533
-219.611	-105.181	0.265	-0.060
-218.596	158.573	-0.162	-0.222
-217.582	-56.287	0.293	0.128
-216.567	254.317	-0.157	0.264
-215.552	277.085	0.167	-0.293
-214.538	248.105	0.162	0.270
-213.523	188.414	-0.023	0.034
-212.509	13.448	0.190	-0.145
-211.494	-66.169	0.177	0.070
-210.479	-24.364	-0.117	-0.069
-209.465	251.156	-0.042	0.070
-208.450	-33.756	-0.136	0.074
-207.436	56.738	0.076	0.073
-206.421	2.726	0.141	0.101
-205.406	29.744	-0.042	0.035
-204.392	373.993	-0.153	0.307
-203.377	518.316	0.147	0.338
-202.363	515.474	-0.081	-0.187
-201.348	164.538	0.132	-0.183
-200.333	-108.159	0.004	0.001
-199.319	-133.162	0.253	-0.032
-198.304	-91.749	0.223	0.062
-197.290	-94.724	0.196	-0.052
-196.275	278.602	-0.090	0.157
-195.260	28.893	-0.082	-0.069
-194.246	-200.000	-0.025	-0.571
-193.231	-87.805	0.070	0.021
-192.217	37.642	-0.193	0.169
-191.202	-125.885	-0.313	0.047
-190.187	800.000	0.050	0.204
-189.173	375.086	0.230	0.463
-188.158	251.478	0.098	-0.165
-187.144	167.010	0.252	-0.352
-186.129	-59.670	-0.118	0.050
-185.114	24.140	-0.224	-0.182
-184.100	-200.000	-0.049	0.287
-183.085	79.682	-0.366	0.387
-182.071	19.092	0.281	0.222
-181.056	162.670	0.149	0.206
-180.042	156.080	0.134	-0.182
-179.027	-96.228	-0.292	-0.076
-178.012	-166.184	0.155	-0.006
-176.998	-34.215	-0.128	-0.069
-175.983	-114.947	-0.168	0.032
-174.969	-172.685	0.122	-0.004
-173.954	-200.000	-0.001	-0.256
-172.939	259.800	0.061	-0.104
-171.925	328.462	-0.068	-0.128
-170.910	-200.000	-0.041	-0.276
-169.896	37.018	-0.132	0.115
-168.881	-37.042	-0.324	0.171
-167.866	423.837	0.157	-0.332
-166.852	20.972	0.303	-0.242
-165.837	-39.598	-0.264	0.136
-164.823	800.000	-0.039	-0.168
-163.808	-81.932	-0.128	0.041
-162.793	585.897	0.126	0.306
-161.779	-110.758	-0.299	0.061
-160.764	-200.000	-0.003	0.019
-159.750	-90.638	-0.196	0.056
-158.735	-200.000	0.022	-0.117
-157.720	96.614	-0.033	-0.037
-156.706	-83.386	-0.091	0.029
-155.691	131.402	0.129	0.163
-154.677	102.950	0.156	0.179
-153.662	800.000	-0.119	0.423
-152.647	44.098	-0.159	0.143
-151.633	-200.000	-0.028	0.185
-150.618	800.000	-0.084	0.291
-149.604	34.869	-0.082	0.070
-148.589	-26.960	0.314	-0.180
-147.574	78.351	0.216	0.227
-146.560	-79.036	-0.088	-0.029
-145.545	-171.544	0.471	0.015
-144.531	-44.989	0.059	-0.029
-143.516	-59.886	0.138	0.058
-142.502	215.818	-0.144	-0.225
-141.487	-82.004	0.416	-0.134
-140.472	800.000	-0.033	0.090
-139.458	-78.873	0.247	0.083
-138.443	-5.222	-0.289	0.195
-137.429	-200.000	0.002	0.174
-136.414	-141.667	0.367	0.036
-135.399	30.732	0.284	-0.238
-134.385	101.683	0.125	-0.144
-133.370	368.803	-0.171	-0.340
-132.356	236.815	0.055	0.089
-131.341	-200.000	-0.001	-0.140
-130.326	457.994	0.014	0.030
-129.312	-27.810	0.194	0.111
-128.297	-200.000	-0.040	-0.277
-127.283	-37.226	-0.142	-0.075
-126.268	-200.000	0.015	-0.148
-125.253	-116.388	0.227	0.041
-124.239	526.484	0.108	-0.249
-123.224	800.000	0.035	-0.105
-122.210	195.910	0.153	0.228
-121.195	-1.644	-0.181	0.125
-120.180	-90.153	-0.211	-0.060
