DTS Sentinel unit serial number:	SN413079Multiplexer serial number:	ORYXHardware model number:	OX4-SRSoftware version number:	ORYX F/W v4.00 Oryx Data Collector v3.7.2.0data status	okinstallation	princeton_trtdifferential loss correction	single-endedforward channel	channel 1reverse channel	N/Adate	2019/09/19time	13:10:35forward acquisition time	60.00reverse acquisition time	0.00gamma	496.2192k internal	0.2327k external	0.2327temperature offset calibration	1.0012default loss term (dB/km)	0.3790temperature slope calibration	1.0000multiplexer offset coefficient	1.0000multiplexer slope coefficient	1.0000fibre end	0.00T internal ref (°C)	29.16T ext. ref 1 (°C)	0.93T ext. ref 2 (°C)	26.92length (m)	temperature (°C)	Stokes	anti-Stokes-747.200	-37.630	0.068	0.037
-746.185	297.014	0.110	0.203
-745.171	800.000	-0.036	-0.142
-744.156	289.268	-0.101	0.184
-743.142	800.000	0.025	0.069
-742.127	-124.159	-0.318	0.050
-741.112	-63.238	-0.163	-0.068
-740.098	79.628	0.198	0.214
-739.083	-200.000	-0.014	0.125
-738.069	-149.855	0.132	0.010
-737.054	-36.249	0.125	-0.068
-736.039	-70.388	-0.098	0.037
-735.025	-16.920	0.287	0.183
-734.010	317.088	-0.163	-0.310
-732.996	-65.887	-0.305	-0.123
-731.981	-120.822	-0.066	0.011
-730.966	800.000	-0.124	-0.379
-729.952	74.203	-0.059	0.062
-728.937	-73.311	-0.087	-0.032
-727.923	-113.122	0.062	0.012
-726.908	72.182	-0.189	0.198
-725.894	-2.126	-0.193	0.137
-724.879	-159.724	-0.074	-0.004
-723.864	800.000	0.037	-0.123
-722.850	-108.382	-0.243	-0.053
-721.835	-200.000	-0.014	-0.128
-720.821	-128.370	-0.185	-0.027
-719.806	129.255	-0.051	-0.066
-718.791	237.163	0.165	0.275
-717.777	-20.014	0.099	0.062
-716.762	-200.000	0.008	0.125
-715.748	-52.439	0.341	-0.159
-714.733	800.000	0.088	-0.316
-713.718	-200.000	-0.008	-0.174
-712.704	17.775	0.073	0.058
-711.689	800.000	-0.065	-0.274
-710.675	322.672	0.101	0.195
-709.660	800.000	0.038	-0.114
-708.645	-200.000	-0.035	0.238
-707.631	520.506	-0.196	-0.463
-706.616	-96.831	-0.094	0.025
-705.602	-200.000	-0.014	0.143
-704.587	-127.918	-0.336	0.049
-703.572	77.335	0.173	-0.186
-702.558	60.007	0.060	0.060
-701.543	-97.126	0.181	0.048
-700.529	274.385	-0.107	-0.190
-699.514	-99.852	-0.155	0.039
-698.499	311.215	-0.169	-0.319
-697.485	247.974	-0.105	-0.179
-696.470	-95.038	0.180	0.049
-695.456	20.410	-0.187	0.152
-694.441	-200.000	-0.021	0.315
-693.426	-133.115	-0.253	0.032
-692.412	-122.061	-0.095	-0.016
-691.397	800.000	-0.064	-0.260
-690.383	-200.000	0.032	-0.240
-689.368	283.904	0.105	-0.190
-688.354	-106.033	-0.211	-0.048
-687.339	332.876	0.066	-0.129
-686.324	-24.543	0.055	-0.033
-685.310	-30.941	-0.170	-0.097
-684.295	-98.386	0.293	0.075
-683.281	99.217	0.201	0.234
-682.266	-81.659	0.129	0.043
-681.251	-200.000	-0.001	-0.389
-680.237	800.000	0.061	-0.189
-679.222	150.315	-0.127	-0.173
-678.208	-34.651	-0.062	0.034
-677.193	-200.000	0.019	-0.213
-676.178	104.912	0.145	-0.172
-675.164	-131.736	-0.179	-0.024
-674.149	-12.200	0.079	0.052
-673.135	70.661	-0.122	0.126
-672.120	52.961	0.070	-0.068
-671.105	254.152	0.211	-0.363
-670.091	-200.000	0.000	0.192
-669.076	-12.773	-0.168	-0.110
-668.062	615.777	0.065	0.163
-667.047	800.000	-0.003	0.009
-666.032	30.241	-0.143	-0.123
-665.018	80.108	-0.252	0.272
-664.003	-119.493	0.097	-0.017
-662.989	-24.823	0.208	0.124
-661.974	-176.886	0.119	0.003
-660.959	-45.171	-0.320	0.160
-659.945	378.830	-0.147	0.302
-658.930	123.835	0.169	-0.213
-657.916	-102.708	0.455	0.109
-656.901	88.837	-0.110	0.123
-655.886	65.785	-0.307	-0.312
-654.872	-200.000	-0.015	-0.070
-653.857	-61.150	-0.056	0.024
-652.843	-52.034	0.140	0.065
-651.828	-200.000	0.001	0.111
-650.814	231.412	-0.070	0.116
-649.799	368.505	0.048	0.098
-648.784	-61.263	0.146	-0.062
-647.770	-51.216	-0.361	-0.170
-646.755	-156.844	-0.146	-0.009
-645.741	48.057	-0.096	-0.090
-644.726	-123.508	-0.236	0.038
-643.711	-200.000	-0.042	0.278
-642.697	17.099	0.116	-0.092
-641.682	-63.944	0.124	0.051
-640.668	-148.762	-0.200	-0.016
-639.653	-78.088	0.294	0.102
-638.638	-143.661	0.110	-0.010
-637.624	26.026	-0.097	0.081
-636.609	-137.481	0.188	0.021
-635.595	-200.000	0.005	-0.231
-634.580	800.000	0.093	-0.314
-633.565	-9.978	-0.125	0.083
-632.551	188.151	-0.087	-0.130
-631.536	69.605	0.114	-0.117
-630.522	258.851	0.058	0.101
-629.507	206.716	-0.184	-0.288
-628.492	800.000	0.053	0.219
-627.478	-196.239	-0.141	-0.001
-626.463	20.145	-0.024	0.019
-625.449	-143.317	0.282	-0.027
-624.434	-200.000	0.051	-0.293
-623.419	115.107	0.250	0.306
-622.405	-12.814	0.150	0.098
-621.390	-29.949	-0.024	-0.014
-620.376	287.128	-0.020	-0.036
-619.361	4.097	-0.237	0.174
-618.346	252.836	0.066	-0.114
-617.332	-200.000	0.005	0.249
-616.317	-72.824	0.272	-0.100
-615.303	-142.558	-0.161	0.016
-614.288	-200.000	0.052	0.370
-613.273	207.040	-0.142	0.221
-612.259	-200.000	-0.029	-0.149
-611.244	49.581	0.208	-0.197
-610.230	65.501	-0.088	0.089
-609.215	26.766	-0.224	-0.188
-608.201	71.312	-0.084	0.088
-607.186	197.335	0.113	-0.174
-606.171	274.825	-0.135	-0.240
-605.157	-15.063	0.044	-0.028
-604.142	-200.000	-0.034	-0.299
-603.128	800.000	-0.072	-0.227
-602.113	103.296	-0.108	0.127
-601.098	600.170	0.111	-0.276
-600.084	800.000	0.073	-0.213
-599.069	-72.260	-0.075	0.028
-598.055	337.507	-0.143	-0.278
-597.040	-64.290	-0.166	-0.068
-596.025	-200.000	-0.022	0.174
-595.011	-152.831	-0.250	0.018
-593.996	-112.010	0.375	0.076
-592.982	-200.000	0.009	-0.060
-591.967	197.686	0.134	-0.205
-590.952	-200.000	-0.291	-0.001
-589.938	413.051	0.095	-0.203
-588.923	800.000	-0.065	0.248
-587.909	800.000	0.044	-0.149
-586.894	800.000	-0.094	-0.320
-585.879	-200.000	-0.055	-0.317
-584.865	-115.547	-0.047	-0.009
-583.850	-50.203	-0.129	-0.061
-582.836	127.257	-0.167	0.212
-581.821	-140.307	-0.169	0.018
-580.806	279.920	0.195	0.348
-579.792	393.550	-0.185	-0.386
-578.777	26.100	-0.099	0.082
-577.763	800.000	0.035	0.102
-576.748	475.664	0.040	-0.091
-575.733	-112.843	-0.224	0.044
-574.719	-85.016	0.066	-0.021
-573.704	-39.253	-0.373	-0.196
-572.690	-200.000	-0.016	0.136
-571.675	583.830	0.140	-0.345
-570.661	-125.986	-0.304	-0.046
-569.646	-106.444	0.186	0.041
-568.631	26.662	-0.047	-0.039
-567.617	88.906	0.180	0.200
-566.602	28.093	0.253	-0.213
-565.588	-64.082	0.103	0.042
-564.573	-52.265	0.328	-0.152
-563.558	540.663	0.201	0.479
-562.544	-113.916	-0.265	0.051
-561.529	-200.000	-0.003	-0.056
-560.515	-112.084	0.270	0.054
-559.500	319.234	0.028	-0.053
-558.485	381.261	-0.148	0.303
-557.471	62.815	0.291	-0.292
-556.456	-200.000	0.016	-0.158
-555.442	-200.000	-0.042	0.450
-554.427	54.630	0.123	0.119
-553.412	-27.447	0.066	0.039
-552.398	-116.290	-0.325	-0.060
-551.383	163.877	0.035	-0.049
-550.369	-200.000	0.002	-0.255
-549.354	27.693	-0.112	0.095
-548.339	-200.000	0.340	0.001
-547.325	104.151	0.183	0.216
-546.310	-7.711	0.452	0.305
-545.296	-109.989	-0.124	0.026
-544.281	-91.450	0.288	0.082
-543.266	-52.341	0.054	0.025
-542.252	800.000	-0.100	-0.286
-541.237	-78.650	-0.156	-0.053
-540.223	568.126	0.056	0.137
-539.208	48.479	-0.187	-0.175
-538.193	295.518	-0.104	-0.190
-537.179	37.518	-0.240	-0.213
-536.164	-120.649	-0.178	0.030
-535.150	27.557	-0.267	0.224
-534.135	-200.000	-0.013	-0.353
-533.121	-60.963	-0.180	-0.076
-532.106	-200.000	0.031	0.235
-531.091	-115.432	0.330	0.062
-530.077	-70.093	-0.104	-0.039
-529.062	459.169	-0.033	0.074
-528.048	800.000	-0.052	-0.208
-527.033	48.167	0.158	0.147
-526.018	-50.537	-0.317	0.150
-525.004	374.578	0.087	-0.176
-523.989	-200.000	-0.098	0.441
-522.975	233.664	-0.192	0.316
-521.960	-200.000	-0.008	0.378
-520.945	-200.000	0.027	0.177
-519.931	544.045	-0.126	-0.301
-518.916	-107.335	-0.013	-0.003
-517.902	-200.000	0.003	0.081
-516.887	54.094	0.107	0.103
-515.872	-47.093	0.271	0.132
-514.858	3.606	0.315	-0.229
-513.843	299.831	-0.062	-0.114
-512.829	433.581	-0.048	-0.104
-511.814	723.612	0.138	0.367
-510.799	267.968	0.061	0.106
-509.785	-125.944	0.253	-0.038
-508.770	50.692	-0.128	0.121
-507.756	34.374	-0.058	0.050
-506.741	68.830	0.153	-0.157
-505.726	115.687	0.125	0.153
-504.712	-32.729	-0.138	-0.076
-503.697	-200.000	-0.011	0.468
-502.683	-47.449	-0.101	0.049
-501.668	-77.650	0.320	0.110
-500.653	-71.005	0.429	-0.161
-499.639	-200.000	0.009	0.066
-498.624	405.756	-0.069	0.145
-497.610	342.425	0.156	-0.305
-496.595	57.599	-0.177	-0.172
-495.581	800.000	0.039	-0.157
-494.566	736.238	0.105	0.280
-493.551	-200.000	0.080	0.367
-492.537	-98.102	0.374	-0.096
-491.522	172.164	0.111	-0.159
-490.508	-147.467	-0.370	0.031
-489.493	-200.000	-0.026	0.191
-488.478	35.617	0.067	-0.059
-487.464	75.008	0.100	0.106
-486.449	-200.000	-0.067	-0.400
-485.435	-92.472	-0.145	-0.041
-484.420	-103.336	0.214	-0.050
-483.405	-122.601	-0.102	0.017
-482.391	72.807	-0.065	-0.067
-481.376	-126.356	-0.429	-0.064
-480.362	800.000	-0.082	-0.269
-479.347	-200.000	-0.022	-0.392
-478.332	-92.994	-0.185	0.052
-477.318	800.000	0.063	0.255
-476.303	52.549	-0.051	0.048
-475.289	-200.000	0.019	-0.255
-474.274	-144.468	0.430	0.040
-473.259	-81.624	0.146	-0.048
-472.245	275.099	0.072	-0.127
-471.230	-95.669	-0.401	0.107
-470.216	97.529	0.139	0.159
-469.201	-200.000	-0.012	-0.063
-468.186	172.221	0.133	-0.191
-467.172	153.958	-0.198	-0.271
-466.157	695.692	-0.024	-0.064
-465.143	800.000	-0.062	0.261
-464.128	-0.582	0.217	0.154
-463.113	-165.517	-0.395	-0.017
-462.099	-21.149	-0.213	-0.130
-461.084	43.255	0.136	-0.124
-460.070	-20.419	-0.167	-0.102
-459.055	-7.527	-0.154	-0.104
-458.040	800.000	-0.090	0.330
-457.026	132.844	0.067	0.087
-456.011	-36.809	-0.166	0.089
-454.997	-132.927	-0.254	-0.032
-453.982	62.731	-0.173	-0.172
-452.968	-142.620	0.202	0.020
-451.953	-200.000	-0.001	0.055
-450.938	-200.000	0.025	-0.166
-449.924	90.572	-0.167	-0.186
-448.909	-155.475	0.253	0.016
-447.895	800.000	-0.080	0.224
-446.880	482.204	0.058	-0.132
-445.865	-74.058	0.290	0.105
-444.851	-100.353	0.154	0.038
-443.836	-200.000	0.008	0.094
-442.822	-71.552	0.055	0.021
-441.807	4.193	0.097	0.071
-440.792	-198.632	-0.436	0.002
-439.778	36.643	0.096	-0.084
-438.763	131.473	0.076	-0.097
-437.749	-115.419	0.461	0.087
-436.734	800.000	0.039	0.110
-435.719	47.218	-0.084	0.078
-434.705	462.010	-0.132	-0.293
-433.690	-135.205	-0.118	0.014
-432.676	-93.090	-0.244	-0.068
-431.661	-159.117	0.065	-0.004
-430.646	336.707	-0.078	-0.152
-429.632	3.115	0.311	0.225
-428.617	367.873	-0.077	-0.154
-427.603	-200.000	-0.037	-0.324
-426.588	-23.130	-0.094	0.056
-425.573	-7.386	0.210	0.142
-424.559	-70.329	0.114	-0.043
-423.544	-33.414	-0.231	0.127
-422.530	-169.783	0.048	-0.002
-421.515	-85.456	-0.137	-0.043
-420.500	-74.696	0.252	0.090
-419.486	360.594	0.143	0.286
-418.471	20.482	0.082	-0.066
-417.457	-92.375	0.274	0.077
-416.442	-84.037	-0.136	0.043
-415.428	-200.000	0.035	0.283
-414.413	105.774	-0.054	-0.064
-413.398	-159.488	-0.218	0.012
-412.384	59.321	-0.126	0.123
-411.369	699.335	0.091	-0.239
-410.355	149.957	-0.089	-0.120
-409.340	-24.463	-0.203	0.120
-408.325	1.505	0.137	0.098
-407.311	-26.874	-0.118	0.069
-406.296	800.000	0.061	0.186
-405.282	-151.787	-0.165	0.012
-404.267	129.758	-0.188	-0.239
-403.252	-200.000	-0.055	-0.349
-402.238	65.447	0.315	-0.318
-401.223	-11.913	0.061	0.040
-400.209	140.989	0.223	-0.293
-399.194	-200.000	-0.043	0.279
-398.179	107.232	0.055	0.065
-397.165	337.635	0.066	0.128
-396.150	-37.211	-0.167	0.089
-395.136	104.344	0.238	0.279
-394.121	-200.000	0.035	0.257
-393.106	114.511	0.126	0.153
-392.092	-108.153	-0.098	-0.021
-391.077	800.000	-0.055	0.207
-390.063	-1.240	-0.208	0.146
-389.048	366.645	0.045	-0.090
-388.033	335.136	-0.055	0.106
-387.019	417.459	-0.105	-0.222
-386.004	-200.000	-0.039	-0.450
-384.990	324.138	0.041	-0.078
-383.975	-72.168	-0.197	0.073
-382.960	58.178	0.176	-0.171
-381.946	301.351	0.086	-0.158
-380.931	-187.797	0.130	0.002
-379.917	516.612	0.075	0.174
-378.902	-92.616	-0.084	0.023
-377.888	-20.594	-0.290	-0.177
-376.873	-67.124	0.139	0.054
-375.858	99.683	0.205	0.236
-374.844	-8.150	-0.096	0.064
-373.829	-200.000	-0.032	-0.205
-372.815	-200.000	-0.031	-0.190
-371.800	129.954	0.131	0.166
-370.785	79.842	0.073	-0.078
-369.771	-200.000	0.013	0.339
-368.756	-35.801	0.252	-0.136
-367.742	193.440	0.174	-0.262
-366.727	-131.353	-0.028	-0.004
-365.712	-81.847	0.320	0.104
-364.698	-88.868	-0.080	0.024
-363.683	-200.000	-0.051	0.380
-362.669	800.000	-0.060	0.212
-361.654	218.739	-0.036	0.057
-360.639	-28.771	0.110	0.063
-359.625	-22.972	-0.021	-0.013
-358.610	-200.000	0.226	0.000
-357.596	-73.291	0.393	0.143
-356.581	31.070	0.334	0.284
-355.566	-169.525	0.162	0.006
-354.552	800.000	-0.029	-0.093
-353.537	-27.016	0.135	-0.078
-352.523	50.758	-0.022	-0.021
-351.508	-78.714	-0.107	0.036
-350.493	316.710	-0.116	-0.217
-349.479	-94.524	-0.071	-0.019
-348.464	80.009	-0.054	-0.057
-347.450	-16.343	0.120	0.075
-346.435	-28.441	0.077	0.044
-345.420	149.517	-0.135	-0.182
-344.406	80.482	0.209	0.223
-343.391	282.383	-0.179	-0.318
-342.377	368.566	0.099	0.199
-341.362	-200.000	-0.003	0.019
-340.348	-200.000	0.016	-0.152
-339.333	91.003	0.262	-0.291
-338.318	123.418	-0.122	0.152
-337.304	227.369	-0.078	0.125
-336.289	-29.836	0.073	-0.042
-335.275	800.000	-0.082	0.298
-334.260	207.027	-0.085	0.132
-333.245	-144.268	-0.252	-0.023
-332.231	-115.347	0.115	-0.021
-331.216	90.338	-0.101	-0.112
-330.202	-3.330	0.146	0.101
-329.187	-145.482	0.137	0.012
-328.172	152.998	0.119	0.162
-327.158	101.360	0.156	-0.180
-326.143	116.313	-0.141	-0.171
-325.129	46.654	-0.138	0.127
-324.114	-200.000	-0.002	-0.094
-323.099	-165.298	0.257	0.011
-322.085	155.795	-0.113	-0.154
-321.070	61.178	0.052	0.051
-320.056	343.275	0.102	0.198
-319.041	364.004	-0.140	-0.279
-318.026	134.368	-0.197	-0.254
-317.012	-94.779	0.198	0.053
-315.997	186.307	0.121	0.178
-314.983	-77.404	0.148	0.051
-313.968	63.342	-0.077	0.077
-312.953	26.999	-0.149	-0.124
-311.939	-200.000	-0.020	-0.116
-310.924	-73.001	0.223	0.081
-309.910	-88.967	-0.216	-0.063
-308.895	-10.544	0.195	0.128
-307.880	-200.000	-0.046	0.209
-306.866	-0.721	-0.017	-0.012
-305.851	-148.615	0.090	-0.007
-304.837	149.187	-0.140	0.188
-303.822	496.905	-0.075	-0.172
-302.807	441.253	0.074	0.160
-301.793	-175.649	-0.169	0.005
-300.778	-25.272	-0.115	0.067
-299.764	-103.514	-0.156	-0.036
-298.749	-65.288	0.307	0.122
-297.735	-33.637	0.176	-0.096
-296.720	13.055	0.138	-0.105
-295.705	51.919	-0.146	-0.137
-294.691	464.421	0.078	0.173
-293.676	-200.000	0.020	-0.409
-292.662	-101.631	-0.108	-0.026
-291.647	-21.890	-0.264	0.159
-290.632	-88.334	-0.268	0.079
-289.618	-200.000	0.034	-0.163
-288.603	800.000	0.107	-0.464
-287.589	-43.744	-0.200	-0.100
-286.574	403.355	0.055	0.115
-285.559	-129.350	0.048	-0.007
-284.545	-17.722	0.328	0.204
-283.530	-122.137	-0.172	-0.028
-282.516	-32.068	-0.442	-0.245
-281.501	-72.870	0.083	0.030
-280.486	12.154	0.041	-0.031
-279.472	-200.000	-0.024	0.133
-278.457	177.139	-0.166	0.238
-277.443	145.561	0.092	-0.122
-276.428	-146.673	-0.332	0.028
-275.413	-67.495	-0.311	-0.121
-274.399	-115.030	0.083	0.016
-273.384	257.314	0.127	-0.216
-272.370	-139.871	0.368	0.039
-271.355	343.215	-0.008	-0.016
-270.340	-200.000	0.039	-0.420
-269.326	94.636	0.307	-0.346
-268.311	138.480	-0.263	-0.341
-267.297	-91.525	0.092	0.026
-266.282	-167.378	0.264	-0.010
-265.267	-4.225	0.084	-0.058
-264.253	196.280	-0.064	-0.096
-263.238	-200.000	-0.003	0.287
-262.224	-63.594	-0.241	0.098
-261.209	46.495	-0.092	0.085
-260.195	43.176	0.107	-0.097
-259.180	146.550	-0.083	0.110
-258.165	-200.000	0.011	0.399
-257.151	132.052	0.226	0.288
-256.136	-45.028	0.299	-0.147
-255.122	440.997	0.009	0.018
-254.107	-39.869	0.050	0.026
-253.092	-200.000	-0.042	0.291
-252.078	25.997	0.148	0.122
-251.063	-112.909	0.115	-0.023
-250.049	-200.000	0.001	-0.333
-249.034	98.291	-0.062	-0.071
-248.019	-147.849	0.204	-0.017
-247.005	-0.035	-0.217	0.153
-245.990	28.810	-0.237	0.198
-244.976	-1.189	-0.124	-0.087
-243.961	800.000	-0.050	-0.143
-242.946	109.667	-0.256	0.304
-241.932	800.000	0.041	-0.129
-240.917	-68.567	-0.271	0.104
-239.903	-63.671	0.149	-0.060
-238.888	-85.887	0.050	-0.015
-237.873	428.329	-0.069	-0.146
-236.859	62.809	0.314	0.311
-235.844	32.407	-0.090	-0.077
-234.830	-150.123	-0.348	-0.027
-233.815	-76.613	0.382	-0.133
-232.800	109.175	-0.200	-0.236
-231.786	-121.363	-0.306	0.050
-230.771	-200.000	-0.018	-0.291
-229.757	800.000	0.048	0.157
-228.742	-200.000	-0.021	-0.224
-227.727	-77.967	-0.236	-0.080
-226.713	272.202	-0.025	0.044
-225.698	-104.823	0.141	-0.032
-224.684	45.507	-0.064	0.059
-223.669	-200.000	-0.044	0.339
-222.655	-87.485	0.094	0.028
-221.640	670.511	-0.071	0.182
-220.625	374.626	0.134	0.269
-219.611	51.995	-0.239	-0.225
-218.596	-64.235	-0.154	-0.062
-217.582	-200.000	-0.015	0.192
-216.567	-148.740	-0.219	0.018
-215.552	-107.995	0.234	0.050
-214.538	253.026	-0.018	-0.030
-213.523	-200.000	0.058	-0.257
-212.509	-37.388	0.102	0.054
-211.494	-56.831	0.342	0.149
-210.479	-118.950	0.215	-0.037
-209.465	497.264	-0.097	-0.220
-208.450	-135.414	-0.209	-0.025
-207.436	9.708	0.144	0.107
-206.421	-200.000	0.002	0.095
-205.406	3.912	0.153	-0.110
-204.392	-200.000	-0.077	0.374
-203.377	800.000	0.057	-0.199
-202.363	800.000	-0.097	-0.320
-201.348	-200.000	-0.019	0.328
-200.333	120.232	0.104	0.128
-199.319	800.000	-0.108	-0.309
-198.304	-200.000	-0.003	-0.167
-197.290	800.000	0.019	0.068
-196.275	-200.000	-0.035	0.177
-195.260	647.112	0.029	0.073
-194.246	-106.032	0.118	-0.026
-193.231	-45.688	-0.282	-0.138
-192.217	-9.493	-0.135	-0.089
-191.202	800.000	-0.015	0.052
-190.187	800.000	-0.033	0.107
-189.173	-200.000	-0.002	-0.240
-188.158	-200.000	-0.040	0.419
-187.144	-200.000	0.041	0.233
-186.129	-100.907	0.161	0.039
-185.114	-65.861	-0.354	0.140
-184.100	-49.696	-0.289	0.136
-183.085	594.412	-0.180	0.439
-182.071	137.573	-0.063	-0.081
-181.056	-200.000	-0.017	0.250
-180.042	-45.379	-0.352	0.172
-179.027	203.824	-0.113	-0.173
-178.012	-200.000	0.033	-0.192
-176.998	138.609	0.064	0.083
-175.983	-104.808	-0.124	-0.028
-174.969	39.472	0.201	0.178
-173.954	800.000	0.147	0.416
-172.939	-165.892	-0.560	0.024
-171.925	-80.394	0.218	-0.072
-170.910	-128.062	-0.056	-0.008
-169.896	-127.849	0.259	-0.037
-168.881	-200.000	-0.067	-0.326
-167.866	143.844	0.109	-0.143
-166.852	187.388	0.233	-0.343
-165.837	116.086	0.127	0.153
-164.823	-57.458	0.323	0.140
-163.808	93.878	-0.100	0.112
-162.793	-200.000	-0.014	0.327
-161.779	-200.000	0.012	-0.094
-160.764	-85.653	0.142	0.044
-159.750	-52.285	-0.309	-0.141
-158.735	189.020	0.237	-0.349
-157.720	794.167	0.061	-0.165
-156.706	-82.980	-0.121	-0.039
-155.691	1.940	-0.280	-0.199
-154.677	148.268	0.125	0.166
-153.662	75.480	-0.160	0.167
-152.647	233.648	-0.102	0.166
-151.633	339.551	-0.097	-0.187
-150.618	550.072	0.186	-0.440
-149.604	-200.000	-0.036	0.239
-148.589	-108.910	0.136	-0.029
-147.574	360.205	0.116	0.229
-146.560	-69.678	-0.239	-0.090
-145.545	-26.514	-0.193	0.111
-144.531	800.000	0.069	-0.278
-143.516	-153.966	0.236	-0.016
-142.502	657.639	-0.108	-0.275
-141.487	800.000	0.062	-0.177
-140.472	-59.498	-0.166	0.070
-139.458	-200.000	0.040	-0.317
-138.443	-46.132	0.066	-0.032
-137.429	-146.797	-0.401	0.034
-136.414	-200.000	-0.007	0.095
-135.399	144.900	0.120	-0.158
-134.385	-9.901	0.145	-0.095
-133.370	-13.071	-0.094	-0.060
-132.356	108.972	-0.130	-0.153
-131.341	133.296	-0.102	-0.129
-130.326	-126.773	0.062	0.009
-129.312	-171.178	-0.276	-0.009
-128.297	538.413	0.113	-0.265
-127.283	-38.800	-0.056	0.029
-126.268	71.981	0.042	0.043
-125.253	13.333	-0.015	-0.011
-124.239	-63.799	-0.026	0.011
-123.224	-200.000	0.049	-0.272
-122.210	-179.754	-0.256	-0.005
