DTS Sentinel unit serial number:	SN413079Multiplexer serial number:	ORYXHardware model number:	OX4-SRSoftware version number:	ORYX F/W v4.00 Oryx Data Collector v3.7.2.0data status	okinstallation	princeton_trtdifferential loss correction	single-endedforward channel	channel 1reverse channel	N/Adate	2019/09/15time	03:10:35forward acquisition time	60.00reverse acquisition time	0.00gamma	496.2192k internal	0.2324k external	0.2324temperature offset calibration	0.9992default loss term (dB/km)	0.3790temperature slope calibration	1.0000multiplexer offset coefficient	1.0000multiplexer slope coefficient	1.0000fibre end	0.00T internal ref (°C)	31.14T ext. ref 1 (°C)	4.59T ext. ref 2 (°C)	25.76length (m)	temperature (°C)	Stokes	anti-Stokes-747.200	-88.240	-0.153	-0.046
-746.185	-53.405	-0.193	-0.089
-745.171	200.643	-0.157	-0.243
-744.156	-200.000	0.072	-0.000
-743.142	33.090	0.242	-0.212
-742.127	800.000	-0.100	0.294
-741.112	159.880	-0.232	0.327
-740.098	431.289	-0.111	0.243
-739.083	-43.363	-0.180	-0.092
-738.069	15.642	0.215	0.170
-737.054	800.000	-0.109	0.325
-736.039	80.931	-0.288	0.314
-735.025	-200.000	0.026	0.173
-734.010	800.000	0.074	-0.217
-732.996	-91.474	-0.112	-0.032
-731.981	-64.775	0.341	-0.140
-730.966	-76.384	0.096	-0.034
-729.952	-73.641	-0.382	-0.141
-728.937	-144.514	-0.313	-0.029
-727.923	224.428	0.070	-0.114
-726.908	-200.000	0.011	-0.184
-725.894	-129.547	0.093	-0.013
-724.879	-40.386	-0.254	-0.133
-723.864	666.039	0.029	-0.076
-722.850	-136.174	-0.192	-0.023
-721.835	800.000	-0.053	-0.227
-720.821	-87.542	-0.244	-0.074
-719.806	210.688	-0.201	-0.319
-718.791	341.165	-0.139	-0.275
-717.777	527.984	-0.056	0.133
-716.762	-200.000	0.023	0.171
-715.748	-110.470	-0.077	0.016
-714.733	-18.879	-0.198	0.124
-713.718	334.882	0.079	-0.154
-712.704	3.339	0.028	0.020
-711.689	-174.883	0.261	0.007
-710.675	138.751	-0.066	-0.087
-709.660	-64.103	0.313	0.129
-708.645	-144.047	0.387	-0.037
-707.631	-35.270	-0.314	-0.172
-706.616	-200.000	-0.028	-0.229
-705.602	109.246	0.042	0.051
-704.587	-81.287	-0.189	-0.063
-703.572	80.144	-0.048	-0.052
-702.558	743.481	-0.132	-0.357
-701.543	34.782	0.280	0.247
-700.529	800.000	0.096	0.371
-699.514	-121.648	0.170	0.028
-698.499	-88.417	0.152	-0.046
-697.485	74.662	0.153	0.162
-696.470	-31.921	0.045	-0.025
-695.456	7.415	0.028	0.021
-694.441	-111.608	-0.474	-0.097
-693.426	-88.051	-0.343	-0.104
-692.412	800.000	0.071	0.203
-691.397	-66.552	-0.015	0.006
-690.383	-132.309	-0.277	0.036
-689.368	800.000	-0.072	-0.292
-688.354	-120.700	-0.116	-0.020
-687.339	-90.075	-0.213	-0.063
-686.324	800.000	-0.096	-0.322
-685.310	-54.440	-0.173	0.079
-684.295	-23.019	-0.256	0.155
-683.281	-66.838	0.200	-0.080
-682.266	-200.000	0.005	0.071
-681.251	517.475	0.145	-0.340
-680.237	8.989	0.104	0.079
-679.222	509.123	-0.104	-0.243
-678.208	-42.382	-0.162	0.083
-677.193	28.624	0.214	0.182
-676.178	163.566	-0.084	-0.119
-675.164	37.329	-0.212	-0.189
-674.149	-52.999	-0.185	0.086
-673.135	800.000	0.111	0.330
-672.120	800.000	-0.058	-0.188
-671.105	75.483	0.307	-0.326
-670.091	32.698	0.030	-0.026
-669.076	45.320	-0.075	0.070
-668.062	-200.000	-0.030	-0.303
-667.047	-142.499	-0.551	-0.054
-666.032	-200.000	-0.008	-0.195
-665.018	268.807	0.055	-0.097
-664.003	-90.122	0.179	-0.053
-662.989	110.488	-0.049	0.059
-661.974	-61.852	-0.152	-0.064
-660.959	334.871	0.141	0.275
-659.945	-135.578	-0.176	-0.021
-658.930	353.887	0.160	0.320
-657.916	-160.745	-0.342	0.018
-656.901	-160.365	-0.228	-0.012
-655.886	800.000	-0.039	-0.126
-654.872	129.243	0.076	-0.097
-653.857	-36.606	0.286	0.155
-652.843	-200.000	-0.006	0.249
-651.828	-200.000	-0.035	-0.221
-650.814	800.000	0.055	-0.227
-649.799	-200.000	0.008	-0.246
-648.784	-172.134	0.168	0.005
-647.770	78.150	0.132	-0.142
-646.755	-200.000	-0.054	-0.263
-645.741	121.808	0.272	-0.341
-644.726	-105.428	-0.184	-0.042
-643.711	243.727	-0.119	0.202
-642.697	-122.989	-0.210	-0.034
-641.682	99.121	-0.071	0.082
-640.668	-103.450	-0.191	0.045
-639.653	-64.624	-0.238	0.097
-638.638	-67.680	0.191	-0.075
-637.624	-154.124	0.054	0.004
-636.609	-200.000	0.002	0.286
-635.595	-200.000	0.007	0.073
-634.580	21.179	-0.103	0.084
-633.565	14.605	0.395	0.310
-632.551	-200.000	0.033	0.180
-631.536	-44.038	-0.257	0.130
-630.522	50.398	-0.167	0.159
-629.507	64.949	0.220	-0.224
-628.492	800.000	0.049	0.198
-627.478	-51.807	-0.261	0.122
-626.463	-200.000	0.007	0.083
-625.449	19.749	0.148	0.120
-624.434	800.000	-0.049	0.160
-623.419	-104.298	0.142	-0.033
-622.405	-200.000	-0.011	-0.051
-621.390	236.702	-0.281	-0.468
-620.376	444.991	-0.117	-0.258
-619.361	800.000	0.098	-0.324
-618.346	100.827	-0.055	0.064
-617.332	225.796	0.026	-0.042
-616.317	14.051	-0.050	0.039
-615.303	-48.693	0.076	-0.037
-614.288	800.000	-0.037	0.139
-613.273	-60.402	-0.104	-0.044
-612.259	800.000	-0.069	-0.244
-611.244	-162.684	0.286	-0.014
-610.230	-136.855	-0.203	0.023
-609.215	35.841	-0.287	0.253
-608.201	-166.478	-0.057	-0.002
-607.186	-200.000	-0.005	-0.024
-606.171	-111.235	0.096	-0.020
-605.157	-45.660	0.177	0.088
-604.142	800.000	0.082	-0.334
-603.128	-24.206	-0.046	0.027
-602.113	-200.000	0.067	-0.314
-601.098	-133.134	0.124	0.016
-600.084	-200.000	-0.023	0.171
-599.069	454.967	-0.061	-0.135
-598.055	-3.850	-0.086	0.060
-597.040	-200.000	0.054	0.256
-596.025	74.628	-0.080	-0.085
-595.011	116.538	-0.334	0.411
-593.996	645.589	-0.137	-0.352
-592.982	-111.126	0.227	-0.047
-591.967	800.000	0.064	-0.200
-590.952	231.443	-0.085	0.140
-589.938	-65.178	-0.225	-0.091
-588.923	-200.000	-0.077	-0.475
-587.909	-200.000	0.016	0.189
-586.894	54.055	-0.257	0.248
-585.879	800.000	0.042	-0.128
-584.865	594.165	0.069	0.170
-583.850	800.000	0.005	0.016
-582.836	142.778	-0.012	0.016
-581.821	-145.930	-0.386	-0.034
-580.806	-200.000	0.062	0.340
-579.792	-72.918	-0.244	0.090
-578.777	-128.383	0.208	0.030
-577.763	-200.000	-0.001	-0.068
-576.748	180.815	0.066	0.097
-575.733	61.749	-0.027	0.027
-574.719	39.169	-0.339	0.304
-573.704	-20.446	-0.066	-0.041
-572.690	-118.949	0.337	-0.059
-571.675	-200.000	-0.023	0.179
-570.661	-200.000	-0.054	0.265
-569.646	51.581	0.094	-0.090
-568.631	-200.000	0.007	-0.114
-567.617	352.943	0.100	-0.198
-566.602	800.000	-0.114	-0.352
-565.588	47.214	-0.118	-0.110
-564.573	-20.541	-0.265	0.164
-563.558	-200.000	0.011	0.202
-562.544	351.462	-0.172	-0.341
-561.529	-168.791	0.188	0.007
-560.515	-97.294	-0.115	-0.030
-559.500	-182.676	0.283	0.005
-558.485	-113.862	0.425	-0.083
-557.471	800.000	-0.045	-0.125
-556.456	-11.547	0.094	-0.062
-555.442	-89.351	0.118	-0.035
-554.427	-81.873	-0.389	-0.127
-553.412	-107.236	-0.134	-0.030
-552.398	73.623	-0.060	0.063
-551.383	800.000	0.050	-0.178
-550.369	-132.588	0.283	0.036
-549.354	800.000	-0.051	-0.141
-548.339	42.512	-0.157	-0.143
-547.325	153.756	-0.220	-0.302
-546.310	-132.868	0.145	0.019
-545.296	-200.000	0.059	-0.428
-544.281	-113.419	-0.149	0.029
-543.266	39.722	0.115	-0.103
-542.252	-200.000	0.004	0.142
-541.237	384.829	-0.146	-0.301
-540.223	93.875	0.092	-0.105
-539.208	372.669	-0.139	0.282
-538.193	-112.110	0.107	-0.022
-537.179	-37.465	-0.074	-0.040
-536.164	46.686	0.019	0.018
-535.150	-200.000	-0.037	0.183
-534.135	-35.854	0.261	-0.142
-533.121	184.812	0.097	0.144
-532.106	-64.228	0.298	0.122
-531.091	-35.445	-0.129	-0.070
-530.077	-56.315	-0.306	-0.136
-529.062	195.052	-0.170	0.258
-528.048	-70.151	0.349	0.133
-527.033	336.700	-0.146	0.284
-526.018	233.329	0.073	0.120
-525.004	229.232	-0.238	0.389
-523.989	-150.911	0.037	-0.003
-522.975	-58.983	-0.250	0.108
-521.960	-188.089	0.289	0.004
-520.945	-71.307	0.231	0.087
-519.931	206.966	-0.170	-0.265
-518.916	288.893	0.086	-0.155
-517.902	286.446	-0.146	-0.263
-516.887	-64.222	-0.115	-0.047
-515.872	-14.942	-0.059	-0.038
-514.858	239.614	-0.129	0.215
-513.843	145.972	-0.077	0.103
-512.829	-175.667	-0.175	0.005
-511.814	761.139	-0.140	0.380
-510.799	512.079	0.114	-0.264
-509.785	800.000	0.011	0.040
-508.770	181.591	-0.062	0.091
-507.756	14.142	0.176	0.137
-506.741	229.170	0.067	0.110
-505.726	-61.607	0.239	-0.100
-504.712	-93.050	0.233	-0.065
-503.697	14.153	-0.326	-0.254
-502.683	-155.072	0.148	-0.010
-501.668	-101.497	-0.271	0.066
-500.653	-110.358	-0.109	-0.023
-499.639	-200.000	-0.033	-0.307
-498.624	-200.000	-0.021	-0.218
-497.610	-91.176	0.214	-0.061
-496.595	110.867	-0.164	-0.197
-495.581	97.526	-0.255	-0.293
-494.566	800.000	0.026	0.086
-493.551	800.000	0.029	0.121
-492.537	535.367	-0.161	-0.381
-491.522	215.975	0.024	-0.039
-490.508	-200.000	0.006	0.469
-489.493	-114.787	-0.258	-0.049
-488.478	800.000	0.119	-0.370
-487.464	690.272	0.104	-0.272
-486.449	-60.905	-0.056	0.024
-485.435	512.843	-0.114	0.266
-484.420	-15.900	0.085	0.054
-483.405	-21.871	0.139	-0.085
-482.391	9.150	0.304	0.230
-481.376	-200.000	-0.020	0.178
-480.362	55.452	0.145	0.140
-479.347	-125.501	0.077	0.012
-478.332	-105.304	0.401	0.091
-477.318	68.413	0.186	0.191
-476.303	83.709	-0.166	-0.181
-475.289	-200.000	-0.007	0.253
-474.274	306.155	0.167	0.310
-473.259	329.583	0.041	0.080
-472.245	87.577	0.106	-0.117
-471.230	-200.000	0.003	0.355
-470.216	-15.248	0.146	0.093
-469.201	-122.292	-0.203	0.033
-468.186	219.045	0.084	-0.134
-467.172	680.510	-0.049	0.127
-466.157	284.258	0.159	-0.286
-465.143	-96.600	-0.174	-0.046
-464.128	-200.000	0.039	0.177
-463.113	-31.053	0.253	-0.142
-462.099	-57.971	0.131	0.057
-461.084	-200.000	0.371	-0.000
-460.070	-200.000	-0.002	-0.578
-459.055	-33.883	0.072	-0.039
-458.040	140.098	0.080	0.105
-457.026	50.694	-0.234	0.222
-456.011	8.545	0.228	-0.172
-454.997	-200.000	-0.005	-0.058
-453.982	101.038	-0.125	-0.146
-452.968	-100.291	0.084	-0.021
-451.953	81.913	-0.244	-0.264
-450.938	366.940	-0.031	0.063
-449.924	-116.902	0.303	-0.055
-448.909	283.917	-0.159	0.285
-447.895	-200.000	0.009	-0.059
-446.880	215.988	-0.137	-0.218
-445.865	45.542	0.117	0.108
-444.851	148.972	0.167	-0.225
-443.836	-199.481	0.206	-0.001
-442.822	-119.425	-0.112	-0.019
-441.807	-107.087	-0.025	0.005
-440.792	-2.063	0.303	-0.212
-439.778	119.176	-0.065	0.080
-438.763	197.098	-0.200	-0.304
-437.749	54.240	-0.037	-0.035
-436.734	-178.250	0.120	-0.003
-435.719	800.000	-0.110	0.432
-434.705	-64.296	0.214	-0.087
-433.690	-113.673	0.286	0.056
-432.676	26.433	-0.320	-0.267
-431.661	-122.312	-0.188	0.031
-430.646	-72.285	-0.116	0.043
-429.632	-119.185	-0.223	0.039
-428.617	281.118	0.132	0.235
-427.603	187.236	-0.128	-0.190
-426.588	120.650	0.132	-0.164
-425.573	-200.000	0.029	0.158
-424.559	-26.254	-0.053	-0.031
-423.544	626.754	0.053	0.133
-422.530	-200.000	0.000	0.040
-421.515	288.050	-0.188	-0.339
-420.500	-31.489	-0.431	-0.242
-419.486	-96.035	-0.177	0.047
-418.471	70.338	-0.005	0.005
-417.457	-145.166	-0.135	-0.012
-416.442	-200.000	-0.012	-0.071
-415.428	-62.135	0.074	-0.031
-414.413	-29.968	0.209	-0.119
-413.398	800.000	0.031	-0.094
-412.384	-23.130	-0.220	0.132
-411.369	-140.111	0.187	0.020
-410.355	244.754	0.177	0.297
-409.340	-200.000	0.000	-0.045
-408.325	-108.822	0.242	0.052
-407.311	21.624	-0.079	-0.064
-406.296	-65.297	0.174	0.070
-405.282	-190.303	0.269	0.003
-404.267	185.346	-0.208	-0.307
-403.252	-86.427	0.133	-0.041
-402.238	800.000	0.058	-0.166
-401.223	-70.873	-0.246	-0.092
-400.209	-8.309	-0.113	0.076
-399.194	19.566	-0.050	0.040
-398.179	-67.119	-0.358	0.140
-397.165	65.502	-0.161	0.162
-396.150	119.502	-0.094	0.116
-395.136	-200.000	-0.016	0.116
-394.121	-10.491	-0.191	0.126
-393.106	50.040	0.255	-0.240
-392.092	-95.085	-0.264	0.071
-391.077	-200.000	-0.005	0.052
-390.063	-138.486	0.214	0.023
-389.048	77.647	0.249	0.264
-388.033	-200.000	-0.053	-0.379
-387.019	57.907	0.155	-0.151
-386.004	800.000	-0.077	-0.227
-384.990	87.279	-0.113	0.124
-383.975	-12.022	-0.194	-0.127
-382.960	526.706	0.054	-0.127
-381.946	-30.325	-0.123	0.070
-380.931	254.126	0.138	0.235
-379.917	-138.615	0.322	0.035
-378.902	602.800	-0.023	-0.057
-377.888	95.735	-0.178	-0.202
-376.873	800.000	0.107	-0.326
-375.858	313.671	0.117	0.219
-374.844	-200.000	0.031	0.174
-373.829	-80.010	-0.165	-0.055
-372.815	86.364	0.274	-0.301
-371.800	-64.737	0.106	-0.043
-370.785	800.000	0.034	-0.110
-369.771	-4.639	-0.133	0.091
-368.756	-45.320	0.159	-0.079
-367.742	800.000	0.133	0.402
-366.727	-28.775	-0.234	-0.134
-365.712	-52.694	0.251	-0.115
-364.698	276.711	0.081	-0.143
-363.683	-69.827	-0.096	0.037
-362.669	103.242	0.035	0.040
-361.654	116.660	-0.272	0.332
-360.639	291.967	0.182	0.330
-359.625	-200.000	-0.047	-0.218
-358.610	73.192	0.063	0.065
-357.596	436.587	0.091	-0.196
-356.581	-132.710	-0.187	-0.024
-355.566	146.818	-0.152	-0.203
-354.552	-84.732	-0.233	-0.073
-353.537	10.429	0.120	-0.091
-352.523	-27.819	0.129	-0.074
-351.508	-39.471	-0.283	-0.147
-350.493	16.070	-0.038	-0.029
-349.479	-18.312	0.428	-0.266
-348.464	-200.000	-0.005	0.055
-347.450	77.421	0.323	-0.341
-346.435	118.469	0.181	0.222
-345.420	-200.000	-0.026	0.162
-344.406	-200.000	-0.030	0.203
-343.391	28.569	-0.106	-0.089
-342.377	59.998	0.071	-0.070
-341.362	-152.483	-0.075	-0.005
-340.348	800.000	0.058	0.235
-339.333	-57.957	0.282	0.122
-338.318	767.511	-0.058	0.157
-337.304	224.707	-0.117	-0.189
-336.289	368.338	-0.030	0.060
-335.275	653.322	-0.031	0.079
-334.260	-69.685	0.121	0.046
-333.245	-200.000	-0.011	0.070
-332.231	-58.196	-0.094	-0.041
-331.216	98.312	0.184	0.211
-330.202	48.828	0.103	0.096
-329.187	482.568	0.118	0.267
-328.172	-200.000	-0.007	-0.281
-327.158	800.000	0.060	0.200
-326.143	-113.602	-0.135	0.026
-325.129	-37.300	-0.367	-0.195
-324.114	-65.891	-0.240	-0.095
-323.099	-193.398	-0.034	0.000
-322.085	139.499	-0.326	-0.426
-321.070	800.000	0.021	0.079
-320.056	800.000	0.042	0.142
-319.041	750.698	0.098	0.263
-318.026	800.000	-0.077	0.217
-317.012	-191.381	0.118	0.001
-315.997	-43.929	0.132	0.066
-314.983	369.224	-0.033	0.066
-313.968	76.784	-0.305	0.321
-312.953	-62.400	0.331	0.137
-311.939	184.724	0.248	-0.364
-310.924	-37.245	-0.027	0.014
-309.910	-140.471	0.346	0.036
-308.895	563.097	0.128	-0.308
-307.880	-51.086	-0.218	-0.102
-306.866	72.081	0.180	-0.186
-305.851	143.766	0.065	-0.085
-304.837	-51.665	-0.151	0.070
-303.822	514.937	-0.140	0.323
-302.807	369.890	-0.123	-0.248
-301.793	-200.000	-0.027	-0.247
-300.778	4.056	0.141	-0.102
-299.764	152.898	-0.205	0.278
-298.749	-21.777	-0.079	-0.047
-297.735	-118.341	-0.130	-0.023
-296.720	-200.000	-0.011	0.184
-295.705	64.985	0.069	0.069
-294.691	534.276	0.094	0.222
-293.676	66.510	0.228	0.230
-292.662	800.000	0.062	-0.199
-291.647	-17.175	0.122	0.076
-290.632	-76.991	-0.256	0.089
-289.618	-200.000	-0.012	-0.159
-288.603	-200.000	0.039	0.411
-287.589	159.975	-0.093	0.129
-286.574	169.055	0.133	0.188
-285.559	800.000	0.063	-0.197
-284.545	-17.674	0.233	-0.145
-283.530	8.422	-0.097	-0.072
-282.516	-200.000	0.008	0.177
-281.501	-200.000	-0.018	0.109
-280.486	-114.836	0.374	0.071
-279.472	306.486	-0.121	0.223
-278.457	-119.475	0.107	-0.018
-277.443	738.675	-0.120	0.318
-276.428	-109.496	-0.104	-0.022
-275.413	-53.881	0.139	-0.063
-274.399	213.486	0.063	0.098
-273.384	-200.000	-0.059	0.396
-272.370	-83.543	-0.073	-0.023
-271.355	-79.810	-0.208	-0.069
-270.340	-200.000	-0.003	0.467
-269.326	-6.133	-0.175	-0.118
-268.311	29.631	-0.194	-0.164
-267.297	-52.156	-0.152	-0.070
-266.282	-130.229	0.200	0.027
-265.267	-63.680	0.228	0.093
-264.253	124.883	-0.087	-0.109
-263.238	76.469	-0.166	0.174
-262.224	-200.000	0.001	-0.153
-261.209	360.933	-0.070	0.139
-260.195	-200.000	-0.016	-0.155
-259.180	591.950	0.056	-0.138
-258.165	147.795	-0.218	-0.291
-257.151	-27.371	-0.154	0.089
-256.136	44.932	0.234	-0.213
-255.122	-117.660	-0.190	-0.034
-254.107	800.000	-0.059	-0.214
-253.092	800.000	0.031	0.105
-252.078	46.151	0.102	-0.094
-251.063	-200.000	-0.050	-0.322
-250.049	-200.000	0.008	0.303
-249.034	-90.189	0.096	-0.028
-248.019	-12.671	-0.031	0.020
-247.005	-27.629	-0.151	-0.087
-245.990	-21.975	-0.075	0.045
-244.976	82.415	-0.223	0.239
-243.961	-91.769	0.214	0.060
-242.946	304.238	-0.085	-0.156
-241.932	69.406	0.253	0.257
-240.917	-200.000	0.036	0.317
-239.903	134.016	0.222	0.284
-238.888	-200.000	0.012	0.084
-237.873	437.116	0.148	0.319
-236.859	-140.723	0.047	-0.005
-235.844	-200.000	-0.008	0.064
-234.830	-147.953	0.300	0.025
-233.815	-156.729	0.131	0.008
-232.800	-61.283	0.393	0.164
-231.786	-78.603	-0.289	-0.098
-230.771	-58.281	-0.141	-0.061
-229.757	-132.458	-0.038	0.005
-228.742	-83.439	-0.144	0.046
-227.727	138.982	-0.161	-0.209
-226.713	-12.695	-0.150	0.097
-225.698	41.778	-0.165	-0.148
-224.684	-142.618	0.075	0.007
-223.669	43.926	-0.038	0.034
-222.655	800.000	0.045	0.126
-221.640	800.000	-0.112	-0.335
-220.625	91.533	0.062	-0.068
-219.611	800.000	-0.091	-0.357
-218.596	-173.034	0.164	0.005
-217.582	81.802	0.120	0.128
-216.567	-170.871	0.249	0.008
-215.552	-5.864	0.243	-0.165
-214.538	-77.170	-0.113	0.039
-213.523	9.521	-0.384	0.288
-212.509	-91.176	-0.172	0.049
-211.494	-200.000	0.010	-0.280
-210.479	800.000	0.043	0.141
-209.465	-200.000	0.016	-0.085
-208.450	-107.735	0.206	0.044
-207.436	224.433	-0.134	0.215
-206.421	773.189	0.088	-0.236
-205.406	484.376	-0.178	0.401
-204.392	212.316	0.047	0.073
-203.377	-57.624	-0.148	-0.064
-202.363	-77.044	0.372	0.128
-201.348	106.850	0.143	0.168
-200.333	-156.197	0.113	-0.007
-199.319	214.937	0.117	-0.183
-198.304	-12.107	-0.150	-0.097
-197.290	734.274	-0.047	-0.125
-196.275	-200.000	-0.004	0.162
-195.260	-32.598	-0.371	-0.204
-194.246	-63.801	0.124	0.050
-193.231	-200.000	0.060	0.263
-192.217	-200.000	0.014	0.073
-191.202	-9.125	-0.358	-0.237
-190.187	-98.801	0.088	0.022
-189.173	379.601	-0.218	-0.442
-188.158	-54.389	0.126	0.056
-187.144	-76.836	0.255	-0.088
-186.129	-134.254	-0.318	-0.039
-185.114	-29.049	0.090	0.051
-184.100	800.000	-0.080	-0.328
-183.085	276.041	-0.059	-0.103
-182.071	-51.149	-0.095	0.044
-181.056	13.507	-0.189	0.145
-180.042	183.897	0.141	-0.207
-179.027	271.902	-0.186	-0.324
-178.012	-12.397	0.455	-0.294
-176.998	59.594	-0.136	0.132
-175.983	-117.102	0.103	-0.019
-174.969	-110.348	0.382	-0.078
-173.954	800.000	-0.009	0.035
-172.939	-200.000	0.028	0.460
-171.925	-53.296	0.153	0.069
-170.910	-200.000	0.049	0.399
-169.896	37.310	0.122	0.107
-168.881	162.583	0.093	0.129
-167.866	-22.331	0.044	0.027
-166.852	-41.869	-0.347	-0.176
-165.837	173.180	0.229	-0.326
-164.823	4.984	-0.206	0.150
-163.808	-36.708	-0.068	0.036
-162.793	711.387	-0.032	0.083
-161.779	-39.892	-0.036	-0.019
-160.764	-200.000	-0.021	-0.213
-159.750	52.938	-0.146	0.138
-158.735	-64.466	0.187	0.075
-157.720	114.077	0.067	-0.080
-156.706	-200.000	0.054	0.249
-155.691	16.808	-0.110	0.086
-154.677	-200.000	-0.053	0.312
-153.662	-200.000	-0.062	0.349
-152.647	-84.214	0.366	-0.114
-151.633	734.164	-0.095	-0.251
-150.618	-116.331	-0.090	0.016
-149.604	-35.109	-0.164	0.088
-148.589	-139.896	0.100	-0.010
-147.574	597.973	0.201	0.492
-146.560	81.421	-0.056	-0.060
-145.545	713.336	-0.070	-0.184
-144.531	-200.000	0.025	0.110
-143.516	76.960	0.133	-0.139
-142.502	604.095	-0.188	0.462
-141.487	-168.079	-0.285	0.011
-140.472	238.610	0.082	-0.134
-139.458	1.394	0.112	-0.080
-138.443	-200.000	-0.002	-0.042
-137.429	33.112	-0.257	-0.220
-136.414	800.000	0.035	0.120
-135.399	31.963	0.155	-0.132
-134.385	-200.000	-0.013	-0.252
-133.370	724.746	0.077	-0.201
-132.356	-115.252	-0.061	-0.011
-131.341	96.567	0.239	0.270
-130.326	59.359	0.184	-0.178
-129.312	-55.491	-0.266	-0.117
-128.297	392.575	-0.094	-0.192
-127.283	-45.502	-0.155	-0.076
-126.268	-190.060	-0.135	0.001
-125.253	-93.785	0.254	-0.069
-124.239	-90.813	0.134	0.038
-123.224	465.748	0.071	0.157
-122.210	-96.459	0.032	0.008
-121.195	800.000	0.094	0.269
