DTS Sentinel unit serial number:	SN413079Multiplexer serial number:	ORYXHardware model number:	OX4-SRSoftware version number:	ORYX F/W v4.00 Oryx Data Collector v3.7.2.0data status	okinstallation	princeton_trtdifferential loss correction	single-endedforward channel	channel 1reverse channel	N/Adate	2019/09/13time	15:42:35forward acquisition time	60.00reverse acquisition time	0.00gamma	496.2192k internal	0.2308k external	0.2308temperature offset calibration	1.0161default loss term (dB/km)	0.3790temperature slope calibration	1.0000multiplexer offset coefficient	1.0000multiplexer slope coefficient	1.0000fibre end	0.00T internal ref (°C)	34.81T ext. ref 1 (°C)	4.74T ext. ref 2 (°C)	29.14length (m)	temperature (°C)	Stokes	anti-Stokes-747.200	800.000	0.018	0.066
-746.185	800.000	0.096	0.278
-745.171	-200.000	0.014	0.258
-744.156	-103.117	0.236	0.057
-743.142	429.116	0.103	0.226
-742.127	166.572	-0.320	0.460
-741.112	342.626	0.104	0.208
-740.098	-62.035	0.307	0.130
-739.083	169.252	-0.055	0.080
-738.069	202.638	0.202	0.318
-737.054	-200.000	0.010	0.080
-736.039	800.000	-0.057	0.233
-735.025	283.333	-0.123	0.225
-734.010	-93.370	-0.233	-0.066
-732.996	8.593	-0.125	0.096
-731.981	139.933	-0.141	-0.188
-730.966	-91.000	0.280	-0.082
-729.952	-200.000	0.044	-0.245
-728.937	199.936	-0.173	-0.271
-727.923	-132.355	0.035	0.005
-726.908	278.506	0.143	-0.258
-725.894	800.000	0.055	0.238
-724.879	339.893	-0.210	-0.417
-723.864	-200.000	0.034	-0.340
-722.850	800.000	-0.077	-0.236
-721.835	800.000	-0.044	0.143
-720.821	-109.940	0.159	-0.034
-719.806	-95.824	-0.249	-0.068
-718.791	-1.679	-0.163	0.117
-717.777	-42.461	0.089	0.046
-716.762	-200.000	0.028	0.173
-715.748	-65.665	0.089	-0.036
-714.733	77.920	-0.345	-0.374
-713.718	800.000	-0.064	-0.233
-712.704	375.981	0.115	-0.238
-711.689	-51.288	-0.151	0.072
-710.675	-200.000	-0.008	-0.215
-709.660	-113.402	0.175	0.035
-708.645	-175.851	0.100	-0.003
-707.631	-200.000	0.015	-0.135
-706.616	62.859	-0.050	0.051
-705.602	385.502	-0.088	0.185
-704.587	-115.016	-0.323	-0.062
-703.572	-154.940	0.181	0.012
-702.558	122.169	0.050	0.063
-701.543	-200.000	-0.035	-0.323
-700.529	-200.000	-0.032	0.314
-699.514	211.306	-0.151	0.240
-698.499	20.678	-0.093	0.076
-697.485	-119.286	-0.278	-0.049
-696.470	-95.325	-0.140	-0.038
-695.456	-200.000	0.017	-0.206
-694.441	20.044	0.190	-0.155
-693.426	416.108	0.140	0.302
-692.412	11.718	-0.153	-0.119
-691.397	-121.035	-0.060	0.010
-690.383	-156.033	-0.162	-0.010
-689.368	-51.286	0.155	0.074
-688.354	-78.643	0.413	-0.143
-687.339	800.000	-0.050	-0.209
-686.324	-24.808	-0.033	-0.020
-685.310	197.537	0.133	-0.206
-684.295	-87.433	0.244	0.075
-683.281	40.610	0.088	0.081
-682.266	328.315	0.186	-0.361
-681.251	-5.357	0.232	-0.162
-680.237	800.000	0.057	-0.186
-679.222	-82.897	0.461	-0.151
-678.208	648.090	-0.112	0.292
-677.193	-200.000	-0.007	-0.349
-676.178	182.806	0.100	-0.150
-675.164	2.164	0.047	-0.034
-674.149	69.092	0.073	-0.076
-673.135	-65.736	0.276	-0.112
-672.120	-200.000	-0.020	0.255
-671.105	-122.847	-0.203	0.033
-670.091	-200.000	-0.025	0.242
-669.076	800.000	0.068	0.270
-668.062	-36.514	0.379	0.206
-667.047	-109.001	-0.294	-0.063
-666.032	800.000	-0.049	-0.153
-665.018	-10.255	0.172	0.116
-664.003	-13.277	-0.080	-0.053
-662.989	147.971	0.236	-0.323
-661.974	-147.738	-0.315	-0.027
-660.959	-91.815	-0.263	-0.076
-659.945	40.578	0.168	0.154
-658.930	705.313	0.076	0.203
-657.916	-140.400	-0.246	-0.026
-656.901	375.570	0.061	-0.127
-655.886	-19.317	0.216	0.136
-654.872	-156.851	-0.397	0.025
-653.857	176.852	0.126	0.186
-652.843	800.000	-0.078	0.247
-651.828	95.626	0.149	-0.173
-650.814	-158.665	-0.139	-0.008
-649.799	-4.122	-0.218	0.153
-648.784	24.474	0.210	-0.176
-647.770	796.905	-0.046	-0.129
-646.755	-39.438	0.198	0.105
-645.741	-41.647	-0.121	-0.063
-644.726	-4.109	0.223	0.156
-643.711	-44.241	0.259	0.132
-642.697	398.629	-0.150	0.318
-641.682	-104.623	0.190	-0.044
-640.668	441.819	-0.115	0.254
-639.653	-54.703	0.102	-0.047
-638.638	-135.333	-0.469	-0.057
-637.624	-200.000	-0.002	0.107
-636.609	-53.197	0.056	-0.026
-635.595	-137.494	-0.029	-0.003
-634.580	-26.284	-0.060	-0.036
-633.565	-125.536	-0.321	0.049
-632.551	800.000	0.091	-0.387
-631.536	-200.000	-0.020	-0.116
-630.522	-119.562	0.139	0.024
-629.507	68.074	0.061	-0.063
-628.492	256.757	-0.040	-0.070
-627.478	-53.364	-0.172	0.080
-626.463	-200.000	0.015	-0.126
-625.449	-8.357	-0.310	0.211
-624.434	-64.062	-0.344	-0.142
-623.419	-200.000	0.006	-0.056
-622.405	-136.730	0.130	0.015
-621.390	-200.000	0.009	0.489
-620.376	800.000	0.061	-0.239
-619.361	-200.000	0.006	-0.034
-618.346	-15.579	0.279	-0.180
-617.332	-33.366	-0.110	-0.061
-616.317	47.717	-0.344	0.325
-615.303	-40.672	-0.260	0.136
-614.288	-118.651	0.074	-0.013
-613.273	395.468	0.071	0.150
-612.259	114.136	-0.084	-0.103
-611.244	-200.000	-0.009	-0.243
-610.230	84.485	0.095	-0.105
-609.215	366.829	0.145	0.296
-608.201	800.000	-0.049	-0.198
-607.186	51.795	-0.126	-0.122
-606.171	-200.000	0.020	-0.210
-605.157	-17.799	0.158	-0.100
-604.142	594.098	0.034	0.086
-603.128	136.314	-0.114	-0.150
-602.113	-65.117	0.225	-0.092
-601.098	449.946	-0.149	-0.333
-600.084	160.157	0.139	0.196
-599.069	411.193	0.097	-0.209
-598.055	-56.687	-0.078	0.035
-597.040	-200.000	-0.012	-0.179
-596.025	80.696	-0.047	0.051
-595.011	224.279	0.199	-0.325
-593.996	438.138	-0.044	-0.097
-592.982	149.041	0.049	0.066
-591.967	-176.380	-0.449	-0.012
-590.952	-31.592	-0.312	0.177
-589.938	671.454	0.088	0.232
-588.923	-127.416	-0.300	0.044
-587.909	725.218	-0.051	-0.138
-586.894	-200.000	-0.014	-0.320
-585.879	134.682	0.119	-0.156
-584.865	800.000	-0.082	0.362
-583.850	-127.345	0.057	-0.008
-582.836	-4.823	0.229	-0.159
-581.821	745.701	-0.025	-0.067
-580.806	800.000	-0.019	-0.077
-579.792	316.928	0.083	0.158
-578.777	-133.700	0.164	-0.021
-577.763	-53.148	-0.196	-0.091
-576.748	-75.865	0.185	-0.066
-575.733	-32.349	-0.458	-0.258
-574.719	95.024	0.118	0.136
-573.704	-37.272	-0.318	0.172
-572.690	-141.213	-0.378	0.039
-571.675	45.063	-0.111	-0.103
-570.661	-164.314	0.150	0.007
-569.646	-24.540	-0.219	0.132
-568.631	659.844	0.138	0.360
-567.617	218.321	-0.036	-0.059
-566.602	61.276	-0.203	0.204
-565.588	237.070	-0.149	0.250
-564.573	262.867	0.073	-0.128
-563.558	541.729	0.098	-0.235
-562.544	-41.222	-0.227	-0.118
-561.529	-113.830	-0.202	0.040
-560.515	-25.583	0.216	0.129
-559.500	89.127	-0.083	0.093
-558.485	-143.796	-0.204	-0.019
-557.471	-200.000	-0.019	-0.134
-556.456	-66.566	-0.119	-0.048
-555.442	-148.306	0.262	-0.022
-554.427	292.984	0.118	-0.217
-553.412	235.722	-0.109	0.181
-552.398	283.526	-0.089	-0.162
-551.383	-161.765	0.195	-0.010
-550.369	-141.990	-0.323	0.032
-549.354	148.732	-0.286	0.389
-548.339	-63.965	0.191	-0.079
-547.325	800.000	-0.108	0.363
-546.310	27.412	-0.177	-0.150
-545.296	-200.000	-0.007	-0.435
-544.281	664.122	0.027	0.071
-543.266	69.560	0.057	0.059
-542.252	-113.149	-0.092	0.018
-541.237	-200.000	-0.017	0.136
-540.223	-131.882	-0.117	0.015
-539.208	78.009	0.043	-0.046
-538.193	800.000	0.124	-0.356
-537.179	4.314	-0.057	-0.042
-536.164	131.954	0.211	0.274
-535.150	207.124	0.224	-0.352
-534.135	-154.475	-0.157	-0.011
-533.121	-50.068	-0.108	0.051
-532.106	800.000	-0.040	0.161
-531.091	172.707	0.108	-0.157
-530.077	-77.980	-0.199	0.069
-529.062	-200.000	-0.027	-0.251
-528.048	284.521	0.069	0.125
-527.033	14.513	-0.198	-0.156
-526.018	39.260	-0.143	-0.129
-525.004	-66.289	0.248	0.100
-523.989	-87.784	-0.338	0.103
-522.975	800.000	-0.104	-0.293
-521.960	216.613	-0.052	-0.083
-520.945	-141.222	-0.281	0.029
-519.931	532.156	-0.035	-0.082
-518.916	-62.047	0.062	-0.026
-517.902	-200.000	0.066	0.398
-516.887	213.695	-0.120	-0.191
-515.872	-200.000	0.125	0.000
-514.858	142.725	0.111	0.148
-513.843	-15.679	-0.189	-0.121
-512.829	357.744	-0.039	-0.079
-511.814	683.782	-0.150	-0.393
-510.799	-200.000	-0.025	-0.203
-509.785	-19.398	0.134	0.083
-508.770	242.855	-0.173	-0.292
-507.756	515.389	0.123	-0.290
-506.741	315.491	0.060	-0.114
-505.726	-200.000	0.014	0.128
-504.712	73.672	-0.046	0.049
-503.697	98.189	-0.269	0.312
-502.683	349.549	-0.057	-0.113
-501.668	-5.532	-0.136	0.094
-500.653	27.784	0.103	0.087
-499.639	224.991	0.213	-0.348
-498.624	16.567	0.298	0.237
-497.610	-200.000	-0.005	0.099
-496.595	-200.000	0.000	-0.080
-495.581	-200.000	-0.013	0.178
-494.566	-200.000	-0.018	0.153
-493.551	343.665	0.038	-0.075
-492.537	-150.409	-0.070	-0.005
-491.522	-200.000	-0.023	-0.296
-490.508	-200.000	0.105	-0.575
-489.493	182.965	-0.067	0.100
-488.478	-124.630	-0.369	0.058
-487.464	-65.333	-0.193	-0.078
-486.449	800.000	0.053	-0.172
-485.435	-127.513	-0.296	-0.043
-484.420	7.566	0.041	-0.031
-483.405	170.237	-0.042	-0.060
-482.391	-9.532	0.364	-0.244
-481.376	-8.158	0.088	-0.059
-480.362	499.723	-0.136	0.316
-479.347	-200.000	-0.004	0.111
-478.332	-200.000	-0.048	0.343
-477.318	315.174	0.071	-0.136
-476.303	0.743	-0.191	0.138
-475.289	38.397	-0.277	-0.248
-474.274	280.196	-0.118	0.213
-473.259	-200.000	0.001	0.276
-472.245	800.000	-0.106	0.296
-471.230	-200.000	-0.048	0.332
-470.216	354.451	0.083	0.166
-469.201	216.952	0.082	-0.132
-468.186	-80.140	0.247	0.083
-467.172	146.977	0.118	-0.159
-466.157	800.000	0.052	-0.195
-465.143	-200.000	0.028	-0.147
-464.128	-200.000	-0.004	-0.152
-463.113	-81.160	0.183	-0.061
-462.099	-56.976	0.245	-0.109
-461.084	119.733	-0.259	-0.323
-460.070	-200.000	-0.012	0.244
-459.055	-63.689	-0.296	-0.122
-458.040	225.487	0.083	-0.136
-457.026	-200.000	0.047	-0.223
-456.011	144.075	-0.192	-0.257
-454.997	171.083	-0.225	0.324
-453.982	800.000	-0.083	0.261
-452.968	-200.000	0.017	-0.179
-451.953	-104.256	-0.604	0.141
-450.938	415.980	0.155	0.332
-449.924	-40.157	0.169	-0.089
-448.909	-14.942	-0.183	-0.118
-447.895	-199.753	-0.218	-0.001
-446.880	-76.081	-0.304	0.108
-445.865	-44.410	-0.263	0.132
-444.851	800.000	-0.039	-0.109
-443.836	217.826	0.083	-0.133
-442.822	-72.272	-0.105	-0.039
-441.807	800.000	0.051	-0.177
-440.792	-200.000	0.078	0.366
-439.778	-200.000	0.045	0.391
-438.763	-62.088	-0.158	0.066
-437.749	-200.000	0.029	-0.298
-436.734	718.656	-0.082	-0.220
-435.719	650.020	-0.058	0.148
-434.705	-60.235	-0.086	-0.037
-433.690	-200.000	0.019	-0.093
-432.676	793.321	-0.149	0.412
-431.661	514.187	-0.134	0.313
-430.646	356.161	-0.211	0.423
-429.632	-108.588	0.197	0.042
-428.617	-200.000	-0.047	0.356
-427.603	-42.559	-0.185	0.095
-426.588	12.974	0.136	-0.105
-425.573	-43.059	0.069	0.035
-424.559	95.001	-0.192	0.219
-423.544	-150.774	-0.116	0.009
-422.530	-34.524	0.314	-0.173
-421.515	-200.000	0.008	-0.037
-420.500	83.211	0.034	0.037
-419.486	800.000	-0.061	-0.190
-418.471	89.799	0.288	0.323
-417.457	55.422	-0.170	0.165
-416.442	-122.508	-0.197	0.032
-415.428	9.043	-0.100	-0.076
-414.413	-200.000	-0.030	-0.142
-413.398	-188.514	-0.267	0.003
-412.384	-165.199	-0.165	-0.007
-411.369	33.620	0.176	0.153
-410.355	482.128	-0.048	0.110
-409.340	800.000	-0.112	0.344
-408.325	47.168	-0.165	0.155
-407.311	-23.475	0.300	0.181
-406.296	-78.868	-0.180	0.061
-405.282	52.777	0.106	-0.101
-404.267	53.298	0.114	0.110
-403.252	233.638	0.210	0.348
-402.238	-35.426	0.321	-0.175
-401.223	-200.000	0.054	0.277
-400.209	-155.364	-0.313	-0.020
-399.194	59.155	0.094	-0.093
-398.179	-64.619	0.108	-0.044
-397.165	800.000	-0.051	0.162
-396.150	-117.766	0.244	0.044
-395.136	-200.000	-0.027	0.206
-394.121	-42.474	0.119	0.061
-393.106	150.093	0.130	-0.177
-392.092	-25.634	0.111	0.066
-391.077	293.509	-0.100	0.183
-390.063	-200.000	0.016	-0.165
-389.048	-112.532	0.259	0.052
-388.033	-200.000	0.001	-0.266
-387.019	-106.387	-0.237	0.053
-386.004	-101.567	-0.009	-0.002
-384.990	6.427	-0.189	0.141
-383.975	162.441	0.174	0.245
-382.960	12.926	0.174	0.135
-381.946	-80.061	0.266	-0.090
-380.931	-57.307	0.301	0.133
-379.917	-65.228	-0.263	-0.106
-378.902	-47.912	-0.176	-0.085
-377.888	-200.000	-0.021	-0.112
-376.873	-200.000	-0.017	0.312
-375.858	-200.000	0.000	0.153
-374.844	-110.960	0.223	-0.046
-373.829	103.376	-0.044	0.052
-372.815	-200.000	-0.018	-0.236
-371.800	-29.078	0.020	0.011
-370.785	359.100	0.133	0.265
-369.771	-66.248	0.246	0.098
-368.756	423.582	0.052	0.111
-367.742	10.110	-0.028	0.022
-366.727	162.912	-0.199	0.280
-365.712	48.796	-0.207	-0.195
-364.698	-200.000	0.032	-0.173
-363.683	-73.783	0.349	0.127
-362.669	-200.000	-0.001	0.089
-361.654	694.687	0.034	-0.090
-360.639	-40.485	0.272	0.142
-359.625	439.922	0.069	0.152
-358.610	75.312	0.224	-0.236
-357.596	-53.780	-0.303	0.138
-356.581	229.364	0.079	-0.129
-355.566	800.000	-0.093	-0.303
-354.552	16.628	0.106	-0.084
-353.537	285.633	-0.078	-0.141
-352.523	-16.221	-0.245	-0.156
-351.508	-87.966	-0.192	0.058
-350.493	138.903	-0.139	-0.183
-349.479	-33.835	-0.213	-0.118
-348.464	-22.842	0.158	0.095
-347.450	-200.000	-0.013	0.112
-346.435	-200.000	0.027	0.262
-345.420	714.552	-0.078	-0.208
-344.406	600.916	-0.211	-0.525
-343.391	-200.000	-0.007	-0.068
-342.377	-200.000	0.067	-0.419
-341.362	-200.000	0.013	-0.142
-340.348	-135.883	0.329	-0.039
-339.333	800.000	0.069	0.235
-338.318	59.151	-0.205	-0.201
-337.304	-174.306	-0.135	-0.004
-336.289	235.860	0.129	-0.213
-335.275	800.000	-0.027	0.075
-334.260	3.388	0.327	-0.238
-333.245	558.960	0.087	0.210
-332.231	69.272	0.183	-0.189
-331.216	800.000	0.045	-0.139
-330.202	-41.458	0.042	-0.022
-329.187	-200.000	0.054	-0.336
-328.172	-88.260	-0.115	-0.034
-327.158	17.391	-0.088	0.070
-326.143	-15.061	0.341	0.218
-325.129	-51.047	-0.036	0.017
-324.114	-129.710	0.134	0.018
-323.099	-175.443	0.238	0.006
-322.085	-129.031	-0.195	0.027
-321.070	-198.160	0.273	0.002
-320.056	-73.947	-0.188	0.068
-319.041	-200.000	0.012	0.196
-318.026	82.839	-0.081	-0.088
-317.012	-200.000	0.030	-0.148
-315.997	-200.000	0.012	-0.458
-314.983	799.882	-0.040	0.111
-313.968	156.390	0.185	-0.255
-312.953	800.000	-0.141	-0.465
-311.939	43.614	-0.275	0.252
-310.924	-56.141	-0.071	-0.032
-309.910	226.135	0.088	-0.143
-308.895	39.316	-0.188	-0.168
-307.880	-38.780	-0.205	-0.108
-306.866	288.419	-0.045	0.082
-305.851	-96.070	0.181	-0.048
-304.837	108.353	0.204	-0.244
-303.822	-200.000	-0.039	0.215
-302.807	800.000	-0.057	0.217
-301.793	50.833	0.183	-0.173
-300.778	-40.968	-0.248	0.128
-299.764	-200.000	0.052	0.360
-298.749	-200.000	-0.007	0.042
-297.735	-86.791	-0.092	0.028
-296.720	35.189	-0.066	-0.058
-295.705	-139.410	0.272	-0.029
-294.691	-11.853	0.144	-0.095
-293.676	800.000	-0.008	-0.030
-292.662	117.910	-0.167	-0.205
-291.647	800.000	-0.028	0.112
-290.632	-39.241	-0.233	-0.122
-289.618	80.865	0.109	0.118
-288.603	352.692	0.100	0.197
-287.589	122.479	-0.060	0.076
-286.574	7.976	-0.183	-0.137
-285.559	800.000	0.065	0.206
-284.545	-60.331	0.190	0.081
-283.530	-59.364	0.356	0.153
-282.516	264.898	-0.099	0.172
-281.501	68.939	0.110	-0.112
-280.486	-113.221	-0.048	0.009
-279.472	204.782	-0.171	0.264
-278.457	-55.133	0.158	-0.071
-277.443	-103.710	0.496	0.116
-276.428	-135.701	0.217	-0.026
-275.413	-160.962	-0.027	0.001
-274.399	437.136	0.035	-0.076
-273.384	664.082	0.072	0.185
-272.370	56.108	-0.225	-0.218
-271.355	800.000	-0.106	-0.387
-270.340	-200.000	0.004	-0.287
-269.326	800.000	0.125	-0.428
-268.311	178.769	0.157	-0.229
-267.297	13.139	0.232	0.180
-266.282	-133.402	-0.142	0.018
-265.267	242.172	0.201	-0.335
-264.253	-49.027	0.285	-0.136
-263.238	-159.074	0.149	0.008
-262.224	800.000	-0.060	-0.171
-261.209	28.554	-0.188	0.159
-260.195	800.000	-0.056	0.164
-259.180	572.624	-0.139	0.338
-258.165	165.363	-0.034	-0.048
-257.151	-155.110	0.304	-0.020
-256.136	-10.212	0.308	0.204
-255.122	16.490	0.158	0.125
-254.107	-200.000	-0.008	-0.132
-253.092	-200.000	-0.001	-0.400
-252.078	-13.064	0.192	0.124
-251.063	-200.000	-0.041	0.341
-250.049	49.243	0.143	-0.134
-249.034	-18.538	-0.195	-0.122
-248.019	-122.407	0.258	0.042
-247.005	794.545	-0.029	-0.081
-245.990	-141.201	0.209	0.021
-244.976	-121.081	-0.135	0.023
-243.961	268.984	0.164	0.287
-242.946	97.341	-0.183	0.210
-241.932	67.791	-0.100	-0.102
-240.917	8.282	0.104	0.078
-239.903	-100.995	0.339	-0.083
-238.888	-125.385	-0.287	0.044
-237.873	23.260	-0.111	0.091
-236.859	-200.000	0.037	-0.193
-235.844	75.848	0.178	0.188
-234.830	-200.000	-0.037	-0.168
-233.815	-37.963	0.220	0.116
-232.800	-76.310	0.230	0.081
-231.786	800.000	0.084	-0.293
-230.771	263.754	0.088	0.152
-229.757	-27.844	0.223	-0.129
-228.742	-200.000	-0.033	-0.183
-227.727	-200.000	-0.009	0.296
-226.713	-40.261	-0.318	-0.165
-225.698	63.506	0.121	-0.121
-224.684	495.083	-0.015	0.035
-223.669	-148.305	-0.162	-0.013
-222.655	800.000	-0.032	-0.110
-221.640	-179.252	-0.106	0.002
-220.625	-38.347	0.297	-0.157
-219.611	-200.000	-0.031	0.167
-218.596	-1.922	-0.055	-0.039
-217.582	546.437	-0.023	-0.055
-216.567	-149.222	-0.258	0.021
-215.552	-105.420	0.403	-0.091
-214.538	316.749	0.132	0.249
-213.523	177.207	0.145	-0.210
-212.509	113.668	-0.063	0.076
-211.494	114.280	0.082	-0.099
-210.479	206.310	-0.075	0.116
-209.465	-102.949	0.067	-0.016
-208.450	220.918	-0.083	0.132
-207.436	538.149	0.041	-0.096
-206.421	549.778	0.102	-0.242
-205.406	-200.000	-0.017	-0.167
-204.392	-159.561	-0.195	0.011
-203.377	-200.000	-0.101	0.567
-202.363	12.991	0.112	0.086
-201.348	-101.854	0.262	-0.063
-200.333	-118.317	-0.214	-0.038
-199.319	800.000	-0.045	0.173
-198.304	800.000	0.085	0.252
-197.290	800.000	0.086	0.367
-196.275	800.000	0.080	0.286
-195.260	-18.610	-0.110	0.068
-194.246	-180.759	-0.114	0.002
-193.231	165.497	-0.055	-0.078
-192.217	246.585	-0.100	0.168
-191.202	-83.179	0.383	0.123
-190.187	369.099	-0.112	0.226
-189.173	-200.000	0.001	0.017
-188.158	-103.252	-0.421	0.099
-187.144	-200.000	0.032	0.320
-186.129	164.392	-0.115	0.162
-185.114	62.359	0.113	-0.112
-184.100	-164.378	0.308	-0.014
-183.085	-52.825	0.123	-0.056
-182.071	94.819	0.244	0.276
-181.056	37.312	0.175	0.154
-180.042	800.000	0.034	-0.144
-179.027	800.000	0.123	0.402
-178.012	800.000	0.173	-0.526
-176.998	-200.000	0.036	0.159
-175.983	800.000	-0.095	0.341
-174.969	-200.000	-0.041	-0.232
-173.954	62.928	0.155	-0.154
-172.939	51.057	0.084	-0.079
-171.925	-93.683	-0.172	-0.047
-170.910	800.000	0.059	-0.165
-169.896	-57.142	-0.263	0.115
-168.881	-6.283	0.045	-0.030
-167.866	422.962	0.230	-0.491
-166.852	-150.025	0.357	-0.028
-165.837	2.310	0.214	0.154
-164.823	757.120	-0.137	0.368
-163.808	-108.648	0.255	-0.054
-162.793	15.890	0.052	0.041
-161.779	-17.596	0.090	0.056
-160.764	272.754	0.079	-0.139
-159.750	-102.859	-0.128	-0.030
-158.735	-190.441	0.079	0.001
-157.720	70.099	-0.099	-0.102
-156.706	-200.000	-0.014	0.118
-155.691	341.612	-0.080	-0.155
-154.677	-47.599	0.201	0.097
-153.662	16.833	-0.112	0.088
-152.647	734.029	0.111	-0.296
-151.633	-66.161	0.201	-0.080
-150.618	-200.000	-0.060	0.371
-149.604	800.000	0.041	-0.149
-148.589	-1.984	-0.256	0.178
-147.574	-24.316	0.274	-0.162
-146.560	139.466	-0.258	-0.337
-145.545	-10.291	-0.210	-0.138
-144.531	-200.000	-0.023	0.167
-143.516	232.326	0.211	-0.344
-142.502	800.000	0.085	0.353
-141.487	364.945	0.105	0.210
-140.472	-200.000	-0.029	0.156
-139.458	-72.967	-0.114	0.042
-138.443	-200.000	-0.024	0.289
-137.429	-200.000	-0.041	0.187
-136.414	-200.000	-0.052	0.287
-135.399	-123.179	0.099	-0.016
-134.385	-145.416	0.206	0.018
-133.370	-16.272	-0.126	0.080
-132.356	-149.632	-0.241	-0.019
-131.341	-15.489	-0.221	-0.140
-130.326	88.200	0.047	0.052
-129.312	-117.068	0.063	-0.011
-128.297	367.856	-0.085	0.170
-127.283	308.459	0.112	0.208
-126.268	-200.000	-0.029	0.176
-125.253	795.141	-0.072	-0.197
-124.239	70.963	0.195	-0.200
-123.224	-200.000	-0.032	-0.342
-122.210	140.450	0.229	-0.300
