DTS Sentinel unit serial number:	SN413079Multiplexer serial number:	ORYXHardware model number:	OX4-SRSoftware version number:	ORYX F/W v4.00 Oryx Data Collector v3.7.2.0data status	okinstallation	princeton_trtdifferential loss correction	single-endedforward channel	channel 1reverse channel	N/Adate	2019/09/15time	07:30:35forward acquisition time	60.00reverse acquisition time	0.00gamma	496.2192k internal	0.2325k external	0.2325temperature offset calibration	1.0002default loss term (dB/km)	0.3790temperature slope calibration	1.0000multiplexer offset coefficient	1.0000multiplexer slope coefficient	1.0000fibre end	0.00T internal ref (°C)	30.59T ext. ref 1 (°C)	4.93T ext. ref 2 (°C)	25.52length (m)	temperature (°C)	Stokes	anti-Stokes-747.200	-59.585	0.147	-0.064
-746.185	-20.439	0.393	0.244
-745.171	268.379	-0.191	-0.338
-744.156	800.000	0.025	0.089
-743.142	-117.998	0.168	-0.030
-742.127	679.158	-0.036	0.094
-741.112	-110.197	0.341	-0.072
-740.098	218.602	0.186	0.301
-739.083	-31.127	0.281	-0.160
-738.069	-68.634	-0.170	0.067
-737.054	800.000	0.023	0.101
-736.039	-102.665	-0.223	0.054
-735.025	-131.519	0.138	-0.018
-734.010	118.040	-0.087	-0.108
-732.996	67.766	-0.270	-0.278
-731.981	-200.000	0.062	-0.314
-730.966	800.000	-0.013	0.048
-729.952	-88.486	-0.091	-0.028
-728.937	-132.956	0.198	0.025
-727.923	-50.369	-0.056	-0.026
-726.908	587.663	-0.036	0.089
-725.894	169.998	0.122	0.175
-724.879	-73.417	0.031	0.012
-723.864	-200.000	0.067	0.641
-722.850	303.615	0.035	0.066
-721.835	240.501	-0.152	-0.255
-720.821	-144.840	0.234	0.022
-719.806	800.000	-0.030	-0.119
-718.791	-200.000	0.006	-0.170
-717.777	290.227	-0.118	-0.215
-716.762	-136.372	0.292	0.034
-715.748	229.008	0.120	-0.197
-714.733	-70.230	-0.153	0.059
-713.718	800.000	0.031	0.107
-712.704	-76.766	0.207	0.073
-711.689	-77.877	-0.273	0.095
-710.675	-200.000	0.045	0.457
-709.660	487.584	0.123	-0.283
-708.645	800.000	0.086	0.254
-707.631	342.906	-0.039	-0.078
-706.616	89.399	0.034	0.038
-705.602	-142.954	0.212	-0.021
-704.587	40.036	0.153	0.139
-703.572	-200.000	-0.004	-0.033
-702.558	26.633	0.245	-0.207
-701.543	-19.855	-0.450	0.280
-700.529	-44.465	0.294	0.148
-699.514	412.234	-0.152	-0.326
-698.499	800.000	-0.072	-0.305
-697.485	335.285	0.135	0.263
-696.470	-154.478	-0.284	0.019
-695.456	79.139	0.276	0.298
-694.441	-150.023	-0.250	-0.020
-693.426	-200.000	0.029	-0.214
-692.412	-200.000	0.036	-0.193
-691.397	-147.105	0.044	0.004
-690.383	126.488	-0.341	0.434
-689.368	800.000	-0.133	-0.434
-688.354	512.504	0.061	-0.143
-687.339	-142.591	0.240	0.024
-686.324	30.579	0.102	-0.088
-685.310	488.414	0.041	0.095
-684.295	-200.000	-0.053	0.300
-683.281	331.577	-0.011	0.021
-682.266	411.626	-0.107	-0.229
-681.251	-200.000	0.025	-0.246
-680.237	-62.550	0.136	0.057
-679.222	-200.000	-0.008	-0.691
-678.208	-200.000	-0.032	-0.178
-677.193	304.469	0.082	0.153
-676.178	-23.002	0.075	0.046
-675.164	-200.000	-0.009	-0.057
-674.149	53.830	0.307	-0.297
-673.135	-200.000	-0.021	0.172
-672.120	-5.120	-0.328	0.227
-671.105	-149.354	-0.175	0.014
-670.091	32.101	-0.177	0.153
-669.076	-200.000	-0.087	0.392
-668.062	384.262	-0.096	0.199
-667.047	186.558	-0.142	0.213
-666.032	-70.256	-0.299	-0.114
-665.018	130.894	0.069	0.090
-664.003	-32.187	-0.218	-0.122
-662.989	66.847	0.076	-0.078
-661.974	-53.359	-0.273	-0.126
-660.959	-160.051	0.280	0.015
-659.945	-143.434	-0.073	-0.007
-658.930	232.576	0.236	-0.390
-657.916	511.939	0.113	-0.266
-656.901	-149.100	0.170	-0.014
-655.886	-33.929	-0.281	-0.156
-654.872	151.705	-0.285	-0.391
-653.857	-57.073	0.318	-0.141
-652.843	420.783	-0.150	-0.323
-651.828	8.065	-0.053	0.040
-650.814	800.000	-0.027	-0.082
-649.799	79.451	0.141	-0.152
-648.784	370.200	0.060	0.122
-647.770	-200.000	-0.014	0.419
-646.755	81.602	0.178	0.194
-645.741	-118.093	-0.266	0.048
-644.726	-56.212	0.112	0.050
-643.711	44.550	-0.332	0.307
-642.697	-32.448	0.137	-0.077
-641.682	-168.712	0.133	-0.005
-640.668	45.073	-0.153	-0.142
-639.653	-68.387	0.041	0.016
-638.638	31.728	0.081	0.070
-637.624	-90.626	0.200	-0.058
-636.609	-200.000	-0.013	-0.244
-635.595	125.021	0.127	0.160
-634.580	44.905	-0.165	-0.153
-633.565	-88.071	0.141	0.043
-632.551	82.641	0.137	-0.149
-631.536	-25.666	-0.232	-0.138
-630.522	800.000	0.035	-0.100
-629.507	-200.000	-0.012	-0.055
-628.492	800.000	0.032	-0.091
-627.478	-148.291	0.063	-0.005
-626.463	-200.000	0.008	-0.070
-625.449	-70.256	-0.187	0.071
-624.434	96.901	0.115	0.132
-623.419	547.936	0.136	-0.327
-622.405	49.592	-0.129	-0.122
-621.390	67.235	0.124	0.127
-620.376	800.000	-0.109	-0.372
-619.361	-31.510	-0.194	-0.109
-618.346	473.746	-0.154	-0.348
-617.332	-79.289	0.203	-0.069
-616.317	-77.683	0.156	-0.054
-615.303	251.463	0.139	-0.238
-614.288	144.190	-0.186	-0.249
-613.273	58.315	0.169	-0.166
-612.259	24.490	0.144	-0.120
-611.244	-200.000	0.005	0.047
-610.230	-54.488	-0.191	-0.087
-609.215	800.000	-0.068	-0.264
-608.201	550.459	-0.115	0.276
-607.186	-4.035	0.142	0.099
-606.171	117.967	0.147	-0.182
-605.157	-43.472	-0.135	-0.068
-604.142	-50.324	-0.257	0.122
-603.128	-200.000	-0.007	0.283
-602.113	-50.870	0.103	0.049
-601.098	-139.838	0.183	0.019
-600.084	6.906	-0.278	0.208
-599.069	507.839	-0.046	-0.107
-598.055	-52.553	0.208	-0.097
-597.040	47.275	0.085	0.080
-596.025	-2.357	0.124	-0.087
-595.011	-200.000	0.034	0.279
-593.996	-119.109	-0.104	-0.018
-592.982	88.797	-0.143	-0.159
-591.967	148.516	-0.158	-0.214
-590.952	-7.292	-0.136	-0.092
-589.938	114.892	0.044	0.054
-588.923	-79.286	-0.163	-0.055
-587.909	-132.024	-0.276	0.036
-586.894	-200.000	0.066	-0.355
-585.879	-69.017	0.184	-0.071
-584.865	292.353	0.029	0.052
-583.850	-200.000	-0.074	0.386
-582.836	695.799	0.050	0.132
-581.821	-36.564	0.257	0.138
-580.806	-200.000	0.035	0.178
-579.792	-200.000	-0.007	-0.245
-578.777	800.000	0.040	0.144
-577.763	236.596	-0.102	-0.170
-576.748	39.586	0.249	-0.224
-575.733	490.534	0.103	0.236
-574.719	-182.693	-0.285	0.005
-573.704	27.496	-0.196	0.165
-572.690	158.496	0.157	0.218
-571.675	-187.343	-0.072	-0.001
-570.661	51.213	-0.232	-0.221
-569.646	273.692	-0.115	-0.203
-568.631	-200.000	-0.043	-0.291
-567.617	27.495	-0.111	0.094
-566.602	14.191	-0.242	-0.189
-565.588	126.699	-0.155	0.197
-564.573	-75.023	-0.048	-0.017
-563.558	215.123	-0.096	-0.153
-562.544	-115.307	0.257	-0.049
-561.529	693.687	0.162	-0.427
-560.515	222.114	-0.034	-0.055
-559.500	-122.513	-0.309	0.050
-558.485	-130.340	0.152	-0.021
-557.471	800.000	0.046	0.162
-556.456	-51.099	0.181	-0.085
-555.442	-87.148	-0.243	-0.074
-554.427	577.165	0.061	0.150
-553.412	-80.939	-0.138	0.046
-552.398	106.239	0.137	-0.163
-551.383	197.631	0.173	0.265
-550.369	-200.000	-0.049	-0.237
-549.354	122.650	0.024	0.030
-548.339	-129.894	0.249	-0.034
-547.325	800.000	0.108	0.318
-546.310	-134.544	-0.428	-0.052
-545.296	800.000	-0.037	-0.109
-544.281	-148.980	0.301	0.024
-543.266	-38.844	0.197	-0.104
-542.252	800.000	0.062	0.174
-541.237	69.263	0.199	0.205
-540.223	128.983	0.082	0.104
-539.208	-114.279	0.252	0.049
-538.193	25.663	-0.026	-0.022
-537.179	273.037	-0.105	0.186
-536.164	-36.972	0.186	-0.100
-535.150	-44.877	0.159	0.080
-534.135	190.976	0.105	0.159
-533.121	-143.486	-0.266	0.025
-532.106	-100.917	-0.493	-0.121
-531.091	174.261	0.053	-0.077
-530.077	-200.000	-0.052	0.295
-529.062	-96.460	0.198	-0.052
-528.048	800.000	0.055	0.194
-527.033	159.454	-0.204	0.284
-526.018	332.413	-0.063	-0.122
-525.004	-13.960	-0.108	0.070
-523.989	-82.464	0.403	0.131
-522.975	800.000	0.077	0.273
-521.960	-134.273	-0.305	-0.038
-520.945	-92.793	-0.053	-0.015
-519.931	-200.000	0.029	0.179
-518.916	-138.044	0.037	0.004
-517.902	-177.998	0.174	0.004
-516.887	95.434	-0.094	-0.107
-515.872	24.006	-0.170	0.140
-514.858	195.708	-0.049	-0.074
-513.843	1.904	-0.072	-0.052
-512.829	-49.270	-0.261	-0.125
-511.814	-200.000	0.004	0.192
-510.799	-150.271	-0.552	0.043
-509.785	-164.300	0.233	-0.011
-508.770	286.319	-0.120	0.217
-507.756	-12.269	-0.205	-0.134
-506.741	-52.747	0.300	0.138
-505.726	800.000	0.019	-0.075
-504.712	516.056	0.070	0.163
-503.697	131.464	0.204	-0.262
-502.683	-42.316	-0.280	-0.143
-501.668	-200.000	-0.001	-0.279
-500.653	78.678	-0.175	0.188
-499.639	-173.712	0.144	0.004
-498.624	-200.000	-0.108	-0.504
-497.610	-200.000	-0.037	-0.186
-496.595	242.840	0.286	-0.478
-495.581	-67.842	0.199	-0.078
-494.566	550.989	-0.137	0.328
-493.551	-200.000	0.008	0.134
-492.537	25.104	-0.087	0.072
-491.522	-147.321	0.080	0.007
-490.508	173.270	0.199	0.286
-489.493	157.273	-0.060	-0.083
-488.478	43.005	0.121	-0.111
-487.464	-200.000	-0.014	-0.154
-486.449	213.406	-0.114	-0.181
-485.435	-200.000	-0.045	0.293
-484.420	-3.209	-0.077	0.054
-483.405	-83.992	0.342	0.109
-482.391	36.502	0.143	-0.126
-481.376	148.997	0.055	-0.074
-480.362	-68.782	0.329	-0.127
-479.347	-200.000	0.012	-0.153
-478.332	-6.170	0.108	0.073
-477.318	-92.843	-0.065	0.018
-476.303	-200.000	-0.115	-0.514
-475.289	46.237	-0.162	-0.150
-474.274	800.000	0.065	0.237
-473.259	379.254	0.137	0.281
-472.245	98.285	0.172	-0.198
-471.230	93.745	-0.094	-0.107
-470.216	-200.000	-0.007	-0.135
-469.201	274.197	0.119	0.211
-468.186	84.134	-0.094	0.103
-467.172	66.312	-0.206	-0.209
-466.157	-42.480	-0.249	0.127
-465.143	-190.078	-0.039	0.000
-464.128	-190.987	-0.094	-0.001
-463.113	101.984	0.080	-0.094
-462.099	-120.081	-0.325	0.056
-461.084	-42.373	0.233	0.119
-460.070	-61.720	0.281	-0.117
-459.055	-200.000	-0.005	-0.317
-458.040	42.575	0.292	-0.265
-457.026	72.026	-0.153	-0.158
-456.011	-169.467	0.213	0.008
-454.997	-87.029	0.144	0.044
-453.982	-200.000	0.027	-0.283
-452.968	724.516	-0.182	-0.484
-451.953	-5.956	0.304	-0.207
-450.938	103.503	-0.180	-0.211
-449.924	-39.310	0.193	0.101
-448.909	413.230	-0.030	-0.063
-447.895	800.000	0.094	-0.321
-446.880	72.657	0.212	-0.221
-445.865	-200.000	-0.003	0.142
-444.851	-42.812	-0.082	-0.042
-443.836	283.046	0.142	-0.255
-442.822	-200.000	-0.027	0.208
-441.807	-116.982	0.114	0.021
-440.792	104.232	-0.081	0.095
-439.778	-67.222	0.306	0.120
-438.763	56.691	-0.301	0.292
-437.749	37.844	0.412	-0.365
-436.734	-104.216	-0.170	-0.039
-435.719	800.000	-0.032	-0.095
-434.705	-200.000	0.039	0.263
-433.690	-182.092	0.068	-0.001
-432.676	-83.093	0.046	-0.015
-431.661	-41.969	0.028	-0.014
-430.646	55.256	0.242	0.233
-429.632	597.803	0.069	0.170
-428.617	165.796	0.042	0.059
-427.603	-157.049	-0.084	0.005
-426.588	759.158	-0.071	-0.192
-425.573	-76.680	-0.101	-0.035
-424.559	17.560	-0.154	0.122
-423.544	220.158	0.147	0.235
-422.530	-25.576	-0.413	-0.243
-421.515	82.038	0.223	0.241
-420.500	87.877	-0.273	0.302
-419.486	78.733	-0.105	0.112
-418.471	216.382	0.091	0.145
-417.457	-12.543	-0.063	-0.041
-416.442	-88.275	-0.069	-0.021
-415.428	-125.149	-0.208	0.032
-414.413	1.373	-0.356	0.255
-413.398	-19.050	0.082	-0.051
-412.384	-176.588	-0.284	0.007
-411.369	168.675	0.060	-0.084
-410.355	29.633	0.022	0.019
-409.340	-200.000	-0.015	-0.224
-408.325	-45.129	-0.099	-0.049
-407.311	-136.880	-0.214	0.025
-406.296	91.063	0.202	-0.225
-405.282	14.396	-0.073	-0.056
-404.267	-200.000	-0.005	-0.063
-403.252	37.493	0.105	0.093
-402.238	119.105	-0.308	-0.379
-401.223	-175.705	-0.246	0.007
-400.209	-131.609	-0.161	-0.021
-399.194	-124.749	0.128	0.020
-398.179	-14.219	-0.070	0.045
-397.165	800.000	0.058	-0.209
-396.150	800.000	0.095	0.326
-395.136	-31.123	0.266	0.150
-394.121	418.544	0.082	0.174
-393.106	-200.000	0.061	0.401
-392.092	-24.263	0.276	0.164
-391.077	-123.449	-0.198	-0.031
-390.063	122.913	-0.090	-0.112
-389.048	-20.195	-0.147	0.090
-388.033	800.000	-0.079	-0.237
-387.019	203.419	-0.149	0.230
-386.004	-83.352	-0.219	0.070
-384.990	88.609	-0.032	0.035
-383.975	456.706	-0.110	0.243
-382.960	659.477	-0.053	0.136
-381.946	-30.544	0.250	-0.141
-380.931	158.032	-0.169	0.233
-379.917	-200.000	0.007	0.090
-378.902	101.268	-0.126	-0.146
-377.888	-50.019	0.378	0.178
-376.873	43.603	0.204	-0.185
-375.858	373.110	0.176	0.355
-374.844	800.000	0.071	0.292
-373.829	-73.534	0.312	0.113
-372.815	-117.924	0.052	0.009
-371.800	-200.000	0.023	-0.117
-370.785	338.023	0.059	0.115
-369.771	224.562	0.072	-0.116
-368.756	-200.000	-0.026	0.409
-367.742	-80.855	0.145	0.048
-366.727	-200.000	0.056	-0.397
-365.712	102.535	-0.068	0.079
-364.698	-200.000	-0.024	-0.227
-363.683	541.753	-0.033	0.077
-362.669	-200.000	-0.017	0.131
-361.654	-200.000	-0.003	-0.328
-360.639	-200.000	-0.002	0.099
-359.625	-39.689	0.086	0.045
-358.610	174.853	0.092	0.132
-357.596	617.171	-0.044	0.109
-356.581	230.649	-0.147	-0.240
-355.566	50.686	0.097	-0.091
-354.552	20.689	0.276	-0.222
-353.537	525.359	-0.067	-0.157
-352.523	-188.789	-0.359	0.004
-351.508	800.000	-0.054	-0.191
-350.493	-67.573	0.181	-0.071
-349.479	72.462	-0.093	0.096
-348.464	168.071	0.155	0.219
-347.450	-46.966	-0.505	-0.245
-346.435	800.000	-0.023	0.065
-345.420	275.454	-0.162	0.286
-344.406	699.743	0.070	-0.184
-343.391	800.000	0.028	0.115
-342.377	452.827	-0.076	0.166
-341.362	-79.060	0.167	-0.056
-340.348	-38.875	-0.174	0.091
-339.333	-168.093	-0.180	-0.007
-338.318	31.170	0.223	-0.190
-337.304	108.884	-0.139	0.165
-336.289	-29.052	0.023	-0.013
-335.275	55.307	0.085	0.082
-334.260	800.000	0.066	-0.273
-333.245	90.568	-0.042	0.046
-332.231	-104.914	-0.493	-0.112
-331.216	-29.845	-0.215	-0.122
-330.202	-200.000	0.020	0.413
-329.187	50.468	0.177	0.166
-328.172	800.000	-0.175	-0.536
-327.158	-102.958	0.183	0.043
-326.143	-200.000	0.022	0.202
-325.129	-125.861	0.289	0.043
-324.114	-54.301	-0.360	-0.162
-323.099	-145.373	0.350	-0.031
-322.085	-10.600	-0.090	0.059
-321.070	800.000	0.043	-0.131
-320.056	800.000	-0.050	0.151
-319.041	408.339	0.083	0.174
-318.026	-25.896	-0.128	-0.075
-317.012	-101.013	0.042	-0.010
-315.997	-42.724	-0.186	0.094
-314.983	-200.000	0.037	0.236
-313.968	35.794	-0.015	-0.013
-312.953	1.581	-0.248	-0.177
-311.939	-64.181	0.115	0.046
-310.924	57.347	-0.111	0.108
-309.910	800.000	0.039	-0.124
-308.895	800.000	0.038	-0.148
-307.880	53.793	0.409	0.390
-306.866	-200.000	0.044	0.281
-305.851	133.944	0.189	0.242
-304.837	-101.437	-0.228	0.055
-303.822	340.180	-0.028	-0.054
-302.807	32.096	-0.102	0.087
-301.793	-14.491	0.060	-0.038
-300.778	-2.600	0.239	0.166
-299.764	421.307	0.034	-0.073
-298.749	-135.812	-0.223	0.026
-297.735	-112.268	-0.384	-0.076
-296.720	249.341	-0.035	-0.058
-295.705	-186.230	0.150	-0.002
-294.691	-200.000	-0.074	-0.387
-293.676	54.767	-0.015	0.014
-292.662	168.241	0.033	-0.047
-291.647	389.904	0.171	0.352
-290.632	-200.000	-0.011	-0.065
-289.618	-200.000	0.048	0.242
-288.603	173.099	-0.060	0.085
-287.589	-47.192	-0.264	-0.127
-286.574	-200.000	0.023	-0.206
-285.559	19.407	-0.193	-0.153
-284.545	800.000	-0.065	0.267
-283.530	-200.000	-0.004	0.030
-282.516	-200.000	0.004	0.218
-281.501	368.295	0.134	-0.268
-280.486	-200.000	-0.039	-0.226
-279.472	378.948	0.011	0.021
-278.457	-200.000	-0.277	-0.000
-277.443	-200.000	0.038	-0.407
-276.428	-200.000	0.006	0.075
-275.413	418.970	-0.137	-0.291
-274.399	-61.187	-0.072	0.030
-273.384	356.683	0.198	0.391
-272.370	717.308	0.064	-0.168
-271.355	52.286	0.298	0.282
-270.340	800.000	0.025	-0.070
-269.326	-169.708	0.114	0.004
-268.311	439.967	0.112	0.242
-267.297	-7.388	-0.143	-0.096
-266.282	246.525	-0.147	-0.245
-265.267	-200.000	0.032	0.355
-264.253	-200.000	-0.061	-0.375
-263.238	-156.453	0.222	0.014
-262.224	-200.000	0.007	-0.179
-261.209	-92.656	-0.138	-0.038
-260.195	-108.653	0.177	-0.038
-259.180	138.300	-0.106	-0.138
-258.165	118.670	0.217	0.266
-257.151	-116.920	-0.138	-0.025
-256.136	-200.000	0.010	0.155
-255.122	-15.478	0.138	-0.087
-254.107	-200.000	-0.048	0.425
-253.092	-61.552	-0.202	-0.084
-252.078	-121.892	0.236	0.039
-251.063	305.110	0.081	0.149
-250.049	605.361	-0.082	-0.202
-249.034	569.140	0.031	-0.076
-248.019	-148.283	0.076	0.006
-247.005	-148.211	0.215	-0.018
-245.990	-200.000	-0.011	0.205
-244.976	81.143	0.067	0.072
-243.961	143.223	-0.191	-0.252
-242.946	-160.446	-0.345	0.018
-241.932	-92.978	-0.119	0.033
-240.917	-200.000	0.011	0.140
-239.903	-122.993	-0.212	-0.034
-238.888	-115.515	0.071	-0.013
-237.873	-0.357	0.058	-0.041
-236.859	136.205	-0.314	0.406
-235.844	-132.853	0.649	-0.082
-234.830	800.000	0.134	0.370
-233.815	424.707	-0.042	0.089
-232.800	-68.351	-0.133	0.051
-231.786	48.112	0.148	0.136
-230.771	-200.000	-0.008	0.042
-229.757	-55.982	0.094	-0.041
-228.742	-200.000	0.009	-0.173
-227.727	2.445	0.323	0.231
-226.713	-99.685	-0.078	0.019
-225.698	355.502	0.149	0.294
-224.684	225.836	-0.095	0.153
-223.669	-46.084	0.327	-0.159
-222.655	-109.961	-0.227	0.047
-221.640	-44.449	0.282	0.140
-220.625	661.538	-0.098	-0.249
-219.611	57.253	-0.238	0.230
-218.596	446.910	0.055	-0.120
-217.582	-200.000	-0.021	-0.394
-216.567	-105.435	0.126	0.028
-215.552	-108.990	0.098	-0.021
-214.538	210.422	0.203	0.315
-213.523	11.348	-0.194	-0.147
-212.509	323.292	0.225	-0.424
-211.494	-200.000	-0.005	0.045
-210.479	800.000	0.089	0.255
-209.465	800.000	0.036	-0.129
-208.450	-200.000	-0.038	0.226
-207.436	-200.000	-0.032	0.290
-206.421	-200.000	0.030	-0.291
-205.406	-83.502	0.091	-0.029
-204.392	-29.480	-0.123	0.070
-203.377	-200.000	0.004	-0.106
-202.363	-200.000	-0.010	0.346
-201.348	-14.750	0.148	-0.094
-200.333	412.263	0.084	0.177
-199.319	800.000	0.026	-0.073
-198.304	29.591	-0.171	0.144
-197.290	-75.546	-0.241	-0.085
-196.275	67.415	-0.029	0.029
-195.260	304.376	-0.219	-0.402
-194.246	24.234	0.083	-0.067
-193.231	55.970	-0.190	0.182
-192.217	-4.809	-0.102	0.069
-191.202	-140.196	0.264	-0.027
-190.187	-200.000	-0.019	0.089
-189.173	-172.758	0.260	-0.008
-188.158	-200.000	0.027	0.214
-187.144	113.256	-0.136	-0.163
-186.129	-96.943	0.205	-0.053
-185.114	251.532	0.120	-0.201
-184.100	-63.836	-0.182	0.073
-183.085	-12.302	-0.129	0.083
-182.071	-30.178	0.151	0.085
-181.056	28.253	-0.197	0.164
-180.042	133.186	-0.126	0.160
-179.027	65.896	0.214	0.214
-178.012	35.714	-0.151	-0.131
-176.998	120.580	-0.067	0.082
-175.983	130.032	0.129	0.162
-174.969	-61.625	-0.174	0.072
-173.954	-43.601	-0.303	-0.151
-172.939	-200.000	-0.008	0.107
-171.925	-83.310	-0.343	-0.109
-170.910	-92.365	-0.158	-0.044
-169.896	-81.540	0.206	0.067
-168.881	-115.794	-0.099	-0.018
-167.866	129.644	0.231	-0.292
-166.852	-200.000	-0.017	0.152
-165.837	25.599	0.366	-0.300
-164.823	-160.962	0.177	0.009
-163.808	-107.707	-0.298	0.064
-162.793	-87.013	-0.381	-0.115
-161.779	-11.847	0.371	-0.240
-160.764	73.332	0.145	0.149
-159.750	153.464	0.097	-0.131
-158.735	-39.244	-0.179	0.093
-157.720	-134.818	-0.090	-0.011
-156.706	-200.000	0.038	-0.329
-155.691	-9.528	-0.233	0.154
-154.677	10.087	-0.237	0.177
-153.662	-30.950	0.169	-0.094
-152.647	-129.301	-0.123	0.017
-151.633	43.360	0.294	-0.265
-150.618	212.056	0.122	-0.189
-149.604	45.034	-0.135	-0.122
-148.589	-188.589	-0.255	-0.003
-147.574	-80.080	0.296	-0.098
-146.560	-200.000	0.026	-0.214
-145.545	-11.060	-0.204	-0.133
-144.531	528.296	0.092	0.215
-143.516	52.941	0.064	-0.060
-142.502	122.441	0.077	0.095
-141.487	90.541	0.271	0.299
-140.472	-200.000	-0.005	-0.061
-139.458	-35.822	0.202	0.108
-138.443	-120.662	-0.237	-0.039
-137.429	451.011	-0.122	-0.265
-136.414	-200.000	0.018	-0.104
-135.399	-58.165	0.216	-0.093
-134.385	-82.927	0.484	-0.154
-133.370	285.045	0.111	0.196
-132.356	203.062	0.104	0.158
-131.341	37.679	0.130	-0.114
-130.326	-95.107	0.311	-0.083
-129.312	2.394	0.225	-0.160
-128.297	145.407	-0.162	-0.214
-127.283	800.000	0.043	-0.184
-126.268	-161.583	0.103	-0.005
-125.253	345.067	0.081	0.157
-124.239	-83.288	0.106	-0.033
-123.224	-108.112	-0.084	0.018
-122.210	-0.072	-0.066	0.046
-121.195	-139.116	-0.015	0.002
