DTS Sentinel unit serial number:	SN413079Multiplexer serial number:	ORYXHardware model number:	OX4-SRSoftware version number:	ORYX F/W v4.00 Oryx Data Collector v3.7.2.0data status	okinstallation	princeton_trtdifferential loss correction	single-endedforward channel	channel 1reverse channel	N/Adate	2019/09/17time	01:02:35forward acquisition time	60.00reverse acquisition time	0.00gamma	496.2192k internal	0.2324k external	0.2324temperature offset calibration	0.9959default loss term (dB/km)	0.3790temperature slope calibration	1.0000multiplexer offset coefficient	1.0000multiplexer slope coefficient	1.0000fibre end	0.00T internal ref (°C)	29.45T ext. ref 1 (°C)	0.10T ext. ref 2 (°C)	24.13length (m)	temperature (°C)	Stokes	anti-Stokes-747.200	610.498	-0.125	-0.316
-746.185	229.627	-0.102	0.168
-745.171	-200.000	-0.029	0.225
-744.156	-200.000	0.052	0.500
-743.142	-200.000	0.007	-0.052
-742.127	-200.000	-0.005	0.319
-741.112	-110.530	0.134	-0.028
-740.098	800.000	0.123	0.416
-739.083	194.342	0.232	-0.355
-738.069	-115.012	0.091	-0.017
-737.054	194.363	0.041	0.063
-736.039	29.509	-0.065	-0.056
-735.025	-200.000	0.054	-0.388
-734.010	-37.424	-0.099	-0.053
-732.996	746.210	-0.152	-0.414
-731.981	-145.079	-0.141	-0.013
-730.966	162.201	-0.120	0.170
-729.952	800.000	-0.066	-0.208
-728.937	-31.017	-0.215	0.122
-727.923	-164.084	-0.213	-0.010
-726.908	169.170	0.168	-0.242
-725.894	-101.433	-0.408	-0.100
-724.879	-155.732	-0.236	-0.015
-723.864	64.172	-0.172	-0.175
-722.850	-35.501	-0.148	-0.081
-721.835	97.154	0.223	0.258
-720.821	-200.000	0.022	0.110
-719.806	532.906	-0.193	0.462
-718.791	-39.756	-0.236	-0.125
-717.777	-66.964	-0.094	-0.038
-716.762	-200.000	0.032	-0.197
-715.748	-200.000	0.026	-0.123
-714.733	-90.248	-0.063	-0.018
-713.718	185.941	0.141	-0.211
-712.704	80.155	-0.085	0.092
-711.689	73.247	0.149	0.157
-710.675	-200.000	0.012	-0.061
-709.660	800.000	-0.034	-0.151
-708.645	-44.333	-0.055	0.028
-707.631	-59.124	-0.089	-0.039
-706.616	-92.801	0.361	-0.102
-705.602	-200.000	0.006	0.262
-704.587	250.975	0.072	-0.123
-703.572	-54.129	0.118	0.054
-702.558	210.703	-0.077	0.122
-701.543	800.000	0.068	-0.238
-700.529	186.725	0.180	-0.270
-699.514	-200.000	-0.028	0.365
-698.499	224.933	-0.257	0.419
-697.485	645.934	-0.118	0.303
-696.470	6.983	-0.059	0.044
-695.456	42.125	-0.099	-0.090
-694.441	752.240	-0.179	0.488
-693.426	-75.039	0.436	0.157
-692.412	-126.731	0.253	0.038
-691.397	283.476	0.161	-0.292
-690.383	501.222	0.139	-0.324
-689.368	-200.000	-0.028	-0.183
-688.354	-74.140	-0.245	-0.089
-687.339	17.087	0.356	0.284
-686.324	-200.000	0.040	0.328
-685.310	-105.796	0.392	0.089
-684.295	-200.000	-0.042	-0.251
-683.281	-200.000	0.348	0.001
-682.266	-0.548	0.172	0.123
-681.251	-200.000	0.017	-0.184
-680.237	474.762	0.090	0.203
-679.222	214.460	-0.214	0.342
-678.208	-146.708	-0.257	-0.022
-677.193	132.320	-0.276	-0.358
-676.178	-200.000	0.022	0.156
-675.164	125.776	0.218	0.278
-674.149	-200.000	0.012	-0.091
-673.135	20.804	0.066	0.053
-672.120	-93.186	0.271	-0.076
-671.105	-58.018	-0.150	0.066
-670.091	657.216	-0.079	-0.204
-669.076	32.996	0.199	0.173
-668.062	-36.801	0.381	0.206
-667.047	800.000	-0.056	-0.179
-666.032	-156.605	-0.158	0.010
-665.018	-200.000	0.031	-0.228
-664.003	800.000	-0.073	-0.298
-662.989	27.599	-0.098	-0.083
-661.974	-43.642	-0.279	0.142
-660.959	-143.328	0.308	-0.030
-659.945	15.877	-0.117	0.093
-658.930	179.851	0.219	0.323
-657.916	800.000	-0.077	0.289
-656.901	-200.000	-0.023	0.254
-655.886	74.504	0.122	0.129
-654.872	428.652	0.120	-0.261
-653.857	-200.000	0.017	-0.165
-652.843	800.000	-0.041	0.177
-651.828	-77.796	0.293	0.102
-650.814	800.000	0.081	-0.229
-649.799	27.227	0.177	-0.150
-648.784	-157.761	0.087	0.005
-647.770	-52.076	0.138	0.064
-646.755	225.014	-0.089	-0.145
-645.741	485.755	0.150	-0.343
-644.726	-200.000	0.001	0.085
-643.711	287.028	0.119	-0.216
-642.697	188.157	-0.060	0.091
-641.682	-200.000	0.005	0.264
-640.668	-200.000	0.026	0.207
-639.653	3.108	0.321	-0.235
-638.638	-134.690	-0.181	0.022
-637.624	-66.690	-0.118	0.047
-636.609	250.083	-0.033	-0.056
-635.595	-124.465	-0.527	-0.082
-634.580	28.518	0.280	0.238
-633.565	-6.379	-0.287	-0.197
-632.551	-96.449	-0.095	-0.025
-631.536	96.146	-0.081	0.093
-630.522	186.593	-0.140	0.210
-629.507	508.421	-0.054	0.127
-628.492	-18.111	-0.106	-0.066
-627.478	2.302	0.192	-0.140
-626.463	47.511	-0.173	0.162
-625.449	-145.873	-0.074	0.007
-624.434	-0.200	0.123	-0.088
-623.419	800.000	0.072	0.281
-622.405	-33.706	-0.190	-0.105
-621.390	-24.396	-0.427	0.256
-620.376	389.403	0.137	-0.286
-619.361	-158.978	0.040	0.002
-618.346	603.404	-0.107	-0.267
-617.332	17.013	-0.167	0.133
-616.317	23.551	-0.155	0.128
-615.303	46.014	-0.105	0.097
-614.288	176.572	0.072	-0.105
-613.273	-82.333	-0.437	0.143
-612.259	800.000	-0.057	0.171
-611.244	246.745	-0.112	-0.190
-610.230	-183.869	-0.139	0.002
-609.215	378.038	0.009	0.019
-608.201	-118.765	-0.192	-0.034
-607.186	469.607	0.088	0.198
-606.171	-68.022	-0.216	0.085
-605.157	187.970	-0.127	-0.191
-604.142	103.887	0.053	-0.062
-603.128	800.000	-0.020	0.084
-602.113	77.227	-0.251	-0.268
-601.098	-115.701	-0.480	0.090
-600.084	-105.807	-0.126	0.028
-599.069	-142.263	0.267	-0.027
-598.055	-200.000	0.017	0.297
-597.040	421.277	-0.077	0.167
-596.025	173.181	-0.158	-0.229
-595.011	-13.074	-0.062	-0.041
-593.996	33.475	-0.136	0.119
-592.982	158.199	-0.062	-0.086
-591.967	-200.000	-0.002	0.061
-590.952	193.850	-0.099	0.151
-589.938	-94.890	-0.191	-0.052
-588.923	-137.812	0.117	0.013
-587.909	38.280	-0.199	-0.177
-586.894	-8.253	0.177	-0.120
-585.879	224.430	-0.108	0.174
-584.865	-114.743	0.119	0.023
-583.850	-33.353	0.305	-0.169
-582.836	-200.000	-0.054	-0.261
-581.821	30.259	-0.200	-0.171
-580.806	800.000	0.075	-0.268
-579.792	800.000	-0.050	-0.170
-578.777	-50.797	0.068	-0.032
-577.763	-69.150	-0.141	-0.054
-576.748	-98.231	0.125	0.032
-575.733	-62.534	-0.242	0.101
-574.719	-162.974	0.184	0.009
-573.704	800.000	0.093	-0.352
-572.690	-56.562	0.165	-0.073
-571.675	14.357	-0.130	-0.102
-570.661	-6.866	0.123	-0.084
-569.646	36.435	0.148	-0.131
-568.631	-153.838	0.257	-0.018
-567.617	-108.311	-0.222	0.048
-566.602	800.000	-0.072	-0.297
-565.588	144.537	0.137	0.183
-564.573	-200.000	-0.033	0.419
-563.558	347.353	0.153	0.302
-562.544	-27.924	0.446	-0.259
-561.529	60.169	0.320	0.318
-560.515	-200.000	0.005	0.111
-559.500	-200.000	-0.016	0.116
-558.485	-38.258	-0.189	0.100
-557.471	68.982	0.168	0.173
-556.456	-166.260	-0.099	0.004
-555.442	76.800	-0.230	0.245
-554.427	800.000	-0.048	-0.206
-553.412	-17.716	-0.254	0.160
-552.398	600.929	0.082	-0.203
-551.383	168.853	-0.090	-0.128
-550.369	40.043	-0.340	-0.306
-549.354	-44.498	0.031	0.016
-548.339	-29.357	-0.197	-0.113
-547.325	-200.000	0.027	-0.253
-546.310	-96.885	-0.218	0.057
-545.296	149.956	-0.202	-0.274
-544.281	215.967	-0.080	0.128
-543.266	509.699	-0.105	-0.244
-542.252	-200.000	-0.001	0.136
-541.237	149.634	0.170	-0.230
-540.223	302.998	-0.160	-0.297
-539.208	800.000	-0.072	-0.222
-538.193	106.960	0.212	-0.252
-537.179	800.000	-0.049	0.209
-536.164	9.246	-0.072	0.055
-535.150	-86.619	-0.354	0.109
-534.135	-116.754	-0.400	0.074
-533.121	-51.174	0.162	0.076
-532.106	-200.000	-0.019	-0.192
-531.091	-134.720	0.310	0.038
-530.077	188.755	-0.082	0.123
-529.062	274.540	-0.022	0.040
-528.048	-172.275	0.229	0.007
-527.033	168.972	0.051	-0.073
-526.018	11.930	-0.169	-0.130
-525.004	-78.798	0.315	-0.108
-523.989	-39.545	-0.262	-0.138
-522.975	-132.288	-0.201	-0.026
-521.960	418.495	0.080	-0.172
-520.945	0.305	0.167	-0.119
-519.931	-117.131	0.316	0.058
-518.916	-200.000	0.018	0.116
-517.902	133.443	-0.222	0.287
-516.887	-200.000	-0.089	0.409
-515.872	-164.324	-0.428	0.020
-514.858	-108.354	-0.118	0.026
-513.843	43.780	-0.380	0.348
-512.829	-45.598	-0.362	0.179
-511.814	249.096	0.142	-0.241
-510.799	-200.000	0.027	0.131
-509.785	-200.000	-0.039	0.174
-508.770	800.000	0.041	0.163
-507.756	-50.313	-0.282	-0.133
-506.741	-124.639	-0.137	0.021
-505.726	18.225	-0.178	-0.142
-504.712	-131.487	0.425	-0.056
-503.697	-88.792	0.411	-0.122
-502.683	-129.268	-0.183	0.026
-501.668	39.903	-0.213	0.191
-500.653	800.000	0.040	-0.140
-499.639	-93.754	0.081	-0.022
-498.624	137.526	0.251	0.328
-497.610	-200.000	-0.008	0.043
-496.595	-26.302	-0.265	0.156
-495.581	341.961	0.080	-0.157
-494.566	-200.000	-0.006	0.036
-493.551	800.000	-0.113	0.336
-492.537	-24.919	0.278	-0.165
-491.522	-65.875	-0.057	-0.023
-490.508	56.841	-0.283	-0.276
-489.493	-93.273	0.312	-0.087
-488.478	-200.000	0.021	0.168
-487.464	-90.240	0.254	0.074
-486.449	167.583	0.177	-0.251
-485.435	-90.982	0.304	-0.087
-484.420	-66.843	-0.211	-0.083
-483.405	-2.898	-0.379	-0.265
-482.391	-129.902	0.134	-0.018
-481.376	-47.098	-0.234	-0.114
-480.362	800.000	-0.087	0.255
-479.347	-46.004	0.422	0.208
-478.332	-200.000	0.051	-0.231
-477.318	413.506	0.117	0.248
-476.303	-200.000	0.040	-0.192
-475.289	-13.480	-0.098	-0.063
-474.274	-126.285	-0.150	-0.022
-473.259	19.925	-0.355	-0.286
-472.245	1.848	0.186	0.134
-471.230	-12.673	0.247	0.161
-470.216	35.418	-0.063	-0.055
-469.201	800.000	-0.104	-0.309
-468.186	94.346	0.157	-0.178
-467.172	452.577	0.091	0.200
-466.157	131.729	-0.115	-0.147
-465.143	-22.223	-0.029	-0.018
-464.128	800.000	-0.069	-0.289
-463.113	-200.000	-0.072	-0.663
-462.099	-165.239	-0.307	0.013
-461.084	11.775	0.050	-0.039
-460.070	-24.817	0.071	0.042
-459.055	85.607	0.167	0.184
-458.040	-59.945	-0.233	-0.099
-457.026	-86.524	0.093	0.029
-456.011	800.000	-0.085	-0.370
-454.997	18.040	0.186	0.148
-453.982	800.000	0.075	-0.292
-452.968	15.734	-0.163	0.128
-451.953	-161.872	-0.173	-0.009
-450.938	-200.000	0.098	-0.474
-449.924	11.570	-0.158	0.121
-448.909	340.279	-0.103	0.200
-447.895	-54.942	-0.138	-0.062
-446.880	-200.000	0.018	-0.108
-445.865	-78.742	-0.084	0.029
-444.851	-200.000	-0.002	0.076
-443.836	800.000	-0.021	-0.075
-442.822	24.869	0.252	-0.208
-441.807	800.000	-0.112	-0.318
-440.792	-73.195	-0.341	0.125
-439.778	15.542	0.050	0.039
-438.763	-31.659	-0.292	0.164
-437.749	-200.000	0.022	-0.192
-436.734	487.782	0.019	-0.042
-435.719	-55.806	-0.178	-0.079
-434.705	800.000	-0.097	0.301
-433.690	8.614	0.125	-0.094
-432.676	-200.000	-0.007	-0.400
-431.661	-200.000	0.052	0.289
-430.646	290.217	-0.117	0.211
-429.632	327.798	0.125	0.238
-428.617	254.998	0.122	0.208
-427.603	-200.000	0.005	0.135
-426.588	-75.345	0.321	-0.114
-425.573	43.577	0.196	-0.178
-424.559	-80.159	-0.262	-0.087
-423.544	371.659	-0.152	0.307
-422.530	335.492	0.081	0.157
-421.515	-200.000	-0.071	-0.323
-420.500	188.649	0.252	-0.376
-419.486	-200.000	-0.037	-0.389
-418.471	172.895	-0.061	-0.087
-417.457	-200.000	0.003	-0.427
-416.442	-72.804	-0.352	-0.129
-415.428	-4.213	-0.246	0.170
-414.413	-96.523	0.041	0.011
-413.398	60.991	-0.049	0.048
-412.384	-97.954	0.167	-0.043
-411.369	-179.049	-0.385	-0.009
-410.355	-97.704	-0.095	-0.025
-409.340	731.903	0.022	-0.058
-408.325	-56.680	0.204	-0.090
-407.311	-100.973	0.184	-0.045
-406.296	57.496	-0.186	0.181
-405.282	-116.918	-0.280	0.051
-404.267	292.085	0.145	-0.263
-403.252	111.136	0.190	-0.228
-402.238	-88.497	-0.112	-0.033
-401.223	-200.000	0.040	-0.192
-400.209	235.146	-0.089	-0.146
-399.194	-143.809	-0.024	0.002
-398.179	-200.000	0.012	-0.215
-397.165	-200.000	-0.010	-0.244
-396.150	-114.713	0.266	0.051
-395.136	133.377	0.163	0.210
-394.121	-77.330	-0.108	-0.038
-393.106	-200.000	0.013	0.373
-392.092	60.298	-0.478	-0.471
-391.077	470.763	-0.201	0.451
-390.063	-109.613	0.147	0.031
-389.048	-66.326	-0.457	0.181
-388.033	-200.000	0.013	0.131
-387.019	398.152	0.088	0.184
-386.004	-200.000	-0.025	0.355
-384.990	-200.000	-0.010	0.273
-383.975	-200.000	0.005	-0.026
-382.960	-0.562	0.030	-0.022
-381.946	14.614	0.103	0.080
-380.931	-49.819	0.316	-0.149
-379.917	-121.471	-0.143	0.024
-378.902	-200.000	-0.028	-0.150
-377.888	-47.233	-0.231	0.112
-376.873	-200.000	0.038	0.179
-375.858	36.342	-0.299	-0.262
-374.844	-39.857	0.047	0.024
-373.829	59.584	0.121	-0.119
-372.815	148.991	0.191	0.258
-371.800	17.926	-0.036	0.029
-370.785	-102.105	-0.079	-0.019
-369.771	-32.074	0.110	0.061
-368.756	-58.187	0.153	0.066
-367.742	-200.000	0.034	0.397
-366.727	133.102	-0.176	0.226
-365.712	-200.000	-0.001	-0.096
-364.698	-128.732	0.189	0.027
-363.683	-127.998	0.312	0.045
-362.669	800.000	-0.030	-0.087
-361.654	-200.000	-0.038	-0.168
-360.639	-59.984	0.259	0.110
-359.625	194.760	0.201	0.303
-358.610	-26.016	0.333	0.195
-357.596	-200.000	0.038	0.181
-356.581	-200.000	0.020	0.145
-355.566	47.302	0.280	-0.259
-354.552	-0.394	-0.182	0.128
-353.537	654.349	0.099	-0.253
-352.523	-16.327	-0.213	0.135
-351.508	0.050	-0.207	0.147
-350.493	-102.629	0.257	-0.061
-349.479	-147.129	0.142	0.012
-348.464	-200.000	0.070	0.424
-347.450	284.990	-0.116	0.207
-346.435	-200.000	0.008	-0.485
-345.420	-200.000	-0.030	-0.279
-344.406	-92.955	0.304	0.084
-343.391	188.931	0.057	0.085
-342.377	88.823	0.171	-0.189
-341.362	-200.000	0.022	0.244
-340.348	-164.915	-0.247	0.011
-339.333	33.387	0.021	-0.018
-338.318	0.461	0.161	-0.114
-337.304	388.103	-0.151	0.311
-336.289	-139.364	0.303	0.032
-335.275	32.527	-0.398	-0.342
-334.260	387.802	0.055	-0.114
-333.245	-200.000	-0.011	0.146
-332.231	73.183	-0.067	0.069
-331.216	-45.296	-0.088	0.044
-330.202	-125.120	0.159	0.024
-329.187	-77.471	-0.237	0.082
-328.172	-130.883	-0.121	-0.016
-327.158	90.676	-0.283	0.315
-326.143	-37.670	0.096	0.051
-325.129	-74.099	0.377	0.136
-324.114	-200.000	0.004	0.352
-323.099	244.735	0.085	0.142
-322.085	294.575	-0.056	-0.102
-321.070	29.026	-0.295	-0.249
-320.056	-120.736	-0.186	-0.031
-319.041	460.766	-0.145	0.321
-318.026	151.774	0.269	0.364
-317.012	-6.458	0.099	0.067
-315.997	-102.727	0.229	-0.054
-314.983	800.000	-0.055	-0.171
-313.968	-96.954	0.183	0.048
-312.953	106.237	0.131	-0.155
-311.939	22.334	-0.081	0.066
-310.924	80.216	-0.051	0.055
-309.910	-200.000	0.011	-0.297
-308.895	-200.000	-0.031	-0.213
-307.880	158.880	-0.265	-0.365
-306.866	-131.080	0.093	-0.012
-305.851	5.519	0.360	-0.264
-304.837	-200.000	-0.057	-0.436
-303.822	8.902	0.108	0.081
-302.807	74.055	-0.185	0.193
-301.793	-200.000	-0.001	0.228
-300.778	-138.231	0.201	-0.022
-299.764	-200.000	-0.093	-0.424
-298.749	-106.535	0.451	0.100
-297.735	-200.000	-0.000	0.228
-296.720	79.365	0.136	0.145
-295.705	117.686	0.193	0.236
-294.691	-152.393	0.124	-0.009
-293.676	800.000	-0.018	0.066
-292.662	459.658	0.066	0.146
-291.647	59.085	0.106	-0.104
-290.632	16.241	-0.367	0.287
-289.618	27.880	-0.127	0.106
-288.603	800.000	-0.096	0.287
-287.589	71.745	0.090	-0.093
-286.574	183.786	0.074	0.109
-285.559	800.000	0.101	0.418
-284.545	-146.489	-0.271	-0.023
-283.530	118.495	0.061	0.074
-282.516	333.182	0.152	0.291
-281.501	-200.000	0.050	0.269
-280.486	30.459	-0.278	0.235
-279.472	211.603	0.145	0.226
-278.457	335.275	0.067	-0.128
-277.443	800.000	0.036	-0.099
-276.428	-200.000	0.043	-0.363
-275.413	-61.486	-0.209	-0.087
-274.399	12.185	0.197	-0.151
-273.384	-74.819	-0.336	0.120
-272.370	-48.429	-0.282	-0.135
-271.355	49.211	-0.112	0.104
-270.340	-152.954	0.236	0.017
-269.326	-124.155	-0.214	-0.033
-268.311	361.216	0.028	0.056
-267.297	-200.000	0.014	-0.080
-266.282	202.716	-0.144	-0.221
-265.267	-185.000	-0.125	-0.002
-264.253	177.715	-0.059	-0.085
-263.238	69.971	0.381	0.389
-262.224	-33.366	-0.117	0.064
-261.209	800.000	-0.049	0.148
-260.195	328.873	0.181	0.344
-259.180	-107.197	-0.184	0.040
-258.165	13.237	0.250	-0.192
-257.151	303.417	0.210	-0.386
-256.136	-143.578	0.354	-0.033
-255.122	-43.455	0.142	0.071
-254.107	55.458	0.231	0.222
-253.092	145.454	0.073	0.097
-252.078	219.663	0.008	-0.013
-251.063	118.305	0.137	0.168
-250.049	23.132	0.160	0.130
-249.034	-147.628	-0.280	-0.023
-248.019	800.000	0.012	-0.038
-247.005	177.703	0.052	-0.075
-245.990	9.973	0.154	0.116
-244.976	-102.840	0.240	-0.056
-243.961	800.000	0.049	-0.183
-242.946	-41.623	0.133	0.068
-241.932	-86.566	0.065	0.020
-240.917	-101.893	0.578	-0.138
-239.903	5.644	-0.043	0.031
-238.888	375.031	0.082	-0.166
-237.873	76.785	0.042	0.044
-236.859	-200.000	-0.005	0.098
-235.844	14.708	0.240	0.185
-234.830	-200.000	-0.041	-0.237
-233.815	800.000	-0.089	0.273
-232.800	27.511	0.126	-0.105
-231.786	643.839	-0.152	0.383
-230.771	76.978	0.233	0.245
-229.757	-86.746	-0.251	-0.076
-228.742	-200.000	-0.013	-0.057
-227.727	-40.349	0.040	0.020
-226.713	800.000	-0.057	-0.157
-225.698	800.000	-0.099	0.403
-224.684	800.000	0.060	-0.193
-223.669	752.498	0.152	-0.405
-222.655	-183.011	-0.008	0.000
-221.640	252.844	0.068	-0.114
-220.625	226.509	0.128	-0.206
-219.611	85.653	-0.072	0.079
-218.596	271.006	0.222	0.386
-217.582	-139.097	0.253	0.027
-216.567	-200.000	0.004	-0.199
-215.552	136.869	0.131	-0.169
-214.538	248.798	-0.110	0.183
-213.523	-109.517	-0.194	-0.040
-212.509	-200.000	-0.027	-0.328
-211.494	120.344	0.237	-0.291
-210.479	54.806	0.247	0.235
-209.465	252.535	-0.256	0.431
-208.450	31.791	0.061	-0.052
-207.436	-112.724	0.282	-0.055
-206.421	-200.000	0.053	0.232
-205.406	-65.186	-0.121	-0.048
-204.392	-42.676	-0.244	-0.123
-203.377	105.021	0.135	0.157
-202.363	134.166	-0.194	-0.249
-201.348	-141.508	0.408	0.041
-200.333	800.000	0.054	-0.148
-199.319	-200.000	-0.051	0.255
-198.304	800.000	-0.003	-0.008
-197.290	-55.207	-0.426	0.189
-196.275	10.303	-0.182	0.137
-195.260	292.140	0.098	0.176
-194.246	134.270	-0.140	0.180
-193.231	374.750	-0.148	0.298
-192.217	-200.000	0.019	-0.110
-191.202	-68.550	0.037	0.014
-190.187	-97.337	-0.202	0.052
-189.173	-101.349	-0.267	-0.064
-188.158	94.147	-0.246	-0.276
-187.144	61.176	0.076	0.074
-186.129	447.541	0.043	-0.093
-185.114	26.885	-0.125	0.103
-184.100	-92.626	0.204	0.057
-183.085	-151.161	0.110	-0.008
-182.071	25.704	0.208	-0.171
-181.056	-95.047	0.367	-0.098
-180.042	8.293	0.248	0.184
-179.027	23.440	0.151	0.123
-178.012	-200.000	0.031	-0.367
-176.998	108.430	0.027	0.032
-175.983	-98.932	-0.121	0.030
-174.969	-16.656	0.147	0.092
-173.954	2.532	0.134	0.096
-172.939	155.228	0.034	0.046
-171.925	275.537	-0.057	-0.099
-170.910	-200.000	0.057	-0.263
-169.896	-99.584	-0.238	-0.059
-168.881	-86.743	-0.179	-0.054
-167.866	-200.000	-0.083	-0.444
-166.852	-128.999	0.428	-0.059
-165.837	-144.245	0.561	0.052
-164.823	150.468	0.094	-0.126
-163.808	-25.304	-0.460	-0.268
-162.793	140.277	0.231	0.301
-161.779	-200.000	0.024	0.139
-160.764	-200.000	-0.004	-0.271
-159.750	555.315	0.061	0.144
-158.735	-145.718	0.095	0.008
-157.720	385.060	0.114	0.233
-156.706	-200.000	-0.016	-0.127
-155.691	335.472	-0.084	0.160
-154.677	-200.000	0.032	-0.214
-153.662	-116.469	0.347	0.063
-152.647	31.182	0.080	-0.067
-151.633	40.596	0.267	0.238
-150.618	-109.827	-0.039	-0.008
-149.604	-200.000	-0.028	-0.143
-148.589	74.025	0.050	-0.051
-147.574	800.000	-0.035	-0.094
-146.560	-200.000	-0.032	-0.387
-145.545	-200.000	-0.031	0.222
-144.531	74.311	-0.167	0.173
-143.516	166.946	-0.115	-0.161
-142.502	110.711	0.092	0.109
-141.487	-125.542	0.306	0.046
-140.472	-200.000	0.041	-0.194
-139.458	-102.475	0.294	0.069
-138.443	87.147	-0.125	0.136
-137.429	329.242	0.070	-0.133
-136.414	-162.282	0.096	-0.005
-135.399	229.912	0.124	-0.200
-134.385	259.244	-0.078	-0.133
-133.370	800.000	-0.070	-0.204
-132.356	127.523	0.129	-0.161
-131.341	-200.000	0.003	0.128
-130.326	576.622	0.106	-0.255
-129.312	-200.000	-0.046	0.204
-128.297	-200.000	-0.081	0.458
-127.283	-12.928	0.134	-0.086
-126.268	-142.637	-0.175	0.017
-125.253	-36.465	-0.247	0.131
-124.239	211.830	-0.118	-0.184
-123.224	-94.732	-0.278	-0.074
-122.210	430.067	-0.111	-0.238
-121.195	-47.780	0.206	0.098
