DTS Sentinel unit serial number:	SN413079Multiplexer serial number:	ORYXHardware model number:	OX4-SRSoftware version number:	ORYX F/W v4.00 Oryx Data Collector v3.7.2.0data status	okinstallation	princeton_trtdifferential loss correction	single-endedforward channel	channel 1reverse channel	N/Adate	2019/09/11time	02:00:11forward acquisition time	60.00reverse acquisition time	0.00gamma	496.2192k internal	0.2332k external	0.2332temperature offset calibration	0.9931default loss term (dB/km)	0.3790temperature slope calibration	1.0000multiplexer offset coefficient	1.0000multiplexer slope coefficient	1.0000fibre end	0.00T internal ref (°C)	29.19T ext. ref 1 (°C)	-0.29T ext. ref 2 (°C)	23.22length (m)	temperature (°C)	Stokes	anti-Stokes-747.200	-200.000	0.048	0.456
-746.185	356.377	0.118	-0.236
-745.171	-200.000	0.031	-0.314
-744.156	-20.922	-0.278	-0.171
-743.142	-74.050	-0.211	0.077
-742.127	449.958	0.092	0.203
-741.112	3.176	-0.329	0.240
-740.098	56.388	0.278	0.272
-739.083	385.572	0.106	-0.220
-738.069	-53.048	0.128	-0.059
-737.054	-200.000	-0.028	0.145
-736.039	-200.000	-0.053	0.244
-735.025	-200.000	0.067	-0.297
-734.010	800.000	-0.014	-0.052
-732.996	-45.554	0.288	-0.144
-731.981	-90.145	-0.070	0.021
-730.966	-116.680	0.130	-0.024
-729.952	-200.000	0.054	-0.260
-728.937	800.000	0.032	-0.094
-727.923	165.994	-0.020	-0.028
-726.908	273.612	0.064	-0.113
-725.894	-1.335	-0.087	0.062
-724.879	800.000	-0.049	-0.180
-723.864	-200.000	0.010	-0.183
-722.850	-167.192	-0.121	0.005
-721.835	284.073	-0.188	-0.339
-720.821	-88.421	-0.089	0.027
-719.806	-23.183	-0.097	-0.059
-718.791	-58.723	0.321	-0.140
-717.777	-66.403	0.382	-0.153
-716.762	-200.000	-0.000	-0.183
-715.748	-200.000	-0.036	-0.263
-714.733	-200.000	0.034	-0.225
-713.718	-200.000	0.027	-0.135
-712.704	-200.000	0.036	-0.371
-711.689	-72.495	0.088	-0.033
-710.675	13.720	-0.222	-0.173
-709.660	621.918	-0.079	-0.200
-708.645	-116.669	-0.278	-0.051
-707.631	-200.000	-0.058	0.298
-706.616	-158.617	0.118	-0.007
-705.602	800.000	0.080	0.263
-704.587	-46.535	0.030	-0.015
-703.572	800.000	-0.083	0.302
-702.558	-95.418	0.333	-0.090
-701.543	47.062	-0.159	0.149
-700.529	38.852	-0.275	-0.246
-699.514	-200.000	0.000	-0.084
-698.499	-0.214	0.165	0.118
-697.485	-200.000	-0.016	-0.151
-696.470	47.984	-0.206	-0.193
-695.456	-200.000	-0.023	0.459
-694.441	312.758	-0.072	-0.135
-693.426	-115.380	0.056	0.011
-692.412	-200.000	-0.048	0.268
-691.397	-183.036	0.037	0.001
-690.383	-51.093	-0.147	-0.069
-689.368	0.950	0.170	-0.122
-688.354	246.518	0.132	-0.223
-687.339	438.542	-0.094	-0.206
-686.324	229.886	0.034	-0.056
-685.310	-43.744	-0.148	-0.075
-684.295	258.551	0.114	-0.197
-683.281	-41.358	-0.167	-0.086
-682.266	28.564	0.011	0.010
-681.251	-27.986	0.346	-0.201
-680.237	3.887	-0.040	-0.029
-679.222	-200.000	0.026	-0.205
-678.208	191.519	-0.160	-0.242
-677.193	16.758	0.226	-0.179
-676.178	49.782	-0.051	-0.048
-675.164	458.619	0.088	0.196
-674.149	634.288	-0.018	-0.045
-673.135	-112.081	0.255	0.051
-672.120	-200.000	-0.026	-0.162
-671.105	800.000	-0.102	-0.327
-670.091	36.651	0.095	-0.084
-669.076	20.623	0.167	0.135
-668.062	-180.043	0.113	0.002
-667.047	-94.254	0.187	0.051
-666.032	800.000	-0.036	0.128
-665.018	-200.000	-0.073	-0.356
-664.003	-73.601	-0.401	-0.147
-662.989	-5.008	0.117	-0.081
-661.974	-62.990	-0.322	0.133
-660.959	800.000	0.027	0.078
-659.945	128.763	0.138	-0.177
-658.930	136.672	-0.169	-0.221
-657.916	-200.000	0.003	-0.046
-656.901	-141.054	-0.167	-0.017
-655.886	-23.676	0.122	-0.073
-654.872	-118.189	-0.381	0.068
-653.857	84.328	0.111	0.121
-652.843	-55.616	-0.253	-0.114
-651.828	277.734	0.081	0.144
-650.814	-45.592	0.334	0.166
-649.799	-60.483	0.170	0.073
-648.784	-84.329	0.339	0.108
-647.770	13.076	0.268	-0.208
-646.755	48.592	0.055	0.052
-645.741	122.960	0.058	-0.073
-644.726	-94.546	-0.145	-0.040
-643.711	800.000	-0.047	-0.180
-642.697	800.000	-0.032	-0.135
-641.682	-200.000	0.001	0.016
-640.668	-117.447	-0.108	0.020
-639.653	-200.000	-0.032	-0.498
-638.638	38.359	0.139	0.124
-637.624	800.000	0.005	-0.017
-636.609	680.392	0.078	-0.203
-635.595	55.753	-0.073	0.071
-634.580	-58.517	0.148	-0.064
-633.565	-151.746	-0.304	-0.022
-632.551	-66.462	0.164	0.065
-631.536	-1.438	-0.184	-0.130
-630.522	3.819	0.179	-0.131
-629.507	21.153	-0.279	0.227
-628.492	112.571	-0.212	-0.257
-627.478	-2.620	0.180	-0.126
-626.463	-9.988	0.313	-0.209
-625.449	125.982	0.027	-0.034
-624.434	-167.977	0.241	-0.009
-623.419	337.211	-0.095	0.185
-622.405	593.938	-0.029	0.072
-621.390	52.497	-0.038	0.036
-620.376	800.000	-0.142	-0.459
-619.361	12.552	0.057	-0.044
-618.346	800.000	0.087	0.251
-617.332	124.440	0.115	-0.145
-616.317	-11.357	0.145	-0.096
-615.303	800.000	0.036	0.113
-614.288	233.264	-0.094	-0.155
-613.273	729.312	0.073	0.195
-612.259	0.426	0.210	0.150
-611.244	258.608	-0.031	0.054
-610.230	-31.001	0.214	-0.121
-609.215	-140.692	-0.408	0.042
-608.201	-86.820	0.141	-0.043
-607.186	94.925	0.054	0.062
-606.171	-200.000	0.056	-0.255
-605.157	47.092	0.083	0.077
-604.142	376.701	0.129	0.263
-603.128	96.587	0.173	0.198
-602.113	-200.000	0.009	-0.228
-601.098	-168.871	-0.111	0.004
-600.084	290.033	-0.108	0.197
-599.069	17.650	0.200	0.159
-598.055	-148.796	0.175	-0.014
-597.040	183.615	0.177	0.262
-596.025	-11.686	0.314	0.206
-595.011	136.446	-0.068	0.089
-593.996	-76.746	-0.099	-0.035
-592.982	-6.216	-0.151	-0.103
-591.967	17.379	-0.156	-0.124
-590.952	-200.000	-0.016	-0.177
-589.938	-171.966	-0.423	-0.014
-588.923	-140.577	0.233	0.024
-587.909	35.348	-0.172	-0.151
-586.894	32.093	0.210	-0.181
-585.879	2.907	-0.230	0.167
-584.865	123.854	0.202	-0.254
-583.850	141.769	0.275	-0.364
-582.836	800.000	0.067	-0.271
-581.821	106.009	-0.258	-0.305
-580.806	218.451	-0.136	-0.217
-579.792	-200.000	-0.061	0.339
-578.777	-62.016	0.070	0.029
-577.763	-200.000	-0.000	-0.169
-576.748	-116.558	-0.226	0.042
-575.733	-112.071	0.287	0.058
-574.719	-49.304	-0.179	0.085
-573.704	-172.224	-0.183	-0.006
-572.690	800.000	0.018	-0.061
-571.675	-145.337	-0.223	-0.020
-570.661	184.003	-0.146	0.216
-569.646	-12.223	-0.058	-0.038
-568.631	800.000	-0.040	0.165
-567.617	800.000	0.052	0.189
-566.602	167.827	-0.143	-0.203
-565.588	42.688	-0.083	0.075
-564.573	146.741	0.145	0.194
-563.558	-88.988	0.528	-0.156
-562.544	76.903	0.053	0.056
-561.529	292.140	0.091	0.166
-560.515	688.505	-0.033	0.085
-559.500	77.531	-0.070	-0.074
-558.485	0.043	0.334	0.238
-557.471	-200.000	0.007	0.224
-556.456	336.671	-0.172	-0.333
-555.442	609.850	0.156	0.390
-554.427	-200.000	-0.031	-0.176
-553.412	42.583	-0.162	-0.147
-552.398	800.000	-0.054	-0.179
-551.383	170.994	-0.052	0.074
-550.369	439.748	0.107	0.234
-549.354	46.537	-0.180	-0.167
-548.339	-98.205	0.141	-0.036
-547.325	99.360	-0.158	-0.183
-546.310	344.565	-0.090	-0.177
-545.296	-26.340	-0.166	-0.097
-544.281	-17.087	-0.280	0.176
-543.266	21.683	0.130	-0.106
-542.252	-200.000	-0.027	-0.218
-541.237	270.400	0.069	-0.121
-540.223	-8.965	-0.302	0.202
-539.208	-35.246	-0.156	0.085
-538.193	10.191	-0.169	0.129
-537.179	-11.907	0.313	0.205
-536.164	-72.935	-0.163	-0.060
-535.150	-137.332	-0.357	0.040
-534.135	-68.815	0.166	-0.064
-533.121	-29.218	-0.159	-0.091
-532.106	-86.734	-0.434	0.133
-531.091	427.158	0.080	0.173
-530.077	49.433	0.128	-0.120
-529.062	-149.743	0.291	0.023
-528.048	44.017	0.355	-0.324
-527.033	-200.000	0.044	-0.435
-526.018	220.698	-0.148	-0.238
-525.004	94.221	-0.161	-0.183
-523.989	248.878	-0.086	-0.146
-522.975	-200.000	0.024	0.199
-521.960	-39.124	-0.049	-0.026
-520.945	800.000	-0.034	0.120
-519.931	800.000	0.105	0.293
-518.916	-55.714	-0.298	-0.133
-517.902	-158.299	-0.133	0.008
-516.887	800.000	-0.032	-0.120
-515.872	13.610	0.202	-0.156
-514.858	27.341	-0.206	-0.173
-513.843	-59.267	0.206	-0.088
-512.829	-200.000	0.039	-0.328
-511.814	-69.539	0.170	-0.065
-510.799	91.015	-0.135	0.151
-509.785	56.639	-0.335	-0.325
-508.770	62.182	-0.066	0.066
-507.756	92.289	0.292	0.328
-506.741	-46.910	-0.016	-0.008
-505.726	198.487	0.133	-0.203
-504.712	-10.282	0.136	0.090
-503.697	117.602	0.156	0.192
-502.683	-120.430	0.262	0.044
-501.668	-132.623	0.330	-0.042
-500.653	-89.899	-0.302	-0.088
-499.639	-117.955	-0.319	0.057
-498.624	29.100	0.148	0.125
-497.610	-200.000	0.023	0.342
-496.595	-200.000	0.006	0.248
-495.581	800.000	0.033	0.098
-494.566	337.019	-0.070	-0.135
-493.551	238.752	0.075	0.124
-492.537	-200.000	0.038	0.230
-491.522	800.000	0.046	0.171
-490.508	192.138	0.059	-0.088
-489.493	-37.869	0.418	-0.222
-488.478	-6.995	-0.040	-0.027
-487.464	217.108	-0.156	-0.247
-486.449	-43.353	-0.186	0.094
-485.435	-23.507	0.148	-0.088
-484.420	-110.010	0.311	-0.065
-483.405	-200.000	-0.011	0.245
-482.391	-136.635	-0.279	0.032
-481.376	40.231	0.022	0.020
-480.362	-64.558	0.168	0.068
-479.347	-63.819	-0.008	0.003
-478.332	43.624	0.106	-0.096
-477.318	-194.550	0.229	0.002
-476.303	-14.867	-0.147	-0.094
-475.289	41.207	0.175	0.158
-474.274	-28.527	0.108	-0.062
-473.259	498.970	0.173	-0.397
-472.245	800.000	-0.048	-0.134
-471.230	-12.553	0.115	-0.075
-470.216	222.145	0.096	0.154
-469.201	-72.370	0.223	-0.082
-468.186	310.721	-0.218	-0.406
-467.172	376.558	0.139	-0.282
-466.157	-200.000	0.012	-0.093
-465.143	98.094	-0.122	-0.140
-464.128	-118.236	-0.197	0.035
-463.113	-93.336	-0.161	0.045
-462.099	142.556	-0.114	0.150
-461.084	800.000	-0.049	0.192
-460.070	376.520	-0.090	-0.182
-459.055	427.067	0.089	0.192
-458.040	49.637	0.296	-0.277
-457.026	242.799	-0.125	-0.208
-456.011	474.392	-0.038	-0.086
-454.997	-200.000	-0.118	-0.000
-453.982	-59.340	-0.263	-0.113
-452.968	-200.000	0.030	-0.220
-451.953	-162.963	-0.316	-0.015
-450.938	-141.524	0.102	0.010
-449.924	-200.000	-0.013	0.084
-448.909	64.384	-0.035	-0.035
-447.895	10.275	-0.197	0.149
-446.880	318.071	0.169	-0.319
-445.865	773.724	-0.055	-0.149
-444.851	-106.838	0.328	0.072
-443.836	-20.195	-0.115	-0.071
-442.822	0.832	0.451	0.321
-441.807	502.515	-0.079	0.182
-440.792	-119.987	-0.279	0.048
-439.778	431.656	-0.091	-0.196
-438.763	-200.000	-0.017	0.191
-437.749	-32.571	0.268	-0.149
-436.734	-154.751	0.140	0.009
-435.719	800.000	0.159	-0.470
-434.705	609.164	-0.083	-0.205
-433.690	16.347	-0.126	-0.098
-432.676	251.056	0.059	0.099
-431.661	149.340	0.131	0.176
-430.646	-65.404	-0.061	0.025
-429.632	80.587	0.066	0.070
-428.617	792.383	-0.205	0.559
-427.603	-85.385	-0.398	-0.123
-426.588	-186.346	0.143	-0.002
-425.573	191.647	0.317	0.475
-424.559	-200.000	0.040	0.218
-423.544	-30.833	-0.248	0.139
-422.530	48.508	-0.116	0.108
-421.515	292.048	-0.146	0.264
-420.500	-200.000	0.072	0.455
-419.486	-90.138	0.133	0.039
-418.471	63.755	-0.313	-0.312
-417.457	-57.022	0.157	0.069
-416.442	-109.771	-0.247	-0.051
-415.428	-3.654	-0.175	0.121
-414.413	-88.033	-0.127	0.038
-413.398	-200.000	-0.013	0.202
-412.384	140.484	0.170	-0.224
-411.369	180.448	-0.201	0.292
-410.355	-153.884	0.298	0.020
-409.340	402.320	-0.097	0.202
-408.325	-54.229	-0.091	0.041
-407.311	-200.000	-0.005	0.171
-406.296	-90.384	-0.284	0.082
-405.282	-150.416	0.201	-0.015
-404.267	-45.994	0.169	-0.083
-403.252	112.502	0.266	0.320
-402.238	-85.319	-0.063	0.019
-401.223	-104.193	-0.343	0.079
-400.209	-200.000	-0.041	-0.345
-399.194	-200.000	0.071	-0.478
-398.179	-74.318	-0.165	-0.059
-397.165	702.396	-0.076	-0.199
-396.150	-141.212	0.184	0.019
-395.136	-200.000	0.045	0.254
-394.121	-131.745	0.113	-0.015
-393.106	210.511	0.094	-0.146
-392.092	4.962	-0.104	0.076
-391.077	129.415	0.128	0.163
-390.063	214.306	0.116	0.182
-389.048	-100.723	0.278	-0.068
-388.033	-72.834	0.214	0.078
-387.019	800.000	-0.023	-0.069
-386.004	92.048	0.016	0.018
-384.990	-103.248	-0.275	-0.065
-383.975	-176.311	0.142	-0.004
-382.960	19.559	0.003	0.002
-381.946	-120.285	-0.489	-0.083
-380.931	-29.958	0.104	-0.059
-379.917	-57.955	-0.091	-0.039
-378.902	57.714	-0.233	-0.226
-377.888	-79.481	-0.084	0.028
-376.873	-200.000	0.007	-0.134
-375.858	363.526	-0.056	0.112
-374.844	-79.880	-0.543	0.181
-373.829	800.000	-0.120	0.397
-372.815	40.434	-0.024	0.022
-371.800	-95.039	0.203	0.055
-370.785	102.158	-0.125	0.144
-369.771	267.391	0.211	0.366
-368.756	-200.000	-0.020	-0.092
-367.742	-100.749	-0.246	-0.060
-366.727	506.519	0.126	-0.290
-365.712	-16.702	-0.424	-0.266
-364.698	-196.229	0.356	0.002
-363.683	-200.000	0.011	-0.125
-362.669	290.681	-0.050	0.091
-361.654	800.000	-0.002	0.008
-360.639	-129.530	0.019	0.003
-359.625	-200.000	-0.030	-0.197
-358.610	800.000	0.024	0.071
-357.596	88.766	-0.072	0.080
-356.581	282.819	0.108	0.193
-355.566	-106.993	0.041	-0.009
-354.552	746.239	-0.032	0.085
-353.537	-143.702	-0.368	0.035
-352.523	174.636	0.068	0.098
-351.508	239.218	0.110	0.181
-350.493	-113.339	-0.179	0.035
-349.479	-70.240	-0.256	0.096
-348.464	-200.000	-0.014	-0.180
-347.450	-75.217	0.256	0.091
-346.435	-87.505	0.133	0.040
-345.420	103.050	-0.087	0.101
-344.406	-28.940	-0.137	0.078
-343.391	-200.000	-0.037	-0.467
-342.377	-88.931	-0.137	-0.040
-341.362	-78.467	-0.110	-0.037
-340.348	-200.000	-0.003	-0.190
-339.333	-76.879	0.283	-0.098
-338.318	-125.710	0.317	0.048
-337.304	800.000	-0.069	0.256
-336.289	800.000	0.099	0.272
-335.275	155.305	0.033	0.044
-334.260	118.356	0.071	-0.087
-333.245	800.000	0.055	-0.175
-332.231	55.887	-0.117	0.112
-331.216	-107.880	0.092	-0.020
-330.202	-200.000	-0.011	0.173
-329.187	-25.202	0.120	-0.070
-328.172	-200.000	0.009	0.370
-327.158	-146.722	0.190	-0.016
-326.143	397.264	0.165	0.341
-325.129	-13.660	-0.292	0.187
-324.114	331.770	-0.013	-0.026
-323.099	-5.243	-0.137	-0.093
-322.085	-23.512	0.226	-0.134
-321.070	-200.000	0.010	0.123
-320.056	-200.000	0.001	0.022
-319.041	33.599	0.107	-0.092
-318.026	-61.380	-0.115	-0.048
-317.012	800.000	0.025	-0.071
-315.997	800.000	-0.110	0.391
-314.983	315.698	-0.074	0.138
-313.968	-141.803	-0.140	-0.014
-312.953	800.000	-0.054	-0.152
-311.939	111.374	0.030	-0.036
-310.924	-153.802	-0.248	0.017
-309.910	-200.000	0.019	0.309
-308.895	-84.866	0.240	-0.075
-307.880	256.947	0.130	0.220
-306.866	800.000	-0.059	0.194
-305.851	60.957	-0.233	0.229
-304.837	-110.374	0.288	-0.059
-303.822	800.000	0.115	-0.351
-302.807	17.659	0.326	-0.256
-301.793	215.952	-0.101	-0.159
-300.778	-200.000	-0.005	0.055
-299.764	-110.302	0.246	-0.051
-298.749	-119.825	0.093	0.016
-297.735	800.000	0.046	0.169
-296.720	74.596	0.066	0.068
-295.705	800.000	-0.071	0.225
-294.691	412.891	-0.176	0.371
-293.676	236.355	0.181	0.295
-292.662	-200.000	-0.016	0.137
-291.647	14.583	0.120	-0.093
-290.632	-31.118	-0.014	0.008
-289.618	112.190	-0.170	0.204
-288.603	-77.841	0.180	-0.061
-287.589	-52.830	0.055	0.025
-286.574	-55.378	-0.264	-0.117
-285.559	-101.807	0.383	-0.092
-284.545	-200.000	0.014	0.245
-283.530	-18.656	0.062	-0.038
-282.516	-76.371	-0.093	-0.032
-281.501	68.148	0.200	-0.202
-280.486	37.482	0.051	0.045
-279.472	-163.918	-0.104	0.005
-278.457	376.155	0.028	0.057
-277.443	-12.198	-0.084	0.054
-276.428	-160.680	-0.234	-0.012
-275.413	93.626	-0.049	0.055
-274.399	-200.000	0.073	-0.390
-273.384	-50.595	0.086	-0.040
-272.370	-48.915	0.262	0.124
-271.355	-200.000	-0.053	-0.313
-270.340	-200.000	0.004	-0.130
-269.326	669.743	-0.060	0.153
-268.311	376.527	-0.041	0.082
-267.297	-200.000	0.062	0.296
-266.282	90.741	0.106	-0.118
-265.267	-37.039	-0.132	-0.070
-264.253	80.338	-0.165	0.175
-263.238	56.223	-0.142	-0.136
-262.224	-192.592	-0.306	-0.003
-261.209	-54.798	0.290	-0.129
-260.195	800.000	0.031	-0.089
-259.180	-200.000	0.018	-0.168
-258.165	13.281	-0.116	0.088
-257.151	159.754	-0.185	-0.254
-256.136	800.000	-0.061	0.192
-255.122	-155.379	0.061	0.004
-254.107	-75.123	0.146	-0.052
-253.092	-200.000	0.062	0.350
-252.078	-59.185	-0.078	0.033
-251.063	-200.000	0.067	-0.301
-250.049	-92.620	0.268	0.074
-249.034	-167.491	-0.212	0.008
-248.019	-7.814	-0.151	-0.101
-247.005	-60.454	-0.269	0.113
-245.990	-105.755	0.373	0.083
-244.976	-200.000	0.042	-0.291
-243.961	-200.000	-0.032	-0.254
-242.946	-200.000	0.017	0.191
-241.932	193.320	-0.154	0.229
-240.917	800.000	0.125	0.366
-239.903	-200.000	0.043	0.307
-238.888	68.365	0.115	0.117
-237.873	49.116	0.157	-0.146
-236.859	147.903	-0.062	0.082
-235.844	56.270	-0.199	0.191
-234.830	710.154	-0.075	-0.195
-233.815	471.036	0.075	-0.165
-232.800	-132.083	-0.218	-0.028
-231.786	-56.269	-0.334	0.146
-230.771	-200.000	0.036	-0.436
-229.757	-13.376	0.107	-0.069
-228.742	800.000	-0.080	0.273
-227.727	-200.000	-0.019	-0.085
-226.713	-71.749	-0.558	-0.205
-225.698	243.456	0.198	-0.327
-224.684	-92.513	0.150	-0.042
-223.669	663.198	-0.078	-0.198
-222.655	-137.829	0.138	0.015
-221.640	800.000	0.059	0.205
-220.625	56.684	0.123	0.118
-219.611	31.194	0.172	0.145
-218.596	76.077	-0.269	-0.280
-217.582	-134.596	0.403	0.048
-216.567	-200.000	0.005	0.077
-215.552	49.613	-0.163	0.152
-214.538	800.000	0.069	-0.219
-213.523	198.139	-0.073	-0.111
-212.509	-90.141	-0.228	-0.065
-211.494	-66.107	-0.479	0.188
-210.479	-4.813	0.225	-0.153
-209.465	-60.254	-0.231	0.097
-208.450	-29.384	-0.118	0.066
-207.436	-200.000	0.007	0.137
-206.421	-6.614	-0.144	-0.096
-205.406	-200.000	0.017	-0.115
-204.392	-54.677	0.053	-0.024
-203.377	14.447	-0.322	-0.248
-202.363	-49.883	0.183	-0.085
-201.348	-200.000	0.013	0.278
-200.333	-89.941	-0.209	0.060
-199.319	279.183	0.094	-0.165
-198.304	-125.822	0.127	-0.019
-197.290	52.663	-0.119	0.112
-196.275	-50.869	-0.276	0.128
-195.260	191.692	-0.140	0.207
-194.246	800.000	0.031	0.116
-193.231	-200.000	0.026	-0.308
-192.217	416.032	0.038	0.079
-191.202	509.307	-0.056	0.128
-190.187	-200.000	0.000	0.189
-189.173	-80.389	-0.159	0.052
-188.158	800.000	0.081	-0.269
-187.144	87.652	0.092	0.100
-186.129	-200.000	0.036	0.263
-185.114	17.451	-0.090	-0.070
-184.100	-136.646	0.181	-0.021
-183.085	-200.000	-0.019	-0.446
-182.071	-200.000	-0.008	-0.154
-181.056	44.471	-0.131	-0.118
-180.042	239.096	0.193	0.316
-179.027	-132.071	0.062	-0.008
-178.012	-144.184	-0.479	-0.044
-176.998	116.888	-0.094	-0.114
-175.983	41.479	0.166	-0.148
-174.969	454.438	0.144	0.313
-173.954	405.495	0.086	0.178
-172.939	-200.000	0.011	-0.107
-171.925	184.455	0.037	-0.054
-170.910	397.929	-0.070	0.145
-169.896	-42.558	0.276	-0.138
-168.881	800.000	-0.055	0.217
-167.866	61.721	-0.104	0.102
-166.852	18.815	-0.172	0.136
-165.837	-83.562	0.297	0.094
-164.823	-110.429	0.280	-0.057
-163.808	-19.991	0.305	0.185
-162.793	-200.000	-0.044	-0.255
-161.779	1.615	0.355	-0.251
-160.764	460.191	-0.091	-0.200
-159.750	-103.712	-0.265	0.061
-158.735	-178.054	0.272	-0.006
-157.720	-4.665	-0.124	-0.084
-156.706	-200.000	0.026	-0.200
-155.691	-27.883	0.323	0.184
-154.677	-200.000	0.049	0.342
-153.662	-46.166	-0.077	-0.037
-152.647	-200.000	-0.006	-0.386
-151.633	-144.315	-0.098	-0.009
-150.618	252.362	-0.129	-0.217
-149.604	119.862	0.078	-0.095
-148.589	-59.850	0.282	-0.119
-147.574	-62.214	-0.231	0.095
-146.560	-28.822	-0.459	-0.259
-145.545	-200.000	0.014	-0.133
-144.531	-42.830	-0.193	-0.097
-143.516	800.000	-0.174	0.586
-142.502	-53.264	-0.114	-0.051
-141.487	304.591	-0.114	-0.208
-140.472	-200.000	-0.029	-0.400
-139.458	540.303	0.078	-0.183
-138.443	-11.486	-0.225	0.146
-137.429	-99.848	0.353	-0.087
-136.414	-200.000	-0.001	-0.061
-135.399	800.000	-0.023	-0.069
-134.385	710.392	0.164	-0.427
-133.370	-200.000	0.022	-0.277
-132.356	37.424	0.075	0.065
-131.341	14.040	-0.108	-0.083
-130.326	658.812	0.045	0.115
-129.312	328.688	0.207	-0.390
-128.297	-120.240	-0.038	-0.006
-127.283	-81.595	-0.285	0.092
-126.268	-164.894	0.423	0.019
-125.253	-2.508	-0.255	-0.175
-124.239	-124.504	0.111	0.017
-123.224	276.774	0.143	0.249
-122.210	26.085	-0.137	0.112
-121.195	-200.000	0.007	0.220
