DTS Sentinel unit serial number:	SN413079Multiplexer serial number:	ORYXHardware model number:	OX4-SRSoftware version number:	ORYX F/W v4.00 Oryx Data Collector v3.7.2.0data status	okinstallation	princeton_trtdifferential loss correction	single-endedforward channel	channel 1reverse channel	N/Adate	2019/09/18time	13:10:35forward acquisition time	60.00reverse acquisition time	0.00gamma	496.2192k internal	0.2314k external	0.2314temperature offset calibration	0.9978default loss term (dB/km)	0.3790temperature slope calibration	1.0000multiplexer offset coefficient	1.0000multiplexer slope coefficient	1.0000fibre end	0.00T internal ref (°C)	33.84T ext. ref 1 (°C)	0.58T ext. ref 2 (°C)	31.49length (m)	temperature (°C)	Stokes	anti-Stokes-747.200	-200.000	0.066	0.380
-746.185	-16.018	-0.300	-0.194
-745.171	265.875	-0.114	0.203
-744.156	270.158	-0.233	0.416
-743.142	195.053	-0.094	-0.145
-742.127	605.992	-0.030	0.075
-741.112	-61.799	0.101	-0.043
-740.098	-43.488	-0.212	0.109
-739.083	-111.060	0.103	0.021
-738.069	-200.000	-0.048	0.241
-737.054	-36.148	-0.336	0.184
-736.039	-200.000	-0.052	0.449
-735.025	141.679	0.185	0.248
-734.010	84.062	0.180	0.199
-732.996	-200.000	0.004	0.145
-731.981	243.199	-0.195	-0.331
-730.966	143.663	0.041	0.056
-729.952	778.616	0.076	0.211
-728.937	-91.251	-0.176	0.051
-727.923	-12.243	-0.113	0.075
-726.908	-85.684	-0.275	-0.087
-725.894	800.000	0.024	-0.080
-724.879	-164.957	-0.317	-0.014
-723.864	-200.000	0.003	0.335
-722.850	78.615	-0.037	-0.040
-721.835	-200.000	-0.027	-0.421
-720.821	800.000	0.030	-0.104
-719.806	-171.179	-0.255	0.009
-718.791	-200.000	0.040	0.326
-717.777	-200.000	-0.005	0.157
-716.762	42.893	-0.203	0.187
-715.748	560.628	0.050	-0.123
-714.733	90.693	-0.087	-0.099
-713.718	-54.140	-0.025	0.011
-712.704	-104.997	-0.179	-0.042
-711.689	95.517	-0.130	0.150
-710.675	151.629	-0.097	0.133
-709.660	-108.635	0.050	-0.011
-708.645	194.225	0.094	-0.145
-707.631	267.352	0.102	0.180
-706.616	-200.000	0.003	0.152
-705.602	289.249	-0.153	-0.281
-704.587	176.299	-0.061	-0.089
-703.572	249.589	-0.111	-0.191
-702.558	-200.000	0.005	0.171
-701.543	-81.039	-0.223	0.075
-700.529	91.687	0.336	-0.383
-699.514	-200.000	0.045	-0.263
-698.499	54.390	-0.060	0.058
-697.485	800.000	-0.101	0.285
-696.470	-200.000	0.017	0.112
-695.456	486.977	0.080	0.185
-694.441	-109.038	0.280	0.060
-693.426	189.823	-0.024	-0.036
-692.412	-58.293	-0.105	0.046
-691.397	-10.877	0.136	0.091
-690.383	800.000	-0.013	-0.036
-689.368	-200.000	-0.034	-0.203
-688.354	162.237	0.073	-0.103
-687.339	800.000	-0.020	0.078
-686.324	-145.246	0.187	0.017
-685.310	109.560	0.137	0.166
-684.295	-200.000	0.036	-0.165
-683.281	-177.556	-0.251	0.006
-682.266	73.484	-0.164	-0.173
-681.251	65.717	-0.040	-0.041
-680.237	-125.843	-0.276	-0.042
-679.222	12.456	-0.188	0.147
-678.208	-182.986	0.227	0.004
-677.193	55.795	-0.305	0.299
-676.178	-5.143	0.416	-0.289
-675.164	7.888	0.268	-0.203
-674.149	351.876	0.069	0.138
-673.135	-200.000	-0.057	0.354
-672.120	800.000	0.016	-0.061
-671.105	-98.759	-0.157	0.041
-670.091	1.545	-0.114	-0.083
-669.076	-105.151	0.057	-0.013
-668.062	800.000	-0.080	-0.294
-667.047	-200.000	0.008	0.090
-666.032	647.389	0.082	0.211
-665.018	242.432	0.063	-0.106
-664.003	-5.580	-0.177	0.122
-662.989	96.285	0.049	-0.056
-661.974	12.551	-0.289	-0.225
-660.959	208.406	-0.216	-0.341
-659.945	-148.916	0.221	-0.018
-658.930	40.459	-0.147	-0.134
-657.916	-123.464	-0.144	-0.023
-656.901	147.388	0.207	-0.282
-655.886	62.194	-0.223	0.225
-654.872	58.215	0.135	-0.134
-653.857	-169.314	-0.177	-0.007
-652.843	88.668	-0.083	0.094
-651.828	-67.925	0.297	0.117
-650.814	-31.650	0.328	0.186
-649.799	-156.221	-0.174	0.011
-648.784	160.313	0.151	0.213
-647.770	19.906	-0.126	0.103
-646.755	-13.403	0.095	0.062
-645.741	-200.000	0.041	0.453
-644.726	800.000	0.030	0.127
-643.711	-20.940	-0.199	-0.123
-642.697	29.509	-0.123	-0.106
-641.682	-73.039	0.168	-0.062
-640.668	467.013	0.053	-0.120
-639.653	189.525	0.095	-0.144
-638.638	-174.212	-0.239	-0.007
-637.624	605.243	-0.064	0.162
-636.609	531.469	-0.019	0.045
-635.595	252.967	-0.134	0.230
-634.580	575.357	-0.080	-0.198
-633.565	-91.619	-0.082	-0.024
-632.551	71.639	0.159	-0.167
-631.536	-200.000	-0.052	-0.357
-630.522	79.999	-0.365	-0.396
-629.507	-122.543	0.277	-0.045
-628.492	-91.834	0.246	0.071
-627.478	-34.820	-0.125	-0.069
-626.463	-102.037	0.224	0.054
-625.449	800.000	-0.088	-0.273
-624.434	279.607	-0.055	0.099
-623.419	488.178	-0.072	-0.166
-622.405	800.000	-0.083	-0.273
-621.390	-115.500	0.029	-0.006
-620.376	-132.677	-0.441	0.057
-619.361	98.873	-0.144	-0.168
-618.346	-160.434	0.215	-0.012
-617.332	-83.885	0.194	0.062
-616.317	-200.000	-0.033	-0.225
-615.303	139.086	0.058	-0.077
-614.288	-139.408	-0.055	-0.006
-613.273	-21.231	-0.171	0.106
-612.259	800.000	-0.016	-0.061
-611.244	-121.743	0.079	0.013
-610.230	-110.839	-0.253	-0.052
-609.215	-28.990	0.139	0.081
-608.201	58.506	0.279	0.276
-607.186	-200.000	0.001	-0.178
-606.171	-48.047	0.174	-0.085
-605.157	73.931	-0.136	-0.144
-604.142	-30.160	0.256	-0.147
-603.128	-200.000	0.008	-0.043
-602.113	-66.327	0.262	-0.105
-601.098	800.000	0.185	-0.529
-600.084	223.905	0.200	-0.325
-599.069	-168.954	-0.112	-0.004
-598.055	80.856	-0.104	0.113
-597.040	-200.000	-0.007	-0.117
-596.025	-200.000	-0.014	0.119
-595.011	107.259	0.133	0.159
-593.996	-138.929	0.211	-0.023
-592.982	641.176	-0.082	-0.211
-591.967	122.963	-0.044	0.055
-590.952	-7.260	-0.237	0.162
-589.938	230.028	-0.160	-0.263
-588.923	180.589	0.179	-0.264
-587.909	-107.440	-0.250	-0.055
-586.894	800.000	0.055	-0.193
-585.879	362.863	0.103	0.209
-584.865	-80.522	0.090	0.030
-583.850	-57.664	-0.330	0.146
-582.836	194.571	-0.125	0.192
-581.821	-200.000	0.003	-0.074
-580.806	-200.000	0.050	0.337
-579.792	164.722	0.315	-0.448
-578.777	27.488	0.281	-0.238
-577.763	385.968	-0.129	-0.268
-576.748	800.000	-0.050	0.203
-575.733	-28.899	-0.078	0.045
-574.719	-200.000	-0.002	0.361
-573.704	559.932	-0.057	0.137
-572.690	-135.129	-0.294	0.036
-571.675	-91.072	0.090	0.026
-570.661	800.000	0.054	0.218
-569.646	-79.899	-0.140	-0.047
-568.631	800.000	0.066	-0.216
-567.617	-57.628	0.306	-0.135
-566.602	-45.474	-0.057	-0.028
-565.588	687.674	-0.074	-0.194
-564.573	-49.324	0.118	0.057
-563.558	106.787	0.020	0.024
-562.544	-170.698	-0.194	-0.007
-561.529	-102.044	0.132	-0.032
-560.515	-200.000	0.012	-0.126
-559.500	-24.596	0.205	-0.123
-558.485	-200.000	-0.018	-0.285
-557.471	256.417	0.067	0.116
-556.456	330.078	0.038	-0.073
-555.442	150.084	-0.104	-0.141
-554.427	-51.031	-0.247	0.117
-553.412	68.107	-0.118	-0.121
-552.398	451.743	-0.042	-0.093
-551.383	762.858	-0.105	-0.285
-550.369	37.742	-0.105	-0.094
-549.354	-200.000	-0.013	-0.257
-548.339	-200.000	-0.058	0.335
-547.325	-18.578	0.196	0.123
-546.310	16.668	-0.128	-0.102
-545.296	737.534	0.101	0.272
-544.281	-200.000	0.014	-0.126
-543.266	18.955	0.109	-0.088
-542.252	35.012	0.119	0.105
-541.237	-106.133	0.099	0.022
-540.223	-20.204	0.217	0.135
-539.208	-99.693	-0.316	0.080
-538.193	619.428	0.063	-0.159
-537.179	-55.210	0.351	0.159
-536.164	568.100	0.040	-0.098
-535.150	-42.366	0.172	-0.088
-534.135	303.792	0.134	0.250
-533.121	-89.106	-0.246	-0.073
-532.106	451.809	-0.091	0.203
-531.091	-70.996	0.298	-0.113
-530.077	342.818	0.009	0.017
-529.062	800.000	0.018	-0.052
-528.048	128.136	-0.146	0.186
-527.033	800.000	0.036	-0.129
-526.018	-130.252	0.514	0.070
-525.004	591.125	-0.077	0.192
-523.989	-121.175	0.172	-0.029
-522.975	-8.902	-0.088	0.059
-521.960	-200.000	0.022	-0.374
-520.945	235.448	0.223	0.370
-519.931	-40.024	-0.091	0.048
-518.916	292.184	0.128	-0.234
-517.902	-125.355	-0.344	0.053
-516.887	-6.619	-0.068	0.046
-515.872	142.034	-0.067	0.090
-514.858	180.725	-0.135	-0.200
-513.843	2.576	0.081	0.059
-512.829	-200.000	0.025	-0.158
-511.814	-113.255	0.248	-0.049
-510.799	-159.785	-0.130	-0.007
-509.785	-200.000	0.017	-0.283
-508.770	-200.000	-0.002	-0.135
-507.756	-88.889	-0.393	0.117
-506.741	-148.120	0.130	0.011
-505.726	193.191	0.136	0.206
-504.712	-41.881	-0.094	0.049
-503.697	-36.079	0.134	0.073
-502.683	36.396	-0.282	-0.250
-501.668	145.913	0.055	-0.074
-500.653	88.929	0.060	0.067
-499.639	-120.023	-0.226	0.039
-498.624	394.313	-0.109	0.229
-497.610	-34.341	-0.306	-0.169
-496.595	800.000	0.040	-0.126
-495.581	-200.000	0.066	0.461
-494.566	-12.379	-0.173	-0.113
-493.551	774.688	-0.088	-0.240
-492.537	800.000	0.022	-0.076
-491.522	-84.030	-0.198	-0.063
-490.508	800.000	-0.045	-0.128
-489.493	233.920	-0.026	0.042
-488.478	236.871	0.114	0.190
-487.464	800.000	0.037	0.137
-486.449	-200.000	0.001	0.310
-485.435	-200.000	0.034	-0.233
-484.420	-57.852	-0.233	0.102
-483.405	-200.000	-0.024	-0.112
-482.391	800.000	-0.077	-0.302
-481.376	-164.994	0.480	0.021
-480.362	280.310	0.155	0.278
-479.347	443.360	0.044	-0.097
-478.332	-126.943	-0.181	0.027
-477.318	700.130	-0.068	-0.179
-476.303	-200.000	0.019	-0.132
-475.289	-200.000	0.047	-0.230
-474.274	-95.404	-0.233	0.063
-473.259	176.435	0.092	0.134
-472.245	-51.467	-0.239	-0.112
-471.230	47.784	0.468	-0.438
-470.216	98.295	0.232	-0.268
-469.201	-200.000	-0.001	0.070
-468.186	23.617	-0.295	-0.243
-467.172	800.000	-0.039	-0.149
-466.157	800.000	0.077	-0.223
-465.143	20.022	-0.334	-0.270
-464.128	35.664	-0.142	0.125
-463.113	418.508	0.129	0.277
-462.099	-25.222	0.044	0.026
-461.084	368.114	0.120	0.244
-460.070	-200.000	-0.013	0.088
-459.055	-64.750	0.202	0.082
-458.040	800.000	-0.097	0.330
-457.026	800.000	-0.090	-0.253
-456.011	-61.651	-0.169	-0.071
-454.997	-200.000	0.001	0.023
-453.982	-200.000	-0.001	-0.179
-452.968	-8.364	-0.074	0.050
-451.953	-129.811	0.396	-0.055
-450.938	60.196	0.093	0.092
-449.924	350.045	-0.147	0.292
-448.909	-147.759	0.348	0.029
-447.895	-50.498	0.133	-0.063
-446.880	-25.267	0.064	0.038
-445.865	800.000	0.046	0.151
-444.851	-143.871	0.329	-0.031
-443.836	800.000	0.059	0.184
-442.822	-200.000	0.016	0.100
-441.807	167.002	-0.099	0.141
-440.792	336.139	-0.048	-0.093
-439.778	-51.354	-0.043	0.020
-438.763	800.000	-0.112	0.390
-437.749	68.060	0.065	-0.067
-436.734	-25.604	-0.382	-0.226
-435.719	-200.000	0.007	-0.199
-434.705	47.718	0.215	0.201
-433.690	-200.000	-0.000	0.293
-432.676	46.210	-0.441	-0.409
-431.661	227.814	0.104	-0.169
-430.646	-200.000	-0.080	-0.379
-429.632	-24.129	0.354	-0.212
-428.617	-174.485	-0.241	0.007
-427.603	-200.000	0.013	-0.112
-426.588	189.887	0.111	-0.166
-425.573	56.055	0.129	0.125
-424.559	51.067	0.184	-0.175
-423.544	800.000	-0.103	0.357
-422.530	800.000	0.040	0.131
-421.515	800.000	0.055	0.237
-420.500	-53.725	-0.250	-0.114
-419.486	800.000	-0.095	0.346
-418.471	-200.000	-0.013	-0.345
-417.457	-118.732	0.075	-0.013
-416.442	194.549	-0.112	-0.169
-415.428	-60.514	-0.295	-0.126
-414.413	10.770	0.077	-0.058
-413.398	-200.000	-0.086	0.500
-412.384	352.141	0.257	-0.509
-411.369	-47.944	0.134	-0.065
-410.355	800.000	0.131	0.402
-409.340	-200.000	-0.043	-0.213
-408.325	-111.845	0.088	0.018
-407.311	314.812	-0.088	0.167
-406.296	800.000	0.122	-0.364
-405.282	-162.001	-0.188	0.009
-404.267	47.518	0.061	-0.057
-403.252	130.723	-0.099	0.127
-402.238	131.654	-0.066	0.085
-401.223	-200.000	0.004	0.057
-400.209	136.152	-0.119	0.155
-399.194	705.358	0.144	0.380
-398.179	-97.161	-0.406	0.106
-397.165	-11.874	0.168	0.110
-396.150	6.106	0.117	-0.087
-395.136	-200.000	0.011	0.186
-394.121	10.097	-0.285	0.217
-393.106	-200.000	-0.015	0.161
-392.092	306.343	0.068	-0.127
-391.077	35.045	0.039	0.034
-390.063	-4.953	0.136	0.094
-389.048	164.186	-0.124	0.174
-388.033	391.043	0.182	0.379
-387.019	-200.000	-0.012	-0.137
-386.004	-200.000	-0.020	0.124
-384.990	-25.679	-0.188	0.111
-383.975	-57.632	-0.202	-0.089
-382.960	800.000	0.082	0.302
-381.946	308.656	-0.149	0.278
-380.931	316.742	0.028	-0.054
-379.917	58.631	0.189	-0.185
-378.902	367.622	0.183	-0.369
-377.888	-200.000	0.069	0.582
-376.873	-116.591	-0.252	0.046
-375.858	16.652	0.157	-0.124
-374.844	736.121	-0.141	0.379
-373.829	-174.293	0.398	0.012
-372.815	-30.979	-0.065	-0.037
-371.800	-157.620	-0.233	-0.014
-370.785	324.994	0.083	-0.158
-369.771	800.000	-0.074	0.213
-368.756	-127.480	0.295	0.043
-367.742	-29.939	0.178	0.101
-366.727	800.000	0.082	-0.289
-365.712	621.587	-0.130	0.327
-364.698	-200.000	0.011	0.275
-363.683	103.051	-0.043	0.050
-362.669	161.214	-0.250	-0.349
-361.654	118.284	0.089	0.109
-360.639	-9.498	0.438	-0.292
-359.625	-200.000	0.056	-0.300
-358.610	-176.275	0.198	0.005
-357.596	-27.783	0.245	-0.142
-356.581	-36.549	-0.050	-0.027
-355.566	-186.550	-0.131	0.002
-354.552	-200.000	-0.008	-0.148
-353.537	-88.406	-0.093	0.028
-352.523	-13.890	-0.262	0.169
-351.508	-127.737	0.272	0.039
-350.493	-200.000	0.019	-0.257
-349.479	-101.894	0.233	0.056
-348.464	-200.000	-0.003	-0.133
-347.450	-58.898	0.268	-0.116
-346.435	800.000	-0.079	0.293
-345.420	-200.000	-0.043	0.222
-344.406	-29.776	-0.336	0.191
-343.391	54.633	0.105	0.101
-342.377	-200.000	0.014	-0.172
-341.362	492.626	-0.057	0.131
-340.348	800.000	0.024	0.074
-339.333	-200.000	0.024	0.469
-338.318	108.901	-0.223	0.267
-337.304	800.000	0.037	-0.127
-336.289	725.590	-0.065	-0.174
-335.275	-200.000	-0.036	0.166
-334.260	-200.000	-0.020	0.141
-333.245	48.341	0.107	0.100
-332.231	674.405	0.117	0.302
-331.216	-126.238	-0.099	-0.015
-330.202	-165.970	0.455	0.019
-329.187	419.970	0.148	-0.315
-328.172	-131.636	-0.283	0.037
-327.158	169.823	0.062	-0.088
-326.143	74.164	-0.230	-0.241
-325.129	-200.000	0.003	-0.138
-324.114	-73.059	-0.013	0.005
-323.099	-59.734	0.176	0.075
-322.085	221.051	0.175	-0.279
-321.070	-130.162	-0.173	0.024
-320.056	-200.000	-0.007	0.064
-319.041	-200.000	-0.087	0.415
-318.026	-170.136	0.280	0.010
-317.012	-67.367	0.136	0.053
-315.997	-148.244	0.164	0.013
-314.983	-121.728	-0.176	-0.029
-313.968	-131.812	-0.068	0.009
-312.953	-65.267	-0.080	-0.032
-311.939	177.056	0.310	0.449
-310.924	246.901	0.048	0.080
-309.910	-38.343	-0.088	-0.047
-308.895	-200.000	-0.023	-0.135
-307.880	157.141	-0.128	-0.176
-306.866	-35.677	-0.288	-0.156
-305.851	-200.000	-0.018	-0.338
-304.837	465.197	0.073	-0.162
-303.822	303.145	0.021	0.039
-302.807	215.446	0.105	-0.165
-301.793	-133.495	-0.067	0.008
-300.778	87.002	-0.076	0.084
-299.764	-172.629	0.269	0.008
-298.749	17.346	-0.027	0.021
-297.735	-200.000	-0.006	0.072
-296.720	79.154	0.056	0.060
-295.705	-119.865	-0.155	0.027
-294.691	-200.000	0.008	0.329
-293.676	-33.090	-0.166	0.092
-292.662	94.624	-0.200	0.226
-291.647	-27.314	0.089	-0.051
-290.632	-94.408	-0.073	-0.020
-289.618	170.211	-0.124	-0.176
-288.603	800.000	0.029	-0.098
-287.589	-150.612	0.238	0.018
-286.574	39.113	0.139	-0.124
-285.559	42.302	-0.044	0.039
-284.545	-200.000	0.008	0.344
-283.530	-178.500	-0.217	0.005
-282.516	126.539	0.188	-0.237
-281.501	800.000	-0.034	-0.100
-280.486	-60.665	-0.419	0.177
-279.472	20.567	-0.136	-0.110
-278.457	-141.318	0.121	0.012
-277.443	-187.043	-0.257	0.004
-276.428	-39.436	-0.209	0.109
-275.413	-7.342	0.191	-0.129
-274.399	-200.000	0.078	0.360
-273.384	800.000	0.022	0.075
-272.370	-2.560	-0.252	0.175
-271.355	12.826	-0.334	0.257
-270.340	201.753	0.061	0.093
-269.326	-164.007	0.036	-0.002
-268.311	728.293	-0.098	-0.260
-267.297	192.595	0.184	0.277
-266.282	16.353	-0.112	0.088
-265.267	-99.053	-0.395	0.099
-264.253	142.647	0.061	-0.081
-263.238	-200.000	0.012	-0.275
-262.224	109.146	-0.185	0.220
-261.209	40.389	0.237	0.212
-260.195	-10.535	0.185	0.122
-259.180	-1.551	0.339	0.238
-258.165	64.466	0.082	-0.083
-257.151	-200.000	0.010	-0.329
-256.136	11.950	0.206	-0.158
-255.122	400.526	0.048	0.101
-254.107	-157.954	-0.194	0.011
-253.092	800.000	0.001	-0.003
-252.078	-111.660	0.308	0.062
-251.063	-132.330	-0.181	-0.023
-250.049	-12.723	-0.050	0.033
-249.034	-200.000	0.015	-0.108
-248.019	-60.743	0.126	0.053
-247.005	-9.983	0.225	-0.149
-245.990	89.134	0.147	0.163
-244.976	-82.472	-0.329	0.106
-243.961	-70.526	-0.167	0.063
-242.946	-200.000	-0.026	-0.202
-241.932	91.423	-0.025	-0.028
-240.917	800.000	0.047	-0.145
-239.903	-110.856	0.063	-0.013
-238.888	-157.880	0.146	0.009
-237.873	-96.528	-0.246	0.065
-236.859	101.091	-0.106	0.122
-235.844	-200.000	0.014	-0.202
-234.830	584.939	0.137	-0.335
-233.815	-173.593	0.326	-0.010
-232.800	313.026	-0.026	0.049
-231.786	-200.000	0.011	0.237
-230.771	3.996	-0.208	0.151
-229.757	-101.128	0.118	-0.029
-228.742	-127.770	-0.189	-0.027
-227.727	194.462	-0.212	0.319
-226.713	-5.267	0.096	-0.066
-225.698	492.787	-0.059	-0.134
-224.684	-84.006	0.077	-0.024
-223.669	-200.000	0.007	-0.203
-222.655	-200.000	0.043	0.558
-221.640	74.307	-0.091	-0.095
-220.625	-0.606	0.034	-0.024
-219.611	-79.897	-0.171	-0.057
-218.596	-200.000	-0.019	0.135
-217.582	-200.000	0.075	-0.505
-216.567	102.832	0.087	-0.101
-215.552	388.579	-0.091	0.188
-214.538	-200.000	0.003	0.402
-213.523	85.932	-0.082	-0.089
-212.509	-19.370	0.098	-0.060
-211.494	800.000	0.010	-0.039
-210.479	-64.520	-0.161	0.065
-209.465	-83.634	-0.572	-0.181
-208.450	-128.678	0.138	-0.019
-207.436	800.000	0.088	0.249
-206.421	-57.364	0.242	-0.106
-205.406	739.130	0.107	-0.285
-204.392	0.632	-0.182	0.129
-203.377	158.952	-0.135	-0.187
-202.363	-129.434	0.222	-0.030
-201.348	-69.916	-0.392	-0.148
-200.333	800.000	0.017	-0.054
-199.319	800.000	0.110	-0.427
-198.304	-10.092	0.077	0.051
-197.290	575.300	0.092	0.222
-196.275	-116.000	-0.183	0.034
-195.260	-136.732	-0.297	-0.034
-194.246	-146.090	0.201	0.018
-193.231	-108.707	0.157	-0.033
-192.217	-148.994	-0.086	-0.007
-191.202	219.820	0.054	0.086
-190.187	209.177	0.166	0.257
-189.173	800.000	-0.072	0.297
-188.158	79.708	0.117	0.125
-187.144	-30.010	0.166	-0.094
-186.129	-200.000	0.035	0.185
-185.114	-28.889	-0.270	0.154
-184.100	-200.000	-0.047	-0.582
-183.085	-57.987	0.266	-0.115
-182.071	679.249	-0.102	-0.263
-181.056	-65.904	-0.330	-0.131
-180.042	50.903	-0.172	0.161
-179.027	103.556	0.237	0.276
-178.012	165.215	0.167	0.234
-176.998	-40.173	0.167	-0.086
-175.983	-111.213	-0.486	0.099
-174.969	-9.920	-0.163	0.108
-173.954	91.193	0.034	-0.038
-172.939	4.885	-0.046	0.034
-171.925	800.000	-0.039	-0.139
-170.910	187.287	-0.141	0.208
-169.896	-200.000	0.044	0.262
-168.881	251.457	-0.085	0.143
-167.866	800.000	-0.033	0.115
-166.852	54.874	0.160	-0.153
-165.837	322.056	-0.154	-0.291
-164.823	-115.781	0.039	-0.007
-163.808	800.000	0.072	-0.304
-162.793	57.122	0.047	0.046
-161.779	63.843	0.071	-0.071
-160.764	800.000	-0.063	-0.222
-159.750	-200.000	0.061	0.281
-158.735	800.000	0.047	0.156
-157.720	376.364	0.045	-0.090
-156.706	800.000	0.066	-0.276
-155.691	-79.702	0.283	0.094
-154.677	-1.323	-0.258	0.180
-153.662	-9.811	-0.200	-0.132
-152.647	-158.827	0.398	-0.022
-151.633	800.000	-0.032	0.097
-150.618	158.008	-0.052	0.072
-149.604	800.000	0.034	0.097
-148.589	455.422	0.180	0.395
-147.574	-114.094	-0.544	-0.104
-146.560	261.751	0.019	-0.033
-145.545	280.347	-0.064	-0.113
-144.531	43.893	-0.205	-0.186
-143.516	-61.908	-0.400	0.166
-142.502	-79.990	-0.109	0.036
-141.487	-200.000	0.097	-0.543
-140.472	414.861	-0.157	-0.331
-139.458	-173.010	0.351	-0.011
-138.443	240.542	-0.157	0.260
-137.429	317.641	-0.026	-0.048
-136.414	-49.215	0.050	-0.024
-135.399	800.000	0.009	0.035
-134.385	632.075	0.131	-0.328
-133.370	-37.338	-0.147	0.077
-132.356	-73.184	0.153	0.055
-131.341	592.666	-0.108	0.265
-130.326	172.011	-0.179	0.255
-129.312	4.600	-0.069	0.050
-128.297	447.277	0.061	0.133
-127.283	69.220	-0.043	0.043
-126.268	-122.702	0.208	-0.033
-125.253	149.092	0.102	0.136
-124.239	0.577	0.161	-0.114
-123.224	-192.857	-0.061	0.001
-122.210	-200.000	0.001	-0.053
-121.195	800.000	0.106	-0.439
