DTS Sentinel unit serial number:	SN413079Multiplexer serial number:	ORYXHardware model number:	OX4-SRSoftware version number:	ORYX F/W v4.00 Oryx Data Collector v3.7.2.0data status	okinstallation	princeton_trtdifferential loss correction	single-endedforward channel	channel 1reverse channel	N/Adate	2019/09/16time	23:14:35forward acquisition time	60.00reverse acquisition time	0.00gamma	496.2192k internal	0.2326k external	0.2326temperature offset calibration	0.9963default loss term (dB/km)	0.3790temperature slope calibration	1.0000multiplexer offset coefficient	1.0000multiplexer slope coefficient	1.0000fibre end	0.00T internal ref (°C)	30.12T ext. ref 1 (°C)	0.10T ext. ref 2 (°C)	23.77length (m)	temperature (°C)	Stokes	anti-Stokes-747.200	150.845	-0.180	0.247
-746.185	-27.875	-0.147	0.086
-745.171	800.000	0.031	0.097
-744.156	3.761	-0.110	0.081
-743.142	-58.142	0.299	-0.132
-742.127	-34.037	-0.438	-0.243
-741.112	54.651	0.103	0.100
-740.098	-65.622	-0.271	0.110
-739.083	-130.067	-0.195	0.027
-738.069	549.293	-0.040	-0.097
-737.054	126.108	-0.138	0.176
-736.039	26.560	-0.305	-0.258
-735.025	-200.000	0.074	0.334
-734.010	4.375	-0.447	-0.330
-732.996	26.897	-0.198	-0.167
-731.981	-144.339	-0.341	0.032
-730.966	-47.049	-0.166	0.082
-729.952	231.630	-0.170	-0.281
-728.937	-200.000	0.005	-0.165
-727.923	545.995	-0.067	-0.161
-726.908	800.000	-0.097	-0.301
-725.894	-200.000	0.014	-0.114
-724.879	82.770	-0.112	-0.123
-723.864	316.902	-0.172	0.328
-722.850	800.000	-0.051	0.147
-721.835	182.799	-0.179	-0.266
-720.821	-15.493	0.238	-0.153
-719.806	-160.801	0.199	-0.011
-718.791	579.991	0.055	-0.136
-717.777	-134.302	0.228	-0.028
-716.762	31.670	-0.162	-0.140
-715.748	800.000	0.074	0.239
-714.733	337.964	0.087	-0.171
-713.718	56.741	-0.258	-0.253
-712.704	-200.000	0.008	-0.176
-711.689	800.000	0.074	-0.299
-710.675	-200.000	-0.006	-0.323
-709.660	800.000	0.062	0.215
-708.645	423.122	0.036	0.079
-707.631	-138.990	0.323	0.035
-706.616	92.711	0.190	-0.216
-705.602	89.760	-0.094	0.106
-704.587	-31.492	-0.175	0.099
-703.572	7.380	0.190	0.143
-702.558	-70.806	-0.103	-0.039
-701.543	-200.000	-0.063	-0.309
-700.529	29.308	-0.081	0.069
-699.514	-146.046	-0.179	-0.016
-698.499	173.791	0.077	0.111
-697.485	42.197	0.075	-0.069
-696.470	-40.646	0.259	0.135
-695.456	254.480	0.047	0.081
-694.441	-200.000	0.065	0.419
-693.426	15.395	0.084	0.066
-692.412	-200.000	-0.047	-0.217
-691.397	-25.024	-0.056	0.033
-690.383	-91.538	-0.283	0.081
-689.368	-110.224	0.117	-0.025
-688.354	-200.000	-0.007	-0.191
-687.339	-113.161	-0.263	0.052
-686.324	-136.111	-0.053	0.006
-685.310	190.978	0.114	-0.173
-684.295	-69.849	0.163	-0.063
-683.281	2.703	0.275	0.200
-682.266	253.778	0.025	0.043
-681.251	-117.187	0.334	-0.061
-680.237	-200.000	0.026	-0.139
-679.222	800.000	0.080	-0.238
-678.208	215.889	-0.174	0.278
-677.193	-200.000	-0.059	-0.305
-676.178	19.557	-0.177	-0.143
-675.164	109.259	-0.184	-0.222
-674.149	-31.463	-0.410	-0.232
-673.135	38.828	-0.022	-0.020
-672.120	121.199	-0.212	0.266
-671.105	52.151	0.216	0.207
-670.091	-145.140	0.281	0.026
-669.076	57.040	0.062	-0.061
-668.062	188.657	-0.184	-0.277
-667.047	-63.419	0.518	-0.214
-666.032	800.000	-0.030	0.114
-665.018	800.000	-0.032	0.092
-664.003	-65.129	-0.243	-0.099
-662.989	14.324	0.258	-0.202
-661.974	800.000	-0.047	-0.138
-660.959	-45.445	-0.387	0.193
-659.945	-70.150	0.087	0.033
-658.930	-94.377	-0.170	0.047
-657.916	-200.000	-0.030	-0.152
-656.901	-194.869	0.103	-0.001
-655.886	31.035	-0.140	0.121
-654.872	-44.250	0.398	-0.200
-653.857	-16.990	0.098	0.062
-652.843	-134.517	-0.067	0.008
-651.828	-49.970	-0.232	-0.111
-650.814	-119.431	-0.201	-0.035
-649.799	-147.000	0.224	0.019
-648.784	-200.000	0.039	0.433
-647.770	283.765	0.115	0.208
-646.755	-31.659	0.443	0.250
-645.741	251.010	0.189	-0.323
-644.726	-200.000	-0.023	0.194
-643.711	-146.137	-0.228	0.020
-642.697	-41.213	-0.530	-0.275
-641.682	-140.190	0.133	-0.014
-640.668	-200.000	-0.093	-0.491
-639.653	51.144	-0.270	0.257
-638.638	167.805	0.093	-0.133
-637.624	-13.245	0.190	0.124
-636.609	-84.295	0.247	-0.078
-635.595	-94.562	0.349	0.095
-634.580	129.755	0.146	-0.188
-633.565	348.058	-0.075	-0.149
-632.551	800.000	0.108	-0.449
-631.536	-115.533	-0.306	0.058
-630.522	85.024	-0.078	-0.086
-629.507	-43.605	-0.116	-0.059
-628.492	-54.856	-0.278	0.126
-627.478	-0.474	-0.025	0.017
-626.463	-104.892	-0.261	0.060
-625.449	-11.518	-0.045	-0.029
-624.434	-110.662	0.057	0.012
-623.419	-39.434	0.380	0.200
-622.405	-117.846	-0.260	-0.047
-621.390	-98.077	-0.156	-0.040
-620.376	800.000	-0.055	-0.172
-619.361	539.739	0.073	-0.175
-618.346	-34.059	0.179	-0.099
-617.332	-18.080	0.107	-0.067
-616.317	84.864	0.155	0.170
-615.303	-8.744	-0.197	-0.133
-614.288	75.952	-0.090	0.095
-613.273	-21.281	-0.030	-0.019
-612.259	629.540	0.112	0.284
-611.244	-98.619	0.167	0.043
-610.230	64.857	0.183	-0.186
-609.215	32.397	-0.097	0.084
-608.201	-200.000	-0.020	-0.257
-607.186	-200.000	0.019	-0.190
-606.171	293.189	0.058	0.106
-605.157	43.496	-0.282	-0.258
-604.142	206.220	-0.206	0.321
-603.128	110.167	0.173	-0.209
-602.113	-200.000	0.067	0.316
-601.098	-121.689	0.134	-0.022
-600.084	685.770	-0.077	-0.201
-599.069	-57.952	-0.324	0.142
-598.055	-131.160	0.115	0.015
-597.040	-200.000	-0.016	0.188
-596.025	135.830	0.033	0.043
-595.011	-85.753	0.088	0.027
-593.996	170.854	0.048	0.068
-592.982	800.000	0.032	0.091
-591.967	-2.806	0.154	-0.108
-590.952	-36.055	-0.082	-0.044
-589.938	49.352	0.185	0.175
-588.923	-134.959	-0.195	-0.024
-587.909	65.220	-0.208	0.211
-586.894	800.000	0.063	0.213
-585.879	237.293	-0.072	-0.119
-584.865	-200.000	0.012	0.192
-583.850	800.000	-0.041	-0.144
-582.836	800.000	-0.047	0.145
-581.821	140.398	-0.037	-0.049
-580.806	202.566	0.138	-0.213
-579.792	191.690	0.010	-0.015
-578.777	-200.000	-0.002	0.113
-577.763	98.911	-0.127	0.147
-576.748	-200.000	-0.015	-0.125
-575.733	324.737	0.079	-0.152
-574.719	-16.522	-0.161	-0.102
-573.704	-37.514	0.188	-0.100
-572.690	-42.731	0.268	-0.137
-571.675	-200.000	-0.017	0.223
-570.661	460.370	-0.059	-0.133
-569.646	296.773	0.055	-0.100
-568.631	-200.000	0.003	0.138
-567.617	134.891	0.072	-0.093
-566.602	385.402	-0.022	-0.045
-565.588	-151.609	-0.318	-0.024
-564.573	-59.024	-0.077	0.033
-563.558	800.000	-0.021	0.068
-562.544	-65.971	-0.253	-0.101
-561.529	-102.604	0.253	-0.061
-560.515	197.006	-0.136	0.208
-559.500	196.098	-0.232	-0.353
-558.485	-200.000	0.024	-0.348
-557.471	-200.000	0.009	0.248
-556.456	-32.571	0.046	0.026
-555.442	800.000	0.103	-0.387
-554.427	-200.000	-0.031	0.398
-553.412	-140.588	0.251	0.026
-552.398	-9.567	0.498	-0.332
-551.383	-106.898	-0.133	0.029
-550.369	193.913	-0.074	0.112
-549.354	-200.000	-0.037	0.194
-548.339	800.000	0.097	0.290
-547.325	-76.691	0.221	0.078
-546.310	188.463	-0.222	-0.333
-545.296	432.735	-0.031	-0.067
-544.281	-150.428	-0.379	-0.029
-543.266	102.941	-0.090	-0.105
-542.252	180.651	-0.147	0.217
-541.237	-90.701	-0.171	-0.049
-540.223	-200.000	-0.020	0.128
-539.208	-119.216	0.144	-0.025
-538.193	355.501	-0.088	-0.174
-537.179	-19.333	-0.235	-0.146
-536.164	-142.637	0.097	0.009
-535.150	800.000	-0.038	0.159
-534.135	519.313	-0.090	0.212
-533.121	173.605	-0.018	-0.026
-532.106	-46.025	0.177	-0.088
-531.091	800.000	-0.057	-0.183
-530.077	800.000	-0.035	0.125
-529.062	-66.393	-0.360	0.143
-528.048	-138.142	-0.017	0.002
-527.033	214.758	0.050	0.079
-526.018	388.275	0.041	0.085
-525.004	-134.306	0.196	-0.024
-523.989	-103.848	0.448	-0.105
-522.975	68.351	0.139	0.142
-521.960	219.604	-0.066	-0.106
-520.945	-52.692	0.146	-0.067
-519.931	-128.817	0.237	-0.033
-518.916	800.000	-0.057	-0.162
-517.902	-15.899	-0.150	0.095
-516.887	6.146	-0.178	0.132
-515.872	-85.631	0.158	0.049
-514.858	-25.773	0.113	-0.066
-513.843	-33.019	0.213	-0.118
-512.829	-10.761	-0.314	0.207
-511.814	209.241	-0.126	-0.198
-510.799	4.390	-0.060	-0.044
-509.785	-200.000	-0.041	-0.245
-508.770	-200.000	-0.014	-0.134
-507.756	-76.803	0.204	-0.071
-506.741	800.000	0.177	0.560
-505.726	-143.828	-0.157	0.015
-504.712	-64.690	-0.099	0.040
-503.697	277.041	-0.107	-0.191
-502.683	176.023	-0.103	-0.150
-501.668	-81.411	0.345	0.114
-500.653	-11.015	-0.145	0.096
-499.639	-63.221	-0.218	-0.090
-498.624	782.537	0.064	0.174
-497.610	143.220	0.172	0.229
-496.595	255.956	-0.060	0.103
-495.581	800.000	-0.158	0.535
-494.566	-30.367	-0.283	0.160
-493.551	-38.439	-0.029	-0.015
-492.537	-93.749	-0.293	-0.081
-491.522	425.216	-0.063	0.135
-490.508	-81.765	-0.203	-0.066
-489.493	-32.828	0.271	0.150
-488.478	19.998	-0.033	0.027
-487.464	55.244	-0.229	-0.221
-486.449	43.217	-0.277	0.253
-485.435	583.023	-0.072	0.176
-484.420	100.578	-0.083	-0.096
-483.405	-115.540	-0.368	0.069
-482.391	-112.667	0.190	0.038
-481.376	800.000	-0.006	0.019
-480.362	-134.145	0.224	0.028
-479.347	391.962	-0.075	0.155
-478.332	-66.071	0.103	-0.041
-477.318	47.518	-0.168	0.157
-476.303	-171.780	0.297	-0.010
-475.289	19.982	0.174	-0.140
-474.274	-200.000	-0.050	0.258
-473.259	74.468	-0.192	0.201
-472.245	382.292	-0.053	-0.110
-471.230	800.000	0.052	0.163
-470.216	-200.000	-0.008	-0.125
-469.201	-152.126	-0.162	-0.012
-468.186	48.465	0.134	0.125
-467.172	-200.000	0.009	-0.287
-466.157	27.272	0.128	0.107
-465.143	-160.741	0.231	-0.012
-464.128	140.139	0.209	-0.275
-463.113	30.353	0.001	0.001
-462.099	800.000	0.084	-0.335
-461.084	-14.511	-0.143	0.092
-460.070	-200.000	-0.002	-0.014
-459.055	23.604	-0.267	-0.219
-458.040	-124.826	-0.080	-0.012
-457.026	-200.000	0.017	0.390
-456.011	235.489	-0.170	0.280
-454.997	76.731	0.011	-0.012
-453.982	62.224	-0.152	0.151
-452.968	-44.303	-0.198	0.099
-451.953	-27.601	-0.364	-0.211
-450.938	8.169	-0.308	-0.231
-449.924	800.000	0.110	-0.353
-448.909	800.000	-0.051	-0.203
-447.895	268.153	-0.200	-0.349
-446.880	57.115	-0.328	-0.319
-445.865	-200.000	-0.023	0.215
-444.851	203.833	-0.097	0.150
-443.836	399.093	-0.146	-0.304
-442.822	-27.293	-0.242	0.141
-441.807	-79.826	0.235	-0.079
-440.792	-200.000	0.018	0.295
-439.778	-200.000	-0.006	0.197
-438.763	-53.635	0.131	-0.060
-437.749	800.000	0.117	-0.324
-436.734	74.742	-0.122	-0.127
-435.719	-200.000	0.006	0.152
-434.705	-200.000	0.009	0.139
-433.690	-115.068	0.292	-0.055
-432.676	800.000	-0.102	-0.294
-431.661	-136.487	-0.352	-0.041
-430.646	-200.000	-0.020	-0.362
-429.632	-57.015	-0.334	0.147
-428.617	-200.000	0.035	-0.322
-427.603	-200.000	0.008	-0.074
-426.588	-59.129	0.123	-0.053
-425.573	-200.000	-0.024	-0.152
-424.559	-132.495	-0.166	-0.021
-423.544	-200.000	0.010	0.401
-422.530	125.247	0.129	0.162
-421.515	-129.952	-0.115	-0.016
-420.500	451.113	-0.027	0.060
-419.486	222.951	-0.099	-0.159
-418.471	-38.053	0.206	-0.109
-417.457	21.663	0.230	0.186
-416.442	-1.975	0.544	0.381
-415.428	298.822	-0.097	-0.178
-414.413	-157.991	-0.450	0.026
-413.398	207.919	0.043	0.066
-412.384	-52.023	0.211	0.098
-411.369	370.225	-0.072	-0.144
-410.355	119.752	-0.087	0.107
-409.340	79.971	0.026	0.027
-408.325	-96.405	-0.070	0.018
-407.311	2.036	-0.375	0.270
-406.296	39.752	0.094	-0.084
-405.282	72.180	0.260	0.270
-404.267	403.148	-0.145	-0.304
-403.252	800.000	0.090	0.388
-402.238	106.751	-0.045	0.053
-401.223	800.000	-0.011	0.038
-400.209	-101.991	0.289	0.069
-399.194	-112.389	0.303	-0.060
-398.179	800.000	0.093	0.370
-397.165	260.573	-0.126	0.217
-396.150	-155.830	0.557	-0.035
-395.136	-44.673	0.270	0.134
-394.121	171.138	0.071	0.101
-393.106	182.982	-0.116	-0.171
-392.092	113.043	-0.134	-0.162
-391.077	-200.000	-0.013	-0.145
-390.063	800.000	-0.142	0.486
-389.048	138.742	-0.094	-0.123
-388.033	34.957	0.057	-0.050
-387.019	-200.000	0.031	-0.265
-386.004	-131.544	0.164	0.022
-384.990	37.160	-0.247	-0.217
-383.975	10.220	0.188	0.143
-382.960	44.765	0.229	0.209
-381.946	-68.237	-0.236	-0.091
-380.931	87.625	-0.017	-0.019
-379.917	127.532	0.104	0.131
-378.902	-126.704	-0.133	0.020
-377.888	55.124	-0.118	-0.113
-376.873	83.437	0.148	0.160
-375.858	152.596	-0.158	0.215
-374.844	30.540	0.173	0.147
-373.829	-6.563	0.033	-0.022
-372.815	273.002	0.062	0.108
-371.800	-200.000	0.004	0.069
-370.785	266.086	-0.092	-0.159
-369.771	-200.000	0.015	-0.256
-368.756	-18.909	0.121	0.075
-367.742	227.546	-0.149	0.241
-366.727	32.605	0.223	0.191
-365.712	172.680	-0.114	-0.163
-364.698	165.873	-0.250	0.352
-363.683	-26.860	-0.210	0.122
-362.669	-18.404	-0.139	-0.086
-361.654	199.358	0.016	0.025
-360.639	88.715	0.240	-0.266
-359.625	-10.686	-0.064	0.042
-358.610	695.443	-0.101	-0.263
-357.596	-88.342	0.190	0.056
-356.581	-100.300	0.109	-0.027
-355.566	-34.513	0.122	-0.066
-354.552	-115.161	0.112	-0.021
-353.537	-88.399	0.137	0.041
-352.523	-35.131	-0.109	0.059
-351.508	-67.215	-0.031	-0.012
-350.493	19.670	-0.102	0.082
-349.479	281.784	-0.163	-0.290
-348.464	-142.485	0.158	0.015
-347.450	800.000	0.089	0.303
-346.435	-140.813	-0.122	-0.013
-345.420	690.537	0.086	-0.222
-344.406	213.552	0.045	-0.071
-343.391	-110.041	-0.251	0.052
-342.377	800.000	0.122	0.501
-341.362	800.000	0.044	0.165
-340.348	272.200	-0.101	0.177
-339.333	14.184	-0.279	-0.216
-338.318	479.309	0.008	0.017
-337.304	-177.815	-0.160	0.004
-336.289	-200.000	-0.013	0.263
-335.275	-105.985	-0.160	-0.036
-334.260	4.525	0.319	0.233
-333.245	92.147	-0.143	-0.160
-332.231	-85.821	-0.192	0.059
-331.216	-70.301	-0.073	0.028
-330.202	-75.742	-0.271	-0.095
-329.187	-137.365	0.164	-0.018
-328.172	-200.000	-0.008	-0.235
-327.158	-181.376	0.402	0.008
-326.143	800.000	0.019	0.070
-325.129	-37.844	0.270	0.142
-324.114	-110.891	-0.285	-0.058
-323.099	144.992	-0.064	-0.085
-322.085	-84.482	0.415	0.130
-321.070	-129.208	0.205	-0.028
-320.056	-133.495	0.063	0.008
-319.041	-31.836	-0.183	-0.102
-318.026	800.000	-0.046	-0.188
-317.012	221.591	-0.205	-0.328
-315.997	453.805	-0.084	-0.185
-314.983	-175.218	0.151	0.004
-313.968	-125.611	0.425	-0.064
-312.953	-113.904	-0.090	0.017
-311.939	-90.040	-0.269	-0.078
-310.924	-144.275	-0.234	0.022
-309.910	132.460	0.108	0.138
-308.895	253.664	0.219	0.371
-307.880	-11.335	0.183	-0.120
-306.866	-80.692	0.327	0.108
-305.851	-5.926	-0.306	0.208
-304.837	-113.375	-0.056	0.011
-303.822	800.000	-0.119	-0.388
-302.807	47.137	0.211	-0.194
-301.793	220.936	0.017	0.027
-300.778	-33.969	0.296	0.162
-299.764	-34.842	-0.425	-0.230
-298.749	-146.171	-0.160	0.014
-297.735	-152.568	-0.422	0.030
-296.720	-104.426	-0.310	-0.071
-295.705	94.892	0.185	0.208
-294.691	296.971	0.077	-0.141
-293.676	90.344	0.153	0.170
-292.662	-200.000	0.031	0.152
-291.647	441.708	0.097	0.211
-290.632	203.392	0.111	-0.170
-289.618	-18.581	0.066	-0.041
-288.603	-112.133	0.138	-0.028
-287.589	331.361	-0.109	-0.208
-286.574	-200.000	0.028	-0.203
-285.559	-200.000	-0.011	0.217
-284.545	479.330	-0.064	0.143
-283.530	-200.000	0.036	-0.456
-282.516	800.000	0.112	0.306
-281.501	77.587	0.130	-0.137
-280.486	261.952	-0.316	-0.542
-279.472	-59.481	0.269	-0.114
-278.457	-200.000	0.010	0.134
-277.443	65.953	-0.101	0.101
-276.428	131.051	0.041	-0.052
-275.413	-200.000	-0.043	0.288
-274.399	632.262	0.056	-0.141
-273.384	33.488	-0.021	0.018
-272.370	196.887	-0.173	-0.262
-271.355	177.037	-0.162	0.233
-270.340	213.001	-0.108	0.168
-269.326	158.678	-0.158	-0.218
-268.311	-145.829	-0.339	-0.030
-267.297	-76.106	-0.069	-0.024
-266.282	-8.944	0.272	0.180
-265.267	-113.174	0.063	-0.012
-264.253	800.000	0.009	-0.041
-263.238	-46.633	0.288	-0.140
-262.224	-168.337	-0.297	-0.011
-261.209	-136.587	0.051	0.006
-260.195	6.572	-0.248	-0.182
-259.180	-39.471	0.184	-0.095
-258.165	-200.000	0.049	-0.247
-257.151	62.174	0.200	-0.198
-256.136	-200.000	-0.049	0.422
-255.122	-160.070	-0.219	0.012
-254.107	457.234	-0.018	-0.039
-253.092	800.000	-0.057	-0.238
-252.078	-121.873	0.317	-0.052
-251.063	-29.530	-0.241	-0.136
-250.049	596.183	-0.166	-0.408
-249.034	162.180	0.112	0.156
-248.019	-105.744	-0.173	-0.039
-247.005	-95.179	0.315	0.084
-245.990	313.939	0.030	0.056
-244.976	-69.893	0.161	-0.061
-243.961	-33.980	-0.322	-0.175
-242.946	24.016	0.130	-0.106
-241.932	-200.000	0.015	0.094
-240.917	59.762	-0.150	-0.147
-239.903	-165.938	0.333	0.014
-238.888	-96.174	-0.193	0.051
-237.873	-200.000	-0.022	-0.134
-236.859	629.210	-0.125	-0.312
-235.844	-112.796	0.118	0.023
-234.830	-200.000	0.037	0.223
-233.815	800.000	0.029	0.107
-232.800	-123.362	-0.133	0.021
-231.786	-85.411	-0.011	0.004
-230.771	288.499	0.112	0.200
-229.757	-154.295	0.108	-0.007
-228.742	-200.000	-0.005	0.146
-227.727	-200.000	-0.006	0.245
-226.713	223.346	-0.136	0.217
-225.698	-200.000	0.009	0.087
-224.684	70.568	-0.100	0.102
-223.669	-200.000	0.007	0.215
-222.655	758.919	-0.105	-0.281
-221.640	800.000	-0.015	-0.051
-220.625	-146.830	-0.386	0.033
-219.611	30.230	-0.081	0.068
-218.596	-72.490	0.216	-0.079
-217.582	-200.000	0.004	-0.293
-216.567	78.263	-0.157	-0.165
-215.552	148.984	0.053	0.070
-214.538	-200.000	-0.046	-0.218
-213.523	339.023	0.045	0.087
-212.509	323.860	0.207	-0.390
-211.494	800.000	-0.011	0.045
-210.479	800.000	-0.030	0.114
-209.465	35.920	0.015	-0.013
-208.450	800.000	0.066	0.239
-207.436	11.956	-0.094	0.071
-206.421	-154.555	0.519	-0.034
-205.406	-97.778	-0.119	-0.030
-204.392	-65.401	0.267	0.106
-203.377	-200.000	-0.011	0.193
-202.363	91.942	-0.233	0.259
-201.348	800.000	-0.054	-0.189
-200.333	-135.847	0.130	-0.015
-199.319	-102.337	-0.181	0.043
-198.304	-200.000	0.011	0.146
-197.290	-200.000	-0.040	-0.273
-196.275	227.673	0.077	-0.124
-195.260	-200.000	-0.019	-0.211
-194.246	-58.618	-0.203	-0.087
-193.231	-200.000	-0.004	0.017
-192.217	-200.000	0.018	0.297
-191.202	162.613	0.306	0.423
-190.187	-200.000	0.016	0.135
-189.173	-96.257	0.252	-0.066
-188.158	-200.000	0.024	0.309
-187.144	21.249	0.074	-0.059
-186.129	311.242	0.075	0.138
-185.114	225.665	0.114	0.182
-184.100	-133.947	-0.169	0.021
-183.085	-46.105	0.125	-0.061
-182.071	210.416	-0.284	-0.440
-181.056	75.629	0.336	-0.350
-180.042	82.084	0.120	0.128
-179.027	-145.654	-0.095	-0.008
-178.012	-11.869	0.200	-0.129
-176.998	33.864	0.160	-0.138
-175.983	-200.000	0.009	0.070
-174.969	138.987	0.178	0.231
-173.954	5.075	0.361	-0.262
-172.939	-105.531	0.234	0.052
-171.925	103.035	-0.133	-0.153
-170.910	2.602	-0.158	-0.113
-169.896	-63.571	0.331	0.134
-168.881	77.033	-0.097	-0.101
-167.866	-200.000	0.033	-0.168
-166.852	-108.305	0.257	0.055
-165.837	800.000	-0.018	-0.059
-164.823	-200.000	0.013	0.160
-163.808	-191.786	0.177	0.002
-162.793	-4.464	0.050	-0.034
-161.779	310.188	-0.123	0.228
-160.764	92.430	0.106	0.118
-159.750	-175.617	0.158	-0.004
-158.735	-162.404	-0.279	0.014
-157.720	427.737	-0.041	-0.087
-156.706	736.067	-0.006	-0.016
-155.691	-63.423	0.028	-0.011
-154.677	223.808	0.175	-0.278
-153.662	33.869	0.167	0.143
-152.647	-142.660	0.259	-0.025
-151.633	207.431	0.124	-0.191
-150.618	-200.000	-0.001	0.272
-149.604	165.670	-0.190	-0.265
-148.589	800.000	0.025	0.092
-147.574	800.000	0.047	0.163
-146.560	212.033	0.128	-0.199
-145.545	-200.000	-0.050	0.416
-144.531	192.223	-0.055	0.082
-143.516	-40.181	-0.172	-0.088
-142.502	-200.000	0.013	-0.136
-141.487	-17.548	-0.199	0.123
-140.472	-15.004	0.315	0.199
-139.458	-90.412	0.033	-0.010
-138.443	36.929	0.206	0.180
-137.429	-62.075	0.232	-0.096
-136.414	-170.260	0.048	-0.002
-135.399	800.000	0.030	0.096
-134.385	-170.898	-0.162	0.005
-133.370	-126.957	-0.217	-0.031
-132.356	359.625	0.206	0.406
-131.341	-200.000	0.005	0.052
-130.326	695.653	-0.159	0.410
-129.312	-200.000	0.014	0.260
-128.297	753.355	-0.067	-0.179
-127.283	-102.706	-0.031	-0.007
-126.268	-122.268	0.224	0.036
-125.253	800.000	0.104	-0.379
-124.239	-200.000	-0.010	-0.103
-123.224	489.086	0.114	-0.257
-122.210	-200.000	0.073	-0.575
