DTS Sentinel unit serial number:	SN413079Multiplexer serial number:	ORYXHardware model number:	OX4-SRSoftware version number:	ORYX F/W v4.00 Oryx Data Collector v3.7.2.0data status	okinstallation	princeton_trtdifferential loss correction	single-endedforward channel	channel 1reverse channel	N/Adate	2019/09/15time	00:58:35forward acquisition time	60.00reverse acquisition time	0.00gamma	496.2192k internal	0.2321k external	0.2321temperature offset calibration	0.9985default loss term (dB/km)	0.3790temperature slope calibration	1.0000multiplexer offset coefficient	1.0000multiplexer slope coefficient	1.0000fibre end	0.00T internal ref (°C)	32.02T ext. ref 1 (°C)	4.53T ext. ref 2 (°C)	26.89length (m)	temperature (°C)	Stokes	anti-Stokes-747.200	-92.129	-0.151	0.043
-746.185	-200.000	-0.027	0.280
-745.171	-200.000	0.001	-0.102
-744.156	-71.857	0.213	0.080
-743.142	0.498	-0.087	0.063
-742.127	800.000	0.072	0.259
-741.112	800.000	0.049	0.180
-740.098	75.581	-0.089	0.095
-739.083	-39.709	-0.315	0.166
-738.069	800.000	0.064	0.191
-737.054	800.000	0.112	0.367
-736.039	800.000	-0.043	-0.142
-735.025	94.778	-0.064	-0.074
-734.010	-109.062	-0.040	-0.009
-732.996	-117.453	-0.290	-0.053
-731.981	180.902	0.091	-0.134
-730.966	-200.000	-0.003	0.175
-729.952	-200.000	0.030	0.244
-728.937	-59.150	0.030	0.013
-727.923	469.735	-0.173	-0.393
-726.908	47.268	0.022	-0.021
-725.894	-200.000	-0.008	0.086
-724.879	-151.210	0.203	-0.015
-723.864	274.411	-0.104	0.185
-722.850	-7.641	0.119	-0.081
-721.835	211.817	0.316	-0.503
-720.821	502.093	0.036	-0.083
-719.806	-157.146	-0.346	-0.021
-718.791	45.614	0.159	-0.148
-717.777	-120.404	0.081	-0.014
-716.762	67.431	-0.090	-0.093
-715.748	-88.473	0.230	0.069
-714.733	-11.752	-0.342	0.226
-713.718	-200.000	0.030	0.524
-712.704	-123.294	-0.073	0.012
-711.689	-181.635	-0.264	0.005
-710.675	-49.143	0.212	-0.103
-709.660	-127.545	-0.164	-0.024
-708.645	-142.232	0.209	0.021
-707.631	235.944	0.061	0.103
-706.616	105.439	-0.098	0.117
-705.602	800.000	-0.057	0.253
-704.587	-77.911	-0.191	-0.067
-703.572	800.000	-0.073	-0.236
-702.558	-126.612	0.320	-0.048
-701.543	-3.328	-0.276	-0.194
-700.529	800.000	-0.048	0.141
-699.514	550.768	0.032	-0.077
-698.499	-200.000	-0.014	0.078
-697.485	-152.042	0.316	-0.023
-696.470	37.326	0.290	0.260
-695.456	413.058	0.129	0.276
-694.441	168.321	-0.336	-0.483
-693.426	800.000	0.079	-0.314
-692.412	-116.445	0.342	0.064
-691.397	38.096	-0.139	-0.125
-690.383	800.000	-0.021	-0.079
-689.368	-12.844	-0.115	-0.075
-688.354	-91.415	-0.306	0.088
-687.339	649.994	0.054	-0.141
-686.324	-45.229	-0.156	-0.078
-685.310	-49.072	0.292	-0.141
-684.295	-105.650	-0.318	-0.073
-683.281	468.156	-0.079	-0.178
-682.266	-180.193	0.150	0.003
-681.251	-17.673	-0.119	-0.075
-680.237	-100.214	-0.121	0.030
-679.222	-119.719	-0.232	0.040
-678.208	-30.060	0.261	-0.149
-677.193	-200.000	0.025	-0.382
-676.178	13.524	-0.385	-0.301
-675.164	246.560	0.063	0.107
-674.149	288.858	-0.093	-0.170
-673.135	-45.886	0.232	0.116
-672.120	-200.000	-0.032	0.201
-671.105	-1.701	0.114	0.081
-670.091	195.474	-0.027	0.041
-669.076	151.723	0.143	-0.196
-668.062	-171.578	0.185	-0.006
-667.047	-105.947	-0.235	-0.053
-666.032	101.475	-0.040	-0.047
-665.018	-200.000	-0.035	-0.190
-664.003	-165.514	-0.154	0.007
-662.989	-133.274	0.241	0.031
-661.974	-131.177	-0.285	-0.038
-660.959	30.662	-0.084	-0.072
-659.945	-24.344	0.164	-0.099
-658.930	-65.448	-0.081	0.033
-657.916	-200.000	-0.011	-0.063
-656.901	590.008	0.023	0.058
-655.886	-111.930	0.361	-0.073
-654.872	-200.000	-0.005	-0.223
-653.857	-200.000	0.022	0.198
-652.843	158.377	0.075	-0.105
-651.828	655.053	-0.167	0.433
-650.814	-130.524	0.328	0.045
-649.799	-13.882	0.123	-0.080
-648.784	-15.078	0.020	0.013
-647.770	-65.391	-0.089	0.036
-646.755	-200.000	0.023	0.131
-645.741	728.034	0.076	-0.204
-644.726	-200.000	-0.062	-0.319
-643.711	-96.817	-0.314	-0.083
-642.697	291.396	-0.165	0.302
-641.682	-87.083	0.081	-0.025
-640.668	21.931	0.125	-0.103
-639.653	499.142	0.045	-0.106
-638.638	-163.364	0.248	-0.012
-637.624	800.000	-0.083	-0.283
-636.609	800.000	0.031	-0.125
-635.595	-34.358	-0.185	0.102
-634.580	118.468	-0.132	-0.165
-633.565	-175.331	-0.148	-0.004
-632.551	-118.208	0.182	-0.033
-631.536	221.206	-0.058	0.095
-630.522	-200.000	0.096	-0.494
-629.507	471.919	-0.121	-0.273
-628.492	379.007	-0.102	0.210
-627.478	-93.585	-0.218	0.061
-626.463	800.000	-0.058	-0.199
-625.449	122.893	-0.230	0.290
-624.434	272.865	0.097	0.171
-623.419	-92.249	-0.134	0.038
-622.405	-115.590	-0.278	-0.053
-621.390	88.938	-0.148	0.166
-620.376	98.859	-0.175	0.204
-619.361	70.607	0.165	0.172
-618.346	-200.000	0.002	-0.098
-617.332	-42.614	0.218	-0.112
-616.317	-200.000	0.012	-0.277
-615.303	-75.343	-0.042	0.015
-614.288	31.936	0.272	-0.236
-613.273	399.780	-0.143	0.301
-612.259	84.151	0.177	0.194
-611.244	342.115	-0.100	0.197
-610.230	-164.055	0.447	-0.021
-609.215	293.297	-0.079	0.145
-608.201	800.000	0.076	-0.215
-607.186	-139.552	0.088	-0.009
-606.171	-200.000	0.023	0.212
-605.157	800.000	-0.031	-0.118
-604.142	125.326	0.116	0.147
-603.128	-118.903	0.145	0.026
-602.113	-200.000	-0.013	-0.186
-601.098	-185.860	-0.104	-0.002
-600.084	-200.000	0.042	-0.269
-599.069	800.000	0.068	0.206
-598.055	-200.000	-0.029	0.193
-597.040	800.000	0.122	0.362
-596.025	164.665	0.142	-0.201
-595.011	-81.191	-0.086	0.029
-593.996	128.854	-0.104	-0.133
-592.982	-3.192	0.194	0.136
-591.967	-200.000	-0.041	0.205
-590.952	-65.148	-0.272	-0.110
-589.938	-143.652	-0.453	0.043
-588.923	-29.093	0.106	0.061
-587.909	-200.000	0.009	0.204
-586.894	800.000	0.053	-0.162
-585.879	65.052	-0.134	0.136
-584.865	306.775	-0.082	0.153
-583.850	-73.015	-0.325	0.120
-582.836	-184.217	-0.228	0.004
-581.821	137.301	0.111	-0.146
-580.806	569.816	0.098	0.239
-579.792	733.181	0.053	-0.142
-578.777	-132.934	-0.140	0.018
-577.763	800.000	0.013	-0.047
-576.748	202.726	-0.101	0.157
-575.733	-125.093	0.141	-0.022
-574.719	-57.666	0.144	0.063
-573.704	800.000	0.070	0.240
-572.690	-163.228	0.088	-0.004
-571.675	800.000	-0.085	-0.291
-570.661	-200.000	-0.040	-0.188
-569.646	-200.000	0.023	0.229
-568.631	-54.971	-0.317	0.144
-567.617	31.992	-0.232	0.201
-566.602	-91.568	0.224	0.064
-565.588	522.615	0.016	-0.037
-564.573	-25.783	-0.215	-0.127
-563.558	-200.000	-0.060	0.285
-562.544	-107.519	-0.268	-0.059
-561.529	-200.000	0.062	0.307
-560.515	800.000	0.047	0.134
-559.500	-139.591	-0.076	0.008
-558.485	-175.438	0.225	0.006
-557.471	129.503	-0.230	0.295
-556.456	800.000	0.090	-0.351
-555.442	-107.501	-0.280	0.062
-554.427	-200.000	0.008	-0.038
-553.412	-125.856	-0.206	-0.031
-552.398	-200.000	0.023	0.208
-551.383	-94.379	0.289	0.079
-550.369	-97.812	0.098	-0.025
-549.354	659.969	-0.115	-0.298
-548.339	391.595	0.131	-0.274
-547.325	-102.079	0.106	-0.026
-546.310	-200.000	-0.024	-0.152
-545.296	-153.591	-0.046	-0.003
-544.281	228.957	0.077	-0.125
-543.266	360.868	-0.032	-0.064
-542.252	16.620	0.106	0.084
-541.237	-198.622	0.098	0.001
-540.223	800.000	-0.046	0.157
-539.208	-200.000	-0.055	-0.258
-538.193	-200.000	0.014	-0.103
-537.179	343.757	0.240	-0.473
-536.164	26.270	-0.062	0.052
-535.150	131.862	0.150	-0.193
-534.135	0.784	0.125	0.089
-533.121	-200.000	0.036	-0.204
-532.106	50.416	-0.112	-0.106
-531.091	-145.262	-0.344	-0.031
-530.077	683.280	0.142	0.371
-529.062	-46.223	0.311	-0.153
-528.048	800.000	-0.052	-0.212
-527.033	800.000	0.060	-0.175
-526.018	264.716	0.030	0.052
-525.004	800.000	-0.034	-0.141
-523.989	-121.099	-0.116	0.020
-522.975	-200.000	0.016	-0.082
-521.960	-131.856	0.018	-0.002
-520.945	-200.000	-0.027	-0.232
-519.931	12.199	0.047	-0.036
-518.916	800.000	0.034	0.147
-517.902	725.846	0.210	-0.561
-516.887	-75.193	-0.133	0.047
-515.872	89.442	0.198	0.221
-514.858	111.796	-0.095	0.115
-513.843	-175.343	0.262	-0.007
-512.829	-140.282	0.216	0.023
-511.814	-89.304	-0.108	-0.032
-510.799	-90.504	-0.164	-0.048
-509.785	224.828	-0.095	0.153
-508.770	567.597	-0.021	0.051
-507.756	-141.115	-0.278	0.028
-506.741	302.045	-0.172	0.319
-505.726	-5.833	0.219	0.150
-504.712	152.623	0.206	-0.282
-503.697	87.646	0.211	0.234
-502.683	549.638	-0.109	-0.261
-501.668	-200.000	-0.038	-0.227
-500.653	388.598	-0.088	-0.182
-499.639	-200.000	0.001	-0.132
-498.624	-4.607	0.197	0.136
-497.610	351.426	0.099	-0.197
-496.595	524.660	0.032	0.075
-495.581	-46.535	-0.215	0.106
-494.566	-200.000	-0.055	-0.454
-493.551	-55.108	-0.201	0.091
-492.537	237.837	0.079	0.132
-491.522	31.456	-0.194	0.167
-490.508	-94.555	-0.348	-0.095
-489.493	-80.677	0.356	-0.118
-488.478	-147.739	0.088	0.007
-487.464	-59.304	-0.096	-0.042
-486.449	-136.284	-0.306	0.036
-485.435	378.657	-0.102	-0.208
-484.420	-94.348	0.301	0.082
-483.405	707.194	0.114	0.300
-482.391	-165.285	0.362	-0.016
-481.376	800.000	-0.077	0.235
-480.362	-97.985	0.150	-0.039
-479.347	237.669	-0.101	-0.168
-478.332	800.000	0.021	0.072
-477.318	24.051	0.224	0.185
-476.303	419.038	-0.085	-0.181
-475.289	10.507	0.074	-0.057
-474.274	132.933	0.056	0.072
-473.259	-61.860	-0.330	0.138
-472.245	700.792	0.133	0.350
-471.230	-200.000	0.014	0.171
-470.216	203.173	0.204	-0.315
-469.201	800.000	0.082	-0.257
-468.186	-200.000	-0.008	-0.125
-467.172	477.909	0.015	0.033
-466.157	47.509	0.021	-0.020
-465.143	-185.360	0.140	-0.002
-464.128	-138.685	0.366	-0.040
-463.113	367.580	-0.068	0.137
-462.099	-189.832	0.114	0.001
-461.084	-36.206	0.041	-0.022
-460.070	-42.767	0.301	-0.153
-459.055	258.832	0.089	-0.154
-458.040	-64.658	-0.245	0.099
-457.026	-177.924	0.090	0.002
-456.011	800.000	0.075	0.276
-454.997	-109.022	-0.097	-0.021
-453.982	205.736	0.138	0.214
-452.968	146.902	-0.099	-0.133
-451.953	-80.896	-0.374	0.124
-450.938	115.831	0.250	-0.306
-449.924	-44.524	0.130	0.065
-448.909	-62.496	-0.105	0.044
-447.895	101.125	0.110	0.128
-446.880	-200.000	-0.042	0.242
-445.865	686.979	0.122	0.319
-444.851	149.823	-0.038	-0.051
-443.836	145.632	0.198	-0.266
-442.822	800.000	-0.067	-0.203
-441.807	800.000	0.059	0.171
-440.792	-32.595	0.220	0.122
-439.778	-34.393	0.192	0.105
-438.763	-200.000	0.045	0.392
-437.749	-104.112	0.076	-0.018
-436.734	-6.469	-0.439	-0.299
-435.719	800.000	0.067	-0.285
-434.705	211.586	0.006	-0.009
-433.690	198.705	-0.183	-0.280
-432.676	800.000	0.049	0.143
-431.661	370.045	-0.177	0.358
-430.646	70.176	0.135	0.139
-429.632	-83.951	0.176	0.056
-428.617	76.890	-0.056	0.059
-427.603	800.000	0.074	0.246
-426.588	124.928	-0.057	-0.072
-425.573	800.000	0.095	0.318
-424.559	-114.139	0.173	0.033
-423.544	706.358	-0.042	-0.111
-422.530	-83.718	-0.327	-0.104
-421.515	-187.823	-0.327	0.004
-420.500	-147.173	0.360	0.031
-419.486	-153.197	0.177	-0.012
-418.471	-162.865	-0.057	0.003
-417.457	407.613	-0.027	-0.057
-416.442	-200.000	-0.022	0.243
-415.428	-200.000	0.031	-0.164
-414.413	-88.836	0.321	-0.095
-413.398	102.455	-0.130	-0.152
-412.384	-28.589	-0.132	-0.076
-411.369	-200.000	-0.011	0.240
-410.355	-80.569	-0.174	0.058
-409.340	281.351	-0.057	0.101
-408.325	-40.905	0.340	-0.175
-407.311	-179.057	-0.084	0.002
-406.296	182.955	-0.124	-0.183
-405.282	37.509	-0.307	-0.272
-404.267	-8.537	-0.281	-0.188
-403.252	172.205	-0.078	-0.112
-402.238	-0.614	-0.104	0.073
-401.223	68.184	0.048	0.049
-400.209	580.394	0.087	-0.213
-399.194	-92.946	0.204	-0.057
-398.179	3.887	0.283	-0.206
-397.165	-114.046	-0.326	-0.063
-396.150	-46.822	0.398	-0.194
-395.136	-46.679	-0.275	-0.134
-394.121	-42.240	0.225	0.115
-393.106	-9.743	0.266	0.177
-392.092	-67.248	-0.212	0.083
-391.077	-200.000	-0.012	0.133
-390.063	542.804	0.066	0.158
-389.048	-48.342	0.154	0.074
-388.033	-58.301	-0.433	0.188
-387.019	31.284	0.188	0.161
-386.004	800.000	0.064	0.182
-384.990	-161.750	-0.436	-0.022
-383.975	226.263	0.083	0.135
-382.960	-33.205	0.308	0.170
-381.946	800.000	-0.077	0.234
-380.931	157.622	-0.140	-0.193
-379.917	556.126	0.056	-0.134
-378.902	-200.000	-0.003	-0.104
-377.888	-102.363	-0.241	-0.058
-376.873	140.370	0.050	0.066
-375.858	187.456	-0.058	-0.087
-374.844	234.309	0.161	-0.264
-373.829	-200.000	-0.166	-0.000
-372.815	800.000	-0.033	-0.094
-371.800	3.619	0.115	-0.083
-370.785	-200.000	0.010	0.194
-369.771	-200.000	0.026	0.228
-368.756	-17.097	-0.230	0.145
-367.742	322.001	-0.054	0.103
-366.727	239.151	-0.161	-0.268
-365.712	800.000	-0.132	-0.385
-364.698	-105.321	-0.343	0.078
-363.683	-200.000	-0.055	0.422
-362.669	34.914	-0.028	0.025
-361.654	800.000	-0.068	0.286
-360.639	-92.627	-0.213	-0.059
-359.625	-31.785	-0.432	0.241
-358.610	-175.372	-0.176	-0.005
-357.596	-200.000	0.001	0.145
-356.581	-200.000	0.007	-0.113
-355.566	170.739	-0.130	-0.185
-354.552	800.000	0.047	-0.180
-353.537	-200.000	-0.027	-0.159
-352.523	-147.855	0.154	-0.013
-351.508	-46.069	-0.218	-0.107
-350.493	-47.393	0.172	0.083
-349.479	800.000	-0.070	0.253
-348.464	-84.538	-0.155	-0.049
-347.450	800.000	0.048	-0.136
-346.435	-73.392	-0.068	0.025
-345.420	71.505	-0.180	-0.186
-344.406	10.941	0.102	0.077
-343.391	7.805	-0.122	0.091
-342.377	-143.899	-0.121	-0.011
-341.362	-62.903	-0.094	-0.039
-340.348	-117.871	-0.323	-0.058
-339.333	-200.000	-0.055	-0.297
-338.318	-144.715	0.222	0.020
-337.304	-154.791	0.193	0.013
-336.289	24.600	-0.055	-0.046
-335.275	196.649	-0.082	0.124
-334.260	169.468	0.219	-0.312
-333.245	-61.988	0.265	0.110
-332.231	-200.000	0.005	0.294
-331.216	-179.341	-0.341	0.008
-330.202	-153.823	0.102	0.007
-329.187	-104.562	0.430	0.099
-328.172	-58.020	0.113	-0.049
-327.158	518.021	0.084	0.196
-326.143	236.652	0.113	0.186
-325.129	-143.695	-0.242	0.023
-324.114	-70.109	0.422	0.160
-323.099	128.952	-0.131	0.166
-322.085	317.818	0.067	0.125
-321.070	40.952	-0.273	0.245
-320.056	-200.000	0.046	0.204
-319.041	-13.815	-0.432	-0.278
-318.026	65.072	0.210	-0.211
-317.012	-200.000	0.080	-0.392
-315.997	1.710	-0.049	0.035
-314.983	-200.000	0.043	0.314
-313.968	-198.044	0.184	-0.001
-312.953	-200.000	0.032	0.214
-311.939	-200.000	0.003	-0.114
-310.924	369.595	-0.142	-0.286
-309.910	-49.744	-0.339	0.160
-308.895	800.000	0.110	-0.418
-307.880	-85.130	0.300	-0.093
-306.866	-157.197	0.383	-0.023
-305.851	800.000	0.056	0.161
-304.837	169.763	0.037	-0.052
-303.822	-64.897	-0.359	0.144
-302.807	329.248	0.137	0.262
-301.793	49.150	0.128	0.120
-300.778	-159.648	-0.150	0.008
-299.764	-200.000	0.028	0.205
-298.749	-108.773	-0.051	-0.011
-297.735	-133.381	-0.332	-0.041
-296.720	13.126	0.310	-0.238
-295.705	-200.000	-0.035	0.201
-294.691	-65.366	-0.278	-0.111
-293.676	-51.354	-0.364	0.169
-292.662	253.720	0.094	0.160
-291.647	-94.191	-0.194	0.053
-290.632	-200.000	-0.025	-0.447
-289.618	131.434	-0.078	0.099
-288.603	713.167	0.100	0.264
-287.589	800.000	0.072	-0.251
-286.574	24.692	0.119	-0.098
-285.559	800.000	0.054	0.174
-284.545	567.488	-0.018	-0.044
-283.530	800.000	-0.030	-0.081
-282.516	125.744	0.104	-0.130
-281.501	-200.000	-0.007	-0.235
-280.486	-200.000	-0.008	0.136
-279.472	271.573	0.009	0.016
-278.457	-91.786	-0.142	0.040
-277.443	-146.495	0.082	0.007
-276.428	124.284	0.106	0.132
-275.413	-52.768	0.281	-0.129
-274.399	-79.494	0.318	-0.107
-273.384	75.120	0.161	0.168
-272.370	-17.721	-0.200	0.124
-271.355	111.012	0.288	0.344
-270.340	-33.575	0.170	-0.093
-269.326	-16.012	0.141	0.089
-268.311	-50.560	0.144	0.067
-267.297	-200.000	0.019	-0.312
-266.282	-18.397	-0.305	0.189
-265.267	-9.559	0.285	0.188
-264.253	-117.172	-0.074	0.013
-263.238	573.304	-0.046	0.111
-262.224	57.991	0.128	-0.125
-261.209	-138.417	0.278	0.030
-260.195	77.349	-0.118	-0.124
-259.180	-40.789	-0.350	0.180
-258.165	-200.000	0.006	-0.273
-257.151	678.410	0.075	0.194
-256.136	329.242	0.016	0.030
-255.122	-77.468	-0.261	0.090
-254.107	800.000	-0.039	0.125
-253.092	-200.000	-0.022	0.117
-252.078	-21.243	0.098	0.059
-251.063	-200.000	0.015	-0.086
-250.049	-200.000	0.002	0.049
-249.034	-200.000	0.023	-0.127
-248.019	-82.482	0.188	0.061
-247.005	214.220	-0.110	0.173
-245.990	-200.000	-0.008	-0.125
-244.976	-83.307	0.233	-0.074
-243.961	427.337	-0.098	-0.210
-242.946	271.052	-0.187	0.326
-241.932	800.000	0.067	0.225
-240.917	-15.298	0.201	-0.127
-239.903	-198.289	-0.272	0.002
-238.888	800.000	0.117	-0.437
-237.873	-158.544	0.121	0.007
-236.859	800.000	0.046	0.136
-235.844	-200.000	-0.013	-0.090
-234.830	-55.728	-0.301	0.133
-233.815	62.779	0.114	-0.113
-232.800	-171.731	-0.594	-0.019
-231.786	800.000	0.038	0.107
-230.771	67.070	0.204	-0.206
-229.757	-76.171	-0.224	-0.078
-228.742	613.759	0.078	0.193
-227.727	800.000	0.042	-0.161
-226.713	726.121	0.056	0.147
-225.698	431.996	0.124	-0.266
-224.684	74.234	0.071	-0.074
-223.669	28.738	0.085	-0.072
-222.655	800.000	0.013	0.049
-221.640	157.615	0.254	-0.348
-220.625	800.000	-0.057	0.229
-219.611	-158.751	0.415	0.024
-218.596	125.039	0.008	0.010
-217.582	349.654	-0.105	0.206
-216.567	-200.000	-0.103	-0.462
-215.552	-135.737	0.132	-0.016
-214.538	-200.000	-0.009	0.215
-213.523	-179.631	0.100	0.002
-212.509	424.480	0.060	0.129
-211.494	-80.331	-0.148	-0.049
-210.479	-200.000	0.001	-0.086
-209.465	800.000	-0.039	-0.137
-208.450	800.000	-0.059	-0.225
-207.436	-34.589	-0.039	-0.021
-206.421	532.395	-0.145	0.340
-205.406	174.593	0.202	-0.290
-204.392	227.967	-0.104	-0.168
-203.377	74.846	-0.091	0.095
-202.363	136.948	-0.187	0.241
-201.348	87.387	0.158	-0.173
-200.333	800.000	-0.117	0.340
-199.319	-94.932	0.141	0.038
-198.304	-200.000	0.015	0.128
-197.290	312.091	-0.071	-0.132
-196.275	502.600	0.102	-0.233
-195.260	44.770	0.172	-0.156
-194.246	-200.000	0.099	0.469
-193.231	-48.387	0.242	0.115
-192.217	-58.680	-0.079	-0.034
-191.202	-119.767	-0.254	0.043
-190.187	800.000	0.086	0.254
-189.173	501.959	-0.085	-0.195
-188.158	2.112	-0.205	-0.147
-187.144	473.161	0.051	0.114
-186.129	-91.497	0.143	-0.040
-185.114	77.444	-0.257	0.271
-184.100	-200.000	0.000	0.133
-183.085	-117.978	-0.228	0.040
-182.071	800.000	0.031	-0.125
-181.056	-135.384	-0.261	-0.031
-180.042	-16.589	-0.100	0.062
-179.027	17.958	0.116	0.091
-178.012	-104.777	0.215	0.049
-176.998	469.699	-0.033	-0.073
-175.983	414.364	-0.049	0.103
-174.969	-200.000	0.030	-0.190
-173.954	-43.081	-0.281	-0.141
-172.939	-67.268	0.078	0.030
-171.925	-35.349	0.179	-0.096
-170.910	-81.080	0.202	0.066
-169.896	-200.000	0.014	-0.212
-168.881	-18.792	-0.175	0.108
-167.866	-188.170	-0.097	-0.001
-166.852	74.127	0.167	0.174
-165.837	-148.386	-0.524	-0.043
-164.823	-137.424	0.290	0.032
-163.808	-200.000	-0.030	-0.227
-162.793	800.000	0.059	-0.192
-161.779	800.000	-0.054	-0.172
-160.764	20.837	0.287	0.230
-159.750	-7.390	-0.156	0.105
-158.735	-200.000	-0.013	0.119
-157.720	212.562	0.195	-0.304
-156.706	-18.075	0.202	-0.125
-155.691	-121.415	0.319	-0.052
-154.677	-1.669	0.298	-0.208
-153.662	-200.000	-0.043	-0.535
-152.647	-103.689	-0.094	0.022
-151.633	-150.077	-0.213	-0.016
-150.618	-67.938	-0.145	-0.056
-149.604	-131.452	-0.390	-0.051
-148.589	800.000	0.057	-0.197
-147.574	-61.060	0.298	-0.124
-146.560	554.260	0.082	0.196
-145.545	24.882	0.089	0.073
-144.531	-63.222	0.411	-0.167
-143.516	-54.209	0.394	0.177
-142.502	14.761	-0.144	-0.111
-141.487	-200.000	-0.007	0.211
-140.472	308.602	0.182	-0.336
-139.458	-113.158	-0.081	-0.016
-138.443	7.318	-0.275	0.203
-137.429	266.108	0.129	0.223
-136.414	-200.000	0.028	-0.373
-135.399	-88.566	-0.017	-0.005
-134.385	-119.984	-0.144	-0.024
-133.370	-31.627	-0.052	0.029
-132.356	462.803	-0.111	0.244
-131.341	-200.000	-0.053	0.302
-130.326	-27.798	0.303	0.173
-129.312	567.588	0.077	0.184
-128.297	738.996	0.063	0.166
-127.283	-50.864	0.389	-0.180
-126.268	-200.000	0.076	-0.491
-125.253	269.764	-0.126	0.218
-124.239	800.000	0.069	0.189
-123.224	-62.120	0.187	0.077
-122.210	153.712	-0.118	-0.160
