DTS Sentinel unit serial number:	SN413079Multiplexer serial number:	ORYXHardware model number:	OX4-SRSoftware version number:	ORYX F/W v4.00 Oryx Data Collector v3.7.2.0data status	okinstallation	princeton_trtdifferential loss correction	single-endedforward channel	channel 1reverse channel	N/Adate	2019/09/16time	17:38:35forward acquisition time	60.00reverse acquisition time	0.00gamma	496.2192k internal	0.2297k external	0.2297temperature offset calibration	0.9966default loss term (dB/km)	0.3790temperature slope calibration	1.0000multiplexer offset coefficient	1.0000multiplexer slope coefficient	1.0000fibre end	0.00T internal ref (°C)	38.25T ext. ref 1 (°C)	15.52T ext. ref 2 (°C)	32.24length (m)	temperature (°C)	Stokes	anti-Stokes-747.200	800.000	0.008	0.032
-746.185	-200.000	-0.007	0.259
-745.171	100.330	-0.167	0.198
-744.156	-50.555	-0.118	0.057
-743.142	-200.000	-0.024	-0.380
-742.127	800.000	-0.043	-0.144
-741.112	-200.000	-0.006	-0.535
-740.098	-90.137	-0.158	-0.047
-739.083	264.105	0.120	0.213
-738.069	-108.410	-0.276	0.061
-737.054	800.000	0.018	0.072
-736.039	-67.600	-0.138	0.055
-735.025	-103.427	0.242	0.058
-734.010	-50.126	-0.217	0.105
-732.996	98.615	-0.067	-0.078
-731.981	-48.635	0.076	0.037
-730.966	172.828	0.110	-0.162
-729.952	104.447	-0.040	-0.048
-728.937	-200.000	-0.000	-0.243
-727.923	-51.184	-0.178	0.085
-726.908	4.667	0.032	0.024
-725.894	31.762	0.060	0.052
-724.879	25.015	-0.250	0.212
-723.864	-200.000	0.055	-0.277
-722.850	25.170	-0.269	-0.228
-721.835	226.798	-0.144	0.238
-720.821	-200.000	0.005	0.117
-719.806	42.951	-0.204	0.190
-718.791	-43.770	-0.023	-0.012
-717.777	-170.002	-0.207	-0.008
-716.762	-200.000	0.012	-0.130
-715.748	-23.519	0.074	-0.045
-714.733	-200.000	0.025	-0.154
-713.718	17.717	-0.244	-0.198
-712.704	-200.000	-0.043	-0.265
-711.689	-55.033	0.192	-0.088
-710.675	800.000	0.017	0.077
-709.660	119.535	0.049	0.062
-708.645	63.744	-0.185	-0.189
-707.631	-94.360	-0.170	0.047
-706.616	800.000	0.058	-0.223
-705.602	404.443	0.165	-0.353
-704.587	165.202	0.065	-0.094
-703.572	21.042	-0.189	-0.157
-702.558	-200.000	0.019	0.106
-701.543	-42.029	0.322	0.168
-700.529	-94.201	0.263	0.073
-699.514	32.346	-0.264	0.232
-698.499	53.086	0.146	0.143
-697.485	-13.282	-0.131	0.087
-696.470	-76.489	-0.221	-0.079
-695.456	284.032	0.197	-0.360
-694.441	96.462	0.040	0.046
-693.426	160.589	-0.207	0.294
-692.412	800.000	-0.058	-0.221
-691.397	-15.017	-0.150	-0.098
-690.383	-33.310	-0.572	-0.322
-689.368	-57.041	-0.337	0.151
-688.354	529.204	0.078	-0.188
-687.339	-70.589	-0.066	0.025
-686.324	-149.255	-0.085	-0.007
-685.310	-79.413	0.348	-0.120
-684.295	-112.027	-0.177	0.036
-683.281	545.405	0.072	0.176
-682.266	37.561	-0.061	-0.055
-681.251	-200.000	0.021	0.114
-680.237	-200.000	0.059	-0.396
-679.222	800.000	-0.011	-0.048
-678.208	-7.748	0.274	0.189
-677.193	-200.000	-0.048	-0.258
-676.178	-200.000	-0.006	-0.149
-675.164	71.311	0.090	-0.095
-674.149	-116.933	-0.023	-0.004
-673.135	64.634	0.116	0.119
-672.120	-200.000	0.006	0.047
-671.105	191.502	-0.081	-0.124
-670.091	17.837	-0.109	-0.088
-669.076	-200.000	0.031	0.186
-668.062	-16.078	0.098	0.063
-667.047	-24.068	0.069	-0.042
-666.032	8.457	0.191	-0.146
-665.018	-142.011	-0.367	0.037
-664.003	357.776	-0.060	0.123
-662.989	-157.831	-0.327	-0.020
-661.974	-103.673	-0.168	0.040
-660.959	63.918	0.111	-0.114
-659.945	20.537	0.089	-0.074
-658.930	-200.000	0.013	-0.256
-657.916	-118.247	0.211	-0.038
-656.901	-200.000	0.048	-0.400
-655.886	13.964	-0.258	0.204
-654.872	614.328	-0.074	0.189
-653.857	-141.226	-0.164	0.017
-652.843	-81.070	-0.177	-0.060
-651.828	43.074	0.262	-0.243
-650.814	-0.522	-0.296	-0.213
-649.799	-22.584	0.154	0.095
-648.784	-12.918	-0.361	-0.239
-647.770	-200.000	0.045	-0.241
-646.755	-200.000	-0.026	-0.118
-645.741	-113.124	-0.333	-0.067
-644.726	-200.000	0.020	0.230
-643.711	213.078	-0.213	0.342
-642.697	96.146	-0.244	0.284
-641.682	-146.979	0.164	0.014
-640.668	632.364	0.088	0.226
-639.653	-200.000	0.041	-0.366
-638.638	-163.028	0.256	-0.013
-637.624	317.559	-0.059	0.113
-636.609	-96.890	0.078	-0.021
-635.595	-200.000	-0.034	-0.164
-634.580	77.066	0.063	0.068
-633.565	-91.837	-0.265	0.077
-632.551	-34.908	-0.067	-0.037
-631.536	800.000	0.015	0.059
-630.522	-200.000	0.022	0.243
-629.507	-50.771	0.163	0.078
-628.492	-9.563	-0.131	0.089
-627.478	67.366	-0.119	0.124
-626.463	-50.983	-0.303	-0.145
-625.449	-60.630	-0.364	0.157
-624.434	278.916	0.063	-0.115
-623.419	177.510	0.306	-0.454
-622.405	22.530	0.023	-0.019
-621.390	-200.000	0.002	0.019
-620.376	-138.530	-0.347	-0.039
-619.361	-40.879	0.030	-0.016
-618.346	-200.000	0.000	0.052
-617.332	538.568	-0.089	0.216
-616.317	800.000	0.041	0.153
-615.303	800.000	-0.048	-0.137
-614.288	-86.962	0.239	0.074
-613.273	-200.000	0.006	-0.045
-612.259	422.206	-0.040	-0.088
-611.244	-64.908	-0.282	0.116
-610.230	-200.000	-0.015	0.278
-609.215	-37.875	0.147	-0.079
-608.201	-102.635	-0.217	-0.053
-607.186	101.975	0.083	0.098
-606.171	-131.887	-0.259	0.034
-605.157	-142.594	-0.098	0.010
-604.142	-103.005	-0.311	-0.075
-603.128	24.109	-0.233	0.196
-602.113	-144.143	-0.302	0.029
-601.098	184.010	-0.120	0.181
-600.084	9.463	-0.128	0.098
-599.069	-31.034	0.206	-0.118
-598.055	-24.758	0.190	0.115
-597.040	678.661	0.040	0.104
-596.025	-73.254	-0.312	0.116
-595.011	-200.000	0.030	-0.235
-593.996	169.027	-0.101	-0.146
-592.982	-4.839	0.191	-0.134
-591.967	325.277	-0.084	-0.162
-590.952	-139.963	0.061	-0.006
-589.938	-59.932	0.234	0.101
-588.923	-140.975	0.229	-0.024
-587.909	-74.419	-0.049	-0.018
-586.894	-200.000	-0.000	-0.168
-585.879	-74.589	0.103	0.038
-584.865	-200.000	-0.243	-0.001
-583.850	-200.000	0.022	0.322
-582.836	33.163	-0.213	-0.187
-581.821	-200.000	0.058	0.279
-580.806	-196.355	0.079	-0.001
-579.792	-54.415	-0.199	0.092
-578.777	-71.920	-0.227	-0.086
-577.763	-65.294	-0.475	-0.194
-576.748	-95.555	-0.113	0.031
-575.733	44.897	-0.107	0.100
-574.719	-13.013	0.262	-0.173
-573.704	-110.087	-0.026	-0.006
-572.690	391.659	0.060	-0.126
-571.675	59.433	-0.110	-0.110
-570.661	56.845	-0.169	-0.167
-569.646	-200.000	0.043	0.339
-568.631	-184.622	0.125	-0.002
-567.617	33.148	-0.085	-0.075
-566.602	647.477	-0.142	-0.368
-565.588	-2.431	0.133	-0.095
-564.573	-115.565	0.156	-0.030
-563.558	-32.318	-0.141	0.080
-562.544	136.988	0.101	0.133
-561.529	272.518	0.162	0.290
-560.515	-200.000	-0.067	0.315
-559.500	10.871	-0.087	0.067
-558.485	-17.960	0.122	-0.078
-557.471	-13.257	0.110	0.072
-556.456	-200.000	-0.039	0.333
-555.442	85.669	-0.061	-0.068
-554.427	68.954	0.227	0.237
-553.412	657.910	-0.050	0.131
-552.398	-200.000	-0.025	-0.181
-551.383	-112.509	-0.253	-0.051
-550.369	17.836	0.143	-0.116
-549.354	-165.601	0.197	0.009
-548.339	285.954	0.051	0.094
-547.325	-110.961	0.094	-0.020
-546.310	800.000	0.065	-0.282
-545.296	67.592	-0.076	-0.078
-544.281	-117.029	0.317	0.059
-543.266	-59.478	-0.055	-0.024
-542.252	83.449	0.067	-0.074
-541.237	-76.913	0.435	0.154
-540.223	187.903	-0.128	-0.193
-539.208	-97.483	-0.282	0.074
-538.193	-132.703	0.277	-0.036
-537.179	-200.000	-0.004	-0.030
-536.164	-200.000	0.019	0.172
-535.150	800.000	0.125	-0.407
-534.135	-153.875	0.273	0.019
-533.121	-200.000	0.019	0.192
-532.106	138.683	0.299	0.397
-531.091	52.712	-0.230	0.222
-530.077	9.157	0.109	0.083
-529.062	-77.548	-0.391	0.137
-528.048	204.578	0.122	-0.192
-527.033	-200.000	-0.027	-0.183
-526.018	561.594	-0.128	-0.314
-525.004	460.322	-0.115	0.259
-523.989	129.305	0.092	0.118
-522.975	-101.464	-0.315	0.078
-521.960	-91.968	0.236	0.068
-520.945	-10.084	-0.192	-0.129
-519.931	800.000	-0.081	-0.233
-518.916	175.187	0.051	-0.075
-517.902	-102.401	0.366	-0.089
-516.887	-200.000	0.006	-0.181
-515.872	-200.000	0.015	-0.368
-514.858	-2.788	-0.260	0.184
-513.843	-90.450	-0.417	-0.122
-512.829	-49.391	-0.054	-0.026
-511.814	-143.993	0.176	-0.017
-510.799	21.677	0.240	0.198
-509.785	-120.494	0.174	-0.030
-508.770	800.000	0.096	0.368
-507.756	800.000	-0.140	0.483
-506.741	-73.209	0.315	-0.117
-505.726	459.369	-0.084	0.188
-504.712	-158.120	0.047	-0.003
-503.697	-37.983	-0.056	-0.030
-502.683	-200.000	-0.009	-0.152
-501.668	123.954	-0.029	-0.037
-500.653	-82.878	-0.250	-0.082
-499.639	-113.196	0.205	-0.041
-498.624	-135.941	0.164	0.020
-497.610	56.256	0.090	0.089
-496.595	72.873	0.199	-0.210
-495.581	-200.000	-0.006	-0.052
-494.566	38.132	0.135	-0.121
-493.551	-12.871	0.078	0.051
-492.537	18.975	-0.053	-0.043
-491.522	-64.275	-0.195	-0.080
-490.508	-26.950	0.327	-0.193
-489.493	-18.500	0.111	-0.070
-488.478	24.478	0.130	0.109
-487.464	284.287	-0.078	-0.141
-486.449	273.266	-0.076	-0.136
-485.435	800.000	0.105	-0.462
-484.420	-7.290	0.184	-0.126
-483.405	-108.601	-0.207	-0.045
-482.391	-200.000	0.051	-0.333
-481.376	17.720	-0.162	-0.130
-480.362	326.502	-0.059	0.114
-479.347	-174.513	0.014	-0.000
-478.332	-191.463	-0.442	0.005
-477.318	-86.604	-0.175	0.054
-476.303	-200.000	-0.047	-0.310
-475.289	-19.090	-0.117	0.074
-474.274	274.747	0.173	-0.310
-473.259	800.000	0.042	-0.119
-472.245	54.626	0.075	0.073
-471.230	384.781	-0.061	0.127
-470.216	-4.020	0.223	0.156
-469.201	-200.000	-0.001	-0.074
-468.186	45.826	-0.094	0.088
-467.172	-31.178	-0.217	0.124
-466.157	-200.000	0.027	-0.220
-465.143	122.371	0.107	0.135
-464.128	-56.308	-0.179	0.081
-463.113	580.442	-0.054	0.135
-462.099	53.126	-0.259	-0.251
-461.084	38.999	-0.105	0.095
-460.070	70.760	0.256	-0.268
-459.055	-200.000	0.046	-0.370
-458.040	-126.764	-0.211	-0.031
-457.026	-138.377	0.263	0.029
-456.011	-3.226	0.139	0.098
-454.997	763.420	0.148	-0.405
-453.982	-149.032	-0.368	0.030
-452.968	395.696	-0.108	0.228
-451.953	-1.682	-0.307	-0.219
-450.938	-8.285	0.074	0.050
-449.924	128.459	0.132	-0.170
-448.909	800.000	-0.024	0.076
-447.895	501.268	0.100	-0.234
-446.880	800.000	-0.119	-0.358
-445.865	-200.000	0.070	-0.471
-444.851	-139.360	-0.229	-0.025
-443.836	-200.000	0.026	-0.161
-442.822	800.000	-0.093	-0.315
-441.807	-200.000	-0.008	0.125
-440.792	63.730	-0.087	0.088
-439.778	-45.044	-0.126	0.063
-438.763	52.562	0.072	0.069
-437.749	-102.213	0.173	-0.042
-436.734	51.690	0.172	0.165
-435.719	-75.838	-0.217	0.077
-434.705	800.000	-0.031	-0.111
-433.690	524.082	0.107	-0.254
-432.676	-176.903	0.389	-0.010
-431.661	-119.409	-0.405	0.071
-430.646	-200.000	-0.016	-0.108
-429.632	-29.555	0.035	0.020
-428.617	-200.000	0.032	0.439
-427.603	577.686	-0.060	0.147
-426.588	-80.485	-0.075	0.025
-425.573	-39.464	0.094	-0.050
-424.559	183.864	0.134	0.199
-423.544	-200.000	-0.033	0.235
-422.530	101.875	-0.057	0.067
-421.515	800.000	-0.040	-0.146
-420.500	111.634	-0.150	0.183
-419.486	800.000	-0.016	0.046
-418.471	-132.546	0.085	-0.011
-417.457	-20.363	0.262	-0.163
-416.442	800.000	0.129	-0.446
-415.428	138.394	0.244	-0.323
-414.413	20.028	0.311	0.253
-413.398	-143.373	0.129	-0.012
-412.384	-200.000	0.005	0.081
-411.369	-115.542	0.136	-0.026
-410.355	-19.399	-0.288	-0.180
-409.340	-90.998	0.288	0.083
-408.325	-105.086	0.112	0.026
-407.311	-200.000	-0.033	0.217
-406.296	-124.332	-0.217	0.034
-405.282	-42.164	0.205	-0.105
-404.267	-14.667	0.168	0.109
-403.252	-200.000	-0.041	-0.348
-402.238	-9.365	0.361	-0.243
-401.223	20.082	-0.170	-0.138
-400.209	357.868	-0.111	-0.223
-399.194	210.218	0.042	0.066
-398.179	86.290	-0.231	-0.257
-397.165	57.921	-0.179	0.176
-396.150	415.984	0.049	0.104
-395.136	-40.234	0.230	0.121
-394.121	-99.189	-0.202	-0.052
-393.106	-0.644	0.166	-0.119
-392.092	-53.169	0.080	-0.037
-391.077	209.542	-0.074	0.116
-390.063	-200.000	0.033	-0.176
-389.048	-135.919	0.149	0.018
-388.033	-200.000	0.030	-0.170
-387.019	-200.000	-0.038	-0.400
-386.004	-79.899	-0.305	-0.103
-384.990	-28.086	0.089	0.052
-383.975	-78.742	-0.497	-0.171
-382.960	159.644	-0.159	-0.222
-381.946	-36.118	0.153	-0.083
-380.931	-103.228	0.377	0.090
-379.917	-15.903	0.020	-0.013
-378.902	-133.130	0.122	-0.016
-377.888	-180.872	0.085	-0.002
-376.873	47.701	-0.124	0.117
-375.858	-14.234	-0.297	-0.193
-374.844	-98.754	-0.357	-0.091
-373.829	-92.273	-0.140	-0.040
-372.815	-151.394	-0.102	0.008
-371.800	-71.795	0.253	-0.095
-370.785	-64.434	0.155	-0.064
-369.771	-4.738	-0.179	-0.124
-368.756	-76.361	0.137	-0.049
-367.742	84.548	-0.035	-0.038
-366.727	-115.799	-0.133	0.025
-365.712	20.576	0.225	0.183
-364.698	406.887	-0.146	-0.309
-363.683	-58.286	0.270	-0.118
-362.669	-31.643	0.356	-0.201
-361.654	-80.872	-0.068	0.023
-360.639	-104.167	0.134	0.031
-359.625	-30.388	-0.479	0.274
-358.610	46.510	-0.198	0.185
-357.596	800.000	0.061	-0.223
-356.581	-200.000	0.039	-0.241
-355.566	-173.385	0.315	-0.010
-354.552	-200.000	-0.008	-0.100
-353.537	-86.429	-0.039	-0.012
-352.523	-110.283	0.308	-0.064
-351.508	89.163	0.083	-0.093
-350.493	-157.338	0.064	0.004
-349.479	-196.616	-0.281	-0.002
-348.464	-155.926	-0.215	0.014
-347.450	-78.161	-0.359	0.124
-346.435	800.000	0.054	0.234
-345.420	287.126	0.038	-0.069
-344.406	800.000	-0.061	-0.203
-343.391	21.548	-0.286	0.234
-342.377	133.896	-0.186	0.243
-341.362	113.860	-0.105	0.128
-340.348	800.000	-0.086	0.298
-339.333	-94.346	0.215	0.059
-338.318	-56.221	0.094	-0.042
-337.304	-33.317	-0.095	-0.053
-336.289	-23.415	0.183	0.111
-335.275	129.575	0.064	0.083
-334.260	194.576	-0.064	0.098
-333.245	44.691	-0.105	-0.097
-332.231	-79.119	-0.199	0.068
-331.216	46.931	-0.212	-0.198
-330.202	-200.000	0.014	-0.127
-329.187	-200.000	0.056	-0.362
-328.172	-35.081	-0.335	0.183
-327.158	314.278	0.161	0.305
-326.143	48.538	-0.024	0.023
-325.129	362.177	-0.142	-0.287
-324.114	176.929	0.167	-0.244
-323.099	800.000	-0.081	-0.318
-322.085	-56.100	0.243	-0.109
-321.070	-117.980	-0.142	0.026
-320.056	-200.000	0.007	0.076
-319.041	253.834	-0.158	-0.271
-318.026	125.832	0.231	-0.293
-317.012	165.726	-0.029	-0.041
-315.997	623.146	-0.038	0.097
-314.983	-200.000	-0.001	0.317
-313.968	186.143	-0.083	0.124
-312.953	-28.820	0.170	0.098
-311.939	-94.289	0.386	0.106
-310.924	170.571	0.055	0.079
-309.910	-200.000	-0.021	0.101
-308.895	-200.000	-0.016	0.071
-307.880	-163.836	-0.140	0.007
-306.866	140.380	-0.301	0.399
-305.851	800.000	-0.031	0.127
-304.837	111.302	-0.123	-0.149
-303.822	-87.610	-0.084	0.025
-302.807	54.410	0.106	0.102
-301.793	600.670	0.115	0.288
-300.778	51.988	-0.071	0.068
-299.764	155.762	0.115	0.159
-298.749	-120.910	-0.159	0.027
-297.735	-200.000	-0.055	0.364
-296.720	-200.000	0.025	0.142
-295.705	114.590	0.020	0.025
-294.691	-91.371	-0.181	-0.052
-293.676	-101.561	-0.141	-0.034
-292.662	-200.000	0.008	-0.041
-291.647	85.680	0.202	0.223
-290.632	-90.752	-0.309	0.089
-289.618	102.469	-0.146	-0.171
-288.603	-200.000	-0.020	0.451
-287.589	-77.186	-0.164	-0.057
-286.574	22.774	0.155	-0.128
-285.559	-28.111	0.343	0.199
-284.545	728.579	0.120	-0.322
-283.530	-3.571	0.123	0.086
-282.516	6.601	0.234	0.175
-281.501	-200.000	-0.039	0.298
-280.486	-12.054	-0.329	-0.216
-279.472	-200.000	0.011	-0.290
-278.457	-110.940	-0.102	-0.021
-277.443	-168.114	0.352	0.014
-276.428	375.262	-0.144	0.295
-275.413	-68.907	-0.430	-0.167
-274.399	412.771	-0.084	-0.179
-273.384	-200.000	-0.035	0.181
-272.370	121.985	-0.085	0.106
-271.355	-95.652	0.268	0.072
-270.340	299.097	-0.131	0.242
-269.326	507.905	0.057	-0.134
-268.311	-70.976	0.192	0.073
-267.297	102.784	-0.162	-0.190
-266.282	-200.000	0.040	0.314
-265.267	-87.821	0.286	0.086
-264.253	137.895	-0.238	0.312
-263.238	800.000	0.060	-0.173
-262.224	481.475	0.107	-0.244
-261.209	172.324	-0.313	-0.452
-260.195	323.798	-0.204	0.390
-259.180	-54.398	0.213	0.097
-258.165	94.642	0.198	-0.226
-257.151	-140.876	-0.340	-0.035
-256.136	-68.536	-0.072	0.028
-255.122	74.685	0.288	0.303
-254.107	28.104	-0.198	-0.167
-253.092	-110.321	-0.126	0.026
-252.078	-200.000	0.004	-0.134
-251.063	-85.895	0.103	0.032
-250.049	-73.734	-0.227	-0.083
-249.034	334.986	-0.048	-0.093
-248.019	-200.000	0.007	-0.198
-247.005	17.310	-0.163	-0.130
-245.990	8.512	0.480	0.361
-244.976	101.049	-0.101	-0.117
-243.961	0.728	-0.156	-0.112
-242.946	-91.650	0.080	-0.023
-241.932	14.912	0.124	-0.097
-240.917	-131.069	0.066	-0.009
-239.903	126.026	0.054	0.068
-238.888	-156.265	0.114	0.007
-237.873	96.736	0.193	-0.221
-236.859	112.544	0.101	-0.123
-235.844	26.225	0.344	0.288
-234.830	58.234	-0.201	-0.197
-233.815	-200.000	0.082	0.409
-232.800	-200.000	0.010	0.062
-231.786	-158.429	-0.196	-0.011
-230.771	-200.000	-0.024	-0.229
-229.757	99.853	0.086	-0.100
-228.742	152.362	-0.004	0.005
-227.727	-24.081	0.190	-0.114
-226.713	800.000	-0.058	-0.173
-225.698	-125.675	-0.087	-0.013
-224.684	-12.360	0.069	0.045
-223.669	62.257	-0.054	-0.054
-222.655	-200.000	-0.093	-0.503
-221.640	-25.156	0.483	0.286
-220.625	-107.670	0.223	-0.049
-219.611	-200.000	-0.047	0.272
-218.596	189.535	0.073	0.109
-217.582	190.630	0.231	-0.347
-216.567	-53.090	-0.143	-0.066
-215.552	-200.000	-0.002	-0.056
-214.538	-54.619	0.173	0.078
-213.523	39.896	0.309	0.277
-212.509	-21.211	-0.232	0.142
-211.494	-61.002	0.059	0.025
-210.479	264.826	-0.107	0.186
-209.465	288.043	0.027	-0.048
-208.450	-125.419	-0.216	-0.033
-207.436	-200.000	-0.265	0.001
-206.421	412.582	0.173	0.368
-205.406	283.423	-0.089	-0.160
-204.392	4.533	-0.271	0.199
-203.377	-97.181	-0.173	0.045
-202.363	800.000	-0.055	-0.201
-201.348	-96.788	0.221	0.058
-200.333	334.786	-0.071	0.138
-199.319	-200.000	0.003	0.354
-198.304	493.650	0.094	0.215
-197.290	374.353	0.132	0.268
-196.275	-63.257	0.140	0.058
-195.260	-166.838	0.192	0.008
-194.246	112.782	0.122	-0.148
-193.231	-200.000	0.036	-0.185
-192.217	581.868	0.159	0.390
-191.202	-53.168	0.134	0.062
-190.187	91.027	0.058	0.065
-189.173	181.294	0.122	0.179
-188.158	312.933	0.153	0.288
-187.144	484.443	-0.095	0.215
-186.129	-67.724	0.136	0.053
-185.114	-200.000	0.036	0.284
-184.100	-29.907	0.115	0.066
-183.085	-119.102	-0.087	-0.015
-182.071	-101.043	0.380	-0.093
-181.056	-200.000	-0.002	0.119
-180.042	-9.909	0.350	0.233
-179.027	284.680	-0.040	0.072
-178.012	-200.000	-0.036	0.232
-176.998	800.000	0.071	0.308
-175.983	-200.000	0.037	0.226
-174.969	-40.212	-0.042	0.022
-173.954	12.390	-0.236	-0.182
-172.939	-67.835	-0.098	-0.038
-171.925	-51.740	0.229	-0.107
-170.910	-98.318	0.081	0.021
-169.896	-158.490	0.204	0.012
-168.881	800.000	-0.012	-0.041
-167.866	-55.987	0.031	-0.014
-166.852	-153.388	-0.230	0.016
-165.837	-200.000	0.018	0.135
-164.823	-36.738	0.085	0.046
-163.808	64.527	0.315	-0.317
-162.793	-47.663	-0.422	0.205
-161.779	-35.878	-0.215	-0.116
-160.764	105.036	0.221	-0.261
-159.750	79.878	0.176	0.189
-158.735	-128.993	-0.169	-0.024
-157.720	1.531	-0.195	-0.140
-156.706	-200.000	-0.070	0.305
-155.691	-12.858	0.028	0.018
-154.677	-167.230	0.544	-0.022
-153.662	388.070	0.061	-0.125
-152.647	-44.021	0.082	-0.041
-151.633	89.016	0.050	-0.056
-150.618	576.092	0.011	0.028
-149.604	115.467	0.208	-0.254
-148.589	215.335	0.029	0.045
-147.574	-132.330	-0.131	0.017
-146.560	-81.981	0.240	0.078
-145.545	-16.520	0.163	-0.103
-144.531	-186.264	-0.424	0.006
-143.516	-110.023	0.216	-0.045
-142.502	-105.245	0.256	0.058
-141.487	-42.700	0.012	-0.006
-140.472	-94.878	-0.083	0.022
-139.458	800.000	-0.101	-0.355
-138.443	-200.000	-0.067	-0.300
-137.429	360.007	0.038	0.075
-136.414	-200.000	0.013	-0.189
-135.399	-4.284	-0.294	-0.203
-134.385	-18.104	-0.105	-0.065
-133.370	71.979	0.133	-0.138
-132.356	256.093	-0.089	-0.152
-131.341	800.000	0.058	-0.162
-130.326	800.000	-0.077	0.329
-129.312	-77.196	0.131	0.046
-128.297	-24.694	-0.192	-0.114
-127.283	-157.291	-0.358	0.022
-126.268	-99.263	0.233	-0.059
-125.253	296.143	-0.156	0.285
-124.239	-150.632	0.290	0.022
-123.224	-200.000	-0.002	-0.134
-122.210	62.935	0.036	0.036
-121.195	-200.000	0.002	-0.186
