DTS Sentinel unit serial number:	SN413079Multiplexer serial number:	ORYXHardware model number:	OX4-SRSoftware version number:	ORYX F/W v4.00 Oryx Data Collector v3.7.2.0data status	okinstallation	princeton_trtdifferential loss correction	single-endedforward channel	channel 1reverse channel	N/Adate	2019/09/15time	13:30:35forward acquisition time	60.00reverse acquisition time	0.00gamma	496.2192k internal	0.2294k external	0.2294temperature offset calibration	0.9973default loss term (dB/km)	0.3790temperature slope calibration	1.0000multiplexer offset coefficient	1.0000multiplexer slope coefficient	1.0000fibre end	0.00T internal ref (°C)	37.56T ext. ref 1 (°C)	4.85T ext. ref 2 (°C)	34.57length (m)	temperature (°C)	Stokes	anti-Stokes-747.200	253.918	-0.117	0.205
-746.185	-95.190	0.078	0.022
-745.171	134.290	0.183	0.242
-744.156	247.732	-0.092	0.158
-743.142	-84.166	-0.084	-0.027
-742.127	-102.339	-0.057	-0.014
-741.112	-200.000	0.191	0.000
-740.098	27.842	-0.341	0.294
-739.083	71.273	-0.085	0.090
-738.069	88.212	0.302	0.343
-737.054	168.513	0.078	0.113
-736.039	88.237	-0.115	0.131
-735.025	-160.189	-0.223	-0.012
-734.010	-200.000	0.030	-0.138
-732.996	429.779	-0.086	-0.190
-731.981	101.739	0.037	-0.044
-730.966	352.291	0.021	-0.042
-729.952	-57.492	-0.129	0.058
-728.937	697.083	-0.072	-0.194
-727.923	-64.501	0.256	0.106
-726.908	134.503	-0.299	-0.397
-725.894	-200.000	0.019	-0.324
-724.879	-200.000	0.045	-0.249
-723.864	-174.679	-0.348	0.010
-722.850	181.176	-0.066	0.100
-721.835	-200.000	0.036	0.270
-720.821	800.000	0.061	-0.227
-719.806	-101.508	-0.109	-0.027
-718.791	-165.994	-0.490	0.021
-717.777	800.000	-0.095	0.318
-716.762	-133.843	-0.309	0.039
-715.748	16.731	-0.206	-0.167
-714.733	68.952	-0.062	-0.065
-713.718	-44.128	-0.231	0.118
-712.704	81.100	0.083	-0.091
-711.689	-106.503	0.085	0.019
-710.675	-81.185	-0.221	0.075
-709.660	-141.834	-0.327	-0.033
-708.645	-200.000	-0.050	-0.252
-707.631	6.074	-0.169	0.128
-706.616	-33.557	-0.265	-0.150
-705.602	-20.231	-0.118	-0.074
-704.587	779.385	-0.084	-0.236
-703.572	-145.979	0.122	-0.011
-702.558	20.191	0.146	-0.120
-701.543	-97.493	-0.236	-0.063
-700.529	118.126	-0.220	-0.277
-699.514	745.961	-0.025	0.068
-698.499	-82.895	0.244	-0.081
-697.485	-87.305	0.069	0.021
-696.470	-73.765	-0.231	0.086
-695.456	800.000	-0.094	-0.296
-694.441	800.000	-0.122	-0.469
-693.426	-29.386	0.257	-0.150
-692.412	269.238	0.196	-0.350
-691.397	-59.024	-0.309	-0.136
-690.383	-200.000	-0.041	-0.313
-689.368	-9.703	-0.121	-0.082
-688.354	-59.996	-0.294	0.128
-687.339	-200.000	0.003	0.176
-686.324	-200.000	0.016	0.137
-685.310	800.000	-0.016	0.055
-684.295	159.919	0.151	-0.215
-683.281	299.459	-0.081	-0.152
-682.266	-54.067	0.272	0.126
-681.251	-200.000	0.028	-0.406
-680.237	113.250	-0.099	0.123
-679.222	800.000	-0.070	-0.221
-678.208	392.290	-0.152	-0.322
-677.193	-50.631	-0.427	0.205
-676.178	-71.077	0.298	-0.114
-675.164	800.000	-0.066	-0.209
-674.149	800.000	0.038	0.136
-673.135	87.768	-0.241	0.272
-672.120	-200.000	0.022	-0.280
-671.105	245.011	0.084	0.144
-670.091	600.313	0.064	-0.162
-669.076	-200.000	-0.016	0.192
-668.062	-200.000	0.004	-0.130
-667.047	-83.689	0.089	0.029
-666.032	84.232	-0.198	0.221
-665.018	482.302	-0.040	-0.092
-664.003	438.480	-0.123	-0.274
-662.989	800.000	-0.045	-0.143
-661.974	-139.881	-0.230	0.025
-660.959	185.325	0.157	0.238
-659.945	100.483	0.065	0.077
-658.930	30.375	-0.098	-0.085
-657.916	43.482	0.117	0.109
-656.901	102.704	-0.088	-0.105
-655.886	-48.671	0.134	-0.066
-654.872	-200.000	0.019	-0.483
-653.857	-123.712	-0.406	-0.066
-652.843	68.622	0.170	0.178
-651.828	-153.960	0.460	-0.032
-650.814	-124.288	-0.346	-0.055
-649.799	-70.685	-0.182	0.070
-648.784	-27.135	0.078	0.046
-647.770	-8.669	-0.335	-0.229
-646.755	21.589	-0.071	-0.059
-645.741	-200.000	0.057	-0.410
-644.726	30.001	0.155	-0.134
-643.711	-70.480	0.521	-0.201
-642.697	-61.200	-0.236	0.101
-641.682	-91.445	-0.358	0.104
-640.668	117.403	-0.065	-0.082
-639.653	-200.000	-0.026	-0.228
-638.638	-116.254	0.293	0.055
-637.624	676.150	-0.059	0.157
-636.609	81.501	0.226	0.249
-635.595	-90.053	0.319	-0.095
-634.580	-60.901	0.171	-0.074
-633.565	11.506	0.142	0.111
-632.551	800.000	-0.017	-0.064
-631.536	-107.429	0.468	0.105
-630.522	518.337	-0.105	0.250
-629.507	800.000	0.027	-0.083
-628.492	161.851	0.187	0.266
-627.478	-200.000	-0.052	0.234
-626.463	-71.589	0.294	-0.112
-625.449	146.176	0.062	0.084
-624.434	-50.939	-0.256	-0.122
-623.419	-30.810	0.085	0.049
-622.405	-200.000	-0.008	0.270
-621.390	110.906	0.068	-0.083
-620.376	389.130	0.065	-0.137
-619.361	-134.841	0.138	0.017
-618.346	-68.801	0.047	0.019
-617.332	341.907	-0.023	-0.046
-616.317	392.559	-0.097	0.204
-615.303	-112.694	0.244	-0.049
-614.288	505.728	0.067	0.158
-613.273	-29.573	-0.360	-0.209
-612.259	800.000	-0.098	-0.278
-611.244	34.681	0.143	-0.127
-610.230	-110.335	-0.378	0.080
-609.215	-66.214	0.140	-0.057
-608.201	800.000	-0.043	-0.149
-607.186	251.373	0.180	-0.312
-606.171	-200.000	-0.019	-0.329
-605.157	633.995	0.078	-0.201
-604.142	-64.898	0.231	-0.095
-603.128	398.862	-0.070	-0.150
-602.113	320.305	0.162	-0.312
-601.098	0.385	0.093	-0.067
-600.084	195.129	-0.109	-0.168
-599.069	-13.906	0.300	-0.197
-598.055	-184.521	0.261	0.004
-597.040	-20.144	-0.330	-0.207
-596.025	82.093	0.082	-0.090
-595.011	65.840	0.064	0.066
-593.996	511.636	0.079	-0.187
-592.982	272.734	-0.097	0.174
-591.967	-26.752	-0.119	-0.071
-590.952	307.913	0.125	-0.238
-589.938	-88.996	-0.301	-0.090
-588.923	-1.823	0.130	-0.093
-587.909	285.204	-0.075	-0.138
-586.894	-182.414	0.158	0.003
-585.879	446.606	0.063	-0.142
-584.865	82.261	-0.068	-0.075
-583.850	-200.000	0.007	-0.032
-582.836	122.758	-0.124	0.158
-581.821	51.836	0.126	-0.122
-580.806	800.000	0.043	-0.189
-579.792	800.000	0.143	-0.447
-578.777	621.015	0.118	-0.301
-577.763	779.979	-0.075	0.207
-576.748	-141.826	0.353	-0.036
-575.733	-48.495	-0.231	0.113
-574.719	-200.000	0.019	-0.122
-573.704	-9.909	-0.249	0.168
-572.690	79.115	0.095	-0.103
-571.675	-76.789	-0.077	-0.027
-570.661	-18.446	-0.132	0.084
-569.646	-200.000	-0.006	0.232
-568.631	800.000	-0.016	0.052
-567.617	453.655	0.030	-0.066
-566.602	-66.149	-0.243	0.098
-565.588	-200.000	0.045	0.215
-564.573	-75.685	-0.185	-0.067
-563.558	800.000	-0.042	-0.157
-562.544	123.996	-0.179	-0.229
-561.529	-200.000	0.071	-0.475
-560.515	92.494	0.158	-0.181
-559.500	-117.668	-0.274	0.050
-558.485	-200.000	0.044	-0.242
-557.471	-127.237	0.162	0.024
-556.456	120.261	-0.190	-0.240
-555.442	15.686	-0.130	-0.104
-554.427	-52.426	-0.129	0.060
-553.412	350.749	0.063	-0.126
-552.398	-145.681	0.369	-0.033
-551.383	-72.556	-0.201	0.075
-550.369	147.471	-0.051	0.070
-549.354	350.231	-0.013	-0.027
-548.339	108.552	-0.283	0.343
-547.325	53.925	0.175	0.170
-546.310	-6.177	-0.146	0.101
-545.296	119.188	-0.150	0.188
-544.281	-1.723	-0.063	-0.045
-543.266	320.543	-0.083	-0.160
-542.252	98.018	0.092	0.108
-541.237	-200.000	0.015	0.171
-540.223	145.873	-0.133	-0.182
-539.208	-19.643	0.187	0.117
-538.193	-29.090	0.213	-0.124
-537.179	-124.332	0.176	-0.028
-536.164	488.090	-0.035	-0.080
-535.150	-44.831	0.486	-0.246
-534.135	800.000	-0.085	-0.369
-533.121	-12.847	-0.168	0.111
-532.106	191.551	0.167	0.255
-531.091	-147.751	-0.189	-0.016
-530.077	800.000	-0.080	-0.271
-529.062	800.000	-0.053	-0.190
-528.048	-16.189	-0.218	-0.141
-527.033	-157.593	0.402	0.024
-526.018	49.314	-0.251	-0.240
-525.004	-200.000	0.010	-0.110
-523.989	800.000	-0.094	0.266
-522.975	-200.000	0.001	-0.059
-521.960	-200.000	-0.047	0.249
-520.945	-70.818	-0.205	0.079
-519.931	-120.593	0.086	0.015
-518.916	-200.000	0.077	-0.346
-517.902	-27.188	-0.113	0.067
-516.887	-123.770	0.229	0.037
-515.872	-59.567	-0.207	-0.090
-514.858	-89.241	-0.133	-0.040
-513.843	-87.627	-0.117	0.036
-512.829	161.167	0.159	0.226
-511.814	-56.404	-0.143	0.064
-510.799	234.547	0.124	-0.206
-509.785	-200.000	-0.005	-0.351
-508.770	17.860	-0.063	0.051
-507.756	640.506	-0.071	-0.182
-506.741	-23.235	-0.265	-0.162
-505.726	-200.000	-0.062	0.390
-504.712	-101.526	0.061	0.015
-503.697	-200.000	0.009	0.229
-502.683	-17.619	0.110	0.070
-501.668	-122.248	0.174	0.029
-500.653	128.674	0.104	0.134
-499.639	-57.796	0.217	0.096
-498.624	800.000	-0.077	-0.292
-497.610	56.167	-0.094	0.093
-496.595	110.716	0.190	-0.231
-495.581	270.631	-0.047	-0.083
-494.566	-200.000	-0.044	0.298
-493.551	52.693	0.059	0.057
-492.537	-151.535	-0.451	0.034
-491.522	-200.000	-0.085	0.451
-490.508	-200.000	-0.017	0.157
-489.493	-200.000	0.009	0.215
-488.478	800.000	-0.013	-0.040
-487.464	93.113	0.224	-0.257
-486.449	211.229	0.076	0.121
-485.435	-12.870	0.196	-0.130
-484.420	-130.182	0.456	-0.063
-483.405	244.021	-0.122	-0.207
-482.391	-49.079	-0.278	-0.134
-481.376	14.533	0.098	-0.078
-480.362	433.140	-0.015	0.032
-479.347	59.381	-0.192	0.191
-478.332	-200.000	0.027	-0.159
-477.318	-101.607	-0.067	0.016
-476.303	-121.405	-0.101	0.017
-475.289	27.941	0.291	-0.249
-474.274	-50.154	0.198	-0.095
-473.259	89.869	-0.157	-0.178
-472.245	-200.000	-0.025	0.273
-471.230	76.829	-0.230	0.247
-470.216	40.143	-0.014	0.012
-469.201	-200.000	-0.007	-0.298
-468.186	-11.529	-0.349	0.232
-467.172	91.759	0.125	0.142
-466.157	-138.006	0.173	0.019
-465.143	-137.047	-0.213	0.025
-464.128	544.465	-0.088	-0.212
-463.113	-31.583	-0.152	0.086
-462.099	366.329	0.116	-0.238
-461.084	-103.024	0.515	0.123
-460.070	-10.688	-0.030	0.020
-459.055	139.260	-0.145	-0.193
-458.040	-200.000	0.098	-0.458
-457.026	-155.079	-0.390	-0.026
-456.011	-200.000	-0.020	-0.310
-454.997	96.315	0.289	-0.335
-453.982	10.192	-0.180	0.139
-452.968	-167.544	-0.343	-0.014
-451.953	-18.054	0.102	-0.065
-450.938	258.182	0.067	-0.117
-449.924	-149.929	-0.442	0.035
-448.909	-122.146	-0.142	0.024
-447.895	-73.329	0.420	0.155
-446.880	157.235	0.136	-0.190
-445.865	-84.230	0.224	-0.072
-444.851	-90.869	-0.238	-0.069
-443.836	-200.000	0.006	0.351
-442.822	-162.369	0.142	-0.007
-441.807	-15.465	-0.333	0.215
-440.792	-200.000	-0.030	0.422
-439.778	673.008	0.071	-0.186
-438.763	-145.248	0.062	0.006
-437.749	-200.000	-0.087	0.430
-436.734	-157.811	-0.045	-0.003
-435.719	-200.000	0.016	-0.315
-434.705	-17.205	0.238	-0.152
-433.690	-3.700	0.213	-0.150
-432.676	800.000	0.031	0.088
-431.661	-153.588	0.234	-0.016
-430.646	-200.000	-0.003	-0.030
-429.632	48.235	-0.131	0.124
-428.617	-93.120	-0.443	0.125
-427.603	129.776	0.158	0.204
-426.588	-136.436	-0.137	0.016
-425.573	38.685	-0.124	-0.112
-424.559	-101.402	0.247	-0.061
-423.544	200.598	-0.327	0.508
-422.530	800.000	0.029	0.100
-421.515	-95.951	-0.086	-0.023
-420.500	185.497	0.061	-0.092
-419.486	94.983	0.234	-0.269
-418.471	-75.877	0.348	0.124
-417.457	586.022	-0.100	0.248
-416.442	319.138	0.029	0.055
-415.428	-121.439	0.258	0.043
-414.413	-157.133	-0.390	-0.024
-413.398	584.167	-0.041	0.102
-412.384	80.603	0.125	0.136
-411.369	27.600	0.200	0.170
-410.355	-110.728	-0.202	0.042
-409.340	-105.236	-0.215	-0.050
-408.325	-52.286	-0.139	0.065
-407.311	23.009	-0.081	0.067
-406.296	-127.379	-0.360	0.053
-405.282	628.832	-0.032	0.081
-404.267	309.122	0.105	0.198
-403.252	-200.000	-0.022	-0.186
-402.238	119.874	0.165	0.206
-401.223	39.995	0.246	0.223
-400.209	-108.999	-0.393	0.085
-399.194	-121.672	-0.225	0.038
-398.179	-27.495	-0.242	-0.142
-397.165	-200.000	0.008	0.145
-396.150	-200.000	-0.007	0.296
-395.136	-12.092	-0.070	-0.046
-394.121	-151.014	-0.324	0.025
-393.106	-19.484	0.065	-0.041
-392.092	-88.672	-0.385	-0.115
-391.077	-104.809	0.438	-0.102
-390.063	3.795	0.145	-0.107
-389.048	800.000	-0.173	0.485
-388.033	28.797	-0.096	-0.082
-387.019	146.712	0.131	0.178
-386.004	-112.731	0.204	0.041
-384.990	-138.109	-0.200	0.022
-383.975	-125.586	-0.368	-0.056
-382.960	-38.936	-0.393	0.209
-381.946	-27.663	-0.285	-0.167
-380.931	493.001	0.106	0.245
-379.917	-8.264	-0.015	-0.010
-378.902	-200.000	0.057	0.310
-377.888	167.602	-0.168	0.240
-376.873	-23.425	-0.033	0.020
-375.858	-92.709	-0.256	0.072
-374.844	30.992	0.375	-0.324
-373.829	346.552	0.119	-0.237
-372.815	535.564	0.068	0.162
-371.800	-150.985	0.332	0.025
-370.785	81.941	0.062	-0.067
-369.771	800.000	-0.126	0.542
-368.756	800.000	0.040	-0.166
-367.742	-75.817	-0.289	0.103
-366.727	441.765	0.116	0.257
-365.712	-43.200	-0.114	-0.058
-364.698	800.000	0.076	0.258
-363.683	800.000	0.109	0.381
-362.669	210.032	-0.032	-0.051
-361.654	-174.589	-0.150	-0.004
-360.639	-93.637	-0.291	0.081
-359.625	800.000	0.092	0.304
-358.610	123.505	0.178	0.225
-357.596	288.808	-0.049	0.090
-356.581	800.000	-0.049	0.197
-355.566	1.982	-0.118	0.086
-354.552	800.000	0.071	0.248
-353.537	95.397	-0.079	0.090
-352.523	457.482	-0.125	-0.280
-351.508	153.282	-0.076	0.105
-350.493	162.217	-0.307	-0.433
-349.479	108.641	0.107	-0.129
-348.464	-11.372	0.207	-0.138
-347.450	496.752	0.159	-0.369
-346.435	-182.494	0.570	-0.011
-345.420	800.000	0.025	0.070
-344.406	-126.963	-0.484	-0.072
-343.391	-173.473	0.191	-0.006
-342.377	-36.528	0.192	-0.104
-341.362	407.607	-0.133	-0.282
-340.348	-75.385	-0.322	-0.116
-339.333	-100.128	0.090	-0.022
-338.318	-46.984	-0.243	-0.119
-337.304	-73.861	-0.233	0.085
-336.289	-9.312	-0.242	-0.163
-335.275	386.132	0.087	-0.181
-334.260	122.851	-0.072	0.091
-333.245	782.230	0.112	0.307
-332.231	800.000	0.046	-0.149
-331.216	-200.000	-0.000	0.210
-330.202	112.504	-0.081	-0.099
-329.187	-7.654	0.194	0.132
-328.172	-114.981	-0.304	-0.058
-327.158	-200.000	0.043	-0.451
-326.143	34.947	0.165	-0.146
-325.129	377.511	0.041	-0.085
-324.114	-46.017	-0.117	0.058
-323.099	251.460	0.223	0.382
-322.085	80.844	-0.284	0.308
-321.070	-200.000	0.031	0.162
-320.056	40.437	0.137	-0.124
-319.041	341.764	0.168	0.330
-318.026	-200.000	-0.061	0.405
-317.012	54.863	0.080	-0.078
-315.997	-152.659	-0.352	0.025
-314.983	-200.000	0.029	-0.148
-313.968	-85.033	0.152	0.048
-312.953	-200.000	-0.055	0.262
-311.939	154.225	-0.135	-0.187
-310.924	-11.837	0.145	-0.096
-309.910	582.734	0.096	-0.237
-308.895	-140.633	0.053	-0.006
-307.880	-19.075	-0.066	0.041
-306.866	28.640	0.045	-0.038
-305.851	800.000	0.048	0.151
-304.837	114.996	-0.204	0.250
-303.822	-101.110	-0.090	-0.022
-302.807	-200.000	0.004	-0.087
-301.793	68.322	0.194	0.200
-300.778	-115.580	-0.366	0.069
-299.764	574.259	0.081	-0.198
-298.749	380.236	0.101	0.209
-297.735	-142.333	0.036	0.004
-296.720	800.000	0.096	-0.407
-295.705	-25.626	0.254	0.151
-294.691	116.352	0.295	0.363
-293.676	-160.584	-0.138	0.007
-292.662	126.975	-0.173	-0.220
-291.647	-122.154	0.094	-0.015
-290.632	70.761	0.245	0.255
-289.618	-113.232	0.753	0.149
-288.603	54.374	0.164	-0.159
-287.589	-14.896	-0.494	-0.319
-286.574	-31.900	-0.122	0.069
-285.559	-42.878	0.175	0.089
-284.545	158.311	-0.083	-0.116
-283.530	-42.861	-0.085	-0.044
-282.516	-150.017	0.209	-0.016
-281.501	45.722	0.074	-0.069
-280.486	125.244	0.095	-0.121
-279.472	15.244	-0.375	-0.295
-278.457	44.376	0.192	0.178
-277.443	305.741	-0.138	0.258
-276.428	-200.000	0.031	-0.170
-275.413	-200.000	-0.011	0.060
-274.399	340.927	-0.033	0.065
-273.384	135.180	-0.052	-0.068
-272.370	-74.609	-0.238	-0.086
-271.355	800.000	-0.023	0.101
-270.340	-91.672	-0.121	-0.034
-269.326	-66.595	-0.247	-0.098
-268.311	-200.000	0.028	0.235
-267.297	65.487	-0.237	-0.241
-266.282	800.000	0.042	0.156
-265.267	-129.465	0.234	0.033
-264.253	-129.359	-0.428	-0.060
-263.238	-152.448	0.194	0.014
-262.224	466.479	-0.007	-0.015
-261.209	434.337	-0.044	-0.096
-260.195	-71.090	-0.127	0.048
-259.180	158.760	0.130	-0.181
-258.165	-46.749	-0.180	-0.088
-257.151	-132.218	0.300	-0.039
-256.136	-109.691	0.312	0.066
-255.122	-200.000	0.017	-0.138
-254.107	-140.104	0.134	0.014
-253.092	-38.116	0.111	-0.059
-252.078	-58.613	0.353	0.154
-251.063	-200.000	-0.002	0.165
-250.049	61.340	0.252	0.251
-249.034	-200.000	0.024	0.206
-248.019	456.808	-0.080	0.178
-247.005	-88.732	0.194	-0.058
-245.990	202.447	-0.145	0.224
-244.976	-151.500	0.072	0.005
-243.961	-75.175	-0.136	-0.049
-242.946	-200.000	0.092	0.473
-241.932	-92.905	0.241	-0.068
-240.917	-47.881	0.266	0.129
-239.903	-200.000	-0.058	-0.278
-238.888	-27.910	0.170	-0.099
-237.873	154.662	0.186	-0.257
-236.859	-42.237	-0.312	-0.160
-235.844	800.000	-0.038	0.137
-234.830	623.170	0.067	-0.169
-233.815	-171.727	-0.239	0.008
-232.800	-59.758	-0.090	-0.038
-231.786	-70.463	0.068	-0.026
-230.771	800.000	0.057	-0.162
-229.757	800.000	0.095	-0.337
-228.742	452.140	-0.016	-0.036
-227.727	-87.161	0.100	0.031
-226.713	-97.533	-0.103	0.027
-225.698	-49.732	-0.115	0.055
-224.684	-87.135	-0.192	-0.058
-223.669	-200.000	-0.005	-0.255
-222.655	482.168	0.101	0.229
-221.640	-200.000	0.046	0.350
-220.625	134.359	-0.153	0.198
-219.611	-93.439	0.065	0.018
-218.596	-168.109	0.381	0.015
-217.582	800.000	-0.073	0.282
-216.567	204.163	-0.081	-0.126
-215.552	800.000	-0.021	-0.065
-214.538	99.997	-0.085	0.098
-213.523	-200.000	0.013	0.062
-212.509	-112.923	-0.346	0.069
-211.494	24.623	0.169	0.140
-210.479	268.104	-0.043	-0.076
-209.465	531.664	0.051	-0.122
-208.450	800.000	0.092	-0.276
-207.436	193.318	-0.212	0.321
-206.421	44.708	0.320	0.295
-205.406	336.274	0.094	0.183
-204.392	-34.850	0.184	0.101
-203.377	146.962	0.251	0.338
-202.363	31.235	-0.234	-0.201
-201.348	37.933	0.219	-0.195
-200.333	-13.096	0.178	0.116
-199.319	129.068	-0.066	-0.084
-198.304	124.041	-0.062	-0.078
-197.290	-54.472	0.254	-0.115
-196.275	141.662	-0.131	0.174
-195.260	-28.264	-0.173	-0.100
-194.246	-7.513	-0.382	0.259
-193.231	178.052	0.126	-0.183
-192.217	72.886	0.099	-0.103
-191.202	800.000	0.179	-0.495
-190.187	-159.785	0.132	-0.007
-189.173	-60.567	0.280	-0.119
-188.158	4.363	0.109	-0.080
-187.144	-200.000	0.035	0.380
-186.129	-129.761	0.371	-0.051
-185.114	-131.193	-0.019	-0.003
-184.100	-118.990	-0.269	-0.047
-183.085	36.434	0.168	-0.148
-182.071	76.908	0.167	0.178
-181.056	22.216	0.123	0.101
-180.042	143.448	-0.126	0.167
-179.027	-96.358	0.438	0.116
-178.012	590.833	0.035	0.086
-176.998	217.587	-0.170	0.270
-175.983	-200.000	0.016	0.088
-174.969	-200.000	0.010	0.499
-173.954	800.000	-0.013	-0.038
-172.939	700.227	-0.060	0.157
-171.925	-18.557	-0.205	-0.128
-170.910	-78.155	0.105	-0.036
-169.896	88.123	0.185	-0.205
-168.881	276.307	0.057	-0.102
-167.866	609.445	-0.060	0.149
-166.852	-86.540	-0.219	0.067
-165.837	173.150	-0.040	-0.058
-164.823	-58.900	-0.229	0.099
-163.808	-33.270	0.060	0.033
-162.793	-105.739	-0.149	-0.034
-161.779	-129.747	-0.399	-0.055
-160.764	-65.298	-0.099	0.040
-159.750	177.280	-0.167	0.243
-158.735	-200.000	0.052	-0.246
-157.720	-12.848	0.056	0.036
-156.706	426.091	0.073	-0.157
-155.691	132.906	0.155	-0.199
-154.677	-200.000	-0.024	-0.171
-153.662	800.000	0.020	-0.058
-152.647	36.021	-0.061	-0.053
-151.633	-144.829	-0.357	0.033
-150.618	71.421	0.160	-0.166
-149.604	-105.241	0.500	0.114
-148.589	-57.996	0.374	0.163
-147.574	-90.600	-0.190	-0.055
-146.560	-43.845	-0.041	0.021
-145.545	800.000	0.138	0.496
-144.531	514.273	0.074	0.172
-143.516	48.802	0.194	-0.182
-142.502	-99.068	0.259	-0.066
-141.487	-42.506	-0.088	-0.045
-140.472	800.000	-0.015	0.042
-139.458	69.220	-0.221	0.227
-138.443	344.776	0.039	-0.077
-137.429	39.277	-0.192	0.172
-136.414	-200.000	0.007	-0.165
-135.399	189.426	-0.065	-0.097
-134.385	-200.000	-0.011	0.085
-133.370	38.314	0.067	0.060
-132.356	800.000	-0.075	-0.225
-131.341	-200.000	-0.024	-0.386
-130.326	-200.000	0.007	0.031
-129.312	163.292	-0.096	0.135
-128.297	305.378	0.226	0.419
-127.283	196.114	0.074	0.113
-126.268	84.673	-0.192	0.210
-125.253	102.244	-0.060	0.070
-124.239	-161.562	-0.226	-0.012
-123.224	-32.097	0.364	0.204
-122.210	-16.498	0.337	-0.213
