DTS Sentinel unit serial number:	SN413079Multiplexer serial number:	ORYXHardware model number:	OX4-SRSoftware version number:	ORYX F/W v4.00 Oryx Data Collector v3.7.2.0data status	okinstallation	princeton_trtdifferential loss correction	single-endedforward channel	channel 1reverse channel	N/Adate	2019/09/11time	18:12:11forward acquisition time	60.00reverse acquisition time	0.00gamma	496.2192k internal	0.2290k external	0.2290temperature offset calibration	0.9997default loss term (dB/km)	0.3790temperature slope calibration	1.0000multiplexer offset coefficient	1.0000multiplexer slope coefficient	1.0000fibre end	0.00T internal ref (°C)	44.00T ext. ref 1 (°C)	1.14T ext. ref 2 (°C)	38.73length (m)	temperature (°C)	Stokes	anti-Stokes-747.200	598.545	0.053	0.134
-746.185	99.961	0.080	0.095
-745.171	-200.000	0.045	-0.233
-744.156	159.273	-0.128	0.182
-743.142	159.392	0.066	-0.095
-742.127	102.312	0.013	-0.015
-741.112	-200.000	0.045	0.265
-740.098	-200.000	0.068	0.620
-739.083	18.004	0.197	-0.161
-738.069	39.777	-0.227	0.208
-737.054	84.905	-0.184	-0.207
-736.039	800.000	0.007	0.026
-735.025	-107.922	0.306	-0.068
-734.010	-45.340	-0.333	0.169
-732.996	3.961	-0.168	-0.126
-731.981	684.367	-0.053	-0.141
-730.966	-11.591	-0.091	-0.061
-729.952	-200.000	-0.022	-0.330
-728.937	18.715	-0.242	-0.198
-727.923	67.967	0.096	-0.101
-726.908	194.191	0.093	-0.144
-725.894	-83.151	0.088	0.029
-724.879	82.833	0.361	-0.402
-723.864	206.937	0.128	-0.205
-722.850	96.140	-0.159	-0.186
-721.835	800.000	-0.085	-0.257
-720.821	-0.384	-0.009	0.007
-719.806	145.549	-0.207	-0.283
-718.791	4.195	0.102	0.077
-717.777	800.000	-0.071	0.206
-716.762	-200.000	-0.010	-0.306
-715.748	517.410	-0.100	-0.239
-714.733	-200.000	0.012	-0.175
-713.718	32.195	0.275	-0.243
-712.704	-93.011	-0.096	0.027
-711.689	-41.537	0.117	0.061
-710.675	344.643	-0.196	0.394
-709.660	-158.583	-0.110	0.006
-708.645	57.031	-0.170	-0.169
-707.631	130.575	0.063	0.082
-706.616	-156.836	-0.108	-0.007
-705.602	5.328	-0.257	-0.194
-704.587	-73.766	-0.291	0.108
-703.572	503.295	-0.068	0.161
-702.558	39.390	-0.225	-0.206
-701.543	203.079	0.086	-0.137
-700.529	-157.213	-0.488	-0.030
-699.514	159.720	-0.120	0.170
-698.499	277.838	0.074	-0.135
-697.485	75.264	-0.133	0.144
-696.470	89.228	0.097	0.111
-695.456	277.818	-0.007	0.014
-694.441	668.120	-0.061	-0.163
-693.426	-67.536	-0.229	-0.092
-692.412	-200.000	-0.066	0.712
-691.397	275.059	-0.134	-0.244
-690.383	296.606	-0.113	-0.212
-689.368	370.956	-0.050	-0.103
-688.354	-88.149	-0.318	-0.098
-687.339	24.210	0.165	-0.139
-686.324	43.161	-0.129	-0.120
-685.310	329.812	-0.080	0.157
-684.295	-117.094	0.115	0.021
-683.281	-70.668	-0.222	-0.086
-682.266	117.189	0.179	-0.225
-681.251	-28.341	0.170	-0.100
-680.237	192.606	0.283	-0.437
-679.222	138.554	0.115	-0.154
-678.208	-1.882	-0.261	-0.188
-677.193	328.559	0.083	-0.162
-676.178	800.000	-0.037	-0.125
-675.164	-146.348	0.080	-0.007
-674.149	800.000	-0.048	-0.170
-673.135	69.817	-0.160	0.169
-672.120	76.565	0.169	0.183
-671.105	354.806	0.121	-0.247
-670.091	-70.399	0.162	0.063
-669.076	800.000	0.081	0.332
-668.062	161.882	0.182	-0.260
-667.047	-200.000	-0.059	-0.320
-666.032	-55.008	-0.137	0.063
-665.018	39.393	-0.230	-0.210
-664.003	-18.538	-0.109	0.069
-662.989	-28.951	-0.224	0.131
-661.974	-47.165	0.208	-0.103
-660.959	94.767	-0.129	-0.150
-659.945	118.086	0.217	-0.273
-658.930	-32.738	0.212	0.121
-657.916	-83.120	0.220	0.072
-656.901	-78.607	0.032	-0.011
-655.886	-200.000	0.028	-0.157
-654.872	43.929	0.099	-0.093
-653.857	-39.652	-0.596	0.318
-652.843	-117.735	-0.019	0.004
-651.828	-106.876	-0.298	0.067
-650.814	-151.128	-0.278	-0.021
-649.799	462.305	-0.105	0.240
-648.784	-61.668	-0.198	-0.085
-647.770	-145.324	0.201	-0.019
-646.755	-80.499	-0.189	-0.064
-645.741	-200.000	-0.033	0.232
-644.726	-52.309	-0.236	0.111
-643.711	-86.501	0.116	-0.036
-642.697	-134.569	-0.052	0.006
-641.682	16.260	-0.074	-0.060
-640.668	-151.502	-0.325	0.025
-639.653	49.187	-0.037	-0.035
-638.638	-141.110	-0.074	0.008
-637.624	99.602	0.184	-0.217
-636.609	-23.699	-0.153	0.093
-635.595	-19.129	-0.139	0.088
-634.580	-30.552	-0.209	-0.121
-633.565	13.145	-0.134	0.106
-632.551	33.303	0.169	0.149
-631.536	45.363	0.103	-0.097
-630.522	800.000	-0.054	-0.191
-629.507	-93.361	0.267	-0.075
-628.492	-200.000	-0.013	0.138
-627.478	174.708	-0.096	0.142
-626.463	61.177	0.125	-0.126
-625.449	-107.426	0.088	-0.020
-624.434	-200.000	-0.047	0.247
-623.419	113.445	-0.256	0.317
-622.405	459.647	0.133	-0.303
-621.390	800.000	-0.072	-0.209
-620.376	40.933	0.050	0.046
-619.361	17.917	0.065	0.052
-618.346	357.712	0.220	-0.447
-617.332	-107.867	-0.259	0.057
-616.317	58.506	-0.210	0.210
-615.303	-200.000	0.008	-0.092
-614.288	-200.000	-0.081	0.580
-613.273	52.045	0.136	0.132
-612.259	138.903	-0.211	0.282
-611.244	98.135	-0.097	-0.113
-610.230	-196.026	0.306	0.002
-609.215	-90.452	-0.100	0.029
-608.201	89.984	0.062	-0.070
-607.186	-200.000	0.007	0.099
-606.171	-99.220	-0.347	-0.089
-605.157	-8.279	0.159	-0.109
-604.142	447.055	-0.015	0.034
-603.128	-61.096	0.082	0.035
-602.113	49.863	0.221	0.212
-601.098	-54.465	-0.200	0.092
-600.084	-200.000	-0.011	0.065
-599.069	-90.819	-0.238	0.070
-598.055	-13.805	0.079	0.052
-597.040	-200.000	0.020	0.167
-596.025	800.000	-0.021	-0.073
-595.011	175.259	0.042	-0.063
-593.996	-149.886	-0.048	0.004
-592.982	233.876	0.094	-0.157
-591.967	800.000	0.064	0.207
-590.952	-200.000	-0.011	-0.077
-589.938	-151.113	0.300	0.023
-588.923	-200.000	0.024	-0.146
-587.909	412.583	-0.006	0.014
-586.894	157.566	0.141	-0.199
-585.879	800.000	-0.080	0.239
-584.865	-132.150	0.211	-0.028
-583.850	170.530	0.140	0.204
-582.836	-5.888	0.221	-0.154
-581.821	79.041	0.136	0.148
-580.806	172.603	0.139	0.203
-579.792	576.725	-0.061	-0.152
-578.777	-200.000	-0.052	-0.286
-577.763	81.421	0.220	-0.243
-576.748	37.925	-0.354	-0.320
-575.733	73.905	-0.203	-0.217
-574.719	-200.000	-0.052	0.251
-573.704	32.424	-0.193	0.170
-572.690	100.228	-0.073	0.087
-571.675	-145.994	0.241	-0.022
-570.661	800.000	-0.030	-0.095
-569.646	-200.000	-0.006	-0.118
-568.631	-56.426	-0.211	0.095
-567.617	126.286	0.128	0.165
-566.602	394.649	-0.101	0.215
-565.588	-200.000	0.053	-0.266
-564.573	328.113	-0.151	-0.295
-563.558	-200.000	-0.014	0.102
-562.544	800.000	0.121	-0.437
-561.529	800.000	-0.086	-0.252
-560.515	800.000	0.096	0.292
-559.500	636.577	-0.054	0.138
-558.485	-124.953	-0.258	0.040
-557.471	800.000	-0.014	-0.051
-556.456	-25.487	0.075	0.045
-555.442	800.000	0.126	0.394
-554.427	800.000	-0.062	0.204
-553.412	-129.884	-0.203	0.028
-552.398	-144.976	0.279	0.026
-551.383	314.865	-0.114	0.219
-550.369	-200.000	-0.043	-0.287
-549.354	-200.000	-0.071	-0.327
-548.339	395.393	-0.173	0.367
-547.325	-187.431	0.193	0.003
-546.310	-200.000	-0.010	0.104
-545.296	52.416	0.115	-0.112
-544.281	-200.000	0.012	-0.158
-543.266	95.520	-0.206	-0.239
-542.252	-200.000	-0.023	-0.155
-541.237	-87.643	0.113	0.035
-540.223	245.635	-0.091	0.155
-539.208	9.811	-0.309	-0.238
-538.193	-35.569	0.613	-0.338
-537.179	349.400	-0.081	-0.163
-536.164	-200.000	0.007	0.069
-535.150	-146.644	0.187	-0.017
-534.135	104.168	-0.230	-0.275
-533.121	-200.000	0.008	-0.034
-532.106	800.000	0.072	-0.218
-531.091	109.207	0.026	-0.032
-530.077	800.000	0.059	-0.177
-529.062	224.826	0.239	-0.393
-528.048	-200.000	-0.015	-0.137
-527.033	222.315	-0.078	0.128
-526.018	800.000	-0.103	0.450
-525.004	-165.779	0.128	0.006
-523.989	-27.186	-0.211	0.125
-522.975	-25.921	-0.057	-0.034
-521.960	-65.035	-0.085	0.035
-520.945	-5.412	0.146	0.102
-519.931	85.908	-0.208	0.233
-518.916	-58.794	-0.127	0.056
-517.902	-200.000	0.053	0.260
-516.887	18.748	-0.252	-0.205
-515.872	105.024	-0.123	0.148
-514.858	-113.538	0.144	0.029
-513.843	25.514	0.230	-0.194
-512.829	800.000	0.023	-0.072
-511.814	-91.208	-0.157	0.046
-510.799	-104.799	-0.322	0.075
-509.785	-121.603	0.290	0.049
-508.770	-123.538	-0.203	-0.033
-507.756	800.000	0.086	-0.315
-506.741	-200.000	0.007	0.128
-505.726	247.725	0.085	0.145
-504.712	-200.000	0.001	0.142
-503.697	-102.434	0.109	-0.026
-502.683	-96.803	-0.343	0.091
-501.668	-12.968	-0.248	-0.164
-500.653	-36.240	0.077	0.042
-499.639	669.843	0.096	-0.252
-498.624	60.415	0.077	0.077
-497.610	-123.823	0.106	-0.017
-496.595	168.348	0.233	-0.337
-495.581	346.896	0.042	-0.083
-494.566	7.260	-0.207	0.156
-493.551	-16.011	-0.184	0.119
-492.537	12.737	-0.259	0.203
-491.522	-61.050	0.192	-0.082
-490.508	-74.779	-0.294	-0.107
-489.493	-65.654	0.225	0.092
-488.478	-117.817	0.295	-0.054
-487.464	-200.000	0.007	0.149
-486.449	-121.940	0.100	0.017
-485.435	-147.235	-0.164	0.014
-484.420	142.148	0.129	-0.173
-483.405	800.000	0.076	-0.261
-482.391	-158.459	-0.308	0.018
-481.376	-111.960	0.394	-0.081
-480.362	-11.962	0.201	0.134
-479.347	-109.758	-0.311	-0.066
-478.332	800.000	-0.051	0.150
-477.318	800.000	0.052	-0.148
-476.303	92.962	0.115	0.131
-475.289	-200.000	-0.012	-0.292
-474.274	51.955	0.033	0.032
-473.259	780.845	-0.057	-0.157
-472.245	54.830	-0.171	-0.167
-471.230	15.910	0.133	0.106
-470.216	-17.622	0.063	0.040
-469.201	-41.839	0.324	-0.168
-468.186	800.000	0.094	0.267
-467.172	-104.986	0.065	0.015
-466.157	303.728	-0.082	-0.155
-465.143	55.063	-0.112	0.110
-464.128	-66.486	-0.169	0.068
-463.113	55.541	0.102	-0.100
-462.099	144.044	0.294	0.397
-461.084	8.153	-0.218	0.166
-460.070	-200.000	0.009	0.131
-459.055	156.904	-0.129	-0.180
-458.040	-170.352	-0.181	-0.006
-457.026	433.273	0.073	-0.160
-456.011	-130.122	0.181	-0.025
-454.997	168.743	-0.071	-0.102
-453.982	4.239	0.240	-0.178
-452.968	45.038	-0.268	-0.250
-451.953	-90.789	0.073	-0.021
-450.938	37.831	-0.058	-0.052
-449.924	800.000	0.012	-0.038
-448.909	-71.806	0.059	0.022
-447.895	-59.994	0.161	-0.070
-446.880	-185.156	-0.356	-0.006
-445.865	119.884	0.080	-0.101
-444.851	-133.882	-0.164	-0.021
-443.836	-145.909	0.039	0.004
-442.822	96.375	-0.053	-0.062
-441.807	555.827	-0.074	-0.181
-440.792	378.056	-0.071	-0.148
-439.778	-87.856	-0.070	-0.021
-438.763	-187.542	-0.031	-0.000
-437.749	-74.565	-0.356	0.130
-436.734	153.182	0.063	0.088
-435.719	39.927	0.024	0.022
-434.705	-2.445	-0.174	0.123
-433.690	-66.333	0.107	-0.043
-432.676	-122.399	0.207	-0.034
-431.661	-2.910	0.106	-0.075
-430.646	-23.471	0.186	-0.113
-429.632	-95.693	-0.088	0.024
-428.617	800.000	-0.051	-0.143
-427.603	-122.899	0.276	0.045
-426.588	-5.859	0.124	-0.086
-425.573	-88.957	-0.075	0.023
-424.559	-159.899	-0.235	-0.013
-423.544	23.614	-0.117	0.097
-422.530	800.000	0.053	-0.178
-421.515	384.003	0.100	0.208
-420.500	87.569	0.185	0.207
-419.486	800.000	-0.021	0.083
-418.471	578.732	-0.051	0.125
-417.457	-172.512	-0.405	-0.013
-416.442	26.096	-0.083	-0.070
-415.428	66.164	0.161	-0.165
-414.413	137.304	-0.036	0.048
-413.398	-200.000	-0.015	0.263
-412.384	175.389	0.239	0.351
-411.369	-24.564	-0.347	0.209
-410.355	-56.674	0.235	0.105
-409.340	-200.000	0.034	-0.172
-408.325	-81.989	-0.128	0.042
-407.311	-18.743	-0.263	0.166
-406.296	187.115	0.070	0.105
-405.282	355.726	0.150	-0.301
-404.267	-200.000	-0.029	-0.569
-403.252	127.813	0.241	-0.309
-402.238	-200.000	0.007	-0.127
-401.223	84.028	-0.121	-0.134
-400.209	175.751	0.020	-0.029
-399.194	343.833	0.220	-0.435
-398.179	800.000	0.071	-0.238
-397.165	228.151	0.108	-0.177
-396.150	306.149	-0.040	-0.075
-395.136	51.766	-0.081	-0.078
-394.121	-200.000	0.025	-0.259
-393.106	397.258	0.156	-0.329
-392.092	-200.000	-0.008	-0.064
-391.077	-57.621	-0.244	0.108
-390.063	-92.507	-0.081	0.023
-389.048	-200.000	-0.023	0.137
-388.033	-94.533	0.289	0.080
-387.019	63.375	-0.192	-0.195
-386.004	-24.818	-0.046	-0.027
-384.990	-51.124	0.121	-0.057
-383.975	-68.134	0.194	-0.076
-382.960	10.702	-0.116	0.090
-381.946	-41.211	0.200	0.104
-380.931	-200.000	0.005	-0.131
-379.917	-200.000	0.019	-0.101
-378.902	-2.816	0.175	-0.124
-377.888	-200.000	-0.021	-0.128
-376.873	-200.000	-0.071	0.470
-375.858	-99.564	-0.376	0.096
-374.844	800.000	-0.030	-0.126
-373.829	158.741	0.040	-0.056
-372.815	26.709	-0.208	0.176
-371.800	62.509	0.212	0.214
-370.785	276.481	0.211	0.379
-369.771	383.407	-0.100	-0.207
-368.756	40.639	0.061	-0.056
-367.742	4.669	0.302	0.224
-366.727	800.000	0.088	-0.319
-365.712	-111.597	0.340	0.070
-364.698	-40.041	0.181	-0.095
-363.683	800.000	-0.029	0.087
-362.669	-50.732	0.068	0.032
-361.654	539.471	0.061	0.146
-360.639	-70.282	0.130	-0.050
-359.625	-103.965	0.230	-0.054
-358.610	134.864	-0.115	-0.151
-357.596	80.377	0.162	-0.176
-356.581	739.864	-0.075	-0.203
-355.566	168.551	0.077	-0.111
-354.552	-200.000	0.009	0.177
-353.537	-102.557	-0.398	-0.096
-352.523	800.000	-0.028	-0.098
-351.508	46.203	0.302	-0.282
-350.493	364.115	-0.085	-0.173
-349.479	-157.523	0.353	-0.021
-348.464	-200.000	-0.042	0.202
-347.450	-124.429	0.226	0.036
-346.435	118.563	0.072	0.090
-345.420	-126.432	-0.417	-0.063
-344.406	602.541	0.174	0.435
-343.391	-153.099	-0.140	-0.010
-342.377	4.987	-0.104	-0.077
-341.362	-91.815	0.197	-0.056
-340.348	-60.726	0.244	-0.104
-339.333	-120.076	-0.295	-0.051
-338.318	380.804	0.125	0.259
-337.304	800.000	0.099	0.311
-336.289	-62.606	-0.093	-0.039
-335.275	-85.515	-0.363	0.114
-334.260	33.711	0.275	-0.241
-333.245	169.043	-0.080	0.115
-332.231	59.082	-0.156	0.155
-331.216	800.000	-0.026	-0.093
-330.202	93.625	0.263	0.300
-329.187	-40.903	-0.311	0.162
-328.172	-69.258	0.061	-0.023
-327.158	-200.000	0.004	0.062
-326.143	7.109	0.141	-0.106
-325.129	354.499	-0.287	0.575
-324.114	93.063	-0.262	0.299
-323.099	-200.000	-0.029	0.257
-322.085	-161.372	0.361	0.019
-321.070	800.000	-0.062	0.194
-320.056	-33.658	-0.171	0.095
-319.041	-70.024	-0.379	-0.145
-318.026	-137.887	0.413	-0.047
-317.012	800.000	-0.046	-0.160
-315.997	800.000	0.049	-0.189
-314.983	-123.779	-0.475	-0.076
-313.968	800.000	-0.056	-0.168
-312.953	-19.037	0.202	-0.126
-311.939	-200.000	-0.029	0.324
-310.924	-41.086	-0.228	-0.119
-309.910	-140.661	0.198	-0.021
-308.895	-123.580	0.069	-0.011
-307.880	800.000	0.103	0.331
-306.866	800.000	-0.032	0.115
-305.851	-111.000	0.313	-0.065
-304.837	-200.000	-0.002	-0.257
-303.822	800.000	-0.092	0.291
-302.807	-156.842	-0.444	0.027
-301.793	-200.000	-0.013	0.203
-300.778	317.030	-0.053	0.102
-299.764	-200.000	-0.004	0.365
-298.749	-136.785	-0.366	-0.042
-297.735	165.417	0.068	-0.097
-296.720	-200.000	0.059	0.261
-295.705	-200.000	0.001	0.055
-294.691	-81.955	-0.249	-0.082
-293.676	512.176	0.101	0.237
-292.662	-114.065	-0.153	0.030
-291.647	319.798	0.096	0.183
-290.632	367.864	0.078	0.158
-289.618	-78.829	-0.482	-0.165
-288.603	-98.186	0.284	0.073
-287.589	378.484	-0.093	0.192
-286.574	800.000	0.124	0.347
-285.559	-200.000	-0.007	-0.101
-284.545	-200.000	0.003	-0.276
-283.530	800.000	0.062	-0.250
-282.516	88.558	-0.054	0.061
-281.501	-58.769	-0.145	0.063
-280.486	-101.769	-0.190	-0.046
-279.472	-49.656	-0.214	-0.102
-278.457	-52.473	0.373	-0.174
-277.443	-123.920	0.179	-0.028
-276.428	-33.990	0.169	0.093
-275.413	28.367	-0.330	-0.280
-274.399	-200.000	0.017	0.153
-273.384	-200.000	0.011	-0.098
-272.370	-42.497	-0.069	-0.035
-271.355	800.000	0.058	0.194
-270.340	-7.109	0.151	0.103
-269.326	-200.000	-0.039	0.336
-268.311	-117.832	-0.302	0.055
-267.297	-74.378	0.199	0.072
-266.282	673.327	0.065	0.170
-265.267	224.858	-0.143	0.233
-264.253	800.000	0.040	0.139
-263.238	-137.601	-0.091	-0.010
-262.224	-200.000	0.006	0.204
-261.209	-200.000	0.011	0.168
-260.195	-200.000	-0.042	0.284
-259.180	250.902	-0.190	0.325
-258.165	252.550	0.170	-0.292
-257.151	108.022	0.144	-0.172
-256.136	-200.000	0.003	0.049
-255.122	800.000	-0.062	-0.181
-254.107	353.627	-0.095	-0.189
-253.092	-200.000	0.009	0.091
-252.078	-45.500	-0.061	0.030
-251.063	126.013	-0.059	-0.075
-250.049	-167.670	0.238	-0.009
-249.034	-22.935	0.104	-0.063
-248.019	-23.365	0.205	0.124
-247.005	800.000	-0.075	-0.208
-245.990	-48.827	-0.118	0.057
-244.976	800.000	0.058	-0.244
-243.961	142.036	-0.140	-0.186
-242.946	-79.065	0.341	-0.116
-241.932	-122.743	0.116	-0.019
-240.917	-96.055	0.377	-0.101
-239.903	84.367	0.151	0.166
-238.888	-99.447	-0.152	-0.038
-237.873	-30.444	-0.151	0.086
-236.859	-200.000	0.031	0.251
-235.844	800.000	0.050	0.186
-234.830	-200.000	0.036	-0.286
-233.815	-56.145	0.208	-0.093
-232.800	-200.000	0.046	0.290
-231.786	328.805	-0.168	-0.324
-230.771	197.774	-0.073	-0.113
-229.757	-200.000	0.098	-0.000
-228.742	3.270	0.187	-0.137
-227.727	582.583	-0.053	-0.132
-226.713	800.000	-0.038	-0.145
-225.698	140.517	0.098	-0.130
-224.684	75.476	0.191	-0.203
-223.669	289.031	-0.065	0.118
-222.655	-111.604	-0.139	-0.028
-221.640	-47.982	0.140	0.068
-220.625	-200.000	0.014	-0.306
-219.611	366.252	0.021	0.042
-218.596	592.989	-0.131	-0.324
-217.582	150.185	0.035	-0.047
-216.567	-124.174	-0.322	-0.051
-215.552	-105.771	0.295	-0.067
-214.538	-200.000	0.071	0.324
-213.523	-114.361	0.269	0.052
-212.509	282.792	0.121	-0.218
-211.494	315.408	0.181	0.342
-210.479	-39.116	-0.284	-0.150
-209.465	800.000	-0.083	-0.243
-208.450	21.245	-0.060	-0.049
-207.436	523.112	0.047	0.110
-206.421	23.123	-0.088	-0.072
-205.406	119.796	-0.053	-0.066
-204.392	-112.256	-0.205	-0.041
-203.377	-62.008	-0.297	-0.125
-202.363	-174.677	-0.252	-0.007
-201.348	11.395	0.077	-0.059
-200.333	355.706	-0.074	0.147
-199.319	44.056	-0.397	0.365
-198.304	-200.000	0.047	0.307
-197.290	-38.796	0.058	0.031
-196.275	20.866	-0.249	0.202
-195.260	22.242	0.183	0.150
-194.246	110.629	0.066	0.079
-193.231	-200.000	-0.006	0.149
-192.217	-200.000	0.036	-0.251
-191.202	107.002	-0.196	0.233
-190.187	-118.524	-0.055	-0.010
-189.173	254.136	0.066	-0.114
-188.158	166.825	-0.143	-0.203
-187.144	-200.000	0.006	-0.243
-186.129	-30.102	-0.106	-0.060
-185.114	-200.000	-0.022	-0.200
-184.100	-200.000	0.060	-0.268
-183.085	369.217	0.060	0.122
-182.071	-200.000	-0.012	-0.299
-181.056	-200.000	-0.023	-0.165
-180.042	-33.085	0.232	0.129
-179.027	762.194	-0.121	0.330
-178.012	149.815	-0.050	-0.068
-176.998	800.000	-0.012	0.033
-175.983	-97.369	0.169	0.044
-174.969	-200.000	0.002	0.267
-173.954	-44.574	0.209	-0.105
-172.939	159.711	0.088	0.123
-171.925	-200.000	-0.007	-0.095
-170.910	238.276	0.085	-0.141
-169.896	-57.534	0.225	0.099
-168.881	99.165	0.054	-0.062
-167.866	-200.000	0.079	0.356
-166.852	48.182	0.342	0.320
-165.837	228.312	-0.087	0.143
-164.823	800.000	-0.080	0.298
-163.808	-96.875	-0.103	-0.027
-162.793	438.672	-0.129	-0.282
-161.779	-10.640	0.059	0.039
-160.764	44.534	-0.230	0.212
-159.750	-71.928	-0.062	-0.023
-158.735	-71.133	0.329	-0.124
-157.720	-200.000	0.002	0.160
-156.706	20.590	-0.293	0.237
-155.691	388.572	-0.044	-0.092
-154.677	-159.247	0.272	-0.015
-153.662	800.000	0.112	-0.318
-152.647	-21.957	0.132	-0.080
-151.633	-58.739	0.263	-0.114
-150.618	800.000	0.075	0.308
-149.604	112.896	-0.078	0.095
-148.589	-0.933	-0.102	0.072
-147.574	97.463	0.133	0.153
-146.560	45.451	-0.206	0.190
-145.545	-63.585	0.135	0.055
-144.531	-200.000	0.002	0.066
-143.516	-200.000	0.017	0.415
-142.502	351.611	-0.086	0.171
-141.487	800.000	-0.041	0.180
-140.472	-3.658	0.283	0.197
-139.458	-19.142	0.251	0.156
-138.443	-36.466	0.341	0.184
-137.429	332.964	0.114	0.220
-136.414	-200.000	-0.042	0.289
-135.399	800.000	-0.097	0.320
-134.385	-141.779	0.332	0.033
-133.370	-68.017	-0.319	0.125
-132.356	-134.651	0.401	-0.049
-131.341	287.132	-0.039	-0.070
-130.326	449.262	-0.120	-0.265
-129.312	4.051	-0.288	0.211
-128.297	7.409	0.137	0.103
-127.283	-200.000	-0.033	0.217
-126.268	-43.570	0.171	0.086
-125.253	-21.147	-0.302	0.185
-124.239	213.590	-0.078	-0.123
-123.224	-131.365	-0.184	-0.024
-122.210	800.000	0.094	0.405
-121.195	-73.446	0.124	0.045
