DTS Sentinel unit serial number:	SN413079Multiplexer serial number:	ORYXHardware model number:	OX4-SRSoftware version number:	ORYX F/W v4.00 Oryx Data Collector v3.7.2.0data status	okinstallation	princeton_trtdifferential loss correction	single-endedforward channel	channel 1reverse channel	N/Adate	2019/09/19time	09:50:35forward acquisition time	60.00reverse acquisition time	0.00gamma	496.2192k internal	0.2340k external	0.2340temperature offset calibration	1.0003default loss term (dB/km)	0.3790temperature slope calibration	1.0000multiplexer offset coefficient	1.0000multiplexer slope coefficient	1.0000fibre end	0.00T internal ref (°C)	23.47T ext. ref 1 (°C)	0.64T ext. ref 2 (°C)	19.45length (m)	temperature (°C)	Stokes	anti-Stokes-747.200	-184.665	0.436	0.007
-746.185	-200.000	0.008	0.047
-745.171	432.576	-0.104	-0.226
-744.156	696.212	-0.096	0.253
-743.142	-200.000	0.025	-0.296
-742.127	164.982	0.208	0.294
-741.112	-200.000	0.014	0.378
-740.098	-26.151	-0.265	-0.156
-739.083	-133.754	0.209	0.026
-738.069	-118.539	-0.055	0.010
-737.054	-200.000	0.039	0.176
-736.039	-81.158	-0.454	0.150
-735.025	-200.000	-0.021	0.326
-734.010	129.888	-0.244	-0.312
-732.996	28.073	0.140	-0.118
-731.981	-9.360	-0.176	-0.117
-730.966	-170.235	-0.141	-0.005
-729.952	-4.249	-0.133	-0.092
-728.937	-126.403	-0.231	-0.034
-727.923	185.102	-0.124	-0.185
-726.908	89.569	-0.052	0.058
-725.894	169.870	0.076	0.108
-724.879	157.177	-0.191	0.265
-723.864	-93.745	0.277	-0.077
-722.850	-50.494	-0.165	0.078
-721.835	-200.000	-0.058	-0.292
-720.821	-129.759	-0.246	0.034
-719.806	386.444	-0.104	-0.216
-718.791	322.905	-0.176	-0.337
-717.777	62.977	-0.247	-0.248
-716.762	-13.006	0.185	-0.121
-715.748	-14.130	-0.073	-0.047
-714.733	80.749	-0.258	-0.278
-713.718	505.479	-0.021	-0.050
-712.704	-94.790	0.079	-0.021
-711.689	455.228	0.091	0.203
-710.675	97.171	-0.394	0.453
-709.660	-200.000	-0.015	0.105
-708.645	-22.348	0.171	-0.104
-707.631	153.707	-0.143	-0.196
-706.616	73.605	0.041	-0.043
-705.602	-200.000	-0.010	-0.123
-704.587	46.590	-0.179	-0.166
-703.572	41.432	-0.097	-0.088
-702.558	-71.500	0.201	-0.075
-701.543	-200.000	0.011	-0.158
-700.529	-96.256	0.089	0.023
-699.514	-90.469	0.088	-0.026
-698.499	-60.108	-0.145	0.062
-697.485	169.573	-0.102	-0.146
-696.470	295.898	-0.147	0.270
-695.456	344.461	0.115	0.226
-694.441	179.931	0.121	0.178
-693.426	-100.925	-0.186	0.046
-692.412	-52.966	0.053	0.024
-691.397	-88.362	-0.331	-0.099
-690.383	800.000	-0.058	-0.161
-689.368	-9.423	-0.148	0.099
-688.354	-58.547	-0.050	-0.022
-687.339	123.738	0.071	-0.089
-686.324	6.873	0.116	-0.086
-685.310	-115.551	0.159	-0.030
-684.295	31.095	-0.227	-0.195
-683.281	121.797	0.119	-0.149
-682.266	-29.745	0.289	0.165
-681.251	322.765	0.086	0.163
-680.237	-173.697	-0.092	-0.003
-679.222	-69.226	-0.202	0.078
-678.208	800.000	-0.046	0.166
-677.193	-176.858	0.321	0.008
-676.178	126.180	-0.181	-0.229
-675.164	-65.542	-0.370	-0.149
-674.149	-200.000	0.055	-0.349
-673.135	415.551	-0.115	-0.246
-672.120	-56.119	-0.233	0.104
-671.105	158.531	-0.062	-0.086
-670.091	-7.800	0.090	-0.061
-669.076	800.000	-0.072	-0.280
-668.062	39.853	0.556	0.499
-667.047	741.238	0.122	-0.328
-666.032	-180.491	0.376	0.008
-665.018	203.095	-0.043	-0.066
-664.003	329.252	0.094	0.182
-662.989	-200.000	0.013	0.421
-661.974	-183.163	-0.181	-0.003
-660.959	1.313	-0.181	0.130
-659.945	57.414	0.233	0.227
-658.930	31.806	0.200	-0.172
-657.916	-68.243	0.269	-0.105
-656.901	62.714	-0.114	0.114
-655.886	124.589	-0.184	-0.232
-654.872	-200.000	0.048	-0.238
-653.857	98.927	0.149	0.172
-652.843	61.649	-0.115	-0.114
-651.828	-124.762	0.304	0.047
-650.814	-200.000	0.005	-0.089
-649.799	800.000	-0.008	0.033
-648.784	-57.703	0.149	-0.065
-647.770	212.784	-0.149	-0.235
-646.755	-103.144	0.049	-0.012
-645.741	431.034	-0.054	0.117
-644.726	800.000	-0.115	0.350
-643.711	-200.000	0.001	0.115
-642.697	70.591	0.235	-0.243
-641.682	236.446	-0.049	0.081
-640.668	-101.099	0.083	0.020
-639.653	-52.787	0.096	0.044
-638.638	-10.533	-0.039	0.026
-637.624	-109.431	-0.339	-0.072
-636.609	800.000	-0.093	-0.295
-635.595	-200.000	0.047	-0.226
-634.580	29.747	-0.306	-0.260
-633.565	85.248	0.266	-0.292
-632.551	212.199	-0.079	-0.124
-631.536	113.899	-0.078	0.095
-630.522	35.269	-0.209	0.183
-629.507	-200.000	-0.004	0.056
-628.492	-110.360	0.102	0.021
-627.478	68.873	-0.117	-0.120
-626.463	-200.000	-0.024	-0.141
-625.449	800.000	-0.114	-0.415
-624.434	800.000	-0.114	-0.476
-623.419	-154.167	0.245	0.017
-622.405	209.543	0.236	-0.370
-621.390	-73.411	-0.167	-0.061
-620.376	-105.926	0.259	-0.058
-619.361	-118.612	-0.264	-0.047
-618.346	-144.997	-0.177	0.016
-617.332	9.673	-0.137	0.104
-616.317	92.979	-0.122	-0.137
-615.303	95.643	0.356	-0.406
-614.288	-200.000	0.064	0.404
-613.273	-83.821	-0.180	-0.057
-612.259	-130.331	0.206	0.028
-611.244	-141.591	0.246	-0.025
-610.230	-106.177	-0.208	0.047
-609.215	-117.837	0.234	-0.042
-608.201	411.850	0.084	-0.179
-607.186	306.829	0.103	0.191
-606.171	85.544	0.142	-0.156
-605.157	337.916	-0.047	-0.092
-604.142	-22.908	-0.163	-0.098
-603.128	15.236	0.214	-0.167
-602.113	-122.500	0.163	-0.026
-601.098	223.219	-0.112	0.181
-600.084	-70.603	0.094	-0.035
-599.069	149.084	-0.144	-0.195
-598.055	800.000	0.016	-0.051
-597.040	-110.908	0.264	-0.054
-596.025	396.952	-0.097	-0.202
-595.011	145.372	-0.086	-0.115
-593.996	-19.624	-0.163	0.101
-592.982	-200.000	0.060	-0.274
-591.967	-154.759	0.137	0.009
-590.952	37.290	-0.134	-0.118
-589.938	800.000	0.044	-0.134
-588.923	-45.491	-0.380	-0.188
-587.909	302.619	0.032	-0.060
-586.894	433.825	0.043	0.092
-585.879	800.000	0.119	0.429
-584.865	609.783	0.107	0.265
-583.850	-71.211	0.033	-0.012
-582.836	-71.359	-0.023	0.009
-581.821	-200.000	0.018	0.085
-580.806	-200.000	0.026	0.169
-579.792	-92.624	-0.134	0.037
-578.777	-90.273	-0.585	0.169
-577.763	-82.190	-0.256	0.083
-576.748	342.891	-0.192	-0.375
-575.733	-200.000	-0.041	0.292
-574.719	800.000	0.087	0.266
-573.704	-200.000	-0.043	0.279
-572.690	7.218	0.043	0.032
-571.675	-79.651	-0.371	-0.125
-570.661	-200.000	-0.000	-0.242
-569.646	347.935	0.084	-0.164
-568.631	237.270	0.098	-0.162
-567.617	800.000	-0.026	0.082
-566.602	-200.000	0.011	-0.131
-565.588	-44.642	-0.146	-0.073
-564.573	49.705	0.191	-0.179
-563.558	360.178	0.108	0.216
-562.544	-200.000	-0.013	0.193
-561.529	10.765	-0.161	0.122
-560.515	-90.208	0.244	0.071
-559.500	-16.950	0.055	-0.034
-558.485	-133.864	-0.120	0.015
-557.471	-200.000	0.030	-0.150
-556.456	108.055	-0.073	0.086
-555.442	-200.000	-0.017	0.168
-554.427	-124.069	-0.309	0.048
-553.412	106.025	-0.138	0.162
-552.398	65.500	-0.032	0.032
-551.383	7.105	-0.240	-0.178
-550.369	65.535	-0.173	-0.175
-549.354	-102.643	0.181	-0.043
-548.339	-130.149	0.180	0.024
-547.325	-41.870	-0.208	0.106
-546.310	-120.608	-0.086	-0.014
-545.296	-28.848	-0.208	0.119
-544.281	-79.464	0.251	0.084
-543.266	-200.000	-0.022	0.137
-542.252	-60.341	-0.222	0.094
-541.237	800.000	0.026	0.077
-540.223	382.943	-0.074	-0.151
-539.208	318.072	-0.084	0.157
-538.193	-200.000	-0.008	-0.174
-537.179	132.202	-0.190	0.243
-536.164	800.000	-0.044	-0.171
-535.150	-85.059	0.036	0.011
-534.135	229.529	-0.239	-0.389
-533.121	85.125	-0.190	0.208
-532.106	270.690	0.070	-0.122
-531.091	-51.741	0.248	0.115
-530.077	800.000	-0.075	-0.215
-529.062	94.689	-0.144	-0.163
-528.048	-200.000	0.036	-0.455
-527.033	-200.000	0.008	0.094
-526.018	-172.682	0.254	0.008
-525.004	44.464	0.206	0.188
-523.989	-200.000	0.010	0.382
-522.975	-200.000	0.062	-0.310
-521.960	317.519	-0.125	-0.235
-520.945	-132.238	0.176	-0.023
-519.931	-41.604	0.108	0.055
-518.916	800.000	-0.061	-0.207
-517.902	-86.021	0.158	0.049
-516.887	270.221	-0.047	0.082
-515.872	376.010	0.136	0.275
-514.858	313.017	-0.113	-0.211
-513.843	-200.000	0.032	-0.172
-512.829	-129.997	-0.226	0.031
-511.814	225.881	0.099	-0.159
-510.799	496.388	-0.039	-0.090
-509.785	325.756	-0.029	0.055
-508.770	-200.000	0.008	0.124
-507.756	89.504	0.135	-0.150
-506.741	-200.000	0.018	-0.112
-505.726	-140.872	-0.464	-0.047
-504.712	-200.000	0.028	-0.202
-503.697	800.000	-0.092	0.271
-502.683	-148.970	0.311	0.025
-501.668	103.333	0.159	-0.185
-500.653	11.464	-0.190	-0.144
-499.639	-48.774	-0.121	0.057
-498.624	-125.631	0.240	0.036
-497.610	51.535	0.147	0.139
-496.595	-5.904	-0.233	0.159
-495.581	787.289	-0.098	-0.267
-494.566	125.666	0.156	-0.195
-493.551	-200.000	0.004	-0.102
-492.537	181.360	0.082	0.119
-491.522	800.000	-0.038	0.156
-490.508	-12.423	-0.124	-0.081
-489.493	-200.000	-0.062	0.374
-488.478	-200.000	0.009	0.070
-487.464	800.000	-0.027	-0.103
-486.449	-200.000	0.016	-0.131
-485.435	6.065	0.154	-0.113
-484.420	111.677	-0.126	0.150
-483.405	165.699	-0.243	0.341
-482.391	-174.062	0.082	-0.002
-481.376	742.868	-0.084	-0.223
-480.362	-42.780	-0.253	0.128
-479.347	-91.371	0.217	0.061
-478.332	105.290	-0.088	0.104
-477.318	76.182	-0.099	0.104
-476.303	-200.000	-0.043	-0.371
-475.289	-104.604	0.390	-0.089
-474.274	-200.000	-0.009	-0.105
-473.259	800.000	0.179	-0.551
-472.245	-2.726	-0.188	-0.131
-471.230	-200.000	0.013	-0.126
-470.216	210.343	-0.093	-0.144
-469.201	-37.254	-0.364	0.193
-468.186	-200.000	0.036	0.239
-467.172	-136.521	0.319	-0.037
-466.157	800.000	-0.044	-0.170
-465.143	-200.000	-0.001	-0.135
-464.128	-69.841	0.256	-0.097
-463.113	97.068	0.067	-0.077
-462.099	540.889	0.074	0.174
-461.084	-174.456	-0.274	-0.008
-460.070	655.800	-0.162	-0.412
-459.055	-188.266	-0.337	-0.004
-458.040	185.209	-0.232	-0.342
-457.026	-117.702	-0.204	-0.036
-456.011	88.988	-0.012	0.013
-454.997	-3.564	0.122	0.084
-453.982	-2.876	0.174	0.121
-452.968	-17.561	-0.117	0.073
-451.953	-134.735	-0.072	-0.009
-450.938	432.289	-0.119	0.255
-449.924	-179.858	0.173	0.004
-448.909	87.942	0.128	0.141
-447.895	101.296	-0.127	0.147
-446.880	33.849	0.154	0.133
-445.865	800.000	0.040	-0.167
-444.851	125.281	0.165	0.207
-443.836	800.000	0.043	-0.138
-442.822	-76.626	-0.116	0.040
-441.807	-200.000	0.003	-0.224
-440.792	-24.022	-0.197	0.116
-439.778	116.082	-0.051	-0.062
-438.763	-195.581	0.114	-0.001
-437.749	-77.873	-0.418	0.143
-436.734	-96.120	0.292	0.077
-435.719	800.000	0.150	-0.437
-434.705	-200.000	0.001	0.025
-433.690	434.945	-0.075	0.162
-432.676	90.647	0.431	0.478
-431.661	-200.000	0.071	0.321
-430.646	294.091	-0.056	-0.102
-429.632	-153.719	0.102	0.007
-428.617	-200.000	0.041	-0.195
-427.603	409.525	-0.187	0.392
-426.588	296.294	-0.097	0.177
-425.573	-5.977	0.285	-0.193
-424.559	109.398	0.021	-0.025
-423.544	-110.307	-0.284	0.059
-422.530	-200.000	-0.001	0.012
-421.515	-200.000	-0.073	0.427
-420.500	-100.099	0.091	0.022
-419.486	10.142	0.168	0.126
-418.471	-67.329	0.163	0.063
-417.457	-200.000	0.019	0.092
-416.442	-7.265	-0.228	-0.153
-415.428	-200.000	-0.042	-0.248
-414.413	372.892	-0.060	-0.120
-413.398	800.000	-0.085	0.305
-412.384	-74.931	0.112	-0.040
-411.369	800.000	-0.007	-0.027
-410.355	202.493	-0.089	0.136
-409.340	189.385	0.147	-0.219
-408.325	-108.451	0.142	-0.030
-407.311	136.124	0.222	0.287
-406.296	800.000	-0.094	0.369
-405.282	-83.710	0.170	-0.054
-404.267	490.064	0.011	-0.026
-403.252	-22.532	0.106	-0.063
-402.238	-200.000	0.036	0.157
-401.223	-136.742	-0.138	-0.016
-400.209	-143.163	0.175	-0.017
-399.194	129.168	0.081	-0.102
-398.179	-135.061	0.130	0.015
-397.165	245.882	-0.255	-0.425
-396.150	-126.786	-0.161	0.023
-395.136	-54.062	-0.181	-0.082
-394.121	19.140	0.072	-0.057
-393.106	-8.206	0.103	0.068
-392.092	-101.360	0.401	0.097
-391.077	288.029	0.039	-0.069
-390.063	120.237	-0.156	-0.191
-389.048	800.000	-0.067	-0.214
-388.033	-132.197	-0.213	0.027
-387.019	502.016	0.121	0.276
-386.004	382.321	0.056	0.114
-384.990	-200.000	0.011	-0.183
-383.975	800.000	0.062	-0.180
-382.960	76.027	-0.034	0.035
-381.946	-92.596	0.242	0.067
-380.931	-34.668	0.239	0.129
-379.917	454.072	0.101	-0.220
-378.902	112.224	-0.212	0.253
-377.888	-200.000	-0.004	-0.052
-376.873	800.000	0.039	-0.135
-375.858	21.297	-0.111	0.089
-374.844	-200.000	0.026	-0.121
-373.829	-130.721	-0.159	-0.021
-372.815	203.190	0.227	0.346
-371.800	-91.939	-0.133	0.037
-370.785	-95.575	0.412	0.109
-369.771	-133.799	-0.218	0.027
-368.756	-147.931	0.121	-0.010
-367.742	303.830	0.137	0.252
-366.727	30.453	-0.109	0.092
-365.712	800.000	-0.142	-0.520
-364.698	-39.809	-0.235	0.121
-363.683	300.729	-0.160	0.291
-362.669	469.925	0.028	-0.061
-361.654	800.000	-0.092	0.345
-360.639	-161.696	0.326	0.016
-359.625	-9.999	0.220	-0.145
-358.610	800.000	0.032	0.107
-357.596	-12.271	0.362	0.234
-356.581	260.860	-0.159	0.272
-355.566	79.103	-0.209	0.221
-354.552	-98.845	0.101	0.025
-353.537	-134.931	-0.213	0.025
-352.523	781.253	-0.008	-0.022
-351.508	-200.000	-0.017	0.119
-350.493	-48.314	-0.157	0.075
-349.479	340.507	-0.019	-0.036
-348.464	436.823	0.090	-0.193
-347.450	-200.000	0.001	0.107
-346.435	25.295	0.144	-0.118
-345.420	191.386	-0.080	0.119
-344.406	-18.134	0.147	0.091
-343.391	800.000	-0.032	0.102
-342.377	-110.995	-0.443	-0.090
-341.362	-135.142	0.252	-0.030
-340.348	800.000	0.043	-0.130
-339.333	800.000	-0.125	-0.379
-338.318	-3.728	0.053	-0.036
-337.304	-29.350	0.105	0.059
-336.289	-80.401	0.153	0.050
-335.275	-43.136	0.047	-0.024
-334.260	-133.060	0.153	-0.019
-333.245	-19.913	-0.183	-0.111
-332.231	-131.177	-0.206	0.027
-331.216	-200.000	0.001	0.081
-330.202	-40.930	0.343	0.175
-329.187	689.081	0.078	-0.202
-328.172	800.000	0.011	0.043
-327.158	-65.145	0.095	0.038
-326.143	1.384	0.044	0.031
-325.129	-93.425	-0.228	0.062
-324.114	-134.628	-0.253	-0.030
-323.099	-104.374	-0.112	0.026
-322.085	36.785	0.108	0.094
-321.070	-200.000	0.007	-0.112
-320.056	800.000	-0.097	-0.295
-319.041	-129.942	0.129	0.017
-318.026	233.712	-0.158	-0.257
-317.012	75.897	-0.051	0.053
-315.997	-200.000	-0.012	0.082
-314.983	76.652	0.182	0.191
-313.968	-126.711	-0.169	0.025
-312.953	-200.000	-0.075	0.366
-311.939	-27.755	0.101	0.058
-310.924	85.165	0.075	0.081
-309.910	224.261	-0.125	0.199
-308.895	491.164	0.087	0.197
-307.880	257.803	-0.096	0.162
-306.866	22.182	0.079	0.063
-305.851	-200.000	0.046	-0.378
-304.837	-2.950	0.230	-0.158
-303.822	6.258	0.182	-0.133
-302.807	-123.875	0.215	0.033
-301.793	-200.000	0.045	0.253
-300.778	346.294	0.172	0.333
-299.764	35.483	-0.098	-0.085
-298.749	-127.337	-0.190	-0.027
-297.735	-200.000	0.012	-0.222
-296.720	165.922	0.062	0.087
-295.705	-15.252	0.418	0.264
-294.691	99.349	-0.249	-0.283
-293.676	29.623	0.123	0.103
-292.662	-200.000	0.004	-0.072
-291.647	-200.000	0.020	0.142
-290.632	-69.864	-0.221	-0.083
-289.618	26.611	-0.190	-0.157
-288.603	-35.673	0.239	0.128
-287.589	-87.390	0.214	0.064
-286.574	-165.390	0.249	0.011
-285.559	-200.000	-0.041	0.215
-284.545	-64.633	-0.195	0.078
-283.530	-50.231	0.361	-0.168
-282.516	177.749	0.087	-0.124
-281.501	0.419	0.023	-0.016
-280.486	286.711	-0.040	-0.070
-279.472	212.311	-0.119	-0.185
-278.457	-47.175	-0.151	-0.072
-277.443	84.052	-0.078	-0.084
-276.428	-200.000	-0.019	-0.124
-275.413	-200.000	-0.013	0.160
-274.399	331.302	0.037	-0.071
-273.384	-75.738	-0.198	-0.069
-272.370	-200.000	-0.015	0.317
-271.355	-107.324	0.217	0.047
-270.340	-200.000	-0.051	0.295
-269.326	-47.094	0.100	0.048
-268.311	112.087	0.036	-0.043
-267.297	-81.984	0.254	0.082
-266.282	-200.000	0.021	0.135
-265.267	359.235	-0.172	-0.338
-264.253	90.696	0.098	-0.108
-263.238	-119.660	0.107	0.018
-262.224	66.042	0.316	-0.315
-261.209	-89.860	0.254	0.073
-260.195	800.000	0.081	-0.300
-259.180	-200.000	0.041	-0.373
-258.165	-88.438	-0.148	0.043
-257.151	-100.471	0.275	0.067
-256.136	800.000	0.075	0.232
-255.122	-200.000	-0.060	0.265
-254.107	-106.182	-0.588	0.130
-253.092	-200.000	0.005	0.027
-252.078	39.779	-0.181	0.160
-251.063	-200.000	-0.032	-0.236
-250.049	14.083	0.270	0.207
-249.034	-43.441	-0.075	-0.037
-248.019	-142.459	-0.361	0.035
-247.005	295.578	-0.152	0.273
-245.990	-9.741	0.100	-0.065
-244.976	151.019	0.102	0.137
-243.961	-200.000	0.034	-0.215
-242.946	-200.000	0.031	-0.239
-241.932	150.523	-0.077	-0.103
-240.917	-13.695	-0.284	-0.181
-239.903	-118.995	0.200	0.034
-238.888	30.838	-0.075	0.063
-237.873	-67.341	-0.112	-0.043
-236.859	-200.000	0.036	0.186
-235.844	-200.000	0.035	0.198
-234.830	-200.000	0.020	-0.191
-233.815	79.611	0.088	-0.092
-232.800	-56.645	-0.136	0.059
-231.786	-39.727	0.282	0.145
-230.771	-46.988	0.227	-0.109
-229.757	61.704	0.231	0.226
-228.742	75.191	-0.179	0.185
-227.727	24.965	0.144	0.117
-226.713	-135.550	0.107	-0.012
-225.698	-200.000	-0.007	0.049
-224.684	-200.000	0.012	-0.242
-223.669	-27.179	0.362	-0.207
-222.655	40.790	0.182	0.161
-221.640	800.000	-0.079	-0.237
-220.625	280.518	0.059	-0.104
-219.611	-114.396	-0.185	0.035
-218.596	800.000	-0.037	-0.144
-217.582	-67.053	-0.280	0.108
-216.567	-197.894	-0.028	-0.000
-215.552	-100.229	0.279	0.068
-214.538	-200.000	0.023	0.286
-213.523	-124.916	-0.150	0.023
-212.509	154.366	-0.064	0.086
-211.494	-8.763	0.387	0.255
-210.479	45.080	-0.187	-0.170
-209.465	-166.023	-0.164	0.007
-208.450	51.318	-0.242	0.226
-207.436	90.184	-0.175	0.192
-206.421	-21.114	-0.097	0.058
-205.406	800.000	0.009	0.039
-204.392	284.909	-0.199	0.353
-203.377	-200.000	0.002	-0.095
-202.363	800.000	-0.080	-0.256
-201.348	-181.581	0.269	-0.005
-200.333	-200.000	-0.007	-0.059
-199.319	-40.589	-0.316	-0.161
-198.304	800.000	0.056	-0.158
-197.290	800.000	-0.056	0.209
-196.275	-101.124	-0.244	0.059
-195.260	268.296	-0.138	-0.238
-194.246	37.360	-0.104	-0.090
-193.231	-200.000	-0.061	0.263
-192.217	-156.691	0.139	0.008
-191.202	156.206	-0.296	-0.401
-190.187	99.622	0.126	0.143
-189.173	-200.000	-0.116	0.505
-188.158	16.436	-0.237	0.183
-187.144	-122.445	0.312	-0.050
-186.129	-200.000	0.035	0.299
-185.114	162.543	0.185	-0.254
-184.100	-200.000	0.012	-0.098
-183.085	-65.087	0.157	0.062
-182.071	-2.890	-0.227	-0.156
-181.056	-92.511	-0.392	-0.108
-180.042	30.801	-0.093	-0.078
-179.027	-200.000	0.026	0.244
-178.012	-106.950	0.162	-0.035
-176.998	207.199	-0.117	-0.179
-175.983	198.262	0.227	0.341
-174.969	377.663	-0.028	-0.055
-173.954	-85.557	0.349	0.106
-172.939	83.455	0.105	0.112
-171.925	584.494	0.107	-0.258
-170.910	27.156	-0.110	0.091
-169.896	189.889	-0.110	-0.162
-168.881	800.000	0.061	-0.181
-167.866	800.000	0.114	0.323
-166.852	-200.000	-0.014	0.182
-165.837	-0.766	-0.107	0.074
-164.823	800.000	0.123	-0.450
-163.808	-20.743	0.361	0.217
-162.793	244.242	0.056	0.092
-161.779	-144.849	-0.423	-0.038
-160.764	357.095	0.061	-0.118
-159.750	-33.044	-0.226	0.123
-158.735	150.809	-0.072	-0.096
-157.720	580.448	0.029	-0.069
-156.706	377.072	0.193	0.387
-155.691	-200.000	0.062	0.275
-154.677	20.364	-0.145	-0.115
-153.662	46.778	0.250	-0.228
-152.647	335.626	-0.051	0.097
-151.633	-93.484	0.465	-0.126
-150.618	-26.768	0.288	-0.165
-149.604	224.147	-0.059	-0.094
-148.589	-9.038	-0.106	0.069
-147.574	144.200	-0.170	0.222
-146.560	-130.596	-0.049	0.006
-145.545	3.226	0.116	-0.083
-144.531	-117.971	0.551	-0.097
-143.516	539.873	0.074	-0.172
-142.502	-200.000	-0.058	0.309
-141.487	179.335	0.070	-0.101
-140.472	-129.967	0.325	0.044
-139.458	-72.679	0.139	-0.050
-138.443	578.029	-0.077	-0.183
-137.429	-58.090	-0.168	-0.072
-136.414	24.633	-0.115	0.093
-135.399	800.000	-0.044	-0.158
-134.385	-22.282	-0.163	-0.097
-133.370	265.852	-0.045	-0.077
-132.356	-30.951	-0.241	0.133
-131.341	-97.499	-0.304	-0.077
-130.326	174.090	-0.088	0.124
-129.312	-45.157	0.084	-0.041
-128.297	-63.302	0.015	-0.006
-127.283	8.454	-0.137	-0.101
-126.268	42.378	0.156	-0.138
-125.253	-92.580	0.060	-0.016
-124.239	56.527	0.107	0.102
-123.224	280.462	0.074	-0.130
-122.210	748.308	-0.062	-0.164
-121.195	0.447	0.329	-0.230
