DTS Sentinel unit serial number:	SN413079Multiplexer serial number:	ORYXHardware model number:	OX4-SRSoftware version number:	ORYX F/W v4.00 Oryx Data Collector v3.7.2.0data status	okinstallation	princeton_trtdifferential loss correction	single-endedforward channel	channel 1reverse channel	N/Adate	2019/09/17time	12:06:35forward acquisition time	60.00reverse acquisition time	0.00gamma	496.2192k internal	0.2321k external	0.2321temperature offset calibration	0.9978default loss term (dB/km)	0.3790temperature slope calibration	1.0000multiplexer offset coefficient	1.0000multiplexer slope coefficient	1.0000fibre end	0.00T internal ref (°C)	31.22T ext. ref 1 (°C)	0.42T ext. ref 2 (°C)	27.55length (m)	temperature (°C)	Stokes	anti-Stokes-747.200	-112.695	0.325	-0.065
-746.185	46.288	0.310	0.291
-745.171	-0.112	0.160	-0.115
-744.156	800.000	0.098	0.356
-743.142	-200.000	-0.115	0.001
-742.127	-200.000	0.029	0.298
-741.112	-180.478	0.628	0.013
-740.098	153.996	-0.141	0.196
-739.083	-40.235	0.040	0.021
-738.069	12.402	-0.374	0.292
-737.054	-40.271	-0.126	-0.066
-736.039	-109.232	-0.322	-0.069
-735.025	138.905	0.186	0.246
-734.010	147.498	-0.153	-0.208
-732.996	-200.000	0.029	-0.287
-731.981	-101.544	-0.309	0.076
-730.966	591.821	-0.069	0.172
-729.952	217.160	-0.169	-0.271
-728.937	800.000	0.031	0.137
-727.923	-200.000	0.006	0.187
-726.908	-86.580	0.190	-0.059
-725.894	13.969	0.209	0.164
-724.879	-111.153	-0.253	0.052
-723.864	-193.843	-0.234	-0.002
-722.850	800.000	0.066	0.192
-721.835	42.221	-0.139	0.127
-720.821	182.684	0.102	0.152
-719.806	23.765	0.273	-0.227
-718.791	289.932	0.027	0.050
-717.777	107.611	-0.192	0.231
-716.762	-200.000	0.000	-0.010
-715.748	-116.855	-0.177	-0.033
-714.733	800.000	0.030	-0.134
-713.718	-114.456	-0.143	-0.028
-712.704	800.000	0.035	-0.115
-711.689	614.670	-0.107	0.271
-710.675	-200.000	-0.009	-0.171
-709.660	-106.612	-0.261	0.059
-708.645	-200.000	0.008	0.057
-707.631	-29.139	-0.138	-0.080
-706.616	499.643	0.073	0.170
-705.602	-100.945	-0.755	-0.187
-704.587	-128.539	0.177	-0.025
-703.572	326.792	0.103	0.200
-702.558	734.307	-0.152	-0.411
-701.543	8.351	-0.126	0.095
-700.529	-56.029	0.243	0.109
-699.514	6.478	0.300	0.225
-698.499	-121.053	0.319	-0.054
-697.485	2.007	0.266	-0.194
-696.470	800.000	-0.005	0.015
-695.456	0.157	0.059	-0.042
-694.441	-51.554	-0.253	0.119
-693.426	142.083	-0.105	0.140
-692.412	-14.401	-0.328	-0.213
-691.397	99.017	0.217	0.253
-690.383	-89.572	0.058	-0.017
-689.368	800.000	0.106	-0.302
-688.354	237.587	-0.261	-0.437
-687.339	521.140	-0.155	0.367
-686.324	-76.920	0.213	-0.075
-685.310	194.752	-0.120	-0.183
-684.295	-55.531	0.228	0.103
-683.281	-143.505	0.330	0.032
-682.266	-64.855	-0.086	-0.035
-681.251	-69.574	0.193	0.075
-680.237	-138.435	-0.217	-0.024
-679.222	-197.414	-0.274	0.002
-678.208	93.991	-0.100	-0.114
-677.193	-152.032	0.197	0.015
-676.178	56.539	-0.327	0.320
-675.164	214.918	0.085	-0.137
-674.149	-200.000	-0.031	0.192
-673.135	142.885	0.145	0.194
-672.120	-67.219	-0.157	-0.062
-671.105	353.403	0.011	0.022
-670.091	355.505	-0.088	-0.176
-669.076	-200.000	0.007	0.144
-668.062	336.029	0.169	-0.330
-667.047	-150.207	-0.446	-0.035
-666.032	800.000	0.065	-0.186
-665.018	-43.614	0.327	-0.166
-664.003	-81.308	-0.180	0.060
-662.989	36.972	-0.220	0.196
-661.974	-71.673	-0.129	-0.048
-660.959	-61.392	-0.191	-0.081
-659.945	369.220	0.067	-0.137
-658.930	-200.000	-0.040	-0.241
-657.916	-108.128	-0.284	0.062
-656.901	76.784	-0.297	0.317
-655.886	-64.187	0.348	-0.143
-654.872	-186.327	-0.249	-0.004
-653.857	-146.606	-0.257	-0.023
-652.843	-132.711	0.156	-0.020
-651.828	84.230	0.244	0.268
-650.814	-111.326	-0.357	0.073
-649.799	4.022	-0.191	-0.141
-648.784	-154.829	0.175	-0.012
-647.770	800.000	0.008	-0.028
-646.755	175.296	-0.081	-0.118
-645.741	-1.231	-0.138	0.098
-644.726	165.449	0.334	-0.476
-643.711	-200.000	0.013	0.382
-642.697	800.000	-0.086	-0.296
-641.682	22.061	-0.218	-0.179
-640.668	-160.575	-0.234	0.013
-639.653	88.061	-0.122	0.136
-638.638	-132.080	-0.114	0.015
-637.624	-126.347	-0.071	-0.011
-636.609	171.744	-0.076	-0.110
-635.595	-200.000	0.023	-0.193
-634.580	265.885	-0.048	-0.085
-633.565	115.074	-0.042	-0.051
-632.551	197.335	0.146	-0.225
-631.536	60.183	0.138	-0.137
-630.522	76.897	-0.082	0.088
-629.507	418.353	-0.097	-0.210
-628.492	800.000	-0.026	0.097
-627.478	800.000	0.060	0.176
-626.463	276.064	0.027	0.048
-625.449	-66.830	0.264	-0.105
-624.434	-200.000	0.012	-0.244
-623.419	-200.000	0.006	0.196
-622.405	106.956	-0.127	0.152
-621.390	-6.228	-0.116	-0.080
-620.376	-47.787	0.211	-0.103
-619.361	-6.099	-0.127	-0.087
-618.346	-200.000	-0.059	-0.291
-617.332	-68.581	-0.034	-0.013
-616.317	-200.000	0.009	0.101
-615.303	-200.000	-0.029	0.200
-614.288	111.364	0.175	0.212
-613.273	-37.960	-0.214	0.114
-612.259	790.539	-0.034	0.095
-611.244	436.063	0.037	0.080
-610.230	800.000	0.097	-0.404
-609.215	-200.000	-0.072	-0.364
-608.201	-65.023	0.120	-0.049
-607.186	-200.000	0.013	-0.167
-606.171	135.701	0.071	-0.093
-605.157	-38.507	-0.172	-0.091
-604.142	-90.937	0.103	-0.030
-603.128	-200.000	0.103	0.461
-602.113	-52.876	-0.045	0.021
-601.098	-107.386	-0.235	0.052
-600.084	-152.309	-0.238	-0.017
-599.069	-75.345	0.507	0.182
-598.055	-176.061	-0.422	-0.011
-597.040	-55.282	-0.181	0.082
-596.025	31.750	-0.085	-0.074
-595.011	150.385	-0.102	-0.139
-593.996	290.084	-0.156	0.284
-592.982	-57.410	0.074	-0.032
-591.967	-153.737	-0.505	0.035
-590.952	-41.409	-0.197	0.102
-589.938	800.000	-0.073	0.221
-588.923	-200.000	0.047	0.247
-587.909	-106.978	-0.248	-0.055
-586.894	-200.000	0.026	-0.151
-585.879	75.140	0.175	0.185
-584.865	-37.768	0.208	-0.111
-583.850	187.799	0.226	-0.340
-582.836	69.441	-0.163	0.169
-581.821	-116.546	-0.251	0.046
-580.806	-200.000	0.013	-0.113
-579.792	38.605	0.134	-0.120
-578.777	137.093	0.206	0.270
-577.763	-95.671	0.285	0.076
-576.748	-200.000	-0.020	-0.270
-575.733	-136.970	-0.203	-0.023
-574.719	82.701	0.084	-0.092
-573.704	-110.985	0.290	-0.060
-572.690	-34.394	0.027	0.015
-571.675	-200.000	-0.025	0.192
-570.661	-79.483	-0.053	-0.018
-569.646	-172.022	0.271	-0.009
-568.631	-105.909	-0.193	-0.044
-567.617	-169.607	-0.316	0.012
-566.602	95.879	0.186	0.214
-565.588	231.992	-0.089	-0.146
-564.573	344.699	0.076	-0.151
-563.558	-28.920	0.253	-0.146
-562.544	-13.073	-0.185	0.120
-561.529	616.316	0.038	0.095
-560.515	183.535	-0.160	-0.237
-559.500	88.890	0.046	-0.051
-558.485	92.185	-0.088	-0.100
-557.471	-53.532	0.379	0.174
-556.456	-34.164	-0.159	-0.088
-555.442	-130.076	0.164	0.023
-554.427	335.797	-0.074	0.143
-553.412	595.186	0.088	-0.219
-552.398	-200.000	-0.053	-0.339
-551.383	-42.823	-0.235	-0.120
-550.369	-200.000	0.004	-0.080
-549.354	-20.406	0.356	0.220
-548.339	-38.858	-0.174	0.092
-547.325	-139.281	-0.199	-0.021
-546.310	232.144	-0.026	0.043
-545.296	332.513	0.139	0.269
-544.281	-95.132	0.304	-0.082
-543.266	-52.829	-0.260	0.120
-542.252	-52.273	0.276	-0.128
-541.237	80.704	-0.192	0.208
-540.223	-200.000	-0.010	-0.087
-539.208	-23.611	-0.333	-0.200
-538.193	800.000	0.041	-0.147
-537.179	642.488	-0.073	0.187
-536.164	-200.000	0.006	-0.194
-535.150	85.168	-0.201	0.221
-534.135	-36.578	0.134	-0.072
-533.121	800.000	0.039	-0.135
-532.106	522.791	-0.021	0.050
-531.091	-200.000	-0.063	-0.285
-530.077	-22.591	0.134	0.081
-529.062	-139.524	0.347	0.037
-528.048	-30.829	-0.131	0.074
-527.033	-95.935	0.055	0.015
-526.018	317.749	-0.074	-0.140
-525.004	1.443	0.191	-0.138
-523.989	285.549	0.058	-0.105
-522.975	-77.456	-0.165	0.057
-521.960	216.375	0.064	-0.102
-520.945	-113.557	0.319	0.062
-519.931	-36.226	0.227	-0.122
-518.916	-200.000	0.019	0.153
-517.902	-200.000	-0.008	0.036
-516.887	-200.000	-0.029	-0.226
-515.872	27.385	0.313	-0.263
-514.858	301.870	-0.048	-0.089
-513.843	-163.041	0.198	0.010
-512.829	108.571	-0.099	-0.118
-511.814	-99.443	-0.216	-0.055
-510.799	800.000	0.047	-0.186
-509.785	633.688	-0.139	-0.354
-508.770	304.962	0.230	-0.427
-507.756	-37.936	0.265	-0.141
-506.741	-118.517	-0.287	0.051
-505.726	-90.679	0.462	-0.134
-504.712	-47.080	-0.085	-0.041
-503.697	800.000	-0.111	-0.400
-502.683	52.638	0.317	0.304
-501.668	-200.000	0.024	0.413
-500.653	-82.743	-0.240	0.078
-499.639	-148.614	-0.181	-0.015
-498.624	56.068	-0.016	0.016
-497.610	-1.354	0.279	-0.197
-496.595	-200.000	-0.004	-0.147
-495.581	28.407	-0.252	-0.213
-494.566	-200.000	0.008	0.079
-493.551	-39.500	0.155	-0.081
-492.537	-26.138	-0.280	-0.165
-491.522	290.112	0.147	0.268
-490.508	0.617	0.151	-0.108
-489.493	491.622	0.160	-0.366
-488.478	-200.000	-0.080	0.367
-487.464	-108.569	-0.297	-0.064
-486.449	-98.100	0.085	0.022
-485.435	-76.370	0.203	-0.072
-484.420	-200.000	-0.006	-0.365
-483.405	-84.523	0.410	0.130
-482.391	201.581	-0.133	0.205
-481.376	-76.413	0.318	-0.112
-480.362	-86.171	0.288	-0.089
-479.347	-200.000	0.005	0.107
-478.332	-126.836	-0.238	0.035
-477.318	158.203	-0.096	-0.134
-476.303	-32.292	0.178	-0.100
-475.289	145.340	-0.123	-0.165
-474.274	-82.164	0.063	-0.020
-473.259	-59.445	0.215	0.092
-472.245	123.079	-0.041	0.051
-471.230	594.812	-0.124	0.306
-470.216	800.000	-0.110	-0.311
-469.201	51.676	0.108	0.102
-468.186	98.453	0.003	-0.003
-467.172	-124.336	-0.181	-0.028
-466.157	800.000	0.151	-0.421
-465.143	505.271	0.115	0.265
-464.128	-37.993	-0.235	-0.125
-463.113	152.780	-0.255	0.348
-462.099	-200.000	-0.080	-0.382
-461.084	-167.059	0.071	0.003
-460.070	-2.495	-0.338	0.237
-459.055	141.240	-0.169	0.224
-458.040	172.050	-0.132	0.189
-457.026	-200.000	-0.034	0.156
-456.011	324.234	0.094	0.180
-454.997	57.702	0.088	0.086
-453.982	-200.000	0.026	0.160
-452.968	214.911	-0.109	0.173
-451.953	521.652	0.099	-0.232
-450.938	-200.000	0.010	-0.077
-449.924	-200.000	-0.014	0.104
-448.909	79.448	-0.123	0.132
-447.895	-7.415	-0.154	-0.104
-446.880	535.724	0.150	0.356
-445.865	-103.465	-0.145	0.034
-444.851	167.623	-0.248	-0.353
-443.836	341.174	0.065	-0.127
-442.822	178.794	0.048	0.070
-441.807	-121.555	0.046	0.008
-440.792	-98.771	0.209	0.053
-439.778	101.815	-0.206	-0.240
-438.763	248.692	-0.075	-0.127
-437.749	58.783	0.150	0.147
-436.734	172.613	0.114	-0.164
-435.719	67.936	0.187	-0.191
-434.705	1.259	0.226	-0.162
-433.690	83.795	-0.142	0.155
-432.676	-44.281	-0.281	0.140
-431.661	-125.891	0.064	0.010
-430.646	64.677	-0.030	-0.030
-429.632	206.293	0.183	0.284
-428.617	271.789	0.091	0.161
-427.603	260.973	0.184	0.319
-426.588	-46.340	0.087	-0.043
-425.573	-200.000	-0.023	-0.199
-424.559	-94.536	0.348	0.095
-423.544	37.376	-0.210	0.186
-422.530	-153.290	-0.219	0.015
-421.515	800.000	-0.103	0.317
-420.500	800.000	0.090	-0.379
-419.486	-200.000	-0.060	0.282
-418.471	-121.356	-0.182	-0.030
-417.457	-57.611	-0.034	0.015
-416.442	-87.257	-0.235	-0.071
-415.428	150.219	-0.154	-0.209
-414.413	-56.974	-0.146	-0.064
-413.398	29.071	-0.037	-0.031
-412.384	91.494	-0.129	0.145
-411.369	800.000	-0.050	0.216
-410.355	78.980	-0.071	0.076
-409.340	-200.000	0.010	-0.264
-408.325	-114.279	-0.278	0.054
-407.311	-84.712	-0.136	0.043
-406.296	-200.000	0.040	0.215
-405.282	-200.000	0.035	-0.309
-404.267	-186.243	0.179	-0.003
-403.252	800.000	0.060	0.199
-402.238	565.862	-0.093	0.225
-401.223	-200.000	0.077	0.464
-400.209	-26.289	-0.014	-0.008
-399.194	-43.213	-0.302	-0.153
-398.179	-200.000	-0.015	-0.129
-397.165	6.577	0.225	0.167
-396.150	-78.982	0.188	-0.064
-395.136	-200.000	0.001	-0.544
-394.121	-117.757	0.342	0.061
-393.106	-200.000	-0.027	0.290
-392.092	-31.650	0.165	0.093
-391.077	-114.646	-0.038	0.007
-390.063	-6.313	-0.089	0.061
-389.048	-161.430	0.059	-0.003
-388.033	800.000	-0.030	0.095
-387.019	-110.113	-0.012	-0.002
-386.004	-200.000	0.044	0.199
-384.990	115.284	0.057	-0.069
-383.975	-151.581	0.134	-0.010
-382.960	16.040	-0.159	-0.125
-381.946	-27.240	-0.146	0.085
-380.931	-200.000	-0.013	0.297
-379.917	48.999	-0.334	0.313
-378.902	-125.534	0.093	-0.014
-377.888	-200.000	0.001	-0.106
-376.873	800.000	-0.052	0.223
-375.858	145.904	0.052	0.069
-374.844	209.009	-0.078	0.122
-373.829	206.535	-0.216	0.335
-372.815	-16.062	0.180	-0.114
-371.800	136.432	-0.373	0.485
-370.785	205.410	0.018	0.027
-369.771	-200.000	0.011	-0.222
-368.756	352.393	-0.115	0.227
-367.742	-21.699	0.080	0.049
-366.727	-138.905	0.274	0.030
-365.712	-176.738	0.161	0.004
-364.698	208.307	0.161	0.251
-363.683	31.775	-0.230	0.197
-362.669	-200.000	-0.023	0.183
-361.654	-136.066	0.242	0.028
-360.639	311.409	0.075	-0.140
-359.625	-113.601	-0.205	0.040
-358.610	-200.000	-0.082	-0.364
-357.596	688.132	0.108	-0.280
-356.581	-48.321	0.150	-0.072
-355.566	-46.750	0.217	0.106
-354.552	24.543	-0.065	-0.054
-353.537	-80.217	0.138	0.046
-352.523	-28.242	0.041	0.024
-351.508	644.839	-0.110	-0.279
-350.493	-98.440	0.196	0.050
-349.479	-77.719	0.170	0.059
-348.464	345.527	0.047	0.091
-347.450	-200.000	-0.005	0.353
-346.435	-125.327	0.070	0.011
-345.420	-15.221	-0.167	-0.106
-344.406	171.861	0.078	0.111
-343.391	-200.000	0.048	-0.276
-342.377	429.741	-0.155	-0.334
-341.362	800.000	-0.031	-0.131
-340.348	262.930	-0.072	0.125
-339.333	-85.642	0.330	-0.102
-338.318	-200.000	0.060	-0.264
-337.304	186.544	0.138	-0.204
-336.289	800.000	-0.041	-0.175
-335.275	-45.347	-0.070	0.034
-334.260	-200.000	0.002	-0.148
-333.245	-200.000	0.066	-0.327
-332.231	293.272	0.056	-0.102
-331.216	-69.634	-0.181	0.069
-330.202	-4.969	0.216	0.148
-329.187	-143.655	0.130	0.012
-328.172	-200.000	0.002	-0.197
-327.158	47.577	0.036	-0.033
-326.143	-37.658	-0.213	0.113
-325.129	-200.000	0.012	0.144
-324.114	-200.000	-0.013	0.073
-323.099	458.037	-0.151	0.333
-322.085	268.461	0.143	0.250
-321.070	-200.000	-0.006	0.102
-320.056	-200.000	-0.008	-0.087
-319.041	435.741	0.160	0.346
-318.026	-119.590	-0.315	-0.054
-317.012	-122.084	0.252	-0.041
-315.997	-200.000	-0.064	-0.345
-314.983	-37.063	-0.085	-0.045
-313.968	-200.000	0.008	-0.181
-312.953	800.000	0.027	0.084
-311.939	-150.645	0.191	0.015
-310.924	37.707	0.199	-0.176
-309.910	-48.293	0.098	-0.047
-308.895	800.000	-0.091	0.259
-307.880	-76.570	0.293	-0.102
-306.866	62.447	-0.131	-0.130
-305.851	-200.000	0.023	0.282
-304.837	-193.227	0.263	0.002
-303.822	81.389	-0.078	-0.083
-302.807	-79.820	-0.175	-0.058
-301.793	-100.817	0.059	-0.014
-300.778	529.063	0.097	0.227
-299.764	-151.376	-0.154	0.011
-298.749	376.010	0.009	0.018
-297.735	32.622	-0.096	0.082
-296.720	247.051	-0.085	-0.142
-295.705	248.831	-0.105	-0.176
-294.691	800.000	0.089	0.341
-293.676	57.059	0.056	-0.054
-292.662	1.856	-0.116	0.083
-291.647	-200.000	-0.080	0.366
-290.632	-145.352	-0.107	0.010
-289.618	-200.000	-0.001	0.097
-288.603	-131.670	-0.175	0.023
-287.589	-200.000	-0.008	0.048
-286.574	105.913	0.081	-0.095
-285.559	62.211	-0.149	-0.147
-284.545	408.827	0.204	-0.430
-283.530	563.308	0.071	0.171
-282.516	54.565	0.064	0.061
-281.501	-200.000	0.021	0.097
-280.486	-139.523	0.348	-0.037
-279.472	-76.854	0.156	0.054
-278.457	475.750	-0.082	-0.185
-277.443	-82.578	-0.260	-0.084
-276.428	-42.576	0.270	0.137
-275.413	-72.116	-0.099	-0.037
-274.399	-2.217	0.525	0.366
-273.384	-112.034	-0.149	0.030
-272.370	-99.082	-0.301	-0.076
-271.355	-63.780	0.214	-0.087
-270.340	62.973	0.191	-0.190
-269.326	-84.311	-0.156	-0.049
-268.311	-161.745	-0.245	-0.012
-267.297	407.340	-0.013	0.026
-266.282	-200.000	-0.006	-0.178
-265.267	800.000	0.012	-0.039
-264.253	-166.091	-0.041	0.002
-263.238	-88.093	0.239	0.071
-262.224	21.747	0.044	-0.035
-261.209	-166.146	0.066	0.003
-260.195	-41.765	-0.082	-0.042
-259.180	-116.269	0.392	0.072
-258.165	76.673	-0.104	-0.109
-257.151	-57.262	0.079	-0.034
-256.136	31.714	-0.056	-0.048
-255.122	258.738	0.153	0.262
-254.107	-81.633	0.112	0.036
-253.092	342.023	-0.123	-0.238
-252.078	-180.193	0.075	0.002
-251.063	153.321	-0.121	0.164
-250.049	157.185	0.145	-0.199
-249.034	-200.000	-0.010	-0.117
-248.019	117.679	0.185	0.226
-247.005	-138.580	0.188	-0.020
-245.990	-3.876	-0.217	-0.150
-244.976	-84.209	-0.351	-0.110
-243.961	-200.000	0.026	0.185
-242.946	168.583	0.125	-0.176
-241.932	-147.867	0.096	0.008
-240.917	800.000	-0.047	0.160
-239.903	-142.387	-0.119	0.012
-238.888	97.054	-0.044	-0.050
-237.873	-137.740	-0.174	-0.019
-236.859	-89.322	0.115	-0.034
-235.844	225.064	-0.111	-0.178
-234.830	-0.110	-0.206	-0.145
-233.815	127.233	-0.266	-0.334
-232.800	181.184	-0.089	-0.130
-231.786	-200.000	-0.021	0.270
-230.771	-67.897	0.081	0.031
-229.757	98.164	0.224	0.256
-228.742	-167.765	0.283	0.011
-227.727	-167.515	-0.283	-0.011
-226.713	-20.492	-0.099	-0.060
-225.698	529.962	-0.146	-0.341
-224.684	261.188	-0.160	-0.275
-223.669	-6.991	-0.234	-0.157
-222.655	-86.792	-0.205	-0.062
-221.640	-50.193	0.218	0.102
-220.625	113.772	0.289	0.347
-219.611	-200.000	-0.086	0.416
-218.596	277.452	0.129	0.226
-217.582	41.219	0.221	0.198
-216.567	-149.269	-0.219	0.017
-215.552	21.736	-0.029	-0.023
-214.538	-59.891	-0.143	-0.060
-213.523	142.401	0.248	0.326
-212.509	-122.385	-0.441	0.071
-211.494	-200.000	0.015	-0.173
-210.479	-87.108	-0.097	0.029
-209.465	107.711	-0.304	0.358
-208.450	-109.374	0.132	-0.028
-207.436	-34.724	0.099	-0.054
-206.421	-200.000	-0.011	-0.237
-205.406	676.840	0.079	-0.204
-204.392	36.285	0.328	0.286
-203.377	-200.000	0.002	0.060
-202.363	78.389	0.282	-0.298
-201.348	-200.000	0.096	0.000
-200.333	-72.205	-0.176	-0.065
-199.319	-90.032	0.281	-0.081
-198.304	-16.265	-0.310	0.195
-197.290	15.300	-0.175	0.136
-196.275	-95.651	0.139	-0.037
-195.260	536.020	0.156	-0.367
-194.246	-158.370	0.025	0.001
-193.231	-28.344	0.075	-0.043
-192.217	83.080	0.259	0.279
-191.202	800.000	-0.113	0.441
-190.187	483.742	-0.043	0.096
-189.173	-39.976	0.144	0.074
-188.158	257.490	-0.062	0.106
-187.144	93.775	-0.127	-0.143
-186.129	236.417	-0.070	0.115
-185.114	676.698	-0.114	0.294
-184.100	-93.375	0.275	0.075
-183.085	116.608	-0.205	-0.249
-182.071	435.862	0.143	0.307
-181.056	7.642	-0.236	-0.175
-180.042	-200.000	0.063	0.410
-179.027	359.602	-0.203	-0.402
-178.012	-45.739	-0.204	-0.100
-176.998	-109.923	0.183	-0.038
-175.983	148.948	-0.041	0.055
-174.969	-70.561	-0.330	-0.124
-173.954	89.525	-0.153	-0.169
-172.939	-22.470	-0.049	-0.029
-171.925	-131.342	-0.153	-0.020
-170.910	-90.096	-0.253	0.073
-169.896	800.000	0.096	0.282
-168.881	-200.000	0.038	-0.239
-167.866	-23.203	-0.414	-0.246
-166.852	-89.759	-0.124	-0.036
-165.837	-135.550	0.409	0.048
-164.823	-55.048	0.334	0.148
-163.808	526.346	-0.175	0.408
-162.793	-200.000	0.019	0.166
-161.779	-107.410	0.197	0.043
-160.764	212.051	-0.069	-0.107
-159.750	18.706	0.099	0.078
-158.735	-144.583	0.115	0.010
-157.720	-200.000	0.034	0.335
-156.706	-131.820	-0.118	0.015
-155.691	-200.000	0.002	0.119
-154.677	-62.330	-0.305	0.126
-153.662	-98.170	0.229	0.058
-152.647	-153.033	-0.309	-0.021
-151.633	24.428	0.304	-0.248
-150.618	-19.163	0.083	-0.051
-149.604	348.033	0.128	0.249
-148.589	-58.727	-0.145	-0.062
-147.574	-200.000	0.006	-0.196
-146.560	-86.425	0.004	-0.001
-145.545	-173.512	0.238	0.007
-144.531	800.000	0.025	-0.101
-143.516	-77.318	0.079	-0.027
-142.502	-156.018	-0.220	0.014
-141.487	-114.244	-0.325	-0.062
-140.472	41.795	0.203	-0.182
-139.458	219.926	-0.128	-0.202
-138.443	162.160	-0.113	0.156
-137.429	-23.588	0.091	-0.054
-136.414	-200.000	-0.097	0.434
-135.399	800.000	0.028	-0.109
-134.385	214.440	-0.140	0.219
-133.370	15.222	0.073	0.056
-132.356	-26.992	-0.112	0.065
-131.341	82.904	-0.247	-0.265
-130.326	93.867	-0.149	-0.167
-129.312	161.193	0.078	-0.108
-128.297	-51.777	-0.335	-0.154
-127.283	800.000	-0.068	-0.226
-126.268	305.896	-0.149	0.274
-125.253	306.101	-0.005	-0.010
-124.239	266.809	0.138	-0.238
-123.224	-18.741	0.202	-0.124
-122.210	91.845	-0.213	-0.236
