DTS Sentinel unit serial number:	SN413079Multiplexer serial number:	ORYXHardware model number:	OX4-SRSoftware version number:	ORYX F/W v4.00 Oryx Data Collector v3.7.2.0data status	okinstallation	princeton_trtdifferential loss correction	single-endedforward channel	channel 1reverse channel	N/Adate	2019/09/19time	13:34:35forward acquisition time	60.00reverse acquisition time	0.00gamma	496.2192k internal	0.2326k external	0.2326temperature offset calibration	1.0014default loss term (dB/km)	0.3790temperature slope calibration	1.0000multiplexer offset coefficient	1.0000multiplexer slope coefficient	1.0000fibre end	0.00T internal ref (°C)	30.17T ext. ref 1 (°C)	0.98T ext. ref 2 (°C)	27.15length (m)	temperature (°C)	Stokes	anti-Stokes-747.200	-200.000	0.007	0.063
-746.185	81.885	0.191	0.209
-745.171	-200.000	-0.003	-0.096
-744.156	68.906	0.117	0.121
-743.142	85.464	0.194	0.215
-742.127	-137.560	-0.351	-0.040
-741.112	242.897	0.123	0.207
-740.098	337.744	-0.166	0.326
-739.083	-98.991	0.100	0.026
-738.069	-104.779	-0.176	-0.041
-737.054	316.826	-0.109	-0.208
-736.039	-72.249	0.439	-0.164
-735.025	-200.000	0.003	0.281
-734.010	800.000	0.052	-0.167
-732.996	-108.564	0.276	0.060
-731.981	-82.259	0.283	0.093
-730.966	230.544	-0.123	0.203
-729.952	15.560	-0.217	-0.171
-728.937	49.531	-0.387	-0.368
-727.923	800.000	0.056	-0.222
-726.908	156.884	-0.159	-0.221
-725.894	-200.000	0.003	-0.159
-724.879	-200.000	-0.015	-0.101
-723.864	-156.311	0.285	0.018
-722.850	264.798	0.094	-0.165
-721.835	-67.189	-0.085	-0.034
-720.821	104.594	0.043	-0.051
-719.806	20.432	-0.113	-0.092
-718.791	327.737	0.085	0.165
-717.777	10.543	-0.158	0.122
-716.762	-102.481	-0.450	-0.108
-715.748	200.130	-0.043	0.067
-714.733	141.965	-0.115	0.154
-713.718	800.000	0.128	-0.360
-712.704	225.038	-0.217	0.353
-711.689	262.173	-0.175	-0.306
-710.675	4.204	0.290	-0.214
-709.660	-200.000	-0.019	0.557
-708.645	-200.000	-0.055	0.255
-707.631	800.000	-0.031	-0.127
-706.616	800.000	0.057	0.186
-705.602	150.041	0.089	-0.122
-704.587	-99.910	0.243	0.061
-703.572	-93.532	0.087	-0.024
-702.558	-189.237	-0.090	0.001
-701.543	130.986	-0.046	0.059
-700.529	-6.078	0.158	-0.109
-699.514	-57.992	-0.204	0.090
-698.499	320.755	0.048	0.093
-697.485	-200.000	0.012	0.527
-696.470	-200.000	0.040	-0.190
-695.456	506.826	-0.186	-0.435
-694.441	-7.816	-0.221	0.150
-693.426	562.572	-0.090	0.218
-692.412	38.580	-0.388	-0.348
-691.397	217.605	-0.079	-0.126
-690.383	-51.184	0.282	-0.133
-689.368	-111.932	0.235	-0.048
-688.354	671.914	-0.136	-0.355
-687.339	-200.000	0.000	-0.123
-686.324	630.679	-0.157	0.400
-685.310	-1.230	-0.169	-0.120
-684.295	130.505	0.101	0.131
-683.281	252.892	0.070	-0.120
-682.266	-31.697	-0.561	-0.317
-681.251	-200.000	-0.008	0.241
-680.237	800.000	-0.038	0.119
-679.222	-200.000	0.049	0.305
-678.208	-94.381	-0.326	-0.090
-677.193	-159.983	-0.107	0.006
-676.178	-62.148	-0.247	-0.104
-675.164	-48.178	-0.253	0.123
-674.149	-115.102	-0.232	0.044
-673.135	179.289	0.126	0.185
-672.120	82.107	0.085	-0.092
-671.105	-10.159	-0.067	0.045
-670.091	65.019	-0.290	-0.294
-669.076	-146.870	0.095	0.008
-668.062	-115.748	0.215	-0.041
-667.047	800.000	-0.037	-0.153
-666.032	-110.840	-0.154	-0.032
-665.018	-200.000	0.000	-0.266
-664.003	-82.330	-0.360	-0.118
-662.989	-72.070	0.343	0.128
-661.974	-91.936	0.253	-0.072
-660.959	-16.451	-0.234	0.149
-659.945	-56.161	0.167	-0.075
-658.930	190.920	-0.059	-0.090
-657.916	-110.464	0.522	-0.109
-656.901	14.356	-0.085	-0.066
-655.886	-52.975	-0.139	0.064
-654.872	-168.090	-0.048	-0.002
-653.857	-1.639	0.145	-0.103
-652.843	-64.385	-0.303	-0.124
-651.828	-93.616	0.131	-0.037
-650.814	38.331	-0.056	-0.050
-649.799	-200.000	0.053	-0.263
-648.784	-32.099	0.085	0.048
-647.770	-200.000	-0.046	-0.268
-646.755	33.812	-0.119	0.104
-645.741	-49.507	-0.162	0.077
-644.726	-126.398	-0.113	0.017
-643.711	26.655	0.098	0.083
-642.697	-81.809	-0.120	-0.039
-641.682	-200.000	-0.059	-0.307
-640.668	-98.184	-0.122	0.032
-639.653	-200.000	-0.001	-0.155
-638.638	130.284	0.170	0.218
-637.624	800.000	0.038	0.107
-636.609	-146.527	-0.313	0.027
-635.595	96.522	-0.052	-0.059
-634.580	342.714	-0.181	0.355
-633.565	150.274	0.198	0.270
-632.551	-42.341	0.053	-0.027
-631.536	79.483	-0.227	-0.244
-630.522	-173.175	-0.186	-0.006
-629.507	-200.000	-0.069	0.313
-628.492	-72.336	0.195	0.072
-627.478	-43.643	-0.114	0.058
-626.463	-200.000	0.007	0.194
-625.449	-200.000	-0.018	0.099
-624.434	800.000	0.077	-0.317
-623.419	9.966	0.079	-0.060
-622.405	-200.000	0.001	0.181
-621.390	-200.000	0.030	0.195
-620.376	95.164	-0.153	0.175
-619.361	66.797	0.256	-0.262
-618.346	179.807	-0.056	-0.083
-617.332	-200.000	0.028	-0.165
-616.317	34.481	-0.146	0.128
-615.303	490.991	0.123	0.283
-614.288	-200.000	0.002	0.190
-613.273	176.849	0.207	-0.302
-612.259	116.788	0.151	-0.186
-611.244	-18.670	0.217	-0.136
-610.230	-150.135	-0.234	0.018
-609.215	308.605	-0.096	-0.180
-608.201	-61.969	0.214	-0.090
-607.186	-200.000	0.041	0.235
-606.171	321.283	-0.272	-0.519
-605.157	-200.000	0.019	-0.114
-604.142	-200.000	0.017	0.101
-603.128	800.000	-0.048	0.154
-602.113	-2.243	0.363	0.256
-601.098	26.744	-0.097	0.082
-600.084	38.400	-0.093	-0.083
-599.069	405.347	0.042	-0.088
-598.055	-118.560	0.283	0.050
-597.040	161.525	-0.064	-0.090
-596.025	800.000	-0.034	-0.145
-595.011	138.933	-0.081	0.107
-593.996	-118.873	0.185	-0.033
-592.982	40.586	0.116	-0.105
-591.967	800.000	0.051	-0.188
-590.952	-63.138	-0.112	-0.046
-589.938	-50.143	0.054	0.025
-588.923	-16.627	-0.118	-0.075
-587.909	153.484	-0.132	-0.181
-586.894	231.104	0.057	0.094
-585.879	263.753	-0.175	-0.304
-584.865	-200.000	0.035	-0.301
-583.850	800.000	0.048	0.199
-582.836	800.000	0.039	0.153
-581.821	60.389	-0.117	-0.116
-580.806	5.065	0.111	0.082
-579.792	-5.688	-0.142	0.097
-578.777	113.427	-0.089	-0.109
-577.763	-123.999	0.161	0.025
-576.748	34.585	-0.103	0.090
-575.733	46.194	-0.199	-0.185
-574.719	100.924	-0.093	-0.108
-573.704	97.297	-0.095	0.109
-572.690	91.858	-0.128	0.144
-571.675	800.000	0.077	-0.261
-570.661	-41.984	0.388	-0.199
-569.646	-200.000	-0.049	0.270
-568.631	800.000	-0.046	-0.184
-567.617	-200.000	0.010	0.119
-566.602	-75.460	-0.342	0.122
-565.588	-167.494	-0.225	-0.009
-564.573	800.000	-0.102	-0.373
-563.558	800.000	0.050	0.168
-562.544	445.198	-0.091	0.199
-561.529	1.046	0.148	0.106
-560.515	-117.165	-0.278	-0.051
-559.500	174.864	-0.159	-0.231
-558.485	72.062	-0.199	0.207
-557.471	87.380	0.049	-0.054
-556.456	19.649	0.227	-0.183
-555.442	11.703	-0.115	0.088
-554.427	615.969	-0.034	0.085
-553.412	22.974	0.089	0.073
-552.398	-37.608	0.257	-0.137
-551.383	335.027	-0.032	-0.063
-550.369	-200.000	-0.015	-0.133
-549.354	708.114	0.119	-0.316
-548.339	-61.487	-0.274	0.115
-547.325	-19.342	0.201	0.125
-546.310	-80.779	-0.140	-0.046
-545.296	-200.000	-0.023	-0.142
-544.281	800.000	0.104	0.316
-543.266	-116.441	-0.127	-0.024
-542.252	-104.067	0.279	0.065
-541.237	-19.121	-0.179	0.111
-540.223	800.000	-0.042	0.145
-539.208	368.077	0.095	-0.192
-538.193	-200.000	-0.022	-0.217
-537.179	-133.892	0.321	-0.040
-536.164	2.370	0.223	-0.161
-535.150	-200.000	0.075	-0.530
-534.135	-200.000	-0.039	0.200
-533.121	800.000	-0.049	0.171
-532.106	101.904	0.167	0.195
-531.091	501.514	-0.190	-0.438
-530.077	-31.690	-0.163	0.092
-529.062	100.932	0.049	-0.057
-528.048	800.000	0.013	0.038
-527.033	-151.498	0.213	0.016
-526.018	199.472	0.214	-0.328
-525.004	88.889	-0.076	-0.085
-523.989	800.000	0.024	0.082
-522.975	-200.000	0.081	-0.410
-521.960	62.152	-0.055	-0.055
-520.945	-116.953	-0.103	0.019
-519.931	115.125	0.137	0.167
-518.916	-63.464	-0.258	-0.106
-517.902	-131.530	-0.138	-0.018
-516.887	150.602	-0.205	0.279
-515.872	-66.252	0.097	0.038
-514.858	444.255	-0.041	-0.091
-513.843	-132.804	-0.194	-0.025
-512.829	25.706	-0.191	-0.159
-511.814	-179.497	0.175	-0.004
-510.799	-200.000	0.025	-0.167
-509.785	224.521	-0.138	0.223
-508.770	-200.000	-0.002	-0.253
-507.756	359.461	-0.170	-0.340
-506.741	396.263	0.271	0.566
-505.726	36.023	-0.119	0.105
-504.712	97.599	-0.127	0.146
-503.697	-64.469	0.169	0.069
-502.683	34.700	0.179	0.157
-501.668	-43.566	-0.226	0.114
-500.653	539.836	-0.045	0.107
-499.639	-57.572	0.286	-0.125
-498.624	-79.063	-0.119	-0.040
-497.610	-200.000	-0.004	0.026
-496.595	185.135	-0.144	-0.214
-495.581	22.552	-0.120	-0.098
-494.566	4.966	-0.260	-0.191
-493.551	45.402	-0.067	0.062
-492.537	-131.897	-0.138	-0.018
-491.522	-200.000	0.038	0.177
-490.508	800.000	-0.041	0.137
-489.493	31.875	-0.116	-0.099
-488.478	800.000	0.130	-0.546
-487.464	-104.334	0.319	0.074
-486.449	-65.064	0.038	0.015
-485.435	549.849	0.046	0.111
-484.420	364.448	0.119	-0.239
-483.405	-104.155	-0.434	-0.101
-482.391	262.501	0.139	0.241
-481.376	-200.000	0.027	0.153
-480.362	-117.736	-0.250	-0.045
-479.347	-5.055	-0.094	-0.065
-478.332	239.656	0.069	0.115
-477.318	222.236	0.065	0.105
-476.303	579.879	0.029	0.072
-475.289	-129.745	-0.415	-0.057
-474.274	-61.234	0.185	-0.078
-473.259	354.602	-0.048	0.095
-472.245	7.174	0.125	0.093
-471.230	53.353	-0.203	0.195
-470.216	27.936	0.063	-0.053
-469.201	245.297	0.209	-0.351
-468.186	6.571	-0.231	-0.172
-467.172	64.121	0.169	-0.169
-466.157	-119.208	-0.172	-0.030
-465.143	-45.238	-0.188	0.093
-464.128	-200.000	0.006	0.144
-463.113	-170.468	-0.223	0.008
-462.099	591.784	-0.084	-0.207
-461.084	-67.377	-0.125	-0.049
-460.070	-200.000	-0.059	-0.311
-459.055	-108.924	-0.448	0.095
-458.040	-200.000	-0.041	-0.196
-457.026	-166.508	0.409	-0.017
-456.011	-200.000	0.029	0.298
-454.997	115.761	-0.125	0.152
-453.982	-200.000	0.043	0.460
-452.968	-200.000	0.038	0.232
-451.953	45.979	0.117	0.108
-450.938	22.483	0.174	0.142
-449.924	692.483	0.021	-0.055
-448.909	-50.650	-0.175	0.082
-447.895	717.247	0.118	-0.312
-446.880	232.101	-0.172	-0.282
-445.865	800.000	-0.054	0.168
-444.851	-156.927	0.270	0.017
-443.836	800.000	-0.101	0.399
-442.822	800.000	-0.062	-0.231
-441.807	-109.059	0.354	-0.075
-440.792	-200.000	0.008	0.134
-439.778	-200.000	-0.007	0.271
-438.763	174.359	-0.155	0.224
-437.749	695.210	0.074	0.194
-436.734	-26.633	0.268	-0.157
-435.719	-200.000	-0.031	-0.490
-434.705	280.194	0.120	0.213
-433.690	367.137	-0.063	-0.126
-432.676	716.243	0.049	0.131
-431.661	-70.326	-0.188	-0.071
-430.646	7.119	-0.211	0.157
-429.632	800.000	-0.004	-0.013
-428.617	59.440	0.127	-0.125
-427.603	-8.114	0.348	-0.234
-426.588	1.872	-0.229	0.164
-425.573	800.000	-0.052	0.194
-424.559	268.076	-0.177	0.309
-423.544	164.724	-0.028	-0.039
-422.530	-200.000	0.028	0.248
-421.515	345.825	0.108	0.212
-420.500	218.042	0.058	-0.092
-419.486	-43.465	0.286	0.144
-418.471	-76.963	-0.129	0.045
-417.457	-140.581	0.073	0.007
-416.442	601.041	0.120	0.297
-415.428	-200.000	0.009	-0.058
-414.413	-43.042	0.228	0.115
-413.398	-73.624	-0.139	0.050
-412.384	800.000	-0.069	0.230
-411.369	20.781	0.244	0.197
-410.355	532.136	-0.069	-0.164
-409.340	800.000	-0.033	0.105
-408.325	800.000	-0.075	0.205
-407.311	-101.761	-0.168	0.040
-406.296	21.906	0.204	-0.166
-405.282	-165.028	0.250	0.011
-404.267	-120.394	0.074	0.013
-403.252	-50.666	0.221	-0.104
-402.238	31.479	-0.224	-0.191
-401.223	212.143	-0.073	0.115
-400.209	-4.483	-0.348	0.240
-399.194	-200.000	-0.008	0.261
-398.179	-153.524	0.213	-0.015
-397.165	219.934	-0.141	0.225
-396.150	-98.315	-0.167	-0.043
-395.136	41.135	-0.058	-0.052
-394.121	-200.000	-0.043	-0.282
-393.106	-27.973	0.250	-0.144
-392.092	-117.250	0.090	0.016
-391.077	663.680	0.023	-0.058
-390.063	-115.176	-0.161	0.030
-389.048	664.618	-0.046	-0.118
-388.033	-69.381	-0.227	-0.087
-387.019	-200.000	0.009	-0.448
-386.004	-91.569	-0.318	0.090
-384.990	-93.501	0.158	0.044
-383.975	-200.000	0.009	-0.330
-382.960	392.680	0.035	0.073
-381.946	-10.466	-0.191	0.126
-380.931	-200.000	0.028	-0.157
-379.917	800.000	-0.109	0.364
-378.902	-71.078	0.326	-0.122
-377.888	297.088	-0.036	-0.066
-376.873	-200.000	-0.206	-0.001
-375.858	-3.612	-0.037	0.025
-374.844	800.000	0.100	-0.323
-373.829	-200.000	-0.020	-0.176
-372.815	-126.525	0.135	-0.020
-371.800	-129.655	-0.522	0.072
-370.785	-200.000	-0.052	0.236
-369.771	-108.614	-0.087	0.019
-368.756	-200.000	-0.008	-0.083
-367.742	-53.289	0.452	0.206
-366.727	72.104	0.109	-0.113
-365.712	45.178	0.283	-0.259
-364.698	-167.343	-0.161	0.006
-363.683	-31.624	-0.196	-0.109
-362.669	-200.000	0.009	-0.176
-361.654	-169.681	0.434	0.016
-360.639	-127.574	0.408	0.059
-359.625	-86.111	0.313	0.096
-358.610	3.798	-0.223	0.162
-357.596	220.599	-0.096	-0.152
-356.581	-141.269	-0.201	-0.020
-355.566	-196.962	0.133	-0.001
-354.552	-48.019	0.171	0.082
-353.537	-30.351	-0.247	0.139
-352.523	-200.000	0.027	0.358
-351.508	376.560	-0.055	-0.112
-350.493	-127.541	0.029	-0.004
-349.479	-115.099	0.263	-0.050
-348.464	0.479	-0.266	-0.189
-347.450	52.735	0.367	-0.348
-346.435	-200.000	-0.012	-0.177
-345.420	800.000	-0.103	-0.291
-344.406	194.573	-0.054	0.081
-343.391	262.940	0.174	0.300
-342.377	-94.047	0.189	0.052
-341.362	105.560	-0.124	0.145
-340.348	145.435	-0.240	-0.319
-339.333	-93.074	0.250	-0.069
-338.318	278.738	0.017	-0.029
-337.304	-200.000	0.003	-0.195
-336.289	-7.416	0.135	0.091
-335.275	-200.000	0.054	0.415
-334.260	-200.000	0.036	-0.181
-333.245	270.473	0.070	0.123
-332.231	152.541	0.073	-0.099
-331.216	155.948	0.176	-0.241
-330.202	274.855	0.098	-0.173
-329.187	50.014	-0.283	-0.265
-328.172	-200.000	0.017	0.338
-327.158	152.803	0.149	-0.202
-326.143	599.117	0.098	-0.242
-325.129	-139.172	-0.196	0.021
-324.114	-61.222	-0.099	0.041
-323.099	240.578	-0.135	-0.223
-322.085	-61.954	-0.156	0.065
-321.070	-200.000	0.046	0.312
-320.056	71.429	0.052	-0.053
-319.041	800.000	-0.071	-0.203
-318.026	-14.506	-0.292	0.187
-317.012	7.666	-0.343	-0.254
-315.997	55.714	-0.120	0.115
-314.983	-200.000	0.011	0.082
-313.968	-200.000	0.003	0.065
-312.953	500.454	0.035	-0.079
-311.939	49.279	-0.040	-0.038
-310.924	27.950	-0.267	0.223
-309.910	282.258	0.076	0.134
-308.895	-44.966	-0.303	0.150
-307.880	285.681	0.198	-0.354
-306.866	-131.634	-0.182	-0.024
-305.851	-83.690	-0.004	0.001
-304.837	87.064	-0.040	0.043
-303.822	-200.000	0.029	0.173
-302.807	574.587	-0.084	-0.203
-301.793	236.318	-0.109	-0.179
-300.778	413.235	-0.015	0.031
-299.764	800.000	-0.057	0.158
-298.749	-200.000	-0.019	0.224
-297.735	-87.636	-0.221	0.066
-296.720	-94.436	0.325	-0.088
-295.705	-200.000	-0.013	-0.250
-294.691	-70.133	0.272	0.103
-293.676	800.000	0.088	0.273
-292.662	91.313	-0.259	-0.289
-291.647	800.000	0.060	0.214
-290.632	800.000	0.072	0.201
-289.618	-200.000	-0.039	-0.393
-288.603	52.710	-0.080	0.075
-287.589	-200.000	0.039	0.187
-286.574	112.675	0.154	-0.184
-285.559	-13.607	-0.376	0.241
-284.545	60.302	0.318	-0.312
-283.530	-101.047	0.385	-0.094
-282.516	-147.308	0.097	0.008
-281.501	86.869	0.149	0.163
-280.486	-22.211	0.193	-0.116
-279.472	-36.366	0.186	0.099
-278.457	67.522	-0.171	-0.173
-277.443	300.826	-0.093	-0.171
-276.428	-130.681	0.204	-0.027
-275.413	-200.000	-0.029	0.186
-274.399	-129.909	-0.100	0.014
-273.384	-2.722	0.200	0.139
-272.370	635.074	-0.011	0.028
-271.355	-200.000	0.019	0.114
-270.340	2.445	0.096	0.069
-269.326	800.000	-0.005	-0.021
-268.311	-200.000	0.006	0.355
-267.297	-117.210	-0.141	0.025
-266.282	-48.056	-0.170	-0.081
-265.267	378.967	0.057	-0.115
-264.253	-159.221	0.392	-0.022
-263.238	-77.859	-0.128	-0.044
-262.224	-200.000	0.019	0.182
-261.209	14.369	0.122	0.094
-260.195	-41.796	0.154	0.078
-259.180	142.550	0.022	0.029
-258.165	-14.683	0.244	0.155
-257.151	-121.345	0.440	0.073
-256.136	800.000	0.094	-0.259
-255.122	109.838	-0.066	-0.078
-254.107	10.438	-0.299	-0.225
-253.092	109.831	0.362	-0.430
-252.078	6.494	-0.128	-0.094
-251.063	-112.244	0.193	0.038
-250.049	-200.000	0.007	0.153
-249.034	-145.760	0.144	0.013
-248.019	-200.000	-0.015	0.217
-247.005	242.193	-0.078	-0.128
-245.990	800.000	0.081	0.311
-244.976	403.105	0.037	-0.077
-243.961	89.195	-0.297	-0.328
-242.946	166.481	0.084	0.118
-241.932	-170.745	0.322	-0.011
-240.917	-25.293	-0.245	0.143
-239.903	325.999	0.193	0.366
-238.888	-160.354	0.082	-0.004
-237.873	45.793	-0.081	0.074
-236.859	-103.540	-0.313	-0.073
-235.844	41.411	0.443	-0.397
-234.830	783.844	-0.066	0.179
-233.815	-8.712	0.259	-0.172
-232.800	168.649	0.178	0.251
-231.786	-200.000	-0.006	0.042
-230.771	263.825	-0.197	-0.339
-229.757	-131.498	0.304	0.040
-228.742	8.484	-0.347	-0.258
-227.727	800.000	-0.044	-0.123
-226.713	-200.000	-0.019	-0.229
-225.698	133.028	-0.193	-0.246
-224.684	800.000	0.027	-0.093
-223.669	22.087	0.210	0.170
-222.655	800.000	0.072	0.300
-221.640	109.206	0.087	0.103
-220.625	-200.000	-0.028	-0.240
-219.611	-13.314	-0.156	0.100
-218.596	800.000	-0.033	-0.104
-217.582	141.155	-0.071	-0.092
-216.567	-200.000	0.024	0.260
-215.552	800.000	0.042	-0.135
-214.538	-200.000	-0.009	-0.054
-213.523	35.087	-0.131	-0.114
-212.509	367.795	-0.257	0.513
-211.494	5.557	-0.244	-0.178
-210.479	115.251	0.329	0.397
-209.465	800.000	0.044	0.157
-208.450	-24.774	-0.208	0.122
-207.436	-52.603	0.242	-0.110
-206.421	297.561	0.037	0.068
-205.406	-56.224	-0.180	-0.079
-204.392	-138.776	0.301	0.032
-203.377	67.748	0.111	0.112
-202.363	22.169	-0.184	-0.148
-201.348	800.000	-0.023	0.068
-200.333	202.833	-0.293	0.447
-199.319	-200.000	-0.053	-0.266
-198.304	-200.000	0.020	-0.130
-197.290	31.078	0.207	0.176
-196.275	86.169	-0.084	0.092
-195.260	-45.236	0.129	-0.063
-194.246	-107.329	-0.068	-0.015
-193.231	145.730	-0.194	-0.256
-192.217	-200.000	0.009	0.522
-191.202	49.657	0.167	0.156
-190.187	-38.515	0.078	-0.041
-189.173	-200.000	0.005	-0.107
-188.158	-99.933	0.195	0.048
-187.144	800.000	-0.069	-0.286
-186.129	239.959	0.035	-0.058
-185.114	-85.152	-0.155	0.048
-184.100	-11.145	0.308	-0.200
-183.085	-137.373	0.261	0.029
-182.071	33.662	-0.229	0.197
-181.056	800.000	-0.044	-0.141
-180.042	-122.526	-0.323	-0.052
-179.027	290.779	-0.160	0.286
-178.012	800.000	0.021	0.060
-176.998	-162.921	0.222	-0.011
-175.983	80.408	-0.152	-0.162
-174.969	-53.890	0.268	-0.120
-173.954	800.000	0.062	-0.205
-172.939	800.000	0.031	0.111
-171.925	-124.556	-0.317	0.049
-170.910	648.480	-0.059	0.149
-169.896	59.172	0.360	0.350
-168.881	-117.996	-0.196	0.035
-167.866	-48.211	-0.147	-0.070
-166.852	-56.721	-0.290	0.126
-165.837	619.710	0.104	0.257
-164.823	-44.468	0.311	0.154
-163.808	-45.098	-0.131	0.064
-162.793	508.204	0.071	-0.164
-161.779	289.191	-0.080	-0.144
-160.764	-149.530	-0.171	-0.013
-159.750	800.000	-0.003	0.013
-158.735	95.689	0.279	0.314
-157.720	-23.628	-0.117	-0.069
-156.706	572.134	-0.026	-0.063
-155.691	50.811	-0.211	0.197
-154.677	800.000	-0.054	0.183
-153.662	-57.629	0.355	-0.153
-152.647	346.621	0.050	0.096
-151.633	-118.603	0.090	-0.016
-150.618	-200.000	-0.010	0.081
-149.604	57.607	-0.070	-0.067
-148.589	36.892	-0.232	-0.202
-147.574	800.000	-0.012	-0.042
-146.560	307.030	0.111	0.203
-145.545	-93.614	0.342	0.093
-144.531	-200.000	-0.023	0.239
-143.516	-28.476	-0.173	-0.098
-142.502	60.046	-0.062	-0.060
-141.487	800.000	-0.050	0.158
-140.472	664.631	-0.072	0.184
-139.458	392.973	-0.114	-0.234
-138.443	-200.000	0.019	0.242
-137.429	10.822	0.197	0.148
-136.414	-47.596	0.102	0.049
-135.399	-200.000	0.029	-0.207
-134.385	-22.330	-0.317	-0.189
-133.370	-200.000	0.021	-0.185
-132.356	-77.222	-0.104	0.036
-131.341	-25.532	-0.126	-0.073
-130.326	-12.910	-0.167	0.107
-129.312	-70.801	0.442	-0.164
-128.297	558.673	-0.157	-0.373
-127.283	-38.041	-0.118	0.062
-126.268	222.354	0.044	-0.069
-125.253	-200.000	0.019	0.142
-124.239	-132.176	-0.207	0.026
-123.224	18.440	0.058	-0.045
-122.210	704.730	0.053	-0.138
-121.195	613.986	-0.046	0.112
