DTS Sentinel unit serial number:	SN413079Multiplexer serial number:	ORYXHardware model number:	OX4-SRSoftware version number:	ORYX F/W v4.00 Oryx Data Collector v3.7.2.0data status	okinstallation	princeton_trtdifferential loss correction	single-endedforward channel	channel 1reverse channel	N/Adate	2019/09/16time	05:10:35forward acquisition time	60.00reverse acquisition time	0.00gamma	496.2192k internal	0.2332k external	0.2332temperature offset calibration	0.9985default loss term (dB/km)	0.3790temperature slope calibration	1.0000multiplexer offset coefficient	1.0000multiplexer slope coefficient	1.0000fibre end	0.00T internal ref (°C)	27.19T ext. ref 1 (°C)	11.03T ext. ref 2 (°C)	22.20length (m)	temperature (°C)	Stokes	anti-Stokes-747.200	-200.000	0.034	0.183
-746.185	428.021	-0.133	0.288
-745.171	800.000	0.080	0.224
-744.156	-200.000	-0.064	0.321
-743.142	135.411	0.073	0.095
-742.127	-200.000	0.002	0.073
-741.112	800.000	-0.037	-0.155
-740.098	-123.652	-0.338	-0.054
-739.083	-200.000	0.029	0.246
-738.069	472.857	-0.173	0.393
-737.054	-75.832	0.404	0.144
-736.039	55.939	-0.223	0.218
-735.025	-19.766	-0.153	-0.095
-734.010	-3.379	0.107	0.075
-732.996	252.009	-0.122	0.208
-731.981	-17.901	-0.212	0.133
-730.966	800.000	0.107	-0.366
-729.952	800.000	0.066	-0.258
-728.937	800.000	0.048	0.153
-727.923	-200.000	-0.063	0.315
-726.908	-39.219	0.251	-0.133
-725.894	50.763	-0.077	0.073
-724.879	450.829	0.046	0.101
-723.864	-200.000	-0.020	0.100
-722.850	800.000	0.130	-0.448
-721.835	-18.794	-0.122	-0.076
-720.821	-200.000	0.020	0.350
-719.806	-131.027	0.227	0.030
-718.791	357.786	0.050	-0.101
-717.777	26.118	-0.266	0.223
-716.762	-21.271	-0.295	-0.181
-715.748	-16.644	0.057	-0.036
-714.733	-150.169	-0.201	-0.016
-713.718	15.186	0.155	-0.122
-712.704	-107.133	-0.083	0.018
-711.689	-159.852	0.196	-0.011
-710.675	-155.742	0.171	-0.011
-709.660	-90.659	-0.234	-0.068
-708.645	24.550	0.226	-0.188
-707.631	260.663	0.090	-0.157
-706.616	-37.608	-0.082	0.044
-705.602	-200.000	0.001	-0.237
-704.587	800.000	-0.057	0.170
-703.572	441.605	0.110	-0.241
-702.558	101.267	-0.076	-0.089
-701.543	800.000	0.071	0.224
-700.529	-150.545	0.379	-0.029
-699.514	300.281	0.033	0.061
-698.499	-22.987	0.046	-0.028
-697.485	-200.000	-0.065	-0.394
-696.470	89.234	0.123	-0.138
-695.456	-5.561	-0.453	-0.312
-694.441	-8.195	0.225	0.152
-693.426	403.616	-0.089	0.188
-692.412	-75.037	-0.353	0.127
-691.397	158.911	0.201	-0.280
-690.383	-52.764	-0.153	-0.071
-689.368	-75.362	-0.360	0.129
-688.354	-161.128	-0.386	-0.020
-687.339	-37.973	-0.275	-0.147
-686.324	439.630	-0.058	-0.127
-685.310	-67.912	-0.366	-0.143
-684.295	-1.965	0.305	-0.215
-683.281	3.177	0.187	-0.136
-682.266	111.636	-0.046	-0.056
-681.251	168.994	-0.105	-0.150
-680.237	160.547	0.048	0.067
-679.222	20.497	0.319	0.259
-678.208	89.498	-0.034	-0.038
-677.193	-79.641	-0.235	-0.079
-676.178	-110.342	-0.145	-0.030
-675.164	35.405	-0.081	-0.071
-674.149	423.115	-0.126	-0.272
-673.135	800.000	0.010	-0.036
-672.120	83.464	0.229	0.251
-671.105	-15.266	0.216	-0.138
-670.091	-94.917	0.235	-0.064
-669.076	-125.116	-0.007	0.001
-668.062	-200.000	-0.003	-0.265
-667.047	-98.949	-0.276	0.070
-666.032	-119.455	-0.234	0.041
-665.018	-76.663	0.017	0.006
-664.003	43.516	-0.143	-0.131
-662.989	-91.990	0.195	-0.055
-661.974	-39.687	-0.080	-0.042
-660.959	696.490	0.089	0.234
-659.945	-97.622	0.137	0.036
-658.930	5.861	0.110	0.082
-657.916	-200.000	-0.033	0.201
-656.901	-3.204	0.430	-0.300
-655.886	800.000	-0.178	0.526
-654.872	155.039	-0.238	-0.328
-653.857	155.974	-0.051	0.071
-652.843	135.606	0.169	-0.220
-651.828	800.000	0.169	-0.483
-650.814	124.979	-0.031	0.039
-649.799	-134.900	-0.258	-0.031
-648.784	-200.000	0.036	-0.256
-647.770	-75.733	0.078	-0.028
-646.755	-129.131	0.057	-0.008
-645.741	-112.956	-0.184	-0.037
-644.726	-61.587	-0.180	-0.076
-643.711	638.865	-0.093	-0.238
-642.697	-33.945	-0.211	-0.116
-641.682	800.000	-0.048	-0.192
-640.668	-116.191	-0.333	-0.062
-639.653	65.127	0.114	-0.116
-638.638	543.805	-0.201	0.480
-637.624	-200.000	-0.006	0.342
-636.609	29.239	0.065	0.055
-635.595	-130.324	0.064	0.009
-634.580	78.392	0.151	-0.162
-633.565	800.000	0.046	-0.154
-632.551	87.283	-0.119	-0.132
-631.536	-95.190	-0.383	-0.103
-630.522	800.000	0.075	-0.294
-629.507	460.619	0.045	0.101
-628.492	-57.496	0.341	-0.150
-627.478	800.000	0.036	0.122
-626.463	150.393	0.167	-0.227
-625.449	13.527	0.083	0.065
-624.434	-200.000	0.052	0.265
-623.419	-36.926	-0.365	-0.196
-622.405	800.000	0.037	-0.110
-621.390	-5.241	0.084	0.058
-620.376	89.739	-0.134	-0.150
-619.361	-120.009	0.098	-0.017
-618.346	52.931	0.120	0.115
-617.332	2.228	0.198	0.143
-616.317	-57.658	0.203	0.089
-615.303	65.427	-0.029	0.029
-614.288	-143.790	0.229	0.022
-613.273	-130.666	-0.204	-0.027
-612.259	-126.736	-0.220	0.033
-611.244	-18.873	-0.233	0.145
-610.230	-87.155	-0.201	0.061
-609.215	-200.000	0.007	-0.156
-608.201	-7.365	-0.276	-0.187
-607.186	800.000	-0.077	0.334
-606.171	365.799	-0.029	-0.058
-605.157	-200.000	-0.022	0.164
-604.142	-51.139	0.315	0.148
-603.128	-141.263	-0.434	0.044
-602.113	-200.000	-0.012	-0.400
-601.098	-77.503	0.172	0.060
-600.084	-63.385	0.108	0.045
-599.069	-200.000	0.033	-0.157
-598.055	9.514	0.247	0.187
-597.040	-14.044	-0.077	-0.049
-596.025	784.150	-0.040	0.109
-595.011	274.834	0.160	0.284
-593.996	-153.853	0.144	0.010
-592.982	-90.559	0.168	0.049
-591.967	-113.522	-0.273	-0.053
-590.952	537.169	-0.029	0.069
-589.938	-200.000	0.006	0.201
-588.923	-53.617	-0.363	0.166
-587.909	-149.137	0.167	0.013
-586.894	-54.523	-0.163	0.074
-585.879	-54.966	-0.189	-0.085
-584.865	59.955	-0.184	0.182
-583.850	-155.450	0.281	0.018
-582.836	-39.810	-0.288	-0.150
-581.821	2.170	-0.114	-0.082
-580.806	308.975	-0.022	0.041
-579.792	-83.820	0.119	-0.038
-578.777	233.015	0.016	-0.027
-577.763	-53.397	-0.221	0.101
-576.748	-50.939	0.121	-0.057
-575.733	109.870	0.210	0.251
-574.719	-88.898	-0.226	-0.067
-573.704	-44.377	-0.236	-0.118
-572.690	-200.000	-0.021	-0.171
-571.675	-200.000	0.072	-0.415
-570.661	-104.639	0.116	-0.027
-569.646	800.000	-0.036	-0.115
-568.631	84.044	-0.105	0.114
-567.617	46.689	0.094	-0.087
-566.602	-169.781	0.403	0.014
-565.588	-200.000	0.008	0.333
-564.573	-179.443	-0.097	-0.002
-563.558	82.351	-0.147	0.159
-562.544	29.937	-0.092	0.079
-561.529	-66.650	-0.107	0.042
-560.515	-60.616	0.198	-0.084
-559.500	-124.884	0.214	-0.033
-558.485	-31.655	-0.249	0.139
-557.471	86.492	0.316	-0.348
-556.456	-200.000	-0.124	0.604
-555.442	-76.661	-0.034	0.012
-554.427	800.000	-0.040	0.146
-553.412	-200.000	-0.023	0.155
-552.398	-81.247	-0.290	0.096
-551.383	-160.711	0.086	-0.005
-550.369	-39.569	-0.111	0.058
-549.354	-56.880	-0.146	-0.064
-548.339	-144.233	-0.063	0.006
-547.325	-200.000	-0.008	-0.276
-546.310	-43.383	0.240	0.121
-545.296	261.204	0.109	0.188
-544.281	-44.309	-0.107	0.054
-543.266	-51.070	0.410	0.192
-542.252	-8.102	-0.124	0.084
-541.237	-44.886	0.253	0.126
-540.223	150.041	-0.181	0.245
-539.208	-76.558	-0.417	0.146
-538.193	98.702	0.255	0.294
-537.179	-142.738	-0.157	0.015
-536.164	800.000	0.051	-0.155
-535.150	-46.673	0.205	0.100
-534.135	-110.527	-0.137	-0.028
-533.121	-200.000	-0.025	0.487
-532.106	575.901	0.047	-0.114
-531.091	269.918	-0.120	0.210
-530.077	127.381	0.092	0.116
-529.062	229.439	-0.106	-0.173
-528.048	-200.000	-0.004	-0.085
-527.033	176.587	0.084	-0.121
-526.018	-200.000	0.010	0.104
-525.004	64.724	-0.133	-0.133
-523.989	-200.000	0.017	-0.139
-522.975	313.274	0.091	0.171
-521.960	280.691	0.103	0.184
-520.945	166.376	-0.138	-0.195
-519.931	-87.040	-0.403	-0.122
-518.916	-200.000	0.013	-0.073
-517.902	-75.116	-0.132	0.047
-516.887	74.540	-0.106	-0.111
-515.872	120.008	-0.159	-0.196
-514.858	93.953	0.276	0.312
-513.843	-154.775	0.251	0.017
-512.829	-137.612	-0.274	0.031
-511.814	101.097	0.253	0.294
-510.799	-65.871	-0.025	0.010
-509.785	-83.754	-0.232	0.074
-508.770	649.156	-0.039	-0.098
-507.756	353.942	-0.188	-0.372
-506.741	97.514	-0.136	-0.155
-505.726	-17.932	0.449	0.281
-504.712	61.939	-0.119	-0.119
-503.697	-107.016	-0.325	-0.072
-502.683	800.000	0.052	-0.188
-501.668	-34.206	0.271	0.148
-500.653	108.741	0.197	0.234
-499.639	203.273	0.187	-0.288
-498.624	92.859	-0.181	0.204
-497.610	-120.631	0.266	0.045
-496.595	-29.805	0.331	0.188
-495.581	800.000	0.060	-0.198
-494.566	-111.626	-0.096	0.019
-493.551	-77.202	-0.442	-0.153
-492.537	-200.000	0.026	-0.162
-491.522	-200.000	-0.033	0.331
-490.508	316.741	-0.047	0.088
-489.493	-200.000	-0.014	-0.069
-488.478	800.000	-0.102	0.402
-487.464	321.561	-0.073	0.138
-486.449	-22.103	0.088	0.053
-485.435	-109.169	0.216	-0.046
-484.420	107.379	0.210	-0.249
-483.405	-106.095	-0.260	0.058
-482.391	-71.317	0.236	-0.088
-481.376	43.478	0.237	-0.215
-480.362	-200.000	-0.004	-0.155
-479.347	-68.471	0.157	0.060
-478.332	88.025	-0.286	-0.315
-477.318	107.108	-0.066	-0.078
-476.303	671.862	-0.040	-0.103
-475.289	-200.000	0.004	0.109
-474.274	-84.686	0.151	0.047
-473.259	15.741	0.082	-0.064
-472.245	800.000	0.019	-0.068
-471.230	-200.000	0.024	-0.155
-470.216	-28.326	0.125	0.072
-469.201	99.726	0.196	0.226
-468.186	110.721	0.107	0.129
-467.172	-122.696	-0.109	-0.018
-466.157	-1.031	0.087	0.061
-465.143	-47.855	-0.199	0.096
-464.128	1.162	0.114	0.081
-463.113	20.081	0.122	-0.098
-462.099	-158.511	0.254	0.015
-461.084	-137.511	-0.072	-0.008
-460.070	-31.346	0.132	0.074
-459.055	-200.000	0.005	-0.215
-458.040	204.096	0.126	0.194
-457.026	254.748	-0.100	-0.171
-456.011	61.793	-0.047	0.047
-454.997	469.777	-0.119	0.266
-453.982	-200.000	-0.038	0.430
-452.968	-67.514	0.078	-0.031
-451.953	-119.658	0.288	-0.050
-450.938	-96.474	-0.242	0.063
-449.924	-63.051	0.287	0.118
-448.909	-200.000	0.007	0.079
-447.895	426.677	-0.150	0.322
-446.880	113.569	0.239	-0.289
-445.865	-33.644	-0.151	-0.083
-444.851	-57.541	0.326	-0.142
-443.836	-32.524	0.052	-0.029
-442.822	800.000	-0.065	-0.195
-441.807	274.926	0.137	-0.242
-440.792	-48.469	-0.041	0.020
-439.778	49.272	-0.165	-0.154
-438.763	-200.000	0.089	0.514
-437.749	800.000	-0.166	0.518
-436.734	166.235	0.219	0.308
-435.719	1.570	-0.284	-0.203
-434.705	71.041	0.265	-0.273
-433.690	-68.342	0.094	0.036
-432.676	126.879	0.146	0.184
-431.661	407.052	0.083	-0.174
-430.646	800.000	-0.073	0.273
-429.632	800.000	-0.076	0.319
-428.617	122.011	-0.246	0.305
-427.603	-157.763	-0.406	-0.024
-426.588	-100.617	0.519	-0.127
-425.573	-99.888	-0.112	0.028
-424.559	-32.735	0.186	-0.103
-423.544	20.010	-0.187	0.150
-422.530	-102.585	0.141	-0.034
-421.515	-200.000	0.019	0.279
-420.500	-200.000	0.034	-0.188
-419.486	108.675	0.063	0.075
-418.471	-200.000	-0.026	0.331
-417.457	-200.000	0.053	-0.252
-416.442	-27.812	-0.074	0.042
-415.428	800.000	0.024	0.075
-414.413	-97.907	-0.120	0.031
-413.398	-34.147	-0.202	0.110
-412.384	-200.000	0.006	-0.048
-411.369	-148.647	0.309	0.025
-410.355	105.997	0.138	-0.162
-409.340	79.448	-0.154	-0.164
-408.325	130.503	-0.045	-0.057
-407.311	800.000	0.011	0.044
-406.296	-152.919	0.303	-0.021
-405.282	-169.457	0.215	-0.008
-404.267	-48.883	-0.371	-0.176
-403.252	-20.872	-0.126	0.077
-402.238	241.966	0.238	-0.394
-401.223	-200.000	-0.008	-0.078
-400.209	800.000	-0.118	0.383
-399.194	0.245	0.097	0.069
-398.179	-73.855	-0.161	-0.058
-397.165	318.909	-0.112	0.211
-396.150	800.000	0.068	-0.284
-395.136	-13.585	-0.352	0.226
-394.121	293.812	0.047	0.085
-393.106	-2.858	0.177	0.123
-392.092	356.859	-0.005	0.011
-391.077	54.197	0.204	0.195
-390.063	-49.482	0.382	-0.181
-389.048	181.717	0.053	0.077
-388.033	-200.000	-0.000	-0.036
-387.019	81.388	0.145	0.156
-386.004	-200.000	0.028	0.403
-384.990	173.165	-0.182	-0.260
-383.975	-200.000	-0.028	0.141
-382.960	142.259	0.114	0.150
-381.946	-200.000	-0.007	0.039
-380.931	-200.000	-0.054	-0.267
-379.917	87.647	-0.150	-0.164
-378.902	107.408	-0.074	-0.087
-377.888	59.238	-0.263	-0.257
-376.873	-75.408	-0.327	-0.116
-375.858	-91.396	0.161	-0.046
-374.844	800.000	-0.017	0.067
-373.829	-200.000	0.081	0.374
-372.815	409.859	-0.085	0.179
-371.800	-19.530	0.054	0.033
-370.785	106.811	0.127	-0.149
-369.771	639.633	0.108	0.271
-368.756	-27.115	-0.230	-0.133
-367.742	-200.000	-0.048	0.234
-366.727	-2.509	-0.274	-0.190
-365.712	800.000	-0.084	0.258
-364.698	-124.478	0.179	0.028
-363.683	194.689	0.160	-0.241
-362.669	55.321	-0.278	-0.266
-361.654	-23.972	-0.123	0.073
-360.639	-106.000	-0.120	-0.027
-359.625	456.178	-0.143	0.315
-358.610	-24.935	-0.150	0.088
-357.596	-200.000	-0.004	-0.082
-356.581	16.126	0.259	-0.202
-355.566	-3.877	-0.218	0.150
-354.552	591.500	-0.125	-0.305
-353.537	-83.208	-0.372	-0.118
-352.523	378.579	0.082	0.165
-351.508	105.700	-0.237	0.277
-350.493	-146.170	0.132	-0.012
-349.479	-200.000	-0.311	0.000
-348.464	15.172	-0.312	-0.242
-347.450	-28.058	-0.121	-0.069
-346.435	-176.219	-0.265	0.007
-345.420	-60.181	0.067	-0.028
-344.406	99.200	0.082	-0.094
-343.391	409.945	0.117	-0.246
-342.377	234.979	-0.075	-0.122
-341.362	287.201	-0.139	-0.249
-340.348	-200.000	-0.011	0.117
-339.333	-200.000	0.011	-0.075
-338.318	-200.000	-0.026	0.184
-337.304	-200.000	-0.065	0.000
-336.289	274.694	0.154	0.270
-335.275	800.000	-0.112	-0.324
-334.260	-41.091	-0.061	-0.031
-333.245	-72.554	0.438	-0.160
-332.231	56.168	0.309	-0.297
-331.216	-42.695	0.060	-0.030
-330.202	-44.680	0.093	-0.046
-329.187	-200.000	0.037	-0.205
-328.172	-133.944	0.073	-0.009
-327.158	-1.901	0.215	0.150
-326.143	800.000	-0.081	-0.224
-325.129	506.645	-0.055	-0.126
-324.114	800.000	-0.098	-0.347
-323.099	-39.348	-0.233	0.121
-322.085	-200.000	-0.004	0.261
-321.070	-20.982	0.077	-0.047
-320.056	-150.781	-0.082	-0.006
-319.041	-168.265	-0.162	0.006
-318.026	43.307	-0.367	-0.332
-317.012	122.374	0.120	0.148
-315.997	45.440	0.034	-0.031
-314.983	-112.906	0.327	0.064
-313.968	-0.035	0.098	0.069
-312.953	800.000	-0.170	-0.519
-311.939	-95.722	0.445	0.118
-310.924	232.560	0.064	-0.104
-309.910	800.000	0.039	-0.168
-308.895	-167.275	-0.222	0.009
-307.880	0.474	0.197	0.139
-306.866	81.249	-0.115	-0.123
-305.851	34.230	-0.163	-0.141
-304.837	295.550	-0.177	0.321
-303.822	-130.041	-0.072	-0.010
-302.807	-200.000	0.037	0.180
-301.793	-200.000	-0.011	-0.190
-300.778	-22.733	-0.148	-0.088
-299.764	28.612	0.117	0.098
-298.749	33.105	-0.146	0.125
-297.735	-200.000	0.030	0.184
-296.720	-200.000	0.083	0.365
-295.705	-200.000	-0.010	-0.198
-294.691	-106.137	0.280	0.062
-293.676	800.000	-0.028	-0.114
-292.662	283.131	-0.186	-0.330
-291.647	112.789	-0.121	-0.145
-290.632	-200.000	0.391	-0.001
-289.618	-200.000	-0.010	-0.050
-288.603	-81.411	-0.220	0.072
-287.589	542.573	0.045	0.106
-286.574	62.302	-0.290	-0.286
-285.559	-200.000	0.005	0.036
-284.545	-96.414	0.106	0.028
-283.530	78.835	-0.057	0.060
-282.516	800.000	0.029	-0.122
-281.501	-34.088	0.296	0.161
-280.486	141.979	-0.084	0.109
-279.472	327.953	-0.139	-0.264
-278.457	-200.000	0.014	0.128
-277.443	4.828	0.042	-0.031
-276.428	0.699	0.118	-0.083
-275.413	800.000	-0.041	0.165
-274.399	-111.193	-0.088	-0.018
-273.384	17.541	-0.192	0.151
-272.370	-113.478	-0.129	0.025
-271.355	47.985	0.128	0.118
-270.340	-125.656	0.107	-0.016
-269.326	339.699	-0.100	0.192
-268.311	247.029	-0.128	-0.213
-267.297	-105.169	-0.235	-0.053
-266.282	-65.554	-0.158	-0.063
-265.267	-164.983	0.070	-0.003
-264.253	-200.000	0.002	-0.175
-263.238	156.464	-0.101	0.137
-262.224	169.178	-0.213	-0.300
-261.209	-65.918	-0.183	-0.072
-260.195	-102.661	0.474	0.112
-259.180	800.000	-0.082	-0.315
-258.165	-61.028	0.407	-0.170
-257.151	800.000	0.044	0.172
-256.136	-27.258	-0.108	0.062
-255.122	-65.762	-0.263	0.104
-254.107	-69.759	0.023	0.009
-253.092	212.947	0.229	-0.357
-252.078	60.427	0.169	-0.165
-251.063	-106.880	0.146	0.032
-250.049	-76.882	-0.225	0.078
-249.034	113.994	-0.023	-0.027
-248.019	-200.000	0.054	-0.244
-247.005	-200.000	-0.026	0.187
-245.990	-37.443	0.441	-0.232
-244.976	-186.505	-0.471	-0.007
-243.961	-0.860	0.214	-0.150
-242.946	23.512	-0.254	-0.206
-241.932	800.000	-0.083	-0.293
-240.917	-80.271	-0.158	-0.052
-239.903	502.123	0.072	-0.165
-238.888	-200.000	-0.063	0.357
-237.873	-24.938	0.426	0.249
-236.859	-106.561	0.413	0.091
-235.844	800.000	0.073	-0.302
-234.830	-200.000	0.021	0.113
-233.815	229.428	-0.277	0.446
-232.800	-54.579	-0.098	0.044
-231.786	65.118	-0.079	-0.079
-230.771	-63.753	0.288	0.116
-229.757	-58.177	0.267	0.114
-228.742	-200.000	-0.011	-0.430
-227.727	636.884	0.132	0.330
-226.713	72.032	0.147	0.151
-225.698	579.219	-0.132	-0.318
-224.684	295.728	0.109	-0.198
-223.669	-124.498	0.233	-0.036
-222.655	314.850	-0.142	0.265
-221.640	397.181	0.029	-0.060
-220.625	-200.000	0.042	-0.243
-219.611	190.868	0.142	-0.211
-218.596	200.568	0.103	0.156
-217.582	-200.000	0.052	-0.582
-216.567	-91.410	-0.182	-0.051
-215.552	800.000	-0.082	0.240
-214.538	56.220	-0.196	0.188
-213.523	-200.000	-0.029	0.184
-212.509	7.288	0.212	0.156
-211.494	-200.000	-0.014	0.224
-210.479	250.195	-0.110	-0.185
-209.465	-200.000	-0.025	-0.202
-208.450	12.148	-0.125	0.095
-207.436	270.031	-0.088	0.153
-206.421	679.213	0.042	-0.108
-205.406	181.991	0.137	-0.199
-204.392	-109.927	-0.130	0.027
-203.377	143.322	0.048	-0.064
-202.363	604.815	0.157	0.386
-201.348	800.000	0.162	-0.464
-200.333	24.382	-0.157	0.128
-199.319	-200.000	-0.030	0.157
-198.304	239.858	0.088	0.145
-197.290	-19.341	-0.252	-0.154
-196.275	204.704	0.080	0.123
-195.260	-200.000	-0.012	0.053
-194.246	16.957	0.150	-0.117
-193.231	-200.000	-0.061	0.332
-192.217	-40.752	0.402	-0.205
-191.202	-117.230	0.096	0.017
-190.187	506.525	-0.114	-0.260
-189.173	-200.000	0.051	-0.330
-188.158	-200.000	-0.012	0.062
-187.144	441.164	0.177	-0.382
-186.129	119.339	-0.076	-0.092
-185.114	164.931	0.007	0.010
-184.100	300.286	0.132	-0.240
-183.085	-200.000	-0.038	-0.258
-182.071	800.000	0.033	0.091
-181.056	216.846	0.095	-0.148
-180.042	376.228	-0.040	-0.081
-179.027	-77.605	-0.163	-0.056
-178.012	-127.575	0.149	-0.021
-176.998	161.869	0.190	0.261
-175.983	800.000	-0.061	-0.169
-174.969	800.000	0.066	0.201
-173.954	-200.000	0.003	-0.019
-172.939	800.000	-0.060	-0.191
-171.925	319.500	-0.078	0.145
-170.910	-17.268	0.111	-0.069
-169.896	-96.865	0.331	-0.086
-168.881	-16.431	-0.055	-0.034
-167.866	-25.715	0.203	0.118
-166.852	800.000	0.086	0.365
-165.837	159.861	-0.023	-0.032
-164.823	254.688	0.138	0.233
-163.808	-200.000	0.023	-0.129
-162.793	800.000	-0.075	0.241
-161.779	-22.016	-0.240	-0.144
-160.764	800.000	-0.100	-0.383
-159.750	-200.000	0.049	-0.318
-158.735	337.203	-0.073	-0.140
-157.720	-200.000	0.023	0.190
-156.706	-200.000	-0.069	0.410
-155.691	-200.000	-0.005	0.036
-154.677	161.390	0.137	-0.189
-153.662	41.907	-0.196	0.174
-152.647	745.284	0.152	0.403
-151.633	59.290	0.176	-0.170
-150.618	800.000	0.014	0.041
-149.604	-104.887	0.098	-0.022
-148.589	198.789	0.051	0.077
-147.574	800.000	0.058	0.199
-146.560	-200.000	-0.048	-0.230
-145.545	132.118	0.208	0.263
-144.531	-200.000	0.008	0.133
-143.516	-200.000	-0.009	0.200
-142.502	404.323	0.136	-0.282
-141.487	-126.070	-0.242	0.036
-140.472	-200.000	-0.059	0.373
-139.458	179.304	-0.183	0.263
-138.443	64.538	0.151	0.150
-137.429	14.417	-0.107	0.082
-136.414	177.621	-0.040	-0.058
-135.399	649.883	-0.043	0.108
-134.385	16.425	-0.062	0.048
-133.370	-31.255	-0.155	0.086
-132.356	202.442	-0.190	0.288
-131.341	7.898	-0.247	-0.182
-130.326	132.458	-0.231	0.292
-129.312	-141.588	-0.233	0.023
-128.297	-200.000	-0.001	0.028
-127.283	560.717	-0.070	0.166
-126.268	-200.000	-0.003	0.163
-125.253	-75.540	0.445	0.156
-124.239	-200.000	0.024	0.114
-123.224	230.253	0.136	-0.219
-122.210	-150.537	0.321	0.024
-121.195	-23.481	0.187	0.110
