DTS Sentinel unit serial number:	SN413079Multiplexer serial number:	ORYXHardware model number:	OX4-SRSoftware version number:	ORYX F/W v4.00 Oryx Data Collector v3.7.2.0data status	okinstallation	princeton_trtdifferential loss correction	single-endedforward channel	channel 1reverse channel	N/Adate	2019/09/13time	20:22:35forward acquisition time	60.00reverse acquisition time	0.00gamma	496.2192k internal	0.2330k external	0.2330temperature offset calibration	1.0092default loss term (dB/km)	0.3790temperature slope calibration	1.0000multiplexer offset coefficient	1.0000multiplexer slope coefficient	1.0000fibre end	0.00T internal ref (°C)	29.27T ext. ref 1 (°C)	3.29T ext. ref 2 (°C)	23.64length (m)	temperature (°C)	Stokes	anti-Stokes-747.200	225.992	-0.093	0.152
-746.185	587.002	-0.159	0.394
-745.171	176.405	-0.146	0.214
-744.156	-200.000	-0.007	0.144
-743.142	-93.930	0.194	0.054
-742.127	-58.624	-0.205	-0.089
-741.112	-174.964	0.184	-0.005
-740.098	59.604	-0.202	-0.200
-739.083	-200.000	0.051	0.309
-738.069	301.886	0.184	0.343
-737.054	139.724	0.237	0.314
-736.039	51.237	-0.357	-0.341
-735.025	-75.633	0.486	0.174
-734.010	34.070	-0.227	0.199
-732.996	285.971	-0.124	-0.225
-731.981	-200.000	0.001	-0.152
-730.966	131.296	0.129	-0.167
-729.952	45.781	-0.064	0.060
-728.937	-121.306	-0.347	-0.058
-727.923	-102.540	0.439	0.106
-726.908	18.593	0.084	0.068
-725.894	226.021	-0.107	-0.174
-724.879	45.472	0.362	-0.337
-723.864	350.914	-0.095	-0.190
-722.850	-200.000	0.025	-0.362
-721.835	-200.000	0.023	0.112
-720.821	138.937	-0.143	0.189
-719.806	-143.850	-0.305	-0.029
-718.791	-187.531	-0.312	0.004
-717.777	-73.313	-0.154	-0.057
-716.762	3.389	-0.091	-0.066
-715.748	290.265	0.128	0.234
-714.733	0.167	-0.309	-0.222
-713.718	-200.000	-0.007	-0.123
-712.704	86.090	-0.182	0.202
-711.689	306.841	-0.145	-0.271
-710.675	800.000	0.152	-0.482
-709.660	-200.000	-0.031	-0.243
-708.645	255.813	-0.143	0.247
-707.631	-132.681	-0.227	-0.029
-706.616	309.864	0.077	-0.145
-705.602	-66.201	-0.219	-0.088
-704.587	-148.273	-0.373	-0.031
-703.572	-123.622	-0.115	0.018
-702.558	-118.304	-0.073	0.013
-701.543	-85.130	0.022	0.007
-700.529	-200.000	-0.009	-0.149
-699.514	-148.101	-0.574	0.048
-698.499	-55.202	-0.021	0.010
-697.485	-200.000	0.017	-0.101
-696.470	507.169	0.109	0.254
-695.456	-84.066	0.113	-0.036
-694.441	322.318	0.026	-0.049
-693.426	-118.316	-0.491	-0.088
-692.412	152.671	-0.236	0.325
-691.397	-29.498	-0.250	0.144
-690.383	-86.689	-0.189	-0.058
-689.368	212.721	0.228	-0.361
-688.354	17.687	0.308	0.246
-687.339	-179.231	0.102	0.002
-686.324	58.759	0.383	0.378
-685.310	-68.150	-0.098	0.038
-684.295	397.317	0.076	-0.160
-683.281	29.592	-0.254	0.217
-682.266	-89.424	0.055	-0.016
-681.251	92.650	0.125	-0.142
-680.237	-26.648	0.129	-0.076
-679.222	140.358	-0.073	-0.097
-678.208	-200.000	0.001	-0.120
-677.193	45.476	-0.230	-0.213
-676.178	211.291	0.139	-0.220
-675.164	30.126	-0.175	-0.150
-674.149	452.371	0.061	0.136
-673.135	-172.399	-0.169	0.005
-672.120	-48.213	0.263	-0.128
-671.105	-200.000	0.001	0.068
-670.091	-133.164	0.260	0.033
-669.076	142.363	-0.155	0.206
-668.062	-93.547	-0.135	-0.038
-667.047	-165.969	-0.306	0.013
-666.032	-200.000	-0.064	0.473
-665.018	63.709	0.071	0.072
-664.003	-200.000	-0.037	-0.317
-662.989	-200.000	-0.025	0.162
-661.974	-118.238	-0.043	0.008
-660.959	-200.000	-0.064	-0.395
-659.945	-16.837	-0.154	-0.098
-658.930	-200.000	-0.050	0.355
-657.916	96.345	0.073	0.083
-656.901	177.336	0.178	-0.260
-655.886	-176.259	0.198	-0.005
-654.872	-78.066	-0.252	-0.087
-653.857	800.000	0.079	-0.278
-652.843	407.867	-0.089	0.188
-651.828	143.571	-0.070	0.094
-650.814	800.000	-0.076	0.240
-649.799	-4.448	-0.075	-0.052
-648.784	-200.000	-0.029	-0.405
-647.770	-200.000	0.034	-0.291
-646.755	-56.094	-0.420	-0.188
-645.741	-36.293	0.090	0.049
-644.726	-135.824	0.212	0.025
-643.711	404.373	-0.052	-0.111
-642.697	7.926	-0.099	0.074
-641.682	-200.000	0.009	0.055
-640.668	-200.000	-0.009	0.080
-639.653	-200.000	0.010	-0.383
-638.638	122.299	-0.178	-0.223
-637.624	800.000	-0.072	-0.221
-636.609	800.000	-0.079	-0.321
-635.595	-51.605	0.097	-0.045
-634.580	-126.113	-0.316	-0.048
-633.565	-88.029	0.220	0.066
-632.551	-78.589	-0.129	-0.044
-631.536	68.220	0.371	-0.381
-630.522	1.436	0.276	0.199
-629.507	37.082	0.152	0.135
-628.492	800.000	-0.070	-0.200
-627.478	-200.000	0.066	0.309
-626.463	61.160	-0.337	-0.336
-625.449	-19.818	-0.207	-0.128
-624.434	800.000	-0.020	0.062
-623.419	-31.899	-0.133	-0.075
-622.405	57.429	-0.165	-0.161
-621.390	31.329	-0.281	-0.242
-620.376	-98.411	0.187	0.048
-619.361	-160.197	-0.307	0.017
-618.346	-200.000	-0.045	-0.303
-617.332	-58.620	-0.117	-0.051
-616.317	-152.021	0.217	-0.016
-615.303	-85.473	-0.057	-0.018
-614.288	113.679	0.170	-0.207
-613.273	-200.000	0.012	0.056
-612.259	21.666	-0.109	-0.089
-611.244	-107.515	0.435	0.095
-610.230	-200.000	-0.038	0.402
-609.215	-4.469	0.412	0.285
-608.201	61.273	-0.154	0.153
-607.186	-110.140	-0.350	-0.073
-606.171	4.780	0.193	0.142
-605.157	195.133	-0.049	-0.074
-604.142	54.928	-0.276	-0.267
-603.128	-42.854	-0.317	-0.161
-602.113	-75.208	-0.326	0.116
-601.098	113.114	0.167	0.203
-600.084	-131.991	0.188	0.025
-599.069	-154.757	-0.137	0.009
-598.055	-200.000	-0.026	0.166
-597.040	-51.074	0.451	-0.212
-596.025	800.000	0.017	-0.050
-595.011	-19.223	0.230	-0.143
-593.996	762.466	-0.098	-0.265
-592.982	800.000	-0.042	0.159
-591.967	194.329	0.008	-0.012
-590.952	-106.314	-0.119	-0.027
-589.938	-112.879	0.032	0.006
-588.923	800.000	-0.060	0.180
-587.909	-200.000	-0.042	0.448
-586.894	-200.000	0.026	-0.231
-585.879	-200.000	0.047	0.233
-584.865	27.331	-0.064	0.054
-583.850	-78.541	0.333	0.114
-582.836	800.000	-0.023	0.101
-581.821	53.661	0.156	-0.150
-580.806	108.654	0.186	-0.222
-579.792	-82.812	0.179	-0.058
-578.777	-12.620	0.224	-0.146
-577.763	-36.489	-0.193	-0.104
-576.748	-171.228	0.039	-0.001
-575.733	274.560	-0.076	0.134
-574.719	488.144	0.094	-0.214
-573.704	193.427	0.112	0.169
-572.690	-200.000	-0.013	0.105
-571.675	-64.303	-0.111	0.045
-570.661	200.801	-0.220	0.338
-569.646	-200.000	0.066	0.454
-568.631	-200.000	-0.001	0.112
-567.617	-98.052	-0.133	0.034
-566.602	388.272	0.100	0.207
-565.588	5.645	0.271	-0.200
-564.573	-103.653	0.285	-0.067
-563.558	363.678	0.074	-0.148
-562.544	195.431	-0.176	0.267
-561.529	108.778	0.047	-0.056
-560.515	800.000	-0.039	0.139
-559.500	96.290	0.065	-0.074
-558.485	800.000	-0.125	-0.346
-557.471	-113.995	0.233	0.045
-556.456	-32.133	0.241	-0.135
-555.442	-89.513	0.235	-0.069
-554.427	-171.166	-0.211	-0.007
-553.412	71.869	0.274	-0.285
-552.398	800.000	0.057	-0.205
-551.383	-15.350	0.256	0.163
-550.369	-200.000	0.005	-0.078
-549.354	123.070	-0.025	0.031
-548.339	12.497	0.060	-0.046
-547.325	-56.647	0.137	-0.061
-546.310	-105.564	-0.120	-0.027
-545.296	335.418	-0.079	0.153
-544.281	316.507	-0.171	-0.322
-543.266	25.349	-0.286	0.238
-542.252	-67.272	-0.274	-0.108
-541.237	419.710	0.193	-0.413
-540.223	-44.763	-0.299	0.149
-539.208	101.947	-0.123	-0.143
-538.193	-200.000	-0.004	0.230
-537.179	-200.000	0.046	0.283
-536.164	4.613	-0.099	0.072
-535.150	62.391	0.212	0.212
-534.135	166.239	0.109	0.155
-533.121	800.000	0.020	0.073
-532.106	-83.351	-0.187	-0.060
-531.091	-44.164	0.143	-0.072
-530.077	112.942	-0.135	0.164
-529.062	-103.157	-0.201	-0.047
-528.048	-35.205	0.137	0.075
-527.033	193.056	-0.127	-0.191
-526.018	633.005	0.099	-0.251
-525.004	-17.530	-0.150	-0.094
-523.989	-1.203	0.307	0.217
-522.975	-7.324	-0.156	-0.105
-521.960	447.548	-0.120	-0.263
-520.945	82.578	-0.124	-0.135
-519.931	-132.533	-0.140	0.018
-518.916	64.389	-0.147	-0.148
-517.902	-200.000	-0.032	-0.165
-516.887	-124.357	-0.051	0.008
-515.872	-173.598	0.322	-0.010
-514.858	800.000	0.069	-0.206
-513.843	-31.742	0.131	-0.073
-512.829	800.000	-0.039	0.170
-511.814	-200.000	0.004	-0.052
-510.799	-91.830	0.220	-0.062
-509.785	-200.000	-0.018	0.183
-508.770	-34.962	0.047	0.026
-507.756	-41.663	-0.488	0.250
-506.741	-200.000	0.069	-0.372
-505.726	-200.000	0.056	-0.299
-504.712	-133.698	-0.102	0.013
-503.697	80.928	-0.090	0.097
-502.683	-75.422	-0.044	0.016
-501.668	173.354	-0.161	-0.232
-500.653	-5.349	-0.257	0.176
-499.639	-200.000	-0.008	0.168
-498.624	-140.207	0.140	0.015
-497.610	293.041	0.114	0.208
-496.595	800.000	0.082	0.277
-495.581	207.559	0.091	0.141
-494.566	800.000	-0.044	0.151
-493.551	-200.000	0.072	-0.343
-492.537	-37.187	-0.299	-0.159
-491.522	-40.310	0.251	0.130
-490.508	800.000	-0.023	0.066
-489.493	55.101	-0.125	0.120
-488.478	-2.321	-0.296	-0.207
-487.464	-200.000	0.021	0.134
-486.449	-200.000	0.004	-0.422
-485.435	191.826	-0.144	0.216
-484.420	800.000	-0.102	-0.393
-483.405	-52.819	0.315	0.144
-482.391	-184.348	0.385	0.006
-481.376	67.977	-0.198	-0.201
-480.362	800.000	-0.028	-0.105
-479.347	63.840	-0.092	-0.092
-478.332	156.084	0.242	-0.332
-477.318	800.000	0.052	-0.193
-476.303	800.000	0.124	0.453
-475.289	-85.404	-0.165	0.051
-474.274	107.362	-0.079	-0.094
-473.259	158.817	0.213	0.295
-472.245	-200.000	0.014	0.080
-471.230	-200.000	0.020	-0.113
-470.216	-33.955	-0.295	0.162
-469.201	-200.000	0.004	-0.024
-468.186	800.000	-0.073	0.228
-467.172	137.825	-0.191	0.250
-466.157	800.000	0.056	0.195
-465.143	-171.706	-0.032	0.001
-464.128	79.034	0.184	-0.196
-463.113	-132.259	-0.345	-0.044
-462.099	212.175	-0.079	-0.124
-461.084	-71.817	0.156	0.058
-460.070	-53.291	0.253	0.116
-459.055	800.000	-0.077	0.319
-458.040	-38.936	0.383	0.201
-457.026	800.000	0.043	-0.119
-456.011	298.622	0.123	0.225
-454.997	125.046	0.060	-0.075
-453.982	-99.811	0.252	0.063
-452.968	268.864	-0.074	0.129
-451.953	-200.000	-0.020	-0.110
-450.938	-200.000	0.051	-0.340
-449.924	-36.168	0.383	-0.206
-448.909	-54.456	-0.042	0.019
-447.895	-198.478	0.376	0.002
-446.880	-100.097	-0.132	0.033
-445.865	-200.000	-0.007	0.155
-444.851	-115.922	-0.166	-0.031
-443.836	76.507	-0.206	0.217
-442.822	126.022	-0.166	0.208
-441.807	-200.000	0.022	0.125
-440.792	800.000	-0.051	-0.205
-439.778	112.835	0.061	0.074
-438.763	-142.775	-0.175	-0.017
-437.749	-56.548	-0.394	0.174
-436.734	-63.262	-0.189	0.078
-435.719	-20.304	-0.111	0.068
-434.705	800.000	-0.069	0.264
-433.690	84.084	0.149	0.162
-432.676	-200.000	-0.050	-0.219
-431.661	800.000	-0.073	-0.206
-430.646	800.000	0.051	0.144
-429.632	339.407	-0.099	-0.193
-428.617	17.759	-0.255	-0.202
-427.603	269.023	-0.158	0.276
-426.588	-200.000	0.007	0.161
-425.573	-120.468	-0.391	-0.066
-424.559	-200.000	-0.042	0.320
-423.544	-200.000	-0.106	-0.579
-422.530	-200.000	0.001	-0.201
-421.515	579.586	-0.096	-0.234
-420.500	800.000	0.039	-0.121
-419.486	800.000	0.073	0.298
-418.471	-101.435	0.124	-0.030
-417.457	-4.515	0.166	0.114
-416.442	469.866	0.068	0.151
-415.428	144.254	0.099	-0.132
-414.413	22.446	-0.207	-0.168
-413.398	-128.370	0.495	0.070
-412.384	-83.778	-0.441	-0.140
-411.369	32.882	-0.154	-0.133
-410.355	-82.319	0.321	-0.104
-409.340	-200.000	-0.006	0.081
-408.325	561.615	-0.118	0.285
-407.311	219.684	-0.128	-0.203
-406.296	-166.862	0.203	-0.008
-405.282	8.298	0.216	-0.161
-404.267	-19.909	0.300	-0.184
-403.252	-200.000	-0.142	0.726
-402.238	-71.641	-0.070	0.026
-401.223	197.855	0.144	0.218
-400.209	-47.286	0.231	0.112
-399.194	708.868	-0.151	0.396
-398.179	-200.000	0.286	-0.000
-397.165	-74.068	-0.042	-0.015
-396.150	-57.079	-0.137	0.060
-395.136	-19.225	-0.494	0.305
-394.121	-200.000	0.003	0.135
-393.106	-46.203	-0.139	-0.068
-392.092	800.000	0.107	-0.348
-391.077	-176.346	-0.197	0.005
-390.063	-50.089	-0.164	-0.077
-389.048	800.000	-0.022	0.078
-388.033	24.168	-0.187	0.153
-387.019	-113.785	-0.116	-0.022
-386.004	-58.252	-0.193	0.083
-384.990	800.000	0.079	-0.264
-383.975	-146.168	-0.410	0.036
-382.960	-117.785	-0.022	-0.004
-381.946	-200.000	0.066	0.342
-380.931	-108.642	-0.224	-0.048
-379.917	-200.000	0.009	0.066
-378.902	-63.641	0.237	0.096
-377.888	-199.922	0.273	0.001
-376.873	800.000	0.172	-0.486
-375.858	800.000	0.052	0.173
-374.844	664.471	-0.067	-0.171
-373.829	-102.213	-0.151	-0.036
-372.815	-154.278	0.161	0.011
-371.800	-200.000	0.006	0.107
-370.785	2.357	0.236	0.170
-369.771	287.463	0.280	0.502
-368.756	254.716	0.163	0.276
-367.742	-148.029	0.106	-0.009
-366.727	-120.155	-0.361	0.061
-365.712	-155.390	0.412	0.026
-364.698	-200.000	0.013	0.340
-363.683	554.085	-0.155	-0.369
-362.669	-66.812	-0.276	0.108
-361.654	81.430	0.029	-0.031
-360.639	-192.706	0.430	0.004
-359.625	-133.814	-0.292	-0.036
-358.610	800.000	-0.076	0.318
-357.596	-200.000	-0.037	-0.374
-356.581	800.000	-0.074	-0.244
-355.566	335.155	-0.065	-0.125
-354.552	-200.000	-0.027	-0.222
-353.537	728.083	0.060	-0.159
-352.523	38.102	-0.061	0.054
-351.508	437.373	-0.072	0.156
-350.493	162.366	-0.189	-0.262
-349.479	156.237	0.192	0.263
-348.464	-95.633	-0.377	0.100
-347.450	-119.269	-0.199	0.034
-346.435	187.804	0.105	-0.155
-345.420	149.876	0.141	0.189
-344.406	-122.702	0.249	-0.040
-343.391	-34.705	-0.425	-0.230
-342.377	800.000	0.083	-0.291
-341.362	800.000	-0.016	-0.070
-340.348	-40.649	0.233	0.120
-339.333	78.808	-0.054	-0.057
-338.318	-99.350	0.042	0.010
-337.304	98.063	0.053	-0.060
-336.289	-200.000	0.001	-0.162
-335.275	-200.000	-0.089	-0.411
-334.260	-63.944	-0.275	-0.111
-333.245	-200.000	0.040	0.236
-332.231	-56.978	0.163	0.071
-331.216	16.585	-0.282	-0.221
-330.202	65.885	-0.063	0.063
-329.187	312.202	-0.213	-0.395
-328.172	73.386	-0.139	-0.144
-327.158	800.000	0.029	-0.097
-326.143	451.331	-0.096	0.210
-325.129	13.878	0.240	0.185
-324.114	-80.798	-0.028	-0.009
-323.099	4.747	0.239	0.174
-322.085	141.668	-0.087	-0.115
-321.070	-29.330	0.179	-0.101
-320.056	761.083	-0.005	0.014
-319.041	-165.113	-0.182	-0.008
-318.026	452.068	-0.072	0.158
-317.012	-162.181	0.527	-0.026
-315.997	-103.809	-0.191	-0.044
-314.983	578.391	0.092	0.222
-313.968	800.000	0.031	-0.119
-312.953	-110.254	-0.175	0.036
-311.939	-200.000	0.008	-0.042
-310.924	-121.888	0.164	-0.027
-309.910	-200.000	-0.025	-0.122
-308.895	-54.682	-0.070	-0.031
-307.880	45.100	-0.091	-0.083
-306.866	-93.079	0.291	0.080
-305.851	91.243	0.182	0.202
-304.837	-82.838	-0.303	-0.097
-303.822	800.000	-0.085	0.349
-302.807	-127.242	0.328	-0.047
-301.793	4.904	-0.123	-0.090
-300.778	-36.743	-0.114	0.060
-299.764	188.563	0.092	0.136
-298.749	168.405	-0.177	0.250
-297.735	-98.318	0.052	-0.013
-296.720	112.608	0.204	-0.244
-295.705	800.000	-0.028	-0.091
-294.691	-200.000	-0.027	-0.311
-293.676	-122.135	-0.035	-0.006
-292.662	800.000	0.091	0.254
-291.647	52.315	0.044	-0.042
-290.632	-108.159	0.208	0.044
-289.618	151.260	0.227	-0.305
-288.603	10.610	-0.096	-0.072
-287.589	-2.247	-0.335	0.232
-286.574	103.753	0.193	-0.225
-285.559	-76.508	0.174	-0.061
-284.545	800.000	0.081	0.302
-283.530	-200.000	0.010	0.284
-282.516	-129.271	-0.334	0.046
-281.501	-163.511	0.248	0.012
-280.486	-190.303	0.272	-0.003
-279.472	373.646	-0.071	0.142
-278.457	-200.000	-0.036	0.180
-277.443	-124.288	-0.583	0.090
-276.428	-181.099	0.135	-0.003
-275.413	-200.000	0.046	-0.301
-274.399	60.009	0.075	0.073
-273.384	-146.193	0.095	-0.008
-272.370	128.918	0.053	0.067
-271.355	-200.000	0.019	0.105
-270.340	56.851	0.298	-0.287
-269.326	85.078	-0.134	-0.145
-268.311	-159.603	-0.358	-0.020
-267.297	-60.988	0.281	0.117
-266.282	271.480	-0.270	0.470
-265.267	374.533	0.069	-0.139
-264.253	-65.950	-0.095	-0.037
-263.238	33.327	-0.046	-0.039
-262.224	571.255	0.046	0.110
-261.209	29.327	-0.082	-0.069
-260.195	-54.481	-0.014	0.006
-259.180	-200.000	-0.014	0.387
-258.165	-153.391	0.044	0.003
-257.151	-20.675	0.161	0.098
-256.136	-117.673	-0.225	-0.040
-255.122	309.635	0.056	-0.103
-254.107	800.000	0.052	0.194
-253.092	800.000	-0.010	0.036
-252.078	243.175	0.250	-0.413
-251.063	66.456	-0.114	0.115
-250.049	-114.810	-0.292	-0.055
-249.034	-200.000	0.069	0.505
-248.019	-84.587	-0.038	0.012
-247.005	33.751	-0.068	0.058
-245.990	-200.000	-0.097	0.000
-244.976	-200.000	0.042	0.315
-243.961	800.000	0.074	-0.304
-242.946	-171.204	-0.296	0.010
-241.932	-200.000	-0.093	0.447
-240.917	-53.301	0.339	0.153
-239.903	-110.373	-0.211	0.043
-238.888	-157.711	-0.176	-0.010
-237.873	-73.371	-0.217	0.078
-236.859	-200.000	0.056	0.394
-235.844	-200.000	0.008	0.060
-234.830	85.306	0.093	-0.101
-233.815	800.000	-0.045	-0.128
-232.800	-129.358	0.125	-0.017
-231.786	8.843	-0.168	-0.125
-230.771	36.947	0.218	-0.190
-229.757	126.092	0.159	0.199
-228.742	-50.360	0.221	0.103
-227.727	253.811	-0.062	0.104
-226.713	533.817	0.071	-0.165
-225.698	800.000	0.026	0.103
-224.684	-75.323	0.309	-0.109
-223.669	-200.000	-0.001	0.301
-222.655	-200.000	0.004	0.042
-221.640	-38.144	0.291	-0.152
-220.625	-200.000	-0.014	0.310
-219.611	14.408	0.116	0.089
-218.596	-27.261	0.104	0.060
-217.582	173.068	-0.018	0.026
-216.567	-42.448	0.281	-0.141
-215.552	-121.430	-0.202	-0.033
-214.538	639.925	-0.072	-0.180
-213.523	-200.000	-0.057	-0.372
-212.509	-200.000	0.027	0.339
-211.494	-0.827	0.336	0.235
-210.479	-200.000	-0.009	-0.126
-209.465	476.819	0.130	-0.289
-208.450	-74.275	0.137	0.049
-207.436	66.166	0.256	0.257
-206.421	341.031	0.084	-0.162
-205.406	11.196	-0.222	0.167
-204.392	-25.663	-0.305	-0.177
-203.377	-3.508	-0.118	-0.081
-202.363	744.507	-0.179	0.475
-201.348	-9.894	0.104	-0.068
-200.333	399.694	-0.078	0.161
-199.319	369.966	0.180	0.359
-198.304	133.499	-0.172	0.219
-197.290	298.827	0.126	-0.228
-196.275	332.834	0.061	-0.116
-195.260	-15.562	-0.082	0.052
-194.246	-19.137	0.264	0.162
-193.231	-44.251	0.328	0.162
-192.217	-20.355	0.124	0.075
-191.202	-200.000	0.001	0.023
-190.187	-200.000	-0.001	-0.177
-189.173	-110.795	0.359	0.073
-188.158	-200.000	0.035	-0.324
-187.144	-92.947	0.355	-0.097
-186.129	-96.705	0.476	-0.123
-185.114	120.068	-0.188	0.230
-184.100	-5.176	-0.088	-0.060
-183.085	-200.000	-0.030	-0.279
-182.071	-138.478	0.294	-0.032
-181.056	-24.498	0.009	-0.005
-180.042	136.105	-0.130	-0.167
-179.027	16.673	-0.095	0.074
-178.012	-95.036	-0.265	0.071
-176.998	-149.764	0.132	-0.010
-175.983	-54.310	-0.362	-0.162
-174.969	731.294	-0.128	-0.338
-173.954	800.000	0.114	-0.399
-172.939	-58.387	-0.254	0.108
-171.925	-186.794	-0.144	0.002
-170.910	117.032	0.101	-0.122
-169.896	800.000	0.086	-0.251
-168.881	-60.638	-0.362	-0.151
-167.866	8.399	-0.237	-0.176
-166.852	107.849	0.124	-0.145
-165.837	-116.481	-0.094	0.017
-164.823	109.815	0.149	0.175
-163.808	-200.000	-0.019	-0.213
-162.793	40.079	-0.154	0.136
-161.779	3.978	-0.238	-0.171
-160.764	-48.838	0.315	-0.149
-159.750	-200.000	0.011	-0.055
-158.735	-101.775	0.226	0.054
-157.720	109.580	-0.166	0.196
-156.706	203.465	-0.196	0.298
-155.691	-115.179	0.365	0.068
-154.677	-21.778	-0.181	-0.108
-153.662	-200.000	0.001	0.145
-152.647	13.014	0.178	-0.135
-151.633	532.214	-0.047	0.109
-150.618	32.620	-0.194	0.165
-149.604	555.017	0.224	0.529
-148.589	680.599	-0.195	-0.500
-147.574	20.125	0.158	0.126
-146.560	573.804	-0.058	-0.138
-145.545	-65.542	-0.348	0.137
-144.531	-72.259	0.363	-0.132
-143.516	699.631	-0.055	0.142
-142.502	297.948	0.201	0.363
-141.487	97.231	-0.147	-0.166
-140.472	-162.667	-0.221	-0.011
-139.458	-200.000	0.003	0.057
-138.443	584.385	0.107	-0.259
-137.429	-95.502	0.238	0.063
-136.414	800.000	-0.028	0.118
-135.399	-54.920	-0.043	0.019
-134.385	-98.961	0.098	0.024
-133.370	800.000	-0.084	0.244
-132.356	-26.105	0.090	0.052
-131.341	260.831	-0.042	-0.071
-130.326	-177.016	0.344	0.008
-129.312	298.010	0.067	0.121
-128.297	47.410	0.049	0.045
-127.283	702.086	0.034	0.087
-126.268	-73.667	-0.100	-0.036
-125.253	-58.551	0.351	0.150
-124.239	-91.582	-0.300	0.084
-123.224	-200.000	-0.045	0.248
-122.210	27.450	0.172	0.142
