DTS Sentinel unit serial number:	SN413079Multiplexer serial number:	ORYXHardware model number:	OX4-SRSoftware version number:	ORYX F/W v4.00 Oryx Data Collector v3.7.2.0data status	okinstallation	princeton_trtdifferential loss correction	single-endedforward channel	channel 1reverse channel	N/Adate	2019/09/11time	13:16:12forward acquisition time	60.00reverse acquisition time	0.00gamma	496.2192k internal	0.2294k external	0.2294temperature offset calibration	0.9979default loss term (dB/km)	0.3790temperature slope calibration	1.0000multiplexer offset coefficient	1.0000multiplexer slope coefficient	1.0000fibre end	0.00T internal ref (°C)	41.94T ext. ref 1 (°C)	0.78T ext. ref 2 (°C)	36.46length (m)	temperature (°C)	Stokes	anti-Stokes-747.200	-43.921	0.088	0.045
-746.185	-73.283	0.220	-0.082
-745.171	-14.733	-0.089	0.058
-744.156	800.000	-0.154	0.505
-743.142	87.643	-0.054	0.061
-742.127	-85.961	0.404	0.128
-741.112	-167.963	-0.311	-0.012
-740.098	241.418	0.183	0.312
-739.083	37.387	-0.146	-0.132
-738.069	-200.000	-0.009	0.259
-737.054	309.507	0.121	-0.231
-736.039	-86.434	-0.209	-0.066
-735.025	-60.847	0.315	0.136
-734.010	208.037	-0.080	0.128
-732.996	26.264	-0.397	-0.339
-731.981	551.211	-0.106	-0.260
-730.966	-43.702	-0.173	0.089
-729.952	354.116	-0.053	-0.108
-728.937	133.124	0.251	-0.332
-727.923	-95.588	-0.137	-0.037
-726.908	449.424	-0.033	-0.074
-725.894	245.736	0.030	-0.052
-724.879	359.409	0.233	0.475
-723.864	-19.963	0.114	-0.072
-722.850	36.720	-0.210	0.190
-721.835	-98.191	-0.326	0.085
-720.821	800.000	-0.096	0.396
-719.806	-14.701	-0.139	-0.091
-718.791	64.256	-0.099	0.102
-717.777	93.543	0.090	0.104
-716.762	-122.517	0.224	0.037
-715.748	-111.812	0.186	0.038
-714.733	-136.292	-0.161	0.019
-713.718	800.000	-0.046	-0.152
-712.704	800.000	0.052	0.157
-711.689	-136.040	0.214	-0.026
-710.675	800.000	0.025	-0.111
-709.660	117.734	0.112	-0.140
-708.645	-75.998	-0.141	0.051
-707.631	-60.452	-0.282	0.122
-706.616	-105.005	-0.178	-0.042
-705.602	-200.000	0.037	-0.372
-704.587	-58.941	0.155	0.068
-703.572	-76.527	-0.283	-0.101
-702.558	-163.455	-0.327	0.016
-701.543	273.987	-0.233	0.421
-700.529	-200.000	0.019	-0.108
-699.514	-17.432	0.175	-0.113
-698.499	117.641	0.244	0.307
-697.485	-138.118	0.268	0.030
-696.470	800.000	-0.086	0.294
-695.456	-200.000	-0.035	0.421
-694.441	605.635	0.038	0.097
-693.426	74.705	-0.190	-0.204
-692.412	-179.004	0.419	-0.010
-691.397	62.921	-0.135	-0.137
-690.383	-89.248	-0.222	-0.067
-689.368	-200.000	0.036	-0.234
-688.354	-200.000	-0.023	0.173
-687.339	22.283	-0.134	-0.112
-686.324	-21.767	-0.258	-0.160
-685.310	-71.317	0.305	-0.116
-684.295	325.529	0.098	0.191
-683.281	-73.104	-0.132	0.050
-682.266	272.647	-0.142	-0.256
-681.251	-26.013	-0.068	-0.041
-680.237	289.983	-0.119	-0.221
-679.222	-111.359	-0.203	0.042
-678.208	-30.837	0.223	0.129
-677.193	396.125	-0.069	0.146
-676.178	-36.172	-0.316	0.174
-675.164	-60.758	0.451	-0.195
-674.149	93.262	-0.236	0.272
-673.135	-179.174	-0.163	-0.004
-672.120	-200.000	0.019	-0.105
-671.105	-145.906	-0.182	0.016
-670.091	-7.710	-0.210	-0.145
-669.076	-69.698	0.115	-0.045
-668.062	-200.000	-0.008	0.055
-667.047	-200.000	0.016	-0.084
-666.032	-200.000	0.007	-0.039
-665.018	52.821	0.043	-0.042
-664.003	275.532	-0.239	0.432
-662.989	-165.052	0.193	-0.009
-661.974	-88.858	0.266	-0.080
-660.959	800.000	-0.037	-0.127
-659.945	-91.909	0.087	-0.025
-658.930	-200.000	0.021	-0.093
-657.916	-9.617	0.268	0.182
-656.901	800.000	-0.037	0.116
-655.886	24.789	0.124	-0.105
-654.872	-104.085	0.437	0.104
-653.857	589.569	-0.068	-0.170
-652.843	528.834	0.066	0.158
-651.828	-89.814	-0.359	-0.107
-650.814	-81.039	-0.429	0.145
-649.799	800.000	-0.103	0.370
-648.784	39.271	-0.213	-0.194
-647.770	346.896	-0.170	-0.341
-646.755	44.044	-0.181	0.169
-645.741	-56.871	-0.372	-0.167
-644.726	35.079	-0.329	-0.293
-643.711	-150.461	-0.207	0.016
-642.697	20.137	0.085	0.070
-641.682	72.435	0.192	0.204
-640.668	-92.845	-0.060	-0.017
-639.653	800.000	0.054	-0.172
-638.638	60.022	0.060	0.060
-637.624	-200.000	-0.002	-0.118
-636.609	24.440	0.158	-0.133
-635.595	616.767	0.020	0.052
-634.580	8.422	0.241	-0.185
-633.565	-63.949	0.293	-0.122
-632.551	17.219	-0.045	-0.037
-631.536	542.182	-0.124	0.302
-630.522	-20.455	-0.173	0.108
-629.507	-82.877	-0.173	-0.057
-628.492	-18.456	0.236	0.150
-627.478	2.350	-0.384	-0.283
-626.463	-30.449	0.313	0.181
-625.449	-179.972	-0.513	0.011
-624.434	-154.202	-0.520	0.036
-623.419	204.109	-0.142	0.224
-622.405	112.006	-0.067	0.083
-621.390	225.410	-0.109	0.180
-620.376	800.000	-0.122	-0.416
-619.361	-200.000	0.032	0.314
-618.346	214.073	-0.153	0.246
-617.332	487.620	0.205	-0.477
-616.317	43.159	0.084	0.078
-615.303	-136.618	0.212	0.025
-614.288	108.919	0.329	-0.400
-613.273	-106.175	0.101	-0.023
-612.259	-134.485	0.057	0.007
-611.244	638.713	-0.055	0.142
-610.230	-139.729	0.240	0.026
-609.215	-200.000	0.014	0.163
-608.201	286.191	0.158	0.290
-607.186	800.000	-0.133	0.457
-606.171	-200.000	-0.009	-0.201
-605.157	-200.000	0.004	0.090
-604.142	136.133	-0.073	-0.096
-603.128	-53.884	0.106	-0.049
-602.113	-114.615	0.169	0.033
-601.098	800.000	-0.051	-0.149
-600.084	800.000	-0.041	0.161
-599.069	-112.684	-0.268	0.054
-598.055	-44.960	-0.260	0.132
-597.040	-118.977	-0.338	0.060
-596.025	-135.009	0.198	0.024
-595.011	18.692	-0.183	-0.149
-593.996	800.000	-0.039	-0.164
-592.982	-20.413	0.018	-0.011
-591.967	95.064	-0.154	0.178
-590.952	-200.000	-0.110	-0.508
-589.938	-87.021	-0.133	-0.041
-588.923	800.000	0.114	0.328
-587.909	0.526	0.332	-0.241
-586.894	75.349	-0.289	-0.310
-585.879	100.966	-0.163	-0.192
-584.865	198.079	0.255	0.396
-583.850	-39.300	-0.070	0.037
-582.836	-200.000	0.052	0.359
-581.821	275.889	0.074	-0.133
-580.806	-92.444	0.185	-0.053
-579.792	-173.293	-0.226	-0.007
-578.777	-200.000	0.039	-0.258
-577.763	800.000	0.043	-0.146
-576.748	491.777	0.093	0.215
-575.733	800.000	-0.061	-0.221
-574.719	-182.364	0.173	-0.003
-573.704	-200.000	0.027	-0.223
-572.690	-2.346	0.134	0.095
-571.675	128.637	-0.079	0.103
-570.661	466.492	-0.066	-0.150
-569.646	254.835	-0.220	-0.383
-568.631	-57.689	0.416	-0.185
-567.617	-31.816	0.214	0.122
-566.602	-200.000	-0.011	-0.054
-565.588	-200.000	-0.018	0.156
-564.573	-36.764	0.273	-0.149
-563.558	-26.376	-0.130	0.077
-562.544	202.420	0.165	0.258
-561.529	265.255	-0.054	-0.095
-560.515	800.000	-0.078	-0.284
-559.500	131.904	0.089	0.116
-558.485	-110.543	0.110	0.023
-557.471	406.937	-0.087	-0.187
-556.456	134.235	-0.189	-0.249
-555.442	-200.000	0.060	0.279
-554.427	417.462	-0.212	0.459
-553.412	-98.711	0.196	-0.051
-552.398	-149.864	0.198	0.016
-551.383	-200.000	-0.035	0.221
-550.369	209.957	-0.168	0.268
-549.354	-133.554	-0.102	-0.013
-548.339	-40.604	0.102	0.053
-547.325	43.602	0.156	0.145
-546.310	-187.975	-0.158	-0.002
-545.296	31.415	0.227	-0.198
-544.281	77.385	-0.228	0.246
-543.266	673.214	0.053	0.139
-542.252	301.171	0.068	0.128
-541.237	-66.475	-0.376	0.151
-540.223	131.458	0.125	0.162
-539.208	-132.341	-0.154	0.020
-538.193	47.212	-0.216	0.204
-537.179	428.348	-0.054	-0.117
-536.164	487.565	0.150	0.348
-535.150	-200.000	0.053	-0.266
-534.135	800.000	-0.119	-0.397
-533.121	-157.152	-0.330	0.020
-532.106	41.654	0.093	0.085
-531.091	800.000	-0.049	-0.166
-530.077	-47.155	0.110	-0.054
-529.062	230.720	0.098	-0.163
-528.048	-151.403	-0.346	0.026
-527.033	462.747	-0.029	0.065
-526.018	-200.000	-0.010	0.244
-525.004	-24.996	-0.171	-0.103
-523.989	800.000	0.061	-0.218
-522.975	69.422	0.145	0.151
-521.960	800.000	-0.049	-0.181
-520.945	-90.450	-0.234	-0.069
-519.931	-200.000	-0.010	-0.259
-518.916	-64.391	-0.282	-0.116
-517.902	228.508	-0.037	-0.061
-516.887	36.432	0.127	-0.113
-515.872	-200.000	-0.019	-0.366
-514.858	-105.054	0.203	0.047
-513.843	213.752	0.172	-0.275
-512.829	-96.922	0.070	-0.019
-511.814	800.000	-0.024	-0.093
-510.799	-74.496	0.057	-0.021
-509.785	220.302	-0.126	0.204
-508.770	235.637	-0.047	-0.079
-507.756	13.513	0.109	-0.086
-506.741	-154.993	0.256	-0.017
-505.726	508.635	0.008	0.018
-504.712	-64.007	-0.228	0.094
-503.697	-138.573	-0.161	-0.018
-502.683	22.189	0.410	-0.339
-501.668	6.011	0.068	-0.051
-500.653	-6.805	0.069	0.048
-499.639	-59.320	-0.274	0.119
-498.624	-46.356	-0.275	-0.137
-497.610	72.069	0.049	0.052
-496.595	-93.244	0.157	0.044
-495.581	-47.187	-0.150	0.074
-494.566	-94.479	0.287	0.079
-493.551	134.197	0.030	0.040
-492.537	-131.688	0.213	0.028
-491.522	-57.865	-0.096	-0.042
-490.508	-200.000	-0.045	-0.368
-489.493	19.582	-0.199	-0.162
-488.478	-79.024	-0.088	-0.030
-487.464	-200.000	-0.062	0.548
-486.449	98.584	0.086	0.101
-485.435	-122.180	-0.236	0.039
-484.420	-53.900	-0.120	0.055
-483.405	800.000	0.049	-0.186
-482.391	800.000	-0.078	0.295
-481.376	-124.599	0.273	0.043
-480.362	-200.000	0.007	-0.186
-479.347	-112.133	0.341	-0.069
-478.332	-193.288	-0.233	0.002
-477.318	-66.499	-0.162	-0.065
-476.303	-6.962	0.014	0.010
-475.289	-16.156	0.284	0.183
-474.274	-36.422	0.192	0.105
-473.259	-98.024	0.571	0.149
-472.245	121.661	0.242	-0.305
-471.230	159.511	0.049	-0.070
-470.216	-134.269	0.391	0.049
-469.201	-145.406	-0.256	-0.023
-468.186	300.514	-0.195	0.363
-467.172	800.000	0.015	-0.051
-466.157	-200.000	-0.004	0.053
-465.143	22.324	-0.252	-0.209
-464.128	25.320	-0.061	0.051
-463.113	319.076	0.061	0.117
-462.099	-150.003	-0.181	-0.014
-461.084	-145.959	-0.129	-0.012
-460.070	-200.000	-0.005	0.101
-459.055	88.721	0.158	0.178
-458.040	-200.000	-0.035	0.269
-457.026	649.757	0.102	0.264
-456.011	-104.610	-0.216	-0.050
-454.997	-58.514	-0.306	0.134
-453.982	800.000	0.087	-0.248
-452.968	188.662	-0.083	0.125
-451.953	580.169	-0.171	0.423
-450.938	-135.174	0.045	-0.005
-449.924	99.166	0.207	-0.242
-448.909	60.939	-0.304	0.305
-447.895	-52.867	0.191	0.089
-446.880	-200.000	0.042	0.218
-445.865	-45.683	0.250	-0.125
-444.851	-200.000	-0.034	-0.182
-443.836	-200.000	0.015	0.330
-442.822	-25.981	0.161	-0.096
-441.807	123.534	0.100	-0.126
-440.792	-164.140	-0.225	-0.011
-439.778	-21.004	-0.238	0.147
-438.763	170.300	-0.139	0.201
-437.749	166.789	-0.071	-0.101
-436.734	-200.000	-0.027	0.189
-435.719	-200.000	-0.053	0.252
-434.705	12.590	0.057	0.044
-433.690	-6.237	0.103	-0.071
-432.676	-62.558	-0.296	0.124
-431.661	-56.640	-0.312	-0.140
-430.646	375.415	-0.172	-0.355
-429.632	-108.066	0.142	0.031
-428.617	-121.921	-0.325	-0.054
-427.603	76.992	0.113	0.122
-426.588	73.760	0.286	-0.302
-425.573	240.748	-0.152	-0.256
-424.559	116.673	-0.121	0.150
-423.544	-145.938	-0.098	-0.009
-422.530	-200.000	-0.031	-0.166
-421.515	-200.000	-0.020	0.333
-420.500	-167.775	0.451	0.018
-419.486	-3.670	0.252	-0.177
-418.471	-183.126	0.383	0.007
-417.457	-134.087	-0.315	0.039
-416.442	-200.000	-0.040	-0.272
-415.428	800.000	0.010	0.035
-414.413	30.886	0.182	-0.158
-413.398	-63.360	0.206	-0.086
-412.384	800.000	-0.083	-0.278
-411.369	328.445	-0.054	0.104
-410.355	437.227	-0.140	0.308
-409.340	-10.285	0.101	0.068
-408.325	-184.569	0.318	-0.005
-407.311	-64.836	0.234	-0.095
-406.296	546.783	-0.070	0.169
-405.282	-200.000	0.021	0.231
-404.267	800.000	0.041	-0.124
-403.252	141.473	0.097	0.130
-402.238	-200.000	0.002	0.073
-401.223	-75.992	0.161	0.057
-400.209	295.719	0.092	0.169
-399.194	-162.046	-0.239	0.012
-398.179	-50.947	-0.204	-0.097
-397.165	82.582	-0.033	0.036
-396.150	-200.000	0.003	-0.263
-395.136	-200.000	0.074	-0.343
-394.121	-77.951	-0.228	-0.079
-393.106	-15.627	0.093	-0.060
-392.092	-200.000	0.038	0.272
-391.077	144.377	0.144	-0.194
-390.063	-140.196	-0.203	-0.022
-389.048	334.054	-0.065	-0.127
-388.033	800.000	-0.048	-0.200
-387.019	-200.000	-0.014	0.143
-386.004	251.971	0.048	-0.083
-384.990	306.784	0.007	-0.013
-383.975	-19.098	-0.207	-0.130
-382.960	-96.588	0.137	-0.037
-381.946	-28.192	0.104	0.061
-380.931	60.711	-0.132	0.132
-379.917	800.000	-0.079	-0.319
-378.902	33.801	-0.010	-0.009
-377.888	-168.221	-0.232	0.009
-376.873	370.178	-0.080	-0.164
-375.858	-200.000	-0.001	0.104
-374.844	-125.574	0.341	-0.052
-373.829	58.196	-0.255	0.252
-372.815	-200.000	-0.008	0.057
-371.800	-85.507	-0.229	0.072
-370.785	-200.000	0.021	-0.164
-369.771	-61.466	-0.083	-0.035
-368.756	-41.874	-0.172	-0.089
-367.742	-15.539	0.283	0.182
-366.727	800.000	-0.050	0.215
-365.712	599.258	0.104	-0.260
-364.698	-200.000	0.032	-0.243
-363.683	-200.000	0.016	-0.406
-362.669	-59.546	0.319	-0.138
-361.654	-193.167	-0.149	-0.001
-360.639	-129.247	0.104	-0.015
-359.625	692.901	0.102	0.268
-358.610	-47.123	-0.141	-0.069
-357.596	-200.000	-0.074	-0.450
-356.581	100.289	0.152	-0.177
-355.566	-115.579	-0.231	0.044
-354.552	224.040	-0.158	0.257
-353.537	-34.194	0.260	0.144
-352.523	800.000	0.050	-0.214
-351.508	800.000	-0.091	0.343
-350.493	-91.231	-0.075	0.022
-349.479	88.848	-0.048	0.054
-348.464	62.682	-0.205	0.207
-347.450	-118.246	0.259	-0.046
-346.435	-126.771	-0.324	-0.048
-345.420	-22.082	-0.236	0.144
-344.406	-119.333	-0.256	0.045
-343.391	66.939	0.175	-0.179
-342.377	-152.872	0.298	-0.021
-341.362	231.038	-0.027	-0.045
-340.348	-37.843	0.249	-0.133
-339.333	800.000	0.105	-0.375
-338.318	-162.091	-0.085	0.004
-337.304	-121.961	-0.217	-0.036
-336.289	-112.995	-0.129	-0.026
-335.275	91.224	-0.172	0.194
-334.260	4.293	-0.157	0.116
-333.245	171.590	0.046	-0.066
-332.231	-135.055	0.198	0.024
-331.216	-129.740	0.081	-0.011
-330.202	-128.640	0.232	0.033
-329.187	-130.477	0.161	0.022
-328.172	2.530	-0.174	0.127
-327.158	-69.313	-0.136	-0.053
-326.143	-41.078	-0.381	-0.198
-325.129	-3.958	-0.150	0.105
-324.114	91.530	0.027	0.030
-323.099	21.710	-0.103	0.085
-322.085	-192.552	0.079	0.001
-321.070	-31.198	0.291	-0.165
-320.056	419.165	0.055	-0.118
-319.041	152.148	0.045	-0.062
-318.026	504.993	0.181	-0.421
-317.012	-152.924	0.227	-0.016
-315.997	-83.186	-0.330	0.107
-314.983	50.734	0.108	0.103
-313.968	77.467	0.090	-0.097
-312.953	451.767	0.078	0.174
-311.939	800.000	0.067	0.199
-310.924	800.000	-0.014	-0.046
-309.910	-118.691	-0.017	0.003
-308.895	-134.874	0.208	-0.025
-307.880	-129.596	0.044	-0.006
-306.866	-200.000	0.000	0.446
-305.851	286.825	0.032	0.058
-304.837	119.037	0.185	0.229
-303.822	-163.008	-0.286	0.014
-302.807	-200.000	0.100	0.674
-301.793	68.948	0.185	0.191
-300.778	243.564	-0.006	0.010
-299.764	-114.048	0.263	-0.051
-298.749	408.659	0.172	0.366
-297.735	-64.561	0.224	0.091
-296.720	-110.854	-0.433	-0.090
-295.705	-110.194	0.142	-0.030
-294.691	88.773	0.304	0.340
-293.676	12.328	-0.088	0.068
-292.662	-99.354	0.219	-0.055
-291.647	175.120	0.040	0.059
-290.632	38.792	0.144	-0.129
-289.618	800.000	-0.037	0.157
-288.603	-183.329	0.287	-0.005
-287.589	265.298	-0.140	-0.246
-286.574	-200.000	0.026	-0.162
-285.559	800.000	-0.039	-0.125
-284.545	800.000	-0.035	-0.150
-283.530	800.000	-0.041	0.154
-282.516	33.620	-0.096	0.084
-281.501	-92.214	0.047	0.013
-280.486	-200.000	0.013	0.316
-279.472	256.173	-0.045	0.077
-278.457	52.059	-0.100	-0.095
-277.443	498.515	0.162	0.375
-276.428	-73.985	0.118	-0.043
-275.413	-28.396	0.335	0.194
-274.399	-200.000	0.046	-0.440
-273.384	-200.000	-0.039	0.203
-272.370	800.000	-0.026	-0.078
-271.355	-200.000	-0.027	0.245
-270.340	29.881	0.232	-0.198
-269.326	800.000	0.055	0.233
-268.311	62.048	0.164	-0.164
-267.297	272.790	0.092	0.163
-266.282	-15.657	0.449	-0.287
-265.267	40.279	-0.193	-0.175
-264.253	-85.304	-0.104	-0.033
-263.238	376.208	-0.105	-0.215
-262.224	172.602	0.212	0.307
-261.209	40.039	-0.054	-0.048
-260.195	-2.879	-0.116	-0.081
-259.180	-41.892	0.143	0.073
-258.165	-78.921	-0.011	-0.004
-257.151	800.000	0.114	-0.361
-256.136	110.124	0.223	-0.268
-255.122	-200.000	0.005	0.114
-254.107	460.674	-0.120	-0.268
-253.092	-200.000	0.040	-0.255
-252.078	160.284	-0.060	-0.084
-251.063	800.000	-0.052	0.156
-250.049	-52.351	0.121	-0.056
-249.034	-2.427	0.028	-0.019
-248.019	211.799	0.110	-0.173
-247.005	-149.998	0.406	0.032
-245.990	-200.000	0.064	-0.296
-244.976	303.197	0.057	0.106
-243.961	127.333	0.149	0.189
-242.946	327.335	0.057	0.111
-241.932	58.139	0.102	-0.101
-240.917	104.397	-0.164	0.194
-239.903	1.903	-0.366	0.264
-238.888	75.752	-0.061	0.064
-237.873	18.222	0.192	-0.154
-236.859	74.135	-0.058	0.061
-235.844	-89.551	0.155	0.046
-234.830	292.294	0.045	0.083
-233.815	309.572	0.091	-0.171
-232.800	-131.877	-0.247	-0.032
-231.786	800.000	-0.025	0.084
-230.771	42.867	0.112	0.103
-229.757	-69.772	-0.189	-0.072
-228.742	316.692	-0.020	-0.037
-227.727	418.295	-0.006	-0.013
-226.713	-137.554	0.215	0.024
-225.698	222.866	-0.102	0.165
-224.684	-89.515	-0.152	0.045
-223.669	800.000	-0.069	0.194
-222.655	55.872	-0.081	-0.079
-221.640	-20.758	0.114	0.070
-220.625	628.602	0.034	0.087
-219.611	172.661	-0.122	0.176
-218.596	-200.000	-0.001	0.231
-217.582	-200.000	-0.013	-0.159
-216.567	800.000	-0.099	0.310
-215.552	-200.000	0.003	0.019
-214.538	97.122	-0.132	-0.152
-213.523	35.901	0.022	0.020
-212.509	-127.300	-0.189	0.028
-211.494	-146.635	0.053	-0.005
-210.479	-200.000	-0.005	-0.082
-209.465	-200.000	-0.008	-0.167
-208.450	628.403	0.019	0.048
-207.436	135.510	0.156	-0.204
-206.421	800.000	0.014	-0.048
-205.406	50.741	0.143	0.135
-204.392	271.647	0.205	0.361
-203.377	181.480	-0.054	0.080
-202.363	-118.115	-0.262	-0.047
-201.348	-130.752	0.194	0.026
-200.333	77.565	0.211	-0.225
-199.319	-143.254	-0.096	-0.009
-198.304	-200.000	-0.017	0.175
-197.290	-19.439	0.304	-0.188
-196.275	-165.609	-0.181	0.008
-195.260	-200.000	0.065	-0.363
-194.246	275.215	0.081	-0.144
-193.231	-74.617	-0.203	0.073
-192.217	-116.763	0.153	-0.028
-191.202	88.746	-0.331	0.369
-190.187	-105.042	-0.375	-0.086
-189.173	389.457	0.028	-0.058
-188.158	8.901	0.138	-0.104
-187.144	30.357	-0.252	-0.216
-186.129	-77.985	0.216	0.075
-185.114	113.479	-0.140	0.171
-184.100	30.309	-0.292	-0.250
-183.085	1.333	0.343	-0.247
-182.071	-115.278	-0.353	-0.067
-181.056	-91.969	0.474	0.134
-180.042	-200.000	-0.005	-0.234
-179.027	12.819	-0.110	0.085
-178.012	-115.936	-0.574	0.107
-176.998	-3.004	-0.269	-0.188
-175.983	-114.208	0.273	-0.053
-174.969	800.000	-0.039	-0.168
-173.954	-92.004	0.091	0.026
-172.939	124.021	-0.059	-0.074
-171.925	-91.781	-0.212	0.060
-170.910	800.000	-0.027	0.103
-169.896	-200.000	-0.011	0.216
-168.881	645.633	-0.043	-0.111
-167.866	-195.204	-0.058	0.000
-166.852	357.662	-0.229	0.457
-165.837	-13.413	-0.185	0.120
-164.823	-200.000	0.005	-0.280
-163.808	427.335	0.083	0.180
-162.793	-200.000	-0.020	-0.172
-161.779	-200.000	-0.001	-0.026
-160.764	348.826	0.108	-0.212
-159.750	-144.940	0.270	0.025
-158.735	-89.397	-0.317	0.093
-157.720	-179.416	-0.344	-0.008
-156.706	219.165	0.115	0.184
-155.691	-160.017	0.093	-0.005
-154.677	87.564	0.198	-0.219
-153.662	-17.919	0.274	-0.171
-152.647	-86.324	0.264	0.081
-151.633	14.061	0.133	-0.103
-150.618	38.802	0.289	0.258
-149.604	-6.280	0.043	-0.029
-148.589	121.193	-0.120	-0.150
-147.574	-200.000	-0.009	-0.080
-146.560	-28.537	-0.107	0.062
-145.545	-200.000	-0.033	-0.147
-144.531	-121.973	0.216	0.035
-143.516	650.029	0.135	0.346
-142.502	-40.227	0.175	-0.091
-141.487	138.612	-0.173	0.226
-140.472	-98.620	-0.127	-0.032
-139.458	-24.391	0.115	-0.068
-138.443	23.472	-0.042	0.035
-137.429	-200.000	-0.085	-0.508
-136.414	-23.850	-0.256	0.153
-135.399	800.000	-0.031	-0.105
-134.385	29.874	-0.074	0.063
-133.370	-87.034	0.238	0.072
-132.356	-83.609	0.192	-0.061
-131.341	-200.000	-0.003	-0.078
-130.326	9.263	0.090	-0.068
-129.312	-74.547	0.184	0.066
-128.297	-138.339	0.163	-0.018
-127.283	395.062	0.026	-0.054
-126.268	248.190	0.031	-0.052
-125.253	479.268	0.013	0.030
-124.239	-118.127	-0.033	0.006
-123.224	-200.000	-0.010	0.149
-122.210	127.481	-0.166	0.210
-121.195	26.552	-0.302	0.252
