DTS Sentinel unit serial number:	SN413079Multiplexer serial number:	ORYXHardware model number:	OX4-SRSoftware version number:	ORYX F/W v4.00 Oryx Data Collector v3.7.2.0data status	okinstallation	princeton_trtdifferential loss correction	single-endedforward channel	channel 1reverse channel	N/Adate	2019/09/13time	04:46:35forward acquisition time	60.00reverse acquisition time	0.00gamma	496.2192k internal	0.2335k external	0.2335temperature offset calibration	1.0164default loss term (dB/km)	0.3790temperature slope calibration	1.0000multiplexer offset coefficient	1.0000multiplexer slope coefficient	1.0000fibre end	0.00T internal ref (°C)	26.58T ext. ref 1 (°C)	4.06T ext. ref 2 (°C)	21.13length (m)	temperature (°C)	Stokes	anti-Stokes-747.200	-5.165	0.221	0.153
-746.185	800.000	-0.095	0.294
-745.171	-36.343	-0.105	0.057
-744.156	-51.621	-0.287	-0.135
-743.142	800.000	0.068	0.207
-742.127	258.005	0.123	0.213
-741.112	800.000	-0.069	0.213
-740.098	-18.965	-0.148	-0.093
-739.083	24.899	0.218	-0.182
-738.069	-57.857	-0.309	-0.136
-737.054	-74.341	-0.228	0.083
-736.039	179.261	-0.167	-0.245
-735.025	186.228	-0.107	0.160
-734.010	-119.559	0.157	-0.027
-732.996	674.813	0.089	-0.231
-731.981	426.810	-0.083	-0.181
-730.966	800.000	0.032	-0.106
-729.952	178.258	-0.237	-0.347
-728.937	-48.005	0.077	-0.038
-727.923	-74.377	0.250	-0.091
-726.908	637.407	-0.143	0.365
-725.894	321.185	-0.103	-0.196
-724.879	-124.146	-0.370	-0.058
-723.864	80.591	-0.189	0.204
-722.850	-62.126	-0.327	-0.137
-721.835	757.726	-0.026	0.070
-720.821	-152.581	-0.467	0.034
-719.806	148.193	-0.105	-0.142
-718.791	800.000	-0.034	-0.132
-717.777	558.924	0.031	0.075
-716.762	17.769	-0.236	-0.189
-715.748	-51.194	0.155	-0.073
-714.733	-86.154	-0.093	0.029
-713.718	144.352	-0.168	0.225
-712.704	-26.291	0.187	0.110
-711.689	172.654	-0.114	-0.165
-710.675	-200.000	-0.005	-0.354
-709.660	136.243	0.181	-0.236
-708.645	-200.000	-0.016	-0.276
-707.631	-195.644	-0.121	0.001
-706.616	-87.329	-0.380	0.116
-705.602	38.974	0.230	-0.206
-704.587	-154.084	-0.261	0.018
-703.572	352.281	0.191	0.380
-702.558	800.000	-0.030	0.101
-701.543	190.429	-0.052	0.078
-700.529	72.449	-0.313	0.328
-699.514	-200.000	-0.007	-0.065
-698.499	-158.502	-0.283	0.016
-697.485	-200.000	-0.006	-0.073
-696.470	-200.000	0.012	0.159
-695.456	-127.570	0.330	0.048
-694.441	-62.953	-0.068	-0.028
-693.426	-200.000	0.006	-0.120
-692.412	461.962	0.166	-0.372
-691.397	-136.237	-0.252	0.030
-690.383	181.641	0.106	-0.157
-689.368	519.461	0.041	-0.096
-688.354	-178.241	-0.129	-0.003
-687.339	40.138	-0.319	-0.288
-686.324	178.958	0.111	0.162
-685.310	53.647	-0.224	-0.216
-684.295	-73.283	0.311	0.114
-683.281	-57.404	0.051	-0.022
-682.266	209.031	0.160	-0.250
-681.251	-107.622	-0.169	0.037
-680.237	-22.803	0.091	-0.055
-679.222	-118.418	0.389	-0.069
-678.208	-39.400	-0.299	0.157
-677.193	262.968	0.114	-0.199
-676.178	-24.599	-0.063	-0.038
-675.164	-200.000	0.090	-0.474
-674.149	48.450	-0.103	-0.096
-673.135	171.160	0.135	-0.193
-672.120	136.941	-0.241	0.316
-671.105	-15.811	0.262	-0.167
-670.091	-48.486	-0.343	-0.165
-669.076	800.000	0.033	0.113
-668.062	-200.000	0.044	-0.356
-667.047	-44.057	-0.161	0.081
-666.032	585.515	-0.054	0.134
-665.018	-48.716	-0.078	-0.037
-664.003	-180.817	-0.259	-0.005
-662.989	800.000	0.064	-0.202
-661.974	28.663	0.089	-0.076
-660.959	8.160	-0.288	0.217
-659.945	643.112	-0.100	-0.255
-658.930	137.638	0.154	-0.202
-657.916	-127.092	0.233	0.034
-656.901	-71.820	-0.330	-0.123
-655.886	-200.000	0.035	0.160
-654.872	800.000	0.056	-0.161
-653.857	-174.432	-0.565	-0.016
-652.843	-169.740	0.354	-0.013
-651.828	3.631	-0.131	0.096
-650.814	-200.000	0.030	-0.151
-649.799	414.303	-0.127	0.271
-648.784	161.389	-0.078	-0.109
-647.770	289.095	0.095	-0.172
-646.755	-200.000	0.014	-0.330
-645.741	77.223	0.143	-0.152
-644.726	-31.213	-0.606	-0.342
-643.711	-19.825	-0.052	-0.032
-642.697	148.853	0.085	0.114
-641.682	-97.147	-0.402	0.105
-640.668	119.305	0.135	0.167
-639.653	-102.786	0.091	-0.022
-638.638	-200.000	0.021	0.174
-637.624	325.961	-0.061	-0.116
-636.609	-200.000	-0.036	-0.171
-635.595	800.000	0.040	-0.137
-634.580	-2.890	-0.270	-0.189
-633.565	-106.107	-0.230	0.052
-632.551	-138.238	-0.125	-0.014
-631.536	82.076	0.034	0.037
-630.522	-114.691	-0.090	0.017
-629.507	218.079	-0.162	-0.259
-628.492	141.648	0.035	-0.047
-627.478	30.860	0.314	-0.269
-626.463	514.345	0.069	0.161
-625.449	-200.000	-0.021	-0.323
-624.434	-88.142	-0.120	0.036
-623.419	-83.353	-0.061	0.020
-622.405	20.946	-0.042	-0.034
-621.390	152.721	-0.187	0.256
-620.376	63.568	0.237	0.238
-619.361	677.006	0.026	-0.067
-618.346	-200.000	0.015	-0.295
-617.332	-200.000	-0.005	0.087
-616.317	17.641	0.122	-0.097
-615.303	-4.835	0.298	-0.205
-614.288	-200.000	-0.241	-0.001
-613.273	24.465	-0.232	0.192
-612.259	-38.447	0.230	-0.122
-611.244	-200.000	-0.005	-0.171
-610.230	800.000	0.024	-0.075
-609.215	218.494	0.208	-0.332
-608.201	-200.000	0.054	0.261
-607.186	800.000	0.102	0.293
-606.171	-38.006	-0.251	-0.133
-605.157	10.776	0.012	0.009
-604.142	-38.498	-0.057	0.030
-603.128	-0.032	-0.104	-0.074
-602.113	-200.000	0.029	-0.230
-601.098	51.994	-0.152	-0.145
-600.084	-200.000	0.003	-0.243
-599.069	-28.701	0.242	0.139
-598.055	800.000	-0.034	-0.097
-597.040	5.693	0.042	-0.031
-596.025	-200.000	0.004	0.187
-595.011	-59.647	-0.171	0.073
-593.996	-104.886	0.136	-0.031
-592.982	-200.000	-0.003	-0.043
-591.967	-200.000	0.039	-0.582
-590.952	-200.000	-0.019	-0.101
-589.938	238.490	-0.020	0.034
-588.923	452.252	0.144	0.318
-587.909	-38.433	0.210	-0.111
-586.894	153.200	-0.119	-0.162
-585.879	129.316	0.165	-0.211
-584.865	298.992	0.029	-0.053
-583.850	-200.000	-0.005	-0.026
-582.836	84.201	-0.076	0.083
-581.821	-200.000	-0.007	0.071
-580.806	-47.037	0.118	-0.057
-579.792	36.814	0.099	0.087
-578.777	436.378	0.077	0.167
-577.763	30.493	-0.037	-0.032
-576.748	-17.323	0.153	0.096
-575.733	-200.000	-0.030	0.149
-574.719	-200.000	-0.036	0.319
-573.704	-153.197	-0.368	-0.026
-572.690	549.771	-0.034	0.082
-571.675	-173.688	0.209	0.006
-570.661	78.714	-0.107	-0.114
-569.646	640.413	0.057	0.145
-568.631	454.638	0.198	0.438
-567.617	-200.000	-0.022	0.266
-566.602	-200.000	0.003	0.050
-565.588	348.660	0.099	0.195
-564.573	-200.000	0.021	-0.099
-563.558	-200.000	0.012	0.261
-562.544	-200.000	-0.010	0.054
-561.529	-121.499	0.105	-0.017
-560.515	-161.223	0.133	0.007
-559.500	24.078	-0.092	0.075
-558.485	-142.164	-0.209	-0.021
-557.471	-59.068	0.268	0.115
-556.456	58.561	-0.090	-0.088
-555.442	516.976	-0.080	-0.187
-554.427	-150.818	-0.276	0.021
-553.412	-15.186	0.177	-0.113
-552.398	156.447	0.084	0.116
-551.383	-32.021	-0.243	0.135
-550.369	-67.962	-0.378	-0.147
-549.354	18.890	0.063	0.050
-548.339	-81.649	0.162	0.053
-547.325	-200.000	-0.000	0.358
-546.310	-44.711	0.129	0.064
-545.296	-1.118	0.185	0.130
-544.281	126.737	-0.258	0.326
-543.266	-127.451	0.278	-0.040
-542.252	51.075	-0.170	-0.161
-541.237	-125.546	0.226	-0.034
-540.223	-97.263	-0.167	0.043
-539.208	-82.297	-0.165	-0.054
-538.193	38.931	0.229	0.204
-537.179	-200.000	0.033	-0.222
-536.164	28.158	0.168	0.141
-535.150	40.706	0.305	0.274
-534.135	147.388	-0.268	-0.360
-533.121	-24.669	0.095	0.056
-532.106	35.228	0.151	-0.132
-531.091	-109.692	-0.100	0.021
-530.077	15.214	0.313	-0.245
-529.062	800.000	-0.057	0.198
-528.048	206.093	-0.182	-0.282
-527.033	-200.000	-0.018	0.238
-526.018	-153.400	0.286	0.020
-525.004	-91.122	0.118	0.034
-523.989	-200.000	0.009	-0.158
-522.975	165.767	-0.033	-0.047
-521.960	202.565	-0.055	0.084
-520.945	457.166	0.001	0.003
-519.931	-118.567	-0.215	0.038
-518.916	-200.000	0.002	0.011
-517.902	1.075	-0.025	0.018
-516.887	265.035	0.052	0.091
-515.872	182.534	-0.135	0.199
-514.858	-24.966	-0.214	-0.127
-513.843	144.523	0.094	-0.125
-512.829	-131.626	-0.327	-0.043
-511.814	-113.611	0.155	-0.030
-510.799	-37.071	-0.156	0.083
-509.785	-22.197	0.148	0.089
-508.770	-200.000	0.003	-0.277
-507.756	-200.000	-0.019	0.133
-506.741	-200.000	0.036	-0.228
-505.726	-3.216	-0.204	-0.142
-504.712	-200.000	-0.014	0.080
-503.697	326.920	0.092	0.176
-502.683	41.247	0.165	-0.148
-501.668	-200.000	-0.002	-0.271
-500.653	-50.720	0.132	-0.062
-499.639	116.314	0.142	-0.173
-498.624	321.798	0.172	0.326
-497.610	800.000	-0.145	0.586
-496.595	14.153	-0.171	0.132
-495.581	-6.836	-0.107	-0.073
-494.566	800.000	0.036	0.141
-493.551	-200.000	-0.007	0.202
-492.537	42.470	0.105	-0.095
-491.522	-200.000	0.012	-0.180
-490.508	-200.000	0.012	0.185
-489.493	-178.676	0.081	0.002
-488.478	-200.000	-0.035	-0.281
-487.464	-6.556	0.327	0.222
-486.449	-200.000	-0.006	-0.281
-485.435	800.000	-0.041	0.151
-484.420	-111.665	-0.056	-0.011
-483.405	-109.757	-0.279	-0.058
-482.391	-80.778	0.340	0.112
-481.376	138.898	0.057	-0.074
-480.362	-110.403	-0.198	0.041
-479.347	800.000	-0.059	-0.164
-478.332	-200.000	0.026	0.211
-477.318	-200.000	-0.018	0.205
-476.303	-3.471	-0.108	0.074
-475.289	-57.677	-0.227	0.099
-474.274	-200.000	0.024	-0.113
-473.259	-93.265	-0.196	0.054
-472.245	-200.000	-0.437	0.002
-471.230	-164.428	0.280	0.013
-470.216	342.162	-0.110	0.214
-469.201	-12.632	-0.327	0.212
-468.186	343.622	-0.043	0.084
-467.172	-85.912	-0.188	-0.058
-466.157	-200.000	-0.044	0.215
-465.143	-129.346	-0.188	0.026
-464.128	-200.000	0.019	-0.335
-463.113	144.833	0.127	0.169
-462.099	62.826	0.158	0.157
-461.084	-45.058	-0.294	0.145
-460.070	503.763	0.052	0.120
-459.055	-200.000	0.017	0.140
-458.040	-2.729	0.181	-0.126
-457.026	-128.695	-0.441	0.062
-456.011	-200.000	0.019	0.102
-454.997	153.813	-0.210	-0.286
-453.982	-200.000	-0.031	-0.181
-452.968	11.855	0.214	-0.163
-451.953	695.771	0.141	-0.367
-450.938	361.351	0.242	-0.482
-449.924	800.000	0.075	-0.261
-448.909	180.272	0.203	0.296
-447.895	-126.183	-0.034	-0.005
-446.880	800.000	-0.060	0.198
-445.865	800.000	0.087	-0.318
-444.851	-105.676	-0.599	0.135
-443.836	-21.057	-0.087	0.053
-442.822	800.000	0.106	0.393
-441.807	209.844	-0.156	0.244
-440.792	-200.000	0.056	0.334
-439.778	-135.131	-0.298	0.036
-438.763	321.310	-0.007	-0.014
-437.749	-25.466	-0.249	0.146
-436.734	-93.216	0.049	-0.013
-435.719	-200.000	-0.033	0.386
-434.705	-145.257	0.318	0.029
-433.690	-200.000	-0.005	0.061
-432.676	-200.000	0.003	0.099
-431.661	669.571	0.017	0.044
-430.646	447.526	-0.118	-0.257
-429.632	182.453	0.152	-0.223
-428.617	-84.759	0.217	-0.068
-427.603	-200.000	0.026	0.265
-426.588	28.853	0.148	0.124
-425.573	-45.845	0.187	0.092
-424.559	-200.000	-0.069	-0.322
-423.544	-200.000	0.003	0.163
-422.530	800.000	-0.131	0.482
-421.515	-58.153	0.142	0.061
-420.500	-62.806	-0.163	0.067
-419.486	-126.029	-0.176	0.026
-418.471	-200.000	0.032	0.207
-417.457	55.297	0.180	-0.172
-416.442	-200.000	-0.021	-0.252
-415.428	172.608	0.114	-0.163
-414.413	110.900	-0.216	-0.257
-413.398	174.380	0.230	0.330
-412.384	150.317	-0.228	0.307
-411.369	4.382	-0.145	-0.106
-410.355	5.354	-0.226	0.165
-409.340	361.114	-0.094	0.187
-408.325	-12.714	-0.266	-0.172
-407.311	379.900	0.078	0.158
-406.296	-73.362	0.256	0.093
-405.282	-200.000	0.009	0.079
-404.267	-26.343	-0.125	-0.073
-403.252	-159.625	0.141	-0.008
-402.238	73.100	0.104	-0.108
-401.223	210.323	0.155	-0.241
-400.209	-200.000	0.005	0.030
-399.194	-200.000	0.007	0.273
-398.179	-200.000	0.024	0.299
-397.165	316.157	0.254	0.475
-396.150	42.221	-0.049	0.044
-395.136	165.667	-0.192	0.269
-394.121	36.040	0.133	-0.116
-393.106	-200.000	0.002	-0.051
-392.092	-130.447	-0.174	-0.023
-391.077	-43.632	-0.302	-0.151
-390.063	-71.788	-0.311	0.115
-389.048	330.596	-0.124	-0.236
-388.033	-79.356	-0.173	0.058
-387.019	-74.560	-0.261	-0.093
-386.004	-78.885	0.207	-0.070
-384.990	-52.802	-0.340	0.155
-383.975	-122.031	0.114	0.018
-382.960	-33.029	-0.223	-0.123
-381.946	2.509	0.326	-0.234
-380.931	344.575	-0.111	0.217
-379.917	-75.779	-0.125	0.044
-378.902	-200.000	0.062	-0.287
-377.888	36.287	-0.072	-0.063
-376.873	800.000	-0.042	0.155
-375.858	11.249	0.148	-0.112
-374.844	800.000	0.036	-0.145
-373.829	482.241	0.122	-0.275
-372.815	35.861	-0.118	0.102
-371.800	-200.000	0.044	-0.350
-370.785	-140.389	0.204	0.021
-369.771	-200.000	0.012	0.211
-368.756	352.860	-0.074	0.145
-367.742	-200.000	0.018	0.194
-366.727	181.400	-0.240	-0.350
-365.712	390.678	-0.064	-0.132
-364.698	-200.000	0.079	-0.391
-363.683	-173.529	-0.372	-0.011
-362.669	286.199	-0.182	-0.325
-361.654	318.605	0.060	-0.113
-360.639	296.475	-0.104	-0.188
-359.625	230.163	-0.195	-0.315
-358.610	12.783	0.243	-0.186
-357.596	-200.000	0.025	-0.171
-356.581	-176.995	-0.317	-0.008
-355.566	-77.949	-0.358	-0.122
-354.552	62.514	-0.304	0.301
-353.537	-200.000	-0.021	0.160
-352.523	-68.964	-0.097	-0.037
-351.508	553.995	0.123	-0.292
-350.493	-200.000	-0.033	0.215
-349.479	-7.281	0.361	0.242
-348.464	108.033	0.087	0.102
-347.450	-59.517	-0.322	-0.137
-346.435	357.171	0.060	0.119
-345.420	-82.760	0.227	0.073
-344.406	728.445	-0.133	-0.351
-343.391	-111.523	-0.087	-0.017
-342.377	-200.000	-0.037	0.275
-341.362	-135.705	0.345	-0.040
-340.348	99.340	0.130	-0.149
-339.333	-21.817	0.200	0.120
-338.318	-200.000	0.015	0.159
-337.304	-200.000	-0.036	0.282
-336.289	149.647	0.076	-0.101
-335.275	-200.000	0.007	-0.091
-334.260	51.148	0.074	-0.070
-333.245	-171.168	-0.007	0.000
-332.231	-57.707	-0.186	-0.081
-331.216	800.000	-0.057	-0.202
-330.202	234.372	-0.185	-0.302
-329.187	-200.000	-0.024	0.171
-328.172	-44.662	-0.273	0.135
-327.158	-90.573	-0.127	0.036
-326.143	339.965	0.207	-0.398
-325.129	191.942	0.128	-0.191
-324.114	394.700	-0.188	-0.387
-323.099	-200.000	0.013	0.490
-322.085	-100.332	0.173	0.042
-321.070	-61.324	-0.237	-0.099
-320.056	800.000	0.028	-0.096
-319.041	-45.056	0.357	0.176
-318.026	-200.000	-0.025	-0.150
-317.012	-136.352	0.205	0.024
-315.997	-2.031	-0.306	-0.213
-314.983	800.000	0.084	-0.301
-313.968	364.181	0.023	-0.046
-312.953	800.000	0.184	0.557
-311.939	-95.708	-0.319	0.084
-310.924	70.742	-0.010	-0.010
-309.910	-200.000	-0.018	0.266
-308.895	0.348	0.135	-0.095
-307.880	468.768	0.109	-0.242
-306.866	-11.039	0.201	-0.131
-305.851	-0.493	0.108	0.076
-304.837	-200.000	-0.030	-0.235
-303.822	78.809	-0.170	0.180
-302.807	-31.330	-0.211	0.117
-301.793	228.902	0.075	0.121
-300.778	-96.997	-0.354	-0.092
-299.764	-200.000	0.009	-0.106
-298.749	800.000	-0.069	-0.206
-297.735	758.468	0.105	0.282
-296.720	624.523	0.088	-0.218
-295.705	228.467	-0.159	0.256
-294.691	-179.949	0.137	-0.003
-293.676	-186.414	-0.220	0.003
-292.662	123.153	-0.096	0.118
-291.647	800.000	-0.055	-0.211
-290.632	-42.143	-0.462	-0.233
-289.618	-123.878	-0.214	-0.033
-288.603	-130.619	0.289	0.038
-287.589	125.824	0.165	-0.206
-286.574	-104.916	-0.396	-0.090
-285.559	-0.612	0.210	-0.147
-284.545	176.740	0.167	-0.240
-283.530	-83.549	-0.082	0.026
-282.516	160.776	0.122	0.168
-281.501	-136.455	0.227	-0.026
-280.486	-184.520	-0.283	-0.005
-279.472	800.000	-0.046	-0.139
-278.457	-200.000	0.005	-0.090
-277.443	-77.051	-0.113	0.039
-276.428	-109.771	0.240	0.050
-275.413	230.136	-0.148	-0.238
-274.399	564.222	-0.039	0.092
-273.384	-122.801	-0.070	-0.011
-272.370	-200.000	0.026	-0.191
-271.355	-115.720	0.333	-0.062
-270.340	-107.948	-0.199	-0.043
-269.326	-200.000	-0.013	-0.126
-268.311	-200.000	0.011	-0.077
-267.297	-200.000	0.007	0.241
-266.282	-97.024	0.081	0.021
-265.267	58.633	0.231	0.223
-264.253	-2.221	-0.599	-0.415
-263.238	-41.165	-0.075	0.038
-262.224	-200.000	0.018	0.268
-261.209	95.651	0.100	0.112
-260.195	-90.519	0.178	0.051
-259.180	-63.546	-0.169	0.068
-258.165	213.270	0.094	-0.147
-257.151	366.066	-0.072	0.143
-256.136	-200.000	0.015	0.138
-255.122	-151.107	-0.293	-0.022
-254.107	-200.000	0.012	0.153
-253.092	171.171	-0.136	0.192
-252.078	-8.596	-0.120	-0.079
-251.063	26.886	-0.174	0.144
-250.049	-91.588	-0.158	-0.044
-249.034	-83.768	-0.245	0.077
-248.019	66.263	-0.079	-0.079
-247.005	-82.268	0.186	-0.060
-245.990	-58.270	0.044	0.019
-244.976	58.606	0.210	-0.203
-243.961	-34.593	0.155	0.084
-242.946	-200.000	0.024	0.142
-241.932	-94.095	0.308	-0.083
-240.917	-71.278	0.070	-0.026
-239.903	82.989	-0.121	0.130
-238.888	9.817	0.155	-0.116
-237.873	-161.881	0.409	-0.020
-236.859	-7.152	0.088	0.059
-235.844	-62.244	-0.262	0.108
-234.830	198.572	0.209	0.316
-233.815	-140.792	0.337	0.034
-232.800	12.311	0.118	0.089
-231.786	18.830	0.173	-0.136
-230.771	697.531	-0.023	0.059
-229.757	71.712	-0.022	0.022
-228.742	-89.015	-0.168	0.049
-227.727	-124.784	0.212	-0.032
-226.713	-200.000	-0.048	0.379
-225.698	-88.988	0.442	0.129
-224.684	-96.617	-0.126	-0.033
-223.669	-200.000	-0.010	-0.082
-222.655	-200.000	-0.025	0.274
-221.640	-200.000	-0.008	0.070
-220.625	-148.711	0.158	0.013
-219.611	87.904	-0.175	-0.191
-218.596	-95.540	0.391	-0.103
-217.582	53.652	0.155	0.146
-216.567	-25.647	-0.392	-0.227
-215.552	800.000	0.097	-0.306
-214.538	-120.365	0.561	0.094
-213.523	-200.000	0.020	0.337
-212.509	-128.286	-0.194	0.027
-211.494	-23.751	-0.320	0.189
-210.479	252.675	-0.099	0.167
-209.465	468.831	0.132	-0.291
-208.450	-158.402	-0.167	-0.010
-207.436	216.143	-0.072	-0.113
-206.421	52.597	-0.172	-0.162
-205.406	800.000	-0.122	-0.340
-204.392	-200.000	-0.029	-0.291
-203.377	-174.208	0.216	0.006
-202.363	794.006	-0.071	-0.191
-201.348	-194.032	0.119	0.001
-200.333	3.176	0.189	0.135
-199.319	800.000	0.036	0.117
-198.304	-45.009	0.028	-0.014
-197.290	-200.000	-0.025	0.265
-196.275	-79.636	0.436	0.145
-195.260	-141.766	0.210	-0.021
-194.246	-55.093	-0.210	-0.093
-193.231	-17.499	-0.111	-0.069
-192.217	28.445	-0.324	-0.269
-191.202	104.176	0.251	-0.290
-190.187	-200.000	-0.006	0.206
-189.173	800.000	0.054	-0.207
-188.158	-66.363	0.255	-0.100
-187.144	664.905	-0.101	-0.255
-186.129	241.941	0.163	-0.267
-185.114	-200.000	0.001	0.103
-184.100	73.141	0.113	-0.116
-183.085	-200.000	-0.013	0.113
-182.071	800.000	-0.092	0.394
-181.056	156.154	0.143	0.194
-180.042	-200.000	-0.025	0.131
-179.027	-2.868	0.288	-0.198
-178.012	-160.769	0.477	-0.025
-176.998	-128.315	-0.302	0.042
-175.983	-200.000	0.068	0.408
-174.969	197.598	0.267	0.400
-173.954	93.672	0.182	0.203
-172.939	-118.303	-0.240	-0.042
-171.925	-30.547	0.046	0.025
-170.910	643.072	0.019	-0.048
-169.896	152.508	-0.113	-0.151
-168.881	75.226	0.200	-0.208
-167.866	4.945	0.281	-0.203
-166.852	-134.646	0.132	-0.016
-165.837	-71.194	0.176	0.065
-164.823	-200.000	-0.007	-0.170
-163.808	-84.082	0.226	-0.071
-162.793	-53.531	-0.163	0.073
-161.779	-101.347	-0.161	0.039
-160.764	-47.860	0.280	-0.133
-159.750	-19.723	0.270	0.164
-158.735	97.663	-0.219	0.247
-157.720	-16.696	0.364	-0.226
-156.706	-125.453	0.177	-0.027
-155.691	-200.000	-0.013	-0.294
-154.677	351.104	0.202	0.393
-153.662	800.000	0.053	-0.195
-152.647	-37.849	0.292	0.152
-151.633	23.456	-0.059	0.048
-150.618	631.007	-0.094	-0.234
-149.604	-57.697	0.104	0.045
-148.589	113.149	-0.200	0.238
-147.574	-74.285	-0.218	-0.077
-146.560	-33.707	0.142	0.077
-145.545	140.058	-0.101	0.131
-144.531	800.000	0.066	-0.214
-143.516	800.000	-0.090	0.314
-142.502	42.367	-0.123	-0.110
-141.487	128.808	-0.113	0.142
-140.472	-200.000	-0.003	0.511
-139.458	-60.207	-0.311	0.130
-138.443	-25.885	-0.092	0.053
-137.429	90.574	0.134	0.147
-136.414	797.602	0.051	0.137
-135.399	-200.000	0.013	-0.108
-134.385	280.885	-0.045	0.080
-133.370	-49.215	-0.152	-0.071
-132.356	-133.094	-0.396	0.049
-131.341	73.335	-0.073	-0.075
-130.326	-114.644	0.218	-0.041
-129.312	4.639	0.178	-0.129
-128.297	118.032	-0.085	-0.103
-127.283	-108.339	0.273	-0.058
-126.268	92.978	0.165	-0.183
-125.253	-200.000	-0.006	0.194
-124.239	800.000	-0.011	-0.038
-123.224	-137.739	-0.119	0.013
-122.210	800.000	-0.029	0.093
