DTS Sentinel unit serial number:	SN413079Multiplexer serial number:	ORYXHardware model number:	OX4-SRSoftware version number:	ORYX F/W v4.00 Oryx Data Collector v3.7.2.0data status	okinstallation	princeton_trtdifferential loss correction	single-endedforward channel	channel 1reverse channel	N/Adate	2019/09/14time	07:18:35forward acquisition time	60.00reverse acquisition time	0.00gamma	496.2192k internal	0.2336k external	0.2336temperature offset calibration	1.0081default loss term (dB/km)	0.3790temperature slope calibration	1.0000multiplexer offset coefficient	1.0000multiplexer slope coefficient	1.0000fibre end	0.00T internal ref (°C)	26.19T ext. ref 1 (°C)	3.44T ext. ref 2 (°C)	20.94length (m)	temperature (°C)	Stokes	anti-Stokes-747.200	755.852	-0.093	-0.253
-746.185	196.963	-0.172	0.264
-745.171	-110.975	0.064	0.013
-744.156	-200.000	0.093	0.498
-743.142	-200.000	-0.001	0.068
-742.127	-200.000	0.030	0.293
-741.112	246.303	-0.151	0.255
-740.098	-8.655	-0.284	0.191
-739.083	-34.461	0.136	-0.075
-738.069	73.076	0.126	0.132
-737.054	-54.081	0.512	-0.234
-736.039	179.236	0.081	-0.120
-735.025	-14.366	-0.140	0.090
-734.010	548.072	-0.136	-0.327
-732.996	2.293	-0.127	-0.093
-731.981	-200.000	0.044	0.200
-730.966	59.443	-0.154	-0.152
-729.952	-101.530	-0.035	-0.008
-728.937	-70.322	-0.210	0.080
-727.923	-95.403	0.238	0.064
-726.908	-77.418	-0.143	-0.050
-725.894	800.000	0.081	0.324
-724.879	364.564	0.034	-0.068
-723.864	-200.000	0.015	0.089
-722.850	-59.378	0.046	0.020
-721.835	118.355	-0.101	-0.126
-720.821	143.685	0.226	0.302
-719.806	-25.073	-0.276	-0.164
-718.791	-121.408	-0.303	0.051
-717.777	624.617	-0.155	-0.391
-716.762	-93.176	-0.192	-0.053
-715.748	-41.781	0.157	-0.081
-714.733	-101.204	0.448	0.110
-713.718	-142.584	-0.163	-0.016
-712.704	179.174	0.080	-0.118
-711.689	-73.139	0.030	-0.011
-710.675	14.961	0.173	-0.136
-709.660	306.166	0.098	0.182
-708.645	-49.896	-0.271	0.129
-707.631	800.000	0.046	-0.129
-706.616	3.004	0.215	0.157
-705.602	220.146	0.040	-0.064
-704.587	151.906	-0.136	0.186
-703.572	169.452	0.074	-0.106
-702.558	800.000	0.073	-0.251
-701.543	512.686	0.145	0.339
-700.529	120.041	-0.015	0.018
-699.514	-200.000	-0.007	-0.060
-698.499	83.660	0.157	0.171
-697.485	-200.000	0.006	-0.066
-696.470	-136.596	0.311	0.036
-695.456	-1.583	-0.058	0.041
-694.441	-45.483	-0.117	-0.058
-693.426	-200.000	0.003	0.021
-692.412	149.575	0.099	0.134
-691.397	-154.805	-0.047	0.003
-690.383	264.372	0.057	-0.099
-689.368	171.382	-0.206	0.296
-688.354	37.397	-0.036	-0.032
-687.339	-91.329	-0.200	-0.057
-686.324	800.000	-0.061	0.214
-685.310	322.760	0.090	0.172
-684.295	-200.000	0.006	0.178
-683.281	-200.000	0.004	0.088
-682.266	-154.008	-0.168	-0.011
-681.251	-147.261	0.291	0.025
-680.237	150.779	0.166	0.226
-679.222	-200.000	0.032	0.142
-678.208	659.256	0.105	-0.269
-677.193	800.000	-0.080	-0.267
-676.178	-115.239	-0.132	0.025
-675.164	-19.361	0.322	-0.200
-674.149	363.734	0.040	0.080
-673.135	-200.000	-0.315	0.001
-672.120	119.713	0.026	0.032
-671.105	48.270	-0.129	-0.121
-670.091	-134.471	-0.175	0.021
-669.076	-113.649	-0.033	0.007
-668.062	-163.367	-0.133	-0.006
-667.047	43.499	0.100	0.092
-666.032	-200.000	-0.003	0.029
-665.018	225.043	0.172	0.278
-664.003	-132.823	0.075	0.010
-662.989	-18.077	0.379	0.237
-661.974	-200.000	0.041	-0.224
-660.959	280.772	0.051	-0.090
-659.945	-200.000	-0.018	-0.282
-658.930	567.667	0.115	0.280
-657.916	-65.100	-0.254	0.103
-656.901	-73.802	-0.080	0.029
-655.886	800.000	0.020	0.063
-654.872	616.148	-0.046	0.115
-653.857	-97.505	0.226	-0.059
-652.843	-200.000	-0.017	0.301
-651.828	-88.418	-0.274	-0.082
-650.814	-200.000	0.004	-0.340
-649.799	-82.397	-0.066	0.021
-648.784	-118.897	-0.192	0.034
-647.770	293.257	0.046	-0.085
-646.755	-24.690	-0.229	0.136
-645.741	-19.378	0.108	-0.067
-644.726	-47.743	-0.241	0.117
-643.711	116.266	0.104	-0.127
-642.697	-64.312	-0.262	0.106
-641.682	800.000	0.029	0.122
-640.668	-200.000	0.009	-0.066
-639.653	-14.168	0.231	0.149
-638.638	-112.142	-0.015	-0.003
-637.624	-64.035	-0.071	0.029
-636.609	-82.449	0.324	0.105
-635.595	262.136	-0.145	-0.252
-634.580	-56.906	0.234	-0.103
-633.565	75.878	-0.080	-0.085
-632.551	-200.000	0.002	0.164
-631.536	519.276	-0.075	0.177
-630.522	260.472	-0.086	0.148
-629.507	-122.718	-0.151	-0.024
-628.492	800.000	-0.028	0.079
-627.478	-54.071	0.239	0.109
-626.463	310.363	-0.122	0.228
-625.449	0.439	-0.253	0.181
-624.434	764.396	0.018	0.049
-623.419	776.481	-0.046	-0.125
-622.405	-123.923	-0.270	0.042
-621.390	-103.759	0.153	-0.036
-620.376	-200.000	-0.022	0.236
-619.361	-36.722	0.185	0.099
-618.346	-200.000	0.004	0.057
-617.332	-78.377	-0.376	-0.129
-616.317	-200.000	0.003	-0.443
-615.303	206.122	-0.222	0.345
-614.288	-200.000	0.026	-0.213
-613.273	50.591	0.113	0.107
-612.259	403.865	0.253	0.532
-611.244	-62.642	-0.223	0.092
-610.230	-112.527	-0.227	-0.045
-609.215	171.509	0.071	-0.102
-608.201	-134.716	0.280	-0.034
-607.186	118.338	-0.084	0.103
-606.171	-200.000	-0.085	-0.384
-605.157	-13.043	0.018	0.012
-604.142	-70.504	0.096	-0.036
-603.128	800.000	0.111	-0.357
-602.113	31.623	-0.108	-0.093
-601.098	-25.991	0.138	-0.081
-600.084	-114.627	0.096	0.018
-599.069	-42.628	-0.095	-0.048
-598.055	346.466	-0.238	0.467
-597.040	18.915	-0.116	-0.093
-596.025	396.360	0.119	0.247
-595.011	112.404	-0.184	-0.223
-593.996	-200.000	-0.054	0.323
-592.982	-13.964	-0.067	-0.043
-591.967	-162.723	-0.249	0.012
-590.952	50.175	-0.337	-0.317
-589.938	-200.000	0.023	-0.119
-588.923	557.302	0.040	0.096
-587.909	-99.738	-0.336	-0.084
-586.894	-200.000	0.030	-0.147
-585.879	-0.788	0.163	0.116
-584.865	800.000	-0.123	-0.342
-583.850	-67.576	0.229	-0.090
-582.836	86.375	0.118	-0.130
-581.821	163.251	-0.322	-0.451
-580.806	800.000	0.068	-0.238
-579.792	-60.828	-0.048	-0.020
-578.777	327.935	0.055	0.105
-577.763	232.862	0.118	0.194
-576.748	-200.000	0.033	0.201
-575.733	-200.000	0.068	-0.456
-574.719	253.111	-0.043	-0.073
-573.704	-174.043	0.082	-0.002
-572.690	381.292	0.108	0.221
-571.675	-200.000	-0.081	0.409
-570.661	211.996	0.074	-0.117
-569.646	-105.379	0.234	0.053
-568.631	185.178	0.064	0.094
-567.617	61.817	-0.327	0.324
-566.602	-94.095	0.248	0.068
-565.588	-200.000	-0.085	0.403
-564.573	-118.345	-0.159	-0.028
-563.558	121.559	0.323	-0.402
-562.544	-79.606	-0.137	-0.046
-561.529	-33.433	-0.165	0.091
-560.515	-61.947	-0.110	0.046
-559.500	107.456	0.121	0.144
-558.485	91.959	-0.025	0.029
-557.471	-46.544	0.108	-0.053
-556.456	800.000	-0.074	-0.220
-555.442	390.775	0.099	0.205
-554.427	123.897	-0.318	-0.398
-553.412	258.208	-0.071	0.121
-552.398	-84.571	0.110	-0.034
-551.383	-200.000	0.022	0.124
-550.369	800.000	0.036	0.123
-549.354	-117.084	0.303	-0.055
-548.339	203.836	-0.169	-0.261
-547.325	-49.768	0.067	-0.032
-546.310	-38.337	0.350	-0.185
-545.296	-77.861	-0.235	-0.081
-544.281	67.442	0.089	-0.090
-543.266	296.369	0.128	-0.233
-542.252	406.581	-0.067	0.141
-541.237	-138.895	-0.062	0.007
-540.223	-200.000	-0.003	0.294
-539.208	-200.000	0.061	-0.328
-538.193	-102.329	-0.131	0.031
-537.179	120.186	0.067	0.082
-536.164	-200.000	-0.009	0.317
-535.150	142.009	0.193	-0.254
-534.135	182.242	0.113	0.166
-533.121	-74.389	-0.099	0.035
-532.106	-52.906	-0.215	-0.099
-531.091	121.608	0.246	-0.306
-530.077	-36.841	-0.147	0.079
-529.062	-70.863	0.164	-0.062
-528.048	-200.000	-0.079	0.429
-527.033	-17.817	0.107	-0.067
-526.018	-30.759	0.204	0.115
-525.004	-124.034	0.080	-0.012
-523.989	-130.876	-0.368	-0.049
-522.975	576.364	-0.113	-0.274
-521.960	26.045	-0.092	0.077
-520.945	416.266	0.100	-0.211
-519.931	-150.757	0.167	0.013
-518.916	0.306	0.106	0.075
-517.902	-66.550	0.064	-0.025
-516.887	275.034	-0.153	-0.270
-515.872	-200.000	0.003	-0.235
-514.858	-152.051	-0.285	-0.021
-513.843	650.399	0.052	0.132
-512.829	-83.875	-0.193	0.061
-511.814	164.180	-0.083	0.116
-510.799	167.520	-0.222	-0.314
-509.785	-39.582	-0.213	0.111
-508.770	-110.889	0.312	-0.064
-507.756	622.818	0.053	-0.133
-506.741	-49.700	-0.054	-0.026
-505.726	123.757	-0.036	-0.045
-504.712	423.814	-0.054	0.115
-503.697	-151.479	0.145	0.011
-502.683	-51.181	-0.238	-0.111
-501.668	-71.256	-0.118	0.044
-500.653	-100.393	-0.277	0.068
-499.639	29.987	-0.121	-0.103
-498.624	90.451	-0.101	-0.113
-497.610	-8.978	-0.148	0.099
-496.595	-21.040	0.168	0.102
-495.581	-200.000	0.011	-0.237
-494.566	231.444	-0.208	-0.340
-493.551	-116.539	0.402	-0.074
-492.537	-85.921	-0.185	0.057
-491.522	-26.654	-0.097	0.056
-490.508	800.000	0.122	0.488
-489.493	129.497	-0.053	-0.067
-488.478	148.571	0.028	-0.038
-487.464	800.000	0.026	-0.102
-486.449	-200.000	-0.043	-0.240
-485.435	-21.566	0.076	-0.046
-484.420	-105.063	-0.157	-0.036
-483.405	-10.854	0.164	-0.107
-482.391	66.244	-0.114	0.116
-481.376	-85.922	-0.125	0.038
-480.362	125.661	0.096	-0.121
-479.347	800.000	-0.037	0.123
-478.332	-12.992	0.172	-0.111
-477.318	-82.133	-0.123	0.040
-476.303	403.717	0.149	-0.311
-475.289	-103.498	0.180	-0.042
-474.274	-57.531	-0.157	0.069
-473.259	-0.112	-0.244	-0.172
-472.245	306.784	0.096	0.177
-471.230	152.947	-0.130	-0.177
-470.216	75.524	-0.171	-0.180
-469.201	-28.189	-0.205	0.118
-468.186	-160.549	-0.358	0.019
-467.172	-89.542	0.401	-0.117
-466.157	-113.964	0.297	-0.057
-465.143	5.953	0.193	-0.142
-464.128	-99.179	0.165	-0.041
-463.113	-141.506	-0.271	0.027
-462.099	-200.000	-0.043	0.303
-461.084	23.914	0.210	0.172
-460.070	-36.858	0.376	-0.200
-459.055	70.634	0.191	-0.196
-458.040	-77.324	-0.248	-0.086
-457.026	-110.084	-0.220	0.046
-456.011	-75.223	-0.274	-0.097
-454.997	-26.041	0.263	0.154
-453.982	121.525	0.118	-0.146
-452.968	-65.109	-0.067	-0.027
-451.953	127.067	-0.084	-0.106
-450.938	-1.349	0.070	-0.049
-449.924	-165.938	-0.259	-0.011
-448.909	-114.258	0.255	-0.049
-447.895	-158.025	0.193	0.011
-446.880	-98.952	-0.218	0.055
-445.865	-189.377	0.101	0.001
-444.851	-10.940	0.039	-0.025
-443.836	768.637	-0.071	-0.192
-442.822	600.000	-0.050	0.123
-441.807	-200.000	0.045	0.224
-440.792	-200.000	-0.039	-0.210
-439.778	548.019	0.024	-0.058
-438.763	-49.506	-0.194	-0.092
-437.749	-200.000	0.003	-0.179
-436.734	-50.676	0.109	-0.051
-435.719	800.000	-0.145	0.440
-434.705	136.705	0.166	0.215
-433.690	-200.000	0.010	0.115
-432.676	599.001	-0.058	0.143
-431.661	-151.905	0.317	-0.023
-430.646	-104.205	-0.356	0.082
-429.632	363.786	-0.064	-0.127
-428.617	42.548	-0.305	0.275
-427.603	27.838	-0.235	-0.196
-426.588	-13.733	-0.230	0.147
-425.573	-200.000	0.014	0.217
-424.559	277.474	0.193	-0.341
-423.544	37.940	-0.176	-0.156
-422.530	-200.000	0.003	-0.037
-421.515	-60.469	0.324	-0.137
-420.500	191.004	-0.033	-0.049
-419.486	-46.024	0.094	0.046
-418.471	-85.920	0.385	0.118
-417.457	-200.000	0.039	0.421
-416.442	-75.147	-0.254	0.090
-415.428	15.996	-0.243	0.190
-414.413	800.000	-0.040	0.175
-413.398	-107.202	0.332	-0.072
-412.384	75.237	-0.098	-0.102
-411.369	800.000	-0.085	-0.301
-410.355	-69.081	0.084	0.032
-409.340	66.994	-0.048	0.049
-408.325	-82.000	0.398	0.129
-407.311	800.000	-0.074	-0.263
-406.296	-40.201	0.154	-0.080
-405.282	-3.913	-0.120	0.082
-404.267	115.534	0.111	0.135
-403.252	78.086	0.067	0.071
-402.238	-200.000	0.010	-0.411
-401.223	134.655	0.152	-0.196
-400.209	-87.458	-0.130	0.039
-399.194	20.315	0.223	-0.179
-398.179	-138.029	-0.131	0.014
-397.165	-46.719	0.372	-0.181
-396.150	610.057	-0.102	0.251
-395.136	-51.178	0.257	-0.119
-394.121	-123.177	0.035	0.006
-393.106	-48.118	0.029	0.014
-392.092	-200.000	-0.005	-0.211
-391.077	800.000	-0.044	-0.140
-390.063	-91.834	0.258	-0.072
-389.048	800.000	0.074	0.245
-388.033	-200.000	0.045	-0.252
-387.019	-1.362	0.092	-0.064
-386.004	-133.159	-0.426	0.053
-384.990	-89.118	-0.464	0.136
-383.975	-99.377	0.257	-0.064
-382.960	107.111	0.240	-0.282
-381.946	-91.763	0.096	0.027
-380.931	-55.167	-0.169	-0.075
-379.917	-200.000	-0.036	0.317
-378.902	-200.000	-0.089	0.468
-377.888	6.978	-0.039	-0.029
-376.873	-200.000	0.079	0.440
-375.858	-38.213	0.155	0.081
-374.844	-151.025	-0.532	-0.040
-373.829	216.545	0.180	0.284
-372.815	313.289	-0.025	0.047
-371.800	-200.000	0.045	-0.000
-370.785	614.766	-0.148	-0.368
-369.771	-200.000	-0.044	-0.297
-368.756	620.071	0.066	0.163
-367.742	455.916	-0.116	-0.255
-366.727	800.000	-0.076	-0.209
-365.712	-94.744	-0.245	0.066
-364.698	-96.792	-0.139	-0.036
-363.683	-130.244	0.370	-0.050
-362.669	-81.721	-0.329	0.107
-361.654	-155.572	-0.135	-0.009
-360.639	139.410	0.118	0.153
-359.625	-136.778	0.230	0.026
-358.610	410.204	-0.096	-0.201
-357.596	-68.133	0.113	-0.043
-356.581	213.054	-0.049	0.076
-355.566	-50.403	0.320	-0.149
-354.552	-122.989	0.313	-0.050
-353.537	143.768	0.153	0.202
-352.523	320.658	0.086	0.162
-351.508	43.891	0.253	0.229
-350.493	-99.140	0.116	0.029
-349.479	13.451	-0.177	-0.136
-348.464	-113.872	-0.186	0.036
-347.450	329.571	0.026	0.050
-346.435	224.613	-0.063	-0.101
-345.420	157.318	-0.154	-0.210
-344.406	-151.014	-0.229	0.017
-343.391	54.587	0.179	0.170
-342.377	17.207	0.079	0.062
-341.362	27.076	0.028	0.023
-340.348	-200.000	-0.057	0.256
-339.333	800.000	0.116	0.330
-338.318	-200.000	0.004	0.000
-337.304	-85.268	-0.231	0.071
-336.289	-10.652	-0.362	-0.237
-335.275	-200.000	0.063	-0.336
-334.260	-20.110	-0.207	0.126
-333.245	91.639	-0.132	-0.147
-332.231	240.886	-0.095	0.157
-331.216	693.797	0.106	0.274
-330.202	332.162	0.131	-0.251
-329.187	207.221	0.172	-0.265
-328.172	-200.000	-0.019	0.284
-327.158	-78.431	-0.125	0.042
-326.143	363.073	-0.072	0.143
-325.129	-200.000	0.010	0.154
-324.114	38.531	0.036	-0.032
-323.099	-200.000	0.009	0.128
-322.085	-81.866	0.178	-0.057
-321.070	-83.667	-0.129	-0.041
-320.056	-69.528	-0.040	0.015
-319.041	-52.761	-0.182	-0.083
-318.026	-104.011	0.139	0.032
-317.012	20.681	0.161	-0.129
-315.997	252.070	0.035	0.059
-314.983	-105.229	0.202	-0.045
-313.968	-200.000	0.038	-0.316
-312.953	-200.000	0.043	-0.296
-311.939	735.952	-0.099	-0.262
-310.924	-51.288	-0.294	-0.136
-309.910	-173.426	0.364	-0.011
-308.895	617.601	-0.064	-0.160
-307.880	-31.402	-0.339	-0.188
-306.866	161.905	-0.089	0.123
-305.851	615.988	-0.071	-0.177
-304.837	800.000	-0.086	-0.347
-303.822	-52.537	-0.116	-0.053
-302.807	800.000	-0.103	0.400
-301.793	168.940	0.102	0.143
-300.778	-128.878	0.110	-0.015
-299.764	-79.775	0.221	-0.073
-298.749	-44.337	0.347	0.172
-297.735	-47.092	0.217	0.104
-296.720	8.497	0.156	-0.116
-295.705	620.668	0.112	0.277
-294.691	-200.000	-0.013	-0.094
-293.676	-1.727	-0.101	0.070
-292.662	-200.000	0.045	0.324
-291.647	506.018	-0.081	-0.184
-290.632	109.114	-0.136	0.160
-289.618	638.475	0.095	0.238
-288.603	-76.913	-0.311	-0.107
-287.589	166.690	0.033	0.047
-286.574	-115.042	0.052	-0.010
-285.559	51.546	-0.346	-0.324
-284.545	-143.320	0.131	0.012
-283.530	-200.000	0.012	-0.089
-282.516	85.735	-0.116	0.126
-281.501	-123.590	0.390	0.061
-280.486	800.000	-0.099	0.310
-279.472	-200.000	-0.035	-0.174
-278.457	-60.009	0.176	0.074
-277.443	9.145	0.389	0.290
-276.428	-200.000	-0.015	-0.127
-275.413	2.237	0.099	-0.070
-274.399	18.995	0.270	0.214
-273.384	311.274	0.057	-0.105
-272.370	-4.262	0.053	0.036
-271.355	422.879	-0.027	0.057
-270.340	343.116	0.106	-0.205
-269.326	-127.328	0.380	-0.055
-268.311	-200.000	-0.045	0.273
-267.297	-200.000	0.038	0.180
-266.282	-148.140	-0.443	0.036
-265.267	800.000	-0.035	0.114
-264.253	-140.419	0.050	-0.005
-263.238	800.000	-0.078	0.239
-262.224	800.000	-0.036	0.123
-261.209	440.007	0.082	0.177
-260.195	165.797	0.224	0.312
-259.180	-35.731	0.127	-0.068
-258.165	124.552	-0.126	-0.157
-257.151	-200.000	0.035	0.354
-256.136	-142.820	-0.448	0.043
-255.122	-9.443	0.195	-0.128
-254.107	-104.012	0.180	-0.041
-253.092	800.000	0.076	-0.257
-252.078	440.826	0.044	0.095
-251.063	27.011	0.091	0.075
-250.049	140.869	0.123	-0.160
-249.034	-33.362	-0.136	-0.074
-248.019	108.229	0.037	-0.043
-247.005	800.000	0.039	0.163
-245.990	-47.863	-0.120	-0.057
-244.976	800.000	-0.046	-0.190
-243.961	800.000	-0.160	-0.486
-242.946	-120.923	0.069	-0.011
-241.932	-112.105	0.215	0.042
-240.917	800.000	-0.039	-0.161
-239.903	-21.096	-0.150	0.090
-238.888	301.914	-0.098	-0.178
-237.873	26.517	0.122	0.100
-236.859	-200.000	0.000	-0.171
-235.844	800.000	-0.121	-0.427
-234.830	-200.000	0.016	0.104
-233.815	-163.426	-0.111	0.005
-232.800	23.206	0.269	-0.217
-231.786	524.284	0.116	0.269
-230.771	35.100	0.198	0.171
-229.757	139.206	-0.120	0.155
-228.742	365.993	-0.170	0.338
-227.727	3.322	-0.258	0.185
-226.713	-200.000	-0.073	0.414
-225.698	313.925	0.048	0.088
-224.684	-200.000	0.002	0.024
-223.669	-167.170	-0.320	-0.013
-222.655	-43.582	0.186	-0.092
-221.640	-200.000	0.019	0.087
-220.625	255.695	-0.209	-0.352
-219.611	124.593	0.252	-0.312
-218.596	-200.000	-0.005	-0.363
-217.582	-200.000	-0.002	-0.150
-216.567	-60.429	0.278	-0.116
-215.552	-113.630	-0.231	0.044
-214.538	96.011	0.185	0.208
-213.523	3.647	0.229	0.164
-212.509	109.813	0.306	-0.361
-211.494	-109.942	-0.218	-0.045
-210.479	-14.165	0.243	0.154
-209.465	-71.167	0.279	0.103
-208.450	-131.143	-0.269	-0.035
-207.436	-27.511	0.355	-0.203
-206.421	800.000	-0.051	0.148
-205.406	205.577	0.058	0.089
-204.392	104.273	0.197	0.228
-203.377	-200.000	0.023	-0.168
-202.363	9.918	-0.126	0.094
-201.348	177.705	-0.046	-0.066
-200.333	-200.000	-0.028	0.210
-199.319	364.849	0.073	0.145
-198.304	-45.037	0.200	0.098
-197.290	94.053	0.161	0.179
-196.275	141.032	-0.158	-0.206
-195.260	-30.190	0.212	0.119
-194.246	-102.619	-0.320	-0.075
-193.231	183.765	0.155	0.225
-192.217	104.609	0.095	-0.110
-191.202	72.787	0.105	0.108
-190.187	93.500	-0.099	0.111
-189.173	-200.000	-0.012	-0.098
-188.158	499.228	-0.064	-0.146
-187.144	-74.583	0.143	-0.051
-186.129	-171.371	-0.389	-0.013
-185.114	-64.665	-0.159	0.063
-184.100	314.376	0.022	0.041
-183.085	-200.000	-0.044	-0.350
-182.071	680.504	-0.146	0.373
-181.056	306.190	0.154	0.281
-180.042	414.100	0.127	0.266
-179.027	157.738	-0.037	0.051
-178.012	576.294	0.022	0.053
-176.998	-88.539	0.078	-0.023
-175.983	9.269	-0.265	0.197
-174.969	-153.431	-0.238	0.016
-173.954	-141.577	0.117	-0.012
-172.939	228.478	-0.042	0.067
-171.925	-121.752	0.146	-0.024
-170.910	321.557	-0.107	0.200
-169.896	-200.000	0.038	0.355
-168.881	-200.000	-0.005	0.165
-167.866	-101.618	-0.257	-0.061
-166.852	-200.000	-0.014	-0.228
-165.837	187.836	0.099	0.146
-164.823	33.093	0.228	-0.194
-163.808	-129.618	-0.198	0.027
-162.793	800.000	-0.004	-0.018
-161.779	-186.031	0.196	-0.003
-160.764	-60.159	0.103	0.043
-159.750	-80.408	0.252	-0.082
-158.735	-105.477	-0.195	0.043
-157.720	-55.174	-0.420	0.186
-156.706	-55.474	-0.202	0.089
-155.691	800.000	-0.041	-0.150
-154.677	179.955	0.037	0.054
-153.662	-30.861	0.471	-0.261
-152.647	175.493	0.153	-0.217
-151.633	23.189	-0.143	-0.116
-150.618	49.352	0.049	0.046
-149.604	-132.332	0.131	0.017
-148.589	-147.559	0.349	0.029
-147.574	-140.359	-0.263	-0.027
-146.560	-128.947	-0.186	0.026
-145.545	764.158	0.088	-0.235
-144.531	73.281	0.093	0.096
-143.516	800.000	0.021	0.074
-142.502	-20.930	-0.424	0.254
-141.487	-200.000	0.034	-0.165
-140.472	214.386	-0.204	-0.317
-139.458	800.000	-0.092	0.255
-138.443	800.000	-0.049	-0.145
-137.429	-103.913	-0.132	0.030
-136.414	-89.642	0.227	-0.065
-135.399	800.000	-0.052	-0.203
-134.385	29.739	-0.289	-0.241
-133.370	800.000	0.054	0.201
-132.356	-52.389	0.138	-0.063
-131.341	-200.000	-0.041	-0.266
-130.326	31.853	-0.292	-0.246
-129.312	-100.291	0.209	0.051
-128.297	-135.884	0.213	0.025
-127.283	-20.075	0.293	0.177
-126.268	-89.453	0.334	-0.096
-125.253	-200.000	0.021	0.196
-124.239	-60.966	0.186	0.077
-123.224	-88.234	0.214	0.063
-122.210	465.261	0.124	-0.273
-121.195	13.039	0.192	-0.146
