DTS Sentinel unit serial number:	SN413079Multiplexer serial number:	ORYXHardware model number:	OX4-SRSoftware version number:	ORYX F/W v4.00 Oryx Data Collector v3.7.2.0data status	okinstallation	princeton_trtdifferential loss correction	single-endedforward channel	channel 1reverse channel	N/Adate	2019/09/12time	23:06:35forward acquisition time	60.00reverse acquisition time	0.00gamma	496.2192k internal	0.2328k external	0.2328temperature offset calibration	1.0146default loss term (dB/km)	0.3790temperature slope calibration	1.0000multiplexer offset coefficient	1.0000multiplexer slope coefficient	1.0000fibre end	0.00T internal ref (°C)	29.25T ext. ref 1 (°C)	3.72T ext. ref 2 (°C)	23.84length (m)	temperature (°C)	Stokes	anti-Stokes-747.200	-131.899	0.178	-0.023
-746.185	180.700	-0.096	0.143
-745.171	64.838	0.201	-0.205
-744.156	-80.350	0.139	0.047
-743.142	185.062	-0.192	-0.288
-742.127	153.388	-0.215	0.297
-741.112	-88.259	0.258	-0.078
-740.098	96.000	-0.308	0.354
-739.083	-200.000	0.002	-0.103
-738.069	-115.607	0.272	0.051
-737.054	800.000	-0.112	0.360
-736.039	230.220	-0.229	0.378
-735.025	-200.000	0.022	-0.257
-734.010	662.126	-0.046	-0.119
-732.996	-7.012	-0.211	-0.144
-731.981	229.892	0.113	0.187
-730.966	108.014	0.136	-0.163
-729.952	800.000	-0.036	0.131
-728.937	-200.000	-0.028	-0.157
-727.923	312.157	-0.012	0.022
-726.908	-160.554	-0.231	-0.012
-725.894	148.957	0.127	-0.173
-724.879	-10.281	0.278	-0.186
-723.864	-178.204	-0.078	-0.002
-722.850	-117.233	-0.042	0.008
-721.835	26.141	0.234	0.197
-720.821	48.423	-0.235	-0.221
-719.806	378.495	-0.102	-0.210
-718.791	578.110	0.101	-0.249
-717.777	-18.638	0.222	-0.140
-716.762	115.509	0.050	0.061
-715.748	91.909	-0.171	0.194
-714.733	42.537	-0.119	0.109
-713.718	44.812	0.339	0.314
-712.704	75.907	0.164	0.175
-711.689	75.102	0.152	0.162
-710.675	-200.000	-0.027	0.172
-709.660	169.433	0.119	0.172
-708.645	117.581	0.140	-0.173
-707.631	65.008	0.346	0.351
-706.616	800.000	0.019	0.057
-705.602	-133.203	-0.236	0.030
-704.587	261.349	-0.068	-0.118
-703.572	-200.000	-0.001	-0.084
-702.558	-96.376	0.145	-0.039
-701.543	54.513	0.144	0.140
-700.529	-59.322	-0.070	-0.031
-699.514	-200.000	-0.076	-0.559
-698.499	-139.258	0.062	0.007
-697.485	-46.397	0.164	-0.081
-696.470	-200.000	0.020	-0.436
-695.456	17.991	-0.060	0.048
-694.441	223.905	0.148	0.241
-693.426	86.228	-0.087	-0.097
-692.412	140.785	-0.088	-0.117
-691.397	402.696	-0.076	0.160
-690.383	638.925	-0.061	0.156
-689.368	-161.921	-0.133	-0.007
-688.354	-21.963	0.044	-0.027
-687.339	174.793	0.096	0.140
-686.324	88.669	-0.170	-0.190
-685.310	-89.595	0.288	-0.085
-684.295	74.929	0.162	0.171
-683.281	-200.000	-0.037	0.220
-682.266	30.475	0.123	-0.106
-681.251	-200.000	0.146	-0.000
-680.237	136.624	0.243	0.320
-679.222	169.732	-0.101	-0.145
-678.208	-23.275	0.359	0.217
-677.193	-149.702	0.207	0.016
-676.178	800.000	0.011	-0.038
-675.164	24.664	-0.317	0.264
-674.149	-14.603	0.330	0.214
-673.135	-200.000	0.054	-0.243
-672.120	-146.802	-0.127	0.011
-671.105	-106.363	-0.335	-0.075
-670.091	-117.319	0.219	0.040
-669.076	491.963	-0.056	0.130
-668.062	-106.540	0.277	-0.062
-667.047	735.406	-0.060	0.160
-666.032	-41.528	-0.081	-0.042
-665.018	-113.081	0.115	-0.023
-664.003	-128.679	0.044	-0.006
-662.989	169.485	0.118	0.170
-661.974	59.500	-0.174	-0.172
-660.959	-51.309	0.181	0.085
-659.945	800.000	-0.112	-0.345
-658.930	-105.175	0.139	0.032
-657.916	800.000	-0.087	-0.244
-656.901	800.000	0.176	-0.516
-655.886	-129.935	0.114	-0.016
-654.872	-200.000	0.039	-0.341
-653.857	74.293	-0.167	-0.176
-652.843	116.017	0.136	0.167
-651.828	-200.000	0.065	-0.498
-650.814	800.000	0.053	0.192
-649.799	-179.623	-0.247	0.005
-648.784	-200.000	0.044	-0.255
-647.770	-60.599	-0.191	-0.082
-646.755	-200.000	-0.001	0.262
-645.741	-200.000	0.004	-0.391
-644.726	-157.459	0.055	0.003
-643.711	780.251	0.060	0.166
-642.697	-16.487	0.084	0.053
-641.682	-183.485	-0.133	-0.002
-640.668	-200.000	0.001	0.101
-639.653	-61.806	0.442	-0.186
-638.638	-200.000	0.032	-0.170
-637.624	46.126	-0.132	0.122
-636.609	800.000	-0.050	0.153
-635.595	-55.311	0.110	-0.050
-634.580	20.036	0.116	0.094
-633.565	-200.000	0.006	0.140
-632.551	-200.000	-0.038	-0.261
-631.536	-25.001	-0.252	0.150
-630.522	-108.037	-0.299	0.065
-629.507	800.000	-0.086	-0.310
-628.492	-31.387	0.170	-0.096
-627.478	76.113	0.063	0.067
-626.463	-107.837	-0.214	-0.047
-625.449	-118.823	0.386	-0.068
-624.434	800.000	-0.056	-0.208
-623.419	616.284	-0.030	0.077
-622.405	-132.081	-0.124	0.016
-621.390	63.888	0.316	-0.319
-620.376	-200.000	0.022	-0.148
-619.361	12.279	0.342	0.264
-618.346	800.000	-0.109	-0.441
-617.332	-81.942	-0.120	-0.039
-616.317	-88.426	0.336	0.101
-615.303	-66.697	-0.293	0.116
-614.288	164.668	-0.054	0.076
-613.273	126.625	-0.021	-0.026
-612.259	-1.686	0.046	-0.032
-611.244	-153.942	0.253	0.017
-610.230	2.905	0.310	-0.225
-609.215	392.677	-0.014	-0.029
-608.201	-21.682	-0.285	-0.174
-607.186	51.328	-0.146	-0.139
-606.171	222.618	0.090	0.146
-605.157	-53.826	-0.241	0.110
-604.142	-120.298	0.239	0.041
-603.128	800.000	-0.095	-0.287
-602.113	800.000	0.016	0.060
-601.098	-61.827	-0.049	0.021
-600.084	72.961	0.046	-0.048
-599.069	217.173	-0.060	0.095
-598.055	-3.118	-0.077	0.054
-597.040	106.204	-0.073	0.087
-596.025	218.507	0.175	0.280
-595.011	269.706	0.128	0.225
-593.996	-43.598	0.300	0.152
-592.982	148.243	0.168	-0.227
-591.967	-53.543	0.327	-0.150
-590.952	-200.000	-0.014	0.138
-589.938	540.722	0.082	0.195
-588.923	-175.820	0.041	0.001
-587.909	308.156	-0.101	0.188
-586.894	-200.000	-0.016	0.186
-585.879	-111.113	0.042	0.009
-584.865	-88.344	-0.132	0.040
-583.850	426.969	-0.098	-0.211
-582.836	800.000	-0.107	-0.297
-581.821	800.000	0.032	-0.119
-580.806	-200.000	0.005	-0.144
-579.792	82.559	0.179	-0.195
-578.777	-200.000	0.036	-0.313
-577.763	-94.316	0.115	0.031
-576.748	537.791	-0.164	0.390
-575.733	-63.706	-0.181	0.074
-574.719	140.039	0.208	-0.275
-573.704	-1.569	0.055	0.039
-572.690	443.529	-0.038	0.083
-571.675	-78.403	-0.133	-0.046
-570.661	800.000	-0.033	-0.142
-569.646	-200.000	-0.011	-0.187
-568.631	-200.000	0.026	0.142
-567.617	-47.107	-0.456	0.222
-566.602	542.205	0.034	0.081
-565.588	40.481	0.160	-0.144
-564.573	800.000	0.079	0.236
-563.558	10.761	0.044	0.033
-562.544	89.013	-0.113	0.126
-561.529	-141.572	-0.126	0.013
-560.515	106.540	0.129	0.153
-559.500	97.492	0.220	0.253
-558.485	92.896	0.174	-0.196
-557.471	270.119	-0.132	0.232
-556.456	-158.711	0.030	-0.002
-555.442	-112.262	-0.411	0.082
-554.427	-200.000	-0.029	0.164
-553.412	800.000	0.047	-0.164
-552.398	-122.283	-0.247	-0.040
-551.383	-38.652	0.148	-0.078
-550.369	-21.855	0.133	0.081
-549.354	331.947	0.094	-0.182
-548.339	800.000	-0.041	-0.120
-547.325	-9.910	-0.130	0.086
-546.310	498.827	0.091	0.210
-545.296	-81.298	-0.209	0.069
-544.281	-200.000	-0.004	-0.072
-543.266	299.495	0.049	0.091
-542.252	62.571	-0.054	-0.054
-541.237	8.761	-0.267	0.201
-540.223	-93.191	0.202	0.056
-539.208	-36.782	0.175	-0.094
-538.193	-54.329	0.325	0.148
-537.179	-143.491	-0.228	-0.022
-536.164	-73.080	-0.249	-0.091
-535.150	-97.952	-0.226	0.058
-534.135	157.843	0.036	-0.049
-533.121	-177.995	0.140	-0.003
-532.106	-58.859	0.174	0.075
-531.091	18.684	0.050	0.040
-530.077	49.441	-0.101	0.095
-529.062	-200.000	0.026	-0.153
-528.048	671.499	0.031	-0.080
-527.033	-76.582	-0.115	-0.040
-526.018	-170.498	-0.169	-0.006
-525.004	-36.095	-0.201	0.109
-523.989	-18.528	-0.298	0.186
-522.975	-49.605	0.125	-0.059
-521.960	-42.716	-0.093	-0.047
-520.945	756.936	0.120	0.324
-519.931	-200.000	-0.007	0.374
-518.916	12.659	-0.353	0.272
-517.902	-171.133	0.283	0.010
-516.887	82.479	0.175	-0.190
-515.872	-200.000	-0.006	-0.179
-514.858	-200.000	-0.043	-0.254
-513.843	19.023	0.235	0.188
-512.829	151.013	-0.186	0.253
-511.814	-21.213	-0.224	0.137
-510.799	800.000	-0.021	0.070
-509.785	-3.483	-0.214	-0.149
-508.770	1.188	0.100	-0.072
-507.756	-77.179	-0.058	-0.020
-506.741	151.218	0.150	0.204
-505.726	467.301	0.060	0.134
-504.712	-108.175	-0.150	-0.032
-503.697	98.312	0.129	-0.148
-502.683	-16.821	0.077	-0.049
-501.668	171.393	-0.123	-0.176
-500.653	800.000	0.064	-0.188
-499.639	-35.145	0.140	0.076
-498.624	-2.212	-0.047	0.033
-497.610	-4.052	0.062	-0.043
-496.595	-126.329	0.218	-0.032
-495.581	547.561	-0.099	0.236
-494.566	-100.346	-0.321	0.079
-493.551	800.000	-0.062	-0.251
-492.537	-200.000	0.027	-0.331
-491.522	734.987	0.088	0.235
-490.508	433.597	0.148	0.321
-489.493	-14.284	0.096	0.062
-488.478	-35.287	0.204	0.111
-487.464	800.000	0.072	0.307
-486.449	-200.000	-0.024	-0.153
-485.435	-132.955	0.548	0.070
-484.420	800.000	0.058	0.194
-483.405	681.412	-0.083	0.215
-482.391	504.478	-0.098	0.226
-481.376	301.888	0.132	-0.244
-480.362	-21.439	0.193	-0.118
-479.347	-200.000	0.072	0.469
-478.332	-12.674	0.159	-0.104
-477.318	-200.000	-0.029	-0.197
-476.303	-200.000	0.016	0.257
-475.289	98.288	-0.152	-0.175
-474.274	-82.368	0.198	-0.064
-473.259	296.929	-0.119	-0.217
-472.245	464.277	0.023	-0.051
-471.230	-200.000	0.014	0.089
-470.216	-200.000	0.036	0.201
-469.201	-200.000	-0.005	0.231
-468.186	143.476	-0.136	-0.181
-467.172	-58.977	-0.279	0.120
-466.157	38.158	-0.160	0.142
-465.143	-165.778	0.389	-0.017
-464.128	6.464	0.267	-0.198
-463.113	69.221	-0.275	-0.282
-462.099	17.665	0.064	0.051
-461.084	-68.439	0.037	-0.014
-460.070	213.651	-0.150	-0.236
-459.055	-150.541	-0.526	0.040
-458.040	-165.478	0.261	0.011
-457.026	-48.479	0.125	0.060
-456.011	-200.000	-0.016	0.163
-454.997	66.590	-0.063	-0.064
-453.982	416.569	-0.059	0.126
-452.968	-60.785	0.210	-0.089
-451.953	-200.000	-0.011	-0.387
-450.938	201.688	-0.110	0.168
-449.924	171.767	0.309	-0.442
-448.909	800.000	-0.090	-0.265
-447.895	-112.946	-0.433	0.085
-446.880	173.889	0.120	0.173
-445.865	-32.484	-0.158	0.088
-444.851	-4.530	0.043	-0.029
-443.836	85.588	-0.213	-0.233
-442.822	-118.790	-0.288	-0.051
-441.807	800.000	-0.021	0.082
-440.792	800.000	-0.039	0.152
-439.778	-200.000	0.038	-0.354
-438.763	-12.003	0.151	0.099
-437.749	-61.633	-0.476	-0.199
-436.734	-23.624	0.145	-0.087
-435.719	-39.035	0.087	-0.046
-434.705	14.766	0.230	0.179
-433.690	-140.185	0.212	-0.022
-432.676	-126.431	-0.031	0.005
-431.661	227.875	0.086	0.139
-430.646	-51.400	0.122	-0.057
-429.632	-200.000	0.075	0.340
-428.617	-138.075	-0.094	0.010
-427.603	92.141	0.053	0.060
-426.588	460.701	-0.111	-0.246
-425.573	-200.000	0.064	0.345
-424.559	-200.000	0.007	-0.115
-423.544	270.073	-0.235	0.411
-422.530	-76.541	-0.182	0.063
-421.515	-104.652	-0.178	0.041
-420.500	57.599	-0.121	-0.118
-419.486	18.022	0.177	-0.140
-418.471	148.844	-0.173	0.232
-417.457	130.793	0.044	0.056
-416.442	115.776	-0.046	-0.056
-415.428	-200.000	0.005	-0.026
-414.413	-200.000	-0.032	-0.332
-413.398	800.000	-0.035	0.134
-412.384	702.851	0.126	0.329
-411.369	800.000	-0.022	0.086
-410.355	-200.000	0.019	0.138
-409.340	800.000	0.045	0.168
-408.325	61.303	-0.120	-0.118
-407.311	800.000	-0.124	-0.454
-406.296	-200.000	0.041	0.218
-405.282	334.050	-0.076	-0.146
-404.267	-53.524	0.025	-0.011
-403.252	516.073	0.110	0.255
-402.238	-61.868	-0.026	-0.011
-401.223	800.000	0.049	-0.149
-400.209	800.000	0.026	0.098
-399.194	-119.757	0.154	-0.026
-398.179	-18.672	-0.165	-0.102
-397.165	-47.420	0.325	0.157
-396.150	202.074	-0.121	0.185
-395.136	-61.259	-0.147	0.062
-394.121	159.581	0.169	-0.234
-393.106	-200.000	-0.050	0.243
-392.092	-108.628	0.201	-0.043
-391.077	138.600	-0.141	0.184
-390.063	-131.317	0.287	-0.038
-389.048	105.856	-0.265	-0.312
-388.033	-125.038	-0.166	-0.025
-387.019	-98.376	-0.312	0.079
-386.004	641.156	-0.163	0.412
-384.990	-200.000	0.046	0.331
-383.975	95.752	-0.153	-0.174
-382.960	-20.340	0.299	0.183
-381.946	212.560	0.079	0.123
-380.931	-121.174	-0.129	0.021
-379.917	309.643	0.088	0.163
-378.902	800.000	-0.030	0.122
-377.888	-200.000	-0.030	0.196
-376.873	800.000	0.053	0.159
-375.858	-93.924	-0.234	0.064
-374.844	14.622	-0.121	-0.094
-373.829	112.517	0.264	-0.317
-372.815	-57.016	0.269	0.118
-371.800	-123.421	-0.119	-0.019
-370.785	-78.399	-0.203	0.069
-369.771	238.547	-0.042	0.070
-368.756	3.418	-0.100	-0.072
-367.742	583.318	-0.110	-0.268
-366.727	-200.000	0.018	0.084
-365.712	-89.975	0.295	-0.085
-364.698	68.233	0.039	-0.040
-363.683	-200.000	-0.039	-0.199
-362.669	800.000	-0.084	-0.275
-361.654	-113.405	0.182	0.035
-360.639	412.510	-0.103	0.218
-359.625	-124.861	-0.399	-0.061
-358.610	-117.576	-0.140	-0.025
-357.596	-200.000	0.042	-0.225
-356.581	-156.701	-0.088	0.005
-355.566	282.056	0.041	-0.073
-354.552	800.000	0.098	-0.328
-353.537	-76.397	0.124	-0.043
-352.523	12.529	0.093	0.071
-351.508	252.725	-0.223	0.377
-350.493	149.383	0.107	-0.144
-349.479	-94.669	0.210	0.057
-348.464	691.947	-0.019	-0.050
-347.450	416.067	0.055	0.116
-346.435	-200.000	0.195	0.001
-345.420	-146.794	-0.229	0.020
-344.406	12.310	-0.206	-0.158
-343.391	800.000	0.022	-0.086
-342.377	124.609	-0.211	-0.264
-341.362	-200.000	0.046	-0.271
-340.348	-127.876	0.195	-0.028
-339.333	-76.398	0.400	-0.139
-338.318	800.000	0.122	0.452
-337.304	-200.000	-0.030	0.166
-336.289	9.758	-0.082	0.062
-335.275	-200.000	-0.017	0.102
-334.260	800.000	-0.076	-0.274
-333.245	-62.913	-0.269	0.110
-332.231	-200.000	0.021	-0.155
-331.216	-157.246	0.469	-0.028
-330.202	106.391	0.161	-0.190
-329.187	-170.165	0.100	-0.004
-328.172	800.000	0.157	-0.439
-327.158	-200.000	-0.000	-0.141
-326.143	-52.345	0.149	-0.068
-325.129	-124.740	0.064	-0.010
-324.114	476.255	0.065	-0.146
-323.099	-200.000	-0.055	0.252
-322.085	800.000	-0.078	0.246
-321.070	201.935	0.005	-0.007
-320.056	-95.977	0.171	0.045
-319.041	-103.759	-0.211	0.049
-318.026	342.335	-0.026	-0.050
-317.012	-126.365	-0.049	-0.007
-315.997	60.443	-0.217	-0.213
-314.983	800.000	-0.087	0.239
-313.968	-168.393	0.088	-0.003
-312.953	-200.000	-0.039	0.170
-311.939	-200.000	-0.031	-0.498
-310.924	-82.493	-0.190	-0.061
-309.910	-200.000	-0.008	-0.060
-308.895	98.917	0.038	-0.043
-307.880	-31.511	0.033	0.018
-306.866	660.229	0.040	-0.102
-305.851	-90.222	-0.382	0.110
-304.837	-100.421	-0.237	0.058
-303.822	105.467	-0.109	0.128
-302.807	44.976	0.047	0.043
-301.793	46.517	-0.267	-0.245
-300.778	596.617	0.112	-0.274
-299.764	800.000	-0.076	-0.249
-298.749	-200.000	0.059	-0.354
-297.735	-3.492	0.383	0.264
-296.720	-200.000	-0.047	-0.300
-295.705	-34.589	0.081	0.044
-294.691	64.776	-0.247	-0.247
-293.676	14.779	0.287	0.222
-292.662	-46.570	0.177	0.086
-291.647	43.633	0.247	-0.223
-290.632	-155.144	-0.219	-0.014
-289.618	-200.000	0.000	-0.158
-288.603	212.148	-0.105	0.164
-287.589	-200.000	-0.026	0.140
-286.574	-103.556	-0.252	0.059
-285.559	-62.226	0.237	-0.098
-284.545	232.317	-0.123	-0.200
-283.530	-156.752	-0.162	-0.010
-282.516	800.000	0.079	0.265
-281.501	14.141	-0.079	-0.061
-280.486	800.000	0.194	-0.562
-279.472	-68.256	-0.172	-0.066
-278.457	87.610	-0.232	-0.254
-277.443	-131.500	0.242	0.032
-276.428	800.000	0.125	0.366
-275.413	57.739	-0.191	0.185
-274.399	-200.000	-0.024	-0.223
-273.384	493.659	0.088	0.200
-272.370	800.000	0.081	-0.307
-271.355	-28.925	-0.223	0.127
-270.340	-112.288	-0.067	-0.013
-269.326	63.359	-0.085	0.084
-268.311	-97.356	-0.125	0.032
-267.297	12.451	0.067	-0.051
-266.282	223.730	0.107	-0.170
-265.267	31.512	-0.171	-0.145
-264.253	-6.436	0.442	-0.298
-263.238	-44.258	-0.108	-0.054
-262.224	2.355	-0.111	0.079
-261.209	-200.000	0.011	0.107
-260.195	-104.870	0.453	0.103
-259.180	-44.604	0.292	-0.144
-258.165	-200.000	-0.000	-0.077
-257.151	-52.013	0.187	0.086
-256.136	-110.748	0.160	-0.033
-255.122	-55.215	-0.372	-0.165
-254.107	117.916	0.075	-0.091
-253.092	-93.242	0.128	-0.035
-252.078	-40.511	-0.364	0.187
-251.063	-144.162	0.171	0.016
-250.049	-34.063	-0.172	0.093
-249.034	-200.000	-0.004	-0.029
-248.019	-200.000	-0.001	-0.193
-247.005	-67.727	-0.121	-0.047
-245.990	329.745	0.095	-0.180
-244.976	-200.000	0.011	-0.220
-243.961	-37.722	0.230	-0.121
-242.946	-63.298	-0.155	-0.063
-241.932	608.910	-0.055	0.136
-240.917	35.459	-0.140	-0.122
-239.903	441.099	0.058	-0.126
-238.888	48.766	0.182	0.168
-237.873	73.890	-0.015	0.015
-236.859	538.279	0.079	0.187
-235.844	294.303	-0.139	-0.251
-234.830	323.406	-0.046	0.086
-233.815	-109.081	-0.291	-0.061
-232.800	38.246	0.105	-0.093
-231.786	385.063	-0.076	-0.156
-230.771	-65.197	-0.165	-0.066
-229.757	-83.743	-0.296	0.093
-228.742	-95.251	0.035	0.009
-227.727	800.000	-0.066	-0.188
-226.713	-200.000	0.021	0.225
-225.698	-16.289	0.052	0.033
-224.684	31.993	0.085	-0.073
-223.669	432.668	0.235	-0.504
-222.655	-200.000	0.012	0.118
-221.640	-87.045	-0.110	0.033
-220.625	-69.807	-0.074	0.028
-219.611	-200.000	0.002	0.144
-218.596	-85.395	-0.201	-0.062
-217.582	127.086	0.068	0.086
-216.567	474.167	0.067	0.149
-215.552	-112.929	-0.123	-0.024
-214.538	-174.790	0.376	-0.010
-213.523	111.801	-0.120	0.143
-212.509	-110.534	-0.121	-0.025
-211.494	-129.159	0.400	-0.055
-210.479	42.949	0.153	-0.138
-209.465	-53.074	0.140	0.063
-208.450	-62.830	0.303	-0.124
-207.436	117.207	0.181	0.220
-206.421	-69.267	0.124	0.047
-205.406	-195.975	-0.183	-0.001
-204.392	2.655	0.219	0.157
-203.377	-66.578	-0.123	0.048
-202.363	282.488	0.175	0.309
-201.348	196.956	0.111	-0.168
-200.333	221.941	-0.168	-0.266
-199.319	800.000	-0.040	0.160
-198.304	42.390	0.093	-0.083
-197.290	52.167	0.034	-0.032
-196.275	66.740	-0.057	0.057
-195.260	-76.211	0.225	0.078
-194.246	800.000	0.004	-0.011
-193.231	-56.289	-0.140	0.061
-192.217	780.101	0.048	-0.131
-191.202	-200.000	0.006	0.045
-190.187	-87.467	0.460	-0.137
-189.173	-43.360	-0.379	0.189
-188.158	2.557	0.106	-0.076
-187.144	40.975	0.245	0.218
-186.129	265.897	0.053	-0.092
-185.114	-152.562	-0.149	-0.010
-184.100	7.058	0.508	0.373
-183.085	-84.895	0.254	0.079
-182.071	325.317	-0.335	-0.631
-181.056	-109.584	-0.304	0.063
-180.042	800.000	0.124	0.438
-179.027	-200.000	0.038	0.193
-178.012	-71.469	-0.179	-0.066
-176.998	-200.000	-0.040	0.204
-175.983	-83.334	-0.271	-0.086
-174.969	-54.605	-0.113	0.050
-173.954	129.478	-0.298	0.375
-172.939	-200.000	-0.003	0.061
-171.925	-154.646	0.196	-0.013
-170.910	86.654	-0.231	0.251
-169.896	-2.437	-0.400	0.277
-168.881	462.306	-0.046	-0.101
-167.866	-200.000	-0.064	0.595
-166.852	499.728	-0.098	-0.222
-165.837	740.512	-0.062	-0.164
-164.823	171.632	0.343	0.485
-163.808	800.000	-0.075	0.207
-162.793	-200.000	-0.035	-0.283
-161.779	707.124	-0.094	-0.244
-160.764	-86.078	0.343	0.104
-159.750	-109.200	-0.278	-0.058
-158.735	22.656	-0.105	0.084
-157.720	230.513	0.020	-0.032
-156.706	800.000	0.089	-0.376
-155.691	-194.524	-0.256	-0.002
-154.677	95.916	0.279	0.313
-153.662	445.977	-0.056	0.122
-152.647	285.523	0.082	-0.145
-151.633	11.041	0.041	-0.031
-150.618	129.687	0.053	-0.067
-149.604	800.000	0.067	0.214
-148.589	-200.000	0.010	0.164
-147.574	-38.158	-0.234	-0.122
-146.560	50.142	-0.300	0.279
-145.545	70.987	0.233	0.237
-144.531	-88.181	0.407	0.120
-143.516	800.000	-0.041	0.153
-142.502	-200.000	0.069	-0.385
-141.487	74.312	0.189	0.196
-140.472	132.640	-0.051	-0.065
-139.458	3.877	-0.110	-0.079
-138.443	-34.209	-0.048	-0.026
-137.429	-42.536	-0.201	0.101
-136.414	800.000	0.090	0.255
-135.399	30.135	-0.334	-0.280
-134.385	-200.000	-0.001	-0.228
-133.370	-200.000	-0.054	-0.240
-132.356	-56.958	-0.204	0.088
-131.341	-21.574	0.202	0.121
-130.326	800.000	-0.030	-0.127
-129.312	-33.302	0.180	0.098
-128.297	231.790	0.223	-0.361
-127.283	387.555	0.076	-0.155
-126.268	-132.433	-0.281	-0.036
-125.253	152.905	-0.202	0.272
-124.239	57.613	0.084	0.081
-123.224	58.504	-0.225	-0.217
-122.210	-101.103	0.104	0.025
-121.195	-3.021	0.218	0.150
