DTS Sentinel unit serial number:	SN413079Multiplexer serial number:	ORYXHardware model number:	OX4-SRSoftware version number:	ORYX F/W v4.00 Oryx Data Collector v3.7.2.0data status	okinstallation	princeton_trtdifferential loss correction	single-endedforward channel	channel 1reverse channel	N/Adate	2019/09/12time	12:56:11forward acquisition time	60.00reverse acquisition time	0.00gamma	496.2192k internal	0.2291k external	0.2291temperature offset calibration	1.0039default loss term (dB/km)	0.3790temperature slope calibration	1.0000multiplexer offset coefficient	1.0000multiplexer slope coefficient	1.0000fibre end	0.00T internal ref (°C)	40.81T ext. ref 1 (°C)	1.97T ext. ref 2 (°C)	37.08length (m)	temperature (°C)	Stokes	anti-Stokes-747.200	-194.774	0.119	-0.001
-746.185	125.548	-0.084	-0.109
-745.171	-200.000	-0.000	0.087
-744.156	-200.000	0.038	0.233
-743.142	98.460	-0.139	0.164
-742.127	24.046	-0.042	0.036
-741.112	-200.000	0.116	0.562
-740.098	174.045	0.177	0.262
-739.083	242.918	0.161	0.277
-738.069	800.000	-0.114	0.403
-737.054	80.512	0.095	0.104
-736.039	219.811	-0.125	-0.205
-735.025	407.579	0.170	0.368
-734.010	-142.154	-0.225	-0.023
-732.996	800.000	-0.087	-0.294
-731.981	-151.939	0.153	0.011
-730.966	-115.942	-0.208	-0.040
-729.952	-55.595	-0.265	-0.122
-728.937	191.409	-0.337	-0.519
-727.923	-85.741	0.182	0.058
-726.908	-46.815	-0.509	0.255
-725.894	-200.000	-0.012	-0.187
-724.879	409.200	0.215	0.467
-723.864	800.000	-0.041	0.180
-722.850	625.509	-0.184	-0.475
-721.835	64.223	-0.058	0.060
-720.821	250.640	-0.020	-0.035
-719.806	-109.270	-0.461	-0.100
-718.791	55.308	-0.212	-0.210
-717.777	-200.000	0.035	-0.184
-716.762	45.866	0.106	0.100
-715.748	3.129	-0.322	-0.239
-714.733	-9.563	-0.209	-0.143
-713.718	66.607	-0.121	-0.126
-712.704	-14.075	0.285	0.188
-711.689	456.410	-0.062	-0.140
-710.675	-112.332	-0.033	-0.007
-709.660	800.000	0.079	-0.246
-708.645	800.000	-0.033	-0.132
-707.631	75.374	-0.090	-0.097
-706.616	-65.316	0.100	0.041
-705.602	168.098	0.080	-0.117
-704.587	-193.574	-0.210	-0.002
-703.572	199.767	0.023	-0.036
-702.558	517.734	-0.100	-0.239
-701.543	-200.000	0.033	-0.230
-700.529	-76.414	0.054	0.019
-699.514	39.102	-0.165	-0.151
-698.499	800.000	-0.085	-0.367
-697.485	133.907	0.057	-0.076
-696.470	-13.530	-0.150	0.099
-695.456	-142.930	-0.331	-0.033
-694.441	772.115	-0.112	-0.311
-693.426	-161.932	-0.158	0.008
-692.412	-200.000	0.016	0.140
-691.397	800.000	0.076	0.330
-690.383	64.244	-0.071	-0.073
-689.368	-200.000	0.004	-0.356
-688.354	-156.464	-0.248	-0.016
-687.339	-102.476	-0.199	-0.049
-686.324	112.611	0.138	0.171
-685.310	-84.227	0.277	-0.090
-684.295	38.844	-0.367	0.335
-683.281	-27.003	0.168	-0.100
-682.266	128.637	-0.117	0.152
-681.251	-45.506	0.056	0.028
-680.237	800.000	0.078	-0.262
-679.222	-200.000	0.074	0.395
-678.208	-66.087	-0.018	-0.007
-677.193	428.477	-0.098	0.215
-676.178	-92.517	-0.344	-0.099
-675.164	90.526	0.252	-0.289
-674.149	342.254	0.173	0.347
-673.135	601.630	0.069	0.174
-672.120	-115.698	0.387	-0.074
-671.105	636.253	0.036	0.094
-670.091	85.467	0.074	-0.083
-669.076	800.000	0.203	-0.596
-668.062	53.213	0.180	-0.176
-667.047	-3.829	0.232	0.164
-666.032	28.547	-0.418	-0.361
-665.018	-142.300	-0.510	0.051
-664.003	42.118	0.198	0.183
-662.989	-142.508	-0.439	-0.044
-661.974	-200.000	0.005	0.124
-660.959	113.722	-0.107	-0.133
-659.945	478.358	0.185	0.427
-658.930	81.264	0.115	0.127
-657.916	-113.530	0.110	-0.022
-656.901	-102.893	-0.413	0.100
-655.886	-66.107	0.239	-0.097
-654.872	321.958	-0.234	-0.455
-653.857	-200.000	0.032	0.268
-652.843	386.568	0.063	-0.134
-651.828	652.318	-0.128	-0.335
-650.814	-114.143	0.191	-0.038
-649.799	30.389	-0.167	0.145
-648.784	180.223	0.103	0.155
-647.770	176.988	-0.131	0.194
-646.755	305.094	-0.032	0.061
-645.741	-42.184	-0.025	-0.013
-644.726	-100.247	-0.312	-0.079
-643.711	800.000	-0.053	0.225
-642.697	-151.778	-0.018	-0.001
-641.682	-95.826	-0.382	0.104
-640.668	6.658	-0.201	-0.153
-639.653	-115.979	-0.200	0.038
-638.638	-200.000	-0.003	0.139
-637.624	425.275	0.038	-0.083
-636.609	-200.000	0.016	-0.150
-635.595	-158.315	-0.127	0.008
-634.580	-98.219	-0.172	0.045
-633.565	-85.422	0.274	0.087
-632.551	-173.634	0.224	0.007
-631.536	298.100	-0.106	-0.198
-630.522	-153.294	0.255	0.018
-629.507	-45.031	-0.196	-0.099
-628.492	-109.332	-0.264	0.057
-627.478	251.100	0.066	-0.115
-626.463	800.000	0.076	-0.224
-625.449	-119.532	-0.289	0.051
-624.434	-99.018	0.127	0.033
-623.419	-131.340	-0.281	-0.038
-622.405	800.000	0.014	-0.052
-621.390	148.193	-0.144	0.198
-620.376	328.931	0.008	-0.016
-619.361	-75.173	-0.105	-0.038
-618.346	677.941	0.091	0.240
-617.332	111.347	0.112	0.137
-616.317	-126.769	0.281	-0.042
-615.303	161.085	0.059	-0.084
-614.288	-138.522	0.488	0.055
-613.273	-200.000	0.022	0.136
-612.259	19.817	-0.134	-0.110
-611.244	63.701	-0.296	-0.303
-610.230	-200.000	0.024	-0.126
-609.215	-200.000	-0.013	0.465
-608.201	347.919	-0.109	-0.219
-607.186	0.914	0.260	0.190
-606.171	49.634	-0.303	0.290
-605.157	692.755	-0.047	-0.126
-604.142	28.255	-0.138	-0.119
-603.128	291.515	0.147	-0.273
-602.113	260.873	-0.037	0.065
-601.098	800.000	0.078	-0.311
-600.084	-23.776	0.208	-0.127
-599.069	800.000	0.057	-0.161
-598.055	-200.000	-0.016	-0.091
-597.040	-28.618	-0.162	-0.095
-596.025	66.667	0.148	-0.153
-595.011	-200.000	-0.004	-0.511
-593.996	-107.452	0.272	0.061
-592.982	800.000	-0.080	-0.244
-591.967	-200.000	0.036	-0.321
-590.952	-36.088	-0.228	-0.126
-589.938	556.452	0.082	-0.200
-588.923	800.000	0.091	-0.302
-587.909	-31.801	0.281	-0.161
-586.894	-74.491	0.210	0.077
-585.879	-165.819	-0.091	-0.004
-584.865	-151.232	-0.194	-0.015
-583.850	-73.232	-0.185	-0.069
-582.836	-82.036	0.207	0.069
-581.821	637.397	0.088	-0.228
-580.806	143.524	-0.219	0.296
-579.792	-135.636	0.193	0.023
-578.777	-117.609	0.123	-0.022
-577.763	202.101	-0.070	-0.110
-576.748	-43.636	-0.158	0.081
-575.733	-200.000	-0.055	-0.273
-574.719	800.000	0.036	-0.140
-573.704	214.405	-0.275	-0.443
-572.690	-33.941	-0.035	-0.020
-571.675	153.176	0.137	0.191
-570.661	-141.903	-0.196	-0.020
-569.646	-119.838	-0.126	0.022
-568.631	-99.764	0.178	-0.045
-567.617	184.020	-0.078	0.117
-566.602	-142.732	-0.122	-0.012
-565.588	199.549	-0.139	0.217
-564.573	-12.432	-0.119	-0.079
-563.558	-121.631	0.125	-0.021
-562.544	-200.000	0.027	-0.203
-561.529	800.000	-0.127	-0.373
-560.515	490.590	-0.136	-0.317
-559.500	-114.831	-0.126	0.025
-558.485	12.125	0.037	-0.029
-557.471	92.580	0.177	-0.202
-556.456	-62.177	-0.118	-0.050
-555.442	-109.518	-0.536	-0.115
-554.427	247.012	0.032	-0.056
-553.412	121.667	-0.105	0.134
-552.398	-71.549	-0.210	-0.080
-551.383	87.723	0.201	-0.227
-550.369	-200.000	0.017	-0.094
-549.354	3.813	0.457	0.339
-548.339	658.904	0.081	0.212
-547.325	-2.380	0.077	-0.055
-546.310	800.000	0.070	0.225
-545.296	623.875	-0.100	-0.257
-544.281	-87.750	-0.323	-0.099
-543.266	800.000	0.049	-0.157
-542.252	-124.006	-0.147	0.024
-541.237	800.000	0.009	0.027
-540.223	-123.875	0.298	0.048
-539.208	-200.000	0.006	0.055
-538.193	-119.002	-0.315	-0.056
-537.179	-200.000	-0.019	0.130
-536.164	-190.025	-0.332	-0.004
-535.150	35.651	0.151	0.135
-534.135	-62.833	-0.150	0.063
-533.121	-62.431	-0.086	0.036
-532.106	383.887	0.141	-0.294
-531.091	-200.000	0.045	-0.216
-530.077	-134.833	-0.307	0.038
-529.062	-200.000	-0.012	0.115
-528.048	462.935	0.053	0.120
-527.033	16.270	0.217	-0.174
-526.018	-11.036	0.129	0.086
-525.004	421.854	0.065	-0.141
-523.989	-200.000	0.005	0.240
-522.975	-10.943	-0.118	0.079
-521.960	-54.978	-0.104	0.047
-520.945	97.259	-0.161	-0.187
-519.931	800.000	0.089	-0.285
-518.916	-83.365	-0.054	-0.018
-517.902	190.637	0.085	-0.130
-516.887	-200.000	-0.024	-0.237
-515.872	-117.607	0.091	0.017
-514.858	800.000	-0.070	0.291
-513.843	-200.000	0.018	0.129
-512.829	34.592	0.070	-0.062
-511.814	800.000	0.024	0.100
-510.799	170.947	-0.106	-0.154
-509.785	32.037	0.071	0.062
-508.770	800.000	0.025	0.102
-507.756	-200.000	-0.081	0.481
-506.741	14.042	-0.054	-0.043
-505.726	-200.000	-0.004	-0.257
-504.712	-200.000	-0.014	-0.140
-503.697	520.073	0.053	0.125
-502.683	-23.386	0.336	0.204
-501.668	75.757	-0.136	0.146
-500.653	521.574	-0.120	0.285
-499.639	-176.459	-0.286	0.008
-498.624	800.000	0.087	0.314
-497.610	-200.000	0.009	0.133
-496.595	-19.155	-0.189	0.119
-495.581	-126.530	-0.134	-0.020
-494.566	-200.000	0.004	-0.114
-493.551	800.000	0.045	-0.183
-492.537	-29.808	-0.170	-0.098
-491.522	47.141	0.262	-0.247
-490.508	-161.819	0.233	-0.012
-489.493	32.589	0.210	0.184
-488.478	471.514	0.046	0.106
-487.464	-152.998	0.429	0.031
-486.449	-200.000	0.067	0.311
-485.435	-200.000	-0.011	0.247
-484.420	556.736	-0.083	0.203
-483.405	76.177	-0.132	-0.142
-482.391	432.613	0.104	0.229
-481.376	-51.799	-0.268	0.126
-480.362	640.301	-0.050	-0.128
-479.347	-200.000	-0.080	0.365
-478.332	-22.795	-0.054	0.033
-477.318	-6.222	-0.080	0.055
-476.303	-16.307	0.174	0.112
-475.289	13.089	-0.247	-0.194
-474.274	-108.341	-0.275	-0.060
-473.259	-200.000	0.082	-0.416
-472.245	650.804	-0.067	-0.174
-471.230	-200.000	0.032	-0.164
-470.216	-100.226	-0.124	0.031
-469.201	277.381	0.070	0.127
-468.186	-80.396	0.381	-0.129
-467.172	-157.262	-0.081	-0.005
-466.157	-100.294	-0.298	-0.075
-465.143	-200.000	0.017	0.223
-464.128	75.148	-0.074	-0.079
-463.113	80.893	0.281	-0.307
-462.099	-200.000	-0.006	0.096
-461.084	126.763	-0.126	0.162
-460.070	-176.569	-0.017	0.000
-459.055	-119.313	0.145	0.026
-458.040	800.000	-0.042	0.145
-457.026	-31.528	-0.253	0.144
-456.011	800.000	0.034	-0.141
-454.997	-113.056	-0.226	0.045
-453.982	800.000	-0.013	-0.048
-452.968	-44.480	-0.134	0.068
-451.953	82.115	0.161	-0.177
-450.938	-2.975	0.329	0.233
-449.924	-118.970	-0.307	0.055
-448.909	-147.801	0.047	0.004
-447.895	-26.794	-0.163	0.096
-446.880	-200.000	0.014	-0.167
-445.865	117.937	-0.112	-0.140
-444.851	-86.248	-0.231	0.072
-443.836	496.176	-0.115	-0.268
-442.822	-141.363	0.242	0.025
-441.807	800.000	-0.069	0.223
-440.792	747.696	0.075	0.205
-439.778	31.924	-0.241	-0.210
-438.763	-34.170	-0.298	0.165
-437.749	450.849	0.037	0.082
-436.734	-89.667	-0.212	-0.063
-435.719	-200.000	0.013	0.347
-434.705	68.294	0.013	-0.013
-433.690	434.639	-0.155	-0.341
-432.676	-30.020	-0.226	0.130
-431.661	66.857	-0.123	0.127
-430.646	-200.000	0.028	0.202
-429.632	-200.000	-0.004	-0.535
-428.617	-118.773	0.283	-0.050
-427.603	195.672	-0.128	-0.197
-426.588	14.314	-0.080	-0.063
-425.573	-51.234	0.200	0.095
-424.559	25.841	-0.244	-0.205
-423.544	291.309	-0.138	-0.254
-422.530	-162.183	0.415	-0.021
-421.515	365.394	0.052	0.106
-420.500	-64.465	-0.078	-0.032
-419.486	94.653	-0.205	-0.235
-418.471	-62.317	0.254	-0.107
-417.457	-30.976	-0.118	-0.067
-416.442	-26.107	0.143	-0.085
-415.428	-92.750	0.157	-0.044
-414.413	-108.515	0.353	0.077
-413.398	-136.338	-0.089	-0.011
-412.384	68.171	0.146	-0.151
-411.369	800.000	-0.041	-0.123
-410.355	-173.624	-0.061	-0.002
-409.340	-107.832	-0.218	-0.048
-408.325	-112.045	-0.252	0.051
-407.311	115.404	-0.090	0.112
-406.296	-200.000	-0.020	-0.115
-405.282	-200.000	0.011	-0.118
-404.267	-200.000	-0.030	-0.192
-403.252	800.000	-0.075	0.280
-402.238	-47.429	0.131	-0.065
-401.223	-200.000	-0.029	-0.223
-400.209	-117.985	0.337	-0.061
-399.194	-200.000	0.022	0.325
-398.179	-133.945	0.331	-0.041
-397.165	592.318	-0.026	-0.066
-396.150	200.288	-0.108	-0.167
-395.136	-200.000	-0.004	-0.034
-394.121	-13.694	-0.107	-0.070
-393.106	715.025	-0.009	0.025
-392.092	-0.907	0.203	-0.145
-391.077	-54.129	-0.115	0.053
-390.063	-152.217	0.373	0.027
-389.048	-49.529	0.228	0.110
-388.033	-200.000	-0.056	0.322
-387.019	299.861	-0.067	0.124
-386.004	-71.311	-0.179	0.068
-384.990	-71.926	-0.098	-0.037
-383.975	225.145	0.064	0.105
-382.960	38.470	-0.069	0.062
-381.946	-27.682	0.121	0.071
-380.931	-90.539	0.157	-0.046
-379.917	635.065	0.160	-0.411
-378.902	629.126	0.134	0.342
-377.888	-69.903	-0.113	-0.043
-376.873	-200.000	0.038	-0.205
-375.858	-42.996	0.103	-0.052
-374.844	-86.885	0.110	0.034
-373.829	-131.632	0.082	-0.011
-372.815	140.395	0.135	0.180
-371.800	800.000	-0.040	-0.151
-370.785	-5.271	0.140	0.097
-369.771	800.000	-0.077	0.313
-368.756	442.709	0.162	0.357
-367.742	-200.000	-0.019	0.298
-366.727	-57.292	-0.131	0.058
-365.712	8.510	0.134	-0.101
-364.698	800.000	0.060	0.170
-363.683	-162.961	-0.305	-0.015
-362.669	299.226	0.116	0.215
-361.654	7.724	-0.122	0.092
-360.639	-200.000	-0.019	0.119
-359.625	24.555	0.126	-0.105
-358.610	317.965	0.166	0.317
-357.596	-200.000	-0.067	0.548
-356.581	53.111	-0.234	-0.226
-355.566	800.000	0.079	0.306
-354.552	-37.139	0.291	0.157
-353.537	800.000	0.132	0.408
-352.523	-63.089	0.189	0.079
-351.508	-74.296	-0.160	0.058
-350.493	-200.000	0.110	0.000
-349.479	315.676	0.175	0.333
-348.464	-200.000	0.002	0.036
-347.450	169.068	-0.158	0.228
-346.435	-74.936	-0.299	0.108
-345.420	-200.000	0.005	-0.313
-344.406	52.042	0.114	-0.110
-343.391	46.077	0.171	-0.159
-342.377	535.756	-0.063	-0.152
-341.362	-96.546	0.276	-0.073
-340.348	-111.816	-0.210	0.043
-339.333	-12.760	0.202	0.133
-338.318	-146.211	-0.050	0.004
-337.304	-133.369	0.138	0.017
-336.289	-174.409	-0.026	0.001
-335.275	224.534	-0.037	-0.061
-334.260	-200.000	0.037	-0.294
-333.245	-200.000	-0.029	0.318
-332.231	-200.000	0.014	-0.197
-331.216	55.773	0.113	-0.110
-330.202	-4.963	0.233	0.162
-329.187	24.897	0.296	0.247
-328.172	31.573	0.456	0.395
-327.158	73.379	-0.326	-0.344
-326.143	459.043	-0.048	-0.107
-325.129	800.000	-0.026	0.091
-324.114	-200.000	0.021	0.387
-323.099	186.533	-0.039	-0.059
-322.085	15.750	-0.202	0.160
-321.070	-55.049	-0.280	0.127
-320.056	-11.304	-0.070	-0.046
-319.041	800.000	0.124	0.427
-318.026	-200.000	0.007	0.140
-317.012	-87.076	-0.102	-0.031
-315.997	-118.393	0.144	0.026
-314.983	627.208	-0.127	-0.323
-313.968	-200.000	0.001	0.110
-312.953	800.000	-0.034	0.107
-311.939	-68.576	0.345	0.134
-310.924	245.888	0.022	-0.037
-309.910	-200.000	-0.025	0.270
-308.895	95.442	0.130	0.149
-307.880	-22.918	0.149	0.091
-306.866	-3.755	-0.131	-0.092
-305.851	-93.118	0.364	-0.102
-304.837	800.000	-0.103	0.301
-303.822	-109.114	0.146	-0.031
-302.807	314.383	0.114	0.216
-301.793	800.000	-0.052	0.207
-300.778	800.000	-0.118	-0.332
-299.764	5.440	0.218	0.162
-298.749	199.841	0.195	-0.302
-297.735	83.818	-0.215	0.236
-296.720	-86.316	-0.192	0.059
-295.705	11.749	0.133	-0.103
-294.691	261.444	0.126	0.220
-293.676	-200.000	-0.030	0.337
-292.662	648.462	0.059	-0.151
-291.647	129.659	-0.090	-0.116
-290.632	-116.680	0.301	-0.056
-289.618	-200.000	0.011	-0.073
-288.603	-200.000	-0.080	0.370
-287.589	-89.299	-0.265	0.078
-286.574	-200.000	-0.035	0.179
-285.559	-200.000	0.009	-0.526
-284.545	-18.168	0.068	-0.043
-283.530	122.093	-0.130	-0.163
-282.516	800.000	0.056	-0.194
-281.501	194.377	0.203	0.310
-280.486	222.665	0.115	-0.186
-279.472	55.523	0.048	-0.047
-278.457	-4.007	0.093	0.065
-277.443	-119.837	-0.347	0.060
-276.428	800.000	0.066	0.280
-275.413	800.000	-0.078	0.219
-274.399	-124.090	-0.062	0.010
-273.384	-184.059	-0.088	-0.001
-272.370	37.776	0.181	-0.162
-271.355	-120.661	-0.234	0.040
-270.340	62.151	-0.172	0.172
-269.326	-98.318	-0.382	-0.098
-268.311	-200.000	-0.037	0.171
-267.297	233.821	-0.159	-0.263
-266.282	-200.000	-0.040	0.195
-265.267	-50.821	0.329	-0.155
-264.253	-23.193	-0.227	-0.137
-263.238	-26.653	-0.128	-0.075
-262.224	-200.000	-0.016	0.226
-261.209	31.538	-0.280	-0.242
-260.195	334.244	0.030	-0.058
-259.180	134.916	0.250	-0.326
-258.165	-200.000	0.047	-0.222
-257.151	-200.000	-0.005	0.371
-256.136	-98.065	0.095	0.025
-255.122	-90.554	-0.129	-0.038
-254.107	316.609	0.176	-0.335
-253.092	-32.699	0.124	0.070
-252.078	-200.000	0.043	0.258
-251.063	-200.000	0.064	0.320
-250.049	128.091	0.132	0.169
-249.034	570.838	0.038	0.094
-248.019	-200.000	0.045	-0.307
-247.005	-163.402	0.006	-0.000
-245.990	-200.000	0.012	-0.259
-244.976	-112.699	-0.220	-0.044
-243.961	-35.430	0.240	0.131
-242.946	127.206	-0.088	-0.112
-241.932	111.523	0.127	-0.154
-240.917	-16.313	-0.105	0.067
-239.903	-200.000	-0.008	-0.103
-238.888	-55.944	-0.015	0.007
-237.873	521.194	0.120	0.282
-236.859	61.293	-0.082	-0.081
-235.844	757.313	-0.080	-0.218
-234.830	177.133	-0.137	0.199
-233.815	800.000	-0.008	0.031
-232.800	-156.756	-0.357	-0.022
-231.786	134.796	-0.083	0.108
-230.771	-109.703	-0.248	-0.052
-229.757	-69.671	0.083	0.032
-228.742	800.000	-0.036	0.147
-227.727	45.031	0.280	-0.259
-226.713	800.000	0.044	0.149
-225.698	-193.913	-0.117	0.001
-224.684	-178.203	0.037	-0.001
-223.669	0.973	0.272	0.195
-222.655	800.000	-0.064	0.239
-221.640	-93.844	0.250	0.069
-220.625	-125.988	-0.242	-0.037
-219.611	347.560	-0.099	-0.195
-218.596	-25.747	-0.146	-0.086
-217.582	-200.000	0.035	0.331
-216.567	172.065	0.245	-0.354
-215.552	36.452	0.326	-0.288
-214.538	371.958	-0.042	0.086
-213.523	-120.273	-0.168	0.029
-212.509	-200.000	-0.010	-0.094
-211.494	-77.480	0.228	-0.079
-210.479	7.843	0.286	0.215
-209.465	165.256	-0.202	-0.286
-208.450	165.685	-0.107	0.151
-207.436	-200.000	-0.020	-0.380
-206.421	47.036	0.153	0.143
-205.406	-200.000	0.073	0.358
-204.392	-54.204	0.514	0.234
-203.377	153.715	-0.128	-0.175
-202.363	33.047	0.238	-0.207
-201.348	-46.796	-0.030	-0.015
-200.333	44.354	0.230	0.211
-199.319	19.935	-0.153	0.124
-198.304	800.000	-0.063	-0.228
-197.290	-200.000	0.017	0.151
-196.275	-102.899	-0.092	-0.022
-195.260	492.027	-0.102	-0.234
-194.246	800.000	0.074	-0.285
-193.231	165.410	-0.190	-0.269
-192.217	533.984	-0.068	0.161
-191.202	800.000	-0.086	0.251
-190.187	800.000	0.068	-0.239
-189.173	382.467	0.068	0.140
-188.158	-176.133	-0.033	-0.001
-187.144	-200.000	0.054	-0.419
-186.129	103.568	-0.067	0.079
-185.114	-156.459	0.130	0.008
-184.100	131.978	0.194	0.250
-183.085	361.664	-0.088	-0.177
-182.071	153.171	-0.171	-0.234
-181.056	-74.745	-0.221	0.079
-180.042	-136.098	-0.250	0.029
-179.027	-144.655	0.043	0.004
-178.012	-142.263	0.198	0.020
-176.998	-183.285	-0.469	-0.008
-175.983	-200.000	0.021	-0.110
-174.969	614.258	0.143	-0.358
-173.954	-74.169	0.063	-0.023
-172.939	41.743	0.080	-0.073
-171.925	-108.222	-0.235	-0.051
-170.910	204.610	-0.064	0.099
-169.896	140.035	-0.159	0.210
-168.881	-200.000	0.034	0.311
-167.866	128.795	0.184	-0.235
-166.852	-151.044	0.106	0.008
-165.837	248.926	0.081	0.138
-164.823	-2.067	-0.038	-0.026
-163.808	-162.610	0.362	0.018
-162.793	-112.634	0.406	0.081
-161.779	-200.000	-0.039	0.236
-160.764	-104.028	-0.188	0.044
-159.750	-8.269	0.316	-0.213
-158.735	12.315	0.318	-0.245
-157.720	732.519	-0.152	-0.407
-156.706	52.330	0.150	-0.143
-155.691	-173.699	0.294	0.009
-154.677	-128.343	0.074	-0.011
-153.662	370.638	-0.070	0.143
-152.647	-110.054	-0.348	-0.073
-151.633	369.990	0.094	-0.191
-150.618	-200.000	0.029	-0.144
-149.604	-99.009	0.032	-0.008
-148.589	212.821	-0.100	-0.157
-147.574	110.802	-0.192	-0.231
-146.560	-127.494	0.141	0.020
-145.545	-198.453	0.285	-0.002
-144.531	-50.884	-0.066	0.031
-143.516	-29.840	-0.390	0.222
-142.502	24.276	-0.328	-0.271
-141.487	-135.460	-0.322	-0.038
-140.472	-70.621	0.162	-0.061
-139.458	-173.759	-0.289	-0.009
-138.443	27.935	0.122	0.103
-137.429	765.955	0.060	0.162
-136.414	86.951	0.171	-0.189
-135.399	771.649	0.110	0.300
-134.385	800.000	0.060	-0.239
-133.370	9.337	0.103	-0.078
-132.356	800.000	0.062	-0.193
-131.341	-157.223	0.223	0.014
-130.326	184.319	0.128	-0.190
-129.312	-200.000	0.044	-0.234
-128.297	-200.000	-0.026	0.121
-127.283	126.718	-0.118	-0.150
-126.268	245.272	-0.086	-0.145
-125.253	-200.000	-0.005	0.146
-124.239	-101.762	0.364	0.088
-123.224	-200.000	0.053	0.381
