DTS Sentinel unit serial number:	SN413079Multiplexer serial number:	ORYXHardware model number:	OX4-SRSoftware version number:	ORYX F/W v4.00 Oryx Data Collector v3.7.2.0data status	okinstallation	princeton_trtdifferential loss correction	single-endedforward channel	channel 1reverse channel	N/Adate	2019/09/12time	12:48:11forward acquisition time	60.00reverse acquisition time	0.00gamma	496.2192k internal	0.2291k external	0.2291temperature offset calibration	1.0044default loss term (dB/km)	0.3790temperature slope calibration	1.0000multiplexer offset coefficient	1.0000multiplexer slope coefficient	1.0000fibre end	0.00T internal ref (°C)	40.62T ext. ref 1 (°C)	2.06T ext. ref 2 (°C)	37.06length (m)	temperature (°C)	Stokes	anti-Stokes-747.200	136.101	0.189	0.252
-746.185	153.543	0.208	0.292
-745.171	-200.000	-0.050	0.360
-744.156	-52.075	0.113	-0.054
-743.142	6.258	0.246	0.187
-742.127	63.956	0.192	0.197
-741.112	-110.656	0.243	-0.051
-740.098	91.110	0.212	0.243
-739.083	156.474	0.044	-0.063
-738.069	98.693	0.175	-0.207
-737.054	144.851	-0.190	-0.260
-736.039	-200.000	-0.034	-0.174
-735.025	-51.241	0.033	-0.016
-734.010	385.604	-0.068	0.144
-732.996	145.191	-0.050	-0.069
-731.981	-50.825	0.092	-0.044
-730.966	-98.681	-0.178	-0.047
-729.952	11.950	0.121	0.095
-728.937	-146.268	-0.297	-0.027
-727.923	-45.460	0.140	0.071
-726.908	-67.690	-0.471	0.189
-725.894	129.065	0.164	-0.215
-724.879	-50.082	-0.053	0.025
-723.864	800.000	0.024	0.104
-722.850	396.342	-0.153	-0.326
-721.835	-13.927	0.196	0.129
-720.821	139.122	-0.157	-0.211
-719.806	-127.483	-0.337	0.050
-718.791	-81.440	-0.356	-0.120
-717.777	648.941	0.111	-0.290
-716.762	-200.000	-0.026	-0.307
-715.748	-200.000	-0.030	-0.200
-714.733	-40.277	-0.169	0.090
-713.718	67.471	-0.290	-0.303
-712.704	1.783	-0.128	0.094
-711.689	-60.315	-0.029	0.013
-710.675	-1.759	0.281	-0.202
-709.660	-200.000	0.063	-0.412
-708.645	-200.000	0.009	-0.199
-707.631	136.758	-0.208	0.278
-706.616	109.503	0.038	0.046
-705.602	64.823	-0.121	0.124
-704.587	94.056	-0.216	0.251
-703.572	-143.404	-0.349	0.034
-702.558	800.000	-0.013	0.050
-701.543	-145.461	0.259	-0.024
-700.529	-200.000	0.012	-0.152
-699.514	-200.000	-0.032	0.186
-698.499	203.459	-0.047	-0.075
-697.485	392.060	-0.145	-0.309
-696.470	-7.821	-0.263	-0.181
-695.456	-129.855	-0.289	0.041
-694.441	-170.175	0.113	0.004
-693.426	272.313	0.123	-0.222
-692.412	-19.777	-0.127	-0.080
-691.397	800.000	-0.075	-0.272
-690.383	501.695	0.128	-0.303
-689.368	-14.810	0.263	0.172
-688.354	208.040	0.080	0.127
-687.339	515.097	0.049	-0.117
-686.324	-72.395	-0.271	0.103
-685.310	-129.473	0.137	0.019
-684.295	800.000	-0.021	-0.066
-683.281	416.105	0.113	0.245
-682.266	-10.987	0.170	-0.114
-681.251	314.698	-0.033	0.063
-680.237	146.976	0.121	-0.166
-679.222	-47.839	-0.161	-0.080
-678.208	-96.798	0.193	0.052
-677.193	-65.904	0.200	0.081
-676.178	-43.722	0.116	-0.060
-675.164	-158.404	0.172	0.010
-674.149	-15.031	-0.237	-0.155
-673.135	-6.335	0.224	0.156
-672.120	184.374	0.240	0.363
-671.105	-105.345	-0.366	-0.085
-670.091	-159.320	0.170	0.010
-669.076	263.830	-0.290	0.514
-668.062	-200.000	0.003	-0.222
-667.047	-200.000	0.065	-0.305
-666.032	-32.987	0.175	0.099
-665.018	443.819	0.232	-0.519
-664.003	55.145	0.086	0.085
-662.989	-200.000	-0.020	0.250
-661.974	-51.817	-0.208	-0.099
-660.959	42.846	0.161	0.150
-659.945	109.796	-0.140	-0.171
-658.930	-109.267	-0.214	-0.046
-657.916	-57.608	0.223	0.100
-656.901	-37.902	-0.128	0.070
-655.886	51.004	0.126	-0.122
-654.872	800.000	0.078	-0.242
-653.857	-65.155	0.351	0.144
-652.843	1.274	-0.244	0.179
-651.828	-104.449	-0.098	0.023
-650.814	336.260	0.122	-0.242
-649.799	108.813	-0.193	-0.235
-648.784	-15.170	-0.101	0.066
-647.770	217.606	0.095	-0.154
-646.755	-40.209	0.260	0.138
-645.741	240.265	0.217	0.369
-644.726	24.885	0.129	0.109
-643.711	-200.000	-0.014	0.223
-642.697	-8.141	0.208	-0.143
-641.682	60.539	-0.042	-0.042
-640.668	-200.000	0.017	0.229
-639.653	0.209	-0.107	-0.078
-638.638	-200.000	-0.041	0.238
-637.624	-18.626	0.121	0.077
-636.609	-71.173	-0.161	-0.062
-635.595	193.444	0.030	-0.047
-634.580	-200.000	0.014	-0.093
-633.565	-108.848	0.224	-0.049
-632.551	-136.468	0.216	-0.026
-631.536	800.000	-0.066	-0.235
-630.522	505.158	-0.068	0.162
-629.507	-187.728	0.005	0.000
-628.492	-76.155	0.217	0.078
-627.478	-200.000	0.022	-0.126
-626.463	6.967	0.184	0.140
-625.449	63.723	-0.111	0.114
-624.434	-47.837	-0.312	0.154
-623.419	-61.517	0.097	-0.042
-622.405	100.154	-0.210	0.248
-621.390	-38.593	0.182	-0.098
-620.376	10.922	0.222	-0.173
-619.361	-200.000	-0.034	0.216
-618.346	-140.401	0.138	-0.015
-617.332	91.584	0.062	0.070
-616.317	531.870	-0.056	0.136
-615.303	-54.303	-0.158	0.073
-614.288	-123.265	0.182	0.030
-613.273	600.272	-0.157	0.396
-612.259	-200.000	0.020	-0.147
-611.244	-200.000	0.021	-0.093
-610.230	-60.305	0.171	0.074
-609.215	-200.000	0.008	0.056
-608.201	-20.981	-0.170	-0.106
-607.186	211.051	0.030	-0.048
-606.171	-101.649	0.226	-0.056
-605.157	-49.043	-0.318	-0.155
-604.142	-121.996	0.029	-0.005
-603.128	101.761	0.111	-0.132
-602.113	-123.112	-0.307	0.050
-601.098	184.414	0.038	-0.057
-600.084	800.000	0.019	0.057
-599.069	4.198	0.202	-0.151
-598.055	-103.856	-0.482	-0.115
-597.040	4.226	-0.117	-0.087
-596.025	95.772	-0.057	0.066
-595.011	31.288	-0.044	0.038
-593.996	-34.654	0.445	-0.248
-592.982	-3.035	0.172	0.122
-591.967	800.000	-0.020	-0.080
-590.952	47.445	-0.261	-0.248
-589.938	164.441	0.117	-0.167
-588.923	-36.724	0.300	-0.164
-587.909	231.167	0.213	-0.356
-586.894	-30.394	0.053	0.031
-585.879	-37.434	0.371	-0.201
-584.865	-182.108	-0.400	-0.008
-583.850	324.785	0.046	0.090
-582.836	69.038	0.219	0.229
-581.821	509.537	-0.049	0.116
-580.806	-200.000	0.036	-0.332
-579.792	-200.000	-0.009	0.130
-578.777	-84.175	-0.204	-0.066
-577.763	-160.792	0.065	-0.003
-576.748	60.478	-0.181	-0.182
-575.733	-200.000	-0.007	-0.157
-574.719	-67.033	-0.154	0.062
-573.704	800.000	-0.049	-0.193
-572.690	800.000	0.141	-0.436
-571.675	-70.513	0.330	0.127
-570.661	41.703	0.098	-0.090
-569.646	184.172	-0.031	-0.046
-568.631	4.209	-0.134	0.100
-567.617	-46.154	-0.170	-0.085
-566.602	62.329	0.179	-0.182
-565.588	131.966	0.125	0.163
-564.573	411.587	-0.094	-0.203
-563.558	-65.618	0.164	-0.067
-562.544	-33.313	-0.082	0.046
-561.529	53.356	0.239	0.233
-560.515	358.610	0.067	-0.137
-559.500	17.587	-0.108	0.087
-558.485	-56.692	-0.348	0.157
-557.471	-115.436	-0.359	-0.069
-556.456	800.000	-0.070	0.197
-555.442	-41.294	0.185	0.097
-554.427	-63.341	0.404	0.169
-553.412	-38.742	0.161	0.086
-552.398	800.000	-0.015	-0.057
-551.383	-94.450	-0.243	-0.067
-550.369	82.678	-0.098	0.108
-549.354	-200.000	0.008	0.144
-548.339	-129.047	-0.177	-0.025
-547.325	-65.724	-0.315	-0.128
-546.310	-200.000	-0.039	-0.203
-545.296	-200.000	-0.030	0.144
-544.281	-200.000	0.009	-0.267
-543.266	-58.528	-0.143	0.063
-542.252	-34.274	0.157	-0.088
-541.237	680.850	0.167	0.442
-540.223	57.601	-0.110	0.109
-539.208	161.096	-0.316	0.448
-538.193	212.130	0.078	0.125
-537.179	66.941	0.155	0.160
-536.164	-38.728	0.089	-0.047
-535.150	8.420	0.157	0.120
-534.135	23.660	-0.332	-0.278
-533.121	-183.868	-0.412	-0.007
-532.106	747.812	-0.117	-0.321
-531.091	-200.000	0.052	-0.323
-530.077	161.468	0.003	-0.004
-529.062	-21.460	0.180	0.111
-528.048	439.066	-0.165	-0.367
-527.033	-70.975	-0.293	-0.112
-526.018	-180.696	0.268	0.006
-525.004	14.796	0.168	0.133
-523.989	-65.058	-0.309	0.127
-522.975	800.000	-0.062	-0.257
-521.960	-119.924	0.016	-0.003
-520.945	549.955	-0.108	0.263
-519.931	21.151	0.135	0.111
-518.916	-134.198	-0.527	0.066
-517.902	40.010	0.129	-0.118
-516.887	554.827	0.140	-0.342
-515.872	-81.130	-0.172	0.058
-514.858	-85.885	0.370	0.116
-513.843	-112.696	-0.159	0.032
-512.829	-147.655	-0.262	0.022
-511.814	-60.733	-0.131	-0.056
-510.799	118.233	-0.100	-0.126
-509.785	-0.644	-0.088	-0.063
-508.770	-99.207	0.222	0.057
-507.756	-200.000	-0.201	-0.001
-506.741	-4.984	0.081	0.057
-505.726	-169.223	0.141	-0.005
-504.712	223.157	-0.080	-0.130
-503.697	-149.976	0.087	0.007
-502.683	-79.109	-0.142	-0.049
-501.668	800.000	-0.048	0.165
-500.653	-99.506	0.144	-0.037
-499.639	800.000	0.108	0.393
-498.624	339.335	-0.212	-0.420
-497.610	257.068	0.111	0.193
-496.595	-81.219	-0.249	0.084
-495.581	-126.615	0.216	0.032
-494.566	4.559	0.257	0.191
-493.551	109.489	0.078	0.095
-492.537	-175.756	-0.352	0.010
-491.522	269.169	-0.112	-0.199
-490.508	117.091	-0.107	-0.133
-489.493	-14.550	-0.145	0.095
-488.478	800.000	-0.046	-0.184
-487.464	-200.000	-0.014	0.180
-486.449	-32.589	-0.143	-0.081
-485.435	249.743	0.128	0.219
-484.420	496.180	0.051	-0.118
-483.405	296.337	-0.174	0.323
-482.391	-48.576	-0.380	0.185
-481.376	-200.000	-0.034	0.226
-480.362	-200.000	-0.002	0.024
-479.347	22.559	-0.142	0.118
-478.332	727.045	-0.024	0.064
-477.318	-68.074	0.160	0.063
-476.303	800.000	0.019	0.057
-475.289	-200.000	-0.076	-0.533
-474.274	-23.269	0.070	0.042
-473.259	-121.626	-0.230	-0.039
-472.245	-200.000	0.006	0.222
-471.230	-46.620	0.201	0.100
-470.216	-78.341	0.377	-0.131
-469.201	158.808	-0.198	-0.278
-468.186	-128.500	-0.144	0.021
-467.172	-150.874	0.214	0.016
-466.157	-200.000	-0.023	-0.249
-465.143	-181.666	-0.293	-0.006
-464.128	-122.543	0.210	-0.035
-463.113	68.649	0.225	0.234
-462.099	382.414	0.196	-0.408
-461.084	-37.539	0.315	-0.170
-460.070	-80.834	0.123	0.041
-459.055	69.258	0.065	0.068
-458.040	417.749	-0.227	0.490
-457.026	319.534	-0.019	-0.036
-456.011	800.000	-0.056	0.241
-454.997	261.381	-0.105	-0.184
-453.982	424.218	0.150	-0.327
-452.968	184.677	0.162	-0.243
-451.953	-200.000	-0.029	-0.242
-450.938	-114.210	0.170	0.033
-449.924	180.780	-0.175	0.260
-448.909	-25.670	-0.100	-0.059
-447.895	-200.000	0.021	0.157
-446.880	-91.789	-0.394	0.113
-445.865	-116.764	0.279	0.052
-444.851	-28.232	0.426	0.249
-443.836	-132.641	0.145	-0.019
-442.822	30.577	-0.147	0.127
-441.807	84.864	0.036	0.039
-440.792	-200.000	0.009	0.072
-439.778	26.791	0.140	0.119
-438.763	410.196	0.031	-0.066
-437.749	-200.000	0.041	-0.277
-436.734	-69.798	0.322	0.124
-435.719	613.874	0.159	0.403
-434.705	-200.000	-0.037	0.260
-433.690	-60.098	-0.291	-0.125
-432.676	36.611	0.160	0.143
-431.661	-75.859	0.157	-0.056
-430.646	-8.706	-0.137	-0.093
-429.632	171.791	0.062	0.090
-428.617	98.559	0.099	-0.115
-427.603	-64.995	-0.256	-0.105
-426.588	-154.699	-0.300	0.020
-425.573	800.000	0.027	-0.117
-424.559	-36.844	-0.227	0.123
-423.544	-150.972	0.273	0.021
-422.530	-52.058	-0.246	0.116
-421.515	50.815	-0.180	0.172
-420.500	-200.000	-0.009	-0.203
-419.486	-200.000	-0.015	0.551
-418.471	-100.418	0.307	-0.077
-417.457	590.486	-0.068	-0.170
-416.442	800.000	-0.058	0.186
-415.428	-99.931	-0.324	-0.082
-414.413	298.565	-0.055	0.102
-413.398	-200.000	-0.054	0.252
-412.384	122.687	-0.040	-0.051
-411.369	778.259	-0.096	0.267
-410.355	-200.000	-0.061	0.331
-409.340	-60.613	-0.275	-0.118
-408.325	357.839	0.114	-0.231
-407.311	-4.058	-0.290	-0.203
-406.296	-87.064	0.034	-0.010
-405.282	-66.976	-0.109	0.044
-404.267	68.199	-0.273	-0.283
-403.252	-67.736	0.103	-0.041
-402.238	-54.671	-0.008	-0.004
-401.223	-72.013	0.184	0.069
-400.209	521.616	-0.110	0.260
-399.194	-114.250	-0.171	0.033
-398.179	18.478	0.186	0.151
-397.165	-32.067	0.194	-0.109
-396.150	512.434	0.074	-0.173
-395.136	265.655	0.155	-0.273
-394.121	62.100	-0.280	0.282
-393.106	800.000	0.054	-0.152
-392.092	800.000	-0.070	0.236
-391.077	-43.299	-0.248	0.126
-390.063	136.175	0.095	-0.126
-389.048	116.079	-0.063	-0.078
-388.033	452.877	-0.065	-0.145
-387.019	800.000	0.057	-0.210
-386.004	-200.000	-0.005	0.089
-384.990	-28.317	-0.162	-0.094
-383.975	-1.442	-0.367	-0.262
-382.960	-24.654	-0.218	-0.131
-381.946	10.062	0.099	-0.076
-380.931	800.000	0.034	-0.140
-379.917	-173.988	0.152	0.005
-378.902	431.407	-0.129	-0.282
-377.888	-156.046	0.215	0.014
-376.873	-200.000	0.020	0.199
-375.858	16.154	-0.177	0.141
-374.844	-3.520	0.047	-0.033
-373.829	-147.418	-0.317	0.027
-372.815	354.054	0.152	0.304
-371.800	241.752	-0.062	-0.104
-370.785	-146.195	-0.295	0.026
-369.771	-200.000	0.022	-0.205
-368.756	-21.197	0.401	0.248
-367.742	146.129	0.120	-0.163
-366.727	398.736	0.167	0.354
-365.712	82.246	-0.209	0.229
-364.698	-88.047	0.320	-0.097
-363.683	85.787	-0.111	0.123
-362.669	-28.588	0.196	0.114
-361.654	-200.000	0.055	0.521
-360.639	-88.972	-0.324	0.097
-359.625	-37.854	-0.339	-0.182
-358.610	225.401	-0.086	0.140
-357.596	-38.963	-0.056	0.029
-356.581	800.000	0.101	-0.319
-355.566	-200.000	0.053	0.281
-354.552	124.430	-0.141	0.179
-353.537	75.670	0.060	-0.064
-352.523	381.455	0.128	0.265
-351.508	289.514	-0.045	-0.083
-350.493	-92.836	-0.135	-0.038
-349.479	-72.871	-0.154	0.057
-348.464	-88.404	0.262	-0.079
-347.450	-200.000	-0.021	-0.136
-346.435	-200.000	0.085	-0.536
-345.420	47.555	0.334	0.314
-344.406	354.441	-0.153	-0.307
-343.391	38.372	0.156	0.140
-342.377	-127.952	0.094	0.014
-341.362	-200.000	0.020	0.210
-340.348	141.357	-0.078	0.104
-339.333	293.613	-0.061	-0.113
-338.318	-162.605	-0.238	-0.012
-337.304	151.955	0.257	-0.354
-336.289	800.000	-0.068	-0.222
-335.275	-35.188	-0.240	0.132
-334.260	-26.082	-0.111	-0.066
-333.245	800.000	-0.082	0.268
-332.231	-42.033	0.162	0.084
-331.216	-121.978	0.517	-0.086
-330.202	-200.000	-0.011	0.187
-329.187	131.113	0.113	0.146
-328.172	800.000	0.065	0.242
-327.158	367.170	-0.067	-0.136
-326.143	800.000	0.032	-0.110
-325.129	133.893	-0.180	0.234
-324.114	800.000	-0.093	-0.295
-323.099	245.075	-0.123	-0.209
-322.085	-107.174	-0.016	-0.004
-321.070	237.513	-0.104	-0.174
-320.056	312.901	0.033	-0.063
-319.041	338.501	-0.127	-0.250
-318.026	-112.802	-0.445	0.089
-317.012	-200.000	0.025	0.273
-315.997	-200.000	0.048	-0.223
-314.983	76.043	0.249	-0.265
-313.968	800.000	-0.062	0.235
-312.953	800.000	0.069	-0.230
-311.939	-164.353	-0.169	0.008
-310.924	159.146	0.069	0.096
-309.910	-68.318	-0.140	-0.055
-308.895	-132.474	0.065	-0.008
-307.880	800.000	0.039	-0.138
-306.866	0.416	-0.269	0.193
-305.851	-200.000	0.010	-0.145
-304.837	30.431	-0.056	0.048
-303.822	-100.293	0.170	0.043
-302.807	-200.000	-0.006	0.135
-301.793	95.869	0.053	0.061
-300.778	70.008	-0.103	0.107
-299.764	-127.951	-0.052	-0.008
-298.749	-82.400	-0.199	0.065
-297.735	-116.013	0.264	-0.050
-296.720	800.000	-0.024	0.102
-295.705	178.092	0.036	0.052
-294.691	29.892	-0.054	-0.047
-293.676	43.476	-0.148	0.136
-292.662	21.412	0.282	-0.230
-291.647	800.000	0.111	0.373
-290.632	-79.975	-0.030	0.010
-289.618	230.297	-0.117	-0.192
-288.603	-101.165	-0.072	-0.018
-287.589	-108.086	0.090	0.020
-286.574	-55.800	-0.077	0.035
-285.559	-7.419	0.235	-0.160
-284.545	295.552	0.116	-0.214
-283.530	1.874	-0.336	0.244
-282.516	-76.910	-0.236	0.083
-281.501	-200.000	-0.024	-0.178
-280.486	233.792	0.145	-0.241
-279.472	800.000	0.080	0.273
-278.457	-51.950	-0.184	0.086
-277.443	138.494	-0.187	-0.247
-276.428	800.000	-0.081	0.243
-275.413	219.911	0.035	0.056
-274.399	28.119	-0.076	0.064
-273.384	17.335	-0.063	0.050
-272.370	78.357	0.134	-0.144
-271.355	-134.095	-0.281	-0.035
-270.340	-111.816	-0.105	0.021
-269.326	211.178	0.271	-0.428
-268.311	112.356	0.061	-0.074
-267.297	-3.635	0.254	0.177
-266.282	-168.674	0.135	-0.005
-265.267	16.304	-0.290	-0.230
-264.253	800.000	-0.054	-0.187
-263.238	131.660	-0.095	0.123
-262.224	-132.449	-0.232	-0.030
-261.209	117.669	-0.154	-0.190
-260.195	800.000	0.072	-0.240
-259.180	-200.000	0.074	0.421
-258.165	-200.000	0.026	0.000
-257.151	12.966	-0.242	-0.188
-256.136	-16.674	0.191	-0.122
-255.122	-200.000	0.044	0.247
-254.107	148.517	-0.154	-0.208
-253.092	-118.743	0.239	0.042
-252.078	-195.317	-0.168	0.001
-251.063	-50.566	-0.332	-0.157
-250.049	-127.393	0.186	-0.027
-249.034	-34.176	0.163	0.090
-248.019	-200.000	-0.100	0.532
-247.005	145.978	0.099	-0.134
-245.990	279.142	-0.031	-0.056
-244.976	5.855	0.345	0.256
-243.961	779.642	0.088	0.242
-242.946	-200.000	-0.011	0.084
-241.932	800.000	0.027	-0.091
-240.917	-97.571	0.215	0.056
-239.903	-62.045	0.417	0.175
-238.888	-116.764	0.024	-0.004
-237.873	-106.781	0.090	-0.020
-236.859	76.944	0.183	-0.195
-235.844	-96.008	-0.260	0.070
-234.830	800.000	-0.034	0.108
-233.815	-97.843	-0.200	-0.052
-232.800	-200.000	0.018	0.129
-231.786	-91.447	0.316	-0.091
-230.771	800.000	0.056	0.159
-229.757	-124.039	0.425	0.067
-228.742	800.000	-0.038	-0.118
-227.727	89.136	0.315	-0.352
-226.713	-75.730	0.124	0.044
-225.698	-200.000	0.017	0.118
-224.684	162.025	0.184	-0.258
-223.669	-131.935	-0.207	0.027
-222.655	-200.000	-0.027	0.220
-221.640	800.000	0.074	-0.258
-220.625	-46.890	-0.261	0.128
-219.611	-38.776	0.033	-0.017
-218.596	109.486	0.050	0.060
-217.582	-33.854	0.283	0.157
-216.567	-150.582	-0.117	-0.009
-215.552	-200.000	-0.002	0.135
-214.538	-146.822	0.063	0.005
-213.523	800.000	-0.042	0.147
-212.509	800.000	-0.062	0.195
-211.494	7.877	0.383	0.288
-210.479	-15.785	-0.154	0.098
-209.465	13.877	-0.144	0.112
-208.450	-154.834	0.286	-0.019
-207.436	48.044	-0.017	0.016
-206.421	800.000	0.015	-0.043
-205.406	-153.969	-0.284	-0.019
-204.392	358.458	-0.149	-0.299
-203.377	-200.000	-0.005	0.139
-202.363	-4.220	0.130	-0.090
-201.348	-158.427	0.091	0.005
-200.333	508.980	0.182	0.425
-199.319	-188.414	0.218	0.003
-198.304	-59.282	-0.444	0.192
-197.290	-119.926	0.344	0.059
-196.275	-30.922	0.204	-0.115
-195.260	-73.222	-0.617	-0.227
-194.246	209.292	0.262	-0.412
-193.231	-98.617	-0.104	0.027
-192.217	-177.707	-0.150	0.004
-191.202	-200.000	-0.006	-0.310
-190.187	-62.890	-0.119	0.049
-189.173	200.849	0.080	0.123
-188.158	800.000	-0.085	-0.312
-187.144	110.628	0.047	0.057
-186.129	78.594	0.157	-0.169
-185.114	800.000	0.036	0.115
-184.100	-123.852	0.194	-0.031
-183.085	-83.804	0.356	-0.114
-182.071	-200.000	0.027	-0.421
-181.056	-150.797	0.235	0.018
-180.042	31.509	0.114	-0.098
-179.027	800.000	0.062	-0.231
-178.012	151.789	0.150	-0.204
-176.998	-86.481	0.210	0.065
-175.983	14.154	0.211	0.165
-174.969	-200.000	-0.000	0.213
-173.954	-200.000	0.003	0.082
-172.939	800.000	0.050	-0.218
-171.925	800.000	-0.072	-0.305
-170.910	-200.000	0.022	0.149
-169.896	225.705	-0.157	0.255
-168.881	-200.000	-0.010	0.054
-167.866	-14.443	-0.132	-0.085
-166.852	193.350	-0.178	0.270
-165.837	2.950	0.188	-0.136
-164.823	63.332	0.171	-0.171
-163.808	98.864	0.138	0.159
-162.793	-41.259	-0.163	0.084
-161.779	279.133	-0.222	-0.396
-160.764	-200.000	0.036	-0.240
-159.750	-200.000	0.057	-0.316
-158.735	800.000	-0.060	-0.254
-157.720	454.303	-0.023	0.051
-156.706	-70.851	0.334	0.126
-155.691	-170.483	-0.041	-0.001
-154.677	10.420	-0.118	-0.090
-153.662	-108.295	-0.240	-0.052
-152.647	101.952	0.171	-0.200
-151.633	-200.000	0.045	0.328
-150.618	800.000	-0.040	0.142
-149.604	-132.105	-0.164	0.021
-148.589	-90.270	-0.162	0.047
-147.574	84.547	-0.174	0.190
-146.560	335.621	-0.168	0.326
-145.545	103.094	-0.065	-0.076
-144.531	-76.003	-0.230	0.081
-143.516	173.735	-0.055	0.080
-142.502	-49.211	-0.160	-0.077
-141.487	169.573	0.065	0.093
-140.472	144.998	0.126	-0.169
-139.458	764.399	-0.025	0.067
-138.443	38.466	-0.074	-0.066
-137.429	-200.000	0.026	0.443
-136.414	-200.000	-0.022	-0.112
-135.399	-200.000	0.021	0.340
-134.385	-200.000	-0.036	-0.160
-133.370	-200.000	0.001	0.144
-132.356	79.005	-0.143	0.153
-131.341	-143.436	-0.206	0.020
-130.326	40.009	0.304	-0.273
-129.312	-200.000	0.020	-0.249
-128.297	57.136	0.105	-0.102
-127.283	-200.000	-0.032	0.255
-126.268	-200.000	-0.148	0.001
-125.253	-45.397	0.210	-0.104
-124.239	143.967	-0.174	-0.233
-123.224	800.000	0.008	-0.027
-122.210	48.932	0.112	0.105
-121.195	156.482	-0.066	0.092
-120.180	72.554	-0.126	0.131
