DTS Sentinel unit serial number:	SN413079Multiplexer serial number:	ORYXHardware model number:	OX4-SRSoftware version number:	ORYX F/W v4.00 Oryx Data Collector v3.7.2.0data status	okinstallation	princeton_trtdifferential loss correction	single-endedforward channel	channel 1reverse channel	N/Adate	2019/09/12time	13:32:11forward acquisition time	60.00reverse acquisition time	0.00gamma	496.2192k internal	0.2291k external	0.2291temperature offset calibration	1.0043default loss term (dB/km)	0.3790temperature slope calibration	1.0000multiplexer offset coefficient	1.0000multiplexer slope coefficient	1.0000fibre end	0.00T internal ref (°C)	41.06T ext. ref 1 (°C)	2.05T ext. ref 2 (°C)	36.22length (m)	temperature (°C)	Stokes	anti-Stokes-747.200	-180.680	-0.187	0.004
-746.185	-57.052	-0.216	0.098
-745.171	-118.339	-0.139	-0.025
-744.156	114.333	0.080	0.100
-743.142	54.088	0.219	0.215
-742.127	109.024	0.104	0.127
-741.112	48.543	-0.271	0.260
-740.098	288.407	-0.125	0.232
-739.083	800.000	0.089	-0.282
-738.069	119.031	-0.133	0.168
-737.054	-27.698	-0.186	0.111
-736.039	-0.627	0.138	0.100
-735.025	-31.297	-0.062	-0.036
-734.010	-141.474	0.124	-0.013
-732.996	-149.575	-0.122	0.010
-731.981	399.496	-0.236	-0.506
-730.966	-194.129	0.201	0.002
-729.952	-200.000	-0.002	0.049
-728.937	40.129	-0.104	-0.096
-727.923	-33.660	0.129	-0.073
-726.908	268.100	-0.107	-0.191
-725.894	800.000	-0.061	-0.193
-724.879	800.000	0.107	-0.471
-723.864	-110.837	0.228	0.048
-722.850	800.000	-0.036	-0.118
-721.835	63.237	-0.097	0.099
-720.821	-97.577	0.200	0.053
-719.806	800.000	-0.052	0.227
-718.791	38.757	-0.039	0.035
-717.777	363.214	-0.065	0.133
-716.762	800.000	-0.086	0.284
-715.748	-144.194	-0.253	-0.024
-714.733	116.674	-0.156	0.196
-713.718	-80.746	-0.180	-0.061
-712.704	-133.508	-0.561	0.072
-711.689	48.558	0.135	0.129
-710.675	277.636	-0.059	-0.107
-709.660	136.262	-0.066	0.088
-708.645	-200.000	-0.031	0.241
-707.631	240.266	0.176	0.300
-706.616	-200.000	0.055	-0.416
-705.602	-73.865	0.371	-0.138
-704.587	66.251	-0.154	0.159
-703.572	293.294	-0.131	-0.244
-702.558	-200.000	-0.023	0.253
-701.543	13.410	-0.170	-0.134
-700.529	-133.630	-0.400	0.051
-699.514	-16.440	-0.261	-0.169
-698.499	123.873	0.155	-0.199
-697.485	-200.000	0.061	-0.336
-696.470	67.317	0.127	0.132
-695.456	800.000	-0.085	0.366
-694.441	800.000	-0.027	0.116
-693.426	-92.755	0.372	0.106
-692.412	594.438	-0.099	0.250
-691.397	-47.424	-0.220	0.109
-690.383	-54.228	-0.147	0.068
-689.368	-172.131	-0.163	0.005
-688.354	122.598	0.087	-0.111
-687.339	-50.670	-0.275	-0.133
-686.324	-200.000	0.005	-0.044
-685.310	80.779	0.172	-0.189
-684.295	317.033	0.070	0.135
-683.281	192.474	-0.138	0.212
-682.266	162.727	-0.071	-0.102
-681.251	-158.429	0.381	-0.023
-680.237	276.215	0.144	-0.262
-679.222	-64.885	-0.126	-0.052
-678.208	-29.465	-0.170	-0.099
-677.193	-14.209	-0.225	0.148
-676.178	-7.174	0.317	-0.219
-675.164	20.238	-0.113	-0.093
-674.149	-56.676	-0.113	-0.051
-673.135	24.029	0.226	-0.191
-672.120	-16.437	-0.129	-0.083
-671.105	-69.895	-0.325	-0.126
-670.091	-150.409	-0.495	-0.039
-669.076	-200.000	0.057	0.506
-668.062	115.119	0.089	-0.111
-667.047	328.318	-0.028	-0.055
-666.032	236.897	-0.054	0.092
-665.018	173.607	-0.176	0.260
-664.003	479.020	0.077	-0.178
-662.989	80.810	0.072	0.079
-661.974	-200.000	-0.003	-0.040
-660.959	710.430	-0.094	0.254
-659.945	155.320	-0.111	-0.157
-658.930	-165.535	0.164	0.007
-657.916	737.397	0.092	-0.253
-656.901	-53.026	-0.075	0.035
-655.886	-200.000	0.028	0.271
-654.872	800.000	-0.058	0.194
-653.857	-200.000	0.026	-0.237
-652.843	-200.000	-0.067	-0.424
-651.828	108.401	0.037	0.045
-650.814	-178.055	0.112	0.003
-649.799	-200.000	0.010	-0.301
-648.784	-21.076	-0.287	0.179
-647.770	50.265	-0.054	-0.052
-646.755	525.558	-0.139	-0.333
-645.741	21.477	0.029	0.024
-644.726	-20.057	-0.244	0.154
-643.711	411.161	0.086	0.185
-642.697	800.000	0.124	-0.395
-641.682	-117.586	0.172	-0.032
-640.668	-117.750	0.297	-0.054
-639.653	-124.950	-0.224	-0.035
-638.638	580.063	-0.112	-0.279
-637.624	-98.062	-0.212	0.056
-636.609	-146.736	-0.218	0.019
-635.595	-200.000	-0.023	-0.124
-634.580	82.026	-0.211	0.233
-633.565	-25.272	0.167	0.101
-632.551	-17.075	-0.228	0.147
-631.536	526.050	-0.081	-0.195
-630.522	-73.569	-0.102	0.038
-629.507	-104.855	-0.062	-0.014
-628.492	447.182	0.085	-0.191
-627.478	-114.365	-0.335	0.066
-626.463	364.899	-0.053	-0.108
-625.449	691.744	0.182	-0.486
-624.434	-174.571	-0.409	0.012
-623.419	-11.577	0.253	-0.170
-622.405	800.000	0.050	-0.218
-621.390	358.506	-0.116	0.236
-620.376	800.000	-0.049	0.166
-619.361	49.392	0.184	-0.176
-618.346	49.752	-0.084	0.080
-617.332	39.520	-0.146	-0.133
-616.317	-34.703	-0.369	-0.206
-615.303	403.787	-0.052	0.111
-614.288	-200.000	-0.040	-0.265
-613.273	800.000	0.056	0.197
-612.259	502.537	-0.054	-0.127
-611.244	-47.245	-0.082	0.041
-610.230	-21.139	0.109	-0.068
-609.215	-200.000	-0.007	0.120
-608.201	27.377	-0.085	0.073
-607.186	106.439	-0.127	0.153
-606.171	455.929	-0.113	0.255
-605.157	33.181	0.154	-0.136
-604.142	277.633	-0.065	0.118
-603.128	-80.524	-0.072	-0.025
-602.113	4.426	-0.110	0.082
-601.098	-166.886	0.268	-0.011
-600.084	-200.000	0.008	-0.133
-599.069	253.820	-0.193	-0.336
-598.055	135.921	0.098	0.130
-597.040	800.000	-0.057	0.213
-596.025	-0.489	-0.045	0.033
-595.011	-104.287	-0.274	-0.065
-593.996	205.432	-0.226	0.357
-592.982	128.762	-0.155	-0.200
-591.967	234.757	-0.083	0.139
-590.952	-65.880	-0.051	0.021
-589.938	383.250	0.187	-0.392
-588.923	78.989	-0.222	-0.241
-587.909	26.093	-0.144	0.123
-586.894	-127.330	-0.368	-0.055
-585.879	-144.176	-0.279	-0.027
-584.865	-115.784	0.229	-0.044
-583.850	-111.845	0.141	0.029
-582.836	32.150	0.157	-0.138
-581.821	-130.201	0.273	-0.038
-580.806	800.000	0.010	-0.043
-579.792	-28.372	0.331	0.194
-578.777	800.000	0.019	0.062
-577.763	-200.000	-0.029	0.298
-576.748	-200.000	-0.020	0.120
-575.733	-200.000	0.056	-0.373
-574.719	44.209	0.072	-0.067
-573.704	-127.764	-0.205	0.030
-572.690	-200.000	0.013	0.115
-571.675	231.404	-0.056	-0.094
-570.661	-126.006	-0.164	-0.025
-569.646	800.000	0.077	-0.300
-568.631	-34.617	-0.236	0.132
-567.617	-51.665	0.085	-0.040
-566.602	800.000	-0.053	0.195
-565.588	122.192	0.150	-0.190
-564.573	-156.070	-0.042	0.003
-563.558	-61.532	-0.156	-0.066
-562.544	7.163	-0.250	-0.190
-561.529	14.619	0.206	0.164
-560.515	-200.000	0.010	0.304
-559.500	11.385	-0.200	-0.156
-558.485	12.230	-0.067	0.052
-557.471	-116.031	0.155	0.029
-556.456	-1.935	-0.217	-0.155
-555.442	-38.170	-0.144	0.078
-554.427	-171.264	-0.341	0.012
-553.412	-98.210	0.146	0.038
-552.398	-138.731	-0.245	0.027
-551.383	281.742	0.168	0.306
-550.369	-102.158	-0.071	-0.017
-549.354	-83.110	0.187	-0.061
-548.339	-2.468	-0.097	0.069
-547.325	-80.155	0.100	-0.034
-546.310	251.078	-0.078	-0.135
-545.296	-45.535	0.197	-0.099
-544.281	-200.000	0.003	0.271
-543.266	800.000	-0.023	0.069
-542.252	130.712	0.027	0.035
-541.237	126.750	0.196	0.252
-540.223	-72.099	0.096	0.036
-539.208	-2.186	0.170	0.121
-538.193	-165.132	0.249	0.011
-537.179	-95.209	-0.118	0.032
-536.164	-181.992	-0.288	0.006
-535.150	222.176	-0.050	-0.082
-534.135	-127.095	0.252	-0.037
-533.121	-198.438	0.312	0.002
-532.106	201.459	-0.157	-0.246
-531.091	-200.000	0.012	0.298
-530.077	-200.000	0.021	0.168
-529.062	304.630	0.152	0.287
-528.048	-24.879	0.129	-0.078
-527.033	74.746	-0.129	0.138
-526.018	-200.000	0.011	0.166
-525.004	-200.000	-0.019	-0.105
-523.989	-29.173	-0.088	-0.051
-522.975	-4.371	-0.277	0.194
-521.960	800.000	-0.052	0.151
-520.945	124.268	-0.129	-0.164
-519.931	-9.010	-0.139	-0.094
-518.916	-88.895	-0.215	0.065
-517.902	63.492	-0.093	0.094
-516.887	800.000	0.036	-0.135
-515.872	-18.826	0.185	0.117
-514.858	-200.000	-0.010	0.067
-513.843	58.697	0.061	-0.061
-512.829	-103.266	0.157	-0.038
-511.814	-115.124	0.366	-0.070
-510.799	217.038	-0.133	0.215
-509.785	158.593	-0.125	-0.175
-508.770	223.503	-0.114	-0.186
-507.756	-200.000	-0.018	-0.175
-506.741	4.518	0.088	-0.065
-505.726	-135.664	0.198	0.024
-504.712	564.280	-0.017	-0.043
-503.697	-42.867	0.128	-0.066
-502.683	679.490	-0.097	-0.257
-501.668	53.822	-0.100	-0.097
-500.653	154.571	0.193	-0.268
-499.639	800.000	0.043	-0.169
-498.624	-4.580	0.101	-0.071
-497.610	69.159	-0.166	-0.173
-496.595	272.305	0.173	0.310
-495.581	-199.880	-0.222	-0.001
-494.566	-200.000	-0.009	0.162
-493.551	-200.000	-0.028	0.271
-492.537	-156.805	0.091	0.006
-491.522	-105.773	0.109	0.025
-490.508	670.152	0.090	0.237
-489.493	85.527	-0.066	-0.074
-488.478	22.750	-0.015	-0.012
-487.464	87.259	-0.084	0.094
-486.449	-86.404	0.047	0.015
-485.435	559.418	0.056	0.138
-484.420	-64.505	0.176	-0.073
-483.405	-200.000	0.011	0.057
-482.391	-166.042	0.205	-0.009
-481.376	16.618	0.191	0.153
-480.362	-35.482	-0.134	-0.074
-479.347	722.407	0.040	-0.109
-478.332	-129.980	0.265	0.037
-477.318	58.316	0.105	0.105
-476.303	153.319	0.138	-0.192
-475.289	-20.578	0.273	0.170
-474.274	93.218	-0.121	0.138
-473.259	138.526	-0.139	-0.185
-472.245	123.417	-0.125	-0.159
-471.230	48.077	0.284	0.269
-470.216	-184.015	0.436	-0.007
-469.201	800.000	-0.072	0.229
-468.186	-7.895	0.061	-0.042
-467.172	29.747	0.228	0.197
-466.157	800.000	0.049	-0.152
-465.143	-67.913	-0.253	-0.100
-464.128	800.000	-0.020	-0.057
-463.113	-200.000	-0.017	-0.189
-462.099	800.000	0.087	0.245
-461.084	191.907	0.084	0.128
-460.070	-69.362	-0.119	-0.046
-459.055	212.178	0.049	-0.078
-458.040	148.708	-0.109	0.149
-457.026	-20.169	0.337	-0.210
-456.011	-135.463	-0.136	-0.016
-454.997	159.449	-0.167	-0.235
-453.982	-0.932	0.131	-0.094
-452.968	800.000	0.147	-0.528
-451.953	-200.000	-0.034	-0.236
-450.938	-200.000	-0.028	0.256
-449.924	-125.796	-0.192	-0.029
-448.909	-200.000	0.021	0.156
-447.895	70.053	0.020	0.021
-446.880	-2.015	0.329	0.234
-445.865	800.000	-0.037	-0.154
-444.851	720.653	0.109	-0.294
-443.836	235.086	-0.046	0.076
-442.822	-200.000	-0.077	-0.401
-441.807	109.637	-0.185	-0.224
-440.792	264.335	-0.144	0.254
-439.778	-200.000	-0.022	0.106
-438.763	-28.064	-0.234	0.137
-437.749	800.000	-0.088	0.248
-436.734	82.533	0.134	-0.147
-435.719	800.000	0.030	-0.090
-434.705	-151.121	-0.130	0.010
-433.690	-164.802	0.238	-0.011
-432.676	309.446	-0.107	0.202
-431.661	574.502	-0.076	-0.187
-430.646	-36.619	0.247	0.134
-429.632	-200.000	-0.011	0.079
-428.617	800.000	-0.059	-0.177
-427.603	133.137	0.080	-0.105
-426.588	96.960	0.109	0.127
-425.573	-84.413	0.283	0.091
-424.559	190.916	-0.211	0.321
-423.544	-200.000	-0.026	-0.270
-422.530	537.694	-0.027	0.066
-421.515	-46.430	0.183	0.091
-420.500	-45.306	0.051	-0.026
-419.486	557.684	-0.190	0.464
-418.471	-131.616	-0.275	-0.037
-417.457	-16.037	0.213	-0.137
-416.442	28.534	0.162	-0.139
-415.428	-200.000	-0.007	0.249
-414.413	512.491	-0.120	-0.282
-413.398	-200.000	-0.019	-0.125
-412.384	-111.899	0.132	-0.027
-411.369	-193.155	-0.153	0.001
-410.355	-135.277	0.214	-0.026
-409.340	800.000	-0.069	-0.258
-408.325	29.668	0.080	0.069
-407.311	-200.000	0.020	-0.158
-406.296	122.697	-0.176	0.222
-405.282	265.909	0.110	-0.193
-404.267	-160.770	-0.068	-0.004
-403.252	800.000	0.102	-0.340
-402.238	193.117	-0.108	-0.165
-401.223	-200.000	-0.006	-0.183
-400.209	800.000	-0.077	0.275
-399.194	-107.508	0.206	0.046
-398.179	-67.336	-0.337	0.134
-397.165	-144.506	0.105	0.010
-396.150	214.337	0.130	0.208
-395.136	-6.279	0.116	0.080
-394.121	301.490	-0.085	0.158
-393.106	484.591	-0.116	0.267
-392.092	798.744	0.125	0.347
-391.077	-117.387	-0.087	-0.016
-390.063	-137.369	-0.106	0.012
-389.048	800.000	-0.027	0.093
-388.033	345.068	-0.098	0.195
-387.019	-200.000	-0.010	0.170
-386.004	3.009	-0.197	-0.144
-384.990	-51.106	0.111	0.053
-383.975	301.400	-0.104	0.194
-382.960	-127.046	0.506	-0.075
-381.946	51.747	-0.166	-0.159
-380.931	2.274	-0.129	0.094
-379.917	-48.878	0.162	0.079
-378.902	-21.362	-0.047	-0.029
-377.888	-62.627	0.145	0.061
-376.873	-180.504	0.297	-0.006
-375.858	-56.549	0.150	0.067
-374.844	413.417	-0.098	-0.210
-373.829	-78.289	-0.351	-0.122
-372.815	228.228	0.033	0.055
-371.800	-200.000	-0.038	-0.182
-370.785	-128.173	-0.012	-0.002
-369.771	-200.000	0.036	0.280
-368.756	800.000	0.051	-0.143
-367.742	213.589	0.068	-0.109
-366.727	-200.000	-0.007	-0.047
-365.712	-200.000	-0.006	-0.135
-364.698	101.738	0.152	-0.179
-363.683	-23.010	-0.248	-0.151
-362.669	-200.000	0.012	0.153
-361.654	718.425	0.048	0.127
-360.639	800.000	0.076	0.216
-359.625	-200.000	0.016	-0.400
-358.610	84.850	-0.181	-0.200
-357.596	68.913	0.047	0.049
-356.581	14.247	0.151	0.118
-355.566	65.748	-0.023	0.024
-354.552	800.000	-0.082	-0.229
-353.537	-200.000	0.025	0.110
-352.523	-200.000	-0.036	0.314
-351.508	36.874	0.163	-0.145
-350.493	-200.000	-0.015	-0.384
-349.479	-111.986	0.414	0.084
-348.464	-200.000	-0.002	0.103
-347.450	800.000	-0.139	-0.443
-346.435	-109.842	-0.404	0.085
-345.420	-200.000	0.022	0.256
-344.406	-120.971	0.271	0.046
-343.391	-108.239	0.078	-0.017
-342.377	269.820	0.183	0.325
-341.362	800.000	-0.042	0.181
-340.348	120.094	0.149	-0.187
-339.333	-60.806	0.075	-0.032
-338.318	581.749	-0.123	0.304
-337.304	-134.824	-0.078	0.010
-336.289	-20.256	-0.491	-0.305
-335.275	-200.000	0.013	-0.176
-334.260	49.420	0.191	0.181
-333.245	157.574	0.052	-0.073
-332.231	247.217	-0.117	0.199
-331.216	-3.310	0.150	0.105
-330.202	-134.976	0.070	0.008
-329.187	-200.000	0.007	-0.125
-328.172	-200.000	-0.000	0.223
-327.158	393.599	-0.108	-0.227
-326.143	-200.000	-0.008	-0.570
-325.129	181.297	0.098	0.145
-324.114	322.849	-0.058	-0.112
-323.099	800.000	-0.098	-0.329
-322.085	-98.541	0.221	0.057
-321.070	15.764	-0.090	0.071
-320.056	-200.000	0.049	0.281
-319.041	29.863	0.329	-0.283
-318.026	309.892	-0.193	-0.364
-317.012	-24.226	0.214	0.128
-315.997	-200.000	-0.012	-0.099
-314.983	-109.037	0.590	0.127
-313.968	-61.088	-0.166	-0.071
-312.953	-200.000	0.056	0.274
-311.939	-37.063	-0.396	0.213
-310.924	-200.000	0.000	0.111
-309.910	-106.334	-0.086	-0.019
-308.895	-144.594	-0.119	-0.011
-307.880	800.000	0.118	-0.398
-306.866	-168.340	0.139	0.005
-305.851	-155.354	-0.373	0.024
-304.837	132.072	0.076	-0.098
-303.822	-39.518	0.265	0.140
-302.807	-94.028	-0.424	0.117
-301.793	-200.000	-0.077	0.553
-300.778	-78.574	-0.211	0.073
-299.764	13.422	-0.128	0.100
-298.749	-158.977	-0.223	-0.013
-297.735	-200.000	0.011	0.074
-296.720	-86.618	-0.201	0.062
-295.705	9.976	0.214	-0.163
-294.691	800.000	0.082	-0.333
-293.676	-42.094	-0.166	0.085
-292.662	-200.000	0.067	0.407
-291.647	700.110	-0.120	0.318
-290.632	566.587	-0.080	0.196
-289.618	-17.034	-0.214	0.136
-288.603	325.916	0.122	0.234
-287.589	-106.911	-0.187	0.042
-286.574	-200.000	0.111	-0.499
-285.559	49.056	0.116	-0.110
-284.545	-39.411	-0.067	0.036
-283.530	98.546	0.180	0.208
-282.516	58.642	-0.254	0.251
-281.501	84.779	0.081	0.089
-280.486	-50.335	0.259	-0.123
-279.472	43.076	-0.227	0.208
-278.457	800.000	-0.087	0.263
-277.443	282.333	-0.162	-0.291
-276.428	-76.167	0.116	0.041
-275.413	22.944	0.174	-0.143
-274.399	487.097	-0.071	-0.163
-273.384	-200.000	0.026	-0.319
-272.370	-21.948	-0.096	0.058
-271.355	248.904	-0.081	0.138
-270.340	-93.564	0.133	0.037
-269.326	58.027	-0.065	-0.064
-268.311	-173.414	0.179	-0.005
-267.297	119.007	-0.059	-0.074
-266.282	-103.278	0.187	0.044
-265.267	-200.000	-0.094	-0.609
-264.253	800.000	-0.051	0.198
-263.238	118.238	-0.033	0.040
-262.224	-22.421	-0.050	-0.031
-261.209	150.227	-0.264	0.361
-260.195	-94.951	-0.159	0.043
-259.180	-102.292	-0.258	-0.062
-258.165	800.000	-0.054	-0.157
-257.151	-200.000	-0.006	-0.073
-256.136	261.219	-0.065	-0.113
-255.122	106.030	0.072	0.086
-254.107	-46.933	0.074	0.036
-253.092	191.123	0.110	-0.167
-252.078	-200.000	0.008	-0.052
-251.063	464.063	-0.057	-0.129
-250.049	342.574	0.075	-0.147
-249.034	-59.442	0.197	-0.085
-248.019	-124.263	0.169	0.026
-247.005	-200.000	-0.010	-0.357
-245.990	-2.691	-0.138	-0.097
-244.976	141.582	0.358	0.476
-243.961	-115.610	0.238	-0.045
-242.946	-200.000	-0.000	-0.026
-241.932	172.730	0.110	-0.159
-240.917	-200.000	-0.021	0.266
-239.903	234.026	-0.116	-0.191
-238.888	186.205	-0.115	-0.172
-237.873	32.924	0.330	0.287
-236.859	800.000	0.071	0.218
-235.844	-200.000	-0.015	-0.111
-234.830	-41.410	0.317	-0.164
-233.815	34.322	0.168	0.147
-232.800	-178.270	-0.588	0.014
-231.786	-53.083	0.162	-0.075
-230.771	800.000	0.029	0.105
-229.757	-140.137	-0.132	-0.014
-228.742	425.541	0.041	0.089
-227.727	104.587	-0.232	0.274
-226.713	487.820	0.004	-0.010
-225.698	471.058	0.036	-0.080
-224.684	175.821	0.149	-0.217
-223.669	-59.090	0.266	0.115
-222.655	-200.000	0.058	-0.000
-221.640	-43.018	-0.421	0.214
-220.625	-200.000	0.002	-0.112
-219.611	-87.379	-0.133	0.040
-218.596	-176.187	0.207	-0.005
-217.582	-26.550	-0.237	0.139
-216.567	-102.988	-0.310	0.074
-215.552	-27.939	-0.394	0.229
-214.538	-95.918	0.313	0.084
-213.523	23.297	-0.085	-0.070
-212.509	-129.417	0.262	0.036
-211.494	538.495	-0.057	0.136
-210.479	192.017	-0.058	0.088
-209.465	155.847	-0.169	-0.233
-208.450	157.083	-0.246	-0.342
-207.436	164.465	0.236	-0.334
-206.421	-200.000	0.057	0.322
-205.406	-22.788	0.222	-0.134
-204.392	-200.000	0.032	0.180
-203.377	800.000	0.049	-0.146
-202.363	-200.000	0.041	0.247
-201.348	197.563	0.020	-0.031
-200.333	800.000	-0.051	-0.191
-199.319	-159.381	0.089	-0.005
-198.304	-76.561	0.319	0.112
-197.290	-110.931	0.341	-0.070
-196.275	386.314	0.053	0.110
-195.260	-200.000	-0.020	0.412
-194.246	800.000	-0.086	0.239
-193.231	121.768	0.064	-0.080
-192.217	406.793	-0.149	-0.315
-191.202	800.000	-0.117	0.411
-190.187	-172.401	-0.285	0.009
-189.173	-78.231	0.027	-0.009
-188.158	169.322	-0.191	-0.273
-187.144	-200.000	-0.024	-0.130
-186.129	-83.019	0.412	-0.133
-185.114	-200.000	-0.023	-0.167
-184.100	170.569	0.230	0.330
-183.085	41.757	0.363	0.330
-182.071	135.375	0.139	0.181
-181.056	6.678	-0.085	-0.063
-180.042	-96.303	-0.300	0.079
-179.027	-120.682	-0.150	0.025
-178.012	-83.814	-0.095	0.030
-176.998	800.000	-0.089	0.343
-175.983	385.239	-0.070	-0.144
-174.969	-67.132	0.328	-0.129
-173.954	800.000	0.127	0.435
-172.939	-200.000	-0.050	-0.308
-171.925	9.498	-0.096	0.073
-170.910	-93.528	0.341	-0.095
-169.896	146.241	0.196	-0.263
-168.881	-181.555	-0.415	0.008
-167.866	257.404	0.057	0.098
-166.852	-26.824	0.143	-0.083
-165.837	-66.434	0.135	-0.054
-164.823	-75.798	0.030	-0.010
-163.808	143.549	-0.197	-0.262
-162.793	49.073	-0.026	0.025
-161.779	226.760	0.213	-0.346
-160.764	-115.024	0.210	-0.040
-159.750	235.416	0.165	0.272
-158.735	-200.000	-0.013	-0.174
-157.720	79.681	-0.020	-0.022
-156.706	373.735	0.106	-0.216
-155.691	-80.269	-0.382	0.128
-154.677	7.576	0.181	-0.135
-153.662	-86.833	0.133	0.041
-152.647	64.757	0.165	0.167
-151.633	-17.463	0.052	0.033
-150.618	64.702	0.109	-0.110
-149.604	75.286	0.054	0.057
-148.589	108.102	-0.032	0.038
-147.574	462.410	0.103	-0.230
-146.560	-36.556	-0.170	-0.092
-145.545	-25.787	0.101	-0.060
-144.531	-99.972	0.322	0.080
-143.516	-11.370	0.237	-0.156
-142.502	-106.458	-0.232	0.052
-141.487	-173.163	-0.166	0.005
-140.472	-89.259	-0.139	-0.041
-139.458	214.712	-0.062	-0.098
-138.443	-121.951	0.340	-0.056
-137.429	-155.133	0.078	0.005
-136.414	-144.409	-0.244	0.023
-135.399	16.354	-0.184	-0.145
-134.385	-200.000	-0.055	0.244
-133.370	-66.330	-0.117	0.046
-132.356	241.112	0.120	0.201
-131.341	800.000	0.113	0.386
-130.326	-44.781	0.118	0.059
-129.312	-200.000	-0.028	-0.143
-128.297	40.849	0.263	-0.237
-127.283	800.000	0.136	0.445
-126.268	-42.725	0.190	-0.097
-125.253	89.774	0.153	0.170
-124.239	-148.470	0.534	0.044
-123.224	-200.000	0.020	-0.194
-122.210	299.407	-0.052	-0.096
