DTS Sentinel unit serial number:	SN413079Multiplexer serial number:	ORYXHardware model number:	OX4-SRSoftware version number:	ORYX F/W v4.00 Oryx Data Collector v3.7.2.0data status	okinstallation	princeton_trtdifferential loss correction	single-endedforward channel	channel 1reverse channel	N/Adate	2019/09/12time	05:56:11forward acquisition time	60.00reverse acquisition time	0.00gamma	496.2192k internal	0.2320k external	0.2320temperature offset calibration	1.0044default loss term (dB/km)	0.3790temperature slope calibration	1.0000multiplexer offset coefficient	1.0000multiplexer slope coefficient	1.0000fibre end	0.00T internal ref (°C)	32.06T ext. ref 1 (°C)	1.55T ext. ref 2 (°C)	27.43length (m)	temperature (°C)	Stokes	anti-Stokes-747.200	-98.736	0.161	0.042
-746.185	-10.890	-0.165	0.110
-745.171	-30.636	0.125	-0.072
-744.156	-200.000	-0.004	0.290
-743.142	202.495	-0.223	0.349
-742.127	130.477	-0.152	0.197
-741.112	800.000	-0.068	-0.263
-740.098	133.482	-0.421	0.550
-739.083	73.401	0.137	-0.145
-738.069	-200.000	0.048	0.649
-737.054	-200.000	0.057	0.286
-736.039	-11.208	-0.165	0.110
-735.025	22.597	-0.070	0.058
-734.010	208.521	-0.073	-0.115
-732.996	109.214	0.152	0.183
-731.981	-44.240	0.270	-0.137
-730.966	-97.473	-0.018	-0.005
-729.952	207.214	0.179	0.282
-728.937	-144.443	-0.160	0.015
-727.923	800.000	0.050	-0.206
-726.908	193.276	-0.107	-0.164
-725.894	72.676	-0.182	0.192
-724.879	-200.000	0.021	0.181
-723.864	-177.669	0.334	0.008
-722.850	23.560	0.203	-0.169
-721.835	420.372	-0.200	-0.434
-720.821	800.000	0.100	0.281
-719.806	-96.116	-0.244	0.066
-718.791	681.320	0.092	-0.242
-717.777	-200.000	0.001	0.123
-716.762	-200.000	-0.001	-0.069
-715.748	603.010	0.102	-0.256
-714.733	-200.000	-0.069	-0.352
-713.718	800.000	0.078	-0.262
-712.704	-200.000	-0.012	-0.090
-711.689	365.232	-0.061	0.124
-710.675	-31.426	-0.093	0.053
-709.660	-200.000	0.003	0.099
-708.645	75.662	-0.289	-0.309
-707.631	-169.719	-0.167	0.006
-706.616	-183.725	0.311	-0.005
-705.602	-50.901	-0.296	0.140
-704.587	-98.241	-0.219	-0.057
-703.572	-200.000	0.055	0.380
-702.558	73.605	0.327	0.345
-701.543	76.746	-0.337	-0.361
-700.529	800.000	0.046	0.194
-699.514	-200.000	0.026	0.135
-698.499	-92.276	0.386	0.110
-697.485	114.756	0.315	0.387
-696.470	364.462	0.063	-0.127
-695.456	8.965	0.330	-0.251
-694.441	191.973	0.099	-0.150
-693.426	-155.627	-0.229	-0.015
-692.412	-122.058	0.037	0.006
-691.397	74.154	-0.231	-0.245
-690.383	800.000	0.084	0.314
-689.368	218.263	0.076	-0.122
-688.354	362.087	0.030	-0.061
-687.339	800.000	-0.015	-0.044
-686.324	258.231	0.273	-0.474
-685.310	-13.585	0.220	0.144
-684.295	-76.357	-0.572	-0.203
-683.281	-156.080	-0.100	-0.006
-682.266	-4.412	-0.171	0.119
-681.251	56.246	-0.267	0.261
-680.237	612.513	-0.095	0.240
-679.222	800.000	-0.056	0.238
-678.208	-103.133	-0.254	-0.061
-677.193	275.215	0.098	-0.175
-676.178	-87.368	0.064	0.020
-675.164	-200.000	0.040	-0.205
-674.149	800.000	0.090	-0.301
-673.135	183.026	-0.147	0.219
-672.120	-98.035	-0.226	-0.059
-671.105	-200.000	-0.027	0.122
-670.091	-170.064	-0.133	-0.005
-669.076	-200.000	0.013	-0.111
-668.062	-200.000	-0.047	-0.268
-667.047	800.000	0.066	-0.226
-666.032	-31.399	0.115	-0.065
-665.018	-90.741	0.147	-0.043
-664.003	-200.000	-0.014	-0.132
-662.989	-10.331	-0.068	-0.046
-661.974	418.481	0.178	0.383
-660.959	154.059	0.055	-0.076
-659.945	144.998	-0.176	0.238
-658.930	-49.624	0.057	-0.027
-657.916	205.663	0.118	-0.185
-656.901	-118.467	0.250	-0.045
-655.886	-200.000	0.015	0.284
-654.872	-200.000	0.034	-0.176
-653.857	-102.458	0.236	0.057
-652.843	-105.366	-0.120	-0.028
-651.828	-147.412	-0.141	-0.012
-650.814	-200.000	0.029	-0.147
-649.799	-100.112	-0.183	0.046
-648.784	-54.409	-0.275	-0.126
-647.770	-53.557	-0.090	0.041
-646.755	12.314	0.191	-0.148
-645.741	-52.571	0.214	0.099
-644.726	-65.675	0.186	0.075
-643.711	-113.895	0.334	-0.065
-642.697	-200.000	-0.022	-0.162
-641.682	800.000	0.065	0.256
-640.668	-99.901	-0.479	0.121
-639.653	157.312	-0.223	-0.310
-638.638	-189.019	0.063	0.001
-637.624	-51.134	-0.352	-0.166
-636.609	-104.305	-0.308	0.072
-635.595	-21.410	0.053	-0.033
-634.580	48.517	-0.116	0.109
-633.565	-117.539	-0.251	-0.046
-632.551	259.547	0.164	-0.286
-631.536	-13.248	0.272	-0.178
-630.522	71.269	0.072	-0.075
-629.507	116.541	0.009	0.011
-628.492	175.993	0.290	0.424
-627.478	53.964	0.125	-0.121
-626.463	3.644	0.149	-0.110
-625.449	-11.928	-0.375	-0.247
-624.434	800.000	-0.057	-0.241
-623.419	-18.716	-0.203	0.127
-622.405	-140.894	0.327	0.034
-621.390	143.203	0.136	0.182
-620.376	17.452	-0.215	-0.172
-619.361	-26.181	-0.106	0.063
-618.346	77.569	0.150	0.161
-617.332	431.857	-0.063	0.138
-616.317	-200.000	-0.021	0.138
-615.303	-116.889	0.367	0.067
-614.288	-200.000	-0.006	-0.039
-613.273	-13.349	0.204	-0.133
-612.259	130.853	-0.132	0.170
-611.244	65.807	-0.205	-0.209
-610.230	-200.000	-0.042	-0.319
-609.215	-48.891	0.319	0.154
-608.201	-175.935	-0.343	-0.009
-607.186	657.180	0.091	-0.235
-606.171	410.710	0.062	0.132
-605.157	-200.000	0.030	-0.168
-604.142	-77.740	-0.028	-0.010
-603.128	-76.957	0.174	-0.061
-602.113	40.129	-0.226	-0.205
-601.098	122.092	0.051	0.064
-600.084	-98.814	-0.419	-0.107
-599.069	-91.114	-0.444	-0.128
-598.055	632.228	0.073	0.186
-597.040	61.250	-0.140	-0.140
-596.025	-158.114	0.373	0.022
-595.011	-200.000	0.026	-0.162
-593.996	722.410	-0.106	-0.285
-592.982	13.463	-0.114	0.089
-591.967	-27.009	0.175	-0.103
-590.952	276.357	0.093	-0.165
-589.938	16.009	0.057	-0.045
-588.923	-40.712	0.222	0.116
-587.909	-132.461	0.179	0.023
-586.894	-200.000	0.004	0.284
-585.879	-10.682	0.179	-0.119
-584.865	342.204	-0.158	0.311
-583.850	-200.000	0.086	0.472
-582.836	12.482	0.160	-0.124
-581.821	83.184	-0.120	0.131
-580.806	800.000	-0.034	-0.119
-579.792	-143.458	-0.053	0.005
-578.777	-200.000	0.062	-0.306
-577.763	28.659	-0.112	-0.095
-576.748	446.902	0.077	0.170
-575.733	204.282	-0.109	0.170
-574.719	-143.875	-0.315	0.030
-573.704	-79.092	-0.534	0.182
-572.690	9.557	-0.241	0.184
-571.675	191.240	-0.038	-0.058
-570.661	-91.610	0.284	-0.081
-569.646	-200.000	0.052	-0.418
-568.631	-200.000	-0.012	-0.202
-567.617	-123.112	-0.342	-0.055
-566.602	-200.000	-0.010	-0.053
-565.588	661.274	0.116	0.300
-564.573	-161.681	0.139	-0.007
-563.558	800.000	-0.073	-0.251
-562.544	-200.000	-0.040	-0.209
-561.529	-71.898	0.361	0.135
-560.515	-78.153	-0.046	-0.016
-559.500	-142.120	0.055	0.006
-558.485	-173.552	0.044	0.001
-557.471	-162.843	0.097	0.005
-556.456	368.081	0.040	0.081
-555.442	-104.976	0.386	-0.089
-554.427	-62.522	-0.087	0.036
-553.412	124.417	-0.102	0.129
-552.398	-34.603	0.417	-0.229
-551.383	181.458	-0.084	-0.123
-550.369	-122.270	0.225	0.037
-549.354	39.752	0.049	0.045
-548.339	686.359	-0.117	-0.308
-547.325	26.669	-0.073	0.061
-546.310	18.368	0.096	-0.077
-545.296	374.500	-0.040	-0.082
-544.281	-162.424	0.308	-0.015
-543.266	17.502	-0.156	-0.124
-542.252	-124.014	-0.320	-0.050
-541.237	163.480	0.098	-0.138
-540.223	-69.585	0.127	-0.049
-539.208	-30.464	0.155	0.088
-538.193	-130.177	-0.288	0.039
-537.179	-112.879	0.440	-0.088
-536.164	-77.908	-0.129	-0.045
-535.150	81.275	0.227	-0.246
-534.135	-200.000	-0.013	0.112
-533.121	88.519	0.212	-0.237
-532.106	117.018	0.231	0.284
-531.091	800.000	-0.091	-0.303
-530.077	-27.380	0.133	0.077
-529.062	-200.000	0.002	-0.092
-528.048	800.000	0.013	0.040
-527.033	19.762	-0.169	-0.136
-526.018	18.790	-0.242	-0.194
-525.004	-114.221	0.077	-0.015
-523.989	-96.650	-0.280	0.074
-522.975	-128.826	-0.100	-0.014
-521.960	-200.000	0.018	-0.178
-520.945	75.542	0.379	-0.401
-519.931	-30.938	-0.186	-0.105
-518.916	22.551	0.139	0.114
-517.902	-128.564	-0.121	0.017
-516.887	745.007	-0.063	-0.170
-515.872	-88.124	0.241	-0.072
-514.858	-200.000	0.003	-0.013
-513.843	158.169	-0.207	-0.288
-512.829	316.201	0.094	0.177
-511.814	-174.617	-0.141	-0.004
-510.799	-200.000	-0.024	-0.184
-509.785	-56.502	-0.140	-0.062
-508.770	-117.899	0.179	0.032
-507.756	-129.046	0.257	0.036
-506.741	-128.405	-0.203	-0.029
-505.726	398.282	0.176	-0.369
-504.712	-200.000	0.021	0.199
-503.697	-137.269	0.112	-0.013
-502.683	-109.882	-0.262	-0.055
-501.668	-26.725	0.136	-0.080
-500.653	-44.448	-0.334	-0.167
-499.639	-93.086	-0.328	-0.091
-498.624	-104.200	0.401	0.093
-497.610	800.000	-0.022	0.080
-496.595	-80.750	0.142	-0.047
-495.581	-177.261	0.240	-0.006
-494.566	29.045	-0.379	-0.321
-493.551	-88.750	-0.291	0.086
-492.537	44.317	0.144	-0.132
-491.522	459.967	-0.115	0.257
-490.508	-200.000	-0.014	0.088
-489.493	145.886	-0.107	-0.144
-488.478	-132.340	0.201	0.026
-487.464	800.000	0.058	0.230
-486.449	111.483	-0.142	0.172
-485.435	800.000	0.021	0.062
-484.420	-29.025	0.212	-0.122
-483.405	59.986	-0.072	0.071
-482.391	70.113	-0.324	-0.335
-481.376	-116.380	0.197	0.036
-480.362	-200.000	-0.071	-0.413
-479.347	182.713	0.194	0.287
-478.332	62.156	-0.040	0.039
-477.318	800.000	-0.114	0.428
-476.303	39.851	0.161	-0.144
-475.289	124.084	0.168	-0.211
-474.274	-200.000	0.021	0.130
-473.259	-200.000	-0.043	-0.193
-472.245	-200.000	-0.005	-0.245
-471.230	-200.000	-0.014	-0.224
-470.216	-66.643	0.235	-0.093
-469.201	-200.000	-0.055	0.248
-468.186	800.000	-0.079	0.259
-467.172	-4.236	-0.083	0.057
-466.157	-102.285	0.209	-0.050
-465.143	0.106	-0.217	0.155
-464.128	153.878	0.040	-0.055
-463.113	-200.000	0.012	-0.091
-462.099	-39.788	0.176	-0.092
-461.084	800.000	0.128	-0.477
-460.070	535.780	-0.047	0.111
-459.055	-4.625	-0.226	0.156
-458.040	-149.212	-0.182	-0.015
-457.026	34.075	0.178	0.155
-456.011	72.937	0.136	-0.142
-454.997	198.729	0.122	0.186
-453.982	209.017	0.145	-0.226
-452.968	472.048	0.061	0.138
-451.953	-112.239	-0.335	-0.067
-450.938	-97.353	-0.452	0.118
-449.924	800.000	0.021	-0.085
-448.909	97.613	0.270	0.310
-447.895	-54.964	0.155	-0.070
-446.880	3.774	-0.329	-0.240
-445.865	800.000	-0.091	-0.259
-444.851	2.594	-0.090	0.065
-443.836	-123.168	0.257	-0.041
-442.822	-107.955	-0.286	-0.062
-441.807	-123.794	-0.083	-0.013
-440.792	-200.000	-0.033	-0.266
-439.778	-34.637	-0.006	0.003
-438.763	-107.150	-0.055	-0.012
-437.749	128.251	0.096	0.122
-436.734	-80.246	-0.118	-0.039
-435.719	136.320	-0.211	-0.275
-434.705	-31.812	0.251	0.141
-433.690	145.446	0.145	-0.194
-432.676	-150.513	0.190	0.015
-431.661	-82.932	-0.102	-0.033
-430.646	-127.889	-0.339	-0.049
-429.632	121.915	-0.206	-0.256
-428.617	-39.347	0.141	-0.074
-427.603	89.271	-0.202	0.225
-426.588	-200.000	-0.158	0.000
-425.573	306.036	-0.063	0.116
-424.559	-33.040	0.095	0.053
-423.544	279.063	0.114	0.204
-422.530	-52.248	-0.103	0.048
-421.515	-16.960	-0.116	0.073
-420.500	-82.046	0.182	0.059
-419.486	166.058	0.193	-0.272
-418.471	-151.345	-0.191	0.014
-417.457	160.495	0.086	0.120
-416.442	11.665	0.342	-0.262
-415.428	-119.122	-0.289	0.050
-414.413	-200.000	0.003	-0.335
-413.398	-15.829	0.180	0.114
-412.384	687.163	0.083	0.215
-411.369	662.413	0.100	0.258
-410.355	-200.000	0.016	-0.399
-409.340	-158.206	0.303	0.018
-408.325	6.305	0.470	0.348
-407.311	-135.346	-0.219	0.026
-406.296	225.097	-0.114	-0.184
-405.282	-62.231	-0.269	0.112
-404.267	161.656	0.147	0.205
-403.252	-44.261	-0.092	-0.046
-402.238	-200.000	0.037	-0.258
-401.223	11.982	-0.227	-0.174
-400.209	800.000	0.018	-0.061
-399.194	-143.404	0.243	0.023
-398.179	-119.029	-0.104	0.018
-397.165	-90.048	-0.218	-0.063
-396.150	-161.739	0.058	0.003
-395.136	113.612	-0.204	0.247
-394.121	34.590	-0.102	-0.089
-393.106	202.468	-0.109	-0.168
-392.092	138.794	0.094	-0.123
-391.077	-130.652	0.360	0.048
-390.063	17.392	0.114	0.090
-389.048	-200.000	0.019	0.261
-388.033	-73.187	0.074	-0.027
-387.019	-20.587	0.106	-0.065
-386.004	800.000	0.067	0.279
-384.990	800.000	-0.062	0.192
-383.975	-40.489	0.264	-0.136
-382.960	-3.935	0.157	-0.109
-381.946	126.206	-0.158	0.200
-380.931	-200.000	-0.006	-0.139
-379.917	296.982	-0.164	0.300
-378.902	-84.976	0.136	0.042
-377.888	286.255	-0.102	0.184
-376.873	-10.782	-0.340	0.224
-375.858	800.000	-0.094	0.275
-374.844	800.000	0.045	0.136
-373.829	800.000	-0.014	-0.051
-372.815	-200.000	0.009	-0.093
-371.800	-24.548	-0.211	-0.125
-370.785	0.768	-0.188	0.134
-369.771	189.192	0.006	-0.010
-368.756	36.491	0.234	-0.205
-367.742	-127.710	-0.204	0.029
-366.727	-200.000	-0.003	0.013
-365.712	-166.520	0.090	-0.004
-364.698	512.006	-0.076	-0.177
-363.683	107.653	-0.329	0.391
-362.669	13.657	-0.061	0.047
-361.654	-200.000	-0.050	-0.293
-360.639	-200.000	-0.036	-0.305
-359.625	-142.002	-0.133	-0.013
-358.610	800.000	0.074	0.275
-357.596	-92.458	0.335	0.094
-356.581	-115.870	-0.070	0.013
-355.566	800.000	-0.112	0.431
-354.552	-65.809	-0.191	-0.076
-353.537	-16.929	0.413	0.260
-352.523	-134.209	0.105	-0.013
-351.508	-200.000	0.007	-0.136
-350.493	112.944	-0.017	-0.020
-349.479	136.665	-0.086	0.112
-348.464	82.324	-0.103	0.111
-347.450	-200.000	0.018	-0.121
-346.435	-64.520	-0.230	-0.093
-345.420	-65.776	0.089	-0.036
-344.406	128.039	0.154	0.195
-343.391	-5.813	-0.073	0.050
-342.377	-116.212	-0.254	-0.047
-341.362	30.405	-0.076	-0.064
-340.348	-87.313	0.101	0.030
-339.333	530.278	-0.136	-0.319
-338.318	-35.712	0.320	0.173
-337.304	350.048	-0.108	-0.213
-336.289	43.261	0.095	0.086
-335.275	26.627	0.054	0.045
-334.260	129.835	-0.058	-0.074
-333.245	-52.867	0.183	0.084
-332.231	124.506	0.108	0.136
-331.216	276.888	0.040	-0.072
-330.202	800.000	-0.082	0.282
-329.187	7.599	0.398	-0.296
-328.172	115.327	0.147	-0.178
-327.158	370.591	0.108	-0.219
-326.143	344.166	-0.088	-0.172
-325.129	-200.000	0.063	-0.287
-324.114	134.557	0.190	-0.246
-323.099	212.565	-0.062	0.098
-322.085	181.419	0.077	0.113
-321.070	-46.251	-0.195	0.096
-320.056	-200.000	-0.023	0.248
-319.041	-99.338	0.423	-0.106
-318.026	-200.000	0.045	0.374
-317.012	0.913	0.219	0.156
-315.997	-182.664	-0.237	-0.004
-314.983	800.000	-0.012	0.046
-313.968	-45.617	-0.253	0.125
-312.953	-181.527	-0.239	-0.005
-311.939	-152.360	-0.307	0.022
-310.924	-80.511	0.285	-0.094
-309.910	800.000	0.058	-0.195
-308.895	-112.881	0.622	-0.122
-307.880	-93.598	0.193	0.053
-306.866	-200.000	0.015	0.166
-305.851	329.080	-0.097	-0.184
-304.837	191.962	0.052	0.078
-303.822	40.557	0.308	-0.276
-302.807	186.690	-0.138	0.204
-301.793	-20.200	-0.312	0.191
-300.778	-200.000	-0.020	0.432
-299.764	-52.330	0.056	0.026
-298.749	-87.657	-0.146	-0.044
-297.735	-17.272	0.092	0.057
-296.720	-143.419	-0.315	0.030
-295.705	800.000	0.041	0.150
-294.691	493.061	0.088	-0.201
-293.676	408.640	-0.071	0.149
-292.662	126.416	0.179	-0.225
-291.647	-14.333	0.243	-0.156
-290.632	800.000	0.128	0.361
-289.618	757.510	-0.035	-0.094
-288.603	-200.000	0.013	-0.259
-287.589	-185.873	0.112	0.002
-286.574	-105.083	0.228	0.052
-285.559	364.370	0.044	0.088
-284.545	-49.236	-0.226	-0.107
-283.530	232.722	0.073	-0.119
-282.516	-200.000	0.010	-0.170
-281.501	-193.457	0.278	0.002
-280.486	40.069	-0.211	0.189
-279.472	-135.986	-0.522	0.061
-278.457	800.000	0.053	0.146
-277.443	-17.907	-0.278	0.173
-276.428	642.372	0.034	0.085
-275.413	85.755	0.108	0.118
-274.399	800.000	-0.065	-0.253
-273.384	-4.946	0.145	-0.099
-272.370	-25.020	-0.169	0.100
-271.355	208.771	-0.240	0.372
-270.340	-200.000	0.039	0.228
-269.326	201.185	-0.128	0.195
-268.311	317.204	-0.112	-0.210
-267.297	34.345	0.241	-0.208
-266.282	-14.841	-0.301	0.192
-265.267	-18.569	0.172	-0.106
-264.253	-66.860	-0.375	-0.147
-263.238	269.726	0.181	0.316
-262.224	-116.613	0.331	0.061
-261.209	-23.354	-0.010	0.006
-260.195	-42.235	-0.161	-0.082
-259.180	108.403	0.100	-0.118
-258.165	800.000	-0.022	-0.061
-257.151	-47.994	0.158	0.076
-256.136	-200.000	0.042	-0.274
-255.122	-126.499	0.240	-0.035
-254.107	-200.000	0.052	0.263
-253.092	800.000	-0.029	0.119
-252.078	800.000	0.125	0.357
-251.063	-200.000	0.014	0.082
-250.049	800.000	0.075	-0.317
-249.034	438.208	0.138	0.298
-248.019	-74.228	-0.112	-0.040
-247.005	305.890	0.137	-0.252
-245.990	157.407	-0.065	0.089
-244.976	92.288	0.188	0.210
-243.961	-19.928	-0.500	0.306
-242.946	-200.000	0.024	0.106
-241.932	-118.000	-0.191	-0.034
-240.917	-8.796	-0.392	-0.261
-239.903	158.140	0.301	-0.414
-238.888	-124.494	-0.165	-0.025
-237.873	-122.908	0.113	-0.018
-236.859	116.188	-0.233	0.283
-235.844	-200.000	0.038	0.238
-234.830	-89.228	0.082	0.024
-233.815	800.000	-0.045	-0.187
-232.800	-200.000	-0.007	-0.232
-231.786	-97.634	-0.439	-0.113
-230.771	-105.972	0.344	0.077
-229.757	-12.825	-0.158	0.102
-228.742	260.321	-0.081	-0.139
-227.727	191.316	-0.156	-0.232
-226.713	773.304	-0.112	-0.302
-225.698	-164.489	-0.497	-0.022
-224.684	183.483	0.052	0.076
-223.669	257.432	0.059	0.101
-222.655	-107.222	0.278	-0.061
-221.640	22.265	0.052	-0.042
-220.625	394.665	-0.110	-0.227
-219.611	-106.501	-0.032	-0.007
-218.596	-2.433	0.194	0.135
-217.582	-84.945	0.317	0.099
-216.567	-20.308	-0.468	0.286
-215.552	174.931	0.201	0.287
-214.538	-148.925	-0.202	-0.016
-213.523	10.755	-0.141	0.107
-212.509	800.000	-0.059	0.215
-211.494	394.619	0.105	-0.216
-210.479	-50.667	-0.436	-0.203
-209.465	-40.753	0.188	-0.097
-208.450	45.843	0.359	0.329
-207.436	99.880	-0.170	-0.195
-206.421	-83.523	0.332	0.105
-205.406	-41.335	0.193	0.098
-204.392	101.486	-0.125	-0.144
-203.377	-21.351	-0.095	0.058
-202.363	45.014	0.249	-0.227
-201.348	-38.582	0.256	0.134
-200.333	-17.261	-0.185	-0.115
-199.319	366.505	0.006	-0.012
-198.304	6.510	0.078	-0.057
-197.290	92.884	-0.151	-0.169
-196.275	-76.771	0.080	-0.028
-195.260	-200.000	-0.025	0.160
-194.246	-0.522	0.258	0.181
-193.231	-185.047	-0.056	0.001
-192.217	-124.658	0.289	0.044
-191.202	119.273	0.281	0.344
-190.187	-200.000	0.046	0.310
-189.173	-14.571	0.061	0.039
-188.158	-8.249	-0.320	0.213
-187.144	-13.028	-0.187	-0.120
-186.129	257.401	0.081	0.138
-185.114	-59.355	0.186	-0.079
-184.100	-38.175	-0.143	-0.075
-183.085	-44.419	0.256	0.127
-182.071	127.882	0.270	0.339
-181.056	-200.000	-0.001	-0.007
-180.042	-175.727	-0.307	0.008
-179.027	800.000	0.134	0.371
-178.012	-122.652	0.327	0.052
-176.998	-123.033	-0.043	-0.007
-175.983	-200.000	-0.143	0.000
-174.969	18.423	-0.048	0.038
-173.954	-141.275	-0.284	-0.029
-172.939	-159.091	-0.107	-0.006
-171.925	30.796	-0.201	-0.170
-170.910	-95.296	0.134	-0.036
-169.896	159.921	-0.223	0.307
-168.881	-84.504	0.252	-0.078
-167.866	-200.000	-0.057	0.421
-166.852	-155.567	-0.322	-0.020
-165.837	-200.000	-0.036	0.342
-164.823	-200.000	-0.037	0.244
-163.808	65.246	-0.152	-0.152
-162.793	-142.447	-0.105	0.010
-161.779	-128.365	0.043	0.006
-160.764	-164.927	0.293	-0.013
-159.750	34.401	0.276	0.238
-158.735	294.475	-0.086	0.155
-157.720	-200.000	-0.006	-0.092
-156.706	-41.535	-0.009	-0.004
-155.691	800.000	0.100	0.335
-154.677	339.001	-0.173	0.332
-153.662	-51.519	-0.167	-0.077
-152.647	1.341	0.192	-0.136
-151.633	-125.505	-0.379	-0.057
-150.618	-60.150	0.350	0.148
-149.604	262.317	-0.132	-0.226
-148.589	-159.221	0.150	-0.008
-147.574	173.030	-0.123	0.175
-146.560	-200.000	0.172	-0.000
-145.545	-70.423	0.209	0.078
-144.531	61.720	0.084	-0.083
-143.516	173.196	0.142	0.203
-142.502	456.977	0.031	-0.067
-141.487	-172.252	0.271	-0.009
-140.472	-110.598	0.086	0.018
-139.458	-126.611	0.101	-0.015
-138.443	294.434	-0.139	0.251
-137.429	-0.441	0.385	-0.270
-136.414	716.702	0.065	-0.170
-135.399	800.000	0.081	-0.235
-134.385	503.372	0.174	0.397
-133.370	800.000	-0.094	0.316
-132.356	-144.382	0.183	0.017
-131.341	-92.770	-0.349	0.096
-130.326	-131.728	-0.298	0.039
-129.312	-200.000	0.008	0.074
-128.297	-31.041	-0.208	-0.116
-127.283	-125.786	0.287	-0.043
-126.268	366.632	-0.030	0.060
-125.253	800.000	-0.112	0.471
-124.239	52.008	-0.228	0.215
-123.224	-96.625	0.181	0.047
-122.210	62.109	-0.200	0.197
