DTS Sentinel unit serial number:	SN413079Multiplexer serial number:	ORYXHardware model number:	OX4-SRSoftware version number:	ORYX F/W v4.00 Oryx Data Collector v3.7.2.0data status	okinstallation	princeton_trtdifferential loss correction	single-endedforward channel	channel 1reverse channel	N/Adate	2019/09/13time	05:54:35forward acquisition time	60.00reverse acquisition time	0.00gamma	496.2192k internal	0.2335k external	0.2335temperature offset calibration	1.0157default loss term (dB/km)	0.3790temperature slope calibration	1.0000multiplexer offset coefficient	1.0000multiplexer slope coefficient	1.0000fibre end	0.00T internal ref (°C)	26.17T ext. ref 1 (°C)	4.06T ext. ref 2 (°C)	20.95length (m)	temperature (°C)	Stokes	anti-Stokes-747.200	-0.346	0.264	-0.188
-746.185	153.152	0.108	-0.149
-745.171	701.385	-0.075	0.198
-744.156	-200.000	-0.004	0.297
-743.142	-153.101	-0.228	0.016
-742.127	244.655	0.121	0.204
-741.112	8.472	0.031	0.023
-740.098	101.543	-0.032	-0.037
-739.083	-24.008	-0.219	0.131
-738.069	-200.000	-0.016	0.070
-737.054	56.161	-0.121	0.118
-736.039	27.197	-0.360	0.304
-735.025	-67.434	-0.078	-0.031
-734.010	-200.000	0.004	-0.337
-732.996	52.626	-0.117	-0.112
-731.981	-200.000	-0.035	-0.168
-730.966	323.426	-0.047	0.090
-729.952	-142.407	-0.179	-0.018
-728.937	-107.279	-0.297	0.066
-727.923	313.684	-0.128	0.242
-726.908	646.156	0.106	-0.273
-725.894	-178.183	0.045	-0.001
-724.879	-170.657	-0.254	-0.009
-723.864	800.000	0.028	0.103
-722.850	-107.751	0.149	0.033
-721.835	34.545	-0.262	-0.230
-720.821	800.000	-0.071	-0.259
-719.806	-141.187	-0.560	-0.057
-718.791	709.514	0.041	-0.110
-717.777	-95.930	0.030	-0.008
-716.762	-142.844	-0.291	-0.028
-715.748	800.000	0.032	-0.102
-714.733	-27.086	-0.241	-0.141
-713.718	-91.814	0.201	-0.057
-712.704	-134.274	0.379	0.047
-711.689	168.369	0.199	-0.285
-710.675	-168.720	-0.072	-0.003
-709.660	24.034	0.108	-0.089
-708.645	-8.983	-0.108	-0.072
-707.631	134.810	-0.045	-0.058
-706.616	800.000	0.050	-0.147
-705.602	-134.954	-0.107	0.013
-704.587	-200.000	0.046	-0.397
-703.572	24.281	-0.103	-0.085
-702.558	419.299	-0.196	-0.420
-701.543	314.729	-0.139	-0.263
-700.529	-93.633	0.200	0.055
-699.514	122.208	0.035	-0.044
-698.499	79.986	0.158	-0.170
-697.485	-104.180	-0.182	-0.042
-696.470	91.019	-0.171	-0.192
-695.456	-200.000	0.010	0.049
-694.441	237.848	-0.165	0.275
-693.426	-128.547	-0.193	-0.027
-692.412	-200.000	0.017	0.316
-691.397	798.643	0.074	0.204
-690.383	-200.000	0.004	-0.039
-689.368	104.131	-0.212	0.250
-688.354	529.374	0.016	-0.038
-687.339	19.217	-0.161	0.130
-686.324	-89.011	-0.166	-0.049
-685.310	452.022	-0.044	-0.098
-684.295	337.370	-0.068	-0.133
-683.281	676.284	0.054	0.141
-682.266	-200.000	0.005	-0.096
-681.251	800.000	0.034	0.128
-680.237	71.410	-0.210	-0.218
-679.222	-200.000	0.031	-0.389
-678.208	-200.000	0.020	0.336
-677.193	-165.138	-0.385	-0.017
-676.178	57.618	-0.124	0.121
-675.164	262.045	-0.214	-0.372
-674.149	-112.969	-0.053	0.010
-673.135	567.507	-0.072	-0.175
-672.120	-145.208	0.352	0.032
-671.105	-81.752	-0.347	-0.114
-670.091	286.749	-0.099	-0.178
-669.076	-61.000	0.118	-0.050
-668.062	-143.676	-0.268	-0.025
-667.047	37.988	-0.152	0.136
-666.032	-200.000	0.010	-0.055
-665.018	-89.902	-0.318	0.093
-664.003	-200.000	-0.003	0.130
-662.989	554.511	-0.198	0.478
-661.974	56.983	-0.075	-0.073
-660.959	800.000	-0.117	0.390
-659.945	141.037	-0.016	0.022
-658.930	-146.219	0.377	0.033
-657.916	-130.797	-0.090	-0.012
-656.901	-200.000	-0.000	-0.266
-655.886	-200.000	0.015	-0.138
-654.872	92.969	-0.069	0.078
-653.857	-200.000	0.023	-0.135
-652.843	18.797	-0.123	-0.099
-651.828	-169.340	-0.147	-0.005
-650.814	23.783	0.184	0.152
-649.799	10.450	0.129	-0.098
-648.784	264.481	0.196	-0.341
-647.770	-141.085	0.433	0.044
-646.755	-121.278	-0.089	0.015
-645.741	188.163	0.295	-0.441
-644.726	-200.000	0.015	-0.453
-643.711	419.011	0.037	0.078
-642.697	183.150	0.043	0.064
-641.682	1.373	0.082	0.059
-640.668	152.613	-0.168	-0.230
-639.653	216.618	-0.168	-0.267
-638.638	-47.815	0.061	-0.030
-637.624	-200.000	0.008	0.067
-636.609	31.551	0.103	0.089
-635.595	800.000	0.097	-0.356
-634.580	-63.657	-0.147	0.060
-633.565	100.202	0.115	-0.133
-632.551	-19.073	0.211	0.131
-631.536	-45.893	0.087	0.043
-630.522	87.680	0.142	-0.157
-629.507	-200.000	-0.026	0.133
-628.492	-200.000	0.025	-0.335
-627.478	800.000	-0.117	0.347
-626.463	800.000	-0.092	-0.296
-625.449	32.174	0.086	-0.074
-624.434	-61.289	0.313	-0.132
-623.419	26.335	0.151	-0.126
-622.405	-200.000	-0.016	0.075
-621.390	-200.000	-0.002	0.086
-620.376	-8.802	-0.205	0.137
-619.361	116.489	-0.261	0.320
-618.346	-92.561	-0.034	-0.010
-617.332	-2.804	0.120	-0.084
-616.317	-200.000	-0.015	-0.213
-615.303	32.971	-0.165	0.143
-614.288	259.870	-0.095	0.164
-613.273	231.856	0.296	0.485
-612.259	75.866	-0.081	0.085
-611.244	319.591	0.165	0.312
-610.230	37.491	0.031	-0.028
-609.215	-7.356	0.286	0.194
-608.201	24.058	0.114	0.094
-607.186	-163.053	-0.346	-0.017
-606.171	-72.178	-0.076	0.028
-605.157	-159.780	0.466	-0.026
-604.142	49.424	-0.064	-0.060
-603.128	72.486	-0.220	-0.229
-602.113	-200.000	-0.008	-0.154
-601.098	-115.560	-0.376	0.071
-600.084	-38.438	-0.077	-0.041
-599.069	-113.855	0.227	0.044
-598.055	217.827	0.276	-0.439
-597.040	800.000	-0.046	-0.149
-596.025	-108.989	0.098	-0.021
-595.011	28.905	0.041	-0.035
-593.996	101.015	-0.159	0.184
-592.982	-79.245	-0.205	-0.070
-591.967	51.919	0.134	0.127
-590.952	52.226	0.015	0.014
-589.938	7.206	0.171	-0.127
-588.923	-21.125	0.241	0.147
-587.909	104.433	-0.155	0.183
-586.894	78.612	0.108	-0.115
-585.879	544.586	-0.110	-0.263
-584.865	-200.000	0.020	-0.134
-583.850	42.289	0.089	0.080
-582.836	-119.114	0.216	0.038
-581.821	-139.029	0.286	-0.031
-580.806	-200.000	0.020	-0.172
-579.792	-86.397	-0.145	0.044
-578.777	800.000	0.040	0.143
-577.763	-73.167	0.184	-0.067
-576.748	119.289	-0.191	-0.236
-575.733	3.634	-0.493	0.359
-574.719	484.027	-0.127	0.289
-573.704	68.106	-0.144	0.147
-572.690	179.025	-0.179	-0.261
-571.675	-104.366	-0.061	0.014
-570.661	8.412	0.155	-0.116
-569.646	800.000	0.042	-0.116
-568.631	-200.000	0.021	-0.158
-567.617	528.442	-0.039	-0.092
-566.602	-49.700	-0.319	-0.151
-565.588	800.000	0.075	-0.208
-564.573	800.000	-0.014	0.042
-563.558	-86.992	-0.350	-0.106
-562.544	-200.000	0.027	0.134
-561.529	-55.665	0.203	0.091
-560.515	123.775	0.022	-0.027
-559.500	186.160	0.081	0.120
-558.485	800.000	0.026	-0.096
-557.471	696.949	0.155	-0.406
-556.456	-200.000	0.002	-0.129
-555.442	252.325	0.198	0.336
-554.427	-200.000	0.009	-0.083
-553.412	800.000	-0.073	-0.288
-552.398	800.000	-0.047	-0.132
-551.383	-162.372	0.065	0.003
-550.369	-95.938	-0.229	-0.061
-549.354	800.000	0.122	0.348
-548.339	143.448	0.042	-0.056
-547.325	71.165	-0.278	-0.288
-546.310	-32.936	-0.222	0.123
-545.296	-106.391	0.396	0.088
-544.281	800.000	0.079	-0.306
-543.266	-11.512	-0.076	-0.050
-542.252	-139.278	0.365	0.039
-541.237	627.608	-0.148	0.373
-540.223	-200.000	-0.022	-0.132
-539.208	99.627	-0.213	-0.246
-538.193	194.299	0.020	-0.031
-537.179	-17.911	-0.128	-0.080
-536.164	-74.746	-0.078	0.028
-535.150	538.991	0.200	0.474
-534.135	-70.514	-0.217	0.082
-533.121	-52.315	-0.375	0.173
-532.106	800.000	0.033	-0.115
-531.091	155.583	-0.142	-0.194
-530.077	14.509	0.031	-0.024
-529.062	169.362	-0.102	0.144
-528.048	58.419	0.065	0.063
-527.033	-200.000	0.170	0.001
-526.018	171.888	-0.199	-0.284
-525.004	-200.000	0.023	0.146
-523.989	-200.000	0.011	0.089
-522.975	-87.803	0.071	0.021
-521.960	645.154	-0.089	0.227
-520.945	-105.647	0.391	0.088
-519.931	-151.209	0.246	-0.018
-518.916	484.236	-0.144	0.326
-517.902	467.678	-0.211	0.472
-516.887	-161.277	0.296	-0.015
-515.872	483.468	0.094	-0.213
-514.858	-17.720	0.160	-0.100
-513.843	800.000	-0.012	-0.035
-512.829	-200.000	0.020	0.122
-511.814	-28.638	0.302	-0.173
-510.799	178.231	0.061	-0.089
-509.785	132.558	0.325	0.417
-508.770	-200.000	0.015	-0.218
-507.756	10.997	-0.125	0.095
-506.741	-57.318	-0.296	-0.129
-505.726	35.642	0.177	-0.155
-504.712	189.292	0.170	0.254
-503.697	-164.541	-0.182	-0.008
-502.683	134.324	-0.214	0.276
-501.668	-100.671	-0.038	-0.009
-500.653	16.146	0.077	-0.060
-499.639	800.000	-0.032	-0.111
-498.624	324.315	0.047	0.089
-497.610	-200.000	-0.015	0.231
-496.595	-26.069	0.201	0.118
-495.581	-21.505	0.098	-0.059
-494.566	78.573	0.080	-0.085
-493.551	-200.000	-0.028	-0.174
-492.537	-157.550	-0.083	-0.005
-491.522	35.286	0.156	-0.136
-490.508	-200.000	0.052	-0.318
-489.493	-188.184	0.357	-0.005
-488.478	800.000	-0.036	0.133
-487.464	47.621	-0.130	-0.120
-486.449	-200.000	0.004	-0.083
-485.435	336.547	0.054	-0.105
-484.420	-200.000	-0.002	-0.192
-483.405	51.692	0.222	-0.210
-482.391	-110.011	-0.651	-0.136
-481.376	198.665	0.104	0.158
-480.362	-200.000	0.062	0.482
-479.347	800.000	0.042	0.180
-478.332	34.836	-0.087	0.076
-477.318	-200.000	0.014	-0.079
-476.303	-34.696	-0.324	0.176
-475.289	-98.448	-0.314	0.080
-474.274	-63.537	-0.072	0.029
-473.259	-74.423	-0.184	0.066
-472.245	-200.000	-0.002	-0.204
-471.230	-200.000	-0.009	0.163
-470.216	327.866	0.055	0.105
-469.201	628.959	-0.065	-0.162
-468.186	-15.491	-0.205	0.130
-467.172	800.000	0.062	0.199
-466.157	-37.817	-0.193	-0.102
-465.143	800.000	0.029	-0.116
-464.128	269.322	-0.128	0.223
-463.113	106.375	-0.197	0.232
-462.099	-101.044	-0.191	-0.047
-461.084	-133.155	-0.181	0.023
-460.070	499.042	-0.062	-0.141
-459.055	-197.566	-0.617	0.004
-458.040	-120.776	0.228	-0.038
-457.026	-159.298	0.177	0.010
-456.011	-38.301	-0.220	0.116
-454.997	764.619	0.118	0.318
-453.982	114.572	-0.286	-0.346
-452.968	-144.620	-0.095	-0.009
-451.953	-58.777	-0.307	-0.132
-450.938	-98.532	0.075	-0.019
-449.924	-75.721	-0.059	-0.021
-448.909	-31.497	-0.255	0.142
-447.895	-62.147	-0.210	0.087
-446.880	-200.000	-0.025	-0.146
-445.865	221.144	0.193	0.308
-444.851	-117.930	0.107	-0.019
-443.836	292.541	0.039	0.071
-442.822	96.640	0.195	0.222
-441.807	313.981	0.047	0.087
-440.792	-47.446	-0.140	-0.068
-439.778	-52.054	0.222	0.103
-438.763	255.643	-0.120	-0.204
-437.749	-163.149	0.114	0.005
-436.734	-121.545	-0.407	0.067
-435.719	-58.233	-0.132	0.057
-434.705	132.177	-0.054	0.069
-433.690	164.771	0.089	-0.124
-432.676	-200.000	0.013	-0.299
-431.661	-147.051	0.283	-0.024
-430.646	106.600	0.081	0.095
-429.632	56.005	0.102	0.098
-428.617	88.130	-0.213	0.234
-427.603	-50.553	0.216	-0.101
-426.588	422.448	-0.104	0.221
-425.573	70.955	0.205	0.211
-424.559	124.106	0.266	-0.332
-423.544	-67.573	-0.101	-0.039
-422.530	-71.590	-0.146	-0.054
-421.515	-44.147	0.301	0.150
-420.500	241.904	-0.153	0.253
-419.486	800.000	0.108	-0.411
-418.471	-91.899	0.265	0.075
-417.457	44.687	-0.256	-0.234
-416.442	-58.326	0.040	-0.017
-415.428	6.659	-0.045	-0.033
-414.413	50.669	-0.131	-0.123
-413.398	198.941	0.059	0.090
-412.384	800.000	0.102	0.289
-411.369	800.000	0.019	-0.061
-410.355	-37.593	0.305	-0.161
-409.340	76.884	0.030	0.032
-408.325	223.662	-0.169	0.270
-407.311	-200.000	0.003	-0.020
-406.296	95.702	0.072	0.082
-405.282	310.019	0.063	0.117
-404.267	35.247	-0.088	0.076
-403.252	6.377	0.238	-0.175
-402.238	175.315	-0.046	0.065
-401.223	-200.000	-0.018	-0.161
-400.209	-199.818	-0.103	0.001
-399.194	772.634	0.120	0.324
-398.179	79.725	-0.071	0.076
-397.165	171.477	-0.097	-0.138
-396.150	75.014	0.044	-0.046
-395.136	-102.632	0.362	-0.086
-394.121	-102.634	-0.090	0.021
-393.106	-146.759	-0.113	-0.010
-392.092	-143.145	-0.131	0.013
-391.077	-5.067	-0.167	-0.114
-390.063	-139.590	0.317	-0.033
-389.048	-102.638	0.110	-0.026
-388.033	-200.000	0.494	0.002
-387.019	-8.118	-0.053	-0.036
-386.004	-15.601	-0.196	0.124
-384.990	2.940	-0.165	-0.119
-383.975	-200.000	-0.012	0.110
-382.960	800.000	-0.105	-0.432
-381.946	585.731	0.146	-0.356
-380.931	-142.735	-0.098	0.009
-379.917	50.591	-0.189	-0.177
-378.902	-147.514	-0.146	-0.012
-377.888	245.521	0.085	-0.142
-376.873	800.000	-0.024	0.075
-375.858	683.978	0.120	0.309
-374.844	53.711	-0.065	-0.062
-373.829	-143.090	-0.173	-0.017
-372.815	218.262	0.031	-0.050
-371.800	-166.533	-0.052	0.002
-370.785	532.709	-0.119	0.279
-369.771	161.361	-0.212	-0.294
-368.756	298.661	0.161	-0.294
-367.742	293.216	0.139	0.251
-366.727	494.350	-0.070	0.158
-365.712	-70.907	0.139	0.052
-364.698	497.843	0.107	-0.244
-363.683	-56.250	-0.136	0.060
-362.669	-200.000	-0.086	0.472
-361.654	249.654	0.205	0.344
-360.639	-64.006	0.233	-0.094
-359.625	47.687	0.128	0.118
-358.610	-154.334	-0.289	0.019
-357.596	-189.416	-0.032	0.000
-356.581	208.205	0.140	-0.217
-355.566	-200.000	0.061	0.316
-354.552	-87.165	-0.102	-0.031
-353.537	255.540	0.118	-0.200
-352.523	-11.005	-0.153	-0.100
-351.508	-200.000	0.011	-0.144
-350.493	387.949	0.075	0.154
-349.479	113.775	-0.180	0.217
-348.464	401.904	-0.013	0.027
-347.450	343.407	-0.038	-0.073
-346.435	-41.743	-0.323	0.164
-345.420	-18.641	-0.183	-0.113
-344.406	-35.845	0.327	-0.175
-343.391	248.167	-0.098	-0.165
-342.377	-83.758	-0.363	-0.115
-341.362	21.311	0.044	-0.035
-340.348	191.642	-0.177	0.264
-339.333	-82.697	0.168	0.054
-338.318	66.666	0.140	0.141
-337.304	-18.105	0.177	0.110
-336.289	23.862	0.092	0.075
-335.275	-200.000	0.040	0.213
-334.260	7.874	0.308	0.228
-333.245	65.493	0.232	0.232
-332.231	800.000	0.032	-0.129
-331.216	154.652	-0.249	-0.338
-330.202	800.000	-0.091	0.296
-329.187	-187.540	0.197	0.003
-328.172	274.639	0.198	0.346
-327.158	-143.453	0.067	-0.006
-326.143	-92.214	-0.221	0.062
-325.129	-200.000	-0.010	-0.099
-324.114	111.956	-0.099	0.118
-323.099	123.767	0.093	0.115
-322.085	-134.773	-0.281	0.034
-321.070	-200.000	0.017	-0.127
-320.056	-200.000	-0.001	0.212
-319.041	38.630	0.217	0.191
-318.026	-34.867	-0.243	-0.131
-317.012	-100.919	-0.305	-0.074
-315.997	104.624	0.139	-0.161
-314.983	62.172	0.112	-0.110
-313.968	132.760	0.171	-0.218
-312.953	40.644	0.030	-0.026
-311.939	-8.699	-0.156	-0.103
-310.924	-89.359	0.359	-0.104
-309.910	104.892	0.287	0.334
-308.895	59.461	0.196	-0.190
-307.880	-142.665	-0.362	-0.035
-306.866	106.741	-0.080	0.094
-305.851	60.121	-0.120	0.117
-304.837	-200.000	-0.030	-0.239
-303.822	-148.453	-0.127	-0.010
-302.807	578.188	-0.108	-0.262
-301.793	-63.662	0.099	0.040
-300.778	18.336	-0.331	0.261
-299.764	-200.000	0.037	0.219
-298.749	219.630	-0.237	-0.375
-297.735	207.153	-0.095	-0.147
-296.720	-200.000	0.013	0.090
-295.705	-200.000	-0.049	0.315
-294.691	-27.127	0.190	0.109
-293.676	72.801	0.093	-0.096
-292.662	716.154	0.079	-0.206
-291.647	-92.892	0.120	-0.033
-290.632	51.829	-0.145	-0.136
-289.618	-200.000	0.014	-0.423
-288.603	642.091	0.072	0.180
-287.589	7.902	0.191	0.141
-286.574	23.379	-0.172	-0.140
-285.559	183.158	0.017	0.025
-284.545	134.491	0.150	-0.192
-283.530	-150.478	-0.128	-0.010
-282.516	48.513	0.033	0.031
-281.501	-158.357	0.155	0.009
-280.486	-200.000	-0.024	-0.145
-279.472	-200.000	0.040	0.376
-278.457	-78.450	0.267	0.090
-277.443	-179.444	0.313	0.007
-276.428	101.474	-0.145	-0.167
-275.413	-89.815	0.063	-0.018
-274.399	-200.000	-0.020	0.317
-273.384	-87.097	-0.334	0.100
-272.370	-200.000	-0.035	-0.269
-271.355	737.046	-0.092	-0.242
-270.340	159.438	-0.080	-0.110
-269.326	-76.731	-0.032	-0.011
-268.311	-26.974	0.106	-0.061
-267.297	-95.682	-0.027	-0.007
-266.282	-80.892	0.118	0.039
-265.267	-200.000	-0.002	-0.078
-264.253	137.801	0.110	-0.142
-263.238	441.305	0.079	-0.171
-262.224	623.293	-0.190	-0.473
-261.209	425.649	0.127	0.269
-260.195	-30.193	0.109	0.061
-259.180	-155.544	-0.045	-0.003
-258.165	-25.658	0.203	0.118
-257.151	-75.760	-0.147	0.051
-256.136	-200.000	-0.006	0.213
-255.122	-120.242	-0.257	-0.043
-254.107	260.565	0.074	-0.127
-253.092	800.000	-0.094	0.256
-252.078	8.547	-0.013	0.010
-251.063	677.885	-0.077	0.197
-250.049	-104.705	0.227	-0.052
-249.034	7.547	0.104	0.077
-248.019	218.436	-0.123	-0.194
-247.005	-200.000	-0.064	-0.284
-245.990	800.000	-0.105	-0.408
-244.976	-48.928	-0.068	-0.032
-243.961	-163.556	0.358	-0.017
-242.946	-200.000	-0.002	-0.072
-241.932	13.239	0.190	0.145
-240.917	-154.174	-0.291	0.019
-239.903	53.085	-0.196	0.185
-238.888	-200.000	0.014	0.254
-237.873	291.880	-0.054	-0.096
-236.859	-66.315	-0.270	0.106
-235.844	-116.962	-0.233	-0.042
-234.830	88.392	0.179	-0.196
-233.815	193.242	-0.231	0.344
-232.800	-200.000	-0.007	0.065
-231.786	-107.254	-0.032	-0.007
-230.771	-115.028	0.072	0.013
-229.757	-40.307	0.047	-0.024
-228.742	-200.000	-0.039	0.290
-227.727	-200.000	-0.008	0.175
-226.713	-116.527	0.357	0.065
-225.698	-31.499	0.241	-0.134
-224.684	120.360	-0.042	-0.052
-223.669	-200.000	0.045	0.349
-222.655	-122.767	-0.149	0.024
-221.640	800.000	0.095	-0.288
-220.625	-37.311	0.187	-0.098
-219.611	12.284	-0.261	-0.198
-218.596	-139.888	0.163	-0.017
-217.582	-185.963	-0.240	0.003
-216.567	-200.000	0.013	0.127
-215.552	-200.000	0.047	0.275
-214.538	800.000	0.013	-0.038
-213.523	61.458	-0.174	-0.170
-212.509	-29.022	0.293	-0.165
-211.494	127.221	0.138	0.172
-210.479	153.648	0.096	-0.129
-209.465	38.954	0.151	0.133
-208.450	800.000	-0.050	-0.143
-207.436	382.704	-0.060	-0.122
-206.421	-141.826	-0.085	-0.008
-205.406	93.529	-0.108	-0.120
-204.392	8.422	0.184	-0.136
-203.377	-1.204	-0.100	-0.069
-202.363	-200.000	0.033	-0.160
-201.348	-200.000	-0.025	0.327
-200.333	-128.931	0.461	0.064
-199.319	-170.207	0.088	-0.003
-198.304	117.693	0.087	0.106
-197.290	-9.039	-0.264	-0.174
-196.275	800.000	-0.061	-0.168
-195.260	-200.000	0.062	0.322
-194.246	183.160	0.168	0.243
-193.231	-105.776	0.067	-0.015
-192.217	302.687	-0.098	0.179
-191.202	99.728	-0.032	0.036
-190.187	289.583	0.115	-0.205
-189.173	-72.655	-0.384	-0.139
-188.158	102.852	-0.079	0.090
-187.144	-15.201	-0.286	0.180
-186.129	95.943	0.177	0.199
-185.114	10.790	-0.179	0.134
-184.100	-200.000	-0.052	0.326
-183.085	-200.000	0.061	0.412
-182.071	357.627	0.093	0.182
-181.056	-19.709	-0.199	0.121
-180.042	378.160	-0.036	-0.073
-179.027	-70.023	0.119	-0.044
-178.012	800.000	-0.052	-0.212
-176.998	-200.000	-0.019	0.413
-175.983	800.000	-0.032	0.132
-174.969	358.281	0.067	0.132
-173.954	-46.454	-0.329	0.159
-172.939	-200.000	0.037	0.382
-171.925	-14.407	0.165	0.104
-170.910	709.405	0.056	-0.146
-169.896	584.199	0.037	-0.089
-168.881	-200.000	0.003	-0.522
-167.866	-200.000	0.065	-0.578
-166.852	12.460	-0.086	0.065
-165.837	70.211	0.290	-0.294
-164.823	-100.285	0.100	0.024
-163.808	474.599	0.104	0.231
-162.793	-130.538	-0.050	-0.007
-161.779	48.373	-0.176	-0.162
-160.764	608.250	-0.041	-0.100
-159.750	800.000	-0.066	-0.182
-158.735	456.158	-0.043	-0.093
-157.720	-27.421	-0.115	-0.066
-156.706	-26.210	0.191	0.110
-155.691	458.756	0.114	-0.249
-154.677	250.862	-0.200	-0.333
-153.662	-35.598	0.137	0.073
-152.647	-174.468	-0.493	0.014
-151.633	-200.000	0.005	-0.028
-150.618	498.000	-0.134	0.302
-149.604	329.758	0.042	0.079
-148.589	92.668	-0.166	0.184
-147.574	-69.340	0.250	-0.094
-146.560	-200.000	-0.016	-0.162
-145.545	38.789	-0.301	-0.264
-144.531	152.960	-0.225	-0.302
-143.516	-157.342	-0.239	-0.014
-142.502	-0.291	0.081	0.056
-141.487	87.072	0.204	0.221
-140.472	58.621	-0.224	0.216
-139.458	50.870	-0.122	-0.113
-138.443	-22.081	0.149	-0.089
-137.429	-165.442	0.288	-0.012
-136.414	-200.000	0.003	0.031
-135.399	431.742	0.037	0.079
-134.385	-200.000	-0.005	-0.184
-133.370	-200.000	-0.034	-0.223
-132.356	-73.661	-0.097	-0.035
-131.341	-200.000	0.001	-0.035
-130.326	10.111	0.107	-0.080
-129.312	329.397	-0.091	0.172
-128.297	800.000	0.074	0.231
-127.283	-200.000	0.005	0.055
-126.268	-162.772	-0.113	-0.005
-125.253	72.937	0.101	0.104
-124.239	-61.980	-0.073	0.030
-123.224	22.777	0.399	0.320
-122.210	555.712	-0.118	0.279
