DTS Sentinel unit serial number:	SN413079Multiplexer serial number:	ORYXHardware model number:	OX4-SRSoftware version number:	ORYX F/W v4.00 Oryx Data Collector v3.7.2.0data status	okinstallation	princeton_trtdifferential loss correction	single-endedforward channel	channel 1reverse channel	N/Adate	2019/09/19time	06:58:35forward acquisition time	60.00reverse acquisition time	0.00gamma	496.2192k internal	0.2342k external	0.2342temperature offset calibration	1.0016default loss term (dB/km)	0.3790temperature slope calibration	1.0000multiplexer offset coefficient	1.0000multiplexer slope coefficient	1.0000fibre end	0.00T internal ref (°C)	19.00T ext. ref 1 (°C)	0.56T ext. ref 2 (°C)	12.77length (m)	temperature (°C)	Stokes	anti-Stokes-747.200	274.517	0.169	0.299
-746.185	-167.877	-0.208	0.008
-745.171	800.000	0.020	0.070
-744.156	-101.719	-0.044	-0.011
-743.142	-190.322	0.278	0.003
-742.127	-175.838	-0.292	-0.008
-741.112	81.696	-0.165	-0.179
-740.098	-196.455	-0.203	0.001
-739.083	-141.516	-0.065	0.007
-738.069	555.431	-0.151	0.363
-737.054	-119.809	0.261	0.045
-736.039	2.484	0.282	-0.205
-735.025	19.279	0.052	0.042
-734.010	11.189	-0.240	-0.184
-732.996	800.000	-0.058	0.162
-731.981	-141.125	-0.252	-0.026
-730.966	-136.710	-0.285	-0.033
-729.952	168.143	-0.134	-0.191
-728.937	-111.744	0.313	-0.063
-727.923	149.680	0.091	0.123
-726.908	-37.828	-0.314	0.167
-725.894	300.434	0.123	-0.227
-724.879	75.693	-0.125	-0.132
-723.864	-12.819	0.209	-0.136
-722.850	53.998	-0.105	-0.101
-721.835	18.386	-0.173	0.139
-720.821	-15.098	0.247	0.159
-719.806	-200.000	0.001	-0.103
-718.791	-88.344	-0.307	0.092
-717.777	-138.003	-0.301	-0.034
-716.762	-69.288	0.241	-0.093
-715.748	-200.000	0.023	-0.147
-714.733	-200.000	-0.058	-0.340
-713.718	-164.702	0.359	0.016
-712.704	-144.494	-0.100	-0.009
-711.689	-200.000	0.012	0.094
-710.675	8.919	0.159	-0.120
-709.660	800.000	-0.100	0.366
-708.645	-51.033	-0.190	-0.089
-707.631	-40.322	-0.044	-0.023
-706.616	117.184	-0.201	0.246
-705.602	800.000	0.093	0.292
-704.587	99.046	0.085	0.098
-703.572	33.084	0.220	0.190
-702.558	-26.354	-0.355	-0.208
-701.543	-114.369	0.339	0.065
-700.529	-200.000	-0.013	-0.278
-699.514	-52.138	-0.124	-0.057
-698.499	-200.000	0.019	0.137
-697.485	-93.141	-0.268	0.075
-696.470	-200.000	0.018	-0.211
-695.456	747.856	0.045	-0.121
-694.441	-38.525	-0.258	0.137
-693.426	47.609	0.110	0.103
-692.412	800.000	-0.080	-0.298
-691.397	117.535	0.088	0.108
-690.383	800.000	0.071	0.204
-689.368	86.743	-0.175	0.194
-688.354	129.234	-0.087	0.111
-687.339	-70.893	-0.314	0.118
-686.324	144.266	-0.196	-0.261
-685.310	73.790	-0.159	0.166
-684.295	-27.381	0.244	0.142
-683.281	-200.000	0.015	0.337
-682.266	-27.150	0.321	0.187
-681.251	219.049	0.186	-0.296
-680.237	-200.000	-0.010	-0.175
-679.222	-200.000	-0.042	0.348
-678.208	800.000	0.062	0.260
-677.193	-200.000	-0.032	-0.206
-676.178	-200.000	0.013	0.085
-675.164	-73.861	-0.326	-0.118
-674.149	21.968	0.286	-0.233
-673.135	455.471	0.028	-0.063
-672.120	-63.288	-0.197	0.081
-671.105	427.919	0.100	0.216
-670.091	59.093	-0.263	0.259
-669.076	6.582	-0.292	-0.216
-668.062	-144.857	0.277	0.025
-667.047	320.833	-0.164	-0.312
-666.032	-64.411	0.142	-0.058
-665.018	122.511	0.211	-0.264
-664.003	780.499	-0.089	-0.244
-662.989	-47.403	0.247	0.120
-661.974	-78.972	0.106	-0.036
-660.959	-134.627	-0.238	-0.029
-659.945	5.831	-0.397	-0.293
-658.930	25.114	0.201	-0.166
-657.916	98.464	0.034	-0.039
-656.901	-4.789	0.175	-0.120
-655.886	34.132	0.243	0.212
-654.872	-41.629	-0.220	0.113
-653.857	173.725	0.156	-0.225
-652.843	-6.964	-0.058	-0.039
-651.828	-169.801	0.217	-0.008
-650.814	68.710	0.085	0.088
-649.799	253.222	0.070	-0.119
-648.784	800.000	-0.055	-0.199
-647.770	800.000	-0.031	-0.109
-646.755	519.251	0.055	-0.130
-645.741	227.028	0.270	-0.438
-644.726	-200.000	0.049	-0.228
-643.711	-129.931	-0.222	-0.030
-642.697	-152.949	0.218	0.015
-641.682	-200.000	-0.024	0.228
-640.668	103.810	-0.204	-0.239
-639.653	-200.000	0.019	0.117
-638.638	3.327	-0.119	0.087
-637.624	84.686	0.122	0.134
-636.609	-46.962	-0.081	0.040
-635.595	-52.253	0.257	0.119
-634.580	238.311	-0.076	0.125
-633.565	129.641	-0.272	-0.346
-632.551	-57.970	-0.128	0.056
-631.536	201.313	-0.259	0.398
-630.522	-108.676	0.194	-0.041
-629.507	-55.185	0.231	0.104
-628.492	800.000	0.035	0.136
-627.478	800.000	-0.041	0.136
-626.463	699.102	0.062	0.162
-625.449	-59.847	-0.461	0.197
-624.434	800.000	0.157	-0.477
-623.419	-36.143	-0.259	-0.140
-622.405	249.237	-0.042	-0.071
-621.390	-63.136	-0.211	-0.087
-620.376	-133.251	0.212	-0.027
-619.361	188.032	0.203	0.302
-618.346	-200.000	0.032	-0.219
-617.332	-200.000	-0.032	-0.248
-616.317	131.912	-0.207	-0.266
-615.303	42.021	-0.142	0.129
-614.288	-11.441	-0.445	0.292
-613.273	-200.000	-0.017	0.136
-612.259	98.304	-0.305	0.350
-611.244	-135.143	-0.263	-0.032
-610.230	554.281	0.139	-0.333
-609.215	381.899	-0.137	-0.280
-608.201	-26.654	0.081	0.047
-607.186	800.000	-0.028	-0.121
-606.171	175.735	-0.207	-0.299
-605.157	-45.727	-0.171	-0.084
-604.142	19.206	-0.198	-0.159
-603.128	800.000	-0.056	0.192
-602.113	673.060	0.125	0.322
-601.098	467.598	0.034	0.076
-600.084	800.000	-0.055	0.215
-599.069	563.340	0.148	0.357
-598.055	45.088	0.352	0.323
-597.040	-62.632	0.332	-0.137
-596.025	14.587	0.143	0.111
-595.011	800.000	0.043	-0.149
-593.996	85.453	0.213	-0.233
-592.982	-130.376	0.213	0.029
-591.967	103.035	0.050	-0.059
-590.952	74.651	-0.161	-0.168
-589.938	47.348	-0.159	-0.148
-588.923	677.249	-0.073	0.188
-587.909	-24.394	-0.194	0.115
-586.894	-200.000	0.008	0.088
-585.879	68.688	0.117	0.120
-584.865	717.575	0.082	-0.216
-583.850	107.938	0.225	0.267
-582.836	257.140	-0.061	-0.104
-581.821	-5.266	0.271	0.185
-580.806	-80.505	-0.053	0.018
-579.792	-53.099	-0.249	0.114
-578.777	-83.516	-0.283	-0.090
-577.763	-200.000	0.036	-0.201
-576.748	384.785	0.047	0.097
-575.733	64.313	0.101	-0.101
-574.719	-178.785	-0.468	-0.011
-573.704	-91.219	0.150	0.043
-572.690	376.229	-0.153	0.310
-571.675	-149.404	0.189	-0.015
-570.661	800.000	0.067	0.243
-569.646	37.276	-0.181	0.159
-568.631	-101.021	-0.394	0.096
-567.617	-10.860	-0.406	-0.267
-566.602	462.032	-0.060	-0.132
-565.588	-200.000	-0.019	0.385
-564.573	87.479	-0.134	-0.148
-563.558	-200.000	0.045	-0.269
-562.544	-91.332	0.204	0.058
-561.529	800.000	-0.037	0.113
-560.515	-12.532	-0.219	0.142
-559.500	98.156	-0.117	0.133
-558.485	21.239	0.235	0.190
-557.471	800.000	-0.069	0.192
-556.456	-200.000	-0.012	-0.086
-555.442	136.070	0.295	-0.382
-554.427	49.083	-0.301	-0.281
-553.412	194.702	-0.089	-0.134
-552.398	388.165	-0.076	-0.156
-551.383	-44.920	0.370	0.183
-550.369	-169.760	-0.089	-0.003
-549.354	-114.569	0.223	-0.042
-548.339	800.000	0.052	0.197
-547.325	-57.728	0.250	-0.109
-546.310	-111.008	-0.257	0.053
-545.296	10.096	-0.164	-0.124
-544.281	189.300	0.149	0.222
-543.266	-200.000	-0.022	-0.189
-542.252	702.559	0.096	-0.252
-541.237	29.633	0.208	-0.176
-540.223	800.000	-0.010	0.039
-539.208	186.932	-0.066	-0.098
-538.193	554.607	0.096	-0.229
-537.179	-200.000	0.063	-0.406
-536.164	-41.465	-0.090	-0.046
-535.150	-14.512	-0.147	-0.094
-534.135	-49.743	-0.027	0.013
-533.121	209.282	-0.053	-0.082
-532.106	-61.611	0.229	-0.096
-531.091	-200.000	-0.006	0.151
-530.077	-74.324	-0.345	-0.124
-529.062	-79.118	0.105	0.036
-528.048	-135.934	0.280	-0.033
-527.033	684.039	-0.122	-0.316
-526.018	800.000	0.110	0.352
-525.004	-123.835	0.205	-0.032
-523.989	-152.170	-0.251	-0.018
-522.975	-11.828	0.135	-0.088
-521.960	65.895	-0.092	-0.093
-520.945	75.828	-0.158	0.166
-519.931	-75.426	-0.349	-0.123
-518.916	-200.000	0.024	0.115
-517.902	501.397	0.140	-0.321
-516.887	94.078	-0.095	0.107
-515.872	-200.000	-0.004	0.190
-514.858	-20.332	-0.247	-0.151
-513.843	-25.804	0.126	-0.074
-512.829	85.126	0.187	-0.203
-511.814	-172.019	0.136	-0.004
-510.799	-6.320	0.129	-0.087
-509.785	-13.298	0.165	-0.106
-508.770	-62.913	-0.175	-0.072
-507.756	738.484	0.080	0.214
-506.741	-120.872	0.063	0.011
-505.726	-157.578	-0.231	-0.014
-504.712	-126.445	0.298	0.044
-503.697	-125.026	0.415	0.063
-502.683	89.487	-0.245	0.271
-501.668	-99.547	-0.084	-0.021
-500.653	135.785	-0.218	-0.282
-499.639	82.750	-0.082	-0.089
-498.624	38.496	-0.205	0.181
-497.610	-200.000	-0.044	-0.408
-496.595	42.009	-0.058	0.053
-495.581	-93.172	-0.065	-0.018
-494.566	-94.064	0.174	0.047
-493.551	-200.000	0.005	-0.130
-492.537	-126.316	0.454	-0.067
-491.522	63.991	0.170	0.170
-490.508	-150.192	0.079	-0.006
-489.493	-200.000	-0.000	-0.238
-488.478	187.457	-0.102	-0.151
-487.464	357.743	0.214	0.424
-486.449	-118.326	0.182	-0.032
-485.435	-200.000	0.002	0.246
-484.420	-139.272	0.478	-0.051
-483.405	-200.000	-0.052	-0.288
-482.391	-200.000	-0.052	0.461
-481.376	-200.000	0.002	0.113
-480.362	276.438	-0.100	-0.175
-479.347	86.813	-0.152	0.166
-478.332	-200.000	0.003	0.396
-477.318	-87.062	0.162	-0.049
-476.303	22.187	0.325	0.263
-475.289	207.478	-0.091	-0.141
-474.274	-200.000	-0.016	0.096
-473.259	586.331	0.096	0.233
-472.245	170.391	0.180	-0.255
-471.230	-11.078	0.277	0.181
-470.216	282.482	-0.081	-0.144
-469.201	-9.280	0.098	-0.065
-468.186	-11.696	-0.235	-0.153
-467.172	-138.859	-0.178	-0.019
-466.157	-65.932	-0.180	0.071
-465.143	-23.071	-0.093	0.056
-464.128	-160.815	-0.259	0.014
-463.113	131.204	0.107	-0.137
-462.099	89.738	0.156	0.172
-461.084	56.575	0.078	0.075
-460.070	-65.300	-0.194	-0.077
-459.055	-114.177	-0.412	-0.079
-458.040	-149.122	-0.459	0.036
-457.026	41.039	0.016	0.014
-456.011	-151.358	0.247	-0.018
-454.997	48.053	0.054	-0.050
-453.982	33.951	-0.077	-0.067
-452.968	-97.277	-0.162	0.042
-451.953	198.525	0.119	0.181
-450.938	72.890	0.134	-0.139
-449.924	-200.000	0.004	-0.272
-448.909	21.341	0.220	0.177
-447.895	-37.032	-0.105	0.056
-446.880	-55.595	-0.173	0.077
-445.865	255.453	0.075	-0.127
-444.851	382.837	0.100	-0.204
-443.836	-120.310	-0.178	-0.030
-442.822	214.420	0.220	-0.345
-441.807	-200.000	0.023	-0.235
-440.792	-182.155	0.260	-0.005
-439.778	-4.339	-0.273	-0.187
-438.763	368.098	0.086	-0.171
-437.749	-110.024	0.251	-0.052
-436.734	-67.044	0.233	0.091
-435.719	140.640	-0.051	-0.066
-434.705	-200.000	0.085	0.472
-433.690	-97.347	-0.045	-0.012
-432.676	-146.445	0.371	0.032
-431.661	-200.000	-0.050	-0.301
-430.646	368.175	-0.046	-0.092
-429.632	-200.000	-0.002	0.037
-428.617	665.796	-0.069	-0.177
-427.603	254.530	0.019	0.032
-426.588	800.000	0.045	0.170
-425.573	-7.530	-0.332	-0.222
-424.559	-60.691	-0.379	-0.159
-423.544	284.831	-0.177	0.315
-422.530	356.608	-0.178	-0.352
-421.515	142.773	-0.074	0.097
-420.500	-169.518	-0.187	0.007
-419.486	-112.172	-0.158	0.031
-418.471	-200.000	-0.015	-0.267
-417.457	69.136	0.021	-0.021
-416.442	-200.000	0.008	0.230
-415.428	-48.598	0.280	0.133
-414.413	22.728	-0.293	-0.238
-413.398	-200.000	-0.070	0.364
-412.384	727.807	-0.096	0.254
-411.369	-67.992	-0.277	0.107
-410.355	-21.455	0.210	-0.126
-409.340	3.674	0.060	0.043
-408.325	499.593	0.031	-0.072
-407.311	190.121	0.054	0.080
-406.296	-54.381	-0.231	0.104
-405.282	10.901	0.281	-0.212
-404.267	-84.065	0.355	-0.111
-403.252	94.109	-0.102	-0.114
-402.238	800.000	-0.026	0.088
-401.223	-119.342	0.024	0.004
-400.209	-200.000	-0.032	0.266
-399.194	-9.659	-0.163	-0.108
-398.179	-200.000	0.047	-0.312
-397.165	595.838	-0.211	0.517
-396.150	513.656	0.088	0.204
-395.136	800.000	-0.131	0.367
-394.121	800.000	0.109	0.415
-393.106	129.206	-0.225	-0.284
-392.092	-200.000	-0.052	0.400
-391.077	-84.773	-0.089	0.028
-390.063	6.222	0.139	0.102
-389.048	-200.000	0.032	0.151
-388.033	284.850	-0.209	-0.371
-387.019	-102.431	0.266	-0.063
-386.004	-86.510	0.170	0.052
-384.990	-200.000	-0.062	0.283
-383.975	-83.291	-0.182	-0.058
-382.960	-73.503	-0.034	-0.012
-381.946	800.000	-0.059	0.174
-380.931	-144.577	-0.250	0.023
-379.917	-102.728	0.256	0.060
-378.902	-200.000	-0.065	0.442
-377.888	515.335	-0.086	0.198
-376.873	34.477	-0.038	-0.032
-375.858	-200.000	0.023	0.106
-374.844	-125.206	0.381	0.058
-373.829	-200.000	-0.008	-0.211
-372.815	-84.746	-0.156	0.048
-371.800	103.432	0.075	-0.087
-370.785	-200.000	0.021	0.165
-369.771	-200.000	0.025	0.213
-368.756	-40.105	-0.015	0.008
-367.742	-188.053	0.076	-0.001
-366.727	-61.771	0.281	-0.116
-365.712	-176.245	0.359	-0.009
-364.698	-200.000	-0.076	0.439
-363.683	-200.000	0.062	-0.314
-362.669	-200.000	-0.018	0.210
-361.654	-53.088	-0.345	0.156
-360.639	800.000	-0.022	-0.076
-359.625	261.582	0.051	0.088
-358.610	-145.513	0.008	-0.001
-357.596	800.000	-0.105	0.313
-356.581	222.964	-0.159	-0.253
-355.566	51.788	-0.101	-0.095
-354.552	-99.578	0.342	0.085
-353.537	-49.929	-0.114	0.053
-352.523	-142.278	-0.368	-0.036
-351.508	-92.564	0.228	-0.063
-350.493	-2.897	0.294	-0.203
-349.479	-127.157	-0.350	-0.051
-348.464	-47.578	-0.084	0.040
-347.450	196.662	-0.090	0.136
-346.435	-39.652	-0.093	-0.048
-345.420	-13.634	-0.183	-0.117
-344.406	-200.000	0.006	-0.140
-343.391	74.808	-0.224	0.233
-342.377	-175.216	-0.233	-0.006
-341.362	800.000	0.072	0.244
-340.348	-13.145	0.127	0.082
-339.333	-200.000	0.024	-0.234
-338.318	-149.805	-0.056	0.004
-337.304	126.764	0.024	-0.030
-336.289	91.599	0.152	-0.168
-335.275	-95.973	-0.019	-0.005
-334.260	211.634	-0.122	0.189
-333.245	70.041	0.215	-0.218
-332.231	-110.780	-0.216	0.044
-331.216	-153.494	0.367	0.025
-330.202	18.620	-0.162	0.127
-329.187	-50.295	0.247	0.115
-328.172	34.179	0.463	0.397
-327.158	53.012	0.219	-0.207
-326.143	-200.000	0.012	0.385
-325.129	-136.457	-0.123	-0.014
-324.114	800.000	-0.002	-0.008
-323.099	800.000	0.034	-0.137
-322.085	491.037	0.078	0.177
-321.070	800.000	-0.080	0.293
-320.056	122.769	0.032	-0.040
-319.041	-200.000	-0.060	-0.280
-318.026	-48.349	-0.332	0.157
-317.012	-94.299	-0.080	-0.022
-315.997	-176.464	-0.138	-0.004
-314.983	225.108	-0.048	0.076
-313.968	-43.989	0.249	0.123
-312.953	75.896	-0.145	-0.151
-311.939	400.129	-0.116	-0.239
-310.924	-200.000	-0.076	-0.405
-309.910	-78.059	0.254	0.086
-308.895	356.299	0.084	0.164
-307.880	4.109	-0.329	0.237
-306.866	122.387	-0.178	0.219
-305.851	-156.021	-0.367	0.023
-304.837	-99.888	0.353	0.087
-303.822	432.852	-0.056	-0.120
-302.807	46.441	0.311	0.284
-301.793	-200.000	0.013	-0.415
-300.778	-78.022	-0.406	0.138
-299.764	-111.565	-0.202	-0.040
-298.749	36.885	-0.445	-0.387
-297.735	25.438	-0.230	-0.188
-296.720	-9.926	0.209	0.137
-295.705	-60.326	0.267	-0.112
-294.691	782.628	-0.030	-0.081
-293.676	139.957	-0.084	-0.108
-292.662	359.425	0.197	-0.388
-291.647	45.868	0.160	-0.145
-290.632	-85.335	-0.137	0.042
-289.618	120.302	0.179	0.219
-288.603	-200.000	0.009	-0.127
-287.589	-200.000	-0.016	-0.112
-286.574	-45.080	-0.280	0.137
-285.559	-200.000	0.033	-0.142
-284.545	134.848	0.189	-0.242
-283.530	800.000	0.057	-0.198
-282.516	-133.390	0.177	-0.022
-281.501	32.984	0.190	-0.162
-280.486	-200.000	-0.000	0.241
-279.472	800.000	0.098	0.356
-278.457	117.727	0.230	-0.278
-277.443	-150.986	0.021	0.002
-276.428	-97.564	0.353	-0.090
-275.413	-200.000	0.071	0.349
-274.399	-200.000	-0.015	0.175
-273.384	-200.000	-0.038	-0.234
-272.370	-200.000	0.022	-0.133
-271.355	-200.000	0.070	0.447
-270.340	224.301	-0.307	-0.487
-269.326	-61.591	0.184	0.076
-268.311	36.313	0.096	-0.083
-267.297	-200.000	0.022	-0.400
-266.282	-200.000	-0.009	-0.330
-265.267	-136.761	-0.169	-0.019
-264.253	-151.477	0.306	-0.022
-263.238	-200.000	0.032	-0.240
-262.224	-200.000	0.025	-0.291
-261.209	-29.950	0.351	-0.196
-260.195	-200.000	0.002	-0.119
-259.180	655.698	-0.058	-0.146
-258.165	88.901	-0.250	0.273
-257.151	53.029	-0.117	-0.110
-256.136	335.355	-0.123	-0.235
-255.122	-200.000	-0.008	0.049
-254.107	-108.998	0.240	-0.050
-253.092	800.000	0.111	-0.303
-252.078	-200.000	-0.055	0.243
-251.063	563.283	-0.010	-0.024
-250.049	157.206	0.201	-0.274
-249.034	-149.122	0.131	0.010
-248.019	-111.551	0.086	0.017
-247.005	-200.000	-0.025	0.121
-245.990	-200.000	0.013	0.270
-244.976	-43.298	-0.190	0.095
-243.961	-89.712	0.193	0.056
-242.946	273.278	0.068	0.118
-241.932	-88.451	0.224	-0.066
-240.917	39.659	0.066	0.058
-239.903	5.316	-0.045	-0.032
-238.888	800.000	0.050	0.197
-237.873	-57.665	0.109	-0.047
-236.859	34.217	0.178	-0.153
-235.844	-200.000	-0.035	-0.202
-234.830	19.391	0.195	0.154
-233.815	-200.000	0.035	0.322
-232.800	712.200	0.055	-0.144
-231.786	-18.685	-0.269	0.164
-230.771	-17.650	-0.099	0.061
-229.757	393.116	-0.074	0.151
-228.742	411.819	0.059	0.123
-227.727	-103.075	-0.127	0.030
-226.713	800.000	0.007	0.027
-225.698	-65.780	0.222	-0.087
-224.684	800.000	-0.007	-0.027
-223.669	-46.121	-0.077	-0.037
-222.655	-81.604	0.251	0.081
-221.640	800.000	0.147	0.432
-220.625	-129.813	-0.212	0.029
-219.611	800.000	0.070	0.236
-218.596	-118.162	-0.024	0.004
-217.582	45.526	-0.180	-0.163
-216.567	-27.252	0.337	-0.193
-215.552	27.840	-0.255	-0.211
-214.538	224.059	0.093	0.148
-213.523	-200.000	-0.015	-0.242
-212.509	-106.282	0.321	0.071
-211.494	37.279	0.141	-0.122
-210.479	-13.776	-0.180	0.114
-209.465	800.000	0.009	0.033
-208.450	735.940	0.073	-0.193
-207.436	437.912	-0.129	0.275
-206.421	-200.000	0.022	-0.124
-205.406	-82.686	0.359	0.114
-204.392	37.556	0.049	-0.042
-203.377	-48.500	-0.262	-0.124
-202.363	171.414	0.107	-0.151
-201.348	128.828	0.145	0.181
-200.333	800.000	-0.035	-0.143
-199.319	-118.574	0.247	0.043
-198.304	153.647	-0.213	-0.287
-197.290	-117.848	-0.320	0.056
-196.275	-40.597	0.245	0.125
-195.260	83.536	-0.072	0.077
-194.246	0.270	0.121	0.084
-193.231	-121.483	0.312	-0.051
-192.217	-84.532	-0.044	-0.014
-191.202	183.355	-0.129	-0.187
-190.187	-200.000	-0.012	0.145
-189.173	297.270	-0.047	-0.084
-188.158	-200.000	-0.032	0.215
-187.144	53.391	-0.250	0.234
-186.129	0.822	-0.108	-0.076
-185.114	34.257	0.145	0.124
-184.100	-200.000	-0.009	-0.046
-183.085	7.779	-0.318	0.233
-182.071	-107.029	-0.100	0.022
-181.056	800.000	0.122	-0.344
-180.042	-170.807	0.041	0.001
-179.027	67.075	0.194	0.193
-178.012	121.574	0.003	0.003
-176.998	378.549	0.038	0.076
-175.983	695.633	-0.104	-0.268
-174.969	-200.000	0.050	-0.382
-173.954	-14.825	-0.104	0.066
-172.939	50.080	0.071	-0.066
-171.925	710.404	0.016	-0.041
-170.910	-136.731	0.128	0.014
-169.896	-200.000	-0.036	0.314
-168.881	11.795	-0.147	-0.111
-167.866	194.232	-0.223	0.331
-166.852	-102.226	0.115	0.027
-165.837	401.453	-0.122	0.251
-164.823	-200.000	0.043	0.384
-163.808	5.025	0.170	-0.122
-162.793	149.754	0.094	0.125
-161.779	219.885	-0.157	0.247
-160.764	-70.788	0.274	-0.101
-159.750	242.134	-0.062	-0.102
-158.735	-200.000	0.013	-0.059
-157.720	509.508	-0.062	-0.141
-156.706	670.158	0.098	-0.249
-155.691	-16.130	-0.176	-0.110
-154.677	338.568	-0.140	0.266
-153.662	-77.274	0.221	-0.075
-152.647	-200.000	-0.088	0.387
-151.633	784.200	-0.100	-0.269
-150.618	356.406	0.123	0.240
-149.604	560.418	0.061	0.144
-148.589	-10.115	0.195	0.127
-147.574	98.820	0.118	-0.133
-146.560	-200.000	0.011	-0.176
-145.545	-74.188	0.117	-0.041
-144.531	91.685	-0.060	0.066
-143.516	-200.000	0.007	0.164
-142.502	-64.402	0.291	-0.116
-141.487	-48.210	0.101	-0.048
-140.472	-111.638	0.009	-0.002
-139.458	-24.352	-0.219	0.127
-138.443	83.957	-0.178	-0.190
-137.429	-178.803	0.032	-0.001
-136.414	-89.973	0.163	-0.046
-135.399	608.120	0.106	-0.259
-134.385	63.804	-0.117	0.115
-133.370	-200.000	-0.005	-0.278
-132.356	413.037	-0.126	0.262
-131.341	-72.532	0.231	-0.083
-130.326	131.710	-0.172	0.217
-129.312	-110.374	0.179	-0.036
-128.297	583.566	-0.057	-0.137
-127.283	39.341	0.102	-0.089
-126.268	540.911	-0.099	-0.229
-125.253	-91.437	-0.129	-0.036
-124.239	800.000	-0.079	0.223
-123.224	800.000	0.019	0.055
-122.210	-125.613	0.177	0.026
-121.195	40.719	-0.065	0.058
