DTS Sentinel unit serial number:	SN413079Multiplexer serial number:	ORYXHardware model number:	OX4-SRSoftware version number:	ORYX F/W v4.00 Oryx Data Collector v3.7.2.0data status	okinstallation	princeton_trtdifferential loss correction	single-endedforward channel	channel 1reverse channel	N/Adate	2019/09/11time	18:16:11forward acquisition time	60.00reverse acquisition time	0.00gamma	496.2192k internal	0.2290k external	0.2290temperature offset calibration	0.9994default loss term (dB/km)	0.3790temperature slope calibration	1.0000multiplexer offset coefficient	1.0000multiplexer slope coefficient	1.0000fibre end	0.00T internal ref (°C)	44.00T ext. ref 1 (°C)	1.14T ext. ref 2 (°C)	39.06length (m)	temperature (°C)	Stokes	anti-Stokes-747.200	483.004	-0.068	0.158
-746.185	184.336	-0.200	0.303
-745.171	-200.000	-0.026	0.157
-744.156	-200.000	-0.029	0.258
-743.142	-143.220	0.118	-0.012
-742.127	-200.000	0.043	0.461
-741.112	800.000	0.166	0.543
-740.098	800.000	-0.219	0.735
-739.083	-200.000	0.001	0.005
-738.069	-140.052	0.300	-0.032
-737.054	271.659	-0.195	0.351
-736.039	-2.496	-0.116	0.083
-735.025	-17.230	0.290	0.187
-734.010	-100.935	-0.089	0.023
-732.996	-43.530	-0.186	0.096
-731.981	185.050	0.064	-0.098
-730.966	490.135	0.144	-0.337
-729.952	800.000	0.039	-0.124
-728.937	146.767	-0.147	-0.202
-727.923	-60.653	-0.261	-0.113
-726.908	-200.000	0.014	0.084
-725.894	121.637	-0.247	0.316
-724.879	-171.210	-0.072	-0.002
-723.864	113.056	0.103	-0.128
-722.850	88.676	-0.060	-0.068
-721.835	800.000	0.084	-0.286
-720.821	422.689	-0.108	-0.237
-719.806	-121.657	-0.282	0.048
-718.791	45.378	0.200	-0.188
-717.777	498.355	0.165	-0.389
-716.762	-142.913	0.133	0.013
-715.748	-53.242	-0.206	0.097
-714.733	-77.687	-0.157	0.056
-713.718	23.104	-0.282	0.237
-712.704	189.067	0.109	-0.167
-711.689	-65.963	-0.265	-0.108
-710.675	-84.749	-0.131	0.042
-709.660	-35.562	-0.182	0.101
-708.645	-91.840	0.124	0.036
-707.631	-91.329	0.339	-0.099
-706.616	328.857	0.103	0.203
-705.602	152.791	-0.098	-0.138
-704.587	724.996	0.039	0.106
-703.572	800.000	-0.026	0.082
-702.558	800.000	0.100	-0.380
-701.543	-200.000	-0.019	-0.249
-700.529	-200.000	-0.080	0.414
-699.514	560.440	-0.139	0.343
-698.499	-125.279	-0.244	-0.038
-697.485	-200.000	-0.015	-0.219
-696.470	800.000	0.068	-0.266
-695.456	-100.263	0.154	-0.039
-694.441	-48.855	0.353	-0.173
-693.426	-20.132	0.240	0.151
-692.412	-42.301	0.347	0.181
-691.397	800.000	0.015	-0.048
-690.383	0.300	-0.088	0.064
-689.368	25.783	-0.126	0.107
-688.354	800.000	0.042	-0.128
-687.339	-100.635	0.358	0.090
-686.324	-163.873	-0.190	0.009
-685.310	-200.000	0.005	-0.113
-684.295	170.984	0.084	-0.123
-683.281	57.332	0.211	-0.211
-682.266	101.166	0.249	0.296
-681.251	-85.479	-0.178	-0.057
-680.237	102.294	-0.155	-0.186
-679.222	4.414	0.221	0.166
-678.208	-200.000	0.035	0.183
-677.193	-200.000	-0.004	0.045
-676.178	-89.013	-0.271	-0.082
-675.164	-144.606	-0.162	-0.015
-674.149	44.201	0.284	0.266
-673.135	249.170	0.140	0.242
-672.120	800.000	-0.061	-0.234
-671.105	-68.055	0.224	0.089
-670.091	437.763	-0.063	0.141
-669.076	-200.000	-0.001	-0.209
-668.062	800.000	-0.080	0.254
-667.047	108.244	0.062	-0.076
-666.032	800.000	-0.111	0.345
-665.018	-87.733	0.309	-0.095
-664.003	800.000	0.053	-0.212
-662.989	-35.564	0.274	-0.152
-661.974	-87.804	0.163	0.050
-660.959	-77.164	-0.233	-0.083
-659.945	-98.430	0.260	0.068
-658.930	202.761	0.144	-0.227
-657.916	143.780	0.062	-0.084
-656.901	60.416	0.079	-0.080
-655.886	-97.343	0.375	-0.100
-654.872	-200.000	-0.033	-0.250
-653.857	-147.247	-0.090	-0.008
-652.843	-80.581	0.307	-0.104
-651.828	-101.559	0.278	0.069
-650.814	-55.155	-0.270	0.124
-649.799	660.750	-0.129	0.340
-648.784	-200.000	-0.019	0.256
-647.770	-49.148	0.092	0.045
-646.755	461.782	-0.095	0.216
-645.741	130.404	0.150	0.196
-644.726	-200.000	0.037	-0.201
-643.711	800.000	0.115	-0.374
-642.697	800.000	-0.036	-0.118
-641.682	654.896	0.076	0.200
-640.668	201.210	-0.200	0.313
-639.653	-98.893	-0.230	0.060
-638.638	53.903	0.082	0.081
-637.624	213.071	0.054	-0.088
-636.609	-111.604	0.250	0.052
-635.595	-142.133	-0.131	0.013
-634.580	99.707	-0.177	0.208
-633.565	-141.019	-0.351	0.037
-632.551	-10.039	-0.140	0.095
-631.536	-30.944	-0.116	0.067
-630.522	15.337	-0.136	0.109
-629.507	-97.751	0.201	0.053
-628.492	16.186	-0.066	-0.053
-627.478	-200.000	0.005	0.101
-626.463	-72.592	-0.476	0.179
-625.449	77.533	-0.204	0.221
-624.434	-159.167	0.225	-0.013
-623.419	133.670	0.107	-0.142
-622.405	-200.000	-0.009	0.135
-621.390	-48.729	0.256	-0.125
-620.376	-74.852	-0.042	-0.015
-619.361	-200.000	-0.001	0.121
-618.346	-70.371	0.233	0.090
-617.332	239.523	-0.085	-0.144
-616.317	135.890	-0.347	-0.461
-615.303	-169.694	0.308	-0.011
-614.288	-18.050	-0.384	0.245
-613.273	-140.417	0.316	-0.034
-612.259	188.352	-0.105	-0.161
-611.244	452.498	-0.060	0.134
-610.230	800.000	-0.111	-0.474
-609.215	107.207	0.235	0.285
-608.201	55.092	0.263	-0.259
-607.186	-79.508	0.382	-0.132
-606.171	-96.590	-0.164	0.044
-605.157	-121.048	0.290	-0.050
-604.142	-116.333	-0.368	-0.069
-603.128	-200.000	0.021	-0.381
-602.113	-115.336	0.206	0.040
-601.098	-92.861	0.234	-0.067
-600.084	-84.311	0.172	-0.055
-599.069	-12.374	0.344	-0.229
-598.055	800.000	-0.063	0.196
-597.040	159.923	-0.171	0.243
-596.025	-101.920	-0.096	-0.024
-595.011	73.895	0.058	0.062
-593.996	800.000	0.013	0.044
-592.982	-98.612	-0.101	0.026
-591.967	271.685	-0.074	-0.133
-590.952	78.300	0.230	-0.250
-589.938	-22.272	-0.140	-0.086
-588.923	-175.412	-0.142	-0.004
-587.909	-200.000	-0.014	0.113
-586.894	-54.761	0.145	-0.067
-585.879	-77.134	-0.310	-0.110
-584.865	-88.968	-0.223	-0.067
-583.850	-103.650	0.088	-0.021
-582.836	800.000	0.091	-0.375
-581.821	499.888	0.057	-0.134
-580.806	217.306	-0.245	0.397
-579.792	-141.938	-0.112	0.011
-578.777	63.606	-0.119	-0.121
-577.763	800.000	0.057	0.196
-576.748	257.553	0.136	-0.238
-575.733	-200.000	0.019	0.264
-574.719	800.000	0.055	-0.195
-573.704	24.811	-0.166	-0.140
-572.690	-105.837	0.156	0.036
-571.675	22.878	0.187	0.156
-570.661	-200.000	0.014	0.113
-569.646	-91.386	0.273	-0.079
-568.631	-10.642	0.246	0.166
-567.617	361.019	-0.117	0.238
-566.602	-61.755	-0.289	-0.123
-565.588	97.932	-0.239	-0.280
-564.573	800.000	0.057	0.168
-563.558	-109.226	0.221	-0.048
-562.544	-91.150	-0.340	0.099
-561.529	-200.000	0.010	-0.273
-560.515	88.424	0.109	0.124
-559.500	500.525	-0.087	0.204
-558.485	39.467	-0.177	0.161
-557.471	-200.000	-0.006	0.261
-556.456	-75.561	-0.110	0.040
-555.442	-47.858	0.109	-0.054
-554.427	-76.312	0.477	-0.171
-553.412	-19.609	0.080	0.050
-552.398	800.000	0.084	-0.276
-551.383	-102.698	0.071	-0.017
-550.369	-16.382	0.219	-0.141
-549.354	-200.000	0.012	0.295
-548.339	800.000	0.019	0.069
-547.325	-164.241	-0.315	-0.015
-546.310	107.485	-0.164	0.199
-545.296	-21.756	-0.183	-0.113
-544.281	-200.000	-0.004	0.196
-543.266	289.916	0.039	-0.072
-542.252	-112.647	0.268	-0.054
-541.237	-113.536	0.110	-0.022
-540.223	-80.560	-0.290	0.098
-539.208	463.648	-0.060	-0.136
-538.193	-200.000	0.002	0.107
-537.179	-21.780	-0.111	0.069
-536.164	-59.376	-0.400	0.175
-535.150	-6.816	-0.066	-0.045
-534.135	-8.823	-0.104	-0.071
-533.121	361.443	0.152	0.309
-532.106	-200.000	-0.034	-0.529
-531.091	297.340	0.096	0.180
-530.077	-22.580	0.040	-0.025
-529.062	-77.492	-0.430	-0.151
-528.048	-135.603	-0.029	0.003
-527.033	150.972	-0.120	0.165
-526.018	-65.480	-0.214	-0.087
-525.004	-200.000	-0.018	-0.088
-523.989	-52.059	-0.057	-0.027
-522.975	171.912	-0.173	-0.253
-521.960	-22.527	0.133	-0.082
-520.945	-131.497	0.107	-0.014
-519.931	-134.120	-0.101	-0.013
-518.916	-18.929	-0.185	0.117
-517.902	52.981	-0.208	0.202
-516.887	640.108	-0.098	-0.254
-515.872	-99.136	-0.236	0.061
-514.858	289.455	-0.086	-0.159
-513.843	-88.565	-0.111	0.034
-512.829	-46.604	0.192	0.096
-511.814	-194.242	-0.185	0.002
-510.799	131.526	-0.119	-0.155
-509.785	-87.008	0.205	0.063
-508.770	304.853	0.066	0.125
-507.756	5.835	0.143	-0.107
-506.741	-55.528	0.097	-0.044
-505.726	-44.362	0.060	-0.030
-504.712	245.870	0.130	0.222
-503.697	-145.111	-0.215	-0.020
-502.683	800.000	0.048	0.170
-501.668	-86.237	-0.249	0.078
-500.653	-200.000	-0.021	0.182
-499.639	381.750	0.265	0.553
-498.624	1.491	0.166	0.121
-497.610	-200.000	0.043	-0.341
-496.595	800.000	-0.058	-0.204
-495.581	-9.950	0.233	-0.157
-494.566	-3.421	-0.063	0.045
-493.551	-67.828	-0.340	-0.135
-492.537	54.764	0.398	-0.390
-491.522	-90.977	0.125	0.037
-490.508	-96.910	-0.136	-0.036
-489.493	26.406	0.064	0.054
-488.478	40.254	0.237	0.216
-487.464	46.460	0.241	0.227
-486.449	636.320	-0.164	0.423
-485.435	166.053	0.059	0.085
-484.420	-200.000	0.031	-0.165
-483.405	-70.351	0.076	0.029
-482.391	-91.976	0.065	-0.019
-481.376	214.744	0.211	0.339
-480.362	151.723	-0.046	0.064
-479.347	154.554	-0.179	-0.250
-478.332	-200.000	0.074	-0.364
-477.318	800.000	-0.064	0.271
-476.303	800.000	-0.050	0.214
-475.289	278.197	0.131	-0.237
-474.274	300.490	0.037	-0.068
-473.259	-129.684	0.286	-0.040
-472.245	362.851	-0.104	-0.211
-471.230	74.044	0.226	0.240
-470.216	-32.411	-0.272	0.154
-469.201	-200.000	-0.022	-0.147
-468.186	-49.065	-0.167	0.081
-467.172	442.622	0.090	0.201
-466.157	357.567	0.134	0.270
-465.143	15.386	-0.261	0.207
-464.128	-178.831	-0.410	0.009
-463.113	-200.000	-0.011	0.090
-462.099	85.479	-0.262	-0.291
-461.084	-103.953	-0.418	-0.099
-460.070	87.017	0.250	0.280
-459.055	-169.126	0.290	-0.011
-458.040	-192.009	-0.201	-0.002
-457.026	15.450	-0.208	0.165
-456.011	14.402	-0.173	-0.136
-454.997	-200.000	-0.001	0.214
-453.982	-99.046	0.331	-0.085
-452.968	-13.650	0.186	-0.122
-451.953	-44.746	-0.293	0.148
-450.938	-5.565	-0.197	0.137
-449.924	334.689	0.108	-0.211
-448.909	-200.000	0.014	0.180
-447.895	124.559	0.140	0.178
-446.880	-132.846	-0.117	-0.015
-445.865	-41.418	-0.168	0.088
-444.851	-200.000	0.013	0.073
-443.836	-14.270	0.075	-0.049
-442.822	47.275	0.141	0.133
-441.807	46.921	0.187	-0.176
-440.792	-200.000	-0.038	-0.187
-439.778	800.000	-0.073	-0.257
-438.763	257.922	-0.195	0.339
-437.749	-66.557	0.198	0.079
-436.734	-38.131	-0.182	0.097
-435.719	484.655	0.027	-0.062
-434.705	376.181	-0.116	-0.240
-433.690	800.000	-0.040	0.153
-432.676	-54.336	0.157	-0.072
-431.661	32.762	-0.113	0.099
-430.646	-85.944	-0.507	-0.159
-429.632	-152.544	0.224	-0.016
-428.617	-85.051	0.123	-0.039
-427.603	165.260	-0.177	-0.253
-426.588	-31.626	-0.082	0.047
-425.573	800.000	0.056	-0.248
-424.559	-191.030	-0.221	-0.002
-423.544	-46.367	0.080	0.040
-422.530	-200.000	0.005	-0.095
-421.515	-98.114	0.251	-0.065
-420.500	-77.877	-0.115	0.040
-419.486	-59.084	-0.073	-0.032
-418.471	173.482	-0.062	-0.091
-417.457	337.897	0.172	-0.339
-416.442	800.000	-0.079	-0.314
-415.428	67.707	-0.164	-0.170
-414.413	800.000	-0.077	0.247
-413.398	189.166	0.078	-0.119
-412.384	-129.577	-0.100	-0.014
-411.369	138.645	-0.264	0.350
-410.355	-169.324	0.216	0.008
-409.340	14.075	-0.213	-0.168
-408.325	-11.044	0.202	-0.135
-407.311	-200.000	0.024	0.202
-406.296	340.301	-0.153	0.302
-405.282	37.196	0.107	0.096
-404.267	-86.007	-0.173	0.054
-403.252	95.913	-0.173	0.200
-402.238	-104.359	0.157	-0.037
-401.223	-200.000	-0.019	0.192
-400.209	-24.225	0.295	-0.178
-399.194	155.967	-0.168	0.235
-398.179	-63.297	-0.137	-0.057
-397.165	-200.000	0.003	0.097
-396.150	-107.223	0.201	-0.045
-395.136	24.427	0.148	0.124
-394.121	-200.000	0.012	-0.093
-393.106	-98.322	-0.174	0.045
-392.092	-200.000	-0.004	-0.230
-391.077	-86.205	-0.263	-0.082
-390.063	-143.137	0.235	0.023
-389.048	-63.432	-0.085	0.035
-388.033	-2.690	-0.185	0.130
-387.019	-200.000	0.013	-0.064
-386.004	190.059	-0.006	-0.010
-384.990	-59.096	0.161	0.070
-383.975	-200.000	0.041	0.289
-382.960	95.670	0.157	-0.181
-381.946	800.000	-0.086	-0.294
-380.931	-200.000	0.009	0.141
-379.917	29.026	0.217	0.186
-378.902	24.748	0.212	0.177
-377.888	183.819	-0.074	0.110
-376.873	-46.091	-0.197	0.098
-375.858	800.000	-0.054	-0.172
-374.844	-200.000	-0.035	0.333
-373.829	-200.000	-0.010	-0.132
-372.815	201.747	-0.055	0.086
-371.800	121.515	-0.124	-0.156
-370.785	328.476	0.055	0.106
-369.771	-200.000	-0.028	-0.213
-368.756	66.974	-0.120	-0.124
-367.742	-141.996	-0.379	0.038
-366.727	-163.532	-0.105	0.005
-365.712	21.022	-0.310	-0.253
-364.698	-153.060	0.196	0.014
-363.683	529.746	0.134	-0.320
-362.669	145.395	-0.172	0.232
-361.654	-200.000	0.046	0.233
-360.639	-123.008	0.343	-0.056
-359.625	111.369	-0.132	-0.161
-358.610	-200.000	0.041	-0.392
-357.596	76.821	0.257	0.275
-356.581	611.206	0.017	-0.043
-355.566	-20.509	0.247	-0.153
-354.552	-200.000	0.018	0.198
-353.537	120.131	-0.130	0.163
-352.523	-136.594	0.204	0.024
-351.508	199.720	-0.057	0.088
-350.493	-134.739	-0.315	-0.039
-349.479	3.819	-0.119	0.088
-348.464	-54.727	0.153	-0.070
-347.450	-200.000	0.003	-0.214
-346.435	-117.579	-0.553	0.101
-345.420	-200.000	-0.011	0.191
-344.406	-37.923	0.074	0.040
-343.391	-167.677	-0.635	0.025
-342.377	-200.000	-0.006	0.038
-341.362	-79.728	0.057	0.019
-340.348	-3.459	0.076	0.053
-339.333	522.706	-0.086	-0.204
-338.318	800.000	-0.005	0.020
-337.304	463.297	0.090	-0.202
-336.289	425.059	0.125	-0.270
-335.275	125.527	0.160	-0.204
-334.260	48.479	0.105	-0.099
-333.245	-177.325	-0.294	0.007
-332.231	249.609	0.129	0.221
-331.216	-90.141	0.278	-0.082
-330.202	-83.727	0.196	0.063
-329.187	662.041	0.043	0.111
-328.172	-138.237	0.160	-0.018
-327.158	108.536	-0.069	0.083
-326.143	800.000	-0.100	0.301
-325.129	-200.000	0.011	-0.054
-324.114	-200.000	-0.033	-0.262
-323.099	-200.000	0.027	0.128
-322.085	-95.663	0.112	-0.030
-321.070	-28.512	-0.030	0.017
-320.056	-200.000	0.013	-0.137
-319.041	-92.558	0.469	-0.133
-318.026	68.430	0.157	-0.162
-317.012	6.066	0.081	0.060
-315.997	249.334	0.100	-0.171
-314.983	56.715	0.140	0.137
-313.968	-125.765	0.042	0.006
-312.953	452.559	-0.104	0.232
-311.939	49.767	-0.262	0.248
-310.924	482.237	0.066	-0.151
-309.910	57.073	0.283	-0.278
-308.895	-89.473	-0.339	0.100
-307.880	77.061	0.276	0.296
-306.866	-173.878	0.292	-0.009
-305.851	212.119	-0.154	-0.245
-304.837	-200.000	0.012	-0.075
-303.822	-200.000	0.006	-0.388
-302.807	377.081	0.106	-0.217
-301.793	345.049	-0.019	0.037
-300.778	-131.020	-0.472	0.063
-299.764	497.449	0.043	0.100
-298.749	800.000	0.172	0.488
-297.735	-54.892	0.173	0.079
-296.720	41.842	-0.036	0.033
-295.705	-98.728	0.286	-0.073
-294.691	-200.000	-0.023	0.163
-293.676	800.000	-0.116	-0.324
-292.662	-200.000	0.070	-0.362
-291.647	96.907	0.145	-0.168
-290.632	46.607	-0.142	0.132
-289.618	629.254	-0.096	-0.243
-288.603	261.392	-0.102	-0.178
-287.589	10.395	-0.134	0.102
-286.574	-12.822	-0.221	-0.145
-285.559	523.419	0.066	0.155
-284.545	-11.644	-0.031	-0.021
-283.530	258.235	-0.088	-0.152
-282.516	-104.700	-0.391	0.091
-281.501	800.000	-0.064	0.202
-280.486	-97.844	0.159	0.041
-279.472	-140.488	0.131	-0.014
-278.457	121.672	0.245	-0.307
-277.443	-172.850	-0.397	0.012
-276.428	256.663	0.114	0.196
-275.413	-200.000	-0.015	-0.163
-274.399	724.736	0.054	0.144
-273.384	11.221	-0.244	0.188
-272.370	66.797	0.061	0.062
-271.355	-146.190	0.282	-0.025
-270.340	-57.430	-0.383	-0.169
-269.326	-200.000	-0.028	0.265
-268.311	-69.326	0.332	0.128
-267.297	-66.999	0.231	0.092
-266.282	361.386	-0.165	-0.333
-265.267	-172.388	0.110	0.004
-264.253	-154.066	0.169	-0.012
-263.238	-168.605	0.429	0.016
-262.224	-164.552	-0.083	-0.004
-261.209	-200.000	0.027	-0.367
-260.195	-53.254	0.219	0.101
-259.180	213.891	0.123	-0.196
-258.165	70.836	0.091	-0.095
-257.151	-9.004	-0.073	-0.049
-256.136	-151.057	-0.217	-0.016
-255.122	-200.000	-0.036	0.214
-254.107	-38.448	0.258	0.137
-253.092	193.034	0.037	0.057
-252.078	118.034	0.208	-0.257
-251.063	-200.000	0.007	0.069
-250.049	-35.890	-0.261	-0.142
-249.034	-60.165	0.138	-0.059
-248.019	-34.197	-0.103	-0.057
-247.005	-56.067	0.150	0.067
-245.990	-200.000	-0.019	0.183
-244.976	564.073	-0.073	-0.179
-243.961	-42.564	-0.117	0.060
-242.946	800.000	-0.050	-0.200
-241.932	111.642	0.078	0.095
-240.917	81.310	-0.132	-0.143
-239.903	-200.000	-0.025	-0.209
-238.888	-115.261	0.207	-0.039
-237.873	71.939	-0.149	0.156
-236.859	-161.557	-0.300	-0.015
-235.844	-22.955	0.214	0.130
-234.830	800.000	0.058	0.251
-233.815	-135.442	-0.202	0.024
-232.800	-200.000	-0.018	0.161
-231.786	-200.000	0.028	0.133
-230.771	-132.662	0.277	-0.036
-229.757	111.282	-0.267	-0.323
-228.742	-94.763	-0.084	0.023
-227.727	36.956	0.076	0.067
-226.713	-112.769	0.089	0.018
-225.698	-0.258	-0.095	0.068
-224.684	-65.338	-0.159	-0.064
-223.669	800.000	-0.087	-0.266
-222.655	-155.740	0.185	-0.012
-221.640	425.730	0.052	0.113
-220.625	800.000	0.122	0.436
-219.611	-55.173	0.273	0.123
-218.596	748.873	0.129	-0.350
-217.582	572.136	-0.092	-0.226
-216.567	-129.561	-0.068	0.009
-215.552	26.505	0.350	-0.294
-214.538	633.127	-0.135	0.344
-213.523	-200.000	-0.001	0.022
-212.509	-70.951	0.354	-0.134
-211.494	452.659	0.123	-0.273
-210.479	-200.000	0.012	-0.093
-209.465	-200.000	0.012	-0.060
-208.450	-200.000	0.004	0.226
-207.436	260.584	0.089	-0.155
-206.421	-11.444	-0.328	-0.216
-205.406	-52.235	0.191	0.089
-204.392	737.519	0.079	0.214
-203.377	-114.355	-0.253	-0.049
-202.363	-200.000	-0.032	-0.409
-201.348	-33.907	-0.286	-0.158
-200.333	-15.843	0.157	-0.100
-199.319	-21.828	0.132	0.081
-198.304	-112.512	0.291	0.058
-197.290	51.269	-0.089	0.085
-196.275	-9.201	0.159	0.106
-195.260	625.401	0.088	0.223
-194.246	-200.000	0.001	0.114
-193.231	-8.717	-0.220	0.148
-192.217	571.308	-0.054	0.132
-191.202	28.583	-0.146	-0.124
-190.187	-166.134	-0.280	-0.012
-189.173	-128.622	0.452	0.064
-188.158	27.686	0.115	-0.097
-187.144	-39.392	-0.182	-0.096
-186.129	-14.830	-0.088	-0.057
-185.114	-16.473	0.248	-0.158
-184.100	116.857	0.052	0.063
-183.085	36.088	0.087	0.077
-182.071	800.000	0.041	0.159
-181.056	-39.794	0.231	-0.121
-180.042	35.312	-0.174	-0.153
-179.027	800.000	-0.034	0.130
-178.012	-123.752	0.387	-0.061
-176.998	-95.998	-0.236	0.063
-175.983	-74.888	-0.256	-0.092
-174.969	339.833	-0.119	0.233
-173.954	346.193	0.128	-0.253
-172.939	107.588	0.182	-0.217
-171.925	289.914	-0.068	0.124
-170.910	-98.871	0.111	0.028
-169.896	800.000	-0.068	-0.205
-168.881	-200.000	-0.014	0.359
-167.866	79.950	0.124	0.134
-166.852	-137.267	0.243	-0.028
-165.837	-75.603	-0.181	-0.064
-164.823	-108.715	0.501	0.108
-163.808	-115.308	-0.098	0.018
-162.793	-128.253	-0.189	0.027
-161.779	-159.726	0.100	-0.006
-160.764	-21.425	-0.383	-0.234
-159.750	-168.745	0.320	0.012
-158.735	232.577	-0.079	0.130
-157.720	-78.392	0.205	-0.070
-156.706	800.000	-0.021	0.062
-155.691	33.623	0.183	0.159
-154.677	800.000	0.017	-0.058
-153.662	800.000	-0.034	-0.114
-152.647	800.000	-0.057	0.186
-151.633	800.000	0.059	-0.201
-150.618	-200.000	-0.066	0.322
-149.604	43.278	0.303	0.277
-148.589	-107.500	-0.160	-0.035
-147.574	-31.976	-0.175	-0.098
-146.560	35.266	0.264	-0.231
-145.545	255.041	-0.090	-0.154
-144.531	282.150	-0.157	0.282
-143.516	91.920	-0.157	0.177
-142.502	-37.394	-0.111	0.059
-141.487	573.706	0.074	-0.180
-140.472	-159.860	-0.167	-0.009
-139.458	25.043	0.292	-0.242
-138.443	-88.805	-0.354	0.105
-137.429	-104.767	0.199	-0.046
-136.414	-141.512	0.193	-0.020
-135.399	800.000	0.046	0.162
-134.385	-132.378	-0.329	0.042
-133.370	-200.000	0.048	-0.215
-132.356	-100.102	0.458	0.114
-131.341	441.828	0.072	0.159
-130.326	218.372	-0.255	0.406
-129.312	657.955	-0.159	0.408
-128.297	800.000	0.042	0.129
-127.283	-110.693	0.364	-0.075
-126.268	17.841	0.193	0.154
-125.253	123.871	0.081	-0.102
-124.239	-109.953	-0.145	-0.030
-123.224	800.000	-0.080	0.231
-122.210	-195.372	0.106	0.001
-121.195	12.088	0.241	-0.185
