DTS Sentinel unit serial number:	SN413079Multiplexer serial number:	ORYXHardware model number:	OX4-SRSoftware version number:	ORYX F/W v4.00 Oryx Data Collector v3.7.2.0data status	okinstallation	princeton_trtdifferential loss correction	single-endedforward channel	channel 1reverse channel	N/Adate	2019/09/14time	15:14:35forward acquisition time	60.00reverse acquisition time	0.00gamma	496.2192k internal	0.2294k external	0.2294temperature offset calibration	1.0074default loss term (dB/km)	0.3790temperature slope calibration	1.0000multiplexer offset coefficient	1.0000multiplexer slope coefficient	1.0000fibre end	0.00T internal ref (°C)	39.12T ext. ref 1 (°C)	5.12T ext. ref 2 (°C)	34.79length (m)	temperature (°C)	Stokes	anti-Stokes-747.200	47.677	0.147	-0.140
-746.185	-72.061	-0.128	0.049
-745.171	-200.000	-0.018	0.193
-744.156	-200.000	0.029	0.258
-743.142	200.737	-0.147	0.231
-742.127	607.052	0.128	0.325
-741.112	-200.000	-0.020	0.215
-740.098	418.226	-0.088	-0.192
-739.083	-0.343	-0.131	0.095
-738.069	-12.131	0.222	0.149
-737.054	331.497	-0.034	-0.067
-736.039	770.562	-0.029	-0.079
-735.025	28.279	0.467	0.403
-734.010	-64.284	-0.185	-0.077
-732.996	-78.950	0.117	0.041
-731.981	-74.054	-0.151	0.056
-730.966	-43.158	-0.110	-0.057
-729.952	6.465	-0.394	-0.299
-728.937	521.156	0.115	0.276
-727.923	76.039	-0.151	-0.163
-726.908	260.827	0.132	0.234
-725.894	101.981	-0.272	-0.325
-724.879	80.858	-0.109	-0.120
-723.864	109.587	-0.055	-0.067
-722.850	2.242	0.279	-0.206
-721.835	31.457	0.218	-0.192
-720.821	311.043	-0.206	-0.394
-719.806	-84.977	-0.148	-0.048
-718.791	493.692	-0.113	-0.264
-717.777	291.959	-0.165	-0.307
-716.762	30.132	0.116	-0.101
-715.748	-0.419	0.218	-0.158
-714.733	17.457	0.120	-0.097
-713.718	-29.028	0.202	-0.118
-712.704	800.000	0.056	0.176
-711.689	-168.688	0.035	-0.001
-710.675	-190.521	-0.435	-0.005
-709.660	104.623	0.086	0.104
-708.645	-42.852	-0.144	-0.075
-707.631	8.452	0.216	-0.166
-706.616	144.076	-0.086	0.116
-705.602	778.956	-0.059	0.166
-704.587	800.000	-0.012	0.049
-703.572	-200.000	-0.035	0.487
-702.558	-200.000	0.002	-0.078
-701.543	-200.000	0.004	-0.308
-700.529	800.000	0.044	-0.190
-699.514	-200.000	0.019	0.300
-698.499	-200.000	-0.051	0.321
-697.485	-59.147	-0.103	-0.045
-696.470	-148.143	-0.228	-0.019
-695.456	134.816	-0.086	-0.113
-694.441	-108.572	-0.079	-0.017
-693.426	347.173	-0.070	-0.141
-692.412	-4.431	0.079	-0.056
-691.397	-96.544	-0.232	-0.062
-690.383	-0.290	-0.213	-0.155
-689.368	497.809	0.056	-0.131
-688.354	-200.000	-0.018	-0.257
-687.339	-23.308	-0.140	-0.086
-686.324	-200.000	0.008	-0.242
-685.310	800.000	0.063	0.279
-684.295	-73.412	-0.046	-0.017
-683.281	-200.000	0.010	0.186
-682.266	800.000	-0.072	0.259
-681.251	-12.048	0.119	0.079
-680.237	-5.935	0.243	0.170
-679.222	47.150	-0.228	0.216
-678.208	-158.090	-0.242	-0.014
-677.193	-70.482	-0.271	0.105
-676.178	-19.838	-0.256	0.161
-675.164	-40.725	-0.221	0.117
-674.149	-73.861	0.182	-0.067
-673.135	-106.096	0.082	-0.019
-672.120	118.230	0.398	-0.501
-671.105	800.000	0.102	-0.354
-670.091	-27.328	0.297	-0.176
-669.076	47.970	0.133	-0.126
-668.062	-91.214	-0.269	0.079
-667.047	5.192	0.373	-0.281
-666.032	-86.705	0.053	-0.016
-665.018	257.491	0.017	-0.029
-664.003	86.306	-0.200	-0.225
-662.989	-200.000	0.032	0.262
-661.974	-117.923	-0.551	-0.101
-660.959	-138.725	-0.268	-0.030
-659.945	-200.000	0.010	-0.235
-658.930	-111.388	0.224	-0.047
-657.916	-19.179	-0.400	0.253
-656.901	800.000	-0.076	-0.227
-655.886	-200.000	-0.050	0.278
-654.872	-105.183	-0.240	-0.056
-653.857	-132.804	0.193	0.025
-652.843	-84.765	0.244	-0.078
-651.828	800.000	0.007	-0.031
-650.814	217.329	-0.285	0.462
-649.799	48.290	0.202	-0.193
-648.784	-8.151	0.133	0.091
-647.770	-200.000	-0.029	0.137
-646.755	337.634	0.196	0.389
-645.741	-182.842	0.087	0.002
-644.726	-38.662	-0.071	0.038
-643.711	-17.939	0.175	0.112
-642.697	-80.652	0.309	-0.105
-641.682	-85.577	-0.174	-0.055
-640.668	7.610	-0.097	-0.074
-639.653	-153.953	-0.175	0.012
-638.638	654.038	-0.060	0.157
-637.624	-200.000	-0.050	0.248
-636.609	-89.089	0.212	-0.064
-635.595	-200.000	-0.067	0.491
-634.580	235.751	-0.202	-0.339
-633.565	574.982	0.008	0.020
-632.551	-5.296	-0.145	-0.101
-631.536	800.000	-0.056	-0.216
-630.522	180.130	-0.226	0.337
-629.507	800.000	-0.108	0.413
-628.492	324.051	0.064	0.124
-627.478	139.382	-0.060	0.080
-626.463	469.236	-0.117	0.268
-625.449	800.000	0.100	-0.334
-624.434	105.829	0.269	-0.324
-623.419	39.972	0.217	-0.198
-622.405	29.778	-0.128	0.111
-621.390	-105.117	0.196	-0.046
-620.376	72.147	-0.165	0.175
-619.361	105.808	-0.112	0.135
-618.346	800.000	0.025	-0.111
-617.332	-200.000	-0.001	-0.057
-616.317	-51.314	0.203	0.096
-615.303	-200.000	0.277	0.001
-614.288	-19.905	0.239	0.150
-613.273	-200.000	-0.028	-0.245
-612.259	-200.000	-0.002	-0.051
-611.244	-169.053	0.381	-0.014
-610.230	52.919	0.233	0.226
-609.215	-101.041	-0.226	0.056
-608.201	112.020	0.116	0.143
-607.186	218.256	0.150	-0.244
-606.171	414.358	-0.079	-0.172
-605.157	312.940	0.070	-0.134
-604.142	523.337	-0.107	-0.256
-603.128	-27.456	0.359	-0.212
-602.113	800.000	-0.120	-0.383
-601.098	-42.767	-0.172	-0.089
-600.084	-200.000	-0.012	0.077
-599.069	-77.005	0.012	-0.004
-598.055	91.331	-0.218	0.249
-597.040	-200.000	-0.085	0.401
-596.025	-60.086	-0.236	0.102
-595.011	-200.000	-0.013	-0.075
-593.996	-30.512	-0.463	-0.267
-592.982	-85.888	0.159	-0.050
-591.967	-200.000	-0.011	-0.203
-590.952	164.897	-0.156	0.223
-589.938	-66.572	-0.191	-0.077
-588.923	-200.000	0.057	0.276
-587.909	-186.241	0.111	0.002
-586.894	-0.960	0.234	-0.168
-585.879	14.278	0.087	0.069
-584.865	-200.000	-0.008	0.401
-583.850	543.462	-0.054	0.132
-582.836	64.930	-0.337	-0.346
-581.821	199.186	-0.076	0.119
-580.806	-37.598	-0.118	0.064
-579.792	103.837	0.245	0.292
-578.777	-200.000	-0.074	-0.457
-577.763	-78.061	-0.220	0.077
-576.748	87.932	-0.113	0.128
-575.733	800.000	0.036	0.123
-574.719	-162.553	-0.438	0.022
-573.704	-63.269	0.211	0.088
-572.690	800.000	-0.071	0.209
-571.675	73.042	-0.184	0.196
-570.661	337.388	0.078	0.154
-569.646	-29.777	0.193	-0.112
-568.631	-8.968	0.245	-0.167
-567.617	800.000	-0.034	-0.142
-566.602	-200.000	-0.028	-0.454
-565.588	-61.238	0.054	-0.023
-564.573	76.557	-0.250	-0.269
-563.558	-101.947	-0.161	-0.039
-562.544	-125.943	-0.402	0.061
-561.529	-162.155	-0.108	-0.005
-560.515	-13.964	-0.198	0.130
-559.500	-119.328	0.109	0.019
-558.485	-41.125	0.114	0.060
-557.471	311.206	0.228	-0.434
-556.456	800.000	0.072	-0.240
-555.442	158.415	-0.043	-0.061
-554.427	164.543	-0.176	0.252
-553.412	-147.894	0.158	-0.013
-552.398	-43.107	-0.053	-0.027
-551.383	2.082	0.360	0.264
-550.369	800.000	-0.096	-0.271
-549.354	-117.215	0.445	-0.082
-548.339	-200.000	0.050	0.267
-547.325	524.798	-0.123	0.293
-546.310	-94.332	-0.125	0.035
-545.296	52.247	-0.132	-0.128
-544.281	17.742	0.101	-0.082
-543.266	63.702	-0.041	0.042
-542.252	800.000	0.137	-0.438
-541.237	800.000	-0.050	0.198
-540.223	-144.102	0.196	-0.019
-539.208	-167.345	-0.142	-0.006
-538.193	-133.766	0.133	-0.017
-537.179	-200.000	-0.026	0.166
-536.164	-101.984	0.311	0.076
-535.150	162.060	-0.098	-0.140
-534.135	-109.158	-0.206	0.044
-533.121	-139.627	0.055	0.006
-532.106	567.114	-0.110	-0.270
-531.091	103.256	0.049	-0.059
-530.077	-114.227	-0.214	-0.042
-529.062	-54.612	0.038	-0.018
-528.048	13.314	0.187	0.147
-527.033	-200.000	0.015	0.116
-526.018	-200.000	-0.010	-0.160
-525.004	-0.898	0.255	-0.183
-523.989	319.351	-0.172	-0.330
-522.975	35.422	-0.164	-0.146
-521.960	-11.638	0.242	-0.161
-520.945	11.530	0.204	0.159
-519.931	22.740	-0.222	-0.185
-518.916	-28.470	-0.064	0.037
-517.902	134.077	-0.165	-0.217
-516.887	82.860	-0.155	0.171
-515.872	800.000	0.043	0.136
-514.858	-89.879	0.060	0.018
-513.843	15.072	-0.154	0.122
-512.829	9.124	-0.170	0.130
-511.814	246.515	0.074	0.127
-510.799	-88.377	-0.233	-0.070
-509.785	-79.784	-0.311	0.106
-508.770	100.615	-0.197	-0.232
-507.756	-109.770	-0.496	0.106
-506.741	51.815	0.179	-0.173
-505.726	800.000	-0.076	0.268
-504.712	800.000	-0.011	-0.041
-503.697	26.577	0.311	-0.263
-502.683	348.173	0.118	0.236
-501.668	219.642	-0.096	-0.156
-500.653	393.958	0.057	-0.119
-499.639	361.742	-0.076	0.154
-498.624	-81.359	-0.128	0.043
-497.610	78.282	0.244	0.263
-496.595	-59.528	-0.172	-0.075
-495.581	800.000	0.083	0.256
-494.566	-200.000	0.001	-0.053
-493.551	4.993	0.070	0.052
-492.537	-200.000	0.035	-0.207
-491.522	37.240	0.110	-0.099
-490.508	45.750	-0.141	-0.132
-489.493	52.065	-0.088	-0.085
-488.478	-81.670	0.244	0.081
-487.464	-200.000	0.003	0.049
-486.449	-57.792	-0.364	0.161
-485.435	-90.737	0.080	-0.023
-484.420	-98.003	-0.167	-0.044
-483.405	58.103	-0.265	-0.263
-482.391	71.608	-0.295	-0.310
-481.376	-62.246	0.333	0.140
-480.362	-70.346	0.019	-0.007
-479.347	38.539	-0.338	0.305
-478.332	-110.155	0.053	0.011
-477.318	-61.398	-0.117	-0.050
-476.303	754.967	-0.045	-0.124
-475.289	-63.757	-0.476	0.197
-474.274	197.398	-0.056	-0.087
-473.259	-200.000	-0.024	-0.273
-472.245	-160.090	0.297	0.016
-471.230	-8.573	0.305	-0.207
-470.216	-67.568	0.155	-0.061
-469.201	5.353	0.367	-0.274
-468.186	526.399	0.037	-0.089
-467.172	-200.000	-0.066	-0.328
-466.157	741.669	0.076	0.206
-465.143	29.899	-0.400	-0.345
-464.128	612.026	0.072	0.182
-463.113	276.848	0.103	0.186
-462.099	124.000	0.139	-0.177
-461.084	800.000	-0.094	0.274
-460.070	-37.198	-0.245	-0.133
-459.055	800.000	-0.151	0.512
-458.040	-200.000	0.019	-0.094
-457.026	85.398	-0.057	-0.063
-456.011	6.310	0.131	-0.098
-454.997	-102.058	0.214	-0.052
-453.982	-119.944	0.296	0.051
-452.968	-70.893	-0.241	0.092
-451.953	-122.952	0.249	-0.041
-450.938	-57.425	-0.158	0.070
-449.924	-165.923	-0.151	-0.007
-448.909	-108.150	-0.291	-0.064
-447.895	800.000	-0.075	-0.313
-446.880	-84.716	0.429	0.136
-445.865	-1.482	-0.144	0.103
-444.851	-112.112	-0.248	0.050
-443.836	-200.000	0.032	-0.318
-442.822	-111.445	-0.077	-0.016
-441.807	83.820	-0.190	-0.209
-440.792	248.651	0.220	0.376
-439.778	8.105	-0.223	-0.169
-438.763	29.609	-0.226	-0.194
-437.749	143.752	0.197	0.265
-436.734	-66.804	-0.392	-0.157
-435.719	-88.478	-0.296	-0.089
-434.705	-95.029	-0.156	0.042
-433.690	-157.359	-0.190	-0.012
-432.676	385.540	-0.045	-0.094
-431.661	-11.325	-0.217	-0.144
-430.646	80.502	-0.191	0.208
-429.632	-153.443	-0.284	0.020
-428.617	16.578	-0.188	-0.150
-427.603	58.786	-0.251	0.250
-426.588	800.000	0.091	-0.398
-425.573	282.191	-0.061	0.110
-424.559	-129.648	-0.074	-0.010
-423.544	-70.093	0.261	-0.100
-422.530	-18.940	-0.256	0.161
-421.515	276.881	-0.116	0.209
-420.500	-23.212	-0.272	0.165
-419.486	-200.000	-0.030	0.327
-418.471	-25.291	0.570	0.341
-417.457	-22.500	-0.239	0.146
-416.442	51.393	-0.122	0.117
-415.428	20.041	-0.105	-0.085
-414.413	33.227	0.040	-0.035
-413.398	-55.145	0.101	-0.046
-412.384	-87.906	0.034	-0.010
-411.369	268.794	0.097	-0.171
-410.355	515.504	-0.065	0.153
-409.340	-200.000	-0.060	-0.346
-408.325	4.612	-0.014	0.011
-407.311	-14.100	0.292	-0.190
-406.296	364.485	0.032	0.064
-405.282	63.842	-0.287	-0.291
-404.267	-200.000	0.042	-0.235
-403.252	178.972	0.191	0.282
-402.238	-200.000	-0.007	0.230
-401.223	-69.713	-0.111	-0.043
-400.209	154.518	0.257	-0.357
-399.194	99.199	0.230	0.268
-398.179	-200.000	-0.033	0.274
-397.165	800.000	0.007	0.031
-396.150	800.000	-0.037	-0.113
-395.136	-200.000	-0.041	0.188
-394.121	-79.680	0.070	0.024
-393.106	212.799	-0.182	0.290
-392.092	-89.262	-0.146	-0.043
-391.077	-105.505	-0.062	-0.014
-390.063	-128.081	-0.169	-0.024
-389.048	-66.008	0.118	-0.048
-388.033	741.592	0.014	-0.038
-387.019	-200.000	0.017	0.183
-386.004	780.762	0.038	0.104
-384.990	-6.655	-0.449	-0.308
-383.975	-68.748	-0.583	-0.227
-382.960	-63.030	-0.044	0.018
-381.946	-200.000	0.028	0.224
-380.931	800.000	-0.054	-0.230
-379.917	-158.376	0.187	0.011
-378.902	-68.276	0.109	-0.043
-377.888	800.000	0.078	0.222
-376.873	14.333	0.366	0.288
-375.858	-12.797	-0.078	0.051
-374.844	-72.964	0.199	-0.074
-373.829	224.726	0.178	-0.291
-372.815	800.000	0.053	-0.181
-371.800	-200.000	-0.063	0.419
-370.785	-57.865	0.116	0.051
-369.771	-200.000	0.004	-0.027
-368.756	240.227	0.151	-0.253
-367.742	-164.080	0.257	0.012
-366.727	800.000	0.033	0.106
-365.712	-22.350	-0.138	-0.084
-364.698	-137.823	0.288	0.033
-363.683	-200.000	-0.050	-0.272
-362.669	-62.279	-0.200	-0.084
-361.654	-200.000	0.017	-0.287
-360.639	800.000	0.043	-0.137
-359.625	-67.261	0.471	0.187
-358.610	100.551	-0.205	0.240
-357.596	-75.482	-0.280	-0.101
-356.581	28.180	-0.175	-0.149
-355.566	-114.939	0.158	0.030
-354.552	-200.000	0.005	-0.036
-353.537	-64.690	0.326	0.133
-352.523	39.849	0.140	0.126
-351.508	-200.000	0.027	0.331
-350.493	-185.842	-0.119	-0.002
-349.479	-108.092	0.106	-0.023
-348.464	18.941	-0.129	-0.104
-347.450	-200.000	0.010	0.152
-346.435	800.000	-0.106	0.359
-345.420	-200.000	0.023	-0.127
-344.406	196.251	0.053	-0.082
-343.391	88.885	-0.182	-0.204
-342.377	-200.000	0.027	0.264
-341.362	800.000	0.054	0.174
-340.348	-139.621	0.691	0.074
-339.333	8.492	0.140	-0.106
-338.318	800.000	-0.033	0.124
-337.304	-72.622	-0.390	-0.145
-336.289	142.385	-0.035	-0.047
-335.275	-65.177	0.069	0.028
-334.260	9.514	-0.296	0.226
-333.245	-100.091	0.121	0.030
-332.231	482.668	-0.100	-0.229
-331.216	-163.720	-0.293	-0.014
-330.202	-200.000	-0.022	0.128
-329.187	-200.000	0.001	0.379
-328.172	-125.039	-0.094	-0.015
-327.158	81.846	0.268	0.292
-326.143	-53.208	-0.124	-0.057
-325.129	-67.298	-0.098	0.039
-324.114	-118.493	0.343	-0.061
-323.099	800.000	0.179	-0.672
-322.085	80.421	0.241	-0.261
-321.070	-61.278	0.116	0.049
-320.056	-60.918	0.198	0.084
-319.041	373.670	0.218	0.445
-318.026	800.000	0.048	0.150
-317.012	106.316	0.149	-0.178
-315.997	451.712	-0.118	0.262
-314.983	-14.869	0.127	0.082
-313.968	332.908	0.058	-0.113
-312.953	123.982	0.146	-0.184
-311.939	18.176	-0.221	-0.178
-310.924	-106.762	0.032	0.007
-309.910	-87.322	0.151	-0.046
-308.895	-110.747	0.326	0.068
-307.880	38.322	-0.258	0.231
-306.866	414.741	-0.099	-0.211
-305.851	800.000	0.032	0.118
-304.837	-18.907	0.093	0.058
-303.822	-200.000	0.024	0.131
-302.807	800.000	-0.015	-0.050
-301.793	13.494	-0.231	-0.180
-300.778	800.000	0.039	0.172
-299.764	-170.920	-0.255	0.009
-298.749	29.323	-0.301	0.257
-297.735	15.695	-0.281	-0.222
-296.720	-200.000	0.008	0.197
-295.705	729.341	-0.112	-0.302
-294.691	-200.000	-0.007	-0.223
-293.676	-34.663	0.108	0.059
-292.662	-137.594	-0.179	0.020
-291.647	-200.000	-0.041	0.224
-290.632	-200.000	0.015	-0.335
-289.618	800.000	-0.068	0.219
-288.603	-80.072	-0.023	0.008
-287.589	223.164	-0.283	-0.458
-286.574	-71.605	0.145	0.054
-285.559	-17.841	-0.250	0.158
-284.545	-200.000	0.036	0.242
-283.530	-58.008	0.197	0.086
-282.516	800.000	-0.097	-0.327
-281.501	-200.000	0.018	-0.155
-280.486	82.519	-0.132	-0.143
-279.472	-87.193	0.301	0.092
-278.457	-200.000	0.037	-0.559
-277.443	397.939	0.099	-0.207
-276.428	-197.073	-0.306	-0.002
-275.413	800.000	-0.068	0.223
-274.399	255.338	-0.076	0.131
-273.384	-189.443	-0.064	0.001
-272.370	28.968	0.123	0.104
-271.355	61.704	0.266	0.266
-270.340	800.000	0.052	-0.176
-269.326	-56.320	0.190	0.085
-268.311	-200.000	0.022	0.217
-267.297	32.928	0.095	0.082
-266.282	-74.973	-0.156	-0.056
-265.267	74.494	-0.192	-0.203
-264.253	354.025	-0.076	-0.152
-263.238	-65.297	-0.334	0.135
-262.224	-79.852	-0.103	0.035
-261.209	549.983	-0.008	0.019
-260.195	-200.000	-0.049	-0.385
-259.180	-73.651	-0.162	0.059
-258.165	-23.074	0.215	0.130
-257.151	-73.511	-0.059	-0.022
-256.136	-94.586	0.138	-0.038
-255.122	-200.000	0.065	0.342
-254.107	-65.471	0.310	-0.125
-253.092	493.617	0.073	-0.168
-252.078	47.834	0.141	0.132
-251.063	183.417	0.040	0.060
-250.049	800.000	0.091	-0.280
-249.034	-48.404	0.163	0.079
-248.019	-176.826	0.160	-0.004
-247.005	3.083	0.286	-0.208
-245.990	104.679	0.019	-0.023
-244.976	-87.585	0.213	0.065
-243.961	28.414	-0.139	-0.117
-242.946	37.849	-0.323	-0.288
-241.932	-90.335	0.167	-0.049
-240.917	800.000	0.061	0.250
-239.903	-162.917	0.338	0.016
-238.888	-61.970	0.157	0.066
-237.873	-117.814	-0.299	-0.054
-236.859	54.547	0.058	-0.056
-235.844	-91.651	0.105	-0.030
-234.830	-85.652	-0.200	-0.062
-233.815	800.000	-0.026	-0.097
-232.800	800.000	-0.027	0.114
-231.786	-162.672	0.215	-0.011
-230.771	-25.333	0.069	0.041
-229.757	-122.977	0.209	-0.034
-228.742	257.334	-0.016	0.027
-227.727	586.660	-0.018	-0.044
-226.713	-112.732	0.107	0.021
-225.698	-46.090	-0.035	0.017
-224.684	21.124	0.093	0.076
-223.669	235.822	-0.024	-0.039
-222.655	-23.109	0.223	-0.135
-221.640	512.398	-0.088	0.205
-220.625	800.000	-0.077	-0.213
-219.611	99.585	0.103	0.119
-218.596	-22.391	-0.362	-0.219
-217.582	-200.000	-0.028	0.228
-216.567	-52.068	0.199	-0.092
-215.552	8.222	0.227	-0.171
-214.538	80.583	-0.090	-0.098
-213.523	1.874	-0.263	-0.190
-212.509	59.688	0.178	-0.176
-211.494	-145.654	-0.127	-0.011
-210.479	-171.133	0.149	0.005
-209.465	-57.106	-0.135	-0.060
-208.450	202.890	-0.111	-0.172
-207.436	800.000	0.023	0.064
-206.421	-200.000	0.078	0.359
-205.406	-78.671	0.271	0.093
-204.392	800.000	0.135	0.374
-203.377	-67.632	0.164	0.064
-202.363	-180.930	0.154	-0.003
-201.348	800.000	-0.066	0.284
-200.333	252.727	0.142	0.242
-199.319	1.958	0.275	0.199
-198.304	-69.423	-0.045	0.017
-197.290	-200.000	0.004	0.187
-196.275	-121.083	0.255	0.043
-195.260	195.013	-0.092	0.141
-194.246	60.239	0.311	-0.308
-193.231	113.903	0.094	-0.115
-192.217	368.022	0.051	-0.102
-191.202	-200.000	-0.005	0.163
-190.187	370.993	0.089	0.181
-189.173	-151.105	-0.258	-0.019
-188.158	-200.000	-0.010	0.177
-187.144	-33.787	-0.097	0.053
-186.129	190.536	-0.167	0.252
-185.114	-89.283	0.120	-0.035
-184.100	800.000	-0.130	0.375
-183.085	-78.408	0.375	-0.128
-182.071	-189.497	-0.166	0.002
-181.056	-200.000	0.002	-0.259
-180.042	-200.000	-0.020	-0.157
-179.027	-109.029	0.168	-0.036
-178.012	47.052	-0.177	-0.165
-176.998	800.000	0.056	0.180
-175.983	-76.180	-0.199	0.070
-174.969	-200.000	-0.026	-0.132
-173.954	-114.898	-0.162	0.031
-172.939	800.000	-0.013	0.053
-171.925	800.000	0.119	-0.351
-170.910	140.870	-0.115	0.152
-169.896	-118.028	0.490	-0.088
-168.881	-120.711	0.209	0.035
-167.866	800.000	-0.081	-0.311
-166.852	85.422	-0.037	0.041
-165.837	-143.956	0.251	-0.024
-164.823	67.761	0.124	0.126
-163.808	-200.000	-0.048	-0.332
-162.793	178.609	0.139	0.203
-161.779	-200.000	-0.036	0.162
-160.764	-84.494	-0.188	-0.059
-159.750	-28.774	-0.075	0.043
-158.735	23.157	0.189	0.155
-157.720	-90.539	0.028	0.008
-156.706	-200.000	-0.044	0.306
-155.691	-92.356	0.076	0.021
-154.677	-119.692	-0.132	-0.023
-153.662	216.169	0.099	-0.157
-152.647	155.477	0.062	-0.085
-151.633	-5.656	0.089	0.061
-150.618	85.068	0.126	0.138
-149.604	770.040	-0.052	0.142
-148.589	324.958	0.242	0.462
-147.574	-56.127	-0.480	-0.214
-146.560	575.550	0.126	-0.308
-145.545	-158.223	-0.466	0.027
-144.531	-52.504	-0.225	-0.104
-143.516	-88.125	0.109	-0.033
-142.502	800.000	-0.050	-0.181
-141.487	337.563	0.073	0.141
-140.472	-79.994	0.217	-0.073
-139.458	-147.532	0.284	-0.024
-138.443	-52.144	-0.430	0.199
-137.429	8.688	-0.192	0.144
-136.414	760.091	-0.063	0.171
-135.399	-24.422	0.177	0.106
-134.385	89.887	0.219	-0.244
-133.370	-30.177	-0.339	-0.192
-132.356	155.435	-0.170	0.233
-131.341	133.349	-0.049	0.063
-130.326	-95.340	-0.218	0.059
-129.312	0.171	-0.122	0.087
-128.297	-11.213	0.214	0.141
-127.283	17.053	0.194	-0.153
-126.268	-2.293	0.111	-0.077
-125.253	401.482	-0.063	0.131
-124.239	351.326	0.100	0.198
-123.224	480.136	0.089	0.202
-122.210	32.152	-0.079	0.068
-121.195	-200.000	0.007	-0.137
-120.180	-87.992	-0.286	-0.086
