DTS Sentinel unit serial number:	SN413079Multiplexer serial number:	ORYXHardware model number:	OX4-SRSoftware version number:	ORYX F/W v4.00 Oryx Data Collector v3.7.2.0data status	okinstallation	princeton_trtdifferential loss correction	single-endedforward channel	channel 1reverse channel	N/Adate	2019/09/19time	01:06:35forward acquisition time	60.00reverse acquisition time	0.00gamma	496.2192k internal	0.2344k external	0.2344temperature offset calibration	1.0017default loss term (dB/km)	0.3790temperature slope calibration	1.0000multiplexer offset coefficient	1.0000multiplexer slope coefficient	1.0000fibre end	0.00T internal ref (°C)	21.87T ext. ref 1 (°C)	0.70T ext. ref 2 (°C)	15.20length (m)	temperature (°C)	Stokes	anti-Stokes-747.200	-200.000	0.023	0.187
-746.185	-64.971	-0.419	0.169
-745.171	137.429	0.140	0.184
-744.156	133.736	0.074	0.096
-743.142	-49.390	-0.085	0.041
-742.127	800.000	-0.070	0.269
-741.112	114.330	-0.078	0.095
-740.098	107.594	-0.238	0.283
-739.083	77.085	-0.107	-0.114
-738.069	-57.317	-0.278	0.122
-737.054	-200.000	-0.006	0.084
-736.039	800.000	-0.065	-0.184
-735.025	-79.073	0.391	-0.133
-734.010	-169.442	-0.259	-0.009
-732.996	469.484	-0.111	0.250
-731.981	-12.377	0.197	-0.128
-730.966	99.666	-0.178	-0.206
-729.952	800.000	0.074	-0.278
-728.937	65.552	-0.185	0.187
-727.923	-137.372	0.209	0.024
-726.908	-12.164	-0.123	-0.080
-725.894	-200.000	0.017	-0.169
-724.879	-68.599	-0.406	-0.157
-723.864	-200.000	0.012	-0.095
-722.850	26.766	-0.102	-0.085
-721.835	25.692	0.053	0.044
-720.821	133.181	0.121	0.156
-719.806	700.508	-0.010	-0.027
-718.791	-200.000	0.020	-0.162
-717.777	-100.431	0.203	-0.050
-716.762	9.358	-0.075	-0.057
-715.748	800.000	-0.042	-0.168
-714.733	180.210	-0.081	-0.118
-713.718	23.846	0.172	0.142
-712.704	-62.575	0.173	0.072
-711.689	27.035	0.093	-0.078
-710.675	-32.681	-0.090	-0.050
-709.660	-36.856	-0.342	-0.183
-708.645	800.000	0.048	0.186
-707.631	-200.000	0.014	-0.215
-706.616	800.000	0.062	-0.236
-705.602	-200.000	-0.051	-0.261
-704.587	103.890	0.195	0.229
-703.572	800.000	-0.041	-0.150
-702.558	800.000	0.043	0.179
-701.543	-140.458	0.173	0.018
-700.529	-59.652	0.279	-0.120
-699.514	342.539	0.183	0.359
-698.499	307.989	-0.139	-0.259
-697.485	-51.024	0.266	-0.125
-696.470	250.530	0.103	-0.174
-695.456	-28.790	-0.401	-0.230
-694.441	108.833	0.069	-0.082
-693.426	40.022	-0.199	0.179
-692.412	738.120	-0.050	0.134
-691.397	-169.219	0.193	-0.007
-690.383	59.027	-0.222	0.218
-689.368	-200.000	-0.021	-0.157
-688.354	-164.067	-0.071	0.003
-687.339	-105.134	-0.181	0.041
-686.324	-118.276	-0.362	-0.064
-685.310	26.899	0.194	-0.162
-684.295	67.362	-0.196	0.199
-683.281	-178.693	0.065	0.001
-682.266	76.369	0.203	-0.214
-681.251	-33.919	-0.309	-0.170
-680.237	585.377	0.024	-0.058
-679.222	-93.397	0.209	-0.058
-678.208	-83.857	0.379	0.121
-677.193	-200.000	-0.044	0.239
-676.178	190.850	-0.108	0.162
-675.164	153.420	-0.220	0.300
-674.149	125.582	0.097	0.122
-673.135	-170.042	-0.121	0.004
-672.120	-183.301	-0.135	-0.002
-671.105	-9.953	-0.208	-0.138
-670.091	-109.966	0.128	0.027
-669.076	5.088	-0.151	0.111
-668.062	28.922	0.133	0.112
-667.047	75.012	-0.088	0.093
-666.032	115.117	-0.068	-0.083
-665.018	-200.000	0.041	0.308
-664.003	800.000	-0.054	-0.223
-662.989	409.913	-0.112	-0.236
-661.974	629.542	-0.060	0.150
-660.959	-13.300	0.109	-0.071
-659.945	-29.564	0.203	-0.116
-658.930	204.732	-0.084	0.129
-657.916	-114.893	-0.202	-0.038
-656.901	-44.413	0.278	0.139
-655.886	-32.571	0.269	0.149
-654.872	246.517	-0.076	0.128
-653.857	800.000	-0.037	-0.146
-652.843	-200.000	0.006	-0.194
-651.828	800.000	0.113	-0.437
-650.814	49.988	0.137	0.129
-649.799	800.000	0.041	0.132
-648.784	549.472	-0.081	-0.193
-647.770	74.140	0.168	-0.176
-646.755	-174.140	-0.061	-0.002
-645.741	-84.483	0.301	0.095
-644.726	63.128	0.073	-0.073
-643.711	140.304	0.128	0.168
-642.697	251.758	-0.046	-0.077
-641.682	73.301	0.173	-0.180
-640.668	77.988	-0.185	0.196
-639.653	-200.000	0.043	0.196
-638.638	70.027	0.297	-0.305
-637.624	-200.000	0.035	0.278
-636.609	-104.037	-0.088	0.020
-635.595	-200.000	0.002	0.146
-634.580	510.086	-0.024	-0.056
-633.565	72.927	0.268	-0.279
-632.551	800.000	-0.067	-0.216
-631.536	446.834	-0.064	-0.140
-630.522	-74.784	-0.165	0.059
-629.507	-109.254	0.313	0.066
-628.492	147.748	0.168	-0.226
-627.478	-200.000	-0.031	0.272
-626.463	-121.138	-0.349	0.058
-625.449	46.154	-0.160	-0.148
-624.434	-41.583	-0.236	0.121
-623.419	-123.335	0.223	-0.035
-622.405	-200.000	0.017	-0.119
-621.390	-79.256	0.131	0.044
-620.376	-157.152	0.235	-0.014
-619.361	-200.000	0.003	-0.288
-618.346	177.102	0.006	0.009
-617.332	-38.510	-0.316	0.166
-616.317	-200.000	0.000	0.037
-615.303	41.518	0.124	-0.111
-614.288	611.106	0.183	-0.456
-613.273	-200.000	-0.003	-0.400
-612.259	591.829	0.004	0.010
-611.244	124.771	0.072	0.090
-610.230	-200.000	-0.017	-0.305
-609.215	-12.279	0.207	-0.135
-608.201	-200.000	-0.010	0.190
-607.186	-8.221	-0.069	0.046
-606.171	233.506	-0.039	-0.065
-605.157	-110.998	0.413	-0.085
-604.142	-47.690	0.254	-0.123
-603.128	-190.308	0.338	-0.004
-602.113	-28.459	0.094	0.054
-601.098	-200.000	-0.054	0.485
-600.084	107.325	-0.091	-0.108
-599.069	250.997	0.051	0.086
-598.055	-200.000	0.020	0.197
-597.040	800.000	0.085	-0.336
-596.025	-126.861	0.310	-0.046
-595.011	-200.000	-0.042	0.207
-593.996	637.136	-0.113	-0.285
-592.982	185.022	-0.141	0.207
-591.967	-200.000	0.021	0.266
-590.952	-200.000	-0.040	-0.194
-589.938	-200.000	-0.034	-0.348
-588.923	465.968	-0.096	-0.214
-587.909	47.399	0.133	-0.124
-586.894	-97.381	-0.162	0.042
-585.879	-187.457	-0.190	0.003
-584.865	443.534	0.107	0.233
-583.850	-183.027	-0.093	0.002
-582.836	14.182	-0.226	-0.175
-581.821	-110.134	-0.347	-0.072
-580.806	-119.377	-0.341	-0.059
-579.792	-200.000	-0.058	-0.318
-578.777	49.433	-0.079	-0.074
-577.763	174.294	0.082	0.118
-576.748	800.000	-0.001	0.004
-575.733	-200.000	0.029	0.311
-574.719	-116.924	-0.053	0.010
-573.704	95.557	-0.162	0.184
-572.690	23.650	-0.188	-0.154
-571.675	-88.720	-0.107	-0.032
-570.661	42.969	0.047	0.043
-569.646	-200.000	-0.015	-0.099
-568.631	-200.000	0.012	0.257
-567.617	-83.216	-0.240	0.077
-566.602	-130.185	-0.256	-0.035
-565.588	482.307	-0.147	-0.331
-564.573	800.000	-0.130	-0.378
-563.558	-200.000	0.010	0.120
-562.544	-200.000	0.082	0.635
-561.529	-4.224	0.299	0.206
-560.515	307.504	-0.066	-0.122
-559.500	8.591	0.046	0.035
-558.485	-167.474	-0.197	-0.008
-557.471	-48.581	-0.122	-0.058
-556.456	-200.000	-0.096	-0.473
-555.442	-112.415	-0.159	0.032
-554.427	-35.840	-0.300	0.161
-553.412	-200.000	0.004	-0.336
-552.398	-200.000	0.011	-0.266
-551.383	800.000	-0.020	-0.059
-550.369	473.516	0.112	0.252
-549.354	-7.700	-0.396	-0.266
-548.339	-200.000	-0.019	-0.133
-547.325	-180.866	0.273	0.005
-546.310	41.798	-0.157	-0.141
-545.296	-57.735	0.100	-0.043
-544.281	-67.293	0.152	0.060
-543.266	17.605	-0.245	-0.194
-542.252	401.441	0.093	0.194
-541.237	74.850	-0.139	0.145
-540.223	358.853	-0.061	-0.121
-539.208	-97.756	0.060	-0.015
-538.193	-30.142	-0.104	-0.059
-537.179	-200.000	-0.024	0.153
-536.164	-136.546	-0.176	0.020
-535.150	173.158	-0.117	0.167
-534.135	800.000	-0.035	0.113
-533.121	8.257	0.078	-0.058
-532.106	800.000	0.111	-0.313
-531.091	-200.000	0.009	-0.062
-530.077	-200.000	0.012	0.071
-529.062	126.005	-0.124	-0.155
-528.048	800.000	0.029	0.112
-527.033	53.556	0.197	0.188
-526.018	103.923	-0.099	0.115
-525.004	393.043	-0.041	-0.085
-523.989	99.590	0.146	0.168
-522.975	-200.000	0.017	0.106
-521.960	121.904	-0.270	0.334
-520.945	113.393	0.071	0.085
-519.931	79.006	0.098	0.104
-518.916	-71.792	-0.264	0.098
-517.902	243.910	-0.216	-0.359
-516.887	-46.307	-0.208	0.101
-515.872	2.087	0.320	-0.229
-514.858	86.475	-0.083	-0.091
-513.843	-142.759	-0.407	0.039
-512.829	114.043	0.179	0.215
-511.814	-61.786	-0.075	-0.031
-510.799	-39.544	0.264	-0.137
-509.785	-66.166	-0.119	-0.047
-508.770	800.000	-0.124	-0.385
-507.756	-200.000	-0.009	0.288
-506.741	-106.002	0.309	0.069
-505.726	-200.000	0.022	-0.106
-504.712	272.567	-0.147	0.257
-503.697	24.404	-0.125	-0.103
-502.683	-200.000	0.014	-0.080
-501.668	-40.419	-0.206	0.106
-500.653	-120.653	-0.315	-0.053
-499.639	-120.460	-0.317	-0.053
-498.624	52.650	0.209	-0.198
-497.610	175.188	0.162	0.232
-496.595	-200.000	-0.056	0.282
-495.581	800.000	0.060	-0.170
-494.566	-90.969	-0.447	-0.127
-493.551	800.000	0.071	0.273
-492.537	-51.178	0.195	-0.091
-491.522	800.000	-0.084	0.251
-490.508	144.370	-0.115	0.152
-489.493	556.117	0.116	-0.277
-488.478	369.283	0.156	-0.313
-487.464	57.858	-0.378	-0.367
-486.449	182.831	0.101	0.148
-485.435	-200.000	0.018	0.092
-484.420	134.853	0.051	-0.066
-483.405	590.763	-0.083	0.204
-482.391	110.608	-0.013	0.015
-481.376	-200.000	-0.020	-0.137
-480.362	-154.101	-0.161	-0.011
-479.347	110.326	0.216	0.258
-478.332	522.168	-0.035	0.082
-477.318	-78.728	-0.168	0.057
-476.303	-72.279	0.247	-0.091
-475.289	7.294	-0.230	0.170
-474.274	123.040	-0.182	-0.226
-473.259	181.612	0.077	0.112
-472.245	-93.847	-0.205	0.056
-471.230	256.543	0.195	0.331
-470.216	-66.100	-0.163	0.065
-469.201	800.000	0.074	-0.207
-468.186	-143.478	-0.165	-0.016
-467.172	-200.000	-0.011	0.315
-466.157	-155.771	0.300	-0.019
-465.143	369.211	0.210	-0.422
-464.128	118.672	-0.256	0.313
-463.113	86.357	0.177	0.193
-462.099	-200.000	-0.036	0.394
-461.084	25.398	-0.320	-0.263
-460.070	-18.839	0.231	-0.142
-459.055	119.261	0.046	0.057
-458.040	-63.370	-0.141	-0.058
-457.026	356.474	-0.102	0.200
-456.011	391.281	0.094	-0.194
-454.997	-58.547	-0.341	0.146
-453.982	-43.592	-0.063	-0.031
-452.968	800.000	-0.009	-0.036
-451.953	-200.000	-0.006	0.032
-450.938	800.000	-0.111	-0.402
-449.924	-200.000	0.005	-0.211
-448.909	800.000	0.086	-0.268
-447.895	-200.000	-0.028	0.235
-446.880	-172.919	-0.135	-0.004
-445.865	-39.537	-0.043	0.022
-444.851	-67.778	0.497	0.192
-443.836	261.933	-0.202	0.347
-442.822	123.698	0.050	0.062
-441.807	705.690	-0.051	-0.132
-440.792	-200.000	0.011	0.132
-439.778	-64.435	-0.263	-0.106
-438.763	-56.632	0.211	-0.092
-437.749	-98.162	0.189	0.048
-436.734	800.000	-0.058	0.241
-435.719	-107.538	0.243	-0.053
-434.705	-200.000	0.005	-0.218
-433.690	-200.000	0.020	-0.238
-432.676	-59.885	0.309	-0.131
-431.661	-175.620	0.216	-0.006
-430.646	608.162	-0.102	-0.251
-429.632	-29.069	-0.373	-0.212
-428.617	301.931	-0.125	-0.229
-427.603	-200.000	0.038	-0.173
-426.588	-37.044	-0.202	-0.107
-425.573	-200.000	-0.026	0.198
-424.559	-41.712	0.442	-0.224
-423.544	800.000	-0.036	0.124
-422.530	-200.000	-0.046	-0.256
-421.515	-200.000	-0.002	0.062
-420.500	-95.640	0.170	-0.045
-419.486	-51.320	-0.297	-0.138
-418.471	-174.092	0.252	0.007
-417.457	-112.571	0.175	-0.035
-416.442	-200.000	0.039	0.365
-415.428	113.728	0.075	-0.090
-414.413	17.191	-0.225	0.176
-413.398	-120.672	0.217	-0.036
-412.384	800.000	0.071	0.207
-411.369	-88.715	-0.300	0.088
-410.355	-123.624	0.080	0.012
-409.340	-200.000	-0.066	-0.336
-408.325	-200.000	0.007	0.072
-407.311	123.014	-0.278	-0.343
-406.296	-127.918	0.309	-0.044
-405.282	146.185	0.062	0.082
-404.267	800.000	0.089	-0.296
-403.252	383.344	0.216	-0.438
-402.238	800.000	-0.023	0.066
-401.223	336.091	-0.110	0.211
-400.209	-154.212	0.193	-0.013
-399.194	-200.000	0.023	-0.293
-398.179	627.996	-0.092	0.230
-397.165	-17.940	-0.366	0.226
-396.150	-169.909	0.499	-0.018
-395.136	-145.046	-0.411	-0.037
-394.121	186.768	0.079	0.116
-393.106	113.100	0.158	-0.190
-392.092	88.562	0.042	0.046
-391.077	115.481	-0.304	-0.367
-390.063	50.463	0.160	0.149
-389.048	-200.000	0.005	-0.462
-388.033	-200.000	-0.006	-0.173
-387.019	106.127	0.174	0.204
-386.004	800.000	-0.148	-0.472
-384.990	65.185	0.092	0.092
-383.975	-55.601	-0.405	0.179
-382.960	-143.004	0.267	0.026
-381.946	-129.945	-0.161	0.022
-380.931	-100.721	-0.183	0.045
-379.917	160.312	-0.123	-0.170
-378.902	-189.328	-0.242	-0.003
-377.888	664.057	0.038	-0.096
-376.873	-48.368	0.186	-0.088
-375.858	178.450	0.081	-0.117
-374.844	-94.753	0.207	-0.055
-373.829	114.749	-0.164	-0.197
-372.815	-46.306	-0.328	0.159
-371.800	-11.448	0.188	0.122
-370.785	183.942	0.132	-0.192
-369.771	383.335	0.047	0.096
-368.756	-200.000	0.006	0.057
-367.742	98.080	-0.171	0.194
-366.727	-113.131	0.346	0.067
-365.712	-174.273	0.181	-0.005
-364.698	-113.701	-0.279	0.054
-363.683	-171.306	-0.449	0.015
-362.669	-3.201	-0.485	0.334
-361.654	80.901	-0.113	-0.120
-360.639	73.474	-0.287	-0.296
-359.625	405.961	0.150	0.312
-358.610	220.682	0.180	0.285
-357.596	400.923	0.114	-0.236
-356.581	284.390	0.075	-0.133
-355.566	100.641	-0.129	0.147
-354.552	299.803	-0.100	0.182
-353.537	50.756	0.123	-0.114
-352.523	-200.000	-0.002	0.034
-351.508	-27.463	0.084	0.048
-350.493	-95.873	0.270	0.071
-349.479	21.075	-0.191	-0.152
-348.464	-8.062	0.164	0.109
-347.450	-17.696	-0.315	-0.195
-346.435	626.810	-0.047	-0.116
-345.420	-200.000	0.014	-0.203
-344.406	-46.241	-0.042	-0.020
-343.391	353.370	-0.148	0.288
-342.377	38.980	-0.290	-0.256
-341.362	-110.739	-0.125	-0.025
-340.348	-47.908	0.230	-0.110
-339.333	188.139	0.078	0.115
-338.318	133.204	-0.088	0.112
-337.304	207.396	-0.063	-0.096
-336.289	-118.349	-0.190	0.033
-335.275	85.247	-0.065	-0.071
-334.260	-196.955	-0.302	0.002
-333.245	-155.769	0.436	-0.027
-332.231	-159.445	0.162	0.009
-331.216	-151.360	0.229	0.017
-330.202	-200.000	0.030	0.148
-329.187	65.751	0.215	-0.215
-328.172	-86.662	-0.133	0.040
-327.158	-88.297	0.207	0.061
-326.143	75.543	-0.137	0.142
-325.129	-200.000	0.021	-0.110
-324.114	-160.406	-0.250	0.013
-323.099	-109.707	0.156	0.032
-322.085	20.514	0.241	0.192
-321.070	-74.586	0.205	0.073
-320.056	21.560	0.073	0.058
-319.041	83.004	0.321	0.344
-318.026	-112.444	-0.097	-0.019
-317.012	-200.000	0.000	-0.109
-315.997	-46.550	0.179	-0.086
-314.983	800.000	-0.067	0.244
-313.968	-200.000	-0.037	0.260
-312.953	-200.000	0.003	-0.168
-311.939	-166.674	0.066	0.003
-310.924	-28.983	-0.284	0.161
-309.910	-86.823	0.336	-0.101
-308.895	-122.218	0.304	-0.049
-307.880	-18.559	-0.244	-0.150
-306.866	121.562	0.117	0.144
-305.851	10.589	-0.246	-0.185
-304.837	-149.969	-0.226	0.017
-303.822	-125.069	0.466	0.070
-302.807	-123.347	0.225	-0.035
-301.793	-200.000	0.039	0.254
-300.778	-21.379	-0.149	-0.090
-299.764	90.083	0.213	0.234
-298.749	-64.082	0.289	-0.116
-297.735	42.555	-0.429	0.384
-296.720	237.498	-0.164	0.267
-295.705	377.284	0.077	-0.154
-294.691	-200.000	-0.062	-0.303
-293.676	140.921	0.112	-0.145
-292.662	500.150	-0.114	-0.258
-291.647	40.513	0.138	0.122
-290.632	-153.954	-0.022	0.002
-289.618	-200.000	0.007	-0.070
-288.603	229.055	-0.115	0.185
-287.589	618.750	-0.072	0.179
-286.574	102.416	0.150	0.173
-285.559	800.000	-0.077	-0.308
-284.545	-200.000	0.016	0.244
-283.530	306.940	0.020	-0.037
-282.516	-200.000	0.001	-0.163
-281.501	-200.000	-0.033	0.235
-280.486	-67.735	0.028	-0.011
-279.472	-200.000	-0.021	0.275
-278.457	-98.908	-0.072	-0.018
-277.443	-6.475	0.110	0.074
-276.428	-79.146	0.122	-0.041
-275.413	-200.000	0.027	0.134
-274.399	-149.430	-0.137	-0.011
-273.384	57.405	0.391	0.375
-272.370	122.748	0.291	-0.358
-271.355	-200.000	-0.013	0.057
-270.340	-140.507	-0.113	-0.012
-269.326	800.000	-0.095	-0.362
-268.311	-200.000	-0.014	-0.143
-267.297	171.509	0.040	0.056
-266.282	-70.969	0.347	0.129
-265.267	-165.893	0.116	0.005
-264.253	594.840	0.052	0.126
-263.238	-200.000	0.067	0.453
-262.224	9.152	-0.165	0.122
-261.209	780.928	0.050	0.133
-260.195	-200.000	0.053	-0.271
-259.180	-200.000	0.000	0.304
-258.165	-200.000	-0.079	0.000
-257.151	-21.016	0.233	0.140
-256.136	-200.000	-0.032	-0.371
-255.122	-168.354	0.228	-0.009
-254.107	-200.000	0.092	0.436
-253.092	115.026	0.227	0.272
-252.078	21.966	-0.255	-0.204
-251.063	278.475	0.168	-0.294
-250.049	-124.034	0.085	-0.013
-249.034	704.063	-0.067	0.174
-248.019	173.149	-0.141	-0.200
-247.005	36.950	0.220	0.191
-245.990	3.321	-0.128	-0.092
-244.976	109.090	-0.220	0.258
-243.961	-125.172	0.206	-0.031
-242.946	-31.647	-0.026	0.014
-241.932	467.466	0.073	0.160
-240.917	-80.920	0.123	-0.040
-239.903	388.589	-0.007	-0.015
-238.888	-94.304	0.643	0.172
-237.873	-22.616	-0.278	0.165
-236.859	800.000	-0.041	0.172
-235.844	-10.882	-0.053	-0.034
-234.830	-49.136	0.134	-0.063
-233.815	-166.379	0.244	-0.010
-232.800	123.885	0.089	0.109
-231.786	78.864	-0.062	-0.065
-230.771	419.207	-0.139	0.292
-229.757	58.254	0.178	-0.171
-228.742	-176.875	-0.310	-0.008
-227.727	312.523	0.003	-0.005
-226.713	582.274	-0.137	-0.330
-225.698	-191.515	0.288	0.003
-224.684	-64.228	0.213	-0.085
-223.669	-141.473	-0.161	-0.016
-222.655	64.081	0.204	0.202
-221.640	-29.665	-0.386	-0.216
-220.625	144.709	0.078	-0.102
-219.611	292.076	0.088	0.158
-218.596	12.639	-0.044	-0.034
-217.582	-200.000	0.010	0.268
-216.567	407.173	-0.008	0.017
-215.552	162.406	0.129	-0.177
-214.538	-161.320	-0.444	0.023
-213.523	-200.000	-0.022	0.281
-212.509	-130.977	0.214	-0.028
-211.494	-39.251	-0.208	-0.107
-210.479	-200.000	-0.012	0.295
-209.465	210.136	0.007	0.011
-208.450	800.000	-0.119	-0.411
-207.436	364.950	-0.158	-0.312
-206.421	83.365	0.032	-0.034
-205.406	524.525	0.062	-0.144
-204.392	-99.889	0.207	0.051
-203.377	-200.000	0.020	0.094
-202.363	95.384	0.112	-0.125
-201.348	-94.306	-0.253	0.068
-200.333	-26.676	0.058	0.033
-199.319	-200.000	-0.002	0.053
-198.304	-21.912	-0.097	0.058
-197.290	-200.000	-0.004	-0.116
-196.275	198.948	-0.048	-0.073
-195.260	-72.968	-0.296	0.107
-194.246	164.250	0.068	0.095
-193.231	341.421	-0.029	-0.055
-192.217	426.707	-0.144	0.304
-191.202	-25.018	-0.357	0.207
-190.187	559.844	0.084	0.199
-189.173	800.000	0.068	0.189
-188.158	385.123	-0.130	0.263
-187.144	-200.000	-0.004	-0.099
-186.129	-138.884	0.281	-0.030
-185.114	-155.751	-0.256	0.016
-184.100	800.000	-0.065	0.201
-183.085	-99.342	-0.129	0.032
-182.071	169.962	0.084	-0.117
-181.056	-200.000	-0.026	0.128
-180.042	-44.318	0.422	-0.207
-179.027	-17.668	0.161	-0.099
-178.012	309.245	0.096	-0.176
-176.998	-146.278	-0.149	0.013
-175.983	-39.092	0.133	0.069
-174.969	-200.000	-0.006	-0.300
-173.954	-162.814	0.335	-0.016
-172.939	-200.000	-0.018	0.284
-171.925	800.000	0.049	-0.143
-170.910	10.120	0.104	-0.078
-169.896	-82.189	0.323	-0.103
-168.881	-200.000	-0.003	0.489
-167.866	29.969	0.184	0.153
-166.852	-200.000	0.014	0.208
-165.837	-200.000	0.012	-0.105
-164.823	-200.000	0.039	0.178
-163.808	66.703	0.052	-0.052
-162.793	-1.843	0.098	-0.067
-161.779	-34.415	0.026	0.014
-160.764	61.744	0.056	0.054
-159.750	80.900	-0.114	0.120
-158.735	-14.680	0.099	0.062
-157.720	-0.400	0.224	0.156
-156.706	800.000	0.108	-0.319
-155.691	-65.440	-0.245	0.096
-154.677	535.191	0.089	0.206
-153.662	12.700	-0.044	-0.033
-152.647	-64.817	-0.351	0.139
-151.633	-200.000	-0.030	-0.249
-150.618	35.341	0.125	0.107
-149.604	-200.000	0.026	0.284
-148.589	-200.000	-0.056	-0.276
-147.574	-200.000	-0.020	0.232
-146.560	-32.146	0.096	0.053
-145.545	100.372	-0.091	-0.103
-144.531	-35.276	-0.398	-0.212
-143.516	-20.469	0.257	0.155
-142.502	-153.563	-0.240	0.016
-141.487	-77.633	0.121	0.041
-140.472	-103.346	0.236	0.054
-139.458	236.009	-0.009	-0.014
-138.443	9.911	0.233	-0.173
-137.429	-200.000	0.019	0.177
-136.414	-54.588	-0.126	0.056
-135.399	-200.000	-0.021	-0.127
-134.385	-37.829	0.121	0.063
-133.370	800.000	-0.080	0.304
-132.356	-66.673	0.197	0.076
-131.341	-179.325	0.179	0.004
-130.326	-200.000	0.007	-0.184
-129.312	-166.610	0.255	-0.010
-128.297	-68.831	-0.111	0.042
-127.283	151.658	0.116	0.154
-126.268	-62.378	0.418	0.170
-125.253	-53.719	0.255	0.114
-124.239	66.407	-0.355	-0.353
-123.224	59.346	0.014	-0.013
-122.210	-200.000	-0.035	-0.391
