DTS Sentinel unit serial number:	SN413079Multiplexer serial number:	ORYXHardware model number:	OX4-SRSoftware version number:	ORYX F/W v4.00 Oryx Data Collector v3.7.2.0data status	okinstallation	princeton_trtdifferential loss correction	single-endedforward channel	channel 1reverse channel	N/Adate	2019/09/16time	05:58:35forward acquisition time	60.00reverse acquisition time	0.00gamma	496.2192k internal	0.2331k external	0.2331temperature offset calibration	0.9978default loss term (dB/km)	0.3790temperature slope calibration	1.0000multiplexer offset coefficient	1.0000multiplexer slope coefficient	1.0000fibre end	0.00T internal ref (°C)	27.44T ext. ref 1 (°C)	11.25T ext. ref 2 (°C)	22.13length (m)	temperature (°C)	Stokes	anti-Stokes-747.200	304.964	0.071	-0.133
-746.185	-116.237	-0.210	0.039
-745.171	-200.000	-0.013	0.224
-744.156	752.411	0.066	0.179
-743.142	-141.950	0.393	-0.039
-742.127	58.563	0.146	0.145
-741.112	-8.870	-0.220	-0.149
-740.098	-200.000	-0.028	0.142
-739.083	319.722	0.152	-0.289
-738.069	-174.859	-0.413	-0.012
-737.054	343.649	0.170	0.335
-736.039	-200.000	-0.018	-0.181
-735.025	-200.000	-0.058	0.382
-734.010	397.522	-0.039	0.082
-732.996	50.964	-0.147	0.140
-731.981	-111.727	-0.073	-0.015
-730.966	-93.468	0.149	-0.041
-729.952	-111.156	-0.299	-0.062
-728.937	-118.164	0.130	-0.023
-727.923	-63.262	-0.328	-0.136
-726.908	419.644	-0.260	-0.560
-725.894	24.564	0.205	0.171
-724.879	93.998	-0.219	-0.250
-723.864	-33.553	0.356	0.198
-722.850	-114.047	-0.102	-0.020
-721.835	800.000	0.084	0.322
-720.821	-200.000	-0.005	-0.394
-719.806	-200.000	0.041	-0.289
-718.791	800.000	-0.080	-0.255
-717.777	-127.283	-0.275	0.040
-716.762	-200.000	-0.034	0.231
-715.748	-78.908	0.120	0.041
-714.733	-24.968	-0.080	-0.048
-713.718	-58.470	0.263	-0.115
-712.704	-143.024	0.304	-0.030
-711.689	-200.000	0.058	-0.346
-710.675	-200.000	0.006	-0.263
-709.660	-63.887	-0.151	-0.062
-708.645	-67.569	-0.394	0.155
-707.631	800.000	0.054	-0.231
-706.616	257.435	-0.195	0.337
-705.602	-200.000	-0.060	0.458
-704.587	-32.342	0.298	-0.167
-703.572	-200.000	0.020	0.135
-702.558	20.958	-0.116	-0.094
-701.543	-200.000	0.025	-0.398
-700.529	9.116	0.168	0.127
-699.514	-66.407	0.148	0.059
-698.499	-200.000	0.016	-0.223
-697.485	84.750	0.082	0.090
-696.470	-51.711	-0.030	0.014
-695.456	-92.030	-0.049	0.014
-694.441	-164.048	-0.117	-0.005
-693.426	-29.071	0.253	-0.146
-692.412	-25.392	0.032	-0.019
-691.397	122.525	0.144	0.181
-690.383	-200.000	0.040	-0.340
-689.368	800.000	0.011	0.034
-688.354	73.995	0.290	0.306
-687.339	-200.000	0.025	-0.172
-686.324	-32.272	-0.355	-0.199
-685.310	-69.781	-0.157	-0.060
-684.295	266.941	-0.209	-0.367
-683.281	-200.000	0.037	-0.325
-682.266	-38.159	-0.145	0.077
-681.251	-15.040	-0.271	0.174
-680.237	-21.555	-0.254	0.155
-679.222	1.795	-0.205	-0.148
-678.208	-12.815	-0.154	0.100
-677.193	738.182	0.180	0.484
-676.178	-56.732	-0.242	-0.107
-675.164	800.000	0.087	-0.295
-674.149	-115.006	-0.122	-0.023
-673.135	-196.445	-0.227	0.002
-672.120	337.625	-0.037	-0.071
-671.105	-200.000	0.046	0.295
-670.091	-89.736	-0.078	-0.023
-669.076	-85.303	0.201	-0.063
-668.062	177.025	0.150	-0.220
-667.047	800.000	0.022	-0.083
-666.032	-80.870	-0.141	-0.047
-665.018	206.918	0.047	-0.073
-664.003	800.000	-0.018	0.077
-662.989	205.193	0.163	-0.254
-661.974	-143.556	0.202	-0.019
-660.959	398.649	0.135	0.283
-659.945	-91.189	-0.514	-0.148
-658.930	-127.668	-0.241	-0.035
-657.916	-80.928	-0.322	-0.107
-656.901	37.608	0.232	-0.207
-655.886	-200.000	-0.002	0.163
-654.872	84.436	0.112	-0.123
-653.857	800.000	-0.080	-0.333
-652.843	1.698	0.231	-0.167
-651.828	-134.530	0.106	-0.013
-650.814	-54.804	0.202	0.091
-649.799	-200.000	0.003	-0.242
-648.784	-200.000	0.009	-0.360
-647.770	-200.000	-0.036	0.183
-646.755	800.000	-0.028	0.082
-645.741	92.977	-0.131	0.148
-644.726	-137.589	0.105	-0.012
-643.711	484.330	-0.120	-0.275
-642.697	291.878	-0.068	-0.124
-641.682	11.865	-0.125	-0.096
-640.668	-200.000	0.015	0.148
-639.653	800.000	0.069	0.277
-638.638	322.382	-0.042	-0.080
-637.624	144.790	-0.124	0.166
-636.609	-200.000	-0.014	-0.144
-635.595	-22.185	0.144	-0.087
-634.580	-12.095	0.177	0.116
-633.565	-200.000	-0.062	0.369
-632.551	-15.179	0.206	-0.132
-631.536	-85.270	-0.474	0.148
-630.522	176.738	0.102	-0.148
-629.507	-200.000	0.059	-0.345
-628.492	36.855	-0.301	0.266
-627.478	-72.404	0.112	-0.042
-626.463	174.356	0.085	-0.123
-625.449	800.000	0.076	0.211
-624.434	-179.328	0.110	0.002
-623.419	175.717	0.087	0.127
-622.405	-84.092	-0.074	-0.024
-621.390	278.021	0.023	-0.041
-620.376	-116.760	-0.270	0.050
-619.361	131.744	-0.167	-0.215
-618.346	-200.000	-0.083	-0.491
-617.332	454.193	0.050	0.110
-616.317	121.310	-0.136	0.169
-615.303	-69.779	-0.209	-0.080
-614.288	249.969	0.173	-0.295
-613.273	-200.000	0.035	-0.327
-612.259	-134.336	-0.343	-0.042
-611.244	150.326	-0.217	-0.294
-610.230	28.081	0.262	0.221
-609.215	-127.621	-0.280	0.041
-608.201	800.000	-0.043	-0.120
-607.186	800.000	-0.024	0.074
-606.171	-85.770	-0.254	0.079
-605.157	182.860	0.172	-0.254
-604.142	102.204	-0.272	-0.318
-603.128	-156.305	0.415	0.026
-602.113	3.702	-0.282	-0.206
-601.098	28.474	-0.185	0.156
-600.084	-187.035	-0.383	-0.005
-599.069	132.138	-0.263	0.339
-598.055	-38.963	0.132	-0.070
-597.040	32.218	-0.244	0.210
-596.025	-114.415	0.312	-0.060
-595.011	800.000	-0.017	-0.061
-593.996	201.868	0.107	0.164
-592.982	-4.301	-0.140	0.097
-591.967	-200.000	-0.015	0.323
-590.952	-200.000	-0.022	0.338
-589.938	-200.000	-0.039	0.316
-588.923	-192.537	-0.101	0.001
-587.909	-121.935	0.134	0.022
-586.894	-200.000	-0.027	-0.204
-585.879	-140.483	-0.152	0.016
-584.865	-7.758	0.409	0.276
-583.850	-200.000	0.063	-0.333
-582.836	-92.313	-0.386	-0.109
-581.821	172.077	-0.132	-0.189
-580.806	578.869	0.058	-0.142
-579.792	344.947	0.061	-0.120
-578.777	125.619	-0.131	0.166
-577.763	-200.000	0.006	0.157
-576.748	-200.000	-0.023	0.170
-575.733	172.913	-0.043	-0.062
-574.719	547.290	0.091	-0.217
-573.704	513.654	0.097	-0.227
-572.690	123.243	-0.127	-0.159
-571.675	79.645	-0.408	0.438
-570.661	800.000	-0.060	0.209
-569.646	-86.798	0.322	0.098
-568.631	456.358	-0.022	-0.050
-567.617	-60.786	-0.088	-0.037
-566.602	-60.405	0.217	-0.092
-565.588	-81.179	-0.205	-0.068
-564.573	-85.843	-0.349	-0.108
-563.558	-141.763	-0.208	0.021
-562.544	4.328	-0.170	-0.125
-561.529	-110.370	-0.156	-0.032
-560.515	-13.777	-0.225	-0.145
-559.500	800.000	-0.009	-0.036
-558.485	-123.338	-0.322	-0.051
-557.471	238.918	-0.070	0.116
-556.456	-95.849	0.178	-0.047
-555.442	-200.000	0.003	0.051
-554.427	-200.000	0.035	-0.208
-553.412	34.907	-0.181	-0.158
-552.398	13.489	-0.075	0.058
-551.383	800.000	0.075	-0.218
-550.369	-46.485	0.297	-0.146
-549.354	800.000	-0.072	0.232
-548.339	800.000	0.060	-0.227
-547.325	-109.162	-0.069	0.015
-546.310	-200.000	-0.050	0.269
-545.296	-200.000	0.042	-0.325
-544.281	800.000	-0.069	-0.210
-543.266	232.840	-0.054	0.088
-542.252	-13.804	0.275	0.177
-541.237	-69.454	0.199	-0.076
-540.223	112.074	0.314	-0.379
-539.208	149.742	0.047	0.064
-538.193	-200.000	-0.029	-0.227
-537.179	-111.462	0.372	0.076
-536.164	-85.874	-0.062	0.019
-535.150	-200.000	-0.013	-0.304
-534.135	-156.773	-0.176	-0.011
-533.121	800.000	0.060	0.169
-532.106	21.535	0.150	0.121
-531.091	45.037	-0.313	-0.288
-530.077	626.321	0.017	0.043
-529.062	-200.000	-0.032	-0.295
-528.048	-95.622	-0.255	0.068
-527.033	-200.000	-0.013	0.091
-526.018	357.303	-0.050	0.100
-525.004	-116.673	-0.256	0.047
-523.989	-200.000	-0.015	-0.306
-522.975	-105.052	0.222	-0.051
-521.960	-200.000	-0.006	0.323
-520.945	16.028	0.288	0.226
-519.931	34.053	-0.168	-0.146
-518.916	800.000	0.061	0.171
-517.902	-160.105	0.232	-0.013
-516.887	-61.930	-0.133	0.056
-515.872	75.931	-0.187	0.197
-514.858	-98.329	-0.311	0.080
-513.843	-200.000	-0.006	0.191
-512.829	118.312	0.237	-0.292
-511.814	426.410	-0.165	0.355
-510.799	-200.000	-0.001	0.096
-509.785	-161.286	-0.208	0.011
-508.770	800.000	-0.058	-0.183
-507.756	-56.068	0.256	-0.114
-506.741	-200.000	0.004	-0.151
-505.726	-200.000	-0.032	-0.147
-504.712	-25.107	0.079	-0.047
-503.697	-200.000	0.006	-0.180
-502.683	-63.722	0.550	-0.225
-501.668	-49.831	-0.241	-0.114
-500.653	-55.648	0.135	-0.060
-499.639	800.000	0.053	-0.199
-498.624	-200.000	-0.012	0.217
-497.610	-153.276	-0.349	0.024
-496.595	-157.501	-0.120	0.007
-495.581	-160.838	-0.312	-0.016
-494.566	800.000	-0.042	-0.142
-493.551	-41.285	-0.282	-0.145
-492.537	195.588	0.188	0.285
-491.522	-70.691	0.227	-0.085
-490.508	-35.264	-0.358	-0.194
-489.493	800.000	0.061	-0.176
-488.478	248.412	0.162	0.273
-487.464	-86.764	0.338	0.103
-486.449	-37.114	0.251	0.134
-485.435	-155.854	0.181	0.011
-484.420	-59.075	0.414	-0.178
-483.405	225.566	0.069	-0.111
-482.391	98.932	0.116	-0.133
-481.376	-10.028	-0.115	-0.076
-480.362	-200.000	-0.004	-0.292
-479.347	296.083	-0.073	0.132
-478.332	-83.204	0.117	0.037
-477.318	-108.703	-0.249	0.053
-476.303	-140.055	0.458	-0.048
-475.289	-4.017	0.162	0.112
-474.274	411.617	0.135	0.286
-473.259	50.234	0.318	-0.299
-472.245	800.000	-0.035	0.145
-471.230	79.077	0.046	0.049
-470.216	248.370	-0.069	0.116
-469.201	-200.000	-0.018	-0.391
-468.186	192.639	-0.117	-0.176
-467.172	-200.000	-0.006	-0.346
-466.157	-30.673	0.206	-0.116
-465.143	209.568	-0.131	0.205
-464.128	-7.534	-0.131	0.088
-463.113	-105.428	0.297	-0.067
-462.099	-181.944	0.138	-0.003
-461.084	-166.202	0.158	-0.007
-460.070	-3.003	-0.100	0.070
-459.055	-150.619	-0.166	-0.013
-458.040	-158.250	-0.272	0.016
-457.026	-200.000	-0.002	-0.028
-456.011	145.959	0.140	-0.187
-454.997	6.848	0.117	-0.087
-453.982	457.786	-0.073	-0.162
-452.968	353.203	0.144	0.285
-451.953	136.548	0.181	0.235
-450.938	-144.309	0.304	0.028
-449.924	-104.608	-0.317	0.073
-448.909	-81.729	0.363	0.118
-447.895	182.798	-0.040	0.058
-446.880	-72.997	-0.099	0.036
-445.865	408.039	-0.091	-0.191
-444.851	800.000	0.028	-0.081
-443.836	199.342	0.129	-0.197
-442.822	-200.000	0.009	0.252
-441.807	-96.089	0.115	0.030
-440.792	-200.000	0.010	-0.225
-439.778	-200.000	-0.005	0.090
-438.763	233.076	-0.062	-0.101
-437.749	-108.718	-0.180	0.038
-436.734	-75.393	-0.206	0.073
-435.719	20.481	-0.220	-0.177
-434.705	-45.153	0.533	-0.264
-433.690	-56.459	-0.266	0.117
-432.676	-69.197	0.226	-0.086
-431.661	-200.000	0.043	-0.369
-430.646	-200.000	-0.028	-0.307
-429.632	-16.665	-0.101	0.063
-428.617	-200.000	-0.035	0.156
-427.603	-12.239	0.161	0.105
-426.588	32.694	-0.135	-0.116
-425.573	577.938	-0.045	-0.110
-424.559	-64.504	-0.254	0.102
-423.544	800.000	0.039	0.125
-422.530	-152.907	-0.116	-0.008
-421.515	-80.228	0.104	-0.035
-420.500	189.735	0.042	0.063
-419.486	-158.595	-0.461	-0.026
-418.471	39.765	0.339	-0.302
-417.457	364.540	0.083	0.166
-416.442	102.588	-0.108	0.126
-415.428	-99.098	-0.205	-0.052
-414.413	201.767	-0.113	-0.173
-413.398	-200.000	-0.007	-0.067
-412.384	-82.561	0.441	0.142
-411.369	-2.896	0.326	0.226
-410.355	-156.996	0.444	0.027
-409.340	333.042	0.137	0.264
-408.325	-165.375	-0.105	-0.005
-407.311	-200.000	-0.009	-0.241
-406.296	279.608	0.071	0.126
-405.282	800.000	0.041	0.165
-404.267	267.173	-0.085	0.148
-403.252	62.718	0.081	-0.081
-402.238	99.454	0.189	-0.217
-401.223	55.678	0.298	0.286
-400.209	800.000	0.103	-0.296
-399.194	-30.793	0.129	-0.072
-398.179	-16.770	0.112	-0.070
-397.165	-25.104	0.236	0.139
-396.150	-126.127	-0.387	0.058
-395.136	-145.280	-0.237	0.021
-394.121	-200.000	-0.001	-0.355
-393.106	-33.229	0.256	0.141
-392.092	-200.000	0.003	-0.018
-391.077	-186.167	-0.322	0.005
-390.063	800.000	0.084	0.268
-389.048	-200.000	-0.002	0.137
-388.033	-53.267	-0.110	-0.050
-387.019	0.904	0.286	-0.203
-386.004	-113.910	0.271	0.052
-384.990	-200.000	-0.016	0.179
-383.975	800.000	0.037	0.114
-382.960	-200.000	-0.016	0.216
-381.946	-200.000	0.018	0.141
-380.931	-200.000	-0.001	-0.480
-379.917	-200.000	0.013	0.147
-378.902	104.903	-0.212	0.248
-377.888	159.645	-0.135	0.187
-376.873	297.751	-0.153	0.279
-375.858	-106.804	0.386	0.085
-374.844	-116.258	-0.172	0.032
-373.829	800.000	-0.094	0.383
-372.815	-79.664	-0.231	-0.077
-371.800	-200.000	0.065	-0.475
-370.785	577.836	-0.078	-0.189
-369.771	-67.531	-0.193	-0.075
-368.756	-25.479	0.062	-0.036
-367.742	-70.241	0.231	0.087
-366.727	-77.225	-0.395	0.136
-365.712	-150.852	0.063	-0.005
-364.698	-59.281	0.128	0.054
-363.683	110.513	0.101	-0.121
-362.669	-92.738	-0.071	0.020
-361.654	-45.761	0.193	0.095
-360.639	-159.118	-0.253	0.014
-359.625	471.245	-0.178	-0.397
-358.610	800.000	-0.143	-0.425
-357.596	4.140	0.396	0.287
-356.581	-200.000	-0.113	0.509
-355.566	-48.604	-0.291	-0.139
-354.552	144.533	0.145	-0.191
-353.537	96.453	0.091	0.104
-352.523	-200.000	-0.002	-0.130
-351.508	-13.694	-0.143	0.091
-350.493	-200.000	-0.067	0.624
-349.479	-12.142	0.194	-0.126
-348.464	10.229	-0.158	0.119
-347.450	-71.635	0.171	-0.063
-346.435	538.895	0.030	-0.072
-345.420	430.288	-0.036	0.077
-344.406	33.533	0.091	0.078
-343.391	21.097	-0.100	-0.080
-342.377	-200.000	0.006	0.093
-341.362	-90.744	0.158	0.045
-340.348	92.330	0.223	0.249
-339.333	-139.137	0.128	0.014
-338.318	-4.335	-0.200	0.137
-337.304	-200.000	-0.014	0.132
-336.289	800.000	-0.102	0.343
-335.275	800.000	0.086	0.240
-334.260	-173.453	0.107	-0.003
-333.245	-102.778	0.244	0.058
-332.231	-200.000	0.000	-0.028
-331.216	14.719	-0.160	-0.124
-330.202	-117.320	0.401	-0.072
-329.187	205.237	0.040	-0.062
-328.172	-41.248	0.315	-0.161
-327.158	-200.000	-0.006	-0.194
-326.143	-200.000	-0.034	-0.349
-325.129	800.000	-0.133	-0.403
-324.114	566.712	0.032	0.077
-323.099	-200.000	-0.045	0.681
-322.085	-94.904	-0.286	0.077
-321.070	-67.636	-0.163	0.063
-320.056	200.439	-0.067	0.101
-319.041	-125.264	0.124	0.019
-318.026	27.475	0.136	-0.113
-317.012	-200.000	0.015	0.170
-315.997	115.697	0.220	-0.266
-314.983	-137.124	-0.412	0.047
-313.968	-80.966	-0.027	-0.009
-312.953	800.000	-0.012	0.040
-311.939	-200.000	0.005	0.229
-310.924	186.112	0.119	0.175
-309.910	345.747	-0.018	0.036
-308.895	298.758	-0.121	0.221
-307.880	722.819	0.080	0.210
-306.866	-185.062	0.319	0.005
-305.851	38.666	0.108	0.095
-304.837	-69.694	-0.235	-0.089
-303.822	-131.795	0.045	0.006
-302.807	35.415	-0.100	-0.087
-301.793	-200.000	-0.022	-0.130
-300.778	-26.218	0.169	-0.098
-299.764	-30.735	-0.220	0.123
-298.749	-38.431	-0.176	-0.092
-297.735	800.000	-0.053	-0.148
-296.720	603.846	0.100	0.246
-295.705	10.070	0.190	-0.143
-294.691	-200.000	0.044	-0.208
-293.676	45.009	0.243	0.221
-292.662	-50.481	-0.339	0.158
-291.647	-116.483	-0.277	-0.051
-290.632	-127.078	-0.143	-0.021
-289.618	312.424	-0.116	-0.214
-288.603	-200.000	-0.013	-0.141
-287.589	-200.000	-0.036	-0.161
-286.574	-61.721	0.434	0.180
-285.559	-200.000	-0.044	-0.363
-284.545	-200.000	0.045	-0.338
-283.530	-200.000	0.021	-0.115
-282.516	363.431	-0.129	-0.257
-281.501	-45.129	0.272	0.134
-280.486	433.803	0.062	0.133
-279.472	-21.213	0.049	-0.030
-278.457	-130.696	-0.127	0.017
-277.443	381.387	0.056	-0.114
-276.428	-200.000	-0.015	-0.213
-275.413	72.904	-0.263	0.272
-274.399	97.715	0.129	0.146
-273.384	-128.173	-0.166	0.023
-272.370	208.445	-0.105	0.163
-271.355	-109.182	0.136	-0.029
-270.340	-61.784	-0.053	-0.022
-269.326	18.125	-0.281	0.221
-268.311	193.305	-0.092	-0.138
-267.297	62.423	-0.102	0.100
-266.282	798.216	0.123	-0.336
-265.267	45.952	0.169	-0.154
-264.253	-7.783	-0.185	-0.123
-263.238	266.203	-0.098	-0.169
-262.224	85.988	0.124	0.135
-261.209	-36.465	0.170	0.090
-260.195	-47.592	-0.108	-0.052
-259.180	-200.000	-0.029	0.151
-258.165	74.829	-0.152	-0.158
-257.151	-1.922	-0.099	-0.069
-256.136	471.553	0.038	0.085
-255.122	-200.000	-0.000	0.253
-254.107	173.382	-0.213	-0.304
-253.092	-200.000	-0.057	0.307
-252.078	267.718	0.204	0.352
-251.063	800.000	0.107	0.330
-250.049	-134.261	0.346	-0.042
-249.034	81.574	-0.111	0.119
-248.019	19.947	-0.168	0.134
-247.005	-135.150	-0.270	-0.032
-245.990	220.836	-0.227	0.359
-244.976	-200.000	0.012	0.170
-243.961	91.295	0.032	0.036
-242.946	-85.109	0.253	-0.078
-241.932	358.467	-0.051	-0.101
-240.917	800.000	-0.041	-0.114
-239.903	-200.000	0.030	-0.153
-238.888	648.268	-0.080	-0.202
-237.873	25.403	0.200	-0.164
-236.859	197.372	0.048	0.072
-235.844	-200.000	0.013	0.167
-234.830	396.757	-0.110	-0.228
-233.815	-93.776	0.433	0.118
-232.800	146.880	0.114	0.152
-231.786	361.875	-0.076	-0.150
-230.771	-200.000	-0.032	0.161
-229.757	191.464	-0.058	0.085
-228.742	64.153	-0.081	-0.080
-227.727	19.565	0.309	-0.245
-226.713	225.566	0.153	0.244
-225.698	800.000	0.069	0.208
-224.684	-38.526	0.232	0.121
-223.669	14.685	-0.144	0.111
-222.655	-200.000	-0.028	-0.123
-221.640	259.604	-0.177	0.302
-220.625	-200.000	-0.030	-0.190
-219.611	-200.000	-0.039	-0.205
-218.596	-128.653	-0.390	0.054
-217.582	-100.603	-0.297	0.072
-216.567	-26.207	0.359	-0.208
-215.552	-22.822	-0.146	0.087
-214.538	265.147	0.381	0.655
-213.523	488.834	-0.006	0.014
-212.509	192.357	-0.128	-0.191
-211.494	44.977	-0.181	-0.165
-210.479	-115.749	0.195	0.036
-209.465	-114.116	-0.428	0.082
-208.450	-200.000	-0.012	-0.072
-207.436	75.496	0.153	0.160
-206.421	-200.000	-0.022	0.113
-205.406	537.949	0.170	0.398
-204.392	-152.676	-0.234	0.016
-203.377	501.074	0.173	-0.393
-202.363	292.434	0.048	-0.086
-201.348	-171.597	0.108	-0.004
-200.333	-38.348	0.033	0.017
-199.319	-57.200	0.201	-0.087
-198.304	-82.941	-0.083	-0.026
-197.290	422.346	-0.230	0.486
-196.275	-200.000	-0.007	-0.046
-195.260	-25.279	-0.251	-0.146
-194.246	53.188	-0.137	-0.129
-193.231	266.337	0.135	-0.232
-192.217	384.440	0.178	-0.361
-191.202	54.960	0.250	0.238
-190.187	-44.956	0.150	-0.073
-189.173	-200.000	-0.043	-0.239
-188.158	99.976	-0.110	0.126
-187.144	-42.063	0.126	-0.064
-186.129	-200.000	0.036	0.158
-185.114	-90.945	0.480	0.136
-184.100	-200.000	0.274	0.000
-183.085	-7.053	-0.127	0.085
-182.071	800.000	-0.052	-0.208
-181.056	177.634	0.150	0.215
-180.042	800.000	-0.063	-0.229
-179.027	-22.617	-0.052	-0.031
-178.012	83.963	0.223	0.239
-176.998	-28.313	0.240	0.137
-175.983	239.569	0.121	-0.199
-174.969	505.046	-0.085	-0.193
-173.954	236.238	-0.100	0.162
-172.939	766.152	0.038	0.102
-171.925	-45.449	-0.295	-0.144
-170.910	-200.000	0.028	0.263
-169.896	123.610	0.128	-0.158
-168.881	-200.000	0.065	0.344
-167.866	-200.000	0.032	0.140
-166.852	74.854	-0.215	0.223
-165.837	599.043	-0.104	0.254
-164.823	151.340	0.210	-0.281
-163.808	-200.000	0.023	0.211
-162.793	-200.000	-0.008	0.260
-161.779	-82.336	0.317	-0.102
-160.764	96.864	-0.208	0.234
-159.750	-16.932	-0.113	0.070
-158.735	-87.037	-0.140	0.042
-157.720	222.454	0.094	-0.148
-156.706	71.704	-0.027	0.027
-155.691	120.019	-0.087	-0.106
-154.677	-67.898	-0.099	0.038
-153.662	-107.807	0.082	-0.018
-152.647	128.480	-0.179	-0.224
-151.633	-200.000	0.007	-0.080
-150.618	-97.971	-0.284	-0.072
-149.604	-180.344	-0.083	0.002
-148.589	-53.845	0.030	0.014
-147.574	166.805	-0.129	-0.180
-146.560	-115.318	-0.051	0.010
-145.545	-200.000	0.022	-0.185
-144.531	53.451	-0.139	-0.131
-143.516	116.524	-0.153	0.185
-142.502	800.000	-0.011	-0.032
-141.487	800.000	0.132	-0.425
-140.472	-118.805	0.427	0.074
-139.458	-200.000	-0.016	0.320
-138.443	-200.000	-0.077	0.392
-137.429	800.000	-0.135	-0.402
-136.414	-200.000	-0.023	-0.153
-135.399	-200.000	-0.005	0.218
-134.385	-200.000	0.010	0.136
-133.370	-115.256	0.247	-0.046
-132.356	-66.872	-0.203	-0.079
-131.341	-200.000	0.030	0.241
-130.326	-112.386	-0.059	-0.012
-129.312	800.000	0.028	0.112
-128.297	194.031	0.105	-0.156
-127.283	38.579	0.168	0.147
-126.268	3.963	-0.094	-0.067
-125.253	-178.365	-0.237	-0.005
-124.239	-9.376	-0.349	-0.229
