DTS Sentinel unit serial number:	SN413079Multiplexer serial number:	ORYXHardware model number:	OX4-SRSoftware version number:	ORYX F/W v4.00 Oryx Data Collector v3.7.2.0data status	okinstallation	princeton_trtdifferential loss correction	single-endedforward channel	channel 1reverse channel	N/Adate	2019/09/14time	19:34:35forward acquisition time	60.00reverse acquisition time	0.00gamma	496.2192k internal	0.2313k external	0.2313temperature offset calibration	1.0027default loss term (dB/km)	0.3790temperature slope calibration	1.0000multiplexer offset coefficient	1.0000multiplexer slope coefficient	1.0000fibre end	0.00T internal ref (°C)	34.67T ext. ref 1 (°C)	4.85T ext. ref 2 (°C)	28.87length (m)	temperature (°C)	Stokes	anti-Stokes-747.200	753.618	0.101	0.277
-746.185	-74.616	-0.236	0.086
-745.171	-88.239	-0.132	-0.040
-744.156	-29.200	-0.077	0.045
-743.142	-62.276	-0.126	0.053
-742.127	61.533	-0.098	-0.099
-741.112	17.530	0.053	0.043
-740.098	-167.129	0.194	0.008
-739.083	-140.778	-0.618	-0.065
-738.069	800.000	0.078	0.233
-737.054	-23.839	-0.214	0.130
-736.039	-14.643	-0.283	-0.184
-735.025	135.930	0.277	0.366
-734.010	-175.406	-0.494	-0.014
-732.996	207.833	0.031	-0.049
-731.981	-200.000	-0.034	-0.341
-730.966	-67.187	-0.162	-0.065
-729.952	-26.312	-0.133	0.079
-728.937	800.000	-0.086	0.303
-727.923	-92.745	-0.383	0.109
-726.908	-90.643	-0.110	-0.032
-725.894	-200.000	-0.044	0.274
-724.879	-22.258	-0.093	-0.057
-723.864	800.000	0.032	0.104
-722.850	258.275	-0.084	0.146
-721.835	800.000	-0.063	-0.275
-720.821	-95.249	-0.190	-0.052
-719.806	-65.517	-0.094	0.038
-718.791	-200.000	0.017	-0.216
-717.777	131.818	-0.100	-0.130
-716.762	234.390	0.047	-0.078
-715.748	-142.752	0.158	-0.016
-714.733	64.292	-0.189	-0.193
-713.718	102.541	0.148	-0.176
-712.704	308.401	-0.133	0.251
-711.689	-17.010	-0.095	0.061
-710.675	-163.935	-0.238	0.011
-709.660	61.676	0.390	-0.393
-708.645	-16.961	0.219	0.140
-707.631	800.000	-0.079	0.261
-706.616	-32.725	-0.113	-0.064
-705.602	-94.296	-0.178	-0.049
-704.587	800.000	-0.080	-0.289
-703.572	29.747	0.101	0.087
-702.558	-14.652	0.162	0.105
-701.543	-100.560	-0.191	-0.048
-700.529	800.000	-0.076	-0.304
-699.514	33.939	-0.085	-0.075
-698.499	-200.000	0.007	-0.252
-697.485	-79.536	0.172	-0.059
-696.470	291.694	0.130	0.240
-695.456	93.306	0.250	0.286
-694.441	800.000	-0.086	0.330
-693.426	279.788	-0.114	-0.206
-692.412	-200.000	-0.015	0.116
-691.397	163.813	-0.111	-0.158
-690.383	-73.919	-0.177	-0.065
-689.368	28.943	-0.055	0.047
-688.354	1.939	-0.249	-0.182
-687.339	57.716	-0.178	0.176
-686.324	-200.000	-0.013	-0.424
-685.310	-55.931	0.374	-0.169
-684.295	800.000	0.053	0.161
-683.281	-181.477	-0.074	0.001
-682.266	3.054	0.078	0.057
-681.251	-111.647	0.077	0.016
-680.237	-200.000	-0.009	0.112
-679.222	578.592	0.053	0.132
-678.208	-200.000	-0.031	-0.246
-677.193	-68.420	0.158	0.062
-676.178	-200.000	-0.015	-0.071
-675.164	-35.951	0.072	-0.039
-674.149	2.111	0.170	0.124
-673.135	-153.717	0.277	0.019
-672.120	800.000	0.137	0.415
-671.105	-8.415	-0.119	0.081
-670.091	-100.228	0.238	-0.060
-669.076	800.000	0.049	-0.162
-668.062	-120.224	0.389	0.067
-667.047	-9.668	-0.083	0.056
-666.032	328.049	0.079	-0.153
-665.018	114.071	0.218	0.268
-664.003	82.930	-0.097	0.107
-662.989	-200.000	-0.028	0.186
-661.974	-125.314	0.098	0.015
-660.959	-6.881	-0.352	-0.242
-659.945	-112.900	-0.445	-0.089
-658.930	4.564	-0.184	-0.136
-657.916	-200.000	-0.002	0.127
-656.901	110.802	-0.070	0.086
-655.886	-150.704	0.122	-0.009
-654.872	68.677	-0.264	-0.274
-653.857	4.597	0.155	-0.115
-652.843	71.246	0.026	-0.027
-651.828	-200.000	0.036	0.268
-650.814	32.957	-0.166	0.145
-649.799	-122.146	0.206	-0.034
-648.784	1.900	-0.146	0.107
-647.770	373.746	0.126	0.258
-646.755	800.000	0.040	-0.157
-645.741	59.203	-0.207	-0.205
-644.726	-37.476	-0.128	0.069
-643.711	199.124	0.145	-0.224
-642.697	-200.000	0.007	0.054
-641.682	-33.457	-0.038	-0.021
-640.668	800.000	0.106	-0.356
-639.653	-143.679	0.410	0.039
-638.638	230.363	0.159	0.263
-637.624	-85.591	0.220	-0.069
-636.609	69.237	0.282	-0.293
-635.595	169.606	-0.045	0.064
-634.580	121.100	-0.114	-0.144
-633.565	-7.138	-0.038	0.026
-632.551	-134.739	-0.352	0.043
-631.536	800.000	-0.132	0.403
-630.522	800.000	0.024	0.105
-629.507	-38.611	0.128	0.068
-628.492	-103.722	0.136	0.032
-627.478	362.168	0.235	-0.476
-626.463	-200.000	-0.029	-0.249
-625.449	212.502	-0.131	-0.208
-624.434	800.000	-0.021	-0.068
-623.419	-200.000	0.020	-0.208
-622.405	-200.000	-0.009	0.116
-621.390	145.308	-0.019	-0.026
-620.376	372.435	-0.130	0.267
-619.361	211.351	-0.087	-0.139
-618.346	-200.000	-0.039	-0.324
-617.332	149.570	-0.173	-0.236
-616.317	794.490	-0.131	0.364
-615.303	-50.531	-0.151	0.072
-614.288	-66.956	0.166	-0.066
-613.273	-65.656	0.246	0.100
-612.259	-9.149	-0.065	-0.044
-611.244	-60.971	0.191	-0.081
-610.230	-200.000	-0.010	0.049
-609.215	-127.030	0.154	0.023
-608.201	89.088	-0.238	0.267
-607.186	49.342	0.148	-0.141
-606.171	24.812	-0.112	0.093
-605.157	-72.368	-0.376	-0.141
-604.142	-10.906	0.199	-0.133
-603.128	-200.000	-0.064	-0.382
-602.113	800.000	0.051	0.192
-601.098	-75.818	0.111	-0.040
-600.084	-82.887	-0.349	0.114
-599.069	-200.000	-0.017	-0.191
-598.055	74.324	-0.190	-0.201
-597.040	-98.386	-0.141	0.036
-596.025	-24.384	0.060	0.036
-595.011	-200.000	-0.203	-0.000
-593.996	-140.183	0.528	0.056
-592.982	204.750	0.057	-0.090
-591.967	-200.000	0.005	-0.179
-590.952	-12.656	-0.181	-0.119
-589.938	45.759	-0.162	-0.151
-588.923	-4.615	-0.257	-0.179
-587.909	-200.000	0.075	0.366
-586.894	-82.071	-0.185	-0.061
-585.879	425.951	0.098	-0.214
-584.865	-200.000	-0.027	-0.184
-583.850	-126.536	0.091	-0.014
-582.836	131.689	0.084	0.109
-581.821	-200.000	-0.028	-0.475
-580.806	800.000	-0.072	-0.202
-579.792	-200.000	0.016	0.121
-578.777	176.095	-0.045	-0.066
-577.763	-174.081	-0.338	-0.010
-576.748	800.000	0.043	-0.155
-575.733	9.700	-0.144	0.110
-574.719	185.267	0.055	0.082
-573.704	66.902	-0.152	0.156
-572.690	-31.392	-0.193	0.110
-571.675	800.000	-0.032	-0.107
-570.661	-17.680	0.365	0.231
-569.646	33.757	-0.117	0.102
-568.631	49.698	0.264	0.250
-567.617	800.000	-0.045	-0.139
-566.602	-122.548	-0.112	0.018
-565.588	657.285	-0.052	-0.134
-564.573	-200.000	0.005	-0.204
-563.558	161.895	-0.214	-0.302
-562.544	-95.926	0.232	-0.062
-561.529	132.753	-0.217	-0.282
-560.515	800.000	-0.072	0.226
-559.500	800.000	-0.068	-0.266
-558.485	-28.381	-0.311	0.181
-557.471	-200.000	-0.009	0.188
-556.456	-79.998	0.388	0.131
-555.442	-200.000	0.045	0.275
-554.427	-61.313	0.110	-0.047
-553.412	460.175	-0.183	-0.409
-552.398	-65.009	0.097	0.039
-551.383	-97.500	-0.071	0.019
-550.369	-116.502	0.069	-0.013
-549.354	-118.967	0.172	0.030
-548.339	-65.476	0.334	-0.135
-547.325	487.066	0.074	-0.170
-546.310	-200.000	-0.018	-0.297
-545.296	66.328	-0.179	-0.183
-544.281	-37.360	0.246	-0.132
-543.266	-200.000	-0.031	0.221
-542.252	74.731	0.145	0.154
-541.237	800.000	-0.024	-0.073
-540.223	800.000	-0.088	0.309
-539.208	-106.835	-0.219	-0.049
-538.193	-149.019	0.293	0.024
-537.179	-38.277	0.232	0.124
-536.164	-200.000	-0.015	-0.246
-535.150	-5.789	-0.231	-0.159
-534.135	603.197	-0.156	-0.390
-533.121	-122.841	-0.128	-0.021
-532.106	-118.921	0.327	0.058
-531.091	106.577	-0.076	-0.091
-530.077	-50.734	-0.243	-0.115
-529.062	250.974	0.038	0.065
-528.048	641.055	-0.059	-0.150
-527.033	-50.929	0.358	-0.169
-526.018	-167.005	-0.082	0.003
-525.004	110.900	0.151	0.182
-523.989	33.291	-0.164	-0.143
-522.975	202.728	0.036	0.056
-521.960	-98.708	0.237	-0.061
-520.945	27.078	-0.075	-0.063
-519.931	-36.866	0.132	-0.071
-518.916	-55.595	0.425	-0.191
-517.902	-200.000	-0.248	-0.000
-516.887	-77.098	0.158	-0.055
-515.872	189.052	0.049	-0.073
-514.858	67.276	-0.015	0.015
-513.843	-92.900	-0.169	0.047
-512.829	-200.000	0.019	-0.127
-511.814	-3.245	0.096	0.068
-510.799	-74.769	-0.196	-0.071
-509.785	205.588	-0.163	-0.254
-508.770	-107.887	-0.195	-0.043
-507.756	467.918	0.086	-0.193
-506.741	-96.748	-0.229	0.061
-505.726	-67.455	-0.034	-0.013
-504.712	-15.188	-0.046	0.030
-503.697	-98.568	-0.243	-0.062
-502.683	800.000	-0.029	-0.123
-501.668	324.090	-0.043	0.082
-500.653	181.745	0.103	-0.153
-499.639	-97.592	0.048	0.013
-498.624	151.041	-0.152	-0.208
-497.610	180.482	0.204	0.300
-496.595	-109.616	0.317	-0.067
-495.581	800.000	0.009	-0.026
-494.566	-69.524	0.227	-0.087
-493.551	-133.829	0.264	0.033
-492.537	557.270	0.106	0.256
-491.522	304.624	-0.051	0.095
-490.508	173.110	0.071	0.102
-489.493	-200.000	0.041	0.331
-488.478	56.112	0.115	-0.112
-487.464	174.789	-0.098	-0.142
-486.449	-160.949	0.099	-0.005
-485.435	191.241	-0.216	-0.327
-484.420	-99.226	-0.185	-0.047
-483.405	96.162	-0.358	0.411
-482.391	-200.000	0.046	0.204
-481.376	-117.305	-0.383	-0.070
-480.362	-200.000	0.000	-0.421
-479.347	800.000	-0.037	0.116
-478.332	269.915	-0.186	0.328
-477.318	-102.742	-0.192	0.046
-476.303	581.414	-0.099	0.245
-475.289	7.258	-0.301	0.225
-474.274	-114.729	-0.217	0.042
-473.259	-200.000	-0.014	0.251
-472.245	-47.346	0.287	0.140
-471.230	-200.000	-0.035	-0.187
-470.216	-200.000	-0.045	0.281
-469.201	-132.357	0.114	0.015
-468.186	284.009	-0.150	-0.270
-467.172	325.770	0.154	-0.296
-466.157	-200.000	0.009	0.088
-465.143	119.299	-0.045	-0.056
-464.128	587.969	0.069	0.170
-463.113	800.000	-0.103	-0.292
-462.099	-200.000	-0.012	0.278
-461.084	474.387	-0.133	0.301
-460.070	-149.113	0.072	-0.006
-459.055	622.648	-0.094	0.237
-458.040	-7.199	0.163	0.111
-457.026	-144.904	-0.217	0.020
-456.011	-200.000	0.018	-0.273
-454.997	-200.000	0.014	0.131
-453.982	368.162	-0.209	-0.423
-452.968	-27.758	-0.100	-0.058
-451.953	-110.999	0.100	-0.021
-450.938	800.000	0.159	0.450
-449.924	1.818	0.117	-0.084
-448.909	770.345	-0.039	-0.107
-447.895	232.288	0.136	0.225
-446.880	-69.545	0.205	0.079
-445.865	-116.976	0.358	0.066
-444.851	-32.471	0.265	-0.148
-443.836	-32.260	0.226	-0.126
-442.822	427.371	-0.060	-0.130
-441.807	-200.000	-0.014	-0.192
-440.792	108.577	0.179	0.214
-439.778	-115.294	-0.198	-0.037
-438.763	406.201	-0.095	0.200
-437.749	-99.752	0.215	-0.054
-436.734	736.664	0.112	-0.302
-435.719	-32.798	-0.064	-0.036
-434.705	800.000	-0.082	0.270
-433.690	-31.916	-0.096	0.054
-432.676	-168.390	-0.155	-0.006
-431.661	-80.120	0.182	0.061
-430.646	-200.000	-0.021	0.237
-429.632	-172.526	0.027	0.001
-428.617	-200.000	-0.040	-0.293
-427.603	215.791	0.086	-0.137
-426.588	-73.340	0.284	0.104
-425.573	-138.688	-0.084	-0.009
-424.559	800.000	0.088	-0.277
-423.544	800.000	-0.049	-0.206
-422.530	-85.221	-0.208	0.065
-421.515	800.000	-0.078	0.327
-420.500	14.907	-0.090	-0.071
-419.486	48.098	-0.129	0.121
-418.471	50.224	0.156	-0.148
-417.457	151.564	-0.233	-0.318
-416.442	-91.676	0.182	-0.052
-415.428	164.586	0.129	0.183
-414.413	56.145	0.197	-0.192
-413.398	-90.948	-0.219	0.063
-412.384	328.845	-0.109	-0.210
-411.369	734.891	0.059	0.158
-410.355	800.000	-0.108	-0.325
-409.340	71.678	0.137	0.143
-408.325	800.000	-0.043	-0.162
-407.311	-162.102	0.222	-0.011
-406.296	201.353	-0.154	-0.238
-405.282	-200.000	-0.034	0.287
-404.267	11.383	-0.181	0.139
-403.252	-135.234	-0.087	-0.010
-402.238	-40.013	-0.118	-0.062
-401.223	-86.883	0.387	0.118
-400.209	-76.819	0.048	-0.017
-399.194	-200.000	0.011	0.254
-398.179	-93.185	0.162	0.045
-397.165	182.133	-0.344	0.507
-396.150	31.435	0.298	0.256
-395.136	137.203	0.169	0.221
-394.121	27.855	-0.192	0.162
-393.106	32.616	0.160	0.139
-392.092	-200.000	0.026	-0.404
-391.077	-138.464	-0.207	-0.023
-390.063	-3.161	0.119	-0.083
-389.048	800.000	-0.067	-0.224
-388.033	-25.612	-0.210	0.124
-387.019	55.905	-0.077	0.074
-386.004	-200.000	0.006	-0.127
-384.990	-200.000	-0.024	0.115
-383.975	389.862	0.060	-0.125
-382.960	800.000	0.020	-0.085
-381.946	529.320	0.037	-0.087
-380.931	667.251	0.051	-0.131
-379.917	-80.208	-0.219	-0.073
-378.902	120.546	0.066	0.082
-377.888	800.000	-0.087	-0.286
-376.873	109.292	-0.062	0.074
-375.858	-44.924	0.102	0.051
-374.844	-74.656	-0.247	-0.089
-373.829	-200.000	0.026	0.228
-372.815	-16.742	-0.221	-0.140
-371.800	-97.608	-0.205	-0.053
-370.785	127.828	-0.100	-0.127
-369.771	358.675	0.064	-0.127
-368.756	-200.000	-0.010	0.063
-367.742	53.916	0.167	0.160
-366.727	784.613	0.021	0.056
-365.712	-154.850	-0.225	0.015
-364.698	45.252	0.288	-0.266
-363.683	-200.000	0.016	-0.226
-362.669	-83.175	0.152	0.049
-361.654	-143.079	0.297	0.029
-360.639	-33.301	0.063	0.035
-359.625	-62.254	-0.268	0.112
-358.610	43.724	-0.094	-0.086
-357.596	-200.000	0.003	-0.028
-356.581	-48.535	-0.227	0.109
-355.566	-59.746	-0.048	-0.020
-354.552	-69.171	0.172	0.066
-353.537	-86.869	-0.198	0.060
-352.523	54.867	0.163	-0.157
-351.508	-108.824	-0.208	-0.044
-350.493	361.830	0.125	0.250
-349.479	-200.000	-0.012	0.169
-348.464	800.000	0.057	-0.203
-347.450	-129.112	0.135	-0.019
-346.435	-200.000	-0.033	-0.318
-345.420	125.960	0.167	-0.210
-344.406	50.963	0.256	-0.242
-343.391	108.055	-0.115	-0.137
-342.377	-29.491	0.186	-0.106
-341.362	-61.387	-0.164	0.069
-340.348	-168.563	0.219	-0.008
-339.333	-200.000	-0.039	-0.288
-338.318	6.778	-0.120	0.089
-337.304	800.000	-0.054	0.166
-336.289	13.241	0.170	-0.131
-335.275	18.953	0.064	-0.051
-334.260	-200.000	0.016	0.264
-333.245	800.000	-0.091	-0.380
-332.231	-159.519	-0.078	-0.004
-331.216	-48.869	0.317	0.151
-330.202	-29.500	0.147	-0.084
-329.187	96.477	-0.196	0.223
-328.172	12.327	0.161	0.124
-327.158	-129.051	0.219	0.031
-326.143	-121.578	-0.264	0.044
-325.129	-123.422	0.261	-0.041
-324.114	-13.846	-0.082	-0.053
-323.099	-200.000	-0.009	0.188
-322.085	77.902	-0.146	0.156
-321.070	-88.578	-0.136	0.040
-320.056	593.416	0.085	0.209
-319.041	346.091	-0.063	0.124
-318.026	136.557	0.119	-0.155
-317.012	94.536	-0.204	0.231
-315.997	87.418	-0.318	0.351
-314.983	-105.406	0.223	0.051
-313.968	115.386	0.108	-0.131
-312.953	-57.550	0.151	-0.066
-311.939	-200.000	0.009	-0.172
-310.924	92.333	0.062	0.069
-309.910	215.153	0.223	-0.352
-308.895	-200.000	-0.063	-0.321
-307.880	500.507	-0.106	0.244
-306.866	-152.104	-0.215	0.016
-305.851	682.565	-0.059	0.154
-304.837	-162.613	-0.148	0.007
-303.822	-71.893	0.271	0.101
-302.807	-43.242	0.331	0.167
-301.793	-200.000	0.178	0.000
-300.778	-79.153	-0.264	0.089
-299.764	-50.671	-0.449	-0.211
-298.749	-175.337	0.200	0.005
-297.735	69.740	-0.221	0.227
-296.720	-121.558	-0.116	0.019
-295.705	-200.000	-0.053	0.363
-294.691	79.651	-0.194	0.208
-293.676	64.397	-0.294	0.295
-292.662	107.596	0.180	-0.213
-291.647	196.803	-0.104	-0.158
-290.632	172.463	-0.281	0.403
-289.618	-161.131	-0.109	-0.006
-288.603	-200.000	-0.003	-0.112
-287.589	-83.633	-0.197	-0.063
-286.574	-40.279	0.208	-0.108
-285.559	-94.043	-0.185	-0.051
-284.545	209.083	0.049	-0.077
-283.530	76.708	-0.172	-0.182
-282.516	-200.000	-0.004	-0.155
-281.501	-200.000	0.009	0.385
-280.486	-163.766	0.247	0.012
-279.472	-106.560	-0.132	-0.029
-278.457	-48.829	-0.393	0.188
-277.443	-71.680	0.157	0.058
-276.428	-200.000	0.016	-0.244
-275.413	142.208	0.163	0.215
-274.399	-17.384	-0.052	-0.033
-273.384	-161.471	-0.147	0.008
-272.370	519.339	-0.060	-0.141
-271.355	-10.033	0.248	0.164
-270.340	136.809	0.049	0.064
-269.326	-200.000	0.013	-0.321
-268.311	-200.000	0.002	0.074
-267.297	-200.000	-0.106	0.508
-266.282	28.354	0.232	0.195
-265.267	511.109	-0.043	-0.101
-264.253	-96.837	-0.251	-0.066
-263.238	-44.223	-0.137	0.068
-262.224	-50.642	-0.156	-0.073
-261.209	197.263	0.073	-0.111
-260.195	-157.026	-0.021	0.001
-259.180	800.000	-0.021	0.069
-258.165	-200.000	0.005	0.344
-257.151	-145.928	-0.189	-0.017
-256.136	212.797	0.152	-0.238
-255.122	-173.151	-0.038	0.001
-254.107	800.000	-0.038	0.121
-253.092	-183.180	0.221	-0.004
-252.078	-53.860	-0.149	0.068
-251.063	35.277	0.201	-0.175
-250.049	-118.544	0.185	0.032
-249.034	346.665	-0.161	-0.316
-248.019	-10.826	0.278	0.183
-247.005	335.096	0.144	0.278
-245.990	-54.507	0.123	-0.055
-244.976	12.793	-0.045	0.035
-243.961	-184.865	-0.284	-0.004
-242.946	-88.470	-0.034	-0.010
-241.932	-200.000	-0.048	0.232
-240.917	220.930	-0.054	0.086
-239.903	-200.000	0.025	0.341
-238.888	-101.113	0.337	-0.082
-237.873	800.000	-0.053	0.167
-236.859	-51.564	-0.196	0.091
-235.844	-43.237	0.098	0.049
-234.830	-13.085	-0.326	0.211
-233.815	-200.000	-0.028	0.237
-232.800	620.252	-0.120	0.300
-231.786	-155.219	-0.243	-0.016
-230.771	359.811	-0.072	-0.143
-229.757	18.372	-0.072	0.057
-228.742	147.825	-0.062	0.083
-227.727	-138.308	0.110	-0.012
-226.713	14.189	-0.101	-0.079
-225.698	-39.566	0.179	-0.093
-224.684	84.210	0.111	-0.121
-223.669	-53.806	0.054	0.024
-222.655	-200.000	-0.020	0.364
-221.640	-16.047	0.163	0.103
-220.625	-200.000	-0.003	-0.144
-219.611	-52.577	0.293	-0.135
-218.596	800.000	-0.120	-0.408
-217.582	-51.246	0.109	-0.051
-216.567	370.526	0.060	0.120
-215.552	2.331	0.256	0.184
-214.538	-200.000	-0.034	0.336
-213.523	800.000	-0.095	-0.362
-212.509	-41.394	0.110	0.056
-211.494	342.561	-0.106	-0.207
-210.479	11.856	0.252	0.192
-209.465	-31.306	-0.148	0.083
-208.450	-87.155	0.340	-0.103
-207.436	-40.639	-0.133	-0.068
-206.421	164.900	-0.080	-0.112
-205.406	93.971	-0.120	0.135
-204.392	-51.411	0.211	0.098
-203.377	-200.000	-0.023	0.158
-202.363	37.862	-0.118	0.104
-201.348	-200.000	0.026	0.289
-200.333	-100.820	-0.077	-0.019
-199.319	-150.996	-0.174	0.013
-198.304	-200.000	0.008	-0.158
-197.290	66.657	0.173	0.175
-196.275	800.000	-0.058	-0.197
-195.260	-34.679	-0.145	0.079
-194.246	1.836	0.087	-0.062
-193.231	-130.259	0.214	0.029
-192.217	-134.532	0.126	-0.015
-191.202	197.079	0.192	0.291
-190.187	-200.000	0.035	-0.362
-189.173	800.000	0.052	0.207
-188.158	-57.208	0.300	0.131
-187.144	-200.000	0.008	0.182
-186.129	-113.608	0.278	0.054
-185.114	800.000	0.066	0.251
-184.100	109.168	-0.146	0.174
-183.085	-54.041	0.222	0.100
-182.071	-200.000	-0.011	-0.085
-181.056	800.000	0.043	0.128
-180.042	-101.273	-0.519	-0.126
-179.027	-63.787	0.087	0.035
-178.012	267.830	0.168	0.292
-176.998	45.858	-0.132	-0.121
-175.983	124.088	0.154	-0.192
-174.969	-200.000	0.015	0.233
-173.954	-138.011	-0.215	-0.024
-172.939	-179.032	-0.155	-0.003
-171.925	-200.000	-0.005	-0.022
-170.910	-200.000	0.002	0.082
-169.896	-30.471	0.262	-0.147
-168.881	-56.205	-0.348	-0.153
-167.866	-200.000	-0.042	-0.218
-166.852	-111.204	-0.137	0.028
-165.837	800.000	-0.043	-0.165
-164.823	800.000	0.149	0.448
-163.808	262.599	-0.163	-0.280
-162.793	117.945	-0.272	0.333
-161.779	-116.585	0.202	0.037
-160.764	740.605	-0.043	-0.116
-159.750	229.825	0.079	-0.127
-158.735	66.499	0.114	-0.115
-157.720	-144.654	0.345	-0.032
-156.706	-200.000	0.027	-0.273
-155.691	1.837	0.177	0.126
-154.677	-64.517	0.158	-0.063
-153.662	299.883	0.093	0.170
-152.647	27.510	0.142	0.119
-151.633	800.000	-0.049	0.155
-150.618	-200.000	0.025	-0.116
-149.604	43.129	-0.193	-0.174
-148.589	800.000	0.091	-0.294
-147.574	213.343	-0.143	-0.224
-146.560	-200.000	-0.025	0.418
-145.545	157.824	0.017	-0.024
-144.531	116.577	-0.073	-0.089
-143.516	430.884	-0.155	-0.333
-142.502	-134.903	-0.269	0.032
-141.487	231.316	-0.101	-0.164
-140.472	777.339	-0.081	0.221
-139.458	561.196	-0.103	0.245
-138.443	-18.251	-0.133	-0.082
-137.429	-200.000	0.051	-0.411
-136.414	43.091	-0.365	0.330
-135.399	-131.060	0.254	-0.034
-134.385	309.244	-0.091	0.169
-133.370	-200.000	-0.033	0.283
-132.356	-31.986	0.300	-0.166
-131.341	-79.808	0.049	0.016
-130.326	100.678	-0.164	0.189
-129.312	-200.000	-0.076	0.354
-128.297	125.105	-0.073	0.091
-127.283	333.480	0.243	-0.465
-126.268	-19.192	-0.103	0.063
-125.253	178.299	-0.122	-0.177
-124.239	-172.708	-0.264	-0.008
-123.224	51.654	-0.277	0.260
-122.210	-116.543	-0.295	0.054
