DTS Sentinel unit serial number:	SN413079Multiplexer serial number:	ORYXHardware model number:	OX4-SRSoftware version number:	ORYX F/W v4.00 Oryx Data Collector v3.7.2.0data status	okinstallation	princeton_trtdifferential loss correction	single-endedforward channel	channel 1reverse channel	N/Adate	2019/09/16time	08:02:35forward acquisition time	60.00reverse acquisition time	0.00gamma	496.2192k internal	0.2327k external	0.2327temperature offset calibration	0.9980default loss term (dB/km)	0.3790temperature slope calibration	1.0000multiplexer offset coefficient	1.0000multiplexer slope coefficient	1.0000fibre end	0.00T internal ref (°C)	28.53T ext. ref 1 (°C)	11.77T ext. ref 2 (°C)	24.74length (m)	temperature (°C)	Stokes	anti-Stokes-747.200	142.606	0.163	0.218
-746.185	484.249	0.188	0.431
-745.171	-131.255	-0.426	-0.057
-744.156	4.770	-0.225	-0.167
-743.142	-200.000	0.011	-0.051
-742.127	709.789	-0.086	0.229
-741.112	-92.714	-0.206	-0.058
-740.098	15.803	-0.008	0.006
-739.083	52.182	-0.132	-0.127
-738.069	321.333	-0.154	0.295
-737.054	165.043	0.107	0.153
-736.039	144.756	-0.088	-0.118
-735.025	-26.565	0.113	0.066
-734.010	-66.097	-0.232	0.093
-732.996	800.000	0.071	-0.292
-731.981	800.000	0.074	-0.223
-730.966	-200.000	0.042	-0.204
-729.952	-143.474	0.102	-0.010
-728.937	-200.000	0.040	0.203
-727.923	-54.258	0.279	0.128
-726.908	420.601	-0.161	-0.348
-725.894	-100.518	0.090	-0.022
-724.879	35.068	-0.180	0.159
-723.864	-56.825	-0.177	-0.079
-722.850	-74.954	0.288	0.104
-721.835	74.342	-0.159	0.168
-720.821	57.035	-0.220	-0.216
-719.806	15.188	0.134	-0.105
-718.791	-18.712	0.093	0.059
-717.777	-90.875	0.301	-0.087
-716.762	232.100	-0.131	-0.217
-715.748	240.143	-0.028	-0.047
-714.733	162.542	0.068	-0.095
-713.718	765.570	0.061	0.167
-712.704	49.073	-0.174	0.165
-711.689	-8.678	0.053	0.036
-710.675	-29.280	0.511	-0.295
-709.660	-89.974	-0.385	0.113
-708.645	15.384	-0.186	0.147
-707.631	2.125	-0.315	0.229
-706.616	285.941	0.099	0.180
-705.602	-138.808	0.246	0.027
-704.587	546.666	0.112	0.269
-703.572	-33.707	0.296	0.165
-702.558	208.608	0.071	0.111
-701.543	361.869	-0.103	-0.208
-700.529	800.000	0.083	-0.269
-699.514	-2.245	0.077	-0.054
-698.499	339.714	-0.079	0.156
-697.485	-200.000	-0.027	-0.203
-696.470	-200.000	0.020	-0.211
-695.456	800.000	0.022	0.096
-694.441	-20.072	0.262	0.162
-693.426	800.000	-0.045	0.173
-692.412	327.187	0.093	0.180
-691.397	-63.338	0.140	0.058
-690.383	83.272	-0.231	-0.253
-689.368	14.889	-0.092	-0.072
-688.354	135.399	0.234	-0.306
-687.339	-19.716	0.188	-0.117
-686.324	59.851	-0.015	-0.015
-685.310	155.682	-0.100	-0.138
-684.295	31.619	0.458	-0.397
-683.281	-59.896	-0.277	-0.119
-682.266	800.000	-0.082	-0.344
-681.251	-200.000	-0.036	-0.412
-680.237	325.143	0.117	-0.225
-679.222	800.000	-0.074	0.281
-678.208	-80.368	0.163	-0.055
-677.193	-200.000	0.015	0.135
-676.178	219.961	-0.097	0.156
-675.164	-115.297	0.184	0.035
-674.149	800.000	-0.064	-0.213
-673.135	-53.512	0.168	-0.077
-672.120	277.696	0.082	0.147
-671.105	208.447	0.109	-0.172
-670.091	603.649	0.080	0.199
-669.076	-91.435	0.239	-0.068
-668.062	170.693	0.160	-0.230
-667.047	-87.542	-0.087	0.027
-666.032	-200.000	0.028	-0.167
-665.018	244.435	0.064	-0.108
-664.003	-85.394	0.300	0.094
-662.989	-107.812	-0.213	-0.047
-661.974	74.795	-0.135	0.143
-660.959	-52.755	-0.428	0.198
-659.945	800.000	0.028	0.090
-658.930	23.331	0.034	-0.028
-657.916	-177.809	-0.191	0.005
-656.901	182.837	0.048	-0.071
-655.886	196.871	-0.240	0.367
-654.872	57.846	-0.304	0.299
-653.857	25.884	-0.320	0.268
-652.843	-58.941	0.044	-0.019
-651.828	800.000	-0.061	0.193
-650.814	-200.000	0.014	-0.164
-649.799	-80.382	-0.098	-0.033
-648.784	270.625	-0.058	0.103
-647.770	-92.634	0.070	-0.020
-646.755	-28.946	0.197	-0.114
-645.741	32.314	-0.136	-0.118
-644.726	-165.311	-0.142	-0.006
-643.711	96.501	-0.090	0.103
-642.697	-200.000	-0.020	0.103
-641.682	249.665	0.053	0.091
-640.668	-28.219	-0.116	-0.067
-639.653	98.172	-0.245	0.283
-638.638	-29.876	0.115	-0.066
-637.624	-90.118	-0.243	-0.071
-636.609	-200.000	-0.022	-0.300
-635.595	88.075	-0.114	-0.127
-634.580	117.555	-0.058	-0.072
-633.565	-200.000	-0.023	0.177
-632.551	-93.744	0.136	0.038
-631.536	800.000	0.036	-0.103
-630.522	800.000	-0.076	-0.238
-629.507	394.497	-0.105	0.220
-628.492	106.111	0.163	0.193
-627.478	48.745	-0.355	0.334
-626.463	335.884	-0.054	0.105
-625.449	30.725	0.178	0.153
-624.434	800.000	-0.093	-0.273
-623.419	-40.222	-0.367	-0.192
-622.405	154.339	-0.110	-0.151
-621.390	449.207	-0.068	-0.150
-620.376	-22.094	-0.245	0.149
-619.361	542.549	0.124	-0.296
-618.346	149.805	0.303	-0.412
-617.332	110.844	-0.082	-0.099
-616.317	3.945	-0.267	-0.196
-615.303	-200.000	0.029	-0.136
-614.288	-200.000	0.003	0.086
-613.273	-200.000	0.019	0.139
-612.259	115.622	-0.076	-0.093
-611.244	-97.667	-0.231	0.060
-610.230	-65.537	0.109	0.044
-609.215	423.604	-0.095	-0.205
-608.201	-101.855	-0.224	-0.054
-607.186	337.669	0.056	-0.109
-606.171	-104.897	0.088	-0.020
-605.157	40.848	0.149	-0.135
-604.142	800.000	0.090	-0.284
-603.128	202.533	-0.140	-0.216
-602.113	22.111	-0.061	-0.050
-601.098	-23.334	0.235	0.142
-600.084	800.000	-0.014	-0.041
-599.069	118.707	-0.138	-0.171
-598.055	-71.295	-0.441	-0.166
-597.040	253.424	0.122	0.210
-596.025	58.957	-0.236	0.232
-595.011	800.000	0.026	0.092
-593.996	353.965	0.138	-0.275
-592.982	-200.000	-0.005	0.046
-591.967	773.196	-0.171	-0.468
-590.952	-39.586	-0.031	-0.016
-589.938	85.888	0.157	0.173
-588.923	17.447	-0.247	-0.196
-587.909	-35.994	-0.279	-0.151
-586.894	-6.825	0.249	0.170
-585.879	424.130	-0.090	0.194
-584.865	-193.097	-0.049	-0.000
-583.850	800.000	0.028	0.082
-582.836	-14.560	-0.128	0.082
-581.821	-136.588	0.447	0.052
-580.806	-200.000	0.052	0.233
-579.792	133.358	0.133	-0.173
-578.777	-12.826	-0.161	-0.105
-577.763	126.905	-0.229	-0.291
-576.748	-200.000	-0.016	-0.327
-575.733	21.119	0.207	-0.168
-574.719	491.334	0.082	-0.188
-573.704	-170.122	-0.210	-0.007
-572.690	800.000	0.042	-0.145
-571.675	-147.584	-0.097	-0.008
-570.661	102.560	0.086	0.100
-569.646	-31.301	0.070	-0.039
-568.631	800.000	0.044	0.143
-567.617	724.599	-0.109	-0.292
-566.602	2.355	-0.257	0.186
-565.588	106.194	0.030	0.035
-564.573	-54.035	0.305	-0.139
-563.558	-49.088	-0.294	-0.141
-562.544	617.515	0.058	-0.146
-561.529	-122.688	-0.164	0.027
-560.515	215.380	-0.024	0.038
-559.500	-37.268	-0.194	-0.104
-558.485	36.720	-0.282	0.249
-557.471	800.000	0.015	-0.047
-556.456	-155.629	-0.240	0.015
-555.442	618.478	-0.080	-0.201
-554.427	227.064	0.170	-0.276
-553.412	800.000	-0.045	-0.187
-552.398	366.499	-0.047	0.096
-551.383	-200.000	-0.001	-0.024
-550.369	-0.966	-0.043	0.030
-549.354	658.757	-0.056	-0.143
-548.339	-165.040	0.137	-0.006
-547.325	-91.907	-0.127	-0.036
-546.310	-24.154	0.054	-0.032
-545.296	444.334	0.091	0.201
-544.281	-200.000	-0.014	0.065
-543.266	-71.887	0.236	0.088
-542.252	94.672	0.278	-0.316
-541.237	800.000	0.055	0.229
-540.223	129.602	-0.046	-0.058
-539.208	-92.661	0.277	-0.078
-538.193	-68.515	-0.120	-0.047
-537.179	26.884	-0.055	-0.046
-536.164	-49.862	0.299	-0.142
-535.150	-159.179	-0.079	0.004
-534.135	-200.000	-0.002	0.217
-533.121	-49.370	-0.206	0.098
-532.106	-200.000	0.006	-0.233
-531.091	114.551	-0.259	-0.316
-530.077	-131.964	0.433	-0.056
-529.062	-200.000	-0.020	-0.290
-528.048	-47.112	-0.255	0.124
-527.033	337.338	0.125	0.243
-526.018	-123.829	0.112	0.018
-525.004	238.430	0.059	0.098
-523.989	263.657	-0.015	0.026
-522.975	577.073	0.147	0.359
-521.960	-200.000	-0.048	-0.287
-520.945	-54.576	0.320	0.145
-519.931	800.000	-0.031	-0.120
-518.916	-117.164	-0.256	-0.047
-517.902	-139.710	0.386	0.041
-516.887	193.101	-0.186	0.281
-515.872	8.116	0.073	0.055
-514.858	-85.653	0.046	-0.014
-513.843	-113.617	0.228	0.044
-512.829	733.726	-0.136	-0.363
-511.814	214.350	0.137	-0.216
-510.799	711.693	0.034	0.089
-509.785	-109.460	-0.265	0.056
-508.770	-200.000	0.025	-0.300
-507.756	382.865	-0.049	0.101
-506.741	97.328	-0.237	0.272
-505.726	-3.188	0.102	0.071
-504.712	-131.456	0.233	-0.031
-503.697	-200.000	-0.040	0.564
-502.683	-38.373	0.089	0.047
-501.668	-85.707	-0.202	0.063
-500.653	800.000	0.055	0.227
-499.639	-170.613	-0.254	0.009
-498.624	-200.000	0.005	0.263
-497.610	-73.224	-0.258	0.094
-496.595	-36.326	-0.188	-0.101
-495.581	800.000	0.033	-0.119
-494.566	-200.000	-0.000	-0.159
-493.551	-188.698	0.219	0.003
-492.537	-200.000	0.083	-0.363
-491.522	-155.785	-0.277	-0.018
-490.508	-100.607	0.192	0.047
-489.493	324.049	0.243	0.463
-488.478	-91.576	-0.162	0.046
-487.464	-36.992	0.134	0.071
-486.449	568.501	-0.095	0.231
-485.435	-133.626	0.163	0.020
-484.420	-97.938	0.163	-0.042
-483.405	331.509	-0.107	-0.206
-482.391	125.659	0.184	-0.232
-481.376	-160.884	0.420	-0.022
-480.362	-200.000	0.048	-0.366
-479.347	-200.000	-0.005	0.083
-478.332	252.469	0.086	-0.146
-477.318	208.934	-0.022	0.034
-476.303	282.923	-0.054	0.097
-475.289	-114.454	-0.104	-0.020
-474.274	-200.000	0.044	-0.197
-473.259	-200.000	-0.015	0.069
-472.245	-160.531	0.120	-0.006
-471.230	-107.316	-0.149	0.033
-470.216	-50.439	-0.228	-0.107
-469.201	179.869	0.098	0.144
-468.186	800.000	-0.054	-0.213
-467.172	-22.011	-0.172	-0.104
-466.157	-200.000	0.044	0.336
-465.143	124.427	-0.204	0.255
-464.128	-4.402	0.193	0.133
-463.113	-75.721	0.107	-0.038
-462.099	29.164	0.277	0.234
-461.084	-110.902	-0.109	-0.022
-460.070	-200.000	0.058	-0.295
-459.055	-167.440	0.055	-0.002
-458.040	23.225	-0.094	-0.077
-457.026	800.000	-0.114	-0.335
-456.011	18.063	0.008	0.006
-454.997	-67.228	-0.405	0.159
-453.982	-99.536	0.325	0.081
-452.968	239.079	0.172	-0.285
-451.953	-200.000	-0.029	-0.221
-450.938	33.226	0.184	-0.159
-449.924	-159.483	-0.196	-0.011
-448.909	-200.000	-0.019	-0.138
-447.895	273.375	0.051	0.090
-446.880	95.207	-0.031	0.036
-445.865	29.992	-0.306	0.260
-444.851	4.365	0.118	-0.086
-443.836	-85.456	0.105	0.033
-442.822	-130.965	0.212	0.028
-441.807	12.567	-0.230	-0.176
-440.792	-22.740	0.363	0.218
-439.778	64.458	0.219	-0.220
-438.763	-178.623	-0.227	0.005
-437.749	195.400	-0.109	0.166
-436.734	134.142	0.394	0.509
-435.719	-200.000	0.022	-0.219
-434.705	-136.331	0.216	0.025
-433.690	53.364	-0.031	-0.030
-432.676	270.301	-0.110	-0.193
-431.661	-106.625	-0.218	0.048
-430.646	330.213	0.107	0.205
-429.632	47.270	0.288	0.267
-428.617	-25.610	0.084	-0.049
-427.603	56.007	0.156	0.151
-426.588	800.000	0.162	0.455
-425.573	214.543	0.154	0.242
-424.559	-174.006	0.153	0.004
-423.544	125.055	-0.149	0.187
-422.530	118.843	0.124	0.153
-421.515	-60.369	-0.288	0.122
-420.500	31.327	0.193	-0.165
-419.486	-9.888	-0.255	0.169
-418.471	-200.000	-0.006	0.131
-417.457	-66.585	-0.555	0.219
-416.442	113.264	0.096	-0.115
-415.428	800.000	-0.030	-0.115
-414.413	-71.303	0.087	0.032
-413.398	-70.114	-0.065	0.024
-412.384	242.210	-0.168	-0.280
-411.369	-89.607	0.116	0.034
-410.355	-49.639	0.172	0.081
-409.340	-115.176	0.083	0.016
-408.325	-43.809	-0.434	0.218
-407.311	4.915	0.102	-0.075
-406.296	-200.000	0.034	0.308
-405.282	145.195	0.254	-0.338
-404.267	-12.024	-0.269	0.176
-403.252	-200.000	-0.030	0.254
-402.238	-200.000	0.032	-0.252
-401.223	-179.824	-0.173	0.004
-400.209	800.000	-0.095	0.293
-399.194	15.984	-0.057	-0.044
-398.179	800.000	0.048	0.162
-397.165	-98.497	0.345	0.088
-396.150	-99.827	0.223	0.056
-395.136	-171.647	0.344	0.011
-394.121	-200.000	0.026	-0.169
-393.106	800.000	0.013	-0.049
-392.092	-171.597	-0.429	0.014
-391.077	27.363	0.095	0.080
-390.063	-200.000	-0.028	-0.135
-389.048	800.000	0.041	0.145
-388.033	800.000	0.105	0.418
-387.019	153.188	0.092	0.125
-386.004	-18.046	-0.326	-0.203
-384.990	-27.134	0.273	0.158
-383.975	-2.219	-0.229	0.160
-382.960	129.318	-0.274	0.348
-381.946	35.116	0.076	0.066
-380.931	109.403	-0.165	-0.197
-379.917	-92.910	-0.056	0.016
-378.902	367.161	0.117	0.236
-377.888	-126.986	-0.218	-0.032
-376.873	73.682	0.268	0.279
-375.858	-17.051	-0.220	-0.138
-374.844	-146.758	-0.253	-0.022
-373.829	-144.863	0.230	0.021
-372.815	151.783	-0.060	0.081
-371.800	800.000	-0.055	0.160
-370.785	-200.000	-0.012	-0.152
-369.771	-0.267	0.431	0.305
-368.756	268.092	0.086	0.150
-367.742	102.907	0.054	-0.063
-366.727	-175.082	-0.387	0.011
-365.712	-102.195	-0.108	0.026
-364.698	137.627	-0.151	0.197
-363.683	-187.056	-0.249	-0.003
-362.669	100.609	-0.079	-0.091
-361.654	-82.381	-0.202	-0.065
-360.639	800.000	0.040	0.111
-359.625	-200.000	-0.060	0.331
-358.610	198.822	0.090	-0.137
-357.596	-4.130	-0.222	0.152
-356.581	536.834	0.082	0.193
-355.566	-173.995	-0.081	-0.002
-354.552	-42.698	0.055	-0.028
-353.537	39.979	0.053	0.047
-352.523	363.495	0.064	0.127
-351.508	-13.232	0.253	-0.163
-350.493	-59.616	0.320	0.136
-349.479	56.915	-0.348	-0.337
-348.464	-200.000	-0.021	0.144
-347.450	176.600	-0.108	-0.156
-346.435	262.816	0.135	-0.233
-345.420	294.329	0.097	0.176
-344.406	800.000	0.060	0.253
-343.391	800.000	-0.053	0.159
-342.377	-200.000	-0.040	0.410
-341.362	800.000	-0.076	-0.243
-340.348	-200.000	0.016	0.095
-339.333	220.368	0.047	-0.075
-338.318	-134.666	0.268	-0.032
-337.304	800.000	-0.050	0.189
-336.289	-119.664	0.175	0.030
-335.275	-81.677	-0.079	0.026
-334.260	-70.481	-0.108	-0.041
-333.245	-200.000	-0.033	-0.195
-332.231	302.421	0.120	0.220
-331.216	51.730	0.267	0.252
-330.202	-162.144	-0.519	0.026
-329.187	102.742	0.165	-0.191
-328.172	-28.490	-0.157	0.090
-327.158	-200.000	0.018	0.154
-326.143	144.027	-0.111	0.146
-325.129	-75.467	-0.094	0.033
-324.114	763.267	0.152	0.408
-323.099	-118.616	-0.122	-0.021
-322.085	-60.279	-0.222	0.094
-321.070	72.250	-0.070	0.072
-320.056	141.152	0.196	0.257
-319.041	-200.000	0.038	-0.323
-318.026	-200.000	0.011	0.392
-317.012	-98.586	-0.414	-0.105
-315.997	-27.417	-0.149	-0.086
-314.983	786.236	-0.107	0.290
-313.968	800.000	0.062	-0.193
-312.953	392.421	0.040	0.082
-311.939	-45.772	-0.126	-0.062
-310.924	220.254	-0.087	-0.138
-309.910	-114.290	0.220	0.042
-308.895	13.585	-0.095	-0.073
-307.880	-32.346	0.089	-0.049
-306.866	-46.219	0.037	0.018
-305.851	6.133	-0.054	0.039
-304.837	-200.000	0.062	0.299
-303.822	189.933	0.104	-0.154
-302.807	91.914	0.281	-0.313
-301.793	468.617	0.088	-0.195
-300.778	-200.000	-0.005	0.197
-299.764	98.613	0.106	-0.121
-298.749	152.806	0.059	0.079
-297.735	-98.052	0.253	0.064
-296.720	541.537	-0.122	-0.288
-295.705	800.000	-0.102	0.342
-294.691	-200.000	0.019	-0.112
-293.676	28.594	-0.159	-0.133
-292.662	-200.000	-0.023	0.375
-291.647	-132.141	0.247	0.032
-290.632	480.158	0.084	0.188
-289.618	800.000	-0.062	0.199
-288.603	-131.271	0.371	0.049
-287.589	-127.987	0.177	-0.025
-286.574	-200.000	-0.036	0.225
-285.559	40.879	-0.083	0.074
-284.545	-156.657	0.259	-0.016
-283.530	109.084	-0.366	-0.433
-282.516	-200.000	0.014	0.086
-281.501	-200.000	-0.015	0.195
-280.486	-200.000	0.009	-0.049
-279.472	-161.284	0.404	0.021
-278.457	-109.985	0.198	-0.041
-277.443	-200.000	-0.073	-0.321
-276.428	212.663	-0.243	-0.379
-275.413	800.000	0.055	0.236
-274.399	-73.788	0.122	-0.044
-273.384	-46.853	-0.136	-0.066
-272.370	-200.000	0.010	0.190
-271.355	-62.606	0.104	-0.043
-270.340	448.113	-0.101	-0.220
-269.326	-125.133	-0.304	0.046
-268.311	-154.286	0.345	0.023
-267.297	45.709	-0.086	-0.079
-266.282	194.336	0.030	0.045
-265.267	758.790	0.079	-0.211
-264.253	230.118	0.137	0.222
-263.238	800.000	-0.071	0.262
-262.224	-109.063	0.048	-0.010
-261.209	-91.489	0.066	0.019
-260.195	800.000	-0.020	0.080
-259.180	-194.895	-0.114	0.001
-258.165	-42.153	-0.238	0.120
-257.151	-126.773	0.195	0.029
-256.136	140.787	-0.094	0.123
-255.122	-101.839	-0.132	0.031
-254.107	0.365	0.372	-0.263
-253.092	408.716	-0.064	0.133
-252.078	777.856	-0.072	-0.194
-251.063	389.293	0.064	0.131
-250.049	-164.729	0.693	-0.031
-249.034	-37.614	0.043	-0.023
-248.019	-200.000	0.013	0.176
-247.005	-200.000	-0.035	-0.158
-245.990	-44.661	0.221	-0.109
-244.976	588.364	-0.088	0.215
-243.961	800.000	-0.052	-0.168
-242.946	168.990	-0.064	-0.090
-241.932	102.823	-0.139	-0.161
-240.917	391.931	-0.101	0.208
-239.903	-200.000	0.086	-0.464
-238.888	-116.935	-0.179	0.032
-237.873	39.341	-0.242	-0.214
-236.859	493.972	-0.111	-0.252
-235.844	387.637	0.072	-0.147
-234.830	53.736	-0.310	-0.294
-233.815	-59.475	-0.160	0.068
-232.800	227.616	-0.128	0.206
-231.786	119.979	-0.068	0.083
-230.771	-124.160	-0.103	0.016
-229.757	-49.094	0.233	-0.110
-228.742	-46.489	-0.134	-0.065
-227.727	-57.091	-0.153	-0.067
-226.713	-22.420	0.214	-0.128
-225.698	-113.899	-0.118	-0.023
-224.684	-84.449	0.196	-0.061
-223.669	-82.542	-0.149	-0.048
-222.655	-193.111	-0.133	0.001
-221.640	-200.000	-0.045	0.357
-220.625	-200.000	0.060	0.283
-219.611	-200.000	-0.029	0.183
-218.596	-126.379	0.226	-0.033
-217.582	719.580	0.005	-0.014
-216.567	284.615	0.188	0.334
-215.552	49.919	0.079	0.073
-214.538	192.288	-0.087	0.130
-213.523	28.915	-0.207	-0.174
-212.509	96.026	-0.047	0.053
-211.494	-200.000	0.007	-0.304
-210.479	-200.000	0.009	-0.155
-209.465	11.601	-0.104	0.079
-208.450	-200.000	-0.009	0.232
-207.436	123.723	0.138	-0.171
-206.421	-99.526	-0.023	-0.006
-205.406	-149.227	-0.055	0.004
-204.392	-63.142	-0.282	-0.115
-203.377	800.000	0.089	0.255
-202.363	-30.713	0.264	0.148
-201.348	-200.000	-0.015	0.082
-200.333	-93.917	0.214	0.058
-199.319	-41.248	-0.046	0.024
-198.304	159.609	0.269	0.370
-197.290	386.378	-0.019	0.039
-196.275	82.272	0.265	-0.284
-195.260	-14.764	-0.107	-0.068
-194.246	26.360	0.065	-0.053
-193.231	309.747	-0.022	0.041
-192.217	723.283	0.109	-0.285
-191.202	-23.114	0.247	0.147
-190.187	-46.851	-0.209	-0.101
-189.173	-99.334	0.117	-0.029
-188.158	-200.000	0.079	-0.356
-187.144	16.306	-0.254	-0.198
-186.129	67.618	0.068	0.068
-185.114	800.000	0.078	-0.231
-184.100	800.000	0.170	-0.519
-183.085	769.472	0.104	-0.280
-182.071	124.615	-0.148	0.184
-181.056	84.511	0.176	-0.190
-180.042	691.068	0.107	0.277
-179.027	426.674	-0.020	0.042
-178.012	-62.467	0.098	0.040
-176.998	-200.000	-0.051	-0.300
-175.983	-179.660	-0.131	0.003
-174.969	39.974	-0.051	0.045
-173.954	-200.000	-0.077	-0.338
-172.939	-90.510	0.182	-0.052
-171.925	17.510	0.049	0.038
-170.910	-25.205	0.247	-0.144
-169.896	-67.590	-0.056	0.022
-168.881	-50.634	0.126	0.058
-167.866	-153.291	0.067	-0.005
-166.852	-200.000	0.046	-0.205
-165.837	-48.911	0.407	-0.192
-164.823	-33.464	-0.152	0.083
-163.808	29.976	-0.089	0.075
-162.793	-91.861	-0.260	-0.073
-161.779	-200.000	-0.033	-0.406
-160.764	-200.000	-0.010	-0.161
-159.750	60.762	-0.157	-0.153
-158.735	506.539	0.059	-0.135
-157.720	-72.187	0.055	-0.020
-156.706	800.000	-0.050	-0.201
-155.691	800.000	0.032	0.101
-154.677	-5.335	0.056	0.038
-153.662	-109.151	0.192	-0.040
-152.647	-200.000	-0.054	0.354
-151.633	203.892	0.060	0.092
-150.618	12.193	-0.085	-0.064
-149.604	-65.181	-0.116	-0.046
-148.589	374.532	0.057	0.115
-147.574	-46.156	0.421	0.204
-146.560	800.000	-0.023	-0.090
-145.545	-139.174	-0.169	-0.018
-144.531	476.474	-0.094	0.209
-143.516	-98.978	0.201	0.050
-142.502	338.712	-0.064	-0.122
-141.487	-200.000	-0.056	-0.341
-140.472	13.265	0.118	0.090
-139.458	-19.534	0.104	0.063
-138.443	-95.307	0.247	-0.065
-137.429	-187.301	0.157	-0.002
-136.414	535.013	0.044	-0.103
-135.399	-166.139	0.125	-0.005
-134.385	-113.808	-0.304	0.058
-133.370	91.060	-0.193	0.213
-132.356	298.073	0.099	0.179
-131.341	-200.000	0.073	-0.380
-130.326	-200.000	-0.006	-0.054
-129.312	-71.649	0.361	-0.133
-128.297	800.000	-0.056	0.232
-127.283	800.000	-0.053	-0.217
-126.268	294.403	-0.225	-0.405
-125.253	405.222	0.157	-0.327
-124.239	66.868	-0.103	-0.103
-123.224	272.769	-0.048	0.083
-122.210	-39.530	0.123	-0.063
-121.195	-134.312	0.097	-0.012
