DTS Sentinel unit serial number:	SN413079Multiplexer serial number:	ORYXHardware model number:	OX4-SRSoftware version number:	ORYX F/W v4.00 Oryx Data Collector v3.7.2.0data status	okinstallation	princeton_trtdifferential loss correction	single-endedforward channel	channel 1reverse channel	N/Adate	2019/09/13time	07:30:35forward acquisition time	60.00reverse acquisition time	0.00gamma	496.2192k internal	0.2335k external	0.2335temperature offset calibration	1.0163default loss term (dB/km)	0.3790temperature slope calibration	1.0000multiplexer offset coefficient	1.0000multiplexer slope coefficient	1.0000fibre end	0.00T internal ref (°C)	26.19T ext. ref 1 (°C)	4.20T ext. ref 2 (°C)	22.01length (m)	temperature (°C)	Stokes	anti-Stokes-747.200	155.819	-0.133	-0.184
-746.185	110.834	-0.046	0.056
-745.171	702.980	0.122	-0.324
-744.156	171.040	-0.206	0.296
-743.142	275.829	-0.102	0.182
-742.127	-85.223	0.092	0.029
-741.112	-200.000	-0.041	-0.194
-740.098	344.417	-0.081	0.161
-739.083	-86.717	-0.348	0.107
-738.069	456.985	-0.110	0.245
-737.054	-118.452	-0.138	-0.025
-736.039	-88.441	-0.282	-0.084
-735.025	-15.624	0.166	-0.107
-734.010	34.387	-0.169	-0.148
-732.996	418.391	-0.097	-0.208
-731.981	-55.439	-0.219	-0.099
-730.966	-98.492	0.104	0.027
-729.952	241.515	-0.210	0.352
-728.937	-82.937	-0.111	-0.036
-727.923	-200.000	0.010	0.145
-726.908	17.883	-0.322	0.258
-725.894	-200.000	-0.017	0.120
-724.879	125.729	0.050	-0.064
-723.864	2.500	-0.214	-0.155
-722.850	-11.424	-0.265	0.175
-721.835	-105.027	-0.274	-0.063
-720.821	-73.960	-0.166	-0.061
-719.806	91.142	0.029	-0.033
-718.791	516.210	0.020	-0.047
-717.777	-76.353	-0.166	-0.059
-716.762	298.750	-0.126	-0.232
-715.748	7.831	0.183	-0.137
-714.733	-88.892	0.060	-0.018
-713.718	-110.541	0.162	-0.034
-712.704	-38.903	-0.178	-0.094
-711.689	119.997	-0.068	0.084
-710.675	-50.246	-0.126	-0.060
-709.660	513.175	0.114	-0.268
-708.645	-41.795	-0.112	0.058
-707.631	-134.613	-0.102	-0.013
-706.616	-172.386	-0.301	-0.010
-705.602	-33.875	-0.506	-0.279
-704.587	-41.217	0.195	0.101
-703.572	-36.444	-0.064	-0.034
-702.558	44.561	0.164	0.151
-701.543	76.935	0.163	-0.174
-700.529	-200.000	0.010	0.246
-699.514	800.000	-0.046	-0.136
-698.499	155.239	-0.065	-0.090
-697.485	-83.414	0.173	-0.056
-696.470	775.032	0.073	-0.201
-695.456	-46.473	-0.262	-0.129
-694.441	43.893	0.156	-0.143
-693.426	28.548	-0.294	-0.250
-692.412	-71.074	-0.261	-0.098
-691.397	45.892	0.023	-0.022
-690.383	-111.864	-0.088	0.018
-689.368	36.905	-0.240	0.213
-688.354	-139.287	-0.142	0.015
-687.339	316.107	-0.222	0.420
-686.324	-15.138	-0.123	0.079
-685.310	27.775	-0.295	0.249
-684.295	120.396	0.134	-0.167
-683.281	800.000	-0.053	-0.189
-682.266	-184.005	0.132	-0.002
-681.251	255.433	-0.161	-0.276
-680.237	-34.287	-0.437	-0.240
-679.222	-200.000	0.007	-0.097
-678.208	800.000	0.075	-0.302
-677.193	23.964	-0.356	-0.294
-676.178	-128.808	-0.370	-0.052
-675.164	-105.991	0.280	-0.063
-674.149	-86.718	-0.051	0.016
-673.135	800.000	0.047	0.137
-672.120	-32.314	-0.364	0.204
-671.105	455.832	-0.061	-0.136
-670.091	664.693	-0.066	-0.171
-669.076	-159.282	-0.273	0.015
-668.062	157.888	0.274	0.380
-667.047	-200.000	-0.001	0.115
-666.032	-127.033	0.458	-0.067
-665.018	800.000	0.061	-0.229
-664.003	-84.171	-0.187	-0.059
-662.989	-38.296	-0.312	-0.166
-661.974	109.604	-0.172	-0.206
-660.959	240.110	-0.120	0.201
-659.945	-19.456	0.395	-0.245
-658.930	-31.744	0.093	0.052
-657.916	-140.835	-0.371	0.038
-656.901	-121.973	-0.337	-0.056
-655.886	6.876	0.117	-0.087
-654.872	800.000	-0.090	-0.316
-653.857	-84.154	0.374	-0.119
-652.843	-200.000	0.006	0.202
-651.828	800.000	-0.075	0.307
-650.814	-95.207	-0.342	-0.092
-649.799	-108.581	0.091	-0.020
-648.784	-18.163	-0.197	0.123
-647.770	800.000	-0.038	-0.107
-646.755	-100.451	-0.200	-0.049
-645.741	19.786	0.139	0.112
-644.726	-123.882	0.195	0.031
-643.711	243.349	-0.173	0.289
-642.697	119.560	0.199	-0.246
-641.682	-50.106	-0.194	-0.092
-640.668	-200.000	0.058	-0.279
-639.653	-4.459	-0.240	-0.166
-638.638	14.820	-0.099	-0.077
-637.624	-200.000	-0.005	-0.340
-636.609	170.065	0.085	-0.121
-635.595	-151.662	0.211	0.016
-634.580	-78.839	-0.279	0.095
-633.565	800.000	-0.069	0.261
-632.551	-200.000	0.002	0.035
-631.536	168.131	-0.189	-0.270
-630.522	-200.000	-0.018	-0.182
-629.507	800.000	0.095	0.299
-628.492	800.000	-0.014	0.048
-627.478	-200.000	0.073	-0.352
-626.463	54.788	0.270	-0.260
-625.449	35.408	0.258	0.227
-624.434	-164.533	-0.497	-0.023
-623.419	800.000	0.041	0.126
-622.405	108.177	0.206	0.246
-621.390	240.171	-0.054	-0.089
-620.376	800.000	-0.042	-0.137
-619.361	-200.000	-0.037	-0.175
-618.346	-30.102	-0.347	0.198
-617.332	-15.943	0.210	-0.134
-616.317	-200.000	0.044	-0.201
-615.303	187.783	-0.067	-0.100
-614.288	-94.298	0.219	0.060
-613.273	-91.181	-0.129	0.037
-612.259	-52.376	-0.013	-0.006
-611.244	166.084	0.097	0.137
-610.230	420.734	0.146	-0.312
-609.215	42.608	0.166	0.151
-608.201	336.175	-0.276	-0.535
-607.186	-187.768	0.318	0.004
-606.171	-51.331	-0.152	-0.071
-605.157	800.000	-0.054	-0.209
-604.142	668.247	0.096	-0.248
-603.128	-67.399	0.280	-0.110
-602.113	257.816	0.093	-0.159
-601.098	330.175	0.119	0.229
-600.084	246.571	-0.105	-0.177
-599.069	71.166	0.118	-0.122
-598.055	46.348	-0.161	-0.149
-597.040	-200.000	-0.021	0.265
-596.025	64.388	-0.194	0.196
-595.011	800.000	0.059	-0.207
-593.996	-134.755	-0.394	-0.048
-592.982	-200.000	-0.020	0.411
-591.967	80.121	0.137	0.148
-590.952	217.263	0.121	-0.193
-589.938	800.000	-0.095	0.291
-588.923	473.001	-0.134	-0.302
-587.909	-200.000	0.004	-0.206
-586.894	77.824	0.034	0.037
-585.879	-152.329	0.244	-0.018
-584.865	-110.063	0.092	0.019
-583.850	-35.670	0.208	-0.113
-582.836	-75.526	-0.251	-0.089
-581.821	800.000	-0.130	-0.425
-580.806	61.244	-0.016	-0.016
-579.792	118.502	0.032	-0.039
-578.777	-109.760	0.265	0.056
-577.763	800.000	0.089	0.256
-576.748	180.998	-0.155	-0.228
-575.733	376.484	0.083	0.168
-574.719	800.000	-0.104	-0.352
-573.704	-122.461	0.118	-0.019
-572.690	278.274	0.194	-0.345
-571.675	-11.262	-0.244	-0.161
-570.661	120.563	0.169	-0.210
-569.646	-99.254	0.324	-0.082
-568.631	-130.724	0.189	0.025
-567.617	282.833	-0.054	0.097
-566.602	522.609	0.089	0.208
-565.588	-59.444	-0.116	-0.050
-564.573	139.933	0.092	0.121
-563.558	-87.746	-0.180	0.054
-562.544	326.268	-0.112	-0.214
-561.529	800.000	-0.017	-0.060
-560.515	-158.413	0.243	-0.014
-559.500	-73.828	-0.418	0.152
-558.485	0.885	-0.240	-0.171
-557.471	165.073	-0.188	-0.265
-556.456	-120.102	0.085	-0.015
-555.442	800.000	-0.050	0.157
-554.427	-200.000	-0.040	0.274
-553.412	-75.283	0.181	-0.064
-552.398	101.994	0.100	0.117
-551.383	48.478	-0.103	-0.096
-550.369	162.559	-0.183	-0.256
-549.354	800.000	0.033	-0.134
-548.339	-7.629	0.143	0.097
-547.325	-157.038	-0.279	0.017
-546.310	-49.466	-0.089	0.042
-545.296	79.194	-0.081	0.087
-544.281	154.522	-0.081	0.110
-543.266	8.235	0.109	0.082
-542.252	288.617	0.118	0.213
-541.237	-185.280	0.294	0.005
-540.223	-200.000	0.032	-0.231
-539.208	380.117	-0.045	0.092
-538.193	-39.381	-0.068	-0.036
-537.179	-200.000	-0.005	-0.216
-536.164	115.949	-0.113	0.138
-535.150	-155.207	0.115	-0.007
-534.135	-31.157	-0.278	-0.156
-533.121	33.624	-0.189	-0.164
-532.106	-200.000	-0.011	-0.201
-531.091	93.924	-0.120	0.136
-530.077	39.535	0.256	0.228
-529.062	800.000	-0.058	0.162
-528.048	-31.407	0.102	-0.057
-527.033	98.862	0.087	-0.100
-526.018	-43.946	-0.267	0.134
-525.004	800.000	-0.040	0.133
-523.989	-118.787	-0.062	-0.011
-522.975	-107.230	0.238	0.052
-521.960	800.000	-0.095	0.283
-520.945	800.000	0.044	-0.132
-519.931	83.474	0.244	0.265
-518.916	75.242	-0.160	0.168
-517.902	462.736	0.093	-0.207
-516.887	158.939	0.031	0.043
-515.872	-86.047	-0.083	-0.026
-514.858	800.000	0.113	-0.413
-513.843	-59.076	0.185	-0.080
-512.829	-147.675	0.063	-0.005
-511.814	442.839	0.115	-0.252
-510.799	-200.000	-0.003	-0.278
-509.785	60.412	-0.112	-0.110
-508.770	672.128	-0.007	-0.018
-507.756	-28.513	0.134	-0.077
-506.741	-53.528	-0.268	0.122
-505.726	214.480	0.210	0.332
-504.712	428.693	0.083	0.178
-503.697	800.000	0.049	-0.195
-502.683	130.092	-0.146	-0.186
-501.668	-120.692	0.306	-0.051
-500.653	-86.710	0.207	-0.063
-499.639	-180.981	-0.179	0.004
-498.624	523.684	0.144	-0.337
-497.610	-55.240	-0.144	0.065
-496.595	-200.000	0.055	0.487
-495.581	9.549	-0.134	-0.101
-494.566	-120.327	0.261	0.044
-493.551	290.882	-0.029	0.053
-492.537	755.377	0.113	-0.305
-491.522	-60.394	0.224	0.095
-490.508	293.696	-0.066	0.120
-489.493	800.000	0.045	0.179
-488.478	-63.995	0.140	-0.057
-487.464	-124.450	-0.104	0.016
-486.449	272.863	-0.117	0.205
-485.435	-200.000	-0.031	-0.212
-484.420	168.950	0.149	0.211
-483.405	-17.323	-0.141	-0.089
-482.391	-82.905	0.086	-0.028
-481.376	291.384	-0.043	0.078
-480.362	-122.759	-0.201	-0.032
-479.347	-37.171	-0.207	0.110
-478.332	-52.370	-0.225	0.103
-477.318	-53.348	-0.166	-0.076
-476.303	-12.093	0.098	0.064
-475.289	-39.245	-0.159	0.083
-474.274	-24.033	0.225	0.134
-473.259	11.134	-0.054	-0.041
-472.245	438.859	0.070	0.152
-471.230	800.000	-0.054	-0.152
-470.216	-63.005	0.198	-0.081
-469.201	274.100	-0.054	0.095
-468.186	197.031	0.175	0.265
-467.172	625.677	-0.068	-0.170
-466.157	-68.852	0.241	-0.093
-465.143	-52.389	-0.263	0.121
-464.128	-42.664	0.094	0.048
-463.113	-200.000	0.015	-0.208
-462.099	161.153	0.164	-0.228
-461.084	-200.000	0.054	-0.465
-460.070	-177.667	-0.249	-0.006
-459.055	-53.750	-0.370	0.168
-458.040	-69.575	0.110	-0.042
-457.026	-200.000	-0.002	-0.146
-456.011	800.000	-0.028	0.116
-454.997	800.000	-0.092	0.261
-453.982	6.004	0.027	0.020
-452.968	218.972	0.138	-0.219
-451.953	-120.293	0.062	-0.010
-450.938	-114.254	0.194	0.037
-449.924	-200.000	-0.012	0.153
-448.909	-118.356	-0.400	-0.071
-447.895	-2.271	-0.267	-0.186
-446.880	-200.000	-0.004	0.371
-445.865	-200.000	0.030	0.166
-444.851	113.922	0.138	-0.167
-443.836	-60.518	-0.422	0.178
-442.822	-23.463	0.116	0.069
-441.807	326.407	0.065	0.124
-440.792	-200.000	0.001	-0.100
-439.778	354.057	0.065	-0.128
-438.763	2.812	0.272	0.196
-437.749	151.968	-0.056	-0.076
-436.734	196.640	0.165	0.249
-435.719	328.189	0.136	0.259
-434.705	-100.178	-0.256	-0.063
-433.690	-93.201	-0.169	0.047
-432.676	-200.000	-0.013	0.186
-431.661	95.940	-0.180	0.204
-430.646	-70.219	0.152	0.057
-429.632	265.553	-0.172	0.298
-428.617	800.000	0.077	-0.318
-427.603	-64.949	0.219	0.088
-426.588	92.215	0.053	0.059
-425.573	206.650	0.015	-0.024
-424.559	-80.651	0.357	-0.118
-423.544	-96.936	-0.138	0.036
-422.530	-81.131	-0.248	0.081
-421.515	-12.953	0.323	-0.209
-420.500	121.895	0.141	0.175
-419.486	-200.000	-0.003	-0.220
-418.471	547.779	0.092	-0.219
-417.457	104.753	-0.181	-0.211
-416.442	11.864	0.198	-0.151
-415.428	166.126	0.171	-0.241
-414.413	-200.000	-0.008	0.092
-413.398	359.254	-0.132	-0.261
-412.384	-200.000	0.014	-0.237
-411.369	508.452	-0.028	-0.065
-410.355	81.987	0.145	-0.155
-409.340	-69.322	0.029	0.011
-408.325	800.000	-0.083	-0.243
-407.311	89.214	-0.102	0.113
-406.296	165.134	0.213	0.298
-405.282	-41.983	0.067	-0.034
-404.267	557.916	-0.081	-0.194
-403.252	-200.000	0.033	0.222
-402.238	-94.321	-0.106	0.029
-401.223	265.119	0.100	0.172
-400.209	40.807	0.107	0.096
-399.194	-89.983	0.085	0.025
-398.179	263.148	0.123	-0.212
-397.165	9.056	0.375	0.280
-396.150	-61.628	-0.258	-0.107
-395.136	-200.000	0.070	-0.435
-394.121	-137.325	-0.239	0.027
-393.106	-87.335	-0.092	-0.028
-392.092	139.270	0.132	0.172
-391.077	-110.815	0.209	0.043
-390.063	243.253	-0.165	0.274
-389.048	800.000	0.028	0.103
-388.033	-37.040	-0.176	-0.093
-387.019	12.480	-0.100	-0.076
-386.004	-52.547	0.197	0.090
-384.990	-135.354	-0.136	0.016
-383.975	-138.646	0.215	-0.023
-382.960	-42.807	-0.309	-0.156
-381.946	-55.248	-0.186	0.083
-380.931	-76.486	0.197	0.068
-379.917	668.832	-0.049	-0.127
-378.902	-112.218	-0.348	-0.069
-377.888	-146.053	0.193	0.017
-376.873	-95.005	-0.121	0.032
-375.858	-200.000	0.030	0.156
-374.844	318.879	0.112	-0.211
-373.829	179.222	-0.078	-0.113
-372.815	-28.580	0.259	0.148
-371.800	-187.875	-0.183	-0.002
-370.785	468.110	0.149	-0.331
-369.771	-5.347	0.314	-0.214
-368.756	-55.686	-0.077	-0.034
-367.742	106.449	0.206	0.241
-366.727	386.283	0.131	-0.267
-365.712	57.624	0.144	-0.140
-364.698	-141.599	0.225	0.022
-363.683	-200.000	-0.010	-0.074
-362.669	155.449	0.133	-0.181
-361.654	521.113	0.104	0.242
-360.639	-83.347	0.020	-0.006
-359.625	110.604	-0.143	-0.170
-358.610	-200.000	0.011	0.062
-357.596	267.004	0.318	-0.549
-356.581	-85.875	-0.137	0.042
-355.566	-112.707	-0.232	0.046
-354.552	343.727	0.165	0.321
-353.537	-156.627	0.196	-0.012
-352.523	34.793	0.232	0.201
-351.508	-65.945	-0.340	0.134
-350.493	155.664	-0.029	-0.040
-349.479	-118.826	-0.305	-0.053
-348.464	797.582	-0.049	-0.132
-347.450	133.580	0.035	-0.045
-346.435	277.454	0.035	0.062
-345.420	-32.372	-0.396	0.219
-344.406	-1.563	0.182	0.127
-343.391	-44.897	-0.184	0.091
-342.377	-46.302	0.243	-0.118
-341.362	123.931	0.056	0.069
-340.348	168.629	0.055	-0.078
-339.333	-200.000	0.003	0.076
-338.318	-60.092	-0.246	0.104
-337.304	800.000	0.043	0.145
-336.289	-178.084	0.105	0.002
-335.275	24.618	-0.217	-0.177
-334.260	-200.000	0.007	0.199
-333.245	-200.000	0.077	0.351
-332.231	165.038	-0.171	-0.239
-331.216	-196.298	0.347	-0.002
-330.202	-1.665	-0.314	0.219
-329.187	-97.567	-0.428	0.110
-328.172	800.000	0.104	-0.330
-327.158	800.000	-0.088	-0.276
-326.143	-37.821	-0.254	-0.134
-325.129	160.830	0.061	0.084
-324.114	-43.622	-0.156	0.078
-323.099	131.768	0.225	0.286
-322.085	151.596	0.142	0.191
-321.070	57.004	0.091	-0.087
-320.056	-200.000	0.008	0.114
-319.041	-5.705	0.243	0.165
-318.026	-180.892	0.152	-0.003
-317.012	120.976	-0.130	0.160
-315.997	-26.986	-0.211	0.121
-314.983	218.270	0.142	0.223
-313.968	800.000	0.086	-0.304
-312.953	-21.241	-0.373	-0.225
-311.939	4.131	0.077	0.056
-310.924	171.044	0.203	0.288
-309.910	-10.599	0.164	-0.107
-308.895	114.276	0.048	-0.058
-307.880	-200.000	-0.004	-0.052
-306.866	-200.000	-0.021	0.143
-305.851	-124.461	-0.519	-0.080
-304.837	-200.000	0.004	-0.036
-303.822	216.406	0.276	0.434
-302.807	-151.727	0.086	0.006
-301.793	48.295	-0.117	-0.108
-300.778	58.255	0.024	0.023
-299.764	599.815	-0.050	0.122
-298.749	-45.167	-0.137	-0.067
-297.735	-190.639	0.373	0.004
-296.720	88.857	0.265	0.291
-295.705	504.192	-0.071	0.163
-294.691	161.597	-0.123	-0.169
-293.676	800.000	0.041	0.148
-292.662	-32.231	0.155	-0.085
-291.647	-55.520	-0.014	0.006
-290.632	-200.000	0.017	-0.076
-289.618	800.000	0.040	0.109
-288.603	27.846	0.061	-0.051
-287.589	196.575	0.172	0.259
-286.574	-33.219	0.060	0.033
-285.559	131.840	0.069	0.088
-284.545	-86.383	0.326	0.099
-283.530	137.539	-0.336	-0.434
-282.516	116.507	-0.082	-0.099
-281.501	-200.000	0.052	-0.396
-280.486	-77.635	0.062	-0.021
-279.472	-43.922	0.132	0.065
-278.457	9.565	0.215	-0.161
-277.443	21.136	0.182	0.146
-276.428	43.411	-0.371	-0.334
-275.413	-78.412	-0.046	0.016
-274.399	-26.847	-0.210	-0.121
-273.384	-41.491	0.131	0.067
-272.370	-25.202	0.164	0.096
-271.355	800.000	0.034	0.106
-270.340	281.017	0.085	-0.150
-269.326	-70.194	-0.128	-0.048
-268.311	-76.342	0.188	0.065
-267.297	74.534	-0.077	0.080
-266.282	-143.419	-0.101	-0.009
-265.267	-23.033	0.210	0.125
-264.253	303.010	0.152	0.278
-263.238	-13.420	-0.201	0.129
-262.224	50.571	-0.229	0.214
-261.209	-7.478	0.153	0.102
-260.195	-148.465	-0.103	0.008
-259.180	-65.666	0.234	0.093
-258.165	-200.000	-0.010	0.084
-257.151	494.083	-0.132	0.299
-256.136	183.562	-0.159	-0.232
-255.122	-43.129	-0.159	0.080
-254.107	-67.384	-0.166	0.064
-253.092	-166.492	-0.351	0.014
-252.078	-200.000	-0.049	0.220
-251.063	130.500	-0.212	0.267
-250.049	-200.000	0.043	0.378
-249.034	-200.000	-0.015	0.270
-248.019	51.667	-0.283	0.265
-247.005	800.000	-0.104	-0.411
-245.990	800.000	-0.073	0.251
-244.976	128.552	-0.046	-0.058
-243.961	513.472	-0.052	-0.120
-242.946	-85.659	-0.183	-0.056
-241.932	199.125	-0.165	-0.249
-240.917	28.814	0.234	0.196
-239.903	194.674	-0.151	0.226
-238.888	-79.529	0.179	0.059
-237.873	372.193	0.084	-0.167
-236.859	19.595	-0.132	-0.105
-235.844	166.565	-0.080	-0.111
-234.830	306.489	0.124	-0.227
-233.815	69.894	-0.151	-0.153
-232.800	-200.000	-0.013	0.346
-231.786	-52.851	-0.096	-0.044
-230.771	348.192	0.122	0.237
-229.757	10.520	-0.104	0.078
-228.742	464.354	0.060	-0.133
-227.727	16.284	-0.219	-0.170
-226.713	-0.182	0.289	0.202
-225.698	-200.000	-0.052	-0.296
-224.684	800.000	0.028	0.118
-223.669	24.136	0.045	0.037
-222.655	55.562	-0.104	-0.099
-221.640	139.390	-0.165	0.213
-220.625	-59.798	0.352	-0.148
-219.611	-78.703	-0.027	0.009
-218.596	-85.542	0.311	0.095
-217.582	-110.661	0.156	-0.032
-216.567	-74.014	0.094	0.034
-215.552	-200.000	-0.001	0.257
-214.538	-46.993	0.179	0.086
-213.523	67.951	-0.293	0.295
-212.509	195.326	-0.115	0.172
-211.494	-162.187	-0.078	-0.004
-210.479	-40.907	-0.236	-0.120
-209.465	215.323	0.136	-0.212
-208.450	179.772	0.081	-0.116
-207.436	-44.793	0.108	-0.053
-206.421	-200.000	0.077	-0.381
-205.406	711.652	0.041	-0.106
-204.392	-200.000	-0.038	0.240
-203.377	-45.554	-0.040	-0.020
-202.363	39.100	-0.180	0.158
-201.348	-94.004	0.288	-0.078
-200.333	454.599	0.072	-0.156
-199.319	-141.398	-0.042	0.004
-198.304	-30.550	0.092	0.051
-197.290	-83.151	-0.340	0.107
-196.275	-157.991	-0.416	0.024
-195.260	149.980	-0.129	0.172
-194.246	90.823	-0.060	0.066
-193.231	-32.402	0.359	0.197
-192.217	-94.763	-0.238	0.063
-191.202	114.873	-0.139	-0.166
-190.187	-2.082	0.067	-0.046
-189.173	-200.000	0.006	0.303
-188.158	283.123	0.095	0.168
-187.144	800.000	-0.138	0.425
-186.129	800.000	-0.042	0.116
-185.114	-93.416	-0.139	-0.038
-184.100	-200.000	-0.053	-0.300
-183.085	279.330	-0.044	-0.078
-182.071	-200.000	0.042	0.220
-181.056	155.228	0.108	-0.147
-180.042	-88.061	-0.321	-0.095
-179.027	158.292	0.170	-0.232
-178.012	-37.321	0.163	0.086
-176.998	18.645	0.167	-0.131
-175.983	-110.857	-0.317	0.064
-174.969	-200.000	0.010	0.048
-173.954	47.365	0.064	0.058
-172.939	800.000	0.048	0.169
-171.925	-66.899	0.220	0.085
-170.910	254.294	0.036	0.061
-169.896	-164.974	-0.215	-0.009
-168.881	-149.496	0.145	-0.011
-167.866	-16.808	0.031	0.020
-166.852	800.000	0.052	0.224
-165.837	-123.430	-0.126	-0.020
-164.823	-152.112	-0.333	0.024
-163.808	0.945	0.189	0.133
-162.793	-76.576	0.283	-0.097
-161.779	-139.360	-0.382	0.040
-160.764	112.244	-0.071	0.085
-159.750	407.677	-0.055	0.114
-158.735	800.000	0.062	0.189
-157.720	-42.821	0.070	-0.035
-156.706	245.004	-0.049	-0.081
-155.691	800.000	0.041	-0.163
-154.677	-149.915	0.058	0.004
-153.662	-100.218	0.107	-0.026
-152.647	208.113	-0.198	-0.304
-151.633	800.000	-0.063	-0.173
-150.618	-200.000	-0.073	-0.361
-149.604	293.035	-0.040	-0.072
-148.589	14.990	-0.122	-0.094
-147.574	92.910	-0.391	-0.434
-146.560	-50.196	0.293	-0.136
-145.545	-200.000	0.029	0.133
-144.531	-113.793	0.096	0.018
-143.516	-39.583	0.123	-0.063
-142.502	-200.000	-0.006	-0.076
-141.487	800.000	0.082	0.298
-140.472	800.000	0.068	-0.279
-139.458	-112.085	-0.140	-0.028
-138.443	626.541	0.104	-0.258
-137.429	-187.911	0.135	0.002
-136.414	-200.000	-0.015	-0.235
-135.399	28.054	-0.122	-0.101
-134.385	800.000	0.019	0.077
-133.370	-200.000	0.007	-0.157
-132.356	-42.612	0.159	0.079
-131.341	-48.798	0.166	0.078
-130.326	-51.390	0.049	0.022
-129.312	333.769	-0.023	-0.044
-128.297	-12.911	0.236	0.150
-127.283	-200.000	0.027	0.226
-126.268	-47.510	-0.269	-0.128
-125.253	-105.674	-0.047	-0.010
-124.239	295.232	-0.171	-0.307
-123.224	-45.248	-0.283	-0.138
-122.210	-200.000	0.040	-0.290
-121.195	-163.097	-0.237	0.011
