DTS Sentinel unit serial number:	SN413079Multiplexer serial number:	ORYXHardware model number:	OX4-SRSoftware version number:	ORYX F/W v4.00 Oryx Data Collector v3.7.2.0data status	okinstallation	princeton_trtdifferential loss correction	single-endedforward channel	channel 1reverse channel	N/Adate	2019/09/18time	11:06:35forward acquisition time	60.00reverse acquisition time	0.00gamma	496.2192k internal	0.2326k external	0.2326temperature offset calibration	0.9974default loss term (dB/km)	0.3790temperature slope calibration	1.0000multiplexer offset coefficient	1.0000multiplexer slope coefficient	1.0000fibre end	0.00T internal ref (°C)	29.50T ext. ref 1 (°C)	0.41T ext. ref 2 (°C)	26.27length (m)	temperature (°C)	Stokes	anti-Stokes-747.200	3.470	0.159	0.117
-746.185	-55.507	-0.221	0.100
-745.171	800.000	-0.077	-0.243
-744.156	800.000	-0.009	-0.032
-743.142	800.000	0.050	0.207
-742.127	58.932	-0.128	0.127
-741.112	70.984	0.201	0.210
-740.098	25.578	0.114	0.096
-739.083	800.000	0.044	-0.139
-738.069	260.311	-0.192	0.334
-737.054	12.302	0.090	-0.070
-736.039	-179.041	-0.114	-0.003
-735.025	177.861	0.336	0.494
-734.010	13.477	-0.300	-0.235
-732.996	87.139	0.034	0.038
-731.981	-200.000	-0.015	-0.223
-730.966	11.581	-0.144	0.112
-729.952	106.032	-0.202	0.241
-728.937	722.805	0.111	0.297
-727.923	98.165	-0.143	-0.166
-726.908	800.000	0.020	0.062
-725.894	-13.534	-0.155	-0.101
-724.879	800.000	-0.021	-0.080
-723.864	-116.478	-0.352	-0.066
-722.850	152.775	0.167	-0.230
-721.835	-200.000	0.010	-0.174
-720.821	131.888	-0.122	0.159
-719.806	-200.000	0.044	-0.245
-718.791	363.372	0.066	-0.133
-717.777	-200.000	0.053	0.355
-716.762	7.395	-0.041	0.031
-715.748	-200.000	0.044	-0.298
-714.733	-2.849	0.044	0.031
-713.718	106.869	0.189	0.226
-712.704	-37.904	-0.372	0.199
-711.689	355.707	-0.110	-0.221
-710.675	800.000	-0.104	0.314
-709.660	800.000	0.069	0.255
-708.645	26.603	0.233	0.196
-707.631	-200.000	0.036	0.184
-706.616	-15.334	0.080	-0.051
-705.602	78.822	-0.133	-0.143
-704.587	-200.000	-0.038	-0.175
-703.572	-85.176	-0.317	-0.100
-702.558	93.325	-0.065	-0.074
-701.543	278.861	-0.068	0.123
-700.529	-34.208	-0.068	-0.038
-699.514	-124.471	0.285	-0.045
-698.499	-200.000	-0.035	-0.237
-697.485	-127.913	-0.160	-0.023
-696.470	228.737	-0.128	0.210
-695.456	-99.897	-0.183	0.046
-694.441	151.790	0.203	0.279
-693.426	-60.569	-0.152	-0.065
-692.412	111.700	-0.225	-0.274
-691.397	276.899	-0.087	-0.155
-690.383	87.195	0.103	-0.115
-689.368	-109.935	-0.362	-0.076
-688.354	102.711	-0.253	0.298
-687.339	-87.365	0.020	-0.006
-686.324	132.811	-0.087	0.113
-685.310	62.887	-0.075	-0.076
-684.295	-97.105	-0.163	-0.043
-683.281	-200.000	0.039	-0.295
-682.266	800.000	0.049	-0.150
-681.251	184.984	-0.145	-0.217
-680.237	67.093	0.212	-0.217
-679.222	-200.000	0.049	-0.262
-678.208	800.000	-0.032	0.124
-677.193	99.635	0.212	0.247
-676.178	-19.315	0.168	-0.105
-675.164	733.519	0.042	-0.114
-674.149	383.187	-0.086	-0.178
-673.135	104.687	0.197	0.233
-672.120	248.939	0.095	0.163
-671.105	-188.596	0.302	-0.004
-670.091	-122.071	-0.214	-0.035
-669.076	-29.421	-0.128	0.073
-668.062	-13.235	-0.158	0.103
-667.047	-114.656	-0.203	0.039
-666.032	-79.794	-0.263	-0.089
-665.018	-68.287	-0.050	0.020
-664.003	-100.091	-0.465	-0.116
-662.989	578.693	0.043	-0.105
-661.974	-119.952	-0.247	-0.043
-660.959	-200.000	-0.007	-0.035
-659.945	-200.000	-0.015	-0.199
-658.930	-156.132	-0.188	-0.012
-657.916	-141.884	-0.146	-0.015
-656.901	-200.000	-0.037	0.198
-655.886	-59.597	-0.166	0.072
-654.872	45.501	0.154	0.143
-653.857	681.357	-0.085	0.223
-652.843	223.735	0.135	-0.220
-651.828	-200.000	0.065	0.428
-650.814	-87.382	-0.098	-0.030
-649.799	-59.074	-0.334	-0.145
-648.784	130.728	0.090	-0.116
-647.770	179.312	0.178	-0.261
-646.755	-30.629	0.271	-0.154
-645.741	-200.000	-0.028	-0.258
-644.726	-200.000	-0.042	-0.187
-643.711	266.740	0.137	0.240
-642.697	-64.734	-0.314	0.128
-641.682	-92.176	-0.186	-0.053
-640.668	329.725	-0.075	-0.146
-639.653	384.444	0.011	-0.022
-638.638	-200.000	0.005	-0.137
-637.624	-194.685	-0.144	-0.001
-636.609	-67.823	-0.516	-0.203
-635.595	-95.976	0.126	-0.034
-634.580	-47.132	0.150	-0.074
-633.565	-96.269	-0.255	-0.068
-632.551	696.576	0.156	0.410
-631.536	563.002	-0.113	-0.274
-630.522	135.861	-0.261	-0.341
-629.507	-200.000	0.002	-0.258
-628.492	383.954	0.116	-0.240
-627.478	16.353	-0.275	0.218
-626.463	393.044	0.140	-0.293
-625.449	-200.000	0.037	-0.242
-624.434	-180.528	0.191	0.004
-623.419	-138.833	-0.073	-0.008
-622.405	-163.614	-0.281	0.013
-621.390	-200.000	0.025	-0.191
-620.376	412.376	0.202	0.430
-619.361	22.904	-0.274	-0.226
-618.346	-23.837	-0.196	-0.118
-617.332	-200.000	0.006	0.340
-616.317	-200.000	0.024	-0.186
-615.303	80.030	0.029	-0.031
-614.288	-120.502	0.106	-0.018
-613.273	800.000	-0.125	-0.357
-612.259	-19.743	-0.250	-0.155
-611.244	-200.000	-0.006	0.201
-610.230	90.654	0.082	-0.092
-609.215	800.000	-0.108	-0.332
-608.201	-112.644	0.111	0.022
-607.186	-200.000	0.000	0.386
-606.171	484.664	-0.252	0.575
-605.157	74.059	0.233	0.246
-604.142	167.947	-0.158	0.225
-603.128	-3.479	0.146	-0.102
-602.113	-67.363	0.318	-0.126
-601.098	118.719	0.170	-0.211
-600.084	56.539	0.028	0.027
-599.069	612.461	-0.056	0.141
-598.055	-200.000	-0.069	0.307
-597.040	444.120	-0.024	0.052
-596.025	-200.000	-0.030	0.391
-595.011	-112.291	-0.333	0.067
-593.996	162.179	0.115	-0.161
-592.982	152.958	-0.062	0.085
-591.967	460.671	-0.029	0.064
-590.952	800.000	0.046	-0.155
-589.938	566.817	-0.074	-0.179
-588.923	-71.578	-0.186	0.070
-587.909	58.050	-0.116	0.114
-586.894	799.198	-0.060	-0.167
-585.879	-39.518	0.237	-0.125
-584.865	165.339	-0.057	0.081
-583.850	629.844	-0.100	0.254
-582.836	-65.713	-0.282	-0.113
-581.821	800.000	0.053	0.215
-580.806	-130.115	-0.146	-0.020
-579.792	-23.332	0.112	0.068
-578.777	539.102	-0.085	0.204
-577.763	800.000	0.013	-0.039
-576.748	157.683	0.186	-0.258
-575.733	-200.000	0.022	0.168
-574.719	-43.590	-0.080	0.041
-573.704	-14.593	-0.265	0.171
-572.690	18.468	0.044	-0.035
-571.675	800.000	-0.041	-0.137
-570.661	59.045	0.103	0.102
-569.646	800.000	0.065	-0.216
-568.631	698.831	-0.112	0.294
-567.617	-200.000	-0.251	-0.001
-566.602	-1.580	-0.077	0.055
-565.588	-200.000	-0.050	0.233
-564.573	-114.300	-0.223	0.043
-563.558	257.361	-0.155	0.267
-562.544	7.316	0.126	0.094
-561.529	800.000	0.098	-0.277
-560.515	89.443	0.227	-0.253
-559.500	800.000	0.075	0.256
-558.485	-70.562	-0.198	-0.075
-557.471	-74.157	0.195	-0.071
-556.456	141.298	0.222	0.295
-555.442	115.618	0.109	-0.134
-554.427	22.026	0.237	0.193
-553.412	-73.009	0.228	0.084
-552.398	-40.452	-0.081	0.042
-551.383	50.620	-0.062	0.059
-550.369	33.644	-0.150	0.131
-549.354	85.842	-0.244	0.269
-548.339	-153.255	-0.214	-0.015
-547.325	194.774	-0.235	-0.357
-546.310	800.000	0.023	-0.073
-545.296	253.420	0.076	-0.129
-544.281	800.000	0.043	-0.131
-543.266	210.800	0.070	-0.111
-542.252	513.242	-0.151	-0.352
-541.237	-172.341	-0.389	0.012
-540.223	7.426	-0.031	0.023
-539.208	157.994	0.090	0.125
-538.193	-139.020	0.231	-0.025
-537.179	-78.583	-0.125	-0.043
-536.164	112.200	-0.297	0.360
-535.150	259.011	-0.015	0.025
-534.135	113.517	-0.015	-0.018
-533.121	-139.328	-0.112	-0.012
-532.106	-48.006	0.036	-0.018
-531.091	153.824	-0.226	0.309
-530.077	47.195	0.098	-0.092
-529.062	194.953	0.056	-0.086
-528.048	256.385	0.015	-0.026
-527.033	10.573	-0.043	0.033
-526.018	800.000	-0.030	0.083
-525.004	-43.978	-0.109	-0.055
-523.989	115.369	0.150	-0.183
-522.975	-200.000	-0.020	-0.270
-521.960	-27.367	-0.166	0.097
-520.945	-11.394	0.228	-0.150
-519.931	19.608	-0.249	0.201
-518.916	315.164	0.167	0.315
-517.902	-112.850	-0.257	-0.051
-516.887	405.424	-0.109	-0.231
-515.872	-200.000	0.035	0.153
-514.858	113.659	0.048	-0.058
-513.843	44.946	0.119	0.110
-512.829	76.464	0.066	0.070
-511.814	425.843	0.047	0.101
-510.799	-40.955	-0.254	0.132
-509.785	-116.879	-0.212	-0.039
-508.770	230.129	-0.182	-0.297
-507.756	-70.300	-0.265	0.101
-506.741	800.000	0.058	-0.251
-505.726	94.933	0.077	0.087
-504.712	800.000	-0.130	-0.401
-503.697	152.737	-0.031	0.043
-502.683	30.171	-0.284	-0.242
-501.668	326.370	-0.192	-0.367
-500.653	-47.901	0.120	-0.058
-499.639	-45.803	-0.231	0.114
-498.624	5.352	0.231	0.170
-497.610	-154.947	0.202	-0.013
-496.595	-90.712	0.400	-0.115
-495.581	-57.695	-0.129	0.057
-494.566	-4.506	-0.125	0.086
-493.551	157.350	0.167	0.231
-492.537	-200.000	0.039	-0.198
-491.522	-200.000	-0.036	-0.365
-490.508	-119.421	0.282	0.049
-489.493	-42.112	-0.196	-0.100
-488.478	358.201	-0.028	-0.056
-487.464	421.337	-0.158	-0.338
-486.449	123.326	0.095	-0.119
-485.435	343.633	0.076	-0.149
-484.420	-21.783	-0.078	0.047
-483.405	251.322	-0.121	-0.205
-482.391	-200.000	-0.009	0.127
-481.376	53.811	0.090	0.087
-480.362	-57.694	0.142	0.062
-479.347	241.915	-0.011	0.019
-478.332	416.548	-0.036	-0.077
-477.318	-200.000	-0.008	-0.103
-476.303	84.580	0.260	-0.284
-475.289	-200.000	-0.032	0.206
-474.274	544.964	-0.046	-0.110
-473.259	-16.336	-0.186	-0.118
-472.245	146.551	-0.075	-0.101
-471.230	800.000	0.040	0.133
-470.216	-136.139	0.395	-0.046
-469.201	-115.212	0.316	-0.060
-468.186	672.933	-0.143	-0.370
-467.172	-61.565	0.197	-0.083
-466.157	-128.085	-0.253	0.036
-465.143	239.895	-0.098	-0.163
-464.128	-200.000	0.030	0.310
-463.113	287.302	-0.150	0.271
-462.099	800.000	-0.044	-0.156
-461.084	-146.853	-0.172	0.015
-460.070	377.587	-0.034	-0.069
-459.055	-29.097	0.211	-0.121
-458.040	-153.104	-0.342	-0.024
-457.026	-200.000	-0.029	-0.314
-456.011	-42.565	-0.393	0.200
-454.997	53.498	0.181	0.173
-453.982	800.000	-0.056	-0.179
-452.968	-200.000	-0.001	0.006
-451.953	-107.755	-0.375	-0.082
-450.938	-72.271	0.277	0.103
-449.924	1.444	0.054	0.039
-448.909	404.451	0.119	0.250
-447.895	-200.000	-0.017	-0.185
-446.880	-123.957	0.193	-0.030
-445.865	-200.000	-0.043	-0.206
-444.851	-143.926	0.350	0.033
-443.836	128.259	0.062	0.078
-442.822	23.070	-0.204	0.167
-441.807	16.213	-0.216	0.170
-440.792	-40.534	0.184	-0.095
-439.778	21.185	-0.261	-0.211
-438.763	800.000	0.039	-0.132
-437.749	133.631	-0.129	-0.166
-436.734	800.000	0.111	0.384
-435.719	-200.000	-0.286	-0.001
-434.705	-200.000	0.033	0.253
-433.690	46.728	-0.258	0.238
-432.676	-87.506	-0.385	0.116
-431.661	-136.410	0.202	0.023
-430.646	800.000	0.015	-0.042
-429.632	101.787	0.110	0.128
-428.617	-66.103	0.146	0.058
-427.603	118.015	0.326	0.400
-426.588	-200.000	0.010	0.143
-425.573	-1.686	0.114	0.080
-424.559	-200.000	0.043	0.255
-423.544	716.247	0.070	0.185
-422.530	-142.408	0.401	-0.039
-421.515	-200.000	0.018	-0.168
-420.500	176.234	-0.132	-0.190
-419.486	24.017	0.253	0.208
-418.471	-200.000	0.008	-0.223
-417.457	50.389	0.086	-0.081
-416.442	-61.186	-0.426	-0.179
-415.428	-200.000	-0.014	-0.233
-414.413	35.381	0.262	-0.228
-413.398	-162.546	-0.219	-0.011
-412.384	11.746	-0.274	0.209
-411.369	325.433	0.076	0.144
-410.355	-83.018	-0.351	-0.113
-409.340	-200.000	0.073	0.337
-408.325	-49.775	-0.260	-0.123
-407.311	-200.000	-0.014	-0.134
-406.296	-60.124	-0.252	0.107
-405.282	161.491	0.208	-0.290
-404.267	567.563	-0.065	-0.156
-403.252	775.694	0.047	0.127
-402.238	-98.852	-0.208	-0.053
-401.223	22.583	0.221	0.180
-400.209	-108.224	0.145	0.031
-399.194	800.000	0.009	0.029
-398.179	-37.692	-0.232	-0.123
-397.165	-200.000	0.018	0.167
-396.150	-161.712	-0.160	-0.008
-395.136	-141.362	0.171	-0.017
-394.121	-104.845	0.095	-0.022
-393.106	67.128	-0.208	0.211
-392.092	-200.000	-0.032	-0.165
-391.077	-161.921	0.300	0.015
-390.063	-117.028	0.154	0.028
-389.048	-98.912	-0.289	-0.073
-388.033	326.366	0.056	-0.107
-387.019	-35.776	-0.193	-0.104
-386.004	-134.820	0.206	0.025
-384.990	119.184	-0.102	-0.126
-383.975	800.000	-0.079	-0.235
-382.960	-81.655	-0.244	-0.080
-381.946	-178.497	-0.191	-0.004
-380.931	303.340	0.068	0.125
-379.917	22.735	-0.234	0.191
-378.902	-84.665	-0.113	0.035
-377.888	-200.000	-0.014	-0.281
-376.873	-58.265	0.079	-0.034
-375.858	-70.622	-0.282	0.106
-374.844	800.000	0.017	-0.064
-373.829	110.530	0.089	-0.107
-372.815	-200.000	-0.022	0.166
-371.800	-199.902	0.308	0.002
-370.785	45.845	0.143	0.131
-369.771	636.064	-0.070	0.177
-368.756	-26.424	0.209	0.122
-367.742	66.280	0.079	0.079
-366.727	-114.870	-0.198	0.038
-365.712	800.000	0.054	0.176
-364.698	258.752	0.085	-0.146
-363.683	-154.912	-0.040	-0.003
-362.669	40.337	0.103	0.092
-361.654	-200.000	0.051	-0.248
-360.639	32.508	-0.180	-0.155
-359.625	88.107	0.270	0.297
-358.610	-200.000	0.033	-0.433
-357.596	184.780	-0.037	0.054
-356.581	155.310	0.107	0.146
-355.566	562.880	0.116	-0.279
-354.552	30.424	0.138	-0.117
-353.537	-157.556	-0.074	-0.004
-352.523	-105.388	-0.392	0.089
-351.508	-104.217	0.250	0.058
-350.493	230.833	-0.108	0.175
-349.479	-113.299	0.137	-0.027
-348.464	-200.000	-0.028	0.202
-347.450	46.713	-0.126	-0.117
-346.435	12.450	0.264	-0.202
-345.420	217.228	0.188	0.297
-344.406	-81.057	0.267	0.088
-343.391	-200.000	0.011	-0.090
-342.377	30.930	0.419	-0.357
-341.362	-87.888	-0.294	0.088
-340.348	800.000	-0.095	0.342
-339.333	-200.000	0.025	-0.299
-338.318	-200.000	-0.009	0.221
-337.304	37.895	-0.145	-0.128
-336.289	-116.994	-0.121	-0.022
-335.275	-2.230	-0.163	-0.114
-334.260	-134.038	0.308	0.038
-333.245	-51.561	0.183	0.085
-332.231	238.645	-0.117	0.193
-331.216	-200.000	0.018	0.303
-330.202	-200.000	-0.021	0.124
-329.187	65.842	0.033	-0.033
-328.172	-123.209	0.445	-0.071
-327.158	-82.533	0.344	-0.111
-326.143	283.378	-0.234	0.416
-325.129	-200.000	0.051	-0.315
-324.114	-200.000	-0.024	0.111
-323.099	107.242	-0.120	0.141
-322.085	10.550	0.047	0.036
-321.070	800.000	-0.112	0.419
-320.056	-42.842	-0.084	0.042
-319.041	56.854	0.194	0.188
-318.026	-136.418	0.193	0.022
-317.012	119.289	-0.074	0.091
-315.997	297.805	0.061	-0.112
-314.983	-200.000	0.000	-0.110
-313.968	-72.778	0.101	-0.037
-312.953	-200.000	0.039	-0.354
-311.939	-200.000	-0.010	-0.085
-310.924	219.192	0.271	-0.430
-309.910	-31.849	-0.492	-0.274
-308.895	-31.035	-0.119	0.067
-307.880	-200.000	0.002	0.496
-306.866	-60.449	0.219	-0.092
-305.851	441.377	-0.058	-0.125
-304.837	-200.000	0.043	-0.194
-303.822	213.620	-0.100	-0.156
-302.807	163.240	-0.269	0.375
-301.793	-54.425	0.298	0.134
-300.778	-200.000	-0.053	-0.251
-299.764	432.472	0.067	0.145
-298.749	501.578	0.080	-0.182
-297.735	692.773	0.066	-0.171
-296.720	-178.405	0.311	0.007
-295.705	298.022	0.057	-0.103
-294.691	622.933	0.138	-0.345
-293.676	800.000	0.017	-0.047
-292.662	-37.423	-0.115	0.061
-291.647	409.555	-0.019	-0.040
-290.632	-200.000	0.028	0.155
-289.618	-39.844	0.053	-0.027
-288.603	-125.909	-0.227	-0.034
-287.589	800.000	-0.062	-0.264
-286.574	-181.270	-0.141	-0.003
-285.559	-141.986	-0.267	0.026
-284.545	-129.774	-0.195	0.027
-283.530	-23.493	-0.171	0.102
-282.516	113.895	-0.001	-0.002
-281.501	87.989	0.212	0.232
-280.486	-200.000	-0.030	-0.326
-279.472	5.745	-0.086	0.063
-278.457	104.141	0.102	0.119
-277.443	-78.679	-0.181	0.061
-276.428	-149.524	0.211	0.017
-275.413	-133.151	0.158	0.020
-274.399	-155.468	-0.062	-0.004
-273.384	-200.000	-0.014	0.271
-272.370	-200.000	-0.001	-0.061
-271.355	-127.838	-0.140	-0.020
-270.340	23.418	0.382	0.311
-269.326	-32.707	-0.204	0.112
-268.311	-11.206	0.342	-0.223
-267.297	-86.890	0.066	0.020
-266.282	-121.632	0.069	0.011
-265.267	92.646	0.071	0.080
-264.253	1.013	0.228	0.162
-263.238	-44.837	-0.132	0.065
-262.224	428.592	0.107	-0.229
-261.209	800.000	0.023	0.079
-260.195	800.000	0.040	-0.155
-259.180	-190.863	0.109	0.001
-258.165	479.160	0.079	0.177
-257.151	800.000	0.057	-0.232
-256.136	11.532	-0.319	0.242
-255.122	-135.010	0.240	-0.029
-254.107	395.343	-0.077	-0.160
-253.092	800.000	-0.054	-0.207
-252.078	215.801	0.092	0.145
-251.063	255.520	0.146	-0.247
-250.049	799.021	0.057	0.155
-249.034	-200.000	-0.060	0.271
-248.019	151.752	-0.057	-0.077
-247.005	-159.879	0.302	-0.016
-245.990	119.789	0.138	0.169
-244.976	172.525	0.232	-0.330
-243.961	-145.618	0.085	-0.008
-242.946	-64.309	-0.163	0.066
-241.932	-124.959	0.169	0.026
-240.917	239.347	0.026	-0.044
-239.903	-78.009	0.131	0.045
-238.888	123.393	-0.088	0.109
-237.873	-93.480	0.169	0.046
-236.859	-200.000	0.026	-0.176
-235.844	-135.894	-0.155	0.018
-234.830	800.000	0.104	0.337
-233.815	55.839	-0.181	0.173
-232.800	-153.139	0.363	-0.025
-231.786	705.421	0.037	-0.097
-230.771	-153.843	0.113	0.008
-229.757	261.228	0.034	0.058
-228.742	800.000	-0.061	0.186
-227.727	293.578	-0.126	-0.227
-226.713	800.000	0.076	0.221
-225.698	-200.000	-0.008	-0.192
-224.684	-200.000	-0.009	-0.194
-223.669	460.973	0.114	0.251
-222.655	-200.000	-0.004	0.270
-221.640	-64.853	-0.157	0.063
-220.625	-7.458	0.164	-0.109
-219.611	800.000	0.048	-0.139
-218.596	38.184	-0.185	-0.163
-217.582	109.778	-0.221	0.261
-216.567	-155.671	0.418	0.027
-215.552	-104.071	-0.102	-0.024
-214.538	90.599	-0.097	-0.107
-213.523	25.211	0.074	0.061
-212.509	800.000	0.073	-0.220
-211.494	800.000	-0.124	-0.401
-210.479	-43.509	-0.241	-0.120
-209.465	25.180	0.097	0.080
-208.450	294.365	-0.150	-0.271
-207.436	76.115	0.206	0.216
-206.421	-151.884	0.192	0.014
-205.406	-200.000	0.020	-0.125
-204.392	415.597	-0.033	0.069
-203.377	383.766	0.097	0.198
-202.363	-77.054	0.162	0.056
-201.348	-200.000	-0.028	0.237
-200.333	800.000	-0.059	-0.188
-199.319	61.500	-0.211	0.207
-198.304	-200.000	-0.057	0.298
-197.290	196.903	0.135	0.203
-196.275	36.156	0.308	0.268
-195.260	-183.748	-0.386	-0.006
-194.246	-63.449	-0.343	0.139
-193.231	-110.526	0.190	0.039
-192.217	-119.890	0.047	-0.008
-191.202	-105.821	-0.089	0.020
-190.187	-3.180	0.371	-0.255
-189.173	-34.951	0.160	-0.086
-188.158	56.034	-0.068	-0.065
-187.144	-66.964	0.089	0.035
-186.129	439.832	0.075	-0.162
-185.114	-200.000	-0.026	-0.248
-184.100	-200.000	0.036	-0.415
-183.085	-87.452	0.271	-0.081
-182.071	-200.000	-0.021	0.335
-181.056	-145.323	0.282	0.025
-180.042	-122.505	-0.186	0.030
-179.027	-200.000	0.021	0.293
-178.012	80.850	0.141	-0.150
-176.998	-200.000	0.045	0.432
-175.983	-115.236	-0.160	-0.030
-174.969	-76.266	0.334	0.116
-173.954	-88.002	-0.208	0.062
-172.939	-94.363	-0.230	0.062
-171.925	-200.000	-0.039	0.175
-170.910	45.489	-0.040	-0.036
-169.896	65.100	-0.192	-0.191
-168.881	390.243	-0.042	0.087
-167.866	-200.000	-0.023	0.120
-166.852	-149.743	-0.158	-0.012
-165.837	26.767	-0.221	0.183
-164.823	-121.479	0.239	-0.039
-163.808	-52.587	0.458	-0.209
-162.793	-62.120	-0.224	0.092
-161.779	-200.000	0.037	0.372
-160.764	-200.000	-0.038	0.234
-159.750	-3.918	-0.537	-0.367
-158.735	-112.365	0.373	-0.074
-157.720	-200.000	0.012	-0.255
-156.706	176.877	0.073	-0.104
-155.691	189.249	0.207	0.306
-154.677	10.185	0.173	-0.130
-153.662	800.000	-0.055	0.166
-152.647	5.970	0.511	0.373
-151.633	-149.547	0.337	0.026
-150.618	-158.381	-0.224	0.013
-149.604	-200.000	0.014	-0.080
-148.589	800.000	-0.037	0.121
-147.574	181.869	0.093	0.135
-146.560	-184.229	-0.152	-0.002
-145.545	-200.000	0.039	-0.248
-144.531	-108.410	0.210	0.045
-143.516	139.938	-0.068	-0.089
-142.502	-47.774	-0.331	-0.158
-141.487	-51.264	-0.112	0.052
-140.472	-56.212	-0.130	-0.057
-139.458	77.375	0.124	-0.130
-138.443	-200.000	0.067	0.449
-137.429	-200.000	0.011	0.103
-136.414	399.148	-0.087	0.179
-135.399	-135.918	-0.030	0.004
-134.385	238.727	0.122	0.200
-133.370	-200.000	-0.034	-0.237
-132.356	800.000	-0.053	-0.201
-131.341	800.000	0.026	-0.092
-130.326	73.538	-0.236	0.243
-129.312	-146.112	0.379	0.033
-128.297	-49.100	-0.222	-0.104
-127.283	70.775	-0.038	0.038
-126.268	-22.544	-0.140	-0.084
-125.253	39.844	0.152	-0.134
-124.239	-19.644	-0.228	0.139
-123.224	-200.000	-0.074	-0.376
-122.210	11.934	0.125	0.095
