DTS Sentinel unit serial number:	SN413079Multiplexer serial number:	ORYXHardware model number:	OX4-SRSoftware version number:	ORYX F/W v4.00 Oryx Data Collector v3.7.2.0data status	okinstallation	princeton_trtdifferential loss correction	single-endedforward channel	channel 1reverse channel	N/Adate	2019/09/16time	16:50:35forward acquisition time	60.00reverse acquisition time	0.00gamma	496.2192k internal	0.2296k external	0.2296temperature offset calibration	0.9959default loss term (dB/km)	0.3790temperature slope calibration	1.0000multiplexer offset coefficient	1.0000multiplexer slope coefficient	1.0000fibre end	0.00T internal ref (°C)	39.56T ext. ref 1 (°C)	15.22T ext. ref 2 (°C)	33.81length (m)	temperature (°C)	Stokes	anti-Stokes-747.200	-115.202	-0.418	0.081
-746.185	238.282	-0.087	-0.147
-745.171	33.866	-0.211	0.188
-744.156	-52.465	0.165	-0.078
-743.142	-200.000	-0.004	0.034
-742.127	288.488	0.164	0.303
-741.112	-200.000	0.020	0.340
-740.098	702.258	-0.120	-0.323
-739.083	800.000	-0.064	-0.247
-738.069	122.883	0.193	0.247
-737.054	-16.093	-0.067	0.043
-736.039	800.000	0.074	0.276
-735.025	-200.000	0.016	-0.141
-734.010	-120.486	-0.226	-0.039
-732.996	-102.903	0.203	0.049
-731.981	-147.838	-0.267	-0.023
-730.966	-18.467	-0.249	-0.159
-729.952	800.000	0.052	0.162
-728.937	-74.306	0.286	0.106
-727.923	146.866	-0.186	-0.255
-726.908	-99.822	-0.556	-0.142
-725.894	92.538	-0.100	-0.116
-724.879	-200.000	-0.003	-0.200
-723.864	-136.774	0.221	-0.026
-722.850	-200.000	0.023	-0.176
-721.835	-37.502	-0.251	-0.137
-720.821	-200.000	0.023	0.136
-719.806	-160.860	-0.239	0.013
-718.791	-171.678	-0.184	0.006
-717.777	-17.809	0.184	-0.118
-716.762	401.078	-0.129	0.276
-715.748	31.748	0.129	0.113
-714.733	235.991	-0.078	-0.131
-713.718	-69.474	0.203	0.079
-712.704	97.787	-0.244	-0.286
-711.689	-200.000	0.037	-0.245
-710.675	119.294	0.084	-0.107
-709.660	-162.871	0.283	0.014
-708.645	-90.022	0.307	-0.091
-707.631	508.137	0.064	0.152
-706.616	-18.790	-0.118	0.075
-705.602	-52.648	-0.302	0.142
-704.587	-27.837	0.188	-0.111
-703.572	-31.608	0.287	0.164
-702.558	138.616	-0.184	-0.247
-701.543	800.000	0.119	-0.381
-700.529	185.061	0.217	-0.328
-699.514	64.598	-0.110	0.113
-698.499	-26.022	0.312	0.187
-697.485	-70.171	-0.125	-0.048
-696.470	-124.223	0.092	0.015
-695.456	225.869	0.162	-0.268
-694.441	800.000	-0.031	0.123
-693.426	-91.481	0.314	-0.091
-692.412	800.000	-0.066	-0.215
-691.397	800.000	0.049	0.204
-690.383	-200.000	0.013	0.137
-689.368	434.374	-0.025	-0.055
-688.354	-37.509	-0.441	-0.240
-687.339	416.125	0.157	-0.341
-686.324	-28.683	-0.308	0.181
-685.310	-200.000	-0.060	-0.429
-684.295	315.820	0.078	0.150
-683.281	800.000	0.033	-0.098
-682.266	-54.589	0.158	0.073
-681.251	-112.003	-0.197	-0.040
-680.237	178.604	-0.151	-0.225
-679.222	-75.833	-0.100	-0.036
-678.208	800.000	0.084	-0.288
-677.193	800.000	0.109	-0.316
-676.178	233.245	0.103	-0.173
-675.164	800.000	-0.116	0.499
-674.149	-24.014	-0.233	-0.142
-673.135	800.000	0.008	0.034
-672.120	207.291	0.130	-0.206
-671.105	800.000	0.097	0.327
-670.091	-200.000	0.020	-0.212
-669.076	-193.572	-0.157	-0.001
-668.062	800.000	-0.030	-0.102
-667.047	-200.000	-0.034	-0.261
-666.032	-76.690	0.294	-0.105
-665.018	-40.791	0.230	0.121
-664.003	53.764	0.077	0.075
-662.989	-70.388	-0.224	0.087
-661.974	-153.313	-0.226	-0.016
-660.959	0.895	0.138	-0.101
-659.945	-200.000	-0.005	0.134
-658.930	-72.283	-0.267	0.101
-657.916	-200.000	-0.090	0.451
-656.901	405.794	-0.164	0.351
-655.886	-176.942	-0.430	-0.011
-654.872	800.000	-0.088	-0.282
-653.857	800.000	-0.053	0.158
-652.843	-43.337	0.269	0.139
-651.828	779.255	-0.078	-0.218
-650.814	51.798	-0.132	0.128
-649.799	-53.036	-0.153	0.072
-648.784	-58.460	-0.136	0.060
-647.770	32.904	-0.215	-0.190
-646.755	-107.840	-0.108	-0.024
-645.741	800.000	-0.077	-0.256
-644.726	800.000	0.017	-0.059
-643.711	-200.000	-0.006	0.243
-642.697	-200.000	0.002	-0.441
-641.682	49.732	0.194	-0.186
-640.668	-200.000	-0.049	-0.375
-639.653	-106.523	0.187	-0.042
-638.638	-200.000	0.026	0.134
-637.624	-118.182	-0.239	0.043
-636.609	-200.000	-0.045	-0.423
-635.595	21.769	0.208	-0.172
-634.580	-200.000	0.007	-0.056
-633.565	75.990	0.061	-0.066
-632.551	235.022	0.153	-0.256
-631.536	-94.841	-0.088	-0.024
-630.522	282.123	-0.252	-0.459
-629.507	594.172	-0.099	-0.249
-628.492	252.022	-0.102	0.177
-627.478	-23.051	0.199	-0.122
-626.463	420.976	-0.047	0.101
-625.449	364.688	0.053	0.109
-624.434	-200.000	0.010	-0.393
-623.419	263.724	-0.118	-0.208
-622.405	284.030	-0.095	-0.174
-621.390	800.000	-0.041	-0.125
-620.376	-200.000	-0.001	0.238
-619.361	172.093	0.087	-0.127
-618.346	63.097	0.163	0.166
-617.332	-46.740	-0.224	0.111
-616.317	89.484	-0.058	0.066
-615.303	108.065	0.224	-0.271
-614.288	35.583	0.299	-0.267
-613.273	-94.870	0.258	-0.071
-612.259	-44.964	-0.215	-0.109
-611.244	445.715	-0.090	-0.200
-610.230	749.504	-0.110	-0.303
-609.215	-136.245	-0.062	0.007
-608.201	-200.000	-0.035	-0.250
-607.186	-200.000	-0.003	-0.496
-606.171	-200.000	0.011	-0.319
-605.157	-133.719	-0.262	0.033
-604.142	-166.590	0.108	0.005
-603.128	-28.580	0.144	-0.084
-602.113	-124.538	0.094	0.015
-601.098	-79.578	0.093	-0.032
-600.084	-5.536	-0.181	0.126
-599.069	800.000	0.028	-0.109
-598.055	-200.000	0.016	0.183
-597.040	159.246	-0.071	0.100
-596.025	-109.916	-0.227	-0.048
-595.011	-200.000	0.029	0.216
-593.996	127.888	-0.121	-0.156
-592.982	743.508	0.120	-0.327
-591.967	252.870	-0.082	0.142
-590.952	117.034	-0.261	0.326
-589.938	-20.220	-0.303	0.189
-588.923	78.518	0.269	0.292
-587.909	38.989	0.143	-0.130
-586.894	129.283	-0.118	0.153
-585.879	203.958	0.044	0.069
-584.865	491.896	-0.091	-0.211
-583.850	213.454	0.120	-0.192
-582.836	402.016	0.081	0.173
-581.821	220.142	-0.147	0.238
-580.806	60.697	-0.316	-0.318
-579.792	87.232	-0.069	-0.077
-578.777	29.392	0.216	0.187
-577.763	-85.004	0.254	-0.081
-576.748	-200.000	0.042	0.290
-575.733	-21.153	0.213	0.132
-574.719	158.081	0.052	0.074
-573.704	-200.000	-0.045	-0.230
-572.690	-200.000	0.020	0.135
-571.675	481.871	-0.118	-0.273
-570.661	13.920	0.084	-0.067
-569.646	387.321	0.180	-0.377
-568.631	-200.000	0.007	-0.036
-567.617	-140.085	0.262	-0.028
-566.602	-200.000	-0.072	0.351
-565.588	-19.030	-0.066	0.042
-564.573	61.320	-0.217	-0.219
-563.558	-107.734	-0.051	-0.011
-562.544	800.000	0.046	-0.181
-561.529	92.777	-0.085	-0.098
-560.515	-79.043	-0.266	-0.092
-559.500	491.047	-0.091	0.211
-558.485	73.323	-0.100	-0.106
-557.471	71.543	0.247	-0.260
-556.456	-42.738	0.135	-0.070
-555.442	-137.982	0.059	0.007
-554.427	190.019	-0.133	0.203
-553.412	-83.449	-0.426	-0.138
-552.398	73.148	-0.276	-0.293
-551.383	65.355	-0.234	-0.240
-550.369	-200.000	-0.042	0.377
-549.354	-200.000	-0.043	-0.222
-548.339	5.003	-0.366	-0.273
-547.325	730.337	0.067	0.181
-546.310	-200.000	-0.037	0.000
-545.296	-66.592	-0.261	-0.105
-544.281	-16.122	0.302	0.194
-543.266	-28.015	0.306	0.180
-542.252	-29.416	0.072	0.042
-541.237	-124.844	-0.275	0.043
-540.223	800.000	-0.046	0.168
-539.208	-35.698	0.069	-0.038
-538.193	-100.528	-0.368	0.092
-537.179	389.532	0.104	-0.219
-536.164	33.682	0.183	0.161
-535.150	-68.102	-0.120	-0.047
-534.135	-200.000	0.267	-0.001
-533.121	9.839	-0.236	0.181
-532.106	-200.000	-0.012	0.170
-531.091	800.000	0.042	0.132
-530.077	105.899	-0.051	-0.061
-529.062	-200.000	-0.006	0.139
-528.048	612.846	-0.090	-0.228
-527.033	-200.000	-0.018	-0.148
-526.018	231.197	0.060	0.100
-525.004	-36.535	-0.056	-0.030
-523.989	502.022	0.070	-0.164
-522.975	29.821	-0.050	-0.043
-521.960	-54.951	0.126	0.058
-520.945	800.000	-0.069	-0.225
-519.931	460.274	-0.262	0.590
-518.916	-200.000	0.030	0.186
-517.902	294.560	-0.102	-0.188
-516.887	-47.558	-0.056	0.028
-515.872	-95.276	0.347	-0.095
-514.858	-200.000	-0.019	0.464
-513.843	62.131	-0.171	0.173
-512.829	800.000	-0.023	-0.087
-511.814	800.000	0.034	0.113
-510.799	-200.000	0.040	0.329
-509.785	-106.757	-0.184	-0.041
-508.770	23.335	0.314	0.261
-507.756	166.652	0.265	0.380
-506.741	218.220	-0.062	0.100
-505.726	-175.664	0.317	-0.009
-504.712	-113.760	-0.105	0.021
-503.697	-8.529	0.175	-0.119
-502.683	-200.000	0.036	-0.190
-501.668	-173.368	0.230	0.007
-500.653	-169.735	0.273	-0.010
-499.639	-200.000	-0.040	-0.232
-498.624	81.423	0.176	-0.193
-497.610	-158.840	-0.325	-0.019
-496.595	-200.000	-0.009	0.260
-495.581	187.447	0.199	-0.300
-494.566	800.000	-0.048	0.167
-493.551	273.681	0.007	-0.012
-492.537	-154.905	-0.048	0.003
-491.522	189.236	-0.132	0.200
-490.508	-200.000	-0.009	0.059
-489.493	-22.887	-0.242	0.147
-488.478	448.326	0.175	-0.389
-487.464	57.567	-0.113	-0.112
-486.449	-200.000	-0.022	0.389
-485.435	-53.999	0.112	0.052
-484.420	-200.000	0.022	0.216
-483.405	53.655	-0.368	0.357
-482.391	-200.000	0.027	0.161
-481.376	-81.119	-0.045	-0.015
-480.362	-101.445	0.354	0.087
-479.347	82.554	0.270	0.297
-478.332	-200.000	-0.069	0.431
-477.318	354.849	0.026	0.052
-476.303	-200.000	-0.002	0.140
-475.289	-116.653	-0.140	-0.026
-474.274	-142.918	-0.185	-0.018
-473.259	-77.645	0.267	-0.094
-472.245	-200.000	0.024	-0.130
-471.230	-2.414	-0.283	-0.201
-470.216	-25.282	0.343	-0.205
-469.201	-4.781	0.252	0.176
-468.186	-112.040	-0.282	-0.057
-467.172	-200.000	0.093	-0.432
-466.157	-108.302	-0.323	-0.071
-465.143	515.089	0.058	-0.136
-464.128	4.329	0.116	0.086
-463.113	408.205	0.102	0.218
-462.099	800.000	0.059	0.175
-461.084	-64.165	0.263	-0.108
-460.070	125.251	-0.070	0.090
-459.055	52.442	-0.191	-0.184
-458.040	-81.811	-0.207	-0.068
-457.026	-200.000	-0.000	-0.381
-456.011	-200.000	0.010	-0.301
-454.997	338.949	0.084	0.166
-453.982	-25.161	-0.140	0.084
-452.968	-173.901	-0.371	0.011
-451.953	-118.053	-0.128	0.023
-450.938	-47.158	-0.067	0.033
-449.924	-92.804	0.184	0.052
-448.909	224.389	0.095	-0.154
-447.895	-115.346	-0.299	0.057
-446.880	-116.092	-0.215	0.040
-445.865	-76.225	0.246	-0.088
-444.851	25.028	-0.024	0.020
-443.836	-2.822	-0.248	0.175
-442.822	-200.000	0.019	0.206
-441.807	95.948	0.106	0.122
-440.792	-191.705	0.247	0.002
-439.778	800.000	0.030	0.107
-438.763	-200.000	-0.023	0.250
-437.749	-76.264	0.368	-0.131
-436.734	-72.488	0.346	-0.129
-435.719	-32.257	-0.177	-0.100
-434.705	-24.381	-0.124	-0.075
-433.690	-159.645	-0.175	0.010
-432.676	-33.896	0.522	-0.290
-431.661	34.351	0.154	0.136
-430.646	800.000	0.055	-0.190
-429.632	-107.625	0.066	-0.015
-428.617	-28.814	0.247	-0.143
-427.603	-200.000	-0.000	-0.081
-426.588	-107.187	0.364	-0.081
-425.573	777.432	0.065	-0.180
-424.559	58.987	-0.192	-0.190
-423.544	-88.106	-0.169	-0.051
-422.530	800.000	-0.082	-0.289
-421.515	418.520	-0.115	-0.248
-420.500	289.269	0.140	-0.255
-419.486	426.306	-0.091	-0.198
-418.471	-73.153	-0.167	0.062
-417.457	127.761	0.149	-0.191
-416.442	-137.720	-0.426	-0.048
-415.428	228.653	0.020	0.032
-414.413	-75.682	0.281	-0.101
-413.398	-22.645	0.164	0.100
-412.384	273.228	0.035	0.062
-411.369	3.642	0.181	0.133
-410.355	253.479	-0.089	-0.153
-409.340	-200.000	-0.023	-0.187
-408.325	610.587	-0.117	0.295
-407.311	22.679	0.181	-0.150
-406.296	-191.162	-0.095	0.001
-405.282	99.750	-0.080	0.093
-404.267	-140.634	0.357	0.037
-403.252	-92.767	-0.233	0.066
-402.238	800.000	0.061	0.173
-401.223	7.866	-0.486	-0.368
-400.209	-200.000	-0.024	0.272
-399.194	44.688	-0.024	0.022
-398.179	266.237	-0.072	0.127
-397.165	-131.312	0.327	0.044
-396.150	-125.831	-0.092	0.014
-395.136	14.453	0.149	-0.117
-394.121	-13.585	-0.165	0.108
-393.106	161.422	-0.096	0.136
-392.092	-110.717	-0.136	0.028
-391.077	-200.000	0.035	0.281
-390.063	79.719	0.305	0.330
-389.048	117.291	-0.086	-0.106
-388.033	-200.000	-0.025	0.303
-387.019	-100.837	0.199	-0.049
-386.004	0.438	-0.135	-0.097
-384.990	219.849	0.090	-0.146
-383.975	-21.467	-0.184	-0.113
-382.960	800.000	-0.037	-0.139
-381.946	-107.975	0.205	0.045
-380.931	-63.030	-0.098	-0.041
-379.917	800.000	-0.166	0.485
-378.902	227.798	0.228	-0.374
-377.888	-200.000	-0.011	-0.068
-376.873	-181.182	0.084	-0.002
-375.858	18.934	0.061	0.049
-374.844	26.750	-0.134	0.113
-373.829	-200.000	-0.053	-0.444
-372.815	283.859	0.189	-0.342
-371.800	-200.000	0.033	-0.410
-370.785	-65.162	-0.339	0.138
-369.771	-68.252	-0.193	-0.075
-368.756	-195.886	0.098	0.001
-367.742	-124.218	-0.252	0.040
-366.727	-121.281	0.194	-0.033
-365.712	-40.302	-0.065	-0.034
-364.698	-78.641	-0.271	0.093
-363.683	-142.970	-0.410	-0.040
-362.669	-200.000	0.033	-0.281
-361.654	-200.000	0.025	0.175
-360.639	-103.371	0.308	-0.073
-359.625	-109.832	-0.165	-0.035
-358.610	219.747	0.272	-0.438
-357.596	13.086	-0.293	-0.228
-356.581	735.752	-0.098	-0.264
-355.566	120.068	-0.225	-0.281
-354.552	-200.000	-0.003	0.196
-353.537	-200.000	0.046	-0.238
-352.523	-200.000	-0.024	0.167
-351.508	-52.630	0.161	0.075
-350.493	226.032	-0.190	-0.310
-349.479	800.000	-0.037	-0.133
-348.464	800.000	0.041	0.177
-347.450	-27.768	-0.265	-0.154
-346.435	350.009	-0.122	-0.242
-345.420	48.849	-0.050	-0.047
-344.406	-111.845	0.100	0.020
-343.391	-0.894	0.115	-0.082
-342.377	71.845	-0.272	0.284
-341.362	300.485	-0.126	-0.234
-340.348	-200.000	-0.075	0.429
-339.333	8.310	0.207	0.157
-338.318	-19.992	-0.113	-0.070
-337.304	382.062	0.100	0.207
-336.289	-151.674	0.257	-0.019
-335.275	544.224	0.054	-0.129
-334.260	125.585	0.054	-0.068
-333.245	-82.284	0.229	0.075
-332.231	24.760	0.266	-0.221
-331.216	283.349	0.142	0.257
-330.202	76.292	-0.163	0.174
-329.187	-106.960	0.073	0.016
-328.172	202.487	0.134	-0.207
-327.158	-64.919	-0.197	-0.080
-326.143	-200.000	0.024	0.224
-325.129	724.905	-0.103	-0.276
-324.114	800.000	0.023	-0.065
-323.099	637.979	0.046	-0.119
-322.085	0.946	0.581	-0.418
-321.070	-168.256	-0.108	-0.004
-320.056	-5.024	-0.249	0.172
-319.041	-53.600	0.234	-0.108
-318.026	78.051	-0.368	0.394
-317.012	-36.139	0.257	0.139
-315.997	169.708	0.099	0.142
-314.983	20.237	-0.029	0.023
-313.968	-200.000	0.002	0.174
-312.953	800.000	0.043	0.133
-311.939	800.000	0.096	0.299
-310.924	-200.000	-0.037	0.238
-309.910	800.000	0.016	0.063
-308.895	-200.000	0.026	0.221
-307.880	663.117	-0.108	0.279
-306.866	52.377	0.148	-0.142
-305.851	-47.379	0.084	-0.041
-304.837	800.000	0.036	-0.118
-303.822	-119.005	-0.342	0.060
-302.807	800.000	-0.061	0.267
-301.793	61.819	0.163	0.163
-300.778	800.000	-0.051	-0.218
-299.764	-200.000	0.016	0.279
-298.749	5.340	-0.177	-0.131
-297.735	800.000	0.060	0.234
-296.720	-77.071	-0.120	0.042
-295.705	90.291	0.156	0.175
-294.691	-200.000	-0.078	0.364
-293.676	800.000	-0.013	-0.044
-292.662	800.000	0.078	0.231
-291.647	-107.868	-0.109	0.024
-290.632	-200.000	-0.009	0.138
-289.618	157.205	-0.073	-0.102
-288.603	-200.000	-0.002	0.153
-287.589	379.009	-0.204	0.420
-286.574	-72.030	0.119	-0.044
-285.559	-63.773	-0.287	-0.118
-284.545	164.811	0.022	0.031
-283.530	74.127	0.090	0.094
-282.516	-200.000	0.031	-0.160
-281.501	-69.053	-0.311	0.120
-280.486	-139.108	-0.090	0.010
-279.472	-62.707	-0.109	0.045
-278.457	104.034	-0.085	0.100
-277.443	32.391	0.074	0.064
-276.428	-37.561	0.025	-0.013
-275.413	-142.919	0.420	-0.041
-274.399	800.000	0.039	-0.140
-273.384	580.230	-0.041	-0.100
-272.370	200.747	-0.171	0.264
-271.355	-17.995	-0.074	-0.047
-270.340	-200.000	-0.007	0.359
-269.326	-200.000	0.047	0.290
-268.311	60.224	0.139	-0.137
-267.297	-95.479	0.222	0.060
-266.282	-200.000	0.006	0.244
-265.267	-22.991	0.247	0.149
-264.253	-200.000	0.016	0.305
-263.238	46.891	0.159	0.148
-262.224	354.993	0.110	-0.220
-261.209	-200.000	0.001	0.159
-260.195	-66.045	-0.009	0.004
-259.180	-130.101	-0.182	0.025
-258.165	-20.241	0.029	-0.018
-257.151	-200.000	0.078	0.557
-256.136	23.998	0.161	0.133
-255.122	790.634	-0.095	0.262
-254.107	-200.000	0.004	-0.198
-253.092	-200.000	-0.025	-0.532
-252.078	-200.000	0.011	0.107
-251.063	58.247	-0.160	0.157
-250.049	-83.042	-0.231	-0.075
-249.034	-200.000	0.006	0.314
-248.019	226.820	0.185	0.302
-247.005	-101.741	0.157	-0.038
-245.990	-200.000	0.053	0.283
-244.976	-73.006	-0.263	-0.097
-243.961	253.049	-0.097	0.166
-242.946	24.098	-0.169	0.140
-241.932	-19.563	0.161	0.100
-240.917	-200.000	0.064	-0.282
-239.903	9.920	-0.311	-0.236
-238.888	95.736	0.099	-0.113
-237.873	341.703	-0.087	0.171
-236.859	-17.702	0.421	0.265
-235.844	202.833	-0.039	0.061
-234.830	104.539	-0.077	-0.091
-233.815	-116.603	-0.141	-0.026
-232.800	-74.168	0.090	0.032
-231.786	121.988	0.136	-0.170
-230.771	-36.915	0.287	-0.154
-229.757	113.133	-0.153	-0.186
-228.742	800.000	-0.058	-0.249
-227.727	356.016	0.108	-0.215
-226.713	-179.684	-0.234	-0.005
-225.698	-75.511	-0.140	0.050
-224.684	-54.999	-0.121	-0.055
-223.669	26.195	0.261	-0.218
-222.655	200.071	-0.145	-0.223
-221.640	-55.799	0.266	0.119
-220.625	8.173	0.229	0.172
-219.611	7.777	0.246	0.185
-218.596	30.403	-0.224	0.192
-217.582	-122.359	-0.145	-0.024
-216.567	-99.758	-0.122	0.031
-215.552	-68.660	0.098	0.038
-214.538	484.564	-0.048	0.110
-213.523	121.612	0.199	0.248
-212.509	232.449	-0.172	-0.282
-211.494	-37.803	-0.270	0.144
-210.479	33.067	0.279	0.242
-209.465	616.804	0.033	0.084
-208.450	-200.000	-0.015	0.152
-207.436	252.882	-0.033	-0.056
-206.421	311.694	0.075	0.140
-205.406	38.378	-0.106	0.094
-204.392	122.922	-0.099	-0.124
-203.377	78.597	-0.167	-0.179
-202.363	360.383	0.078	-0.157
-201.348	-27.733	0.143	-0.083
-200.333	800.000	-0.026	0.101
-199.319	498.212	-0.052	-0.120
-198.304	140.280	0.114	0.150
-197.290	752.784	0.066	0.178
-196.275	33.838	-0.109	0.094
-195.260	111.440	0.092	-0.111
-194.246	-137.746	-0.058	0.006
-193.231	-140.358	0.180	0.019
-192.217	-200.000	-0.010	-0.084
-191.202	-48.836	-0.303	-0.145
-190.187	-95.228	-0.236	0.064
-189.173	123.181	0.212	-0.265
-188.158	800.000	-0.037	0.144
-187.144	-77.976	-0.328	-0.113
-186.129	-28.674	-0.020	0.011
-185.114	-104.159	0.193	0.045
-184.100	-121.285	0.330	0.055
-183.085	51.856	0.051	-0.048
-182.071	-200.000	0.029	0.139
-181.056	-90.770	0.213	0.061
-180.042	150.577	-0.180	0.244
-179.027	800.000	-0.046	-0.176
-178.012	-200.000	-0.005	0.092
-176.998	-200.000	0.021	0.210
-175.983	-57.894	0.156	-0.068
-174.969	-200.000	-0.001	0.080
-173.954	800.000	0.036	0.108
-172.939	800.000	-0.059	0.220
-171.925	-200.000	0.007	-0.199
-170.910	-200.000	-0.034	0.365
-169.896	-23.599	0.082	-0.049
-168.881	93.706	0.363	-0.411
-167.866	800.000	0.063	-0.262
-166.852	-47.558	0.086	-0.042
-165.837	-200.000	-0.046	-0.352
-164.823	608.225	-0.041	0.102
-163.808	147.293	0.170	0.229
-162.793	-70.101	0.065	0.025
-161.779	-175.410	0.333	-0.009
-160.764	-21.519	-0.038	-0.023
-159.750	237.632	0.183	-0.304
-158.735	-88.010	-0.169	-0.051
-157.720	800.000	-0.101	0.281
-156.706	265.129	0.061	0.107
-155.691	-200.000	0.052	0.241
-154.677	-147.775	0.141	0.012
-153.662	-200.000	0.040	-0.219
-152.647	59.512	-0.089	0.088
-151.633	-200.000	-0.020	0.244
-150.618	-200.000	-0.016	0.264
-149.604	-24.668	-0.248	-0.148
-148.589	12.877	0.068	-0.052
-147.574	-200.000	-0.057	0.271
-146.560	-119.914	-0.136	-0.023
-145.545	211.309	0.183	-0.287
-144.531	69.960	-0.088	0.090
-143.516	-54.185	0.276	0.125
-142.502	800.000	-0.048	0.163
-141.487	132.716	0.172	-0.221
-140.472	91.966	-0.130	-0.146
-139.458	-200.000	-0.036	-0.182
-138.443	527.603	0.113	0.267
-137.429	-88.554	0.203	-0.060
-136.414	244.186	-0.214	0.359
-135.399	275.463	0.103	0.182
-134.385	192.443	0.357	-0.538
-133.370	-45.188	0.122	0.060
-132.356	629.713	-0.155	0.390
-131.341	155.128	0.038	0.052
-130.326	191.301	-0.092	0.138
-129.312	448.538	-0.045	0.100
-128.297	22.901	-0.189	0.155
-127.283	34.118	-0.242	-0.210
-126.268	431.742	-0.169	-0.366
-125.253	-200.000	0.041	-0.248
-124.239	507.981	0.028	-0.065
-123.224	-200.000	-0.001	0.239
-122.210	-103.782	0.210	0.049
