DTS Sentinel unit serial number:	SN413079Multiplexer serial number:	ORYXHardware model number:	OX4-SRSoftware version number:	ORYX F/W v4.00 Oryx Data Collector v3.7.2.0data status	okinstallation	princeton_trtdifferential loss correction	single-endedforward channel	channel 1reverse channel	N/Adate	2019/09/14time	01:54:35forward acquisition time	60.00reverse acquisition time	0.00gamma	496.2192k internal	0.2336k external	0.2336temperature offset calibration	1.0077default loss term (dB/km)	0.3790temperature slope calibration	1.0000multiplexer offset coefficient	1.0000multiplexer slope coefficient	1.0000fibre end	0.00T internal ref (°C)	26.45T ext. ref 1 (°C)	3.20T ext. ref 2 (°C)	21.52length (m)	temperature (°C)	Stokes	anti-Stokes-747.200	-59.441	-0.144	-0.062
-746.185	-116.682	0.212	0.039
-745.171	-15.662	0.174	0.112
-744.156	16.897	-0.160	-0.127
-743.142	-200.000	0.009	0.064
-742.127	-200.000	-0.018	0.160
-741.112	-200.000	-0.005	-0.168
-740.098	-200.000	-0.060	0.486
-739.083	132.284	-0.096	-0.124
-738.069	101.276	-0.155	0.181
-737.054	-86.304	-0.443	0.137
-736.039	-200.000	0.020	-0.367
-735.025	51.413	0.180	0.171
-734.010	-200.000	-0.003	-0.436
-732.996	482.569	-0.073	0.167
-731.981	494.477	-0.158	0.364
-730.966	50.235	0.318	0.302
-729.952	-145.241	-0.200	-0.018
-728.937	-200.000	-0.020	-0.165
-727.923	-200.000	0.041	0.281
-726.908	-200.000	-0.070	-0.310
-725.894	397.283	-0.032	-0.066
-724.879	-56.143	0.135	0.060
-723.864	-136.075	0.176	0.021
-722.850	485.152	0.163	0.373
-721.835	-200.000	-0.029	0.318
-720.821	97.651	-0.255	0.294
-719.806	401.585	-0.139	0.293
-718.791	-60.574	0.251	-0.107
-717.777	-140.839	-0.618	-0.064
-716.762	230.338	0.099	0.163
-715.748	117.424	0.016	-0.020
-714.733	800.000	0.106	-0.293
-713.718	800.000	-0.130	-0.371
-712.704	36.064	-0.312	0.275
-711.689	-75.522	-0.098	-0.035
-710.675	133.320	0.202	0.262
-709.660	-143.623	-0.148	0.014
-708.645	-136.971	-0.444	0.051
-707.631	96.775	-0.028	-0.032
-706.616	-66.389	-0.448	0.178
-705.602	-60.431	0.178	-0.076
-704.587	-81.595	-0.110	0.036
-703.572	-150.023	0.138	0.011
-702.558	9.802	-0.010	-0.008
-701.543	69.708	0.122	-0.126
-700.529	-71.983	0.382	-0.142
-699.514	735.040	-0.024	-0.065
-698.499	2.055	-0.144	-0.104
-697.485	-200.000	0.142	0.000
-696.470	-200.000	0.013	-0.111
-695.456	-73.769	-0.378	-0.138
-694.441	123.994	0.216	-0.272
-693.426	-200.000	-0.065	-0.422
-692.412	302.416	0.219	-0.405
-691.397	117.848	0.171	0.211
-690.383	6.217	-0.164	0.122
-689.368	228.603	0.124	-0.202
-688.354	97.209	-0.053	0.061
-687.339	-148.030	-0.220	-0.018
-686.324	-86.778	0.263	-0.081
-685.310	800.000	-0.095	0.305
-684.295	17.416	0.207	0.165
-683.281	61.024	0.162	0.161
-682.266	-133.199	0.340	0.043
-681.251	551.731	0.089	0.214
-680.237	19.921	-0.299	0.241
-679.222	84.064	-0.046	-0.050
-678.208	163.888	0.130	0.183
-677.193	-15.950	0.233	0.149
-676.178	-123.396	-0.137	0.022
-675.164	114.670	-0.099	0.121
-674.149	-55.305	-0.125	-0.056
-673.135	-133.682	-0.281	0.035
-672.120	429.811	0.182	-0.394
-671.105	-200.000	0.074	0.342
-670.091	-171.357	0.189	-0.006
-669.076	-152.264	-0.025	-0.002
-668.062	-200.000	0.013	-0.367
-667.047	-49.547	0.335	-0.160
-666.032	653.979	-0.081	0.207
-665.018	-200.000	-0.025	0.342
-664.003	48.358	-0.135	-0.126
-662.989	-200.000	0.015	-0.102
-661.974	-200.000	-0.020	-0.427
-660.959	-200.000	-0.009	-0.341
-659.945	-7.594	-0.336	-0.228
-658.930	800.000	0.029	-0.092
-657.916	190.314	0.156	-0.235
-656.901	11.371	0.030	-0.023
-655.886	90.741	-0.025	-0.028
-654.872	96.657	-0.026	-0.030
-653.857	-200.000	-0.046	0.324
-652.843	-93.333	-0.220	-0.061
-651.828	-200.000	0.031	0.257
-650.814	-163.015	0.165	0.008
-649.799	99.092	0.100	-0.116
-648.784	-200.000	-0.100	0.443
-647.770	800.000	0.005	0.015
-646.755	-200.000	-0.056	-0.288
-645.741	-59.714	-0.179	-0.077
-644.726	-54.592	0.190	-0.086
-643.711	9.275	0.168	0.127
-642.697	456.720	-0.051	0.113
-641.682	17.442	0.150	0.119
-640.668	-115.398	-0.449	0.085
-639.653	800.000	0.083	-0.298
-638.638	-56.751	0.110	0.049
-637.624	-9.547	-0.109	0.073
-636.609	154.616	-0.189	-0.259
-635.595	800.000	-0.087	-0.271
-634.580	43.401	0.172	0.158
-633.565	-112.267	0.310	0.062
-632.551	-47.600	-0.290	-0.141
-631.536	-200.000	-0.004	-0.084
-630.522	238.326	0.102	0.170
-629.507	800.000	-0.072	-0.224
-628.492	-93.841	0.251	-0.069
-627.478	-107.010	0.417	-0.092
-626.463	226.439	-0.137	0.222
-625.449	-122.537	0.206	-0.034
-624.434	-170.715	0.163	0.006
-623.419	411.076	0.136	0.288
-622.405	-200.000	-0.018	-0.258
-621.390	105.401	0.063	-0.075
-620.376	-200.000	0.046	-0.285
-619.361	-200.000	0.010	0.104
-618.346	-99.948	-0.178	-0.044
-617.332	2.916	-0.431	0.312
-616.317	-32.501	0.268	0.149
-615.303	130.598	-0.094	0.120
-614.288	-7.782	-0.184	-0.124
-613.273	-84.572	0.279	0.088
-612.259	187.926	0.261	0.390
-611.244	-30.950	-0.145	0.082
-610.230	-200.000	-0.027	0.124
-609.215	-72.024	-0.025	0.009
-608.201	800.000	0.066	0.187
-607.186	122.124	0.123	0.153
-606.171	-200.000	0.020	0.096
-605.157	127.349	0.048	0.061
-604.142	164.794	0.054	0.076
-603.128	90.542	-0.088	-0.098
-602.113	-200.000	-0.004	0.249
-601.098	-98.882	-0.135	0.034
-600.084	150.771	0.145	-0.197
-599.069	599.755	-0.045	0.112
-598.055	-91.576	0.279	0.079
-597.040	556.367	-0.091	0.218
-596.025	258.082	0.104	-0.179
-595.011	-45.717	0.290	0.143
-593.996	86.965	-0.136	-0.150
-592.982	-25.450	0.156	-0.092
-591.967	-75.355	-0.359	0.128
-590.952	293.516	-0.081	-0.147
-589.938	-11.251	-0.120	-0.079
-588.923	-200.000	-0.006	0.065
-587.909	-136.029	0.199	-0.023
-586.894	195.992	-0.242	0.367
-585.879	-138.086	0.125	0.014
-584.865	196.600	0.066	0.100
-583.850	417.856	-0.038	-0.081
-582.836	-64.259	0.171	0.070
-581.821	-200.000	-0.007	-0.192
-580.806	56.653	0.092	-0.089
-579.792	162.665	0.199	0.278
-578.777	-170.210	-0.199	0.007
-577.763	25.393	-0.133	-0.111
-576.748	-61.896	-0.020	0.008
-575.733	453.364	-0.064	0.142
-574.719	253.136	0.137	-0.233
-573.704	113.999	0.303	-0.367
-572.690	-85.250	0.220	0.069
-571.675	340.658	0.049	-0.096
-570.661	-198.326	-0.146	-0.001
-569.646	151.910	-0.044	0.059
-568.631	-162.354	0.295	-0.015
-567.617	-71.808	0.427	0.159
-566.602	68.175	0.170	-0.173
-565.588	20.516	-0.272	0.219
-564.573	-200.000	0.013	-0.114
-563.558	101.277	0.247	-0.286
-562.544	126.390	0.082	-0.104
-561.529	-75.723	-0.170	-0.060
-560.515	-25.581	-0.143	-0.084
-559.500	23.725	0.183	0.150
-558.485	-200.000	-0.102	-0.467
-557.471	-200.000	-0.065	-0.522
-556.456	-200.000	-0.014	-0.200
-555.442	-116.615	0.201	0.037
-554.427	-75.378	-0.224	-0.080
-553.412	800.000	0.029	-0.090
-552.398	-86.406	-0.060	0.018
-551.383	-151.646	-0.156	-0.011
-550.369	416.358	-0.087	0.185
-549.354	-200.000	0.036	-0.376
-548.339	628.102	-0.086	0.216
-547.325	-200.000	0.001	0.036
-546.310	-200.000	0.006	-0.034
-545.296	87.412	-0.130	-0.144
-544.281	800.000	-0.068	0.244
-543.266	-70.808	-0.114	-0.043
-542.252	-200.000	-0.015	0.235
-541.237	800.000	0.070	0.233
-540.223	-51.963	0.198	-0.092
-539.208	100.029	-0.187	-0.216
-538.193	-117.801	0.333	0.060
-537.179	-61.728	-0.204	0.085
-536.164	-200.000	0.058	0.265
-535.150	408.005	0.038	0.080
-534.135	655.303	-0.188	0.481
-533.121	716.067	0.091	-0.240
-532.106	-157.130	0.346	0.021
-531.091	525.148	0.083	0.195
-530.077	800.000	0.094	0.347
-529.062	-72.466	-0.207	-0.076
-528.048	-200.000	0.067	0.337
-527.033	-200.000	0.023	0.109
-526.018	82.088	0.150	-0.162
-525.004	34.110	-0.081	-0.070
-523.989	-200.000	-0.010	-0.219
-522.975	-38.896	0.096	0.050
-521.960	162.883	-0.081	-0.113
-520.945	-200.000	-0.043	0.192
-519.931	83.820	0.122	0.132
-518.916	-19.501	-0.134	0.083
-517.902	800.000	0.096	-0.270
-516.887	350.656	-0.126	0.249
-515.872	-200.000	-0.046	-0.225
-514.858	-4.584	-0.205	0.141
-513.843	392.598	0.071	0.148
-512.829	69.728	0.112	-0.115
-511.814	-200.000	-0.019	0.271
-510.799	-114.261	-0.072	0.014
-509.785	800.000	0.116	0.417
-508.770	9.405	-0.152	-0.115
-507.756	-144.977	-0.436	-0.040
-506.741	800.000	-0.018	0.054
-505.726	-200.000	-0.058	-0.263
-504.712	-50.967	0.354	0.165
-503.697	-200.000	-0.053	-0.235
-502.683	50.442	0.198	0.186
-501.668	85.086	0.072	0.078
-500.653	-68.684	-0.285	0.110
-499.639	-32.232	-0.251	0.139
-498.624	604.195	0.182	0.451
-497.610	-123.982	0.104	0.016
-496.595	-16.929	-0.204	0.128
-495.581	267.620	-0.096	0.167
-494.566	235.679	-0.120	-0.197
-493.551	-75.648	0.108	0.038
-492.537	-67.132	-0.276	-0.108
-491.522	52.070	-0.110	-0.104
-490.508	-46.530	0.172	-0.084
-489.493	28.372	0.268	-0.225
-488.478	-200.000	0.036	-0.352
-487.464	800.000	0.071	-0.299
-486.449	800.000	-0.020	-0.056
-485.435	49.157	0.174	0.163
-484.420	-112.665	0.272	0.054
-483.405	-200.000	0.004	-0.102
-482.391	-27.977	0.202	0.116
-481.376	43.468	-0.215	0.195
-480.362	-123.259	0.110	0.017
-479.347	466.365	0.013	-0.029
-478.332	-39.041	0.501	0.262
-477.318	106.451	0.047	0.055
-476.303	-94.432	-0.283	0.077
-475.289	-45.794	0.196	0.096
-474.274	52.543	0.064	0.061
-473.259	-200.000	-0.019	-0.133
-472.245	-123.208	0.210	0.033
-471.230	70.319	-0.082	0.084
-470.216	359.558	-0.089	0.177
-469.201	181.136	-0.109	0.159
-468.186	-164.504	-0.247	-0.011
-467.172	182.827	0.243	-0.357
-466.157	2.720	0.060	0.043
-465.143	-59.757	-0.294	-0.125
-464.128	51.377	0.049	-0.046
-463.113	-200.000	0.010	-0.209
-462.099	93.552	-0.103	0.116
-461.084	-200.000	-0.024	0.188
-460.070	-200.000	-0.003	0.093
-459.055	-200.000	0.024	-0.141
-458.040	414.299	-0.117	-0.247
-457.026	-200.000	0.051	-0.279
-456.011	365.950	0.097	0.195
-454.997	-200.000	-0.002	0.275
-453.982	-200.000	-0.010	-0.049
-452.968	-152.585	-0.495	-0.035
-451.953	-56.131	-0.141	0.062
-450.938	800.000	0.045	0.173
-449.924	-119.407	-0.247	-0.043
-448.909	-97.643	0.301	0.077
-447.895	283.495	-0.231	-0.412
-446.880	800.000	0.073	-0.242
-445.865	800.000	-0.025	0.089
-444.851	-200.000	0.009	0.089
-443.836	407.951	0.061	-0.128
-442.822	800.000	-0.070	-0.282
-441.807	-37.888	0.179	-0.094
-440.792	-9.081	0.213	-0.141
-439.778	-200.000	0.026	-0.154
-438.763	665.653	-0.011	-0.029
-437.749	24.017	-0.072	0.059
-436.734	314.550	-0.129	-0.240
-435.719	490.059	-0.129	-0.293
-434.705	-200.000	0.010	-0.310
-433.690	-105.685	-0.444	0.100
-432.676	-116.507	-0.304	0.056
-431.661	478.759	0.099	0.222
-430.646	-200.000	-0.058	0.375
-429.632	-109.126	-0.204	0.043
-428.617	-168.444	0.218	-0.008
-427.603	800.000	-0.094	-0.269
-426.588	-58.872	-0.180	-0.077
-425.573	318.118	-0.021	0.040
-424.559	-108.332	0.178	0.038
-423.544	526.619	0.090	-0.211
-422.530	375.188	-0.039	-0.078
-421.515	800.000	-0.056	-0.170
-420.500	16.313	-0.052	0.041
-419.486	-81.773	0.486	0.158
-418.471	-195.971	-0.155	0.001
-417.457	-65.229	0.158	0.063
-416.442	-200.000	0.020	0.111
-415.428	-127.495	-0.095	0.014
-414.413	-45.384	0.124	0.061
-413.398	-39.587	-0.415	0.215
-412.384	126.182	0.025	-0.031
-411.369	-47.579	0.244	0.118
-410.355	20.171	-0.166	0.133
-409.340	-85.807	-0.120	-0.037
-408.325	-72.111	-0.298	-0.110
-407.311	-200.000	0.031	0.298
-406.296	-89.904	-0.119	-0.035
-405.282	-200.000	0.049	0.267
-404.267	43.097	0.061	0.055
-403.252	108.323	-0.204	0.241
-402.238	-200.000	0.088	-0.386
-401.223	800.000	-0.075	-0.305
-400.209	-200.000	0.008	-0.139
-399.194	260.135	0.062	0.107
-398.179	251.409	0.119	-0.200
-397.165	-54.686	0.245	-0.110
-396.150	-200.000	-0.058	0.275
-395.136	157.086	-0.283	0.387
-394.121	422.198	-0.052	-0.111
-393.106	800.000	0.107	-0.458
-392.092	-10.202	-0.159	-0.104
-391.077	-200.000	-0.044	0.277
-390.063	272.430	0.130	0.228
-389.048	10.242	0.214	0.162
-388.033	219.897	-0.121	0.191
-387.019	800.000	-0.064	-0.231
-386.004	-200.000	0.006	-0.399
-384.990	-79.353	-0.295	-0.099
-383.975	438.517	0.031	-0.068
-382.960	161.418	0.126	-0.174
-381.946	-61.881	0.178	-0.074
-380.931	-200.000	0.016	-0.230
-379.917	-16.200	0.077	0.049
-378.902	359.059	-0.103	0.204
-377.888	-2.798	0.283	0.196
-376.873	-200.000	-0.035	-0.205
-375.858	-112.609	-0.446	-0.088
-374.844	-66.451	0.065	0.026
-373.829	-108.856	-0.230	-0.049
-372.815	-48.099	0.171	0.082
-371.800	800.000	-0.135	-0.401
-370.785	-80.568	0.267	0.088
-369.771	-200.000	0.045	0.225
-368.756	168.092	0.050	0.071
-367.742	473.096	-0.079	-0.176
-366.727	89.442	-0.195	-0.216
-365.712	-111.073	0.459	-0.093
-364.698	415.622	-0.051	0.107
-363.683	-52.530	0.104	0.048
-362.669	85.101	0.142	-0.154
-361.654	-200.000	-0.012	-0.184
-360.639	-158.985	-0.089	0.005
-359.625	-167.317	0.174	-0.007
-358.610	14.838	0.165	-0.127
-357.596	275.487	0.064	-0.112
-356.581	134.789	0.208	-0.267
-355.566	9.039	-0.012	-0.009
-354.552	-200.000	0.016	0.113
-353.537	155.255	0.035	0.047
-352.523	87.934	0.078	0.086
-351.508	145.812	-0.093	0.123
-350.493	92.973	0.149	0.167
-349.479	86.128	-0.042	-0.046
-348.464	-137.465	-0.202	0.023
-347.450	-61.607	-0.051	0.021
-346.435	54.566	-0.074	0.071
-345.420	1.003	0.112	0.080
-344.406	179.914	-0.021	-0.030
-343.391	422.799	-0.038	-0.081
-342.377	-130.989	0.248	-0.033
-341.362	129.364	-0.150	-0.189
-340.348	-144.344	0.202	0.019
-339.333	45.621	0.082	0.075
-338.318	-200.000	0.020	-0.312
-337.304	135.171	0.208	0.267
-336.289	-200.000	0.011	-0.576
-335.275	-200.000	-0.001	-0.021
-334.260	-200.000	-0.053	-0.315
-333.245	-19.812	0.501	0.306
-332.231	-200.000	-0.052	-0.276
-331.216	41.113	-0.053	0.047
-330.202	109.741	-0.067	0.080
-329.187	-182.381	0.257	-0.005
-328.172	800.000	-0.092	0.317
-327.158	-200.000	0.061	0.266
-326.143	-43.625	-0.249	-0.124
-325.129	-200.000	0.019	0.118
-324.114	-161.080	-0.057	0.003
-323.099	-195.225	-0.333	-0.002
-322.085	236.885	0.102	0.166
-321.070	-116.635	-0.223	0.040
-320.056	310.613	0.221	0.410
-319.041	73.185	-0.055	-0.057
-318.026	-25.282	0.226	0.132
-317.012	-200.000	0.032	0.209
-315.997	61.245	0.068	-0.066
-314.983	368.107	-0.102	0.204
-313.968	346.191	-0.104	0.202
-312.953	-18.115	0.278	-0.172
-311.939	-200.000	-0.013	-0.277
-310.924	37.522	-0.094	0.082
-309.910	-200.000	-0.015	-0.259
-308.895	44.011	-0.122	-0.110
-307.880	33.906	0.178	-0.153
-306.866	61.965	-0.110	-0.109
-305.851	-200.000	0.027	-0.227
-304.837	37.409	0.195	-0.171
-303.822	-135.801	-0.282	-0.033
-302.807	-200.000	0.011	-0.125
-301.793	-141.532	0.344	0.034
-300.778	800.000	-0.045	-0.150
-299.764	118.292	0.117	-0.143
-298.749	-200.000	-0.006	-0.063
-297.735	-145.497	-0.209	0.019
-296.720	-200.000	0.043	-0.398
-295.705	-126.764	-0.341	0.050
-294.691	-81.178	0.329	-0.107
-293.676	2.164	-0.078	0.056
-292.662	-200.000	-0.021	0.172
-291.647	-200.000	-0.037	0.314
-290.632	669.697	-0.076	-0.195
-289.618	536.709	-0.134	0.314
-288.603	-101.318	0.047	-0.011
-287.589	59.659	0.111	0.108
-286.574	84.880	-0.117	0.126
-285.559	800.000	0.103	-0.295
-284.545	-122.071	-0.195	-0.032
-283.530	-200.000	0.034	0.172
-282.516	-176.361	0.141	0.004
-281.501	-200.000	0.017	0.385
-280.486	-200.000	0.013	-0.164
-279.472	201.118	-0.137	0.208
-278.457	-200.000	0.043	-0.326
-277.443	194.855	0.020	-0.030
-276.428	-130.071	0.276	0.037
-275.413	130.922	0.184	-0.233
-274.399	-200.000	-0.017	0.250
-273.384	198.014	0.192	0.289
-272.370	103.976	-0.230	0.266
-271.355	245.431	-0.091	0.152
-270.340	800.000	0.021	0.063
-269.326	-200.000	0.084	-0.461
-268.311	-87.576	0.202	0.060
-267.297	2.670	-0.328	0.234
-266.282	-200.000	0.113	0.509
-265.267	463.481	-0.060	-0.133
-264.253	800.000	0.086	0.283
-263.238	46.695	-0.324	-0.297
-262.224	-158.788	-0.213	-0.012
-261.209	-115.585	0.236	0.044
-260.195	800.000	-0.079	-0.279
-259.180	-133.962	-0.532	0.065
-258.165	800.000	0.048	0.185
-257.151	-94.362	0.211	0.057
-256.136	800.000	-0.070	-0.225
-255.122	-59.711	0.192	-0.081
-254.107	53.393	-0.297	-0.281
-253.092	800.000	0.068	0.267
-252.078	119.223	0.208	0.253
-251.063	800.000	0.057	-0.216
-250.049	540.840	-0.066	-0.155
-249.034	24.316	0.108	-0.088
-248.019	566.273	0.121	-0.289
-247.005	-131.139	0.080	0.011
-245.990	74.137	-0.257	0.266
-244.976	64.346	-0.174	0.173
-243.961	12.657	-0.180	-0.137
-242.946	-59.049	0.139	0.059
-241.932	148.617	-0.057	0.076
-240.917	-135.088	0.173	-0.021
-239.903	-83.942	-0.286	0.089
-238.888	-68.173	0.151	0.058
-237.873	421.986	-0.075	0.159
-236.859	-76.519	-0.099	0.034
-235.844	-200.000	0.002	0.137
-234.830	-153.822	-0.118	0.008
-233.815	-64.533	-0.327	0.131
-232.800	-98.874	-0.166	-0.042
-231.786	190.731	0.113	0.168
-230.771	-54.153	0.544	0.244
-229.757	-200.000	0.038	-0.166
-228.742	-35.956	-0.182	0.097
-227.727	148.139	-0.132	-0.175
-226.713	-96.018	-0.268	-0.070
-225.698	-186.035	0.188	0.003
-224.684	-140.181	-0.015	-0.002
-223.669	225.911	0.045	-0.072
-222.655	800.000	-0.070	0.269
-221.640	-200.000	-0.051	-0.273
-220.625	192.735	0.165	-0.245
-219.611	-93.224	0.274	0.075
-218.596	79.973	-0.111	-0.118
-217.582	204.049	-0.165	0.251
-216.567	-64.640	0.133	-0.053
-215.552	-0.129	-0.177	-0.124
-214.538	110.814	-0.048	0.057
-213.523	501.688	-0.117	0.265
-212.509	-92.339	-0.238	0.066
-211.494	195.879	-0.117	0.175
-210.479	800.000	0.073	-0.259
-209.465	-171.363	-0.214	0.007
-208.450	-200.000	0.012	-0.112
-207.436	-114.609	-0.366	0.069
-206.421	59.078	0.131	-0.127
-205.406	-194.800	0.324	-0.002
-204.392	-121.847	-0.147	0.024
-203.377	82.440	0.084	-0.090
-202.363	-96.536	-0.285	-0.074
-201.348	30.373	0.349	0.293
-200.333	-200.000	0.025	0.225
-199.319	-185.191	0.152	-0.002
-198.304	-200.000	-0.003	0.153
-197.290	-52.280	-0.332	0.151
-196.275	800.000	-0.105	0.406
-195.260	91.369	0.238	0.263
-194.246	46.716	-0.027	-0.025
-193.231	774.664	-0.210	-0.564
-192.217	-10.140	-0.063	-0.041
-191.202	-58.338	-0.019	-0.008
-190.187	-13.013	-0.321	-0.205
-189.173	513.372	-0.109	-0.251
-188.158	24.507	-0.096	0.078
-187.144	-156.147	0.073	0.005
-186.129	-200.000	-0.038	-0.260
-185.114	-156.338	0.074	-0.005
-184.100	-24.635	-0.242	0.141
-183.085	-200.000	0.003	-0.266
-182.071	800.000	0.095	-0.357
-181.056	209.833	-0.069	0.107
-180.042	20.975	0.341	0.272
-179.027	-141.867	-0.173	0.017
-178.012	252.968	0.068	-0.113
-176.998	-82.858	-0.143	-0.045
-175.983	140.937	0.055	0.072
-174.969	800.000	-0.035	0.112
-173.954	-15.503	0.224	0.140
-172.939	6.515	-0.291	-0.212
-171.925	0.647	0.283	-0.199
-170.910	55.986	-0.179	-0.171
-169.896	800.000	-0.079	0.219
-168.881	-25.256	-0.181	0.105
-167.866	800.000	-0.034	-0.097
-166.852	37.628	0.120	-0.105
-165.837	-200.000	-0.012	0.064
-164.823	111.716	0.165	-0.195
-163.808	-136.114	0.213	-0.025
-162.793	-151.152	-0.052	-0.004
-161.779	504.369	-0.056	-0.126
-160.764	-30.092	-0.215	0.120
-159.750	53.224	0.098	-0.093
-158.735	-200.000	-0.013	0.148
-157.720	-157.431	-0.152	-0.009
-156.706	32.114	0.180	0.152
-155.691	66.115	-0.206	0.206
-154.677	258.330	0.012	-0.020
-153.662	58.201	0.111	-0.107
-152.647	-161.128	0.114	0.006
-151.633	-200.000	0.065	-0.355
-150.618	-200.000	-0.055	-0.247
-149.604	202.755	0.110	0.167
-148.589	138.666	0.148	0.190
-147.574	-200.000	0.002	-0.142
-146.560	-121.009	0.201	0.033
-145.545	-200.000	-0.046	-0.337
-144.531	-74.941	-0.110	0.039
-143.516	-200.000	0.061	-0.371
-142.502	-42.207	-0.266	-0.133
-141.487	1.137	-0.345	-0.243
-140.472	-200.000	0.029	0.184
-139.458	-8.715	-0.125	-0.082
-138.443	95.088	-0.181	-0.202
-137.429	68.557	0.152	0.153
-136.414	800.000	-0.038	0.131
-135.399	-0.172	0.232	0.162
-134.385	405.639	-0.152	0.315
-133.370	-150.702	0.284	0.021
-132.356	-41.826	0.260	0.131
-131.341	-93.423	0.641	-0.174
-130.326	-116.331	0.380	0.069
-129.312	800.000	-0.031	0.099
-128.297	51.707	-0.143	-0.133
-127.283	632.028	0.119	0.295
-126.268	-56.503	0.208	0.091
-125.253	460.936	0.091	-0.200
-124.239	-79.962	-0.294	-0.097
-123.224	-129.449	0.046	-0.006
-122.210	-170.043	0.258	-0.009
-121.195	35.982	-0.321	0.277
