DTS Sentinel unit serial number:	SN413079Multiplexer serial number:	ORYXHardware model number:	OX4-SRSoftware version number:	ORYX F/W v4.00 Oryx Data Collector v3.7.2.0data status	okinstallation	princeton_trtdifferential loss correction	single-endedforward channel	channel 1reverse channel	N/Adate	2019/09/14time	04:02:35forward acquisition time	60.00reverse acquisition time	0.00gamma	496.2192k internal	0.2335k external	0.2335temperature offset calibration	1.0075default loss term (dB/km)	0.3790temperature slope calibration	1.0000multiplexer offset coefficient	1.0000multiplexer slope coefficient	1.0000fibre end	0.00T internal ref (°C)	26.69T ext. ref 1 (°C)	3.32T ext. ref 2 (°C)	21.78length (m)	temperature (°C)	Stokes	anti-Stokes-747.200	800.000	0.110	0.416
-746.185	-63.704	0.149	-0.061
-745.171	-33.014	-0.278	0.155
-744.156	-92.986	-0.270	0.076
-743.142	-94.255	-0.081	-0.022
-742.127	-200.000	0.039	0.290
-741.112	136.822	-0.083	0.108
-740.098	-87.353	0.186	-0.057
-739.083	-15.881	0.062	0.040
-738.069	101.980	-0.166	0.195
-737.054	145.153	-0.147	0.198
-736.039	37.708	-0.180	-0.160
-735.025	-200.000	-0.001	0.508
-734.010	-136.916	-0.480	-0.055
-732.996	-58.777	0.117	0.051
-731.981	-78.010	0.129	0.045
-730.966	35.411	-0.191	0.168
-729.952	454.387	-0.070	0.156
-728.937	-108.446	-0.322	-0.070
-727.923	-31.109	0.507	0.287
-726.908	-22.155	0.113	0.069
-725.894	800.000	-0.050	0.212
-724.879	181.422	-0.108	-0.160
-723.864	147.391	0.134	-0.181
-722.850	522.079	-0.141	-0.332
-721.835	114.791	-0.119	-0.146
-720.821	28.315	-0.224	0.190
-719.806	-87.677	0.114	0.034
-718.791	-150.950	-0.179	-0.014
-717.777	800.000	0.019	-0.085
-716.762	-63.470	0.272	0.112
-715.748	59.971	-0.156	0.155
-714.733	58.396	-0.029	0.028
-713.718	156.238	-0.093	-0.128
-712.704	-200.000	-0.016	0.096
-711.689	709.892	0.149	-0.396
-710.675	-200.000	-0.040	-0.380
-709.660	-200.000	0.017	-0.124
-708.645	-36.226	-0.366	0.198
-707.631	-107.643	-0.456	0.100
-706.616	313.886	0.157	-0.296
-705.602	-46.409	-0.294	0.145
-704.587	-149.588	0.383	0.030
-703.572	-54.801	0.211	0.096
-702.558	800.000	0.008	-0.029
-701.543	52.883	-0.154	-0.147
-700.529	38.121	-0.138	-0.123
-699.514	-200.000	0.042	-0.208
-698.499	-107.171	0.095	0.021
-697.485	49.097	-0.336	0.317
-696.470	-112.475	-0.061	0.012
-695.456	28.805	-0.158	0.134
-694.441	-200.000	-0.010	0.055
-693.426	370.448	0.166	0.337
-692.412	800.000	0.035	0.144
-691.397	405.852	-0.086	0.182
-690.383	-200.000	-0.206	0.001
-689.368	559.558	-0.112	0.272
-688.354	461.192	-0.047	0.105
-687.339	-1.694	-0.045	-0.032
-686.324	-65.021	0.122	-0.049
-685.310	800.000	-0.064	-0.272
-684.295	-60.456	0.089	-0.038
-683.281	-173.390	-0.235	0.007
-682.266	-89.357	0.369	-0.109
-681.251	-65.765	0.189	0.076
-680.237	-149.326	-0.131	-0.010
-679.222	800.000	-0.054	-0.206
-678.208	58.404	-0.138	-0.136
-677.193	-107.856	0.018	-0.004
-676.178	64.519	-0.240	-0.243
-675.164	-116.396	0.219	-0.041
-674.149	-200.000	-0.015	-0.376
-673.135	-200.000	0.004	-0.042
-672.120	-91.143	-0.316	-0.091
-671.105	94.749	-0.089	-0.102
-670.091	800.000	-0.032	-0.092
-669.076	674.710	-0.110	0.286
-668.062	-98.869	-0.081	-0.021
-667.047	197.128	-0.079	-0.121
-666.032	4.318	0.237	0.174
-665.018	-200.000	-0.037	-0.293
-664.003	-200.000	0.015	-0.261
-662.989	69.570	-0.216	-0.223
-661.974	15.706	0.006	0.005
-660.959	183.478	-0.278	-0.412
-659.945	-88.356	-0.250	0.075
-658.930	290.359	-0.185	0.337
-657.916	-42.688	-0.210	-0.107
-656.901	-200.000	0.015	0.085
-655.886	21.173	0.108	0.088
-654.872	565.943	-0.096	0.232
-653.857	59.836	-0.090	0.089
-652.843	49.022	-0.075	-0.070
-651.828	-67.226	-0.496	-0.195
-650.814	-55.777	-0.320	-0.143
-649.799	-200.000	-0.007	0.073
-648.784	-54.772	0.299	0.135
-647.770	-25.306	0.161	0.095
-646.755	-200.000	-0.016	-0.159
-645.741	212.920	0.093	-0.147
-644.726	12.282	0.137	0.106
-643.711	-200.000	0.015	0.277
-642.697	-151.296	-0.095	0.007
-641.682	141.326	0.146	-0.194
-640.668	124.552	-0.155	0.195
-639.653	122.961	-0.116	0.145
-638.638	-34.035	0.200	-0.110
-637.624	87.460	-0.206	-0.228
-636.609	202.779	0.113	0.174
-635.595	800.000	0.097	-0.399
-634.580	392.281	0.117	-0.244
-633.565	578.664	-0.109	0.266
-632.551	-200.000	-0.026	-0.151
-631.536	218.861	0.109	-0.175
-630.522	-120.469	0.263	-0.045
-629.507	-45.240	-0.051	-0.025
-628.492	97.493	0.072	0.082
-627.478	-200.000	-0.006	0.176
-626.463	800.000	-0.011	-0.040
-625.449	2.328	-0.250	0.181
-624.434	-116.413	-0.417	0.077
-623.419	466.007	-0.158	-0.354
-622.405	28.399	-0.117	0.099
-621.390	-56.989	-0.199	0.088
-620.376	-2.107	-0.180	-0.127
-619.361	-130.882	-0.057	-0.008
-618.346	47.556	-0.062	-0.057
-617.332	-0.574	0.237	0.168
-616.317	-182.757	-0.222	0.004
-615.303	412.264	-0.111	-0.236
-614.288	-36.866	-0.147	0.079
-613.273	800.000	-0.061	-0.214
-612.259	-136.594	-0.106	-0.012
-611.244	13.571	-0.100	-0.078
-610.230	-27.672	0.263	-0.152
-609.215	-49.819	-0.112	-0.053
-608.201	374.109	0.078	-0.158
-607.186	328.017	-0.124	-0.237
-606.171	63.445	-0.289	-0.290
-605.157	-116.831	-0.173	0.032
-604.142	128.129	-0.166	-0.211
-603.128	-25.684	-0.299	0.176
-602.113	-130.665	-0.326	-0.044
-601.098	94.759	-0.079	0.090
-600.084	-186.611	0.294	0.004
-599.069	800.000	0.086	-0.298
-598.055	-119.627	-0.357	0.062
-597.040	140.240	-0.046	0.061
-596.025	84.392	-0.143	-0.156
-595.011	-3.025	-0.206	-0.143
-593.996	800.000	0.041	-0.127
-592.982	-89.976	-0.284	-0.083
-591.967	56.330	-0.136	-0.132
-590.952	-9.947	-0.262	-0.174
-589.938	-117.976	-0.254	0.045
-588.923	11.275	0.120	0.092
-587.909	-65.658	0.296	0.119
-586.894	800.000	0.073	0.264
-585.879	73.469	0.170	-0.178
-584.865	800.000	-0.011	0.045
-583.850	-52.655	0.040	0.018
-582.836	27.740	0.195	0.164
-581.821	62.086	-0.205	-0.204
-580.806	-173.118	0.157	0.005
-579.792	87.719	-0.069	-0.076
-578.777	-175.732	0.213	-0.006
-577.763	112.685	-0.200	-0.241
-576.748	-69.036	-0.125	0.048
-575.733	-200.000	0.034	0.375
-574.719	0.808	0.202	0.145
-573.704	330.452	-0.101	0.194
-572.690	800.000	0.015	-0.064
-571.675	-200.000	-0.078	-0.475
-570.661	93.104	0.202	-0.227
-569.646	-200.000	-0.007	-0.165
-568.631	-68.404	-0.237	-0.092
-567.617	-59.179	0.020	0.009
-566.602	43.509	-0.232	0.211
-565.588	800.000	-0.070	0.198
-564.573	508.247	-0.058	0.134
-563.558	-82.730	-0.313	0.101
-562.544	60.974	-0.100	-0.099
-561.529	71.051	0.310	-0.321
-560.515	-136.385	-0.255	0.030
-559.500	-200.000	0.004	-0.071
-558.485	42.085	0.316	-0.286
-557.471	-157.197	0.140	-0.008
-556.456	-200.000	0.023	-0.374
-555.442	17.856	0.213	0.169
-554.427	5.838	-0.315	0.233
-553.412	800.000	-0.073	0.200
-552.398	-165.890	-0.217	-0.009
-551.383	-200.000	0.017	0.087
-550.369	-90.123	-0.164	0.048
-549.354	229.716	-0.051	0.083
-548.339	-131.093	-0.480	0.064
-547.325	-200.000	0.064	-0.309
-546.310	-112.564	0.423	0.084
-545.296	284.835	0.067	-0.120
-544.281	-200.000	0.000	-0.191
-543.266	136.091	-0.093	0.120
-542.252	-79.845	0.344	0.115
-541.237	-151.488	-0.511	-0.038
-540.223	800.000	0.023	0.082
-539.208	60.519	0.264	-0.260
-538.193	-124.632	-0.176	0.027
-537.179	-193.977	-0.413	0.003
-536.164	-146.066	0.075	0.007
-535.150	-197.434	-0.192	0.001
-534.135	290.125	0.166	0.301
-533.121	-74.555	-0.246	0.088
-532.106	306.359	-0.035	0.065
-531.091	-200.000	0.035	-0.156
-530.077	800.000	-0.073	0.293
-529.062	-200.000	-0.039	-0.356
-528.048	-82.302	0.297	-0.096
-527.033	-200.000	0.037	-0.457
-526.018	294.230	-0.078	-0.142
-525.004	-187.590	-0.202	0.003
-523.989	-120.237	-0.356	0.061
-522.975	76.095	0.258	-0.272
-521.960	-56.696	0.335	0.148
-520.945	213.203	-0.082	0.129
-519.931	-87.401	-0.441	-0.133
-518.916	-108.154	0.144	-0.031
-517.902	75.769	0.070	0.074
-516.887	-19.770	-0.260	-0.160
-515.872	800.000	-0.042	0.129
-514.858	-86.918	-0.316	0.096
-513.843	5.081	0.184	-0.135
-512.829	-17.449	-0.173	-0.108
-511.814	69.128	0.082	-0.084
-510.799	800.000	-0.049	0.186
-509.785	238.994	-0.076	-0.126
-508.770	-142.862	-0.112	0.011
-507.756	800.000	-0.097	-0.285
-506.741	-153.626	-0.086	-0.006
-505.726	-180.548	0.436	0.009
-504.712	15.925	-0.195	-0.153
-503.697	800.000	-0.067	0.186
-502.683	-111.815	0.189	0.038
-501.668	103.502	0.182	0.212
-500.653	-200.000	-0.112	-0.575
-499.639	52.152	0.144	-0.137
-498.624	800.000	0.051	0.214
-497.610	10.972	0.049	-0.037
-496.595	-42.989	0.030	-0.015
-495.581	-200.000	-0.009	-0.113
-494.566	60.710	-0.193	0.190
-493.551	799.916	0.097	-0.267
-492.537	-98.502	0.457	-0.116
-491.522	138.434	0.048	0.063
-490.508	-200.000	0.028	-0.213
-489.493	525.698	0.068	0.160
-488.478	125.254	-0.068	0.086
-487.464	86.720	0.120	-0.132
-486.449	-86.925	-0.230	0.070
-485.435	-200.000	0.026	-0.130
-484.420	-71.897	0.165	0.061
-483.405	-109.177	-0.219	0.046
-482.391	-61.519	0.175	-0.073
-481.376	6.160	0.194	-0.143
-480.362	-200.000	0.047	0.231
-479.347	-123.630	0.188	0.030
-478.332	96.875	-0.056	-0.064
-477.318	-59.576	-0.191	-0.082
-476.303	-114.614	0.326	0.062
-475.289	-49.723	0.093	-0.044
-474.274	467.021	-0.124	0.277
-473.259	-200.000	-0.003	-0.056
-472.245	-73.340	-0.067	-0.024
-471.230	102.840	0.265	-0.309
-470.216	45.637	-0.225	-0.207
-469.201	-135.903	-0.294	0.034
-468.186	1.509	0.115	0.082
-467.172	-71.826	-0.183	-0.068
-466.157	-130.692	-0.286	-0.038
-465.143	-35.802	-0.400	0.215
-464.128	146.956	0.162	0.217
-463.113	1.283	-0.043	-0.031
-462.099	800.000	-0.061	0.208
-461.084	800.000	-0.024	0.099
-460.070	-24.047	-0.200	0.119
-459.055	-127.496	-0.320	-0.046
-458.040	210.951	0.059	0.092
-457.026	-118.987	0.019	0.003
-456.011	74.623	-0.102	0.107
-454.997	-200.000	0.062	0.288
-453.982	12.647	-0.099	0.076
-452.968	-77.138	-0.321	-0.111
-451.953	550.408	-0.076	-0.181
-450.938	676.535	0.070	-0.180
-449.924	-200.000	0.018	0.236
-448.909	-137.011	0.320	0.036
-447.895	47.451	0.188	0.174
-446.880	-200.000	-0.002	-0.164
-445.865	93.853	-0.137	0.154
-444.851	-200.000	-0.009	-0.134
-443.836	171.196	-0.028	-0.039
-442.822	-106.597	0.283	0.063
-441.807	-200.000	-0.022	-0.349
-440.792	-200.000	-0.008	-0.062
-439.778	-108.235	0.245	0.053
-438.763	3.722	-0.361	-0.262
-437.749	253.992	0.126	-0.213
-436.734	800.000	-0.066	-0.218
-435.719	-31.137	0.188	0.105
-434.705	-200.000	-0.047	0.280
-433.690	-200.000	-0.007	-0.112
-432.676	-72.115	0.162	-0.060
-431.661	-78.233	-0.096	-0.033
-430.646	-107.333	-0.166	-0.036
-429.632	-34.972	-0.059	0.032
-428.617	285.964	-0.149	-0.267
-427.603	122.594	0.175	0.217
-426.588	254.700	-0.169	0.287
-425.573	-13.071	-0.140	0.090
-424.559	72.714	0.042	-0.043
-423.544	800.000	-0.087	-0.301
-422.530	-189.424	-0.133	0.002
-421.515	-39.430	0.343	0.178
-420.500	-77.384	0.252	0.087
-419.486	309.712	-0.134	0.249
-418.471	-17.997	-0.178	-0.111
-417.457	-19.020	-0.330	-0.204
-416.442	800.000	0.097	-0.384
-415.428	800.000	0.043	0.126
-414.413	364.036	0.050	0.100
-413.398	-200.000	-0.042	-0.188
-412.384	-51.415	-0.080	-0.037
-411.369	26.693	-0.144	0.120
-410.355	22.646	-0.252	-0.205
-409.340	-133.454	0.218	-0.027
-408.325	35.574	-0.194	0.169
-407.311	-54.460	0.091	-0.041
-406.296	-200.000	-0.038	0.217
-405.282	-200.000	0.104	0.000
-404.267	248.149	0.120	-0.201
-403.252	-200.000	0.023	-0.445
-402.238	651.534	0.096	0.244
-401.223	800.000	-0.065	-0.282
-400.209	540.949	-0.056	0.131
-399.194	29.866	-0.177	0.149
-398.179	-29.859	0.143	0.081
-397.165	800.000	-0.030	0.107
-396.150	197.979	-0.153	0.232
-395.136	263.724	0.064	-0.110
-394.121	-200.000	0.013	0.131
-393.106	800.000	0.096	0.339
-392.092	-153.779	-0.064	0.004
-391.077	-136.297	-0.281	-0.032
-390.063	-200.000	0.003	-0.257
-389.048	-139.924	0.143	-0.015
-388.033	-127.388	0.040	-0.006
-387.019	423.683	0.090	0.192
-386.004	-200.000	0.011	0.230
-384.990	-200.000	0.020	0.147
-383.975	-200.000	-0.059	-0.000
-382.960	-23.623	0.244	-0.145
-381.946	-157.688	0.132	0.008
-380.931	-200.000	-0.021	0.147
-379.917	-200.000	0.004	-0.202
-378.902	111.456	0.024	0.029
-377.888	-200.000	0.003	-0.013
-376.873	45.047	-0.312	-0.284
-375.858	-54.624	-0.065	0.029
-374.844	113.825	0.304	-0.366
-373.829	-200.000	0.025	-0.192
-372.815	-83.622	0.120	-0.038
-371.800	-98.058	-0.074	-0.019
-370.785	-10.398	-0.130	0.085
-369.771	63.642	0.081	0.081
-368.756	800.000	0.077	-0.281
-367.742	-200.000	-0.000	-0.245
-366.727	-200.000	-0.001	-0.154
-365.712	392.244	-0.097	0.199
-364.698	800.000	0.088	-0.272
-363.683	212.255	0.058	0.090
-362.669	-200.000	0.038	-0.225
-361.654	800.000	-0.040	0.117
-360.639	-41.051	0.157	-0.080
-359.625	-200.000	0.020	0.124
-358.610	372.857	-0.063	-0.126
-357.596	100.618	0.067	-0.078
-356.581	108.763	-0.093	-0.109
-355.566	-88.818	-0.314	0.092
-354.552	-103.434	0.097	0.023
-353.537	159.850	-0.148	-0.203
-352.523	-32.925	-0.337	0.185
-351.508	-24.258	0.167	0.098
-350.493	-14.291	-0.217	0.138
-349.479	-23.954	0.104	0.062
-348.464	352.352	0.076	-0.148
-347.450	800.000	0.019	0.063
-346.435	53.577	0.137	-0.130
-345.420	258.708	-0.078	0.132
-344.406	-181.151	-0.234	0.005
-343.391	23.341	0.135	0.110
-342.377	-33.480	0.285	0.156
-341.362	-7.433	-0.175	0.117
-340.348	-200.000	-0.024	0.426
-339.333	160.559	0.023	-0.031
-338.318	496.325	-0.098	-0.223
-337.304	72.575	-0.143	-0.147
-336.289	715.982	0.152	0.399
-335.275	-130.057	-0.269	-0.036
-334.260	-200.000	0.064	0.295
-333.245	-66.662	0.199	-0.078
-332.231	800.000	-0.077	0.217
-331.216	-187.344	0.263	-0.004
-330.202	108.794	0.161	0.190
-329.187	-127.462	0.042	-0.006
-328.172	-8.630	0.326	-0.216
-327.158	-158.234	0.101	0.006
-326.143	271.490	-0.036	-0.063
-325.129	240.456	-0.133	0.218
-324.114	33.796	0.075	-0.065
-323.099	646.977	0.140	0.353
-322.085	-200.000	-0.050	0.304
-321.070	-200.000	0.053	0.242
-320.056	-200.000	-0.018	0.117
-319.041	63.514	0.305	0.302
-318.026	83.573	0.290	-0.312
-317.012	800.000	-0.060	0.191
-315.997	-139.211	0.210	0.022
-314.983	11.383	0.107	0.081
-313.968	800.000	0.009	-0.035
-312.953	-138.052	-0.168	0.018
-311.939	798.448	-0.120	-0.327
-310.924	210.610	0.106	0.164
-309.910	-87.409	-0.318	0.095
-308.895	-80.147	0.118	-0.039
-307.880	-10.080	0.223	0.146
-306.866	-200.000	0.019	-0.120
-305.851	226.427	-0.200	-0.320
-304.837	113.946	-0.255	-0.306
-303.822	13.718	0.031	0.023
-302.807	101.971	0.077	-0.089
-301.793	540.826	-0.061	0.144
-300.778	800.000	0.044	-0.176
-299.764	800.000	0.029	-0.118
-298.749	-200.000	-0.022	-0.122
-297.735	324.121	0.086	-0.163
-296.720	320.987	0.116	-0.218
-295.705	279.270	0.135	-0.238
-294.691	108.905	-0.049	-0.057
-293.676	-118.130	0.255	-0.045
-292.662	52.212	-0.070	-0.066
-291.647	-111.348	0.247	-0.050
-290.632	-54.010	-0.098	0.044
-289.618	243.293	-0.087	-0.144
-288.603	-200.000	-0.021	0.106
-287.589	107.813	0.199	0.233
-286.574	800.000	0.091	0.280
-285.559	-200.000	0.005	-0.142
-284.545	-158.890	-0.120	-0.007
-283.530	-147.536	-0.178	-0.015
-282.516	59.851	0.065	0.063
-281.501	89.769	-0.142	0.156
-280.486	-200.000	-0.020	0.154
-279.472	800.000	-0.046	-0.195
-278.457	-78.388	0.192	-0.065
-277.443	-200.000	0.009	0.186
-276.428	49.170	0.169	0.157
-275.413	800.000	-0.022	0.066
-274.399	631.644	-0.118	-0.295
-273.384	-200.000	-0.004	0.092
-272.370	761.781	0.104	-0.278
-271.355	-178.861	-0.391	-0.009
-270.340	-73.351	0.094	0.034
-269.326	-67.520	-0.306	-0.119
-268.311	219.720	0.100	0.157
-267.297	30.657	-0.168	0.142
-266.282	204.538	-0.045	0.069
-265.267	-160.631	0.514	-0.027
-264.253	-194.031	-0.280	0.002
-263.238	-200.000	0.023	0.497
-262.224	46.318	0.081	0.074
-261.209	-34.810	0.530	0.286
-260.195	800.000	0.043	-0.140
-259.180	-194.782	-0.231	-0.002
-258.165	-38.125	0.357	-0.187
-257.151	800.000	0.053	-0.154
-256.136	-127.241	0.240	0.035
-255.122	-51.532	-0.084	-0.039
-254.107	-200.000	0.003	-0.398
-253.092	-62.202	0.335	0.138
-252.078	-83.043	0.183	-0.058
-251.063	-200.000	-0.033	0.280
-250.049	800.000	0.054	-0.191
-249.034	178.491	0.355	0.510
-248.019	36.487	-0.182	-0.158
-247.005	114.494	0.294	0.353
-245.990	124.647	0.172	-0.213
-244.976	-109.572	-0.222	-0.046
-243.961	-136.407	0.486	0.056
-242.946	-200.000	0.015	-0.148
-241.932	800.000	0.060	-0.248
-240.917	-98.624	-0.263	-0.066
-239.903	-157.005	-0.311	0.019
-238.888	108.492	-0.161	0.189
-237.873	-200.000	0.054	0.274
-236.859	-137.061	-0.329	-0.037
-235.844	-51.731	0.060	-0.028
-234.830	204.152	0.115	-0.175
-233.815	94.267	0.098	-0.110
-232.800	-167.242	0.097	0.004
-231.786	-70.844	-0.231	0.086
-230.771	-30.339	0.117	0.065
-229.757	-21.699	0.066	-0.040
-228.742	77.245	0.108	-0.113
-227.727	800.000	0.068	0.200
-226.713	800.000	0.067	0.222
-225.698	-200.000	0.000	0.104
-224.684	197.159	0.085	0.127
-223.669	-17.533	0.185	0.115
-222.655	0.322	0.161	0.113
-221.640	-200.000	-0.009	-0.235
-220.625	-200.000	-0.018	-0.084
-219.611	-78.982	-0.313	0.105
-218.596	-43.940	-0.102	0.050
-217.582	750.590	-0.163	0.433
-216.567	-200.000	-0.023	0.195
-215.552	-157.922	0.049	0.003
-214.538	-13.299	0.216	-0.138
-213.523	-188.409	0.473	0.006
-212.509	28.937	0.241	0.201
-211.494	100.505	0.080	0.091
-210.479	-64.262	0.375	0.150
-209.465	-200.000	0.023	-0.104
-208.450	274.862	0.157	-0.274
-207.436	-71.130	-0.129	0.048
-206.421	530.732	-0.031	0.072
-205.406	-35.843	0.227	-0.121
-204.392	-26.199	0.178	0.103
-203.377	102.428	0.206	-0.237
-202.363	-54.066	0.191	-0.085
-201.348	-44.329	0.121	0.060
-200.333	-64.680	0.242	-0.096
-199.319	800.000	0.103	0.283
-198.304	-200.000	-0.003	-0.391
-197.290	-134.367	-0.169	-0.020
-196.275	-39.254	0.262	-0.135
-195.260	-123.677	-0.332	-0.052
-194.246	-200.000	0.038	-0.231
-193.231	10.738	-0.178	-0.134
-192.217	2.466	0.357	0.254
-191.202	257.420	0.137	0.232
-190.187	43.699	0.200	0.180
-189.173	800.000	0.080	-0.300
-188.158	550.582	0.080	0.188
-187.144	-198.958	0.149	0.001
-186.129	-67.842	-0.046	-0.017
-185.114	-13.106	-0.363	0.232
-184.100	571.017	-0.035	-0.083
-183.085	-6.050	0.090	-0.061
-182.071	-149.798	-0.227	0.018
-181.056	244.404	0.155	-0.255
-180.042	50.339	-0.269	0.250
-179.027	127.054	-0.063	0.079
-178.012	-47.211	0.225	0.108
-176.998	81.137	0.169	0.180
-175.983	-124.158	-0.461	0.071
-174.969	238.140	0.149	0.243
-173.954	800.000	0.149	0.403
-172.939	6.902	-0.114	-0.084
-171.925	207.270	-0.192	0.294
-170.910	-26.589	0.286	0.164
-169.896	239.026	-0.075	-0.123
-168.881	111.607	-0.049	-0.058
-167.866	102.412	-0.160	-0.184
-166.852	199.146	0.086	0.129
-165.837	404.024	-0.124	0.256
-164.823	-58.581	-0.207	0.088
-163.808	-200.000	0.004	-0.106
-162.793	33.280	-0.184	-0.157
-161.779	800.000	0.036	0.112
-160.764	59.513	0.187	0.181
-159.750	-200.000	-0.052	0.313
-158.735	800.000	-0.086	0.364
-157.720	800.000	0.048	0.142
-156.706	58.669	0.063	0.061
-155.691	-200.000	0.019	-0.324
-154.677	-200.000	-0.017	0.208
-153.662	800.000	-0.098	0.270
-152.647	-117.675	0.263	-0.047
-151.633	24.965	0.028	0.023
-150.618	-111.045	0.232	-0.047
-149.604	-136.229	0.239	0.027
-148.589	13.844	0.215	0.164
-147.574	-155.684	0.142	0.009
-146.560	-149.960	0.187	0.014
-145.545	795.484	0.006	0.016
-144.531	-181.092	0.209	-0.004
-143.516	185.210	0.150	-0.219
-142.502	339.762	0.063	-0.120
-141.487	-100.358	0.463	0.113
-140.472	-51.763	-0.357	0.163
-139.458	-200.000	0.031	-0.240
-138.443	395.104	-0.179	0.367
-137.429	-200.000	-0.051	-0.506
-136.414	-76.967	0.372	-0.128
-135.399	123.413	0.166	0.205
-134.385	-200.000	0.053	0.231
-133.370	6.963	-0.044	-0.032
-132.356	237.141	-0.066	-0.108
-131.341	89.698	0.109	-0.120
-130.326	-189.390	0.160	0.002
-129.312	11.623	0.261	0.197
-128.297	31.756	0.060	0.051
-127.283	-189.372	-0.335	-0.004
-126.268	-61.034	0.169	-0.070
-125.253	-200.000	-0.011	0.274
-124.239	-20.613	0.276	0.166
-123.224	-6.535	0.076	0.051
-122.210	86.766	-0.072	-0.078
-121.195	-153.939	-0.237	-0.016
