DTS Sentinel unit serial number:	SN413079Multiplexer serial number:	ORYXHardware model number:	OX4-SRSoftware version number:	ORYX F/W v4.00 Oryx Data Collector v3.7.2.0data status	okinstallation	princeton_trtdifferential loss correction	single-endedforward channel	channel 1reverse channel	N/Adate	2019/09/17time	17:26:35forward acquisition time	60.00reverse acquisition time	0.00gamma	496.2192k internal	0.2292k external	0.2292temperature offset calibration	0.9951default loss term (dB/km)	0.3790temperature slope calibration	1.0000multiplexer offset coefficient	1.0000multiplexer slope coefficient	1.0000fibre end	0.00T internal ref (°C)	43.12T ext. ref 1 (°C)	0.34T ext. ref 2 (°C)	39.20length (m)	temperature (°C)	Stokes	anti-Stokes-747.200	117.688	0.023	0.029
-746.185	-200.000	0.046	0.608
-745.171	800.000	0.035	0.116
-744.156	-14.797	0.270	-0.177
-743.142	-34.655	-0.044	-0.025
-742.127	213.312	0.178	0.287
-741.112	-104.357	0.252	-0.060
-740.098	419.092	-0.052	-0.114
-739.083	42.543	0.108	-0.100
-738.069	-25.645	-0.278	0.168
-737.054	-200.000	-0.057	0.348
-736.039	25.801	-0.199	-0.170
-735.025	-107.227	0.242	-0.055
-734.010	-58.192	-0.178	0.080
-732.996	415.856	-0.220	-0.481
-731.981	-19.216	-0.215	0.137
-730.966	-116.526	-0.148	0.028
-729.952	269.510	-0.072	-0.129
-728.937	-110.896	0.121	0.025
-727.923	800.000	-0.049	-0.193
-726.908	7.613	-0.339	-0.259
-725.894	-200.000	0.033	-0.275
-724.879	144.413	0.078	-0.106
-723.864	-77.435	-0.258	0.092
-722.850	-132.367	-0.261	-0.034
-721.835	-121.080	0.446	-0.076
-720.821	134.132	0.049	-0.065
-719.806	-200.000	-0.090	-0.473
-718.791	-200.000	-0.008	-0.075
-717.777	216.762	-0.129	0.210
-716.762	-104.340	-0.094	-0.022
-715.748	470.094	-0.062	0.143
-714.733	-113.003	-0.185	-0.037
-713.718	0.914	0.275	0.202
-712.704	-168.910	0.345	-0.013
-711.689	331.485	-0.110	-0.218
-710.675	182.679	-0.186	-0.281
-709.660	508.190	0.135	-0.320
-708.645	800.000	0.019	-0.056
-707.631	434.886	0.036	-0.079
-706.616	-56.052	-0.255	-0.116
-705.602	-200.000	-0.001	0.259
-704.587	-150.757	0.153	-0.012
-703.572	-200.000	0.063	0.297
-702.558	37.032	0.220	-0.199
-701.543	247.027	-0.215	-0.371
-700.529	126.063	-0.111	0.144
-699.514	-125.263	0.112	0.018
-698.499	410.517	-0.135	0.292
-697.485	68.029	-0.308	0.322
-696.470	-42.054	0.238	0.125
-695.456	-120.398	0.155	0.027
-694.441	-200.000	0.008	-0.182
-693.426	675.230	-0.119	0.316
-692.412	-22.783	-0.161	-0.099
-691.397	-200.000	-0.012	-0.469
-690.383	210.599	-0.083	-0.133
-689.368	800.000	0.075	-0.303
-688.354	-13.473	-0.290	-0.192
-687.339	-200.000	-0.004	-0.214
-686.324	800.000	-0.028	-0.123
-685.310	-75.551	0.183	-0.067
-684.295	-37.691	0.109	0.059
-683.281	-200.000	-0.000	-0.412
-682.266	-112.750	0.322	-0.065
-681.251	-29.838	-0.282	0.164
-680.237	-121.949	-0.096	-0.016
-679.222	9.364	-0.063	-0.049
-678.208	-200.000	0.106	-0.570
-677.193	-41.369	0.183	0.096
-676.178	-200.000	0.024	-0.125
-675.164	-115.062	-0.300	-0.058
-674.149	-85.341	0.199	-0.063
-673.135	-119.640	0.148	-0.026
-672.120	-200.000	0.041	0.211
-671.105	-33.083	0.141	0.080
-670.091	-200.000	0.059	-0.279
-669.076	-78.272	-0.276	-0.097
-668.062	176.897	-0.259	-0.385
-667.047	324.903	0.088	0.172
-666.032	-200.000	-0.025	-0.223
-665.018	-200.000	-0.074	-0.407
-664.003	-67.290	0.280	0.112
-662.989	299.231	0.107	-0.201
-661.974	231.389	-0.309	-0.517
-660.959	57.837	-0.221	-0.221
-659.945	-121.347	0.347	-0.059
-658.930	-200.000	-0.008	-0.066
-657.916	-200.000	-0.001	0.181
-656.901	-4.121	0.115	0.082
-655.886	-25.755	-0.316	-0.190
-654.872	-43.441	0.081	0.042
-653.857	10.182	0.224	-0.174
-652.843	-134.245	0.201	-0.025
-651.828	-165.982	-0.086	-0.004
-650.814	143.226	-0.053	0.072
-649.799	99.960	0.214	0.252
-648.784	11.416	-0.034	-0.027
-647.770	371.530	0.186	-0.385
-646.755	177.395	0.055	-0.081
-645.741	800.000	-0.031	0.088
-644.726	136.494	-0.061	-0.081
-643.711	-14.524	0.304	0.199
-642.697	14.440	0.235	-0.187
-641.682	-83.284	0.203	0.066
-640.668	1.441	0.217	-0.159
-639.653	800.000	0.036	-0.137
-638.638	-73.388	0.252	0.094
-637.624	-114.757	0.265	-0.052
-636.609	220.534	0.099	0.162
-635.595	19.042	-0.201	-0.164
-634.580	-73.514	-0.041	-0.015
-633.565	6.548	0.244	-0.185
-632.551	-200.000	-0.096	-0.436
-631.536	-200.000	-0.019	-0.152
-630.522	800.000	-0.054	-0.154
-629.507	-94.769	-0.139	-0.038
-628.492	-136.037	-0.281	0.034
-627.478	-200.000	0.014	-0.344
-626.463	800.000	0.057	-0.198
-625.449	-156.399	0.133	-0.008
-624.434	-15.430	0.218	0.142
-623.419	-120.562	-0.229	0.040
-622.405	-200.000	0.044	-0.216
-621.390	-200.000	0.000	-0.123
-620.376	-200.000	0.011	-0.172
-619.361	-200.000	0.018	-0.171
-618.346	800.000	0.047	-0.135
-617.332	-78.220	-0.425	-0.149
-616.317	69.872	0.111	-0.117
-615.303	27.345	-0.135	-0.116
-614.288	631.998	-0.017	0.043
-613.273	-55.682	-0.174	-0.079
-612.259	89.734	0.336	0.382
-611.244	-200.000	-0.031	-0.223
-610.230	170.520	-0.078	0.113
-609.215	-101.536	-0.230	-0.057
-608.201	-124.547	-0.303	0.048
-607.186	698.234	0.076	0.202
-606.171	-200.000	-0.070	0.348
-605.157	-27.369	-0.268	0.158
-604.142	-200.000	0.003	0.195
-603.128	19.867	-0.280	0.230
-602.113	-67.031	0.119	0.048
-601.098	-200.000	-0.001	0.092
-600.084	-43.956	0.099	-0.051
-599.069	-116.238	-0.223	0.042
-598.055	-86.994	-0.228	-0.071
-597.040	800.000	-0.140	-0.395
-596.025	190.165	-0.131	-0.199
-595.011	119.620	0.232	0.293
-593.996	28.720	0.198	-0.170
-592.982	219.437	0.134	0.218
-591.967	-13.955	-0.211	-0.139
-590.952	56.256	0.280	-0.277
-589.938	800.000	0.050	-0.175
-588.923	-200.000	-0.053	0.263
-587.909	-95.385	-0.267	-0.073
-586.894	-137.996	-0.411	0.047
-585.879	254.709	-0.068	-0.119
-584.865	-10.205	0.128	0.086
-583.850	-200.000	0.003	-0.134
-582.836	-45.787	-0.380	0.191
-581.821	13.484	-0.347	0.274
-580.806	-33.553	0.337	-0.189
-579.792	41.043	0.230	0.211
-578.777	-200.000	0.029	0.183
-577.763	-176.812	-0.264	0.007
-576.748	536.229	0.048	-0.115
-575.733	-200.000	0.053	0.451
-574.719	-33.174	0.249	0.140
-573.704	-49.029	0.209	-0.101
-572.690	-200.000	-0.041	0.199
-571.675	-167.188	-0.374	0.015
-570.661	-200.000	-0.000	-0.193
-569.646	215.749	0.038	-0.062
-568.631	-26.063	-0.183	-0.110
-567.617	-200.000	-0.027	-0.174
-566.602	530.859	0.087	-0.208
-565.588	-8.156	-0.156	0.107
-564.573	43.508	0.275	0.256
-563.558	-112.580	-0.213	-0.043
-562.544	-24.449	0.294	0.178
-561.529	65.299	-0.242	0.249
-560.515	-1.170	0.107	0.077
-559.500	108.736	-0.207	0.252
-558.485	242.528	-0.079	0.134
-557.471	354.465	-0.044	0.088
-556.456	-168.480	-0.318	-0.012
-555.442	-86.526	0.234	-0.073
-554.427	-27.666	0.359	0.211
-553.412	-8.513	-0.070	0.048
-552.398	-69.766	0.215	-0.083
-551.383	-123.829	0.274	0.044
-550.369	53.252	0.118	0.115
-549.354	-39.839	-0.241	0.128
-548.339	-126.543	-0.264	0.040
-547.325	800.000	-0.031	-0.134
-546.310	-200.000	-0.022	-0.149
-545.296	-64.584	-0.197	-0.081
-544.281	-92.267	0.302	0.086
-543.266	86.015	0.151	-0.169
-542.252	-5.044	-0.134	-0.094
-541.237	-133.217	0.015	0.002
-540.223	697.734	0.023	-0.061
-539.208	-200.000	0.006	-0.111
-538.193	-200.000	-0.035	-0.254
-537.179	-114.445	-0.357	-0.070
-536.164	-148.322	-0.138	0.012
-535.150	-200.000	0.006	0.395
-534.135	-66.989	0.154	0.062
-533.121	21.678	0.077	0.064
-532.106	410.524	-0.092	-0.198
-531.091	261.106	-0.202	0.354
-530.077	-200.000	-0.012	-0.130
-529.062	-30.894	-0.160	-0.092
-528.048	-122.872	0.326	0.053
-527.033	509.168	0.055	0.130
-526.018	800.000	0.050	0.152
-525.004	150.770	-0.094	-0.130
-523.989	-200.000	0.016	0.093
-522.975	121.604	0.123	-0.156
-521.960	800.000	0.042	-0.126
-520.945	177.154	-0.039	-0.057
-519.931	279.716	-0.107	-0.194
-518.916	-200.000	0.026	-0.221
-517.902	-200.000	0.009	-0.239
-516.887	-16.712	-0.185	-0.119
-515.872	29.172	-0.073	-0.063
-514.858	133.007	0.178	0.233
-513.843	-83.507	0.232	-0.075
-512.829	301.958	-0.048	0.090
-511.814	-200.000	-0.031	-0.153
-510.799	-144.468	-0.216	0.020
-509.785	-20.134	-0.148	-0.092
-508.770	36.137	0.151	-0.134
-507.756	-72.143	0.537	0.202
-506.741	-200.000	0.010	-0.250
-505.726	-200.000	0.030	-0.240
-504.712	-200.000	0.016	-0.248
-503.697	-22.457	-0.128	-0.079
-502.683	-16.789	-0.109	-0.070
-501.668	235.953	-0.175	0.293
-500.653	77.115	0.203	0.219
-499.639	-120.084	-0.430	-0.075
-498.624	-149.724	0.633	-0.050
-497.610	333.780	0.067	0.131
-496.595	225.150	-0.073	0.120
-495.581	796.109	0.053	0.147
-494.566	177.665	0.205	-0.303
-493.551	251.384	0.022	0.038
-492.537	-97.204	-0.244	-0.065
-491.522	-200.000	0.012	-0.063
-490.508	-200.000	0.010	-0.251
-489.493	-170.177	0.253	-0.009
-488.478	-126.546	-0.442	-0.066
-487.464	135.882	-0.163	-0.215
-486.449	-200.000	0.014	0.185
-485.435	-65.893	-0.190	0.077
-484.420	295.468	-0.102	-0.188
-483.405	-58.996	-0.168	-0.073
-482.391	-131.283	-0.290	0.039
-481.376	-174.227	0.243	-0.007
-480.362	-71.340	0.096	-0.036
-479.347	800.000	0.016	-0.069
-478.332	84.266	0.213	-0.235
-477.318	-200.000	0.021	0.123
-476.303	-31.985	0.083	-0.047
-475.289	136.825	-0.305	-0.403
-474.274	319.753	-0.039	-0.074
-473.259	-122.628	-0.392	0.064
-472.245	114.351	-0.173	-0.214
-471.230	154.659	0.065	-0.090
-470.216	63.719	-0.194	0.198
-469.201	628.863	0.034	-0.087
-468.186	800.000	-0.044	-0.139
-467.172	146.145	-0.050	0.067
-466.157	126.081	0.240	0.308
-465.143	1.558	0.364	-0.265
-464.128	334.330	-0.112	0.220
-463.113	-200.000	0.056	0.257
-462.099	-114.567	0.222	-0.043
-461.084	-83.456	-0.338	-0.110
-460.070	-200.000	-0.039	-0.338
-459.055	-26.213	-0.247	-0.147
-458.040	-30.209	0.157	-0.090
-457.026	-40.518	-0.197	-0.104
-456.011	21.611	-0.319	0.262
-454.997	-16.163	-0.260	-0.167
-453.982	-145.682	0.218	0.020
-452.968	-118.976	-0.173	-0.031
-451.953	800.000	0.098	-0.300
-450.938	-200.000	0.026	-0.136
-449.924	-27.862	0.172	0.101
-448.909	269.618	-0.312	0.555
-447.895	-174.694	0.290	-0.008
-446.880	88.557	-0.069	0.078
-445.865	-16.445	0.299	0.192
-444.851	-80.628	0.252	0.085
-443.836	-146.543	-0.202	0.018
-442.822	65.900	0.195	0.200
-441.807	-18.663	0.262	0.165
-440.792	-61.731	0.074	-0.031
-439.778	-164.879	0.193	-0.009
-438.763	-200.000	0.039	-0.179
-437.749	40.975	0.157	-0.144
-436.734	-200.000	0.015	0.074
-435.719	-124.664	0.414	-0.065
-434.705	-84.600	-0.137	0.044
-433.690	166.960	-0.191	-0.274
-432.676	-158.419	-0.346	0.020
-431.661	-19.533	0.069	0.043
-430.646	145.966	0.118	0.160
-429.632	-200.000	0.027	0.351
-428.617	-131.401	-0.294	-0.039
-427.603	-200.000	-0.042	-0.351
-426.588	-34.623	-0.044	-0.024
-425.573	402.806	-0.173	-0.368
-424.559	800.000	0.053	-0.157
-423.544	-200.000	-0.019	-0.327
-422.530	-2.044	0.112	-0.079
-421.515	40.128	-0.313	0.284
-420.500	-69.059	-0.166	-0.065
-419.486	-64.578	0.199	-0.082
-418.471	-200.000	-0.065	-0.288
-417.457	-200.000	-0.023	-0.113
-416.442	34.663	-0.224	-0.198
-415.428	234.812	-0.195	-0.325
-414.413	777.016	0.083	-0.229
-413.398	-200.000	0.002	0.299
-412.384	-181.866	0.076	0.001
-411.369	-200.000	0.051	-0.485
-410.355	-62.994	0.128	-0.054
-409.340	48.077	-0.109	-0.103
-408.325	-200.000	0.002	0.328
-407.311	189.759	0.166	-0.252
-406.296	241.840	-0.155	-0.261
-405.282	-93.357	0.234	0.065
-404.267	98.386	-0.219	-0.255
-403.252	118.087	0.076	0.095
-402.238	132.837	0.015	0.020
-401.223	73.111	0.287	-0.303
-400.209	-93.199	0.169	0.047
-399.194	138.754	-0.069	0.092
-398.179	-21.900	-0.257	0.158
-397.165	206.996	-0.237	-0.372
-396.150	28.154	0.069	-0.059
-395.136	-121.481	-0.154	0.026
-394.121	456.547	0.129	-0.288
-393.106	189.521	-0.154	-0.233
-392.092	-149.149	0.252	-0.020
-391.077	35.900	0.253	0.225
-390.063	7.753	-0.101	-0.076
-389.048	95.563	-0.181	0.208
-388.033	46.476	0.120	0.112
-387.019	41.520	0.111	0.101
-386.004	58.785	-0.137	-0.136
-384.990	-31.818	-0.003	0.001
-383.975	-200.000	-0.047	-0.392
-382.960	800.000	-0.045	-0.139
-381.946	-111.285	0.188	0.039
-380.931	755.063	0.074	-0.203
-379.917	-13.811	-0.192	0.125
-378.902	201.170	0.167	-0.259
-377.888	15.196	-0.226	-0.179
-376.873	-67.564	-0.325	-0.129
-375.858	800.000	-0.115	-0.343
-374.844	47.375	-0.212	-0.199
-373.829	189.403	0.137	0.207
-372.815	-200.000	-0.000	0.177
-371.800	-200.000	-0.006	-0.075
-370.785	-143.689	-0.259	0.025
-369.771	800.000	-0.081	0.241
-368.756	-200.000	0.027	-0.179
-367.742	44.797	-0.156	-0.145
-366.727	-34.650	0.335	0.185
-365.712	344.199	-0.012	0.024
-364.698	-95.303	-0.197	0.053
-363.683	-193.584	-0.289	0.002
-362.669	201.241	-0.098	-0.152
-361.654	272.363	0.162	0.289
-360.639	-200.000	0.013	-0.231
-359.625	-28.784	0.189	0.110
-358.610	221.968	0.123	0.200
-357.596	-200.000	0.015	-0.244
-356.581	-162.804	0.356	0.018
-355.566	-54.201	0.243	0.111
-354.552	-99.693	-0.166	0.042
-353.537	-107.698	-0.324	0.071
-352.523	-58.229	0.265	0.116
-351.508	320.576	0.094	-0.180
-350.493	386.073	0.161	0.336
-349.479	644.996	0.086	0.221
-348.464	800.000	-0.099	0.362
-347.450	134.172	-0.236	0.308
-346.435	-153.980	-0.337	-0.023
-345.420	-122.572	0.331	-0.054
-344.406	22.654	-0.145	0.119
-343.391	91.417	-0.101	-0.114
-342.377	-76.629	0.270	0.095
-341.362	-200.000	0.038	0.309
-340.348	-4.960	0.177	0.123
-339.333	491.769	0.057	-0.131
-338.318	-62.730	0.167	-0.070
-337.304	310.576	0.110	-0.207
-336.289	-200.000	-0.004	-0.276
-335.275	-94.615	-0.126	0.035
-334.260	-200.000	0.076	0.609
-333.245	-169.449	0.510	0.019
-332.231	-85.145	0.183	-0.058
-331.216	142.742	-0.184	-0.247
-330.202	-200.000	-0.007	-0.139
-329.187	-200.000	0.024	0.368
-328.172	-29.522	0.214	0.123
-327.158	60.780	0.034	0.034
-326.143	78.434	0.023	-0.025
-325.129	-139.900	0.273	-0.029
-324.114	53.240	0.085	0.082
-323.099	-98.620	-0.238	0.061
-322.085	-200.000	0.009	-0.065
-321.070	-93.753	-0.202	-0.056
-320.056	44.391	-0.121	0.112
-319.041	118.917	0.123	0.153
-318.026	441.928	0.113	-0.250
-317.012	-48.984	0.049	-0.024
-315.997	-200.000	0.054	0.387
-314.983	800.000	-0.113	0.470
-313.968	-103.617	0.272	-0.064
-312.953	-200.000	-0.005	-0.205
-311.939	-75.121	-0.131	0.047
-310.924	-113.530	0.432	0.085
-309.910	-200.000	-0.009	0.348
-308.895	543.476	0.041	0.098
-307.880	38.456	0.363	-0.326
-306.866	153.598	0.195	0.269
-305.851	800.000	0.055	0.228
-304.837	-76.698	0.206	-0.073
-303.822	63.132	0.050	-0.051
-302.807	-85.964	-0.157	-0.049
-301.793	-200.000	-0.024	0.183
-300.778	-200.000	-0.050	0.232
-299.764	800.000	-0.056	0.162
-298.749	-118.730	0.296	0.053
-297.735	307.682	0.079	0.149
-296.720	-13.654	0.235	-0.153
-295.705	-50.728	0.227	-0.107
-294.691	-109.886	0.132	-0.028
-293.676	-135.525	0.736	-0.088
-292.662	198.569	0.169	-0.261
-291.647	19.598	0.289	0.234
-290.632	104.826	-0.104	-0.123
-289.618	49.533	-0.157	0.149
-288.603	-20.051	0.075	-0.047
-287.589	-11.754	-0.202	0.134
-286.574	800.000	0.068	0.270
-285.559	-12.205	0.187	0.123
-284.545	47.027	0.217	-0.203
-283.530	800.000	-0.081	-0.287
-282.516	-136.999	0.220	0.025
-281.501	-8.228	0.046	-0.031
-280.486	-200.000	-0.005	0.040
-279.472	-35.167	0.253	-0.139
-278.457	800.000	-0.063	-0.241
-277.443	757.624	-0.054	0.148
-276.428	-167.737	-0.201	0.008
-275.413	-200.000	0.005	-0.143
-274.399	86.910	0.185	-0.206
-273.384	548.771	0.009	-0.020
-272.370	-200.000	0.002	-0.115
-271.355	-200.000	0.028	-0.160
-270.340	-200.000	-0.056	-0.250
-269.326	58.898	0.125	0.123
-268.311	-17.513	0.158	-0.100
-267.297	258.495	-0.161	-0.278
-266.282	360.318	-0.097	0.196
-265.267	317.607	-0.091	0.173
-264.253	323.422	0.249	0.478
-263.238	137.439	-0.103	-0.135
-262.224	-48.524	-0.107	0.052
-261.209	-31.616	0.172	-0.097
-260.195	-116.593	0.099	0.018
-259.180	-200.000	0.048	0.249
-258.165	-200.000	-0.026	0.239
-257.151	22.303	0.341	0.280
-256.136	-200.000	-0.024	-0.193
-255.122	94.879	0.152	-0.173
-254.107	-200.000	0.047	0.275
-253.092	-118.230	-0.223	-0.040
-252.078	-200.000	0.010	0.270
-251.063	334.741	-0.060	-0.116
-250.049	71.739	-0.208	0.217
-249.034	-200.000	-0.019	0.356
-248.019	477.037	0.055	0.124
-247.005	-90.108	-0.196	0.057
-245.990	-97.739	0.114	0.030
-244.976	4.675	0.136	-0.100
-243.961	-97.834	-0.234	0.061
-242.946	-180.865	-0.131	0.003
-241.932	-100.729	0.223	0.055
-240.917	800.000	0.068	0.248
-239.903	358.369	-0.094	-0.188
-238.888	-24.110	0.244	0.146
-237.873	235.399	0.102	0.168
-236.859	-92.800	0.204	-0.057
-235.844	482.818	-0.051	-0.115
-234.830	-192.318	-0.235	0.002
-233.815	-200.000	-0.013	0.080
-232.800	800.000	-0.013	0.040
-231.786	-74.025	-0.319	0.116
-230.771	797.434	0.085	-0.234
-229.757	-49.461	-0.175	-0.084
-228.742	61.035	-0.125	0.125
-227.727	200.163	-0.189	0.292
-226.713	79.542	-0.024	0.026
-225.698	-86.815	-0.387	-0.119
-224.684	-134.888	-0.101	0.012
-223.669	-41.064	-0.109	-0.057
-222.655	80.935	-0.189	0.204
-221.640	-15.816	-0.094	-0.060
-220.625	86.209	-0.199	-0.220
-219.611	336.694	0.140	0.272
-218.596	-77.167	-0.289	0.101
-217.582	-101.630	-0.299	-0.073
-216.567	-140.128	-0.286	0.030
-215.552	-78.401	0.312	0.107
-214.538	6.570	-0.187	-0.140
-213.523	473.912	0.092	0.208
-212.509	277.055	0.123	-0.220
-211.494	-85.402	0.108	-0.034
-210.479	279.186	-0.080	-0.143
-209.465	234.734	0.186	0.307
-208.450	-36.295	-0.435	0.235
-207.436	-186.780	0.277	-0.004
-206.421	487.720	0.118	0.270
-205.406	769.034	-0.032	-0.087
-204.392	-109.572	-0.261	0.055
-203.377	5.842	-0.155	-0.115
-202.363	-69.709	-0.139	-0.053
-201.348	-36.287	-0.055	0.030
-200.333	-97.566	-0.424	-0.110
-199.319	443.767	-0.188	0.414
-198.304	1.689	0.153	0.111
-197.290	-200.000	-0.002	0.171
-196.275	-112.580	0.464	0.093
-195.260	-90.254	0.079	0.023
-194.246	48.881	0.075	0.071
-193.231	-200.000	-0.070	0.392
-192.217	-97.006	-0.130	-0.034
-191.202	-200.000	-0.006	0.277
-190.187	-200.000	0.041	0.204
-189.173	-200.000	-0.013	0.220
-188.158	22.898	-0.301	0.248
-187.144	-131.396	-0.047	0.006
-186.129	-10.883	0.131	-0.087
-185.114	800.000	-0.114	0.443
-184.100	11.175	-0.157	-0.120
-183.085	-55.845	-0.178	-0.079
-182.071	-15.581	-0.244	0.156
-181.056	-94.026	0.324	0.089
-180.042	800.000	-0.045	0.174
-179.027	-155.064	0.287	0.019
-178.012	-83.511	-0.152	-0.049
-176.998	103.247	0.137	-0.160
-175.983	-200.000	-0.013	-0.103
-174.969	211.015	-0.156	-0.245
-173.954	-7.261	-0.304	-0.207
-172.939	-8.165	-0.244	0.165
-171.925	-30.156	-0.033	-0.019
-170.910	209.138	-0.069	-0.109
-169.896	8.875	0.185	0.140
-168.881	-200.000	0.079	-0.378
-167.866	-200.000	-0.038	0.397
-166.852	-6.494	-0.230	-0.157
-165.837	-200.000	0.042	-0.212
-164.823	29.152	0.053	-0.045
-163.808	800.000	0.087	0.278
-162.793	-11.645	-0.069	0.046
-161.779	-200.000	-0.001	-0.007
-160.764	390.583	0.123	-0.256
-159.750	-200.000	-0.039	-0.233
-158.735	-200.000	0.003	0.071
-157.720	-77.421	0.109	0.038
-156.706	36.413	0.157	0.138
-155.691	275.256	-0.282	0.499
-154.677	-200.000	-0.045	-0.296
-153.662	-94.627	0.234	0.064
-152.647	20.869	0.191	-0.155
-151.633	-124.075	-0.148	-0.023
-150.618	-116.774	-0.326	0.060
-149.604	800.000	0.057	-0.241
-148.589	2.277	0.261	0.188
-147.574	-11.740	0.221	0.145
-146.560	49.596	0.086	-0.081
-145.545	-95.977	-0.099	-0.026
-144.531	-90.461	0.267	-0.077
-143.516	-69.525	0.116	0.045
-142.502	-200.000	0.069	-0.552
-141.487	118.990	0.160	-0.198
-140.472	-196.688	0.219	0.001
-139.458	395.042	0.057	0.119
-138.443	68.590	0.262	0.269
-137.429	-94.114	-0.151	-0.041
-136.414	405.181	-0.095	-0.200
-135.399	343.368	0.158	0.310
-134.385	-130.035	0.034	-0.005
-133.370	-200.000	0.026	0.160
-132.356	-20.667	-0.292	-0.179
-131.341	-32.216	-0.137	0.076
-130.326	-32.213	0.287	0.160
-129.312	-137.784	0.269	0.030
-128.297	-3.185	0.159	0.111
-127.283	581.056	-0.166	0.406
-126.268	-130.279	-0.469	-0.064
-125.253	128.813	0.166	-0.212
-124.239	-123.356	-0.037	0.006
-123.224	306.629	-0.143	0.267
-122.210	-1.542	0.076	0.054
