DTS Sentinel unit serial number:	SN413079Multiplexer serial number:	ORYXHardware model number:	OX4-SRSoftware version number:	ORYX F/W v4.00 Oryx Data Collector v3.7.2.0data status	okinstallation	princeton_trtdifferential loss correction	single-endedforward channel	channel 1reverse channel	N/Adate	2019/09/13time	10:38:35forward acquisition time	60.00reverse acquisition time	0.00gamma	496.2192k internal	0.2321k external	0.2321temperature offset calibration	1.0160default loss term (dB/km)	0.3790temperature slope calibration	1.0000multiplexer offset coefficient	1.0000multiplexer slope coefficient	1.0000fibre end	0.00T internal ref (°C)	31.37T ext. ref 1 (°C)	4.56T ext. ref 2 (°C)	28.24length (m)	temperature (°C)	Stokes	anti-Stokes-747.200	-107.924	-0.321	0.071
-746.185	800.000	-0.123	0.392
-745.171	141.428	0.044	0.059
-744.156	146.488	0.094	0.128
-743.142	-69.739	0.057	-0.022
-742.127	-200.000	0.042	0.243
-741.112	290.918	-0.101	-0.186
-740.098	21.326	-0.270	0.222
-739.083	434.327	-0.156	-0.343
-738.069	-88.166	-0.157	-0.048
-737.054	24.702	0.180	0.151
-736.039	-115.479	-0.144	-0.027
-735.025	-65.827	0.162	-0.065
-734.010	-60.230	-0.256	-0.110
-732.996	314.178	-0.227	-0.431
-731.981	-10.040	0.157	0.105
-730.966	-55.584	0.181	-0.082
-729.952	-57.997	-0.148	0.065
-728.937	152.357	-0.245	-0.338
-727.923	52.742	0.150	-0.144
-726.908	-19.574	0.069	-0.043
-725.894	-66.004	-0.170	0.069
-724.879	570.357	0.055	0.136
-723.864	65.469	-0.183	-0.187
-722.850	23.875	-0.134	0.111
-721.835	79.007	0.202	0.218
-720.821	106.511	-0.122	0.146
-719.806	-200.000	-0.001	-0.035
-718.791	-200.000	0.020	-0.141
-717.777	145.300	-0.094	0.128
-716.762	152.515	-0.032	0.045
-715.748	-46.993	-0.137	-0.067
-714.733	60.747	0.130	0.131
-713.718	510.825	0.095	-0.222
-712.704	-22.626	-0.083	-0.051
-711.689	-21.905	-0.184	0.113
-710.675	-123.641	0.209	0.034
-709.660	-200.000	-0.021	-0.117
-708.645	-117.932	-0.390	0.070
-707.631	124.884	-0.105	0.134
-706.616	208.720	0.040	-0.064
-705.602	221.150	-0.177	0.286
-704.587	-62.298	-0.254	-0.107
-703.572	-200.000	-0.219	0.000
-702.558	164.848	-0.168	-0.239
-701.543	-200.000	-0.021	0.351
-700.529	54.627	-0.154	0.150
-699.514	-200.000	-0.015	-0.141
-698.499	-112.498	-0.328	-0.066
-697.485	49.072	-0.124	-0.117
-696.470	15.929	0.120	-0.095
-695.456	-200.000	0.025	0.261
-694.441	-71.405	-0.121	-0.046
-693.426	-106.418	0.314	-0.071
-692.412	85.022	-0.197	0.218
-691.397	500.053	-0.168	-0.391
-690.383	276.303	-0.270	-0.484
-689.368	-66.302	-0.045	0.018
-688.354	800.000	-0.017	0.054
-687.339	-130.796	0.168	0.023
-686.324	800.000	-0.046	-0.187
-685.310	800.000	-0.074	-0.230
-684.295	-200.000	-0.062	-0.305
-683.281	-22.688	-0.200	-0.122
-682.266	169.109	-0.173	-0.248
-681.251	-48.532	-0.219	0.106
-680.237	32.488	0.224	0.195
-679.222	43.557	0.251	-0.231
-678.208	23.739	-0.170	-0.142
-677.193	-200.000	-0.009	-0.141
-676.178	-57.198	-0.344	-0.153
-675.164	-19.617	-0.351	-0.219
-674.149	185.156	-0.081	-0.122
-673.135	-93.047	-0.403	0.113
-672.120	-200.000	-0.016	-0.280
-671.105	-95.160	-0.287	-0.078
-670.091	-113.549	0.410	-0.081
-669.076	-200.000	0.014	-0.135
-668.062	136.239	-0.052	-0.068
-667.047	362.802	0.079	-0.160
-666.032	246.042	-0.171	-0.290
-665.018	-200.000	-0.027	-0.211
-664.003	800.000	-0.058	-0.223
-662.989	-16.423	-0.338	0.216
-661.974	-119.454	-0.037	0.007
-660.959	800.000	-0.034	0.142
-659.945	-80.441	-0.376	0.126
-658.930	-33.186	-0.103	0.058
-657.916	257.366	0.080	0.139
-656.901	-200.000	-0.022	0.133
-655.886	669.396	-0.126	0.329
-654.872	800.000	0.089	-0.287
-653.857	-200.000	-0.022	-0.433
-652.843	330.410	0.065	-0.126
-651.828	800.000	-0.035	0.111
-650.814	-200.000	0.018	0.092
-649.799	-188.413	0.245	0.003
-648.784	231.056	0.072	0.119
-647.770	34.361	0.081	0.071
-646.755	-200.000	-0.003	-0.087
-645.741	5.025	-0.190	0.141
-644.726	302.266	-0.030	-0.056
-643.711	3.458	0.163	-0.120
-642.697	-138.852	-0.077	-0.008
-641.682	-113.429	-0.323	0.064
-640.668	-7.660	-0.024	-0.016
-639.653	788.387	0.092	-0.254
-638.638	369.903	-0.074	0.151
-637.624	208.888	0.061	-0.096
-636.609	-143.752	-0.393	0.037
-635.595	-8.685	-0.155	-0.105
-634.580	409.008	-0.170	-0.363
-633.565	12.592	-0.109	-0.085
-632.551	-115.944	-0.153	-0.029
-631.536	-145.167	0.207	-0.019
-630.522	-200.000	-0.022	0.112
-629.507	120.577	-0.114	0.143
-628.492	222.374	0.132	0.214
-627.478	-28.864	-0.039	0.022
-626.463	-107.325	-0.067	0.015
-625.449	-59.730	-0.206	-0.089
-624.434	194.641	0.337	-0.515
-623.419	65.105	-0.064	-0.065
-622.405	-147.393	0.068	0.006
-621.390	-68.386	-0.207	-0.081
-620.376	40.017	0.058	-0.053
-619.361	-200.000	0.024	0.278
-618.346	800.000	0.042	-0.120
-617.332	213.704	-0.210	-0.333
-616.317	-200.000	0.008	-0.175
-615.303	-200.000	-0.029	0.179
-614.288	81.797	0.165	0.179
-613.273	281.825	0.122	0.221
-612.259	345.194	-0.193	0.381
-611.244	800.000	-0.196	-0.564
-610.230	-75.472	0.096	-0.034
-609.215	800.000	0.018	0.066
-608.201	-200.000	-0.003	-0.035
-607.186	60.585	0.146	-0.146
-606.171	50.487	0.189	-0.180
-605.157	270.219	-0.060	-0.106
-604.142	340.586	-0.134	-0.263
-603.128	800.000	-0.097	0.286
-602.113	-200.000	0.052	0.308
-601.098	-143.056	0.203	0.020
-600.084	25.428	0.282	0.236
-599.069	32.026	-0.105	0.091
-598.055	-82.063	0.134	0.044
-597.040	-80.330	-0.249	0.084
-596.025	-103.468	-0.570	-0.135
-595.011	384.855	-0.044	0.091
-593.996	-87.033	-0.196	0.060
-592.982	117.558	-0.107	0.132
-591.967	-77.692	0.234	-0.081
-590.952	-19.140	-0.255	0.159
-589.938	-200.000	0.022	-0.224
-588.923	416.742	0.090	-0.194
-587.909	503.341	-0.061	-0.142
-586.894	-21.585	0.400	-0.245
-585.879	-200.000	-0.008	0.035
-584.865	-200.000	0.010	0.094
-583.850	-83.949	0.255	0.082
-582.836	-200.000	0.013	-0.291
-581.821	-200.000	0.045	-0.216
-580.806	-200.000	0.009	-0.102
-579.792	-85.667	-0.085	0.027
-578.777	-112.762	-0.137	0.027
-577.763	800.000	0.059	-0.241
-576.748	35.075	0.150	-0.132
-575.733	800.000	0.029	-0.086
-574.719	-135.509	-0.528	0.063
-573.704	-32.582	-0.186	-0.104
-572.690	-28.160	0.133	-0.077
-571.675	84.239	0.072	-0.079
-570.661	791.853	0.061	0.168
-569.646	-37.281	-0.225	-0.121
-568.631	531.712	0.025	0.060
-567.617	-47.141	-0.105	-0.051
-566.602	-23.852	0.164	-0.099
-565.588	129.966	-0.191	0.245
-564.573	800.000	-0.057	0.189
-563.558	-23.309	0.096	-0.058
-562.544	-200.000	0.025	0.275
-561.529	520.155	0.062	-0.146
-560.515	499.216	0.034	0.079
-559.500	-200.000	0.021	0.359
-558.485	-33.702	0.200	0.111
-557.471	185.887	-0.159	0.237
-556.456	524.588	0.126	0.298
-555.442	-200.000	-0.026	0.132
-554.427	-184.634	0.479	-0.008
-553.412	-200.000	-0.001	0.131
-552.398	-147.622	0.206	0.017
-551.383	-62.015	-0.182	0.076
-550.369	-200.000	0.014	-0.186
-549.354	314.785	-0.118	0.223
-548.339	-3.023	-0.076	-0.053
-547.325	-200.000	0.026	-0.236
-546.310	-96.957	-0.228	0.060
-545.296	800.000	0.122	0.362
-544.281	66.075	0.316	0.322
-543.266	101.780	0.180	0.210
-542.252	800.000	-0.055	0.160
-541.237	-200.000	0.057	0.262
-540.223	-0.177	-0.149	-0.106
-539.208	-143.676	-0.088	0.008
-538.193	-200.000	-0.030	-0.393
-537.179	-153.925	-0.180	0.012
-536.164	296.225	0.237	0.436
-535.150	-200.000	0.016	0.322
-534.135	-185.642	0.207	-0.003
-533.121	-56.930	-0.164	-0.073
-532.106	-200.000	-0.040	-0.228
-531.091	-186.744	-0.209	-0.003
-530.077	370.675	0.175	-0.356
-529.062	-200.000	-0.005	0.254
-528.048	463.732	-0.057	-0.127
-527.033	209.835	0.093	-0.146
-526.018	215.560	-0.090	-0.144
-525.004	-64.742	-0.184	-0.075
-523.989	-200.000	-0.012	-0.203
-522.975	34.222	0.074	-0.065
-521.960	-200.000	-0.232	-0.000
-520.945	118.696	0.159	-0.197
-519.931	30.851	0.187	0.160
-518.916	-200.000	0.005	-0.054
-517.902	370.323	-0.104	-0.212
-516.887	580.361	-0.106	-0.261
-515.872	10.071	-0.227	0.173
-514.858	-150.594	-0.318	0.024
-513.843	-8.987	-0.082	0.055
-512.829	139.171	0.189	0.249
-511.814	-200.000	-0.003	0.034
-510.799	800.000	0.098	-0.346
-509.785	178.830	0.183	-0.268
-508.770	66.630	-0.252	0.256
-507.756	-144.414	0.120	-0.011
-506.741	-51.371	-0.340	0.159
-505.726	-69.598	0.355	-0.136
-504.712	800.000	-0.039	0.161
-503.697	30.518	0.166	-0.142
-502.683	68.644	0.063	0.065
-501.668	-87.941	-0.208	-0.062
-500.653	126.293	-0.203	-0.258
-499.639	-200.000	0.005	0.276
-498.624	-200.000	0.020	-0.111
-497.610	220.506	0.038	-0.061
-496.595	-200.000	0.011	0.163
-495.581	-137.200	0.170	0.019
-494.566	-200.000	0.008	0.064
-493.551	40.575	0.076	-0.068
-492.537	-199.407	0.448	-0.002
-491.522	50.709	-0.164	0.155
-490.508	-200.000	0.025	0.302
-489.493	40.699	-0.240	0.216
-488.478	127.422	0.039	-0.049
-487.464	-200.000	-0.050	0.450
-486.449	-200.000	-0.006	0.362
-485.435	800.000	-0.062	-0.189
-484.420	-3.597	-0.177	-0.123
-483.405	-28.816	0.126	0.072
-482.391	-200.000	-0.019	-0.127
-481.376	-73.726	-0.168	-0.061
-480.362	494.078	0.012	0.026
-479.347	306.767	0.139	0.259
-478.332	38.258	0.093	-0.083
-477.318	800.000	-0.065	-0.228
-476.303	56.052	0.155	0.150
-475.289	-90.981	0.285	0.082
-474.274	-200.000	-0.068	-0.345
-473.259	-86.398	-0.179	-0.055
-472.245	-60.741	0.251	-0.106
-471.230	-86.495	0.125	-0.038
-470.216	-200.000	0.258	0.000
-469.201	-20.990	-0.052	0.032
-468.186	-67.208	0.025	0.010
-467.172	70.445	0.166	0.172
-466.157	368.750	-0.135	0.273
-465.143	-60.460	-0.204	-0.087
-464.128	-88.027	-0.036	0.011
-463.113	206.368	0.034	0.052
-462.099	-52.627	0.095	0.044
-461.084	76.925	-0.237	0.251
-460.070	-119.840	0.170	0.029
-459.055	-200.000	-0.003	-0.026
-458.040	-200.000	0.054	-0.246
-457.026	733.193	0.054	0.146
-456.011	-97.666	0.216	-0.056
-454.997	-48.491	-0.315	-0.152
-453.982	800.000	0.046	0.201
-452.968	-69.315	-0.340	0.130
-451.953	128.552	0.092	-0.117
-450.938	340.313	-0.071	0.139
-449.924	-89.011	-0.199	0.059
-448.909	-0.131	-0.234	-0.167
-447.895	-200.000	-0.055	0.262
-446.880	80.112	-0.130	-0.139
-445.865	-51.320	0.187	-0.087
-444.851	112.042	-0.080	-0.096
-443.836	126.252	-0.173	0.218
-442.822	12.177	-0.228	-0.176
-441.807	-200.000	-0.018	0.146
-440.792	-85.668	-0.260	-0.081
-439.778	800.000	0.031	-0.110
-438.763	-200.000	-0.007	0.138
-437.749	800.000	-0.022	-0.087
-436.734	-62.421	-0.162	-0.067
-435.719	152.380	-0.117	-0.159
-434.705	33.383	-0.244	-0.212
-433.690	295.918	0.050	-0.091
-432.676	-200.000	0.054	-0.237
-431.661	-9.266	0.096	-0.064
-430.646	313.007	-0.110	0.207
-429.632	384.292	0.097	0.199
-428.617	-200.000	0.020	0.106
-427.603	-95.613	-0.231	-0.062
-426.588	-112.158	-0.126	0.025
-425.573	530.928	-0.100	-0.236
-424.559	107.288	0.279	-0.331
-423.544	800.000	0.054	-0.181
-422.530	-163.328	0.295	0.014
-421.515	123.991	-0.124	-0.156
-420.500	-200.000	0.025	-0.241
-419.486	-107.848	0.339	-0.074
-418.471	31.705	-0.215	-0.185
-417.457	-16.682	0.247	-0.156
-416.442	-102.869	0.202	-0.048
-415.428	-103.088	0.589	-0.139
-414.413	-200.000	-0.031	0.369
-413.398	-31.441	0.160	0.090
-412.384	-91.809	0.092	-0.026
-411.369	273.689	0.042	-0.074
-410.355	208.265	-0.105	0.163
-409.340	-140.269	-0.249	0.026
-408.325	440.069	-0.164	-0.356
-407.311	-138.461	0.077	-0.008
-406.296	-200.000	-0.051	0.408
-405.282	142.884	-0.265	0.351
-404.267	70.507	0.056	0.057
-403.252	-13.547	-0.047	0.030
-402.238	-200.000	-0.006	0.085
-401.223	316.915	0.124	0.233
-400.209	0.872	-0.202	-0.144
-399.194	-200.000	0.009	0.053
-398.179	67.348	-0.297	0.302
-397.165	-59.104	-0.172	-0.074
-396.150	800.000	-0.083	-0.252
-395.136	37.793	-0.329	-0.292
-394.121	-128.612	0.191	-0.027
-393.106	-1.325	-0.156	-0.110
-392.092	-6.218	-0.051	-0.035
-391.077	800.000	-0.052	-0.196
-390.063	-18.779	-0.322	-0.200
-389.048	86.045	-0.058	0.063
-388.033	110.630	-0.143	0.172
-387.019	800.000	-0.069	0.269
-386.004	-110.218	-0.201	-0.042
-384.990	-86.304	0.345	-0.106
-383.975	161.184	0.101	-0.140
-382.960	-100.136	-0.213	-0.053
-381.946	549.074	0.084	-0.200
-380.931	-148.340	0.112	-0.009
-379.917	800.000	0.059	-0.184
-378.902	800.000	-0.042	-0.181
-377.888	-4.152	-0.237	-0.164
-376.873	-74.577	-0.109	-0.039
-375.858	277.820	0.036	0.063
-374.844	-117.307	0.482	0.087
-373.829	128.823	0.125	0.158
-372.815	553.542	0.097	-0.233
-371.800	-200.000	-0.004	-0.364
-370.785	-81.842	-0.408	-0.133
-369.771	78.302	-0.049	0.052
-368.756	-129.725	-0.329	-0.045
-367.742	-200.000	0.001	-0.145
-366.727	259.638	0.095	-0.163
-365.712	551.109	0.143	-0.343
-364.698	193.449	-0.204	0.307
-363.683	-200.000	-0.018	0.082
-362.669	-105.067	0.357	0.081
-361.654	161.541	0.151	-0.210
-360.639	9.531	-0.101	-0.076
-359.625	-200.000	-0.015	-0.132
-358.610	-117.221	-0.127	-0.023
-357.596	800.000	0.064	0.255
-356.581	-54.799	-0.097	0.044
-355.566	-102.812	-0.024	-0.006
-354.552	-200.000	-0.056	-0.276
-353.537	-200.000	0.020	-0.144
-352.523	-200.000	-0.004	0.239
-351.508	20.926	0.164	-0.133
-350.493	-50.454	-0.034	-0.016
-349.479	71.546	0.047	0.049
-348.464	-200.000	-0.007	-0.148
-347.450	-200.000	-0.003	-0.165
-346.435	-200.000	0.004	0.092
-345.420	-200.000	0.015	-0.264
-344.406	663.497	0.039	-0.101
-343.391	120.215	-0.133	-0.165
-342.377	-58.350	-0.233	-0.101
-341.362	16.104	-0.117	0.092
-340.348	120.004	0.052	0.064
-339.333	-27.505	0.083	0.048
-338.318	-85.470	0.099	0.031
-337.304	426.520	0.063	0.136
-336.289	100.214	0.208	-0.241
-335.275	-200.000	0.041	0.265
-334.260	13.169	-0.281	-0.217
-333.245	-146.233	-0.119	0.010
-332.231	130.363	-0.197	-0.251
-331.216	-200.000	-0.001	-0.073
-330.202	-13.004	-0.021	-0.013
-329.187	138.220	-0.282	-0.368
-328.172	-33.207	0.279	0.154
-327.158	-200.000	-0.061	-0.324
-326.143	-109.575	0.068	-0.014
-325.129	-98.935	-0.115	0.029
-324.114	87.543	-0.084	0.092
-323.099	-27.243	0.266	0.154
-322.085	15.315	0.276	-0.215
-321.070	-32.925	-0.184	-0.102
-320.056	-58.019	0.128	-0.055
-319.041	160.067	0.103	0.143
-318.026	-200.000	0.000	-0.014
-317.012	300.907	0.112	-0.205
-315.997	-61.812	0.139	-0.058
-314.983	-43.930	-0.080	0.040
-313.968	13.598	-0.126	0.097
-312.953	193.807	0.170	-0.256
-311.939	23.843	-0.283	-0.232
-310.924	800.000	0.118	0.398
-309.910	-76.258	-0.135	-0.047
-308.895	-37.912	0.035	-0.018
-307.880	49.022	0.170	0.158
-306.866	-46.907	0.276	0.134
-305.851	-60.313	-0.111	-0.047
-304.837	-200.000	0.043	0.228
-303.822	-200.000	0.029	-0.164
-302.807	4.872	0.116	-0.085
-301.793	222.635	0.154	0.246
-300.778	-106.590	-0.084	0.019
-299.764	65.954	0.130	0.131
-298.749	-35.260	-0.045	-0.024
-297.735	133.778	0.216	0.277
-296.720	-117.496	-0.173	0.031
-295.705	-200.000	-0.013	0.180
-294.691	-15.359	-0.121	-0.077
-293.676	-116.032	0.245	-0.045
-292.662	-86.139	0.165	-0.050
-291.647	316.119	0.078	0.146
-290.632	-0.925	0.134	0.094
-289.618	-39.216	-0.175	0.091
-288.603	65.748	-0.077	-0.078
-287.589	-165.659	0.248	-0.011
-286.574	-11.575	0.347	0.226
-285.559	-122.766	-0.114	0.018
-284.545	-34.063	0.249	-0.136
-283.530	-200.000	0.014	-0.244
-282.516	3.830	0.292	-0.212
-281.501	157.610	-0.029	-0.039
-280.486	67.162	0.183	0.185
-279.472	-135.387	-0.357	0.042
-278.457	168.507	0.046	0.065
-277.443	-9.035	-0.181	-0.120
-276.428	64.707	0.258	-0.259
-275.413	-137.614	-0.077	-0.009
-274.399	54.964	0.157	-0.150
-273.384	61.084	0.246	0.242
-272.370	-99.869	-0.145	-0.036
-271.355	-200.000	0.002	0.200
-270.340	15.694	-0.033	-0.026
-269.326	175.828	0.067	-0.096
-268.311	5.038	-0.226	-0.165
-267.297	1.383	-0.122	-0.087
-266.282	68.665	0.091	-0.093
-265.267	-69.557	0.230	-0.088
-264.253	-200.000	-0.125	-0.562
-263.238	-200.000	-0.104	-0.464
-262.224	-35.712	0.085	-0.046
-261.209	655.854	0.165	-0.419
-260.195	-97.851	0.386	-0.099
-259.180	-58.836	-0.177	0.076
-258.165	-6.872	0.061	-0.041
-257.151	-151.432	-0.033	0.002
-256.136	415.922	-0.150	-0.318
-255.122	-52.481	0.165	-0.076
-254.107	458.521	0.042	0.094
-253.092	-111.986	0.739	0.148
-252.078	-69.935	0.029	-0.011
-251.063	303.118	0.019	0.035
-250.049	610.389	0.117	0.291
-249.034	493.626	0.162	0.369
-248.019	-96.135	0.277	-0.073
-247.005	134.336	0.062	0.079
-245.990	128.347	-0.122	-0.154
-244.976	-200.000	-0.012	-0.115
-243.961	-49.743	0.184	0.086
-242.946	163.415	-0.204	-0.284
-241.932	-200.000	-0.012	0.091
-240.917	-47.838	-0.118	-0.057
-239.903	800.000	0.079	0.266
-238.888	-138.226	-0.158	0.017
-237.873	-96.226	-0.387	-0.102
-236.859	-138.780	-0.175	-0.019
-235.844	104.778	0.094	-0.109
-234.830	-200.000	0.037	0.179
-233.815	-200.000	0.029	-0.338
-232.800	-150.809	-0.322	0.024
-231.786	38.680	0.227	0.201
-230.771	800.000	-0.004	0.013
-229.757	80.743	-0.338	-0.361
-228.742	800.000	0.082	-0.343
-227.727	47.266	-0.180	-0.166
-226.713	-17.059	0.144	0.090
-225.698	55.961	0.134	0.128
-224.684	-200.000	0.032	-0.193
-223.669	800.000	-0.056	0.189
-222.655	189.713	0.087	-0.130
-221.640	-200.000	0.017	-0.214
-220.625	-124.961	0.412	0.063
-219.611	17.114	0.350	0.274
-218.596	509.698	0.241	0.554
-217.582	-62.330	-0.086	0.036
-216.567	354.689	0.085	0.166
-215.552	126.314	-0.124	0.155
-214.538	-200.000	0.004	-0.047
-213.523	-37.216	-0.232	-0.123
-212.509	-66.030	0.154	-0.061
-211.494	153.847	-0.103	0.139
-210.479	-139.460	0.226	0.024
-209.465	-37.237	0.328	0.174
-208.450	-14.530	-0.189	-0.120
-207.436	800.000	0.080	0.238
-206.421	671.351	0.144	-0.370
-205.406	35.735	0.318	0.277
-204.392	150.532	0.195	0.262
-203.377	-200.000	-0.022	0.387
-202.363	-200.000	-0.061	0.442
-201.348	-153.917	-0.048	0.003
-200.333	7.301	-0.143	0.106
-199.319	-71.541	0.225	-0.083
-198.304	-114.311	-0.214	-0.041
-197.290	-161.618	0.223	-0.011
-196.275	-55.490	-0.212	0.094
-195.260	800.000	-0.030	-0.085
-194.246	372.949	0.107	0.215
-193.231	-122.881	0.254	-0.041
-192.217	84.506	0.182	-0.197
-191.202	172.975	-0.107	-0.152
-190.187	800.000	0.100	-0.326
-189.173	-138.297	-0.383	0.042
-188.158	1.468	0.161	0.114
-187.144	34.469	-0.224	0.193
-186.129	-39.093	-0.315	-0.164
-185.114	-94.393	0.276	0.075
-184.100	682.379	-0.062	-0.159
-183.085	-88.492	0.198	0.058
-182.071	-96.190	-0.270	0.071
-181.056	437.781	0.139	0.299
-180.042	231.193	-0.138	0.224
-179.027	759.678	-0.129	0.345
-178.012	138.073	0.097	-0.126
-176.998	-200.000	-0.068	0.592
-175.983	-29.352	-0.241	0.136
-174.969	-200.000	-0.025	0.471
-173.954	-10.106	-0.145	0.095
-172.939	-200.000	-0.070	0.359
-171.925	-200.000	-0.041	0.274
-170.910	504.926	0.093	-0.214
-169.896	44.216	-0.153	0.139
-168.881	-108.399	-0.242	0.052
-167.866	-99.771	0.122	-0.030
-166.852	425.343	-0.114	-0.242
-165.837	-52.934	-0.082	0.037
-164.823	161.016	0.088	0.122
-163.808	283.465	-0.066	0.117
-162.793	-200.000	0.028	0.254
-161.779	152.886	-0.057	0.076
-160.764	-1.653	-0.215	0.150
-159.750	83.507	0.142	0.153
-158.735	-10.597	-0.169	-0.111
-157.720	-28.074	-0.082	-0.047
-156.706	-1.185	-0.067	0.047
-155.691	-200.000	0.007	0.105
-154.677	800.000	0.118	0.486
-153.662	-85.847	0.129	0.039
-152.647	99.662	0.130	0.149
-151.633	144.862	-0.077	-0.101
-150.618	42.827	0.101	-0.091
-149.604	-200.000	-0.048	0.234
-148.589	-200.000	-0.019	0.155
-147.574	-132.205	0.118	-0.015
-146.560	-99.234	-0.172	-0.043
-145.545	-89.017	-0.107	-0.031
-144.531	81.795	-0.056	-0.060
-143.516	186.614	0.160	0.236
-142.502	147.628	0.059	0.079
-141.487	29.104	0.313	0.262
-140.472	-41.549	0.206	-0.104
-139.458	-107.138	-0.118	-0.026
-138.443	-22.528	-0.335	0.200
-137.429	800.000	0.189	0.530
-136.414	464.567	0.035	-0.077
-135.399	211.617	-0.010	-0.016
-134.385	-109.546	-0.195	-0.041
-133.370	675.292	-0.051	0.131
-132.356	-2.828	0.180	-0.124
-131.341	36.606	-0.156	-0.136
-130.326	309.420	0.057	-0.106
-129.312	-74.367	0.019	0.007
-128.297	-200.000	-0.015	0.199
-127.283	-43.580	0.342	-0.170
-126.268	-97.132	0.302	0.078
-125.253	116.925	-0.118	-0.143
-124.239	-1.685	0.167	-0.116
-123.224	67.774	0.098	0.099
-122.210	-15.352	-0.188	0.119
