DTS Sentinel unit serial number:	SN413079Multiplexer serial number:	ORYXHardware model number:	OX4-SRSoftware version number:	ORYX F/W v4.00 Oryx Data Collector v3.7.2.0data status	okinstallation	princeton_trtdifferential loss correction	single-endedforward channel	channel 1reverse channel	N/Adate	2019/09/15time	07:42:35forward acquisition time	60.00reverse acquisition time	0.00gamma	496.2192k internal	0.2324k external	0.2324temperature offset calibration	1.0006default loss term (dB/km)	0.3790temperature slope calibration	1.0000multiplexer offset coefficient	1.0000multiplexer slope coefficient	1.0000fibre end	0.00T internal ref (°C)	30.62T ext. ref 1 (°C)	4.97T ext. ref 2 (°C)	25.69length (m)	temperature (°C)	Stokes	anti-Stokes-747.200	177.915	-0.102	-0.150
-746.185	553.586	-0.086	0.209
-745.171	742.257	0.080	0.217
-744.156	121.002	-0.259	0.325
-743.142	-200.000	-0.084	0.500
-742.127	105.626	-0.349	0.417
-741.112	-7.241	-0.180	0.123
-740.098	47.280	0.251	0.236
-739.083	-88.321	0.269	0.081
-738.069	-107.932	-0.373	-0.082
-737.054	-200.000	-0.018	0.116
-736.039	-132.829	0.127	0.016
-735.025	49.108	0.114	-0.108
-734.010	-131.802	-0.203	-0.027
-732.996	-76.329	0.200	-0.071
-731.981	-152.271	-0.290	-0.021
-730.966	-1.931	0.036	-0.026
-729.952	-27.794	0.088	0.051
-728.937	-115.151	0.223	-0.043
-727.923	-46.281	-0.190	0.094
-726.908	-142.372	-0.127	0.013
-725.894	41.398	0.268	0.244
-724.879	-5.454	-0.223	-0.155
-723.864	-200.000	0.014	0.150
-722.850	-200.000	-0.009	0.296
-721.835	-200.000	-0.038	-0.276
-720.821	-68.247	-0.447	0.175
-719.806	76.877	-0.190	0.203
-718.791	-200.000	-0.003	-0.259
-717.777	-106.616	0.165	-0.037
-716.762	-96.508	-0.245	-0.065
-715.748	32.850	-0.090	-0.079
-714.733	-39.713	-0.370	0.195
-713.718	-55.439	-0.316	-0.143
-712.704	-110.431	0.326	0.068
-711.689	-200.000	-0.045	-0.305
-710.675	-115.823	0.593	0.112
-709.660	699.083	-0.067	0.178
-708.645	264.903	0.140	0.246
-707.631	-200.000	-0.002	0.298
-706.616	213.210	-0.070	0.112
-705.602	680.121	-0.104	0.274
-704.587	-200.000	0.022	0.117
-703.572	60.561	-0.032	-0.032
-702.558	-82.476	-0.260	0.085
-701.543	-200.000	0.029	0.159
-700.529	45.665	-0.367	0.341
-699.514	-150.939	-0.316	0.024
-698.499	13.791	-0.110	0.086
-697.485	-200.000	0.031	-0.262
-696.470	800.000	0.045	0.159
-695.456	-152.755	-0.371	0.027
-694.441	515.313	-0.063	0.149
-693.426	-141.028	-0.115	0.012
-692.412	800.000	-0.143	-0.530
-691.397	-200.000	-0.034	0.233
-690.383	-74.479	0.099	0.036
-689.368	-71.994	-0.352	-0.132
-688.354	800.000	-0.090	-0.377
-687.339	-0.118	0.166	-0.119
-686.324	800.000	0.126	0.382
-685.310	800.000	-0.035	-0.111
-684.295	84.353	0.091	0.100
-683.281	-151.151	-0.227	-0.017
-682.266	-23.057	-0.431	-0.261
-681.251	-140.149	-0.061	0.007
-680.237	-27.310	-0.016	0.009
-679.222	-12.500	0.143	-0.094
-678.208	-68.165	-0.280	0.110
-677.193	-28.690	-0.128	-0.074
-676.178	541.633	-0.070	0.169
-675.164	800.000	0.014	-0.050
-674.149	56.029	-0.122	0.119
-673.135	-200.000	0.017	-0.091
-672.120	686.681	-0.056	-0.146
-671.105	7.694	0.147	-0.110
-670.091	360.534	-0.088	0.178
-669.076	241.665	-0.156	0.262
-668.062	163.335	-0.234	0.331
-667.047	195.923	0.186	0.285
-666.032	-45.444	-0.092	-0.046
-665.018	244.719	-0.084	-0.142
-664.003	54.480	0.089	0.087
-662.989	-131.040	-0.198	0.027
-661.974	-200.000	-0.003	0.034
-660.959	800.000	-0.109	-0.313
-659.945	-38.872	-0.288	0.153
-658.930	-57.018	0.364	-0.162
-657.916	-30.345	0.430	0.246
-656.901	-20.438	-0.155	-0.096
-655.886	-109.305	-0.162	-0.035
-654.872	-200.000	-0.034	0.161
-653.857	211.259	-0.100	-0.158
-652.843	262.543	0.144	0.251
-651.828	-98.574	-0.382	0.098
-650.814	-158.406	-0.325	0.019
-649.799	-106.277	-0.112	0.025
-648.784	369.727	0.080	-0.163
-647.770	47.072	0.178	0.167
-646.755	43.000	-0.100	0.092
-645.741	780.021	0.107	-0.295
-644.726	-200.000	-0.017	-0.128
-643.711	-200.000	0.006	0.030
-642.697	-104.623	-0.124	0.029
-641.682	60.101	0.341	0.339
-640.668	-5.938	0.251	-0.173
-639.653	-172.008	0.170	-0.006
-638.638	43.467	-0.157	0.145
-637.624	-108.902	0.125	0.027
-636.609	800.000	0.042	0.127
-635.595	152.550	0.051	-0.071
-634.580	33.779	-0.190	-0.166
-633.565	-10.716	-0.079	-0.052
-632.551	-200.000	-0.002	-0.370
-631.536	-200.000	-0.001	0.288
-630.522	-25.618	0.209	0.124
-629.507	195.533	0.057	-0.087
-628.492	21.311	0.134	-0.110
-627.478	-15.475	0.302	-0.193
-626.463	5.518	-0.115	0.085
-625.449	-129.007	-0.116	0.016
-624.434	-148.154	0.426	-0.035
-623.419	4.152	0.268	-0.197
-622.405	10.576	-0.199	-0.152
-621.390	166.516	0.107	-0.153
-620.376	301.928	0.145	-0.269
-619.361	538.415	0.135	0.323
-618.346	36.957	-0.098	-0.087
-617.332	-96.179	0.244	-0.065
-616.317	-124.822	0.081	0.013
-615.303	-40.000	0.089	0.046
-614.288	-200.000	0.043	-0.205
-613.273	-200.000	0.025	0.352
-612.259	799.721	0.061	0.169
-611.244	-23.173	-0.138	-0.083
-610.230	-74.345	0.338	0.123
-609.215	-59.623	-0.232	-0.100
-608.201	235.724	0.093	-0.154
-607.186	-87.089	0.298	0.091
-606.171	-200.000	0.013	0.315
-605.157	90.122	-0.192	0.215
-604.142	36.184	-0.272	0.241
-603.128	-52.575	-0.349	0.162
-602.113	-200.000	-0.028	-0.176
-601.098	469.223	-0.020	-0.044
-600.084	-59.167	0.225	0.097
-599.069	9.946	-0.061	0.046
-598.055	68.073	0.079	0.081
-597.040	-71.623	0.199	-0.074
-596.025	-41.587	-0.295	-0.152
-595.011	132.840	-0.267	-0.346
-593.996	-200.000	-0.049	-0.358
-592.982	-64.340	0.226	-0.092
-591.967	-47.750	0.661	-0.321
-590.952	-200.000	0.011	0.133
-589.938	-145.373	0.190	0.017
-588.923	-134.695	0.213	0.026
-587.909	55.508	-0.103	0.100
-586.894	-63.024	-0.409	-0.170
-585.879	188.094	0.041	0.061
-584.865	-200.000	-0.029	-0.128
-583.850	-64.365	0.101	-0.041
-582.836	-27.186	0.196	0.115
-581.821	800.000	-0.170	-0.532
-580.806	65.351	-0.228	-0.232
-579.792	139.709	-0.066	0.087
-578.777	-75.237	-0.152	-0.054
-577.763	-98.269	-0.329	-0.085
-576.748	19.119	-0.165	-0.132
-575.733	800.000	-0.027	-0.082
-574.719	-79.048	-0.426	0.145
-573.704	800.000	-0.127	-0.393
-572.690	-136.353	0.377	-0.044
-571.675	-200.000	0.010	0.134
-570.661	376.879	0.067	0.138
-569.646	-116.727	0.340	-0.063
-568.631	800.000	0.094	-0.290
-567.617	-50.229	0.121	0.057
-566.602	142.120	-0.197	-0.262
-565.588	800.000	0.076	-0.293
-564.573	-60.166	0.054	-0.023
-563.558	-200.000	-0.003	0.288
-562.544	-200.000	-0.043	-0.214
-561.529	800.000	-0.109	-0.348
-560.515	800.000	0.059	0.198
-559.500	-111.808	0.208	-0.042
-558.485	-57.430	-0.339	-0.149
-557.471	96.337	0.151	-0.173
-556.456	178.233	0.073	0.107
-555.442	-160.276	0.220	-0.012
-554.427	147.114	-0.088	0.119
-553.412	40.825	-0.292	0.264
-552.398	118.038	-0.133	0.164
-551.383	800.000	0.082	0.342
-550.369	-200.000	0.016	0.364
-549.354	80.288	0.147	0.159
-548.339	-89.098	-0.297	-0.088
-547.325	-58.979	-0.250	-0.108
-546.310	105.905	-0.036	-0.043
-545.296	-141.757	-0.084	0.008
-544.281	20.336	-0.159	0.129
-543.266	800.000	0.025	0.085
-542.252	800.000	-0.069	0.266
-541.237	-64.199	-0.062	-0.025
-540.223	169.791	0.072	-0.104
-539.208	-150.567	0.093	0.007
-538.193	-200.000	-0.005	-0.094
-537.179	158.467	0.165	0.229
-536.164	291.583	0.116	0.211
-535.150	800.000	0.026	-0.079
-534.135	-60.832	-0.159	-0.067
-533.121	11.168	-0.150	0.115
-532.106	61.692	-0.198	-0.198
-531.091	-125.334	0.302	-0.046
-530.077	-200.000	0.270	0.000
-529.062	-200.000	-0.035	-0.173
-528.048	5.245	-0.109	-0.080
-527.033	-10.488	-0.369	0.245
-526.018	-200.000	0.011	-0.084
-525.004	-69.676	0.113	0.043
-523.989	-200.000	0.005	-0.150
-522.975	139.171	-0.060	-0.078
-521.960	-0.935	0.169	-0.120
-520.945	67.247	-0.135	-0.138
-519.931	800.000	0.145	-0.418
-518.916	-29.816	-0.228	0.130
-517.902	-200.000	-0.029	0.133
-516.887	-65.888	0.208	0.083
-515.872	-200.000	-0.126	0.594
-514.858	64.616	-0.190	0.191
-513.843	-101.866	-0.151	-0.037
-512.829	800.000	0.026	-0.097
-511.814	800.000	-0.074	0.221
-510.799	-139.968	0.351	0.037
-509.785	-100.654	-0.257	-0.063
-508.770	297.329	-0.191	0.351
-507.756	440.501	0.060	-0.131
-506.741	565.653	-0.087	-0.211
-505.726	-140.657	-0.353	-0.037
-504.712	220.017	-0.102	0.164
-503.697	273.192	-0.120	-0.212
-502.683	374.098	0.118	0.240
-501.668	257.277	-0.096	0.164
-500.653	-200.000	-0.006	-0.204
-499.639	421.051	0.126	-0.271
-498.624	-105.893	0.264	-0.059
-497.610	800.000	0.053	-0.153
-496.595	-92.557	-0.579	0.162
-495.581	-112.756	0.105	0.021
-494.566	528.506	0.038	-0.089
-493.551	754.217	0.102	0.274
-492.537	242.841	0.178	0.298
-491.522	-111.644	-0.034	0.007
-490.508	800.000	-0.068	0.208
-489.493	324.485	-0.054	0.102
-488.478	800.000	-0.065	-0.262
-487.464	346.965	0.164	0.323
-486.449	207.950	-0.126	0.197
-485.435	-103.198	0.154	-0.036
-484.420	-21.455	0.096	-0.059
-483.405	166.219	-0.077	-0.109
-482.391	-200.000	-0.027	0.148
-481.376	62.297	0.051	-0.050
-480.362	115.629	0.246	-0.301
-479.347	30.686	0.229	0.196
-478.332	800.000	0.031	0.095
-477.318	-200.000	0.053	0.348
-476.303	61.067	0.126	-0.125
-475.289	-65.939	0.077	0.031
-474.274	800.000	-0.033	0.109
-473.259	-200.000	0.010	-0.221
-472.245	-22.125	-0.110	0.067
-471.230	-144.084	0.135	-0.013
-470.216	-60.847	0.121	0.051
-469.201	358.765	0.139	0.277
-468.186	-169.656	0.508	0.018
-467.172	184.509	-0.090	0.133
-466.157	391.137	-0.070	0.146
-465.143	98.525	-0.238	0.274
-464.128	86.904	-0.084	0.093
-463.113	-200.000	0.002	0.080
-462.099	19.071	0.329	-0.264
-461.084	135.766	-0.130	0.169
-460.070	-20.236	0.186	-0.115
-459.055	210.320	0.144	-0.225
-458.040	550.339	-0.139	0.334
-457.026	10.139	0.237	0.180
-456.011	28.166	-0.068	-0.058
-454.997	-200.000	0.014	0.188
-453.982	137.231	-0.083	0.108
-452.968	35.846	-0.074	0.065
-451.953	204.064	0.145	0.224
-450.938	-200.000	-0.037	0.327
-449.924	-174.970	0.092	-0.003
-448.909	-78.984	-0.045	0.015
-447.895	-81.573	0.184	0.060
-446.880	-147.281	-0.188	-0.016
-445.865	-40.185	0.264	0.137
-444.851	-120.644	0.222	0.038
-443.836	29.973	0.047	0.040
-442.822	-115.843	-0.138	-0.026
-441.807	-63.475	-0.531	-0.218
-440.792	236.123	-0.124	0.205
-439.778	-200.000	-0.040	0.289
-438.763	86.402	0.059	0.065
-437.749	122.817	0.188	0.234
-436.734	-43.907	-0.297	-0.149
-435.719	-200.000	0.043	-0.232
-434.705	54.706	0.093	-0.090
-433.690	-3.377	-0.239	-0.166
-432.676	484.015	-0.064	-0.145
-431.661	-155.056	0.336	0.022
-430.646	-200.000	-0.008	-0.041
-429.632	72.249	0.156	0.162
-428.617	-200.000	-0.011	-0.101
-427.603	590.027	0.145	-0.357
-426.588	-200.000	-0.034	0.245
-425.573	-200.000	0.049	0.217
-424.559	-200.000	-0.006	0.202
-423.544	-200.000	-0.014	-0.390
-422.530	-20.391	-0.208	0.127
-421.515	-61.541	-0.312	0.131
-420.500	-171.083	0.128	-0.004
-419.486	-200.000	0.049	0.387
-418.471	-200.000	-0.049	-0.288
-417.457	223.676	0.080	-0.128
-416.442	105.655	-0.146	0.172
-415.428	14.705	-0.222	0.173
-414.413	159.198	-0.144	-0.200
-413.398	779.876	0.074	0.201
-412.384	-131.286	0.384	0.051
-411.369	-60.622	0.325	0.137
-410.355	22.797	-0.200	-0.163
-409.340	-117.411	0.177	0.032
-408.325	-92.539	0.174	0.049
-407.311	-104.808	-0.206	0.047
-406.296	-147.297	-0.402	-0.034
-405.282	7.031	0.152	0.113
-404.267	550.969	0.069	-0.164
-403.252	-123.724	0.038	-0.006
-402.238	-142.149	-0.161	0.016
-401.223	430.374	-0.161	0.347
-400.209	-179.785	0.317	0.007
-399.194	800.000	0.032	0.109
-398.179	-200.000	0.011	-0.231
-397.165	-134.589	0.291	-0.035
-396.150	-126.043	-0.230	-0.034
-395.136	60.658	0.213	-0.210
-394.121	115.043	0.324	-0.394
-393.106	-93.289	-0.323	-0.089
-392.092	160.510	0.292	-0.405
-391.077	204.948	-0.211	0.325
-390.063	73.314	0.135	0.140
-389.048	-200.000	-0.048	0.271
-388.033	-17.579	-0.199	0.124
-387.019	36.271	0.141	0.124
-386.004	420.630	-0.056	-0.120
-384.990	-139.090	0.223	0.024
-383.975	-64.123	0.175	-0.071
-382.960	31.593	-0.274	-0.234
-381.946	336.995	0.054	-0.104
-380.931	168.098	0.079	-0.111
-379.917	-20.836	0.161	-0.098
-378.902	-200.000	-0.045	-0.409
-377.888	-156.215	0.207	-0.013
-376.873	-39.262	-0.311	-0.162
-375.858	800.000	0.078	-0.298
-374.844	-136.470	-0.094	0.011
-373.829	-74.839	-0.217	-0.077
-372.815	-24.255	0.198	0.118
-371.800	20.394	-0.164	0.132
-370.785	800.000	-0.073	-0.283
-369.771	162.850	-0.051	0.071
-368.756	-200.000	-0.012	0.100
-367.742	500.022	-0.083	0.192
-366.727	800.000	-0.062	-0.217
-365.712	-200.000	-0.019	-0.105
-364.698	126.592	0.069	-0.087
-363.683	122.453	-0.144	0.179
-362.669	-110.792	0.094	-0.019
-361.654	-86.319	0.143	0.044
-360.639	-35.636	0.218	0.117
-359.625	-151.966	0.176	0.013
-358.610	-25.773	0.141	-0.083
-357.596	104.580	-0.102	-0.119
-356.581	61.081	-0.084	-0.083
-355.566	-93.045	0.192	0.053
-354.552	-91.941	-0.347	-0.098
-353.537	5.844	0.099	-0.073
-352.523	-138.500	0.181	-0.020
-351.508	-76.276	0.203	-0.071
-350.493	-67.480	0.109	-0.043
-349.479	-34.053	-0.253	-0.138
-348.464	800.000	-0.059	0.177
-347.450	-139.933	0.097	0.010
-346.435	-99.124	0.309	-0.078
-345.420	113.133	0.199	0.240
-344.406	103.101	0.204	0.237
-343.391	22.590	-0.107	0.087
-342.377	732.629	0.063	0.167
-341.362	-151.348	-0.260	0.019
-340.348	-200.000	-0.012	-0.302
-339.333	470.054	0.132	0.294
-338.318	-101.079	-0.315	-0.077
-337.304	42.836	-0.261	-0.237
-336.289	341.669	0.141	0.273
-335.275	328.424	-0.151	-0.287
-334.260	-145.363	0.290	0.026
-333.245	411.720	-0.057	0.121
-332.231	16.634	-0.250	0.196
-331.216	-200.000	-0.010	-0.091
-330.202	452.322	0.055	-0.121
-329.187	106.732	0.221	-0.261
-328.172	-128.220	-0.168	0.024
-327.158	631.340	-0.161	-0.406
-326.143	800.000	-0.036	-0.137
-325.129	-45.863	-0.064	-0.032
-324.114	-93.678	-0.324	-0.089
-323.099	-200.000	-0.010	-0.125
-322.085	-52.735	0.077	0.035
-321.070	-47.444	-0.238	0.115
-320.056	65.927	-0.090	0.091
-319.041	127.983	-0.088	-0.111
-318.026	216.300	0.193	0.305
-317.012	-17.683	0.093	0.058
-315.997	39.782	-0.148	0.132
-314.983	96.382	-0.073	0.083
-313.968	13.759	0.273	-0.211
-312.953	223.167	-0.049	0.078
-311.939	419.454	-0.044	0.093
-310.924	479.028	0.161	0.363
-309.910	-121.248	-0.034	0.006
-308.895	73.083	-0.156	0.161
-307.880	225.700	0.115	0.185
-306.866	-178.472	-0.470	0.011
-305.851	-200.000	-0.032	0.168
-304.837	-200.000	0.019	0.098
-303.822	-172.219	0.225	-0.007
-302.807	800.000	0.021	-0.065
-301.793	-134.271	-0.072	-0.009
-300.778	687.795	-0.106	0.275
-299.764	346.118	-0.147	-0.287
-298.749	36.700	0.101	-0.088
-297.735	-200.000	0.001	-0.233
-296.720	-49.956	-0.421	-0.198
-295.705	-200.000	-0.059	0.372
-294.691	800.000	0.086	0.311
-293.676	-16.608	0.123	-0.077
-292.662	-200.000	-0.052	-0.258
-291.647	-5.603	0.149	-0.101
-290.632	35.534	0.421	0.366
-289.618	800.000	0.062	0.181
-288.603	-37.336	-0.174	-0.092
-287.589	-103.090	0.050	0.012
-286.574	-193.095	0.502	0.004
-285.559	136.454	-0.304	0.393
-284.545	-130.996	-0.389	-0.051
-283.530	-200.000	0.010	-0.320
-282.516	-108.271	0.398	-0.085
-281.501	111.351	-0.259	0.310
-280.486	242.207	-0.081	0.135
-279.472	716.795	-0.034	-0.089
-278.457	-54.651	-0.135	0.061
-277.443	-168.660	0.074	0.003
-276.428	-200.000	-0.022	0.382
-275.413	10.811	0.257	0.195
-274.399	16.958	-0.213	-0.167
-273.384	-136.531	-0.095	-0.011
-272.370	484.717	0.053	-0.120
-271.355	238.727	-0.273	-0.450
-270.340	207.505	-0.046	-0.072
-269.326	3.569	-0.155	0.112
-268.311	525.096	0.065	-0.152
-267.297	800.000	-0.009	-0.034
-266.282	800.000	0.089	0.276
-265.267	800.000	0.062	0.253
-264.253	6.110	0.346	-0.254
-263.238	-200.000	0.009	0.275
-262.224	-8.306	0.196	-0.131
-261.209	476.594	-0.127	-0.284
-260.195	372.446	0.048	-0.096
-259.180	-91.160	-0.417	0.118
-258.165	120.375	-0.121	0.149
-257.151	-200.000	-0.013	0.259
-256.136	70.210	-0.104	0.107
-255.122	356.675	-0.221	0.436
-254.107	-200.000	-0.011	-0.142
-253.092	-200.000	0.029	-0.162
-252.078	426.222	0.129	-0.274
-251.063	444.325	-0.117	-0.255
-250.049	-200.000	-0.005	0.182
-249.034	418.762	-0.115	-0.244
-248.019	528.626	-0.157	0.366
-247.005	-200.000	0.029	-0.317
-245.990	-90.265	0.223	0.064
-244.976	-73.497	-0.174	-0.063
-243.961	800.000	-0.045	-0.142
-242.946	800.000	0.186	0.527
-241.932	-94.382	-0.278	-0.075
-240.917	-77.475	-0.207	-0.071
-239.903	-40.359	-0.326	-0.168
-238.888	800.000	0.019	-0.072
-237.873	-85.980	0.155	0.048
-236.859	49.810	-0.033	0.031
-235.844	-68.318	-0.101	-0.039
-234.830	6.595	0.218	-0.160
-233.815	-200.000	-0.003	0.151
-232.800	-200.000	-0.016	-0.111
-231.786	97.972	-0.325	0.370
-230.771	656.466	-0.134	-0.340
-229.757	280.428	-0.063	-0.112
-228.742	162.550	-0.164	0.228
-227.727	-100.142	0.156	0.038
-226.713	-40.699	-0.246	0.126
-225.698	172.261	0.147	-0.209
-224.684	-191.788	0.149	0.001
-223.669	-126.794	0.293	0.043
-222.655	-200.000	0.015	-0.294
-221.640	-41.841	0.096	-0.049
-220.625	800.000	0.041	0.120
-219.611	105.079	-0.144	0.168
-218.596	800.000	0.096	-0.390
-217.582	57.538	-0.066	0.064
-216.567	111.328	-0.040	0.048
-215.552	39.262	0.134	-0.119
-214.538	-117.317	-0.119	-0.021
-213.523	343.562	-0.095	0.184
-212.509	-15.184	-0.112	-0.071
-211.494	19.313	0.281	0.223
-210.479	118.815	-0.100	-0.122
-209.465	-200.000	0.054	0.292
-208.450	95.363	-0.172	-0.194
-207.436	281.361	0.196	-0.347
-206.421	721.767	0.043	0.112
-205.406	-200.000	-0.002	0.146
-204.392	-200.000	0.022	-0.477
-203.377	112.548	0.151	-0.180
-202.363	800.000	-0.079	-0.280
-201.348	800.000	-0.053	-0.198
-200.333	42.737	-0.132	0.119
-199.319	-91.911	-0.225	0.063
-198.304	-200.000	0.006	0.137
-197.290	-35.774	-0.164	0.088
-196.275	-200.000	-0.060	0.286
-195.260	718.654	0.033	-0.085
-194.246	-41.674	-0.220	-0.112
-193.231	273.424	-0.146	0.255
-192.217	128.458	-0.068	-0.086
-191.202	3.980	0.184	-0.133
-190.187	800.000	0.039	-0.119
-189.173	-122.457	0.224	0.036
-188.158	-200.000	0.005	0.117
-187.144	-66.808	0.399	-0.156
-186.129	-45.109	-0.118	-0.058
-185.114	-113.484	-0.243	0.047
-184.100	800.000	-0.032	-0.127
-183.085	234.900	-0.268	-0.436
-182.071	620.405	-0.051	-0.126
-181.056	-10.612	-0.193	0.126
-180.042	38.176	0.095	0.084
-179.027	-200.000	0.003	-0.140
-178.012	800.000	-0.098	-0.311
-176.998	-200.000	0.038	-0.209
-175.983	21.565	-0.176	-0.141
-174.969	13.788	-0.284	-0.218
-173.954	-200.000	-0.002	0.119
-172.939	-102.708	0.175	-0.041
-171.925	323.785	0.015	-0.028
-170.910	580.582	0.031	0.075
-169.896	-158.293	-0.140	-0.008
-168.881	141.393	0.143	0.187
-167.866	-200.000	-0.028	-0.226
-166.852	800.000	0.106	0.296
-165.837	-200.000	0.013	0.296
-164.823	17.570	0.104	0.082
-163.808	53.481	-0.177	0.167
-162.793	-90.066	-0.206	0.059
-161.779	800.000	-0.015	-0.065
-160.764	-200.000	0.016	-0.114
-159.750	595.016	-0.051	0.125
-158.735	-15.559	0.110	0.069
-157.720	49.927	0.061	0.057
-156.706	-85.904	0.302	-0.092
-155.691	-200.000	0.021	0.302
-154.677	-200.000	-0.012	-0.313
-153.662	497.817	0.092	0.208
-152.647	30.581	0.365	-0.308
-151.633	204.489	0.190	-0.291
-150.618	-31.101	-0.095	0.053
-149.604	-38.361	0.374	-0.195
-148.589	67.970	-0.050	0.050
-147.574	3.734	-0.031	0.022
-146.560	-59.611	-0.414	0.175
-145.545	-200.000	0.070	0.376
-144.531	-51.177	0.218	-0.101
-143.516	735.118	0.073	-0.193
-142.502	74.605	-0.235	-0.243
-141.487	372.556	0.026	-0.052
-140.472	-200.000	-0.075	0.329
-139.458	-6.530	-0.119	0.080
-138.443	85.858	0.178	0.193
-137.429	-108.997	0.241	0.051
-136.414	-72.936	0.100	-0.036
-135.399	800.000	0.105	0.360
-134.385	-169.393	0.087	-0.003
-133.370	4.618	0.225	-0.163
-132.356	-6.872	-0.045	-0.030
-131.341	237.853	-0.082	-0.135
-130.326	-140.500	0.155	0.016
-129.312	-200.000	-0.004	-0.053
-128.297	-90.080	0.202	0.058
-127.283	800.000	0.039	-0.115
-126.268	323.069	0.036	0.068
-125.253	-123.109	-0.257	-0.041
-124.239	122.327	0.075	0.092
-123.224	-200.000	-0.028	0.453
-122.210	3.497	0.062	0.044
-121.195	-56.470	0.156	0.068
