DTS Sentinel unit serial number:	SN413079Multiplexer serial number:	ORYXHardware model number:	OX4-SRSoftware version number:	ORYX F/W v4.00 Oryx Data Collector v3.7.2.0data status	okinstallation	princeton_trtdifferential loss correction	single-endedforward channel	channel 1reverse channel	N/Adate	2019/09/13time	16:42:35forward acquisition time	60.00reverse acquisition time	0.00gamma	496.2192k internal	0.2305k external	0.2305temperature offset calibration	1.0164default loss term (dB/km)	0.3790temperature slope calibration	1.0000multiplexer offset coefficient	1.0000multiplexer slope coefficient	1.0000fibre end	0.00T internal ref (°C)	35.00T ext. ref 1 (°C)	4.92T ext. ref 2 (°C)	29.67length (m)	temperature (°C)	Stokes	anti-Stokes-747.200	3.512	-0.159	-0.118
-746.185	-94.218	-0.280	0.078
-745.171	-137.835	-0.095	0.011
-744.156	413.604	0.076	0.164
-743.142	81.920	0.054	-0.060
-742.127	133.906	-0.117	0.155
-741.112	20.104	0.053	-0.043
-740.098	-30.320	0.179	0.103
-739.083	-200.000	-0.001	-0.153
-738.069	67.617	0.016	0.016
-737.054	-200.000	0.013	-0.212
-736.039	24.587	-0.125	-0.105
-735.025	-111.767	-0.130	-0.027
-734.010	60.335	0.134	-0.135
-732.996	86.109	-0.256	-0.286
-731.981	-200.000	-0.032	-0.311
-730.966	117.144	0.188	-0.235
-729.952	-63.928	-0.303	-0.126
-728.937	-41.994	-0.095	-0.050
-727.923	-121.149	0.250	0.043
-726.908	800.000	-0.087	-0.316
-725.894	57.351	-0.125	0.124
-724.879	15.098	-0.111	0.089
-723.864	46.557	-0.030	-0.028
-722.850	216.586	0.079	0.128
-721.835	-161.424	0.249	-0.013
-720.821	-104.744	-0.293	0.069
-719.806	421.773	-0.153	-0.333
-718.791	800.000	-0.076	-0.252
-717.777	24.584	-0.218	0.183
-716.762	800.000	-0.016	-0.049
-715.748	-200.000	0.037	0.176
-714.733	756.212	0.063	0.174
-713.718	726.897	0.062	0.167
-712.704	414.190	-0.110	-0.238
-711.689	-200.000	0.032	0.212
-710.675	552.557	0.010	-0.023
-709.660	78.538	0.202	0.219
-708.645	-200.000	0.003	-0.146
-707.631	-64.066	-0.186	-0.077
-706.616	-61.208	-0.220	0.094
-705.602	274.913	0.140	0.253
-704.587	-58.910	0.339	0.149
-703.572	-26.594	0.149	0.089
-702.558	96.569	-0.110	0.128
-701.543	84.093	0.196	0.218
-700.529	-111.740	0.299	0.061
-699.514	-166.374	0.070	0.003
-698.499	-200.000	-0.052	-0.267
-697.485	497.315	-0.070	-0.163
-696.470	489.713	0.147	0.343
-695.456	-64.907	0.209	0.086
-694.441	240.592	-0.093	-0.158
-693.426	800.000	-0.047	-0.170
-692.412	-69.587	0.104	-0.040
-691.397	-150.114	0.218	-0.017
-690.383	92.639	-0.321	-0.368
-689.368	223.846	-0.086	0.141
-688.354	190.128	0.102	0.155
-687.339	32.209	-0.160	-0.140
-686.324	24.028	-0.235	-0.197
-685.310	168.363	0.178	-0.258
-684.295	-200.000	-0.186	-0.001
-683.281	-78.237	0.175	-0.061
-682.266	-200.000	0.017	-0.267
-681.251	240.641	-0.228	-0.386
-680.237	800.000	-0.052	-0.230
-679.222	800.000	0.042	-0.136
-678.208	-78.408	-0.348	-0.121
-677.193	-49.337	0.163	-0.079
-676.178	-156.079	-0.055	0.004
-675.164	8.504	-0.219	-0.168
-674.149	-156.397	-0.040	0.003
-673.135	-83.221	0.146	-0.047
-672.120	-200.000	-0.017	-0.098
-671.105	-46.534	-0.132	0.066
-670.091	-173.698	-0.142	0.004
-669.076	-111.824	-0.586	0.120
-668.062	401.524	0.036	0.076
-667.047	800.000	-0.084	-0.256
-666.032	68.498	0.038	0.039
-665.018	-116.016	-0.064	0.012
-664.003	-200.000	0.024	-0.290
-662.989	-143.095	0.178	0.017
-661.974	-89.442	-0.169	-0.050
-660.959	117.998	0.070	0.087
-659.945	183.308	0.173	-0.260
-658.930	-27.199	-0.327	-0.193
-657.916	-11.401	-0.247	0.165
-656.901	167.076	0.026	-0.037
-655.886	-9.420	-0.106	0.072
-654.872	-23.948	0.354	0.215
-653.857	8.913	0.106	-0.081
-652.843	-58.900	0.266	0.117
-651.828	-31.572	-0.198	0.113
-650.814	-200.000	0.013	-0.308
-649.799	-57.874	-0.392	-0.174
-648.784	-200.000	0.032	0.179
-647.770	-60.777	0.255	-0.110
-646.755	58.186	-0.046	0.046
-645.741	-137.867	0.360	0.041
-644.726	-65.241	-0.264	0.108
-643.711	170.637	-0.088	0.128
-642.697	47.040	-0.094	0.088
-641.682	435.462	0.037	-0.082
-640.668	-200.000	-0.045	0.249
-639.653	-103.176	-0.106	0.025
-638.638	21.844	-0.080	-0.066
-637.624	-53.470	0.043	0.020
-636.609	-200.000	-0.005	0.112
-635.595	222.042	-0.122	-0.199
-634.580	-200.000	0.026	0.150
-633.565	-10.075	0.065	-0.044
-632.551	-200.000	0.019	0.098
-631.536	-11.764	-0.524	0.348
-630.522	223.090	0.140	0.228
-629.507	128.199	0.147	0.190
-628.492	-169.801	-0.411	0.015
-627.478	-114.523	0.223	0.043
-626.463	-67.719	-0.428	-0.170
-625.449	220.664	-0.048	-0.077
-624.434	-21.653	-0.188	-0.116
-623.419	800.000	-0.020	0.075
-622.405	-67.520	0.160	-0.064
-621.390	-107.260	0.298	0.066
-620.376	309.166	-0.118	0.223
-619.361	110.344	-0.179	-0.217
-618.346	-48.730	0.454	-0.221
-617.332	-8.978	-0.153	-0.104
-616.317	28.083	0.087	-0.074
-615.303	38.405	0.063	0.057
-614.288	154.299	0.051	0.071
-613.273	-97.723	0.351	0.092
-612.259	-9.241	-0.422	0.286
-611.244	-16.701	0.172	-0.110
-610.230	166.690	0.039	0.055
-609.215	-88.260	-0.214	0.065
-608.201	383.812	-0.019	-0.039
-607.186	-1.471	0.023	-0.016
-606.171	139.993	-0.284	-0.379
-605.157	800.000	0.023	0.072
-604.142	-200.000	0.010	0.219
-603.128	-109.314	-0.322	0.069
-602.113	475.802	-0.123	-0.281
-601.098	-100.280	-0.072	0.018
-600.084	800.000	-0.045	-0.196
-599.069	120.489	0.008	-0.010
-598.055	326.473	-0.077	-0.150
-597.040	-200.000	-0.046	-0.378
-596.025	503.738	0.054	0.126
-595.011	79.766	0.064	-0.069
-593.996	506.663	-0.083	0.195
-592.982	-200.000	0.008	0.143
-591.967	-79.984	0.207	0.070
-590.952	12.375	-0.139	0.108
-589.938	-17.508	-0.104	0.066
-588.923	-116.367	0.266	-0.050
-587.909	63.190	-0.118	-0.119
-586.894	75.555	0.199	-0.213
-585.879	22.952	-0.089	-0.074
-584.865	-187.303	-0.249	0.003
-583.850	248.228	-0.171	-0.292
-582.836	399.409	-0.103	-0.218
-581.821	-117.415	0.431	0.079
-580.806	-200.000	0.002	0.041
-579.792	122.374	0.024	0.031
-578.777	-177.071	-0.194	-0.005
-577.763	-200.000	0.004	-0.262
-576.748	44.097	-0.135	-0.125
-575.733	-84.806	0.352	-0.112
-574.719	-109.201	-0.243	0.052
-573.704	-200.000	-0.074	-0.442
-572.690	-54.277	0.265	-0.122
-571.675	800.000	-0.100	-0.301
-570.661	297.715	0.111	0.205
-569.646	33.853	-0.194	0.170
-568.631	749.971	0.086	-0.234
-567.617	623.204	0.032	0.081
-566.602	267.590	-0.070	0.125
-565.588	54.337	-0.438	-0.426
-564.573	-81.407	-0.263	0.087
-563.558	106.095	-0.149	0.179
-562.544	-1.165	0.353	0.252
-561.529	-72.691	-0.207	-0.077
-560.515	71.784	0.180	-0.190
-559.500	221.435	0.074	0.121
-558.485	549.433	-0.087	-0.212
-557.471	282.720	-0.079	-0.143
-556.456	343.496	0.106	0.210
-555.442	-60.165	0.045	-0.019
-554.427	-170.131	0.278	-0.010
-553.412	-200.000	0.047	-0.244
-552.398	433.672	-0.135	0.297
-551.383	197.218	-0.129	-0.199
-550.369	-5.017	-0.179	0.125
-549.354	-47.257	0.164	0.080
-548.339	800.000	-0.050	-0.183
-547.325	19.663	-0.047	-0.038
-546.310	-200.000	0.055	-0.270
-545.296	-152.488	-0.088	0.006
-544.281	-59.406	-0.228	0.099
-543.266	-113.873	0.146	0.029
-542.252	-23.397	0.180	0.109
-541.237	7.855	0.115	0.087
-540.223	-43.945	0.186	0.094
-539.208	-200.000	0.021	-0.274
-538.193	-200.000	-0.148	0.000
-537.179	-200.000	0.019	0.268
-536.164	-200.000	-0.011	-0.111
-535.150	27.646	-0.237	-0.202
-534.135	12.668	-0.299	-0.233
-533.121	-200.000	-0.012	-0.273
-532.106	-93.471	0.127	0.036
-531.091	199.374	0.117	0.181
-530.077	-136.448	0.219	-0.026
-529.062	375.052	0.169	0.347
-528.048	-128.980	0.101	-0.014
-527.033	-25.227	-0.234	-0.140
-526.018	800.000	-0.066	0.192
-525.004	3.049	0.125	-0.091
-523.989	800.000	-0.071	-0.209
-522.975	-85.682	-0.105	-0.033
-521.960	-200.000	-0.008	-0.201
-520.945	800.000	0.082	-0.280
-519.931	103.720	-0.124	0.147
-518.916	800.000	0.072	-0.211
-517.902	14.572	0.228	-0.179
-516.887	-24.117	0.237	-0.143
-515.872	108.630	0.036	-0.044
-514.858	-82.641	-0.354	-0.116
-513.843	-200.000	0.017	0.190
-512.829	-200.000	0.010	0.049
-511.814	257.979	-0.162	-0.281
-510.799	-89.876	-0.238	-0.070
-509.785	253.612	0.121	0.208
-508.770	-53.858	-0.154	-0.071
-507.756	-131.846	0.261	-0.034
-506.741	4.883	0.272	-0.201
-505.726	208.133	-0.063	-0.099
-504.712	25.960	0.278	0.233
-503.697	786.131	0.076	-0.210
-502.683	57.582	0.212	-0.209
-501.668	-164.328	0.135	0.006
-500.653	-88.101	0.159	-0.048
-499.639	777.533	0.095	0.262
-498.624	-88.826	0.138	0.041
-497.610	267.491	0.123	-0.218
-496.595	8.516	-0.233	-0.177
-495.581	55.215	0.253	-0.247
-494.566	800.000	0.041	-0.157
-493.551	800.000	-0.066	0.275
-492.537	-200.000	-0.020	-0.137
-491.522	-26.008	0.127	0.075
-490.508	-181.205	0.237	-0.005
-489.493	800.000	0.159	-0.488
-488.478	608.491	0.118	-0.297
-487.464	800.000	-0.091	-0.335
-486.449	800.000	0.057	-0.189
-485.435	800.000	0.044	0.146
-484.420	356.331	0.204	0.410
-483.405	83.202	0.208	0.228
-482.391	800.000	-0.056	-0.175
-481.376	466.065	-0.062	0.139
-480.362	-200.000	-0.138	-0.001
-479.347	104.968	0.144	-0.171
-478.332	654.307	0.123	-0.318
-477.318	458.654	-0.136	0.304
-476.303	-145.313	0.235	0.021
-475.289	100.038	-0.112	-0.131
-474.274	-200.000	0.024	0.119
-473.259	137.609	0.065	-0.086
-472.245	4.962	0.209	0.155
-471.230	-200.000	-0.023	0.212
-470.216	102.633	0.099	0.117
-469.201	-114.373	-0.306	-0.059
-468.186	-200.000	-0.058	-0.294
-467.172	-49.562	0.388	-0.186
-466.157	401.807	-0.037	-0.079
-465.143	-46.149	0.235	0.117
-464.128	589.022	-0.074	0.183
-463.113	-71.305	-0.114	0.043
-462.099	800.000	0.038	0.155
-461.084	800.000	0.101	-0.360
-460.070	109.043	0.071	-0.085
-459.055	-122.963	-0.252	0.041
-458.040	5.073	0.194	-0.144
-457.026	540.356	0.142	-0.341
-456.011	800.000	-0.085	-0.309
-454.997	36.673	0.258	-0.230
-453.982	166.680	0.110	0.157
-452.968	98.879	-0.132	0.153
-451.953	130.096	0.091	-0.118
-450.938	800.000	-0.036	0.155
-449.924	602.802	0.057	-0.144
-448.909	500.738	-0.183	-0.426
-447.895	-7.921	0.150	0.102
-446.880	-200.000	0.037	0.289
-445.865	150.375	-0.121	0.165
-444.851	-200.000	-0.011	0.057
-443.836	-199.324	-0.394	0.002
-442.822	479.712	0.132	0.302
-441.807	-200.000	0.000	-0.244
-440.792	76.833	-0.125	0.133
-439.778	-200.000	0.019	0.147
-438.763	2.964	-0.352	-0.257
-437.749	-38.137	0.281	0.150
-436.734	-200.000	-0.013	-0.209
-435.719	52.943	-0.055	0.053
-434.705	-37.162	0.279	0.150
-433.690	646.706	-0.116	0.299
-432.676	15.573	0.210	-0.166
-431.661	-132.855	-0.105	-0.013
-430.646	-25.718	-0.169	-0.100
-429.632	800.000	0.111	0.319
-428.617	-150.213	-0.225	0.018
-427.603	-24.950	0.273	0.163
-426.588	-200.000	0.042	-0.243
-425.573	-107.231	0.228	-0.050
-424.559	-22.097	0.151	0.092
-423.544	306.246	-0.062	-0.116
-422.530	-145.326	0.357	-0.032
-421.515	-82.632	-0.085	-0.028
-420.500	-8.536	0.326	0.220
-419.486	-37.741	0.343	0.183
-418.471	-155.045	-0.306	0.020
-417.457	192.497	0.098	-0.149
-416.442	-42.120	-0.110	0.057
-415.428	191.874	-0.113	0.170
-414.413	-25.336	-0.192	-0.114
-413.398	118.787	0.132	-0.164
-412.384	-5.293	-0.439	0.303
-411.369	-52.493	0.237	0.110
-410.355	370.447	-0.072	-0.148
-409.340	18.113	0.190	0.152
-408.325	-9.193	-0.293	0.197
-407.311	-53.657	0.440	0.202
-406.296	-200.000	0.013	0.307
-405.282	-125.841	0.040	-0.006
-404.267	0.664	0.124	-0.089
-403.252	-168.665	0.211	0.008
-402.238	-6.935	-0.077	0.053
-401.223	-172.707	-0.165	-0.005
-400.209	-101.976	0.140	0.034
-399.194	-200.000	0.060	0.421
-398.179	462.815	0.188	-0.421
-397.165	438.548	0.175	0.383
-396.150	-79.328	-0.079	0.027
-395.136	633.066	-0.104	0.264
-394.121	294.934	0.100	-0.184
-393.106	-30.763	-0.239	0.136
-392.092	800.000	0.025	0.099
-391.077	-121.503	0.306	-0.051
-390.063	144.238	0.147	-0.198
-389.048	-93.177	-0.157	-0.044
-388.033	800.000	-0.119	-0.403
-387.019	-164.871	-0.310	-0.014
-386.004	189.261	0.180	0.271
-384.990	480.002	0.030	-0.069
-383.975	89.191	0.128	-0.143
-382.960	104.480	0.310	0.366
-381.946	-112.282	0.145	-0.029
-380.931	147.876	0.116	0.157
-379.917	-33.804	-0.290	-0.160
-378.902	417.427	0.164	-0.352
-377.888	70.901	-0.223	0.231
-376.873	25.662	-0.218	-0.182
-375.858	-108.744	0.236	0.051
-374.844	-117.484	-0.100	-0.018
-373.829	-127.177	-0.342	-0.050
-372.815	-200.000	0.043	0.214
-371.800	-200.000	0.015	-0.181
-370.785	-153.445	-0.281	-0.020
-369.771	800.000	-0.034	0.112
-368.756	88.529	-0.095	0.106
-367.742	2.767	0.251	0.183
-366.727	465.372	0.103	-0.232
-365.712	760.643	0.056	0.152
-364.698	-16.499	0.228	0.145
-363.683	-137.761	0.168	0.019
-362.669	123.707	0.109	-0.137
-361.654	103.547	-0.156	-0.184
-360.639	179.776	-0.131	0.192
-359.625	-51.655	0.086	0.040
-358.610	-22.940	0.406	0.245
-357.596	-200.000	-0.011	-0.285
-356.581	-200.000	-0.035	-0.212
-355.566	-38.221	-0.275	-0.146
-354.552	-29.739	-0.113	0.064
-353.537	-152.904	-0.086	-0.006
-352.523	-158.824	-0.119	-0.007
-351.508	-200.000	0.026	0.367
-350.493	-52.952	0.202	0.093
-349.479	800.000	-0.058	0.233
-348.464	159.162	0.034	0.048
-347.450	53.318	-0.169	-0.162
-346.435	189.287	-0.191	-0.287
-345.420	-200.000	0.016	-0.101
-344.406	-70.347	-0.193	0.073
-343.391	-200.000	-0.002	-0.116
-342.377	-200.000	0.003	-0.093
-341.362	-51.765	0.117	-0.055
-340.348	8.575	0.284	0.214
-339.333	265.884	0.168	0.294
-338.318	-81.665	0.268	0.088
-337.304	-200.000	-0.009	-0.124
-336.289	800.000	-0.059	0.185
-335.275	-37.051	0.145	-0.078
-334.260	-200.000	-0.009	0.118
-333.245	-193.146	-0.350	0.003
-332.231	39.156	0.174	-0.156
-331.216	7.672	-0.252	-0.189
-330.202	-70.833	0.114	0.043
-329.187	800.000	-0.072	0.269
-328.172	-200.000	0.020	0.092
-327.158	-108.365	0.237	-0.051
-326.143	-78.104	-0.130	-0.045
-325.129	-53.031	-0.165	-0.076
-324.114	-25.737	-0.187	0.110
-323.099	-3.840	-0.255	0.177
-322.085	399.016	0.094	0.198
-321.070	382.694	-0.063	-0.129
-320.056	-135.629	0.254	0.030
-319.041	-37.380	0.288	0.154
-318.026	-3.318	-0.290	0.202
-317.012	340.616	-0.034	-0.066
-315.997	-32.206	-0.170	-0.095
-314.983	800.000	-0.077	-0.231
-313.968	-200.000	0.013	-0.074
-312.953	65.487	-0.021	-0.021
-311.939	-200.000	0.084	0.000
-310.924	376.287	0.073	-0.148
-309.910	-200.000	-0.007	0.068
-308.895	250.360	-0.114	0.193
-307.880	-200.000	-0.020	-0.153
-306.866	-200.000	-0.027	0.241
-305.851	28.533	0.118	0.099
-304.837	-15.774	0.206	0.131
-303.822	-200.000	-0.033	0.242
-302.807	179.239	-0.211	0.309
-301.793	800.000	-0.009	-0.026
-300.778	499.185	-0.087	-0.201
-299.764	1.050	-0.286	0.205
-298.749	-200.000	0.007	-0.156
-297.735	-14.399	-0.386	0.249
-296.720	84.198	0.045	0.049
-295.705	306.282	-0.130	-0.243
-294.691	-200.000	-0.055	-0.261
-293.676	-181.414	-0.234	-0.005
-292.662	800.000	0.143	0.436
-291.647	800.000	0.144	0.451
-290.632	732.167	0.139	0.371
-289.618	-118.395	-0.264	0.047
-288.603	124.415	0.134	-0.168
-287.589	378.291	-0.042	-0.086
-286.574	-54.423	-0.046	0.021
-285.559	-147.471	-0.246	-0.021
-284.545	-31.746	-0.272	-0.153
-283.530	34.089	0.316	0.275
-282.516	-200.000	-0.004	0.076
-281.501	169.161	-0.104	-0.148
-280.486	178.110	-0.085	0.124
-279.472	101.121	-0.221	0.257
-278.457	-200.000	-0.040	-0.259
-277.443	192.294	0.130	0.196
-276.428	-101.630	0.260	0.063
-275.413	94.450	-0.163	-0.186
-274.399	471.286	-0.030	0.068
-273.384	250.106	-0.061	-0.104
-272.370	-38.229	-0.125	0.066
-271.355	-119.514	0.253	0.044
-270.340	100.729	-0.191	0.221
-269.326	461.487	0.168	-0.375
-268.311	-200.000	-0.027	-0.132
-267.297	-10.441	0.153	0.101
-266.282	-57.635	-0.082	-0.036
-265.267	402.677	-0.081	0.171
-264.253	-48.781	0.154	0.074
-263.238	-161.276	-0.120	-0.006
-262.224	-43.044	0.071	0.036
-261.209	-140.213	-0.157	0.016
-260.195	128.428	0.062	-0.079
-259.180	-57.386	0.579	0.254
-258.165	-68.413	0.189	0.073
-257.151	800.000	-0.033	0.124
-256.136	-158.043	-0.281	-0.016
-255.122	475.141	0.116	-0.262
-254.107	-200.000	0.124	0.549
-253.092	229.663	0.026	-0.042
-252.078	265.860	0.075	-0.131
-251.063	-109.031	-0.295	0.063
-250.049	-116.327	-0.327	0.060
-249.034	-117.883	0.274	-0.049
-248.019	6.010	-0.436	0.322
-247.005	-200.000	-0.060	0.327
-245.990	61.639	0.351	0.348
-244.976	-51.831	-0.119	0.055
-243.961	-116.617	0.301	-0.055
-242.946	1.231	0.135	0.097
-241.932	-161.987	0.501	0.025
-240.917	-62.151	-0.021	-0.009
-239.903	152.916	-0.122	-0.166
-238.888	-125.947	0.232	-0.035
-237.873	-95.089	-0.292	0.079
-236.859	677.743	0.026	-0.068
-235.844	307.773	0.118	0.219
-234.830	80.526	-0.087	0.094
-233.815	13.614	0.081	-0.063
-232.800	-200.000	-0.018	-0.252
-231.786	-63.515	0.053	0.022
-230.771	800.000	0.040	0.168
-229.757	90.992	-0.159	-0.177
-228.742	690.130	0.123	-0.320
-227.727	5.285	-0.126	-0.092
-226.713	290.279	0.115	0.208
-225.698	800.000	-0.019	-0.069
-224.684	-86.336	-0.194	0.059
-223.669	344.003	-0.028	-0.055
-222.655	-43.554	-0.186	0.093
-221.640	-150.433	-0.204	-0.016
-220.625	103.176	0.100	0.117
-219.611	-53.242	0.160	0.073
-218.596	-200.000	0.026	0.129
-217.582	14.382	-0.285	0.222
-216.567	439.969	0.094	0.206
-215.552	13.282	-0.051	0.039
-214.538	53.579	-0.191	0.183
-213.523	6.307	-0.067	-0.050
-212.509	556.309	0.047	0.112
-211.494	-4.764	-0.144	0.099
-210.479	426.456	-0.151	-0.323
-209.465	-20.926	0.352	0.215
-208.450	-200.000	-0.040	-0.214
-207.436	-200.000	-0.063	0.325
-206.421	734.056	-0.103	0.274
-205.406	-200.000	0.047	-0.242
-204.392	122.439	0.112	-0.140
-203.377	280.456	0.144	-0.256
-202.363	-129.198	-0.118	0.016
-201.348	-76.608	0.056	-0.020
-200.333	31.473	0.180	-0.154
-199.319	-200.000	0.047	-0.393
-198.304	-200.000	-0.059	0.266
-197.290	-68.537	0.066	0.025
-196.275	697.122	0.067	0.175
-195.260	800.000	0.024	0.095
-194.246	-14.274	0.266	0.171
-193.231	-78.313	-0.137	0.047
-192.217	-200.000	-0.001	-0.024
-191.202	-62.379	0.164	0.068
-190.187	-118.601	-0.150	0.026
-189.173	205.578	0.149	0.231
-188.158	67.493	-0.214	0.217
-187.144	197.651	0.178	0.271
-186.129	534.270	0.117	-0.276
-185.114	-27.929	0.249	0.144
-184.100	31.733	-0.022	-0.019
-183.085	-200.000	-0.016	-0.095
-182.071	36.420	-0.274	-0.241
-181.056	13.188	-0.272	0.210
-180.042	-12.551	-0.111	0.072
-179.027	-116.584	0.216	-0.040
-178.012	-98.814	-0.225	-0.057
-176.998	150.544	0.122	0.164
-175.983	377.126	-0.181	-0.369
-174.969	-200.000	-0.077	-0.390
-173.954	487.132	-0.033	0.076
-172.939	357.679	-0.111	0.220
-171.925	65.263	-0.090	-0.090
-170.910	-124.506	0.048	0.007
-169.896	65.670	-0.052	-0.052
-168.881	24.676	-0.303	-0.250
-167.866	-43.850	0.089	-0.045
-166.852	190.252	0.080	0.119
-165.837	628.985	0.080	-0.202
-164.823	-159.385	-0.272	-0.015
-163.808	560.098	-0.089	-0.215
-162.793	-3.388	-0.142	-0.098
-161.779	800.000	-0.099	-0.351
-160.764	637.971	0.166	0.420
-159.750	-200.000	0.077	-0.357
-158.735	432.553	-0.054	-0.117
-157.720	-62.741	-0.250	-0.103
-156.706	-84.498	0.146	0.046
-155.691	17.201	0.180	0.142
-154.677	-115.415	-0.124	-0.023
-153.662	-200.000	0.029	-0.429
-152.647	238.583	-0.248	-0.410
-151.633	-99.729	-0.159	-0.040
-150.618	-33.531	0.137	0.075
-149.604	-200.000	-0.001	-0.161
-148.589	-200.000	0.017	-0.358
-147.574	-200.000	-0.293	0.001
-146.560	-200.000	0.094	-0.430
-145.545	-117.748	-0.481	0.086
-144.531	-200.000	0.006	-0.198
-143.516	-60.532	-0.179	-0.075
-142.502	-200.000	0.043	0.252
-141.487	4.811	-0.232	-0.169
-140.472	-66.838	0.272	0.107
-139.458	-15.704	-0.310	-0.197
-138.443	417.765	0.087	-0.185
-137.429	-73.222	0.503	0.183
-136.414	9.527	0.315	-0.237
-135.399	65.777	0.063	-0.063
-134.385	-7.317	0.013	-0.008
-133.370	-72.509	0.289	0.106
-132.356	-200.000	-0.011	0.131
-131.341	-173.235	-0.284	0.009
-130.326	192.528	0.157	0.236
-129.312	-90.741	-0.069	-0.020
-128.297	-200.000	-0.010	-0.060
-127.283	208.706	0.231	-0.359
-126.268	-108.982	-0.146	0.031
-125.253	169.604	0.126	-0.179
-124.239	-57.107	0.338	-0.148
-123.224	-118.210	-0.451	-0.080
-122.210	319.220	0.144	-0.271
-121.195	-146.724	0.245	0.021
-120.180	-200.000	0.028	-0.167
