DTS Sentinel unit serial number:	SN413079Multiplexer serial number:	ORYXHardware model number:	OX4-SRSoftware version number:	ORYX F/W v4.00 Oryx Data Collector v3.7.2.0data status	okinstallation	princeton_trtdifferential loss correction	single-endedforward channel	channel 1reverse channel	N/Adate	2019/09/12time	18:53:34forward acquisition time	15.00reverse acquisition time	0.00gamma	496.2192k internal	0.2319k external	0.2319temperature offset calibration	1.0102default loss term (dB/km)	0.3790temperature slope calibration	1.0000multiplexer offset coefficient	1.0000multiplexer slope coefficient	1.0000fibre end	0.00T internal ref (°C)	32.87T ext. ref 1 (°C)	2.98T ext. ref 2 (°C)	27.41length (m)	temperature (°C)	Stokes	anti-Stokes-747.200	-200.000	-0.003	-0.434
-746.185	-87.447	0.411	-0.126
-745.171	-7.165	0.577	-0.396
-744.156	238.978	-0.277	-0.467
-743.142	800.000	0.006	0.026
-742.127	-102.001	0.427	0.104
-741.112	16.261	-0.741	0.591
-740.098	724.641	-0.089	0.240
-739.083	-200.000	-0.097	0.674
-738.069	21.822	-0.139	-0.115
-737.054	800.000	-0.129	0.468
-736.039	690.515	-0.153	0.406
-735.025	-184.911	-0.335	-0.005
-734.010	308.577	0.144	-0.273
-732.996	269.770	-0.299	0.530
-731.981	46.421	0.428	0.401
-730.966	-57.441	-0.472	0.210
-729.952	-200.000	0.003	0.105
-728.937	8.318	0.363	-0.276
-727.923	-200.000	-0.064	0.763
-726.908	-58.251	-0.747	-0.329
-725.894	324.998	0.232	-0.447
-724.879	487.109	0.373	0.861
-723.864	-127.992	-0.330	-0.048
-722.850	120.761	0.047	-0.060
-721.835	40.800	0.211	-0.192
-720.821	394.649	0.454	-0.956
-719.806	-129.393	-0.510	-0.072
-718.791	214.855	-0.219	0.351
-717.777	-200.000	-0.112	-0.795
-716.762	22.041	-0.601	-0.496
-715.748	-86.093	0.957	0.299
-714.733	-17.780	-0.612	0.388
-713.718	-47.668	-0.368	-0.180
-712.704	380.633	-0.338	0.701
-711.689	-51.641	-0.679	0.320
-710.675	84.003	-0.239	-0.263
-709.660	15.427	-0.210	0.167
-708.645	-67.623	-0.624	-0.247
-707.631	344.739	-0.163	-0.324
-706.616	147.533	-0.074	-0.101
-705.602	286.250	-0.474	0.863
-704.587	-37.759	0.770	0.414
-703.572	-53.135	0.378	-0.175
-702.558	-75.773	0.221	-0.079
-701.543	31.178	-0.281	-0.244
-700.529	-37.611	-0.266	0.143
-699.514	-130.636	0.122	0.017
-698.499	-35.036	0.528	0.291
-697.485	-37.264	0.421	0.227
-696.470	438.774	0.267	0.588
-695.456	-200.000	-0.047	-0.349
-694.441	-200.000	-0.002	-0.644
-693.426	272.919	0.140	0.249
-692.412	17.297	0.530	-0.425
-691.397	-59.319	-0.266	-0.115
-690.383	-7.353	0.075	0.051
-689.368	195.961	-0.349	-0.537
-688.354	307.472	0.151	0.285
-687.339	-24.193	-0.572	-0.345
-686.324	-67.904	0.429	-0.169
-685.310	-82.423	0.471	-0.155
-684.295	281.414	0.226	-0.409
-683.281	-134.836	-0.327	0.040
-682.266	69.705	-0.511	-0.531
-681.251	-120.957	0.630	0.107
-680.237	800.000	-0.130	-0.387
-679.222	335.275	-0.354	0.691
-678.208	800.000	-0.048	0.167
-677.193	151.184	0.640	0.879
-676.178	-95.839	-0.572	0.154
-675.164	222.037	0.468	-0.759
-674.149	-9.288	0.285	-0.192
-673.135	-30.715	0.134	-0.076
-672.120	-107.693	0.234	0.052
-671.105	-200.000	-0.109	-0.525
-670.091	-122.917	-0.839	-0.136
-669.076	630.001	0.363	-0.927
-668.062	112.327	-0.493	-0.601
-667.047	208.242	0.681	1.073
-666.032	-200.000	-0.058	0.546
-665.018	-165.525	-0.984	0.043
-664.003	152.490	-0.342	0.471
-662.989	-52.030	-0.442	-0.207
-661.974	-130.613	-0.585	0.080
-660.959	51.179	1.153	1.103
-659.945	800.000	0.136	0.542
-658.930	-164.751	0.202	-0.009
-657.916	112.846	-0.187	0.229
-656.901	-200.000	-0.037	-0.973
-655.886	-158.174	-0.832	0.049
-654.872	-200.000	0.027	-0.325
-653.857	-13.720	0.093	0.061
-652.843	164.362	0.460	-0.654
-651.828	3.984	0.402	-0.296
-650.814	-200.000	0.011	-0.335
-649.799	-200.000	0.097	0.472
-648.784	-200.000	-0.011	-0.267
-647.770	-200.000	-0.070	0.388
-646.755	-118.408	-0.671	-0.120
-645.741	365.509	0.453	-0.920
-644.726	-81.730	0.904	-0.299
-643.711	800.000	-0.072	-0.225
-642.697	-58.482	-0.481	0.210
-641.682	-200.000	0.056	-0.300
-640.668	-0.269	0.426	-0.305
-639.653	116.742	-0.553	0.683
-638.638	549.639	0.036	0.088
-637.624	800.000	0.171	0.544
-636.609	-200.000	-0.031	-0.175
-635.595	-200.000	-0.038	-0.226
-634.580	-59.937	-0.132	-0.057
-633.565	203.377	0.248	-0.387
-632.551	129.803	0.497	-0.640
-631.536	-159.428	-0.336	0.019
-630.522	-200.000	-0.068	0.795
-629.507	-2.927	0.159	0.112
-628.492	-162.352	0.521	-0.026
-627.478	-116.785	-0.552	-0.102
-626.463	123.587	-0.164	-0.207
-625.449	237.418	-0.209	-0.349
-624.434	123.124	0.502	0.634
-623.419	-21.303	-0.444	0.273
-622.405	-61.822	-0.970	-0.409
-621.390	-62.205	0.615	0.258
-620.376	-101.769	0.656	-0.160
-619.361	-200.000	-0.045	-0.256
-618.346	127.227	-0.227	-0.290
-617.332	-121.256	0.402	0.068
-616.317	-20.270	-0.435	0.270
-615.303	158.748	-0.421	0.589
-614.288	-44.517	0.035	0.018
-613.273	60.157	-0.353	-0.351
-612.259	0.384	-0.114	0.082
-611.244	112.054	0.077	-0.094
-610.230	-68.536	-1.190	-0.464
-609.215	-147.271	0.420	-0.036
-608.201	-94.169	0.529	-0.146
-607.186	-200.000	-0.102	-0.899
-606.171	-78.231	-0.573	0.198
-605.157	232.170	-0.517	-0.854
-604.142	-62.154	-0.209	0.088
-603.128	49.304	0.303	0.287
-602.113	32.399	0.137	-0.119
-601.098	-67.539	-0.626	-0.247
-600.084	52.923	0.478	0.460
-599.069	-200.000	0.086	-0.882
-598.055	-115.990	-0.836	-0.157
-597.040	341.669	-0.444	0.872
-596.025	-144.474	-0.498	0.046
-595.011	-200.000	-0.014	0.410
-593.996	800.000	-0.017	0.055
-592.982	-200.000	-0.032	-0.295
-591.967	-200.000	0.028	-0.341
-590.952	-200.000	0.052	-0.732
-589.938	800.000	-0.201	-0.608
-588.923	800.000	-0.074	0.297
-587.909	349.408	0.363	-0.720
-586.894	-22.799	-0.878	0.533
-585.879	-200.000	-0.089	0.733
-584.865	-40.004	-0.437	0.229
-583.850	-100.900	-0.255	-0.063
-582.836	280.478	0.141	0.253
-581.821	800.000	-0.084	0.239
-580.806	-140.345	-0.677	0.071
-579.792	543.261	0.097	-0.234
-578.777	-200.000	-0.091	0.501
-577.763	-200.000	-0.021	-0.348
-576.748	272.248	0.198	0.352
-575.733	278.047	0.418	0.748
-574.719	276.833	0.217	0.388
-573.704	85.806	0.609	-0.673
-572.690	-74.033	0.918	-0.334
-571.675	-3.065	0.584	-0.409
-570.661	46.421	-0.685	-0.638
-569.646	189.493	-0.155	0.234
-568.631	-107.252	0.605	0.134
-567.617	747.212	-0.185	-0.502
-566.602	-200.000	-0.067	0.305
-565.588	161.009	-0.212	-0.297
-564.573	-84.782	1.086	0.343
-563.558	-85.720	-0.348	-0.108
-562.544	800.000	0.034	-0.099
-561.529	-36.856	-0.273	0.147
-560.515	89.538	-0.245	-0.274
-559.500	-200.000	0.019	0.570
-558.485	-131.229	0.635	-0.085
-557.471	134.454	0.455	0.593
-556.456	-165.355	0.730	-0.032
-555.442	-200.000	-0.009	0.170
-554.427	-200.000	-0.105	-1.708
-553.412	440.814	-0.316	-0.693
-552.398	716.751	0.171	0.455
-551.383	23.616	0.346	0.286
-550.369	-36.632	0.461	0.249
-549.354	148.319	-0.143	0.194
-548.339	-92.654	0.875	-0.246
-547.325	-56.455	-0.287	0.128
-546.310	-109.179	-0.387	0.083
-545.296	-132.993	-0.230	-0.029
-544.281	-200.000	-0.007	-0.667
-543.266	-18.607	0.147	0.092
-542.252	-200.000	-0.020	-0.274
-541.237	16.754	0.141	0.112
-540.223	-7.133	-0.654	-0.445
-539.208	56.710	0.074	0.072
-538.193	-49.629	-1.021	-0.487
-537.179	-200.000	-0.016	-0.100
-536.164	365.803	0.274	-0.554
-535.150	-95.850	0.246	0.066
-534.135	-129.025	-0.721	0.101
-533.121	173.020	0.325	-0.470
-532.106	-111.180	-0.537	-0.110
-531.091	65.335	-0.041	0.042
-530.077	106.171	-0.344	-0.409
-529.062	-45.852	0.105	0.052
-528.048	800.000	0.115	0.380
-527.033	-78.692	-0.333	-0.114
-526.018	800.000	-0.213	0.746
-525.004	-200.000	0.028	0.355
-523.989	179.785	-0.567	-0.832
-522.975	-145.993	-0.332	0.029
-521.960	-200.000	-0.053	0.398
-520.945	-108.414	0.866	-0.187
-519.931	273.562	-0.126	0.224
-518.916	-200.000	0.086	-1.546
-517.902	-172.843	-0.345	0.011
-516.887	84.990	0.457	-0.502
-515.872	-200.000	-0.185	0.887
-514.858	568.835	-0.324	-0.789
-513.843	-32.085	0.407	-0.228
-512.829	377.973	0.612	1.254
-511.814	124.215	-0.214	0.270
-510.799	79.807	0.140	0.151
-509.785	54.492	-0.247	-0.238
-508.770	800.000	0.076	0.269
-507.756	0.533	1.036	0.742
-506.741	-175.071	-0.597	0.017
-505.726	800.000	0.291	-0.892
-504.712	-200.000	0.107	-0.557
-503.697	-141.700	-0.764	-0.077
-502.683	-105.894	-0.494	0.112
-501.668	-200.000	-0.009	-0.312
-500.653	-200.000	-0.020	-0.121
-499.639	800.000	0.127	0.500
-498.624	48.748	-0.705	-0.663
-497.610	-200.000	-0.091	-0.717
-496.595	-109.921	-0.403	-0.085
-495.581	111.614	-0.350	0.423
-494.566	19.599	-0.780	-0.629
-493.551	-200.000	-0.119	0.589
-492.537	-200.000	0.098	-0.531
-491.522	-117.309	0.556	0.101
-490.508	281.166	0.240	-0.430
-489.493	145.610	0.686	0.920
-488.478	-200.000	0.094	1.044
-487.464	502.040	-0.037	0.086
-486.449	204.303	-0.256	0.397
-485.435	800.000	0.270	0.761
-484.420	38.045	0.036	-0.032
-483.405	-200.000	0.048	0.649
-482.391	225.575	0.492	-0.798
-481.376	-91.268	0.722	-0.207
-480.362	-122.117	0.590	-0.097
-479.347	-200.000	0.056	0.489
-478.332	800.000	-0.379	-1.084
-477.318	92.715	0.193	0.218
-476.303	35.841	0.171	-0.150
-475.289	223.881	-0.385	0.622
-474.274	-9.514	0.236	0.158
-473.259	-200.000	-0.002	0.476
-472.245	129.648	-0.307	-0.393
-471.230	86.532	0.153	0.169
-470.216	800.000	-0.346	1.271
-469.201	138.453	0.345	0.453
-468.186	-59.692	0.513	0.220
-467.172	-200.000	-0.083	0.511
-466.157	-40.912	0.337	-0.174
-465.143	-200.000	-0.018	-0.085
-464.128	-200.000	-0.076	0.660
-463.113	-48.613	-0.220	0.106
-462.099	4.573	-0.997	-0.732
-461.084	162.444	-0.299	-0.419
-460.070	-124.350	0.875	0.137
-459.055	-200.000	0.143	0.000
-458.040	372.793	0.053	-0.107
-457.026	289.391	-0.250	0.454
-456.011	382.920	0.220	-0.452
-454.997	-101.460	0.086	-0.021
-453.982	-167.752	0.601	-0.024
-452.968	-116.511	0.672	-0.124
-451.953	-111.470	0.066	0.013
-450.938	98.011	0.242	-0.278
-449.924	492.145	-0.150	0.345
-448.909	474.485	-0.347	-0.783
-447.895	143.839	-0.054	-0.072
-446.880	-102.087	0.580	0.140
-445.865	-153.665	-0.497	0.034
-444.851	-178.831	0.376	0.009
-443.836	211.148	-0.591	-0.930
-442.822	-47.641	-0.518	0.251
-441.807	-149.460	0.281	-0.022
-440.792	-95.854	-0.463	0.124
-439.778	-86.357	-0.213	-0.065
-438.763	800.000	-0.137	-0.414
-437.749	-183.883	-0.716	0.012
-436.734	433.948	-0.323	-0.700
-435.719	-65.861	0.099	0.040
-434.705	118.485	-0.349	0.430
-433.690	-153.217	0.840	-0.059
-432.676	-154.239	-0.745	-0.050
-431.661	-200.000	0.003	-0.469
-430.646	-127.768	0.789	-0.114
-429.632	-156.803	-0.645	0.040
-428.617	-200.000	-0.008	-0.369
-427.603	0.379	0.361	0.258
-426.588	-29.954	-0.950	-0.541
-425.573	25.718	-0.520	0.432
-424.559	179.856	0.344	-0.504
-423.544	37.109	-0.292	0.258
-422.530	-45.984	0.152	0.075
-421.515	306.684	0.196	-0.364
-420.500	285.764	0.465	-0.838
-419.486	-96.075	-0.316	0.084
-418.471	-126.224	-0.308	0.046
-417.457	-19.519	0.764	-0.472
-416.442	-200.000	-0.058	-0.471
-415.428	800.000	0.168	0.723
-414.413	-140.660	-0.424	-0.044
-413.398	-200.000	-0.115	0.630
-412.384	-136.093	0.548	-0.064
-411.369	92.650	0.374	-0.421
-410.355	-200.000	0.083	-0.875
-409.340	6.474	0.619	0.459
-408.325	-149.442	-0.571	-0.045
-407.311	3.874	0.618	-0.451
-406.296	-200.000	0.073	0.582
-405.282	-200.000	0.028	-0.351
-404.267	-200.000	-0.031	0.146
-403.252	-92.632	0.310	-0.087
-402.238	1.512	-0.839	-0.603
-401.223	800.000	0.358	-1.009
-400.209	-200.000	0.023	-0.428
-399.194	-200.000	0.127	-1.000
-398.179	-200.000	0.057	0.460
-397.165	233.750	0.458	0.752
-396.150	6.461	0.237	0.176
-395.136	-88.834	0.609	0.180
-394.121	364.121	0.247	0.495
-393.106	144.015	-0.447	-0.594
-392.092	106.290	-0.527	-0.623
-391.077	-59.120	0.292	0.126
-390.063	-200.000	-0.068	-0.651
-389.048	329.939	0.350	-0.672
-388.033	-200.000	0.016	0.622
-387.019	119.080	-0.242	0.298
-386.004	-114.785	-1.160	-0.221
-384.990	-97.999	0.725	0.186
-383.975	160.235	0.149	0.208
-382.960	800.000	-0.281	-0.873
-381.946	-136.000	0.659	0.077
-380.931	-70.433	-0.671	-0.253
-379.917	178.245	-0.431	-0.627
-378.902	-200.000	-0.011	-0.096
-377.888	-136.986	-0.189	0.022
-376.873	-99.883	-0.756	0.188
-375.858	-200.000	-0.018	0.211
-374.844	203.251	0.414	-0.638
-373.829	-115.025	0.456	0.086
-372.815	-62.181	-0.736	-0.306
-371.800	-148.441	-0.295	-0.024
-370.785	800.000	0.069	0.230
-369.771	800.000	0.066	0.234
-368.756	-82.664	0.532	-0.172
-367.742	9.230	-0.171	0.129
-366.727	167.193	0.395	0.558
-365.712	166.594	0.084	0.118
-364.698	-200.000	0.058	0.552
-363.683	800.000	0.123	-0.417
-362.669	-9.862	-0.059	0.039
-361.654	-200.000	0.353	-0.001
-360.639	36.470	-0.512	-0.450
-359.625	-144.480	0.850	-0.078
-358.610	800.000	-0.214	0.653
-357.596	800.000	-0.053	0.193
-356.581	26.557	-0.803	-0.669
-355.566	-84.789	0.308	0.096
-354.552	-84.917	0.396	-0.124
-353.537	-83.779	-0.579	-0.184
-352.523	60.136	-0.378	-0.372
-351.508	-85.558	-0.296	0.092
-350.493	-112.878	0.988	0.195
-349.479	-48.940	0.208	0.099
-348.464	294.043	0.397	0.722
-347.450	142.887	0.416	-0.551
-346.435	-15.132	0.378	0.241
-345.420	-111.544	0.938	0.190
-344.406	-63.096	0.953	-0.392
-343.391	800.000	-0.237	-0.708
-342.377	28.831	-0.301	0.254
-341.362	-200.000	-0.044	-0.498
-340.348	94.075	-0.572	0.646
-339.333	-200.000	0.106	0.554
-338.318	129.393	0.249	0.317
-337.304	309.911	-0.157	-0.292
-336.289	-200.000	0.048	0.639
-335.275	-85.234	0.660	-0.205
-334.260	174.895	0.212	0.305
-333.245	-32.694	0.604	0.335
-332.231	76.689	0.492	0.519
-331.216	28.663	-0.278	-0.234
-330.202	-116.823	-0.182	0.033
-329.187	-200.000	0.045	0.691
-328.172	-200.000	-0.061	0.816
-327.158	-200.000	-0.103	-0.803
-326.143	-183.682	-0.860	0.015
-325.129	8.240	-0.405	0.303
-324.114	346.654	0.051	0.100
-323.099	-120.920	0.376	-0.063
-322.085	322.335	0.278	-0.527
-321.070	176.533	0.320	-0.463
-320.056	-200.000	0.085	0.857
-319.041	-200.000	-0.052	0.379
-318.026	-132.151	-0.918	-0.118
-317.012	800.000	0.068	0.263
-315.997	-165.932	-0.973	-0.041
-314.983	447.816	-0.290	0.634
-313.968	-200.000	0.000	-0.319
-312.953	-118.606	-0.545	0.096
-311.939	-37.055	-0.645	-0.344
-310.924	-200.000	0.021	0.401
-309.910	-200.000	-0.159	0.891
-308.895	-56.032	-0.637	0.282
-307.880	194.835	-0.257	0.389
-306.866	-68.078	-0.124	-0.048
-305.851	327.995	0.281	-0.537
-304.837	35.754	0.490	-0.428
-303.822	104.753	-0.175	-0.205
-302.807	606.257	0.237	0.588
-301.793	114.975	0.471	0.571
-300.778	-89.216	-0.695	-0.204
-299.764	22.558	0.568	0.462
-298.749	-200.000	0.049	-0.329
-297.735	-200.000	0.020	0.151
-296.720	128.401	0.305	0.385
-295.705	-200.000	0.046	-0.424
-294.691	432.496	-0.129	-0.278
-293.676	-73.319	0.427	-0.155
-292.662	11.389	-0.351	-0.267
-291.647	-54.017	-0.322	-0.146
-290.632	-200.000	0.114	-0.768
-289.618	800.000	0.192	-0.573
-288.603	230.921	-0.258	0.419
-287.589	-139.184	0.286	-0.031
-286.574	318.689	-0.337	-0.634
-285.559	-41.075	0.204	0.105
-284.545	180.769	-0.222	0.323
-283.530	33.590	0.145	0.125
-282.516	-78.167	-0.483	-0.165
-281.501	-162.084	1.211	-0.060
-280.486	27.563	0.202	-0.169
-279.472	247.109	-0.077	0.130
-278.457	106.924	0.505	0.595
-277.443	-66.008	-1.018	-0.404
-276.428	-16.103	-0.964	-0.609
-275.413	15.955	-0.215	-0.168
-274.399	-200.000	-0.027	-0.726
-273.384	601.019	0.196	-0.482
-272.370	47.097	-0.216	-0.200
-271.355	261.460	0.321	0.551
-270.340	-89.818	-0.780	-0.227
-269.326	-1.354	0.471	0.330
-268.311	-200.000	-0.085	0.846
-267.297	-185.170	-0.277	-0.004
-266.282	-25.039	0.477	-0.281
-265.267	-142.032	-0.523	-0.052
-264.253	-200.000	-0.133	0.624
-263.238	-200.000	0.014	0.210
-262.224	174.375	0.224	0.321
-261.209	174.330	0.381	0.546
-260.195	800.000	0.043	-0.159
-259.180	-200.000	-0.042	0.446
-258.165	-83.265	0.454	0.145
-257.151	-60.720	-0.557	0.234
-256.136	23.464	0.369	-0.301
-255.122	459.922	0.418	0.924
-254.107	19.875	-0.430	0.344
-253.092	51.972	0.553	0.523
-252.078	-191.871	0.564	-0.005
-251.063	-6.497	0.413	-0.279
-250.049	439.496	-0.400	0.866
-249.034	-116.250	-0.541	0.100
-248.019	27.107	-0.216	0.180
-247.005	-50.130	-0.548	-0.257
-245.990	590.261	0.197	0.481
-244.976	206.852	-0.176	0.272
-243.961	217.374	0.177	-0.280
-242.946	70.334	0.333	0.342
-241.932	-133.123	-0.101	0.013
-240.917	17.299	-0.864	0.680
-239.903	-102.317	0.318	-0.076
-238.888	-62.992	0.358	-0.147
-237.873	-200.000	0.036	0.523
-236.859	-107.553	-0.441	-0.096
-235.844	578.672	0.215	0.522
-234.830	-123.984	-0.675	0.105
-233.815	-200.000	-0.037	-0.357
-232.800	249.970	0.325	0.547
-231.786	-23.818	-0.244	0.145
-230.771	-191.598	0.411	-0.004
-229.757	-98.862	0.782	-0.197
-228.742	-200.000	-0.101	-0.526
-227.727	-125.710	0.768	0.115
-226.713	-7.262	-0.435	-0.292
-225.698	-62.455	0.424	-0.175
-224.684	276.538	-0.428	-0.754
-223.669	9.695	0.348	-0.262
-222.655	-119.111	-0.568	-0.098
-221.640	420.560	-0.185	0.393
-220.625	-200.000	0.044	0.469
-219.611	-76.118	0.328	0.115
-218.596	107.111	-0.277	0.327
-217.582	-161.648	0.294	0.015
-216.567	13.785	-0.227	0.175
-215.552	428.238	0.273	-0.585
-214.538	448.215	-0.357	-0.780
-213.523	-200.000	0.020	-0.231
-212.509	226.328	0.309	-0.496
-211.494	25.706	0.338	-0.278
-210.479	-200.000	-0.025	1.100
-209.465	800.000	-0.054	0.163
-208.450	-19.283	0.091	-0.056
-207.436	-200.000	-0.084	-0.687
-206.421	33.996	-0.425	0.367
-205.406	6.264	0.598	-0.439
-204.392	156.286	-0.258	-0.352
-203.377	-200.000	0.042	0.371
-202.363	19.783	0.391	-0.312
-201.348	80.604	0.576	-0.615
-200.333	32.747	0.390	0.334
-199.319	-200.000	0.032	0.631
-198.304	394.067	-0.321	-0.661
-197.290	148.370	-0.336	0.450
-196.275	800.000	0.085	0.238
-195.260	1.307	0.741	-0.527
-194.246	469.279	0.139	-0.309
-193.231	101.247	-0.505	0.582
-192.217	800.000	0.077	-0.217
-191.202	-200.000	0.049	-0.468
-190.187	-155.246	-0.472	0.030
-189.173	-124.908	0.694	0.106
-188.158	-200.000	-0.178	1.170
-187.144	-200.000	-0.035	0.182
-186.129	-15.527	-0.450	-0.285
-185.114	71.597	-0.237	0.244
-184.100	-41.526	0.858	0.437
-183.085	-48.218	0.320	0.153
-182.071	-200.000	-0.018	0.269
-181.056	-32.608	-0.519	-0.286
-180.042	800.000	0.162	0.649
-179.027	567.791	0.127	-0.306
-178.012	-150.666	0.553	-0.042
-176.998	23.218	0.052	0.042
-175.983	-76.294	-1.138	-0.397
-174.969	-14.131	-0.115	0.074
-173.954	123.448	-0.076	0.094
-172.939	-21.403	-0.312	-0.189
-171.925	366.088	-0.050	-0.100
-170.910	-200.000	0.070	-0.463
-169.896	-73.479	0.421	-0.152
-168.881	-154.434	-0.699	-0.046
-167.866	-36.856	-0.612	0.325
-166.852	319.124	0.277	0.520
-165.837	-200.000	0.046	0.864
-164.823	-200.000	-0.036	0.356
-163.808	-12.226	-0.354	0.229
-162.793	540.859	0.089	0.210
-161.779	599.392	0.180	0.442
-160.764	-171.533	-0.102	-0.003
-159.750	-25.893	0.617	-0.359
-158.735	-99.249	-0.721	0.180
-157.720	319.877	0.252	-0.472
-156.706	-147.870	-0.309	-0.026
-155.691	140.732	0.427	0.557
-154.677	690.025	-0.364	0.942
-153.662	-111.001	0.914	0.185
-152.647	9.392	1.150	0.860
-151.633	800.000	-0.033	-0.090
-150.618	121.993	0.158	-0.195
-149.604	-192.344	-0.746	0.007
-148.589	145.011	-0.416	0.550
-147.574	710.264	-0.083	-0.216
-146.560	-200.000	-0.057	-0.404
-145.545	377.396	-0.153	0.309
-144.531	205.503	-0.142	-0.218
-143.516	62.208	0.278	0.274
-142.502	-200.000	0.032	-0.806
-141.487	-36.273	0.575	0.306
-140.472	-83.118	-0.456	0.145
-139.458	52.192	0.245	-0.231
-138.443	-52.691	0.474	-0.216
-137.429	-3.583	-0.558	-0.383
-136.414	-22.929	-0.837	0.499
-135.399	-58.069	0.218	0.094
-134.385	-100.631	0.548	0.134
-133.370	351.663	-0.145	0.284
-132.356	-118.706	-1.060	0.185
-131.341	800.000	0.333	-1.014
-130.326	-176.598	0.712	-0.018
-129.312	517.122	0.263	-0.607
-128.297	240.596	0.278	-0.458
-127.283	-107.041	0.153	0.033
-126.268	56.227	0.562	-0.539
-125.253	-75.194	-0.244	-0.086
-124.239	20.083	0.565	0.450
-123.224	-56.676	0.455	0.199
-122.210	52.515	0.470	-0.443
