DTS Sentinel unit serial number:	SN413079Multiplexer serial number:	ORYXHardware model number:	OX4-SRSoftware version number:	ORYX F/W v4.00 Oryx Data Collector v3.7.2.0data status	okinstallation	princeton_trtdifferential loss correction	single-endedforward channel	channel 1reverse channel	N/Adate	2019/09/15time	21:38:35forward acquisition time	60.00reverse acquisition time	0.00gamma	496.2192k internal	0.2329k external	0.2329temperature offset calibration	0.9964default loss term (dB/km)	0.3790temperature slope calibration	1.0000multiplexer offset coefficient	1.0000multiplexer slope coefficient	1.0000fibre end	0.00T internal ref (°C)	30.47T ext. ref 1 (°C)	8.37T ext. ref 2 (°C)	23.50length (m)	temperature (°C)	Stokes	anti-Stokes-747.200	800.000	-0.032	0.111
-746.185	800.000	-0.091	0.286
-745.171	138.611	-0.118	0.156
-744.156	182.561	0.085	-0.127
-743.142	379.020	-0.046	-0.094
-742.127	-45.989	0.162	0.081
-741.112	161.196	0.097	-0.137
-740.098	-122.619	-0.348	0.057
-739.083	-55.688	0.244	-0.110
-738.069	-69.303	-0.156	0.060
-737.054	244.040	0.071	-0.120
-736.039	-119.081	-0.110	0.019
-735.025	-40.831	-0.050	-0.026
-734.010	800.000	0.058	-0.187
-732.996	-56.231	0.123	-0.055
-731.981	-60.375	0.141	0.060
-730.966	-200.000	-0.015	-0.173
-729.952	73.632	0.208	-0.219
-728.937	-127.557	-0.158	-0.023
-727.923	-37.099	-0.218	-0.118
-726.908	-93.750	-0.182	-0.051
-725.894	-56.863	-0.158	-0.070
-724.879	-200.000	0.020	0.227
-723.864	-18.726	0.215	0.135
-722.850	80.077	-0.342	-0.370
-721.835	-200.000	0.006	-0.152
-720.821	-56.172	0.143	0.064
-719.806	98.529	0.103	-0.120
-718.791	216.971	-0.119	0.191
-717.777	-200.000	-0.006	0.048
-716.762	311.709	-0.092	-0.174
-715.748	128.093	0.267	-0.342
-714.733	-200.000	-0.003	-0.174
-713.718	367.640	0.111	-0.225
-712.704	-148.245	-0.290	-0.024
-711.689	-108.928	-0.149	-0.032
-710.675	124.883	0.044	-0.056
-709.660	-200.000	0.006	0.126
-708.645	54.107	0.078	0.076
-707.631	-200.000	-0.004	-0.074
-706.616	294.607	0.198	-0.364
-705.602	-22.048	-0.285	-0.174
-704.587	-200.000	-0.064	-0.347
-703.572	800.000	0.128	-0.408
-702.558	-61.883	0.406	-0.171
-701.543	99.081	0.065	0.075
-700.529	-40.537	0.179	0.093
-699.514	-6.626	0.147	0.101
-698.499	-52.192	0.272	0.127
-697.485	516.684	0.072	0.169
-696.470	-19.103	-0.166	0.104
-695.456	800.000	0.091	0.387
-694.441	-37.480	0.132	-0.071
-693.426	-73.596	-0.406	-0.149
-692.412	800.000	-0.177	-0.588
-691.397	130.646	-0.107	-0.138
-690.383	-200.000	-0.040	-0.299
-689.368	-100.836	-0.111	0.027
-688.354	800.000	0.012	-0.046
-687.339	-17.451	-0.114	0.072
-686.324	-48.865	0.071	0.034
-685.310	38.777	0.125	0.112
-684.295	-86.172	-0.180	-0.056
-683.281	157.383	-0.127	-0.177
-682.266	-91.511	-0.078	-0.022
-681.251	-19.533	0.228	0.142
-680.237	-166.795	-0.040	-0.002
-679.222	-200.000	-0.052	-0.360
-678.208	-38.104	0.080	0.043
-677.193	-134.499	0.198	-0.024
-676.178	-200.000	-0.060	-0.374
-675.164	281.360	0.156	0.281
-674.149	-142.848	0.335	-0.033
-673.135	-93.587	-0.319	-0.089
-672.120	-134.577	0.239	-0.029
-671.105	464.503	-0.009	0.021
-670.091	-200.000	-0.058	-0.265
-669.076	-200.000	-0.076	-0.358
-668.062	206.480	0.070	0.109
-667.047	-200.000	0.014	0.139
-666.032	800.000	0.091	-0.341
-665.018	537.968	-0.048	0.116
-664.003	-131.647	-0.265	0.035
-662.989	-101.267	-0.256	-0.063
-661.974	-200.000	0.029	-0.127
-660.959	-155.535	-0.266	0.017
-659.945	-88.299	0.066	-0.020
-658.930	452.180	0.173	-0.385
-657.916	-80.587	0.178	0.059
-656.901	800.000	0.074	0.232
-655.886	45.541	-0.262	-0.243
-654.872	129.452	-0.204	-0.262
-653.857	-54.113	-0.413	-0.189
-652.843	-15.462	0.117	-0.075
-651.828	-200.000	-0.004	-0.023
-650.814	-200.000	-0.016	0.138
-649.799	-160.295	-0.208	0.011
-648.784	-12.063	-0.324	0.213
-647.770	-51.233	-0.145	-0.068
-646.755	32.289	-0.149	-0.129
-645.741	14.855	-0.079	-0.062
-644.726	125.820	0.028	-0.035
-643.711	-110.281	0.382	0.080
-642.697	82.343	-0.303	0.330
-641.682	328.818	-0.088	-0.170
-640.668	-55.814	-0.235	0.105
-639.653	75.961	-0.119	0.126
-638.638	-60.885	0.070	-0.030
-637.624	31.040	0.178	-0.153
-636.609	80.014	-0.081	-0.087
-635.595	37.183	-0.093	0.083
-634.580	252.064	0.049	-0.084
-633.565	800.000	0.103	-0.315
-632.551	-200.000	0.009	-0.163
-631.536	36.739	-0.095	-0.084
-630.522	-151.656	-0.446	0.033
-629.507	-46.329	-0.349	-0.172
-628.492	243.274	0.170	-0.286
-627.478	800.000	-0.023	0.087
-626.463	-43.728	-0.294	-0.149
-625.449	-200.000	-0.003	0.246
-624.434	-76.652	0.206	0.072
-623.419	-130.170	-0.196	-0.027
-622.405	-133.365	-0.238	0.030
-621.390	73.332	-0.039	0.041
-620.376	-200.000	-0.003	0.220
-619.361	63.779	-0.037	0.037
-618.346	-200.000	-0.014	-0.252
-617.332	103.073	0.070	-0.082
-616.317	409.044	0.041	-0.088
-615.303	-130.367	-0.134	-0.018
-614.288	-200.000	0.011	-0.129
-613.273	-146.141	0.305	-0.027
-612.259	398.791	0.165	0.347
-611.244	96.216	-0.115	0.132
-610.230	-186.072	-0.364	0.005
-609.215	-200.000	-0.048	-0.507
-608.201	-76.412	-0.191	0.067
-607.186	41.600	-0.213	-0.193
-606.171	-36.705	0.179	-0.097
-605.157	800.000	-0.052	0.214
-604.142	-143.891	-0.197	0.019
-603.128	-200.000	-0.030	0.141
-602.113	-71.248	-0.113	-0.043
-601.098	-145.398	0.078	-0.007
-600.084	-112.740	-0.203	-0.040
-599.069	-173.016	0.220	0.007
-598.055	-81.971	-0.417	0.136
-597.040	-167.068	-0.221	0.009
-596.025	46.377	0.124	-0.115
-595.011	-86.597	0.151	-0.046
-593.996	240.909	0.105	-0.175
-592.982	-109.043	0.130	-0.028
-591.967	166.826	0.154	0.219
-590.952	-200.000	0.020	-0.172
-589.938	442.423	0.062	0.135
-588.923	52.488	-0.127	-0.121
-587.909	-200.000	-0.019	-0.099
-586.894	497.707	-0.090	-0.207
-585.879	-200.000	0.007	-0.039
-584.865	219.652	-0.110	0.176
-583.850	-24.176	0.025	-0.015
-582.836	800.000	-0.068	-0.220
-581.821	29.796	-0.051	-0.043
-580.806	-200.000	-0.004	-0.026
-579.792	-17.006	0.236	0.149
-578.777	3.404	-0.264	-0.192
-577.763	-8.514	-0.068	-0.046
-576.748	91.175	0.177	-0.198
-575.733	69.841	-0.334	-0.345
-574.719	-127.354	0.460	0.067
-573.704	-200.000	-0.022	-0.345
-572.690	800.000	-0.043	-0.137
-571.675	800.000	-0.044	-0.182
-570.661	-143.270	0.286	0.027
-569.646	-27.730	0.168	0.097
-568.631	-20.607	-0.215	0.132
-567.617	-21.601	0.170	0.104
-566.602	17.599	-0.210	0.167
-565.588	722.215	-0.065	-0.173
-564.573	-50.147	-0.183	0.087
-563.558	636.200	-0.079	0.201
-562.544	800.000	-0.062	0.255
-561.529	-200.000	0.016	0.090
-560.515	208.563	0.175	0.273
-559.500	-200.000	0.006	0.332
-558.485	-38.425	-0.124	-0.065
-557.471	343.349	0.062	-0.121
-556.456	-139.822	-0.345	-0.037
-555.442	-200.000	0.028	-0.301
-554.427	-194.886	-0.208	0.002
-553.412	-200.000	-0.021	-0.120
-552.398	81.280	-0.186	-0.201
-551.383	53.921	0.194	0.187
-550.369	145.797	0.104	0.139
-549.354	-89.175	-0.455	-0.134
-548.339	-48.913	0.328	-0.157
-547.325	-158.231	0.262	-0.015
-546.310	202.959	-0.141	0.218
-545.296	71.000	0.065	0.067
-544.281	-200.000	-0.061	0.402
-543.266	-200.000	0.036	-0.349
-542.252	27.323	-0.143	0.120
-541.237	116.106	0.097	-0.119
-540.223	-137.496	-0.364	0.041
-539.208	-200.000	-0.026	-0.293
-538.193	757.706	0.106	-0.286
-537.179	-48.027	0.242	0.117
-536.164	-16.864	-0.075	-0.048
-535.150	175.204	-0.085	0.123
-534.135	598.463	-0.084	-0.208
-533.121	16.887	0.149	-0.118
-532.106	181.434	0.143	-0.210
-531.091	-59.128	-0.178	0.077
-530.077	-100.110	-0.385	-0.096
-529.062	-75.473	0.264	0.094
-528.048	303.242	-0.118	0.219
-527.033	-126.199	-0.279	0.042
-526.018	-62.657	-0.150	0.062
-525.004	-72.534	-0.042	-0.016
-523.989	237.217	-0.138	0.228
-522.975	-9.768	-0.134	0.089
-521.960	6.225	0.059	-0.044
-520.945	-105.212	0.287	0.066
-519.931	142.175	-0.071	-0.095
-518.916	-21.952	-0.199	-0.120
-517.902	-87.020	-0.193	0.059
-516.887	-200.000	-0.032	-0.231
-515.872	-45.999	-0.204	0.101
-514.858	57.076	-0.020	-0.019
-513.843	305.018	0.129	0.240
-512.829	-17.673	0.341	0.214
-511.814	-135.547	-0.213	-0.025
-510.799	-96.963	-0.299	-0.078
-509.785	113.994	-0.103	-0.125
-508.770	-97.103	-0.018	-0.005
-507.756	14.255	-0.230	-0.179
-506.741	297.349	-0.083	0.152
-505.726	523.757	0.032	0.075
-504.712	-200.000	0.024	0.113
-503.697	103.120	0.355	-0.415
-502.683	399.995	0.089	-0.186
-501.668	268.605	-0.059	0.104
-500.653	86.074	0.151	0.165
-499.639	-83.485	-0.095	0.030
-498.624	-148.981	0.252	0.020
-497.610	246.273	-0.118	-0.199
-496.595	-200.000	-0.023	0.157
-495.581	800.000	-0.059	-0.230
-494.566	490.226	-0.061	-0.138
-493.551	67.707	-0.047	-0.048
-492.537	147.670	-0.173	-0.232
-491.522	-109.779	0.118	0.025
-490.508	-77.879	0.181	0.062
-489.493	-200.000	0.024	0.263
-488.478	-111.693	0.098	-0.020
-487.464	-66.261	0.213	0.084
-486.449	800.000	-0.052	0.179
-485.435	-200.000	0.024	-0.335
-484.420	32.836	0.048	0.042
-483.405	-33.547	0.143	0.079
-482.391	800.000	-0.088	-0.273
-481.376	-57.768	0.252	0.110
-480.362	-200.000	0.074	0.344
-479.347	84.725	0.171	-0.186
-478.332	38.669	0.036	-0.032
-477.318	-66.338	0.175	-0.069
-476.303	8.381	0.271	0.203
-475.289	-98.640	0.134	0.034
-474.274	60.264	-0.174	-0.171
-473.259	800.000	0.098	-0.275
-472.245	-78.748	0.215	-0.073
-471.230	-153.809	0.161	0.011
-470.216	167.798	-0.151	-0.214
-469.201	-32.022	0.248	-0.138
-468.186	-200.000	-0.006	0.226
-467.172	800.000	0.080	-0.266
-466.157	-30.242	-0.190	-0.108
-465.143	154.689	0.184	0.252
-464.128	227.807	0.038	0.062
-463.113	-112.850	-0.216	-0.043
-462.099	18.006	0.155	0.123
-461.084	-200.000	-0.004	0.165
-460.070	-200.000	0.020	-0.211
-459.055	130.562	0.131	0.168
-458.040	-155.965	-0.202	0.013
-457.026	-149.802	0.111	-0.009
-456.011	33.331	-0.169	-0.146
-454.997	-200.000	-0.014	-0.261
-453.982	-181.032	0.365	0.007
-452.968	376.193	-0.084	-0.170
-451.953	55.897	-0.201	0.194
-450.938	-33.796	0.205	-0.112
-449.924	-200.000	-0.015	-0.178
-448.909	137.939	0.035	0.046
-447.895	-129.807	0.213	-0.029
-446.880	-116.243	-0.052	0.010
-445.865	212.609	0.117	0.183
-444.851	-200.000	0.001	0.026
-443.836	-97.292	-0.308	-0.080
-442.822	64.223	0.142	0.142
-441.807	800.000	0.026	-0.094
-440.792	37.555	-0.069	0.061
-439.778	-18.858	0.295	0.183
-438.763	250.852	0.141	-0.238
-437.749	581.593	-0.057	0.140
-436.734	-42.324	0.143	-0.073
-435.719	-84.487	-0.131	-0.041
-434.705	-12.748	-0.201	0.130
-433.690	-23.206	0.270	0.162
-432.676	-19.653	-0.041	0.026
-431.661	-177.943	-0.131	-0.003
-430.646	-100.084	0.159	-0.039
-429.632	800.000	0.053	-0.147
-428.617	-88.097	0.300	-0.089
-427.603	-176.619	0.204	0.005
-426.588	-148.948	-0.102	-0.008
-425.573	-28.165	0.085	-0.049
-424.559	-17.280	-0.152	0.095
-423.544	-200.000	-0.003	-0.163
-422.530	-156.035	0.195	0.012
-421.515	734.846	0.087	-0.232
-420.500	-200.000	-0.047	0.496
-419.486	-200.000	-0.016	-0.585
-418.471	-117.485	-0.228	-0.041
-417.457	31.368	-0.156	-0.134
-416.442	800.000	0.116	-0.372
-415.428	-200.000	-0.050	-0.348
-414.413	82.895	0.091	0.099
-413.398	-200.000	0.103	0.000
-412.384	173.909	-0.183	-0.263
-411.369	-159.253	0.258	-0.014
-410.355	-200.000	-0.012	0.270
-409.340	-84.362	-0.188	-0.059
-408.325	-82.501	-0.072	0.023
-407.311	-200.000	0.036	-0.186
-406.296	283.723	0.094	-0.167
-405.282	-200.000	0.053	-0.354
-404.267	-10.896	0.309	0.203
-403.252	800.000	0.119	0.351
-402.238	-69.832	0.309	-0.117
-401.223	469.290	0.143	-0.319
-400.209	-200.000	0.020	0.130
-399.194	-106.843	0.212	0.047
-398.179	-200.000	-0.008	-0.057
-397.165	-100.700	-0.106	0.026
-396.150	-145.665	-0.103	0.009
-395.136	-88.013	-0.076	-0.023
-394.121	-200.000	0.116	-0.544
-393.106	36.466	-0.238	-0.208
-392.092	-86.925	0.171	0.052
-391.077	-127.722	-0.161	-0.023
-390.063	111.219	-0.043	-0.052
-389.048	-200.000	-0.015	0.075
-388.033	230.016	0.170	-0.276
-387.019	-200.000	-0.048	0.277
-386.004	-200.000	0.042	0.348
-384.990	-200.000	0.219	-0.001
-383.975	2.763	-0.241	0.173
-382.960	263.171	0.161	0.278
-381.946	275.927	-0.141	-0.249
-380.931	221.358	0.256	-0.409
-379.917	414.685	-0.180	-0.381
-378.902	-200.000	0.003	0.122
-377.888	-154.620	0.203	-0.013
-376.873	800.000	0.091	0.262
-375.858	41.402	-0.188	-0.169
-374.844	42.747	0.029	0.026
-373.829	-200.000	0.027	-0.329
-372.815	-200.000	-0.017	0.230
-371.800	-40.094	0.067	0.035
-370.785	64.711	-0.069	0.069
-369.771	69.319	0.139	0.142
-368.756	99.753	0.099	-0.114
-367.742	-93.982	0.197	-0.054
-366.727	-70.418	0.117	0.044
-365.712	800.000	0.062	-0.258
-364.698	-200.000	-0.001	0.036
-363.683	800.000	-0.019	-0.074
-362.669	-10.977	0.244	-0.160
-361.654	287.798	-0.082	-0.147
-360.639	-200.000	-0.001	0.049
-359.625	334.876	-0.112	-0.216
-358.610	-200.000	0.001	-0.345
-357.596	800.000	0.058	0.205
-356.581	77.922	0.092	0.097
-355.566	-88.434	0.324	0.096
-354.552	-56.373	0.175	0.077
-353.537	800.000	0.047	0.143
-352.523	-100.166	0.278	0.069
-351.508	0.035	0.273	0.193
-350.493	-112.085	-0.258	-0.052
-349.479	-116.841	-0.026	0.005
-348.464	-22.630	0.130	0.078
-347.450	-152.942	-0.244	-0.017
-346.435	440.015	-0.066	-0.143
-345.420	-31.039	-0.540	0.302
-344.406	-14.087	-0.267	0.171
-343.391	57.878	0.071	0.069
-342.377	-120.966	0.347	0.058
-341.362	697.936	0.039	0.102
-340.348	-185.706	-0.199	-0.003
-339.333	-123.678	0.222	0.035
-338.318	-200.000	0.048	0.287
-337.304	270.304	-0.107	0.187
-336.289	-72.604	-0.113	0.041
-335.275	105.593	-0.299	0.351
-334.260	209.251	-0.100	0.155
-333.245	-40.228	0.222	-0.115
-332.231	113.618	0.346	0.416
-331.216	129.154	-0.233	-0.294
-330.202	-75.406	-0.297	0.105
-329.187	-200.000	0.027	-0.285
-328.172	-136.052	-0.227	0.026
-327.158	-130.015	-0.175	0.024
-326.143	443.996	-0.162	0.352
-325.129	-143.649	-0.068	-0.006
-324.114	42.971	0.187	0.169
-323.099	-14.072	0.091	-0.058
-322.085	59.618	0.198	0.193
-321.070	-200.000	0.000	-0.189
-320.056	60.905	0.194	-0.191
-319.041	-24.227	-0.161	-0.095
-318.026	138.780	-0.048	-0.063
-317.012	0.051	-0.157	-0.111
-315.997	-200.000	-0.025	0.156
-314.983	-64.026	0.586	0.237
-313.968	800.000	-0.014	-0.049
-312.953	-126.636	-0.215	-0.032
-311.939	48.588	-0.030	-0.028
-310.924	223.393	0.103	-0.164
-309.910	640.474	0.073	-0.185
-308.895	367.467	-0.139	0.277
-307.880	538.822	-0.076	0.180
-306.866	88.770	-0.114	0.126
-305.851	-38.466	-0.027	0.014
-304.837	513.873	-0.078	-0.180
-303.822	800.000	0.080	-0.303
-302.807	-18.297	0.065	-0.040
-301.793	83.121	-0.241	-0.260
-300.778	107.633	-0.169	-0.199
-299.764	-194.346	0.206	0.002
-298.749	-65.287	-0.259	-0.103
-297.735	411.291	-0.098	0.205
-296.720	148.870	0.101	0.135
-295.705	-2.877	0.144	0.100
-294.691	302.353	-0.138	0.253
-293.676	-200.000	-0.102	0.523
-292.662	79.852	-0.129	0.137
-291.647	271.022	-0.074	0.129
-290.632	800.000	-0.072	0.198
-289.618	800.000	0.025	0.071
-288.603	639.381	0.070	-0.175
-287.589	-49.872	-0.131	0.061
-286.574	418.762	0.145	0.306
-285.559	93.029	0.040	0.044
-284.545	-200.000	-0.017	-0.338
-283.530	118.194	0.158	-0.192
-282.516	2.253	-0.295	-0.211
-281.501	144.756	-0.135	-0.179
-280.486	-200.000	0.043	0.349
-279.472	313.910	-0.017	-0.032
-278.457	-109.058	-0.081	0.017
-277.443	-200.000	-0.030	-0.218
-276.428	146.453	-0.111	0.147
-275.413	652.566	-0.124	-0.314
-274.399	-80.027	0.306	0.101
-273.384	-49.932	0.210	0.099
-272.370	-176.767	-0.141	0.004
-271.355	800.000	-0.017	0.056
-270.340	-49.987	-0.299	-0.140
-269.326	222.315	-0.146	-0.232
-268.311	-116.205	0.124	0.023
-267.297	275.654	0.126	0.221
-266.282	-13.810	-0.092	0.058
-265.267	17.977	0.245	-0.193
-264.253	-57.037	-0.215	0.094
-263.238	180.269	-0.042	0.061
-262.224	-108.994	0.313	0.066
-261.209	257.325	-0.049	-0.083
-260.195	-200.000	0.015	-0.094
-259.180	-200.000	0.006	-0.076
-258.165	-48.936	0.323	0.153
-257.151	198.671	-0.093	0.140
-256.136	-200.000	0.004	-0.074
-255.122	190.500	-0.065	0.096
-254.107	6.117	0.305	0.223
-253.092	800.000	0.108	0.367
-252.078	-42.475	-0.031	0.016
-251.063	-169.345	-0.340	0.012
-250.049	-56.323	0.134	0.059
-249.034	16.459	-0.230	-0.180
-248.019	-96.404	-0.214	-0.056
-247.005	-40.157	-0.234	0.121
-245.990	-91.822	0.269	0.075
-244.976	-118.612	-0.146	0.025
-243.961	-24.102	-0.340	0.201
-242.946	-24.833	0.178	-0.104
-241.932	129.929	0.276	-0.348
-240.917	793.292	-0.046	0.126
-239.903	81.338	0.172	0.184
-238.888	462.974	0.123	0.272
-237.873	448.408	0.061	0.133
-236.859	-27.527	0.112	0.064
-235.844	126.914	0.138	0.172
-234.830	1.746	0.127	0.091
-233.815	8.263	-0.156	-0.116
-232.800	118.042	-0.178	-0.216
-231.786	167.781	-0.114	-0.160
-230.771	-43.698	0.469	-0.233
-229.757	43.936	0.053	0.048
-228.742	-200.000	0.010	-0.116
-227.727	-7.520	0.282	-0.189
-226.713	-200.000	-0.048	-0.329
-225.698	-200.000	0.024	0.142
-224.684	-68.359	0.524	-0.201
-223.669	367.992	-0.102	-0.204
-222.655	-29.696	0.172	0.097
-221.640	9.204	0.213	-0.159
-220.625	94.332	0.145	0.162
-219.611	485.914	0.031	0.070
-218.596	-200.000	0.007	0.087
-217.582	-137.020	0.394	-0.044
-216.567	-200.000	0.008	0.132
-215.552	-67.523	0.176	0.068
-214.538	471.563	-0.108	0.240
-213.523	800.000	0.071	-0.263
-212.509	-27.743	-0.095	-0.054
-211.494	-200.000	-0.023	-0.291
-210.479	-200.000	0.050	-0.489
-209.465	800.000	-0.092	-0.358
-208.450	-75.245	0.291	0.103
-207.436	77.088	-0.087	-0.091
-206.421	-200.000	-0.103	0.473
-205.406	800.000	0.026	0.091
-204.392	-166.699	-0.243	-0.010
-203.377	-49.814	-0.152	0.071
-202.363	13.652	-0.158	-0.121
-201.348	-44.599	0.108	-0.053
-200.333	-200.000	-0.070	0.309
-199.319	-131.032	0.154	0.020
-198.304	-91.250	-0.171	0.048
-197.290	-53.193	0.149	0.068
-196.275	-63.639	-0.205	0.083
-195.260	-1.101	0.053	-0.037
-194.246	800.000	0.064	0.228
-193.231	800.000	0.050	0.141
-192.217	-60.531	-0.144	0.060
-191.202	478.966	0.101	0.225
-190.187	41.003	-0.207	0.184
-189.173	-162.589	0.207	0.010
-188.158	-74.549	0.266	-0.094
-187.144	800.000	0.076	0.272
-186.129	57.956	-0.099	0.095
-185.114	209.577	-0.101	0.155
-184.100	-128.181	-0.125	-0.018
-183.085	354.932	-0.045	0.088
-182.071	-13.595	0.172	-0.110
-181.056	-47.939	-0.107	0.051
-180.042	-133.144	0.202	-0.025
-179.027	-52.464	0.176	0.080
-178.012	743.978	-0.140	-0.372
-176.998	-200.000	0.045	0.510
-175.983	-46.849	-0.176	0.085
-174.969	-56.728	-0.147	-0.064
-173.954	-109.496	-0.225	-0.047
-172.939	39.298	-0.220	-0.194
-171.925	-118.268	-0.043	0.008
-170.910	-152.664	-0.316	-0.022
-169.896	800.000	0.032	0.139
-168.881	-200.000	0.036	0.165
-167.866	64.358	0.317	0.314
-166.852	158.495	-0.171	0.233
-165.837	-107.579	0.069	0.015
-164.823	-200.000	0.042	0.317
-163.808	467.965	0.048	0.105
-162.793	-200.000	-0.026	0.208
-161.779	-200.000	-0.019	0.114
-160.764	555.063	0.122	0.290
-159.750	-48.356	-0.288	0.137
-158.735	138.035	0.339	0.437
-157.720	-107.580	0.367	0.079
-156.706	4.273	-0.149	0.107
-155.691	-200.000	-0.009	-0.198
-154.677	-143.292	-0.091	0.009
-153.662	-104.271	-0.154	-0.035
-152.647	-21.992	-0.132	0.079
-151.633	-200.000	-0.031	-0.359
-150.618	-81.052	0.125	-0.041
-149.604	14.059	0.163	0.125
-148.589	389.594	0.015	0.031
-147.574	-200.000	0.002	-0.020
-146.560	113.805	0.182	-0.218
-145.545	189.890	-0.140	-0.206
-144.531	800.000	0.017	-0.055
-143.516	44.507	0.092	0.083
-142.502	-73.321	-0.234	0.084
-141.487	-83.631	0.186	0.058
-140.472	-25.771	0.372	0.215
-139.458	-10.186	0.143	-0.093
-138.443	259.802	-0.143	-0.243
-137.429	-88.871	0.143	-0.042
-136.414	800.000	0.079	0.265
-135.399	59.238	0.289	-0.280
-134.385	800.000	-0.038	0.133
-133.370	715.963	0.081	-0.212
-132.356	-55.563	0.183	-0.081
-131.341	201.430	-0.081	0.123
-130.326	-32.996	0.399	0.218
-129.312	-39.234	0.200	-0.104
-128.297	464.658	0.081	0.179
-127.283	-200.000	0.048	-0.256
-126.268	-40.233	0.322	0.165
-125.253	271.489	-0.048	0.082
-124.239	-119.597	0.114	0.019
-123.224	115.323	0.061	-0.073
-122.210	800.000	0.028	-0.118
