DTS Sentinel unit serial number:	SN413079Multiplexer serial number:	ORYXHardware model number:	OX4-SRSoftware version number:	ORYX F/W v4.00 Oryx Data Collector v3.7.2.0data status	okinstallation	princeton_trtdifferential loss correction	single-endedforward channel	channel 1reverse channel	N/Adate	2019/09/12time	10:52:11forward acquisition time	60.00reverse acquisition time	0.00gamma	496.2192k internal	0.2295k external	0.2295temperature offset calibration	1.0050default loss term (dB/km)	0.3790temperature slope calibration	1.0000multiplexer offset coefficient	1.0000multiplexer slope coefficient	1.0000fibre end	0.00T internal ref (°C)	38.02T ext. ref 1 (°C)	1.94T ext. ref 2 (°C)	36.64length (m)	temperature (°C)	Stokes	anti-Stokes-747.200	-115.098	-0.105	-0.020
-746.185	80.077	0.129	0.142
-745.171	-200.000	0.020	-0.119
-744.156	-77.839	-0.240	0.085
-743.142	-200.000	0.043	0.216
-742.127	150.045	-0.259	0.359
-741.112	322.158	0.137	0.266
-740.098	312.487	-0.232	0.445
-739.083	-3.264	-0.125	-0.089
-738.069	-200.000	0.008	0.144
-737.054	-63.023	0.118	0.050
-736.039	800.000	0.107	-0.339
-735.025	-33.468	-0.243	0.137
-734.010	-92.614	-0.154	-0.044
-732.996	-66.505	-0.010	-0.004
-731.981	635.963	-0.074	0.193
-730.966	800.000	0.010	-0.028
-729.952	61.330	0.233	0.237
-728.937	-200.000	0.066	-0.347
-727.923	800.000	0.114	-0.342
-726.908	48.771	-0.183	-0.176
-725.894	-43.848	-0.141	-0.072
-724.879	93.168	-0.200	-0.231
-723.864	-2.146	-0.091	0.065
-722.850	-200.000	-0.024	0.177
-721.835	527.842	-0.044	-0.105
-720.821	48.996	-0.270	-0.259
-719.806	-200.000	0.031	0.304
-718.791	-78.876	-0.425	0.148
-717.777	800.000	-0.115	0.356
-716.762	-200.000	-0.020	-0.281
-715.748	176.178	0.047	-0.069
-714.733	98.859	-0.076	0.090
-713.718	-200.000	0.020	0.099
-712.704	229.929	0.067	0.112
-711.689	322.970	-0.084	-0.164
-710.675	18.834	-0.136	-0.112
-709.660	405.318	0.056	-0.121
-708.645	-200.000	-0.012	0.094
-707.631	29.481	0.055	-0.047
-706.616	-62.040	-0.080	-0.034
-705.602	102.648	0.068	0.081
-704.587	-200.000	-0.014	-0.129
-703.572	-173.382	-0.245	0.008
-702.558	183.221	-0.057	0.086
-701.543	258.440	0.071	-0.126
-700.529	-58.445	-0.295	-0.131
-699.514	-200.000	-0.093	0.420
-698.499	220.531	0.111	-0.182
-697.485	-125.687	0.298	-0.046
-696.470	-169.265	-0.092	-0.003
-695.456	-94.222	0.274	-0.077
-694.441	96.502	-0.220	0.257
-693.426	175.735	-0.119	-0.176
-692.412	800.000	-0.051	-0.207
-691.397	-82.310	0.208	0.069
-690.383	85.461	-0.340	-0.381
-689.368	-64.559	0.225	-0.093
-688.354	433.900	-0.140	-0.311
-687.339	205.870	-0.154	-0.245
-686.324	-200.000	0.004	0.023
-685.310	28.955	0.176	-0.152
-684.295	-12.440	-0.362	0.241
-683.281	-23.237	0.076	-0.046
-682.266	102.322	-0.226	-0.270
-681.251	357.429	-0.097	-0.197
-680.237	800.000	-0.027	0.118
-679.222	695.608	-0.138	0.368
-678.208	-77.765	0.194	-0.068
-677.193	597.724	0.080	-0.201
-676.178	-56.084	0.168	-0.076
-675.164	-58.244	-0.252	-0.112
-674.149	52.203	-0.215	-0.209
-673.135	800.000	-0.023	-0.068
-672.120	-81.225	-0.260	0.088
-671.105	66.990	-0.137	0.143
-670.091	-39.806	0.101	-0.054
-669.076	-115.416	-0.268	0.052
-668.062	525.467	0.085	0.204
-667.047	800.000	0.043	0.162
-666.032	492.251	-0.082	0.190
-665.018	75.128	-0.393	0.423
-664.003	-41.311	-0.432	0.227
-662.989	-200.000	-0.031	-0.187
-661.974	-20.545	-0.260	-0.163
-660.959	-21.041	0.211	0.132
-659.945	91.780	-0.311	-0.357
-658.930	25.810	0.157	0.133
-657.916	-47.446	0.249	-0.123
-656.901	-60.106	0.242	-0.105
-655.886	-69.739	0.163	-0.063
-654.872	-200.000	0.005	0.071
-653.857	-191.873	0.145	0.001
-652.843	-26.014	0.266	0.159
-651.828	-0.288	0.370	-0.268
-650.814	218.234	-0.163	-0.265
-649.799	-150.134	-0.398	0.031
-648.784	-146.867	0.080	-0.007
-647.770	800.000	-0.059	0.260
-646.755	243.149	-0.109	0.186
-645.741	-105.753	0.092	-0.021
-644.726	382.157	0.056	-0.117
-643.711	12.311	-0.107	0.084
-642.697	-42.258	0.207	0.108
-641.682	139.602	0.090	0.121
-640.668	-92.433	-0.118	-0.034
-639.653	-18.377	-0.476	0.303
-638.638	253.254	-0.193	0.336
-637.624	-65.453	0.037	0.015
-636.609	-83.751	0.085	0.028
-635.595	426.203	0.068	-0.150
-634.580	-22.697	0.126	-0.077
-633.565	554.700	0.078	0.191
-632.551	-200.000	0.017	-0.088
-631.536	-200.000	0.044	0.206
-630.522	-190.224	-0.160	-0.002
-629.507	91.543	0.063	0.072
-628.492	-200.000	0.017	0.181
-627.478	317.028	0.048	0.092
-626.463	-200.000	0.006	-0.207
-625.449	484.216	0.095	-0.219
-624.434	-63.835	0.201	0.084
-623.419	-104.582	-0.281	0.066
-622.405	50.878	0.159	-0.153
-621.390	65.063	-0.210	-0.216
-620.376	-38.353	-0.257	-0.139
-619.361	235.281	0.096	-0.161
-618.346	261.905	-0.118	0.209
-617.332	-147.297	-0.433	0.037
-616.317	68.290	-0.161	0.168
-615.303	133.797	-0.120	-0.158
-614.288	-200.000	0.023	-0.427
-613.273	-200.000	-0.203	0.001
-612.259	800.000	-0.077	0.332
-611.244	-200.000	-0.002	0.024
-610.230	214.983	-0.329	-0.531
-609.215	-120.215	-0.158	-0.028
-608.201	800.000	-0.023	-0.082
-607.186	800.000	-0.107	-0.398
-606.171	-93.987	0.062	-0.017
-605.157	-200.000	0.019	0.194
-604.142	800.000	0.095	0.359
-603.128	417.665	-0.036	-0.078
-602.113	-108.201	0.019	-0.004
-601.098	49.780	-0.254	-0.243
-600.084	277.245	0.054	-0.098
-599.069	244.212	-0.066	-0.113
-598.055	-2.555	-0.144	-0.103
-597.040	-93.417	-0.393	-0.111
-596.025	448.534	0.105	0.236
-595.011	34.637	-0.153	0.136
-593.996	9.784	0.167	0.129
-592.982	54.077	0.213	0.208
-591.967	576.508	0.144	-0.359
-590.952	-2.574	-0.138	0.098
-589.938	-17.530	0.301	-0.192
-588.923	-85.859	0.197	-0.062
-587.909	55.834	-0.104	0.103
-586.894	-200.000	0.003	-0.124
-585.879	-156.204	-0.335	-0.021
-584.865	-100.176	0.104	0.026
-583.850	-200.000	0.040	0.416
-582.836	-81.606	0.363	-0.121
-581.821	-57.723	-0.112	0.050
-580.806	41.367	0.266	0.245
-579.792	-200.000	-0.021	0.099
-578.777	-104.616	0.058	0.013
-577.763	-32.290	-0.171	0.097
-576.748	-137.559	-0.297	-0.034
-575.733	-200.000	-0.066	-0.377
-574.719	-136.333	0.178	0.021
-573.704	74.223	0.193	-0.206
-572.690	12.043	0.063	0.049
-571.675	-200.000	-0.009	0.076
-570.661	-111.145	0.005	-0.001
-569.646	-86.330	-0.087	0.027
-568.631	-200.000	-0.011	-0.350
-567.617	800.000	-0.086	-0.320
-566.602	-200.000	-0.145	0.000
-565.588	-200.000	0.022	0.291
-564.573	-111.889	-0.294	-0.060
-563.558	-23.424	0.242	0.148
-562.544	800.000	-0.080	0.228
-561.529	-100.519	0.201	-0.051
-560.515	-194.002	-0.147	-0.001
-559.500	800.000	0.063	-0.240
-558.485	180.464	0.132	0.196
-557.471	-136.322	-0.211	0.025
-556.456	238.899	0.049	-0.082
-555.442	800.000	0.122	-0.476
-554.427	618.641	-0.148	-0.378
-553.412	800.000	0.076	-0.217
-552.398	4.594	-0.231	-0.172
-551.383	-200.000	-0.001	-0.024
-550.369	800.000	-0.076	-0.321
-549.354	800.000	0.041	-0.154
-548.339	55.155	0.187	0.183
-547.325	-200.000	-0.003	0.264
-546.310	-96.629	0.231	0.062
-545.296	-24.771	0.132	-0.079
-544.281	-15.250	0.129	-0.084
-543.266	323.018	-0.037	-0.072
-542.252	78.849	0.142	0.154
-541.237	-100.695	0.382	0.096
-540.223	-81.504	-0.188	-0.063
-539.208	258.237	0.193	-0.337
-538.193	-200.000	-0.011	0.078
-537.179	-56.680	-0.108	-0.048
-536.164	284.625	0.172	-0.315
-535.150	-93.027	-0.119	0.034
-534.135	111.450	0.254	0.310
-533.121	162.920	0.091	0.129
-532.106	-55.368	0.179	-0.082
-531.091	-97.107	-0.448	0.119
-530.077	-200.000	-0.047	0.298
-529.062	-200.000	0.008	-0.179
-528.048	-103.043	-0.398	-0.096
-527.033	108.365	-0.099	-0.120
-526.018	80.048	0.187	-0.204
-525.004	-42.699	-0.260	-0.134
-523.989	66.265	-0.089	-0.091
-522.975	100.870	0.098	-0.115
-521.960	22.620	-0.157	-0.130
-520.945	-92.541	0.313	-0.089
-519.931	-44.910	-0.148	-0.075
-518.916	-119.826	-0.152	-0.026
-517.902	5.957	0.161	0.121
-516.887	-200.000	0.094	0.430
-515.872	800.000	-0.028	-0.083
-514.858	-69.659	-0.222	-0.086
-513.843	-200.000	0.036	-0.175
-512.829	2.033	-0.173	-0.127
-511.814	222.228	0.190	-0.309
-510.799	-33.940	0.100	-0.056
-509.785	-22.371	-0.050	-0.031
-508.770	-200.000	0.055	0.346
-507.756	-0.971	-0.071	0.051
-506.741	-55.275	-0.417	0.190
-505.726	-200.000	0.042	-0.222
-504.712	111.366	0.153	-0.187
-503.697	-73.855	-0.150	-0.055
-502.683	231.513	-0.049	-0.081
-501.668	-200.000	0.036	-0.334
-500.653	113.086	-0.205	-0.251
-499.639	78.485	0.307	0.333
-498.624	53.277	0.053	-0.051
-497.610	800.000	-0.024	0.079
-496.595	662.082	-0.079	-0.206
-495.581	-93.156	0.162	-0.046
-494.566	-200.000	-0.016	0.104
-493.551	-99.670	-0.165	-0.042
-492.537	207.401	0.117	0.185
-491.522	-104.856	0.138	-0.032
-490.508	-200.000	0.010	0.148
-489.493	241.271	-0.194	-0.329
-488.478	-101.641	-0.087	-0.021
-487.464	-141.288	0.279	-0.029
-486.449	-200.000	0.002	-0.124
-485.435	229.406	-0.095	-0.157
-484.420	-153.511	0.176	-0.012
-483.405	800.000	-0.057	0.187
-482.391	-105.053	-0.190	-0.044
-481.376	45.346	-0.169	-0.157
-480.362	-137.112	0.248	-0.029
-479.347	-159.163	0.041	0.002
-478.332	69.563	-0.200	0.208
-477.318	7.792	0.117	-0.089
-476.303	-200.000	0.007	-0.266
-475.289	800.000	0.059	-0.230
-474.274	800.000	0.015	-0.058
-473.259	-200.000	0.022	-0.169
-472.245	165.496	0.153	-0.219
-471.230	113.656	0.202	0.248
-470.216	-200.000	0.002	0.265
-469.201	98.773	-0.229	-0.267
-468.186	389.148	0.123	0.258
-467.172	635.186	0.092	0.236
-466.157	143.925	-0.140	0.189
-465.143	201.636	0.170	0.265
-464.128	63.973	0.136	0.138
-463.113	-52.717	-0.112	0.052
-462.099	-200.000	-0.015	-0.219
-461.084	-91.284	-0.090	-0.026
-460.070	-27.388	0.235	-0.138
-459.055	254.262	0.170	-0.294
-458.040	219.592	-0.044	0.071
-457.026	167.245	-0.057	-0.082
-456.011	759.884	0.051	0.139
-454.997	108.232	0.093	-0.112
-453.982	57.131	-0.045	-0.044
-452.968	-72.722	-0.116	0.043
-451.953	245.957	-0.181	0.308
-450.938	-13.662	0.117	-0.076
-449.924	-147.893	-0.229	-0.019
-448.909	462.616	-0.055	-0.124
-447.895	-25.857	-0.250	-0.149
-446.880	132.568	0.144	-0.187
-445.865	-191.267	0.042	0.000
-444.851	169.653	0.096	-0.138
-443.836	-49.187	-0.223	-0.108
-442.822	-200.000	0.010	0.056
-441.807	-73.629	0.087	0.032
-440.792	103.379	0.105	-0.125
-439.778	30.159	-0.179	0.154
-438.763	-47.946	-0.094	-0.046
-437.749	79.802	0.216	-0.234
-436.734	-23.686	0.351	0.213
-435.719	107.683	-0.131	-0.158
-434.705	-8.107	-0.122	-0.083
-433.690	-80.191	0.243	-0.082
-432.676	50.783	-0.349	-0.334
-431.661	-40.108	0.194	-0.102
-430.646	-200.000	-0.016	0.191
-429.632	-18.025	0.307	-0.194
-428.617	-200.000	-0.030	-0.240
-427.603	53.566	-0.287	0.278
-426.588	-25.002	0.351	0.210
-425.573	800.000	-0.046	-0.137
-424.559	-87.152	0.207	0.064
-423.544	-13.445	0.284	0.186
-422.530	-200.000	0.037	0.233
-421.515	4.019	0.154	-0.113
-420.500	-50.152	0.123	-0.059
-419.486	-2.149	-0.264	-0.187
-418.471	160.715	-0.141	0.198
-417.457	-200.000	0.018	-0.241
-416.442	80.735	-0.139	-0.151
-415.428	207.866	-0.118	-0.186
-414.413	-63.126	-0.183	0.076
-413.398	53.885	-0.104	-0.101
-412.384	-200.000	-0.011	-0.049
-411.369	-71.390	0.396	-0.150
-410.355	800.000	0.017	0.047
-409.340	-27.108	-0.112	-0.066
-408.325	800.000	-0.094	-0.348
-407.311	70.867	-0.230	0.241
-406.296	-150.377	0.249	-0.019
-405.282	37.142	-0.245	0.219
-404.267	-156.945	-0.115	0.007
-403.252	-200.000	0.007	-0.093
-402.238	-126.923	-0.413	-0.061
-401.223	2.186	-0.178	-0.130
-400.209	-76.340	-0.157	-0.056
-399.194	37.227	0.229	-0.205
-398.179	-116.432	-0.174	0.032
-397.165	4.966	-0.245	0.182
-396.150	-200.000	0.042	0.219
-395.136	20.728	-0.037	-0.031
-394.121	800.000	0.035	0.108
-393.106	-77.440	0.090	0.031
-392.092	91.928	0.106	0.121
-391.077	-200.000	0.053	-0.243
-390.063	-97.580	0.109	-0.028
-389.048	-83.205	0.386	-0.125
-388.033	33.130	-0.186	-0.162
-387.019	-200.000	0.029	-0.267
-386.004	-53.969	0.256	0.117
-384.990	64.697	-0.217	0.221
-383.975	800.000	0.058	0.227
-382.960	-139.852	-0.203	-0.022
-381.946	233.166	-0.114	-0.189
-380.931	-98.817	0.225	-0.058
-379.917	280.465	-0.116	0.210
-378.902	387.056	0.083	-0.172
-377.888	30.600	-0.222	0.191
-376.873	412.693	0.085	-0.182
-375.858	169.339	-0.191	-0.275
-374.844	-200.000	-0.029	-0.222
-373.829	337.671	0.254	0.498
-372.815	87.673	0.127	0.142
-371.800	-170.503	0.392	0.014
-370.785	-200.000	0.035	-0.232
-369.771	-85.397	0.378	-0.119
-368.756	86.015	-0.069	-0.077
-367.742	16.820	0.417	0.332
-366.727	94.046	-0.219	0.251
-365.712	180.689	0.175	-0.259
-364.698	-67.313	-0.322	-0.127
-363.683	-200.000	-0.010	0.051
-362.669	64.679	0.228	0.232
-361.654	140.000	-0.162	-0.215
-360.639	-11.652	0.340	-0.225
-359.625	37.193	0.169	-0.150
-358.610	384.911	-0.030	0.062
-357.596	-200.000	-0.023	0.368
-356.581	-200.000	-0.020	0.223
-355.566	-200.000	0.029	-0.434
-354.552	23.944	0.150	-0.125
-353.537	-200.000	0.009	0.057
-352.523	-200.000	0.054	0.522
-351.508	-92.627	-0.160	-0.045
-350.493	18.730	0.063	0.051
-349.479	-80.334	0.080	0.027
-348.464	-36.535	0.115	0.062
-347.450	165.784	-0.068	0.096
-346.435	-60.453	-0.100	0.043
-345.420	-29.486	0.231	-0.133
-344.406	800.000	-0.022	-0.083
-343.391	-126.337	-0.166	0.025
-342.377	-36.566	-0.128	0.070
-341.362	-200.000	0.023	-0.222
-340.348	-200.000	-0.000	0.073
-339.333	-200.000	-0.036	0.180
-338.318	98.050	-0.127	0.147
-337.304	55.564	0.086	-0.084
-336.289	-46.303	-0.293	-0.145
-335.275	-47.214	-0.154	-0.076
-334.260	-74.386	-0.316	-0.115
-333.245	-141.994	0.405	-0.041
-332.231	-9.902	0.185	0.124
-331.216	-200.000	-0.022	-0.148
-330.202	736.036	-0.062	0.166
-329.187	-70.766	-0.117	-0.044
-328.172	64.389	-0.087	-0.088
-327.158	24.511	-0.120	-0.100
-326.143	-200.000	-0.029	-0.200
-325.129	-40.554	-0.135	-0.070
-324.114	489.616	0.113	-0.259
-323.099	-200.000	-0.027	0.152
-322.085	800.000	0.041	0.180
-321.070	105.403	-0.130	0.155
-320.056	292.279	0.022	-0.041
-319.041	-14.778	0.181	-0.117
-318.026	-34.538	0.127	-0.070
-317.012	112.091	0.055	0.067
-315.997	-63.852	0.355	0.146
-314.983	-99.407	-0.148	0.037
-313.968	0.238	-0.196	0.141
-312.953	-104.385	0.449	0.105
-311.939	778.883	0.132	0.363
-310.924	-71.168	-0.359	0.136
-309.910	-200.000	0.065	0.432
-308.895	-14.102	0.219	-0.142
-307.880	-149.861	-0.264	-0.021
-306.866	800.000	0.114	0.409
-305.851	427.457	-0.063	0.136
-304.837	66.193	0.056	0.057
-303.822	-14.182	-0.275	0.178
-302.807	-39.748	0.087	-0.045
-301.793	-30.806	0.134	0.076
-300.778	123.861	-0.073	0.092
-299.764	-44.687	0.195	0.098
-298.749	-110.298	-0.375	0.078
-297.735	71.589	0.332	0.347
-296.720	-89.454	0.349	0.103
-295.705	-80.960	0.044	-0.015
-294.691	-190.100	-0.248	0.003
-293.676	-40.082	-0.148	-0.077
-292.662	-200.000	-0.034	0.208
-291.647	-45.948	0.302	-0.149
-290.632	101.862	-0.252	-0.295
-289.618	-200.000	0.044	0.217
-288.603	-91.247	0.205	-0.059
-287.589	-200.000	0.016	-0.263
-286.574	-91.534	0.210	-0.060
-285.559	46.162	-0.122	-0.113
-284.545	800.000	0.058	0.165
-283.530	134.923	-0.162	0.211
-282.516	141.245	-0.123	0.163
-281.501	234.106	0.129	0.213
-280.486	63.149	-0.047	0.047
-279.472	208.012	0.097	0.152
-278.457	-200.000	-0.032	0.149
-277.443	-79.259	-0.364	-0.124
-276.428	-24.484	-0.155	-0.092
-275.413	561.909	0.148	0.359
-274.399	-85.844	0.153	-0.048
-273.384	-200.000	0.107	0.476
-272.370	-200.000	-0.006	-0.297
-271.355	800.000	-0.016	-0.063
-270.340	368.232	0.157	-0.319
-269.326	-69.140	0.268	-0.104
-268.311	-200.000	-0.019	0.125
-267.297	243.302	0.177	0.297
-266.282	13.843	-0.141	0.110
-265.267	800.000	-0.059	-0.258
-264.253	-140.664	0.246	-0.026
-263.238	-171.583	0.183	0.006
-262.224	-85.495	-0.117	0.037
-261.209	127.157	0.161	-0.204
-260.195	28.108	0.239	0.203
-259.180	-14.195	0.342	0.221
-258.165	-200.000	-0.071	0.325
-257.151	-71.360	0.108	-0.041
-256.136	800.000	-0.037	0.147
-255.122	800.000	-0.027	0.118
-254.107	124.598	-0.079	0.099
-253.092	-133.265	0.428	0.054
-252.078	-11.921	0.147	-0.097
-251.063	222.352	0.109	-0.176
-250.049	510.731	0.113	-0.264
-249.034	34.413	0.297	-0.260
-248.019	291.922	0.190	0.346
-247.005	438.224	0.125	0.272
-245.990	-81.790	-0.358	0.118
-244.976	-162.513	-0.123	0.006
-243.961	-45.914	-0.328	0.162
-242.946	80.044	0.203	-0.219
-241.932	508.311	0.102	0.238
-240.917	-40.115	0.179	-0.093
-239.903	-104.234	-0.226	0.053
-238.888	672.398	-0.060	0.157
-237.873	-200.000	0.022	0.270
-236.859	70.313	0.173	0.179
-235.844	238.107	-0.036	0.060
-234.830	-86.824	0.175	0.053
-233.815	800.000	-0.020	-0.078
-232.800	-165.363	-0.263	0.012
-231.786	-200.000	0.005	0.388
-230.771	529.540	0.062	-0.147
-229.757	319.943	-0.123	-0.234
-228.742	-152.716	-0.104	0.007
-227.727	-114.035	-0.556	0.108
-226.713	800.000	-0.111	0.403
-225.698	800.000	0.066	0.252
-224.684	-102.787	-0.288	0.069
-223.669	-77.293	0.174	0.061
-222.655	-45.816	0.152	0.075
-221.640	-200.000	-0.015	-0.288
-220.625	666.728	-0.050	-0.129
-219.611	33.356	-0.176	-0.153
-218.596	265.530	-0.082	-0.144
-217.582	-57.284	0.162	-0.071
-216.567	800.000	-0.081	-0.335
-215.552	-29.685	-0.270	-0.154
-214.538	264.077	0.173	-0.302
-213.523	-92.448	0.171	0.048
-212.509	153.536	0.203	0.278
-211.494	393.518	0.058	-0.122
-210.479	800.000	0.060	0.167
-209.465	-200.000	0.022	0.238
-208.450	800.000	0.071	0.271
-207.436	-85.316	0.434	-0.136
-206.421	-90.461	-0.279	-0.081
-205.406	-200.000	-0.036	0.159
-204.392	-47.366	0.119	0.058
-203.377	-54.844	0.092	-0.041
-202.363	-105.400	-0.395	0.090
-201.348	543.917	0.156	0.372
-200.333	-29.032	0.269	-0.155
-199.319	-51.576	-0.046	-0.021
-198.304	-88.227	-0.183	0.055
-197.290	-32.957	-0.029	0.016
-196.275	800.000	0.057	-0.192
-195.260	74.784	0.197	0.208
-194.246	294.849	-0.049	0.089
-193.231	-111.560	-0.042	-0.009
-192.217	206.213	-0.124	0.192
-191.202	4.454	-0.121	-0.089
-190.187	-200.000	0.009	-0.298
-189.173	224.560	0.073	0.118
-188.158	-200.000	-0.053	0.489
-187.144	800.000	0.017	0.056
-186.129	800.000	-0.092	-0.339
-185.114	-49.862	0.164	-0.078
-184.100	-200.000	-0.031	-0.265
-183.085	158.639	0.165	-0.229
-182.071	92.667	-0.180	0.203
-181.056	181.809	0.051	0.075
-180.042	-53.657	-0.133	-0.061
-179.027	-200.000	-0.013	0.082
-178.012	-158.554	-0.149	0.009
-176.998	-50.793	-0.159	0.075
-175.983	-21.374	-0.247	0.151
-174.969	617.544	0.052	0.131
-173.954	194.540	0.097	0.147
-172.939	-116.894	-0.272	-0.050
-171.925	-84.160	-0.558	-0.177
-170.910	-12.043	0.164	-0.108
-169.896	-42.183	-0.351	-0.179
-168.881	-130.727	0.195	-0.026
-167.866	284.461	0.090	-0.162
-166.852	-110.436	0.375	-0.078
-165.837	626.219	-0.101	0.254
-164.823	-65.636	0.133	-0.053
-163.808	-127.741	0.145	0.021
-162.793	-145.316	-0.177	-0.016
-161.779	150.453	-0.237	0.322
-160.764	-101.102	-0.421	-0.103
-159.750	-47.352	-0.072	-0.035
-158.735	-200.000	0.052	0.407
-157.720	129.835	0.097	0.124
-156.706	195.844	0.050	-0.076
-155.691	-64.988	0.134	-0.054
-154.677	111.069	0.141	-0.170
-153.662	250.685	0.157	-0.266
-152.647	255.728	-0.086	0.147
-151.633	342.944	-0.097	-0.189
-150.618	-24.072	0.085	-0.051
-149.604	24.196	-0.073	0.060
-148.589	-76.867	0.220	-0.077
-147.574	-53.670	0.271	-0.123
-146.560	-10.523	0.135	-0.090
-145.545	800.000	0.112	-0.358
-144.531	-81.713	-0.154	-0.050
-143.516	-200.000	0.009	0.085
-142.502	734.726	-0.049	0.130
-141.487	800.000	-0.099	-0.335
-140.472	-110.685	0.361	0.074
-139.458	-200.000	-0.079	-0.358
-138.443	-114.719	-0.118	0.023
-137.429	-146.537	-0.091	0.008
-136.414	-73.330	-0.131	-0.048
-135.399	-85.547	0.286	0.089
-134.385	-99.299	-0.377	-0.095
-133.370	-36.825	0.129	0.069
-132.356	-110.449	0.301	0.062
-131.341	800.000	-0.025	0.085
-130.326	416.353	-0.232	0.494
-129.312	78.747	-0.226	0.241
-128.297	-86.817	-0.092	-0.028
-127.283	-185.192	0.143	0.002
-126.268	-68.510	0.186	-0.072
-125.253	127.809	-0.134	0.170
-124.239	-200.000	0.023	0.138
-123.224	-200.000	0.003	-0.201
-122.210	-200.000	-0.002	0.070
-121.195	-118.392	-0.177	0.031
