DTS Sentinel unit serial number:	SN413079Multiplexer serial number:	ORYXHardware model number:	OX4-SRSoftware version number:	ORYX F/W v4.00 Oryx Data Collector v3.7.2.0data status	okinstallation	princeton_trtdifferential loss correction	single-endedforward channel	channel 1reverse channel	N/Adate	2019/09/14time	00:54:35forward acquisition time	60.00reverse acquisition time	0.00gamma	496.2192k internal	0.2337k external	0.2337temperature offset calibration	1.0077default loss term (dB/km)	0.3790temperature slope calibration	1.0000multiplexer offset coefficient	1.0000multiplexer slope coefficient	1.0000fibre end	0.00T internal ref (°C)	26.39T ext. ref 1 (°C)	3.17T ext. ref 2 (°C)	21.23length (m)	temperature (°C)	Stokes	anti-Stokes-747.200	180.061	-0.115	0.170
-746.185	432.567	0.097	0.211
-745.171	-144.052	0.294	0.028
-744.156	96.587	0.070	-0.080
-743.142	429.475	0.119	0.259
-742.127	-81.763	0.224	-0.074
-741.112	64.304	0.188	-0.190
-740.098	58.150	-0.169	0.166
-739.083	741.253	0.093	0.250
-738.069	248.773	-0.047	-0.080
-737.054	800.000	-0.070	-0.206
-736.039	-94.089	-0.373	-0.103
-735.025	67.961	0.273	0.280
-734.010	-82.984	0.199	-0.064
-732.996	37.485	-0.064	0.057
-731.981	716.782	-0.053	-0.141
-730.966	5.140	-0.306	-0.226
-729.952	-200.000	-0.037	-0.535
-728.937	-200.000	-0.007	-0.178
-727.923	-46.095	0.137	-0.068
-726.908	-174.925	-0.404	-0.011
-725.894	339.195	-0.127	-0.248
-724.879	-42.600	-0.118	0.060
-723.864	42.861	-0.275	-0.252
-722.850	9.901	-0.157	-0.119
-721.835	79.144	0.102	0.110
-720.821	-26.660	-0.148	-0.087
-719.806	-200.000	0.016	0.107
-718.791	-200.000	-0.034	-0.220
-717.777	-82.629	0.235	0.076
-716.762	284.135	-0.075	-0.136
-715.748	182.728	0.027	-0.040
-714.733	175.388	0.068	0.098
-713.718	80.841	-0.185	0.200
-712.704	31.404	0.234	0.201
-711.689	225.029	0.094	0.152
-710.675	-169.184	0.030	-0.001
-709.660	-87.813	0.152	-0.046
-708.645	-171.539	-0.131	-0.004
-707.631	84.096	0.129	0.141
-706.616	5.145	0.378	0.279
-705.602	-99.830	-0.381	-0.096
-704.587	-44.384	0.129	0.065
-703.572	-145.276	-0.290	0.026
-702.558	-131.347	0.221	-0.029
-701.543	-200.000	0.040	-0.240
-700.529	-83.488	-0.225	-0.072
-699.514	800.000	-0.099	0.309
-698.499	-159.652	0.173	0.010
-697.485	39.370	-0.056	0.050
-696.470	190.254	0.162	-0.244
-695.456	-69.780	-0.270	0.103
-694.441	-200.000	-0.012	-0.144
-693.426	38.942	-0.182	-0.163
-692.412	-146.315	-0.070	-0.006
-691.397	-29.798	0.258	-0.147
-690.383	-167.825	0.205	-0.008
-689.368	159.127	-0.270	-0.376
-688.354	162.552	0.078	-0.110
-687.339	-200.000	-0.028	-0.358
-686.324	-134.005	-0.142	0.018
-685.310	-37.886	-0.614	0.327
-684.295	-200.000	0.006	0.181
-683.281	800.000	0.025	-0.090
-682.266	-118.498	-0.199	-0.035
-681.251	-176.509	-0.188	0.005
-680.237	510.031	-0.093	0.216
-679.222	-62.327	-0.327	0.136
-678.208	-200.000	-0.017	0.198
-677.193	-39.954	-0.322	-0.168
-676.178	-200.000	-0.009	0.066
-675.164	-107.489	0.403	-0.088
-674.149	17.702	0.066	0.053
-673.135	268.886	0.041	-0.072
-672.120	-200.000	0.011	-0.210
-671.105	85.114	-0.064	0.070
-670.091	87.451	-0.110	0.122
-669.076	-14.754	0.381	0.245
-668.062	94.593	-0.085	0.097
-667.047	-200.000	0.051	0.268
-666.032	-10.316	0.157	0.104
-665.018	288.388	0.099	-0.180
-664.003	-111.537	0.241	0.049
-662.989	-200.000	0.006	-0.317
-661.974	-35.402	0.090	-0.049
-660.959	-200.000	-0.035	-0.255
-659.945	-200.000	-0.081	0.368
-658.930	275.986	-0.065	-0.115
-657.916	-27.910	-0.346	-0.201
-656.901	-200.000	-0.013	-0.087
-655.886	-200.000	-0.038	0.295
-654.872	106.583	-0.186	-0.221
-653.857	-60.767	0.364	0.154
-652.843	-15.833	-0.146	-0.093
-651.828	-200.000	-0.040	0.277
-650.814	31.446	-0.292	-0.251
-649.799	800.000	0.099	0.376
-648.784	800.000	-0.121	0.446
-647.770	-200.000	-0.009	0.299
-646.755	-100.704	-0.225	0.055
-645.741	-102.190	-0.122	-0.029
-644.726	-46.257	-0.099	-0.049
-643.711	214.710	0.092	-0.145
-642.697	-79.849	-0.123	-0.041
-641.682	686.606	-0.038	-0.100
-640.668	345.799	-0.118	-0.232
-639.653	800.000	0.084	0.255
-638.638	-35.709	0.116	-0.063
-637.624	205.244	-0.105	0.163
-636.609	800.000	-0.091	0.275
-635.595	-181.734	-0.328	-0.006
-634.580	-58.194	-0.409	0.178
-633.565	-200.000	0.020	0.124
-632.551	800.000	-0.039	0.111
-631.536	-1.613	0.078	0.055
-630.522	-110.312	-0.225	-0.047
-629.507	-0.325	-0.091	-0.065
-628.492	358.551	0.018	-0.036
-627.478	-40.022	-0.286	0.149
-626.463	-200.000	-0.009	-0.063
-625.449	-8.944	0.188	0.126
-624.434	-4.563	0.038	-0.026
-623.419	-170.209	0.254	-0.009
-622.405	405.275	-0.107	0.225
-621.390	183.452	-0.048	-0.071
-620.376	13.043	-0.113	0.087
-619.361	157.373	-0.107	-0.148
-618.346	191.954	-0.213	-0.320
-617.332	24.210	0.103	-0.085
-616.317	731.179	-0.044	-0.118
-615.303	800.000	0.069	-0.287
-614.288	-80.654	-0.178	-0.059
-613.273	363.105	-0.107	-0.214
-612.259	-187.161	-0.058	-0.001
-611.244	800.000	0.030	-0.109
-610.230	153.218	-0.084	0.114
-609.215	-137.586	0.118	0.013
-608.201	-60.769	-0.172	-0.073
-607.186	800.000	-0.124	-0.359
-606.171	49.716	-0.015	0.014
-605.157	-200.000	-0.010	-0.207
-604.142	-85.634	0.129	-0.040
-603.128	-200.000	-0.084	0.390
-602.113	-200.000	0.016	0.207
-601.098	-200.000	-0.013	-0.402
-600.084	800.000	0.052	-0.176
-599.069	250.419	-0.055	0.093
-598.055	-200.000	0.012	-0.173
-597.040	-66.052	-0.171	-0.068
-596.025	-95.244	0.233	-0.063
-595.011	800.000	-0.092	-0.253
-593.996	80.161	0.290	0.311
-592.982	-200.000	0.011	-0.105
-591.967	-57.011	0.005	0.002
-590.952	23.718	0.200	0.164
-589.938	-200.000	-0.017	0.134
-588.923	-200.000	-0.010	-0.174
-587.909	-200.000	-0.001	0.034
-586.894	800.000	0.029	-0.096
-585.879	-41.713	0.134	0.069
-584.865	-200.000	0.009	0.120
-583.850	-149.890	-0.140	-0.011
-582.836	-43.600	-0.354	0.178
-581.821	-153.995	-0.159	0.011
-580.806	19.917	-0.210	-0.169
-579.792	559.057	-0.132	0.317
-578.777	268.392	0.095	0.166
-577.763	800.000	-0.048	-0.133
-576.748	-200.000	0.005	0.395
-575.733	-39.240	0.220	-0.115
-574.719	97.901	-0.269	-0.309
-573.704	237.336	0.053	0.088
-572.690	133.234	0.066	-0.085
-571.675	-176.742	0.150	0.004
-570.661	-160.631	-0.018	-0.001
-569.646	-200.000	-0.015	0.207
-568.631	697.485	-0.034	-0.089
-567.617	-193.735	-0.304	-0.003
-566.602	117.826	-0.127	-0.156
-565.588	-200.000	-0.006	0.422
-564.573	192.871	0.118	0.177
-563.558	-172.017	-0.167	-0.005
-562.544	-30.542	0.083	0.047
-561.529	-81.593	0.213	0.070
-560.515	-200.000	-0.010	-0.188
-559.500	272.168	0.041	-0.072
-558.485	202.271	-0.079	0.122
-557.471	-200.000	0.008	-0.092
-556.456	468.135	-0.147	-0.329
-555.442	800.000	0.020	0.064
-554.427	-160.803	0.235	-0.012
-553.412	-200.000	0.043	-0.212
-552.398	605.399	-0.086	-0.213
-551.383	800.000	0.063	0.264
-550.369	800.000	-0.040	0.157
-549.354	-200.000	-0.028	-0.265
-548.339	80.506	-0.058	0.062
-547.325	-156.556	-0.284	-0.018
-546.310	55.862	-0.051	-0.049
-545.296	412.720	-0.093	-0.197
-544.281	325.962	0.172	0.327
-543.266	167.433	0.211	0.299
-542.252	-124.522	0.248	0.038
-541.237	-130.406	0.054	-0.007
-540.223	-150.723	0.422	-0.032
-539.208	800.000	0.025	0.093
-538.193	-14.060	0.153	0.098
-537.179	256.322	-0.081	-0.138
-536.164	-48.074	-0.141	0.068
-535.150	-191.909	0.225	0.002
-534.135	110.653	-0.134	-0.160
-533.121	800.000	-0.027	0.118
-532.106	-200.000	-0.013	-0.217
-531.091	212.219	0.195	0.306
-530.077	-200.000	-0.046	-0.366
-529.062	-69.378	0.174	-0.066
-528.048	-83.072	-0.265	-0.085
-527.033	6.609	0.235	-0.174
-526.018	-200.000	0.007	-0.033
-525.004	433.796	-0.051	-0.110
-523.989	0.054	0.172	-0.122
-522.975	-164.502	-0.244	-0.011
-521.960	-200.000	-0.006	-0.124
-520.945	649.269	0.073	0.187
-519.931	443.220	-0.150	-0.327
-518.916	207.059	0.060	-0.093
-517.902	166.348	-0.130	-0.183
-516.887	-160.819	-0.265	0.014
-515.872	-200.000	0.041	-0.312
-514.858	-33.198	0.174	0.096
-513.843	-200.000	0.011	0.311
-512.829	-70.050	0.077	-0.029
-511.814	29.480	-0.125	-0.106
-510.799	-162.903	-0.057	0.003
-509.785	-21.634	0.203	0.123
-508.770	-38.195	-0.278	-0.146
-507.756	-200.000	0.003	0.024
-506.741	800.000	-0.048	-0.133
-505.726	-21.157	0.139	-0.085
-504.712	470.813	0.044	-0.099
-503.697	-11.148	-0.316	0.207
-502.683	-70.948	-0.271	0.101
-501.668	800.000	0.182	0.502
-500.653	205.845	0.091	0.140
-499.639	149.108	-0.089	-0.120
-498.624	-17.004	0.387	0.243
-497.610	51.478	-0.111	0.105
-496.595	800.000	-0.061	-0.182
-495.581	-200.000	-0.005	0.031
-494.566	800.000	0.049	-0.152
-493.551	-29.176	-0.195	-0.111
-492.537	800.000	-0.014	-0.061
-491.522	164.429	0.160	0.224
-490.508	800.000	0.037	0.122
-489.493	800.000	-0.103	-0.342
-488.478	-196.493	-0.095	-0.001
-487.464	-90.362	0.130	-0.037
-486.449	-200.000	-0.059	-0.257
-485.435	282.752	0.093	0.167
-484.420	76.267	0.177	0.187
-483.405	-37.393	0.129	0.069
-482.391	-200.000	0.008	0.196
-481.376	45.332	0.054	0.050
-480.362	-110.434	0.148	0.031
-479.347	52.019	-0.043	0.040
-478.332	59.801	-0.099	0.097
-477.318	-32.500	-0.190	0.105
-476.303	-200.000	0.049	0.268
-475.289	800.000	-0.101	-0.302
-474.274	126.973	0.232	-0.292
-473.259	-200.000	0.048	0.236
-472.245	-119.526	0.153	0.026
-471.230	166.137	0.120	0.169
-470.216	13.039	0.254	-0.195
-469.201	-64.797	0.134	-0.054
-468.186	-7.082	-0.333	0.224
-467.172	-97.283	-0.294	-0.076
-466.157	690.133	-0.184	0.478
-465.143	-72.993	-0.116	-0.042
-464.128	-94.041	0.552	-0.150
-463.113	306.195	-0.080	0.148
-462.099	94.829	0.085	0.096
-461.084	-133.816	-0.170	0.021
-460.070	81.155	-0.094	-0.101
-459.055	0.685	0.068	0.048
-458.040	547.875	0.118	0.279
-457.026	-200.000	-0.011	-0.201
-456.011	49.122	0.038	-0.035
-454.997	-200.000	0.005	-0.425
-453.982	-78.327	0.072	-0.025
-452.968	-200.000	-0.058	-0.295
-451.953	193.029	-0.071	-0.106
-450.938	-200.000	-0.045	-0.252
-449.924	423.608	-0.141	-0.301
-448.909	260.034	0.171	0.293
-447.895	-50.617	-0.105	-0.049
-446.880	4.011	-0.084	-0.061
-445.865	-7.015	0.135	-0.091
-444.851	-35.503	-0.326	0.176
-443.836	-125.326	0.187	-0.028
-442.822	-45.463	0.285	-0.140
-441.807	-195.814	-0.517	0.004
-440.792	-70.212	-0.054	0.020
-439.778	295.912	-0.019	0.035
-438.763	29.364	-0.245	-0.207
-437.749	-87.250	-0.155	0.047
-436.734	800.000	0.063	-0.257
-435.719	-129.827	0.127	0.017
-434.705	-200.000	-0.017	0.116
-433.690	36.739	-0.233	-0.204
-432.676	133.233	0.125	-0.161
-431.661	-172.924	-0.330	-0.010
-430.646	183.478	-0.090	0.133
-429.632	-52.224	0.114	-0.052
-428.617	-69.611	0.150	0.057
-427.603	-1.326	-0.127	-0.089
-426.588	-147.852	-0.335	-0.028
-425.573	-200.000	0.009	0.073
-424.559	-200.000	0.022	-0.125
-423.544	8.032	0.147	-0.110
-422.530	-31.517	-0.148	0.083
-421.515	-152.966	-0.069	0.005
-420.500	-141.078	0.326	0.033
-419.486	-200.000	-0.093	-0.520
-418.471	800.000	-0.041	-0.177
-417.457	54.686	0.175	-0.167
-416.442	67.503	-0.270	-0.273
-415.428	-200.000	-0.039	0.208
-414.413	748.818	-0.097	-0.258
-413.398	18.237	-0.345	-0.273
-412.384	-200.000	-0.025	0.214
-411.369	13.935	-0.295	-0.228
-410.355	22.151	0.049	-0.039
-409.340	193.775	-0.091	-0.137
-408.325	586.011	0.024	0.059
-407.311	800.000	-0.043	-0.152
-406.296	167.878	-0.079	-0.112
-405.282	75.522	0.111	0.116
-404.267	166.025	-0.164	-0.230
-403.252	-161.772	0.099	0.005
-402.238	155.801	0.201	0.275
-401.223	-89.701	-0.364	-0.106
-400.209	673.968	-0.123	-0.317
-399.194	47.350	0.065	-0.060
-398.179	-71.422	-0.112	0.042
-397.165	56.347	-0.175	-0.168
-396.150	-61.319	0.194	-0.081
-395.136	75.246	-0.088	0.092
-394.121	304.553	-0.163	0.299
-393.106	800.000	0.013	-0.045
-392.092	36.417	0.107	0.094
-391.077	-200.000	-0.001	-0.086
-390.063	144.988	-0.073	-0.097
-389.048	143.852	0.095	0.126
-388.033	120.881	0.209	0.258
-387.019	-39.717	0.440	-0.228
-386.004	-80.976	0.405	0.133
-384.990	-66.477	-0.140	-0.055
-383.975	800.000	0.051	-0.205
-382.960	39.526	0.239	0.212
-381.946	-50.969	-0.110	-0.051
-380.931	800.000	0.144	0.464
-379.917	61.070	0.282	0.277
-378.902	488.760	-0.029	0.066
-377.888	-182.012	-0.131	0.002
-376.873	71.463	-0.251	0.258
-375.858	7.433	-0.205	0.152
-374.844	-22.339	0.204	-0.122
-373.829	396.548	-0.163	0.336
-372.815	-38.885	-0.199	-0.104
-371.800	-124.446	0.237	-0.036
-370.785	706.001	-0.023	0.060
-369.771	-29.384	0.082	-0.046
-368.756	800.000	-0.080	0.225
-367.742	-27.577	0.371	-0.213
-366.727	-189.291	-0.238	0.003
-365.712	262.427	-0.078	-0.133
-364.698	-200.000	-0.001	0.240
-363.683	-200.000	0.025	0.123
-362.669	-172.332	0.312	-0.010
-361.654	-24.841	-0.232	-0.136
-360.639	-158.056	0.463	-0.027
-359.625	548.243	-0.080	-0.190
-358.610	-48.829	-0.193	-0.092
-357.596	-90.639	-0.284	0.081
-356.581	-200.000	-0.034	-0.325
-355.566	371.840	-0.138	0.276
-354.552	-156.532	0.141	-0.009
-353.537	-84.674	-0.099	-0.031
-352.523	-78.497	0.189	-0.064
-351.508	-91.792	0.196	0.055
-350.493	100.975	-0.217	-0.250
-349.479	1.036	0.259	0.184
-348.464	-200.000	0.008	0.104
-347.450	376.103	-0.129	-0.260
-346.435	-200.000	0.003	0.058
-345.420	-200.000	0.000	0.149
-344.406	413.377	0.102	0.215
-343.391	251.271	-0.158	-0.265
-342.377	-112.120	-0.137	0.027
-341.362	-188.909	0.253	-0.003
-340.348	-94.878	-0.255	0.068
-339.333	-200.000	0.013	-0.277
-338.318	800.000	0.038	0.154
-337.304	-98.895	0.219	-0.055
-336.289	135.198	0.138	0.178
-335.275	-200.000	0.017	-0.204
-334.260	-132.144	-0.350	-0.045
-333.245	66.016	0.251	-0.252
-332.231	-47.528	-0.273	-0.131
-331.216	-200.000	0.011	0.297
-330.202	-60.226	0.159	-0.067
-329.187	-58.127	-0.372	0.160
-328.172	-151.052	0.257	0.019
-327.158	83.004	-0.043	0.046
-326.143	248.044	-0.168	-0.280
-325.129	37.417	-0.129	0.113
-324.114	-44.218	0.170	0.084
-323.099	67.930	-0.201	-0.203
-322.085	-102.984	0.111	-0.026
-321.070	-200.000	0.003	-0.058
-320.056	-200.000	-0.010	-0.337
-319.041	-49.769	0.135	-0.063
-318.026	-170.753	0.259	-0.009
-317.012	-76.412	-0.104	-0.036
-315.997	-154.065	-0.210	0.014
-314.983	2.178	0.162	0.116
-313.968	336.740	0.114	-0.218
-312.953	-17.726	-0.261	0.162
-311.939	-60.996	0.250	-0.104
-310.924	-95.556	-0.172	0.046
-309.910	36.909	0.098	-0.086
-308.895	-167.042	0.146	0.006
-307.880	800.000	-0.070	0.233
-306.866	-200.000	-0.001	-0.115
-305.851	-200.000	-0.042	-0.268
-304.837	-200.000	0.004	-0.195
-303.822	-200.000	-0.013	0.172
-302.807	-7.159	-0.109	0.073
-301.793	180.985	-0.137	-0.199
-300.778	-200.000	0.026	-0.402
-299.764	-115.141	0.322	-0.060
-298.749	-147.202	-0.300	0.025
-297.735	-153.991	0.519	0.035
-296.720	117.328	0.056	0.068
-295.705	-83.669	-0.404	-0.127
-294.691	800.000	0.009	-0.032
-293.676	-112.675	0.179	-0.035
-292.662	800.000	0.019	0.081
-291.647	60.269	0.041	0.040
-290.632	800.000	0.017	0.063
-289.618	-134.855	0.352	-0.042
-288.603	800.000	0.050	0.208
-287.589	-91.198	0.206	-0.058
-286.574	-148.971	0.442	0.035
-285.559	-200.000	-0.012	0.329
-284.545	668.308	0.073	-0.186
-283.530	-200.000	-0.058	0.416
-282.516	-200.000	-0.016	0.186
-281.501	-21.860	0.170	-0.102
-280.486	663.676	0.070	0.177
-279.472	163.205	0.229	-0.317
-278.457	310.689	-0.058	0.108
-277.443	-97.235	0.311	0.080
-276.428	-29.547	0.320	-0.180
-275.413	-108.383	0.121	0.026
-274.399	382.622	-0.100	0.202
-273.384	177.817	-0.121	-0.174
-272.370	180.282	-0.094	-0.136
-271.355	-90.502	-0.182	0.052
-270.340	-28.492	-0.251	0.143
-269.326	18.226	0.026	0.021
-268.311	107.889	0.061	0.072
-267.297	116.100	0.133	0.161
-266.282	254.115	-0.045	-0.076
-265.267	-136.625	0.096	-0.011
-264.253	-175.380	-0.350	0.009
-263.238	180.985	0.117	0.169
-262.224	800.000	0.052	-0.142
-261.209	69.741	0.087	-0.088
-260.195	800.000	-0.103	0.294
-259.180	416.063	0.163	-0.343
-258.165	800.000	-0.082	-0.245
-257.151	-200.000	-0.017	0.085
-256.136	-200.000	-0.040	0.427
-255.122	25.278	-0.225	0.184
-254.107	170.069	-0.194	0.273
-253.092	800.000	0.044	0.160
-252.078	800.000	0.016	0.058
-251.063	411.607	-0.132	-0.276
-250.049	108.822	0.132	-0.156
-249.034	118.937	-0.175	0.213
-248.019	120.471	0.261	0.319
-247.005	-200.000	-0.091	-0.470
-245.990	310.508	-0.138	0.254
-244.976	145.313	-0.064	0.084
-243.961	-90.969	0.404	-0.114
-242.946	-200.000	-0.056	-0.248
-241.932	800.000	-0.040	0.125
-240.917	403.709	-0.047	0.097
-239.903	-52.498	0.170	-0.077
-238.888	-200.000	0.003	0.223
-237.873	333.719	0.007	0.013
-236.859	-126.687	-0.119	-0.017
-235.844	-55.293	-0.115	0.051
-234.830	-117.648	-0.024	-0.004
-233.815	37.978	-0.098	0.086
-232.800	-129.611	0.547	0.074
-231.786	-178.306	0.113	0.003
-230.771	800.000	0.103	-0.314
-229.757	-15.352	0.218	0.137
-228.742	-200.000	0.006	-0.069
-227.727	-84.076	-0.210	-0.066
-226.713	353.570	0.110	0.215
-225.698	133.541	0.081	0.103
-224.684	-9.776	-0.384	0.252
-223.669	24.928	-0.187	-0.153
-222.655	-200.000	0.004	-0.062
-221.640	-200.000	-0.063	0.395
-220.625	240.655	0.100	0.163
-219.611	-97.268	0.271	0.069
-218.596	-25.888	-0.134	-0.078
-217.582	-97.174	0.126	0.032
-216.567	800.000	-0.123	-0.375
-215.552	-200.000	0.008	-0.342
-214.538	-90.966	-0.251	0.071
-213.523	800.000	0.042	-0.149
-212.509	19.831	0.173	-0.137
-211.494	-61.678	0.223	0.092
-210.479	-200.000	0.061	0.278
-209.465	-37.268	0.187	0.098
-208.450	50.876	0.159	0.148
-207.436	530.438	0.129	0.299
-206.421	800.000	-0.087	-0.268
-205.406	-200.000	0.046	0.401
-204.392	54.072	0.113	0.107
-203.377	-157.122	0.230	0.014
-202.363	-91.601	0.234	0.065
-201.348	-127.770	0.281	-0.040
-200.333	-34.500	-0.201	0.108
-199.319	-63.109	-0.339	0.137
-198.304	-200.000	0.006	-0.046
-197.290	71.655	0.147	0.150
-196.275	-45.765	0.241	0.117
-195.260	800.000	0.052	-0.144
-194.246	-93.392	-0.262	0.071
-193.231	-44.007	-0.143	-0.070
-192.217	-56.338	-0.117	-0.051
-191.202	157.591	0.076	0.103
-190.187	317.007	0.161	-0.299
-189.173	92.924	-0.070	-0.077
-188.158	-118.281	0.243	0.042
-187.144	55.119	0.121	-0.115
-186.129	-22.559	-0.205	0.122
-185.114	-153.894	0.264	-0.018
-184.100	-129.796	0.074	-0.010
-183.085	800.000	-0.071	-0.279
-182.071	-200.000	-0.045	0.462
-181.056	171.380	-0.051	0.072
-180.042	-176.750	-0.111	0.003
-179.027	-153.478	-0.224	-0.015
-178.012	-200.000	-0.025	0.223
-176.998	800.000	0.097	0.286
-175.983	-200.000	-0.008	0.175
-174.969	203.699	0.204	0.311
-173.954	360.814	-0.180	-0.355
-172.939	460.312	-0.085	0.186
-171.925	-200.000	-0.005	0.240
-170.910	-79.566	0.306	0.101
-169.896	800.000	-0.052	-0.224
-168.881	-82.537	0.159	0.051
-167.866	-152.127	0.249	-0.018
-166.852	-37.039	-0.479	-0.252
-165.837	107.790	0.155	-0.181
-164.823	57.978	0.149	0.143
-163.808	-31.791	0.170	-0.094
-162.793	-114.835	0.152	-0.028
-161.779	13.614	-0.268	-0.204
-160.764	244.177	-0.047	0.078
-159.750	-122.959	0.488	0.077
-158.735	-100.259	-0.084	-0.021
-157.720	-17.621	-0.082	-0.051
-156.706	-115.014	0.110	0.020
-155.691	-81.799	-0.645	0.207
-154.677	800.000	0.108	-0.306
-153.662	-200.000	-0.012	0.273
-152.647	50.386	0.125	0.116
-151.633	800.000	-0.093	-0.360
-150.618	-200.000	0.023	0.103
-149.604	-200.000	0.052	-0.299
-148.589	107.989	-0.132	0.154
-147.574	9.495	-0.291	0.216
-146.560	-187.391	0.232	0.003
-145.545	-197.015	-0.265	-0.002
-144.531	115.985	-0.184	0.220
-143.516	32.565	0.091	0.077
-142.502	633.842	0.153	0.381
-141.487	109.796	-0.021	-0.025
-140.472	-97.045	-0.301	-0.077
-139.458	26.245	-0.144	-0.118
-138.443	-99.765	0.266	-0.065
-137.429	-200.000	-0.023	0.121
-136.414	152.583	-0.148	0.198
-135.399	-105.734	0.247	0.055
-134.385	-200.000	0.009	-0.203
-133.370	77.499	-0.068	-0.071
-132.356	113.447	0.258	-0.307
-131.341	-57.631	0.041	0.018
-130.326	155.951	0.092	-0.124
-129.312	-85.577	0.279	0.085
-128.297	56.174	0.124	0.118
-127.283	157.815	0.054	-0.073
-126.268	-47.074	-0.197	-0.094
-125.253	262.120	-0.251	-0.426
-124.239	288.971	-0.224	-0.397
-123.224	75.340	0.281	0.290
-122.210	-74.540	-0.153	-0.054
