DTS Sentinel unit serial number:	SN413079Multiplexer serial number:	ORYXHardware model number:	OX4-SRSoftware version number:	ORYX F/W v4.00 Oryx Data Collector v3.7.2.0data status	okinstallation	princeton_trtdifferential loss correction	single-endedforward channel	channel 1reverse channel	N/Adate	2019/09/12time	19:09:34forward acquisition time	15.00reverse acquisition time	0.00gamma	496.2192k internal	0.2320k external	0.2320temperature offset calibration	1.0118default loss term (dB/km)	0.3790temperature slope calibration	1.0000multiplexer offset coefficient	1.0000multiplexer slope coefficient	1.0000fibre end	0.00T internal ref (°C)	32.62T ext. ref 1 (°C)	3.17T ext. ref 2 (°C)	27.24length (m)	temperature (°C)	Stokes	anti-Stokes-747.200	430.984	0.235	-0.515
-746.185	-25.595	-0.396	-0.236
-745.171	261.931	0.408	-0.715
-744.156	-200.000	-0.036	-0.307
-743.142	-200.000	-0.012	0.061
-742.127	-90.555	-0.543	0.159
-741.112	-164.556	0.396	-0.018
-740.098	128.686	-0.215	-0.277
-739.083	800.000	-0.268	-0.862
-738.069	-3.758	0.348	-0.244
-737.054	390.923	0.109	-0.228
-736.039	169.665	0.216	-0.312
-735.025	68.738	0.150	0.155
-734.010	-200.000	-0.019	0.188
-732.996	-142.437	-1.112	-0.111
-731.981	-38.243	-0.222	0.119
-730.966	429.730	0.590	-1.290
-729.952	-48.866	0.396	0.192
-728.937	-52.323	0.513	0.240
-727.923	49.460	-0.596	0.567
-726.908	-121.043	-0.403	-0.068
-725.894	124.968	0.196	-0.249
-724.879	395.037	-0.072	0.151
-723.864	-200.000	0.002	0.210
-722.850	-49.581	-0.840	0.404
-721.835	-107.579	-0.265	-0.059
-720.821	-159.151	1.200	0.068
-719.806	71.473	-0.624	0.655
-718.791	661.371	-0.240	-0.625
-717.777	100.053	0.633	0.741
-716.762	800.000	-0.139	-0.402
-715.748	225.004	-0.238	-0.389
-714.733	452.061	-0.083	0.184
-713.718	800.000	0.131	-0.507
-712.704	-179.076	-0.436	0.010
-711.689	-144.467	-0.632	0.059
-710.675	581.957	0.350	-0.868
-709.660	186.223	0.362	-0.544
-708.645	-133.441	-0.786	-0.100
-707.631	-200.000	0.113	-0.935
-706.616	89.235	0.205	-0.230
-705.602	-200.000	0.078	-0.733
-704.587	51.340	0.200	-0.192
-703.572	-76.364	-0.119	0.042
-702.558	75.781	-0.208	0.222
-701.543	259.360	0.244	0.424
-700.529	-54.207	0.368	-0.169
-699.514	-104.013	-0.209	-0.049
-698.499	68.656	-0.391	-0.405
-697.485	163.047	-0.216	0.306
-696.470	-31.954	-0.085	0.048
-695.456	800.000	-0.227	-0.672
-694.441	-91.497	0.447	-0.129
-693.426	-200.000	-1.059	0.000
-692.412	-200.000	-0.012	-0.445
-691.397	106.950	0.232	0.278
-690.383	-200.000	-0.051	0.984
-689.368	72.808	0.094	-0.099
-688.354	32.926	0.340	0.297
-687.339	231.923	0.477	-0.790
-686.324	-200.000	0.001	0.253
-685.310	689.350	-0.157	-0.414
-684.295	-37.117	-0.408	0.221
-683.281	-119.569	-0.423	0.074
-682.266	13.788	-0.300	0.235
-681.251	800.000	0.110	-0.455
-680.237	-62.365	0.489	-0.205
-679.222	159.257	0.210	-0.295
-678.208	54.694	0.238	0.231
-677.193	-11.767	-0.496	0.329
-676.178	91.219	-0.509	0.576
-675.164	113.418	-0.115	-0.140
-674.149	-200.000	-0.074	-0.843
-673.135	-61.311	-0.794	0.337
-672.120	-50.888	-0.398	-0.188
-671.105	-200.000	0.246	0.000
-670.091	-143.107	0.494	0.048
-669.076	78.249	-0.650	0.700
-668.062	-97.760	-0.616	0.161
-667.047	24.886	-0.317	0.265
-666.032	67.529	-0.255	-0.263
-665.018	353.833	-0.053	0.106
-664.003	-60.912	0.164	-0.070
-662.989	-128.301	0.393	0.057
-661.974	-188.916	-0.237	0.003
-660.959	77.121	-0.360	-0.386
-659.945	-97.609	0.224	-0.059
-658.930	-139.162	-0.251	0.027
-657.916	-64.205	-0.174	0.071
-656.901	90.491	-0.186	-0.210
-655.886	-96.754	-0.121	0.032
-654.872	-93.092	0.676	-0.190
-653.857	396.747	0.221	0.465
-652.843	-22.686	-0.895	0.545
-651.828	-102.851	-0.299	0.072
-650.814	-200.000	0.095	-0.510
-649.799	17.838	-0.840	-0.673
-648.784	-6.680	-0.347	-0.238
-647.770	764.568	0.228	-0.624
-646.755	-30.974	0.066	-0.038
-645.741	-198.823	0.518	-0.003
-644.726	800.000	0.158	0.442
-643.711	-1.344	-0.277	0.197
-642.697	49.279	0.338	0.320
-641.682	-114.488	0.462	-0.089
-640.668	-28.778	-0.431	-0.250
-639.653	707.015	-0.206	0.549
-638.638	-103.474	-0.313	-0.074
-637.624	-89.942	-1.149	-0.338
-636.609	-109.227	-1.023	0.219
-635.595	467.125	-0.203	-0.457
-634.580	148.396	0.280	0.381
-633.565	345.997	0.353	-0.700
-632.551	-65.401	0.823	0.333
-631.536	-200.000	0.636	-0.002
-630.522	-79.174	-0.954	-0.326
-629.507	-200.000	-0.048	-1.017
-628.492	800.000	-0.107	-0.410
-627.478	-167.294	0.563	0.023
-626.463	-200.000	-0.013	-0.355
-625.449	-200.000	-0.036	0.557
-624.434	-108.421	0.121	-0.026
-623.419	-200.000	0.232	-0.000
-622.405	-9.726	-0.179	-0.120
-621.390	-200.000	0.051	0.371
-620.376	800.000	-0.198	-0.551
-619.361	-31.869	0.417	0.235
-618.346	-11.356	0.588	0.390
-617.332	800.000	-0.192	-0.760
-616.317	-42.943	-0.385	-0.197
-615.303	117.803	-0.230	0.285
-614.288	-59.223	0.291	0.126
-613.273	-200.000	-0.032	0.189
-612.259	39.594	0.818	-0.738
-611.244	-148.779	0.125	0.010
-610.230	189.771	-0.292	0.440
-609.215	384.792	-0.149	-0.308
-608.201	-200.000	0.018	-0.338
-607.186	-56.555	-0.799	-0.356
-606.171	-16.493	0.416	0.265
-605.157	-200.000	0.005	0.043
-604.142	-29.312	0.461	-0.265
-603.128	800.000	0.030	-0.121
-602.113	21.892	0.400	-0.328
-601.098	162.403	-0.395	0.557
-600.084	-175.734	0.511	0.014
-599.069	-46.589	-0.381	-0.188
-598.055	800.000	-0.110	0.345
-597.040	-44.020	-0.426	-0.215
-596.025	81.030	-0.516	-0.560
-595.011	370.912	0.184	0.376
-593.996	-100.765	-0.508	-0.126
-592.982	551.718	0.119	-0.287
-591.967	657.923	-0.029	-0.074
-590.952	-200.000	0.012	0.755
-589.938	-7.991	0.290	-0.197
-588.923	-126.339	-0.511	-0.077
-587.909	57.955	0.417	-0.410
-586.894	-57.354	0.120	0.053
-585.879	-200.000	-0.094	-1.032
-584.865	755.278	0.107	-0.291
-583.850	-111.329	-0.485	-0.099
-582.836	-200.000	-0.052	0.688
-581.821	164.832	0.560	0.795
-580.806	-1.920	0.532	-0.376
-579.792	-7.840	0.132	0.089
-578.777	65.882	0.391	0.399
-577.763	-200.000	-0.111	-0.740
-576.748	800.000	0.160	-0.520
-575.733	-94.866	-0.386	0.105
-574.719	-64.083	-0.140	-0.057
-573.704	-110.536	0.740	0.154
-572.690	800.000	0.158	0.496
-571.675	153.521	0.146	-0.201
-570.661	290.154	0.030	0.054
-569.646	12.168	-0.498	-0.385
-568.631	-67.989	-0.396	0.155
-567.617	-200.000	0.045	-0.212
-566.602	-138.919	0.232	0.025
-565.588	322.370	0.211	-0.403
-564.573	98.563	-0.597	0.691
-563.558	800.000	0.145	0.476
-562.544	18.395	0.207	-0.166
-561.529	529.477	0.073	0.173
-560.515	729.438	0.462	-1.240
-559.500	411.775	-0.283	0.604
-558.485	-10.242	-0.451	0.301
-557.471	-200.000	0.071	0.522
-556.456	-21.505	-0.841	-0.515
-555.442	-71.724	-0.269	0.101
-554.427	66.711	0.373	-0.381
-553.412	-166.253	-0.360	-0.015
-552.398	-105.584	-0.215	0.049
-551.383	-200.000	-0.015	-0.696
-550.369	-15.923	-0.845	0.540
-549.354	-200.000	0.063	-0.345
-548.339	173.398	-0.387	-0.560
-547.325	-72.466	0.035	0.013
-546.310	106.153	-0.220	-0.261
-545.296	21.802	-0.203	0.166
-544.281	144.145	-0.222	-0.297
-543.266	124.376	0.194	-0.245
-542.252	-85.858	0.232	-0.072
-541.237	800.000	-0.111	0.427
-540.223	264.639	0.182	0.318
-539.208	-200.000	0.000	-0.327
-538.193	236.615	-0.184	-0.305
-537.179	-200.000	0.043	0.573
-536.164	-0.852	-0.075	-0.053
-535.150	800.000	0.145	0.533
-534.135	-145.227	-0.743	-0.067
-533.121	-98.285	0.489	-0.126
-532.106	-42.349	0.387	0.198
-531.091	-109.657	-0.534	-0.113
-530.077	-200.000	-0.038	-0.904
-529.062	-101.141	0.280	0.069
-528.048	-200.000	-0.027	0.556
-527.033	-80.961	0.594	-0.197
-526.018	49.446	-0.670	0.632
-525.004	-24.702	-0.268	-0.160
-523.989	-92.515	-0.707	0.199
-522.975	158.931	-0.162	-0.226
-521.960	-200.000	-0.088	1.131
-520.945	93.623	-0.361	-0.409
-519.931	445.524	-0.132	-0.291
-518.916	258.298	0.477	0.824
-517.902	-200.000	0.022	0.623
-516.887	62.654	0.196	0.196
-515.872	-13.667	-0.278	0.180
-514.858	-42.830	-0.695	0.354
-513.843	628.933	-0.273	-0.692
-512.829	381.138	0.330	-0.678
-511.814	-63.665	0.607	0.250
-510.799	-124.052	0.489	0.077
-509.785	97.309	-0.546	0.629
-508.770	0.914	0.560	0.402
-507.756	-200.000	-0.010	-1.065
-506.741	69.419	-0.700	0.722
-505.726	428.886	-0.193	0.417
-504.712	106.789	-0.271	-0.322
-503.697	105.436	-0.297	0.352
-502.683	-109.992	-0.914	-0.192
-501.668	-37.064	0.535	0.287
-500.653	110.471	-0.102	0.123
-499.639	30.763	0.868	0.744
-498.624	800.000	-0.301	0.958
-497.610	-137.800	0.790	0.089
-496.595	663.319	-0.187	0.483
-495.581	69.163	-0.553	-0.569
-494.566	11.596	0.396	-0.304
-493.551	757.824	0.319	-0.864
-492.537	86.446	0.615	0.679
-491.522	-82.996	0.737	0.238
-490.508	-21.982	-0.275	-0.167
-489.493	48.980	-0.411	0.386
-488.478	-200.000	0.068	-0.401
-487.464	7.409	0.240	0.179
-486.449	-76.091	-0.363	0.128
-485.435	800.000	0.055	-0.169
-484.420	800.000	-0.139	0.403
-483.405	113.938	-0.084	-0.102
-482.391	-200.000	-0.112	-0.702
-481.376	59.939	-0.673	-0.665
-480.362	-106.375	0.370	-0.083
-479.347	176.869	0.387	0.564
-478.332	-30.449	0.284	0.161
-477.318	-28.439	0.220	0.127
-476.303	-3.490	-0.683	0.475
-475.289	232.177	-0.118	0.194
-474.274	-134.507	0.434	0.053
-473.259	118.063	-0.389	-0.479
-472.245	800.000	-0.171	-0.571
-471.230	-200.000	0.182	-0.954
-470.216	-200.000	-0.143	-0.701
-469.201	353.175	0.073	-0.145
-468.186	-136.897	-0.656	0.075
-467.172	7.961	-0.699	0.524
-466.157	274.345	-0.365	0.646
-465.143	384.920	-0.255	0.527
-464.128	-200.000	0.009	-0.746
-463.113	356.283	-0.194	-0.387
-462.099	142.448	0.159	0.211
-461.084	-86.111	-0.665	0.205
-460.070	612.445	-0.106	0.266
-459.055	-200.000	-0.105	-0.684
-458.040	683.144	-0.259	-0.676
-457.026	-65.115	-0.141	0.057
-456.011	81.236	0.307	-0.331
-454.997	82.657	-0.742	0.806
-453.982	-200.000	0.067	0.599
-452.968	70.651	-0.250	0.259
-451.953	-156.924	0.325	-0.020
-450.938	-131.486	-0.336	-0.044
-449.924	-49.550	0.769	0.366
-448.909	-140.269	0.564	-0.059
-447.895	-12.964	0.468	-0.305
-446.880	-135.815	-0.407	-0.048
-445.865	69.475	-0.520	-0.535
-444.851	-178.738	-0.393	-0.009
-443.836	-200.000	0.002	0.270
-442.822	-3.390	0.394	-0.274
-441.807	-200.000	-0.104	0.596
-440.792	-36.849	-0.501	-0.268
-439.778	17.235	0.123	-0.097
-438.763	-105.186	0.524	-0.119
-437.749	-200.000	-0.188	0.913
-436.734	93.625	-0.520	0.588
-435.719	-200.000	-0.053	0.683
-434.705	-200.000	-0.079	-0.761
-433.690	-156.165	0.246	0.015
-432.676	-122.780	0.416	-0.067
-431.661	197.513	0.354	0.541
-430.646	-33.681	0.663	0.366
-429.632	-8.640	-0.262	0.175
-428.617	769.301	0.174	0.473
-427.603	251.795	-0.192	-0.327
-426.588	198.477	0.149	-0.228
-425.573	22.274	0.365	-0.297
-424.559	-9.870	0.690	0.459
-423.544	800.000	0.189	-0.647
-422.530	-39.879	0.316	0.165
-421.515	119.836	-0.346	-0.428
-420.500	-66.408	0.548	-0.217
-419.486	-63.688	-0.883	-0.362
-418.471	-200.000	-0.001	-0.122
-417.457	-86.346	-0.612	0.188
-416.442	-119.320	-0.426	-0.074
-415.428	156.571	0.299	-0.412
-414.413	-82.974	-0.710	0.228
-413.398	30.213	0.695	0.592
-412.384	800.000	-0.313	0.891
-411.369	-49.314	0.424	0.202
-410.355	251.710	-0.399	0.679
-409.340	125.289	-0.454	0.572
-408.325	-137.059	-1.075	0.123
-407.311	45.856	-0.372	-0.343
-406.296	-200.000	0.031	0.436
-405.282	-200.000	0.052	-0.273
-404.267	-132.597	-0.722	-0.093
-403.252	-53.394	0.190	0.087
-402.238	5.053	0.489	-0.359
-401.223	-21.207	-0.134	-0.082
-400.209	65.972	0.725	0.733
-399.194	-7.723	0.626	0.422
-398.179	108.044	-0.147	-0.175
-397.165	-53.902	0.189	0.086
-396.150	-80.294	-0.320	-0.107
-395.136	-75.428	-0.493	-0.175
-394.121	-164.550	-0.889	-0.040
-393.106	399.098	0.447	-0.934
-392.092	-15.136	0.104	-0.067
-391.077	55.298	0.596	-0.575
-390.063	-200.000	-0.013	-0.087
-389.048	800.000	-0.106	-0.360
-388.033	-36.673	-0.412	-0.221
-387.019	-32.691	0.254	0.141
-386.004	137.397	0.430	-0.561
-384.990	299.549	-0.166	0.305
-383.975	-200.000	-0.011	-0.420
-382.960	111.526	-0.366	-0.440
-381.946	310.430	-0.408	0.761
-380.931	15.218	-0.388	-0.303
-379.917	450.260	0.330	-0.726
-378.902	-50.609	-0.891	-0.418
-377.888	-133.787	0.782	0.097
-376.873	-153.853	0.616	-0.042
-375.858	-170.314	-0.820	0.029
-374.844	-48.007	-0.162	0.078
-373.829	-145.894	-0.347	-0.031
-372.815	-23.342	0.161	-0.097
-371.800	75.255	0.552	-0.580
-370.785	448.919	0.317	0.696
-369.771	68.052	-0.385	-0.393
-368.756	-14.119	0.481	0.309
-367.742	-200.000	0.103	-0.562
-366.727	-110.393	-0.710	0.147
-365.712	58.195	-0.336	0.328
-364.698	80.786	-0.525	0.564
-363.683	214.450	0.235	0.371
-362.669	-200.000	-0.001	0.021
-361.654	141.176	-0.293	-0.386
-360.639	-200.000	-0.215	-0.957
-359.625	244.129	-0.235	-0.393
-358.610	363.041	0.434	0.869
-357.596	601.654	0.118	-0.292
-356.581	238.993	0.415	-0.687
-355.566	-133.415	0.361	-0.045
-354.552	800.000	-0.106	-0.362
-353.537	26.362	0.299	0.249
-352.523	-140.646	0.917	-0.095
-351.508	216.289	0.203	0.321
-350.493	329.366	0.260	-0.497
-349.479	101.792	0.257	0.298
-348.464	-148.886	-0.395	0.032
-347.450	-200.000	-0.009	-0.514
-346.435	-101.253	0.406	-0.099
-345.420	-157.224	-0.210	0.013
-344.406	-95.231	0.117	-0.031
-343.391	-200.000	0.054	-0.486
-342.377	155.388	-0.472	-0.647
-341.362	-93.054	0.109	0.030
-340.348	-135.495	0.507	-0.060
-339.333	-200.000	0.083	0.482
-338.318	-39.567	1.034	-0.539
-337.304	-139.735	0.572	0.060
-336.289	-127.631	0.254	0.037
-335.275	-118.583	-0.314	0.055
-334.260	-64.936	0.621	-0.250
-333.245	12.896	0.372	0.286
-332.231	-13.839	0.598	-0.385
-331.216	99.762	-0.144	-0.166
-330.202	-178.617	-0.385	-0.009
-329.187	-28.245	0.439	-0.252
-328.172	43.559	-0.766	0.697
-327.158	-0.464	0.273	-0.193
-326.143	800.000	0.286	-1.174
-325.129	106.091	0.313	0.369
-324.114	-15.597	0.694	0.440
-323.099	-200.000	-0.106	0.774
-322.085	-200.000	-0.049	0.300
-321.070	0.837	-0.208	0.148
-320.056	133.501	0.123	0.158
-319.041	-160.862	1.040	0.055
-318.026	57.129	0.264	0.256
-317.012	260.668	-0.170	0.293
-315.997	-200.000	0.065	-0.791
-314.983	-139.937	-0.903	-0.095
-313.968	-75.555	0.559	-0.198
-312.953	119.138	-0.588	-0.723
-311.939	334.303	-0.261	-0.502
-310.924	-34.177	0.428	0.234
-309.910	-200.000	-0.127	0.875
-308.895	-73.946	-0.602	0.217
-307.880	267.293	-0.505	0.879
-306.866	-49.393	0.603	0.286
-305.851	-200.000	0.074	-0.749
-304.837	-47.140	0.360	0.175
-303.822	-127.772	-0.650	0.093
-302.807	-131.499	-1.132	-0.148
-301.793	12.146	-0.064	-0.049
-300.778	7.011	-0.197	0.146
-299.764	4.480	-0.608	0.443
-298.749	-73.686	0.805	-0.291
-297.735	219.253	-0.139	0.222
-296.720	-200.000	-0.146	-0.868
-295.705	57.318	-0.524	-0.508
-294.691	-40.393	-0.233	0.120
-293.676	82.128	0.096	0.103
-292.662	550.945	-0.244	-0.581
-291.647	240.223	-0.346	-0.573
-290.632	3.344	-0.366	-0.265
-289.618	426.711	0.157	0.335
-288.603	-162.287	0.759	-0.038
-287.589	40.288	-0.598	0.534
-286.574	7.477	0.132	0.098
-285.559	-145.309	-0.542	-0.049
-284.545	800.000	-0.160	-0.515
-283.530	84.569	0.152	0.166
-282.516	65.877	0.660	0.665
-281.501	-74.203	0.963	-0.346
-280.486	-139.525	0.425	0.045
-279.472	-49.612	-0.554	-0.262
-278.457	-200.000	-0.006	-0.891
-277.443	-132.036	0.210	0.027
-276.428	-27.505	0.506	-0.292
-275.413	-200.000	-0.039	0.216
-274.399	-200.000	-0.041	-0.745
-273.384	224.780	0.325	0.522
-272.370	800.000	-0.093	0.271
-271.355	-43.104	-0.310	-0.156
-270.340	742.169	-0.114	0.304
-269.326	-24.365	-0.313	0.185
-268.311	800.000	0.159	0.561
-267.297	50.971	0.340	0.320
-266.282	465.605	0.474	1.052
-265.267	-135.265	-0.639	0.076
-264.253	-104.990	-0.214	0.049
-263.238	112.362	-0.411	-0.494
-262.224	-200.000	0.071	0.624
-261.209	42.702	-0.363	0.328
-260.195	348.438	-0.248	-0.486
-259.180	-55.045	-1.187	-0.530
-258.165	13.582	0.535	0.412
-257.151	7.515	0.558	0.414
-256.136	-129.465	-0.186	-0.026
-255.122	291.281	-0.069	-0.125
-254.107	252.185	0.624	-1.054
-253.092	-93.769	-0.195	0.053
-252.078	-88.448	-0.173	0.051
-251.063	-21.282	0.607	-0.368
-250.049	-200.000	-0.030	0.781
-249.034	273.933	0.299	-0.525
-248.019	800.000	-0.143	0.473
-247.005	-200.000	0.092	1.177
-245.990	217.482	-0.302	0.477
-244.976	-33.649	0.366	0.201
-243.961	453.683	-0.065	-0.142
-242.946	668.686	-0.119	0.305
-241.932	800.000	-0.148	0.525
-240.917	-171.820	0.535	0.017
-239.903	800.000	-0.094	-0.370
-238.888	103.747	0.640	-0.745
-237.873	-12.666	-0.183	-0.118
-236.859	286.175	0.113	-0.203
-235.844	62.729	0.338	-0.335
-234.830	-14.636	-0.292	-0.186
-233.815	121.213	0.398	0.491
-232.800	-179.059	-0.675	-0.015
-231.786	-69.830	-0.116	-0.044
-230.771	133.158	0.244	-0.313
-229.757	163.848	0.617	0.861
-228.742	-119.684	-0.571	-0.098
-227.727	800.000	0.099	0.394
-226.713	-200.000	-0.077	0.663
-225.698	-125.524	0.412	-0.062
-224.684	151.515	0.276	0.372
-223.669	146.052	-0.151	0.201
-222.655	-10.430	-0.412	-0.271
-221.640	-161.072	-0.858	0.044
-220.625	-113.084	-0.597	-0.117
-219.611	307.480	0.090	0.166
-218.596	15.443	-1.139	-0.885
-217.582	-200.000	-0.005	0.226
-216.567	110.472	-0.176	-0.210
-215.552	56.794	0.280	-0.270
-214.538	73.353	0.111	-0.115
-213.523	800.000	0.118	-0.361
-212.509	800.000	-0.293	0.937
-211.494	-89.439	0.241	-0.070
-210.479	298.470	-0.053	-0.096
-209.465	17.449	-0.322	-0.253
-208.450	269.337	0.098	0.171
-207.436	598.864	0.155	0.381
-206.421	20.556	0.761	0.610
-205.406	-200.000	0.091	-0.532
-204.392	21.255	0.479	0.385
-203.377	-94.789	0.744	0.200
-202.363	12.472	-0.952	0.727
-201.348	46.927	0.045	-0.042
-200.333	62.453	0.360	-0.356
-199.319	-102.093	-1.076	0.257
-198.304	462.201	0.220	-0.487
-197.290	-80.190	-0.180	-0.060
-196.275	-193.972	0.708	-0.006
-195.260	389.152	0.169	-0.346
-194.246	121.176	-0.415	-0.511
-193.231	492.879	-0.392	-0.888
-192.217	-200.000	-0.031	-0.148
-191.202	321.500	0.165	0.310
-190.187	148.684	-0.070	0.094
-189.173	-200.000	-0.064	0.763
-188.158	-200.000	0.018	0.180
-187.144	800.000	-0.080	-0.231
-186.129	-94.106	-0.314	0.085
-185.114	-200.000	0.036	-0.254
-184.100	107.153	-0.587	0.690
-183.085	-200.000	-0.092	-0.731
-182.071	486.877	-0.189	-0.427
-181.056	141.259	0.526	0.688
-180.042	580.424	0.061	0.148
-179.027	34.338	0.608	-0.524
-178.012	-51.805	0.460	0.212
-176.998	-124.069	0.394	-0.061
-175.983	177.219	0.173	0.250
-174.969	605.570	-0.237	0.583
-173.954	800.000	0.057	0.168
-172.939	-38.897	0.776	0.404
-171.925	101.117	0.458	0.528
-170.910	-169.236	0.680	-0.025
-169.896	169.786	0.209	0.295
-168.881	-85.244	1.308	-0.404
-167.866	224.857	0.436	0.697
-166.852	-64.243	0.496	-0.200
-165.837	-200.000	0.131	0.617
-164.823	-140.746	0.703	-0.072
-163.808	92.946	0.157	-0.176
-162.793	-200.000	0.079	-0.629
-161.779	-200.000	-0.016	0.388
-160.764	800.000	0.120	-0.444
-159.750	-174.103	0.390	-0.011
-158.735	35.958	0.424	0.369
-157.720	150.529	0.336	-0.451
-156.706	48.267	-0.593	0.548
-155.691	-147.955	-0.737	-0.061
-154.677	387.403	0.153	-0.313
-153.662	415.637	-0.240	-0.505
-152.647	-200.000	0.152	0.711
-151.633	243.588	0.564	0.935
-150.618	800.000	-0.110	-0.396
-149.604	113.128	0.233	-0.279
-148.589	-200.000	-0.074	-0.670
-147.574	-200.000	-0.007	-0.368
-146.560	216.054	-0.309	0.485
-145.545	-20.834	0.466	-0.282
-144.531	185.459	0.133	-0.195
-143.516	257.687	0.383	-0.651
-142.502	279.380	-0.143	-0.251
-141.487	-74.865	0.444	0.157
-140.472	459.024	-0.149	-0.328
-139.458	-112.174	0.761	0.151
-138.443	-200.000	-0.101	0.532
-137.429	-22.900	0.345	-0.205
-136.414	668.232	-0.077	0.196
-135.399	59.684	-0.169	-0.164
-134.385	48.962	-0.298	0.276
-133.370	214.235	0.396	0.619
-132.356	-200.000	-0.206	0.999
-131.341	192.885	0.567	0.846
-130.326	-200.000	-0.804	0.003
-129.312	-200.000	-0.057	-0.841
-128.297	-140.629	0.325	0.033
-127.283	-67.204	-0.571	0.222
-126.268	157.532	-0.567	0.774
-125.253	-9.454	-0.627	-0.413
-124.239	28.596	0.184	-0.154
-123.224	800.000	0.120	0.482
-122.210	135.723	0.278	0.357
-121.195	-162.592	0.987	0.048
