DTS Sentinel unit serial number:	SN413079Multiplexer serial number:	ORYXHardware model number:	OX4-SRSoftware version number:	ORYX F/W v4.00 Oryx Data Collector v3.7.2.0data status	okinstallation	princeton_trtdifferential loss correction	single-endedforward channel	channel 1reverse channel	N/Adate	2019/09/16time	01:42:35forward acquisition time	60.00reverse acquisition time	0.00gamma	496.2192k internal	0.2333k external	0.2333temperature offset calibration	0.9978default loss term (dB/km)	0.3790temperature slope calibration	1.0000multiplexer offset coefficient	1.0000multiplexer slope coefficient	1.0000fibre end	0.00T internal ref (°C)	27.34T ext. ref 1 (°C)	9.99T ext. ref 2 (°C)	22.25length (m)	temperature (°C)	Stokes	anti-Stokes-747.200	-128.143	0.085	-0.012
-746.185	361.151	-0.160	0.322
-745.171	-27.648	0.040	-0.023
-744.156	-200.000	0.040	0.461
-743.142	-71.083	0.164	0.062
-742.127	-131.813	0.287	0.038
-741.112	110.511	-0.031	0.037
-740.098	-63.216	-0.232	-0.096
-739.083	-144.379	0.175	-0.016
-738.069	66.895	0.147	-0.151
-737.054	41.044	-0.132	-0.120
-736.039	-36.783	-0.236	-0.127
-735.025	-200.000	0.050	0.433
-734.010	795.970	-0.062	0.171
-732.996	-85.759	0.264	-0.082
-731.981	800.000	-0.065	0.218
-730.966	-200.000	0.024	-0.188
-729.952	19.543	-0.280	-0.226
-728.937	352.452	-0.153	-0.305
-727.923	65.780	-0.181	-0.185
-726.908	-200.000	-0.029	-0.244
-725.894	6.347	-0.196	-0.146
-724.879	256.363	-0.146	-0.252
-723.864	800.000	0.072	0.216
-722.850	12.819	0.210	-0.163
-721.835	-98.719	-0.087	-0.022
-720.821	-101.796	-0.343	-0.083
-719.806	-50.533	-0.152	-0.072
-718.791	101.926	0.257	-0.301
-717.777	-102.221	0.117	-0.028
-716.762	-200.000	-0.023	-0.133
-715.748	-8.723	0.116	-0.078
-714.733	800.000	0.048	-0.202
-713.718	-127.430	-0.445	0.065
-712.704	259.419	0.028	-0.048
-711.689	-200.000	0.022	0.209
-710.675	240.748	0.110	0.185
-709.660	-131.366	0.196	-0.026
-708.645	-54.225	-0.234	-0.107
-707.631	-75.107	-0.298	0.107
-706.616	-57.469	-0.079	0.035
-705.602	-148.967	-0.174	-0.014
-704.587	236.030	-0.146	0.243
-703.572	-75.441	0.313	0.112
-702.558	231.755	0.166	-0.272
-701.543	-44.164	0.260	0.131
-700.529	-0.732	0.094	-0.067
-699.514	-55.810	-0.123	-0.055
-698.499	-200.000	0.046	-0.320
-697.485	78.750	-0.183	0.196
-696.470	333.537	0.150	-0.290
-695.456	22.856	0.042	0.035
-694.441	46.522	0.060	0.056
-693.426	-118.575	0.105	-0.019
-692.412	-129.304	-0.163	-0.023
-691.397	-200.000	0.054	-0.276
-690.383	-94.186	-0.141	0.039
-689.368	-39.303	0.080	0.042
-688.354	14.925	-0.341	-0.268
-687.339	311.158	-0.062	0.116
-686.324	800.000	0.077	-0.233
-685.310	117.096	-0.116	-0.143
-684.295	-200.000	-0.045	-0.351
-683.281	-42.959	0.092	-0.047
-682.266	364.403	-0.203	-0.409
-681.251	374.731	-0.065	-0.132
-680.237	10.419	0.126	-0.097
-679.222	349.316	0.060	-0.119
-678.208	800.000	-0.075	-0.243
-677.193	800.000	-0.043	0.169
-676.178	-49.156	-0.239	0.114
-675.164	800.000	-0.087	-0.322
-674.149	553.561	0.088	0.211
-673.135	97.753	-0.140	0.162
-672.120	-74.994	0.440	0.158
-671.105	800.000	-0.073	-0.209
-670.091	800.000	0.073	0.208
-669.076	501.367	0.155	0.358
-668.062	-124.968	0.029	0.005
-667.047	800.000	0.052	-0.156
-666.032	163.222	-0.117	-0.164
-665.018	-200.000	0.001	0.098
-664.003	-116.255	-0.410	0.076
-662.989	-200.000	-0.008	0.200
-661.974	-153.360	-0.148	0.010
-660.959	121.036	-0.089	-0.110
-659.945	106.430	-0.118	-0.140
-658.930	-200.000	-0.004	-0.034
-657.916	-200.000	0.037	-0.248
-656.901	-79.105	-0.133	0.045
-655.886	160.319	-0.201	0.281
-654.872	-200.000	-0.006	0.165
-653.857	-200.000	0.053	-0.263
-652.843	-130.380	0.291	0.039
-651.828	132.324	-0.112	-0.144
-650.814	207.875	-0.092	0.143
-649.799	3.238	0.053	0.039
-648.784	-200.000	-0.011	0.258
-647.770	-200.000	0.024	-0.238
-646.755	-200.000	-0.064	0.293
-645.741	-64.269	-0.091	0.037
-644.726	-146.917	-0.329	0.028
-643.711	-200.000	-0.038	-0.184
-642.697	159.171	-0.170	-0.237
-641.682	-27.862	0.065	-0.038
-640.668	-165.442	-0.189	-0.008
-639.653	-200.000	0.057	-0.379
-638.638	180.891	0.162	-0.238
-637.624	48.902	-0.224	0.210
-636.609	-200.000	-0.041	-0.188
-635.595	-129.327	0.205	-0.029
-634.580	110.906	-0.139	0.168
-633.565	161.886	0.139	0.195
-632.551	-120.566	-0.035	0.006
-631.536	800.000	0.062	-0.199
-630.522	-157.646	0.209	0.012
-629.507	-134.541	-0.389	-0.048
-628.492	-48.944	-0.191	-0.092
-627.478	800.000	0.066	-0.247
-626.463	-200.000	-0.047	-0.387
-625.449	-200.000	0.023	-0.318
-624.434	559.739	0.066	-0.158
-623.419	-47.478	-0.331	-0.161
-622.405	-179.617	0.210	-0.005
-621.390	693.005	-0.059	0.154
-620.376	310.275	-0.069	-0.129
-619.361	495.917	-0.102	0.236
-618.346	455.999	-0.137	0.305
-617.332	21.929	0.145	-0.118
-616.317	-191.609	-0.136	0.001
-615.303	-45.818	-0.336	-0.166
-614.288	276.163	-0.050	0.088
-613.273	-46.859	-0.165	0.081
-612.259	-200.000	-0.010	-0.121
-611.244	-70.973	0.563	0.212
-610.230	800.000	0.012	0.045
-609.215	-25.358	-0.377	-0.223
-608.201	-200.000	0.028	0.229
-607.186	228.633	-0.123	0.200
-606.171	-200.000	-0.042	-0.253
-605.157	-200.000	-0.055	0.501
-604.142	627.421	-0.064	0.161
-603.128	-81.770	-0.243	0.080
-602.113	-75.479	0.046	-0.016
-601.098	525.731	0.120	-0.282
-600.084	89.271	-0.140	0.156
-599.069	-200.000	0.008	0.044
-598.055	-124.635	-0.104	0.016
-597.040	85.858	-0.244	-0.269
-596.025	-144.211	0.228	0.021
-595.011	-17.188	0.159	-0.100
-593.996	264.982	0.151	-0.262
-592.982	323.076	-0.066	0.126
-591.967	-100.309	0.227	0.056
-590.952	-16.241	0.081	-0.051
-589.938	-143.786	-0.292	-0.028
-588.923	23.248	0.170	-0.140
-587.909	-56.321	-0.035	0.015
-586.894	-133.205	0.147	-0.019
-585.879	-94.797	-0.260	0.070
-584.865	800.000	0.048	-0.139
-583.850	608.923	0.099	-0.246
-582.836	-55.341	-0.169	0.076
-581.821	32.352	0.311	0.269
-580.806	78.429	-0.133	0.142
-579.792	106.385	0.044	-0.052
-578.777	124.072	-0.145	0.182
-577.763	-105.850	0.140	0.032
-576.748	800.000	-0.042	0.164
-575.733	-52.453	-0.262	0.121
-574.719	22.276	-0.027	0.022
-573.704	-2.777	0.416	-0.290
-572.690	449.995	0.025	0.055
-571.675	-16.855	-0.333	-0.210
-570.661	-200.000	0.016	-0.167
-569.646	-80.549	0.321	-0.107
-568.631	-49.567	0.291	0.139
-567.617	47.544	-0.191	-0.178
-566.602	449.319	-0.099	-0.218
-565.588	532.154	0.070	-0.166
-564.573	376.098	-0.114	-0.233
-563.558	-30.269	-0.277	-0.157
-562.544	-112.101	0.231	-0.046
-561.529	241.498	0.189	-0.316
-560.515	162.805	-0.089	-0.125
-559.500	42.256	-0.081	-0.073
-558.485	22.238	-0.112	-0.091
-557.471	-82.008	0.158	0.051
-556.456	259.366	0.033	-0.057
-555.442	-71.063	0.398	-0.150
-554.427	-200.000	-0.026	0.194
-553.412	-145.895	0.126	0.011
-552.398	-82.991	0.075	0.024
-551.383	800.000	-0.037	0.107
-550.369	-42.243	-0.151	0.077
-549.354	260.718	0.090	-0.156
-548.339	-179.135	-0.297	0.007
-547.325	-63.091	-0.282	-0.116
-546.310	-131.596	0.214	0.028
-545.296	492.429	-0.255	-0.583
-544.281	-200.000	-0.041	-0.248
-543.266	346.489	0.145	0.285
-542.252	-93.071	-0.244	-0.068
-541.237	62.114	-0.154	0.153
-540.223	-130.929	0.133	-0.018
-539.208	77.490	-0.224	0.237
-538.193	800.000	0.049	0.137
-537.179	-123.903	0.443	-0.070
-536.164	-165.592	-0.163	0.007
-535.150	-70.432	-0.281	0.106
-534.135	-200.000	-0.067	-0.339
-533.121	9.748	0.061	0.046
-532.106	-44.484	-0.293	-0.146
-531.091	-63.076	0.238	-0.098
-530.077	100.435	-0.029	0.034
-529.062	7.907	0.184	0.138
-528.048	800.000	-0.071	0.200
-527.033	-19.482	0.056	0.035
-526.018	30.905	0.125	-0.107
-525.004	114.255	0.133	0.162
-523.989	-133.227	0.174	0.022
-522.975	800.000	0.016	-0.044
-521.960	-200.000	-0.001	-0.058
-520.945	800.000	-0.037	0.154
-519.931	-74.848	0.090	0.032
-518.916	616.011	-0.160	-0.400
-517.902	124.815	-0.057	0.071
-516.887	-51.919	-0.315	0.146
-515.872	-44.299	0.219	-0.109
-514.858	204.558	0.098	0.152
-513.843	-105.367	-0.074	-0.017
-512.829	143.496	0.087	0.115
-511.814	-200.000	0.009	0.382
-510.799	-3.938	0.186	0.128
-509.785	-115.033	0.272	0.051
-508.770	800.000	0.091	-0.376
-507.756	66.888	-0.278	-0.282
-506.741	-200.000	0.028	0.298
-505.726	50.090	0.104	0.098
-504.712	240.508	0.094	-0.156
-503.697	-63.563	-0.080	-0.033
-502.683	-160.757	0.205	-0.011
-501.668	-45.078	-0.237	-0.118
-500.653	-200.000	0.002	-0.011
-499.639	446.253	0.111	-0.243
-498.624	-200.000	0.031	0.291
-497.610	182.603	-0.090	0.132
-496.595	10.434	0.068	0.051
-495.581	334.733	0.058	-0.111
-494.566	47.846	-0.142	0.132
-493.551	5.892	-0.453	0.334
-492.537	-200.000	0.050	0.251
-491.522	107.859	0.180	0.214
-490.508	424.938	-0.134	0.288
-489.493	762.050	-0.074	-0.199
-488.478	-9.172	-0.230	0.153
-487.464	-49.325	0.178	-0.085
-486.449	-148.500	0.195	-0.016
-485.435	181.658	0.269	-0.394
-484.420	8.208	0.147	0.110
-483.405	155.137	-0.166	-0.227
-482.391	-200.000	0.289	-0.000
-481.376	-87.683	-0.206	0.062
-480.362	-200.000	-0.037	-0.232
-479.347	-111.540	0.300	-0.061
-478.332	20.503	-0.171	0.138
-477.318	-111.669	0.243	0.049
-476.303	-50.750	0.257	0.120
-475.289	800.000	-0.038	0.137
-474.274	80.428	-0.188	-0.201
-473.259	480.043	0.081	-0.182
-472.245	-63.819	0.155	0.063
-471.230	127.421	0.131	-0.166
-470.216	-110.304	-0.154	0.032
-469.201	22.894	-0.162	-0.132
-468.186	82.318	-0.127	0.137
-467.172	196.806	0.248	0.375
-466.157	59.392	0.071	-0.070
-465.143	265.522	-0.185	-0.321
-464.128	-41.586	0.132	0.067
-463.113	-35.698	0.126	-0.068
-462.099	42.687	0.200	-0.181
-461.084	-131.880	-0.428	-0.056
-460.070	-155.655	-0.155	-0.010
-459.055	517.929	0.022	-0.052
-458.040	649.967	0.110	-0.279
-457.026	325.797	-0.198	0.376
-456.011	59.254	0.145	-0.142
-454.997	-106.544	0.354	0.078
-453.982	800.000	-0.033	-0.107
-452.968	-117.855	0.024	-0.004
-451.953	-112.091	-0.231	-0.046
-450.938	-10.244	0.262	0.173
-449.924	228.136	-0.134	-0.217
-448.909	238.421	0.015	-0.025
-447.895	161.580	0.197	-0.274
-446.880	156.688	-0.122	0.168
-445.865	39.005	0.053	-0.047
-444.851	160.504	-0.124	-0.172
-443.836	-200.000	-0.040	0.182
-442.822	800.000	-0.091	0.350
-441.807	-177.123	0.132	0.003
-440.792	-200.000	-0.022	0.167
-439.778	306.838	-0.058	0.108
-438.763	74.792	0.357	0.373
-437.749	-75.257	-0.146	0.052
-436.734	-200.000	-0.028	-0.219
-435.719	-200.000	-0.047	-0.306
-434.705	-114.715	-0.207	-0.039
-433.690	-55.629	-0.063	-0.028
-432.676	-187.945	-0.284	0.004
-431.661	-142.103	0.313	0.031
-430.646	-200.000	0.031	-0.139
-429.632	-126.151	0.490	-0.073
-428.617	346.156	-0.076	0.148
-427.603	800.000	0.021	-0.063
-426.588	-113.981	0.254	0.049
-425.573	282.090	0.080	-0.143
-424.559	-7.312	-0.041	0.028
-423.544	-152.823	-0.354	-0.025
-422.530	-170.177	-0.094	-0.003
-421.515	-24.045	-0.282	-0.167
-420.500	-122.105	0.132	-0.021
-419.486	-47.502	0.224	0.108
-418.471	-79.161	0.115	0.039
-417.457	156.234	-0.251	0.344
-416.442	800.000	-0.054	0.178
-415.428	167.792	-0.053	-0.076
-414.413	800.000	0.071	-0.281
-413.398	556.581	0.211	0.504
-412.384	-200.000	-0.007	0.148
-411.369	1.021	0.184	0.131
-410.355	-116.046	0.091	-0.017
-409.340	314.273	0.057	0.107
-408.325	-200.000	0.028	-0.472
-407.311	-80.126	-0.294	-0.098
-406.296	-29.611	0.201	0.114
-405.282	800.000	-0.072	-0.240
-404.267	800.000	0.101	0.278
-403.252	171.321	0.032	-0.045
-402.238	-99.601	0.219	-0.055
-401.223	-78.813	-0.140	0.047
-400.209	-110.499	0.239	0.049
-399.194	-200.000	-0.018	0.340
-398.179	-124.828	-0.307	0.047
-397.165	40.472	-0.166	0.148
-396.150	141.860	0.075	0.099
-395.136	41.033	0.046	-0.042
-394.121	-24.181	0.244	0.145
-393.106	-26.821	0.052	0.030
-392.092	73.825	0.156	-0.162
-391.077	-200.000	0.016	0.165
-390.063	800.000	-0.104	-0.309
-389.048	19.364	-0.098	0.078
-388.033	94.758	-0.094	0.106
-387.019	203.832	-0.373	0.572
-386.004	-21.768	-0.040	-0.024
-384.990	69.242	0.028	0.028
-383.975	104.906	0.102	0.119
-382.960	116.389	0.052	-0.063
-381.946	307.878	0.137	-0.254
-380.931	540.449	-0.016	-0.039
-379.917	186.346	-0.136	0.201
-378.902	11.803	0.123	0.094
-377.888	800.000	-0.051	0.159
-376.873	-79.597	-0.224	-0.075
-375.858	161.035	0.127	0.175
-374.844	169.825	0.152	0.215
-373.829	242.453	-0.110	0.182
-372.815	-120.292	0.168	-0.028
-371.800	-153.536	0.190	0.013
-370.785	-200.000	0.095	0.417
-369.771	53.632	-0.235	0.224
-368.756	-84.204	-0.303	0.095
-367.742	-200.000	0.060	0.286
-366.727	-75.884	0.155	0.054
-365.712	-200.000	-0.019	0.219
-364.698	-200.000	0.017	0.271
-363.683	-200.000	0.066	-0.334
-362.669	-0.761	0.113	0.079
-361.654	-200.000	-0.033	-0.211
-360.639	-200.000	0.001	0.351
-359.625	-84.369	0.134	-0.042
-358.610	-115.292	0.117	0.022
-357.596	50.715	0.155	-0.145
-356.581	493.670	-0.063	0.143
-355.566	-88.501	-0.293	0.087
-354.552	9.741	-0.121	-0.091
-353.537	192.467	0.163	-0.244
-352.523	-200.000	-0.059	0.399
-351.508	-160.474	0.060	-0.003
-350.493	-41.995	-0.108	-0.055
-349.479	310.428	-0.144	-0.267
-348.464	-142.281	0.076	0.007
-347.450	-200.000	0.006	-0.339
-346.435	-82.462	0.149	-0.048
-345.420	40.211	-0.227	-0.202
-344.406	-110.962	-0.182	0.037
-343.391	146.049	-0.179	-0.237
-342.377	-200.000	0.024	0.145
-341.362	-200.000	-0.004	0.061
-340.348	800.000	0.079	-0.231
-339.333	67.855	-0.162	-0.164
-338.318	226.532	0.175	-0.281
-337.304	93.807	-0.147	-0.164
-336.289	-30.803	0.147	-0.082
-335.275	39.991	-0.027	-0.024
-334.260	-93.315	-0.080	0.022
-333.245	34.127	0.152	0.131
-332.231	-200.000	0.015	-0.192
-331.216	-139.672	-0.081	0.009
-330.202	265.988	0.035	0.060
-329.187	-200.000	0.034	0.183
-328.172	-56.251	0.138	-0.061
-327.158	-107.143	-0.093	0.020
-326.143	130.531	-0.380	-0.482
-325.129	10.716	0.414	-0.313
-324.114	-18.690	-0.102	-0.063
-323.099	91.775	-0.323	-0.360
-322.085	410.551	-0.043	-0.089
-321.070	800.000	-0.046	0.165
-320.056	65.687	-0.137	0.137
-319.041	243.907	-0.172	0.286
-318.026	-101.884	-0.209	0.050
-317.012	18.159	0.470	0.371
-315.997	48.545	0.255	0.236
-314.983	-200.000	0.004	0.065
-313.968	37.117	0.063	-0.055
-312.953	22.007	-0.054	0.044
-311.939	-200.000	0.018	-0.272
-310.924	-200.000	-0.051	-0.256
-309.910	800.000	0.087	-0.358
-308.895	-200.000	0.018	-0.174
-307.880	800.000	0.125	0.372
-306.866	-73.944	-0.259	-0.093
-305.851	15.653	-0.130	0.101
-304.837	66.904	-0.161	-0.162
-303.822	40.634	0.033	0.029
-302.807	330.172	-0.196	0.373
-301.793	666.532	0.067	0.170
-300.778	332.052	0.068	-0.130
-299.764	71.767	-0.221	-0.227
-298.749	217.306	-0.106	-0.166
-297.735	-164.449	0.284	0.013
-296.720	-200.000	-0.041	0.277
-295.705	590.776	-0.141	-0.343
-294.691	401.374	0.015	0.031
-293.676	-200.000	-0.023	-0.261
-292.662	-172.571	0.217	0.007
-291.647	69.559	-0.046	-0.046
-290.632	73.164	0.371	-0.383
-289.618	-182.044	0.303	0.006
-288.603	-200.000	0.009	-0.262
-287.589	-200.000	-0.018	0.231
-286.574	315.944	0.083	0.155
-285.559	153.439	-0.212	0.286
-284.545	-108.560	-0.074	-0.016
-283.530	-200.000	-0.045	-0.270
-282.516	79.247	-0.304	0.321
-281.501	-192.815	0.130	-0.001
-280.486	-200.000	-0.041	0.523
-279.472	-200.000	-0.005	-0.111
-278.457	209.814	-0.081	-0.125
-277.443	244.398	-0.089	-0.147
-276.428	-8.025	0.139	-0.092
-275.413	-166.761	-0.145	-0.006
-274.399	-107.474	0.001	0.000
-273.384	-35.816	0.405	-0.216
-272.370	800.000	0.079	-0.268
-271.355	-172.649	-0.422	0.013
-270.340	-110.267	0.109	-0.022
-269.326	-111.404	-0.235	0.047
-268.311	-155.332	-0.099	0.006
-267.297	-111.483	0.275	-0.055
-266.282	171.173	0.091	0.129
-265.267	800.000	0.079	0.299
-264.253	-172.486	-0.016	-0.000
-263.238	236.453	-0.022	0.036
-262.224	-114.434	-0.062	-0.012
-261.209	-9.338	-0.146	0.096
-260.195	-200.000	0.041	-0.274
-259.180	-200.000	0.007	0.122
-258.165	-63.651	0.180	0.073
-257.151	168.819	0.160	0.225
-256.136	217.108	0.256	0.403
-255.122	180.975	0.040	-0.059
-254.107	-76.632	-0.061	0.021
-253.092	-200.000	-0.059	-0.320
-252.078	344.839	0.166	-0.322
-251.063	-146.119	-0.500	0.043
-250.049	-90.101	0.333	-0.096
-249.034	156.565	0.064	0.087
-248.019	4.748	0.088	-0.064
-247.005	600.695	-0.056	-0.138
-245.990	346.158	0.035	0.068
-244.976	-79.590	-0.166	-0.055
-243.961	153.505	-0.101	0.136
-242.946	64.116	-0.086	-0.085
-241.932	-152.995	-0.144	-0.010
-240.917	7.067	-0.182	-0.134
-239.903	-53.896	-0.243	0.109
-238.888	-58.503	0.151	-0.065
-237.873	776.322	-0.078	0.211
-236.859	-47.439	-0.330	0.158
-235.844	173.401	0.250	-0.355
-234.830	800.000	-0.084	-0.253
-233.815	-200.000	0.005	0.153
-232.800	88.177	-0.035	-0.039
-231.786	146.736	0.057	-0.076
-230.771	800.000	0.063	0.187
-229.757	800.000	0.060	-0.163
-228.742	-200.000	0.013	0.121
-227.727	-68.419	0.329	-0.126
-226.713	324.541	-0.143	0.270
-225.698	-41.168	-0.070	0.035
-224.684	-200.000	0.033	-0.160
-223.669	71.756	-0.086	-0.088
-222.655	-75.835	0.025	-0.009
-221.640	-92.686	-0.283	0.078
-220.625	207.070	-0.201	0.308
-219.611	-200.000	0.002	0.121
-218.596	-200.000	-0.089	-0.457
-217.582	-200.000	-0.022	0.148
-216.567	304.644	0.185	-0.338
-215.552	138.033	-0.089	0.115
-214.538	-66.357	0.277	0.108
-213.523	-130.989	-0.217	-0.029
-212.509	-90.104	-0.285	0.082
-211.494	123.814	0.174	0.215
-210.479	-200.000	0.059	0.388
-209.465	1.650	-0.083	0.059
-208.450	8.469	0.159	-0.118
-207.436	9.091	-0.079	0.058
-206.421	133.890	0.131	-0.167
-205.406	-140.708	-0.225	0.023
-204.392	19.153	0.287	0.227
-203.377	-70.151	0.345	0.129
-202.363	381.389	-0.058	0.117
-201.348	-138.420	-0.344	0.037
-200.333	783.129	0.071	-0.190
-199.319	23.105	0.091	0.074
-198.304	88.584	0.184	-0.201
-197.290	-95.263	0.104	0.028
-196.275	-134.198	-0.271	-0.033
-195.260	73.131	-0.017	0.017
-194.246	79.895	-0.053	-0.056
-193.231	-93.238	0.187	-0.051
-192.217	-44.025	0.326	-0.161
-191.202	-200.000	0.004	-0.308
-190.187	-200.000	-0.002	0.059
-189.173	130.953	0.185	0.233
-188.158	-200.000	-0.044	0.284
-187.144	520.608	-0.078	0.181
-186.129	-72.025	-0.168	0.062
-185.114	-50.513	-0.278	0.129
-184.100	-115.854	0.098	-0.018
-183.085	-126.574	0.199	-0.029
-182.071	691.021	0.099	-0.255
-181.056	-56.365	-0.188	0.082
-180.042	468.405	0.041	0.091
-179.027	-41.993	0.303	0.152
-178.012	599.646	0.070	-0.172
-176.998	-41.533	-0.199	-0.101
-175.983	496.362	0.056	0.126
-174.969	-110.612	0.054	-0.011
-173.954	89.349	0.091	0.099
-172.939	176.555	0.190	0.271
-171.925	-80.307	-0.202	0.066
-170.910	73.761	-0.162	0.167
-169.896	-97.940	-0.263	-0.067
-168.881	340.607	0.056	-0.108
-167.866	518.939	-0.105	-0.241
-166.852	126.756	0.091	-0.114
-165.837	-131.377	0.093	-0.012
-164.823	718.544	0.197	0.513
-163.808	14.777	-0.018	-0.014
-162.793	-200.000	-0.106	0.537
-161.779	-155.178	0.132	0.008
-160.764	-126.765	-0.248	0.036
-159.750	48.028	0.168	0.154
-158.735	800.000	-0.072	0.230
-157.720	-179.460	-0.171	-0.004
-156.706	385.431	-0.077	0.156
-155.691	119.300	0.071	0.087
-154.677	37.203	0.301	-0.262
-153.662	106.452	0.019	0.022
-152.647	147.227	0.289	-0.382
-151.633	58.451	0.249	-0.240
-150.618	800.000	-0.024	-0.086
-149.604	-200.000	0.074	0.324
-148.589	-162.064	-0.287	0.014
-147.574	-155.807	-0.440	0.028
-146.560	-7.211	-0.139	0.092
-145.545	132.259	-0.062	0.079
-144.531	-148.108	-0.253	0.021
-143.516	-200.000	0.010	0.127
-142.502	-200.000	-0.045	0.211
-141.487	-114.936	-0.224	0.042
-140.472	193.263	-0.178	-0.265
-139.458	-154.717	0.280	0.018
-138.443	96.497	-0.344	0.387
-137.429	577.363	0.045	-0.108
-136.414	242.378	-0.186	-0.305
-135.399	302.538	0.082	0.150
-134.385	800.000	0.061	0.250
-133.370	291.896	0.034	0.061
-132.356	800.000	0.056	-0.184
-131.341	-77.178	0.237	0.081
-130.326	113.819	-0.073	0.087
-129.312	144.829	0.179	-0.235
-128.297	-76.275	0.093	-0.032
-127.283	-77.214	0.136	0.046
-126.268	128.200	0.085	-0.106
-125.253	-200.000	-0.014	0.188
-124.239	18.258	-0.159	0.124
-123.224	618.303	-0.043	-0.107
-122.210	-200.000	-0.028	-0.130
-121.195	800.000	-0.053	-0.202
