DTS Sentinel unit serial number:	SN413079Multiplexer serial number:	ORYXHardware model number:	OX4-SRSoftware version number:	ORYX F/W v4.00 Oryx Data Collector v3.7.2.0data status	okinstallation	princeton_trtdifferential loss correction	single-endedforward channel	channel 1reverse channel	N/Adate	2019/09/18time	02:50:35forward acquisition time	60.00reverse acquisition time	0.00gamma	496.2192k internal	0.2341k external	0.2341temperature offset calibration	0.9974default loss term (dB/km)	0.3790temperature slope calibration	1.0000multiplexer offset coefficient	1.0000multiplexer slope coefficient	1.0000fibre end	0.00T internal ref (°C)	22.77T ext. ref 1 (°C)	0.17T ext. ref 2 (°C)	16.60length (m)	temperature (°C)	Stokes	anti-Stokes-747.200	-2.028	0.208	-0.146
-746.185	-200.000	0.011	0.163
-745.171	-200.000	0.005	0.300
-744.156	-30.624	-0.172	0.097
-743.142	100.079	0.068	0.079
-742.127	67.931	-0.327	-0.335
-741.112	-200.000	-0.017	-0.081
-740.098	-108.468	-0.345	-0.074
-739.083	-120.733	-0.135	0.023
-738.069	425.377	-0.146	0.316
-737.054	-0.635	-0.346	0.246
-736.039	800.000	-0.083	-0.230
-735.025	165.502	0.306	0.434
-734.010	526.717	0.052	-0.122
-732.996	53.959	-0.226	-0.218
-731.981	-200.000	-0.058	-0.304
-730.966	-200.000	-0.043	-0.246
-729.952	-200.000	0.042	-0.217
-728.937	-200.000	0.008	-0.134
-727.923	65.352	-0.272	-0.275
-726.908	653.067	-0.063	-0.162
-725.894	-51.135	0.161	-0.076
-724.879	-200.000	0.011	-0.184
-723.864	-51.110	-0.471	-0.221
-722.850	187.795	0.210	-0.315
-721.835	-200.000	-0.035	-0.153
-720.821	-94.949	0.293	0.079
-719.806	136.749	0.069	0.090
-718.791	-119.759	-0.348	-0.060
-717.777	-61.305	0.308	0.130
-716.762	-97.021	-0.383	0.101
-715.748	-93.549	0.100	-0.028
-714.733	-37.766	0.066	-0.035
-713.718	143.840	-0.233	-0.311
-712.704	-112.539	-0.243	-0.048
-711.689	-109.434	-0.184	-0.039
-710.675	100.680	0.132	-0.154
-709.660	-81.511	0.328	0.108
-708.645	-200.000	-0.009	-0.394
-707.631	-113.462	0.140	-0.027
-706.616	-200.000	-0.013	-0.097
-705.602	-131.549	0.210	-0.028
-704.587	78.142	-0.084	0.089
-703.572	29.256	-0.127	0.108
-702.558	-16.443	0.049	0.031
-701.543	-200.000	-0.024	-0.174
-700.529	-126.884	-0.070	0.010
-699.514	-108.254	-0.365	-0.079
-698.499	140.282	0.039	-0.052
-697.485	268.800	-0.213	-0.373
-696.470	-37.414	0.203	-0.108
-695.456	-68.370	-0.184	0.071
-694.441	-25.845	-0.090	-0.053
-693.426	-64.323	-0.241	0.098
-692.412	-152.271	-0.354	-0.026
-691.397	120.451	0.071	-0.088
-690.383	-34.620	-0.146	0.080
-689.368	-51.499	0.317	0.148
-688.354	0.814	-0.141	-0.101
-687.339	-169.446	0.229	0.008
-686.324	-171.727	0.331	-0.011
-685.310	120.824	-0.112	-0.140
-684.295	-109.859	0.039	0.008
-683.281	631.873	-0.083	-0.210
-682.266	16.650	-0.185	-0.146
-681.251	78.756	0.223	-0.238
-680.237	75.438	-0.065	0.069
-679.222	-200.000	0.096	0.482
-678.208	-99.258	0.333	0.084
-677.193	62.034	-0.083	-0.082
-676.178	-108.973	-0.282	-0.060
-675.164	-186.421	0.180	0.003
-674.149	333.533	-0.073	-0.142
-673.135	239.260	-0.059	-0.098
-672.120	296.855	-0.117	0.214
-671.105	800.000	0.065	0.270
-670.091	88.079	-0.216	0.240
-669.076	-200.000	-0.052	-0.388
-668.062	320.699	0.126	-0.240
-667.047	500.454	0.116	-0.267
-666.032	293.006	-0.130	0.237
-665.018	-131.240	0.281	-0.037
-664.003	-94.603	0.115	-0.031
-662.989	257.973	-0.266	0.458
-661.974	234.133	0.107	0.176
-660.959	-62.625	0.121	-0.050
-659.945	-109.450	-0.133	-0.028
-658.930	541.105	-0.071	-0.169
-657.916	-137.459	-0.202	0.023
-656.901	528.907	-0.038	-0.089
-655.886	-116.482	0.046	0.008
-654.872	439.584	-0.104	0.228
-653.857	800.000	0.103	-0.308
-652.843	-200.000	-0.019	0.167
-651.828	-33.345	-0.327	-0.181
-650.814	800.000	0.136	-0.548
-649.799	588.204	-0.095	0.233
-648.784	288.360	-0.219	0.395
-647.770	233.172	0.149	-0.245
-646.755	800.000	-0.054	0.153
-645.741	800.000	-0.079	-0.224
-644.726	-200.000	-0.028	0.144
-643.711	76.806	-0.223	-0.237
-642.697	-124.881	-0.303	-0.047
-641.682	-200.000	-0.054	0.289
-640.668	-200.000	0.003	0.195
-639.653	20.017	0.097	0.078
-638.638	81.019	-0.130	0.141
-637.624	38.031	0.134	0.119
-636.609	5.817	-0.054	-0.040
-635.595	-37.214	-0.116	-0.062
-634.580	-138.105	-0.238	-0.026
-633.565	177.763	-0.042	-0.062
-632.551	79.948	-0.092	0.099
-631.536	500.342	0.098	-0.226
-630.522	-58.243	-0.200	-0.087
-629.507	-22.053	-0.271	-0.164
-628.492	-77.617	0.141	0.049
-627.478	-200.000	0.060	-0.353
-626.463	37.393	-0.115	-0.102
-625.449	49.819	0.088	-0.082
-624.434	-117.626	-0.039	0.007
-623.419	96.783	-0.231	0.264
-622.405	-10.096	0.355	0.235
-621.390	-56.220	0.236	0.105
-620.376	800.000	-0.128	-0.431
-619.361	-200.000	-0.035	0.169
-618.346	-80.067	0.192	-0.064
-617.332	-97.198	0.148	-0.038
-616.317	-79.893	0.098	0.033
-615.303	152.728	0.060	0.081
-614.288	53.980	0.283	0.272
-613.273	-200.000	-0.002	0.084
-612.259	383.665	-0.090	-0.184
-611.244	17.622	0.079	0.063
-610.230	-200.000	-0.047	0.293
-609.215	-166.178	0.162	-0.007
-608.201	-200.000	-0.058	-0.256
-607.186	-9.355	-0.108	0.072
-606.171	180.277	-0.050	0.074
-605.157	257.852	-0.136	-0.233
-604.142	-154.483	-0.162	-0.011
-603.128	-90.791	0.169	0.049
-602.113	-114.621	-0.122	0.023
-601.098	-105.985	-0.170	-0.038
-600.084	194.471	0.058	-0.088
-599.069	594.860	0.077	-0.190
-598.055	-200.000	0.032	0.228
-597.040	-200.000	0.018	-0.391
-596.025	-200.000	0.044	-0.238
-595.011	-194.433	-0.375	-0.003
-593.996	-200.000	0.073	-0.410
-592.982	258.810	-0.144	0.247
-591.967	267.668	0.073	0.127
-590.952	800.000	-0.094	0.328
-589.938	-200.000	0.489	0.000
-588.923	-200.000	0.055	-0.358
-587.909	555.215	-0.065	0.156
-586.894	38.120	0.216	-0.191
-585.879	-57.017	-0.297	-0.130
-584.865	-129.592	-0.217	-0.030
-583.850	30.586	-0.143	-0.122
-582.836	-118.176	-0.354	-0.063
-581.821	-200.000	-0.025	-0.294
-580.806	-46.149	-0.095	-0.046
-579.792	-123.185	0.069	-0.011
-578.777	800.000	-0.049	0.183
-577.763	56.980	-0.301	-0.292
-576.748	-160.176	0.199	-0.011
-575.733	401.892	0.025	-0.053
-574.719	-156.140	-0.036	-0.002
-573.704	-200.000	-0.014	0.072
-572.690	-114.507	-0.113	-0.022
-571.675	800.000	0.042	0.144
-570.661	-200.000	0.016	-0.284
-569.646	121.313	-0.155	-0.192
-568.631	-200.000	0.003	-0.014
-567.617	333.175	0.101	0.194
-566.602	-82.394	0.250	0.081
-565.588	-10.100	-0.107	0.070
-564.573	-86.755	0.222	-0.067
-563.558	800.000	0.043	-0.121
-562.544	282.532	-0.047	0.083
-561.529	-40.895	0.077	0.040
-560.515	-92.721	0.069	0.019
-559.500	-200.000	-0.059	0.358
-558.485	487.856	-0.060	-0.137
-557.471	-200.000	0.017	0.074
-556.456	755.715	0.073	-0.196
-555.442	-113.251	0.406	-0.079
-554.427	-115.843	-0.296	-0.055
-553.412	-128.424	-0.293	0.041
-552.398	800.000	-0.031	0.118
-551.383	-1.623	-0.141	0.099
-550.369	-24.169	-0.227	-0.135
-549.354	-37.249	-0.143	0.076
-548.339	49.439	-0.204	0.191
-547.325	358.110	-0.047	0.094
-546.310	16.979	0.091	0.071
-545.296	47.455	-0.033	0.030
-544.281	-104.162	-0.129	0.030
-543.266	-59.693	-0.091	-0.039
-542.252	2.748	-0.362	0.261
-541.237	-112.281	0.233	-0.046
-540.223	-25.092	-0.134	-0.079
-539.208	-99.382	0.201	0.050
-538.193	-200.000	0.009	0.168
-537.179	-92.743	-0.147	0.041
-536.164	129.010	0.045	-0.058
-535.150	415.895	-0.080	0.169
-534.135	-36.270	-0.096	-0.051
-533.121	-200.000	0.070	-0.366
-532.106	-83.853	-0.433	-0.137
-531.091	-120.598	-0.141	0.024
-530.077	-12.277	-0.408	-0.265
-529.062	-200.000	0.010	0.221
-528.048	74.939	-0.135	-0.141
-527.033	517.341	-0.086	-0.200
-526.018	-200.000	0.037	-0.235
-525.004	800.000	0.056	0.229
-523.989	95.554	-0.194	0.220
-522.975	-47.709	-0.089	0.043
-521.960	38.735	0.322	0.286
-520.945	-66.176	-0.340	-0.135
-519.931	226.617	0.169	0.273
-518.916	800.000	-0.041	-0.133
-517.902	567.712	0.013	-0.031
-516.887	623.832	0.079	0.198
-515.872	-15.238	0.280	-0.178
-514.858	77.032	0.205	0.216
-513.843	-78.052	-0.266	0.091
-512.829	-145.422	-0.262	-0.023
-511.814	95.627	0.146	-0.165
-510.799	-152.362	-0.111	-0.008
-509.785	-115.723	-0.287	0.053
-508.770	-43.714	0.324	-0.162
-507.756	95.166	0.080	0.090
-506.741	-152.496	-0.133	-0.009
-505.726	-104.222	-0.168	-0.039
-504.712	3.446	0.080	0.058
-503.697	339.832	0.090	0.175
-502.683	-164.248	0.093	-0.004
-501.668	-146.164	0.112	0.010
-500.653	-139.589	-0.419	-0.044
-499.639	-2.158	-0.214	-0.149
-498.624	800.000	0.065	-0.181
-497.610	65.270	0.221	0.222
-496.595	-102.704	0.211	0.050
-495.581	80.997	-0.163	0.175
-494.566	-26.399	-0.226	0.132
-493.551	800.000	-0.065	-0.183
-492.537	800.000	0.069	-0.255
-491.522	305.305	-0.066	-0.122
-490.508	425.502	0.147	0.313
-489.493	-91.055	-0.033	-0.009
-488.478	292.240	-0.084	-0.153
-487.464	304.584	0.242	0.445
-486.449	800.000	-0.062	-0.267
-485.435	-82.527	-0.178	0.057
-484.420	800.000	-0.098	-0.329
-483.405	-200.000	-0.005	-0.101
-482.391	-200.000	-0.037	0.294
-481.376	57.456	0.122	0.118
-480.362	-16.159	-0.478	-0.301
-479.347	-32.633	-0.240	-0.133
-478.332	42.875	0.238	-0.215
-477.318	-200.000	-0.029	-0.157
-476.303	800.000	0.057	0.235
-475.289	-6.058	-0.436	0.296
-474.274	323.677	0.211	0.400
-473.259	-114.125	0.167	0.032
-472.245	465.744	0.119	-0.265
-471.230	-170.320	-0.312	-0.011
-470.216	334.361	0.201	0.385
-469.201	-74.122	-0.460	0.165
-468.186	12.018	-0.383	0.292
-467.172	-200.000	-0.017	0.299
-466.157	-60.566	0.417	0.176
-465.143	-200.000	0.017	-0.088
-464.128	-200.000	0.016	-0.317
-463.113	-93.367	-0.113	0.031
-462.099	432.257	-0.109	0.234
-461.084	311.958	-0.028	0.052
-460.070	290.313	-0.107	-0.192
-459.055	413.409	-0.093	-0.197
-458.040	-38.315	0.110	-0.058
-457.026	-200.000	-0.022	0.138
-456.011	-200.000	-0.088	-0.423
-454.997	800.000	0.072	-0.297
-453.982	152.655	0.196	0.266
-452.968	69.495	-0.121	-0.123
-451.953	-200.000	0.024	-0.118
-450.938	3.352	0.126	-0.091
-449.924	12.707	0.162	-0.124
-448.909	800.000	-0.018	-0.050
-447.895	-200.000	-0.028	0.145
-446.880	-36.777	0.198	-0.105
-445.865	-88.508	0.249	-0.073
-444.851	800.000	-0.053	-0.231
-443.836	-70.464	0.063	0.024
-442.822	60.907	0.149	0.146
-441.807	641.372	0.114	0.287
-440.792	-200.000	0.003	0.077
-439.778	201.825	-0.096	0.146
-438.763	-179.618	-0.174	-0.004
-437.749	75.350	-0.136	-0.143
-436.734	-92.072	-0.245	-0.068
-435.719	-54.529	0.104	-0.047
-434.705	-114.907	0.115	0.022
-433.690	-52.171	-0.148	-0.068
-432.676	-165.792	0.379	0.016
-431.661	-200.000	0.016	-0.283
-430.646	173.827	0.248	0.355
-429.632	-61.964	0.138	0.057
-428.617	-61.175	0.153	0.064
-427.603	-71.541	-0.142	-0.053
-426.588	4.728	0.083	-0.061
-425.573	241.422	0.133	-0.220
-424.559	710.121	0.094	0.245
-423.544	153.769	0.099	-0.134
-422.530	800.000	0.080	0.295
-421.515	21.898	-0.088	0.071
-420.500	-84.432	0.396	-0.124
-419.486	27.471	0.358	-0.298
-418.471	800.000	-0.057	-0.195
-417.457	59.396	-0.130	-0.127
-416.442	2.097	0.176	-0.126
-415.428	191.498	0.174	-0.259
-414.413	38.068	0.115	0.101
-413.398	63.954	-0.087	0.087
-412.384	-200.000	-0.055	0.357
-411.369	-154.358	-0.331	0.022
-410.355	-16.620	-0.214	0.134
-409.340	800.000	0.163	-0.499
-408.325	322.274	-0.090	0.169
-407.311	-118.098	-0.262	-0.046
-406.296	78.231	-0.193	-0.204
-405.282	800.000	-0.074	-0.211
-404.267	-171.826	0.161	-0.005
-403.252	777.462	-0.018	-0.048
-402.238	-135.145	-0.178	-0.021
-401.223	653.368	0.139	-0.353
-400.209	-200.000	0.020	0.185
-399.194	-64.241	-0.248	0.100
-398.179	800.000	-0.032	0.115
-397.165	116.839	-0.199	0.242
-396.150	-200.000	-0.003	0.104
-395.136	-27.306	0.231	0.133
-394.121	-200.000	0.001	-0.023
-393.106	8.481	0.118	0.088
-392.092	800.000	-0.008	-0.026
-391.077	137.651	0.091	0.118
-390.063	426.875	-0.123	0.263
-389.048	-200.000	0.055	0.361
-388.033	-101.983	-0.343	-0.082
-387.019	509.541	0.148	0.340
-386.004	75.135	0.162	0.169
-384.990	800.000	0.039	-0.160
-383.975	-110.809	-0.300	0.061
-382.960	800.000	-0.067	-0.215
-381.946	274.405	0.094	0.165
-380.931	-111.130	-0.347	-0.070
-379.917	66.963	0.128	0.129
-378.902	71.010	-0.057	-0.058
-377.888	-0.129	-0.198	-0.139
-376.873	-200.000	-0.061	-0.269
-375.858	-27.071	-0.204	0.117
-374.844	38.481	0.029	0.025
-373.829	-71.003	-0.072	-0.027
-372.815	-200.000	-0.006	0.178
-371.800	143.647	-0.058	-0.076
-370.785	800.000	-0.023	-0.087
-369.771	-86.270	-0.175	-0.053
-368.756	-54.649	0.171	-0.077
-367.742	-95.528	0.238	0.063
-366.727	35.912	0.054	0.047
-365.712	158.921	0.004	0.006
-364.698	-183.971	-0.263	0.004
-363.683	558.704	0.152	-0.362
-362.669	-200.000	0.005	0.301
-361.654	199.689	-0.083	0.126
-360.639	800.000	0.044	0.186
-359.625	380.706	0.127	-0.258
-358.610	373.337	-0.084	0.170
-357.596	-89.042	0.237	0.069
-356.581	23.448	-0.202	0.164
-355.566	257.071	-0.136	-0.231
-354.552	93.158	0.093	0.104
-353.537	-57.824	0.072	-0.031
-352.523	-120.173	0.142	0.024
-351.508	-200.000	0.007	0.100
-350.493	96.960	0.097	0.110
-349.479	144.955	0.104	-0.137
-348.464	372.224	-0.091	-0.182
-347.450	-51.140	-0.062	0.028
-346.435	613.482	0.140	0.346
-345.420	118.677	0.246	0.300
-344.406	84.218	0.150	-0.162
-343.391	800.000	0.070	-0.216
-342.377	50.558	-0.192	0.179
-341.362	-151.087	0.187	-0.014
-340.348	597.587	0.034	-0.083
-339.333	164.602	0.137	-0.191
-338.318	800.000	-0.115	-0.350
-337.304	-151.363	-0.030	0.002
-336.289	101.289	0.120	0.138
-335.275	272.001	0.081	0.141
-334.260	-200.000	-0.039	0.198
-333.245	-200.000	0.009	0.085
-332.231	-61.986	0.240	0.099
-331.216	-67.362	0.458	-0.178
-330.202	406.561	-0.025	-0.051
-329.187	-200.000	-0.003	0.081
-328.172	-11.992	0.184	-0.119
-327.158	35.068	0.123	-0.106
-326.143	-87.021	0.136	0.041
-325.129	-160.818	0.152	-0.008
-324.114	141.541	0.117	0.153
-323.099	-124.060	-0.289	-0.045
-322.085	183.794	0.129	0.188
-321.070	800.000	0.053	0.200
-320.056	113.627	0.154	-0.184
-319.041	-199.073	-0.135	0.001
-318.026	171.195	0.029	-0.042
-317.012	-200.000	0.010	-0.209
-315.997	-97.852	-0.008	0.002
-314.983	-139.268	0.249	0.026
-313.968	295.649	-0.104	-0.187
-312.953	-37.045	0.206	0.109
-311.939	-133.056	0.484	-0.061
-310.924	-68.547	-0.224	-0.086
-309.910	-14.052	-0.457	-0.291
-308.895	66.672	0.284	0.284
-307.880	-144.508	-0.249	-0.023
-306.866	123.383	0.125	0.154
-305.851	771.137	0.138	0.370
-304.837	-42.184	-0.123	0.062
-303.822	19.565	0.069	0.055
-302.807	146.645	0.201	0.266
-301.793	-200.000	0.040	0.304
-300.778	-51.981	0.247	0.113
-299.764	-200.000	-0.051	-0.234
-298.749	-78.594	-0.226	0.076
-297.735	800.000	0.049	-0.196
-296.720	-200.000	0.004	0.158
-295.705	-169.786	-0.060	0.002
-294.691	-71.409	0.060	0.022
-293.676	-101.149	0.429	0.103
-292.662	386.727	0.062	0.127
-291.647	-200.000	-0.036	-0.227
-290.632	156.263	0.184	-0.250
-289.618	64.384	0.124	-0.123
-288.603	386.713	0.104	-0.212
-287.589	-200.000	-0.021	0.111
-286.574	-200.000	-0.016	-0.078
-285.559	293.649	0.152	0.273
-284.545	-70.916	-0.510	-0.189
-283.530	105.381	0.093	0.108
-282.516	-200.000	0.011	0.336
-281.501	36.875	-0.030	-0.026
-280.486	-65.558	-0.186	0.073
-279.472	-171.323	-0.088	-0.003
-278.457	-99.543	-0.155	-0.038
-277.443	108.068	0.252	-0.296
-276.428	84.705	0.170	-0.183
-275.413	-42.658	0.163	-0.082
-274.399	-139.707	0.247	0.026
-273.384	412.207	0.047	0.098
-272.370	-200.000	0.270	-0.001
-271.355	86.743	0.116	0.126
-270.340	-200.000	0.009	-0.201
-269.326	55.647	-0.000	0.000
-268.311	28.470	0.248	-0.206
-267.297	534.051	0.112	-0.261
-266.282	141.108	-0.143	0.186
-265.267	-75.590	-0.132	-0.046
-264.253	800.000	-0.038	0.106
-263.238	87.106	0.149	-0.162
-262.224	40.161	0.053	0.047
-261.209	32.906	0.320	0.273
-260.195	-152.988	0.383	0.027
-259.180	-92.220	-0.132	0.037
-258.165	101.676	0.189	-0.217
-257.151	-92.157	-0.127	-0.035
-256.136	-48.763	-0.196	0.092
-255.122	97.599	0.301	-0.340
-254.107	-122.939	-0.255	0.040
-253.092	-120.247	-0.176	-0.029
-252.078	-95.812	-0.281	-0.074
-251.063	-74.631	-0.198	0.070
-250.049	-200.000	0.049	0.252
-249.034	-135.610	0.143	0.017
-248.019	28.500	0.103	0.085
-247.005	-9.214	-0.053	-0.035
-245.990	800.000	-0.072	-0.288
-244.976	-178.442	-0.102	-0.002
-243.961	-139.980	0.368	0.038
-242.946	-35.513	-0.117	-0.062
-241.932	396.127	-0.048	-0.099
-240.917	23.087	0.051	0.041
-239.903	212.136	0.047	0.073
-238.888	-13.376	-0.189	0.121
-237.873	-134.385	0.572	0.069
-236.859	-113.843	0.108	0.021
-235.844	-200.000	-0.028	-0.217
-234.830	-177.237	-0.205	-0.005
-233.815	394.198	-0.120	0.245
-232.800	440.805	0.016	-0.034
-231.786	-200.000	-0.056	-0.352
-230.771	-200.000	-0.026	0.408
-229.757	800.000	0.102	0.286
-228.742	356.008	-0.227	0.444
-227.727	101.637	0.029	-0.033
-226.713	74.002	0.170	0.175
-225.698	108.275	0.140	-0.164
-224.684	15.573	-0.297	0.229
-223.669	-200.000	-0.038	0.181
-222.655	-200.000	-0.055	-0.241
-221.640	229.202	0.287	-0.460
-220.625	-94.382	-0.066	-0.018
-219.611	-85.734	0.291	0.089
-218.596	-151.689	0.116	0.008
-217.582	162.670	-0.222	-0.305
-216.567	-146.446	-0.294	0.025
-215.552	-135.029	-0.065	-0.008
-214.538	247.179	-0.071	0.118
-213.523	800.000	-0.061	0.241
-212.509	-94.045	-0.243	-0.066
-211.494	-200.000	0.055	0.393
-210.479	89.076	-0.334	0.365
-209.465	113.039	-0.202	-0.241
-208.450	250.615	0.116	0.193
-207.436	-59.620	0.195	0.082
-206.421	47.059	-0.107	-0.098
-205.406	-200.000	0.031	-0.258
-204.392	328.411	-0.126	-0.238
-203.377	266.830	-0.090	-0.154
-202.363	-0.161	0.246	-0.172
-201.348	-200.000	0.029	0.199
-200.333	109.870	-0.183	-0.216
-199.319	182.823	-0.213	-0.308
-198.304	-151.862	0.121	0.009
-197.290	-200.000	0.003	0.230
-196.275	210.053	0.082	0.126
-195.260	261.747	0.040	0.069
-194.246	-44.212	0.413	0.203
-193.231	-178.707	-0.171	0.004
-192.217	-20.959	-0.021	-0.013
-191.202	204.233	0.172	0.262
-190.187	-19.480	0.216	0.131
-189.173	800.000	0.028	0.088
-188.158	-11.489	-0.210	-0.136
-187.144	37.256	0.210	-0.183
-186.129	-79.959	-0.292	-0.096
-185.114	-4.481	-0.122	0.083
-184.100	551.622	-0.066	0.156
-183.085	-98.221	-0.264	-0.067
-182.071	-83.702	0.154	0.048
-181.056	-147.840	-0.145	0.012
-180.042	84.907	0.158	-0.170
-179.027	444.674	0.107	0.230
-178.012	800.000	-0.069	-0.253
-176.998	13.559	0.241	0.183
-175.983	-10.141	0.306	-0.199
-174.969	800.000	0.075	-0.303
-173.954	-88.972	-0.050	0.014
-172.939	800.000	0.030	-0.121
-171.925	-115.782	0.273	0.050
-170.910	-95.410	0.234	-0.062
-169.896	-95.705	-0.117	-0.031
-168.881	800.000	-0.101	0.302
-167.866	16.254	-0.294	-0.227
-166.852	-32.243	0.104	-0.057
-165.837	-200.000	-0.039	0.227
-164.823	127.335	-0.250	-0.311
-163.808	-200.000	-0.024	0.294
-162.793	-68.309	-0.166	0.063
-161.779	701.305	0.160	-0.414
-160.764	-57.389	-0.089	0.038
-159.750	-200.000	0.034	-0.350
-158.735	85.436	0.069	-0.074
-157.720	-61.927	0.279	-0.114
-156.706	193.638	-0.192	-0.285
-155.691	-102.368	0.024	0.006
-154.677	-85.759	0.157	-0.048
-153.662	58.752	-0.075	0.072
-152.647	18.980	0.370	-0.290
-151.633	-200.000	0.009	0.179
-150.618	163.005	0.076	0.104
-149.604	203.557	-0.048	-0.073
-148.589	-50.478	-0.050	-0.023
-147.574	800.000	0.050	0.165
-146.560	800.000	0.054	0.170
-145.545	162.617	0.213	0.292
-144.531	-108.175	-0.056	0.012
-143.516	800.000	0.024	0.097
-142.502	-197.342	-0.342	-0.002
-141.487	800.000	0.070	0.294
-140.472	656.391	0.004	-0.011
-139.458	39.982	-0.068	-0.059
-138.443	-3.441	0.156	0.106
-137.429	-200.000	0.044	-0.296
-136.414	470.204	-0.082	-0.180
-135.399	-105.494	0.249	-0.055
-134.385	348.617	-0.123	0.237
-133.370	148.378	0.050	-0.065
-132.356	129.174	-0.136	-0.170
-131.341	-200.000	0.031	0.155
-130.326	699.295	-0.052	-0.134
-129.312	327.618	-0.013	-0.024
-128.297	87.749	0.134	-0.146
-127.283	666.800	-0.096	-0.243
-126.268	283.935	0.036	-0.063
-125.253	-200.000	-0.048	0.399
-124.239	254.071	-0.106	-0.178
-123.224	83.513	0.134	0.143
-122.210	-76.327	0.028	0.009
