DTS Sentinel unit serial number:	SN413079Multiplexer serial number:	ORYXHardware model number:	OX4-SRSoftware version number:	ORYX F/W v4.00 Oryx Data Collector v3.7.2.0data status	okinstallation	princeton_trtdifferential loss correction	single-endedforward channel	channel 1reverse channel	N/Adate	2019/09/12time	23:46:35forward acquisition time	60.00reverse acquisition time	0.00gamma	496.2192k internal	0.2328k external	0.2328temperature offset calibration	1.0152default loss term (dB/km)	0.3790temperature slope calibration	1.0000multiplexer offset coefficient	1.0000multiplexer slope coefficient	1.0000fibre end	0.00T internal ref (°C)	28.80T ext. ref 1 (°C)	3.77T ext. ref 2 (°C)	23.55length (m)	temperature (°C)	Stokes	anti-Stokes-747.200	800.000	-0.027	-0.083
-746.185	-16.766	0.344	0.219
-745.171	190.672	-0.075	-0.113
-744.156	800.000	0.024	0.101
-743.142	800.000	0.032	-0.113
-742.127	-138.712	-0.190	-0.021
-741.112	800.000	0.040	0.172
-740.098	7.048	0.203	0.153
-739.083	-68.813	-0.550	0.214
-738.069	126.499	0.112	0.143
-737.054	-121.280	0.110	-0.018
-736.039	-117.336	0.345	0.063
-735.025	-200.000	-0.005	0.428
-734.010	293.663	-0.125	-0.230
-732.996	-55.312	-0.181	-0.082
-731.981	-106.125	-0.157	-0.035
-730.966	271.321	0.177	-0.314
-729.952	-86.769	-0.241	-0.074
-728.937	-127.763	-0.410	-0.060
-727.923	199.259	-0.154	-0.238
-726.908	81.698	-0.123	-0.134
-725.894	-200.000	0.034	-0.234
-724.879	-200.000	0.002	0.164
-723.864	-138.008	-0.144	0.016
-722.850	-73.035	-0.163	0.060
-721.835	-128.607	-0.226	-0.032
-720.821	-200.000	-0.011	-0.061
-719.806	355.369	-0.069	-0.138
-718.791	4.205	-0.065	-0.048
-717.777	-200.000	-0.042	-0.268
-716.762	-200.000	0.014	0.245
-715.748	158.942	-0.316	-0.442
-714.733	-200.000	-0.013	0.122
-713.718	-77.309	0.213	0.074
-712.704	-200.000	-0.055	0.304
-711.689	-32.110	0.285	-0.160
-710.675	-146.499	-0.357	0.031
-709.660	-200.000	-0.048	-0.355
-708.645	508.205	0.154	-0.361
-707.631	-8.016	-0.251	0.170
-706.616	4.982	0.288	0.213
-705.602	477.815	0.075	-0.170
-704.587	54.404	0.229	0.221
-703.572	279.261	0.049	-0.088
-702.558	38.124	-0.165	0.148
-701.543	-125.441	0.206	-0.031
-700.529	-125.138	0.166	-0.026
-699.514	181.305	-0.287	-0.425
-698.499	-27.608	0.292	-0.171
-697.485	800.000	-0.108	-0.393
-696.470	800.000	-0.087	-0.277
-695.456	-174.169	0.314	0.009
-694.441	389.519	-0.063	-0.131
-693.426	478.726	-0.063	-0.143
-692.412	-109.598	-0.087	0.019
-691.397	800.000	-0.034	0.109
-690.383	217.455	-0.117	0.187
-689.368	-86.133	0.125	0.039
-688.354	32.695	-0.039	0.034
-687.339	-162.178	0.068	-0.003
-686.324	-69.820	0.084	0.032
-685.310	-114.921	0.405	-0.078
-684.295	108.469	-0.119	0.143
-683.281	800.000	-0.123	-0.468
-682.266	529.707	-0.107	-0.255
-681.251	-100.370	-0.126	-0.031
-680.237	44.141	-0.066	-0.061
-679.222	-200.000	-0.062	-0.373
-678.208	-200.000	0.006	0.159
-677.193	360.430	0.163	-0.329
-676.178	-200.000	-0.106	-0.000
-675.164	253.540	0.030	-0.052
-674.149	-102.950	-0.463	-0.111
-673.135	376.815	-0.262	0.538
-672.120	-89.937	-0.247	0.072
-671.105	-200.000	0.034	-0.523
-670.091	-200.000	-0.018	-0.144
-669.076	-132.586	0.202	-0.026
-668.062	-200.000	-0.038	-0.398
-667.047	-29.143	-0.460	-0.265
-666.032	45.238	0.058	-0.054
-665.018	-46.489	0.153	0.075
-664.003	800.000	-0.048	0.164
-662.989	305.075	0.098	-0.183
-661.974	21.503	-0.087	0.071
-660.959	-117.183	-0.163	-0.030
-659.945	120.604	0.242	-0.303
-658.930	-5.377	-0.140	-0.097
-657.916	-131.790	-0.076	-0.010
-656.901	-77.255	0.209	-0.073
-655.886	32.584	0.036	-0.031
-654.872	-200.000	-0.029	-0.185
-653.857	140.324	0.117	0.155
-652.843	-74.518	0.265	0.096
-651.828	44.442	0.131	-0.121
-650.814	546.494	0.045	0.109
-649.799	212.990	-0.084	0.133
-648.784	517.343	-0.215	0.505
-647.770	131.804	-0.221	-0.286
-646.755	-143.213	-0.287	0.028
-645.741	123.122	0.143	-0.180
-644.726	-94.748	-0.342	0.093
-643.711	800.000	0.133	-0.396
-642.697	-59.917	0.141	0.060
-641.682	-200.000	-0.003	-0.104
-640.668	399.186	0.089	0.188
-639.653	186.553	0.104	0.155
-638.638	-200.000	0.009	0.118
-637.624	-62.409	-0.170	-0.071
-636.609	800.000	0.021	-0.084
-635.595	5.434	0.122	-0.091
-634.580	447.046	-0.090	0.198
-633.565	381.601	0.214	-0.440
-632.551	-16.574	-0.189	-0.120
-631.536	-34.091	-0.143	0.079
-630.522	7.710	0.340	0.255
-629.507	14.766	0.179	0.141
-628.492	800.000	0.044	-0.124
-627.478	-176.463	0.198	0.005
-626.463	-101.115	0.234	0.058
-625.449	516.684	0.137	-0.322
-624.434	-95.437	0.141	0.038
-623.419	52.103	0.161	-0.153
-622.405	225.589	0.200	-0.325
-621.390	-50.775	-0.381	0.180
-620.376	-69.500	0.185	0.071
-619.361	-69.825	-0.347	-0.133
-618.346	487.793	0.086	0.196
-617.332	-51.851	0.153	0.072
-616.317	30.361	0.228	-0.195
-615.303	2.229	-0.251	-0.182
-614.288	8.579	0.190	-0.143
-613.273	-48.064	-0.328	-0.159
-612.259	-200.000	0.047	-0.282
-611.244	-126.712	0.151	0.022
-610.230	-102.328	-0.253	-0.061
-609.215	260.439	-0.146	0.254
-608.201	-102.213	0.055	0.013
-607.186	4.900	-0.178	0.131
-606.171	-91.706	-0.133	-0.038
-605.157	-127.106	-0.422	-0.062
-604.142	88.979	0.307	-0.342
-603.128	109.159	0.158	-0.190
-602.113	-200.000	-0.017	-0.290
-601.098	111.187	0.244	0.294
-600.084	60.206	0.104	0.103
-599.069	-177.487	-0.040	0.001
-598.055	132.148	-0.096	-0.124
-597.040	-200.000	-0.048	-0.248
-596.025	-200.000	-0.065	-0.483
-595.011	242.971	-0.078	0.130
-593.996	66.192	0.284	0.288
-592.982	60.520	-0.048	-0.048
-591.967	-103.317	0.295	-0.070
-590.952	-59.998	-0.205	-0.088
-589.938	-122.785	-0.126	-0.020
-588.923	-166.688	-0.224	0.009
-587.909	4.548	0.086	0.064
-586.894	800.000	0.020	0.082
-585.879	-90.777	0.198	0.057
-584.865	543.657	-0.101	-0.242
-583.850	-200.000	-0.002	0.170
-582.836	492.968	-0.022	0.049
-581.821	-102.612	0.061	-0.015
-580.806	-200.000	0.007	-0.039
-579.792	-200.000	-0.228	0.001
-578.777	-98.506	-0.315	0.081
-577.763	-10.399	-0.242	-0.161
-576.748	421.064	0.063	-0.135
-575.733	-113.496	0.146	0.029
-574.719	794.791	0.066	-0.181
-573.704	-200.000	0.020	-0.213
-572.690	210.082	0.163	-0.256
-571.675	252.295	-0.141	-0.240
-570.661	-12.115	0.163	-0.107
-569.646	-121.312	0.247	0.041
-568.631	-95.727	-0.097	0.026
-567.617	-160.152	-0.331	0.018
-566.602	-156.577	0.336	0.021
-565.588	-114.951	-0.239	0.046
-564.573	298.694	0.142	-0.261
-563.558	800.000	0.096	0.280
-562.544	-5.605	-0.415	0.284
-561.529	-200.000	-0.021	0.204
-560.515	-27.767	0.343	0.199
-559.500	121.374	0.037	-0.046
-558.485	-64.420	0.094	-0.038
-557.471	589.388	-0.105	0.259
-556.456	-20.795	-0.144	0.088
-555.442	21.424	-0.034	-0.028
-554.427	161.615	-0.239	0.335
-553.412	49.427	0.215	0.203
-552.398	153.220	-0.094	-0.129
-551.383	-67.292	0.252	0.099
-550.369	-28.494	-0.308	-0.178
-549.354	-98.611	-0.469	-0.120
-548.339	665.657	-0.023	0.060
-547.325	26.968	-0.030	0.025
-546.310	170.870	0.184	0.264
-545.296	436.716	-0.095	-0.206
-544.281	-200.000	-0.033	-0.273
-543.266	-200.000	-0.005	0.125
-542.252	328.548	0.015	-0.028
-541.237	191.256	0.100	-0.150
-540.223	800.000	-0.059	0.225
-539.208	0.856	-0.208	-0.149
-538.193	-19.215	0.221	-0.137
-537.179	208.379	0.131	0.205
-536.164	-125.532	-0.050	-0.008
-535.150	-29.327	0.097	-0.055
-534.135	-53.692	0.339	-0.155
-533.121	-28.606	-0.167	-0.096
-532.106	-118.022	-0.080	0.014
-531.091	-83.571	0.203	0.065
-530.077	-126.722	0.123	0.018
-529.062	-136.113	-0.261	0.031
-528.048	-24.929	0.240	-0.142
-527.033	-140.970	0.135	0.014
-526.018	-147.917	0.204	-0.017
-525.004	-170.327	-0.313	0.011
-523.989	-200.000	-0.010	0.134
-522.975	-200.000	0.010	0.240
-521.960	-189.220	-0.067	-0.001
-520.945	-82.693	0.174	-0.056
-519.931	-200.000	-0.009	0.081
-518.916	-10.717	-0.284	-0.188
-517.902	69.943	0.216	-0.222
-516.887	138.883	-0.275	0.361
-515.872	2.400	-0.048	0.035
-514.858	-96.505	-0.095	0.025
-513.843	-110.743	-0.105	-0.022
-512.829	29.390	0.094	0.080
-511.814	40.026	0.112	-0.101
-510.799	270.135	0.187	-0.328
-509.785	-152.641	0.253	-0.018
-508.770	-95.390	-0.244	-0.065
-507.756	-153.708	-0.055	-0.004
-506.741	103.842	0.147	-0.173
-505.726	-103.125	0.089	-0.021
-504.712	-45.483	0.113	-0.056
-503.697	798.469	-0.035	0.096
-502.683	-51.416	0.185	0.087
-501.668	106.871	0.213	-0.252
-500.653	742.605	-0.052	-0.140
-499.639	-37.625	-0.232	-0.123
-498.624	-85.112	-0.392	-0.123
-497.610	-198.609	0.150	0.001
-496.595	141.869	0.022	-0.029
-495.581	-130.900	0.215	-0.029
-494.566	200.092	0.111	-0.170
-493.551	800.000	0.070	0.253
-492.537	523.912	0.079	0.186
-491.522	-101.685	-0.113	0.027
-490.508	-98.130	-0.373	0.096
-489.493	-52.471	-0.129	-0.060
-488.478	73.909	-0.090	-0.095
-487.464	72.531	0.034	-0.035
-486.449	-86.380	-0.505	-0.155
-485.435	-14.737	0.242	0.155
-484.420	58.160	-0.077	-0.076
-483.405	-119.261	0.089	-0.015
-482.391	-200.000	0.002	-0.042
-481.376	-17.689	0.265	0.166
-480.362	-163.929	-0.159	0.007
-479.347	-200.000	-0.034	-0.278
-478.332	41.022	0.111	0.100
-477.318	2.304	-0.101	0.073
-476.303	-30.546	0.203	-0.115
-475.289	800.000	-0.138	-0.397
-474.274	164.474	-0.319	0.449
-473.259	285.003	-0.069	-0.123
-472.245	89.259	0.140	0.156
-471.230	133.837	-0.238	0.307
-470.216	-151.878	0.344	-0.025
-469.201	-75.739	0.330	0.117
-468.186	307.813	-0.143	-0.266
-467.172	800.000	-0.068	0.237
-466.157	727.587	-0.060	0.159
-465.143	329.126	-0.095	-0.181
-464.128	800.000	-0.039	-0.158
-463.113	-103.223	-0.168	-0.040
-462.099	-200.000	0.024	0.159
-461.084	-21.940	-0.215	-0.130
-460.070	-79.122	0.369	-0.125
-459.055	-88.519	0.227	-0.067
-458.040	-200.000	-0.013	0.133
-457.026	-105.535	0.351	-0.079
-456.011	27.306	0.067	-0.056
-454.997	276.056	0.232	0.411
-453.982	-56.879	0.066	-0.029
-452.968	-109.247	-0.102	0.022
-451.953	565.041	-0.104	-0.251
-450.938	-68.701	0.173	0.067
-449.924	492.396	0.134	0.306
-448.909	-200.000	-0.017	0.084
-447.895	-84.803	0.082	0.026
-446.880	-105.749	-0.145	-0.033
-445.865	-200.000	-0.016	-0.141
-444.851	49.205	-0.129	0.120
-443.836	-16.243	-0.525	-0.332
-442.822	14.868	-0.126	0.098
-441.807	17.435	0.071	0.056
-440.792	800.000	0.179	-0.526
-439.778	800.000	0.045	0.198
-438.763	-200.000	0.022	0.103
-437.749	-82.580	-0.087	-0.028
-436.734	-200.000	-0.044	-0.247
-435.719	-200.000	0.009	-0.310
-434.705	-5.724	-0.211	-0.144
-433.690	-40.335	-0.203	-0.105
-432.676	42.296	0.054	-0.049
-431.661	-49.539	-0.272	-0.129
-430.646	666.611	-0.133	0.342
-429.632	-3.336	-0.153	-0.106
-428.617	34.853	0.141	0.123
-427.603	461.300	0.084	0.187
-426.588	-109.807	-0.209	-0.044
-425.573	-200.000	0.018	-0.272
-424.559	29.506	0.209	0.177
-423.544	28.562	0.108	0.091
-422.530	108.175	-0.086	0.102
-421.515	178.747	0.074	0.108
-420.500	-27.947	0.026	-0.015
-419.486	800.000	-0.077	0.248
-418.471	-88.732	0.233	-0.069
-417.457	-93.289	-0.242	0.067
-416.442	0.701	-0.138	0.098
-415.428	-200.000	-0.050	-0.338
-414.413	-80.698	0.339	-0.112
-413.398	-200.000	-0.020	0.215
-412.384	383.765	-0.203	-0.416
-411.369	-177.606	0.098	0.002
-410.355	800.000	0.054	0.229
-409.340	-122.208	0.226	0.037
-408.325	43.612	-0.083	0.075
-407.311	-182.933	-0.493	-0.009
-406.296	-200.000	0.005	-0.076
-405.282	8.462	-0.163	-0.122
-404.267	37.184	-0.238	0.209
-403.252	157.546	-0.038	0.053
-402.238	48.787	-0.210	0.196
-401.223	305.858	-0.136	0.251
-400.209	75.814	-0.186	0.195
-399.194	-59.493	-0.251	-0.107
-398.179	-200.000	-0.006	-0.066
-397.165	800.000	0.075	0.266
-396.150	-200.000	-0.015	0.371
-395.136	-80.041	-0.296	0.099
-394.121	-62.853	0.185	0.076
-393.106	-88.481	0.208	-0.062
-392.092	106.172	-0.072	-0.084
-391.077	-36.481	0.116	-0.062
-390.063	583.809	0.049	0.120
-389.048	-200.000	0.018	0.095
-388.033	-136.378	-0.393	-0.045
-387.019	-43.733	0.210	-0.105
-386.004	15.980	-0.169	-0.132
-384.990	-154.347	-0.271	-0.018
-383.975	-1.500	0.080	0.056
-382.960	800.000	-0.030	0.114
-381.946	-200.000	0.019	-0.147
-380.931	-138.207	0.228	0.025
-379.917	-90.347	0.138	-0.040
-378.902	289.705	0.100	0.180
-377.888	-31.041	-0.247	0.138
-376.873	-2.476	0.136	0.095
-375.858	-74.675	-0.272	0.097
-374.844	-89.403	-0.144	0.042
-373.829	103.944	0.112	0.131
-372.815	-85.405	0.393	0.122
-371.800	-102.781	-0.445	-0.105
-370.785	-41.743	0.492	0.251
-369.771	-63.373	-0.136	0.056
-368.756	-32.886	0.221	-0.122
-367.742	-66.780	-0.249	-0.098
-366.727	-200.000	0.008	-0.208
-365.712	-200.000	-0.020	0.189
-364.698	-142.569	0.221	0.022
-363.683	800.000	-0.059	-0.220
-362.669	-134.133	0.255	-0.031
-361.654	0.707	0.123	0.087
-360.639	-69.972	0.306	-0.116
-359.625	-200.000	0.049	0.314
-358.610	399.358	0.132	-0.274
-357.596	296.418	-0.163	0.296
-356.581	800.000	0.061	0.257
-355.566	-138.155	0.277	0.031
-354.552	-46.899	-0.143	-0.070
-353.537	-56.661	-0.329	-0.145
-352.523	-5.541	-0.329	0.224
-351.508	-115.200	0.125	0.023
-350.493	26.453	0.259	0.215
-349.479	800.000	0.077	-0.315
-348.464	-200.000	-0.001	-0.041
-347.450	611.062	-0.122	0.303
-346.435	675.147	0.106	-0.274
-345.420	267.974	-0.205	-0.356
-344.406	-200.000	0.021	-0.390
-343.391	-200.000	-0.041	-0.241
-342.377	-171.557	0.294	-0.010
-341.362	-136.981	-0.099	0.011
-340.348	42.036	0.234	-0.211
-339.333	-200.000	0.006	-0.058
-338.318	247.666	0.150	0.252
-337.304	25.102	0.202	-0.167
-336.289	-77.387	-0.303	-0.104
-335.275	-200.000	-0.014	0.099
-334.260	-48.046	-0.147	0.071
-333.245	99.522	-0.103	0.119
-332.231	228.154	0.149	-0.240
-331.216	-22.433	0.082	0.049
-330.202	8.874	-0.403	-0.301
-329.187	-42.988	0.134	-0.068
-328.172	-200.000	-0.032	-0.211
-327.158	46.443	0.235	0.216
-326.143	-185.327	-0.234	-0.004
-325.129	-66.684	0.228	0.090
-324.114	113.493	0.127	0.153
-323.099	93.996	-0.220	0.247
-322.085	-200.000	-0.017	0.080
-321.070	-24.650	0.258	0.152
-320.056	-145.490	-0.107	0.009
-319.041	413.268	-0.083	-0.176
-318.026	-39.743	-0.509	-0.264
-317.012	-22.553	-0.360	0.216
-315.997	-200.000	-0.007	-0.080
-314.983	-71.271	-0.087	0.032
-313.968	-126.801	0.344	0.050
-312.953	26.725	-0.140	-0.116
-311.939	-77.630	-0.113	-0.039
-310.924	13.351	0.291	-0.223
-309.910	-115.120	0.061	-0.011
-308.895	-200.000	-0.021	-0.196
-307.880	-200.000	0.028	-0.242
-306.866	75.617	-0.155	-0.162
-305.851	50.087	0.071	-0.067
-304.837	50.084	-0.163	0.152
-303.822	326.304	-0.040	-0.075
-302.807	288.697	-0.068	0.122
-301.793	-200.000	-0.002	0.209
-300.778	151.136	0.040	0.054
-299.764	245.942	0.066	-0.111
-298.749	168.195	0.094	-0.133
-297.735	29.861	0.230	0.194
-296.720	276.681	-0.124	0.218
-295.705	-142.201	0.218	0.021
-294.691	124.312	-0.163	-0.203
-293.676	155.041	-0.042	-0.057
-292.662	-143.185	0.182	0.017
-291.647	371.321	-0.127	-0.255
-290.632	-200.000	0.016	-0.225
-289.618	-87.835	0.307	0.091
-288.603	-200.000	0.059	0.324
-287.589	80.320	0.034	-0.036
-286.574	-102.447	-0.152	0.036
-285.559	32.667	-0.088	0.075
-284.545	-89.185	0.218	-0.064
-283.530	-100.279	0.263	-0.065
-282.516	216.127	0.017	-0.026
-281.501	-162.460	-0.121	0.006
-280.486	-100.337	-0.278	-0.068
-279.472	-90.491	-0.308	-0.088
-278.457	147.563	-0.103	-0.137
-277.443	131.055	0.083	-0.105
-276.428	-51.430	0.371	0.172
-275.413	-200.000	0.008	-0.101
-274.399	-156.372	0.118	-0.007
-273.384	158.377	-0.069	-0.095
-272.370	-109.449	-0.054	-0.011
-271.355	-52.895	-0.205	0.094
-270.340	-200.000	0.006	0.106
-269.326	-200.000	-0.039	0.230
-268.311	35.601	-0.224	0.195
-267.297	81.086	-0.009	-0.010
-266.282	-200.000	0.054	-0.340
-265.267	747.589	-0.058	0.154
-264.253	651.453	-0.097	0.245
-263.238	24.641	-0.110	-0.090
-262.224	-0.565	0.286	-0.201
-261.209	360.388	-0.123	0.243
-260.195	-139.228	-0.181	0.019
-259.180	-142.434	0.313	0.030
-258.165	550.799	0.126	0.298
-257.151	313.782	0.106	0.196
-256.136	-84.156	0.083	0.026
-255.122	287.966	0.182	0.325
-254.107	385.143	0.024	-0.048
-253.092	793.050	-0.074	-0.202
-252.078	-64.380	-0.165	-0.066
-251.063	-165.129	0.261	-0.011
-250.049	97.438	-0.130	-0.148
-249.034	29.995	-0.120	-0.101
-248.019	-57.602	0.462	0.200
-247.005	-19.974	-0.122	0.075
-245.990	44.782	0.183	-0.166
-244.976	800.000	-0.047	0.188
-243.961	-10.177	-0.281	0.185
-242.946	375.039	-0.025	0.050
-241.932	404.431	-0.070	-0.146
-240.917	741.310	0.121	-0.321
-239.903	800.000	-0.057	-0.176
-238.888	21.814	-0.216	0.174
-237.873	-115.038	-0.534	0.100
-236.859	169.253	0.268	0.378
-235.844	48.512	-0.084	0.078
-234.830	91.061	0.124	0.138
-233.815	800.000	0.035	0.144
-232.800	-200.000	-0.040	-0.321
-231.786	20.443	-0.291	-0.233
-230.771	-200.000	-0.025	0.123
-229.757	19.393	0.277	-0.220
-228.742	-72.099	0.170	-0.063
-227.727	-64.190	0.251	0.101
-226.713	-200.000	0.009	-0.109
-225.698	-200.000	0.001	-0.067
-224.684	-200.000	0.028	0.122
-223.669	-33.711	0.120	0.065
-222.655	-193.412	-0.103	0.001
-221.640	-93.629	0.251	-0.068
-220.625	518.050	-0.081	-0.188
-219.611	682.692	0.027	-0.070
-218.596	-38.010	0.124	0.065
-217.582	-200.000	-0.015	0.281
-216.567	-60.249	-0.163	0.069
-215.552	-132.544	0.195	-0.025
-214.538	800.000	0.036	0.136
-213.523	19.998	0.163	-0.130
-212.509	-108.226	-0.218	0.047
-211.494	93.009	0.284	0.317
-210.479	621.779	-0.061	0.150
-209.465	-200.000	-0.006	0.101
-208.450	-93.366	-0.268	-0.073
-207.436	-96.801	-0.149	-0.039
-206.421	-200.000	-0.010	0.076
-205.406	30.046	-0.240	-0.202
-204.392	35.269	0.144	-0.125
-203.377	3.469	-0.364	0.262
-202.363	676.915	0.085	0.219
-201.348	-163.997	0.318	-0.015
-200.333	-122.461	0.193	-0.031
-199.319	-200.000	0.568	0.000
-198.304	128.710	0.133	-0.168
-197.290	-58.055	0.307	0.132
-196.275	-141.091	0.077	-0.008
-195.260	-93.328	-0.266	0.073
-194.246	194.461	0.057	-0.085
-193.231	-44.729	0.553	0.272
-192.217	-37.764	-0.257	0.135
-191.202	301.031	-0.105	-0.191
-190.187	250.963	-0.066	-0.111
-189.173	-48.098	0.283	0.135
-188.158	85.256	-0.105	-0.114
-187.144	800.000	0.022	0.075
-186.129	-8.106	0.295	0.196
-185.114	800.000	0.029	-0.115
-184.100	-101.443	-0.237	0.057
-183.085	800.000	-0.016	-0.056
-182.071	-153.594	-0.355	0.024
-181.056	-200.000	-0.023	0.213
-180.042	430.872	0.139	-0.296
-179.027	764.246	0.091	0.245
-178.012	6.202	-0.085	0.063
-176.998	354.441	0.142	0.279
-175.983	-200.000	0.004	0.273
-174.969	221.113	-0.183	-0.289
-173.954	159.176	0.214	0.293
-172.939	180.451	-0.105	0.152
-171.925	142.227	0.090	0.118
-170.910	800.000	-0.093	0.358
-169.896	-121.776	-0.256	-0.042
-168.881	544.931	-0.043	-0.100
-167.866	118.908	-0.064	0.077
-166.852	-151.569	-0.105	0.008
-165.837	500.835	-0.027	0.062
-164.823	-28.091	0.090	0.051
-163.808	605.191	0.079	-0.195
-162.793	22.672	0.092	-0.074
-161.779	-12.374	0.162	-0.104
-160.764	293.000	0.048	0.086
-159.750	-4.864	0.291	-0.197
-158.735	12.887	0.250	-0.190
-157.720	98.867	0.032	-0.037
-156.706	-200.000	0.005	0.289
-155.691	109.511	-0.073	-0.086
-154.677	197.483	0.117	-0.175
-153.662	-70.111	-0.092	0.035
-152.647	279.524	-0.224	-0.393
-151.633	800.000	-0.125	0.455
-150.618	-41.213	-0.149	-0.075
-149.604	349.608	0.215	-0.419
-148.589	-200.000	-0.009	-0.207
-147.574	800.000	-0.068	0.252
-146.560	17.664	0.147	0.115
-145.545	22.285	-0.163	-0.131
-144.531	-200.000	0.002	0.106
-143.516	44.853	0.330	0.299
-142.502	-128.356	-0.232	0.032
-141.487	91.884	0.092	0.102
-140.472	387.107	-0.052	0.106
-139.458	344.621	0.081	0.157
-138.443	-25.053	0.197	0.115
-137.429	-156.882	0.263	-0.016
-136.414	305.889	-0.054	-0.098
-135.399	-87.480	-0.326	-0.097
-134.385	52.125	0.070	0.066
-133.370	5.824	-0.107	0.078
-132.356	148.440	0.133	0.176
-131.341	-200.000	-0.046	-0.548
-130.326	65.903	-0.137	0.137
-129.312	539.026	0.161	0.376
-128.297	-105.230	0.411	0.092
-127.283	800.000	-0.058	0.200
-126.268	-149.767	0.094	0.007
-125.253	-200.000	0.002	0.098
-124.239	-106.306	-0.178	-0.039
-123.224	-200.000	0.017	0.416
-122.210	-42.566	0.117	-0.059
-121.195	223.626	0.110	0.175
