DTS Sentinel unit serial number:	SN413079Multiplexer serial number:	ORYXHardware model number:	OX4-SRSoftware version number:	ORYX F/W v4.00 Oryx Data Collector v3.7.2.0data status	okinstallation	princeton_trtdifferential loss correction	single-endedforward channel	channel 1reverse channel	N/Adate	2019/09/17time	12:18:35forward acquisition time	60.00reverse acquisition time	0.00gamma	496.2192k internal	0.2320k external	0.2320temperature offset calibration	0.9977default loss term (dB/km)	0.3790temperature slope calibration	1.0000multiplexer offset coefficient	1.0000multiplexer slope coefficient	1.0000fibre end	0.00T internal ref (°C)	31.52T ext. ref 1 (°C)	0.43T ext. ref 2 (°C)	28.34length (m)	temperature (°C)	Stokes	anti-Stokes-747.200	288.301	0.110	0.201
-746.185	-171.828	0.031	-0.001
-745.171	-46.667	-0.034	0.017
-744.156	-98.393	0.279	0.072
-743.142	-84.048	-0.230	0.074
-742.127	-89.888	0.372	0.110
-741.112	-200.000	0.034	-0.245
-740.098	-200.000	-0.055	0.283
-739.083	-78.246	0.220	0.076
-738.069	800.000	0.082	0.280
-737.054	-87.947	0.026	0.008
-736.039	-200.000	0.020	0.269
-735.025	-136.388	0.279	-0.033
-734.010	-64.685	0.089	0.037
-732.996	-129.891	-0.310	0.043
-731.981	800.000	-0.034	-0.146
-730.966	72.559	0.148	-0.156
-729.952	435.044	-0.028	0.061
-728.937	-99.598	-0.238	-0.060
-727.923	800.000	0.027	-0.082
-726.908	85.987	-0.074	-0.082
-725.894	-27.595	-0.064	0.037
-724.879	-128.795	-0.237	0.034
-723.864	-168.748	0.234	0.009
-722.850	206.040	0.112	0.176
-721.835	83.844	0.161	0.178
-720.821	15.168	-0.281	0.223
-719.806	-109.183	0.077	0.017
-718.791	-67.490	-0.149	-0.059
-717.777	-200.000	-0.058	-0.392
-716.762	371.788	-0.031	-0.064
-715.748	800.000	-0.128	-0.475
-714.733	-200.000	-0.017	0.103
-713.718	204.854	-0.089	0.139
-712.704	-28.278	0.157	-0.091
-711.689	90.979	-0.322	0.364
-710.675	800.000	0.030	-0.095
-709.660	0.773	-0.039	0.028
-708.645	-126.120	-0.417	-0.063
-707.631	129.835	-0.035	-0.045
-706.616	800.000	-0.045	-0.164
-705.602	-200.000	0.018	-0.167
-704.587	-146.597	-0.061	0.005
-703.572	143.660	0.048	-0.065
-702.558	-68.034	0.142	-0.056
-701.543	13.786	-0.071	0.056
-700.529	86.097	-0.037	0.041
-699.514	-94.205	-0.277	0.077
-698.499	67.755	0.085	0.088
-697.485	289.482	0.205	-0.375
-696.470	260.643	-0.111	-0.193
-695.456	7.526	-0.452	-0.341
-694.441	-119.065	0.233	-0.041
-693.426	45.412	-0.155	-0.145
-692.412	45.802	0.089	-0.083
-691.397	-35.514	-0.091	0.050
-690.383	-98.429	-0.252	-0.065
-689.368	-158.159	0.073	0.004
-688.354	-42.745	-0.152	0.078
-687.339	518.711	-0.114	0.269
-686.324	50.182	0.084	0.081
-685.310	19.191	-0.120	0.097
-684.295	800.000	-0.103	0.328
-683.281	122.532	-0.214	-0.270
-682.266	233.275	0.116	0.193
-681.251	-42.401	0.135	0.070
-680.237	-167.022	0.292	-0.012
-679.222	-78.956	-0.289	-0.099
-678.208	-200.000	0.221	0.001
-677.193	-92.189	-0.153	-0.044
-676.178	800.000	-0.111	-0.412
-675.164	-108.313	-0.400	-0.087
-674.149	69.975	-0.131	-0.136
-673.135	800.000	-0.073	-0.264
-672.120	-74.939	0.392	-0.142
-671.105	100.636	-0.153	0.179
-670.091	-129.462	-0.377	-0.053
-669.076	-105.257	0.156	-0.036
-668.062	-100.536	-0.243	-0.061
-667.047	-58.614	-0.174	0.076
-666.032	-95.032	-0.110	-0.030
-665.018	12.483	0.095	-0.074
-664.003	241.052	0.096	-0.161
-662.989	109.577	0.138	0.167
-661.974	-132.421	0.261	0.034
-660.959	-83.522	-0.227	0.073
-659.945	99.355	-0.070	0.081
-658.930	-41.103	-0.183	-0.095
-657.916	800.000	0.122	0.464
-656.901	-13.859	0.168	-0.109
-655.886	-200.000	-0.063	-0.307
-654.872	246.204	-0.098	-0.167
-653.857	55.815	-0.175	0.171
-652.843	-200.000	0.020	-0.413
-651.828	-66.727	-0.316	-0.126
-650.814	17.186	-0.186	-0.149
-649.799	47.340	0.198	0.186
-648.784	56.618	0.323	-0.317
-647.770	-200.000	-0.052	-0.286
-646.755	242.905	0.007	0.011
-645.741	-33.563	0.259	-0.144
-644.726	-6.560	-0.356	-0.244
-643.711	-33.558	0.225	-0.125
-642.697	-117.382	-0.212	0.039
-641.682	35.017	-0.323	-0.285
-640.668	88.851	0.114	0.128
-639.653	-200.000	-0.022	-0.254
-638.638	85.408	0.152	-0.168
-637.624	-200.000	0.054	-0.466
-636.609	-93.291	-0.235	-0.066
-635.595	-83.114	0.234	0.076
-634.580	800.000	0.058	0.217
-633.565	29.969	0.074	-0.064
-632.551	-35.574	0.120	-0.066
-631.536	-128.505	-0.311	0.044
-630.522	196.971	-0.010	0.015
-629.507	18.275	-0.037	0.030
-628.492	207.059	-0.130	0.204
-627.478	48.984	-0.158	0.149
-626.463	-200.000	0.008	0.235
-625.449	800.000	-0.045	0.147
-624.434	800.000	-0.037	0.110
-623.419	82.071	-0.104	-0.114
-622.405	218.956	0.107	0.173
-621.390	-71.043	-0.492	-0.186
-620.376	-63.326	-0.287	-0.119
-619.361	-121.108	0.192	0.032
-618.346	341.647	-0.205	-0.403
-617.332	-3.314	-0.007	0.005
-616.317	-1.081	-0.355	0.252
-615.303	103.720	-0.081	0.096
-614.288	551.790	0.014	-0.034
-613.273	37.708	0.260	-0.233
-612.259	-200.000	-0.003	0.068
-611.244	-200.000	0.006	0.108
-610.230	-76.018	0.066	0.023
-609.215	-200.000	-0.016	0.239
-608.201	109.232	-0.091	0.110
-607.186	-44.269	0.301	0.152
-606.171	407.517	-0.103	0.218
-605.157	-25.510	-0.078	0.046
-604.142	305.114	0.095	-0.177
-603.128	-45.605	0.194	0.097
-602.113	-200.000	-0.020	-0.153
-601.098	800.000	-0.021	-0.076
-600.084	467.603	0.109	-0.247
-599.069	800.000	-0.066	-0.218
-598.055	340.831	-0.167	0.328
-597.040	710.731	-0.043	0.113
-596.025	-143.113	-0.156	-0.015
-595.011	188.539	-0.106	0.160
-593.996	800.000	-0.068	0.208
-592.982	-163.670	-0.085	0.004
-591.967	52.418	0.298	0.286
-590.952	407.028	-0.226	-0.481
-589.938	-177.533	0.253	-0.006
-588.923	-57.126	-0.290	0.128
-587.909	-122.028	-0.404	0.067
-586.894	514.095	-0.124	0.292
-585.879	-48.864	0.336	-0.162
-584.865	-200.000	-0.033	-0.158
-583.850	-200.000	0.008	0.057
-582.836	2.037	0.170	-0.123
-581.821	-121.581	-0.067	0.011
-580.806	171.744	-0.219	0.317
-579.792	-35.593	0.127	-0.069
-578.777	800.000	-0.072	0.202
-577.763	-200.000	0.052	-0.262
-576.748	173.956	-0.169	-0.246
-575.733	133.157	-0.026	0.034
-574.719	-129.322	-0.045	-0.006
-573.704	-48.627	0.224	-0.108
-572.690	-200.000	0.054	0.324
-571.675	506.747	-0.078	-0.181
-570.661	-145.745	-0.375	0.034
-569.646	-196.853	-0.070	0.000
-568.631	35.082	-0.167	-0.147
-567.617	72.337	-0.142	0.149
-566.602	195.948	-0.100	0.153
-565.588	-176.846	-0.233	-0.006
-564.573	-200.000	-0.021	-0.153
-563.558	-1.268	-0.076	0.054
-562.544	-101.708	-0.275	-0.067
-561.529	-200.000	-0.013	-0.092
-560.515	800.000	-0.022	0.060
-559.500	800.000	-0.062	0.235
-558.485	141.524	0.098	-0.130
-557.471	800.000	0.046	0.194
-556.456	-62.982	-0.272	-0.113
-555.442	70.982	-0.208	-0.217
-554.427	-200.000	-0.021	-0.147
-553.412	800.000	0.111	-0.334
-552.398	49.043	0.127	0.119
-551.383	601.006	0.061	-0.153
-550.369	-175.339	0.259	-0.007
-549.354	369.919	0.018	-0.036
-548.339	7.688	-0.225	-0.169
-547.325	-110.594	-0.281	-0.058
-546.310	-200.000	0.015	-0.315
-545.296	77.887	0.067	0.072
-544.281	-149.648	-0.184	-0.015
-543.266	-200.000	-0.042	-0.270
-542.252	-70.423	0.215	-0.082
-541.237	34.878	-0.332	-0.291
-540.223	-20.372	0.203	0.126
-539.208	51.909	-0.081	0.077
-538.193	388.369	-0.079	-0.164
-537.179	-200.000	-0.042	0.281
-536.164	800.000	-0.135	-0.440
-535.150	269.522	-0.055	0.096
-534.135	-39.714	-0.166	0.087
-533.121	116.660	0.291	0.358
-532.106	-200.000	-0.000	0.222
-531.091	-200.000	0.024	-0.394
-530.077	-78.955	-0.155	0.053
-529.062	800.000	0.033	-0.093
-528.048	-200.000	-0.003	-0.128
-527.033	-200.000	0.036	0.165
-526.018	561.096	-0.178	0.432
-525.004	-200.000	-0.024	0.322
-523.989	-200.000	0.026	-0.245
-522.975	-86.682	-0.112	-0.034
-521.960	800.000	0.038	0.158
-520.945	-0.771	0.236	-0.168
-519.931	-200.000	-0.038	-0.315
-518.916	532.653	-0.152	-0.360
-517.902	-200.000	-0.049	0.296
-516.887	18.023	0.046	-0.036
-515.872	-27.518	0.065	0.038
-514.858	462.608	-0.100	-0.224
-513.843	-51.793	-0.114	0.053
-512.829	100.808	0.163	0.190
-511.814	170.794	0.097	-0.139
-510.799	14.219	0.243	-0.190
-509.785	146.027	0.103	-0.138
-508.770	-200.000	-0.068	0.325
-507.756	-18.084	-0.374	-0.235
-506.741	-200.000	0.035	-0.274
-505.726	-109.230	-0.076	-0.016
-504.712	-117.592	0.142	-0.026
-503.697	-59.483	0.317	-0.136
-502.683	-200.000	-0.012	-0.082
-501.668	173.232	0.210	0.303
-500.653	157.812	0.100	-0.139
-499.639	160.863	0.054	0.076
-498.624	11.874	0.136	-0.105
-497.610	-200.000	0.056	0.364
-496.595	800.000	-0.112	-0.428
-495.581	-129.149	-0.075	-0.011
-494.566	-166.923	-0.094	-0.004
-493.551	-70.988	-0.267	0.101
-492.537	227.910	-0.031	0.051
-491.522	578.880	-0.113	-0.277
-490.508	685.178	0.039	0.103
-489.493	497.481	0.160	-0.368
-488.478	82.881	-0.049	-0.054
-487.464	800.000	-0.049	0.165
-486.449	151.530	-0.115	-0.157
-485.435	148.104	0.041	-0.056
-484.420	222.363	-0.040	-0.065
-483.405	-80.925	0.311	-0.103
-482.391	-200.000	0.001	0.119
-481.376	112.593	0.166	-0.202
-480.362	-18.416	-0.094	0.059
-479.347	-200.000	-0.046	-0.252
-478.332	-200.000	-0.033	-0.181
-477.318	-41.800	-0.192	-0.098
-476.303	244.003	-0.027	-0.045
-475.289	-200.000	-0.030	-0.362
-474.274	9.857	0.300	0.228
-473.259	299.726	0.093	0.171
-472.245	-39.458	0.220	0.116
-471.230	800.000	-0.092	-0.294
-470.216	-82.678	0.436	-0.141
-469.201	69.623	0.117	0.120
-468.186	-95.204	-0.208	-0.056
-467.172	-144.257	0.331	-0.031
-466.157	-107.051	-0.173	-0.038
-465.143	44.797	0.407	0.374
-464.128	-9.553	-0.170	-0.113
-463.113	218.803	-0.069	-0.110
-462.099	800.000	0.049	-0.188
-461.084	-172.714	-0.417	0.013
-460.070	-200.000	0.041	0.273
-459.055	-67.742	-0.247	0.097
-458.040	-200.000	-0.007	0.036
-457.026	-16.220	-0.096	0.061
-456.011	426.769	-0.148	0.319
-454.997	-200.000	-0.003	-0.362
-453.982	-107.209	0.352	-0.078
-452.968	286.685	0.120	-0.216
-451.953	-163.072	0.067	-0.003
-450.938	-200.000	-0.019	0.101
-449.924	116.369	-0.349	-0.427
-448.909	-200.000	0.011	-0.346
-447.895	-102.558	-0.171	0.041
-446.880	-200.000	-0.000	0.177
-445.865	-200.000	0.006	-0.074
-444.851	-128.937	0.152	-0.021
-443.836	273.985	0.187	-0.330
-442.822	127.999	0.143	-0.182
-441.807	-127.747	0.135	0.019
-440.792	-57.048	-0.274	0.121
-439.778	-129.092	-0.198	0.028
-438.763	108.693	-0.138	-0.164
-437.749	66.345	-0.229	-0.232
-436.734	-110.090	0.561	-0.117
-435.719	-49.606	-0.260	0.124
-434.705	800.000	0.019	0.062
-433.690	-200.000	0.016	0.166
-432.676	-200.000	0.011	0.333
-431.661	-89.748	-0.057	-0.017
-430.646	-124.805	0.369	0.057
-429.632	-200.000	-0.015	0.314
-428.617	565.641	-0.154	0.373
-427.603	-200.000	0.020	-0.260
-426.588	-94.923	0.057	0.015
-425.573	-176.994	-0.242	-0.006
-424.559	170.405	-0.038	-0.054
-423.544	-200.000	0.006	-0.072
-422.530	129.373	-0.190	0.242
-421.515	71.789	-0.154	0.160
-420.500	-86.664	0.167	0.051
-419.486	-146.229	0.294	-0.026
-418.471	-108.381	-0.157	0.034
-417.457	-200.000	-0.024	0.211
-416.442	-200.000	0.001	0.021
-415.428	206.654	-0.111	-0.172
-414.413	-195.363	-0.121	0.001
-413.398	-200.000	-0.044	-0.271
-412.384	-31.605	0.155	-0.087
-411.369	312.871	0.128	0.239
-410.355	-200.000	0.021	-0.308
-409.340	-160.090	-0.181	0.010
-408.325	28.876	0.144	0.122
-407.311	-200.000	0.002	0.202
-406.296	-129.569	0.255	0.035
-405.282	-75.134	0.099	-0.035
-404.267	800.000	0.020	-0.060
-403.252	-156.029	-0.280	0.018
-402.238	800.000	-0.038	0.129
-401.223	493.506	0.009	-0.020
-400.209	-200.000	-0.068	-0.302
-399.194	-97.342	-0.206	-0.053
-398.179	-200.000	0.035	0.359
-397.165	591.297	-0.103	0.254
-396.150	-108.339	0.139	0.030
-395.136	69.710	-0.109	0.112
-394.121	251.665	0.053	0.091
-393.106	-23.209	0.425	-0.255
-392.092	86.737	0.134	-0.148
-391.077	-200.000	0.007	-0.297
-390.063	-200.000	-0.016	-0.580
-389.048	-200.000	0.045	0.197
-388.033	135.539	-0.135	-0.175
-387.019	-200.000	0.084	0.428
-386.004	-180.536	0.144	-0.003
-384.990	-4.231	0.275	0.190
-383.975	-45.475	-0.115	0.057
-382.960	800.000	0.035	-0.123
-381.946	6.993	-0.034	0.025
-380.931	-13.351	0.164	-0.106
-379.917	39.032	0.168	0.150
-378.902	-200.000	-0.024	0.133
-377.888	90.059	-0.126	-0.140
-376.873	437.547	0.043	0.093
-375.858	17.756	-0.165	-0.131
-374.844	-200.000	0.016	-0.137
-373.829	800.000	-0.027	0.108
-372.815	-200.000	-0.003	0.079
-371.800	250.976	0.027	0.045
-370.785	395.990	-0.026	0.054
-369.771	-53.735	0.096	-0.044
-368.756	-65.278	-0.105	0.042
-367.742	345.404	0.160	0.314
-366.727	-91.679	0.268	-0.076
-365.712	58.034	-0.105	0.103
-364.698	-70.934	0.081	0.030
-363.683	800.000	0.149	0.462
-362.669	-200.000	-0.014	-0.262
-361.654	-84.506	0.173	0.054
-360.639	49.321	-0.074	-0.070
-359.625	267.074	0.022	0.039
-358.610	-35.192	0.041	-0.022
-357.596	14.500	0.054	-0.042
-356.581	271.637	-0.124	-0.218
-355.566	-200.000	0.003	0.088
-354.552	-83.071	0.221	0.071
-353.537	800.000	-0.095	0.293
-352.523	-92.849	-0.169	0.047
-351.508	-200.000	-0.029	0.148
-350.493	-200.000	0.020	0.247
-349.479	144.817	-0.056	0.075
-348.464	-148.233	-0.238	-0.020
-347.450	800.000	0.083	0.309
-346.435	263.011	0.138	0.238
-345.420	-200.000	-0.004	0.083
-344.406	-200.000	-0.003	-0.689
-343.391	73.996	0.164	0.171
-342.377	-78.409	-0.142	0.049
-341.362	-108.288	0.347	-0.075
-340.348	800.000	0.034	-0.137
-339.333	650.801	-0.019	0.047
-338.318	-200.000	-0.044	0.223
-337.304	-200.000	0.047	-0.231
-336.289	-45.103	-0.094	0.046
-335.275	-200.000	0.108	0.565
-334.260	653.285	-0.089	0.227
-333.245	313.094	-0.049	-0.091
-332.231	18.219	0.252	-0.200
-331.216	16.210	0.239	0.187
-330.202	59.145	-0.133	0.130
-329.187	50.994	-0.192	-0.181
-328.172	-82.849	-0.426	-0.137
-327.158	800.000	-0.102	-0.353
-326.143	401.367	-0.033	-0.069
-325.129	-43.826	-0.339	-0.170
-324.114	207.791	0.145	-0.225
-323.099	483.946	0.031	-0.071
-322.085	317.062	-0.084	0.158
-321.070	-95.067	-0.491	0.132
-320.056	-138.449	0.491	0.054
-319.041	-127.309	-0.137	-0.020
-318.026	405.036	0.101	-0.212
-317.012	131.429	0.129	0.165
-315.997	-104.745	0.181	0.041
-314.983	-125.371	0.230	-0.035
-313.968	-116.848	-0.200	0.036
-312.953	-200.000	-0.035	-0.201
-311.939	-1.357	0.419	0.294
-310.924	378.139	-0.131	0.266
-309.910	-200.000	-0.005	-0.066
-308.895	-200.000	0.055	0.248
-307.880	800.000	-0.071	0.308
-306.866	-200.000	0.034	-0.163
-305.851	-154.209	-0.330	0.022
-304.837	74.786	0.049	0.051
-303.822	565.020	0.029	-0.071
-302.807	391.928	0.117	0.241
-301.793	42.019	-0.153	-0.138
-300.778	-101.856	-0.256	-0.062
-299.764	164.386	-0.172	0.241
-298.749	255.902	0.039	-0.066
-297.735	-200.000	-0.021	0.233
-296.720	63.665	0.346	0.346
-295.705	-61.218	0.284	-0.119
-294.691	-200.000	-0.047	-0.315
-293.676	-200.000	-0.019	0.140
-292.662	-90.937	0.410	-0.117
-291.647	-200.000	-0.004	-0.037
-290.632	-200.000	-0.031	-0.165
-289.618	-44.153	-0.173	0.086
-288.603	-71.959	-0.197	0.073
-287.589	178.353	-0.071	0.103
-286.574	-106.461	-0.324	0.072
-285.559	-48.763	0.107	0.051
-284.545	800.000	0.092	-0.299
-283.530	300.282	0.273	0.500
-282.516	800.000	-0.027	0.102
-281.501	-33.476	0.198	0.109
-280.486	36.628	-0.285	0.250
-279.472	-200.000	-0.030	0.229
-278.457	-200.000	0.191	0.001
-277.443	-200.000	-0.091	-0.404
-276.428	20.174	0.087	-0.070
-275.413	-11.333	-0.429	-0.281
-274.399	-58.777	0.100	0.043
-273.384	-16.788	-0.217	0.136
-272.370	-200.000	-0.043	0.208
-271.355	31.511	-0.400	-0.341
-270.340	-0.471	0.286	-0.202
-269.326	-7.223	-0.128	-0.086
-268.311	-44.140	0.366	0.182
-267.297	-68.016	0.013	0.005
-266.282	-26.125	0.159	0.093
-265.267	-36.873	-0.148	0.079
-264.253	16.863	0.247	0.194
-263.238	-164.619	-0.351	0.016
-262.224	-69.000	-0.017	0.007
-261.209	216.417	-0.056	-0.089
-260.195	-41.401	0.130	0.067
-259.180	-137.400	0.145	0.016
-258.165	-200.000	0.037	0.165
-257.151	8.594	0.205	0.153
-256.136	-36.193	-0.139	-0.075
-255.122	800.000	-0.077	0.213
-254.107	800.000	-0.074	0.214
-253.092	22.453	-0.202	0.164
-252.078	-2.003	-0.247	-0.172
-251.063	-187.502	0.156	-0.002
-250.049	-200.000	-0.039	-0.221
-249.034	-200.000	-0.009	-0.448
-248.019	-154.901	-0.404	0.026
-247.005	528.476	-0.030	-0.070
-245.990	-117.486	0.429	0.077
-244.976	800.000	0.049	0.164
-243.961	399.623	0.103	0.214
-242.946	-200.000	0.049	-0.249
-241.932	800.000	-0.038	-0.107
-240.917	11.091	0.099	0.075
-239.903	-32.009	0.080	-0.044
-238.888	522.969	-0.093	0.216
-237.873	-96.683	0.045	0.012
-236.859	140.887	-0.378	0.496
-235.844	800.000	0.022	-0.070
-234.830	-111.948	0.136	-0.027
-233.815	376.838	-0.114	0.230
-232.800	76.623	0.135	0.142
-231.786	-16.930	0.199	-0.125
-230.771	-121.947	0.308	0.050
-229.757	-86.290	-0.156	0.048
-228.742	-94.692	0.405	-0.109
-227.727	537.759	0.082	-0.192
-226.713	13.352	0.267	0.205
-225.698	56.991	-0.048	0.047
-224.684	572.154	-0.104	-0.250
-223.669	359.279	-0.264	-0.524
-222.655	-78.368	-0.093	-0.031
-221.640	-115.733	0.052	-0.010
-220.625	-55.328	0.066	0.030
-219.611	-200.000	-0.045	-0.261
-218.596	2.621	0.253	-0.182
-217.582	258.285	-0.128	0.218
-216.567	-193.798	0.464	0.004
-215.552	302.141	-0.022	-0.039
-214.538	27.158	-0.118	-0.098
-213.523	-200.000	0.089	0.392
-212.509	-200.000	-0.020	0.124
-211.494	84.506	0.156	0.169
-210.479	214.619	-0.154	0.242
-209.465	139.612	0.108	0.140
-208.450	-69.559	0.191	-0.072
-207.436	-200.000	-0.009	0.085
-206.421	-61.849	-0.104	0.043
-205.406	-151.889	0.400	-0.029
-204.392	694.109	0.123	-0.321
-203.377	-32.802	-0.153	-0.084
-202.363	139.469	0.092	0.120
-201.348	-33.759	-0.110	-0.060
-200.333	263.393	0.063	-0.108
-199.319	-128.401	0.103	-0.015
-198.304	138.483	-0.081	0.105
-197.290	-200.000	0.075	0.339
-196.275	-15.251	0.466	0.295
-195.260	-46.005	0.161	-0.079
-194.246	-152.787	0.300	-0.021
-193.231	36.526	-0.158	-0.138
-192.217	60.715	0.238	0.233
-191.202	-200.000	-0.010	-0.120
-190.187	309.545	-0.068	-0.125
-189.173	-56.903	-0.148	-0.065
-188.158	-200.000	0.055	0.304
-187.144	-112.366	0.084	0.017
-186.129	50.705	-0.048	0.045
-185.114	225.374	-0.279	0.447
-184.100	800.000	-0.052	-0.157
-183.085	-118.665	0.123	0.022
-182.071	-129.624	0.089	-0.012
-181.056	296.660	0.061	-0.112
-180.042	800.000	-0.050	-0.146
-179.027	615.482	0.034	-0.085
-178.012	-102.184	0.203	0.048
-176.998	-148.432	-0.273	0.022
-175.983	4.851	-0.178	-0.129
-174.969	-200.000	-0.024	0.203
-173.954	28.087	0.059	-0.049
-172.939	-102.282	-0.130	0.031
-171.925	-37.727	-0.113	-0.059
-170.910	-1.617	0.214	0.149
-169.896	-200.000	0.024	-0.148
-168.881	-53.123	-0.156	0.071
-167.866	86.429	0.119	-0.130
-166.852	10.977	0.139	0.105
-165.837	37.280	-0.174	0.153
-164.823	17.895	-0.210	0.165
-163.808	-102.212	0.202	0.048
-162.793	146.837	-0.159	-0.212
-161.779	-200.000	0.074	-0.349
-160.764	214.201	0.198	-0.310
-159.750	-200.000	-0.016	0.112
-158.735	-68.588	0.087	-0.033
-157.720	-200.000	0.002	0.175
-156.706	-200.000	0.026	-0.173
-155.691	-23.898	-0.261	0.154
-154.677	-200.000	0.009	0.112
-153.662	10.665	0.132	-0.099
-152.647	-20.113	-0.183	-0.112
-151.633	33.497	0.230	0.198
-150.618	-79.381	0.091	-0.030
-149.604	-70.286	-0.159	-0.060
-148.589	348.301	0.085	-0.166
-147.574	-200.000	-0.004	0.057
-146.560	477.654	0.070	0.156
-145.545	45.393	0.090	0.082
-144.531	11.641	0.169	-0.128
-143.516	-76.238	0.298	0.104
-142.502	158.921	-0.157	0.216
-141.487	800.000	0.057	0.185
-140.472	-200.000	-0.043	-0.207
-139.458	-1.814	-0.237	-0.164
-138.443	52.812	-0.158	-0.149
-137.429	751.147	0.043	0.115
-136.414	170.338	0.081	-0.115
-135.399	800.000	-0.038	-0.123
-134.385	411.563	-0.126	-0.264
-133.370	316.930	-0.030	-0.056
-132.356	240.730	0.213	-0.352
-131.341	800.000	0.028	-0.117
-130.326	48.368	-0.277	0.256
-129.312	-200.000	0.023	0.210
-128.297	216.039	-0.102	-0.160
-127.283	800.000	-0.059	-0.174
-126.268	55.410	0.036	-0.035
-125.253	352.221	0.065	-0.127
-124.239	7.095	-0.079	0.058
-123.224	-200.000	0.028	-0.142
-122.210	-77.439	-0.075	0.026
