DTS Sentinel unit serial number:	SN413079Multiplexer serial number:	ORYXHardware model number:	OX4-SRSoftware version number:	ORYX F/W v4.00 Oryx Data Collector v3.7.2.0data status	okinstallation	princeton_trtdifferential loss correction	single-endedforward channel	channel 1reverse channel	N/Adate	2019/09/14time	14:30:35forward acquisition time	60.00reverse acquisition time	0.00gamma	496.2192k internal	0.2293k external	0.2293temperature offset calibration	1.0078default loss term (dB/km)	0.3790temperature slope calibration	1.0000multiplexer offset coefficient	1.0000multiplexer slope coefficient	1.0000fibre end	0.00T internal ref (°C)	39.12T ext. ref 1 (°C)	5.07T ext. ref 2 (°C)	35.72length (m)	temperature (°C)	Stokes	anti-Stokes-747.200	86.560	0.090	-0.102
-746.185	-200.000	0.001	0.114
-745.171	83.846	-0.151	0.169
-744.156	140.504	0.172	0.232
-743.142	624.811	0.043	-0.110
-742.127	115.085	-0.245	0.306
-741.112	-200.000	0.002	-0.170
-740.098	310.515	-0.073	0.140
-739.083	367.445	0.043	0.089
-738.069	-200.000	-0.011	0.169
-737.054	-75.171	0.167	-0.061
-736.039	266.910	-0.068	0.121
-735.025	-75.977	0.335	0.121
-734.010	-138.965	0.142	-0.016
-732.996	-21.077	-0.237	-0.148
-731.981	-115.899	-0.284	0.054
-730.966	-107.813	-0.209	0.047
-729.952	-51.862	-0.229	-0.109
-728.937	-200.000	-0.004	0.311
-727.923	-110.929	0.181	0.038
-726.908	153.779	-0.220	-0.309
-725.894	-200.000	-0.072	-0.375
-724.879	800.000	0.053	0.169
-723.864	15.218	0.182	0.146
-722.850	-200.000	0.004	0.166
-721.835	800.000	0.117	0.449
-720.821	800.000	-0.059	-0.257
-719.806	-56.656	-0.195	-0.088
-718.791	-64.893	0.140	-0.058
-717.777	268.327	-0.130	-0.232
-716.762	142.427	0.068	0.092
-715.748	369.207	-0.100	-0.206
-714.733	-200.000	-0.010	-0.135
-713.718	281.981	0.082	-0.150
-712.704	6.825	-0.167	0.127
-711.689	472.870	0.143	-0.328
-710.675	-58.081	0.339	-0.151
-709.660	38.565	0.141	-0.128
-708.645	283.440	-0.090	0.166
-707.631	-200.000	0.060	0.363
-706.616	-42.362	-0.198	-0.103
-705.602	-111.555	0.166	0.034
-704.587	-91.460	0.104	0.030
-703.572	233.692	-0.110	-0.185
-702.558	-34.810	0.225	-0.126
-701.543	-26.476	0.171	-0.102
-700.529	-200.000	-0.009	-0.375
-699.514	-200.000	0.018	0.296
-698.499	-135.118	0.187	0.023
-697.485	128.630	-0.058	0.075
-696.470	-200.000	-0.048	-0.411
-695.456	-200.000	0.013	-0.101
-694.441	36.710	-0.176	0.159
-693.426	-91.063	-0.310	-0.091
-692.412	508.325	-0.041	0.097
-691.397	-87.931	-0.264	0.081
-690.383	-200.000	0.003	-0.079
-689.368	-80.226	0.279	0.095
-688.354	-200.000	-0.072	-0.338
-687.339	135.774	0.025	0.033
-686.324	-53.752	-0.273	0.127
-685.310	48.293	-0.248	-0.237
-684.295	-200.000	-0.016	-0.256
-683.281	20.092	0.063	0.052
-682.266	255.419	0.054	0.094
-681.251	68.160	0.242	0.253
-680.237	800.000	0.049	0.143
-679.222	-200.000	-0.026	-0.192
-678.208	800.000	-0.033	0.119
-677.193	-7.985	0.096	-0.066
-676.178	197.735	-0.156	0.244
-675.164	800.000	0.048	0.192
-674.149	796.895	-0.131	0.369
-673.135	-63.463	-0.264	-0.111
-672.120	-4.652	0.212	-0.150
-671.105	-200.000	-0.024	-0.117
-670.091	8.223	0.135	-0.104
-669.076	-62.486	0.273	-0.116
-668.062	-30.575	0.277	-0.160
-667.047	30.486	0.197	0.172
-666.032	-109.576	0.245	0.053
-665.018	-151.774	0.224	0.017
-664.003	28.648	0.263	0.227
-662.989	343.930	-0.124	-0.248
-661.974	295.912	0.068	-0.127
-660.959	-200.000	0.007	0.207
-659.945	2.895	0.215	-0.159
-658.930	32.239	0.204	0.179
-657.916	-200.000	0.032	0.431
-656.901	10.223	0.158	-0.122
-655.886	-84.805	-0.434	-0.139
-654.872	108.598	0.128	-0.156
-653.857	-17.006	0.101	-0.065
-652.843	-101.779	0.104	-0.026
-651.828	-112.941	-0.073	0.015
-650.814	-165.128	-0.119	-0.005
-649.799	228.490	0.056	0.092
-648.784	800.000	0.027	-0.089
-647.770	260.077	-0.139	-0.244
-646.755	-23.551	0.233	-0.142
-645.741	-14.961	0.157	0.102
-644.726	93.772	0.205	0.237
-643.711	3.918	-0.042	0.031
-642.697	-110.846	-0.148	0.031
-641.682	372.376	-0.220	-0.455
-640.668	800.000	0.068	-0.284
-639.653	-200.000	0.009	0.447
-638.638	-12.466	0.298	-0.198
-637.624	49.848	-0.149	0.143
-636.609	-54.569	0.107	0.049
-635.595	-36.625	-0.275	0.150
-634.580	17.116	-0.446	0.361
-633.565	-89.693	0.356	-0.106
-632.551	-40.258	-0.325	-0.172
-631.536	86.362	0.190	0.213
-630.522	-9.817	0.163	-0.111
-629.507	-200.000	0.036	0.318
-628.492	-30.910	-0.212	0.122
-627.478	-74.198	0.491	0.181
-626.463	-39.567	-0.174	0.093
-625.449	-52.910	0.285	0.134
-624.434	-200.000	-0.008	-0.296
-623.419	-200.000	-0.031	-0.284
-622.405	-15.820	-0.077	0.050
-621.390	441.755	-0.105	-0.234
-620.376	19.401	0.299	0.245
-619.361	-72.251	-0.171	0.064
-618.346	36.010	-0.188	-0.169
-617.332	800.000	0.088	0.256
-616.317	-62.648	-0.147	0.062
-615.303	23.357	-0.034	0.028
-614.288	-36.892	-0.092	0.050
-613.273	-200.000	0.016	-0.297
-612.259	90.888	0.149	0.170
-611.244	-200.000	-0.056	-0.349
-610.230	-168.951	-0.104	0.004
-609.215	-111.935	0.316	0.065
-608.201	-65.654	-0.179	-0.073
-607.186	-77.673	-0.217	-0.077
-606.171	-200.000	-0.013	-0.227
-605.157	116.375	-0.307	0.383
-604.142	800.000	0.085	0.318
-603.128	-29.933	-0.138	0.080
-602.113	-115.255	0.285	0.055
-601.098	-112.859	0.080	-0.016
-600.084	-92.926	0.160	-0.045
-599.069	-48.394	-0.196	0.096
-598.055	514.871	0.100	0.237
-597.040	-21.687	-0.330	0.204
-596.025	-200.000	-0.000	0.296
-595.011	-7.394	-0.133	-0.091
-593.996	-200.000	0.016	0.112
-592.982	130.606	0.160	0.209
-591.967	-132.043	-0.221	-0.029
-590.952	382.014	-0.059	-0.124
-589.938	-177.299	-0.123	0.003
-588.923	242.991	0.069	-0.117
-587.909	800.000	0.020	-0.078
-586.894	-128.757	0.317	0.045
-585.879	14.232	0.165	0.131
-584.865	-10.229	-0.231	-0.156
-583.850	705.484	-0.022	-0.059
-582.836	93.309	-0.107	0.124
-581.821	30.812	-0.194	0.169
-580.806	-110.894	-0.153	-0.032
-579.792	76.914	-0.195	-0.211
-578.777	-97.309	-0.132	0.035
-577.763	-200.000	-0.015	0.188
-576.748	341.632	0.103	0.205
-575.733	-200.000	0.035	-0.181
-574.719	259.236	-0.042	-0.073
-573.704	99.828	-0.199	0.235
-572.690	63.601	-0.112	-0.114
-571.675	800.000	0.124	-0.488
-570.661	110.531	-0.092	0.112
-569.646	-102.603	0.140	-0.034
-568.631	22.816	0.383	-0.319
-567.617	-158.200	-0.245	-0.015
-566.602	-200.000	-0.003	-0.200
-565.588	800.000	0.050	-0.152
-564.573	-200.000	0.005	0.098
-563.558	-186.257	0.264	-0.004
-562.544	-200.000	-0.037	0.275
-561.529	0.223	0.144	0.104
-560.515	184.236	-0.190	0.286
-559.500	105.848	0.091	-0.109
-558.485	106.077	-0.076	0.091
-557.471	321.973	0.122	0.237
-556.456	-120.676	-0.138	0.024
-555.442	-23.861	0.118	0.072
-554.427	-76.376	-0.191	-0.068
-553.412	-32.919	0.280	0.158
-552.398	-146.640	-0.264	-0.023
-551.383	228.986	0.093	-0.154
-550.369	-106.370	0.066	0.015
-549.354	800.000	0.036	0.118
-548.339	28.246	-0.156	-0.134
-547.325	-156.433	0.080	-0.005
-546.310	202.120	0.183	-0.287
-545.296	800.000	0.030	0.129
-544.281	507.241	-0.048	0.112
-543.266	-200.000	-0.015	-0.258
-542.252	-200.000	0.009	0.114
-541.237	-200.000	-0.015	-0.106
-540.223	139.107	-0.093	0.124
-539.208	-80.446	0.093	0.032
-538.193	10.766	-0.045	-0.035
-537.179	-75.570	-0.293	-0.106
-536.164	-57.133	0.100	-0.045
-535.150	800.000	0.063	-0.237
-534.135	90.038	-0.177	0.201
-533.121	800.000	0.046	-0.201
-532.106	-76.023	-0.259	0.093
-531.091	729.747	-0.153	0.414
-530.077	22.540	0.114	0.095
-529.062	3.587	0.235	-0.174
-528.048	627.765	0.134	-0.345
-527.033	105.942	0.119	0.143
-526.018	-61.154	0.347	-0.148
-525.004	-31.159	-0.264	0.151
-523.989	72.415	-0.113	0.120
-522.975	681.381	0.040	-0.107
-521.960	-200.000	-0.003	0.131
-520.945	-104.552	0.301	0.071
-519.931	-200.000	-0.014	0.123
-518.916	-118.021	0.329	-0.060
-517.902	370.704	0.095	0.196
-516.887	-53.217	0.385	-0.179
-515.872	-200.000	-0.048	-0.332
-514.858	-102.273	-0.378	-0.092
-513.843	-3.304	-0.130	0.092
-512.829	12.628	0.064	-0.050
-511.814	-200.000	-0.028	-0.165
-510.799	435.251	0.110	-0.242
-509.785	-85.728	0.101	0.032
-508.770	-59.636	-0.214	0.093
-507.756	64.015	-0.139	-0.142
-506.741	800.000	0.002	0.005
-505.726	-200.000	-0.015	-0.344
-504.712	800.000	-0.122	-0.404
-503.697	-0.004	-0.171	-0.124
-502.683	96.525	0.099	0.114
-501.668	266.523	0.137	0.243
-500.653	-38.852	0.198	-0.106
-499.639	47.337	-0.151	-0.142
-498.624	-30.452	0.206	0.118
-497.610	-64.193	-0.166	-0.068
-496.595	17.218	-0.057	0.046
-495.581	-84.189	0.045	0.015
-494.566	-98.631	-0.096	-0.025
-493.551	409.193	0.087	-0.186
-492.537	800.000	0.048	0.190
-491.522	-200.000	-0.070	0.340
-490.508	-83.438	-0.103	-0.033
-489.493	800.000	-0.023	-0.083
-488.478	-55.449	-0.189	-0.086
-487.464	-55.578	-0.178	0.081
-486.449	38.719	0.164	-0.149
-485.435	-200.000	-0.024	-0.236
-484.420	800.000	-0.068	-0.263
-483.405	35.410	-0.298	-0.265
-482.391	-113.345	0.248	0.049
-481.376	55.827	-0.202	-0.199
-480.362	59.254	-0.207	0.207
-479.347	43.474	-0.269	-0.249
-478.332	692.552	-0.050	-0.133
-477.318	254.484	-0.088	-0.153
-476.303	156.925	0.157	-0.220
-475.289	531.516	-0.095	-0.227
-474.274	101.412	0.112	-0.132
-473.259	8.400	0.042	-0.032
-472.245	-200.000	-0.015	0.126
-471.230	99.100	0.119	0.139
-470.216	800.000	-0.092	-0.268
-469.201	179.382	0.117	-0.173
-468.186	-30.235	0.375	0.216
-467.172	113.494	0.099	-0.122
-466.157	-43.479	-0.219	0.112
-465.143	-200.000	0.029	-0.172
-464.128	-200.000	-0.050	-0.438
-463.113	-200.000	-0.024	0.205
-462.099	-71.859	0.104	0.039
-461.084	672.381	0.159	-0.418
-460.070	78.325	0.020	-0.022
-459.055	329.048	-0.118	0.229
-458.040	-149.778	-0.318	-0.025
-457.026	414.756	-0.198	-0.427
-456.011	-61.487	-0.154	-0.066
-454.997	-7.096	-0.272	-0.187
-453.982	35.175	-0.198	-0.176
-452.968	237.637	-0.111	0.187
-451.953	800.000	-0.034	0.144
-450.938	-127.192	0.226	-0.033
-449.924	658.082	-0.107	0.277
-448.909	-101.105	0.145	0.036
-447.895	92.348	-0.136	0.155
-446.880	800.000	-0.027	0.075
-445.865	-30.878	-0.171	-0.098
-444.851	283.125	-0.150	-0.273
-443.836	-7.911	-0.376	0.256
-442.822	749.269	0.049	0.134
-441.807	-115.814	0.130	-0.025
-440.792	203.001	-0.079	0.124
-439.778	-200.000	0.021	-0.214
-438.763	-108.519	-0.061	-0.013
-437.749	-200.000	0.006	0.061
-436.734	-200.000	-0.054	0.312
-435.719	800.000	-0.079	0.223
-434.705	-83.866	0.109	-0.035
-433.690	-147.267	-0.141	0.012
-432.676	-113.635	-0.220	-0.043
-431.661	99.671	0.191	0.224
-430.646	254.755	0.183	0.316
-429.632	321.107	0.043	0.083
-428.617	-200.000	0.039	-0.202
-427.603	631.523	-0.076	0.196
-426.588	738.521	0.055	-0.150
-425.573	-52.397	0.236	0.110
-424.559	191.005	0.146	0.222
-423.544	-200.000	-0.003	0.132
-422.530	21.675	-0.277	0.228
-421.515	25.638	-0.272	0.229
-420.500	-8.512	-0.311	-0.211
-419.486	-151.367	-0.077	-0.006
-418.471	62.030	0.157	0.158
-417.457	-196.436	0.307	-0.002
-416.442	-150.172	-0.234	0.018
-415.428	-175.852	0.093	0.002
-414.413	-81.042	0.335	0.112
-413.398	140.578	-0.182	0.243
-412.384	94.603	0.166	0.191
-411.369	-200.000	-0.017	-0.142
-410.355	-155.660	0.241	0.016
-409.340	-22.720	-0.281	0.171
-408.325	-84.236	0.100	0.032
-407.311	-200.000	0.014	-0.116
-406.296	-35.730	-0.146	-0.080
-405.282	-200.000	-0.108	0.482
-404.267	-157.602	0.236	-0.014
-403.252	-78.290	-0.331	-0.115
-402.238	-114.326	-0.261	-0.051
-401.223	-132.120	-0.335	-0.044
-400.209	87.850	-0.131	0.146
-399.194	-4.654	-0.245	-0.171
-398.179	4.227	0.257	-0.190
-397.165	800.000	-0.098	0.315
-396.150	557.980	0.049	-0.119
-395.136	-200.000	0.000	0.051
-394.121	6.751	-0.106	0.079
-393.106	274.161	0.080	-0.142
-392.092	91.366	0.141	0.160
-391.077	197.067	-0.191	0.293
-390.063	-104.541	-0.077	-0.018
-389.048	-97.061	-0.181	0.048
-388.033	-75.939	0.383	0.137
-387.019	-200.000	-0.175	0.001
-386.004	254.790	-0.062	-0.106
-384.990	22.941	-0.161	-0.133
-383.975	27.637	0.198	0.168
-382.960	800.000	-0.020	-0.068
-381.946	249.131	0.076	-0.130
-380.931	261.896	-0.079	0.138
-379.917	33.170	0.195	0.171
-378.902	11.446	-0.155	-0.120
-377.888	-44.333	-0.184	-0.093
-376.873	10.907	-0.232	0.179
-375.858	169.351	0.162	0.234
-374.844	-126.944	0.157	-0.023
-373.829	81.114	-0.057	-0.062
-372.815	104.245	-0.143	-0.170
-371.800	190.338	-0.167	0.252
-370.785	43.740	0.160	-0.148
-369.771	-199.227	-0.088	0.000
-368.756	-200.000	0.066	0.334
-367.742	-93.281	0.429	-0.120
-366.727	800.000	0.018	-0.070
-365.712	158.025	0.134	0.187
-364.698	509.932	0.171	0.401
-363.683	75.976	-0.104	-0.111
-362.669	81.780	-0.170	-0.186
-361.654	-76.813	0.216	0.076
-360.639	-87.679	-0.236	-0.072
-359.625	121.289	-0.067	0.084
-358.610	800.000	0.060	0.227
-357.596	145.449	-0.042	0.056
-356.581	-21.774	0.384	-0.235
-355.566	-132.443	-0.103	0.013
-354.552	800.000	0.072	0.219
-353.537	800.000	0.073	0.227
-352.523	-36.366	-0.250	-0.136
-351.508	-64.253	-0.085	0.035
-350.493	-200.000	-0.023	0.168
-349.479	193.304	0.057	-0.086
-348.464	-106.116	-0.163	-0.037
-347.450	-90.007	-0.410	-0.121
-346.435	158.183	0.160	-0.224
-345.420	11.907	0.184	-0.142
-344.406	-200.000	-0.010	-0.234
-343.391	187.151	-0.080	0.120
-342.377	33.835	-0.108	0.095
-341.362	-200.000	-0.082	0.384
-340.348	461.909	-0.076	0.171
-339.333	-66.658	-0.224	-0.090
-338.318	7.382	-0.153	0.115
-337.304	-200.000	-0.030	0.153
-336.289	391.299	-0.069	0.145
-335.275	247.469	0.076	0.129
-334.260	-130.660	0.219	-0.030
-333.245	-51.949	-0.209	-0.098
-332.231	461.078	0.083	-0.186
-331.216	-200.000	-0.009	0.111
-330.202	-200.000	0.022	-0.208
-329.187	42.534	-0.094	0.086
-328.172	-151.070	-0.468	0.035
-327.158	109.748	-0.121	-0.146
-326.143	-43.995	-0.034	-0.017
-325.129	53.841	0.159	0.154
-324.114	-146.422	0.153	0.013
-323.099	-169.276	0.327	-0.012
-322.085	-28.991	-0.017	0.010
-321.070	800.000	0.143	-0.518
-320.056	-81.999	-0.343	-0.113
-319.041	-84.924	0.088	-0.028
-318.026	450.898	0.045	0.100
-317.012	800.000	0.074	-0.218
-315.997	-157.264	0.182	0.011
-314.983	107.309	-0.304	-0.364
-313.968	206.128	0.151	0.237
-312.953	138.833	0.154	-0.204
-311.939	-23.832	0.035	-0.021
-310.924	104.630	0.047	0.056
-309.910	-66.813	-0.274	0.109
-308.895	-96.786	-0.103	-0.027
-307.880	39.685	0.119	0.108
-306.866	213.049	-0.179	-0.285
-305.851	81.220	-0.072	0.079
-304.837	354.474	-0.141	-0.282
-303.822	-7.269	0.148	-0.101
-302.807	-76.107	-0.345	-0.122
-301.793	800.000	-0.035	0.137
-300.778	413.575	-0.110	0.236
-299.764	131.100	0.142	-0.183
-298.749	-200.000	-0.012	0.150
-297.735	452.408	-0.011	-0.025
-296.720	800.000	0.081	0.240
-295.705	-200.000	0.018	-0.094
-294.691	17.148	0.387	0.309
-293.676	49.932	0.061	-0.058
-292.662	-128.640	0.050	-0.007
-291.647	-123.671	0.119	-0.019
-290.632	338.518	0.129	-0.252
-289.618	17.565	0.344	-0.275
-288.603	800.000	0.064	-0.192
-287.589	158.877	0.173	-0.242
-286.574	-200.000	0.027	0.325
-285.559	-123.258	0.231	0.037
-284.545	72.922	0.168	-0.176
-283.530	195.928	-0.179	-0.273
-282.516	-128.961	-0.234	-0.033
-281.501	60.259	-0.218	0.217
-280.486	120.752	0.231	0.289
-279.472	3.760	-0.270	-0.198
-278.457	60.331	-0.476	-0.474
-277.443	91.887	-0.085	-0.096
-276.428	191.839	-0.064	-0.097
-275.413	-16.430	0.086	0.055
-274.399	-200.000	0.019	-0.114
-273.384	-41.295	-0.347	0.180
-272.370	-35.129	0.307	-0.168
-271.355	65.046	-0.133	0.135
-270.340	800.000	0.122	-0.427
-269.326	-90.475	-0.172	0.050
-268.311	-10.346	0.046	0.030
-267.297	-99.797	0.276	-0.069
-266.282	-187.021	-0.234	-0.003
-265.267	-48.009	0.134	-0.065
-264.253	800.000	0.095	0.338
-263.238	-116.386	0.254	-0.047
-262.224	59.491	0.137	0.135
-261.209	-3.232	0.247	-0.173
-260.195	7.556	-0.141	-0.106
-259.180	84.712	0.292	-0.322
-258.165	800.000	0.110	0.330
-257.151	-57.927	0.328	-0.144
-256.136	674.258	0.106	0.277
-255.122	-101.482	0.196	0.048
-254.107	-200.000	0.005	-0.026
-253.092	-28.769	-0.162	0.094
-252.078	-200.000	0.008	0.308
-251.063	-64.985	0.115	-0.047
-250.049	288.391	0.246	0.448
-249.034	-108.396	0.223	0.048
-248.019	-98.584	0.236	-0.061
-247.005	156.440	-0.252	-0.349
-245.990	394.410	0.067	-0.139
-244.976	62.255	0.261	0.262
-243.961	23.421	0.335	-0.276
-242.946	369.415	0.088	-0.180
-241.932	-55.180	0.157	-0.071
-240.917	-145.294	0.260	0.024
-239.903	-41.444	-0.176	0.091
-238.888	186.696	0.022	-0.032
-237.873	-56.434	-0.118	0.053
-236.859	-101.702	0.335	0.082
-235.844	78.006	0.042	0.045
-234.830	0.058	-0.135	-0.097
-233.815	-200.000	0.031	-0.147
-232.800	574.359	-0.116	0.283
-231.786	270.393	0.053	-0.093
-230.771	-131.986	-0.199	0.026
-229.757	-68.797	0.193	-0.075
-228.742	-200.000	0.010	-0.275
-227.727	-158.492	-0.213	0.012
-226.713	177.846	0.140	0.205
-225.698	-50.701	0.098	-0.046
-224.684	107.381	-0.142	-0.170
-223.669	-200.000	-0.029	-0.313
-222.655	-167.764	0.089	0.004
-221.640	165.536	0.122	0.172
-220.625	567.340	-0.078	0.190
-219.611	800.000	0.058	0.162
-218.596	120.497	-0.042	-0.052
-217.582	-177.148	0.284	-0.007
-216.567	-200.000	0.037	0.452
-215.552	-190.220	-0.257	0.003
-214.538	-63.904	-0.059	0.024
-213.523	-200.000	-0.084	0.563
-212.509	-200.000	-0.036	0.243
-211.494	-113.366	-0.265	-0.052
-210.479	-8.518	0.074	-0.050
-209.465	-128.474	-0.288	-0.041
-208.450	477.958	0.097	-0.221
-207.436	-169.697	0.360	-0.013
-206.421	88.317	0.171	0.190
-205.406	-200.000	0.010	-0.218
-204.392	800.000	-0.054	-0.177
-203.377	84.894	0.140	-0.154
-202.363	12.172	-0.172	-0.133
-201.348	-200.000	-0.031	0.292
-200.333	-189.399	0.352	0.004
-199.319	-65.557	0.174	0.070
-198.304	5.940	0.178	-0.132
-197.290	800.000	-0.023	0.072
-196.275	158.060	0.137	0.191
-195.260	101.194	-0.190	0.221
-194.246	45.366	0.086	-0.080
-193.231	800.000	-0.129	0.371
-192.217	-165.703	-0.253	0.011
-191.202	776.559	0.079	-0.217
-190.187	250.753	-0.068	0.116
-189.173	-72.396	0.399	0.148
-188.158	-200.000	-0.018	-0.093
-187.144	-135.868	-0.259	-0.031
-186.129	-80.339	0.298	-0.100
-185.114	800.000	0.130	-0.428
-184.100	30.702	-0.166	0.142
-183.085	4.068	0.246	-0.180
-182.071	-37.243	0.070	0.038
-181.056	262.790	-0.112	0.194
-180.042	450.404	0.116	-0.257
-179.027	-50.708	0.113	-0.053
-178.012	-65.030	0.140	0.057
-176.998	-27.969	0.076	-0.044
-175.983	-200.000	-0.025	-0.266
-174.969	-21.959	-0.039	-0.024
-173.954	30.647	0.126	-0.108
-172.939	39.575	0.047	-0.042
-171.925	182.180	-0.054	-0.079
-170.910	688.694	-0.085	0.222
-169.896	800.000	0.054	-0.162
-168.881	-93.813	-0.086	-0.024
-167.866	1.209	-0.097	0.070
-166.852	-200.000	0.012	-0.256
-165.837	-200.000	0.014	-0.112
-164.823	32.352	-0.363	-0.314
-163.808	-200.000	-0.063	0.288
-162.793	-143.098	0.254	-0.024
-161.779	12.888	0.039	-0.030
-160.764	171.360	0.285	0.409
-159.750	26.249	0.026	0.022
-158.735	119.089	0.109	-0.135
-157.720	91.468	0.075	-0.085
-156.706	-98.132	0.181	0.047
-155.691	258.474	-0.149	0.257
-154.677	-8.575	0.147	-0.099
-153.662	-79.908	-0.127	-0.043
-152.647	47.757	-0.145	0.136
-151.633	-93.316	-0.177	-0.049
-150.618	-160.754	-0.140	-0.007
-149.604	449.665	0.070	0.154
-148.589	-163.306	0.181	0.009
-147.574	19.351	0.186	0.149
-146.560	800.000	0.028	0.112
-145.545	-200.000	-0.059	0.437
-144.531	252.596	-0.095	0.162
-143.516	-200.000	0.003	0.199
-142.502	-89.195	0.487	0.144
-141.487	382.063	0.049	-0.100
-140.472	344.945	0.118	-0.232
-139.458	-164.218	-0.252	-0.012
-138.443	-137.691	-0.278	0.031
-137.429	259.761	-0.129	0.223
-136.414	283.705	-0.087	-0.156
-135.399	47.378	-0.117	-0.109
-134.385	-200.000	-0.005	0.070
-133.370	-200.000	-0.028	-0.271
-132.356	49.871	0.202	-0.190
-131.341	58.948	0.106	0.104
-130.326	-81.280	0.226	0.075
-129.312	-119.242	0.178	-0.031
-128.297	-62.080	0.084	-0.035
-127.283	-168.342	-0.235	0.009
-126.268	250.166	0.053	-0.090
-125.253	-3.129	-0.146	0.102
-124.239	-46.774	0.186	0.091
-123.224	-26.419	0.193	-0.113
-122.210	313.500	-0.152	0.285
-121.195	257.276	0.159	0.274
-120.180	-110.453	-0.146	0.030
