DTS Sentinel unit serial number:	SN413079Multiplexer serial number:	ORYXHardware model number:	OX4-SRSoftware version number:	ORYX F/W v4.00 Oryx Data Collector v3.7.2.0data status	okinstallation	princeton_trtdifferential loss correction	single-endedforward channel	channel 1reverse channel	N/Adate	2019/09/15time	02:38:35forward acquisition time	60.00reverse acquisition time	0.00gamma	496.2192k internal	0.2323k external	0.2323temperature offset calibration	0.9986default loss term (dB/km)	0.3790temperature slope calibration	1.0000multiplexer offset coefficient	1.0000multiplexer slope coefficient	1.0000fibre end	0.00T internal ref (°C)	31.44T ext. ref 1 (°C)	4.56T ext. ref 2 (°C)	25.85length (m)	temperature (°C)	Stokes	anti-Stokes-747.200	-112.557	-0.339	-0.068
-746.185	-26.765	0.018	0.011
-745.171	163.251	0.081	0.114
-744.156	-200.000	-0.001	0.227
-743.142	-125.223	-0.126	-0.019
-742.127	-138.574	-0.117	-0.013
-741.112	-97.818	0.341	-0.089
-740.098	487.733	0.031	0.072
-739.083	470.358	-0.195	-0.443
-738.069	10.730	0.099	0.076
-737.054	-50.748	0.214	0.102
-736.039	-200.000	-0.032	-0.188
-735.025	800.000	-0.033	0.136
-734.010	234.293	0.167	-0.277
-732.996	-86.863	0.238	0.073
-731.981	-15.414	-0.268	-0.173
-730.966	280.776	-0.117	0.212
-729.952	51.504	-0.381	-0.365
-728.937	800.000	-0.049	-0.196
-727.923	73.842	0.240	0.254
-726.908	-200.000	0.016	0.182
-725.894	-130.708	-0.330	0.045
-724.879	800.000	0.070	-0.241
-723.864	555.090	-0.157	-0.382
-722.850	282.423	-0.207	-0.375
-721.835	800.000	-0.039	-0.139
-720.821	-200.000	0.024	0.243
-719.806	-44.291	0.059	-0.030
-718.791	-200.000	-0.010	-0.055
-717.777	-200.000	-0.003	0.130
-716.762	-55.944	-0.072	-0.033
-715.748	28.232	0.244	0.208
-714.733	-38.741	-0.337	-0.179
-713.718	-200.000	0.044	0.208
-712.704	-200.000	-0.022	-0.186
-711.689	-75.058	-0.146	-0.053
-710.675	-162.766	-0.004	-0.000
-709.660	27.637	-0.197	-0.167
-708.645	24.630	0.179	-0.149
-707.631	566.999	-0.164	-0.401
-706.616	-91.095	-0.252	-0.073
-705.602	-31.043	-0.289	-0.164
-704.587	54.266	0.024	-0.023
-703.572	-116.891	0.373	0.069
-702.558	47.468	0.123	-0.116
-701.543	-66.281	0.584	-0.234
-700.529	800.000	0.047	0.197
-699.514	800.000	0.036	0.146
-698.499	30.411	0.090	0.078
-697.485	-109.398	-0.173	-0.037
-696.470	-16.688	0.254	0.162
-695.456	470.889	-0.110	-0.248
-694.441	800.000	0.139	-0.394
-693.426	-200.000	0.029	0.387
-692.412	38.914	-0.165	0.148
-691.397	-152.438	-0.455	-0.033
-690.383	153.115	0.150	-0.207
-689.368	-200.000	-0.003	-0.051
-688.354	527.613	0.103	0.246
-687.339	-200.000	0.206	0.000
-686.324	800.000	-0.026	-0.104
-685.310	22.429	0.189	0.155
-684.295	-96.060	-0.049	-0.013
-683.281	331.933	-0.088	-0.171
-682.266	-200.000	-0.010	0.351
-681.251	166.873	0.066	0.094
-680.237	-168.602	-0.086	-0.003
-679.222	229.442	-0.237	0.390
-678.208	-67.574	-0.396	0.157
-677.193	800.000	-0.033	0.102
-676.178	235.560	-0.166	-0.277
-675.164	46.943	-0.196	0.183
-674.149	-43.276	-0.096	0.049
-673.135	800.000	0.118	0.355
-672.120	800.000	-0.034	0.141
-671.105	-77.106	0.196	0.069
-670.091	-200.000	0.007	-0.057
-669.076	524.709	-0.126	-0.297
-668.062	800.000	0.035	-0.150
-667.047	309.193	-0.046	-0.087
-666.032	-162.038	-0.153	-0.008
-665.018	145.765	-0.132	-0.178
-664.003	-37.601	-0.238	0.128
-662.989	698.040	0.084	-0.223
-661.974	-39.645	-0.251	0.132
-660.959	-159.821	0.142	-0.008
-659.945	6.422	-0.304	-0.227
-658.930	-200.000	-0.046	0.268
-657.916	-200.000	-0.039	-0.267
-656.901	-0.143	-0.217	-0.156
-655.886	-62.192	-0.045	0.019
-654.872	800.000	0.049	-0.158
-653.857	-142.368	-0.295	0.029
-652.843	53.000	0.151	-0.145
-651.828	19.908	-0.207	-0.168
-650.814	-10.725	-0.081	-0.054
-649.799	217.221	0.100	-0.160
-648.784	734.414	-0.098	0.265
-647.770	-200.000	-0.046	0.218
-646.755	704.634	-0.062	0.166
-645.741	800.000	-0.091	-0.276
-644.726	182.465	-0.105	-0.156
-643.711	-200.000	0.045	0.282
-642.697	-126.846	0.406	-0.060
-641.682	68.351	-0.324	-0.334
-640.668	-200.000	0.010	-0.096
-639.653	242.696	0.016	0.026
-638.638	671.606	0.099	0.258
-637.624	172.117	-0.217	-0.314
-636.609	-200.000	-0.007	0.272
-635.595	172.711	-0.065	0.094
-634.580	-200.000	0.018	-0.082
-633.565	233.935	-0.071	0.117
-632.551	38.866	-0.274	0.246
-631.536	86.019	0.183	0.203
-630.522	53.185	0.263	-0.254
-629.507	275.106	-0.124	0.222
-628.492	-43.518	0.346	0.176
-627.478	47.385	0.143	-0.134
-626.463	107.312	0.079	-0.094
-625.449	55.074	-0.180	-0.175
-624.434	-62.172	-0.154	0.065
-623.419	216.315	0.078	0.125
-622.405	-200.000	0.070	0.440
-621.390	-200.000	0.011	0.200
-620.376	-129.789	0.063	0.009
-619.361	-70.277	-0.291	0.111
-618.346	-165.010	0.066	-0.003
-617.332	100.964	0.131	-0.153
-616.317	698.948	0.051	-0.134
-615.303	148.615	-0.179	-0.244
-614.288	-200.000	0.003	0.110
-613.273	319.569	0.163	0.311
-612.259	33.864	0.168	0.147
-611.244	-61.773	0.156	0.066
-610.230	362.225	-0.046	0.093
-609.215	-200.000	-0.002	-0.522
-608.201	-67.549	0.360	-0.142
-607.186	87.919	-0.197	-0.220
-606.171	-123.121	-0.142	0.023
-605.157	4.349	-0.205	0.151
-604.142	106.641	0.194	0.231
-603.128	-200.000	0.018	0.155
-602.113	453.588	0.053	-0.117
-601.098	-109.593	-0.106	-0.022
-600.084	800.000	-0.046	-0.161
-599.069	800.000	-0.098	0.277
-598.055	-88.408	-0.244	0.073
-597.040	800.000	0.040	0.155
-596.025	-55.893	0.150	0.067
-595.011	91.375	0.154	-0.173
-593.996	0.286	0.271	-0.194
-592.982	-44.567	-0.136	0.068
-591.967	-113.113	-0.295	-0.058
-590.952	-24.950	-0.176	-0.105
-589.938	0.445	-0.264	-0.190
-588.923	800.000	-0.027	-0.093
-587.909	-42.828	-0.430	0.220
-586.894	302.322	-0.052	0.097
-585.879	800.000	-0.050	-0.164
-584.865	-21.310	-0.283	-0.174
-583.850	231.143	-0.199	-0.328
-582.836	-49.835	-0.208	0.099
-581.821	-143.572	-0.311	0.030
-580.806	-111.573	0.154	-0.031
-579.792	-50.249	-0.297	0.141
-578.777	-200.000	-0.032	-0.176
-577.763	70.321	-0.058	0.061
-576.748	-200.000	0.042	-0.189
-575.733	-39.397	-0.211	0.111
-574.719	-25.924	-0.197	0.116
-573.704	152.548	0.216	0.296
-572.690	47.672	0.297	-0.278
-571.675	273.469	-0.153	-0.271
-570.661	311.161	-0.112	0.211
-569.646	104.703	0.113	-0.134
-568.631	-83.019	0.158	-0.051
-567.617	150.831	0.116	-0.158
-566.602	214.768	0.064	-0.101
-565.588	144.163	-0.205	-0.275
-564.573	412.013	0.030	0.063
-563.558	1.077	0.090	0.065
-562.544	-42.671	0.119	-0.061
-561.529	114.582	-0.032	0.040
-560.515	147.195	0.138	-0.186
-559.500	389.484	0.067	-0.139
-558.485	-76.789	0.329	0.115
-557.471	-200.000	-0.021	0.245
-556.456	583.834	-0.162	-0.400
-555.442	-200.000	0.011	0.068
-554.427	-200.000	0.005	0.075
-553.412	-200.000	0.033	0.168
-552.398	137.902	-0.144	-0.189
-551.383	-110.270	0.295	-0.061
-550.369	59.915	0.100	-0.099
-549.354	-200.000	0.028	-0.280
-548.339	-42.288	0.147	-0.075
-547.325	1.476	0.047	-0.034
-546.310	-133.737	-0.105	-0.013
-545.296	-148.650	-0.247	0.020
-544.281	-180.194	-0.266	0.006
-543.266	800.000	0.063	0.210
-542.252	-200.000	0.049	0.355
-541.237	204.354	0.188	0.292
-540.223	-51.743	0.050	0.023
-539.208	-95.128	0.159	0.043
-538.193	-120.340	-0.151	0.026
-537.179	90.210	-0.030	0.034
-536.164	-155.455	-0.217	0.014
-535.150	88.301	0.020	0.023
-534.135	-9.467	0.091	0.061
-533.121	-147.439	0.307	-0.026
-532.106	-200.000	0.035	0.199
-531.091	-101.679	0.266	-0.065
-530.077	-200.000	-0.069	0.325
-529.062	118.411	0.155	-0.192
-528.048	104.467	-0.069	0.082
-527.033	-60.973	0.175	0.074
-526.018	-122.403	0.153	-0.025
-525.004	-2.943	0.271	0.190
-523.989	800.000	0.121	-0.336
-522.975	254.556	-0.093	-0.160
-521.960	-19.984	-0.287	0.178
-520.945	768.609	0.053	0.143
-519.931	-9.808	-0.133	-0.089
-518.916	-200.000	-0.021	-0.481
-517.902	-173.706	-0.049	0.001
-516.887	8.445	0.225	0.169
-515.872	800.000	-0.161	0.468
-514.858	-92.235	0.210	-0.059
-513.843	99.712	0.055	0.064
-512.829	369.715	-0.073	-0.147
-511.814	-65.561	0.111	-0.044
-510.799	46.716	0.073	-0.068
-509.785	-200.000	-0.001	0.112
-508.770	-155.744	0.320	0.020
-507.756	25.697	-0.199	-0.166
-506.741	-8.454	0.015	0.010
-505.726	-56.907	0.089	-0.039
-504.712	-19.361	-0.044	0.027
-503.697	-98.334	0.125	-0.032
-502.683	800.000	0.075	0.216
-501.668	239.022	-0.127	-0.212
-500.653	213.022	-0.035	0.055
-499.639	2.958	0.371	0.270
-498.624	161.103	-0.156	-0.218
-497.610	-63.312	-0.275	-0.113
-496.595	447.422	-0.066	-0.146
-495.581	-3.231	-0.203	0.142
-494.566	765.146	-0.064	0.175
-493.551	-200.000	-0.045	-0.240
-492.537	-95.770	-0.136	-0.036
-491.522	-128.145	-0.254	0.036
-490.508	496.345	0.212	-0.487
-489.493	-45.033	-0.335	-0.167
-488.478	-152.797	-0.452	-0.032
-487.464	-200.000	-0.008	0.170
-486.449	19.385	-0.150	0.120
-485.435	-39.329	0.245	0.129
-484.420	-89.909	0.251	-0.073
-483.405	800.000	0.031	0.112
-482.391	-22.187	0.212	0.129
-481.376	800.000	-0.063	0.184
-480.362	192.885	-0.170	0.256
-479.347	448.750	0.061	0.134
-478.332	144.319	-0.012	-0.016
-477.318	-200.000	0.027	0.181
-476.303	122.769	-0.121	-0.152
-475.289	-61.544	0.113	-0.048
-474.274	-195.561	0.162	0.001
-473.259	-200.000	0.006	0.456
-472.245	139.331	-0.021	0.028
-471.230	-200.000	-0.012	0.138
-470.216	-71.506	0.220	0.082
-469.201	-200.000	0.010	0.188
-468.186	83.128	-0.074	0.080
-467.172	3.744	0.133	-0.097
-466.157	-128.938	0.128	0.018
-465.143	-30.886	0.286	-0.161
-464.128	235.920	-0.122	0.202
-463.113	-96.055	0.216	0.057
-462.099	-163.682	-0.341	-0.016
-461.084	-91.520	-0.095	0.027
-460.070	-29.670	0.260	-0.148
-459.055	800.000	-0.030	-0.092
-458.040	-200.000	-0.017	0.211
-457.026	-138.459	0.192	-0.021
-456.011	137.004	-0.339	0.442
-454.997	-106.212	0.252	-0.056
-453.982	423.536	-0.073	-0.157
-452.968	-30.059	0.219	0.125
-451.953	73.632	-0.169	0.177
-450.938	200.360	0.095	0.146
-449.924	800.000	0.060	0.248
-448.909	477.484	-0.109	0.247
-447.895	-15.184	-0.022	0.014
-446.880	8.941	0.193	-0.145
-445.865	-26.189	0.085	0.050
-444.851	-50.843	0.330	-0.155
-443.836	800.000	-0.033	-0.121
-442.822	-5.057	0.145	-0.100
-441.807	142.420	-0.276	-0.365
-440.792	-200.000	0.028	-0.132
-439.778	-113.828	0.334	0.065
-438.763	-200.000	-0.045	0.254
-437.749	80.230	-0.212	-0.228
-436.734	-150.190	0.098	-0.008
-435.719	-109.042	-0.343	0.073
-434.705	-130.345	-0.227	0.031
-433.690	-119.732	-0.254	-0.044
-432.676	-45.971	0.080	-0.039
-431.661	-200.000	0.026	0.364
-430.646	-96.452	0.269	-0.071
-429.632	491.014	-0.096	0.219
-428.617	-88.202	-0.143	0.043
-427.603	-200.000	0.037	0.259
-426.588	35.412	-0.095	-0.083
-425.573	-30.659	-0.092	0.052
-424.559	-45.229	0.301	0.149
-423.544	-6.680	0.109	0.074
-422.530	6.088	0.058	-0.043
-421.515	-198.840	-0.163	-0.001
-420.500	-119.030	0.268	-0.047
-419.486	-44.990	-0.157	-0.078
-418.471	-55.449	0.054	0.024
-417.457	-200.000	-0.002	-0.168
-416.442	164.724	0.238	-0.334
-415.428	-53.597	-0.366	0.167
-414.413	-200.000	-0.006	0.142
-413.398	102.126	-0.173	-0.202
-412.384	-54.406	0.176	-0.079
-411.369	9.632	-0.107	-0.081
-410.355	-200.000	0.003	-0.038
-409.340	-71.719	-0.117	0.044
-408.325	388.299	-0.146	0.301
-407.311	72.155	0.100	-0.104
-406.296	-200.000	-0.028	-0.158
-405.282	-17.446	0.210	0.132
-404.267	-40.120	0.149	0.077
-403.252	528.236	-0.176	-0.413
-402.238	800.000	-0.114	-0.346
-401.223	-15.203	-0.133	-0.085
-400.209	-102.893	0.317	0.075
-399.194	-97.120	0.383	-0.100
-398.179	321.090	0.101	0.192
-397.165	800.000	-0.055	-0.182
-396.150	53.097	-0.305	-0.291
-395.136	800.000	0.062	-0.236
-394.121	275.034	-0.120	-0.212
-393.106	-10.751	0.343	-0.226
-392.092	45.217	-0.119	0.109
-391.077	-48.777	0.066	-0.031
-390.063	-4.241	0.326	0.225
-389.048	218.127	0.115	0.182
-388.033	-118.921	0.068	-0.012
-387.019	-200.000	0.099	0.437
-386.004	-103.985	0.226	-0.052
-384.990	384.742	0.141	0.289
-383.975	-69.355	-0.046	0.017
-382.960	673.533	0.016	-0.040
-381.946	-36.271	-0.211	0.113
-380.931	-83.931	-0.098	0.031
-379.917	304.188	-0.134	-0.247
-378.902	65.350	-0.053	-0.053
-377.888	-56.919	0.209	-0.092
-376.873	390.078	0.108	-0.224
-375.858	155.499	0.020	-0.027
-374.844	427.072	0.061	-0.132
-373.829	-139.802	-0.060	0.006
-372.815	3.493	-0.173	-0.126
-371.800	-45.745	-0.312	-0.153
-370.785	800.000	0.005	-0.018
-369.771	-72.029	-0.096	-0.035
-368.756	-200.000	0.021	0.250
-367.742	-200.000	-0.015	0.146
-366.727	-73.735	0.365	-0.132
-365.712	-28.408	-0.162	-0.093
-364.698	49.542	0.380	-0.356
-363.683	800.000	-0.026	0.102
-362.669	-36.947	0.156	0.083
-361.654	616.155	0.053	-0.131
-360.639	-62.097	0.173	-0.072
-359.625	-39.033	0.182	-0.095
-358.610	-200.000	-0.017	0.127
-357.596	393.934	-0.174	-0.361
-356.581	772.005	0.104	0.281
-355.566	-200.000	-0.013	0.246
-354.552	-138.576	0.177	-0.019
-353.537	800.000	0.068	-0.261
-352.523	-71.121	0.337	-0.126
-351.508	209.596	-0.164	-0.255
-350.493	-132.755	0.218	0.028
-349.479	-200.000	-0.048	0.309
-348.464	800.000	0.109	-0.311
-347.450	-106.298	-0.154	-0.034
-346.435	-149.419	-0.418	-0.033
-345.420	18.574	0.201	-0.160
-344.406	115.296	-0.261	-0.318
-343.391	-79.198	-0.045	-0.015
-342.377	66.739	0.220	-0.223
-341.362	-77.829	0.279	-0.096
-340.348	-200.000	0.028	0.156
-339.333	38.202	-0.154	0.136
-338.318	-176.135	-0.080	-0.002
-337.304	-75.440	-0.077	0.027
-336.289	-150.015	-0.138	0.011
-335.275	-121.969	0.285	0.047
-334.260	482.889	0.151	-0.340
-333.245	800.000	0.093	0.319
-332.231	-163.473	0.170	-0.008
-331.216	-200.000	0.043	-0.311
-330.202	90.508	0.046	-0.051
-329.187	639.626	-0.024	0.062
-328.172	-13.365	0.097	0.063
-327.158	142.320	0.080	0.106
-326.143	800.000	-0.056	0.158
-325.129	-29.754	-0.422	0.239
-324.114	41.583	-0.098	-0.089
-323.099	32.660	0.210	0.181
-322.085	-200.000	0.008	0.145
-321.070	-87.218	0.056	0.017
-320.056	50.826	0.034	-0.032
-319.041	-37.236	0.046	-0.025
-318.026	-200.000	0.013	0.235
-317.012	800.000	-0.017	-0.069
-315.997	41.619	-0.069	-0.062
-314.983	49.181	-0.143	0.134
-313.968	800.000	0.061	-0.198
-312.953	151.581	-0.197	-0.266
-311.939	524.280	0.033	-0.076
-310.924	-136.080	0.153	-0.018
-309.910	-200.000	-0.020	-0.196
-308.895	-116.807	0.350	-0.064
-307.880	-55.352	-0.184	-0.082
-306.866	16.096	-0.075	0.059
-305.851	-65.614	0.238	0.095
-304.837	7.738	-0.315	-0.234
-303.822	-4.194	-0.193	0.133
-302.807	-85.858	0.218	0.067
-301.793	499.567	0.160	0.366
-300.778	800.000	0.029	0.099
-299.764	-123.694	-0.070	0.011
-298.749	-89.692	-0.273	-0.079
-297.735	37.443	-0.153	-0.135
-296.720	580.869	-0.078	-0.189
-295.705	172.102	0.132	0.189
-294.691	800.000	0.036	-0.104
-293.676	-68.675	0.376	-0.144
-292.662	-200.000	0.028	-0.189
-291.647	43.385	-0.147	-0.133
-290.632	-106.434	-0.144	0.032
-289.618	-200.000	-0.303	-0.001
-288.603	-84.578	-0.259	0.081
-287.589	-81.969	-0.102	0.033
-286.574	800.000	0.108	-0.354
-285.559	-139.794	0.213	0.022
-284.545	800.000	0.101	-0.296
-283.530	-163.450	0.239	0.011
-282.516	-178.067	0.150	0.004
-281.501	626.504	-0.032	0.081
-280.486	341.633	0.107	0.208
-279.472	-32.228	0.055	0.031
-278.457	-56.246	-0.337	-0.149
-277.443	33.450	-0.071	0.061
-276.428	-71.177	-0.102	-0.038
-275.413	204.346	0.238	-0.365
-274.399	110.338	0.054	0.065
-273.384	-73.246	-0.223	0.081
-272.370	-200.000	0.063	-0.368
-271.355	32.534	0.040	0.034
-270.340	-120.051	-0.388	-0.066
-269.326	-200.000	0.028	0.130
-268.311	39.164	-0.295	-0.262
-267.297	800.000	-0.043	-0.163
-266.282	-154.484	0.164	-0.011
-265.267	-65.193	-0.107	-0.043
-264.253	12.178	0.135	-0.103
-263.238	-78.484	0.092	0.031
-262.224	-30.675	0.400	0.224
-261.209	228.641	-0.137	-0.222
-260.195	1.694	0.191	0.136
-259.180	-56.647	-0.164	-0.072
-258.165	-139.368	0.264	-0.028
-257.151	571.516	-0.038	-0.091
-256.136	654.541	0.065	0.165
-255.122	122.746	0.174	-0.216
-254.107	-41.551	0.169	-0.086
-253.092	71.945	-0.162	-0.167
-252.078	-68.583	0.041	0.016
-251.063	800.000	-0.038	-0.104
-250.049	167.959	-0.084	0.118
-249.034	611.506	-0.177	0.438
-248.019	800.000	0.111	0.471
-247.005	92.438	0.139	0.155
-245.990	800.000	0.085	-0.235
-244.976	196.263	-0.098	0.148
-243.961	315.075	0.067	-0.124
-242.946	-200.000	0.001	0.383
-241.932	132.372	-0.191	0.243
-240.917	362.805	-0.078	0.155
-239.903	327.680	-0.135	0.257
-238.888	-200.000	0.043	-0.232
-237.873	79.838	0.023	0.024
-236.859	336.769	-0.112	-0.215
-235.844	-200.000	0.006	-0.173
-234.830	61.333	-0.190	-0.187
-233.815	-200.000	-0.007	0.097
-232.800	66.900	-0.265	-0.267
-231.786	150.156	0.144	-0.194
-230.771	-120.114	-0.234	0.040
-229.757	-73.594	-0.398	0.144
-228.742	-200.000	0.038	0.461
-227.727	800.000	0.051	-0.170
-226.713	155.751	0.127	-0.173
-225.698	-57.412	0.352	0.153
-224.684	-128.695	-0.276	0.039
-223.669	-74.667	-0.069	-0.025
-222.655	-30.297	-0.068	0.038
-221.640	-139.032	-0.310	0.033
-220.625	23.676	0.092	0.075
-219.611	-200.000	0.005	0.094
-218.596	-52.236	-0.029	-0.014
-217.582	266.718	0.095	0.165
-216.567	800.000	-0.033	-0.124
-215.552	563.150	-0.116	0.279
-214.538	-19.961	0.176	0.108
-213.523	-100.222	-0.352	0.087
-212.509	800.000	0.053	0.177
-211.494	330.854	0.058	-0.110
-210.479	39.413	0.088	0.078
-209.465	-61.116	0.091	-0.038
-208.450	-128.594	0.113	-0.016
-207.436	-96.827	-0.064	0.017
-206.421	94.311	0.212	-0.238
-205.406	-123.505	-0.202	-0.032
-204.392	-74.761	-0.216	-0.077
-203.377	-177.941	-0.152	-0.004
-202.363	-63.936	-0.228	0.092
-201.348	-200.000	0.013	0.065
-200.333	-200.000	-0.021	0.208
-199.319	-74.087	0.199	-0.071
-198.304	-21.805	0.410	-0.247
-197.290	-62.328	-0.166	0.068
-196.275	563.538	-0.065	-0.154
-195.260	9.296	0.120	-0.090
-194.246	800.000	-0.086	-0.260
-193.231	23.764	-0.147	0.119
-192.217	-27.021	-0.321	0.185
-191.202	183.664	-0.077	-0.112
-190.187	-148.853	-0.372	0.030
-189.173	-200.000	-0.025	0.151
-188.158	-81.181	-0.179	0.058
-187.144	800.000	-0.016	-0.054
-186.129	624.216	0.165	-0.412
-185.114	-170.475	0.191	-0.007
-184.100	-118.735	-0.262	-0.046
-183.085	-25.595	-0.102	0.060
-182.071	199.135	0.035	-0.052
-181.056	59.931	0.241	0.235
-180.042	800.000	-0.033	0.124
-179.027	-103.267	-0.244	-0.057
-178.012	-200.000	0.017	-0.162
-176.998	-55.346	0.188	0.084
-175.983	-200.000	0.013	-0.201
-174.969	-89.637	0.194	0.056
-173.954	-35.943	-0.354	0.189
-172.939	800.000	0.032	0.139
-171.925	324.625	0.122	0.230
-170.910	-47.191	-0.074	-0.036
-169.896	530.773	0.123	0.286
-168.881	-99.765	-0.140	-0.035
-167.866	-37.672	0.116	-0.061
-166.852	-62.040	0.287	0.118
-165.837	65.183	-0.118	0.118
-164.823	39.686	-0.038	0.034
-163.808	-2.084	0.035	0.024
-162.793	800.000	-0.054	-0.177
-161.779	289.800	-0.176	0.315
-160.764	202.360	0.173	-0.263
-159.750	-200.000	0.046	-0.398
-158.735	-34.473	-0.224	0.121
-157.720	34.844	0.266	0.230
-156.706	-127.309	-0.162	-0.023
-155.691	19.247	-0.120	-0.095
-154.677	201.021	0.031	0.046
-153.662	800.000	0.027	0.102
-152.647	32.671	0.060	-0.051
-151.633	124.670	-0.135	0.168
-150.618	444.957	-0.038	0.082
-149.604	59.846	0.229	0.223
-148.589	-91.936	0.229	0.064
-147.574	-46.663	-0.145	-0.070
-146.560	204.018	-0.096	-0.146
-145.545	-81.682	-0.157	-0.051
-144.531	-89.880	0.223	0.064
-143.516	187.410	0.112	0.165
-142.502	176.313	0.094	0.134
-141.487	-175.187	-0.093	-0.003
-140.472	-200.000	0.075	0.423
-139.458	-200.000	0.013	0.361
-138.443	-108.756	0.294	-0.062
-137.429	14.348	0.149	0.115
-136.414	-96.824	0.127	0.033
-135.399	-200.000	0.005	0.281
-134.385	-94.325	0.265	-0.071
-133.370	800.000	0.066	-0.212
-132.356	-95.954	-0.196	-0.052
-131.341	800.000	0.121	0.381
-130.326	-185.644	0.122	-0.002
-129.312	-126.671	0.205	0.030
-128.297	-57.686	0.271	0.117
-127.283	-200.000	-0.036	0.219
-126.268	-135.454	-0.178	-0.021
-125.253	-56.313	0.387	0.170
-124.239	-200.000	0.054	-0.246
-123.224	-28.263	0.148	0.084
-122.210	160.645	0.048	-0.065
-121.195	599.618	-0.087	0.213
-120.180	-69.749	0.307	-0.115
