DTS Sentinel unit serial number:	SN413079Multiplexer serial number:	ORYXHardware model number:	OX4-SRSoftware version number:	ORYX F/W v4.00 Oryx Data Collector v3.7.2.0data status	okinstallation	princeton_trtdifferential loss correction	single-endedforward channel	channel 1reverse channel	N/Adate	2019/09/14time	03:26:35forward acquisition time	60.00reverse acquisition time	0.00gamma	496.2192k internal	0.2336k external	0.2336temperature offset calibration	1.0073default loss term (dB/km)	0.3790temperature slope calibration	1.0000multiplexer offset coefficient	1.0000multiplexer slope coefficient	1.0000fibre end	0.00T internal ref (°C)	26.62T ext. ref 1 (°C)	3.27T ext. ref 2 (°C)	21.60length (m)	temperature (°C)	Stokes	anti-Stokes-747.200	329.588	0.168	-0.324
-746.185	-200.000	-0.030	-0.156
-745.171	-126.026	0.300	0.045
-744.156	-63.819	0.313	-0.129
-743.142	281.658	0.058	-0.103
-742.127	-116.808	0.478	-0.088
-741.112	109.578	0.139	0.168
-740.098	-121.154	-0.306	0.051
-739.083	475.093	0.051	-0.115
-738.069	-69.247	0.197	0.076
-737.054	800.000	0.055	0.177
-736.039	22.692	-0.159	0.131
-735.025	-2.744	0.367	0.258
-734.010	-37.050	-0.147	-0.079
-732.996	139.053	0.417	-0.550
-731.981	134.548	0.083	-0.108
-730.966	-200.000	0.004	-0.280
-729.952	-21.372	-0.142	0.087
-728.937	-200.000	0.047	-0.313
-727.923	-9.784	-0.168	-0.113
-726.908	-135.591	0.148	0.018
-725.894	51.723	-0.188	-0.180
-724.879	-200.000	0.036	0.247
-723.864	-200.000	-0.061	0.314
-722.850	800.000	-0.100	-0.396
-721.835	-200.000	0.027	-0.232
-720.821	458.209	0.102	0.227
-719.806	-152.188	-0.358	0.026
-718.791	17.061	-0.089	0.071
-717.777	-144.728	-0.138	-0.013
-716.762	-200.000	0.029	0.178
-715.748	800.000	0.046	0.168
-714.733	63.564	0.102	-0.103
-713.718	-173.385	0.095	0.003
-712.704	-200.000	0.006	-0.060
-711.689	-81.948	0.125	0.041
-710.675	154.977	-0.059	-0.082
-709.660	800.000	0.135	-0.426
-708.645	-56.480	-0.257	0.114
-707.631	30.640	0.238	0.204
-706.616	-13.665	-0.191	-0.124
-705.602	110.847	0.065	-0.078
-704.587	-200.000	-0.008	-0.187
-703.572	-185.937	-0.474	0.007
-702.558	-129.201	0.241	-0.034
-701.543	-32.779	0.076	-0.043
-700.529	11.984	-0.214	-0.165
-699.514	407.565	-0.129	0.273
-698.499	-83.074	-0.203	-0.066
-697.485	106.040	-0.152	-0.181
-696.470	-200.000	0.031	-0.204
-695.456	646.882	-0.114	-0.291
-694.441	293.941	-0.164	-0.301
-693.426	354.238	-0.010	-0.020
-692.412	-200.000	0.033	0.295
-691.397	-122.566	0.144	-0.023
-690.383	-111.441	0.087	-0.018
-689.368	263.804	-0.194	-0.338
-688.354	487.473	0.071	-0.163
-687.339	-200.000	0.027	-0.228
-686.324	10.416	-0.143	-0.109
-685.310	-200.000	0.007	-0.071
-684.295	60.127	-0.418	0.414
-683.281	800.000	-0.064	0.265
-682.266	249.372	0.078	-0.133
-681.251	-27.383	-0.375	0.219
-680.237	147.557	-0.143	-0.192
-679.222	544.525	0.187	-0.448
-678.208	135.258	0.211	-0.275
-677.193	466.231	0.070	0.158
-676.178	-134.963	-0.193	-0.023
-675.164	800.000	-0.015	0.047
-674.149	269.585	0.230	-0.405
-673.135	-200.000	0.010	0.341
-672.120	-200.000	0.070	0.367
-671.105	800.000	-0.134	0.440
-670.091	800.000	-0.062	0.218
-669.076	3.322	-0.154	0.112
-668.062	800.000	0.055	0.173
-667.047	471.168	0.037	-0.084
-666.032	-120.559	0.129	0.022
-665.018	800.000	0.105	0.298
-664.003	637.629	0.117	0.297
-662.989	23.921	0.100	0.082
-661.974	-180.296	-0.052	-0.001
-660.959	800.000	-0.051	0.188
-659.945	-58.498	-0.110	0.048
-658.930	634.244	-0.079	-0.200
-657.916	-200.000	-0.011	0.149
-656.901	92.330	0.127	-0.143
-655.886	613.334	-0.172	-0.432
-654.872	-5.969	-0.187	0.128
-653.857	27.941	-0.255	-0.215
-652.843	524.186	-0.147	-0.346
-651.828	800.000	-0.106	-0.351
-650.814	-134.115	0.027	0.003
-649.799	-50.079	-0.276	-0.131
-648.784	275.210	-0.081	-0.144
-647.770	800.000	0.045	-0.127
-646.755	411.373	0.335	-0.712
-645.741	-102.747	-0.349	-0.083
-644.726	-70.328	0.053	0.020
-643.711	-200.000	0.026	-0.154
-642.697	80.517	0.055	0.059
-641.682	-143.226	0.237	-0.023
-640.668	-200.000	-0.043	-0.427
-639.653	53.055	0.119	-0.114
-638.638	-81.721	-0.397	-0.130
-637.624	-71.587	0.096	0.036
-636.609	-57.699	-0.187	-0.082
-635.595	-200.000	-0.009	-0.456
-634.580	-166.348	-0.291	-0.012
-633.565	-85.212	0.161	0.050
-632.551	557.809	0.068	-0.165
-631.536	-147.212	0.174	0.015
-630.522	-73.402	0.347	0.127
-629.507	51.730	-0.118	-0.113
-628.492	800.000	0.047	0.132
-627.478	78.235	-0.117	-0.125
-626.463	-200.000	0.061	0.490
-625.449	167.248	-0.157	0.224
-624.434	104.169	-0.087	-0.102
-623.419	-88.587	0.211	0.063
-622.405	800.000	-0.058	0.218
-621.390	800.000	-0.031	-0.109
-620.376	-108.309	-0.299	0.065
-619.361	-113.406	-0.181	0.035
-618.346	772.336	0.173	-0.471
-617.332	-200.000	0.018	-0.334
-616.317	-71.146	-0.188	-0.070
-615.303	126.656	-0.132	-0.168
-614.288	56.465	0.143	0.139
-613.273	-200.000	0.021	0.367
-612.259	-200.000	-0.026	-0.312
-611.244	-124.170	-0.212	0.033
-610.230	-200.000	-0.063	0.363
-609.215	-173.865	-0.405	0.012
-608.201	800.000	0.030	-0.114
-607.186	-49.701	0.200	0.095
-606.171	-200.000	0.030	-0.191
-605.157	-140.991	0.114	0.012
-604.142	501.239	0.092	-0.212
-603.128	442.940	-0.014	-0.030
-602.113	-163.432	-0.364	0.017
-601.098	26.214	-0.218	-0.182
-600.084	-125.516	0.108	-0.016
-599.069	119.140	0.168	-0.207
-598.055	-50.762	-0.204	0.096
-597.040	119.210	-0.129	0.159
-596.025	-39.239	-0.185	0.097
-595.011	10.632	0.160	0.122
-593.996	204.508	0.037	0.058
-592.982	133.816	-0.236	-0.305
-591.967	554.170	-0.076	-0.182
-590.952	-200.000	0.007	0.122
-589.938	716.211	0.053	-0.140
-588.923	36.337	-0.045	-0.039
-587.909	-182.415	0.374	0.007
-586.894	-57.817	-0.381	0.166
-585.879	12.622	0.245	-0.188
-584.865	800.000	-0.155	-0.428
-583.850	-200.000	-0.016	-0.306
-582.836	-200.000	-0.057	-0.333
-581.821	-104.437	0.085	-0.020
-580.806	-13.373	0.321	0.208
-579.792	171.091	0.119	0.170
-578.777	-57.954	0.238	-0.104
-577.763	122.142	0.117	0.145
-576.748	-98.481	-0.279	-0.071
-575.733	-145.905	0.150	0.013
-574.719	-132.462	0.264	0.034
-573.704	-120.947	-0.358	0.060
-572.690	800.000	-0.066	-0.253
-571.675	-19.543	-0.074	-0.046
-570.661	228.149	0.075	0.122
-569.646	-200.000	0.046	0.310
-568.631	-78.821	0.210	-0.071
-567.617	487.123	0.056	-0.128
-566.602	-71.721	-0.190	-0.071
-565.588	-200.000	-0.081	-0.402
-564.573	255.967	0.092	-0.158
-563.558	40.207	0.402	-0.360
-562.544	105.344	-0.059	0.069
-561.529	-78.380	-0.244	0.083
-560.515	-74.103	0.187	-0.068
-559.500	-126.444	-0.156	-0.023
-558.485	-112.246	-0.492	0.098
-557.471	-112.887	0.281	-0.055
-556.456	-163.985	0.203	-0.009
-555.442	-200.000	-0.004	0.263
-554.427	219.881	0.109	0.174
-553.412	-166.247	0.122	0.005
-552.398	-6.716	-0.296	-0.201
-551.383	-38.524	0.058	-0.031
-550.369	-92.033	0.242	-0.068
-549.354	-200.000	-0.015	-0.156
-548.339	48.538	-0.179	0.167
-547.325	239.142	0.193	-0.319
-546.310	-88.741	-0.310	-0.092
-545.296	359.246	0.066	0.131
-544.281	-200.000	0.023	-0.124
-543.266	800.000	-0.030	-0.125
-542.252	-47.543	0.148	-0.072
-541.237	57.785	0.137	0.134
-540.223	307.037	0.090	0.168
-539.208	29.356	-0.169	0.143
-538.193	174.640	-0.060	-0.086
-537.179	66.342	-0.067	0.068
-536.164	435.290	0.050	0.109
-535.150	130.955	0.242	-0.310
-534.135	-200.000	-0.021	-0.170
-533.121	-60.080	0.210	0.089
-532.106	-200.000	0.003	-0.112
-531.091	149.746	-0.325	-0.438
-530.077	-36.248	0.133	0.071
-529.062	-78.205	0.097	-0.033
-528.048	26.096	0.212	-0.176
-527.033	332.858	0.233	-0.448
-526.018	589.408	0.080	-0.197
-525.004	614.188	-0.041	0.101
-523.989	98.406	-0.300	-0.344
-522.975	-200.000	0.016	0.110
-521.960	-10.732	0.055	-0.036
-520.945	268.430	-0.120	-0.209
-519.931	187.973	0.239	0.356
-518.916	-136.637	-0.243	-0.028
-517.902	-4.659	-0.192	0.132
-516.887	-113.862	-0.290	-0.056
-515.872	27.837	-0.079	-0.066
-514.858	-200.000	-0.026	-0.137
-513.843	294.448	0.152	0.276
-512.829	80.055	0.060	0.065
-511.814	-126.682	-0.244	-0.036
-510.799	30.864	-0.148	0.126
-509.785	800.000	-0.067	0.191
-508.770	800.000	0.012	-0.041
-507.756	3.061	-0.173	-0.125
-506.741	140.319	-0.198	0.260
-505.726	67.892	0.220	0.224
-504.712	286.590	-0.126	0.226
-503.697	-200.000	0.005	-0.083
-502.683	-11.749	0.081	-0.053
-501.668	-133.271	0.116	-0.015
-500.653	-108.871	0.428	-0.091
-499.639	41.582	-0.157	-0.141
-498.624	-112.401	0.342	-0.068
-497.610	21.478	-0.123	0.100
-496.595	800.000	-0.055	0.226
-495.581	-62.158	-0.112	-0.046
-494.566	202.324	-0.028	-0.042
-493.551	654.545	0.021	-0.053
-492.537	-200.000	0.038	0.172
-491.522	-153.539	0.191	-0.013
-490.508	800.000	0.105	-0.339
-489.493	-97.691	0.205	0.053
-488.478	-200.000	-0.037	0.543
-487.464	-87.418	0.135	-0.041
-486.449	-200.000	0.034	0.212
-485.435	-75.612	0.276	-0.098
-484.420	-200.000	-0.014	0.091
-483.405	-200.000	-0.033	-0.194
-482.391	97.605	0.169	0.194
-481.376	-2.511	0.098	0.068
-480.362	31.773	0.236	0.202
-479.347	800.000	-0.182	0.633
-478.332	800.000	-0.041	-0.172
-477.318	-200.000	0.049	-0.354
-476.303	-108.818	0.273	-0.058
-475.289	800.000	0.109	-0.393
-474.274	-200.000	0.006	-0.123
-473.259	-56.290	-0.038	-0.017
-472.245	42.484	0.254	0.229
-471.230	-33.521	-0.242	0.133
-470.216	-94.827	0.253	-0.068
-469.201	457.991	-0.039	0.086
-468.186	-200.000	-0.018	0.194
-467.172	-44.947	-0.252	-0.125
-466.157	-141.161	0.211	0.021
-465.143	160.019	-0.311	-0.430
-464.128	-175.071	0.389	-0.011
-463.113	20.558	-0.210	0.169
-462.099	28.925	0.161	0.136
-461.084	146.204	-0.046	-0.061
-460.070	5.489	0.201	-0.147
-459.055	-200.000	-0.041	-0.249
-458.040	-61.325	-0.183	-0.076
-457.026	232.383	-0.050	-0.082
-456.011	-125.054	-0.193	0.029
-454.997	-30.254	-0.078	-0.044
-453.982	75.130	-0.243	0.255
-452.968	-60.700	-0.104	-0.044
-451.953	-113.496	-0.380	0.074
-450.938	-200.000	-0.028	-0.126
-449.924	-43.061	-0.220	-0.111
-448.909	-88.949	-0.224	-0.066
-447.895	231.247	-0.185	0.301
-446.880	33.975	-0.188	-0.163
-445.865	-65.305	0.420	-0.168
-444.851	-200.000	0.025	0.269
-443.836	-42.385	0.139	-0.071
-442.822	-86.679	0.080	-0.024
-441.807	-118.787	0.000	0.000
-440.792	92.825	0.141	-0.158
-439.778	800.000	0.070	-0.234
-438.763	-147.943	0.350	0.029
-437.749	-54.104	-0.053	0.024
-436.734	-32.898	-0.068	0.037
-435.719	800.000	-0.048	-0.132
-434.705	-200.000	0.014	0.114
-433.690	-200.000	0.038	-0.326
-432.676	41.869	0.112	0.101
-431.661	60.109	0.080	0.079
-430.646	-96.594	0.118	-0.031
-429.632	-43.128	-0.168	-0.084
-428.617	52.669	0.187	0.178
-427.603	17.172	-0.303	-0.238
-426.588	72.427	0.149	0.154
-425.573	-63.465	0.129	0.053
-424.559	-2.068	0.481	0.335
-423.544	-200.000	-0.018	0.440
-422.530	-157.675	0.159	-0.009
-421.515	45.725	-0.291	-0.267
-420.500	-200.000	0.010	-0.217
-419.486	-103.185	-0.246	0.058
-418.471	104.366	-0.234	0.273
-417.457	-200.000	0.061	-0.313
-416.442	-87.234	-0.133	0.040
-415.428	-200.000	0.004	0.191
-414.413	295.223	-0.141	-0.256
-413.398	800.000	0.070	-0.246
-412.384	-81.775	0.203	-0.066
-411.369	100.173	-0.174	0.200
-410.355	441.025	-0.070	0.151
-409.340	-107.425	-0.256	-0.056
-408.325	49.111	-0.283	-0.263
-407.311	-12.401	-0.131	0.085
-406.296	474.389	-0.148	-0.331
-405.282	130.799	-0.317	-0.403
-404.267	-76.620	-0.327	-0.114
-403.252	635.142	0.083	0.209
-402.238	-74.340	-0.372	0.133
-401.223	445.456	0.141	0.306
-400.209	743.963	0.078	-0.207
-399.194	255.452	-0.082	0.140
-398.179	285.371	-0.141	-0.251
-397.165	-99.814	-0.091	0.023
-396.150	-84.336	0.251	-0.079
-395.136	-200.000	-0.006	0.177
-394.121	80.861	-0.102	-0.109
-393.106	43.067	-0.018	0.016
-392.092	28.018	0.042	0.035
-391.077	800.000	0.035	-0.099
-390.063	-137.057	-0.225	-0.025
-389.048	12.941	-0.130	-0.100
-388.033	800.000	-0.032	0.112
-387.019	50.466	0.333	0.312
-386.004	-3.390	0.062	0.043
-384.990	63.680	-0.122	0.122
-383.975	-67.663	0.098	-0.038
-382.960	110.071	0.228	-0.271
-381.946	-200.000	0.030	-0.139
-380.931	-86.588	0.263	-0.080
-379.917	-160.237	0.296	0.016
-378.902	-46.177	0.187	-0.091
-377.888	772.544	0.032	0.087
-376.873	-200.000	-0.055	-0.507
-375.858	-73.921	0.090	-0.032
-374.844	495.346	0.129	0.293
-373.829	-200.000	-0.007	-0.357
-372.815	-37.175	-0.123	-0.065
-371.800	86.647	0.122	-0.133
-370.785	480.188	-0.101	0.227
-369.771	-138.225	0.193	-0.021
-368.756	-109.736	-0.407	-0.085
-367.742	-200.000	0.039	0.197
-366.727	-200.000	0.072	-0.368
-365.712	-94.221	0.216	0.058
-364.698	112.800	-0.187	0.224
-363.683	274.754	0.058	0.102
-362.669	-27.863	-0.311	-0.179
-361.654	342.292	0.036	0.070
-360.639	-38.048	0.271	0.142
-359.625	26.524	-0.068	-0.056
-358.610	-200.000	0.056	0.414
-357.596	-66.326	-0.249	0.098
-356.581	-39.343	-0.144	-0.075
-355.566	-162.807	0.084	-0.004
-354.552	106.349	-0.199	-0.234
-353.537	2.886	0.308	-0.221
-352.523	312.239	0.139	0.258
-351.508	182.219	0.067	0.098
-350.493	800.000	-0.038	-0.136
-349.479	540.315	-0.201	-0.474
-348.464	182.595	0.069	-0.101
-347.450	-156.519	-0.228	0.014
-346.435	34.400	0.108	-0.093
-345.420	-46.271	-0.184	0.089
-344.406	4.685	-0.256	-0.186
-343.391	800.000	0.064	-0.275
-342.377	-200.000	0.004	0.026
-341.362	-200.000	0.000	-0.004
-340.348	-200.000	0.014	-0.197
-339.333	-200.000	-0.019	-0.263
-338.318	-10.836	-0.204	0.133
-337.304	-160.039	0.147	-0.008
-336.289	-143.929	0.477	-0.044
-335.275	53.045	-0.139	0.132
-334.260	-200.000	0.009	0.097
-333.245	123.108	0.130	0.161
-332.231	-29.709	-0.132	-0.075
-331.216	-54.885	0.163	0.073
-330.202	60.321	0.043	-0.042
-329.187	-142.626	-0.160	-0.015
-328.172	41.611	-0.132	0.118
-327.158	203.722	0.091	-0.139
-326.143	180.910	-0.057	0.082
-325.129	-200.000	-0.071	-0.311
-324.114	800.000	-0.142	0.602
-323.099	-200.000	0.031	0.169
-322.085	-200.000	-0.011	-0.135
-321.070	-200.000	0.067	-0.445
-320.056	339.813	0.057	-0.110
-319.041	-111.719	-0.191	0.038
-318.026	155.447	0.279	-0.379
-317.012	322.504	-0.093	-0.175
-315.997	-61.105	0.272	-0.113
-314.983	494.743	0.127	0.287
-313.968	-103.889	-0.303	0.070
-312.953	4.182	0.165	0.119
-311.939	800.000	-0.048	0.134
-310.924	241.695	-0.181	0.298
-309.910	-117.657	0.269	-0.048
-308.895	-46.028	-0.093	-0.045
-307.880	-50.613	-0.275	-0.128
-306.866	144.376	-0.150	0.198
-305.851	411.569	-0.224	0.470
-304.837	-200.000	0.010	0.184
-303.822	361.317	-0.018	-0.035
-302.807	-52.773	-0.297	-0.135
-301.793	-66.402	0.260	-0.102
-300.778	403.903	-0.080	0.165
-299.764	270.094	0.109	-0.189
-298.749	255.323	-0.147	0.248
-297.735	168.299	0.142	0.199
-296.720	122.902	0.246	-0.304
-295.705	-96.091	-0.423	-0.111
-294.691	99.140	-0.044	-0.051
-293.676	-200.000	0.004	-0.228
-292.662	800.000	-0.118	0.352
-291.647	595.766	0.078	-0.191
-290.632	3.423	0.257	0.185
-289.618	523.160	-0.162	0.377
-288.603	-167.865	-0.200	-0.008
-287.589	17.514	0.254	-0.199
-286.574	-200.000	-0.014	-0.141
-285.559	-200.000	-0.038	0.440
-284.545	800.000	-0.064	0.226
-283.530	-96.040	0.102	0.027
-282.516	71.645	0.178	-0.183
-281.501	-13.104	0.206	-0.132
-280.486	36.338	0.256	-0.223
-279.472	800.000	-0.059	0.189
-278.457	-69.247	0.156	-0.059
-277.443	-17.556	-0.045	-0.028
-276.428	76.555	0.172	-0.180
-275.413	800.000	0.056	-0.197
-274.399	-21.387	0.239	0.144
-273.384	-149.979	-0.248	0.019
-272.370	-200.000	-0.021	0.169
-271.355	-10.288	0.213	-0.140
-270.340	-200.000	0.032	0.162
-269.326	471.090	-0.036	-0.079
-268.311	29.678	-0.149	-0.125
-267.297	-107.274	-0.374	-0.081
-266.282	16.719	-0.222	-0.173
-265.267	800.000	-0.014	0.050
-264.253	-170.072	-0.210	0.007
-263.238	-155.626	0.149	-0.009
-262.224	47.938	-0.147	0.136
-261.209	-200.000	-0.032	-0.270
-260.195	800.000	-0.059	0.162
-259.180	-200.000	-0.018	0.227
-258.165	153.525	-0.330	0.445
-257.151	85.107	-0.008	0.009
-256.136	16.738	0.444	0.346
-255.122	-38.186	0.182	0.095
-254.107	-83.510	0.188	-0.059
-253.092	-13.303	0.192	0.122
-252.078	163.072	-0.195	-0.270
-251.063	-74.718	0.058	0.021
-250.049	2.167	-0.215	0.153
-249.034	144.887	-0.069	0.090
-248.019	-200.000	-0.113	0.523
-247.005	-119.312	-0.175	-0.030
-245.990	-81.130	0.196	-0.064
-244.976	499.383	-0.093	0.211
-243.961	42.901	0.064	-0.058
-242.946	-200.000	0.055	0.311
-241.932	140.194	-0.050	0.065
-240.917	-2.143	0.037	-0.026
-239.903	800.000	-0.063	-0.186
-238.888	-30.228	0.158	0.089
-237.873	187.064	0.050	0.073
-236.859	-200.000	0.019	0.093
-235.844	124.575	-0.177	0.220
-234.830	800.000	-0.038	0.107
-233.815	800.000	0.075	0.215
-232.800	-200.000	-0.033	0.170
-231.786	-200.000	-0.029	0.361
-230.771	14.690	0.062	-0.048
-229.757	4.416	0.434	-0.313
-228.742	10.969	0.314	-0.236
-227.727	-73.394	0.178	-0.064
-226.713	222.751	0.122	-0.193
-225.698	-80.913	0.265	-0.086
-224.684	83.904	0.141	0.151
-223.669	33.966	-0.276	0.236
-222.655	172.299	0.196	-0.277
-221.640	-105.035	0.474	-0.107
-220.625	800.000	0.013	-0.045
-219.611	466.134	0.110	0.243
-218.596	-200.000	-0.034	0.291
-217.582	330.353	-0.107	0.202
-216.567	130.128	0.088	-0.111
-215.552	-200.000	0.002	0.124
-214.538	-123.647	-0.238	0.037
-213.523	-74.682	0.166	-0.059
-212.509	800.000	0.055	0.179
-211.494	-108.495	0.060	0.013
-210.479	-200.000	-0.013	0.167
-209.465	-96.009	0.114	0.030
-208.450	-135.695	-0.349	-0.041
-207.436	215.374	0.083	-0.130
-206.421	-73.509	-0.210	0.075
-205.406	596.695	-0.135	-0.328
-204.392	800.000	0.088	0.344
-203.377	549.298	-0.082	0.192
-202.363	800.000	-0.085	0.335
-201.348	800.000	0.064	0.231
-200.333	-81.585	-0.306	0.099
-199.319	145.378	-0.082	-0.108
-198.304	158.918	-0.067	0.092
-197.290	63.781	-0.081	0.080
-196.275	451.801	-0.112	-0.244
-195.260	-6.671	0.267	-0.179
-194.246	-75.966	-0.080	0.028
-193.231	-78.781	-0.223	-0.075
-192.217	162.473	0.065	0.090
-191.202	119.947	-0.099	0.120
-190.187	-45.905	0.020	0.010
-189.173	-4.577	-0.153	0.104
-188.158	-200.000	-0.027	0.271
-187.144	-200.000	-0.069	0.534
-186.129	-14.290	0.192	-0.122
-185.114	-23.003	0.216	0.128
-184.100	140.630	-0.099	0.129
-183.085	800.000	0.040	0.116
-182.071	526.401	0.042	-0.097
-181.056	-9.871	0.326	0.213
-180.042	45.777	-0.151	-0.137
-179.027	-111.515	-0.086	-0.017
-178.012	-168.787	0.258	0.010
-176.998	569.728	-0.072	0.173
-175.983	800.000	0.027	-0.112
-174.969	-200.000	-0.048	0.256
-173.954	384.526	0.148	0.300
-172.939	800.000	0.114	0.325
-171.925	169.501	0.183	0.256
-170.910	800.000	-0.037	0.126
-169.896	-79.288	-0.205	-0.068
-168.881	-74.608	0.304	-0.107
-167.866	-132.162	-0.091	0.012
-166.852	154.057	0.088	-0.119
-165.837	800.000	-0.102	-0.285
-164.823	-145.385	0.165	0.015
-163.808	-36.489	0.138	-0.073
-162.793	-200.000	0.045	0.257
-161.779	-200.000	-0.022	0.104
-160.764	108.355	-0.017	0.020
-159.750	50.349	-0.216	-0.201
-158.735	-39.878	-0.136	0.070
-157.720	-129.998	-0.326	0.044
-156.706	-200.000	-0.002	0.176
-155.691	456.889	-0.190	0.414
-154.677	-31.694	-0.050	-0.028
-153.662	-119.856	0.520	0.088
-152.647	165.197	0.193	0.268
-151.633	84.234	-0.142	0.152
-150.618	68.122	0.167	0.168
-149.604	-110.398	-0.329	0.067
-148.589	-200.000	-0.060	-0.353
-147.574	38.442	-0.106	-0.093
-146.560	800.000	-0.140	0.436
-145.545	27.851	0.071	0.058
-144.531	-200.000	-0.074	0.403
-143.516	-181.202	0.545	-0.011
-142.502	-126.628	0.160	-0.023
-141.487	-5.358	0.018	-0.012
-140.472	-200.000	-0.023	0.138
-139.458	612.682	-0.067	0.165
-138.443	154.683	0.171	-0.231
-137.429	58.269	0.117	-0.113
-136.414	-102.921	-0.123	0.029
-135.399	557.011	-0.187	0.442
-134.385	584.295	-0.022	0.054
-133.370	-12.813	0.208	0.133
-132.356	-152.348	0.503	0.036
-131.341	515.265	-0.060	0.137
-130.326	-35.085	0.199	-0.106
-129.312	425.989	-0.064	0.135
-128.297	-161.136	0.089	0.005
-127.283	-200.000	0.018	-0.269
-126.268	-200.000	0.056	-0.460
-125.253	-146.373	0.449	0.039
-124.239	236.819	0.270	0.438
-123.224	288.761	-0.116	-0.205
-122.210	-22.694	0.269	0.159
-121.195	-91.846	0.472	0.131
