DTS Sentinel unit serial number:	SN413079Multiplexer serial number:	ORYXHardware model number:	OX4-SRSoftware version number:	ORYX F/W v4.00 Oryx Data Collector v3.7.2.0data status	okinstallation	princeton_trtdifferential loss correction	single-endedforward channel	channel 1reverse channel	N/Adate	2019/09/14time	14:26:35forward acquisition time	60.00reverse acquisition time	0.00gamma	496.2192k internal	0.2293k external	0.2293temperature offset calibration	1.0076default loss term (dB/km)	0.3790temperature slope calibration	1.0000multiplexer offset coefficient	1.0000multiplexer slope coefficient	1.0000fibre end	0.00T internal ref (°C)	39.05T ext. ref 1 (°C)	5.11T ext. ref 2 (°C)	35.63length (m)	temperature (°C)	Stokes	anti-Stokes-747.200	108.552	0.224	-0.274
-746.185	44.495	-0.147	0.138
-745.171	-181.400	0.081	0.002
-744.156	-135.817	0.158	-0.019
-743.142	16.790	-0.091	-0.073
-742.127	70.577	-0.188	0.199
-741.112	362.352	0.079	0.163
-740.098	-13.868	-0.115	-0.076
-739.083	61.587	-0.207	-0.210
-738.069	-55.961	0.124	-0.057
-737.054	-180.895	0.251	-0.005
-736.039	-75.200	-0.250	0.091
-735.025	-38.943	0.116	-0.062
-734.010	-23.007	-0.212	0.131
-732.996	-84.807	0.066	0.021
-731.981	-100.560	0.234	0.059
-730.966	-194.485	-0.255	-0.002
-729.952	138.544	-0.091	-0.122
-728.937	-90.962	0.148	0.044
-727.923	266.966	0.137	-0.245
-726.908	209.222	-0.116	-0.186
-725.894	26.104	-0.137	-0.117
-724.879	800.000	0.158	-0.565
-723.864	-200.000	-0.018	-0.137
-722.850	800.000	-0.123	-0.383
-721.835	-122.788	0.162	-0.027
-720.821	-200.000	-0.003	0.139
-719.806	-69.108	-0.462	-0.182
-718.791	-200.000	-0.011	0.048
-717.777	425.290	-0.082	-0.180
-716.762	172.505	0.204	-0.300
-715.748	3.755	-0.280	0.209
-714.733	477.914	-0.049	-0.113
-713.718	28.732	0.137	0.119
-712.704	800.000	0.079	-0.267
-711.689	-186.985	-0.120	-0.002
-710.675	554.477	-0.076	0.187
-709.660	778.002	0.104	0.290
-708.645	-58.815	-0.137	0.061
-707.631	220.632	0.165	-0.270
-706.616	-23.326	0.336	-0.206
-705.602	3.494	0.319	-0.238
-704.587	-42.448	-0.063	0.033
-703.572	-7.476	0.106	0.073
-702.558	637.894	0.079	-0.204
-701.543	-200.000	-0.007	0.229
-700.529	157.580	0.171	0.241
-699.514	-116.085	-0.385	-0.073
-698.499	-97.009	-0.148	-0.040
-697.485	118.790	-0.086	0.109
-696.470	26.642	-0.196	-0.168
-695.456	-200.000	-0.010	0.142
-694.441	-103.816	-0.180	-0.043
-693.426	404.752	-0.135	0.290
-692.412	9.977	0.274	0.212
-691.397	-40.218	0.122	-0.065
-690.383	117.711	-0.190	0.239
-689.368	204.880	-0.119	-0.189
-688.354	-59.245	0.253	-0.111
-687.339	-200.000	-0.031	-0.150
-686.324	310.514	0.081	0.156
-685.310	239.069	0.143	0.243
-684.295	-200.000	-0.002	0.216
-683.281	-96.310	-0.328	-0.089
-682.266	-200.000	-0.047	-0.226
-681.251	245.261	0.055	0.095
-680.237	177.959	0.126	0.187
-679.222	-105.582	-0.077	0.018
-678.208	272.724	-0.102	-0.184
-677.193	800.000	0.040	-0.114
-676.178	-21.807	0.135	-0.084
-675.164	34.836	0.106	0.094
-674.149	-7.238	0.182	-0.126
-673.135	-152.070	-0.265	0.020
-672.120	140.130	0.031	-0.042
-671.105	631.464	0.121	0.312
-670.091	346.062	-0.068	0.137
-669.076	-65.008	-0.183	-0.075
-668.062	800.000	-0.052	0.181
-667.047	488.289	-0.162	-0.377
-666.032	-99.350	0.119	0.031
-665.018	-18.692	0.144	-0.092
-664.003	-200.000	0.024	0.198
-662.989	729.337	0.039	-0.107
-661.974	258.365	0.024	0.041
-660.959	-26.195	-0.321	-0.192
-659.945	347.741	-0.074	-0.149
-658.930	143.224	0.039	0.053
-657.916	-63.461	-0.030	0.013
-656.901	-200.000	0.012	0.261
-655.886	-51.702	-0.144	-0.069
-654.872	-176.978	0.199	-0.005
-653.857	-21.732	0.275	0.171
-652.843	-200.000	-0.066	0.311
-651.828	-101.392	-0.053	0.013
-650.814	32.451	-0.177	0.156
-649.799	91.832	0.173	0.198
-648.784	67.288	0.080	0.084
-647.770	107.554	-0.162	-0.197
-646.755	-68.535	-0.252	0.099
-645.741	120.465	0.201	-0.254
-644.726	115.063	0.095	-0.118
-643.711	149.042	-0.180	0.248
-642.697	-22.777	0.288	-0.177
-641.682	-200.000	0.009	0.116
-640.668	39.720	0.177	0.162
-639.653	-11.978	-0.161	0.107
-638.638	-96.180	-0.265	-0.072
-637.624	414.301	0.057	0.123
-636.609	-119.456	0.030	-0.005
-635.595	243.784	-0.142	-0.242
-634.580	-127.444	0.266	0.039
-633.565	3.353	0.165	0.122
-632.551	-73.156	0.080	-0.030
-631.536	-200.000	0.009	0.405
-630.522	-40.539	0.026	0.014
-629.507	-97.022	0.167	-0.045
-628.492	506.106	-0.091	0.215
-627.478	-200.000	0.004	-0.062
-626.463	234.449	-0.148	0.248
-625.449	161.523	-0.100	-0.143
-624.434	-200.000	0.044	-0.369
-623.419	55.872	0.116	0.115
-622.405	-200.000	-0.056	-0.360
-621.390	-200.000	-0.002	-0.018
-620.376	800.000	0.045	-0.133
-619.361	-200.000	0.038	0.181
-618.346	553.608	0.110	0.268
-617.332	-200.000	0.005	-0.244
-616.317	-200.000	-0.006	0.170
-615.303	-125.437	0.061	0.009
-614.288	-155.474	-0.134	-0.009
-613.273	800.000	0.038	-0.120
-612.259	-55.630	-0.093	0.042
-611.244	800.000	-0.088	-0.308
-610.230	-200.000	0.023	-0.310
-609.215	-127.128	0.222	0.033
-608.201	55.310	0.357	-0.351
-607.186	564.457	0.065	0.161
-606.171	-116.748	-0.456	-0.085
-605.157	445.904	0.054	0.121
-604.142	193.264	-0.125	-0.192
-603.128	-94.584	-0.193	0.053
-602.113	-66.494	0.231	-0.093
-601.098	-49.171	-0.300	-0.146
-600.084	-132.074	0.341	0.045
-599.069	800.000	0.068	-0.218
-598.055	-9.061	0.205	0.139
-597.040	-129.425	-0.211	-0.030
-596.025	-39.452	-0.369	0.197
-595.011	-36.995	0.143	0.078
-593.996	-200.000	0.047	0.236
-592.982	-51.531	-0.246	0.117
-591.967	84.997	-0.019	-0.021
-590.952	258.747	0.077	0.134
-589.938	118.263	0.072	-0.090
-588.923	800.000	0.038	-0.159
-587.909	327.653	-0.173	-0.338
-586.894	16.792	0.304	-0.244
-585.879	-40.655	0.207	-0.109
-584.865	800.000	-0.052	0.220
-583.850	-200.000	0.065	-0.397
-582.836	164.621	-0.134	0.193
-581.821	-37.949	-0.137	0.074
-580.806	230.450	0.157	0.260
-579.792	800.000	-0.048	-0.174
-578.777	800.000	0.055	0.157
-577.763	-186.912	0.112	0.002
-576.748	-200.000	0.059	-0.299
-575.733	-200.000	-0.022	-0.122
-574.719	-45.085	-0.145	-0.073
-573.704	800.000	0.029	-0.104
-572.690	0.728	0.047	-0.034
-571.675	86.769	-0.163	0.183
-570.661	108.292	0.060	-0.073
-569.646	-200.000	0.054	0.451
-568.631	800.000	-0.083	0.317
-567.617	-200.000	-0.040	0.214
-566.602	33.881	-0.079	-0.069
-565.588	277.429	-0.155	-0.279
-564.573	-167.684	-0.287	0.012
-563.558	-196.361	0.307	-0.002
-562.544	134.363	-0.235	-0.309
-561.529	-115.459	-0.229	0.044
-560.515	778.900	0.036	0.099
-559.500	-114.268	0.378	-0.074
-558.485	800.000	-0.133	0.482
-557.471	-200.000	0.039	-0.324
-556.456	13.662	-0.119	-0.094
-555.442	-200.000	0.006	0.262
-554.427	-64.185	0.216	-0.090
-553.412	-120.551	-0.354	-0.061
-552.398	-147.201	-0.242	0.021
-551.383	800.000	-0.059	-0.174
-550.369	-84.174	-0.084	-0.027
-549.354	-57.944	0.114	0.051
-548.339	43.109	0.072	-0.067
-547.325	723.342	-0.103	-0.278
-546.310	-87.440	-0.210	-0.065
-545.296	3.142	0.232	-0.171
-544.281	38.486	-0.261	-0.236
-543.266	18.801	-0.158	-0.129
-542.252	268.606	-0.159	0.282
-541.237	800.000	-0.073	0.277
-540.223	-126.996	0.365	-0.054
-539.208	-184.900	0.188	-0.003
-538.193	-89.522	0.489	-0.146
-537.179	22.807	0.112	-0.093
-536.164	800.000	-0.060	0.179
-535.150	745.780	-0.030	-0.082
-534.135	334.646	0.152	-0.299
-533.121	-17.063	0.079	-0.051
-532.106	-130.792	0.473	0.064
-531.091	800.000	0.025	-0.097
-530.077	459.319	0.139	-0.315
-529.062	800.000	0.091	-0.283
-528.048	-22.946	-0.340	0.208
-527.033	130.583	-0.103	-0.134
-526.018	800.000	0.038	0.136
-525.004	-101.726	-0.237	0.058
-523.989	541.753	0.112	0.272
-522.975	179.460	-0.192	0.286
-521.960	-177.056	-0.105	0.003
-520.945	-98.809	0.372	0.096
-519.931	67.041	0.312	-0.322
-518.916	-85.395	0.115	-0.036
-517.902	800.000	0.058	-0.162
-516.887	594.002	-0.049	0.122
-515.872	-101.087	-0.382	0.095
-514.858	-88.726	0.234	0.071
-513.843	-79.151	-0.387	0.133
-512.829	-5.377	0.054	0.038
-511.814	-145.245	0.081	0.007
-510.799	78.578	-0.221	0.240
-509.785	1.763	0.079	-0.058
-508.770	386.120	0.167	-0.350
-507.756	-52.012	0.250	-0.118
-506.741	600.312	0.100	-0.252
-505.726	-154.662	-0.024	0.002
-504.712	-138.294	0.354	-0.040
-503.697	191.508	0.086	0.131
-502.683	-113.087	-0.233	0.047
-501.668	-179.312	0.192	-0.004
-500.653	-1.549	0.186	-0.133
-499.639	211.117	0.068	-0.108
-498.624	192.290	0.030	-0.045
-497.610	-200.000	0.031	0.199
-496.595	-200.000	-0.006	-0.240
-495.581	-172.860	-0.278	-0.009
-494.566	-200.000	-0.034	-0.206
-493.551	-180.132	-0.194	-0.004
-492.537	-0.009	-0.366	-0.264
-491.522	-70.197	-0.135	0.052
-490.508	32.695	0.185	-0.163
-489.493	129.818	0.127	-0.165
-488.478	0.271	-0.114	0.082
-487.464	158.567	-0.125	0.176
-486.449	800.000	-0.057	-0.192
-485.435	-108.503	0.125	-0.027
-484.420	585.295	0.100	0.249
-483.405	36.736	-0.216	-0.193
-482.391	-200.000	0.019	0.200
-481.376	-109.990	0.080	-0.017
-480.362	-139.387	-0.270	-0.029
-479.347	-19.743	-0.139	-0.087
-478.332	-26.795	-0.190	-0.113
-477.318	-22.646	0.209	-0.128
-476.303	-25.787	-0.126	-0.075
-475.289	-200.000	-0.045	0.303
-474.274	1.204	0.231	-0.168
-473.259	8.358	0.183	-0.139
-472.245	-118.480	0.406	0.073
-471.230	55.280	-0.163	0.160
-470.216	800.000	-0.160	-0.458
-469.201	-134.503	-0.195	0.024
-468.186	-200.000	0.047	0.322
-467.172	43.911	-0.078	0.072
-466.157	-55.387	-0.163	0.074
-465.143	-78.252	-0.187	-0.065
-464.128	-151.907	0.472	-0.035
-463.113	4.483	0.251	0.187
-462.099	441.996	-0.105	0.233
-461.084	-97.283	0.145	0.038
-460.070	-1.964	-0.212	-0.151
-459.055	-43.487	-0.182	0.093
-458.040	20.319	-0.073	-0.059
-457.026	-50.664	-0.360	0.172
-456.011	159.990	-0.060	-0.084
-454.997	193.343	0.128	-0.195
-453.982	-42.867	0.248	0.127
-452.968	-200.000	0.243	-0.001
-451.953	-129.488	-0.312	-0.044
-450.938	-124.208	-0.156	0.025
-449.924	171.620	0.182	0.264
-448.909	-200.000	0.022	-0.112
-447.895	-34.100	-0.262	-0.146
-446.880	272.098	-0.087	-0.156
-445.865	-45.847	-0.128	-0.064
-444.851	-115.395	0.195	-0.037
-443.836	-200.000	0.082	-0.393
-442.822	-109.309	-0.463	0.099
-441.807	800.000	-0.050	-0.201
-440.792	248.104	-0.078	-0.133
-439.778	-126.327	-0.168	0.025
-438.763	-198.857	-0.133	0.001
-437.749	-68.636	-0.127	-0.050
-436.734	93.053	-0.192	-0.220
-435.719	29.222	0.238	-0.205
-434.705	69.656	-0.207	0.215
-433.690	199.768	0.045	0.070
-432.676	-67.651	-0.147	0.058
-431.661	800.000	0.106	0.395
-430.646	-200.000	-0.026	0.187
-429.632	-192.473	0.088	0.001
-428.617	716.518	0.083	-0.222
-427.603	-90.730	-0.147	-0.043
-426.588	390.784	0.091	-0.191
-425.573	-200.000	-0.001	-0.111
-424.559	-83.303	-0.155	-0.050
-423.544	-87.196	-0.238	-0.073
-422.530	210.349	-0.074	0.118
-421.515	59.798	-0.137	-0.137
-420.500	139.210	-0.083	-0.111
-419.486	-0.796	-0.226	0.162
-418.471	-200.000	0.002	0.125
-417.457	-200.000	0.042	0.331
-416.442	-80.820	-0.094	0.031
-415.428	-74.041	0.113	-0.041
-414.413	-136.234	-0.343	-0.041
-413.398	-92.536	0.171	0.049
-412.384	-119.454	0.218	-0.038
-411.369	-200.000	-0.006	-0.110
-410.355	800.000	0.089	0.264
-409.340	-200.000	-0.070	0.561
-408.325	79.043	0.139	0.150
-407.311	800.000	-0.093	0.340
-406.296	496.053	0.094	0.218
-405.282	35.840	-0.384	-0.341
-404.267	-200.000	-0.005	-0.024
-403.252	-169.328	0.118	0.004
-402.238	-200.000	0.043	0.383
-401.223	800.000	-0.135	0.411
-400.209	236.746	0.147	-0.246
-399.194	751.449	0.091	-0.248
-398.179	-76.561	-0.244	-0.087
-397.165	380.677	-0.183	0.379
-396.150	-200.000	-0.003	-0.216
-395.136	-112.888	0.104	-0.021
-394.121	617.300	0.134	-0.338
-393.106	-99.366	-0.233	-0.059
-392.092	-125.489	-0.111	-0.017
-391.077	-200.000	-0.050	0.250
-390.063	-165.747	0.187	0.008
-389.048	8.582	0.171	-0.130
-388.033	-134.539	0.230	0.028
-387.019	8.133	-0.419	0.317
-386.004	800.000	-0.105	-0.298
-384.990	83.895	0.149	0.164
-383.975	-200.000	-0.019	-0.273
-382.960	-56.193	0.209	-0.094
-381.946	31.200	-0.050	0.043
-380.931	-21.602	-0.140	-0.086
-379.917	-99.083	0.028	-0.007
-378.902	102.199	-0.240	0.282
-377.888	-107.829	-0.099	-0.022
-376.873	220.247	-0.105	0.170
-375.858	271.957	0.156	0.278
-374.844	-36.025	0.153	-0.083
-373.829	-25.998	-0.226	0.134
-372.815	800.000	-0.133	0.402
-371.800	-30.431	-0.178	0.102
-370.785	557.530	0.069	0.168
-369.771	-114.946	0.207	0.040
-368.756	800.000	0.076	-0.227
-367.742	202.438	-0.080	-0.124
-366.727	18.591	0.198	-0.160
-365.712	-104.758	0.223	-0.052
-364.698	-137.646	-0.139	-0.016
-363.683	-52.294	-0.228	0.106
-362.669	-39.567	0.012	-0.007
-361.654	76.786	-0.160	0.171
-360.639	112.980	0.144	-0.175
-359.625	-200.000	-0.029	0.138
-358.610	575.852	-0.067	-0.164
-357.596	800.000	0.085	0.282
-356.581	-200.000	-0.005	0.103
-355.566	10.894	0.028	-0.021
-354.552	27.892	0.151	-0.129
-353.537	-102.814	-0.232	-0.056
-352.523	800.000	-0.070	0.299
-351.508	-29.866	0.143	-0.082
-350.493	-140.856	-0.208	0.022
-349.479	-29.199	-0.054	0.031
-348.464	-74.048	0.339	0.124
-347.450	-163.325	0.271	-0.013
-346.435	30.416	0.186	0.160
-345.420	445.175	0.060	0.132
-344.406	-200.000	0.014	-0.444
-343.391	-200.000	0.063	0.366
-342.377	467.804	0.125	-0.283
-341.362	18.855	-0.215	-0.173
-340.348	-71.483	-0.201	0.076
-339.333	21.221	0.229	-0.188
-338.318	109.528	-0.020	-0.025
-337.304	-6.324	-0.201	-0.138
-336.289	-31.290	0.115	0.065
-335.275	-85.558	-0.229	-0.072
-334.260	-134.601	-0.074	-0.009
-333.245	-200.000	0.043	-0.410
-332.231	-200.000	-0.074	-0.379
-331.216	-200.000	-0.039	0.340
-330.202	-200.000	-0.027	0.127
-329.187	-200.000	-0.027	0.174
-328.172	800.000	0.039	0.152
-327.158	-200.000	0.038	-0.189
-326.143	-118.592	-0.259	-0.046
-325.129	-200.000	-0.017	0.082
-324.114	-144.464	-0.068	0.006
-323.099	82.651	-0.261	-0.285
-322.085	-200.000	-0.001	0.220
-321.070	-63.925	0.115	-0.047
-320.056	132.746	0.097	-0.125
-319.041	-30.495	0.288	-0.164
-318.026	-200.000	-0.022	0.153
-317.012	196.216	-0.036	0.055
-315.997	-34.879	-0.270	0.148
-314.983	-200.000	-0.022	0.200
-313.968	-200.000	-0.073	0.477
-312.953	-200.000	0.037	-0.300
-311.939	800.000	-0.032	0.110
-310.924	-200.000	0.002	0.144
-309.910	-200.000	0.222	0.000
-308.895	31.322	0.055	-0.048
-307.880	394.340	-0.116	-0.243
-306.866	140.607	0.032	-0.042
-305.851	-122.455	0.248	-0.041
-304.837	-130.405	0.160	-0.022
-303.822	393.471	-0.203	-0.425
-302.807	800.000	-0.026	0.104
-301.793	-200.000	-0.035	0.277
-300.778	212.471	-0.183	0.290
-299.764	-31.084	0.160	0.091
-298.749	24.128	0.147	-0.122
-297.735	79.483	-0.375	0.405
-296.720	123.683	-0.078	0.098
-295.705	16.644	-0.217	-0.173
-294.691	-200.000	-0.042	-0.387
-293.676	-200.000	-0.019	-0.117
-292.662	-137.534	-0.196	0.022
-291.647	800.000	0.072	-0.202
-290.632	-144.107	-0.028	-0.003
-289.618	800.000	-0.124	-0.521
-288.603	-110.481	0.201	0.042
-287.589	-200.000	0.009	-0.087
-286.574	241.963	0.111	-0.187
-285.559	72.669	-0.250	0.262
-284.545	112.562	0.130	0.158
-283.530	800.000	0.066	-0.271
-282.516	-113.348	0.284	-0.056
-281.501	101.343	-0.323	0.378
-280.486	-136.515	0.216	0.025
-279.472	800.000	-0.067	-0.217
-278.457	-63.448	-0.298	0.123
-277.443	-121.808	-0.107	-0.018
-276.428	-135.117	0.152	-0.018
-275.413	-91.789	-0.132	0.038
-274.399	26.071	-0.188	0.158
-273.384	646.940	0.081	-0.207
-272.370	-200.000	0.043	-0.269
-271.355	-200.000	-0.027	0.279
-270.340	-73.413	0.164	0.060
-269.326	-80.483	0.126	-0.042
-268.311	148.938	0.216	-0.293
-267.297	800.000	-0.059	0.258
-266.282	-113.016	-0.099	0.020
-265.267	-200.000	-0.036	0.263
-264.253	-23.835	-0.211	0.127
-263.238	-147.966	0.383	0.032
-262.224	-10.097	-0.248	-0.166
-261.209	-183.134	-0.314	0.006
-260.195	-49.401	0.196	0.094
-259.180	73.231	0.123	0.130
-258.165	-200.000	-0.048	0.298
-257.151	-67.956	0.408	0.160
-256.136	235.899	-0.073	-0.121
-255.122	-79.066	-0.148	-0.051
-254.107	71.528	0.271	-0.282
-253.092	336.194	0.090	-0.176
-252.078	-200.000	0.040	-0.227
-251.063	-131.244	0.194	-0.026
-250.049	-200.000	0.019	0.123
-249.034	-102.147	0.059	0.014
-248.019	173.124	0.136	-0.196
-247.005	-23.047	-0.209	-0.126
-245.990	76.220	0.139	0.147
-244.976	-81.730	0.080	-0.026
-243.961	61.650	0.289	-0.289
-242.946	-200.000	-0.039	0.000
-241.932	-22.134	-0.126	0.077
-240.917	-200.000	-0.047	0.301
-239.903	-26.816	0.092	-0.054
-238.888	-200.000	0.020	-0.186
-237.873	-200.000	-0.022	-0.342
-236.859	-58.536	-0.128	0.056
-235.844	-117.858	0.491	-0.088
-234.830	-5.418	-0.250	0.172
-233.815	-200.000	0.083	-0.425
-232.800	378.477	-0.028	0.058
-231.786	-136.733	0.263	-0.030
-230.771	-60.513	-0.140	0.060
-229.757	-56.531	-0.146	0.065
-228.742	-185.265	0.216	0.003
-227.727	441.977	0.035	0.077
-226.713	240.101	-0.054	0.090
-225.698	-141.542	0.148	0.015
-224.684	37.916	0.206	0.184
-223.669	210.866	0.080	-0.126
-222.655	-138.149	-0.281	0.031
-221.640	180.138	0.143	0.211
-220.625	-82.221	0.191	0.062
-219.611	120.968	0.230	0.286
-218.596	800.000	-0.060	-0.213
-217.582	-200.000	0.041	-0.241
-216.567	-78.853	-0.174	0.060
-215.552	4.313	0.133	-0.098
-214.538	800.000	0.095	0.352
-213.523	10.102	-0.191	0.145
-212.509	-200.000	0.025	0.158
-211.494	-97.263	-0.270	0.071
-210.479	131.949	0.173	-0.223
-209.465	153.603	-0.036	-0.049
-208.450	180.718	0.041	0.060
-207.436	-74.622	-0.305	-0.110
-206.421	-181.528	-0.073	0.001
-205.406	-43.163	0.252	0.128
-204.392	-101.270	0.192	0.047
-203.377	800.000	0.078	0.270
-202.363	800.000	0.035	0.138
-201.348	-124.005	-0.277	0.044
-200.333	280.161	0.129	-0.231
-199.319	-49.477	-0.269	0.128
-198.304	173.793	0.102	-0.147
-197.290	-106.858	-0.094	0.021
-196.275	-21.058	-0.339	-0.208
-195.260	-200.000	0.009	0.103
-194.246	427.734	0.084	-0.181
-193.231	800.000	0.012	0.035
-192.217	-43.718	0.150	0.076
-191.202	89.834	0.147	-0.165
-190.187	112.432	0.056	-0.068
-189.173	26.591	0.088	0.073
-188.158	-200.000	-0.018	0.326
-187.144	388.555	0.085	0.176
-186.129	800.000	0.073	-0.220
-185.114	-200.000	0.055	-0.326
-184.100	69.295	-0.083	0.086
-183.085	-43.028	0.274	0.139
-182.071	48.625	-0.149	0.140
-181.056	-73.699	-0.161	-0.059
-180.042	-55.008	0.098	0.044
-179.027	-126.847	0.141	0.021
-178.012	599.504	0.051	-0.127
-176.998	156.733	-0.175	0.242
-175.983	80.597	0.052	0.056
-174.969	24.292	0.015	-0.013
-173.954	417.295	0.088	-0.188
-172.939	7.556	-0.150	0.112
-171.925	188.961	0.088	-0.132
-170.910	-26.793	-0.185	0.108
-169.896	-23.865	0.131	0.079
-168.881	800.000	-0.045	-0.159
-167.866	-200.000	-0.030	-0.144
-166.852	-200.000	0.108	0.508
-165.837	113.573	0.235	0.286
-164.823	143.956	0.113	0.151
-163.808	-200.000	0.011	0.237
-162.793	139.061	0.118	-0.156
-161.779	800.000	-0.047	0.148
-160.764	150.278	-0.083	0.113
-159.750	800.000	-0.097	0.362
-158.735	-30.732	0.102	-0.058
-157.720	319.679	-0.110	0.208
-156.706	176.846	-0.131	-0.190
-155.691	-82.986	0.530	-0.171
-154.677	555.998	-0.079	-0.190
-153.662	-200.000	0.032	-0.321
-152.647	-200.000	0.012	0.233
-151.633	54.281	0.301	0.290
-150.618	-132.063	0.193	0.025
-149.604	800.000	-0.066	-0.277
-148.589	-130.065	-0.229	0.031
-147.574	789.332	0.067	0.183
-146.560	64.547	0.202	-0.203
-145.545	800.000	0.046	0.164
-144.531	-157.208	0.404	-0.024
-143.516	-200.000	-0.023	-0.109
-142.502	629.931	0.126	-0.319
-141.487	93.111	-0.080	0.090
-140.472	167.857	0.111	-0.158
-139.458	-34.683	-0.182	-0.099
-138.443	-124.505	-0.159	-0.025
-137.429	800.000	0.065	0.197
-136.414	-3.234	-0.260	0.181
-135.399	-65.389	0.495	0.199
-134.385	-86.260	0.123	0.038
-133.370	221.304	0.049	0.079
-132.356	-200.000	0.004	0.207
-131.341	-45.743	0.140	0.069
-130.326	-62.634	-0.224	-0.093
-129.312	568.904	0.137	0.331
-128.297	800.000	-0.072	0.268
-127.283	194.032	0.081	0.122
-126.268	-200.000	0.005	0.192
-125.253	-28.514	-0.136	0.078
-124.239	155.980	-0.189	-0.260
-123.224	-141.377	-0.175	0.018
-122.210	116.193	-0.072	-0.088
-121.195	54.709	0.327	0.315
