DTS Sentinel unit serial number:	SN413079Multiplexer serial number:	ORYXHardware model number:	OX4-SRSoftware version number:	ORYX F/W v4.00 Oryx Data Collector v3.7.2.0data status	okinstallation	princeton_trtdifferential loss correction	single-endedforward channel	channel 1reverse channel	N/Adate	2019/09/17time	10:50:35forward acquisition time	60.00reverse acquisition time	0.00gamma	496.2192k internal	0.2323k external	0.2323temperature offset calibration	0.9964default loss term (dB/km)	0.3790temperature slope calibration	1.0000multiplexer offset coefficient	1.0000multiplexer slope coefficient	1.0000fibre end	0.00T internal ref (°C)	30.19T ext. ref 1 (°C)	0.18T ext. ref 2 (°C)	25.78length (m)	temperature (°C)	Stokes	anti-Stokes-747.200	-33.348	-0.026	0.015
-746.185	180.382	-0.221	0.328
-745.171	-133.941	0.374	0.047
-744.156	56.654	-0.190	0.187
-743.142	-34.002	0.185	0.103
-742.127	37.494	0.102	0.091
-741.112	18.633	0.226	-0.183
-740.098	68.400	-0.213	0.220
-739.083	86.477	0.137	0.153
-738.069	-200.000	0.064	0.376
-737.054	-29.535	-0.161	0.093
-736.039	536.407	-0.155	-0.371
-735.025	-110.252	0.373	0.079
-734.010	44.562	-0.317	0.294
-732.996	34.819	-0.059	-0.052
-731.981	469.351	-0.098	-0.222
-730.966	-155.515	-0.191	0.012
-729.952	-22.388	0.124	0.076
-728.937	800.000	-0.035	0.132
-727.923	800.000	-0.087	-0.275
-726.908	-162.630	0.201	-0.010
-725.894	16.917	-0.341	0.273
-724.879	-56.056	-0.225	0.101
-723.864	-200.000	0.011	-0.115
-722.850	800.000	-0.071	-0.239
-721.835	-49.130	-0.237	0.115
-720.821	-99.307	-0.233	0.059
-719.806	-87.550	-0.166	-0.051
-718.791	451.441	-0.055	-0.122
-717.777	639.918	-0.108	0.277
-716.762	-200.000	0.019	-0.146
-715.748	-75.362	0.254	0.091
-714.733	800.000	-0.033	-0.123
-713.718	780.718	-0.027	0.075
-712.704	131.468	-0.137	0.177
-711.689	800.000	0.023	-0.081
-710.675	61.772	0.170	-0.171
-709.660	-54.527	0.191	0.087
-708.645	-79.244	-0.355	-0.122
-707.631	-200.000	0.058	0.287
-706.616	-10.209	0.133	-0.089
-705.602	236.332	0.205	0.342
-704.587	220.751	-0.185	0.299
-703.572	11.097	-0.166	-0.128
-702.558	-23.644	-0.318	0.192
-701.543	-200.000	-0.019	0.120
-700.529	406.476	0.168	-0.359
-699.514	-150.043	-0.195	0.015
-698.499	-118.040	-0.050	-0.009
-697.485	-84.119	-0.116	0.037
-696.470	800.000	0.100	-0.328
-695.456	-200.000	-0.074	-0.341
-694.441	-200.000	0.261	-0.001
-693.426	-79.257	-0.196	-0.067
-692.412	-154.385	-0.563	0.038
-691.397	323.197	-0.201	0.386
-690.383	-110.869	0.105	0.022
-689.368	-112.838	-0.326	-0.065
-688.354	-38.942	-0.424	0.225
-687.339	-200.000	-0.018	0.247
-686.324	-200.000	-0.006	-0.046
-685.310	800.000	0.039	0.162
-684.295	-37.458	0.117	0.063
-683.281	-185.241	-0.368	-0.006
-682.266	43.092	0.050	0.046
-681.251	265.774	0.125	-0.220
-680.237	-200.000	-0.037	-0.257
-679.222	-188.353	-0.167	0.002
-678.208	3.815	-0.156	0.115
-677.193	-200.000	0.031	0.184
-676.178	-13.690	0.135	0.088
-675.164	-200.000	-0.016	-0.228
-674.149	-200.000	-0.050	-0.249
-673.135	-200.000	-0.078	-0.378
-672.120	800.000	-0.090	-0.303
-671.105	-90.803	0.145	-0.042
-670.091	-169.658	-0.176	-0.006
-669.076	-111.770	0.212	0.043
-668.062	100.493	-0.031	0.037
-667.047	-77.959	-0.032	-0.011
-666.032	-200.000	0.024	-0.114
-665.018	-200.000	0.002	-0.150
-664.003	72.793	0.172	-0.181
-662.989	49.560	0.046	-0.044
-661.974	-36.754	0.183	-0.099
-660.959	-31.506	-0.289	0.164
-659.945	80.895	0.247	-0.268
-658.930	-163.000	-0.170	-0.008
-657.916	706.180	-0.039	-0.103
-656.901	259.749	0.150	-0.261
-655.886	800.000	-0.029	-0.094
-654.872	-11.747	-0.385	-0.254
-653.857	-200.000	0.004	0.197
-652.843	800.000	-0.080	-0.244
-651.828	-11.002	0.050	-0.033
-650.814	788.837	-0.012	-0.034
-649.799	-52.923	0.173	-0.080
-648.784	800.000	0.039	-0.135
-647.770	-78.011	-0.403	-0.140
-646.755	21.594	-0.190	-0.156
-645.741	-200.000	-0.006	0.049
-644.726	-63.917	0.118	0.049
-643.711	185.112	0.275	-0.410
-642.697	494.740	-0.173	0.401
-641.682	800.000	-0.136	0.397
-640.668	-99.605	0.189	0.048
-639.653	66.051	0.095	-0.097
-638.638	18.359	-0.221	0.178
-637.624	-149.326	-0.439	0.035
-636.609	25.027	-0.331	-0.277
-635.595	800.000	-0.002	0.008
-634.580	-81.340	0.298	-0.099
-633.565	-79.144	0.062	0.021
-632.551	564.919	-0.099	-0.240
-631.536	-200.000	0.070	-0.328
-630.522	322.023	-0.116	0.221
-629.507	-200.000	-0.047	-0.262
-628.492	186.505	-0.205	-0.307
-627.478	-40.251	-0.108	-0.056
-626.463	122.328	0.198	0.249
-625.449	466.064	-0.063	0.141
-624.434	26.787	-0.270	0.227
-623.419	-200.000	0.046	-0.345
-622.405	-70.212	0.261	-0.100
-621.390	800.000	-0.042	-0.124
-620.376	-150.714	0.315	0.024
-619.361	-79.200	-0.259	-0.088
-618.346	-200.000	0.180	0.000
-617.332	103.124	0.233	0.274
-616.317	83.430	-0.178	0.195
-615.303	-200.000	0.023	-0.317
-614.288	-200.000	-0.039	-0.285
-613.273	147.954	-0.174	0.236
-612.259	800.000	-0.106	0.410
-611.244	146.359	-0.210	-0.283
-610.230	-200.000	-0.059	-0.312
-609.215	-200.000	0.055	-0.311
-608.201	260.043	0.153	-0.266
-607.186	-26.252	0.270	0.159
-606.171	121.128	0.076	0.094
-605.157	37.906	0.190	0.170
-604.142	800.000	-0.008	-0.031
-603.128	-200.000	0.006	-0.359
-602.113	-149.777	0.021	0.002
-601.098	288.571	0.127	-0.232
-600.084	-66.880	0.335	0.133
-599.069	40.242	-0.266	0.240
-598.055	36.355	-0.168	-0.149
-597.040	-200.000	-0.014	-0.156
-596.025	-200.000	0.015	-0.081
-595.011	-44.580	0.254	0.127
-593.996	-114.924	-0.104	0.020
-592.982	253.459	-0.081	-0.139
-591.967	-200.000	0.023	0.280
-590.952	800.000	-0.051	0.217
-589.938	-101.427	0.191	-0.047
-588.923	-200.000	-0.025	-0.191
-587.909	-200.000	0.032	-0.172
-586.894	-78.421	0.434	-0.149
-585.879	-93.092	-0.302	-0.084
-584.865	-64.503	0.242	-0.099
-583.850	-89.798	-0.183	0.054
-582.836	258.581	-0.193	0.333
-581.821	-54.557	-0.133	-0.060
-580.806	48.883	0.218	0.205
-579.792	800.000	0.026	-0.075
-578.777	-78.001	-0.321	-0.111
-577.763	-200.000	0.001	0.077
-576.748	775.424	0.170	0.465
-575.733	235.300	0.102	0.169
-574.719	800.000	0.017	0.049
-573.704	279.921	-0.112	0.200
-572.690	-70.437	-0.308	0.117
-571.675	-200.000	-0.029	0.163
-570.661	30.838	-0.196	0.169
-569.646	200.597	-0.180	0.278
-568.631	-56.849	-0.151	0.067
-567.617	-16.193	0.177	-0.113
-566.602	-200.000	0.019	-0.213
-565.588	105.031	-0.116	-0.137
-564.573	-81.802	0.124	0.041
-563.558	89.783	0.216	0.242
-562.544	-200.000	-0.026	0.283
-561.529	-41.433	-0.171	-0.088
-560.515	-78.383	0.239	-0.082
-559.500	800.000	0.050	-0.147
-558.485	78.418	-0.206	-0.220
-557.471	194.578	0.272	-0.414
-556.456	800.000	-0.014	-0.043
-555.442	177.121	0.142	0.208
-554.427	297.287	0.056	-0.103
-553.412	800.000	0.032	0.114
-552.398	-103.676	0.377	-0.089
-551.383	-100.897	-0.186	-0.046
-550.369	556.325	0.020	-0.048
-549.354	120.104	-0.141	-0.176
-548.339	-200.000	-0.026	0.182
-547.325	130.258	-0.071	0.092
-546.310	-34.005	-0.056	-0.031
-545.296	208.065	0.206	-0.323
-544.281	-12.463	-0.304	-0.199
-543.266	-44.316	-0.224	-0.112
-542.252	-144.903	0.238	0.022
-541.237	-18.998	0.269	0.168
-540.223	-63.048	-0.114	0.047
-539.208	0.358	0.092	-0.066
-538.193	314.835	-0.171	-0.324
-537.179	5.818	0.226	0.167
-536.164	-40.054	0.131	0.069
-535.150	58.729	0.076	-0.075
-534.135	-44.326	-0.222	0.111
-533.121	-103.123	0.298	0.071
-532.106	-20.329	0.197	0.121
-531.091	800.000	-0.017	0.055
-530.077	-200.000	0.030	-0.168
-529.062	-28.414	-0.088	0.051
-528.048	800.000	-0.036	0.152
-527.033	-46.037	0.143	0.071
-526.018	-106.868	0.341	-0.076
-525.004	23.603	-0.154	0.127
-523.989	800.000	-0.022	-0.081
-522.975	30.744	-0.189	0.162
-521.960	-67.986	-0.184	0.072
-520.945	-73.444	0.374	-0.137
-519.931	-200.000	-0.018	-0.225
-518.916	-14.865	-0.181	-0.116
-517.902	88.809	-0.264	0.294
-516.887	124.904	-0.072	-0.091
-515.872	368.020	-0.101	-0.203
-514.858	-161.367	-0.176	0.009
-513.843	283.068	-0.067	0.120
-512.829	-151.391	0.204	0.015
-511.814	-17.369	0.109	0.068
-510.799	-48.305	-0.168	0.081
-509.785	440.657	0.140	-0.306
-508.770	-129.887	0.245	0.034
-507.756	-8.483	0.098	-0.066
-506.741	-49.360	-0.111	-0.053
-505.726	-89.776	-0.403	-0.118
-504.712	800.000	0.025	-0.083
-503.697	202.325	-0.047	-0.073
-502.683	-48.460	-0.298	0.144
-501.668	180.656	0.142	-0.209
-500.653	43.063	-0.064	-0.058
-499.639	-51.159	0.166	0.078
-498.624	244.785	-0.155	-0.261
-497.610	181.309	-0.181	0.267
-496.595	-99.985	0.179	-0.045
-495.581	-200.000	-0.016	0.113
-494.566	-200.000	-0.038	0.171
-493.551	-200.000	0.020	-0.181
-492.537	800.000	-0.131	-0.468
-491.522	80.553	-0.137	-0.148
-490.508	-200.000	0.009	-0.205
-489.493	-144.802	0.125	-0.011
-488.478	-200.000	-0.011	-0.065
-487.464	-108.938	0.158	0.034
-486.449	-200.000	0.012	0.093
-485.435	-144.844	0.187	-0.017
-484.420	139.872	0.112	0.148
-483.405	-87.381	0.148	0.045
-482.391	40.656	-0.102	0.092
-481.376	-17.306	0.190	-0.119
-480.362	-118.595	0.334	-0.059
-479.347	219.978	0.145	0.232
-478.332	-200.000	-0.019	0.306
-477.318	-185.123	0.193	-0.003
-476.303	-88.456	0.127	0.038
-475.289	-12.304	-0.126	0.082
-474.274	-74.756	0.112	-0.040
-473.259	-200.000	0.037	0.249
-472.245	-147.034	-0.223	0.019
-471.230	66.073	0.198	0.201
-470.216	-138.609	-0.456	0.050
-469.201	-35.408	-0.284	0.154
-468.186	-47.333	0.089	-0.043
-467.172	82.578	-0.157	0.170
-466.157	-17.698	0.348	0.218
-465.143	746.072	0.046	-0.124
-464.128	690.925	0.145	0.380
-463.113	-41.808	0.092	-0.047
-462.099	29.483	-0.210	-0.179
-461.084	-168.846	-0.343	0.013
-460.070	-14.212	0.147	-0.095
-459.055	32.492	-0.124	-0.107
-458.040	800.000	0.044	-0.136
-457.026	-119.008	0.192	0.034
-456.011	-85.771	-0.323	-0.100
-454.997	47.046	0.081	-0.075
-453.982	115.317	0.120	-0.146
-452.968	84.302	0.224	0.245
-451.953	97.076	-0.027	-0.031
-450.938	-27.081	-0.079	0.046
-449.924	-200.000	-0.001	0.214
-448.909	-123.479	0.117	0.019
-447.895	257.887	-0.097	-0.167
-446.880	-200.000	-0.003	-0.158
-445.865	-28.624	-0.076	0.044
-444.851	-200.000	0.037	-0.386
-443.836	-200.000	-0.060	-0.516
-442.822	-35.855	-0.204	0.110
-441.807	-200.000	-0.003	-0.038
-440.792	-200.000	0.012	-0.177
-439.778	-200.000	-0.011	-0.218
-438.763	800.000	0.091	0.335
-437.749	125.558	0.299	-0.377
-436.734	39.133	-0.163	-0.145
-435.719	-200.000	0.048	0.340
-434.705	-180.625	-0.390	0.008
-433.690	-200.000	-0.037	-0.395
-432.676	-117.081	0.257	-0.047
-431.661	800.000	0.018	0.070
-430.646	150.604	0.280	0.379
-429.632	-103.482	-0.196	0.046
-428.617	81.349	0.173	-0.187
-427.603	685.230	0.076	-0.198
-426.588	800.000	0.105	0.357
-425.573	-200.000	-0.029	-0.185
-424.559	241.288	-0.147	-0.245
-423.544	134.415	0.124	-0.161
-422.530	82.730	0.213	-0.231
-421.515	350.811	0.170	-0.335
-420.500	391.240	0.087	0.181
-419.486	-200.000	-0.054	0.254
-418.471	22.102	0.145	0.118
-417.457	-200.000	-0.011	-0.114
-416.442	-115.083	-0.178	-0.034
-415.428	800.000	0.085	0.238
-414.413	102.045	-0.130	-0.151
-413.398	800.000	0.015	0.047
-412.384	209.003	-0.162	-0.253
-411.369	800.000	0.066	0.197
-410.355	800.000	-0.019	-0.064
-409.340	68.196	0.006	-0.006
-408.325	126.654	-0.109	-0.137
-407.311	-0.130	-0.146	-0.103
-406.296	-176.844	-0.251	0.006
-405.282	220.873	-0.078	-0.125
-404.267	-200.000	0.004	-0.260
-403.252	-57.004	-0.180	0.079
-402.238	-61.328	0.404	0.169
-401.223	-32.857	0.132	-0.073
-400.209	-72.672	0.238	0.088
-399.194	135.163	-0.200	0.260
-398.179	48.258	-0.073	0.068
-397.165	-15.376	0.167	-0.106
-396.150	-10.408	-0.222	-0.147
-395.136	-200.000	0.004	0.285
-394.121	-87.592	-0.426	0.128
-393.106	-2.960	-0.056	0.039
-392.092	-99.355	0.122	0.031
-391.077	80.814	-0.224	0.241
-390.063	42.337	0.267	-0.242
-389.048	800.000	-0.075	0.316
-388.033	64.826	0.216	0.217
-387.019	800.000	-0.065	0.224
-386.004	800.000	-0.014	-0.041
-384.990	-116.265	0.133	-0.025
-383.975	39.557	-0.251	-0.224
-382.960	701.814	0.091	-0.240
-381.946	19.977	-0.230	-0.185
-380.931	-200.000	0.012	-0.239
-379.917	-82.473	-0.106	0.034
-378.902	-200.000	-0.003	-0.089
-377.888	-153.136	0.085	0.006
-376.873	566.447	0.113	0.274
-375.858	204.750	0.137	0.212
-374.844	279.199	-0.191	0.339
-373.829	706.694	0.039	-0.103
-372.815	328.566	0.105	-0.200
-371.800	11.512	-0.114	-0.087
-370.785	-47.156	0.037	0.018
-369.771	75.340	-0.068	0.071
-368.756	142.788	0.132	-0.174
-367.742	-153.567	0.262	-0.018
-366.727	-32.911	-0.151	-0.084
-365.712	57.757	0.222	-0.216
-364.698	261.161	0.056	-0.096
-363.683	-61.794	0.063	0.026
-362.669	72.586	-0.045	-0.047
-361.654	-200.000	-0.057	0.265
-360.639	121.755	-0.015	-0.019
-359.625	-200.000	-0.023	0.266
-358.610	357.060	0.090	-0.179
-357.596	800.000	0.025	0.100
-356.581	-128.414	0.083	-0.012
-355.566	-114.115	0.315	0.061
-354.552	-88.200	-0.080	-0.024
-353.537	-200.000	-0.021	0.222
-352.523	39.095	0.223	-0.199
-351.508	-200.000	0.037	0.298
-350.493	215.584	0.047	0.074
-349.479	36.707	0.133	-0.117
-348.464	64.345	0.081	-0.081
-347.450	800.000	0.083	-0.246
-346.435	800.000	-0.034	-0.146
-345.420	165.436	-0.095	0.134
-344.406	800.000	-0.018	0.069
-343.391	-47.574	-0.291	-0.141
-342.377	135.129	-0.075	0.097
-341.362	-186.352	-0.339	0.005
-340.348	228.763	0.045	0.073
-339.333	-200.000	0.028	-0.213
-338.318	-84.092	0.058	-0.018
-337.304	-96.375	0.217	0.057
-336.289	97.745	0.165	0.188
-335.275	-200.000	-0.019	0.210
-334.260	-200.000	-0.003	-0.110
-333.245	-59.032	0.264	0.113
-332.231	-200.000	0.016	-0.253
-331.216	-200.000	-0.057	-0.343
-330.202	425.141	-0.114	0.244
-329.187	-113.982	-0.226	0.043
-328.172	-200.000	-0.019	0.149
-327.158	110.394	0.199	-0.238
-326.143	-140.194	0.202	-0.021
-325.129	245.266	0.146	0.245
-324.114	-200.000	-0.010	0.074
-323.099	-200.000	0.002	0.030
-322.085	-124.818	0.176	0.027
-321.070	49.175	0.076	-0.071
-320.056	-92.510	0.185	0.052
-319.041	9.117	-0.146	0.109
-318.026	-21.180	0.101	-0.062
-317.012	24.279	0.049	-0.040
-315.997	-88.916	-0.207	-0.061
-314.983	40.828	-0.209	0.187
-313.968	-200.000	-0.050	-0.284
-312.953	800.000	-0.087	0.241
-311.939	-93.627	-0.301	0.083
-310.924	-200.000	-0.053	0.435
-309.910	-200.000	0.043	0.430
-308.895	330.617	0.048	-0.091
-307.880	-200.000	-0.009	-0.332
-306.866	-49.223	-0.013	0.006
-305.851	113.297	0.144	-0.174
-304.837	-200.000	0.010	-0.090
-303.822	-200.000	-0.031	-0.356
-302.807	-200.000	0.003	0.040
-301.793	89.181	-0.170	0.188
-300.778	146.708	0.139	0.186
-299.764	-171.744	0.181	-0.006
-298.749	-192.788	-0.242	0.002
-297.735	238.130	0.159	-0.263
-296.720	-14.226	-0.501	-0.321
-295.705	70.223	-0.042	0.043
-294.691	414.845	-0.183	0.386
-293.676	-67.888	-0.079	0.031
-292.662	-200.000	0.023	0.320
-291.647	-200.000	-0.014	-0.079
-290.632	-200.000	-0.007	-0.262
-289.618	75.997	0.221	-0.232
-288.603	-200.000	0.010	-0.047
-287.589	202.128	0.090	-0.138
-286.574	-92.290	-0.273	-0.076
-285.559	-113.764	-0.283	-0.055
-284.545	-24.346	-0.105	0.062
-283.530	57.273	-0.183	-0.178
-282.516	1.098	0.102	0.073
-281.501	800.000	0.054	0.147
-280.486	-70.950	0.114	-0.043
-279.472	-112.679	-0.228	0.045
-278.457	-200.000	0.030	-0.380
-277.443	-119.163	-0.138	0.024
-276.428	800.000	-0.124	0.419
-275.413	-23.402	0.183	-0.109
-274.399	1.088	-0.177	-0.126
-273.384	-55.223	-0.229	0.102
-272.370	299.851	0.016	0.029
-271.355	-99.432	-0.123	0.031
-270.340	103.739	-0.272	0.316
-269.326	-64.337	-0.029	-0.012
-268.311	-200.000	0.037	0.208
-267.297	800.000	0.067	-0.259
-266.282	637.405	0.060	-0.150
-265.267	-200.000	-0.075	0.389
-264.253	142.549	-0.099	-0.130
-263.238	14.256	-0.410	0.317
-262.224	-200.000	0.002	-0.132
-261.209	27.303	-0.235	0.196
-260.195	-14.790	-0.132	-0.084
-259.180	289.306	-0.040	0.071
-258.165	156.955	0.203	0.279
-257.151	128.666	-0.085	-0.107
-256.136	464.017	0.117	-0.259
-255.122	145.804	0.089	-0.118
-254.107	-3.538	-0.063	0.043
-253.092	540.334	0.055	-0.129
-252.078	39.227	-0.453	-0.401
-251.063	800.000	-0.081	0.304
-250.049	153.553	-0.038	-0.052
-249.034	-45.583	0.227	-0.111
-248.019	-111.890	0.338	0.068
-247.005	-142.387	-0.028	0.003
-245.990	101.464	0.155	-0.179
-244.976	-200.000	-0.018	0.094
-243.961	-112.468	0.319	0.063
-242.946	-54.292	0.262	0.118
-241.932	-54.474	-0.235	0.105
-240.917	545.019	-0.038	-0.091
-239.903	4.975	0.117	0.086
-238.888	-105.484	-0.305	0.069
-237.873	-75.941	-0.124	-0.044
-236.859	-143.530	-0.093	0.009
-235.844	-200.000	0.002	-0.155
-234.830	229.800	0.087	-0.140
-233.815	-200.000	0.055	0.293
-232.800	49.117	0.209	-0.194
-231.786	-47.932	-0.281	-0.135
-230.771	-104.502	0.286	0.066
-229.757	-100.187	0.400	0.098
-228.742	53.026	0.263	-0.249
-227.727	-1.592	-0.384	-0.268
-226.713	79.586	-0.114	-0.121
-225.698	-200.000	0.019	-0.131
-224.684	130.554	-0.269	0.341
-223.669	-139.472	-0.120	-0.013
-222.655	-200.000	0.016	0.368
-221.640	-104.444	0.123	-0.028
-220.625	800.000	-0.049	0.183
-219.611	137.609	0.090	-0.116
-218.596	-126.791	-0.244	-0.036
-217.582	-50.846	0.161	0.075
-216.567	98.068	-0.131	-0.149
-215.552	-200.000	-0.044	0.353
-214.538	159.401	0.179	-0.247
-213.523	-200.000	-0.003	-0.182
-212.509	9.072	-0.216	-0.162
-211.494	-200.000	0.087	-0.536
-210.479	-200.000	0.042	0.197
-209.465	719.217	-0.039	-0.103
-208.450	-200.000	0.048	0.212
-207.436	87.777	0.221	0.242
-206.421	511.763	0.034	-0.078
-205.406	-178.746	0.376	-0.009
-204.392	228.852	-0.120	0.193
-203.377	-103.772	-0.148	-0.034
-202.363	-102.209	0.329	0.078
-201.348	-16.009	-0.202	-0.127
-200.333	31.033	0.257	0.218
-199.319	-121.707	0.308	0.050
-198.304	-69.666	-0.111	-0.042
-197.290	136.825	-0.039	0.051
-196.275	-69.217	-0.064	-0.024
-195.260	32.551	-0.157	0.134
-194.246	-200.000	0.117	0.582
-193.231	453.498	-0.172	0.375
-192.217	106.294	0.177	-0.207
-191.202	203.220	-0.089	-0.136
-190.187	122.897	-0.071	-0.088
-189.173	800.000	-0.041	0.148
-188.158	-14.892	0.085	0.054
-187.144	38.635	-0.061	-0.054
-186.129	-73.526	0.184	0.066
-185.114	66.929	0.096	-0.097
-184.100	33.301	-0.293	-0.251
-183.085	73.672	0.300	-0.310
-182.071	-9.615	-0.229	-0.151
-181.056	-200.000	0.052	0.280
-180.042	-200.000	-0.002	0.091
-179.027	-40.259	-0.236	-0.121
-178.012	800.000	0.033	-0.104
-176.998	163.522	-0.138	0.191
-175.983	144.531	0.112	0.148
-174.969	7.732	0.059	-0.043
-173.954	-141.172	-0.252	-0.025
-172.939	12.512	0.015	0.011
-171.925	-70.750	-0.079	0.029
-170.910	-200.000	0.013	0.102
-169.896	-146.089	0.363	-0.032
-168.881	-100.359	-0.108	-0.026
-167.866	-200.000	-0.016	0.102
-166.852	-68.988	0.353	0.135
-165.837	-200.000	0.016	0.164
-164.823	-200.000	-0.009	0.134
-163.808	-97.558	0.236	0.060
-162.793	-79.593	0.290	0.097
-161.779	120.978	-0.105	-0.129
-160.764	-200.000	-0.039	0.553
-159.750	157.334	0.035	0.048
-158.735	-200.000	0.058	0.321
-157.720	800.000	-0.075	0.321
-156.706	15.223	-0.105	-0.081
-155.691	800.000	0.076	0.308
-154.677	800.000	0.030	-0.128
-153.662	-178.162	-0.260	-0.006
-152.647	800.000	0.035	-0.111
-151.633	-96.146	0.192	0.050
-150.618	-84.430	0.179	0.056
-149.604	-103.127	-0.253	-0.059
-148.589	274.244	-0.074	-0.129
-147.574	-59.102	0.335	0.142
-146.560	-200.000	0.009	-0.280
-145.545	-97.059	0.136	-0.035
-144.531	-165.152	0.150	-0.007
-143.516	-200.000	-0.012	-0.312
-142.502	800.000	-0.045	0.178
-141.487	17.118	-0.100	0.078
-140.472	146.451	-0.144	0.191
-139.458	0.513	-0.132	0.093
-138.443	-200.000	0.025	0.123
-137.429	-97.300	-0.213	0.055
-136.414	98.184	0.099	-0.112
-135.399	-200.000	-0.061	0.323
-134.385	52.393	-0.101	0.095
-133.370	800.000	-0.118	0.435
-132.356	-200.000	0.012	0.214
-131.341	-200.000	0.003	0.242
-130.326	72.005	-0.148	0.151
-129.312	122.436	-0.132	0.162
-128.297	800.000	0.027	0.095
-127.283	674.332	0.065	0.166
-126.268	-200.000	-0.041	0.234
-125.253	342.601	-0.062	-0.120
-124.239	-200.000	0.000	-0.216
-123.224	-144.950	-0.281	0.025
-122.210	-47.792	-0.211	-0.101
