DTS Sentinel unit serial number:	SN413079Multiplexer serial number:	ORYXHardware model number:	OX4-SRSoftware version number:	ORYX F/W v4.00 Oryx Data Collector v3.7.2.0data status	okinstallation	princeton_trtdifferential loss correction	single-endedforward channel	channel 1reverse channel	N/Adate	2019/09/13time	20:34:35forward acquisition time	60.00reverse acquisition time	0.00gamma	496.2192k internal	0.2331k external	0.2331temperature offset calibration	1.0093default loss term (dB/km)	0.3790temperature slope calibration	1.0000multiplexer offset coefficient	1.0000multiplexer slope coefficient	1.0000fibre end	0.00T internal ref (°C)	29.05T ext. ref 1 (°C)	3.26T ext. ref 2 (°C)	23.46length (m)	temperature (°C)	Stokes	anti-Stokes-747.200	181.457	0.134	0.198
-746.185	-200.000	-0.054	0.421
-745.171	455.606	0.051	0.114
-744.156	-131.021	-0.310	0.042
-743.142	-88.259	-0.070	-0.021
-742.127	800.000	0.032	0.092
-741.112	303.612	0.168	-0.313
-740.098	469.774	-0.126	0.284
-739.083	191.971	-0.016	-0.024
-738.069	-200.000	0.002	0.116
-737.054	17.891	-0.106	-0.085
-736.039	80.445	-0.273	-0.296
-735.025	36.686	0.330	-0.293
-734.010	-171.390	-0.388	-0.013
-732.996	-200.000	0.042	-0.314
-731.981	-21.530	-0.201	-0.123
-730.966	-61.825	0.026	0.011
-729.952	-77.844	-0.090	0.031
-728.937	-55.408	-0.338	-0.152
-727.923	-166.708	-0.120	-0.005
-726.908	311.641	0.137	0.259
-725.894	-8.691	-0.218	0.147
-724.879	105.052	-0.098	-0.116
-723.864	800.000	-0.012	-0.043
-722.850	-141.806	-0.112	-0.011
-721.835	-200.000	-0.029	-0.220
-720.821	-92.130	-0.128	0.036
-719.806	26.615	0.166	-0.140
-718.791	-74.157	0.075	-0.027
-717.777	800.000	0.066	-0.222
-716.762	57.471	-0.074	0.073
-715.748	-90.289	-0.222	0.065
-714.733	-22.252	-0.286	0.174
-713.718	732.200	-0.100	-0.268
-712.704	800.000	-0.044	0.133
-711.689	-0.354	0.089	0.064
-710.675	800.000	0.026	-0.098
-709.660	-162.609	0.346	0.017
-708.645	-84.981	0.148	-0.047
-707.631	84.367	-0.076	-0.083
-706.616	-200.000	-0.017	-0.142
-705.602	46.518	0.254	-0.236
-704.587	708.611	0.136	-0.361
-703.572	277.586	0.091	-0.162
-702.558	279.847	0.126	0.226
-701.543	-84.944	-0.260	-0.082
-700.529	-88.179	-0.289	-0.087
-699.514	-198.465	0.292	0.002
-698.499	226.084	0.091	-0.148
-697.485	800.000	-0.052	-0.185
-696.470	315.496	-0.082	0.155
-695.456	-200.000	0.028	-0.294
-694.441	745.309	-0.050	0.136
-693.426	-83.563	0.208	-0.067
-692.412	518.462	-0.155	0.364
-691.397	326.868	-0.147	0.282
-690.383	185.216	-0.292	-0.435
-689.368	-200.000	0.023	-0.205
-688.354	800.000	0.009	0.036
-687.339	-113.464	0.272	0.054
-686.324	440.516	0.119	-0.262
-685.310	676.682	-0.089	-0.231
-684.295	399.274	-0.114	-0.241
-683.281	-200.000	0.021	0.203
-682.266	-94.834	-0.260	-0.071
-681.251	105.047	0.181	-0.214
-680.237	-45.445	0.153	0.076
-679.222	-34.095	-0.128	-0.071
-678.208	-151.685	0.115	0.008
-677.193	392.039	0.134	0.279
-676.178	-178.572	0.110	0.003
-675.164	287.190	0.081	-0.147
-674.149	-200.000	-0.069	-0.310
-673.135	800.000	0.089	-0.277
-672.120	65.282	0.249	0.252
-671.105	-200.000	0.028	0.162
-670.091	-64.810	-0.168	0.068
-669.076	5.538	-0.233	-0.173
-668.062	-90.283	-0.181	0.053
-667.047	-191.144	0.233	0.002
-666.032	-71.162	-0.281	0.106
-665.018	33.000	0.050	0.043
-664.003	-200.000	-0.028	-0.301
-662.989	21.519	0.109	-0.089
-661.974	-78.671	-0.428	0.147
-660.959	-200.000	-0.008	-0.301
-659.945	800.000	-0.037	-0.149
-658.930	85.966	-0.092	0.101
-657.916	-64.915	-0.516	-0.209
-656.901	-72.580	0.285	0.106
-655.886	151.852	-0.208	0.284
-654.872	350.519	-0.108	0.214
-653.857	-200.000	0.004	-0.149
-652.843	679.153	0.115	-0.300
-651.828	-200.000	-0.053	0.366
-650.814	719.118	-0.120	-0.320
-649.799	-39.921	-0.232	0.121
-648.784	289.439	-0.262	0.476
-647.770	10.012	-0.071	0.054
-646.755	-200.000	0.011	0.123
-645.741	-49.466	0.085	-0.041
-644.726	157.540	0.066	-0.091
-643.711	232.359	-0.194	-0.319
-642.697	13.960	0.306	0.239
-641.682	-200.000	-0.011	-0.188
-640.668	800.000	-0.011	0.036
-639.653	48.021	0.092	0.086
-638.638	-160.229	-0.186	-0.010
-637.624	193.898	-0.061	-0.092
-636.609	108.977	-0.186	0.223
-635.595	800.000	0.042	0.123
-634.580	47.752	-0.126	0.118
-633.565	800.000	0.066	0.264
-632.551	262.692	-0.151	-0.262
-631.536	-200.000	-0.016	0.117
-630.522	800.000	0.008	-0.024
-629.507	-88.232	-0.154	0.046
-628.492	337.974	0.126	-0.246
-627.478	2.082	-0.159	0.115
-626.463	-138.566	-0.350	-0.038
-625.449	-24.198	0.086	0.051
-624.434	-78.070	-0.329	-0.113
-623.419	-87.149	0.099	-0.030
-622.405	62.627	-0.172	-0.173
-621.390	-200.000	-0.003	-0.052
-620.376	-200.000	-0.003	0.068
-619.361	-200.000	0.053	-0.289
-618.346	-200.000	-0.013	-0.285
-617.332	-114.294	-0.148	0.029
-616.317	-200.000	-0.059	-0.268
-615.303	70.827	0.149	0.155
-614.288	9.374	0.123	0.093
-613.273	20.942	0.062	-0.050
-612.259	-127.483	-0.405	-0.059
-611.244	147.635	0.203	-0.273
-610.230	800.000	0.068	0.253
-609.215	-135.007	0.071	0.009
-608.201	247.259	-0.094	-0.159
-607.186	-155.058	-0.267	0.018
-606.171	42.367	0.092	0.084
-605.157	-23.771	0.248	0.148
-604.142	800.000	-0.102	-0.311
-603.128	-200.000	-0.051	0.597
-602.113	-87.013	-0.111	0.034
-601.098	-200.000	0.023	-0.167
-600.084	16.269	-0.049	0.039
-599.069	-200.000	-0.041	-0.192
-598.055	-200.000	0.005	-0.208
-597.040	-200.000	-0.028	-0.144
-596.025	-21.662	-0.295	-0.180
-595.011	-109.651	-0.367	-0.077
-593.996	1.215	-0.177	-0.127
-592.982	-111.878	-0.105	0.021
-591.967	-59.041	-0.322	0.139
-590.952	346.357	0.042	-0.082
-589.938	-200.000	0.006	0.407
-588.923	181.568	-0.055	0.082
-587.909	800.000	0.046	-0.163
-586.894	21.769	-0.175	0.143
-585.879	-59.747	-0.058	-0.025
-584.865	800.000	-0.031	0.098
-583.850	-22.462	-0.143	-0.086
-582.836	-114.286	0.313	0.060
-581.821	147.469	-0.064	-0.086
-580.806	208.634	0.175	-0.273
-579.792	-200.000	-0.004	-0.270
-578.777	212.639	0.089	-0.140
-577.763	-200.000	-0.066	0.373
-576.748	-171.779	0.176	-0.006
-575.733	-84.033	0.239	0.076
-574.719	-140.245	-0.197	-0.021
-573.704	-70.002	-0.176	-0.067
-572.690	56.440	0.251	-0.244
-571.675	-200.000	0.039	-0.471
-570.661	276.568	-0.211	-0.375
-569.646	-200.000	0.027	-0.259
-568.631	783.089	-0.126	-0.344
-567.617	-41.656	-0.123	-0.063
-566.602	-200.000	-0.002	-0.196
-565.588	-137.074	-0.295	-0.034
-564.573	-52.571	-0.157	0.073
-563.558	-37.834	0.173	0.092
-562.544	-110.462	0.071	0.015
-561.529	-16.399	-0.163	-0.104
-560.515	448.756	-0.015	-0.032
-559.500	800.000	0.140	-0.409
-558.485	-92.594	0.083	-0.023
-557.471	-200.000	-0.030	0.221
-556.456	-109.929	-0.248	0.052
-555.442	175.097	0.100	0.144
-554.427	24.833	0.248	0.205
-553.412	-200.000	0.004	0.213
-552.398	19.106	-0.201	-0.161
-551.383	-65.480	0.113	-0.045
-550.369	-200.000	0.031	0.304
-549.354	162.240	-0.099	-0.139
-548.339	484.051	-0.149	-0.339
-547.325	28.713	0.231	0.195
-546.310	-200.000	0.055	0.333
-545.296	-200.000	0.002	0.035
-544.281	189.447	0.102	-0.153
-543.266	-111.356	0.157	-0.032
-542.252	203.541	-0.137	0.211
-541.237	23.093	-0.029	-0.024
-540.223	10.640	-0.138	0.105
-539.208	-15.970	-0.085	0.054
-538.193	-200.000	-0.042	-0.277
-537.179	-160.490	0.255	-0.014
-536.164	-62.870	-0.399	-0.165
-535.150	-200.000	-0.006	0.220
-534.135	-22.876	-0.210	0.126
-533.121	89.816	-0.152	0.169
-532.106	7.340	0.184	-0.137
-531.091	87.636	0.207	-0.229
-530.077	-43.723	-0.119	-0.060
-529.062	200.938	0.081	0.125
-528.048	113.719	-0.082	-0.100
-527.033	-200.000	-0.014	-0.092
-526.018	-200.000	-0.056	0.339
-525.004	-200.000	-0.062	-0.332
-523.989	-200.000	0.077	-0.343
-522.975	-125.548	-0.100	-0.015
-521.960	370.886	-0.183	-0.370
-520.945	-20.060	0.314	-0.193
-519.931	69.197	0.330	-0.339
-518.916	80.472	0.089	-0.096
-517.902	-165.949	0.062	-0.003
-516.887	-64.578	-0.485	-0.196
-515.872	-163.959	-0.208	-0.010
-514.858	-130.713	0.220	0.029
-513.843	506.572	0.147	0.341
-512.829	-22.165	-0.161	-0.098
-511.814	800.000	0.013	0.055
-510.799	-145.982	0.123	0.011
-509.785	-109.566	-0.076	0.016
-508.770	-200.000	-0.005	0.231
-507.756	-39.348	0.245	-0.128
-506.741	-13.871	-0.112	-0.072
-505.726	-55.631	-0.223	0.099
-504.712	800.000	-0.013	0.051
-503.697	800.000	-0.015	-0.062
-502.683	-116.850	0.251	0.046
-501.668	-200.000	-0.039	0.196
-500.653	-80.930	-0.271	0.089
-499.639	-18.955	-0.093	-0.058
-498.624	-200.000	0.015	-0.084
-497.610	-12.395	0.342	0.223
-496.595	-6.893	-0.030	0.020
-495.581	2.112	0.141	0.101
-494.566	-82.406	-0.099	-0.032
-493.551	-152.684	-0.136	0.010
-492.537	65.952	0.115	0.116
-491.522	-99.831	-0.418	-0.104
-490.508	-96.659	0.345	0.091
-489.493	-200.000	0.098	0.486
-488.478	800.000	0.035	0.099
-487.464	-200.000	-0.025	0.229
-486.449	-129.952	-0.205	0.028
-485.435	414.851	-0.095	0.201
-484.420	69.911	-0.132	-0.135
-483.405	-0.768	0.230	-0.162
-482.391	-200.000	-0.006	0.092
-481.376	-200.000	0.010	0.098
-480.362	392.515	-0.031	0.065
-479.347	-200.000	0.014	0.094
-478.332	116.571	0.189	0.230
-477.318	49.755	0.206	-0.194
-476.303	37.159	0.267	-0.235
-475.289	-200.000	0.002	-0.056
-474.274	342.403	0.020	-0.040
-473.259	160.991	-0.083	0.115
-472.245	-200.000	0.052	-0.311
-471.230	-176.010	0.192	0.005
-470.216	-64.910	0.241	0.097
-469.201	-83.181	-0.191	0.061
-468.186	-200.000	0.004	0.276
-467.172	158.197	0.344	0.475
-466.157	-34.273	-0.223	-0.122
-465.143	-22.798	0.181	-0.109
-464.128	13.862	-0.163	-0.127
-463.113	47.619	-0.200	-0.186
-462.099	-76.389	0.150	-0.053
-461.084	-128.420	0.140	0.020
-460.070	-200.000	-0.026	0.252
-459.055	-200.000	-0.029	-0.403
-458.040	800.000	-0.043	0.147
-457.026	166.267	0.253	0.357
-456.011	800.000	-0.078	-0.247
-454.997	26.924	-0.282	0.235
-453.982	-200.000	-0.008	-0.360
-452.968	161.677	0.160	-0.223
-451.953	-87.860	-0.095	-0.028
-450.938	229.496	-0.019	-0.032
-449.924	-61.918	-0.085	0.035
-448.909	-200.000	-0.048	-0.265
-447.895	800.000	0.140	0.427
-446.880	730.392	-0.025	0.066
-445.865	-200.000	0.032	0.152
-444.851	561.625	0.152	0.367
-443.836	-23.230	0.159	-0.095
-442.822	-130.484	0.090	0.012
-441.807	-65.248	-0.137	0.055
-440.792	141.210	0.172	0.227
-439.778	774.194	0.110	0.297
-438.763	-200.000	0.061	-0.307
-437.749	-200.000	0.012	0.138
-436.734	77.852	0.020	0.021
-435.719	800.000	-0.021	-0.079
-434.705	91.713	-0.129	0.145
-433.690	-130.893	0.536	-0.071
-432.676	17.041	-0.128	0.101
-431.661	274.732	0.096	0.168
-430.646	800.000	0.045	-0.183
-429.632	-67.288	0.284	-0.111
-428.617	17.706	0.170	-0.134
-427.603	763.192	0.135	-0.364
-426.588	19.993	-0.178	-0.143
-425.573	42.775	0.044	-0.040
-424.559	133.572	0.087	-0.112
-423.544	204.892	0.148	-0.229
-422.530	-70.106	0.268	-0.101
-421.515	61.211	-0.016	-0.016
-420.500	-29.041	0.213	-0.122
-419.486	225.641	-0.057	-0.091
-418.471	4.056	0.256	0.186
-417.457	-56.867	0.189	-0.083
-416.442	-33.557	-0.359	0.197
-415.428	-200.000	-0.003	-0.033
-414.413	608.279	-0.133	-0.329
-413.398	100.776	-0.097	-0.113
-412.384	-69.561	-0.142	0.054
-411.369	-5.391	-0.199	-0.136
-410.355	147.630	0.233	-0.312
-409.340	-200.000	0.078	-0.415
-408.325	25.229	-0.283	-0.234
-407.311	-200.000	0.002	-0.044
-406.296	-32.281	0.220	0.122
-405.282	800.000	-0.044	-0.160
-404.267	800.000	-0.099	0.278
-403.252	800.000	-0.038	0.106
-402.238	63.799	-0.066	0.065
-401.223	494.933	0.154	0.351
-400.209	-79.847	-0.260	-0.087
-399.194	-107.328	-0.245	-0.053
-398.179	-53.978	0.213	-0.096
-397.165	278.210	0.102	-0.180
-396.150	-157.174	-0.323	0.019
-395.136	-162.107	0.203	0.010
-394.121	266.034	-0.079	0.137
-393.106	327.416	0.070	-0.133
-392.092	15.928	-0.166	0.130
-391.077	83.603	0.224	0.243
-390.063	-141.386	0.130	-0.013
-389.048	-200.000	0.047	-0.256
-388.033	-89.721	0.391	-0.114
-387.019	-20.983	0.162	0.098
-386.004	-120.644	0.237	0.040
-384.990	-156.003	0.200	-0.013
-383.975	-135.232	-0.448	0.053
-382.960	-185.577	-0.151	0.002
-381.946	-200.000	-0.056	-0.248
-380.931	-97.430	0.396	-0.102
-379.917	319.838	-0.022	0.041
-378.902	-147.373	0.288	0.024
-377.888	-58.444	-0.326	-0.140
-376.873	273.651	0.060	0.104
-375.858	220.793	-0.087	0.139
-374.844	63.606	0.171	0.170
-373.829	-49.164	0.147	0.070
-372.815	476.414	0.145	0.325
-371.800	-0.259	0.377	-0.266
-370.785	350.352	0.164	-0.322
-369.771	-42.003	0.219	0.111
-368.756	-81.333	0.213	0.070
-367.742	-34.118	0.044	-0.024
-366.727	-10.605	-0.178	0.117
-365.712	-158.519	-0.234	0.013
-364.698	-200.000	-0.006	0.064
-363.683	727.905	0.021	0.055
-362.669	-110.818	0.168	-0.034
-361.654	-41.136	0.131	-0.067
-360.639	765.777	-0.104	-0.280
-359.625	-31.379	0.223	0.125
-358.610	-91.767	-0.193	0.054
-357.596	47.983	-0.081	-0.075
-356.581	169.421	0.056	0.079
-355.566	32.968	0.187	-0.161
-354.552	-71.373	0.312	-0.116
-353.537	-97.023	0.247	-0.064
-352.523	303.613	0.062	-0.114
-351.508	-93.400	0.280	0.077
-350.493	-74.077	0.301	0.108
-349.479	111.638	0.178	-0.213
-348.464	73.692	-0.133	-0.139
-347.450	-129.790	0.041	-0.006
-346.435	30.769	-0.222	0.189
-345.420	800.000	-0.059	-0.162
-344.406	-121.216	-0.140	0.023
-343.391	800.000	0.023	0.084
-342.377	800.000	0.092	-0.390
-341.362	800.000	-0.011	-0.040
-340.348	-200.000	0.002	-0.013
-339.333	367.649	-0.128	0.256
-338.318	214.454	0.187	0.294
-337.304	-12.657	-0.134	0.086
-336.289	609.529	0.108	0.267
-335.275	628.632	0.072	0.180
-334.260	50.931	-0.180	-0.169
-333.245	-200.000	-0.024	-0.236
-332.231	620.253	-0.178	0.444
-331.216	-197.663	-0.193	-0.001
-330.202	711.531	0.058	-0.152
-329.187	-127.853	-0.402	0.057
-328.172	65.185	-0.229	-0.230
-327.158	-200.000	0.020	-0.163
-326.143	133.242	0.068	-0.088
-325.129	-49.738	-0.273	0.129
-324.114	-152.091	0.243	-0.017
-323.099	-172.381	0.161	0.005
-322.085	217.247	-0.080	0.126
-321.070	-112.714	0.097	0.019
-320.056	-200.000	-0.022	0.267
-319.041	800.000	-0.098	0.323
-318.026	-80.950	-0.395	-0.130
-317.012	532.989	-0.044	0.102
-315.997	800.000	-0.050	-0.180
-314.983	-200.000	0.006	-0.338
-313.968	-36.980	0.382	0.203
-312.953	-186.330	0.113	-0.002
-311.939	378.949	0.060	0.122
-310.924	-157.015	-0.320	0.019
-309.910	-3.344	-0.250	-0.172
-308.895	293.351	-0.098	-0.177
-307.880	27.610	0.173	-0.144
-306.866	-46.595	-0.193	0.094
-305.851	-200.000	-0.048	0.224
-304.837	-85.094	-0.353	0.109
-303.822	-78.729	-0.369	0.125
-302.807	-200.000	-0.005	0.253
-301.793	800.000	-0.032	0.133
-300.778	81.733	-0.015	0.016
-299.764	66.345	0.162	0.163
-298.749	209.118	-0.100	-0.154
-297.735	108.443	0.114	0.134
-296.720	47.517	-0.103	0.095
-295.705	-200.000	0.055	-0.249
-294.691	762.813	-0.080	-0.215
-293.676	-123.895	0.075	0.012
-292.662	130.310	-0.054	0.069
-291.647	45.807	0.215	0.196
-290.632	-48.602	0.081	0.038
-289.618	-180.246	0.209	0.004
-288.603	-200.000	0.000	-0.198
-287.589	800.000	0.026	0.089
-286.574	-200.000	0.063	0.295
-285.559	800.000	-0.027	-0.109
-284.545	61.959	0.223	-0.220
-283.530	-200.000	0.026	-0.355
-282.516	12.132	0.397	-0.302
-281.501	-200.000	0.018	-0.181
-280.486	-200.000	-0.037	0.188
-279.472	-200.000	-0.024	0.118
-278.457	800.000	-0.129	0.388
-277.443	18.960	0.065	0.051
-276.428	-59.717	-0.213	0.090
-275.413	-200.000	0.033	0.266
-274.399	-200.000	-0.028	0.294
-273.384	-46.249	-0.377	0.183
-272.370	242.367	-0.074	-0.122
-271.355	85.615	-0.121	0.132
-270.340	35.776	-0.201	-0.175
-269.326	256.767	0.122	0.208
-268.311	82.798	0.157	0.169
-267.297	-200.000	0.029	0.150
-266.282	262.040	-0.125	-0.215
-265.267	-200.000	-0.001	0.235
-264.253	-23.476	0.093	0.055
-263.238	139.886	-0.252	-0.328
-262.224	-17.119	0.235	-0.146
-261.209	64.937	-0.441	0.440
-260.195	42.795	-0.262	0.236
-259.180	800.000	-0.069	0.211
-258.165	75.062	-0.311	0.323
-257.151	176.133	0.020	0.029
-256.136	800.000	-0.066	-0.279
-255.122	78.172	0.172	0.182
-254.107	40.177	0.077	0.068
-253.092	-112.362	0.276	-0.055
-252.078	-200.000	0.013	0.186
-251.063	202.854	0.149	-0.228
-250.049	20.507	-0.105	-0.084
-249.034	-162.083	0.182	-0.009
-248.019	-48.762	-0.319	-0.151
-247.005	-163.987	0.171	-0.008
-245.990	15.449	0.275	0.213
-244.976	-111.460	-0.096	0.019
-243.961	800.000	0.070	0.240
-242.946	-200.000	-0.007	0.112
-241.932	-17.460	-0.280	-0.174
-240.917	162.325	0.054	0.075
-239.903	-200.000	0.036	-0.456
-238.888	54.967	0.103	0.098
-237.873	-69.289	0.227	0.086
-236.859	411.733	-0.058	0.121
-235.844	-200.000	0.079	0.463
-234.830	-95.112	-0.284	-0.076
-233.815	26.211	0.104	0.085
-232.800	-54.313	-0.152	-0.068
-231.786	-74.759	0.090	0.032
-230.771	432.023	-0.116	-0.249
-229.757	-114.149	0.328	-0.063
-228.742	-200.000	-0.002	0.242
-227.727	-83.598	0.150	0.047
-226.713	-179.806	0.044	0.001
-225.698	99.820	-0.127	-0.145
-224.684	-143.700	0.038	-0.004
-223.669	-33.118	0.239	0.130
-222.655	-96.243	-0.310	0.081
-221.640	-200.000	0.042	0.246
-220.625	22.175	-0.231	0.186
-219.611	552.172	0.023	0.056
-218.596	-67.720	0.140	0.054
-217.582	75.150	0.230	0.240
-216.567	10.373	0.394	0.295
-215.552	109.769	0.141	-0.167
-214.538	-200.000	-0.004	0.132
-213.523	573.217	-0.026	-0.062
-212.509	129.695	0.182	0.230
-211.494	-84.188	-0.237	-0.074
-210.479	800.000	0.014	-0.057
-209.465	586.574	-0.051	-0.124
-208.450	-97.752	0.124	-0.032
-207.436	93.890	0.237	0.265
-206.421	-29.280	-0.244	0.137
-205.406	-23.042	0.292	-0.173
-204.392	-200.000	-0.041	-0.213
-203.377	79.075	-0.067	0.071
-202.363	91.979	-0.236	-0.262
-201.348	-200.000	-0.002	-0.234
-200.333	-121.370	0.095	-0.016
-199.319	-84.104	-0.084	0.026
-198.304	-21.803	0.203	0.122
-197.290	17.373	-0.082	-0.064
-196.275	-200.000	0.002	-0.245
-195.260	800.000	-0.047	-0.182
-194.246	-19.509	0.076	-0.046
-193.231	141.979	0.263	-0.343
-192.217	-29.390	-0.271	-0.153
-191.202	221.940	-0.060	-0.095
-190.187	-129.050	0.127	-0.017
-189.173	113.397	0.191	0.228
-188.158	239.299	0.213	0.349
-187.144	2.067	0.229	-0.163
-186.129	-87.311	-0.413	0.124
-185.114	-101.102	0.238	-0.057
-184.100	43.911	-0.366	-0.331
-183.085	-200.000	0.016	0.091
-182.071	-116.741	-0.078	-0.014
-181.056	-84.028	0.302	0.095
-180.042	154.340	0.019	-0.025
-179.027	319.668	-0.187	0.349
-178.012	624.444	0.089	-0.221
-176.998	-200.000	0.009	-0.142
-175.983	344.872	-0.129	-0.249
-174.969	-131.097	-0.317	0.042
-173.954	-38.208	-0.291	-0.152
-172.939	-54.619	-0.260	-0.116
-171.925	-200.000	-0.047	0.264
-170.910	59.384	0.231	-0.224
-169.896	800.000	-0.054	0.176
-168.881	-53.369	-0.159	0.072
-167.866	-72.802	0.115	0.041
-166.852	-47.013	0.163	0.078
-165.837	800.000	0.036	-0.120
-164.823	800.000	-0.041	-0.162
-163.808	800.000	-0.083	-0.337
-162.793	76.110	-0.238	0.248
-161.779	-200.000	-0.060	0.372
-160.764	800.000	0.049	0.148
-159.750	112.586	0.054	-0.064
-158.735	5.397	-0.153	0.111
-157.720	5.196	-0.376	0.273
-156.706	-200.000	0.000	0.362
-155.691	174.352	0.184	0.262
-154.677	800.000	0.089	-0.291
-153.662	115.604	-0.093	-0.112
-152.647	32.565	0.105	-0.089
-151.633	336.662	0.198	-0.378
-150.618	39.632	0.044	0.039
-149.604	305.601	-0.105	0.191
-148.589	207.158	0.114	0.175
-147.574	-164.912	-0.215	-0.009
-146.560	27.829	-0.108	-0.089
-145.545	-113.785	-0.154	-0.030
-144.531	-43.586	-0.090	0.045
-143.516	-200.000	0.003	0.138
-142.502	-60.586	-0.133	-0.056
-141.487	-200.000	-0.068	0.410
-140.472	-200.000	0.027	0.273
-139.458	-200.000	0.025	-0.122
-138.443	172.664	-0.189	-0.268
-137.429	-123.812	-0.353	0.055
-136.414	314.142	0.119	-0.220
-135.399	111.301	0.220	0.261
-134.385	27.776	-0.357	0.296
-133.370	-94.633	-0.131	-0.035
-132.356	29.871	-0.088	-0.074
-131.341	266.761	0.029	0.049
-130.326	-86.566	0.238	0.072
-129.312	-9.767	0.291	-0.191
-128.297	97.051	0.014	-0.016
-127.283	52.476	-0.164	-0.154
-126.268	172.285	-0.187	-0.264
-125.253	21.322	-0.238	0.190
-124.239	783.926	-0.065	0.174
-123.224	800.000	-0.049	-0.194
-122.210	-85.442	-0.293	-0.090
-121.195	0.841	0.210	0.148
