DTS Sentinel unit serial number:	SN413079Multiplexer serial number:	ORYXHardware model number:	OX4-SRSoftware version number:	ORYX F/W v4.00 Oryx Data Collector v3.7.2.0data status	okinstallation	princeton_trtdifferential loss correction	single-endedforward channel	channel 1reverse channel	N/Adate	2019/09/11time	02:20:11forward acquisition time	60.00reverse acquisition time	0.00gamma	496.2192k internal	0.2331k external	0.2331temperature offset calibration	0.9929default loss term (dB/km)	0.3790temperature slope calibration	1.0000multiplexer offset coefficient	1.0000multiplexer slope coefficient	1.0000fibre end	0.00T internal ref (°C)	29.19T ext. ref 1 (°C)	-0.31T ext. ref 2 (°C)	23.45length (m)	temperature (°C)	Stokes	anti-Stokes-747.200	-74.743	0.215	0.078
-746.185	-180.727	-0.191	0.004
-745.171	707.970	0.070	-0.186
-744.156	57.865	0.047	0.047
-743.142	26.572	-0.102	0.086
-742.127	100.594	-0.469	0.548
-741.112	800.000	0.069	0.266
-740.098	-29.901	0.287	-0.165
-739.083	800.000	0.033	-0.143
-738.069	225.765	-0.130	0.212
-737.054	800.000	0.075	0.292
-736.039	-64.474	0.230	0.094
-735.025	119.179	0.244	0.304
-734.010	149.973	0.102	-0.139
-732.996	62.665	-0.236	-0.237
-731.981	188.068	-0.093	-0.140
-730.966	94.782	0.049	-0.056
-729.952	-72.410	-0.159	0.059
-728.937	-83.800	-0.132	0.042
-727.923	-126.046	0.095	0.014
-726.908	142.540	-0.332	-0.444
-725.894	64.119	0.166	-0.168
-724.879	-97.864	-0.266	0.069
-723.864	-32.895	0.346	-0.193
-722.850	-70.391	0.144	0.055
-721.835	157.115	0.238	0.331
-720.821	76.403	0.209	-0.223
-719.806	-110.489	0.257	-0.054
-718.791	-49.247	-0.362	0.174
-717.777	-158.264	-0.323	-0.019
-716.762	-53.688	-0.025	-0.012
-715.748	339.088	0.237	-0.463
-714.733	162.497	-0.155	0.219
-713.718	168.110	0.118	0.168
-712.704	-118.117	0.164	-0.029
-711.689	800.000	-0.070	-0.265
-710.675	15.775	-0.195	-0.154
-709.660	341.571	0.083	-0.164
-708.645	-145.027	-0.121	-0.011
-707.631	-109.686	0.105	0.022
-706.616	67.093	0.363	-0.372
-705.602	670.880	0.017	-0.045
-704.587	-108.759	-0.294	0.063
-703.572	478.624	0.045	-0.103
-702.558	-200.000	0.271	-0.000
-701.543	-200.000	0.057	-0.441
-700.529	-200.000	0.035	-0.178
-699.514	-13.441	-0.206	0.134
-698.499	32.461	0.112	0.097
-697.485	168.847	-0.035	-0.051
-696.470	65.205	-0.321	0.326
-695.456	18.133	-0.235	-0.189
-694.441	-55.922	0.360	0.161
-693.426	-200.000	0.028	-0.144
-692.412	800.000	0.041	0.132
-691.397	152.957	0.113	-0.156
-690.383	146.553	-0.026	0.035
-689.368	800.000	0.162	-0.513
-688.354	158.962	-0.054	0.075
-687.339	541.178	-0.067	-0.161
-686.324	409.384	0.117	-0.249
-685.310	264.606	0.132	0.230
-684.295	-90.681	-0.151	-0.044
-683.281	-11.648	0.118	-0.078
-682.266	-200.000	-0.001	-0.459
-681.251	-92.497	0.103	-0.029
-680.237	-200.000	-0.028	-0.286
-679.222	-58.994	-0.268	-0.116
-678.208	-23.065	-0.144	-0.087
-677.193	-26.241	-0.502	-0.296
-676.178	-200.000	0.039	-0.260
-675.164	9.867	-0.136	-0.104
-674.149	317.959	-0.206	-0.391
-673.135	-200.000	-0.041	-0.226
-672.120	356.705	-0.072	0.145
-671.105	-200.000	0.002	-0.036
-670.091	185.481	0.107	0.159
-669.076	531.338	-0.070	-0.167
-668.062	-162.727	0.268	-0.013
-667.047	-151.236	0.140	-0.010
-666.032	-40.147	-0.108	-0.057
-665.018	-200.000	0.005	-0.089
-664.003	218.137	0.146	-0.233
-662.989	-20.070	0.184	0.114
-661.974	275.889	0.142	0.254
-660.959	247.124	0.153	-0.260
-659.945	11.440	-0.098	-0.075
-658.930	-109.968	0.217	-0.046
-657.916	-8.844	-0.106	-0.071
-656.901	172.898	-0.170	0.246
-655.886	445.675	-0.079	-0.175
-654.872	-72.272	-0.165	0.061
-653.857	-110.403	0.402	0.084
-652.843	716.659	-0.049	0.129
-651.828	-103.965	-0.153	-0.036
-650.814	112.084	0.190	0.230
-649.799	232.615	0.047	0.077
-648.784	-200.000	0.031	-0.241
-647.770	79.064	-0.081	-0.087
-646.755	500.375	0.166	-0.383
-645.741	187.287	-0.144	-0.215
-644.726	184.709	0.171	0.254
-643.711	162.427	0.105	0.147
-642.697	-121.450	0.301	-0.050
-641.682	-91.756	-0.268	-0.076
-640.668	-4.259	0.229	-0.159
-639.653	-144.693	-0.308	0.028
-638.638	-59.776	-0.162	-0.070
-637.624	-8.318	-0.113	0.076
-636.609	447.001	0.152	-0.334
-635.595	147.304	-0.079	-0.106
-634.580	212.059	-0.040	-0.063
-633.565	-200.000	-0.015	-0.116
-632.551	77.063	0.231	-0.245
-631.536	453.805	0.098	-0.217
-630.522	-108.517	0.189	0.041
-629.507	3.031	0.102	-0.074
-628.492	-44.680	-0.103	-0.052
-627.478	306.488	0.073	0.137
-626.463	-66.488	-0.357	-0.142
-625.449	-80.949	-0.311	-0.103
-624.434	-194.124	-0.227	-0.002
-623.419	487.020	-0.111	0.254
-622.405	-7.450	-0.265	-0.180
-621.390	171.757	0.074	0.106
-620.376	-65.195	0.167	0.067
-619.361	-50.434	-0.156	-0.074
-618.346	-155.801	-0.140	0.009
-617.332	-11.778	0.066	-0.043
-616.317	131.363	0.096	-0.123
-615.303	-118.668	-0.217	-0.038
-614.288	-179.866	0.329	-0.007
-613.273	-73.519	-0.066	-0.024
-612.259	-200.000	-0.017	0.151
-611.244	161.982	-0.221	-0.310
-610.230	-133.555	-0.158	0.020
-609.215	-152.862	0.086	0.006
-608.201	-200.000	0.026	0.213
-607.186	391.417	-0.055	0.114
-606.171	-88.407	-0.690	-0.206
-605.157	-62.578	0.301	0.125
-604.142	-117.686	0.256	0.046
-603.128	1.510	0.287	-0.207
-602.113	0.208	-0.170	-0.121
-601.098	32.586	0.144	-0.124
-600.084	24.140	-0.307	-0.253
-599.069	-2.038	-0.131	0.092
-598.055	43.463	-0.157	-0.144
-597.040	-95.520	0.363	-0.097
-596.025	452.509	0.096	0.213
-595.011	-84.875	-0.083	0.026
-593.996	-200.000	0.002	-0.128
-592.982	97.301	-0.116	-0.133
-591.967	800.000	0.052	-0.149
-590.952	-29.070	-0.250	-0.143
-589.938	102.529	0.163	0.191
-588.923	-108.736	0.252	-0.054
-587.909	64.139	0.053	-0.053
-586.894	800.000	0.058	-0.179
-585.879	-114.614	0.043	0.008
-584.865	204.693	0.149	0.231
-583.850	659.989	-0.098	-0.253
-582.836	-81.793	-0.302	-0.099
-581.821	146.468	-0.206	-0.277
-580.806	800.000	-0.047	0.156
-579.792	218.432	0.101	0.160
-578.777	-200.000	-0.024	-0.362
-577.763	259.233	0.132	-0.227
-576.748	-38.486	0.251	-0.133
-575.733	116.105	-0.102	-0.125
-574.719	-185.867	0.092	0.001
-573.704	331.490	0.074	0.143
-572.690	162.089	-0.076	0.106
-571.675	800.000	0.019	0.069
-570.661	176.492	-0.052	0.076
-569.646	-4.881	0.186	0.128
-568.631	11.157	0.232	0.178
-567.617	419.705	0.135	0.288
-566.602	782.780	0.008	-0.021
-565.588	800.000	-0.086	-0.244
-564.573	20.303	0.230	-0.186
-563.558	356.469	-0.035	0.070
-562.544	31.030	0.125	0.107
-561.529	43.314	-0.077	0.070
-560.515	-170.408	-0.126	-0.004
-559.500	242.608	-0.055	-0.093
-558.485	-121.103	-0.314	-0.053
-557.471	-136.561	0.434	-0.050
-556.456	218.648	-0.064	0.102
-555.442	800.000	0.149	-0.458
-554.427	-186.073	0.170	-0.002
-553.412	358.847	-0.076	-0.152
-552.398	20.387	-0.125	-0.101
-551.383	27.089	-0.249	-0.209
-550.369	-59.302	-0.482	-0.207
-549.354	603.913	-0.024	-0.059
-548.339	279.023	-0.050	0.090
-547.325	-141.189	0.045	-0.005
-546.310	-200.000	0.016	-0.326
-545.296	-200.000	0.007	-0.090
-544.281	-140.926	-0.110	-0.011
-543.266	-156.643	0.107	0.007
-542.252	800.000	-0.111	0.319
-541.237	125.555	-0.179	0.226
-540.223	-80.050	0.278	-0.093
-539.208	-147.080	0.349	-0.030
-538.193	-94.590	0.275	-0.075
-537.179	800.000	-0.063	0.225
-536.164	-45.854	0.208	-0.103
-535.150	-91.332	-0.255	0.073
-534.135	-64.763	0.462	-0.187
-533.121	-67.799	-0.094	-0.037
-532.106	87.469	-0.199	0.220
-531.091	127.076	0.165	-0.209
-530.077	-186.331	-0.410	-0.006
-529.062	96.928	-0.154	-0.177
-528.048	42.232	-0.113	0.103
-527.033	-42.927	-0.180	0.091
-526.018	-107.409	0.071	-0.016
-525.004	-24.014	-0.319	0.190
-523.989	-102.078	0.257	-0.062
-522.975	-200.000	-0.013	-0.058
-521.960	-13.792	0.172	0.111
-520.945	-11.682	-0.147	-0.096
-519.931	-35.869	0.065	0.035
-518.916	104.856	-0.086	0.101
-517.902	571.858	0.094	-0.227
-516.887	-115.694	0.067	-0.013
-515.872	-152.859	-0.369	-0.026
-514.858	-167.885	-0.491	-0.019
-513.843	-154.812	-0.351	0.023
-512.829	-73.287	0.035	-0.013
-511.814	61.222	0.172	-0.170
-510.799	196.450	-0.213	0.323
-509.785	23.312	-0.370	0.303
-508.770	41.657	0.336	-0.303
-507.756	-13.728	0.162	0.105
-506.741	-60.449	0.273	0.116
-505.726	-81.513	0.148	-0.049
-504.712	295.858	-0.021	0.039
-503.697	-18.567	0.114	-0.071
-502.683	800.000	0.038	-0.164
-501.668	320.993	-0.191	0.361
-500.653	-200.000	0.061	0.300
-499.639	113.875	-0.144	-0.174
-498.624	-200.000	-0.030	0.152
-497.610	42.408	0.279	0.253
-496.595	-100.263	-0.452	-0.112
-495.581	800.000	-0.075	0.233
-494.566	800.000	0.027	-0.083
-493.551	-200.000	0.039	0.257
-492.537	309.560	0.073	0.136
-491.522	110.297	-0.076	-0.091
-490.508	-200.000	0.044	-0.391
-489.493	-55.629	-0.173	-0.077
-488.478	-57.691	0.293	0.128
-487.464	-51.999	0.251	-0.116
-486.449	50.181	0.185	-0.174
-485.435	-70.151	0.219	-0.083
-484.420	52.337	0.269	0.256
-483.405	38.738	-0.107	-0.095
-482.391	523.790	0.087	-0.203
-481.376	-200.000	-0.015	-0.089
-480.362	13.306	-0.130	-0.100
-479.347	-119.090	0.235	0.041
-478.332	674.575	0.016	0.042
-477.318	92.705	-0.021	-0.023
-476.303	-200.000	0.002	0.239
-475.289	39.641	-0.112	0.100
-474.274	-200.000	-0.081	-0.454
-473.259	-11.108	0.078	-0.051
-472.245	-16.773	-0.240	-0.151
-471.230	739.270	0.068	0.182
-470.216	-73.185	0.203	0.074
-469.201	800.000	0.023	0.096
-468.186	-128.489	-0.277	0.039
-467.172	-19.202	-0.267	0.165
-466.157	800.000	0.101	-0.326
-465.143	-133.404	0.223	0.028
-464.128	-38.169	0.169	0.089
-463.113	-44.919	0.128	0.063
-462.099	-57.007	0.165	0.072
-461.084	-100.661	0.129	-0.032
-460.070	-103.125	-0.034	0.008
-459.055	-171.199	-0.331	-0.011
-458.040	-200.000	-0.087	0.502
-457.026	-31.999	0.315	0.175
-456.011	-5.486	-0.170	-0.116
-454.997	-9.483	0.347	-0.230
-453.982	-163.743	-0.199	-0.009
-452.968	693.309	0.014	0.038
-451.953	-200.000	0.030	-0.209
-450.938	-200.000	-0.021	-0.179
-449.924	-132.700	0.072	0.009
-448.909	-200.000	0.021	0.099
-447.895	322.912	-0.020	0.038
-446.880	274.654	0.178	-0.313
-445.865	104.775	-0.143	0.168
-444.851	-0.174	0.109	0.077
-443.836	800.000	0.006	0.023
-442.822	70.239	0.007	-0.008
-441.807	738.319	-0.079	-0.210
-440.792	-78.008	-0.127	0.044
-439.778	288.171	0.189	-0.341
-438.763	-74.972	-0.149	0.053
-437.749	155.651	-0.195	-0.267
-436.734	-200.000	-0.070	0.341
-435.719	16.819	-0.142	-0.112
-434.705	22.561	0.186	-0.151
-433.690	-78.268	0.116	0.040
-432.676	218.121	-0.212	-0.337
-431.661	70.295	-0.223	-0.229
-430.646	-200.000	0.000	-0.079
-429.632	78.748	-0.285	0.303
-428.617	9.724	-0.189	0.142
-427.603	-200.000	-0.043	0.292
-426.588	520.120	-0.178	-0.414
-425.573	707.479	0.009	0.024
-424.559	347.316	-0.092	-0.180
-423.544	-200.000	0.009	-0.067
-422.530	-73.229	-0.278	0.101
-421.515	191.821	-0.074	-0.111
-420.500	458.087	0.114	-0.252
-419.486	-38.590	-0.306	0.161
-418.471	-100.147	0.324	0.080
-417.457	-18.225	-0.028	-0.018
-416.442	-44.786	0.219	-0.109
-415.428	-77.173	0.027	0.009
-414.413	-200.000	-0.020	-0.236
-413.398	0.221	0.326	-0.231
-412.384	75.824	0.011	0.012
-411.369	-174.841	0.018	0.001
-410.355	-166.113	-0.110	0.005
-409.340	-168.182	0.260	0.010
-408.325	105.945	0.159	0.187
-407.311	800.000	0.092	0.260
-406.296	-200.000	0.024	0.110
-405.282	61.010	0.165	0.162
-404.267	-200.000	-0.037	-0.173
-403.252	-94.974	0.247	-0.066
-402.238	154.201	0.254	-0.345
-401.223	800.000	-0.057	-0.169
-400.209	-169.034	-0.157	0.006
-399.194	-53.126	0.195	-0.089
-398.179	-200.000	-0.039	-0.325
-397.165	-200.000	0.040	-0.263
-396.150	21.901	0.102	-0.083
-395.136	33.302	-0.088	0.076
-394.121	343.842	-0.143	0.279
-393.106	297.088	0.116	0.211
-392.092	-78.016	0.309	0.106
-391.077	-200.000	-0.028	-0.167
-390.063	439.954	0.102	0.222
-389.048	200.121	-0.259	0.395
-388.033	800.000	0.111	-0.373
-387.019	-200.000	-0.004	0.104
-386.004	-67.389	0.150	-0.059
-384.990	407.225	-0.141	0.295
-383.975	87.711	0.034	0.037
-382.960	-129.131	0.178	0.025
-381.946	-43.124	-0.237	-0.119
-380.931	324.364	0.057	0.107
-379.917	203.074	-0.108	0.165
-378.902	-165.248	-0.226	-0.010
-377.888	356.484	-0.162	-0.319
-376.873	-74.743	0.236	-0.084
-375.858	467.907	-0.141	0.314
-374.844	46.682	0.129	-0.119
-373.829	-41.550	0.221	0.113
-372.815	-68.843	0.164	0.063
-371.800	58.959	0.125	-0.122
-370.785	800.000	0.064	-0.186
-369.771	46.145	-0.071	-0.065
-368.756	-62.188	-0.213	-0.088
-367.742	395.989	0.102	0.212
-366.727	800.000	-0.010	0.036
-365.712	29.996	-0.025	0.021
-364.698	-82.611	0.282	-0.091
-363.683	238.063	-0.151	0.248
-362.669	-90.666	0.314	0.090
-361.654	-53.001	-0.184	-0.084
-360.639	-75.125	0.162	-0.058
-359.625	-111.910	0.294	-0.059
-358.610	800.000	0.044	0.187
-357.596	800.000	0.050	-0.206
-356.581	571.753	-0.114	0.276
-355.566	-200.000	0.025	0.195
-354.552	-152.444	0.095	-0.007
-353.537	173.475	-0.150	-0.215
-352.523	-200.000	0.017	-0.368
-351.508	-200.000	-0.030	-0.300
-350.493	12.397	-0.193	0.148
-349.479	208.509	-0.166	-0.258
-348.464	-200.000	-0.006	-0.055
-347.450	-200.000	-0.021	-0.225
-346.435	-200.000	0.008	0.192
-345.420	-200.000	0.024	0.155
-344.406	-49.106	0.560	0.265
-343.391	800.000	0.034	-0.123
-342.377	493.958	0.049	-0.112
-341.362	521.477	0.178	-0.414
-340.348	-104.302	-0.266	0.061
-339.333	168.698	0.152	0.214
-338.318	107.024	0.167	-0.196
-337.304	118.047	-0.139	-0.170
-336.289	7.820	0.114	0.085
-335.275	-200.000	0.009	-0.258
-334.260	14.701	0.326	-0.252
-333.245	800.000	-0.102	-0.312
-332.231	-22.146	0.132	0.079
-331.216	-200.000	-0.001	0.022
-330.202	-200.000	-0.034	-0.203
-329.187	156.724	0.097	0.133
-328.172	-110.866	-0.153	-0.031
-327.158	-200.000	0.027	0.270
-326.143	-27.678	0.203	0.117
-325.129	-200.000	-0.003	-0.098
-324.114	-41.864	0.253	-0.128
-323.099	128.937	0.287	0.363
-322.085	439.487	0.232	0.501
-321.070	134.596	-0.230	-0.295
-320.056	620.774	0.241	0.600
-319.041	235.352	-0.128	0.210
-318.026	52.686	0.052	0.049
-317.012	54.687	0.368	-0.352
-315.997	-51.985	-0.266	-0.123
-314.983	-149.409	-0.116	0.009
-313.968	800.000	0.134	0.413
-312.953	-200.000	0.010	0.099
-311.939	-71.118	0.322	-0.120
-310.924	-13.229	-0.234	0.150
-309.910	-200.000	0.036	0.243
-308.895	-91.029	-0.156	0.044
-307.880	93.463	0.112	-0.125
-306.866	276.385	-0.147	0.258
-305.851	-75.195	-0.146	0.052
-304.837	-40.690	-0.168	0.086
-303.822	-200.000	-0.008	-0.467
-302.807	125.322	-0.172	-0.215
-301.793	28.921	-0.186	0.156
-300.778	421.774	-0.213	0.451
-299.764	-95.337	-0.066	-0.018
-298.749	222.753	0.162	-0.258
-297.735	-200.000	0.001	0.098
-296.720	-32.421	-0.124	-0.068
-295.705	328.017	0.076	0.144
-294.691	98.738	-0.131	-0.149
-293.676	-3.691	-0.128	0.088
-292.662	-200.000	-0.017	0.238
-291.647	284.237	0.042	-0.075
-290.632	82.189	0.171	-0.184
-289.618	1.492	-0.295	0.210
-288.603	124.512	-0.107	-0.133
-287.589	-12.641	-0.126	-0.081
-286.574	-121.891	-0.249	-0.040
-285.559	-200.000	-0.042	0.284
-284.545	635.725	0.069	-0.173
-283.530	-105.987	-0.218	0.048
-282.516	28.460	0.288	0.241
-281.501	-84.105	-0.145	0.046
-280.486	16.408	-0.032	-0.025
-279.472	-113.828	0.139	-0.027
-278.457	-49.929	-0.277	-0.130
-277.443	208.022	-0.094	-0.146
-276.428	-116.296	-0.046	0.008
-275.413	-169.827	0.077	0.003
-274.399	800.000	-0.027	-0.103
-273.384	-143.082	-0.180	0.017
-272.370	29.698	-0.105	-0.089
-271.355	63.893	0.104	0.103
-270.340	56.204	-0.016	0.015
-269.326	-107.531	-0.467	-0.101
-268.311	133.305	0.135	0.172
-267.297	-62.056	-0.229	-0.094
-266.282	-87.064	-0.223	0.067
-265.267	109.748	-0.116	0.138
-264.253	10.349	-0.247	0.185
-263.238	23.100	0.098	-0.079
-262.224	-200.000	0.038	0.262
-261.209	-126.554	-0.210	0.031
-260.195	501.284	-0.066	-0.149
-259.180	4.249	-0.127	0.092
-258.165	-154.304	0.410	-0.027
-257.151	171.650	0.029	-0.040
-256.136	-200.000	0.040	0.258
-255.122	109.746	-0.123	-0.145
-254.107	168.246	0.079	0.111
-253.092	-75.099	-0.064	0.022
-252.078	436.331	0.042	0.090
-251.063	-83.800	0.478	0.151
-250.049	207.962	0.131	-0.202
-249.034	-56.864	-0.240	-0.105
-248.019	-17.523	-0.169	0.105
-247.005	27.652	-0.146	0.121
-245.990	54.604	-0.186	-0.177
-244.976	321.941	0.090	-0.170
-243.961	800.000	0.069	0.196
-242.946	-190.967	-0.238	-0.002
-241.932	800.000	-0.089	0.292
-240.917	-41.287	0.042	-0.021
-239.903	800.000	-0.025	-0.074
-238.888	800.000	0.063	0.224
-237.873	-66.563	0.253	-0.099
-236.859	-4.022	-0.153	0.105
-235.844	217.416	-0.036	0.056
-234.830	800.000	-0.093	0.314
-233.815	307.806	0.097	-0.178
-232.800	1.895	-0.218	0.155
-231.786	85.548	-0.299	0.324
-230.771	12.607	0.187	0.142
-229.757	-24.142	-0.224	0.132
-228.742	-200.000	0.094	-0.427
-227.727	48.343	0.035	0.033
-226.713	102.319	-0.267	0.308
-225.698	40.139	-0.224	0.199
-224.684	-137.827	-0.110	-0.012
-223.669	-200.000	-0.019	0.117
-222.655	-182.767	-0.470	0.008
-221.640	-80.078	0.291	0.096
-220.625	263.662	0.212	0.363
-219.611	-200.000	-0.002	0.124
-218.596	211.362	-0.106	0.165
-217.582	800.000	-0.043	-0.157
-216.567	435.885	0.123	0.265
-215.552	135.780	0.170	0.219
-214.538	364.160	-0.025	-0.051
-213.523	2.816	0.088	0.063
-212.509	-200.000	-0.081	0.369
-211.494	-149.939	0.346	0.027
-210.479	-66.770	0.241	-0.094
-209.465	-200.000	-0.093	0.462
-208.450	-118.271	-0.413	0.072
-207.436	-91.385	-0.180	-0.051
-206.421	-2.983	-0.165	-0.113
-205.406	63.375	-0.157	0.155
-204.392	-66.067	0.159	-0.063
-203.377	-112.012	0.333	0.066
-202.363	-155.612	-0.367	-0.023
-201.348	98.356	0.116	-0.131
-200.333	800.000	0.072	0.222
-199.319	-200.000	-0.059	0.320
-198.304	-1.960	0.122	0.084
-197.290	-68.217	-0.368	0.141
-196.275	-44.610	0.335	-0.165
-195.260	198.378	-0.268	0.403
-194.246	-162.923	0.163	0.008
-193.231	247.074	-0.119	-0.198
-192.217	-23.993	0.040	-0.024
-191.202	-72.821	-0.022	0.008
-190.187	188.347	0.115	-0.169
-189.173	800.000	-0.050	0.181
-188.158	-37.615	0.166	0.087
-187.144	-40.436	0.275	0.141
-186.129	-200.000	-0.049	-0.249
-185.114	151.078	0.160	0.214
-184.100	800.000	0.057	-0.241
-183.085	-200.000	0.014	-0.188
-182.071	-33.144	0.204	-0.112
-181.056	800.000	-0.034	0.099
-180.042	-200.000	0.015	-0.160
-179.027	343.995	-0.105	-0.203
-178.012	-200.000	0.002	0.143
-176.998	-58.477	-0.101	0.043
-175.983	149.172	0.080	-0.106
-174.969	-119.241	0.406	-0.070
-173.954	-200.000	0.056	0.338
-172.939	-63.883	0.136	-0.055
-171.925	-200.000	-0.024	0.237
-170.910	-91.165	-0.046	-0.013
-169.896	48.903	-0.082	0.076
-168.881	800.000	0.014	0.047
-167.866	56.913	-0.293	0.281
-166.852	27.627	0.033	0.027
-165.837	800.000	-0.111	-0.366
-164.823	-6.754	0.258	0.173
-163.808	46.601	0.042	-0.039
-162.793	-34.233	0.342	0.185
-161.779	325.942	0.162	0.306
-160.764	322.746	-0.109	-0.205
-159.750	-14.217	0.051	-0.033
-158.735	354.531	0.109	-0.213
-157.720	3.466	0.210	-0.151
-156.706	-200.000	-0.002	0.018
-155.691	-175.267	0.150	0.004
-154.677	-63.547	-0.197	-0.080
-153.662	-200.000	-0.005	0.184
-152.647	212.678	0.217	0.337
-151.633	-200.000	-0.056	-0.295
-150.618	527.361	-0.132	-0.307
-149.604	-121.066	-0.104	-0.017
-148.589	-107.353	0.279	-0.060
-147.574	-200.000	0.015	-0.172
-146.560	-200.000	-0.001	0.141
-145.545	244.705	-0.097	-0.161
-144.531	-153.129	-0.080	0.006
-143.516	7.612	0.176	0.129
-142.502	616.129	0.042	0.104
-141.487	23.288	0.074	-0.060
-140.472	162.509	0.027	-0.037
-139.458	96.123	-0.092	0.104
-138.443	-55.794	-0.145	-0.064
-137.429	-73.800	-0.122	-0.043
-136.414	-142.022	-0.232	0.023
-135.399	37.671	-0.452	-0.394
-134.385	-200.000	-0.039	0.188
-133.370	-132.520	0.359	-0.045
-132.356	-0.608	-0.187	-0.130
-131.341	98.610	0.192	-0.218
-130.326	-63.671	0.053	0.021
-129.312	800.000	0.038	-0.119
-128.297	-200.000	0.004	0.050
-127.283	-50.073	-0.055	-0.026
-126.268	-200.000	0.011	0.104
-125.253	84.368	-0.199	0.214
-124.239	-166.021	-0.137	-0.006
-123.224	-11.587	0.378	-0.244
-122.210	88.585	0.302	0.330
-121.195	322.009	-0.097	0.181
