DTS Sentinel unit serial number:	SN413079Multiplexer serial number:	ORYXHardware model number:	OX4-SRSoftware version number:	ORYX F/W v4.00 Oryx Data Collector v3.7.2.0data status	okinstallation	princeton_trtdifferential loss correction	single-endedforward channel	channel 1reverse channel	N/Adate	2019/09/19time	10:14:35forward acquisition time	60.00reverse acquisition time	0.00gamma	496.2192k internal	0.2339k external	0.2339temperature offset calibration	1.0008default loss term (dB/km)	0.3790temperature slope calibration	1.0000multiplexer offset coefficient	1.0000multiplexer slope coefficient	1.0000fibre end	0.00T internal ref (°C)	24.06T ext. ref 1 (°C)	0.69T ext. ref 2 (°C)	19.78length (m)	temperature (°C)	Stokes	anti-Stokes-747.200	-61.203	0.270	-0.114
-746.185	279.063	0.022	-0.039
-745.171	243.897	-0.173	-0.292
-744.156	444.092	-0.056	-0.124
-743.142	-54.633	-0.307	0.139
-742.127	-21.861	-0.277	-0.169
-741.112	134.280	-0.173	0.225
-740.098	629.076	-0.142	0.361
-739.083	800.000	0.138	-0.410
-738.069	487.927	-0.178	0.408
-737.054	-200.000	0.028	-0.178
-736.039	427.745	-0.074	-0.160
-735.025	-115.087	0.450	-0.086
-734.010	198.267	-0.058	0.088
-732.996	-67.083	-0.128	-0.051
-731.981	-82.268	0.155	0.051
-730.966	133.204	-0.019	0.024
-729.952	-200.000	-0.035	-0.360
-728.937	133.292	-0.119	0.154
-727.923	800.000	0.037	-0.148
-726.908	800.000	0.008	-0.031
-725.894	160.828	-0.210	0.294
-724.879	1.790	-0.297	0.215
-723.864	800.000	-0.065	-0.232
-722.850	474.758	-0.145	-0.327
-721.835	158.519	-0.167	0.232
-720.821	9.324	0.418	-0.317
-719.806	-156.511	-0.219	-0.014
-718.791	280.694	0.252	0.453
-717.777	-64.589	-0.355	-0.144
-716.762	800.000	0.030	-0.119
-715.748	-51.753	-0.347	-0.162
-714.733	-37.161	-0.348	0.187
-713.718	-200.000	-0.003	-0.140
-712.704	800.000	0.106	-0.357
-711.689	307.832	-0.132	0.247
-710.675	-200.000	0.014	0.225
-709.660	-26.303	0.161	0.095
-708.645	-163.736	0.207	-0.010
-707.631	1.095	0.193	0.138
-706.616	800.000	0.095	-0.282
-705.602	320.524	-0.127	-0.241
-704.587	18.006	-0.178	0.142
-703.572	239.809	0.109	0.182
-702.558	-172.154	-0.301	0.010
-701.543	8.717	-0.066	0.050
-700.529	10.060	0.071	-0.054
-699.514	-200.000	-0.081	0.408
-698.499	-60.369	0.114	0.049
-697.485	-145.896	-0.186	0.016
-696.470	207.516	0.151	-0.236
-695.456	395.222	-0.025	-0.052
-694.441	-200.000	-0.002	-0.021
-693.426	655.323	-0.018	-0.047
-692.412	-200.000	-0.004	0.219
-691.397	478.239	-0.069	0.155
-690.383	800.000	0.077	-0.320
-689.368	21.347	-0.261	0.212
-688.354	603.824	0.079	-0.197
-687.339	-200.000	-0.027	-0.155
-686.324	-74.638	0.182	-0.066
-685.310	-200.000	-0.502	0.002
-684.295	182.987	0.140	-0.207
-683.281	148.998	0.036	0.048
-682.266	-134.966	0.217	-0.026
-681.251	-200.000	0.016	0.436
-680.237	800.000	-0.032	0.109
-679.222	800.000	-0.083	0.240
-678.208	-200.000	0.004	-0.147
-677.193	494.332	0.111	0.256
-676.178	-143.293	-0.157	0.015
-675.164	25.912	-0.075	-0.063
-674.149	169.324	-0.068	0.098
-673.135	513.137	-0.072	0.169
-672.120	176.599	-0.107	-0.156
-671.105	-10.074	-0.413	-0.275
-670.091	-78.445	-0.232	-0.080
-669.076	34.137	0.124	0.108
-668.062	-137.729	-0.162	0.018
-667.047	-49.230	-0.365	-0.174
-666.032	148.899	-0.094	0.127
-665.018	800.000	0.052	-0.182
-664.003	-118.954	-0.218	-0.038
-662.989	-92.723	-0.203	0.057
-661.974	-17.172	-0.139	-0.088
-660.959	347.137	-0.208	-0.410
-659.945	800.000	-0.100	0.275
-658.930	452.370	-0.112	0.248
-657.916	-91.929	-0.356	-0.101
-656.901	-200.000	-0.019	0.113
-655.886	-6.955	-0.057	0.039
-654.872	-67.474	-0.235	-0.092
-653.857	-133.865	-0.065	-0.008
-652.843	226.349	-0.183	0.297
-651.828	-74.777	0.180	0.065
-650.814	-200.000	-0.011	-0.131
-649.799	-200.000	-0.009	0.233
-648.784	-57.910	-0.143	0.062
-647.770	-2.611	-0.321	0.224
-646.755	-62.803	-0.123	0.051
-645.741	158.229	-0.098	-0.136
-644.726	148.411	0.185	-0.249
-643.711	-200.000	-0.004	-0.169
-642.697	126.367	-0.213	0.270
-641.682	-107.553	0.368	0.081
-640.668	800.000	-0.111	0.359
-639.653	-200.000	0.025	-0.242
-638.638	0.901	-0.208	0.149
-637.624	-200.000	0.007	0.088
-636.609	-26.811	-0.079	0.046
-635.595	-9.281	0.289	0.193
-634.580	-200.000	-0.017	0.204
-633.565	82.314	-0.123	-0.134
-632.551	169.161	-0.057	0.081
-631.536	-200.000	0.037	0.190
-630.522	66.960	-0.301	-0.306
-629.507	56.727	-0.168	-0.164
-628.492	548.209	-0.073	0.175
-627.478	63.470	-0.033	-0.033
-626.463	800.000	-0.077	0.216
-625.449	-150.212	-0.222	0.017
-624.434	441.898	-0.064	-0.140
-623.419	55.713	0.082	-0.079
-622.405	490.625	-0.139	0.318
-621.390	95.956	0.157	-0.179
-620.376	-118.332	0.258	0.046
-619.361	-177.658	-0.057	0.001
-618.346	61.723	0.139	0.139
-617.332	-80.675	-0.239	0.079
-616.317	-31.410	-0.061	-0.034
-615.303	132.544	0.262	0.337
-614.288	800.000	-0.056	0.164
-613.273	438.589	0.145	0.317
-612.259	-99.933	-0.065	-0.016
-611.244	800.000	-0.054	-0.218
-610.230	340.821	0.132	0.257
-609.215	-49.323	-0.144	-0.068
-608.201	800.000	0.091	0.349
-607.186	-55.639	0.192	-0.086
-606.171	193.918	-0.116	0.175
-605.157	58.965	0.231	0.227
-604.142	-84.846	-0.205	-0.064
-603.128	384.101	0.181	-0.372
-602.113	-200.000	-0.013	0.348
-601.098	-76.302	-0.158	0.056
-600.084	193.357	-0.161	-0.243
-599.069	84.440	-0.113	-0.123
-598.055	800.000	-0.092	-0.267
-597.040	-119.079	-0.309	0.054
-596.025	-154.731	0.231	0.015
-595.011	-200.000	-0.001	0.076
-593.996	526.138	-0.141	-0.331
-592.982	800.000	-0.086	-0.295
-591.967	-200.000	0.013	-0.264
-590.952	151.485	0.166	-0.225
-589.938	5.941	-0.140	-0.103
-588.923	-50.418	-0.233	0.109
-587.909	617.030	0.162	0.406
-586.894	67.921	-0.109	-0.111
-585.879	800.000	-0.065	0.214
-584.865	727.426	0.071	-0.189
-583.850	-200.000	0.012	-0.159
-582.836	179.368	-0.056	0.082
-581.821	-118.009	0.508	0.091
-580.806	105.808	-0.135	-0.159
-579.792	-81.938	0.112	0.036
-578.777	-39.577	-0.317	-0.165
-577.763	-48.189	-0.267	-0.128
-576.748	-12.529	0.280	0.182
-575.733	-57.761	0.381	0.166
-574.719	800.000	-0.042	0.121
-573.704	263.808	0.081	-0.140
-572.690	-45.986	-0.177	0.087
-571.675	202.004	-0.132	-0.203
-570.661	84.473	0.131	0.143
-569.646	525.368	0.038	0.088
-568.631	230.735	0.135	0.219
-567.617	-63.908	-0.262	-0.107
-566.602	47.938	-0.149	-0.139
-565.588	-200.000	-0.045	0.214
-564.573	-45.288	-0.385	0.191
-563.558	-52.533	0.109	-0.050
-562.544	-71.164	0.071	-0.027
-561.529	-180.652	-0.370	-0.008
-560.515	-200.000	-0.050	0.340
-559.500	-21.205	-0.115	0.070
-558.485	-62.975	-0.274	0.113
-557.471	123.198	0.235	0.293
-556.456	105.273	0.173	-0.204
-555.442	78.550	0.070	0.074
-554.427	-200.000	0.026	-0.151
-553.412	264.932	-0.271	-0.470
-552.398	800.000	0.028	0.094
-551.383	-63.669	0.161	-0.066
-550.369	263.791	0.039	0.067
-549.354	-138.112	0.215	-0.024
-548.339	-51.889	-0.203	-0.094
-547.325	151.316	0.031	0.042
-546.310	-42.871	-0.138	0.070
-545.296	-18.901	-0.308	-0.191
-544.281	624.238	0.138	-0.345
-543.266	148.962	0.167	0.225
-542.252	-200.000	0.046	-0.383
-541.237	-52.285	-0.138	-0.064
-540.223	397.694	0.057	0.118
-539.208	-200.000	-0.011	0.153
-538.193	800.000	-0.046	-0.140
-537.179	-107.029	-0.284	0.063
-536.164	159.253	-0.241	0.334
-535.150	649.622	0.092	-0.235
-534.135	-114.076	0.326	-0.063
-533.121	-149.648	-0.136	0.011
-532.106	579.572	0.191	-0.465
-531.091	257.465	-0.064	0.109
-530.077	-200.000	-0.029	0.203
-529.062	-128.361	0.315	0.045
-528.048	-137.689	0.306	-0.034
-527.033	-5.455	-0.138	-0.094
-526.018	-42.792	0.147	0.074
-525.004	-57.069	-0.046	0.020
-523.989	800.000	-0.030	-0.105
-522.975	-113.433	-0.034	0.007
-521.960	-98.239	-0.389	0.099
-520.945	385.101	0.087	0.177
-519.931	-14.160	-0.362	0.232
-518.916	97.576	-0.313	-0.357
-517.902	800.000	0.035	0.117
-516.887	-60.185	-0.320	-0.136
-515.872	-200.000	-0.004	-0.469
-514.858	-68.304	-0.093	0.036
-513.843	26.258	-0.028	-0.023
-512.829	199.556	-0.183	-0.280
-511.814	117.196	-0.147	0.179
-510.799	-19.917	0.135	0.083
-509.785	245.544	0.214	-0.358
-508.770	-85.587	0.029	-0.009
-507.756	-153.773	0.324	-0.022
-506.741	16.669	0.347	0.273
-505.726	-200.000	0.016	-0.179
-504.712	-113.905	0.066	0.013
-503.697	100.891	-0.057	-0.066
-502.683	-4.415	-0.258	0.178
-501.668	-117.303	0.106	-0.019
-500.653	-59.976	-0.072	0.030
-499.639	172.533	-0.073	0.105
-498.624	109.352	0.128	-0.152
-497.610	109.968	0.107	-0.127
-496.595	-105.226	0.125	0.028
-495.581	-27.093	-0.253	0.147
-494.566	-200.000	0.103	-0.554
-493.551	-42.349	-0.352	-0.179
-492.537	83.110	0.066	0.072
-491.522	-160.226	0.336	-0.018
-490.508	800.000	-0.157	0.458
-489.493	-171.478	-0.338	0.011
-488.478	271.710	-0.179	-0.313
-487.464	434.390	-0.134	-0.288
-486.449	43.369	-0.136	-0.124
-485.435	12.628	-0.203	-0.156
-484.420	-200.000	0.007	-0.083
-483.405	-130.891	-0.054	-0.007
-482.391	399.831	-0.065	-0.136
-481.376	31.822	-0.204	0.175
-480.362	508.593	0.039	-0.090
-479.347	-134.839	0.322	0.039
-478.332	-12.043	-0.282	-0.183
-477.318	-173.948	-0.278	-0.008
-476.303	-74.862	-0.169	-0.060
-475.289	-109.215	-0.191	-0.040
-474.274	258.116	-0.030	-0.051
-473.259	-9.957	-0.219	-0.145
-472.245	-74.075	-0.159	0.057
-471.230	-190.021	0.330	-0.004
-470.216	-89.946	0.463	0.134
-469.201	-85.799	-0.191	-0.059
-468.186	43.973	0.216	0.196
-467.172	252.432	0.193	0.327
-466.157	-200.000	0.030	-0.144
-465.143	134.156	0.093	0.120
-464.128	-10.229	0.070	0.046
-463.113	-200.000	-0.007	0.131
-462.099	-15.491	0.126	-0.080
-461.084	-128.703	-0.211	0.030
-460.070	75.433	-0.012	-0.013
-459.055	68.173	-0.222	-0.226
-458.040	-98.547	-0.354	-0.090
-457.026	307.979	0.017	-0.031
-456.011	800.000	-0.076	-0.317
-454.997	261.361	0.071	-0.122
-453.982	499.690	0.043	0.097
-452.968	-139.215	-0.096	0.010
-451.953	298.370	0.167	-0.304
-450.938	-200.000	-0.001	0.247
-449.924	-123.843	-0.182	0.029
-448.909	236.290	-0.281	0.461
-447.895	-10.430	-0.080	-0.052
-446.880	-200.000	0.012	-0.142
-445.865	-200.000	0.032	0.244
-444.851	257.878	-0.049	-0.084
-443.836	122.456	-0.079	0.098
-442.822	300.869	-0.067	0.122
-441.807	206.126	-0.031	-0.048
-440.792	-200.000	0.038	-0.268
-439.778	-200.000	0.053	-0.255
-438.763	440.304	0.158	0.342
-437.749	-37.648	-0.156	0.083
-436.734	-46.921	-0.207	0.100
-435.719	-200.000	0.058	-0.335
-434.705	-200.000	-0.004	0.132
-433.690	39.765	-0.212	-0.188
-432.676	-200.000	0.062	-0.276
-431.661	41.414	-0.027	-0.025
-430.646	-200.000	0.056	0.261
-429.632	-200.000	-0.003	-0.319
-428.617	-147.808	-0.455	-0.038
-427.603	77.458	0.060	-0.064
-426.588	165.639	0.136	-0.191
-425.573	62.857	-0.136	0.135
-424.559	-117.307	0.178	0.032
-423.544	-33.547	-0.159	-0.087
-422.530	-132.539	0.271	0.034
-421.515	-78.217	0.129	0.044
-420.500	-200.000	-0.023	0.318
-419.486	-89.944	0.158	0.046
-418.471	800.000	-0.070	-0.195
-417.457	-22.450	-0.115	0.069
-416.442	60.992	-0.272	-0.267
-415.428	800.000	0.097	-0.264
-414.413	-200.000	0.032	-0.146
-413.398	-27.776	-0.230	-0.132
-412.384	-15.627	0.200	0.126
-411.369	-200.000	-0.003	-0.250
-410.355	-22.949	-0.023	0.014
-409.340	-133.109	0.108	-0.013
-408.325	-102.762	0.082	0.019
-407.311	-140.793	0.451	0.046
-406.296	-89.512	0.151	0.044
-405.282	-121.424	-0.357	-0.059
-404.267	570.818	0.092	0.222
-403.252	-52.852	0.091	-0.042
-402.238	-117.312	-0.261	0.047
-401.223	-37.111	-0.213	-0.113
-400.209	800.000	0.071	-0.234
-399.194	126.359	0.085	-0.107
-398.179	400.615	0.129	-0.269
-397.165	-200.000	-0.066	-0.315
-396.150	300.800	0.095	0.173
-395.136	-138.907	0.138	-0.015
-394.121	16.746	0.137	-0.107
-393.106	-200.000	0.001	-0.070
-392.092	86.650	0.225	0.245
-391.077	-200.000	-0.022	0.193
-390.063	-141.987	0.092	0.009
-389.048	-109.434	-0.231	-0.048
-388.033	294.124	0.054	-0.097
-387.019	-200.000	0.009	-0.354
-386.004	-128.172	-0.136	-0.019
-384.990	-172.161	-0.247	0.008
-383.975	800.000	-0.102	-0.408
-382.960	-200.000	-0.051	0.260
-381.946	-79.325	0.285	0.095
-380.931	800.000	-0.081	-0.227
-379.917	107.498	-0.104	0.123
-378.902	302.350	0.152	-0.278
-377.888	487.098	-0.030	0.068
-376.873	-94.929	0.304	0.081
-375.858	306.494	0.151	-0.279
-374.844	9.376	0.132	-0.099
-373.829	-84.275	0.239	0.075
-372.815	-65.941	0.144	-0.057
-371.800	-96.047	0.116	0.031
-370.785	95.786	-0.078	-0.088
-369.771	-80.049	0.417	0.138
-368.756	9.506	0.059	0.044
-367.742	-62.536	0.107	-0.044
-366.727	786.837	-0.049	0.133
-365.712	14.452	-0.167	-0.129
-364.698	-114.732	-0.149	0.028
-363.683	301.329	0.168	-0.307
-362.669	800.000	0.097	-0.289
-361.654	800.000	-0.048	-0.132
-360.639	144.538	0.193	-0.255
-359.625	534.666	0.038	0.089
-358.610	392.055	-0.044	-0.090
-357.596	346.737	-0.027	0.053
-356.581	314.409	0.095	0.178
-355.566	5.240	0.083	0.061
-354.552	5.412	-0.179	-0.131
-353.537	-101.473	0.132	-0.032
-352.523	-100.404	0.225	0.055
-351.508	-107.402	0.051	0.011
-350.493	71.953	0.054	-0.055
-349.479	106.125	-0.109	-0.127
-348.464	718.177	-0.100	0.262
-347.450	596.851	-0.063	0.155
-346.435	-200.000	0.017	0.102
-345.420	-10.064	0.149	0.098
-344.406	-136.091	-0.319	-0.037
-343.391	800.000	-0.057	-0.190
-342.377	-30.644	0.200	-0.112
-341.362	-91.655	-0.206	-0.058
-340.348	157.528	-0.087	0.119
-339.333	-81.223	0.383	-0.125
-338.318	-3.867	0.233	-0.160
-337.304	-108.176	-0.211	-0.045
-336.289	315.502	-0.080	0.148
-335.275	-83.596	0.113	-0.036
-334.260	127.753	0.226	-0.284
-333.245	123.039	0.103	-0.127
-332.231	-169.887	0.285	0.010
-331.216	-200.000	-0.016	0.194
-330.202	-61.974	-0.409	0.169
-329.187	800.000	0.062	0.256
-328.172	52.988	-0.317	0.300
-327.158	243.010	-0.121	0.200
-326.143	60.525	-0.242	0.236
-325.129	43.301	-0.160	-0.144
-324.114	-154.212	-0.252	0.017
-323.099	-200.000	-0.008	0.249
-322.085	800.000	0.143	-0.446
-321.070	800.000	0.074	-0.310
-320.056	-139.021	-0.172	-0.018
-319.041	-28.007	0.099	-0.057
-318.026	-200.000	0.069	0.321
-317.012	-174.843	0.301	0.008
-315.997	-31.900	0.113	-0.062
-314.983	800.000	0.075	0.281
-313.968	11.428	0.120	0.090
-312.953	800.000	-0.016	-0.048
-311.939	-200.000	-0.082	0.426
-310.924	-88.501	0.191	0.056
-309.910	-181.904	-0.197	-0.004
-308.895	572.684	-0.075	0.180
-307.880	-88.438	0.105	0.031
-306.866	314.447	-0.123	0.228
-305.851	42.074	0.250	-0.224
-304.837	-138.092	-0.182	0.020
-303.822	253.884	0.053	0.090
-302.807	-200.000	-0.071	0.403
-301.793	273.349	0.159	0.277
-300.778	62.912	-0.207	-0.204
-299.764	-147.121	0.363	-0.031
-298.749	800.000	0.037	0.155
-297.735	-106.007	0.307	0.068
-296.720	-73.632	0.488	0.175
-295.705	32.506	0.152	0.129
-294.691	-200.000	-0.051	-0.323
-293.676	42.593	-0.088	0.079
-292.662	-83.706	-0.167	0.053
-291.647	25.957	-0.137	0.113
-290.632	195.427	0.165	-0.247
-289.618	-160.313	-0.254	0.014
-288.603	-43.344	0.312	-0.155
-287.589	140.523	-0.141	0.183
-286.574	-85.004	0.216	-0.067
-285.559	80.986	-0.197	0.210
-284.545	-76.785	0.061	0.021
-283.530	-200.000	-0.005	-0.059
-282.516	-30.256	0.068	-0.038
-281.501	-119.133	0.514	-0.088
-280.486	-100.619	-0.296	0.072
-279.472	153.194	0.128	-0.172
-278.457	-116.780	-0.096	0.017
-277.443	-14.373	-0.161	-0.102
-276.428	594.448	0.045	0.109
-275.413	574.475	0.075	-0.180
-274.399	-136.063	-0.485	-0.056
-273.384	-158.232	-0.349	0.020
-272.370	-26.122	0.425	0.246
-271.355	149.410	-0.213	0.284
-270.340	-27.683	0.046	-0.027
-269.326	-37.031	-0.310	-0.164
-268.311	-73.398	0.276	-0.099
-267.297	-125.847	0.226	0.034
-266.282	-200.000	0.002	-0.112
-265.267	-200.000	0.043	0.309
-264.253	-126.496	-0.572	-0.084
-263.238	-200.000	0.011	-0.063
-262.224	-97.531	-0.246	-0.063
-261.209	-200.000	0.012	0.221
-260.195	353.594	-0.155	0.303
-259.180	-139.375	-0.183	-0.019
-258.165	33.291	-0.220	0.188
-257.151	435.104	0.039	0.084
-256.136	55.535	-0.120	0.114
-255.122	77.543	-0.153	0.160
-254.107	-37.641	0.256	0.134
-253.092	599.626	-0.039	-0.095
-252.078	-0.918	-0.139	0.097
-251.063	-9.877	0.037	-0.024
-250.049	800.000	-0.083	0.305
-249.034	186.177	0.087	0.127
-248.019	125.965	-0.153	-0.191
-247.005	-102.241	0.050	-0.012
-245.990	-158.409	-0.045	0.003
-244.976	165.224	-0.202	-0.281
-243.961	-200.000	-0.025	-0.147
-242.946	211.569	0.160	-0.248
-241.932	800.000	-0.136	0.386
-240.917	-200.000	-0.073	-0.363
-239.903	-93.591	-0.303	0.082
-238.888	86.157	-0.125	0.136
-237.873	-36.514	-0.290	0.154
-236.859	329.051	-0.046	0.087
-235.844	-200.000	0.027	-0.182
-234.830	412.106	-0.044	0.091
-233.815	-30.629	0.130	-0.073
-232.800	-8.318	0.198	0.131
-231.786	-137.140	0.041	-0.005
-230.771	18.982	0.160	0.126
-229.757	-168.517	0.049	0.002
-228.742	-51.457	0.157	-0.072
-227.727	-200.000	-0.013	-0.301
-226.713	60.223	0.165	-0.161
-225.698	-4.416	0.355	0.241
-224.684	-200.000	0.067	0.472
-223.669	-200.000	-0.018	-0.168
-222.655	121.566	-0.117	-0.143
-221.640	-200.000	-0.060	0.366
-220.625	38.919	0.309	0.271
-219.611	800.000	0.067	0.230
-218.596	-200.000	0.103	-0.447
-217.582	209.738	-0.210	-0.324
-216.567	73.601	0.391	-0.403
-215.552	85.599	0.073	-0.078
-214.538	-200.000	-0.027	0.202
-213.523	65.252	-0.036	-0.036
-212.509	47.309	-0.173	-0.159
-211.494	-200.000	0.008	-0.211
-210.479	104.243	0.031	-0.036
-209.465	-200.000	-0.030	-0.179
-208.450	-138.580	-0.086	0.009
-207.436	-137.321	0.432	0.048
-206.421	322.133	-0.124	0.233
-205.406	-200.000	-0.046	0.277
-204.392	288.333	0.116	0.206
-203.377	-200.000	0.001	0.227
-202.363	-90.633	-0.329	-0.093
-201.348	-200.000	0.065	0.283
-200.333	-156.883	0.101	-0.006
-199.319	-200.000	0.028	0.268
-198.304	-200.000	-0.041	0.310
-197.290	133.167	0.071	-0.090
-196.275	379.446	0.057	0.114
-195.260	574.692	-0.057	0.136
-194.246	267.668	0.216	0.370
-193.231	-104.756	-0.037	0.008
-192.217	-58.680	0.332	0.141
-191.202	-38.463	0.209	0.108
-190.187	619.027	0.115	-0.284
-189.173	-133.512	0.254	-0.031
-188.158	-200.000	0.013	-0.218
-187.144	800.000	-0.103	-0.308
-186.129	342.904	0.172	-0.331
-185.114	65.383	0.353	-0.350
-184.100	4.028	0.172	-0.124
-183.085	-101.956	0.169	0.040
-182.071	222.925	0.096	-0.152
-181.056	13.371	0.247	-0.188
-180.042	165.795	-0.140	0.194
-179.027	-200.000	0.060	-0.343
-178.012	-98.134	0.155	-0.039
-176.998	-103.823	-0.234	0.054
-175.983	-53.710	0.211	0.094
-174.969	135.289	-0.192	-0.244
-173.954	-77.646	0.188	-0.064
-172.939	-4.359	-0.325	0.221
-171.925	-57.256	-0.101	-0.044
-170.910	-200.000	0.015	0.152
-169.896	800.000	-0.014	0.059
-168.881	98.501	0.253	-0.286
-167.866	-200.000	-0.021	0.136
-166.852	-200.000	0.013	0.288
-165.837	-166.782	0.385	-0.016
-164.823	-200.000	-0.004	-0.089
-163.808	318.079	-0.070	0.130
-162.793	-16.215	0.266	-0.166
-161.779	-108.690	0.313	-0.066
-160.764	800.000	-0.051	-0.162
-159.750	-19.779	0.078	-0.047
-158.735	-94.784	0.363	-0.097
-157.720	147.379	0.138	0.182
-156.706	501.151	-0.103	0.232
-155.691	598.270	0.010	0.025
-154.677	-97.699	0.129	0.033
-153.662	122.228	0.208	0.255
-152.647	-19.319	-0.325	0.198
-151.633	436.320	-0.139	0.296
-150.618	413.838	0.073	0.152
-149.604	220.151	-0.165	0.258
-148.589	389.794	-0.029	-0.059
-147.574	117.474	-0.188	-0.226
-146.560	-200.000	0.020	0.163
-145.545	240.731	0.117	0.190
-144.531	57.433	-0.103	0.099
-143.516	-79.820	0.171	0.056
-142.502	800.000	-0.100	0.298
-141.487	-200.000	0.012	0.070
-140.472	-109.527	-0.157	0.033
-139.458	505.353	0.058	0.132
-138.443	-2.266	-0.191	0.131
-137.429	232.728	-0.073	-0.118
-136.414	369.513	0.053	0.105
-135.399	-5.753	-0.291	0.195
-134.385	199.125	0.161	0.242
-133.370	800.000	0.086	0.249
-132.356	7.208	0.051	-0.038
-131.341	47.020	0.346	0.315
-130.326	132.747	-0.099	-0.126
-129.312	15.802	-0.102	0.079
-128.297	-157.928	0.119	0.007
-127.283	-0.335	0.100	0.070
-126.268	-200.000	-0.007	0.049
-125.253	-137.969	-0.272	0.030
-124.239	-200.000	-0.031	-0.168
-123.224	210.918	-0.211	-0.325
-122.210	321.716	-0.090	-0.167
