DTS Sentinel unit serial number:	SN413079Multiplexer serial number:	ORYXHardware model number:	OX4-SRSoftware version number:	ORYX F/W v4.00 Oryx Data Collector v3.7.2.0data status	okinstallation	princeton_trtdifferential loss correction	single-endedforward channel	channel 1reverse channel	N/Adate	2019/09/17time	08:10:35forward acquisition time	60.00reverse acquisition time	0.00gamma	496.2192k internal	0.2330k external	0.2330temperature offset calibration	0.9963default loss term (dB/km)	0.3790temperature slope calibration	1.0000multiplexer offset coefficient	1.0000multiplexer slope coefficient	1.0000fibre end	0.00T internal ref (°C)	27.33T ext. ref 1 (°C)	0.12T ext. ref 2 (°C)	22.61length (m)	temperature (°C)	Stokes	anti-Stokes-747.200	-43.246	0.170	0.087
-746.185	223.156	-0.103	0.167
-745.171	9.434	-0.124	0.094
-744.156	-76.446	0.118	-0.042
-743.142	-200.000	0.086	-0.462
-742.127	227.658	0.099	0.161
-741.112	-200.000	-0.006	-0.131
-740.098	109.059	-0.320	0.385
-739.083	800.000	0.022	0.090
-738.069	800.000	-0.042	-0.178
-737.054	199.648	0.079	0.122
-736.039	-200.000	0.022	-0.160
-735.025	83.698	-0.202	0.221
-734.010	-168.648	-0.143	-0.005
-732.996	211.776	0.095	-0.150
-731.981	-200.000	-0.014	-0.096
-730.966	-87.582	-0.302	-0.092
-729.952	151.909	-0.094	0.129
-728.937	-200.000	-0.009	-0.211
-727.923	-37.916	0.191	-0.102
-726.908	777.666	0.157	0.433
-725.894	230.856	0.102	-0.168
-724.879	509.622	0.080	-0.187
-723.864	29.343	0.129	-0.110
-722.850	11.767	-0.215	0.166
-721.835	-160.967	-0.231	0.012
-720.821	-94.166	0.378	0.104
-719.806	-200.000	0.012	0.165
-718.791	79.643	0.364	0.393
-717.777	135.984	-0.201	-0.264
-716.762	-71.876	-0.108	0.040
-715.748	349.862	0.038	0.075
-714.733	-79.284	-0.095	-0.032
-713.718	-131.105	-0.153	0.021
-712.704	35.155	0.191	-0.168
-711.689	104.943	0.039	0.046
-710.675	-200.000	0.026	-0.200
-709.660	381.679	-0.102	0.210
-708.645	-20.925	0.039	-0.024
-707.631	-90.170	0.275	0.080
-706.616	-90.287	-0.062	-0.018
-705.602	64.014	0.284	0.287
-704.587	402.219	-0.086	0.181
-703.572	-48.736	-0.201	0.097
-702.558	-86.381	0.099	0.031
-701.543	315.623	-0.080	-0.152
-700.529	22.351	-0.106	-0.087
-699.514	800.000	-0.060	-0.242
-698.499	-162.544	0.192	0.010
-697.485	-82.571	0.131	-0.043
-696.470	-104.403	-0.169	-0.039
-695.456	62.485	-0.052	-0.052
-694.441	-49.832	0.159	-0.076
-693.426	-43.299	-0.159	-0.081
-692.412	60.514	-0.057	0.057
-691.397	-113.213	0.295	-0.058
-690.383	-122.804	0.119	0.019
-689.368	77.537	-0.186	-0.199
-688.354	-188.660	0.170	0.002
-687.339	-56.620	-0.412	0.183
-686.324	-124.542	-0.245	-0.038
-685.310	-84.792	-0.356	-0.112
-684.295	10.734	0.268	0.206
-683.281	800.000	0.085	0.278
-682.266	-67.270	-0.138	-0.054
-681.251	-200.000	0.040	-0.196
-680.237	552.521	-0.105	0.253
-679.222	-67.176	0.438	-0.173
-678.208	-200.000	-0.049	0.231
-677.193	203.302	-0.075	-0.116
-676.178	-200.000	-0.000	0.470
-675.164	64.195	-0.334	-0.337
-674.149	28.743	-0.144	-0.123
-673.135	176.277	0.062	0.091
-672.120	59.255	-0.212	0.209
-671.105	-39.062	0.178	0.094
-670.091	56.010	0.291	-0.284
-669.076	91.147	0.233	-0.263
-668.062	-92.413	-0.353	-0.100
-667.047	691.792	-0.037	-0.097
-666.032	-3.891	0.093	0.065
-665.018	-59.025	-0.324	-0.141
-664.003	-3.718	0.104	0.073
-662.989	-200.000	0.011	0.210
-661.974	-48.691	-0.219	0.106
-660.959	800.000	0.034	-0.139
-659.945	-200.000	0.003	-0.025
-658.930	349.657	-0.015	-0.031
-657.916	518.271	-0.145	0.340
-656.901	-200.000	0.018	-0.203
-655.886	-101.911	-0.468	-0.114
-654.872	-107.377	0.223	0.049
-653.857	-200.000	0.053	0.310
-652.843	-13.058	-0.243	0.159
-651.828	800.000	0.088	0.361
-650.814	-200.000	0.004	-0.128
-649.799	-200.000	0.031	-0.290
-648.784	40.516	-0.235	-0.213
-647.770	-21.514	0.486	-0.298
-646.755	-96.514	-0.242	0.064
-645.741	-200.000	-0.007	-0.121
-644.726	-83.119	0.404	0.130
-643.711	-200.000	0.005	-0.146
-642.697	566.477	0.057	0.140
-641.682	-13.264	0.126	0.082
-640.668	-200.000	0.021	0.181
-639.653	148.336	0.169	-0.228
-638.638	62.610	-0.088	-0.088
-637.624	462.516	-0.113	0.254
-636.609	147.641	0.097	0.131
-635.595	-200.000	-0.009	0.114
-634.580	-23.098	0.100	0.060
-633.565	262.365	-0.008	0.014
-632.551	149.275	0.179	-0.243
-631.536	250.222	-0.298	-0.508
-630.522	247.530	-0.018	-0.030
-629.507	779.935	-0.061	-0.168
-628.492	-200.000	-0.001	0.206
-627.478	-121.440	-0.340	-0.057
-626.463	60.718	0.164	-0.163
-625.449	-200.000	-0.012	0.147
-624.434	-145.968	0.392	0.035
-623.419	-188.346	0.085	0.001
-622.405	-57.322	0.115	0.051
-621.390	283.918	-0.103	0.185
-620.376	-65.862	-0.289	-0.116
-619.361	-41.441	-0.199	0.103
-618.346	-79.421	-0.102	0.035
-617.332	95.905	-0.253	0.290
-616.317	-134.334	0.096	-0.012
-615.303	710.112	0.085	-0.224
-614.288	198.955	0.226	0.346
-613.273	-48.717	0.123	-0.059
-612.259	-163.157	-0.201	0.010
-611.244	405.112	-0.074	-0.156
-610.230	258.369	0.134	-0.231
-609.215	607.828	-0.115	-0.287
-608.201	66.522	-0.197	-0.200
-607.186	-36.105	0.267	0.144
-606.171	-166.073	0.264	-0.011
-605.157	268.035	0.120	-0.211
-604.142	17.212	0.101	0.080
-603.128	-72.606	0.166	-0.061
-602.113	47.307	-0.134	-0.125
-601.098	-200.000	-0.017	-0.131
-600.084	167.661	0.250	-0.356
-599.069	268.826	0.122	0.214
-598.055	173.665	-0.229	0.331
-597.040	800.000	0.093	-0.275
-596.025	159.878	0.255	0.356
-595.011	-200.000	0.041	-0.188
-593.996	-68.646	-0.292	0.113
-592.982	-91.381	0.144	-0.041
-591.967	-74.552	0.190	-0.068
-590.952	140.263	-0.186	0.246
-589.938	-33.393	-0.164	-0.091
-588.923	57.799	-0.044	-0.043
-587.909	-200.000	-0.041	0.189
-586.894	-143.062	-0.135	0.013
-585.879	-69.981	0.159	0.061
-584.865	800.000	-0.049	-0.165
-583.850	-161.897	-0.353	0.018
-582.836	514.450	-0.140	-0.327
-581.821	-200.000	-0.010	-0.220
-580.806	-200.000	-0.056	-0.451
-579.792	48.944	0.196	-0.184
-578.777	-112.102	-0.262	-0.053
-577.763	265.235	-0.115	-0.200
-576.748	285.795	0.014	0.024
-575.733	139.141	-0.156	-0.206
-574.719	800.000	0.037	-0.157
-573.704	-200.000	-0.007	-0.085
-572.690	800.000	0.078	0.219
-571.675	-60.394	0.219	-0.093
-570.661	142.473	0.100	-0.133
-569.646	12.430	0.225	-0.173
-568.631	24.758	-0.108	0.090
-567.617	54.676	-0.220	-0.212
-566.602	-2.862	-0.178	0.124
-565.588	162.763	-0.180	0.253
-564.573	-200.000	-0.004	0.042
-563.558	65.073	0.138	0.139
-562.544	-144.176	-0.185	0.017
-561.529	800.000	0.058	-0.171
-560.515	205.109	0.138	0.215
-559.500	83.004	-0.136	-0.148
-558.485	-53.955	-0.209	-0.095
-557.471	-79.840	-0.450	-0.151
-556.456	77.389	0.153	0.162
-555.442	-65.156	-0.136	-0.055
-554.427	-133.074	-0.290	0.037
-553.412	-63.722	-0.246	0.101
-552.398	-55.830	-0.100	-0.045
-551.383	-200.000	0.098	0.439
-550.369	-28.547	0.247	0.142
-549.354	-38.878	-0.098	-0.052
-548.339	-101.473	0.015	-0.004
-547.325	-31.100	0.180	-0.102
-546.310	-200.000	0.051	-0.419
-545.296	187.120	0.221	0.330
-544.281	-104.196	-0.111	0.026
-543.266	800.000	-0.066	0.222
-542.252	136.729	0.073	0.096
-541.237	303.521	-0.105	-0.194
-540.223	-120.379	0.335	-0.057
-539.208	41.464	0.066	0.059
-538.193	434.823	0.068	-0.148
-537.179	189.472	0.139	-0.208
-536.164	-200.000	0.066	0.376
-535.150	-200.000	0.027	0.139
-534.135	341.498	-0.065	0.126
-533.121	800.000	0.028	-0.078
-532.106	426.541	-0.085	-0.183
-531.091	-46.506	-0.094	0.046
-530.077	662.247	-0.074	0.191
-529.062	444.506	-0.146	0.319
-528.048	-125.996	-0.277	0.042
-527.033	800.000	0.042	0.179
-526.018	31.327	0.236	0.203
-525.004	-188.935	-0.385	0.005
-523.989	-11.567	-0.160	-0.105
-522.975	-182.582	0.092	0.002
-521.960	47.138	0.241	0.224
-520.945	263.025	-0.048	-0.083
-519.931	-104.023	0.144	0.033
-518.916	472.370	0.123	0.276
-517.902	-156.307	-0.112	0.007
-516.887	125.998	0.208	-0.263
-515.872	800.000	0.049	0.140
-514.858	-115.005	0.076	-0.014
-513.843	-5.217	-0.072	0.050
-512.829	-7.752	-0.194	0.131
-511.814	242.476	0.019	-0.033
-510.799	-87.885	0.327	-0.098
-509.785	117.586	0.091	0.112
-508.770	-48.399	0.124	-0.060
-507.756	192.513	0.103	-0.155
-506.741	565.337	0.021	0.051
-505.726	-200.000	-0.026	0.152
-504.712	-78.703	-0.234	0.080
-503.697	800.000	-0.064	-0.212
-502.683	247.986	-0.118	-0.198
-501.668	-19.118	-0.076	0.047
-500.653	-16.755	0.284	-0.179
-499.639	-200.000	0.025	0.226
-498.624	-200.000	0.024	-0.227
-497.610	44.170	-0.082	0.075
-496.595	611.264	0.096	-0.239
-495.581	-76.255	0.094	-0.033
-494.566	-32.592	0.205	0.114
-493.551	800.000	0.027	0.082
-492.537	13.443	-0.233	0.180
-491.522	103.704	-0.052	0.061
-490.508	79.114	0.225	-0.240
-489.493	800.000	0.089	-0.317
-488.478	-10.872	0.072	0.047
-487.464	386.800	0.074	-0.153
-486.449	-134.144	0.095	-0.012
-485.435	243.573	0.134	-0.224
-484.420	800.000	-0.052	-0.215
-483.405	25.717	0.367	-0.304
-482.391	-131.314	0.159	0.021
-481.376	-79.337	-0.137	0.046
-480.362	111.899	-0.150	0.181
-479.347	27.173	0.108	0.090
-478.332	265.511	0.153	-0.265
-477.318	118.540	-0.167	0.206
-476.303	-29.263	0.074	-0.042
-475.289	-200.000	0.019	0.162
-474.274	87.073	0.100	-0.110
-473.259	13.882	0.075	-0.058
-472.245	-200.000	0.018	-0.291
-471.230	90.926	0.199	0.223
-470.216	-46.063	0.356	-0.175
-469.201	-153.441	0.262	0.018
-468.186	-70.002	-0.236	-0.090
-467.172	270.246	-0.171	0.299
-466.157	94.597	0.221	0.250
-465.143	-4.482	-0.293	-0.202
-464.128	-148.681	0.246	0.020
-463.113	-6.691	0.241	0.163
-462.099	-200.000	0.017	-0.243
-461.084	-200.000	0.066	-0.327
-460.070	40.767	-0.028	0.025
-459.055	595.245	-0.086	-0.212
-458.040	444.362	-0.125	0.273
-457.026	-40.383	0.158	0.082
-456.011	44.258	0.063	0.057
-454.997	304.042	-0.101	-0.187
-453.982	-79.564	-0.243	-0.082
-452.968	771.719	0.037	0.100
-451.953	51.388	0.108	0.102
-450.938	-11.693	0.063	0.041
-449.924	-125.063	-0.240	0.037
-448.909	15.879	-0.251	0.197
-447.895	800.000	-0.058	-0.165
-446.880	577.847	0.015	0.038
-445.865	-39.052	-0.148	-0.077
-444.851	468.806	0.049	-0.110
-443.836	-200.000	0.035	0.288
-442.822	-50.321	-0.417	-0.196
-441.807	692.958	0.052	0.135
-440.792	800.000	0.041	-0.164
-439.778	-200.000	0.010	-0.390
-438.763	-34.213	-0.170	-0.093
-437.749	349.302	0.070	-0.138
-436.734	37.576	0.064	0.057
-435.719	800.000	-0.033	0.128
-434.705	-200.000	-0.025	0.140
-433.690	43.249	-0.252	-0.229
-432.676	-24.217	0.276	-0.164
-431.661	258.580	0.017	-0.029
-430.646	80.464	0.093	-0.100
-429.632	-56.144	0.142	-0.063
-428.617	-95.697	-0.042	-0.011
-427.603	-124.169	0.290	-0.045
-426.588	299.919	-0.129	0.237
-425.573	98.749	-0.292	0.335
-424.559	-120.224	-0.250	0.043
-423.544	800.000	-0.101	-0.416
-422.530	-173.981	0.090	-0.003
-421.515	32.193	-0.015	0.013
-420.500	-42.247	0.172	-0.088
-419.486	800.000	0.058	0.167
-418.471	-51.731	-0.371	-0.172
-417.457	-8.703	-0.061	-0.041
-416.442	63.986	-0.127	-0.127
-415.428	-86.416	0.193	-0.059
-414.413	308.116	-0.116	0.214
-413.398	-200.000	0.017	0.086
-412.384	163.716	-0.049	-0.068
-411.369	-200.000	-0.034	-0.258
-410.355	-2.361	0.207	-0.144
-409.340	92.613	0.157	0.176
-408.325	-114.805	-0.115	0.022
-407.311	134.151	-0.075	-0.097
-406.296	-9.033	0.092	-0.061
-405.282	10.742	-0.094	-0.072
-404.267	6.418	-0.215	0.159
-403.252	-200.000	-0.007	0.256
-402.238	-24.251	0.446	0.264
-401.223	-200.000	-0.268	0.000
-400.209	800.000	0.050	0.150
-399.194	-200.000	0.008	-0.056
-398.179	-200.000	0.249	0.000
-397.165	370.403	0.087	0.174
-396.150	-157.685	0.164	0.010
-395.136	-123.417	-0.258	-0.041
-394.121	-200.000	-0.004	-0.049
-393.106	17.871	-0.178	-0.141
-392.092	-200.000	0.001	0.059
-391.077	448.622	0.117	0.255
-390.063	-158.993	0.142	-0.008
-389.048	-88.373	0.114	-0.034
-388.033	202.803	-0.091	-0.139
-387.019	-105.866	-0.387	0.087
-386.004	-99.340	-0.103	-0.026
-384.990	-118.032	-0.075	-0.013
-383.975	570.440	0.170	0.410
-382.960	-200.000	-0.045	-0.346
-381.946	-200.000	-0.000	-0.079
-380.931	289.347	-0.230	-0.414
-379.917	95.823	-0.055	-0.063
-378.902	70.274	-0.136	-0.140
-377.888	800.000	-0.064	0.254
-376.873	-112.029	0.147	0.029
-375.858	-84.505	0.150	0.047
-374.844	-181.137	0.040	0.001
-373.829	12.816	0.240	0.184
-372.815	-157.891	-0.232	-0.014
-371.800	-71.737	-0.360	0.133
-370.785	-0.564	0.545	0.384
-369.771	46.090	0.158	-0.145
-368.756	798.585	-0.017	-0.046
-367.742	36.879	-0.051	0.044
-366.727	114.687	-0.149	-0.180
-365.712	234.767	-0.154	0.253
-364.698	-96.659	0.313	0.082
-363.683	-200.000	-0.010	0.215
-362.669	-200.000	-0.014	-0.263
-361.654	-99.542	-0.165	-0.041
-360.639	95.754	0.130	0.147
-359.625	-200.000	-0.042	-0.322
-358.610	-134.043	0.132	-0.016
-357.596	405.309	-0.035	-0.074
-356.581	800.000	-0.026	0.106
-355.566	-24.528	0.285	0.168
-354.552	-116.290	0.388	-0.071
-353.537	-126.879	-0.326	0.048
-352.523	-116.529	-0.379	0.069
-351.508	3.187	-0.023	-0.017
-350.493	473.142	-0.015	0.034
-349.479	800.000	0.090	-0.248
-348.464	-88.801	0.152	-0.045
-347.450	-91.718	-0.215	-0.061
-346.435	800.000	0.042	-0.167
-345.420	-61.047	0.232	-0.097
-344.406	-59.683	-0.034	-0.015
-343.391	-200.000	0.033	-0.206
-342.377	800.000	0.107	-0.357
-341.362	-139.777	-0.202	0.021
-340.348	-136.631	-0.195	0.022
-339.333	174.498	0.093	-0.134
-338.318	482.327	0.169	0.381
-337.304	335.478	-0.126	-0.241
-336.289	-200.000	0.030	-0.463
-335.275	800.000	0.017	-0.065
-334.260	-200.000	0.082	-0.427
-333.245	60.372	-0.138	0.135
-332.231	81.301	-0.078	0.083
-331.216	-193.691	0.197	0.002
-330.202	91.598	0.072	-0.080
-329.187	-200.000	-0.018	0.136
-328.172	146.792	0.094	-0.125
-327.158	-6.052	-0.366	0.248
-326.143	179.212	-0.200	0.290
-325.129	320.885	-0.083	-0.155
-324.114	203.611	-0.074	0.113
-323.099	-12.634	-0.073	0.047
-322.085	19.768	0.195	0.155
-321.070	800.000	0.064	0.195
-320.056	800.000	0.089	-0.330
-319.041	-118.844	0.160	0.028
-318.026	-25.828	-0.136	0.080
-317.012	-71.890	0.193	0.071
-315.997	-81.541	0.326	0.106
-314.983	800.000	-0.035	0.134
-313.968	-60.443	-0.191	0.081
-312.953	-101.366	0.084	0.020
-311.939	-200.000	0.049	-0.368
-310.924	-200.000	-0.036	-0.206
-309.910	-72.751	-0.110	-0.040
-308.895	23.402	0.083	-0.068
-307.880	510.402	-0.113	0.261
-306.866	-108.349	-0.164	-0.035
-305.851	800.000	-0.109	0.314
-304.837	27.414	-0.107	0.089
-303.822	-70.753	0.281	-0.105
-302.807	-154.502	-0.123	-0.008
-301.793	-76.221	0.228	-0.080
-300.778	-168.636	-0.392	0.015
-299.764	-177.376	0.278	-0.007
-298.749	-68.864	0.150	0.057
-297.735	800.000	-0.024	-0.096
-296.720	-200.000	-0.003	0.165
-295.705	-195.477	0.300	-0.002
-294.691	-3.808	-0.035	-0.024
-293.676	-9.897	0.116	0.076
-292.662	248.957	0.083	0.139
-291.647	-200.000	0.028	0.153
-290.632	35.142	0.147	-0.128
-289.618	-200.000	0.080	0.521
-288.603	225.231	0.020	-0.032
-287.589	-111.421	-0.439	0.088
-286.574	-200.000	0.053	0.268
-285.559	-3.810	-0.156	0.107
-284.545	-123.972	0.233	-0.036
-283.530	152.055	0.173	0.233
-282.516	31.931	-0.110	-0.093
-281.501	76.373	-0.404	0.424
-280.486	-61.812	0.263	0.109
-279.472	-48.805	0.050	0.024
-278.457	-56.002	-0.253	0.112
-277.443	800.000	-0.039	0.150
-276.428	800.000	-0.119	0.413
-275.413	185.167	0.249	0.365
-274.399	34.134	0.177	-0.153
-273.384	-114.478	-0.320	-0.061
-272.370	117.213	0.043	-0.053
-271.355	251.802	-0.092	0.154
-270.340	37.485	-0.298	-0.261
-269.326	800.000	0.135	-0.378
-268.311	-56.156	0.096	-0.042
-267.297	-62.665	-0.110	0.045
-266.282	-28.940	0.218	-0.124
-265.267	-45.857	-0.202	0.099
-264.253	50.915	-0.177	0.166
-263.238	279.544	0.074	-0.130
-262.224	-200.000	0.030	0.218
-261.209	-118.364	0.186	0.033
-260.195	200.464	0.158	-0.240
-259.180	350.472	0.068	0.133
-258.165	157.748	0.128	0.175
-257.151	-131.207	-0.216	0.028
-256.136	592.443	0.131	0.320
-255.122	-43.298	-0.258	0.129
-254.107	13.541	-0.292	0.224
-253.092	-91.647	0.195	-0.055
-252.078	66.670	-0.333	0.335
-251.063	-200.000	-0.005	-0.033
-250.049	150.161	-0.203	0.272
-249.034	-129.980	-0.220	0.030
-248.019	-200.000	-0.020	-0.203
-247.005	435.103	0.131	-0.281
-245.990	157.967	0.195	0.266
-244.976	41.439	-0.198	-0.177
-243.961	-200.000	0.070	-0.568
-242.946	488.477	0.052	0.116
-241.932	66.180	0.071	0.071
-240.917	21.375	0.173	0.139
-239.903	-30.639	-0.123	-0.069
-238.888	102.142	-0.155	-0.178
-237.873	800.000	0.106	0.314
-236.859	800.000	0.134	0.479
-235.844	-200.000	-0.046	0.288
-234.830	108.988	-0.214	-0.253
-233.815	593.650	-0.108	-0.264
-232.800	-124.343	-0.167	-0.026
-231.786	13.140	-0.132	0.101
-230.771	-69.871	-0.402	0.151
-229.757	-137.793	0.312	0.034
-228.742	420.434	-0.355	0.750
-227.727	800.000	0.143	0.399
-226.713	-54.020	0.287	0.129
-225.698	384.503	0.062	-0.125
-224.684	-82.862	-0.119	0.038
-223.669	-22.363	-0.227	0.136
-222.655	800.000	0.084	0.237
-221.640	584.334	-0.041	-0.100
-220.625	-200.000	-0.011	-0.181
-219.611	594.501	0.047	0.114
-218.596	675.110	0.054	0.139
-217.582	-18.416	-0.088	-0.054
-216.567	800.000	0.047	-0.188
-215.552	-200.000	-0.036	-0.250
-214.538	96.327	0.034	-0.038
-213.523	-8.090	-0.138	0.092
-212.509	-57.053	-0.128	-0.056
-211.494	-176.916	0.287	0.007
-210.479	-0.536	-0.120	-0.084
-209.465	-200.000	-0.009	-0.351
-208.450	800.000	-0.066	-0.228
-207.436	182.904	0.120	0.174
-206.421	-200.000	0.007	0.149
-205.406	-200.000	-0.048	0.300
-204.392	-200.000	0.062	0.468
-203.377	800.000	0.022	-0.062
-202.363	59.164	-0.073	-0.071
-201.348	301.368	-0.049	0.089
-200.333	-115.225	-0.050	0.009
-199.319	-77.468	0.167	0.057
-198.304	153.784	0.138	-0.186
-197.290	-200.000	0.031	-0.294
-196.275	-164.388	0.147	-0.007
-195.260	128.064	-0.109	-0.137
-194.246	552.272	0.074	-0.175
-193.231	-69.164	0.064	-0.024
-192.217	-110.155	0.083	0.017
-191.202	331.048	0.048	-0.090
-190.187	-200.000	0.054	-0.309
-189.173	-200.000	0.011	-0.184
-188.158	-200.000	-0.027	0.143
-187.144	-200.000	0.011	-0.224
-186.129	30.516	0.259	0.218
-185.114	-45.863	0.084	-0.041
-184.100	102.889	0.067	-0.077
-183.085	28.775	0.250	0.209
-182.071	-67.871	-0.334	-0.129
-181.056	150.685	0.116	-0.155
-180.042	151.044	0.144	-0.193
-179.027	-129.090	0.178	0.025
-178.012	-200.000	0.058	-0.275
-176.998	-200.000	0.012	-0.189
-175.983	66.667	0.147	-0.147
-174.969	60.936	0.066	-0.065
-173.954	24.341	-0.252	0.205
-172.939	-52.833	-0.327	0.148
-171.925	-33.505	-0.298	0.162
-170.910	625.388	0.107	-0.266
-169.896	93.470	-0.123	0.137
-168.881	47.639	-0.149	0.137
-167.866	232.622	-0.055	-0.090
-166.852	-200.000	0.027	0.215
-165.837	-51.700	0.154	0.071
-164.823	494.984	0.084	0.189
-163.808	800.000	-0.150	-0.449
-162.793	152.886	0.014	-0.018
-161.779	-100.417	0.210	0.051
-160.764	-76.623	0.217	-0.075
-159.750	-117.878	-0.150	-0.027
-158.735	89.158	-0.092	-0.101
-157.720	-200.000	0.034	0.222
-156.706	-113.523	-0.237	-0.046
-155.691	-200.000	0.030	0.162
-154.677	-200.000	-0.013	-0.147
-153.662	-175.615	-0.110	-0.003
-152.647	-8.354	-0.191	0.127
-151.633	-200.000	0.002	0.214
-150.618	211.912	0.099	0.153
-149.604	-30.047	0.125	0.070
-148.589	-150.593	0.049	-0.004
-147.574	212.386	-0.193	-0.300
-146.560	-27.725	-0.073	-0.042
-145.545	-142.218	0.113	0.011
-144.531	800.000	-0.044	-0.127
-143.516	800.000	0.061	-0.173
-142.502	54.045	0.288	0.272
-141.487	800.000	0.133	0.458
-140.472	-60.036	0.147	0.062
-139.458	32.911	-0.080	0.068
-138.443	39.361	0.051	0.045
-137.429	24.636	0.115	0.093
-136.414	425.167	0.192	0.406
-135.399	-200.000	-0.022	0.111
-134.385	408.711	0.082	-0.171
-133.370	800.000	-0.099	0.342
-132.356	163.830	-0.226	0.313
-131.341	-64.973	0.087	0.035
-130.326	-5.898	-0.359	0.242
-129.312	165.591	0.147	-0.204
-128.297	-81.051	0.133	0.043
-127.283	29.661	-0.199	0.167
-126.268	24.495	0.059	-0.048
-125.253	-200.000	-0.048	0.222
-124.239	-200.000	-0.021	0.148
-123.224	133.164	0.026	-0.034
-122.210	-200.000	0.038	-0.375
-121.195	749.062	0.021	0.056
-120.180	800.000	-0.045	0.131
