DTS Sentinel unit serial number:	SN413079Multiplexer serial number:	ORYXHardware model number:	OX4-SRSoftware version number:	ORYX F/W v4.00 Oryx Data Collector v3.7.2.0data status	okinstallation	princeton_trtdifferential loss correction	single-endedforward channel	channel 1reverse channel	N/Adate	2019/09/18time	01:14:35forward acquisition time	60.00reverse acquisition time	0.00gamma	496.2192k internal	0.2341k external	0.2341temperature offset calibration	0.9985default loss term (dB/km)	0.3790temperature slope calibration	1.0000multiplexer offset coefficient	1.0000multiplexer slope coefficient	1.0000fibre end	0.00T internal ref (°C)	23.19T ext. ref 1 (°C)	0.17T ext. ref 2 (°C)	16.89length (m)	temperature (°C)	Stokes	anti-Stokes-747.200	-200.000	0.005	-0.155
-746.185	77.180	-0.122	0.130
-745.171	-200.000	-0.012	-0.182
-744.156	-200.000	0.016	0.359
-743.142	84.080	-0.126	0.138
-742.127	800.000	0.181	0.531
-741.112	486.204	0.110	0.252
-740.098	-200.000	0.000	0.271
-739.083	22.661	-0.393	0.323
-738.069	-200.000	0.005	0.314
-737.054	-152.941	-0.177	-0.013
-736.039	393.485	0.054	0.112
-735.025	-117.936	0.247	0.044
-734.010	-200.000	-0.074	-0.386
-732.996	33.044	-0.075	-0.065
-731.981	-189.751	-0.365	0.004
-730.966	-200.000	-0.009	-0.278
-729.952	-200.000	-0.018	0.139
-728.937	271.110	-0.144	-0.254
-727.923	428.523	0.124	-0.268
-726.908	-200.000	-0.019	0.271
-725.894	744.965	-0.149	-0.403
-724.879	-89.850	-0.359	0.105
-723.864	70.467	-0.137	-0.142
-722.850	-139.477	-0.103	0.011
-721.835	800.000	-0.109	-0.464
-720.821	624.289	-0.100	-0.252
-719.806	-88.455	-0.088	0.026
-718.791	88.145	-0.163	-0.181
-717.777	-161.008	-0.403	-0.021
-716.762	-103.820	-0.066	0.016
-715.748	-22.002	0.228	-0.139
-714.733	72.370	-0.148	-0.154
-713.718	25.113	-0.173	0.144
-712.704	-200.000	0.023	0.196
-711.689	800.000	0.057	-0.199
-710.675	-42.676	-0.274	-0.140
-709.660	558.527	0.109	-0.263
-708.645	725.918	0.084	-0.224
-707.631	-94.527	0.054	-0.015
-706.616	373.652	0.056	0.114
-705.602	63.697	-0.075	-0.076
-704.587	800.000	-0.060	0.224
-703.572	-57.465	-0.053	-0.023
-702.558	800.000	-0.100	-0.393
-701.543	-170.241	-0.286	0.010
-700.529	800.000	-0.052	0.209
-699.514	646.489	0.098	-0.252
-698.499	-7.260	-0.265	-0.180
-697.485	800.000	-0.029	-0.083
-696.470	-200.000	0.028	-0.182
-695.456	83.000	0.191	-0.208
-694.441	-10.201	-0.452	-0.300
-693.426	-146.672	-0.137	-0.012
-692.412	-135.439	0.328	-0.039
-691.397	130.659	0.193	0.247
-690.383	-99.274	-0.206	-0.052
-689.368	-88.314	-0.201	0.060
-688.354	10.441	0.242	-0.184
-687.339	520.199	-0.155	0.362
-686.324	301.882	-0.096	0.177
-685.310	48.787	0.175	0.165
-684.295	575.985	-0.082	-0.200
-683.281	-66.598	0.233	-0.093
-682.266	68.474	0.052	-0.053
-681.251	800.000	-0.079	0.256
-680.237	115.967	-0.142	0.173
-679.222	800.000	-0.028	0.084
-678.208	103.629	0.139	0.163
-677.193	800.000	-0.090	-0.263
-676.178	-200.000	-0.001	-0.041
-675.164	171.110	-0.031	0.044
-674.149	1.024	0.087	0.062
-673.135	-102.305	-0.157	-0.038
-672.120	-91.526	0.145	0.041
-671.105	75.414	-0.165	-0.174
-670.091	-84.242	0.344	0.109
-669.076	112.303	-0.022	-0.026
-668.062	-200.000	0.025	0.111
-667.047	-108.317	0.514	-0.111
-666.032	101.944	0.541	-0.631
-665.018	800.000	0.097	-0.359
-664.003	475.139	0.030	0.067
-662.989	800.000	0.071	-0.250
-661.974	106.245	-0.098	-0.116
-660.959	-200.000	0.024	0.132
-659.945	-175.571	0.174	0.005
-658.930	-200.000	0.035	0.178
-657.916	800.000	-0.077	-0.254
-656.901	-5.274	-0.210	-0.144
-655.886	-26.328	-0.443	-0.260
-654.872	71.264	0.217	0.225
-653.857	800.000	0.092	0.300
-652.843	-200.000	-0.006	-0.063
-651.828	-200.000	-0.009	-0.126
-650.814	-200.000	-0.051	-0.257
-649.799	35.217	0.230	-0.201
-648.784	-200.000	0.020	0.291
-647.770	-155.069	-0.335	0.022
-646.755	-71.466	0.150	0.056
-645.741	-46.822	-0.138	-0.068
-644.726	-200.000	-0.060	0.407
-643.711	-114.338	-0.233	-0.045
-642.697	269.216	0.171	0.299
-641.682	-200.000	-0.022	0.235
-640.668	58.247	-0.220	0.216
-639.653	-52.362	-0.182	0.084
-638.638	800.000	-0.055	0.214
-637.624	-145.253	0.331	0.030
-636.609	104.659	0.108	0.127
-635.595	800.000	0.035	-0.101
-634.580	45.295	-0.315	0.290
-633.565	605.116	-0.070	0.174
-632.551	-30.269	-0.109	0.062
-631.536	115.912	0.183	-0.223
-630.522	130.267	0.115	-0.148
-629.507	-41.691	0.072	-0.037
-628.492	-160.310	0.237	-0.013
-627.478	-200.000	0.015	-0.112
-626.463	-156.194	-0.222	-0.014
-625.449	-128.809	-0.109	-0.015
-624.434	-200.000	-0.067	0.309
-623.419	-108.368	-0.103	0.022
-622.405	36.868	0.174	-0.153
-621.390	111.949	0.081	-0.097
-620.376	-26.623	0.191	0.111
-619.361	-200.000	-0.023	0.188
-618.346	-82.168	-0.215	0.070
-617.332	174.045	-0.115	-0.166
-616.317	-3.489	0.088	-0.061
-615.303	-50.151	-0.063	0.030
-614.288	177.514	-0.134	-0.194
-613.273	235.410	-0.071	-0.117
-612.259	-90.119	-0.273	0.079
-611.244	6.896	-0.235	-0.175
-610.230	186.814	-0.166	-0.246
-609.215	168.643	0.104	-0.148
-608.201	25.054	0.179	-0.148
-607.186	-166.421	-0.155	0.006
-606.171	3.494	0.087	0.063
-605.157	669.521	-0.216	0.558
-604.142	-119.573	-0.129	-0.022
-603.128	-200.000	-0.024	0.124
-602.113	-32.137	-0.133	-0.074
-601.098	170.624	-0.137	-0.196
-600.084	243.779	-0.169	0.282
-599.069	4.504	0.123	0.090
-598.055	137.498	-0.082	0.107
-597.040	64.261	0.052	0.052
-596.025	-44.015	-0.158	-0.079
-595.011	-122.112	-0.275	-0.045
-593.996	70.947	-0.300	0.310
-592.982	-135.657	-0.240	-0.028
-591.967	800.000	0.028	-0.116
-590.952	-200.000	0.011	0.127
-589.938	113.878	-0.172	-0.208
-588.923	-55.160	-0.239	-0.107
-587.909	-200.000	0.049	0.295
-586.894	7.549	-0.205	-0.153
-585.879	-138.800	0.145	0.016
-584.865	-126.642	-0.348	0.051
-583.850	10.075	-0.059	0.044
-582.836	7.928	0.273	0.204
-581.821	-200.000	-0.040	-0.186
-580.806	25.335	-0.047	-0.039
-579.792	222.494	-0.188	-0.301
-578.777	115.497	-0.099	0.121
-577.763	289.871	-0.124	-0.223
-576.748	-200.000	0.016	-0.086
-575.733	-80.665	0.142	0.047
-574.719	-159.815	0.096	-0.005
-573.704	-153.671	-0.424	-0.029
-572.690	25.866	-0.103	-0.085
-571.675	-5.693	-0.076	0.052
-570.661	-24.308	0.017	-0.010
-569.646	-200.000	-0.020	-0.148
-568.631	305.686	0.175	0.324
-567.617	51.817	-0.138	0.131
-566.602	-200.000	0.028	-0.387
-565.588	193.601	0.248	-0.374
-564.573	-178.654	0.339	-0.008
-563.558	-155.273	-0.066	-0.004
-562.544	515.240	-0.106	0.245
-561.529	66.565	0.091	-0.092
-560.515	386.135	0.075	-0.153
-559.500	-200.000	0.036	-0.418
-558.485	800.000	0.130	0.382
-557.471	-200.000	0.047	-0.242
-556.456	179.181	0.123	-0.179
-555.442	-0.672	0.524	0.370
-554.427	457.306	0.033	-0.072
-553.412	-200.000	-0.042	0.191
-552.398	276.867	-0.104	-0.185
-551.383	629.598	-0.069	-0.172
-550.369	-200.000	0.056	-0.372
-549.354	8.729	0.214	-0.160
-548.339	41.159	0.069	0.062
-547.325	-46.250	-0.196	-0.096
-546.310	800.000	-0.041	-0.173
-545.296	-200.000	0.014	-0.186
-544.281	569.402	0.101	-0.245
-543.266	142.157	-0.048	0.063
-542.252	95.816	-0.161	0.182
-541.237	357.009	-0.073	-0.145
-540.223	-46.441	0.219	0.107
-539.208	-200.000	-0.049	0.274
-538.193	101.153	-0.060	-0.070
-537.179	402.028	0.125	0.262
-536.164	800.000	0.098	-0.356
-535.150	-21.459	-0.319	0.193
-534.135	178.514	0.100	-0.145
-533.121	34.247	0.271	-0.235
-532.106	800.000	0.095	-0.403
-531.091	-200.000	-0.043	-0.290
-530.077	-35.067	0.188	0.102
-529.062	-200.000	-0.026	-0.163
-528.048	-33.553	0.109	0.060
-527.033	-78.236	0.301	-0.103
-526.018	-200.000	-0.030	-0.199
-525.004	800.000	-0.061	-0.225
-523.989	120.960	-0.086	-0.106
-522.975	244.307	0.256	0.428
-521.960	-156.428	-0.317	0.020
-520.945	-183.166	0.202	-0.004
-519.931	487.082	-0.048	-0.109
-518.916	800.000	-0.050	-0.197
-517.902	28.544	-0.068	-0.057
-516.887	13.464	-0.041	0.031
-515.872	336.621	-0.087	0.168
-514.858	-6.947	0.304	0.205
-513.843	-43.206	0.231	0.116
-512.829	247.560	0.152	-0.255
-511.814	-128.314	0.330	0.047
-510.799	5.751	-0.340	-0.249
-509.785	36.245	0.259	0.226
-508.770	-200.000	-0.021	-0.312
-507.756	67.166	0.226	-0.229
-506.741	-131.044	0.284	0.038
-505.726	-200.000	0.128	0.000
-504.712	-102.714	0.289	-0.068
-503.697	12.057	0.241	-0.184
-502.683	-200.000	0.004	-0.104
-501.668	-22.458	0.195	0.117
-500.653	318.513	0.098	0.184
-499.639	800.000	-0.059	-0.202
-498.624	269.649	-0.126	-0.219
-497.610	-111.710	-0.113	0.023
-496.595	-73.239	0.160	-0.058
-495.581	51.037	-0.261	-0.246
-494.566	-7.944	-0.104	-0.070
-493.551	-178.266	-0.065	-0.002
-492.537	-38.176	-0.176	0.092
-491.522	-145.116	0.304	0.027
-490.508	133.134	-0.054	0.069
-489.493	0.440	-0.285	0.202
-488.478	36.667	0.135	0.118
-487.464	3.529	0.234	-0.169
-486.449	414.787	-0.094	0.198
-485.435	249.236	-0.044	-0.075
-484.420	800.000	0.099	0.304
-483.405	800.000	0.079	-0.285
-482.391	-126.341	0.179	-0.027
-481.376	-30.424	0.408	-0.230
-480.362	481.906	0.075	0.169
-479.347	-36.577	-0.100	-0.053
-478.332	-80.906	0.456	-0.150
-477.318	7.956	-0.234	-0.174
-476.303	455.086	0.086	0.189
-475.289	-71.461	0.226	-0.084
-474.274	-200.000	-0.011	-0.149
-473.259	800.000	0.100	0.305
-472.245	418.706	-0.105	0.223
-471.230	-48.967	0.089	0.042
-470.216	-80.750	0.282	0.093
-469.201	512.070	0.057	0.132
-468.186	-69.589	0.202	-0.077
-467.172	90.460	-0.183	-0.203
-466.157	-200.000	-0.064	-0.362
-465.143	-200.000	0.021	-0.269
-464.128	5.876	-0.111	0.082
-463.113	-200.000	-0.010	-0.068
-462.099	435.765	0.077	0.165
-461.084	362.117	0.102	-0.203
-460.070	631.298	0.038	-0.095
-459.055	-4.817	-0.212	-0.145
-458.040	94.062	-0.123	0.138
-457.026	-200.000	-0.035	0.330
-456.011	-35.894	0.430	-0.231
-454.997	800.000	-0.124	-0.360
-453.982	-163.042	-0.223	0.011
-452.968	-19.556	0.063	0.039
-451.953	42.556	-0.074	0.067
-450.938	-152.220	0.337	0.024
-449.924	-84.076	-0.274	0.086
-448.909	-200.000	-0.012	0.175
-447.895	-10.012	-0.080	0.052
-446.880	-200.000	-0.015	0.276
-445.865	-39.766	-0.177	-0.092
-444.851	800.000	0.046	0.130
-443.836	108.072	0.110	-0.130
-442.822	-129.350	-0.372	-0.051
-441.807	-62.101	0.200	-0.083
-440.792	-123.304	-0.169	0.027
-439.778	255.020	0.094	0.160
-438.763	88.697	-0.222	-0.244
-437.749	-64.361	-0.166	0.067
-436.734	492.476	0.065	-0.148
-435.719	104.362	-0.137	0.160
-434.705	21.872	-0.203	0.164
-433.690	32.873	0.174	-0.149
-432.676	-88.506	-0.112	-0.033
-431.661	170.336	0.008	-0.012
-430.646	-150.985	0.488	0.036
-429.632	288.202	0.304	0.545
-428.617	169.761	0.076	0.107
-427.603	582.104	-0.042	0.103
-426.588	718.180	0.100	0.264
-425.573	-200.000	0.027	0.285
-424.559	-96.465	0.020	0.005
-423.544	-200.000	-0.031	0.194
-422.530	-87.786	-0.145	0.043
-421.515	-135.589	-0.333	-0.039
-420.500	42.679	-0.118	-0.107
-419.486	144.946	0.126	0.166
-418.471	-200.000	-0.041	0.363
-417.457	800.000	-0.025	0.097
-416.442	-57.410	0.272	-0.118
-415.428	-128.621	-0.326	0.046
-414.413	-141.064	0.293	0.030
-413.398	101.320	0.076	-0.088
-412.384	-17.405	0.098	0.061
-411.369	800.000	-0.045	-0.169
-410.355	800.000	0.048	0.167
-409.340	-31.140	-0.256	0.143
-408.325	-123.650	-0.417	-0.065
-407.311	-200.000	-0.016	-0.171
-406.296	-128.504	0.159	0.022
-405.282	-29.481	0.196	-0.111
-404.267	-139.872	0.282	0.029
-403.252	-200.000	0.075	0.380
-402.238	-200.000	0.015	-0.133
-401.223	511.145	-0.020	0.046
-400.209	90.051	-0.062	-0.069
-399.194	114.521	-0.141	-0.170
-398.179	800.000	-0.040	0.128
-397.165	800.000	-0.007	-0.021
-396.150	219.885	0.105	0.166
-395.136	-46.122	0.101	-0.049
-394.121	-200.000	-0.046	-0.355
-393.106	186.070	0.230	-0.338
-392.092	-200.000	0.015	-0.102
-391.077	-31.877	0.323	-0.179
-390.063	-200.000	0.006	-0.271
-389.048	-200.000	-0.008	-0.052
-388.033	-69.075	0.437	-0.166
-387.019	-200.000	0.034	-0.214
-386.004	60.074	-0.207	0.202
-384.990	800.000	0.006	-0.024
-383.975	18.755	-0.158	-0.125
-382.960	3.120	-0.213	-0.153
-381.946	-160.974	0.042	0.002
-380.931	48.943	-0.046	-0.043
-379.917	592.036	0.082	0.199
-378.902	-200.000	-0.026	-0.185
-377.888	-99.279	-0.148	0.037
-376.873	-153.732	0.271	-0.018
-375.858	-18.956	-0.213	0.131
-374.844	-27.657	-0.240	0.137
-373.829	-198.520	-0.231	0.001
-372.815	-47.124	0.255	-0.123
-371.800	685.723	-0.079	-0.203
-370.785	-200.000	0.005	0.122
-369.771	146.349	-0.093	0.123
-368.756	138.531	0.023	0.030
-367.742	-200.000	0.068	-0.296
-366.727	273.061	-0.108	-0.189
-365.712	-11.533	0.207	0.134
-364.698	22.480	-0.455	0.367
-363.683	-63.610	0.260	-0.106
-362.669	800.000	-0.088	0.278
-361.654	800.000	-0.048	0.207
-360.639	-200.000	-0.010	-0.203
-359.625	800.000	-0.028	0.116
-358.610	110.960	-0.110	0.131
-357.596	-31.595	-0.033	-0.018
-356.581	26.761	-0.177	0.146
-355.566	800.000	-0.050	0.200
-354.552	293.136	0.162	0.292
-353.537	76.610	0.072	-0.076
-352.523	-165.861	-0.211	0.009
-351.508	112.118	0.021	0.025
-350.493	270.219	-0.036	0.063
-349.479	-200.000	-0.020	0.214
-348.464	-17.413	-0.421	0.261
-347.450	-200.000	0.016	-0.175
-346.435	196.607	-0.129	-0.194
-345.420	800.000	0.066	0.248
-344.406	55.542	-0.223	0.213
-343.391	-58.467	-0.029	-0.012
-342.377	130.619	-0.230	0.290
-341.362	118.913	-0.013	0.016
-340.348	-200.000	0.006	0.332
-339.333	-200.000	-0.089	0.407
-338.318	586.947	-0.073	-0.178
-337.304	-200.000	-0.014	-0.165
-336.289	800.000	0.069	0.247
-335.275	209.759	-0.122	0.189
-334.260	-200.000	0.084	-0.437
-333.245	428.561	-0.192	-0.409
-332.231	-50.424	0.370	-0.172
-331.216	-114.487	0.059	0.011
-330.202	86.939	-0.184	-0.201
-329.187	39.181	0.277	0.244
-328.172	265.477	-0.107	-0.183
-327.158	-94.613	0.124	-0.033
-326.143	8.001	-0.068	0.051
-325.129	54.663	-0.181	-0.172
-324.114	-200.000	-0.001	0.063
-323.099	-151.661	0.470	-0.034
-322.085	800.000	0.011	-0.040
-321.070	-72.120	-0.338	0.124
-320.056	-165.820	0.210	0.009
-319.041	188.453	-0.047	-0.069
-318.026	57.620	0.115	0.111
-317.012	263.321	0.016	0.028
-315.997	-54.230	0.157	0.070
-314.983	101.709	-0.072	-0.082
-313.968	376.658	0.170	-0.342
-312.953	-146.461	0.067	0.006
-311.939	244.062	0.135	-0.224
-310.924	-200.000	-0.010	-0.283
-309.910	-18.079	-0.478	0.295
-308.895	-116.188	0.237	0.043
-307.880	345.595	-0.044	-0.084
-306.866	41.294	0.314	0.279
-305.851	133.776	0.161	0.205
-304.837	-157.522	-0.255	0.015
-303.822	64.830	-0.181	0.180
-302.807	4.401	-0.278	0.201
-301.793	25.151	-0.116	0.095
-300.778	-36.727	-0.618	0.327
-299.764	-181.981	0.118	-0.002
-298.749	-46.420	-0.203	-0.098
-297.735	566.446	-0.109	-0.260
-296.720	57.571	-0.260	-0.250
-295.705	147.717	0.157	-0.208
-294.691	-8.340	-0.121	0.080
-293.676	161.366	0.082	-0.112
-292.662	241.173	0.243	0.399
-291.647	715.999	-0.082	0.214
-290.632	-186.034	-0.218	-0.003
-289.618	641.266	-0.095	-0.239
-288.603	78.098	-0.170	0.178
-287.589	-141.324	-0.164	-0.016
-286.574	0.248	-0.114	0.080
-285.559	-123.444	0.206	-0.032
-284.545	-145.593	0.126	0.011
-283.530	-44.601	-0.133	-0.065
-282.516	-121.498	0.134	-0.022
-281.501	-200.000	-0.016	0.132
-280.486	-1.270	0.186	0.129
-279.472	-200.000	-0.017	-0.098
-278.457	92.395	-0.345	0.383
-277.443	-66.932	0.132	0.051
-276.428	-200.000	0.024	0.199
-275.413	569.622	0.034	-0.082
-274.399	-55.673	0.274	-0.121
-273.384	-174.743	-0.107	0.003
-272.370	-200.000	0.002	-0.208
-271.355	406.750	0.009	-0.018
-270.340	-84.893	-0.118	0.036
-269.326	-200.000	-0.013	0.142
-268.311	79.696	-0.259	-0.274
-267.297	-200.000	-0.001	-0.010
-266.282	-60.311	-0.131	-0.055
-265.267	-200.000	0.070	-0.371
-264.253	-41.551	-0.079	0.040
-263.238	332.052	0.099	-0.189
-262.224	97.125	-0.081	0.092
-261.209	492.228	0.092	-0.208
-260.195	82.656	-0.267	-0.286
-259.180	118.839	0.180	-0.219
-258.165	-78.649	0.286	-0.096
-257.151	-81.211	-0.274	-0.089
-256.136	120.960	0.032	0.039
-255.122	-143.119	0.416	-0.039
-254.107	71.177	0.223	0.227
-253.092	148.409	0.207	-0.275
-252.078	-196.703	-0.289	0.002
-251.063	-3.445	-0.263	-0.180
-250.049	-32.924	0.157	-0.086
-249.034	84.247	0.097	0.104
-248.019	46.053	-0.164	0.149
-247.005	181.936	0.012	0.018
-245.990	-63.846	0.325	-0.131
-244.976	566.865	0.043	-0.102
-243.961	-200.000	-0.012	-0.084
-242.946	-107.033	0.061	0.013
-241.932	800.000	0.033	0.098
-240.917	-150.798	-0.280	-0.021
-239.903	285.322	-0.141	-0.249
-238.888	-57.631	0.056	0.024
-237.873	340.462	-0.081	0.155
-236.859	-66.303	0.183	-0.071
-235.844	-200.000	-0.066	-0.376
-234.830	-200.000	-0.052	0.366
-233.815	-4.591	0.072	0.049
-232.800	-157.571	-0.376	0.022
-231.786	-48.506	-0.070	0.033
-230.771	-200.000	0.024	0.192
-229.757	-200.000	-0.018	0.136
-228.742	-163.113	0.028	-0.001
-227.727	-42.045	-0.173	-0.087
-226.713	-80.555	0.347	0.113
-225.698	800.000	0.045	0.191
-224.684	-200.000	0.002	-0.436
-223.669	-137.313	-0.186	0.021
-222.655	-42.022	0.465	0.234
-221.640	21.043	-0.312	0.248
-220.625	21.099	-0.181	0.144
-219.611	-97.100	0.177	0.045
-218.596	-159.287	-0.158	-0.009
-217.582	-183.387	-0.176	-0.003
-216.567	-47.864	0.300	-0.143
-215.552	-22.433	0.211	-0.125
-214.538	800.000	-0.080	-0.248
-213.523	-167.552	-0.156	-0.006
-212.509	20.684	-0.121	0.096
-211.494	-26.660	-0.191	-0.110
-210.479	-35.835	-0.304	-0.161
-209.465	99.534	0.391	0.444
-208.450	113.734	0.229	0.274
-207.436	254.032	-0.189	-0.317
-206.421	-125.596	-0.294	0.044
-205.406	-200.000	0.021	-0.141
-204.392	-93.639	-0.179	-0.048
-203.377	-71.574	-0.200	-0.073
-202.363	-117.900	-0.034	0.006
-201.348	-115.701	0.393	0.072
-200.333	-147.956	0.121	-0.010
-199.319	800.000	-0.034	-0.111
-198.304	800.000	-0.103	-0.419
-197.290	60.932	0.022	0.021
-196.275	800.000	0.049	-0.190
-195.260	-200.000	0.037	0.244
-194.246	-49.639	0.064	-0.030
-193.231	362.762	-0.041	-0.080
-192.217	283.713	-0.044	-0.077
-191.202	-47.729	-0.263	0.125
-190.187	-172.203	-0.090	0.003
-189.173	-72.732	0.071	-0.026
-188.158	-200.000	0.029	-0.253
-187.144	-4.939	0.060	-0.040
-186.129	144.445	0.239	-0.314
-185.114	-108.568	0.111	0.023
-184.100	-90.899	-0.120	-0.034
-183.085	96.276	0.170	-0.190
-182.071	-25.053	0.204	0.119
-181.056	-31.371	0.204	0.112
-180.042	-200.000	-0.040	0.339
-179.027	9.579	-0.125	0.093
-178.012	-200.000	0.035	0.175
-176.998	-103.328	0.523	0.121
-175.983	-145.709	-0.163	0.014
-174.969	389.232	0.187	-0.380
-173.954	436.359	-0.119	0.255
-172.939	-200.000	-0.005	0.091
-171.925	-46.488	0.110	0.053
-170.910	-200.000	-0.040	0.304
-169.896	-86.050	0.137	0.042
-168.881	-200.000	-0.004	0.083
-167.866	118.290	0.170	0.205
-166.852	800.000	0.034	-0.138
-165.837	42.358	-0.124	0.110
-164.823	-60.594	0.211	-0.088
-163.808	606.473	-0.107	-0.261
-162.793	-200.000	0.077	0.386
-161.779	112.669	-0.202	0.239
-160.764	-81.773	0.179	0.057
-159.750	-87.464	0.061	0.018
-158.735	126.415	-0.187	0.231
-157.720	72.179	-0.138	-0.141
-156.706	-135.262	0.173	0.020
-155.691	-161.461	0.097	-0.005
-154.677	206.690	-0.022	-0.033
-153.662	-90.546	0.405	0.115
-152.647	460.724	0.133	0.291
-151.633	118.179	0.169	0.204
-150.618	437.023	-0.085	-0.182
-149.604	-60.267	0.426	-0.178
-148.589	778.482	-0.038	0.102
-147.574	-8.766	-0.055	0.036
-146.560	-28.272	-0.124	0.070
-145.545	-95.675	0.274	-0.072
-144.531	180.959	-0.257	-0.370
-143.516	315.460	0.149	0.276
-142.502	75.458	0.202	0.209
-141.487	-200.000	-0.028	0.184
-140.472	-3.919	-0.125	-0.085
-139.458	-200.000	-0.051	-0.338
-138.443	-79.089	-0.201	-0.067
-137.429	51.854	0.132	-0.122
-136.414	-120.624	-0.330	0.055
-135.399	204.355	0.265	0.402
-134.385	0.094	0.127	0.089
-133.370	28.534	-0.120	0.099
-132.356	800.000	-0.078	0.241
-131.341	-126.309	-0.149	-0.022
-130.326	-200.000	-0.025	0.136
-129.312	33.533	0.035	-0.030
-128.297	179.605	0.057	-0.082
-127.283	-200.000	-0.040	-0.265
-126.268	-200.000	-0.000	0.036
-125.253	-147.724	0.109	0.009
-124.239	-200.000	0.041	0.244
-123.224	35.797	0.201	-0.173
-122.210	101.075	0.107	-0.122
