DTS Sentinel unit serial number:	SN413079Multiplexer serial number:	ORYXHardware model number:	OX4-SRSoftware version number:	ORYX F/W v4.00 Oryx Data Collector v3.7.2.0data status	okinstallation	princeton_trtdifferential loss correction	single-endedforward channel	channel 1reverse channel	N/Adate	2019/09/19time	10:18:35forward acquisition time	60.00reverse acquisition time	0.00gamma	496.2192k internal	0.2339k external	0.2339temperature offset calibration	1.0010default loss term (dB/km)	0.3790temperature slope calibration	1.0000multiplexer offset coefficient	1.0000multiplexer slope coefficient	1.0000fibre end	0.00T internal ref (°C)	24.14T ext. ref 1 (°C)	0.69T ext. ref 2 (°C)	19.73length (m)	temperature (°C)	Stokes	anti-Stokes-747.200	-200.000	0.044	0.309
-746.185	800.000	-0.089	0.280
-745.171	-60.180	-0.332	0.142
-744.156	-43.335	0.139	0.070
-743.142	144.814	-0.105	0.141
-742.127	-11.142	-0.288	0.190
-741.112	800.000	-0.092	-0.295
-740.098	303.973	-0.129	0.239
-739.083	800.000	-0.124	0.536
-738.069	-68.856	-0.164	0.063
-737.054	400.819	-0.127	0.267
-736.039	-25.827	-0.209	-0.124
-735.025	-200.000	-0.009	0.080
-734.010	-200.000	-0.019	0.150
-732.996	-71.269	-0.218	0.082
-731.981	84.927	0.173	-0.190
-730.966	23.425	-0.154	0.127
-729.952	-66.287	0.235	-0.094
-728.937	26.760	-0.342	-0.287
-727.923	-108.650	0.116	-0.025
-726.908	475.833	-0.079	-0.178
-725.894	158.676	0.029	0.041
-724.879	-200.000	-0.037	0.298
-723.864	-123.536	-0.142	-0.023
-722.850	800.000	-0.051	0.187
-721.835	-200.000	0.046	-0.206
-720.821	302.154	-0.065	0.120
-719.806	491.966	0.047	0.108
-718.791	702.769	0.064	0.170
-717.777	62.290	-0.058	0.058
-716.762	800.000	-0.121	-0.382
-715.748	34.890	0.071	0.062
-714.733	-124.437	-0.018	-0.003
-713.718	-195.367	-0.150	0.001
-712.704	800.000	0.065	-0.214
-711.689	755.843	-0.092	-0.248
-710.675	-98.438	-0.499	0.128
-709.660	148.219	-0.133	0.180
-708.645	36.402	0.284	-0.250
-707.631	-200.000	0.014	0.183
-706.616	575.844	-0.050	-0.123
-705.602	-44.136	-0.100	-0.050
-704.587	800.000	0.103	-0.426
-703.572	-159.841	0.093	-0.005
-702.558	-135.063	0.085	-0.010
-701.543	-102.328	-0.211	-0.051
-700.529	-200.000	-0.003	0.272
-699.514	-200.000	0.019	-0.173
-698.499	511.443	0.164	0.382
-697.485	86.054	-0.157	-0.173
-696.470	69.536	0.054	-0.056
-695.456	-165.063	-0.205	-0.009
-694.441	800.000	-0.061	-0.181
-693.426	300.674	-0.082	0.152
-692.412	-141.816	-0.344	-0.035
-691.397	-200.000	-0.003	0.154
-690.383	-171.365	0.278	0.009
-689.368	30.120	-0.106	0.090
-688.354	-151.065	0.163	0.012
-687.339	-129.542	0.313	-0.043
-686.324	-66.373	-0.437	0.174
-685.310	-189.638	-0.123	-0.001
-684.295	-64.822	-0.103	0.042
-683.281	-200.000	0.016	0.097
-682.266	100.820	-0.128	-0.149
-681.251	22.386	0.179	0.147
-680.237	173.649	-0.140	0.203
-679.222	-33.063	0.198	0.110
-678.208	-185.273	0.205	-0.003
-677.193	800.000	0.062	0.190
-676.178	-165.445	-0.298	0.013
-675.164	748.092	0.085	0.229
-674.149	800.000	-0.093	0.318
-673.135	-152.056	0.089	0.006
-672.120	-200.000	-0.016	-0.092
-671.105	-79.318	-0.137	0.047
-670.091	-34.123	0.006	0.003
-669.076	151.484	-0.088	-0.120
-668.062	229.668	0.108	0.176
-667.047	143.370	-0.163	-0.217
-666.032	-52.612	-0.270	-0.125
-665.018	-200.000	-0.080	-0.428
-664.003	654.035	-0.097	0.248
-662.989	103.225	0.107	0.125
-661.974	-200.000	-0.028	0.329
-660.959	-0.726	-0.195	-0.138
-659.945	800.000	-0.031	0.127
-658.930	-149.266	-0.277	-0.022
-657.916	800.000	-0.135	0.423
-656.901	-200.000	-0.019	-0.154
-655.886	-113.679	-0.142	-0.028
-654.872	80.403	0.203	-0.218
-653.857	-57.363	-0.262	0.115
-652.843	-200.000	-0.012	0.138
-651.828	94.776	-0.152	0.173
-650.814	-200.000	0.012	-0.108
-649.799	800.000	0.044	0.138
-648.784	-200.000	-0.008	-0.226
-647.770	0.327	-0.065	0.046
-646.755	-200.000	0.029	-0.275
-645.741	-200.000	0.013	0.124
-644.726	-23.668	0.177	0.106
-643.711	-130.843	-0.158	0.021
-642.697	86.213	0.130	-0.143
-641.682	-200.000	-0.017	-0.098
-640.668	-15.443	0.320	-0.204
-639.653	366.927	-0.083	0.168
-638.638	275.893	0.190	-0.336
-637.624	-24.522	0.104	0.062
-636.609	22.978	-0.354	-0.290
-635.595	-200.000	-0.020	-0.095
-634.580	506.108	0.168	-0.388
-633.565	-43.193	-0.208	-0.105
-632.551	360.206	-0.171	-0.343
-631.536	-33.017	-0.341	0.189
-630.522	234.906	0.119	0.195
-629.507	-200.000	-0.007	0.195
-628.492	-106.916	0.052	0.012
-627.478	63.709	0.124	-0.124
-626.463	-97.568	-0.051	0.013
-625.449	-200.000	0.014	0.174
-624.434	233.944	0.031	-0.050
-623.419	-57.480	-0.189	-0.083
-622.405	800.000	0.112	-0.422
-621.390	30.608	-0.414	0.353
-620.376	-178.994	-0.116	-0.003
-619.361	-55.393	0.121	0.054
-618.346	-200.000	0.014	-0.172
-617.332	-119.900	0.354	0.061
-616.317	200.997	0.278	0.426
-615.303	-200.000	0.011	0.214
-614.288	765.679	0.163	-0.442
-613.273	-39.300	-0.120	0.063
-612.259	-200.000	0.047	0.284
-611.244	-200.000	0.407	0.000
-610.230	358.339	-0.126	-0.251
-609.215	-111.385	-0.131	-0.027
-608.201	114.201	-0.202	-0.245
-607.186	86.396	0.165	0.181
-606.171	800.000	0.104	0.311
-605.157	177.681	0.111	0.162
-604.142	-200.000	0.036	-0.200
-603.128	-69.314	0.234	0.090
-602.113	-200.000	0.001	-0.067
-601.098	-159.167	-0.445	-0.025
-600.084	800.000	-0.129	0.455
-599.069	-200.000	-0.019	0.109
-598.055	-57.926	-0.295	-0.128
-597.040	800.000	0.047	-0.168
-596.025	-6.754	-0.274	0.186
-595.011	-108.659	0.141	0.030
-593.996	800.000	-0.063	-0.214
-592.982	5.502	-0.306	0.225
-591.967	-200.000	0.031	-0.363
-590.952	-0.225	-0.115	0.081
-589.938	-90.902	-0.421	0.121
-588.923	-125.684	0.227	-0.034
-587.909	-30.430	-0.192	-0.109
-586.894	-121.546	-0.379	0.063
-585.879	-200.000	0.029	0.176
-584.865	-93.608	0.138	-0.038
-583.850	42.928	-0.119	-0.108
-582.836	-121.300	0.256	0.043
-581.821	-126.480	-0.274	0.041
-580.806	-27.161	-0.148	0.086
-579.792	-110.911	-0.166	0.034
-578.777	8.196	0.274	0.205
-577.763	182.088	0.108	-0.158
-576.748	718.337	-0.050	0.132
-575.733	-108.727	0.152	-0.032
-574.719	635.637	0.182	-0.459
-573.704	-99.264	-0.131	-0.033
-572.690	-30.120	0.211	0.120
-571.675	379.363	0.189	0.386
-570.661	800.000	0.045	-0.137
-569.646	-59.379	-0.216	-0.093
-568.631	-108.558	0.158	0.034
-567.617	-117.146	-0.438	-0.079
-566.602	-111.168	0.302	0.062
-565.588	30.701	0.363	0.310
-564.573	57.627	-0.349	0.340
-563.558	-121.196	0.437	0.073
-562.544	-151.426	-0.244	-0.018
-561.529	-36.838	0.014	-0.008
-560.515	-87.178	-0.268	0.081
-559.500	-86.862	0.105	-0.032
-558.485	76.767	-0.131	0.138
-557.471	426.689	-0.065	-0.140
-556.456	373.620	-0.156	-0.315
-555.442	18.224	-0.126	0.100
-554.427	-124.044	0.351	-0.055
-553.412	-90.496	-0.293	0.085
-552.398	800.000	0.105	-0.317
-551.383	97.020	0.144	-0.164
-550.369	178.201	-0.233	0.338
-549.354	83.636	-0.071	-0.077
-548.339	-26.624	-0.162	0.094
-547.325	34.006	-0.067	-0.058
-546.310	-154.529	-0.278	0.019
-545.296	800.000	-0.057	0.184
-544.281	-200.000	0.041	0.198
-543.266	-200.000	0.013	-0.161
-542.252	-26.801	-0.137	-0.080
-541.237	-200.000	-0.063	-0.305
-540.223	-48.403	-0.002	0.001
-539.208	-200.000	0.004	-0.406
-538.193	-77.633	-0.019	-0.007
-537.179	630.348	-0.081	0.205
-536.164	0.335	0.114	-0.081
-535.150	-200.000	0.000	-0.352
-534.135	-200.000	-0.007	-0.202
-533.121	-14.221	-0.180	-0.115
-532.106	273.851	0.158	0.279
-531.091	-200.000	0.023	0.249
-530.077	-108.796	-0.125	0.027
-529.062	-99.811	0.282	-0.070
-528.048	213.162	-0.069	0.108
-527.033	-200.000	-0.016	0.161
-526.018	-200.000	-0.023	-0.155
-525.004	800.000	-0.143	-0.445
-523.989	89.764	0.154	-0.171
-522.975	58.430	0.188	-0.183
-521.960	-128.784	0.213	0.030
-520.945	800.000	0.066	0.189
-519.931	-195.816	-0.180	0.001
-518.916	203.837	0.035	0.054
-517.902	-29.619	-0.366	-0.208
-516.887	208.408	-0.109	0.169
-515.872	148.958	0.171	-0.229
-514.858	-127.134	-0.194	0.028
-513.843	-117.878	0.135	0.024
-512.829	39.073	-0.203	0.180
-511.814	-87.808	0.415	0.124
-510.799	545.956	0.076	0.182
-509.785	360.901	0.063	-0.125
-508.770	800.000	0.046	0.166
-507.756	-90.584	0.177	0.051
-506.741	104.738	0.097	0.114
-505.726	-200.000	0.034	-0.356
-504.712	-200.000	0.036	-0.263
-503.697	800.000	-0.073	0.217
-502.683	119.186	-0.119	0.146
-501.668	-68.987	0.314	-0.120
-500.653	102.992	0.163	0.190
-499.639	-30.764	-0.310	0.174
-498.624	166.790	-0.007	0.010
-497.610	-200.000	-0.062	-0.369
-496.595	800.000	0.043	-0.122
-495.581	177.949	0.062	0.090
-494.566	-19.499	-0.111	-0.068
-493.551	511.066	-0.119	-0.274
-492.537	733.555	0.084	0.224
-491.522	-71.374	0.053	0.020
-490.508	24.944	0.175	0.144
-489.493	100.007	-0.223	0.257
-488.478	40.894	-0.077	0.069
-487.464	-104.363	0.126	-0.029
-486.449	-120.889	0.124	-0.021
-485.435	-91.797	-0.141	-0.040
-484.420	-120.153	0.202	-0.034
-483.405	137.581	0.090	-0.117
-482.391	800.000	0.041	0.112
-481.376	-94.865	0.075	-0.020
-480.362	414.291	-0.018	0.038
-479.347	75.359	0.105	-0.110
-478.332	-200.000	-0.003	0.224
-477.318	-98.109	0.339	0.087
-476.303	105.323	-0.237	0.277
-475.289	-113.729	0.086	0.017
-474.274	233.025	-0.094	0.154
-473.259	-172.746	0.299	-0.009
-472.245	4.725	0.226	0.165
-471.230	138.000	-0.134	0.174
-470.216	-200.000	0.049	0.418
-469.201	-200.000	0.020	-0.091
-468.186	733.835	0.054	0.142
-467.172	152.086	-0.048	0.065
-466.157	-200.000	0.035	0.178
-465.143	297.001	-0.081	-0.148
-464.128	-200.000	0.009	-0.271
-463.113	800.000	0.047	0.130
-462.099	-200.000	0.015	0.506
-461.084	235.089	0.097	0.159
-460.070	-200.000	-0.020	0.252
-459.055	-65.580	0.295	-0.117
-458.040	-200.000	-0.042	-0.297
-457.026	784.753	-0.062	-0.170
-456.011	207.128	0.300	0.465
-454.997	85.905	-0.194	0.212
-453.982	72.040	0.279	0.287
-452.968	257.036	-0.106	0.181
-451.953	-97.268	0.446	-0.115
-450.938	549.512	-0.082	0.195
-449.924	-53.969	-0.316	-0.143
-448.909	-200.000	0.036	0.285
-447.895	-200.000	0.002	0.320
-446.880	-200.000	-0.006	0.167
-445.865	-112.118	-0.089	0.018
-444.851	-23.922	-0.304	0.180
-443.836	-71.000	0.307	0.114
-442.822	-93.190	-0.182	-0.050
-441.807	90.396	0.031	0.035
-440.792	29.630	0.124	0.104
-439.778	101.043	-0.048	-0.055
-438.763	800.000	0.042	-0.127
-437.749	25.304	-0.039	0.032
-436.734	-200.000	-0.033	-0.171
-435.719	236.944	0.156	0.257
-434.705	-148.793	0.179	0.014
-433.690	-141.508	-0.495	0.050
-432.676	-200.000	0.002	-0.082
-431.661	800.000	0.049	-0.148
-430.646	-116.900	0.273	-0.050
-429.632	597.669	-0.147	0.360
-428.617	800.000	0.042	-0.158
-427.603	-59.122	0.077	-0.033
-426.588	52.989	-0.146	0.138
-425.573	-200.000	-0.033	0.254
-424.559	-82.254	0.405	0.131
-423.544	346.467	-0.154	0.299
-422.530	800.000	0.061	0.244
-421.515	49.584	0.178	0.166
-420.500	141.763	-0.069	-0.090
-419.486	66.476	0.157	-0.158
-418.471	205.324	-0.187	0.287
-417.457	-12.399	-0.180	0.116
-416.442	800.000	-0.089	-0.248
-415.428	-2.692	0.274	-0.189
-414.413	-74.138	0.193	-0.069
-413.398	-28.361	0.230	0.132
-412.384	-26.012	0.174	-0.101
-411.369	282.032	0.090	-0.160
-410.355	1.140	-0.135	0.096
-409.340	655.840	0.083	-0.211
-408.325	2.585	-0.171	-0.123
-407.311	234.385	-0.039	0.064
-406.296	456.670	0.091	0.201
-405.282	236.834	-0.080	0.132
-404.267	-131.898	-0.228	-0.029
-403.252	-96.168	-0.288	0.076
-402.238	258.463	0.020	-0.034
-401.223	71.944	0.121	0.125
-400.209	-43.820	-0.202	-0.101
-399.194	-2.607	0.186	0.129
-398.179	-38.741	0.156	0.081
-397.165	-73.525	-0.138	-0.050
-396.150	314.621	-0.039	0.073
-395.136	-200.000	-0.001	-0.428
-394.121	-173.829	0.170	0.005
-393.106	-200.000	0.008	0.182
-392.092	64.563	0.200	-0.200
-391.077	-134.749	-0.098	0.012
-390.063	-97.171	-0.047	-0.012
-389.048	-100.473	-0.262	0.064
-388.033	275.774	0.035	-0.062
-387.019	26.364	0.169	-0.140
-386.004	-55.297	0.147	-0.065
-384.990	583.316	-0.152	-0.370
-383.975	-89.865	-0.196	-0.057
-382.960	325.839	0.135	-0.255
-381.946	116.329	-0.191	0.231
-380.931	-98.302	-0.098	-0.025
-379.917	243.037	0.180	-0.298
-378.902	280.365	0.028	-0.050
-377.888	-200.000	0.082	-0.354
-376.873	-200.000	-0.006	0.158
-375.858	-200.000	0.108	-0.483
-374.844	-52.833	0.288	-0.131
-373.829	228.320	0.032	-0.051
-372.815	-200.000	0.001	-0.255
-371.800	-119.975	0.100	-0.017
-370.785	-35.430	-0.087	-0.047
-369.771	142.514	-0.151	0.198
-368.756	-12.362	0.116	0.075
-367.742	71.454	0.168	0.173
-366.727	126.409	0.022	0.027
-365.712	474.774	-0.060	-0.135
-364.698	-200.000	-0.005	-0.126
-363.683	714.950	-0.149	-0.391
-362.669	254.812	-0.050	-0.085
-361.654	800.000	-0.131	-0.409
-360.639	12.419	0.241	-0.184
-359.625	-99.021	0.194	-0.048
-358.610	-200.000	0.071	-0.364
-357.596	-77.134	-0.095	0.033
-356.581	-94.497	0.274	-0.074
-355.566	201.111	-0.023	-0.035
-354.552	135.079	0.068	0.087
-353.537	497.768	0.077	0.176
-352.523	56.751	-0.039	0.037
-351.508	-170.800	-0.229	-0.008
-350.493	-56.827	0.080	-0.035
-349.479	800.000	-0.026	-0.076
-348.464	152.727	-0.094	-0.127
-347.450	-30.675	0.250	-0.140
-346.435	800.000	-0.016	-0.063
-345.420	27.690	0.176	0.146
-344.406	-67.653	-0.621	-0.240
-343.391	55.664	0.238	-0.228
-342.377	214.390	0.079	-0.124
-341.362	-138.909	-0.154	0.017
-340.348	134.253	-0.211	0.271
-339.333	-200.000	0.205	-0.000
-338.318	128.260	0.066	-0.083
-337.304	-200.000	0.010	-0.272
-336.289	-95.164	0.111	-0.030
-335.275	47.479	0.131	-0.121
-334.260	-200.000	0.030	0.219
-333.245	-76.131	0.065	0.023
-332.231	-140.600	0.352	-0.036
-331.216	-103.655	0.213	0.049
-330.202	-200.000	-0.024	0.395
-329.187	-200.000	0.004	-0.089
-328.172	-17.598	-0.169	0.105
-327.158	230.491	0.244	-0.394
-326.143	-102.289	0.081	-0.019
-325.129	-36.557	0.217	0.115
-324.114	2.512	0.101	-0.072
-323.099	-27.882	-0.263	-0.151
-322.085	397.814	0.215	-0.443
-321.070	-52.153	0.095	0.043
-320.056	357.633	-0.100	-0.197
-319.041	28.757	0.208	0.174
-318.026	800.000	0.048	0.159
-317.012	-200.000	-0.003	-0.112
-315.997	-133.361	0.212	0.026
-314.983	-124.166	-0.320	0.049
-313.968	197.659	-0.200	-0.302
-312.953	174.144	-0.124	0.177
-311.939	-166.970	-0.344	0.014
-310.924	-98.441	-0.306	0.077
-309.910	-200.000	-0.032	-0.154
-308.895	-60.598	-0.242	-0.101
-307.880	-151.099	0.296	0.022
-306.866	-118.637	0.101	-0.018
-305.851	68.284	0.315	-0.318
-304.837	-78.644	-0.097	0.033
-303.822	-145.126	-0.049	-0.004
-302.807	343.925	0.028	0.054
-301.793	-119.404	0.229	-0.039
-300.778	-124.479	-0.357	0.055
-299.764	-200.000	-0.229	0.001
-298.749	-200.000	-0.009	-0.186
-297.735	-118.884	-0.271	-0.047
-296.720	322.893	0.111	-0.208
-295.705	-79.192	0.145	0.048
-294.691	800.000	0.022	-0.074
-293.676	70.820	0.088	-0.089
-292.662	-200.000	-0.011	0.125
-291.647	79.215	0.218	0.230
-290.632	161.439	-0.203	0.280
-289.618	-200.000	-0.028	-0.161
-288.603	-200.000	0.020	-0.124
-287.589	409.195	0.028	-0.059
-286.574	-72.145	-0.319	0.117
-285.559	210.389	0.190	-0.293
-284.545	800.000	-0.088	-0.267
-283.530	800.000	-0.160	-0.535
-282.516	-200.000	0.045	-0.254
-281.501	-59.821	-0.281	-0.118
-280.486	85.336	0.114	0.124
-279.472	800.000	0.038	0.107
-278.457	-200.000	-0.028	-0.226
-277.443	-82.969	0.214	0.068
-276.428	240.223	-0.097	0.158
-275.413	-200.000	0.005	0.087
-274.399	299.841	-0.141	0.256
-273.384	-131.556	0.469	-0.061
-272.370	265.980	-0.151	-0.259
-271.355	623.354	-0.073	-0.181
-270.340	-136.563	0.329	-0.037
-269.326	-108.550	0.217	-0.046
-268.311	89.802	-0.191	-0.210
-267.297	-200.000	-0.003	0.089
-266.282	-43.924	-0.325	0.161
-265.267	73.366	-0.045	-0.046
-264.253	88.242	0.267	0.292
-263.238	-200.000	-0.009	0.131
-262.224	-10.628	0.134	0.087
-261.209	370.148	0.086	0.172
-260.195	-200.000	0.023	0.342
-259.180	247.570	0.262	0.435
-258.165	800.000	-0.018	0.051
-257.151	24.802	-0.104	-0.085
-256.136	67.298	-0.221	-0.222
-255.122	-200.000	-0.007	0.503
-254.107	-107.807	0.330	-0.071
-253.092	156.120	-0.050	0.067
-252.078	15.344	-0.130	0.101
-251.063	219.973	0.062	-0.098
-250.049	-14.268	-0.076	0.048
-249.034	-27.590	-0.081	-0.046
-248.019	5.590	0.143	0.104
-247.005	-90.686	0.298	0.085
-245.990	61.005	-0.108	0.105
-244.976	36.390	0.077	0.067
-243.961	162.837	-0.105	-0.145
-242.946	-77.761	-0.149	0.051
-241.932	-79.628	0.429	-0.142
-240.917	-73.533	-0.139	-0.050
-239.903	374.287	-0.062	0.124
-238.888	99.747	-0.088	-0.100
-237.873	24.266	0.045	0.036
-236.859	-105.284	0.273	-0.061
-235.844	108.097	0.127	-0.149
-234.830	-150.431	0.247	-0.019
-233.815	738.384	0.141	-0.371
-232.800	-116.650	-0.374	-0.068
-231.786	800.000	0.122	0.385
-230.771	62.145	0.183	0.180
-229.757	-2.791	0.103	0.071
-228.742	367.469	0.232	0.461
-227.727	188.315	-0.043	-0.063
-226.713	-87.340	-0.240	-0.072
-225.698	-200.000	-0.040	0.252
-224.684	4.217	-0.131	-0.095
-223.669	-25.401	-0.257	-0.149
-222.655	99.309	-0.176	-0.200
-221.640	270.669	0.139	-0.240
-220.625	-200.000	-0.003	-0.112
-219.611	-152.202	0.139	-0.010
-218.596	-159.390	-0.231	-0.013
-217.582	18.763	-0.131	-0.103
-216.567	-158.174	-0.223	0.013
-215.552	-100.981	-0.394	-0.095
-214.538	171.557	-0.197	0.277
-213.523	-188.030	-0.254	0.003
-212.509	20.604	0.094	-0.075
-211.494	262.052	-0.139	0.236
-210.479	89.858	0.023	0.025
-209.465	-82.759	-0.167	0.053
-208.450	-12.907	-0.289	0.185
-207.436	260.147	0.141	-0.240
-206.421	800.000	0.032	-0.109
-205.406	-200.000	-0.021	-0.130
-204.392	-21.640	0.068	-0.041
-203.377	459.889	-0.032	0.069
-202.363	-189.320	0.353	-0.004
-201.348	-4.058	-0.109	-0.074
-200.333	-142.944	-0.205	0.020
-199.319	-200.000	-0.045	0.233
-198.304	-200.000	-0.017	0.214
-197.290	-121.778	0.332	0.054
-196.275	-92.316	0.097	0.027
-195.260	-200.000	0.024	-0.270
-194.246	-14.202	-0.112	-0.071
-193.231	237.630	-0.048	0.078
-192.217	-200.000	-0.015	-0.326
-191.202	800.000	-0.047	0.151
-190.187	476.478	-0.147	0.325
-189.173	-200.000	0.050	0.318
-188.158	800.000	-0.118	0.445
-187.144	-200.000	-0.017	0.141
-186.129	-73.769	-0.330	-0.118
-185.114	-149.818	0.167	-0.013
-184.100	-200.000	0.032	0.197
-183.085	-107.028	-0.242	-0.052
-182.071	-73.607	-0.290	-0.104
-181.056	-200.000	0.019	-0.163
-180.042	-200.000	-0.002	0.057
-179.027	-200.000	0.020	-0.220
-178.012	29.742	-0.139	0.116
-176.998	-111.268	0.189	0.038
-175.983	-85.361	-0.188	0.058
-174.969	503.250	-0.036	-0.082
-173.954	61.514	-0.134	0.131
-172.939	-200.000	0.109	0.000
-171.925	800.000	-0.111	-0.345
-170.910	-74.458	-0.293	0.103
-169.896	-200.000	-0.040	-0.234
-168.881	-130.309	-0.291	0.039
-167.866	-18.837	0.098	0.060
-166.852	475.444	0.072	0.160
-165.837	34.426	-0.076	0.065
-164.823	800.000	0.048	0.133
-163.808	129.786	-0.055	0.069
-162.793	36.267	0.078	0.068
-161.779	-26.576	0.246	0.141
-160.764	-115.337	-0.467	-0.086
-159.750	-114.324	-0.155	0.029
-158.735	-115.242	0.229	0.042
-157.720	-115.981	0.129	-0.024
-156.706	-59.731	0.459	-0.193
-155.691	595.288	0.085	0.206
-154.677	229.027	-0.195	-0.312
-153.662	-26.658	-0.094	0.054
-152.647	800.000	0.089	0.242
-151.633	-64.522	-0.169	-0.067
-150.618	-163.758	-0.182	-0.008
-149.604	800.000	0.004	0.012
-148.589	-168.472	0.121	0.005
-147.574	71.106	0.113	0.115
-146.560	800.000	0.055	0.179
-145.545	-70.321	0.089	0.033
-144.531	415.238	0.234	0.489
-143.516	377.487	0.178	-0.356
-142.502	-38.759	0.151	0.078
-141.487	353.615	0.098	0.191
-140.472	274.255	-0.074	0.129
-139.458	-200.000	0.017	-0.095
-138.443	-46.180	0.170	0.082
-137.429	75.509	-0.214	0.222
-136.414	125.564	-0.163	-0.202
-135.399	83.628	0.177	0.189
-134.385	-134.735	0.128	0.015
-133.370	530.387	-0.104	0.240
-132.356	678.649	0.021	0.054
-131.341	-61.955	-0.285	0.117
-130.326	-111.874	0.190	0.038
-129.312	168.104	0.197	-0.275
-128.297	-148.996	-0.146	-0.011
-127.283	-6.900	0.091	-0.060
-126.268	25.499	0.154	-0.126
-125.253	800.000	-0.045	0.180
-124.239	100.076	-0.197	0.223
-123.224	150.394	-0.179	0.238
-122.210	-200.000	-0.015	0.073
