DTS Sentinel unit serial number:	SN413079Multiplexer serial number:	ORYXHardware model number:	OX4-SRSoftware version number:	ORYX F/W v4.00 Oryx Data Collector v3.7.2.0data status	okinstallation	princeton_trtdifferential loss correction	single-endedforward channel	channel 1reverse channel	N/Adate	2019/09/17time	04:42:35forward acquisition time	60.00reverse acquisition time	0.00gamma	496.2192k internal	0.2324k external	0.2324temperature offset calibration	0.9958default loss term (dB/km)	0.3790temperature slope calibration	1.0000multiplexer offset coefficient	1.0000multiplexer slope coefficient	1.0000fibre end	0.00T internal ref (°C)	29.62T ext. ref 1 (°C)	0.13T ext. ref 2 (°C)	24.04length (m)	temperature (°C)	Stokes	anti-Stokes-747.200	-88.527	0.218	0.066
-746.185	-96.983	0.232	-0.061
-745.171	71.722	-0.166	0.174
-744.156	370.918	-0.136	0.279
-743.142	-123.079	0.184	0.030
-742.127	-69.416	-0.156	-0.061
-741.112	-121.506	0.285	-0.048
-740.098	800.000	0.099	0.311
-739.083	-200.000	0.013	0.281
-738.069	-181.198	-0.127	0.003
-737.054	-117.371	-0.129	0.024
-736.039	-38.091	-0.330	-0.177
-735.025	170.518	0.076	0.110
-734.010	-57.627	-0.285	-0.126
-732.996	-99.197	0.051	-0.013
-731.981	-161.642	-0.175	-0.009
-730.966	278.409	0.016	0.029
-729.952	-200.000	-0.033	0.222
-728.937	780.869	-0.143	0.396
-727.923	-13.028	-0.276	0.181
-726.908	476.818	-0.065	-0.149
-725.894	46.223	-0.164	0.154
-724.879	800.000	-0.037	-0.150
-723.864	24.350	-0.105	0.087
-722.850	-19.612	-0.204	0.127
-721.835	343.929	0.148	0.294
-720.821	-88.781	-0.169	-0.051
-719.806	-200.000	0.069	0.359
-718.791	-200.000	-0.006	0.157
-717.777	-200.000	-0.007	-0.110
-716.762	109.145	-0.149	-0.180
-715.748	75.701	-0.269	0.287
-714.733	-141.831	-0.099	-0.010
-713.718	-68.973	0.210	0.082
-712.704	-84.556	-0.079	-0.025
-711.689	-189.952	-0.430	-0.005
-710.675	28.146	0.047	-0.040
-709.660	1.173	-0.046	-0.033
-708.645	-105.672	-0.319	0.073
-707.631	-200.000	-0.034	0.226
-706.616	121.713	-0.231	0.290
-705.602	21.718	-0.114	-0.093
-704.587	-200.000	0.033	0.256
-703.572	520.594	0.070	-0.165
-702.558	56.595	0.179	-0.175
-701.543	513.751	-0.136	0.321
-700.529	-200.000	0.011	-0.154
-699.514	-112.731	0.084	-0.017
-698.499	-200.000	-0.012	-0.157
-697.485	800.000	-0.040	-0.141
-696.470	-200.000	0.004	-0.075
-695.456	-161.400	-0.100	0.005
-694.441	732.482	-0.076	-0.205
-693.426	73.357	0.039	-0.041
-692.412	65.983	-0.069	0.071
-691.397	59.903	-0.126	0.126
-690.383	-76.372	-0.337	-0.119
-689.368	-16.939	0.318	-0.202
-688.354	83.937	-0.180	-0.199
-687.339	-34.907	0.138	0.076
-686.324	800.000	-0.022	0.069
-685.310	56.438	0.049	-0.048
-684.295	-131.348	-0.048	0.006
-683.281	170.615	-0.151	0.218
-682.266	159.317	-0.130	-0.182
-681.251	256.591	-0.169	-0.293
-680.237	370.831	0.135	0.275
-679.222	-160.544	0.141	0.008
-678.208	-101.535	0.345	0.085
-677.193	-45.847	-0.149	-0.074
-676.178	800.000	-0.055	0.180
-675.164	247.411	-0.170	-0.289
-674.149	-200.000	-0.013	-0.065
-673.135	441.658	0.070	-0.155
-672.120	573.418	0.041	0.101
-671.105	-84.904	-0.030	-0.010
-670.091	58.584	-0.350	-0.346
-669.076	527.713	0.121	-0.288
-668.062	141.343	0.229	-0.306
-667.047	-200.000	0.017	0.359
-666.032	-108.323	0.076	0.016
-665.018	-29.870	-0.213	-0.122
-664.003	467.078	-0.172	-0.388
-662.989	-79.527	0.140	0.047
-661.974	-200.000	0.030	0.232
-660.959	-121.903	-0.297	0.049
-659.945	-200.000	-0.000	0.032
-658.930	-28.515	0.162	-0.094
-657.916	-200.000	-0.053	-0.299
-656.901	700.400	0.083	0.220
-655.886	800.000	-0.039	0.165
-654.872	-200.000	-0.039	0.352
-653.857	-200.000	0.015	-0.322
-652.843	128.053	-0.177	-0.227
-651.828	242.413	-0.021	-0.036
-650.814	-65.776	-0.074	-0.030
-649.799	37.068	-0.037	-0.033
-648.784	643.398	0.067	0.173
-647.770	-51.192	0.125	0.059
-646.755	-200.000	0.028	-0.483
-645.741	590.681	-0.082	-0.203
-644.726	56.998	-0.137	0.134
-643.711	44.346	0.395	0.365
-642.697	-10.295	0.216	0.144
-641.682	-33.347	0.081	-0.045
-640.668	244.493	-0.210	-0.354
-639.653	-200.000	-0.039	-0.278
-638.638	-200.000	-0.010	-0.128
-637.624	-200.000	0.007	0.433
-636.609	-56.467	-0.383	-0.171
-635.595	-0.452	-0.484	-0.346
-634.580	-200.000	-0.032	0.287
-633.565	108.016	0.325	-0.389
-632.551	229.305	-0.093	-0.152
-631.536	800.000	-0.153	-0.438
-630.522	-77.455	-0.355	-0.124
-629.507	-102.614	-0.171	-0.041
-628.492	19.995	-0.212	-0.172
-627.478	43.734	-0.107	0.098
-626.463	-200.000	-0.019	-0.196
-625.449	-200.000	0.011	0.126
-624.434	6.447	-0.255	0.191
-623.419	-142.853	0.156	0.015
-622.405	358.686	-0.104	-0.209
-621.390	-73.822	-0.322	-0.118
-620.376	469.811	0.037	0.083
-619.361	-29.967	-0.423	0.242
-618.346	-142.824	0.299	0.029
-617.332	-123.016	-0.240	-0.039
-616.317	-200.000	-0.165	0.000
-615.303	800.000	0.084	0.352
-614.288	800.000	0.082	-0.335
-613.273	56.374	0.327	-0.319
-612.259	51.814	-0.169	0.161
-611.244	18.611	-0.124	0.100
-610.230	213.598	0.130	-0.206
-609.215	-8.134	0.192	-0.130
-608.201	298.915	0.003	-0.006
-607.186	-91.152	-0.174	-0.050
-606.171	-133.690	0.282	-0.035
-605.157	-25.752	-0.117	-0.069
-604.142	-77.682	0.137	-0.047
-603.128	65.405	0.070	0.071
-602.113	471.773	0.032	-0.073
-601.098	23.821	0.130	0.108
-600.084	287.932	0.148	-0.268
-599.069	62.770	0.314	-0.315
-598.055	-102.714	0.236	0.056
-597.040	800.000	-0.012	0.035
-596.025	536.998	0.083	-0.199
-595.011	-47.342	0.272	-0.133
-593.996	800.000	-0.077	-0.336
-592.982	800.000	-0.058	-0.207
-591.967	59.504	-0.087	0.086
-590.952	62.713	-0.136	0.137
-589.938	4.925	0.027	-0.020
-588.923	-200.000	-0.018	0.222
-587.909	800.000	-0.075	-0.240
-586.894	-185.938	-0.069	0.001
-585.879	196.545	0.145	-0.221
-584.865	-92.056	0.153	0.043
-583.850	82.343	0.185	-0.201
-582.836	-13.432	0.284	-0.185
-581.821	-200.000	0.005	-0.029
-580.806	184.927	-0.117	0.173
-579.792	24.553	-0.166	0.138
-578.777	-154.855	0.242	0.016
-577.763	-200.000	0.030	-0.412
-576.748	-40.241	-0.199	0.104
-575.733	98.242	-0.194	0.224
-574.719	-200.000	0.015	0.131
-573.704	-117.016	0.116	0.021
-572.690	-200.000	-0.030	-0.319
-571.675	-37.274	0.221	0.119
-570.661	-96.968	0.064	-0.017
-569.646	-55.262	0.170	0.077
-568.631	340.448	-0.073	-0.143
-567.617	628.272	0.067	-0.171
-566.602	50.771	0.203	-0.193
-565.588	161.987	0.073	0.102
-564.573	2.519	0.214	-0.155
-563.558	-155.093	0.079	0.005
-562.544	-42.650	0.213	0.109
-561.529	207.566	0.159	0.249
-560.515	-97.997	-0.194	-0.050
-559.500	272.481	0.116	0.205
-558.485	800.000	0.087	0.317
-557.471	685.502	-0.089	-0.232
-556.456	-68.604	0.076	0.030
-555.442	-186.316	0.327	-0.005
-554.427	-200.000	0.041	-0.381
-553.412	185.452	-0.101	-0.150
-552.398	205.721	-0.210	-0.327
-551.383	125.818	0.303	0.384
-550.369	3.262	0.183	-0.134
-549.354	168.300	-0.163	-0.232
-548.339	-200.000	0.001	0.218
-547.325	150.865	-0.282	0.384
-546.310	51.245	-0.198	0.189
-545.296	-23.766	-0.102	0.061
-544.281	-179.390	-0.196	-0.004
-543.266	-59.074	-0.263	-0.114
-542.252	-200.000	-0.021	-0.118
-541.237	-131.701	0.336	0.044
-540.223	247.938	-0.102	-0.173
-539.208	28.488	0.200	0.170
-538.193	800.000	-0.094	0.328
-537.179	-9.451	0.124	-0.083
-536.164	120.459	0.056	0.069
-535.150	87.500	0.247	0.274
-534.135	800.000	-0.019	0.057
-533.121	-200.000	0.023	-0.143
-532.106	-71.116	-0.279	0.105
-531.091	-69.068	0.264	0.102
-530.077	452.692	0.104	-0.230
-529.062	-116.793	-0.428	-0.079
-528.048	-51.038	0.157	-0.074
-527.033	-98.503	-0.407	-0.104
-526.018	800.000	0.033	0.106
-525.004	117.702	0.085	-0.105
-523.989	1.578	0.118	0.085
-522.975	-77.737	0.428	0.148
-521.960	-176.714	-0.134	-0.003
-520.945	-200.000	0.000	-0.017
-519.931	-12.288	0.097	0.064
-518.916	-33.820	0.033	-0.018
-517.902	126.673	0.114	-0.144
-516.887	-200.000	0.012	0.414
-515.872	-40.345	0.327	0.170
-514.858	92.184	-0.193	-0.218
-513.843	149.712	0.051	0.069
-512.829	90.704	-0.169	0.189
-511.814	78.727	0.230	0.246
-510.799	299.707	0.062	0.114
-509.785	22.285	0.076	-0.062
-508.770	-91.936	-0.349	-0.099
-507.756	-81.935	-0.351	0.115
-506.741	-200.000	-0.034	0.156
-505.726	-200.000	0.002	0.034
-504.712	-200.000	-0.014	-0.066
-503.697	348.498	-0.132	0.260
-502.683	-148.345	0.148	0.012
-501.668	-135.362	-0.225	-0.027
-500.653	-200.000	-0.067	0.326
-499.639	800.000	-0.120	0.407
-498.624	-105.492	-0.055	0.012
-497.610	-200.000	-0.013	-0.123
-496.595	-200.000	-0.020	0.279
-495.581	343.321	-0.109	0.214
-494.566	-97.627	0.168	-0.043
-493.551	-118.389	-0.200	-0.035
-492.537	53.506	-0.041	0.039
-491.522	445.475	-0.053	0.117
-490.508	-151.914	0.183	0.013
-489.493	29.462	-0.244	0.207
-488.478	-200.000	0.011	0.179
-487.464	800.000	-0.016	0.057
-486.449	-4.747	0.196	-0.135
-485.435	-200.000	0.036	0.391
-484.420	170.927	0.057	-0.082
-483.405	113.722	-0.072	0.088
-482.391	-91.481	0.138	0.039
-481.376	-9.853	0.133	-0.089
-480.362	458.162	0.125	-0.278
-479.347	660.351	-0.145	-0.374
-478.332	-139.439	-0.160	0.017
-477.318	-52.861	-0.029	-0.013
-476.303	-200.000	0.023	-0.295
-475.289	-200.000	-0.032	-0.209
-474.274	466.748	-0.133	-0.297
-473.259	74.044	-0.247	-0.259
-472.245	211.551	0.144	0.226
-471.230	-167.408	0.204	-0.008
-470.216	213.659	-0.054	0.086
-469.201	-155.889	0.124	-0.008
-468.186	131.617	-0.191	0.245
-467.172	-200.000	0.032	0.220
-466.157	192.487	-0.077	-0.117
-465.143	254.599	-0.135	-0.231
-464.128	219.288	0.055	-0.087
-463.113	137.827	0.028	-0.036
-462.099	-200.000	0.068	-0.475
-461.084	-11.296	0.227	-0.149
-460.070	-90.271	0.151	0.044
-459.055	23.699	0.086	0.070
-458.040	-200.000	0.084	-0.487
-457.026	800.000	-0.103	-0.383
-456.011	-127.253	-0.455	0.066
-454.997	-123.932	0.326	-0.051
-453.982	800.000	-0.041	-0.162
-452.968	68.037	0.268	-0.274
-451.953	-88.420	-0.007	0.002
-450.938	-141.224	0.419	-0.043
-449.924	462.607	-0.091	0.204
-448.909	800.000	0.110	0.318
-447.895	-31.984	-0.261	-0.146
-446.880	25.092	-0.104	-0.086
-445.865	4.635	-0.237	-0.173
-444.851	-106.932	-0.152	0.034
-443.836	-200.000	0.033	0.196
-442.822	-74.515	-0.298	0.107
-441.807	103.010	0.112	-0.131
-440.792	800.000	-0.114	0.324
-439.778	-200.000	-0.009	0.059
-438.763	788.579	-0.101	0.276
-437.749	-200.000	0.063	0.303
-436.734	135.121	-0.154	-0.200
-435.719	296.823	-0.164	0.300
-434.705	-68.697	0.024	0.009
-433.690	322.503	-0.134	-0.255
-432.676	25.557	-0.257	-0.213
-431.661	331.179	-0.059	-0.113
-430.646	-23.382	-0.312	0.187
-429.632	-149.285	0.308	0.024
-428.617	95.242	0.227	0.258
-427.603	31.411	-0.240	0.206
-426.588	-4.838	-0.051	0.035
-425.573	-200.000	0.037	0.163
-424.559	-200.000	0.013	-0.117
-423.544	-108.970	0.063	0.013
-422.530	800.000	0.066	0.261
-421.515	241.176	-0.174	0.289
-420.500	37.925	-0.024	-0.021
-419.486	15.322	-0.212	0.166
-418.471	-200.000	0.011	-0.262
-417.457	154.706	0.064	-0.088
-416.442	22.877	-0.143	-0.117
-415.428	16.733	0.078	-0.061
-414.413	-111.618	-0.189	0.038
-413.398	116.835	-0.198	0.243
-412.384	-166.281	0.290	-0.012
-411.369	-198.546	0.239	0.001
-410.355	-189.485	-0.549	0.006
-409.340	-27.626	-0.100	-0.058
-408.325	-167.397	-0.200	0.008
-407.311	-99.660	0.301	0.075
-406.296	800.000	0.075	-0.214
-405.282	246.196	0.137	-0.229
-404.267	388.569	-0.083	0.170
-403.252	-9.949	-0.180	-0.119
-402.238	220.556	0.068	-0.109
-401.223	-94.906	-0.179	0.048
-400.209	-135.303	-0.245	0.029
-399.194	800.000	-0.084	-0.270
-398.179	-68.460	0.375	0.145
-397.165	-33.546	0.193	-0.106
-396.150	25.618	-0.067	0.056
-395.136	800.000	0.076	-0.270
-394.121	52.608	-0.181	-0.172
-393.106	-81.896	0.178	-0.058
-392.092	800.000	-0.108	-0.310
-391.077	-200.000	-0.025	-0.195
-390.063	800.000	-0.020	-0.063
-389.048	-147.245	0.119	0.010
-388.033	-200.000	-0.033	-0.231
-387.019	800.000	-0.086	0.304
-386.004	519.232	0.050	-0.116
-384.990	-153.124	0.291	-0.020
-383.975	-113.887	-0.213	0.041
-382.960	3.192	-0.178	-0.129
-381.946	536.409	0.086	0.202
-380.931	-200.000	-0.016	0.222
-379.917	27.373	-0.124	0.104
-378.902	-200.000	-0.053	0.237
-377.888	-109.746	0.352	-0.074
-376.873	-96.606	-0.283	0.074
-375.858	-135.885	-0.283	0.033
-374.844	-107.205	0.451	0.099
-373.829	113.322	0.188	-0.227
-372.815	-200.000	-0.007	0.257
-371.800	-128.829	-0.288	0.040
-370.785	161.009	0.097	0.135
-369.771	-58.574	0.422	-0.182
-368.756	-200.000	-0.017	-0.107
-367.742	-96.405	0.103	0.027
-366.727	7.496	0.256	-0.190
-365.712	214.736	-0.071	0.112
-364.698	140.637	-0.123	-0.162
-363.683	198.583	-0.183	0.279
-362.669	-7.810	0.199	0.134
-361.654	-200.000	0.028	0.146
-360.639	-44.451	0.253	-0.126
-359.625	-159.320	-0.165	-0.009
-358.610	-48.730	-0.386	0.184
-357.596	-17.265	0.078	-0.049
-356.581	175.229	0.082	0.119
-355.566	203.473	-0.130	-0.201
-354.552	38.101	0.037	0.033
-353.537	83.774	0.281	-0.305
-352.523	216.765	0.153	0.242
-351.508	45.869	-0.160	0.147
-350.493	-200.000	-0.004	0.324
-349.479	-106.607	-0.443	-0.098
-348.464	97.353	-0.214	-0.244
-347.450	-8.386	-0.147	0.098
-346.435	-70.155	0.248	-0.094
-345.420	-43.539	0.235	0.118
-344.406	800.000	-0.057	-0.221
-343.391	-59.057	0.006	0.003
-342.377	49.061	0.053	-0.050
-341.362	107.823	0.166	-0.197
-340.348	-200.000	0.032	-0.360
-339.333	68.454	-0.042	0.043
-338.318	51.967	-0.194	0.184
-337.304	-200.000	-0.097	-0.450
-336.289	19.456	0.091	0.073
-335.275	-85.710	0.095	-0.029
-334.260	65.933	-0.035	0.035
-333.245	175.020	0.139	-0.200
-332.231	201.769	0.140	-0.214
-331.216	-88.677	0.261	0.077
-330.202	122.724	-0.143	-0.178
-329.187	111.567	0.119	-0.142
-328.172	-25.647	-0.211	0.124
-327.158	-57.960	0.271	0.117
-326.143	561.453	-0.031	0.075
-325.129	-200.000	0.013	0.299
-324.114	37.331	-0.086	-0.076
-323.099	-47.096	-0.174	-0.084
-322.085	800.000	-0.064	0.191
-321.070	-97.248	0.286	-0.074
-320.056	-60.885	-0.188	0.079
-319.041	800.000	-0.084	0.244
-318.026	14.395	-0.043	-0.033
-317.012	-200.000	-0.008	0.471
-315.997	746.267	0.112	0.300
-314.983	49.822	-0.136	0.127
-313.968	241.521	0.041	-0.068
-312.953	-80.500	-0.190	0.063
-311.939	-98.630	-0.229	-0.058
-310.924	-109.222	-0.245	0.052
-309.910	599.181	0.152	0.375
-308.895	-112.367	-0.134	0.027
-307.880	222.631	-0.194	0.310
-306.866	800.000	0.024	-0.076
-305.851	-200.000	-0.021	-0.258
-304.837	800.000	-0.063	0.200
-303.822	-200.000	0.023	-0.145
-302.807	-127.252	0.289	-0.042
-301.793	-42.377	0.271	-0.137
-300.778	-200.000	0.062	-0.455
-299.764	-3.814	0.313	0.215
-298.749	46.929	0.070	0.064
-297.735	143.302	0.069	-0.091
-296.720	-106.721	0.035	-0.008
-295.705	-153.663	-0.150	-0.010
-294.691	800.000	0.088	-0.315
-293.676	242.108	0.083	-0.138
-292.662	684.829	-0.007	0.019
-291.647	-168.048	-0.108	0.004
-290.632	800.000	0.093	-0.279
-289.618	-186.320	0.361	-0.005
-288.603	30.778	-0.354	0.300
-287.589	34.569	0.165	0.143
-286.574	-200.000	0.029	0.294
-285.559	163.496	0.182	0.254
-284.545	32.726	-0.014	0.012
-283.530	144.600	0.182	-0.240
-282.516	27.421	0.254	-0.212
-281.501	24.423	-0.180	-0.147
-280.486	-177.728	0.217	-0.005
-279.472	213.786	-0.105	-0.164
-278.457	290.026	-0.271	0.487
-277.443	-29.554	-0.088	0.050
-276.428	17.757	-0.121	0.095
-275.413	800.000	-0.038	0.120
-274.399	-118.878	0.173	-0.030
-273.384	266.265	0.158	0.273
-272.370	92.367	-0.214	0.239
-271.355	46.785	-0.057	-0.053
-270.340	-200.000	0.065	0.293
-269.326	9.546	0.280	0.210
-268.311	-6.111	-0.224	0.151
-267.297	-200.000	-0.032	0.182
-266.282	23.449	0.082	-0.067
-265.267	-15.842	0.205	-0.130
-264.253	-200.000	0.023	-0.237
-263.238	35.536	-0.253	-0.220
-262.224	-200.000	0.003	0.409
-261.209	73.824	-0.172	0.178
-260.195	9.584	0.098	-0.074
-259.180	-103.751	0.269	-0.062
-258.165	152.233	-0.034	-0.046
-257.151	-200.000	0.005	0.070
-256.136	-200.000	-0.047	-0.209
-255.122	42.826	0.438	-0.395
-254.107	-39.672	0.358	0.185
-253.092	-198.128	-0.405	-0.002
-252.078	-99.558	0.126	0.031
-251.063	102.632	-0.088	0.102
-250.049	389.602	0.094	0.193
-249.034	29.966	-0.199	0.168
-248.019	-100.618	0.552	0.135
-247.005	-63.117	0.184	0.075
-245.990	-77.199	-0.193	-0.067
-244.976	-165.332	-0.313	-0.014
-243.961	-70.325	0.079	-0.030
-242.946	-116.785	-0.138	0.025
-241.932	494.245	-0.137	-0.312
-240.917	-140.988	-0.305	-0.031
-239.903	114.901	0.149	-0.179
-238.888	111.490	0.103	-0.123
-237.873	-200.000	-0.033	-0.167
-236.859	-1.999	0.302	0.210
-235.844	-200.000	0.065	0.357
-234.830	-63.793	0.108	0.044
-233.815	14.761	0.203	-0.157
-232.800	748.886	0.040	-0.106
-231.786	-147.800	0.350	-0.029
-230.771	-42.620	0.179	-0.090
-229.757	427.655	-0.086	0.184
-228.742	174.645	-0.047	0.068
-227.727	12.476	0.238	-0.182
-226.713	197.380	-0.068	0.103
-225.698	143.812	-0.048	-0.063
-224.684	-92.069	0.185	0.052
-223.669	16.184	0.164	0.128
-222.655	25.542	-0.251	-0.207
-221.640	-150.924	0.159	-0.012
-220.625	-10.073	0.063	0.041
-219.611	180.251	0.170	-0.246
-218.596	363.585	-0.105	0.209
-217.582	-196.841	-0.071	-0.000
-216.567	-40.291	-0.143	0.074
-215.552	-78.849	0.351	0.118
-214.538	-200.000	0.023	0.142
-213.523	497.545	-0.067	-0.153
-212.509	-26.596	-0.042	-0.024
-211.494	-31.038	-0.222	-0.124
-210.479	-71.598	0.267	-0.099
-209.465	-66.240	-0.032	0.013
-208.450	451.053	0.035	-0.077
-207.436	56.559	-0.366	-0.352
-206.421	-32.916	-0.148	0.081
-205.406	800.000	-0.044	-0.182
-204.392	-77.466	0.223	0.076
-203.377	236.358	-0.194	0.317
-202.363	-17.131	0.227	0.141
-201.348	-97.508	-0.158	0.040
-200.333	-125.312	-0.391	0.059
-199.319	-200.000	0.044	-0.390
-198.304	353.350	-0.034	-0.066
-197.290	800.000	0.066	-0.283
-196.275	-142.514	0.177	-0.017
-195.260	-196.247	-0.198	-0.001
-194.246	69.983	-0.181	0.184
-193.231	64.222	0.206	0.205
-192.217	-8.439	-0.160	-0.106
-191.202	16.568	0.159	-0.124
-190.187	-141.572	-0.188	0.019
-189.173	126.835	-0.299	0.375
-188.158	398.850	-0.176	-0.364
-187.144	127.323	-0.193	-0.242
-186.129	800.000	0.061	0.191
-185.114	-200.000	0.005	0.088
-184.100	129.895	0.176	0.222
-183.085	56.706	0.097	-0.093
-182.071	426.452	0.079	0.168
-181.056	-164.864	-0.319	-0.014
-180.042	122.287	-0.035	0.043
-179.027	-78.618	0.272	0.092
-178.012	-7.082	-0.135	0.091
-176.998	-18.707	0.120	0.074
-175.983	800.000	-0.103	-0.326
-174.969	128.798	-0.141	0.177
-173.954	3.295	0.053	-0.038
-172.939	-11.745	0.128	0.083
-171.925	-103.903	0.118	-0.027
-170.910	-200.000	-0.052	0.442
-169.896	108.291	-0.239	0.282
-168.881	8.293	0.170	0.126
-167.866	48.315	-0.106	0.098
-166.852	146.480	-0.159	0.211
-165.837	7.118	-0.185	0.136
-164.823	660.776	-0.035	0.088
-163.808	21.251	0.133	-0.107
-162.793	105.960	0.300	0.350
-161.779	-200.000	0.029	-0.209
-160.764	-45.401	-0.222	0.109
-159.750	104.073	0.027	0.032
-158.735	-90.274	0.195	-0.056
-157.720	102.096	-0.242	-0.279
-156.706	-200.000	-0.051	-0.230
-155.691	78.181	0.268	0.282
-154.677	-200.000	0.011	-0.200
-153.662	-10.030	-0.099	-0.065
-152.647	347.593	-0.158	-0.306
-151.633	-129.694	-0.366	0.050
-150.618	52.246	0.094	0.088
-149.604	-33.855	0.209	-0.113
-148.589	496.960	-0.066	-0.150
-147.574	-200.000	0.021	-0.244
-146.560	132.013	0.083	-0.106
-145.545	390.536	0.118	-0.241
-144.531	800.000	0.038	0.165
-143.516	800.000	-0.048	-0.155
-142.502	-115.089	0.258	-0.048
-141.487	800.000	-0.029	0.079
-140.472	32.693	0.105	0.090
-139.458	398.831	-0.095	-0.196
-138.443	-98.304	0.181	0.046
-137.429	-200.000	-0.014	0.089
-136.414	11.241	0.084	-0.064
-135.399	641.213	0.088	-0.221
-134.385	295.184	-0.044	-0.079
-133.370	-200.000	0.006	0.146
-132.356	37.327	-0.193	0.169
-131.341	-200.000	0.066	0.323
-130.326	134.710	0.259	0.331
-129.312	-200.000	-0.018	0.339
-128.297	-63.823	0.212	-0.086
-127.283	-13.003	-0.063	0.040
-126.268	-124.807	-0.168	0.026
-125.253	-164.015	-0.360	0.016
-124.239	800.000	-0.036	0.101
-123.224	-80.641	-0.226	-0.074
-122.210	141.621	0.207	-0.270
-121.195	-200.000	0.023	0.222
-120.180	354.895	0.075	-0.147
