DTS Sentinel unit serial number:	SN413079Multiplexer serial number:	ORYXHardware model number:	OX4-SRSoftware version number:	ORYX F/W v4.00 Oryx Data Collector v3.7.2.0data status	okinstallation	princeton_trtdifferential loss correction	single-endedforward channel	channel 1reverse channel	N/Adate	2019/09/16time	02:22:35forward acquisition time	60.00reverse acquisition time	0.00gamma	496.2192k internal	0.2331k external	0.2331temperature offset calibration	0.9976default loss term (dB/km)	0.3790temperature slope calibration	1.0000multiplexer offset coefficient	1.0000multiplexer slope coefficient	1.0000fibre end	0.00T internal ref (°C)	27.62T ext. ref 1 (°C)	10.22T ext. ref 2 (°C)	22.62length (m)	temperature (°C)	Stokes	anti-Stokes-747.200	84.705	-0.170	-0.187
-746.185	-21.534	-0.199	0.122
-745.171	800.000	-0.016	-0.064
-744.156	522.246	-0.046	0.108
-743.142	-14.418	0.083	-0.054
-742.127	524.212	-0.110	0.260
-741.112	-0.970	-0.132	0.094
-740.098	-195.639	-0.258	0.002
-739.083	-55.994	0.326	0.146
-738.069	140.658	-0.218	0.289
-737.054	-101.064	0.251	-0.062
-736.039	-97.717	-0.312	0.081
-735.025	428.085	0.046	0.100
-734.010	152.583	-0.203	-0.279
-732.996	137.514	-0.184	0.242
-731.981	-89.140	0.110	-0.033
-730.966	-200.000	-0.042	-0.208
-729.952	800.000	0.023	-0.079
-728.937	-3.396	-0.177	0.124
-727.923	800.000	0.089	-0.336
-726.908	800.000	-0.050	-0.161
-725.894	51.236	-0.369	-0.352
-724.879	36.626	0.060	-0.053
-723.864	-122.633	0.074	0.012
-722.850	43.407	-0.306	-0.281
-721.835	-200.000	0.005	-0.108
-720.821	-75.775	-0.061	0.022
-719.806	800.000	0.011	-0.038
-718.791	107.738	0.166	-0.199
-717.777	-3.752	-0.153	0.107
-716.762	-197.132	-0.167	-0.001
-715.748	-200.000	-0.030	-0.172
-714.733	-159.480	-0.139	-0.008
-713.718	-200.000	0.008	0.182
-712.704	0.034	-0.264	0.189
-711.689	266.571	-0.118	-0.207
-710.675	196.224	0.126	-0.193
-709.660	-200.000	-0.032	0.154
-708.645	82.484	-0.132	-0.143
-707.631	373.964	0.144	-0.294
-706.616	323.823	-0.184	-0.353
-705.602	92.385	-0.200	-0.226
-704.587	-47.520	-0.252	-0.123
-703.572	800.000	0.086	0.332
-702.558	422.557	-0.213	0.459
-701.543	-200.000	0.008	-0.154
-700.529	-146.390	0.332	-0.029
-699.514	12.637	-0.122	0.095
-698.499	-91.272	-0.178	-0.051
-697.485	226.811	-0.180	-0.294
-696.470	-153.083	-0.168	0.012
-695.456	-54.258	-0.247	-0.113
-694.441	-31.630	0.213	-0.120
-693.426	-72.117	-0.175	0.065
-692.412	306.133	0.145	-0.270
-691.397	327.882	0.134	0.258
-690.383	-70.521	-0.246	0.093
-689.368	-200.000	0.022	0.454
-688.354	48.008	-0.190	0.179
-687.339	93.065	-0.102	0.116
-686.324	-122.711	0.136	0.022
-685.310	-109.433	0.212	-0.045
-684.295	665.278	0.049	0.127
-683.281	-39.855	-0.085	-0.045
-682.266	289.383	-0.056	-0.101
-681.251	-200.000	0.092	0.439
-680.237	-58.062	0.179	0.078
-679.222	-200.000	-0.024	-0.113
-678.208	-69.799	-0.369	-0.141
-677.193	-200.000	-0.056	0.446
-676.178	107.863	0.361	-0.432
-675.164	183.089	-0.073	0.108
-674.149	800.000	-0.058	-0.178
-673.135	85.571	-0.209	-0.231
-672.120	-76.466	-0.417	0.147
-671.105	-59.195	0.179	0.077
-670.091	-125.081	-0.169	0.026
-669.076	164.767	0.117	0.165
-668.062	54.384	0.121	0.117
-667.047	5.048	-0.105	0.078
-666.032	-25.787	0.031	0.018
-665.018	800.000	0.068	0.300
-664.003	102.657	0.316	0.371
-662.989	-200.000	-0.031	-0.251
-661.974	-28.864	-0.209	-0.121
-660.959	-133.796	-0.147	0.018
-659.945	580.748	-0.094	0.231
-658.930	-200.000	-0.016	-0.121
-657.916	800.000	-0.028	-0.092
-656.901	800.000	0.067	0.266
-655.886	-62.683	-0.202	-0.084
-654.872	-200.000	-0.035	-0.173
-653.857	114.365	0.085	-0.103
-652.843	59.507	-0.096	-0.095
-651.828	-200.000	0.048	-0.226
-650.814	584.707	0.138	0.341
-649.799	341.188	-0.191	-0.375
-648.784	-127.092	-0.294	-0.043
-647.770	-5.555	0.128	-0.088
-646.755	38.659	-0.342	-0.306
-645.741	606.851	-0.019	-0.048
-644.726	-59.962	0.174	0.074
-643.711	170.808	-0.235	-0.338
-642.697	121.900	-0.090	-0.113
-641.682	-161.013	0.481	-0.025
-640.668	164.537	0.012	-0.017
-639.653	-102.575	0.022	0.005
-638.638	366.843	-0.052	-0.106
-637.624	-200.000	-0.027	-0.622
-636.609	-77.650	0.383	0.133
-635.595	-66.633	0.055	-0.022
-634.580	-200.000	0.008	0.060
-633.565	-200.000	0.002	-0.053
-632.551	-31.220	-0.009	-0.005
-631.536	-73.389	-0.113	-0.041
-630.522	697.302	0.077	0.202
-629.507	167.381	0.044	0.062
-628.492	-165.916	-0.260	-0.011
-627.478	-200.000	0.017	0.271
-626.463	625.374	0.087	-0.221
-625.449	-89.561	-0.165	-0.049
-624.434	99.398	-0.131	0.152
-623.419	-131.387	-0.075	-0.010
-622.405	-73.868	-0.314	-0.114
-621.390	-84.109	0.165	-0.052
-620.376	-200.000	-0.006	-0.146
-619.361	-51.999	0.267	-0.124
-618.346	-143.360	-0.114	0.011
-617.332	-120.372	0.524	-0.089
-616.317	133.577	0.006	-0.007
-615.303	-200.000	0.009	-0.169
-614.288	-14.802	0.032	-0.021
-613.273	-50.669	0.109	0.051
-612.259	-117.076	-0.145	-0.026
-611.244	568.168	0.104	-0.254
-610.230	-128.301	0.237	0.034
-609.215	-42.186	-0.056	-0.029
-608.201	223.480	0.105	0.170
-607.186	118.937	0.084	-0.104
-606.171	-156.414	0.321	-0.020
-605.157	390.559	0.108	-0.225
-604.142	197.302	-0.118	0.180
-603.128	-200.000	-0.013	0.065
-602.113	800.000	-0.061	-0.182
-601.098	800.000	-0.139	-0.464
-600.084	279.531	0.162	-0.290
-599.069	457.877	0.066	-0.146
-598.055	-118.143	0.298	0.053
-597.040	-85.931	-0.208	-0.064
-596.025	-42.398	0.159	-0.081
-595.011	473.719	0.135	-0.305
-593.996	800.000	0.071	0.260
-592.982	-103.041	0.346	0.082
-591.967	-200.000	0.039	-0.313
-590.952	-8.402	-0.048	0.032
-589.938	-160.914	0.176	-0.009
-588.923	-106.715	-0.039	0.009
-587.909	166.927	-0.144	-0.204
-586.894	46.327	-0.197	-0.182
-585.879	6.162	0.130	-0.096
-584.865	253.426	0.105	0.179
-583.850	757.544	-0.156	0.422
-582.836	-200.000	-0.026	-0.200
-581.821	-200.000	0.025	0.148
-580.806	-200.000	0.001	-0.055
-579.792	127.420	-0.147	-0.187
-578.777	-117.908	0.241	-0.043
-577.763	-140.161	-0.189	-0.020
-576.748	-84.197	-0.319	0.101
-575.733	204.569	-0.036	0.056
-574.719	800.000	-0.113	-0.377
-573.704	-66.012	-0.392	-0.157
-572.690	22.521	-0.101	-0.083
-571.675	-53.245	0.016	-0.007
-570.661	37.267	0.229	-0.203
-569.646	800.000	-0.040	-0.125
-568.631	-200.000	-0.026	0.132
-567.617	-69.651	0.258	0.099
-566.602	66.522	-0.083	0.085
-565.588	800.000	0.012	-0.035
-564.573	-180.736	-0.238	0.005
-563.558	800.000	-0.153	-0.427
-562.544	-200.000	0.011	-0.070
-561.529	-179.167	0.138	0.003
-560.515	-13.546	0.095	0.062
-559.500	122.228	-0.151	0.188
-558.485	19.181	-0.320	-0.257
-557.471	-44.357	-0.181	-0.090
-556.456	-8.068	0.245	0.165
-555.442	26.488	-0.238	0.199
-554.427	800.000	0.012	0.034
-553.412	168.813	-0.252	0.359
-552.398	150.959	-0.170	0.230
-551.383	287.994	0.109	-0.197
-550.369	-154.436	0.168	0.011
-549.354	-21.401	0.294	0.179
-548.339	-93.683	0.239	0.066
-547.325	-98.834	-0.020	0.005
-546.310	73.491	-0.163	0.171
-545.296	268.161	-0.117	0.205
-544.281	-154.312	-0.165	0.011
-543.266	83.559	-0.063	-0.069
-542.252	753.391	-0.058	0.156
-541.237	468.162	-0.179	-0.402
-540.223	-29.143	-0.177	0.101
-539.208	-176.081	0.047	-0.001
-538.193	591.919	0.054	-0.133
-537.179	-18.364	0.047	-0.029
-536.164	408.984	0.057	-0.121
-535.150	22.201	0.234	-0.191
-534.135	28.530	-0.296	-0.250
-533.121	20.289	-0.082	0.066
-532.106	-129.258	0.387	0.054
-531.091	-200.000	-0.006	-0.055
-530.077	-116.000	-0.116	0.022
-529.062	51.624	0.100	0.095
-528.048	196.185	0.141	-0.214
-527.033	78.746	-0.063	-0.067
-526.018	-200.000	0.031	-0.298
-525.004	733.765	-0.126	-0.336
-523.989	-200.000	0.016	-0.320
-522.975	-200.000	-0.025	0.260
-521.960	165.133	-0.148	0.209
-520.945	-11.276	-0.048	0.032
-519.931	118.229	0.086	0.106
-518.916	-200.000	0.019	-0.169
-517.902	-55.960	-0.577	-0.257
-516.887	144.593	-0.154	-0.206
-515.872	-200.000	-0.027	-0.167
-514.858	-91.826	0.143	-0.041
-513.843	225.706	0.040	0.065
-512.829	71.318	0.203	0.210
-511.814	-110.847	-0.261	-0.054
-510.799	-5.999	-0.266	0.181
-509.785	154.473	-0.219	0.300
-508.770	183.171	-0.146	0.215
-507.756	800.000	0.013	0.054
-506.741	-122.328	-0.107	-0.017
-505.726	-115.597	0.372	0.070
-504.712	-30.093	-0.063	0.036
-503.697	-200.000	-0.026	0.330
-502.683	-69.251	0.176	0.067
-501.668	18.735	0.170	0.136
-500.653	236.091	-0.120	0.197
-499.639	800.000	0.071	-0.207
-498.624	153.303	-0.124	-0.169
-497.610	106.472	-0.129	0.153
-496.595	320.454	-0.072	-0.137
-495.581	18.270	-0.202	-0.161
-494.566	-200.000	0.072	-0.324
-493.551	-138.038	-0.426	-0.047
-492.537	800.000	-0.032	-0.102
-491.522	-200.000	-0.018	-0.223
-490.508	800.000	-0.041	0.124
-489.493	800.000	0.043	-0.138
-488.478	43.181	0.147	-0.134
-487.464	-71.256	0.188	-0.070
-486.449	-200.000	-0.055	0.283
-485.435	800.000	0.007	-0.025
-484.420	800.000	-0.052	-0.213
-483.405	-67.485	0.622	-0.243
-482.391	-118.435	-0.201	0.035
-481.376	-39.879	-0.084	-0.044
-480.362	74.805	-0.251	0.264
-479.347	116.267	-0.269	-0.329
-478.332	800.000	-0.087	0.247
-477.318	437.565	-0.138	0.301
-476.303	30.059	-0.061	-0.051
-475.289	191.186	-0.144	0.216
-474.274	5.490	0.110	0.081
-473.259	-200.000	0.015	-0.072
-472.245	585.821	-0.068	0.166
-471.230	221.560	0.177	0.283
-470.216	-107.593	0.423	0.092
-469.201	80.942	-0.224	0.241
-468.186	-128.293	-0.191	0.027
-467.172	61.731	0.067	-0.066
-466.157	7.859	0.130	0.097
-465.143	-86.011	0.126	-0.039
-464.128	497.141	0.102	0.235
-463.113	-87.856	0.163	0.049
-462.099	-119.659	0.158	0.027
-461.084	-200.000	0.027	0.283
-460.070	-119.722	-0.061	0.010
-459.055	-13.141	0.408	-0.264
-458.040	-48.170	-0.266	-0.128
-457.026	-200.000	-0.048	0.234
-456.011	-160.436	0.188	0.010
-454.997	-119.684	-0.041	0.007
-453.982	99.311	0.084	0.097
-452.968	-58.904	-0.225	0.097
-451.953	-147.283	0.041	-0.003
-450.938	401.169	-0.166	-0.347
-449.924	109.110	-0.066	-0.079
-448.909	800.000	0.077	0.264
-447.895	65.383	0.221	0.223
-446.880	-200.000	0.064	0.436
-445.865	-107.617	0.403	-0.088
-444.851	-89.920	0.113	-0.033
-443.836	-107.456	-0.451	0.098
-442.822	800.000	0.070	0.243
-441.807	-31.247	-0.397	0.222
-440.792	281.975	0.063	0.113
-439.778	53.389	-0.130	0.124
-438.763	-120.226	-0.203	0.034
-437.749	238.664	0.094	0.155
-436.734	82.096	-0.031	0.033
-435.719	-200.000	0.037	0.241
-434.705	213.870	0.120	0.189
-433.690	-149.687	-0.464	0.036
-432.676	173.771	0.156	0.224
-431.661	320.215	0.144	-0.272
-430.646	123.903	0.027	0.033
-429.632	800.000	0.025	-0.097
-428.617	-131.405	-0.157	0.021
-427.603	-97.458	0.126	0.032
-426.588	276.434	0.063	0.111
-425.573	-200.000	0.018	0.247
-424.559	-200.000	0.017	0.123
-423.544	81.853	0.117	-0.126
-422.530	800.000	-0.050	0.142
-421.515	321.332	0.019	-0.036
-420.500	98.275	-0.158	-0.180
-419.486	75.990	0.149	-0.156
-418.471	379.447	-0.176	-0.359
-417.457	97.313	-0.133	-0.151
-416.442	140.141	-0.115	0.151
-415.428	8.044	0.305	0.228
-414.413	-200.000	-0.042	0.296
-413.398	110.330	0.135	-0.161
-412.384	-64.335	-0.168	0.068
-411.369	-163.635	0.351	0.016
-410.355	62.466	-0.189	0.187
-409.340	42.492	0.122	0.111
-408.325	152.369	-0.204	-0.277
-407.311	-200.000	-0.025	0.113
-406.296	-75.777	-0.385	0.136
-405.282	-16.158	-0.197	-0.124
-404.267	126.641	0.273	-0.343
-403.252	800.000	0.035	0.138
-402.238	-93.973	-0.259	0.071
-401.223	80.123	-0.148	-0.158
-400.209	-200.000	0.050	-0.238
-399.194	70.040	-0.163	0.167
-398.179	88.179	-0.268	-0.295
-397.165	56.636	-0.271	0.262
-396.150	-72.935	-0.113	-0.041
-395.136	285.259	0.026	-0.047
-394.121	659.553	-0.101	0.259
-393.106	200.074	-0.149	0.227
-392.092	-200.000	-0.079	0.381
-391.077	-126.178	0.217	0.032
-390.063	-80.156	0.112	0.037
-389.048	800.000	-0.034	0.130
-388.033	-100.773	-0.185	0.045
-387.019	378.209	-0.021	0.043
-386.004	75.961	-0.174	0.183
-384.990	-200.000	-0.014	0.140
-383.975	119.581	0.171	0.210
-382.960	-200.000	0.017	-0.297
-381.946	-16.998	0.162	0.101
-380.931	-163.467	-0.481	0.023
-379.917	306.736	0.115	0.212
-378.902	214.245	0.197	0.309
-377.888	-5.574	-0.164	-0.111
-376.873	-123.287	-0.076	-0.012
-375.858	-10.711	0.115	-0.076
-374.844	-45.615	0.259	0.127
-373.829	18.143	-0.316	0.250
-372.815	510.965	0.086	-0.198
-371.800	-200.000	-0.023	-0.296
-370.785	-6.535	0.147	0.099
-369.771	800.000	-0.069	0.202
-368.756	-54.443	-0.159	0.071
-367.742	-200.000	-0.043	0.308
-366.727	153.047	0.148	0.200
-365.712	-200.000	-0.032	0.310
-364.698	114.192	-0.236	-0.285
-363.683	-1.007	-0.235	-0.165
-362.669	83.088	0.060	-0.065
-361.654	-77.363	-0.073	0.025
-360.639	524.670	0.065	0.152
-359.625	342.201	0.137	-0.266
-358.610	-93.335	-0.278	0.076
-357.596	-200.000	-0.036	0.272
-356.581	302.602	-0.060	0.110
-355.566	-200.000	0.001	0.056
-354.552	-5.812	-0.272	0.185
-353.537	279.157	0.037	-0.066
-352.523	-40.054	0.296	-0.153
-351.508	-110.981	-0.131	0.027
-350.493	-95.691	0.308	0.082
-349.479	758.358	-0.181	0.486
-348.464	800.000	-0.041	-0.164
-347.450	90.277	-0.168	-0.186
-346.435	541.390	0.100	-0.235
-345.420	-51.752	0.162	-0.075
-344.406	-108.239	-0.213	-0.046
-343.391	40.931	-0.205	-0.184
-342.377	800.000	-0.081	0.316
-341.362	-200.000	0.011	0.121
-340.348	-42.091	-0.117	0.059
-339.333	253.341	-0.072	0.122
-338.318	74.727	0.314	0.327
-337.304	2.577	-0.124	-0.089
-336.289	-200.000	-0.015	-0.248
-335.275	-200.000	-0.030	0.169
-334.260	-200.000	-0.017	-0.142
-333.245	3.189	0.192	-0.138
-332.231	-198.265	-0.303	0.002
-331.216	-200.000	-0.009	-0.138
-330.202	61.678	0.047	0.046
-329.187	-200.000	0.004	0.136
-328.172	-46.205	-0.089	0.043
-327.158	800.000	-0.058	0.229
-326.143	-38.986	0.272	-0.142
-325.129	-200.000	-0.025	0.360
-324.114	-149.515	-0.315	-0.025
-323.099	-115.743	0.201	-0.037
-322.085	42.067	0.181	0.162
-321.070	800.000	0.086	0.246
-320.056	-196.812	0.234	-0.002
-319.041	-70.431	0.248	-0.093
-318.026	-200.000	0.037	-0.205
-317.012	-200.000	0.060	-0.290
-315.997	-71.589	-0.263	0.097
-314.983	800.000	-0.068	-0.227
-313.968	113.229	0.165	-0.198
-312.953	41.653	-0.110	0.099
-311.939	-95.041	-0.316	-0.084
-310.924	94.591	0.055	0.062
-309.910	-62.850	-0.110	0.045
-308.895	266.579	-0.071	-0.123
-307.880	-1.649	0.328	0.229
-306.866	273.831	0.076	0.134
-305.851	-200.000	0.004	0.296
-304.837	527.305	0.118	-0.275
-303.822	-54.352	0.189	-0.085
-302.807	49.147	0.170	-0.158
-301.793	800.000	0.075	0.315
-300.778	-200.000	0.026	-0.206
-299.764	309.620	0.151	-0.279
-298.749	-53.634	0.253	0.114
-297.735	-179.316	0.104	-0.002
-296.720	4.630	0.140	-0.102
-295.705	-89.384	-0.255	0.074
-294.691	-92.105	-0.244	-0.068
-293.676	523.887	-0.063	-0.146
-292.662	406.469	0.101	0.210
-291.647	-66.822	0.156	-0.061
-290.632	-2.513	0.127	-0.088
-289.618	296.385	0.190	0.344
-288.603	-105.248	-0.319	-0.072
-287.589	94.169	0.065	-0.072
-286.574	-9.378	0.065	-0.043
-285.559	-186.942	0.235	0.003
-284.545	454.090	0.092	-0.201
-283.530	-103.004	0.358	0.084
-282.516	103.257	-0.183	-0.212
-281.501	23.759	-0.176	-0.143
-280.486	171.730	0.127	-0.180
-279.472	141.845	-0.128	-0.167
-278.457	-200.000	-0.014	0.313
-277.443	-80.224	0.095	0.031
-276.428	36.046	-0.212	-0.184
-275.413	-23.613	0.267	-0.158
-274.399	-200.000	0.023	-0.415
-273.384	800.000	0.052	-0.185
-272.370	-200.000	0.008	0.273
-271.355	-96.458	0.175	-0.046
-270.340	205.380	-0.119	-0.183
-269.326	40.438	0.303	-0.270
-268.311	331.349	0.062	0.118
-267.297	-200.000	-0.005	-0.055
-266.282	-14.172	0.194	0.123
-265.267	-200.000	-0.011	0.054
-264.253	246.474	0.173	0.289
-263.238	-88.730	0.153	-0.045
-262.224	-200.000	0.055	-0.264
-261.209	800.000	-0.129	-0.405
-260.195	-200.000	-0.040	0.242
-259.180	79.829	-0.137	0.145
-258.165	90.181	0.296	0.327
-257.151	800.000	-0.055	0.191
-256.136	-100.076	-0.145	-0.036
-255.122	-200.000	-0.012	-0.131
-254.107	300.347	0.103	-0.187
-253.092	-121.090	0.118	-0.019
-252.078	800.000	-0.058	0.181
-251.063	-200.000	0.013	0.120
-250.049	-200.000	0.056	0.318
-249.034	81.914	-0.223	-0.238
-248.019	-200.000	0.053	-0.499
-247.005	-19.008	0.186	0.114
-245.990	79.690	-0.108	-0.115
-244.976	112.780	0.109	-0.130
-243.961	-83.924	-0.042	0.013
-242.946	-101.958	0.307	0.073
-241.932	147.081	0.265	0.352
-240.917	-200.000	-0.547	-0.002
-239.903	-88.786	0.109	-0.032
-238.888	-200.000	0.011	-0.224
-237.873	9.180	0.253	-0.189
-236.859	9.467	-0.198	-0.148
-235.844	58.319	-0.138	-0.134
-234.830	-32.747	0.219	0.120
-233.815	51.544	0.018	0.017
-232.800	-200.000	0.049	-0.249
-231.786	-47.891	0.279	0.133
-230.771	-66.670	0.376	0.147
-229.757	-200.000	0.007	0.079
-228.742	104.020	-0.154	-0.179
-227.727	449.955	-0.170	0.370
-226.713	800.000	0.037	0.125
-225.698	-200.000	0.009	-0.332
-224.684	46.524	-0.147	-0.135
-223.669	-136.882	0.242	0.027
-222.655	-200.000	0.014	0.127
-221.640	-157.243	-0.258	0.015
-220.625	428.830	0.118	-0.252
-219.611	28.316	-0.242	0.201
-218.596	-200.000	-0.027	0.155
-217.582	22.084	-0.187	0.151
-216.567	31.596	-0.073	-0.062
-215.552	800.000	0.033	-0.102
-214.538	650.656	-0.130	-0.328
-213.523	213.531	0.077	-0.119
-212.509	56.219	0.110	0.105
-211.494	186.824	0.136	-0.200
-210.479	276.407	-0.068	0.119
-209.465	800.000	-0.080	0.239
-208.450	213.443	-0.194	-0.301
-207.436	-25.460	0.224	0.130
-206.421	800.000	-0.099	0.347
-205.406	-118.829	0.372	-0.064
-204.392	479.288	-0.066	-0.148
-203.377	37.893	0.091	0.080
-202.363	800.000	-0.120	0.399
-201.348	800.000	0.156	0.556
-200.333	111.574	0.157	-0.186
-199.319	-200.000	-0.001	-0.149
-198.304	419.649	-0.084	-0.178
-197.290	106.031	0.131	-0.152
-196.275	56.856	0.070	-0.067
-195.260	-200.000	0.011	-0.313
-194.246	444.931	0.072	-0.156
-193.231	353.301	0.079	-0.154
-192.217	-56.539	0.418	0.182
-191.202	-200.000	-0.004	-0.441
-190.187	-200.000	-0.004	0.080
-189.173	336.742	0.121	-0.231
-188.158	-110.300	0.273	-0.056
-187.144	780.412	-0.070	0.189
-186.129	800.000	0.137	0.386
-185.114	-90.646	0.232	-0.066
-184.100	800.000	-0.079	-0.218
-183.085	-200.000	-0.024	-0.368
-182.071	721.673	0.083	-0.217
-181.056	206.413	-0.103	-0.158
-180.042	317.032	-0.080	-0.149
-179.027	484.744	0.038	0.085
-178.012	235.871	0.064	-0.104
-176.998	123.893	-0.363	0.448
-175.983	-96.427	-0.081	0.021
-174.969	23.894	-0.051	-0.041
-173.954	124.728	0.132	0.164
-172.939	-200.000	-0.112	0.485
-171.925	699.915	-0.049	0.127
-170.910	-3.582	-0.211	0.144
-169.896	207.187	0.206	-0.317
-168.881	630.843	0.006	0.015
-167.866	606.150	-0.163	0.401
-166.852	-66.368	0.297	-0.116
-165.837	-200.000	0.042	0.386
-164.823	-94.656	-0.203	0.054
-163.808	-73.384	0.200	-0.072
-162.793	800.000	0.044	0.185
-161.779	-200.000	0.000	-0.199
-160.764	-200.000	0.077	0.395
-159.750	-47.051	-0.179	-0.086
-158.735	-200.000	0.002	-0.042
-157.720	126.603	0.060	0.075
-156.706	-98.659	0.357	0.089
-155.691	-119.469	-0.097	0.017
-154.677	87.166	0.142	0.155
-153.662	206.619	-0.245	-0.376
-152.647	169.051	-0.104	0.146
-151.633	-136.371	-0.361	0.041
-150.618	14.484	0.539	-0.414
-149.604	87.601	0.162	0.176
-148.589	136.730	-0.132	0.170
-147.574	-60.857	0.347	0.144
-146.560	414.907	0.022	0.047
-145.545	-146.599	-0.060	0.005
-144.531	201.823	0.435	0.660
-143.516	62.702	0.190	-0.187
-142.502	-168.378	-0.099	-0.004
-141.487	-35.230	-0.176	0.094
-140.472	-152.373	0.031	0.002
-139.458	127.109	0.182	0.227
-138.443	-5.260	0.400	-0.270
-137.429	35.527	0.081	0.070
-136.414	783.217	0.079	0.214
-135.399	111.385	0.113	-0.133
-134.385	-200.000	0.058	0.408
-133.370	580.946	-0.014	-0.033
-132.356	-94.572	-0.026	-0.007
-131.341	-200.000	-0.006	-0.108
-130.326	333.454	0.119	-0.225
-129.312	-19.976	0.101	-0.062
-128.297	-85.709	0.437	0.133
-127.283	-200.000	0.011	-0.055
-126.268	-3.463	-0.359	-0.245
-125.253	-200.000	0.017	0.169
-124.239	-67.966	-0.277	-0.106
-123.224	-73.583	-0.099	0.035
-122.210	316.300	0.101	-0.188
-121.195	87.029	-0.174	-0.189
