DTS Sentinel unit serial number:	SN413079Multiplexer serial number:	ORYXHardware model number:	OX4-SRSoftware version number:	ORYX F/W v4.00 Oryx Data Collector v3.7.2.0data status	okinstallation	princeton_trtdifferential loss correction	single-endedforward channel	channel 1reverse channel	N/Adate	2019/09/16time	06:54:35forward acquisition time	60.00reverse acquisition time	0.00gamma	496.2192k internal	0.2331k external	0.2331temperature offset calibration	0.9982default loss term (dB/km)	0.3790temperature slope calibration	1.0000multiplexer offset coefficient	1.0000multiplexer slope coefficient	1.0000fibre end	0.00T internal ref (°C)	27.37T ext. ref 1 (°C)	11.47T ext. ref 2 (°C)	21.76length (m)	temperature (°C)	Stokes	anti-Stokes-747.200	533.695	0.021	0.050
-746.185	-200.000	0.002	-0.250
-745.171	-28.364	-0.276	-0.160
-744.156	800.000	0.079	0.220
-743.142	800.000	0.061	0.244
-742.127	-3.522	-0.237	0.166
-741.112	612.917	-0.041	0.103
-740.098	-12.045	0.200	0.132
-739.083	62.241	0.154	0.154
-738.069	132.412	0.154	0.199
-737.054	-102.295	-0.177	-0.043
-736.039	800.000	-0.151	-0.505
-735.025	312.152	-0.063	-0.119
-734.010	-98.061	-0.295	0.077
-732.996	-101.928	-0.090	0.022
-731.981	29.904	0.337	0.289
-730.966	63.167	-0.220	0.222
-729.952	-92.803	-0.080	-0.023
-728.937	-44.561	-0.253	0.127
-727.923	-112.675	0.245	-0.049
-726.908	-54.788	-0.334	-0.152
-725.894	-200.000	-0.037	-0.237
-724.879	25.501	-0.137	0.115
-723.864	-20.682	-0.041	-0.025
-722.850	561.696	-0.085	0.208
-721.835	800.000	0.022	-0.063
-720.821	108.176	0.205	-0.246
-719.806	231.518	0.086	-0.141
-718.791	97.464	-0.054	0.063
-717.777	-10.219	0.106	0.071
-716.762	-200.000	0.026	-0.212
-715.748	199.541	-0.084	-0.129
-714.733	800.000	0.074	0.277
-713.718	-113.296	0.124	0.024
-712.704	-8.918	-0.022	-0.015
-711.689	-194.747	0.106	0.001
-710.675	13.471	0.159	-0.124
-709.660	126.789	-0.217	0.277
-708.645	252.647	0.101	0.174
-707.631	-63.870	-0.116	-0.048
-706.616	-10.573	-0.348	-0.231
-705.602	-200.000	-0.001	0.225
-704.587	426.567	0.108	0.235
-703.572	586.608	0.048	0.120
-702.558	-52.504	-0.403	-0.187
-701.543	330.456	-0.186	-0.360
-700.529	-200.000	-0.018	0.157
-699.514	-117.128	0.360	-0.066
-698.499	200.376	0.158	-0.244
-697.485	800.000	-0.006	-0.021
-696.470	238.779	0.212	0.354
-695.456	-59.851	0.121	-0.052
-694.441	-122.684	-0.080	-0.013
-693.426	-74.289	0.190	-0.069
-692.412	167.642	0.046	0.065
-691.397	10.256	-0.207	0.158
-690.383	-5.308	0.096	-0.066
-689.368	16.012	-0.117	-0.093
-688.354	464.354	0.051	0.115
-687.339	339.028	0.098	0.191
-686.324	397.436	0.076	-0.160
-685.310	-67.118	0.121	0.048
-684.295	-12.880	-0.099	-0.064
-683.281	-155.160	-0.223	-0.015
-682.266	-39.664	-0.263	-0.138
-681.251	-71.201	-0.192	0.073
-680.237	-32.906	0.125	0.070
-679.222	-200.000	0.013	0.084
-678.208	512.609	0.165	-0.386
-677.193	-198.446	-0.275	0.002
-676.178	504.922	0.113	0.262
-675.164	800.000	-0.006	0.020
-674.149	-61.492	0.266	0.112
-673.135	572.527	0.026	0.064
-672.120	-200.000	0.008	-0.199
-671.105	752.430	0.045	-0.122
-670.091	800.000	-0.023	-0.065
-669.076	157.931	0.162	0.226
-668.062	-200.000	0.006	-0.065
-667.047	-75.882	-0.116	-0.041
-666.032	-200.000	0.035	-0.231
-665.018	159.695	0.272	-0.380
-664.003	-130.320	-0.136	-0.019
-662.989	138.125	0.020	-0.026
-661.974	256.694	-0.112	-0.193
-660.959	-200.000	-0.023	-0.304
-659.945	800.000	0.046	0.162
-658.930	-83.553	-0.208	0.067
-657.916	-200.000	-0.003	0.208
-656.901	-115.902	-0.413	0.077
-655.886	-115.766	0.024	0.004
-654.872	-200.000	-0.029	-0.131
-653.857	-150.305	-0.312	0.024
-652.843	107.125	0.252	-0.300
-651.828	132.880	-0.290	0.375
-650.814	65.115	0.271	-0.275
-649.799	-22.090	-0.155	0.094
-648.784	-27.279	0.327	0.191
-647.770	-86.841	-0.352	0.108
-646.755	-79.053	0.179	-0.061
-645.741	9.014	-0.207	0.156
-644.726	-200.000	-0.014	-0.189
-643.711	229.727	0.127	-0.208
-642.697	30.452	-0.107	0.091
-641.682	112.421	-0.079	0.095
-640.668	-200.000	-0.003	-0.034
-639.653	75.761	0.108	0.115
-638.638	-200.000	-0.001	0.074
-637.624	566.754	-0.108	0.263
-636.609	464.493	0.149	0.333
-635.595	-151.687	-0.074	0.005
-634.580	-102.638	0.197	0.047
-633.565	100.368	0.071	0.083
-632.551	-200.000	0.045	0.333
-631.536	38.417	0.104	0.093
-630.522	-129.435	-0.343	-0.048
-629.507	-200.000	0.001	0.135
-628.492	-18.315	0.203	-0.127
-627.478	306.941	-0.124	0.231
-626.463	558.401	-0.042	0.101
-625.449	89.364	-0.232	-0.259
-624.434	204.999	0.175	-0.272
-623.419	68.239	-0.199	0.204
-622.405	3.331	0.202	-0.147
-621.390	65.924	0.120	-0.121
-620.376	-147.770	-0.171	0.014
-619.361	-200.000	0.006	0.229
-618.346	-12.026	-0.090	0.059
-617.332	11.960	-0.062	-0.048
-616.317	800.000	-0.077	0.226
-615.303	800.000	-0.105	0.401
-614.288	-200.000	0.218	-0.000
-613.273	-39.311	-0.307	0.161
-612.259	352.105	0.145	0.287
-611.244	-28.686	0.165	0.095
-610.230	68.871	0.117	-0.120
-609.215	-162.931	-0.297	-0.014
-608.201	263.202	0.019	0.034
-607.186	65.429	-0.242	-0.245
-606.171	-150.611	0.122	0.009
-605.157	-103.753	-0.318	-0.075
-604.142	-200.000	0.054	-0.309
-603.128	127.847	-0.082	0.104
-602.113	-200.000	0.033	0.206
-601.098	456.181	-0.120	0.266
-600.084	768.152	-0.079	-0.215
-599.069	265.784	-0.102	-0.178
-598.055	-86.649	0.321	0.098
-597.040	-69.550	-0.093	-0.036
-596.025	-31.721	-0.323	-0.181
-595.011	-84.449	-0.349	0.110
-593.996	326.485	-0.055	-0.105
-592.982	-60.052	0.149	-0.064
-591.967	44.330	0.177	0.163
-590.952	-200.000	0.051	0.253
-589.938	-27.329	-0.449	0.262
-588.923	-56.859	-0.125	0.055
-587.909	-21.761	0.095	0.058
-586.894	-32.650	0.108	-0.060
-585.879	322.784	-0.124	0.236
-584.865	800.000	-0.033	-0.143
-583.850	296.984	-0.147	-0.271
-582.836	-152.030	0.092	-0.007
-581.821	-200.000	0.004	-0.210
-580.806	-200.000	0.050	-0.351
-579.792	800.000	-0.047	-0.192
-578.777	103.301	-0.147	-0.173
-577.763	-56.965	0.357	0.158
-576.748	-115.736	0.340	0.064
-575.733	-143.877	-0.093	-0.009
-574.719	800.000	-0.045	-0.168
-573.704	800.000	0.003	0.009
-572.690	800.000	-0.066	-0.183
-571.675	627.044	-0.146	-0.368
-570.661	179.501	0.338	-0.495
-569.646	52.607	0.231	0.221
-568.631	-85.707	-0.458	0.142
-567.617	-50.436	-0.231	-0.109
-566.602	-200.000	0.076	-0.376
-565.588	294.708	0.086	0.157
-564.573	800.000	0.103	-0.316
-563.558	-62.191	-0.148	0.062
-562.544	-118.963	-0.191	-0.033
-561.529	141.481	0.355	0.469
-560.515	800.000	0.038	-0.106
-559.500	-55.000	0.130	-0.059
-558.485	316.431	0.077	-0.146
-557.471	269.986	0.075	0.132
-556.456	255.169	0.168	-0.287
-555.442	-3.048	0.181	-0.126
-554.427	315.284	-0.038	0.071
-553.412	-42.548	-0.202	-0.103
-552.398	131.317	0.122	0.156
-551.383	128.330	0.145	-0.184
-550.369	715.974	-0.043	-0.114
-549.354	3.327	-0.083	0.061
-548.339	-200.000	0.010	-0.045
-547.325	-200.000	-0.103	0.510
-546.310	-49.250	-0.060	0.029
-545.296	162.557	-0.127	-0.178
-544.281	305.629	-0.117	-0.217
-543.266	-200.000	-0.003	0.080
-542.252	-200.000	0.046	-0.216
-541.237	13.334	0.240	-0.186
-540.223	-77.557	-0.121	0.042
-539.208	114.248	-0.190	-0.230
-538.193	-200.000	0.043	0.274
-537.179	-119.954	-0.475	-0.081
-536.164	-158.206	0.076	0.004
-535.150	564.882	-0.102	0.246
-534.135	-112.910	0.514	0.102
-533.121	-189.225	-0.230	-0.003
-532.106	403.300	-0.023	-0.049
-531.091	-78.012	0.201	-0.069
-530.077	-200.000	0.003	0.085
-529.062	110.474	0.081	0.098
-528.048	800.000	0.068	-0.288
-527.033	121.779	0.108	0.135
-526.018	20.491	-0.162	0.130
-525.004	32.150	-0.123	0.106
-523.989	800.000	0.111	0.374
-522.975	206.485	0.062	0.096
-521.960	-55.879	0.317	0.141
-520.945	-200.000	-0.014	0.152
-519.931	150.946	-0.286	-0.388
-518.916	-200.000	0.063	0.277
-517.902	-200.000	-0.013	-0.170
-516.887	-200.000	-0.003	-0.049
-515.872	-82.636	-0.249	-0.080
-514.858	-5.116	-0.189	0.130
-513.843	800.000	-0.037	0.140
-512.829	-133.816	-0.318	0.039
-511.814	-200.000	0.028	-0.171
-510.799	669.292	0.077	-0.200
-509.785	117.179	-0.094	0.115
-508.770	6.867	0.133	-0.098
-507.756	-121.521	-0.199	0.033
-506.741	163.813	-0.208	0.291
-505.726	-43.745	-0.043	0.021
-504.712	136.091	0.117	0.152
-503.697	159.824	-0.152	-0.211
-502.683	-200.000	-0.015	0.067
-501.668	-54.502	0.116	0.053
-500.653	800.000	0.051	-0.143
-499.639	-95.729	-0.201	0.054
-498.624	-74.112	0.413	0.149
-497.610	414.943	-0.132	-0.281
-496.595	-6.059	-0.054	-0.037
-495.581	3.213	-0.295	0.214
-494.566	800.000	0.058	-0.194
-493.551	15.473	-0.161	0.126
-492.537	41.705	-0.269	-0.243
-491.522	-48.035	-0.132	0.064
-490.508	497.849	-0.072	0.165
-489.493	-65.864	-0.202	-0.081
-488.478	-64.641	-0.237	-0.096
-487.464	-200.000	-0.004	-0.215
-486.449	485.678	-0.088	0.199
-485.435	800.000	0.069	-0.191
-484.420	800.000	-0.061	-0.234
-483.405	-200.000	0.017	0.188
-482.391	-200.000	-0.121	0.000
-481.376	22.521	0.184	-0.150
-480.362	800.000	0.061	-0.197
-479.347	460.498	-0.096	-0.213
-478.332	232.959	-0.152	-0.248
-477.318	-200.000	0.191	-0.000
-476.303	53.687	0.033	0.031
-475.289	-24.421	-0.171	0.101
-474.274	-200.000	0.028	-0.270
-473.259	-200.000	-0.006	-0.060
-472.245	53.500	-0.149	-0.143
-471.230	-76.196	0.186	-0.065
-470.216	-121.967	-0.004	-0.001
-469.201	-143.420	0.276	0.026
-468.186	151.921	-0.183	-0.248
-467.172	-200.000	0.036	0.185
-466.157	800.000	0.031	-0.085
-465.143	-105.681	0.271	0.061
-464.128	-200.000	0.056	0.300
-463.113	36.880	0.003	-0.003
-462.099	703.996	0.055	0.143
-461.084	298.031	0.081	0.149
-460.070	440.401	-0.229	0.498
-459.055	-11.724	-0.127	0.083
-458.040	317.533	-0.107	-0.201
-457.026	-2.624	0.102	-0.071
-456.011	-200.000	0.005	0.104
-454.997	-82.669	0.263	0.085
-453.982	800.000	-0.066	0.203
-452.968	-50.199	-0.103	0.049
-451.953	-200.000	0.004	-0.060
-450.938	800.000	-0.066	0.233
-449.924	638.205	0.043	0.109
-448.909	800.000	-0.057	-0.235
-447.895	18.433	-0.214	-0.170
-446.880	-200.000	-0.024	0.290
-445.865	-37.074	0.323	0.172
-444.851	-103.209	0.253	-0.059
-443.836	21.238	0.186	0.151
-442.822	304.514	0.129	-0.238
-441.807	35.935	-0.154	0.135
-440.792	569.722	0.123	0.296
-439.778	-177.330	-0.208	-0.005
-438.763	446.141	-0.091	-0.199
-437.749	115.383	-0.213	-0.259
-436.734	14.711	-0.181	-0.140
-435.719	-200.000	-0.025	0.271
-434.705	-200.000	-0.013	0.153
-433.690	-127.166	0.419	0.061
-432.676	177.883	0.095	-0.138
-431.661	73.299	0.052	-0.054
-430.646	24.274	-0.101	-0.083
-429.632	465.597	0.099	-0.221
-428.617	-200.000	-0.018	-0.300
-427.603	-31.865	0.237	0.132
-426.588	-180.623	0.268	0.005
-425.573	74.022	-0.270	-0.281
-424.559	800.000	0.070	-0.250
-423.544	794.755	0.180	0.491
-422.530	226.105	0.089	0.143
-421.515	27.091	0.070	-0.058
-420.500	-47.379	0.292	-0.141
-419.486	30.661	0.077	-0.066
-418.471	-84.463	0.219	0.069
-417.457	105.990	0.206	0.242
-416.442	-110.516	0.272	0.056
-415.428	-200.000	-0.015	0.249
-414.413	-66.723	0.345	0.136
-413.398	-200.000	0.011	0.175
-412.384	-200.000	0.081	0.525
-411.369	174.692	-0.169	-0.243
-410.355	-34.183	-0.370	-0.202
-409.340	-138.416	-0.211	-0.023
-408.325	-59.776	-0.163	0.069
-407.311	0.065	0.284	-0.201
-406.296	800.000	0.111	0.355
-405.282	-116.865	0.348	0.063
-404.267	-182.001	-0.278	-0.005
-403.252	-190.599	0.190	0.002
-402.238	575.149	0.095	-0.229
-401.223	-159.419	-0.186	-0.010
-400.209	63.243	0.288	-0.286
-399.194	-200.000	0.015	-0.162
-398.179	-101.730	0.582	0.140
-397.165	-131.953	-0.399	-0.052
-396.150	731.346	0.128	-0.340
-395.136	-106.553	-0.200	-0.044
-394.121	42.442	-0.255	-0.230
-393.106	-77.778	-0.129	0.044
-392.092	-200.000	-0.010	-0.091
-391.077	233.021	0.232	0.379
-390.063	-56.911	-0.117	0.051
-389.048	-200.000	-0.066	-0.439
-388.033	-55.369	0.162	0.072
-387.019	133.801	-0.209	-0.269
-386.004	-200.000	0.107	0.471
-384.990	122.720	0.116	-0.144
-383.975	-122.528	-0.187	-0.030
-382.960	-115.833	0.078	0.014
-381.946	261.260	-0.112	-0.192
-380.931	434.448	0.061	0.131
-379.917	158.337	-0.099	0.137
-378.902	116.768	-0.140	0.170
-377.888	104.816	-0.142	0.167
-376.873	10.631	0.091	0.069
-375.858	87.963	0.048	0.053
-374.844	-200.000	0.017	-0.384
-373.829	-177.985	0.168	0.004
-372.815	-200.000	0.014	-0.302
-371.800	66.158	-0.122	0.123
-370.785	-200.000	0.035	-0.344
-369.771	212.473	-0.130	0.203
-368.756	-95.732	-0.103	0.027
-367.742	405.245	0.088	-0.184
-366.727	524.317	-0.083	-0.194
-365.712	-200.000	-0.023	0.233
-364.698	650.249	0.114	0.289
-363.683	-200.000	-0.016	-0.121
-362.669	800.000	0.048	-0.182
-361.654	38.167	-0.161	0.142
-360.639	468.153	-0.107	-0.239
-359.625	-54.521	-0.204	-0.092
-358.610	346.898	0.107	-0.208
-357.596	21.759	0.196	0.158
-356.581	0.132	-0.237	0.168
-355.566	-126.125	-0.242	0.036
-354.552	800.000	0.081	-0.283
-353.537	-200.000	-0.081	0.375
-352.523	159.084	0.010	0.013
-351.508	-152.254	-0.135	-0.010
-350.493	-200.000	-0.250	0.000
-349.479	473.939	0.075	-0.168
-348.464	712.513	0.066	0.173
-347.450	-15.526	0.069	-0.044
-346.435	800.000	-0.092	-0.344
-345.420	-13.924	-0.140	0.090
-344.406	800.000	-0.040	0.135
-343.391	-200.000	0.005	-0.104
-342.377	-91.324	-0.194	-0.055
-341.362	-200.000	0.015	0.095
-340.348	-200.000	0.006	-0.071
-339.333	568.328	0.133	0.320
-338.318	-200.000	0.016	-0.097
-337.304	800.000	-0.078	0.223
-336.289	-147.988	-0.225	0.018
-335.275	-41.035	-0.090	-0.046
-334.260	-28.790	0.161	0.092
-333.245	-19.069	-0.146	0.090
-332.231	-46.951	-0.310	-0.150
-331.216	-125.625	0.200	-0.030
-330.202	-66.579	0.035	0.014
-329.187	-47.437	-0.036	-0.017
-328.172	189.705	-0.173	-0.256
-327.158	-200.000	0.027	0.126
-326.143	19.400	-0.129	-0.102
-325.129	800.000	-0.131	-0.391
-324.114	800.000	-0.027	-0.077
-323.099	-200.000	-0.009	-0.291
-322.085	-121.831	0.026	0.004
-321.070	-18.808	-0.116	-0.072
-320.056	42.563	-0.112	-0.101
-319.041	-32.841	-0.064	-0.035
-318.026	-43.696	0.097	-0.048
-317.012	-200.000	-0.036	-0.174
-315.997	447.919	-0.052	0.113
-314.983	-200.000	0.012	-0.057
-313.968	5.963	0.147	0.108
-312.953	800.000	-0.045	-0.141
-311.939	-148.704	-0.056	-0.005
-310.924	-128.839	-0.184	0.026
-309.910	-200.000	-0.011	0.120
-308.895	-106.907	0.298	-0.065
-307.880	-41.878	-0.251	-0.127
-306.866	38.300	-0.298	-0.263
-305.851	358.816	0.076	0.150
-304.837	459.564	0.110	-0.243
-303.822	264.763	-0.188	-0.325
-302.807	402.439	0.074	0.154
-301.793	115.838	0.176	-0.213
-300.778	26.442	0.005	-0.004
-299.764	-104.023	-0.169	0.039
-298.749	240.404	0.133	0.218
-297.735	-21.164	-0.241	0.146
-296.720	-12.874	0.121	0.078
-295.705	183.159	-0.125	0.182
-294.691	63.383	0.256	-0.254
-293.676	16.494	0.104	0.081
-292.662	800.000	0.143	0.429
-291.647	457.198	-0.071	0.155
-290.632	136.658	0.251	-0.324
-289.618	-49.046	-0.348	-0.165
-288.603	-17.712	0.206	-0.128
-287.589	-13.672	0.248	0.159
-286.574	-56.453	-0.147	0.065
-285.559	800.000	0.093	0.368
-284.545	750.899	-0.058	0.155
-283.530	-32.974	0.168	0.092
-282.516	118.045	-0.101	-0.124
-281.501	698.462	-0.116	-0.301
-280.486	-200.000	-0.005	-0.117
-279.472	-139.640	0.277	-0.029
-278.457	-122.353	0.273	-0.044
-277.443	70.128	-0.207	0.211
-276.428	-53.805	0.182	0.082
-275.413	-102.707	0.161	-0.038
-274.399	-200.000	0.051	-0.316
-273.384	-200.000	0.050	-0.367
-272.370	800.000	-0.064	-0.253
-271.355	-92.936	-0.189	0.052
-270.340	-44.189	0.168	0.083
-269.326	646.769	0.041	-0.104
-268.311	-130.014	-0.109	-0.015
-267.297	-163.165	0.071	0.003
-266.282	-200.000	-0.005	0.058
-265.267	-79.885	-0.317	-0.105
-264.253	290.918	0.198	0.355
-263.238	-63.003	0.271	-0.110
-262.224	-112.627	-0.354	-0.070
-261.209	58.697	-0.085	-0.083
-260.195	-113.462	0.253	-0.049
-259.180	-132.523	0.301	0.038
-258.165	125.123	-0.079	-0.098
-257.151	-43.036	0.102	0.051
-256.136	-200.000	-0.022	0.131
-255.122	800.000	0.045	-0.143
-254.107	5.263	0.139	-0.101
-253.092	-200.000	-0.016	-0.337
-252.078	-158.553	-0.315	0.018
-251.063	-200.000	-0.038	-0.312
-250.049	-200.000	-0.008	-0.123
-249.034	144.691	0.189	0.249
-248.019	-121.033	0.084	-0.014
-247.005	800.000	0.045	0.147
-245.990	428.861	-0.076	0.163
-244.976	-6.860	-0.260	0.174
-243.961	-200.000	0.037	0.190
-242.946	800.000	-0.077	-0.261
-241.932	-105.032	-0.278	-0.063
-240.917	800.000	0.099	-0.387
-239.903	800.000	0.028	0.101
-238.888	-133.309	-0.225	-0.028
-237.873	167.513	0.245	0.343
-236.859	-200.000	-0.014	-0.231
-235.844	800.000	-0.103	-0.376
-234.830	159.296	0.177	0.243
-233.815	172.064	0.123	-0.175
-232.800	-27.916	0.194	0.111
-231.786	716.704	-0.199	-0.521
-230.771	-55.747	-0.369	0.162
-229.757	-200.000	-0.039	0.180
-228.742	-67.593	-0.338	0.131
-227.727	764.016	0.066	0.176
-226.713	-200.000	-0.076	0.355
-225.698	-54.358	0.211	-0.095
-224.684	116.843	-0.146	0.177
-223.669	-200.000	-0.090	0.618
-222.655	567.344	0.167	0.399
-221.640	-13.972	0.167	0.106
-220.625	-43.631	0.291	0.145
-219.611	-29.077	0.286	0.162
-218.596	-131.381	0.109	0.014
-217.582	183.453	0.090	0.132
-216.567	-200.000	0.023	-0.169
-215.552	800.000	-0.079	-0.257
-214.538	-200.000	-0.017	-0.281
-213.523	137.328	0.172	-0.221
-212.509	-36.296	0.225	-0.120
-211.494	-126.692	-0.116	0.017
-210.479	231.342	0.153	-0.247
-209.465	-118.892	-0.168	0.029
-208.450	-200.000	-0.006	-0.214
-207.436	-75.164	-0.205	0.072
-206.421	800.000	-0.027	0.080
-205.406	-51.222	-0.080	0.037
-204.392	702.039	-0.047	0.121
-203.377	423.901	0.059	0.126
-202.363	800.000	0.134	0.479
-201.348	-64.204	0.186	-0.075
-200.333	-66.764	-0.250	0.097
-199.319	-200.000	0.017	-0.184
-198.304	17.089	-0.194	0.152
-197.290	-200.000	-0.010	0.183
-196.275	15.871	0.270	0.210
-195.260	-200.000	-0.004	-0.030
-194.246	-107.728	0.306	0.066
-193.231	2.846	-0.131	-0.093
-192.217	-60.346	-0.052	-0.022
-191.202	107.068	-0.096	0.112
-190.187	49.244	0.173	0.160
-189.173	-200.000	-0.032	0.146
-188.158	18.588	0.164	-0.129
-187.144	-200.000	-0.018	-0.224
-186.129	144.985	-0.123	-0.162
-185.114	-200.000	0.031	-0.176
-184.100	300.517	-0.077	-0.139
-183.085	-200.000	-0.037	0.209
-182.071	-200.000	-0.002	-0.030
-181.056	90.317	0.230	-0.253
-180.042	800.000	-0.112	-0.352
-179.027	202.872	-0.038	0.058
-178.012	-120.309	0.367	0.062
-176.998	787.028	-0.051	0.138
-175.983	2.477	-0.156	-0.111
-174.969	-83.991	0.194	0.061
-173.954	154.773	-0.066	0.089
-172.939	-25.618	0.255	0.148
-171.925	-84.523	0.242	-0.075
-170.910	581.700	0.065	-0.156
-169.896	126.454	0.081	0.101
-168.881	57.939	-0.203	0.196
-167.866	-200.000	-0.044	-0.246
-166.852	775.391	0.071	0.190
-165.837	-6.129	0.111	0.074
-164.823	36.542	0.177	0.153
-163.808	800.000	0.053	-0.151
-162.793	-121.352	0.096	-0.016
-161.779	181.641	0.228	0.330
-160.764	41.024	-0.144	0.128
-159.750	-200.000	-0.005	-0.046
-158.735	-200.000	0.090	0.389
-157.720	106.380	-0.034	-0.039
-156.706	-66.037	0.057	-0.022
-155.691	35.614	0.396	0.342
-154.677	285.924	0.192	-0.340
-153.662	42.518	0.087	0.078
-152.647	-14.185	-0.086	-0.055
-151.633	-200.000	-0.033	0.200
-150.618	-91.589	-0.193	-0.054
-149.604	-130.394	0.128	0.017
-148.589	-13.262	-0.110	0.070
-147.574	-200.000	-0.086	-0.411
-146.560	-200.000	-0.013	-0.225
-145.545	182.641	-0.108	0.156
-144.531	-74.890	0.239	0.084
-143.516	800.000	-0.075	0.271
-142.502	-45.303	0.117	0.057
-141.487	-97.840	-0.287	0.073
-140.472	148.559	0.098	0.130
-139.458	82.815	-0.012	-0.013
-138.443	-76.792	-0.299	-0.103
-137.429	-130.110	0.152	-0.020
-136.414	-53.343	0.131	-0.059
-135.399	-12.598	0.324	0.208
-134.385	38.991	0.081	-0.071
-133.370	-20.876	-0.099	0.059
-132.356	326.238	0.184	-0.346
-131.341	59.713	0.121	-0.117
-130.326	129.957	-0.195	-0.245
-129.312	800.000	-0.045	-0.162
-128.297	253.484	-0.195	0.327
-127.283	-17.915	-0.213	0.131
-126.268	405.000	-0.109	-0.225
-125.253	315.818	-0.141	0.262
-124.239	800.000	0.098	0.309
-123.224	94.684	-0.024	0.027
-122.210	127.548	0.076	-0.095
