DTS Sentinel unit serial number:	SN413079Multiplexer serial number:	ORYXHardware model number:	OX4-SRSoftware version number:	ORYX F/W v4.00 Oryx Data Collector v3.7.2.0data status	okinstallation	princeton_trtdifferential loss correction	single-endedforward channel	channel 1reverse channel	N/Adate	2019/09/18time	09:50:35forward acquisition time	60.00reverse acquisition time	0.00gamma	496.2192k internal	0.2332k external	0.2332temperature offset calibration	0.9971default loss term (dB/km)	0.3790temperature slope calibration	1.0000multiplexer offset coefficient	1.0000multiplexer slope coefficient	1.0000fibre end	0.00T internal ref (°C)	27.09T ext. ref 1 (°C)	0.29T ext. ref 2 (°C)	23.74length (m)	temperature (°C)	Stokes	anti-Stokes-747.200	-33.970	0.283	-0.157
-746.185	-200.000	0.089	0.474
-745.171	102.860	-0.141	0.166
-744.156	647.555	0.040	0.104
-743.142	205.770	0.273	0.427
-742.127	519.443	0.044	0.103
-741.112	-59.702	-0.132	0.057
-740.098	57.896	0.124	0.123
-739.083	73.967	-0.167	-0.177
-738.069	-26.611	-0.170	-0.100
-737.054	47.024	-0.113	0.106
-736.039	223.312	-0.203	-0.330
-735.025	-200.000	0.056	0.291
-734.010	5.586	-0.218	0.162
-732.996	168.253	-0.212	0.303
-731.981	277.765	-0.072	0.129
-730.966	173.967	-0.189	-0.274
-729.952	104.713	-0.222	-0.263
-728.937	-200.000	-0.017	0.333
-727.923	-41.210	-0.312	0.162
-726.908	-66.141	-0.062	0.025
-725.894	512.361	0.166	0.389
-724.879	-0.481	-0.312	-0.223
-723.864	73.186	0.179	-0.188
-722.850	155.831	-0.186	-0.257
-721.835	-200.000	0.001	-0.141
-720.821	116.308	-0.024	0.030
-719.806	-88.106	0.101	0.030
-718.791	222.782	-0.107	0.173
-717.777	112.908	0.073	-0.089
-716.762	-200.000	0.007	0.287
-715.748	30.620	0.136	-0.117
-714.733	-43.928	-0.357	-0.180
-713.718	42.216	0.073	0.067
-712.704	20.624	-0.171	-0.139
-711.689	-200.000	0.026	-0.155
-710.675	-200.000	0.063	-0.381
-709.660	-200.000	0.026	-0.188
-708.645	6.757	-0.360	-0.269
-707.631	-43.249	-0.208	-0.106
-706.616	-200.000	-0.003	-0.054
-705.602	1.734	0.159	0.115
-704.587	23.436	-0.173	-0.143
-703.572	69.222	0.192	-0.198
-702.558	101.517	-0.179	-0.209
-701.543	-132.025	0.495	-0.065
-700.529	-17.560	-0.249	0.157
-699.514	1.505	0.130	-0.094
-698.499	25.344	0.058	-0.049
-697.485	-200.000	-0.023	0.149
-696.470	10.325	0.124	0.094
-695.456	16.807	0.202	0.160
-694.441	123.952	-0.077	0.097
-693.426	-47.746	-0.035	-0.017
-692.412	-200.000	0.027	0.228
-691.397	800.000	0.116	0.364
-690.383	-200.000	0.036	-0.182
-689.368	-8.191	0.207	-0.140
-688.354	800.000	-0.012	-0.048
-687.339	800.000	-0.075	-0.249
-686.324	800.000	0.020	-0.085
-685.310	-131.225	-0.257	-0.034
-684.295	-7.395	-0.080	-0.054
-683.281	215.807	-0.065	-0.104
-682.266	-5.019	-0.063	-0.044
-681.251	280.464	0.045	-0.081
-680.237	-15.574	-0.229	-0.147
-679.222	608.963	-0.084	-0.210
-678.208	-82.044	-0.171	-0.056
-677.193	-41.025	-0.128	-0.066
-676.178	142.019	-0.085	-0.114
-675.164	248.642	0.067	0.113
-674.149	800.000	-0.062	-0.191
-673.135	-200.000	-0.049	-0.259
-672.120	77.175	-0.220	-0.234
-671.105	-149.713	0.265	-0.021
-670.091	52.658	-0.321	-0.308
-669.076	800.000	0.111	-0.317
-668.062	-112.177	-0.084	0.017
-667.047	162.743	-0.087	0.122
-666.032	54.450	0.107	0.103
-665.018	596.509	-0.039	0.096
-664.003	-200.000	-0.074	-0.339
-662.989	52.164	0.068	-0.065
-661.974	112.304	-0.129	-0.157
-660.959	-129.396	-0.141	0.020
-659.945	-21.015	0.451	0.277
-658.930	-179.175	0.006	-0.000
-657.916	-106.852	-0.233	0.052
-656.901	348.513	0.101	-0.201
-655.886	-200.000	-0.180	-0.000
-654.872	-200.000	-0.078	0.364
-653.857	-25.067	-0.164	-0.097
-652.843	800.000	-0.131	-0.519
-651.828	-98.247	0.230	0.059
-650.814	-100.571	0.107	-0.027
-649.799	320.972	0.147	-0.279
-648.784	-132.419	-0.106	0.014
-647.770	-195.334	0.185	0.001
-646.755	-129.159	0.199	0.028
-645.741	-78.041	-0.182	-0.063
-644.726	31.380	0.248	0.213
-643.711	-5.481	0.051	-0.035
-642.697	-4.225	-0.292	-0.203
-641.682	73.046	-0.251	0.263
-640.668	272.926	-0.028	-0.050
-639.653	338.480	-0.073	-0.142
-638.638	800.000	-0.039	-0.164
-637.624	-129.387	-0.401	0.056
-636.609	-67.233	-0.240	-0.095
-635.595	-122.246	0.309	0.051
-634.580	-177.641	-0.060	-0.001
-633.565	102.594	0.058	-0.068
-632.551	63.694	0.192	-0.193
-631.536	-37.155	0.151	0.081
-630.522	-95.133	0.096	-0.026
-629.507	564.928	0.147	-0.358
-628.492	211.960	0.027	-0.043
-627.478	-200.000	-0.047	-0.233
-626.463	456.158	0.141	-0.313
-625.449	-200.000	0.064	-0.314
-624.434	364.864	-0.068	0.136
-623.419	26.020	-0.143	-0.120
-622.405	-26.751	-0.273	-0.160
-621.390	-127.784	-0.144	0.021
-620.376	-150.156	-0.270	0.021
-619.361	251.887	-0.123	0.209
-618.346	-52.494	0.152	0.070
-617.332	-137.941	-0.095	-0.011
-616.317	336.716	-0.007	0.014
-615.303	-148.578	-0.282	0.023
-614.288	-141.699	-0.214	-0.022
-613.273	-73.412	0.204	0.075
-612.259	50.562	0.193	0.183
-611.244	800.000	0.045	-0.161
-610.230	-14.992	-0.050	-0.032
-609.215	334.564	-0.071	0.137
-608.201	49.118	0.192	-0.181
-607.186	800.000	0.029	0.091
-606.171	-200.000	-0.055	0.427
-605.157	-200.000	0.019	-0.120
-604.142	-184.414	0.256	0.004
-603.128	-200.000	0.002	0.041
-602.113	80.621	-0.093	0.101
-601.098	800.000	-0.098	-0.297
-600.084	-46.899	0.347	-0.170
-599.069	-200.000	-0.011	0.074
-598.055	150.006	-0.199	0.271
-597.040	-12.968	-0.116	0.075
-596.025	794.471	0.107	0.296
-595.011	420.707	-0.119	0.256
-593.996	-171.014	-0.218	-0.007
-592.982	-40.875	-0.199	-0.103
-591.967	129.647	-0.167	-0.213
-590.952	79.290	-0.153	-0.164
-589.938	-96.723	-0.282	-0.074
-588.923	51.712	-0.273	-0.260
-587.909	-67.826	-0.098	0.038
-586.894	41.771	-0.142	-0.129
-585.879	48.357	-0.192	0.180
-584.865	-73.858	0.250	0.091
-583.850	800.000	-0.035	0.150
-582.836	-109.002	-0.174	-0.037
-581.821	147.762	-0.076	-0.103
-580.806	415.872	-0.135	0.287
-579.792	14.157	0.226	0.176
-578.777	-82.523	0.058	0.019
-577.763	800.000	-0.031	0.124
-576.748	-129.947	-0.112	0.015
-575.733	-103.075	0.184	0.044
-574.719	0.394	-0.266	0.190
-573.704	-88.748	-0.145	0.043
-572.690	-39.289	0.097	0.051
-571.675	-124.338	-0.135	0.021
-570.661	-0.919	-0.078	0.055
-569.646	-100.026	-0.110	0.027
-568.631	83.902	-0.174	-0.190
-567.617	-124.138	-0.138	-0.022
-566.602	251.788	0.147	-0.250
-565.588	121.118	-0.150	0.187
-564.573	142.078	-0.034	-0.045
-563.558	-200.000	0.013	0.197
-562.544	364.873	-0.051	-0.103
-561.529	727.304	-0.076	-0.202
-560.515	16.632	0.156	-0.123
-559.500	-47.762	0.206	0.100
-558.485	7.223	0.231	0.172
-557.471	-172.302	-0.041	-0.001
-556.456	16.130	-0.162	-0.127
-555.442	708.151	-0.061	-0.161
-554.427	600.588	0.041	0.102
-553.412	800.000	0.079	0.258
-552.398	86.137	0.237	0.260
-551.383	-200.000	-0.016	0.211
-550.369	19.203	0.070	0.056
-549.354	-98.908	-0.057	-0.015
-548.339	-200.000	-0.009	-0.340
-547.325	-164.282	-0.331	0.015
-546.310	800.000	0.044	-0.130
-545.296	-84.332	-0.178	0.056
-544.281	570.339	0.086	-0.209
-543.266	339.165	0.147	-0.285
-542.252	501.008	0.066	-0.151
-541.237	-200.000	0.010	-0.363
-540.223	136.149	-0.211	-0.275
-539.208	105.359	0.184	0.216
-538.193	-121.353	0.212	-0.035
-537.179	-35.474	-0.263	-0.142
-536.164	-100.974	-0.362	0.089
-535.150	-30.036	-0.162	-0.092
-534.135	289.186	-0.060	0.109
-533.121	-114.487	-0.395	0.076
-532.106	52.893	-0.189	0.180
-531.091	800.000	0.046	-0.195
-530.077	-150.532	0.296	0.023
-529.062	-200.000	0.045	-0.237
-528.048	-200.000	0.024	-0.155
-527.033	-179.861	-0.374	-0.008
-526.018	185.199	-0.148	-0.219
-525.004	3.968	-0.121	0.088
-523.989	-11.241	0.222	0.146
-522.975	-200.000	0.016	-0.236
-521.960	-31.757	-0.194	0.108
-520.945	-103.296	0.217	-0.051
-519.931	102.217	-0.033	0.039
-518.916	210.934	-0.012	-0.019
-517.902	54.338	0.377	-0.362
-516.887	-200.000	0.004	0.043
-515.872	131.995	-0.258	0.332
-514.858	800.000	-0.089	-0.280
-513.843	-200.000	0.046	0.408
-512.829	-125.669	-0.303	0.046
-511.814	800.000	-0.096	-0.280
-510.799	-200.000	-0.049	-0.283
-509.785	124.348	-0.079	-0.099
-508.770	-84.025	0.053	0.017
-507.756	800.000	0.032	-0.103
-506.741	186.091	0.140	0.207
-505.726	-67.422	-0.088	0.035
-504.712	800.000	0.039	0.108
-503.697	132.808	0.252	0.324
-502.683	180.506	-0.132	0.194
-501.668	450.901	-0.046	0.102
-500.653	-164.321	-0.023	0.001
-499.639	-105.408	0.345	-0.078
-498.624	132.466	-0.048	-0.062
-497.610	-200.000	-0.058	0.286
-496.595	-130.410	-0.310	0.042
-495.581	428.130	0.055	0.118
-494.566	-128.686	0.226	-0.032
-493.551	-103.719	-0.272	-0.064
-492.537	46.213	0.305	0.281
-491.522	-74.669	0.146	0.052
-490.508	-1.140	-0.191	-0.134
-489.493	375.305	-0.116	-0.235
-488.478	309.527	0.271	-0.505
-487.464	209.416	-0.227	-0.355
-486.449	-70.880	-0.349	-0.131
-485.435	16.255	0.178	-0.140
-484.420	-200.000	-0.030	0.225
-483.405	-200.000	-0.041	-0.247
-482.391	-166.065	-0.144	0.006
-481.376	-123.191	-0.160	0.026
-480.362	-124.523	0.193	0.030
-479.347	-200.000	-0.002	-0.182
-478.332	800.000	0.040	0.111
-477.318	800.000	0.036	-0.109
-476.303	-200.000	-0.024	-0.264
-475.289	-200.000	-0.044	0.300
-474.274	-200.000	0.055	-0.312
-473.259	53.936	0.168	-0.161
-472.245	-151.003	-0.162	-0.012
-471.230	-5.944	-0.288	-0.196
-470.216	426.198	0.271	0.581
-469.201	-12.711	-0.047	0.030
-468.186	166.096	0.275	0.387
-467.172	800.000	0.049	-0.200
-466.157	-200.000	-0.021	0.218
-465.143	-200.000	0.008	-0.392
-464.128	-200.000	0.012	0.101
-463.113	-40.854	0.218	0.112
-462.099	714.194	-0.135	0.356
-461.084	30.813	-0.124	0.105
-460.070	-30.061	-0.096	0.054
-459.055	152.077	0.122	0.165
-458.040	-79.588	0.314	-0.105
-457.026	50.049	0.175	-0.164
-456.011	-200.000	-0.001	0.186
-454.997	-200.000	0.028	0.261
-453.982	-200.000	0.016	0.249
-452.968	462.675	0.045	0.100
-451.953	-42.490	-0.448	0.227
-450.938	514.592	-0.218	0.507
-449.924	616.443	0.152	-0.379
-448.909	-84.984	-0.283	0.088
-447.895	-200.000	0.052	0.273
-446.880	154.441	0.159	-0.217
-445.865	-118.779	0.083	-0.015
-444.851	320.717	-0.087	0.164
-443.836	-34.679	-0.409	0.222
-442.822	-23.593	0.079	-0.047
-441.807	800.000	-0.024	0.074
-440.792	800.000	-0.126	-0.471
-439.778	800.000	-0.048	-0.177
-438.763	-200.000	-0.029	-0.154
-437.749	-200.000	-0.005	-0.082
-436.734	457.079	-0.045	-0.099
-435.719	-160.567	0.489	-0.026
-434.705	39.633	-0.260	0.232
-433.690	356.713	0.096	-0.189
-432.676	-71.838	0.145	-0.054
-431.661	186.848	0.149	-0.220
-430.646	-200.000	-0.002	-0.034
-429.632	52.405	-0.060	0.057
-428.617	298.520	-0.172	0.315
-427.603	-189.011	0.147	-0.002
-426.588	-60.028	0.273	0.116
-425.573	-46.300	0.183	-0.090
-424.559	23.564	-0.200	-0.164
-423.544	-200.000	-0.058	-0.339
-422.530	800.000	0.038	-0.110
-421.515	-200.000	0.001	0.245
-420.500	95.890	-0.096	-0.109
-419.486	64.819	0.161	-0.161
-418.471	-29.874	0.361	-0.205
-417.457	57.840	0.123	-0.119
-416.442	-7.202	-0.251	0.169
-415.428	-101.312	0.268	-0.065
-414.413	30.067	-0.190	0.161
-413.398	-69.455	-0.167	0.064
-412.384	319.203	-0.145	-0.273
-411.369	6.783	-0.294	0.218
-410.355	-200.000	0.034	0.597
-409.340	-200.000	-0.050	0.251
-408.325	-200.000	0.057	-0.326
-407.311	5.000	0.293	-0.214
-406.296	-108.782	-0.180	-0.038
-405.282	443.418	-0.033	-0.071
-404.267	-83.105	0.232	-0.074
-403.252	-36.288	0.230	-0.123
-402.238	-200.000	0.017	0.213
-401.223	-66.674	-0.325	0.128
-400.209	-182.180	-0.293	-0.005
-399.194	800.000	0.042	-0.135
-398.179	-130.440	0.101	0.014
-397.165	168.557	0.147	0.208
-396.150	-42.772	-0.246	0.124
-395.136	89.122	-0.146	0.161
-394.121	800.000	-0.033	0.133
-393.106	-47.308	0.209	-0.101
-392.092	-19.491	-0.274	-0.168
-391.077	800.000	-0.026	-0.114
-390.063	130.606	0.202	0.257
-389.048	-7.719	-0.142	-0.095
-388.033	-58.909	-0.063	0.027
-387.019	-172.128	0.088	-0.003
-386.004	65.951	0.138	0.139
-384.990	84.040	-0.251	-0.271
-383.975	800.000	0.092	-0.274
-382.960	800.000	-0.013	0.057
-381.946	-200.000	0.038	0.334
-380.931	-200.000	0.006	-0.150
-379.917	715.918	-0.137	-0.361
-378.902	254.369	-0.036	0.061
-377.888	392.032	0.061	0.126
-376.873	91.462	0.115	-0.129
-375.858	-153.947	0.274	-0.019
-374.844	395.379	0.150	0.309
-373.829	606.682	0.051	0.126
-372.815	-200.000	-0.006	-0.083
-371.800	-189.629	0.191	-0.002
-370.785	-42.623	0.057	-0.029
-369.771	350.266	0.072	-0.141
-368.756	-25.613	0.264	0.155
-367.742	-150.095	-0.203	0.016
-366.727	763.631	0.187	-0.502
-365.712	-167.389	0.260	-0.010
-364.698	66.852	0.157	-0.159
-363.683	800.000	-0.051	0.207
-362.669	164.629	0.111	-0.155
-361.654	-200.000	0.128	0.000
-360.639	-117.593	-0.284	-0.051
-359.625	-28.431	0.090	0.052
-358.610	-31.602	-0.191	-0.106
-357.596	73.446	-0.053	-0.055
-356.581	-67.482	0.244	-0.095
-355.566	546.795	0.081	0.192
-354.552	-80.289	0.412	0.136
-353.537	489.173	-0.166	0.376
-352.523	-108.520	0.112	0.024
-351.508	13.460	-0.205	0.158
-350.493	39.329	-0.058	-0.051
-349.479	4.246	0.113	0.082
-348.464	-133.866	-0.187	-0.023
-347.450	55.981	0.141	-0.135
-346.435	474.137	-0.111	-0.248
-345.420	-123.553	0.404	-0.064
-344.406	-35.531	0.091	0.049
-343.391	-123.761	0.048	-0.008
-342.377	123.351	-0.188	-0.234
-341.362	751.832	0.030	-0.079
-340.348	-63.268	-0.140	-0.057
-339.333	105.088	0.196	0.229
-338.318	-200.000	0.051	-0.261
-337.304	321.916	-0.170	-0.321
-336.289	-200.000	-0.006	-0.145
-335.275	-200.000	-0.002	0.307
-334.260	800.000	0.066	0.251
-333.245	-106.128	0.138	-0.031
-332.231	-200.000	0.017	0.324
-331.216	-83.037	-0.053	0.017
-330.202	37.141	-0.058	-0.051
-329.187	-26.679	0.245	-0.142
-328.172	-105.525	-0.207	-0.047
-327.158	129.297	0.213	-0.270
-326.143	378.449	0.093	-0.188
-325.129	145.050	-0.140	0.186
-324.114	-200.000	0.008	-0.054
-323.099	97.822	0.029	0.033
-322.085	52.632	-0.152	0.143
-321.070	-91.337	-0.165	-0.047
-320.056	-155.764	0.251	0.016
-319.041	-17.391	0.347	0.216
-318.026	49.984	0.152	0.142
-317.012	-92.244	-0.106	-0.030
-315.997	-112.411	-0.100	0.020
-314.983	-82.182	0.272	-0.088
-313.968	2.363	-0.259	0.185
-312.953	-2.296	0.083	-0.058
-311.939	129.864	0.049	0.062
-310.924	41.633	-0.122	0.109
-309.910	-31.120	-0.120	0.067
-308.895	-200.000	0.011	0.192
-307.880	41.888	0.005	-0.004
-306.866	-53.655	0.083	0.038
-305.851	-200.000	-0.046	0.312
-304.837	-53.751	0.277	-0.125
-303.822	-174.202	-0.099	0.003
-302.807	122.096	0.141	-0.174
-301.793	-63.117	0.237	-0.097
-300.778	-31.712	-0.144	0.080
-299.764	-102.444	-0.248	0.059
-298.749	-200.000	0.012	0.198
-297.735	719.031	-0.088	0.231
-296.720	39.275	-0.235	0.208
-295.705	-21.923	0.248	-0.149
-294.691	-119.657	-0.028	-0.005
-293.676	-124.230	0.082	-0.013
-292.662	291.763	0.078	0.140
-291.647	-81.325	0.125	0.041
-290.632	179.475	-0.180	-0.261
-289.618	45.966	-0.047	0.043
-288.603	416.593	0.039	-0.082
-287.589	25.105	-0.216	0.177
-286.574	-8.918	0.230	0.152
-285.559	-23.439	0.226	-0.134
-284.545	6.036	0.073	-0.053
-283.530	-200.000	-0.078	-0.395
-282.516	800.000	0.053	-0.194
-281.501	-120.000	-0.266	0.045
-280.486	386.682	0.133	-0.271
-279.472	-200.000	-0.047	0.205
-278.457	-97.231	0.072	-0.019
-277.443	-166.391	-0.125	-0.005
-276.428	-200.000	-0.014	-0.197
-275.413	-76.160	0.127	0.044
-274.399	-200.000	-0.062	0.288
-273.384	800.000	0.115	-0.316
-272.370	-200.000	-0.012	-0.129
-271.355	180.337	0.164	0.238
-270.340	-114.906	0.190	-0.036
-269.326	-121.097	0.095	0.016
-268.311	20.558	-0.311	0.248
-267.297	-7.351	0.178	0.119
-266.282	-138.440	0.260	-0.028
-265.267	-144.772	-0.202	0.018
-264.253	-130.946	-0.285	-0.038
-263.238	95.950	-0.122	-0.137
-262.224	221.661	-0.057	0.090
-261.209	-200.000	-0.004	0.166
-260.195	-200.000	0.024	0.229
-259.180	672.323	0.020	0.051
-258.165	-189.476	0.237	0.003
-257.151	-14.195	-0.109	-0.069
-256.136	634.934	0.062	-0.155
-255.122	-59.938	0.262	0.111
-254.107	800.000	0.079	0.215
-253.092	-137.220	0.189	0.021
-252.078	-154.509	0.363	0.024
-251.063	-70.856	0.133	0.050
-250.049	261.372	0.055	-0.095
-249.034	-147.175	-0.598	0.050
-248.019	-45.918	0.228	-0.111
-247.005	-200.000	0.032	-0.315
-245.990	97.222	-0.101	0.114
-244.976	-54.688	-0.182	-0.081
-243.961	-71.421	-0.152	0.056
-242.946	130.110	0.228	-0.288
-241.932	109.787	0.047	-0.056
-240.917	-86.848	0.121	-0.037
-239.903	-200.000	0.006	-0.054
-238.888	-55.584	-0.309	0.137
-237.873	68.731	-0.268	-0.271
-236.859	800.000	0.124	0.416
-235.844	800.000	0.038	0.140
-234.830	-143.640	-0.295	0.028
-233.815	-200.000	-0.044	-0.270
-232.800	-200.000	0.013	-0.356
-231.786	-200.000	0.015	-0.176
-230.771	11.003	0.270	0.203
-229.757	507.596	-0.019	0.043
-228.742	-93.611	0.147	-0.040
-227.727	-143.269	0.272	0.026
-226.713	-80.091	-0.222	0.074
-225.698	-126.286	-0.119	0.018
-224.684	6.957	0.053	0.039
-223.669	7.446	-0.331	-0.244
-222.655	-200.000	-0.023	0.160
-221.640	25.815	-0.086	0.070
-220.625	-73.309	-0.090	0.032
-219.611	557.026	0.047	-0.111
-218.596	74.996	0.039	0.040
-217.582	-145.316	-0.358	-0.032
-216.567	-200.000	0.008	0.069
-215.552	298.202	-0.132	0.240
-214.538	53.232	0.184	-0.173
-213.523	-81.855	-0.076	-0.024
-212.509	-8.226	-0.187	-0.124
-211.494	-49.334	-0.200	-0.094
-210.479	-98.915	0.224	0.056
-209.465	278.979	0.390	0.685
-208.450	12.465	0.200	-0.152
-207.436	800.000	-0.129	0.409
-206.421	-76.890	0.043	-0.015
-205.406	63.025	-0.177	0.174
-204.392	-151.239	0.520	0.038
-203.377	-159.135	0.210	-0.012
-202.363	94.291	-0.032	0.035
-201.348	166.374	-0.091	-0.127
-200.333	89.389	0.320	0.351
-199.319	66.046	-0.229	0.229
-198.304	-68.116	-0.273	0.105
-197.290	140.956	-0.048	-0.063
-196.275	35.356	0.081	0.070
-195.260	-200.000	-0.026	-0.140
-194.246	-200.000	-0.016	0.123
-193.231	272.732	0.211	-0.368
-192.217	-185.432	-0.422	-0.006
-191.202	-136.482	0.231	-0.026
-190.187	-25.624	-0.346	-0.201
-189.173	-200.000	-0.032	-0.216
-188.158	31.356	0.132	-0.112
-187.144	-200.000	0.049	-0.220
-186.129	-32.345	0.193	0.106
-185.114	-200.000	0.101	0.479
-184.100	-7.262	-0.233	0.155
-183.085	-86.124	0.096	-0.029
-182.071	-200.000	0.065	-0.433
-181.056	23.003	0.156	0.126
-180.042	52.612	-0.218	0.205
-179.027	-127.889	0.040	0.006
-178.012	151.103	-0.063	-0.084
-176.998	800.000	0.058	0.207
-175.983	32.584	0.138	-0.118
-174.969	-200.000	-0.003	-0.146
-173.954	-200.000	0.012	-0.215
-172.939	410.404	-0.127	0.265
-171.925	78.805	0.118	-0.124
-170.910	-126.968	0.215	-0.031
-169.896	154.553	0.040	-0.054
-168.881	344.495	-0.139	-0.268
-167.866	-200.000	0.097	-0.445
-166.852	205.877	-0.120	-0.184
-165.837	52.279	-0.242	0.227
-164.823	800.000	0.079	-0.231
-163.808	-200.000	0.023	0.309
-162.793	-200.000	-0.002	0.396
-161.779	751.278	-0.037	-0.097
-160.764	291.081	0.231	0.414
-159.750	-200.000	-0.057	0.259
-158.735	-104.519	0.358	0.081
-157.720	-67.313	0.283	-0.109
-156.706	-43.367	-0.104	-0.052
-155.691	16.497	0.288	-0.224
-154.677	34.532	-0.250	0.215
-153.662	-83.777	0.426	0.134
-152.647	-159.421	-0.194	-0.011
-151.633	31.659	0.240	0.203
-150.618	-200.000	-0.044	-0.282
-149.604	-200.000	0.009	0.131
-148.589	342.277	0.090	0.174
-147.574	-25.055	0.338	-0.197
-146.560	-5.412	-0.230	0.155
-145.545	-200.000	0.007	-0.200
-144.531	-143.247	0.253	-0.024
-143.516	-104.342	0.241	-0.055
-142.502	-117.552	-0.211	-0.037
-141.487	-54.986	-0.261	0.115
-140.472	-54.890	-0.220	0.097
-139.458	-200.000	0.021	-0.103
-138.443	427.535	-0.081	-0.172
-137.429	137.587	0.022	-0.028
-136.414	-200.000	-0.036	0.184
-135.399	485.900	0.147	-0.330
-134.385	428.109	-0.177	-0.376
-133.370	41.406	-0.090	-0.080
-132.356	-60.066	-0.069	0.029
-131.341	202.186	0.107	0.162
-130.326	135.191	-0.150	0.192
-129.312	-29.999	0.135	-0.076
-128.297	-200.000	0.010	0.282
-127.283	-36.152	0.118	0.063
-126.268	-200.000	-0.031	-0.226
-125.253	800.000	0.030	0.092
-124.239	-166.479	0.125	-0.005
-123.224	18.707	0.224	0.176
-122.210	800.000	0.063	-0.189
-121.195	-8.911	-0.244	0.161
