DTS Sentinel unit serial number:	SN413079Multiplexer serial number:	ORYXHardware model number:	OX4-SRSoftware version number:	ORYX F/W v4.00 Oryx Data Collector v3.7.2.0data status	okinstallation	princeton_trtdifferential loss correction	single-endedforward channel	channel 1reverse channel	N/Adate	2019/09/18time	05:34:35forward acquisition time	60.00reverse acquisition time	0.00gamma	496.2192k internal	0.2339k external	0.2339temperature offset calibration	0.9981default loss term (dB/km)	0.3790temperature slope calibration	1.0000multiplexer offset coefficient	1.0000multiplexer slope coefficient	1.0000fibre end	0.00T internal ref (°C)	23.37T ext. ref 1 (°C)	0.19T ext. ref 2 (°C)	16.95length (m)	temperature (°C)	Stokes	anti-Stokes-747.200	130.213	0.094	-0.121
-746.185	590.960	-0.134	0.331
-745.171	800.000	-0.069	0.223
-744.156	453.604	-0.145	0.322
-743.142	-25.358	-0.233	0.138
-742.127	800.000	-0.068	0.261
-741.112	-200.000	-0.018	0.418
-740.098	-186.168	-0.224	-0.003
-739.083	119.156	-0.158	-0.195
-738.069	-144.392	0.059	0.005
-737.054	34.201	0.243	-0.213
-736.039	-50.290	-0.119	-0.056
-735.025	800.000	0.088	0.313
-734.010	-90.687	0.164	0.047
-732.996	590.698	0.102	0.253
-731.981	57.064	0.132	0.129
-730.966	-21.790	-0.174	-0.106
-729.952	87.730	-0.113	0.125
-728.937	-18.568	-0.221	-0.138
-727.923	-118.910	-0.129	0.023
-726.908	323.609	-0.094	-0.180
-725.894	286.210	-0.189	-0.343
-724.879	668.998	0.096	-0.249
-723.864	39.628	-0.267	-0.240
-722.850	136.704	0.046	-0.061
-721.835	-52.292	-0.170	0.079
-720.821	2.688	0.184	-0.133
-719.806	-200.000	0.006	0.170
-718.791	151.821	-0.094	0.129
-717.777	86.734	-0.350	-0.387
-716.762	-102.596	-0.337	0.081
-715.748	192.245	-0.096	-0.145
-714.733	-51.290	0.099	-0.047
-713.718	-126.677	0.269	-0.040
-712.704	428.275	-0.084	0.182
-711.689	135.382	-0.279	-0.363
-710.675	769.132	-0.048	0.130
-709.660	238.660	-0.127	-0.211
-708.645	-56.304	-0.108	0.048
-707.631	83.565	0.142	-0.155
-706.616	305.844	0.210	-0.390
-705.602	800.000	0.057	-0.236
-704.587	-21.395	0.104	-0.063
-703.572	-200.000	0.014	0.289
-702.558	-49.221	0.092	-0.044
-701.543	-27.920	-0.514	0.298
-700.529	286.111	-0.025	-0.046
-699.514	198.659	-0.137	-0.209
-698.499	800.000	0.026	0.080
-697.485	800.000	0.033	-0.123
-696.470	-95.154	0.228	0.062
-695.456	-37.427	-0.284	-0.152
-694.441	800.000	-0.075	-0.270
-693.426	-18.887	0.092	0.057
-692.412	221.702	0.040	0.065
-691.397	57.092	0.350	-0.342
-690.383	-200.000	0.374	0.000
-689.368	-200.000	0.034	-0.183
-688.354	800.000	0.064	0.206
-687.339	-149.334	0.171	0.014
-686.324	-106.987	0.260	0.057
-685.310	-15.064	-0.145	-0.093
-684.295	-33.078	0.126	-0.070
-683.281	41.026	0.037	-0.033
-682.266	360.477	0.043	0.087
-681.251	174.407	-0.181	-0.261
-680.237	800.000	-0.012	-0.053
-679.222	-55.047	-0.110	-0.050
-678.208	-152.978	-0.365	-0.026
-677.193	-200.000	-0.032	-0.292
-676.178	-143.538	-0.102	-0.010
-675.164	-76.841	-0.405	-0.142
-674.149	-135.030	0.224	0.027
-673.135	-59.357	-0.217	0.093
-672.120	-96.446	-0.138	-0.036
-671.105	-33.636	-0.251	-0.138
-670.091	-200.000	0.029	-0.183
-669.076	-187.837	-0.354	-0.005
-668.062	69.090	-0.024	0.025
-667.047	66.170	0.087	0.089
-666.032	-47.945	0.218	-0.105
-665.018	9.186	-0.073	0.055
-664.003	-64.086	-0.262	-0.107
-662.989	-96.069	-0.164	-0.043
-661.974	2.476	0.040	0.029
-660.959	800.000	-0.040	-0.128
-659.945	-134.064	-0.198	-0.024
-658.930	-128.183	0.221	-0.032
-657.916	-200.000	-0.004	-0.259
-656.901	-158.001	-0.229	0.013
-655.886	747.639	-0.107	0.289
-654.872	133.622	-0.120	-0.155
-653.857	-10.696	0.154	0.102
-652.843	109.963	-0.196	-0.234
-651.828	-200.000	0.230	0.001
-650.814	-200.000	-0.003	-0.051
-649.799	61.419	-0.260	0.258
-648.784	652.804	-0.088	-0.224
-647.770	717.838	0.096	-0.255
-646.755	308.617	0.066	-0.123
-645.741	59.610	0.150	0.148
-644.726	-122.193	-0.186	0.030
-643.711	-83.609	0.343	0.109
-642.697	155.647	-0.136	0.187
-641.682	800.000	-0.040	-0.130
-640.668	-200.000	-0.056	-0.290
-639.653	-156.726	-0.294	0.018
-638.638	238.878	0.254	0.421
-637.624	129.095	0.085	-0.109
-636.609	33.761	0.195	-0.170
-635.595	204.986	-0.046	0.072
-634.580	-143.883	-0.383	-0.036
-633.565	-106.099	0.311	-0.070
-632.551	-200.000	0.048	0.258
-631.536	-41.910	0.282	0.144
-630.522	-146.003	-0.255	0.023
-629.507	232.701	-0.086	0.142
-628.492	306.037	-0.132	0.245
-627.478	-36.269	-0.036	0.019
-626.463	800.000	0.023	-0.076
-625.449	381.329	-0.091	-0.186
-624.434	-183.766	-0.480	0.008
-623.419	-40.579	0.114	0.059
-622.405	-108.703	-0.129	-0.028
-621.390	171.017	-0.252	0.360
-620.376	-200.000	-0.034	0.463
-619.361	-200.000	0.032	-0.193
-618.346	71.699	-0.197	-0.204
-617.332	80.867	-0.186	-0.201
-616.317	-88.974	-0.351	0.104
-615.303	-200.000	0.015	0.283
-614.288	52.441	0.072	0.069
-613.273	800.000	0.027	-0.099
-612.259	9.310	-0.187	0.141
-611.244	584.588	0.051	0.124
-610.230	800.000	0.095	0.277
-609.215	243.094	0.120	0.201
-608.201	3.875	0.148	0.108
-607.186	-57.913	0.113	-0.049
-606.171	-93.798	-0.146	0.040
-605.157	-71.455	-0.404	-0.151
-604.142	-200.000	-0.074	0.344
-603.128	-52.469	-0.314	-0.145
-602.113	-123.169	0.185	-0.030
-601.098	-86.671	-0.164	-0.050
-600.084	-200.000	0.001	0.053
-599.069	-13.900	-0.186	0.120
-598.055	18.007	0.043	-0.034
-597.040	146.493	0.043	0.058
-596.025	238.482	0.114	-0.189
-595.011	-200.000	-0.009	-0.173
-593.996	143.723	0.098	0.131
-592.982	-200.000	0.050	-0.379
-591.967	60.292	0.260	0.257
-590.952	177.693	0.153	0.222
-589.938	-45.817	-0.268	-0.132
-588.923	-85.454	-0.505	0.157
-587.909	-22.765	-0.278	0.167
-586.894	-133.680	0.217	-0.027
-585.879	708.760	-0.075	-0.199
-584.865	-8.048	-0.227	-0.152
-583.850	86.796	0.065	-0.072
-582.836	118.560	-0.045	0.055
-581.821	-200.000	0.076	-0.431
-580.806	-200.000	-0.011	-0.482
-579.792	800.000	0.019	0.081
-578.777	800.000	0.074	0.247
-577.763	6.615	0.254	-0.188
-576.748	-155.107	0.185	0.012
-575.733	59.309	0.182	-0.178
-574.719	-77.611	-0.094	-0.033
-573.704	-40.441	-0.417	-0.216
-572.690	-117.809	0.331	-0.059
-571.675	131.299	-0.131	-0.168
-570.661	800.000	0.072	0.261
-569.646	105.852	0.007	-0.008
-568.631	-94.741	0.460	-0.124
-567.617	162.407	-0.369	-0.515
-566.602	19.722	0.168	0.135
-565.588	49.382	0.125	0.117
-564.573	-121.280	0.295	-0.049
-563.558	800.000	0.030	-0.103
-562.544	372.804	-0.113	-0.229
-561.529	345.139	-0.046	-0.089
-560.515	275.965	-0.141	-0.249
-559.500	-14.233	0.122	0.078
-558.485	-137.257	-0.266	-0.030
-557.471	-90.895	-0.146	-0.042
-556.456	-82.112	0.145	-0.047
-555.442	800.000	-0.068	0.261
-554.427	404.171	-0.060	-0.126
-553.412	404.819	0.167	-0.350
-552.398	32.343	0.161	0.139
-551.383	-200.000	0.008	0.118
-550.369	-200.000	0.001	0.191
-549.354	-200.000	0.007	-0.143
-548.339	-17.599	-0.135	-0.085
-547.325	-79.723	0.265	-0.089
-546.310	-148.323	-0.055	0.004
-545.296	353.111	0.149	-0.294
-544.281	244.431	-0.070	0.117
-543.266	800.000	-0.020	0.075
-542.252	-200.000	0.000	0.006
-541.237	-63.468	0.091	0.037
-540.223	-200.000	0.069	-0.304
-539.208	-101.006	-0.165	0.040
-538.193	800.000	0.134	-0.371
-537.179	132.447	0.041	0.053
-536.164	181.865	-0.144	0.211
-535.150	-66.130	-0.402	0.159
-534.135	709.316	-0.018	-0.047
-533.121	605.761	0.086	0.213
-532.106	-108.614	0.138	0.030
-531.091	800.000	0.131	-0.389
-530.077	-119.518	-0.145	-0.025
-529.062	-200.000	-0.012	-0.072
-528.048	-5.979	0.281	0.191
-527.033	-184.022	0.124	0.002
-526.018	-180.153	0.228	0.005
-525.004	123.460	0.202	0.252
-523.989	800.000	0.029	-0.125
-522.975	-156.056	-0.144	0.009
-521.960	639.240	0.152	0.384
-520.945	7.485	-0.206	-0.153
-519.931	800.000	-0.086	-0.344
-518.916	119.433	0.084	0.103
-517.902	482.496	0.141	0.319
-516.887	800.000	-0.105	0.294
-515.872	-200.000	0.030	-0.274
-514.858	-49.495	-0.217	0.103
-513.843	-200.000	-0.029	0.273
-512.829	-74.913	0.123	-0.044
-511.814	2.921	-0.206	-0.148
-510.799	233.379	-0.252	0.412
-509.785	4.513	0.328	-0.239
-508.770	69.791	-0.178	-0.182
-507.756	-55.325	-0.031	0.014
-506.741	-200.000	-0.040	-0.277
-505.726	-11.381	-0.060	-0.039
-504.712	-200.000	-0.064	0.447
-503.697	211.333	0.312	-0.487
-502.683	-130.750	0.151	0.020
-501.668	-147.890	-0.231	-0.019
-500.653	-124.503	0.405	-0.063
-499.639	168.424	-0.032	-0.046
-498.624	48.126	-0.071	0.066
-497.610	413.533	-0.084	-0.178
-496.595	229.828	-0.045	0.073
-495.581	736.258	0.139	-0.371
-494.566	250.072	0.090	0.151
-493.551	-200.000	-0.039	0.313
-492.537	-61.185	0.118	0.049
-491.522	-69.498	0.140	0.053
-490.508	-87.957	-0.287	0.086
-489.493	70.796	0.136	-0.139
-488.478	64.606	-0.165	-0.165
-487.464	-200.000	-0.080	0.593
-486.449	99.037	0.078	-0.089
-485.435	-8.727	0.158	-0.105
-484.420	-53.375	0.231	0.105
-483.405	-122.054	-0.205	-0.033
-482.391	-59.163	-0.241	-0.103
-481.376	88.768	-0.105	0.116
-480.362	41.353	-0.126	-0.113
-479.347	-200.000	0.061	-0.301
-478.332	144.318	-0.082	-0.109
-477.318	-200.000	0.037	-0.313
-476.303	-50.785	0.104	0.048
-475.289	-200.000	-0.025	0.287
-474.274	727.226	0.091	0.240
-473.259	-20.590	-0.204	-0.124
-472.245	319.072	-0.077	0.145
-471.230	-36.548	0.174	-0.093
-470.216	-143.006	-0.153	0.015
-469.201	-200.000	-0.064	0.559
-468.186	800.000	0.045	0.166
-467.172	-60.144	0.064	0.027
-466.157	-29.754	-0.026	-0.015
-465.143	21.312	-0.208	0.168
-464.128	407.305	-0.036	0.075
-463.113	-200.000	-0.025	-0.178
-462.099	94.245	-0.056	-0.063
-461.084	58.919	0.188	-0.183
-460.070	-194.602	0.111	0.001
-459.055	-200.000	-0.007	0.128
-458.040	-200.000	-0.035	0.167
-457.026	800.000	-0.052	0.213
-456.011	-200.000	-0.032	0.168
-454.997	-69.978	-0.198	0.075
-453.982	-141.726	-0.214	0.021
-452.968	-53.878	-0.198	0.090
-451.953	19.541	-0.132	-0.105
-450.938	-29.112	0.417	0.237
-449.924	-0.967	0.141	0.099
-448.909	-45.291	-0.135	-0.066
-447.895	-47.349	0.295	-0.142
-446.880	412.532	0.133	-0.280
-445.865	590.663	0.053	-0.130
-444.851	531.348	0.165	0.386
-443.836	-55.827	0.127	0.056
-442.822	-5.385	-0.103	0.070
-441.807	105.555	-0.269	-0.315
-440.792	428.678	0.146	0.313
-439.778	-106.004	0.120	-0.027
-438.763	-108.845	-0.081	0.017
-437.749	546.946	-0.101	0.239
-436.734	800.000	-0.035	-0.142
-435.719	-200.000	0.026	-0.190
-434.705	145.044	0.234	-0.310
-433.690	117.406	0.121	0.147
-432.676	-166.759	0.197	0.008
-431.661	800.000	-0.113	-0.318
-430.646	-176.469	-0.358	-0.009
-429.632	-200.000	0.022	0.130
-428.617	-41.553	-0.212	-0.108
-427.603	-194.284	0.058	-0.000
-426.588	-21.935	-0.204	0.123
-425.573	178.711	-0.121	-0.176
-424.559	88.240	0.159	-0.175
-423.544	-200.000	-0.044	-0.212
-422.530	23.390	-0.024	-0.020
-421.515	-200.000	0.011	0.139
-420.500	-85.920	-0.097	0.030
-419.486	5.461	0.232	0.170
-418.471	-200.000	-0.032	0.387
-417.457	34.103	-0.148	0.128
-416.442	800.000	0.041	0.122
-415.428	-39.879	-0.207	-0.107
-414.413	364.262	-0.137	-0.272
-413.398	248.239	0.064	0.107
-412.384	80.565	0.064	-0.068
-411.369	-200.000	0.020	-0.123
-410.355	460.624	-0.080	-0.177
-409.340	-145.319	0.078	-0.007
-408.325	198.024	0.035	0.053
-407.311	800.000	0.074	0.230
-406.296	-104.480	-0.057	0.013
-405.282	131.752	-0.086	-0.110
-404.267	-119.899	-0.018	-0.003
-403.252	800.000	-0.059	0.188
-402.238	41.340	0.136	-0.122
-401.223	-168.401	0.160	0.006
-400.209	-200.000	-0.001	-0.040
-399.194	-153.807	-0.168	0.011
-398.179	-200.000	0.005	0.269
-397.165	-74.870	-0.307	0.109
-396.150	316.776	-0.105	-0.197
-395.136	-86.493	0.109	-0.033
-394.121	96.325	-0.020	0.022
-393.106	-1.841	-0.107	-0.075
-392.092	-168.871	-0.181	0.007
-391.077	-31.566	0.247	0.138
-390.063	557.509	-0.101	0.240
-389.048	-200.000	-0.016	0.177
-388.033	81.840	0.030	-0.033
-387.019	580.658	-0.041	0.100
-386.004	-200.000	0.007	-0.321
-384.990	20.511	0.076	0.061
-383.975	504.411	0.078	0.179
-382.960	-46.942	0.065	-0.031
-381.946	-108.926	0.100	-0.021
-380.931	-13.430	0.181	-0.116
-379.917	-120.103	-0.179	0.030
-378.902	-200.000	-0.013	0.132
-377.888	-114.438	-0.132	0.025
-376.873	29.583	0.138	-0.116
-375.858	-81.143	-0.132	-0.043
-374.844	-161.662	0.364	-0.018
-373.829	-200.000	-0.007	0.143
-372.815	14.104	0.065	0.050
-371.800	233.238	-0.059	-0.095
-370.785	42.008	-0.221	-0.198
-369.771	522.037	0.024	0.056
-368.756	39.111	-0.236	-0.208
-367.742	6.912	0.154	0.113
-366.727	-102.598	-0.324	0.076
-365.712	196.072	0.201	-0.302
-364.698	-129.582	0.112	-0.015
-363.683	-194.955	-0.279	0.002
-362.669	183.886	-0.086	-0.126
-361.654	-200.000	-0.018	-0.277
-360.639	91.217	0.073	0.081
-359.625	-119.722	0.240	-0.041
-358.610	800.000	0.055	-0.186
-357.596	-200.000	0.016	-0.216
-356.581	-81.991	0.210	-0.068
-355.566	-51.954	0.317	0.146
-354.552	220.459	-0.128	-0.203
-353.537	-200.000	0.014	0.110
-352.523	-78.245	0.354	-0.120
-351.508	-118.101	-0.112	-0.020
-350.493	-200.000	0.041	-0.253
-349.479	373.220	-0.125	0.250
-348.464	-161.771	-0.266	-0.013
-347.450	800.000	-0.049	-0.179
-346.435	-81.230	-0.184	0.060
-345.420	-0.154	0.076	-0.053
-344.406	73.168	0.120	-0.124
-343.391	-200.000	-0.035	-0.240
-342.377	71.275	-0.055	0.057
-341.362	-73.069	0.406	0.147
-340.348	-36.075	0.173	0.092
-339.333	800.000	0.024	-0.083
-338.318	-94.940	0.311	0.083
-337.304	-161.985	-0.251	0.013
-336.289	-200.000	0.026	-0.132
-335.275	-55.244	-0.087	0.039
-334.260	14.972	-0.166	0.128
-333.245	-22.672	0.221	0.132
-332.231	340.127	-0.119	0.229
-331.216	-123.136	-0.252	0.040
-330.202	-3.380	0.232	0.159
-329.187	127.492	0.208	0.261
-328.172	2.247	-0.187	-0.134
-327.158	120.154	-0.056	-0.069
-326.143	709.619	0.057	0.150
-325.129	26.359	-0.071	0.059
-324.114	111.116	0.146	-0.173
-323.099	-148.009	0.202	-0.017
-322.085	-200.000	-0.035	0.258
-321.070	13.945	0.109	-0.084
-320.056	-200.000	-0.025	0.450
-319.041	-44.030	-0.188	-0.093
-318.026	-194.360	-0.259	0.002
-317.012	-49.292	0.358	0.169
-315.997	-200.000	-0.036	-0.217
-314.983	9.636	0.242	-0.181
-313.968	12.776	-0.084	-0.064
-312.953	343.155	-0.122	0.235
-311.939	88.330	-0.095	0.104
-310.924	-200.000	-0.045	0.274
-309.910	290.831	0.185	-0.331
-308.895	-8.531	-0.130	-0.086
-307.880	114.939	0.423	-0.509
-306.866	800.000	-0.055	0.171
-305.851	-44.471	-0.433	-0.213
-304.837	800.000	0.090	-0.297
-303.822	153.179	-0.055	0.074
-302.807	81.424	0.052	0.056
-301.793	-75.100	0.248	-0.087
-300.778	417.460	-0.069	0.145
-299.764	332.107	0.097	0.185
-298.749	-200.000	0.007	0.140
-297.735	58.676	0.046	-0.045
-296.720	-200.000	0.011	0.319
-295.705	-38.928	0.128	0.066
-294.691	-125.567	0.078	-0.012
-293.676	34.615	-0.327	0.281
-292.662	-200.000	0.048	0.208
-291.647	-200.000	0.036	-0.287
-290.632	375.077	-0.040	-0.081
-289.618	-200.000	0.026	-0.444
-288.603	-200.000	0.074	-0.336
-287.589	800.000	-0.116	-0.332
-286.574	-124.545	-0.017	-0.003
-285.559	370.460	-0.110	-0.219
-284.545	-150.372	-0.273	0.021
-283.530	-164.033	-0.013	0.001
-282.516	-20.302	0.107	0.065
-281.501	-98.960	0.315	-0.079
-280.486	-108.958	-0.230	0.048
-279.472	365.035	0.121	-0.240
-278.457	800.000	-0.046	-0.150
-277.443	0.583	0.341	-0.240
-276.428	-46.565	-0.040	-0.020
-275.413	800.000	-0.045	0.165
-274.399	800.000	-0.021	-0.087
-273.384	-113.887	0.053	-0.010
-272.370	-96.516	-0.324	0.084
-271.355	-4.569	-0.317	0.216
-270.340	-16.573	-0.141	0.088
-269.326	-55.163	0.052	-0.023
-268.311	286.650	-0.254	0.452
-267.297	103.931	0.111	0.128
-266.282	-110.694	0.242	0.049
-265.267	-6.371	-0.272	-0.183
-264.253	196.356	-0.109	-0.164
-263.238	622.933	0.139	-0.343
-262.224	-92.604	-0.292	-0.081
-261.209	-200.000	-0.008	-0.269
-260.195	407.716	0.090	0.188
-259.180	345.198	-0.081	0.157
-258.165	-8.488	0.159	0.105
-257.151	364.660	0.137	0.271
-256.136	540.476	-0.131	-0.306
-255.122	27.672	0.044	0.037
-254.107	-90.630	0.068	0.019
-253.092	129.260	0.218	0.274
-252.078	58.774	0.091	-0.088
-251.063	-200.000	-0.031	-0.145
-250.049	-200.000	0.012	0.084
-249.034	194.723	-0.182	0.271
-248.019	-200.000	0.021	-0.109
-247.005	659.278	-0.085	-0.216
-245.990	-55.425	0.186	-0.082
-244.976	207.355	0.120	0.185
-243.961	-200.000	0.003	-0.056
-242.946	-50.150	0.334	0.156
-241.932	-48.138	-0.131	0.062
-240.917	-128.452	-0.241	0.034
-239.903	653.227	0.095	0.240
-238.888	-18.488	-0.382	-0.235
-237.873	-101.412	-0.095	0.023
-236.859	-100.365	-0.294	0.072
-235.844	-200.000	0.068	0.308
-234.830	-18.959	0.277	0.169
-233.815	-75.609	0.280	0.098
-232.800	-165.606	0.411	-0.018
-231.786	-41.762	-0.212	-0.107
-230.771	-87.363	-0.114	-0.034
-229.757	-84.074	-0.119	0.037
-228.742	-68.098	0.278	0.106
-227.727	-34.445	-0.289	-0.156
-226.713	-200.000	-0.074	-0.335
-225.698	-200.000	-0.026	-0.157
-224.684	438.353	-0.066	0.142
-223.669	800.000	-0.070	0.278
-222.655	199.964	0.014	0.021
-221.640	50.059	-0.105	0.098
-220.625	800.000	0.125	0.509
-219.611	-106.369	-0.228	0.050
-218.596	-122.293	0.111	0.018
-217.582	7.825	0.177	0.130
-216.567	6.409	-0.158	-0.115
-215.552	800.000	-0.076	0.297
-214.538	-200.000	0.368	-0.001
-213.523	262.995	0.177	0.303
-212.509	-69.154	-0.014	-0.005
-211.494	-108.260	-0.152	-0.032
-210.479	676.228	-0.041	-0.105
-209.465	13.241	0.241	-0.183
-208.450	-157.343	0.368	-0.022
-207.436	-178.681	0.051	-0.001
-206.421	-113.668	-0.221	0.042
-205.406	354.796	0.166	-0.325
-204.392	-200.000	-0.065	-0.347
-203.377	800.000	-0.031	-0.121
-202.363	41.894	0.111	-0.099
-201.348	-105.461	0.379	0.085
-200.333	-200.000	0.008	-0.180
-199.319	-19.981	-0.339	0.205
-198.304	25.261	0.219	0.178
-197.290	272.335	-0.226	-0.391
-196.275	234.393	0.073	0.118
-195.260	-103.296	0.378	-0.087
-194.246	7.180	-0.150	0.110
-193.231	-200.000	0.019	0.198
-192.217	107.434	-0.235	-0.274
-191.202	134.153	-0.017	-0.021
-190.187	111.360	-0.089	0.105
-189.173	275.380	0.061	-0.106
-188.158	-200.000	0.023	-0.196
-187.144	800.000	-0.022	0.072
-186.129	-200.000	-0.075	0.346
-185.114	-27.637	-0.224	-0.128
-184.100	72.523	-0.066	-0.067
-183.085	-148.274	-0.326	-0.026
-182.071	139.160	0.416	0.537
-181.056	143.557	-0.093	0.122
-180.042	800.000	0.100	0.317
-179.027	800.000	-0.023	0.065
-178.012	800.000	0.007	0.023
-176.998	-91.987	0.256	-0.071
-175.983	140.588	-0.022	0.029
-174.969	-200.000	0.009	-0.220
-173.954	185.453	0.131	-0.190
-172.939	-200.000	0.007	-0.173
-171.925	188.158	0.122	-0.179
-170.910	-158.250	0.119	-0.007
-169.896	-120.849	0.221	0.036
-168.881	241.356	-0.087	-0.142
-167.866	800.000	0.045	-0.182
-166.852	26.322	-0.144	-0.118
-165.837	-200.000	0.005	-0.029
-164.823	-33.635	-0.021	0.011
-163.808	691.543	0.052	0.133
-162.793	-200.000	-0.004	-0.195
-161.779	62.001	0.202	0.198
-160.764	-32.390	0.385	-0.211
-159.750	609.995	-0.055	-0.135
-158.735	800.000	0.055	0.158
-157.720	-200.000	0.069	-0.371
-156.706	-83.277	-0.175	0.055
-155.691	60.431	0.200	0.194
-154.677	-24.963	0.130	-0.075
-153.662	-64.428	-0.343	0.137
-152.647	-200.000	-0.039	0.175
-151.633	-200.000	0.029	0.223
-150.618	65.687	0.158	0.157
-149.604	-101.405	0.183	0.044
-148.589	-200.000	-0.001	0.092
-147.574	12.611	0.343	0.259
-146.560	577.421	0.073	0.175
-145.545	-200.000	0.015	0.198
-144.531	-58.237	0.270	-0.115
-143.516	24.197	-0.160	-0.129
-142.502	469.685	0.076	0.168
-141.487	250.130	-0.064	-0.106
-140.472	-54.071	-0.298	-0.133
-139.458	-200.000	-0.008	0.077
-138.443	-131.765	0.444	-0.057
-137.429	77.696	-0.251	0.262
-136.414	208.887	-0.089	0.136
-135.399	-200.000	0.011	0.206
-134.385	800.000	0.014	0.039
-133.370	-89.163	-0.277	0.080
-132.356	-200.000	-0.044	0.200
-131.341	-200.000	0.004	-0.210
-130.326	800.000	-0.052	-0.167
-129.312	390.809	0.136	-0.276
-128.297	800.000	0.029	0.090
-127.283	-32.684	0.244	-0.133
-126.268	-200.000	-0.061	-0.289
-125.253	-101.655	0.135	0.032
-124.239	800.000	-0.055	-0.224
-123.224	-200.000	0.018	-0.087
-122.210	-128.349	0.204	-0.028
