DTS Sentinel unit serial number:	SN413079Multiplexer serial number:	ORYXHardware model number:	OX4-SRSoftware version number:	ORYX F/W v4.00 Oryx Data Collector v3.7.2.0data status	okinstallation	princeton_trtdifferential loss correction	single-endedforward channel	channel 1reverse channel	N/Adate	2019/09/13time	16:18:35forward acquisition time	60.00reverse acquisition time	0.00gamma	496.2192k internal	0.2304k external	0.2304temperature offset calibration	1.0161default loss term (dB/km)	0.3790temperature slope calibration	1.0000multiplexer offset coefficient	1.0000multiplexer slope coefficient	1.0000fibre end	0.00T internal ref (°C)	34.94T ext. ref 1 (°C)	4.84T ext. ref 2 (°C)	31.38length (m)	temperature (°C)	Stokes	anti-Stokes-747.200	241.508	-0.084	-0.142
-746.185	800.000	0.111	0.313
-745.171	9.106	0.332	0.256
-744.156	-18.565	-0.157	0.100
-743.142	-27.946	0.085	0.050
-742.127	21.960	-0.067	0.055
-741.112	-167.488	-0.198	0.008
-740.098	-25.325	-0.235	0.142
-739.083	-96.664	-0.369	0.099
-738.069	154.347	-0.059	-0.083
-737.054	-51.561	-0.144	-0.068
-736.039	123.367	-0.098	-0.125
-735.025	123.266	-0.042	-0.053
-734.010	-84.377	0.103	-0.033
-732.996	-137.317	0.137	0.016
-731.981	678.741	-0.072	-0.190
-730.966	800.000	-0.069	0.290
-729.952	-88.791	0.296	-0.089
-728.937	-29.569	0.218	0.127
-727.923	-200.000	0.027	-0.196
-726.908	635.228	-0.050	-0.129
-725.894	26.086	-0.231	0.196
-724.879	147.965	-0.109	0.150
-723.864	54.457	-0.238	-0.233
-722.850	12.056	-0.090	0.070
-721.835	260.194	0.214	0.377
-720.821	-88.858	0.088	0.026
-719.806	800.000	0.013	0.049
-718.791	777.041	-0.074	-0.206
-717.777	-188.245	-0.419	-0.005
-716.762	513.166	-0.061	0.144
-715.748	-200.000	-0.009	0.129
-714.733	64.715	0.123	0.126
-713.718	62.114	0.363	0.368
-712.704	-28.220	0.092	-0.054
-711.689	-200.000	0.005	0.111
-710.675	167.073	0.107	0.154
-709.660	800.000	-0.012	0.051
-708.645	-79.264	0.088	0.030
-707.631	-200.000	-0.048	0.256
-706.616	-107.854	0.272	-0.060
-705.602	800.000	0.020	-0.062
-704.587	-22.360	-0.209	-0.129
-703.572	800.000	-0.073	-0.246
-702.558	116.192	-0.174	-0.216
-701.543	128.619	-0.087	-0.112
-700.529	-200.000	-0.017	-0.177
-699.514	-33.939	-0.400	0.224
-698.499	100.240	-0.039	0.046
-697.485	800.000	-0.017	0.074
-696.470	562.362	-0.079	0.195
-695.456	243.039	-0.210	0.357
-694.441	33.456	-0.120	0.106
-693.426	-114.264	0.317	0.062
-692.412	710.242	-0.049	0.131
-691.397	61.846	0.243	-0.246
-690.383	-62.350	0.030	0.013
-689.368	-79.282	-0.358	0.123
-688.354	-90.684	0.202	0.059
-687.339	144.347	-0.310	-0.420
-686.324	463.531	0.086	0.196
-685.310	-81.179	0.170	-0.057
-684.295	383.062	0.066	0.138
-683.281	508.092	-0.087	0.205
-682.266	-200.000	-0.024	0.182
-681.251	10.709	0.181	0.140
-680.237	-154.915	-0.433	0.029
-679.222	37.821	-0.040	0.036
-678.208	89.221	-0.247	-0.280
-677.193	545.860	0.064	-0.155
-676.178	-163.290	-0.439	-0.021
-675.164	-23.698	-0.289	-0.176
-674.149	-200.000	0.018	-0.269
-673.135	-200.000	0.004	0.300
-672.120	17.142	0.207	0.167
-671.105	-176.213	-0.304	-0.008
-670.091	-56.749	-0.066	-0.030
-669.076	795.129	-0.103	0.287
-668.062	-35.082	-0.035	0.019
-667.047	78.240	-0.035	0.038
-666.032	151.963	-0.074	0.102
-665.018	800.000	-0.103	-0.386
-664.003	18.009	-0.119	0.096
-662.989	128.984	0.059	0.077
-661.974	-77.794	-0.181	-0.063
-660.959	446.760	-0.013	-0.029
-659.945	-3.528	-0.126	-0.089
-658.930	-44.242	-0.191	-0.097
-657.916	289.514	0.161	-0.297
-656.901	-122.459	-0.191	0.032
-655.886	-12.673	0.101	-0.067
-654.872	-106.666	0.290	-0.065
-653.857	-200.000	0.009	0.211
-652.843	433.344	-0.122	-0.269
-651.828	800.000	0.049	-0.172
-650.814	-200.000	-0.006	0.034
-649.799	263.654	-0.115	0.203
-648.784	-200.000	0.019	-0.315
-647.770	159.772	0.163	0.230
-646.755	213.599	-0.053	0.084
-645.741	-200.000	-0.048	-0.355
-644.726	-118.331	-0.251	-0.045
-643.711	215.945	-0.194	0.313
-642.697	-82.481	0.470	0.155
-641.682	160.775	-0.188	0.266
-640.668	-98.667	-0.360	-0.093
-639.653	479.592	-0.094	-0.216
-638.638	356.373	0.089	-0.179
-637.624	800.000	0.026	-0.089
-636.609	54.285	-0.077	0.075
-635.595	-200.000	-0.000	-0.327
-634.580	402.081	-0.053	0.113
-633.565	197.896	0.135	0.209
-632.551	-200.000	0.024	-0.233
-631.536	193.756	-0.218	0.334
-630.522	-35.860	0.288	-0.158
-629.507	-111.839	-0.162	0.033
-628.492	-42.685	-0.072	0.037
-627.478	-114.884	0.014	0.003
-626.463	-16.596	-0.283	0.182
-625.449	147.974	0.163	0.223
-624.434	794.446	-0.103	0.289
-623.419	-123.438	-0.252	-0.041
-622.405	147.539	-0.058	0.079
-621.390	-28.802	-0.103	0.060
-620.376	800.000	-0.116	0.365
-619.361	-151.342	0.383	-0.029
-618.346	-200.000	-0.034	0.395
-617.332	55.755	-0.143	0.140
-616.317	-64.463	0.125	0.051
-615.303	-141.453	0.160	-0.016
-614.288	800.000	0.141	0.438
-613.273	-128.652	-0.170	-0.024
-612.259	-56.564	0.234	-0.105
-611.244	-4.871	0.356	-0.248
-610.230	-142.064	-0.322	-0.032
-609.215	119.026	-0.014	-0.017
-608.201	31.125	0.013	0.011
-607.186	-20.490	-0.088	0.055
-606.171	-200.000	-0.029	-0.199
-605.157	-40.581	-0.207	0.109
-604.142	800.000	0.007	0.026
-603.128	-110.632	-0.198	-0.042
-602.113	208.749	-0.092	0.145
-601.098	-200.000	-0.035	-0.156
-600.084	-93.699	0.135	-0.038
-599.069	349.397	0.145	-0.290
-598.055	340.844	0.136	-0.270
-597.040	365.335	-0.009	0.019
-596.025	44.938	0.159	-0.149
-595.011	-87.509	0.172	0.053
-593.996	-183.181	0.129	0.002
-592.982	-14.969	-0.219	0.142
-591.967	12.290	0.117	0.091
-590.952	-173.639	0.227	0.007
-589.938	-129.883	0.269	-0.037
-588.923	-2.407	0.265	-0.188
-587.909	-200.000	-0.039	0.292
-586.894	-133.655	-0.283	-0.036
-585.879	189.318	-0.296	-0.448
-584.865	-58.102	-0.293	-0.129
-583.850	60.430	0.198	0.198
-582.836	-153.080	0.356	-0.025
-581.821	111.106	-0.083	-0.101
-580.806	800.000	-0.040	0.138
-579.792	800.000	0.115	0.461
-578.777	-171.973	0.313	0.010
-577.763	-200.000	-0.026	-0.225
-576.748	-3.416	-0.145	0.102
-575.733	598.313	-0.013	-0.032
-574.719	-87.160	0.351	0.108
-573.704	8.650	-0.227	-0.173
-572.690	745.009	0.040	-0.109
-571.675	120.155	0.138	-0.173
-570.661	289.510	0.116	0.213
-569.646	32.707	0.324	-0.283
-568.631	222.098	0.047	0.076
-567.617	-142.881	0.250	-0.025
-566.602	5.572	0.124	-0.093
-565.588	-125.133	0.243	-0.038
-564.573	-200.000	0.058	-0.272
-563.558	17.921	0.036	-0.029
-562.544	-23.518	-0.321	-0.195
-561.529	-126.771	-0.160	-0.024
-560.515	-130.171	-0.085	-0.012
-559.500	-45.870	-0.089	-0.044
-558.485	-200.000	-0.026	0.238
-557.471	95.740	0.199	-0.230
-556.456	58.710	0.062	-0.061
-555.442	309.100	0.022	0.042
-554.427	-200.000	-0.010	0.082
-553.412	77.017	-0.177	0.190
-552.398	-12.091	-0.260	0.172
-551.383	151.244	0.072	0.099
-550.369	-56.730	-0.077	0.034
-549.354	399.999	-0.107	0.227
-548.339	508.006	-0.085	0.200
-547.325	127.851	-0.101	-0.130
-546.310	800.000	-0.079	-0.243
-545.296	631.535	0.099	-0.255
-544.281	800.000	-0.077	0.298
-543.266	57.585	-0.266	0.262
-542.252	-74.623	0.097	-0.035
-541.237	-200.000	0.051	-0.520
-540.223	234.312	-0.085	-0.142
-539.208	-110.238	-0.088	-0.019
-538.193	540.815	0.006	0.014
-537.179	4.538	0.327	0.243
-536.164	-67.502	0.039	0.016
-535.150	-114.925	-0.288	-0.055
-534.135	14.980	0.108	-0.086
-533.121	-200.000	0.068	-0.410
-532.106	434.019	0.043	-0.095
-531.091	64.199	-0.068	-0.069
-530.077	-85.790	0.116	-0.036
-529.062	-101.593	-0.140	0.034
-528.048	21.403	0.100	-0.082
-527.033	135.783	0.323	0.425
-526.018	-78.211	-0.147	-0.051
-525.004	-158.529	-0.528	-0.031
-523.989	85.816	0.232	-0.257
-522.975	402.941	-0.104	-0.221
-521.960	99.626	0.116	-0.136
-520.945	22.628	0.047	0.039
-519.931	-114.906	-0.141	-0.027
-518.916	92.663	0.100	0.113
-517.902	54.265	-0.072	-0.070
-516.887	-53.554	-0.122	-0.056
-515.872	-42.251	0.127	-0.066
-514.858	-182.291	-0.226	0.004
-513.843	-138.793	-0.205	0.023
-512.829	-92.282	-0.334	-0.095
-511.814	-91.329	-0.046	-0.013
-510.799	98.933	0.192	-0.223
-509.785	706.953	0.058	0.154
-508.770	-200.000	-0.030	-0.176
-507.756	-198.397	-0.161	0.001
-506.741	527.064	-0.017	0.041
-505.726	-200.000	0.007	-0.043
-504.712	-92.072	-0.557	0.159
-503.697	800.000	-0.053	-0.188
-502.683	800.000	-0.164	-0.470
-501.668	96.985	-0.067	0.078
-500.653	-89.114	0.165	0.049
-499.639	-66.531	-0.272	-0.109
-498.624	162.110	-0.102	-0.144
-497.610	-75.258	0.092	-0.033
-496.595	-200.000	-0.015	0.282
-495.581	-49.606	0.264	0.127
-494.566	158.151	0.174	0.244
-493.551	-35.045	-0.157	0.086
-492.537	-200.000	-0.010	0.118
-491.522	-86.399	0.354	-0.110
-490.508	-86.586	0.202	-0.062
-489.493	-11.700	-0.230	0.152
-488.478	-36.516	0.353	-0.192
-487.464	32.704	0.074	-0.065
-486.449	219.374	-0.236	-0.381
-485.435	-70.876	-0.198	0.075
-484.420	-166.867	0.181	0.008
-483.405	-175.263	-0.263	0.007
-482.391	401.357	-0.140	0.296
-481.376	90.168	0.099	0.112
-480.362	-200.000	0.004	0.175
-479.347	-154.570	-0.315	-0.021
-478.332	-161.773	0.317	-0.016
-477.318	-200.000	0.009	0.148
-476.303	800.000	-0.099	0.326
-475.289	497.130	-0.143	-0.331
-474.274	-190.069	-0.113	0.001
-473.259	800.000	0.016	-0.057
-472.245	-200.000	0.007	-0.146
-471.230	64.032	0.300	-0.304
-470.216	100.929	-0.169	0.198
-469.201	-61.612	0.135	-0.057
-468.186	-156.000	-0.122	-0.008
-467.172	292.056	-0.040	0.073
-466.157	605.929	0.100	0.251
-465.143	800.000	-0.024	0.105
-464.128	353.852	0.102	-0.204
-463.113	-135.416	-0.112	-0.013
-462.099	-38.505	0.321	-0.171
-461.084	-61.167	-0.118	0.050
-460.070	-108.845	0.350	0.075
-459.055	139.783	-0.067	0.089
-458.040	42.451	0.134	-0.122
-457.026	66.870	0.221	0.226
-456.011	-135.733	-0.065	0.008
-454.997	-102.903	0.171	-0.041
-453.982	63.580	-0.049	-0.050
-452.968	-200.000	0.008	-0.201
-451.953	-200.000	0.003	-0.037
-450.938	-200.000	-0.020	-0.437
-449.924	-67.249	-0.429	0.170
-448.909	-89.436	-0.088	-0.026
-447.895	-36.205	0.249	0.135
-446.880	-42.812	-0.116	0.060
-445.865	595.522	-0.030	-0.074
-444.851	-180.619	-0.343	-0.007
-443.836	800.000	-0.085	-0.359
-442.822	-200.000	-0.051	-0.350
-441.807	800.000	-0.129	0.370
-440.792	-123.937	0.244	-0.039
-439.778	38.403	0.063	-0.056
-438.763	-15.730	0.199	0.128
-437.749	-171.959	-0.125	0.004
-436.734	161.326	-0.167	-0.235
-435.719	-85.335	-0.275	-0.086
-434.705	-90.013	-0.219	0.064
-433.690	-107.738	-0.222	0.049
-432.676	-145.545	0.236	0.021
-431.661	800.000	-0.053	-0.181
-430.646	107.823	0.276	-0.330
-429.632	481.172	-0.081	0.185
-428.617	34.839	0.190	0.167
-427.603	-23.048	0.228	0.138
-426.588	-103.269	0.182	0.043
-425.573	248.832	0.074	-0.126
-424.559	-200.000	-0.005	0.227
-423.544	31.340	0.212	-0.183
-422.530	338.341	-0.084	-0.164
-421.515	800.000	-0.147	-0.602
-420.500	-11.063	-0.238	-0.158
-419.486	14.866	0.238	0.187
-418.471	393.365	-0.069	-0.144
-417.457	209.698	-0.174	-0.274
-416.442	-200.000	0.025	-0.150
-415.428	-103.896	-0.540	-0.127
-414.413	308.880	0.089	0.167
-413.398	32.831	-0.193	0.168
-412.384	744.436	0.157	-0.426
-411.369	-200.000	-0.013	-0.297
-410.355	242.278	0.068	0.114
-409.340	342.577	0.113	-0.221
-408.325	569.173	-0.040	0.098
-407.311	-156.700	0.247	-0.015
-406.296	411.235	0.064	-0.137
-405.282	-96.624	-0.282	-0.075
-404.267	409.235	-0.120	0.255
-403.252	-144.173	0.247	-0.023
-402.238	-69.483	0.357	-0.137
-401.223	36.564	0.136	0.121
-400.209	-91.701	-0.104	-0.030
-399.194	-75.067	-0.269	-0.097
-398.179	3.049	0.127	0.093
-397.165	368.098	-0.058	0.117
-396.150	-200.000	-0.030	-0.265
-395.136	-87.047	-0.157	0.048
-394.121	493.942	-0.054	-0.123
-393.106	-184.799	-0.366	-0.006
-392.092	367.574	-0.023	0.047
-391.077	-200.000	0.032	-0.169
-390.063	151.510	0.101	0.138
-389.048	-70.807	-0.081	-0.031
-388.033	-75.308	0.472	0.169
-387.019	66.278	-0.035	0.036
-386.004	25.511	0.115	0.096
-384.990	800.000	0.091	-0.301
-383.975	-71.344	-0.254	0.095
-382.960	296.698	-0.090	-0.166
-381.946	118.431	-0.117	0.145
-380.931	-200.000	0.009	0.114
-379.917	-200.000	-0.040	-0.357
-378.902	-66.895	-0.206	-0.082
-377.888	87.402	-0.071	-0.079
-376.873	-200.000	0.066	-0.426
-375.858	57.312	0.209	0.205
-374.844	-83.857	0.356	-0.114
-373.829	-76.910	0.290	-0.102
-372.815	-130.344	-0.089	-0.012
-371.800	383.324	0.114	0.236
-370.785	800.000	0.084	0.282
-369.771	51.948	0.148	0.142
-368.756	800.000	0.009	0.026
-367.742	-153.347	-0.097	-0.007
-366.727	87.919	0.144	0.161
-365.712	-200.000	0.008	0.102
-364.698	-142.354	-0.217	0.021
-363.683	-111.116	0.173	0.036
-362.669	-57.080	-0.276	0.122
-361.654	800.000	-0.055	0.163
-360.639	800.000	0.064	0.250
-359.625	68.170	0.105	-0.107
-358.610	322.180	-0.086	-0.165
-357.596	-49.195	0.365	0.175
-356.581	631.722	-0.053	-0.135
-355.566	2.975	0.236	-0.172
-354.552	-148.468	0.297	-0.024
-353.537	46.591	0.220	0.205
-352.523	-200.000	0.010	0.223
-351.508	-200.000	-0.039	0.435
-350.493	41.937	-0.062	-0.056
-349.479	-38.293	0.178	0.095
-348.464	-200.000	0.022	0.328
-347.450	-125.262	0.277	-0.042
-346.435	-78.080	0.256	-0.088
-345.420	-200.000	-0.014	0.190
-344.406	-108.516	0.028	0.006
-343.391	200.920	-0.190	0.293
-342.377	127.678	-0.126	-0.160
-341.362	-200.000	-0.049	-0.309
-340.348	-164.956	0.025	0.001
-339.333	800.000	-0.054	0.227
-338.318	629.396	-0.079	-0.199
-337.304	169.436	0.095	-0.137
-336.289	-6.497	0.216	0.148
-335.275	381.875	0.172	0.354
-334.260	95.742	-0.159	0.181
-333.245	-200.000	0.031	0.174
-332.231	-200.000	0.026	-0.163
-331.216	-64.954	0.265	-0.107
-330.202	303.843	-0.070	-0.131
-329.187	184.534	-0.168	0.250
-328.172	595.288	0.067	-0.167
-327.158	-200.000	0.025	-0.203
-326.143	800.000	0.066	0.262
-325.129	-200.000	-0.028	0.193
-324.114	178.424	-0.177	0.258
-323.099	-200.000	0.005	0.168
-322.085	-76.620	-0.357	-0.125
-321.070	-85.447	-0.378	0.118
-320.056	195.953	-0.078	-0.119
-319.041	84.780	-0.072	-0.079
-318.026	672.448	-0.103	0.267
-317.012	-146.548	-0.207	-0.018
-315.997	55.074	-0.212	0.205
-314.983	1.595	0.042	-0.030
-313.968	122.534	-0.127	0.159
-312.953	-200.000	-0.004	-0.277
-311.939	76.270	0.057	-0.061
-310.924	-111.086	0.266	0.055
-309.910	367.889	0.093	0.187
-308.895	71.747	-0.098	0.102
-307.880	150.674	-0.154	0.209
-306.866	-99.251	0.069	-0.017
-305.851	-200.000	0.008	-0.325
-304.837	-97.219	-0.413	0.108
-303.822	-200.000	-0.042	-0.364
-302.807	-87.667	-0.070	-0.021
-301.793	800.000	0.014	0.059
-300.778	167.507	0.020	0.029
-299.764	197.755	0.089	-0.136
-298.749	84.875	0.221	-0.243
-297.735	216.282	0.086	0.136
-296.720	-147.927	0.269	0.022
-295.705	22.659	-0.319	-0.261
-294.691	-27.404	0.191	-0.111
-293.676	-32.807	0.157	-0.087
-292.662	197.741	-0.152	-0.233
-291.647	-200.000	0.001	0.277
-290.632	-200.000	0.002	-0.279
-289.618	-120.224	-0.105	-0.018
-288.603	570.301	0.117	0.286
-287.589	7.295	0.266	0.199
-286.574	-167.320	0.270	0.011
-285.559	-99.029	0.360	-0.091
-284.545	800.000	0.049	0.170
-283.530	-16.952	-0.345	-0.218
-282.516	-200.000	0.024	-0.197
-281.501	15.266	0.162	0.127
-280.486	-113.296	-0.250	-0.049
-279.472	-153.030	0.197	-0.014
-278.457	-27.525	-0.213	-0.124
-277.443	800.000	-0.036	0.155
-276.428	-147.707	-0.279	-0.023
-275.413	138.514	0.261	-0.343
-274.399	-21.269	-0.291	0.178
-273.384	-200.000	0.020	0.127
-272.370	-150.913	-0.172	-0.013
-271.355	184.191	-0.133	0.197
-270.340	-99.163	-0.059	-0.015
-269.326	-47.073	0.251	-0.123
-268.311	-169.626	0.259	0.009
-267.297	-200.000	0.022	-0.127
-266.282	120.091	-0.151	0.188
-265.267	-35.141	-0.157	-0.085
-264.253	335.763	0.078	-0.152
-263.238	578.818	0.145	0.354
-262.224	-200.000	0.061	0.348
-261.209	-200.000	0.001	-0.017
-260.195	-14.484	-0.113	0.072
-259.180	-33.792	0.168	-0.092
-258.165	-109.059	-0.200	-0.043
-257.151	71.607	0.240	0.249
-256.136	-123.164	0.128	0.021
-255.122	-95.598	-0.446	0.119
-254.107	-200.000	-0.007	-0.121
-253.092	-69.374	-0.104	0.040
-252.078	24.402	-0.325	-0.269
-251.063	-62.324	-0.153	0.064
-250.049	-40.921	0.281	0.145
-249.034	611.277	0.068	0.170
-248.019	-52.167	-0.107	-0.050
-247.005	-108.788	0.048	-0.010
-245.990	-99.516	-0.150	0.038
-244.976	-92.334	-0.178	0.050
-243.961	19.429	0.107	-0.086
-242.946	-200.000	0.012	0.071
-241.932	-70.328	-0.273	0.104
-240.917	-102.029	0.582	-0.140
-239.903	-41.136	-0.150	-0.077
-238.888	38.928	-0.214	-0.191
-237.873	-102.876	-0.303	-0.072
-236.859	-114.148	-0.096	-0.019
-235.844	-200.000	0.018	-0.252
-234.830	113.784	-0.152	0.184
-233.815	558.495	0.105	0.253
-232.800	625.526	-0.109	-0.274
-231.786	73.753	-0.147	0.154
-230.771	-129.761	-0.046	-0.006
-229.757	-73.231	-0.040	-0.015
-228.742	206.162	0.168	0.260
-227.727	800.000	-0.094	0.329
-226.713	757.024	-0.080	0.215
-225.698	-23.288	0.187	-0.112
-224.684	212.671	-0.078	0.123
-223.669	141.518	0.068	0.090
-222.655	292.245	0.035	0.063
-221.640	59.949	0.112	-0.111
-220.625	-150.340	0.186	-0.014
-219.611	-146.244	-0.458	0.040
-218.596	497.897	-0.059	0.135
-217.582	479.087	-0.123	-0.277
-216.567	800.000	0.087	-0.295
-215.552	-49.611	0.286	0.136
-214.538	-200.000	-0.019	0.105
-213.523	41.675	-0.150	0.135
-212.509	-138.321	0.216	0.024
-211.494	200.277	-0.278	0.426
-210.479	765.568	-0.036	0.097
-209.465	339.942	-0.096	0.187
-208.450	800.000	-0.025	-0.108
-207.436	-200.000	0.007	0.123
-206.421	65.390	0.122	-0.123
-205.406	-165.398	-0.331	0.014
-204.392	-7.350	0.211	0.142
-203.377	-17.964	-0.150	-0.094
-202.363	800.000	-0.061	0.203
-201.348	-107.183	0.247	-0.054
-200.333	39.746	0.147	-0.132
-199.319	118.046	0.152	0.187
-198.304	-160.034	0.151	-0.008
-197.290	-200.000	-0.004	-0.220
-196.275	-162.246	-0.180	-0.009
-195.260	-200.000	-0.022	-0.109
-194.246	-200.000	-0.020	0.186
-193.231	-95.183	0.261	-0.070
-192.217	800.000	0.090	0.310
-191.202	-151.130	0.321	-0.024
-190.187	-23.253	0.196	0.118
-189.173	16.393	-0.159	0.125
-188.158	55.966	0.249	-0.240
-187.144	-50.385	-0.248	-0.116
-186.129	-139.695	0.415	0.044
-185.114	-27.494	-0.297	0.172
-184.100	-40.778	-0.164	0.085
-183.085	-200.000	-0.011	-0.215
-182.071	110.346	-0.119	0.142
-181.056	-21.487	-0.303	0.184
-180.042	-37.124	-0.328	-0.175
-179.027	34.712	0.116	0.101
-178.012	-102.871	0.377	-0.089
-176.998	-200.000	0.041	-0.320
-175.983	78.656	0.106	0.113
-174.969	-151.731	-0.348	-0.025
-173.954	18.438	-0.075	0.060
-172.939	-111.319	0.186	0.038
-171.925	-127.735	0.129	0.018
-170.910	3.699	-0.507	-0.368
-169.896	70.060	0.366	0.376
-168.881	153.027	0.095	0.129
-167.866	-200.000	0.007	0.240
-166.852	-78.735	0.314	0.107
-165.837	-70.821	-0.142	-0.054
-164.823	-23.232	0.331	0.198
-163.808	530.307	-0.126	-0.297
-162.793	-26.110	0.258	-0.151
-161.779	-200.000	-0.001	-0.159
-160.764	-19.097	0.227	0.140
-159.750	-66.379	-0.249	0.099
-158.735	-8.133	-0.145	-0.097
-157.720	-164.174	0.163	-0.007
-156.706	-200.000	0.044	-0.426
-155.691	-157.724	0.395	-0.023
-154.677	-200.000	-0.007	-0.152
-153.662	16.880	0.023	-0.018
-152.647	-37.519	0.337	-0.179
-151.633	-102.872	-0.263	0.062
-150.618	800.000	0.054	0.180
-149.604	-36.108	-0.183	0.098
-148.589	51.786	0.069	-0.066
-147.574	-115.124	0.052	-0.010
-146.560	-169.492	-0.093	-0.003
-145.545	-42.442	0.048	-0.024
-144.531	134.917	-0.021	0.028
-143.516	73.454	0.375	-0.390
-142.502	68.908	-0.057	-0.058
-141.487	-200.000	0.011	-0.123
-140.472	-160.515	-0.303	-0.016
-139.458	-28.967	0.168	0.096
-138.443	194.459	-0.198	0.299
-137.429	117.431	0.083	0.102
-136.414	-100.531	0.132	0.032
-135.399	800.000	-0.033	0.134
-134.385	-29.159	0.150	0.086
-133.370	-84.362	0.117	0.037
-132.356	-150.797	0.096	-0.007
-131.341	800.000	0.035	-0.141
-130.326	34.032	0.152	0.132
-129.312	543.294	-0.081	0.192
-128.297	74.064	0.151	-0.158
-127.283	51.598	0.056	0.052
-126.268	33.695	0.167	-0.145
-125.253	-200.000	-0.005	0.057
-124.239	-158.831	-0.066	0.004
-123.224	71.588	-0.185	-0.191
-122.210	800.000	-0.050	0.175
