DTS Sentinel unit serial number:	SN413079Multiplexer serial number:	ORYXHardware model number:	OX4-SRSoftware version number:	ORYX F/W v4.00 Oryx Data Collector v3.7.2.0data status	okinstallation	princeton_trtdifferential loss correction	single-endedforward channel	channel 1reverse channel	N/Adate	2019/09/19time	05:18:35forward acquisition time	60.00reverse acquisition time	0.00gamma	496.2192k internal	0.2343k external	0.2343temperature offset calibration	1.0019default loss term (dB/km)	0.3790temperature slope calibration	1.0000multiplexer offset coefficient	1.0000multiplexer slope coefficient	1.0000fibre end	0.00T internal ref (°C)	19.48T ext. ref 1 (°C)	0.60T ext. ref 2 (°C)	12.76length (m)	temperature (°C)	Stokes	anti-Stokes-747.200	-17.879	-0.162	0.102
-746.185	342.095	0.112	-0.220
-745.171	350.517	-0.106	0.210
-744.156	485.478	-0.144	0.328
-743.142	365.849	0.075	0.151
-742.127	-200.000	0.058	0.395
-741.112	-200.000	0.059	0.323
-740.098	41.002	-0.533	0.482
-739.083	140.828	-0.172	0.228
-738.069	10.370	-0.104	0.080
-737.054	-200.000	0.022	0.256
-736.039	-161.724	-0.431	0.022
-735.025	224.823	-0.039	0.063
-734.010	-36.573	-0.191	-0.103
-732.996	-200.000	-0.042	-0.189
-731.981	0.593	0.397	-0.284
-730.966	-200.000	-0.004	-0.197
-729.952	-193.828	-0.508	-0.004
-728.937	-28.970	0.046	0.027
-727.923	-18.753	-0.127	0.079
-726.908	17.025	-0.470	0.373
-725.894	38.251	-0.375	0.334
-724.879	800.000	-0.053	0.229
-723.864	-200.000	-0.007	-0.190
-722.850	-174.450	-0.271	0.008
-721.835	367.213	-0.016	0.032
-720.821	277.510	0.150	0.267
-719.806	-63.877	0.150	0.061
-718.791	-19.041	0.139	0.086
-717.777	184.463	-0.067	0.099
-716.762	-200.000	0.028	-0.234
-715.748	237.608	0.108	0.179
-714.733	105.870	-0.217	-0.257
-713.718	-101.270	0.083	0.020
-712.704	-200.000	-0.026	-0.233
-711.689	-40.773	0.158	-0.082
-710.675	-77.562	-0.235	-0.081
-709.660	-165.015	-0.153	-0.007
-708.645	304.305	0.045	-0.084
-707.631	62.453	0.084	-0.084
-706.616	-200.000	0.014	0.062
-705.602	800.000	-0.081	0.231
-704.587	18.171	0.133	-0.106
-703.572	-200.000	0.028	0.259
-702.558	800.000	-0.069	-0.229
-701.543	-10.177	-0.183	-0.121
-700.529	1.830	0.273	0.197
-699.514	370.101	0.093	-0.189
-698.499	-195.706	-0.176	0.001
-697.485	-77.348	0.200	-0.070
-696.470	-184.479	-0.488	-0.008
-695.456	-200.000	-0.015	0.184
-694.441	-200.000	-0.007	0.062
-693.426	-29.369	-0.126	0.072
-692.412	-200.000	0.008	-0.129
-691.397	687.574	-0.032	-0.083
-690.383	139.678	-0.034	-0.045
-689.368	390.336	0.143	-0.296
-688.354	-200.000	-0.062	-0.427
-687.339	800.000	-0.043	0.159
-686.324	47.332	0.238	-0.222
-685.310	-164.190	0.157	-0.007
-684.295	588.654	-0.017	-0.041
-683.281	182.969	-0.048	0.070
-682.266	-60.501	-0.080	-0.034
-681.251	53.868	-0.099	-0.095
-680.237	57.752	0.169	0.165
-679.222	205.505	-0.212	0.329
-678.208	-2.285	-0.115	0.081
-677.193	-179.503	0.252	0.006
-676.178	800.000	-0.068	0.254
-675.164	504.636	-0.051	0.119
-674.149	-96.356	0.040	0.011
-673.135	-3.955	0.310	-0.215
-672.120	800.000	-0.080	0.284
-671.105	0.010	0.106	-0.075
-670.091	-182.492	-0.384	0.007
-669.076	-186.823	0.279	0.004
-668.062	-153.500	-0.153	-0.011
-667.047	-200.000	0.019	0.140
-666.032	203.141	0.022	-0.034
-665.018	-16.471	-0.269	0.170
-664.003	44.641	0.119	0.110
-662.989	-27.603	-0.291	-0.168
-661.974	800.000	-0.074	-0.218
-660.959	-141.297	0.114	0.012
-659.945	-200.000	0.000	-0.225
-658.930	-200.000	-0.001	-0.171
-657.916	96.494	-0.105	0.119
-656.901	-66.608	0.075	-0.030
-655.886	-200.000	0.064	-0.361
-654.872	-151.357	0.355	-0.026
-653.857	-200.000	-0.037	-0.343
-652.843	-91.618	-0.195	-0.055
-651.828	192.564	-0.174	-0.262
-650.814	-63.900	-0.154	0.063
-649.799	246.611	0.213	0.358
-648.784	-59.313	-0.421	0.181
-647.770	210.566	-0.145	0.227
-646.755	-56.799	-0.092	-0.041
-645.741	137.258	-0.050	-0.065
-644.726	800.000	-0.079	-0.253
-643.711	348.674	-0.037	0.073
-642.697	-200.000	0.004	0.095
-641.682	548.120	0.063	-0.152
-640.668	45.800	-0.087	-0.080
-639.653	198.725	-0.034	0.051
-638.638	17.142	0.123	-0.097
-637.624	98.301	-0.082	0.094
-636.609	800.000	-0.063	0.213
-635.595	-103.764	-0.091	-0.021
-634.580	-200.000	0.002	0.306
-633.565	21.227	0.119	-0.096
-632.551	795.526	0.055	-0.152
-631.536	-200.000	-0.043	0.261
-630.522	-17.062	0.102	0.064
-629.507	225.651	0.034	0.054
-628.492	-200.000	0.076	0.447
-627.478	252.699	-0.034	0.058
-626.463	179.137	0.129	0.188
-625.449	54.531	-0.135	-0.130
-624.434	126.002	0.185	-0.233
-623.419	-76.089	-0.265	-0.093
-622.405	208.972	0.138	0.215
-621.390	-85.496	-0.238	0.074
-620.376	-200.000	-0.017	0.248
-619.361	-200.000	-0.014	-0.327
-618.346	-200.000	0.016	-0.105
-617.332	588.336	0.103	0.253
-616.317	-200.000	0.010	0.155
-615.303	800.000	-0.031	-0.125
-614.288	800.000	-0.078	-0.292
-613.273	-200.000	-0.060	0.298
-612.259	-155.157	-0.230	-0.015
-611.244	67.149	0.151	-0.153
-610.230	-200.000	0.089	0.452
-609.215	597.169	0.059	-0.146
-608.201	-22.488	0.206	-0.124
-607.186	-158.356	0.117	0.007
-606.171	800.000	0.085	-0.304
-605.157	-141.586	-0.183	-0.018
-604.142	337.682	-0.143	0.276
-603.128	-200.000	-0.006	0.203
-602.113	140.398	-0.177	-0.232
-601.098	-200.000	0.006	-0.116
-600.084	-45.411	0.073	0.036
-599.069	588.835	-0.093	0.229
-598.055	-73.445	-0.191	-0.069
-597.040	211.199	0.114	0.178
-596.025	800.000	-0.067	-0.279
-595.011	-15.234	-0.262	0.167
-593.996	800.000	0.021	0.071
-592.982	294.695	0.069	0.126
-591.967	-200.000	-0.031	0.289
-590.952	-200.000	-0.030	-0.173
-589.938	-200.000	-0.050	0.232
-588.923	224.098	-0.158	0.254
-587.909	-38.953	0.095	0.050
-586.894	207.548	0.174	0.270
-585.879	-200.000	-0.182	-0.001
-584.865	-200.000	-0.004	0.286
-583.850	-200.000	0.060	0.376
-582.836	-200.000	-0.010	0.124
-581.821	-172.696	-0.442	-0.014
-580.806	-200.000	-0.010	0.051
-579.792	17.038	-0.210	-0.165
-578.777	-200.000	0.003	0.082
-577.763	-176.258	-0.212	0.006
-576.748	-200.000	-0.001	0.193
-575.733	-144.239	0.243	-0.023
-574.719	-101.097	-0.212	0.052
-573.704	-156.623	-0.126	0.008
-572.690	-8.237	0.217	-0.145
-571.675	-1.622	-0.142	-0.100
-570.661	-200.000	-0.039	0.280
-569.646	249.963	-0.091	-0.153
-568.631	-91.113	-0.240	0.069
-567.617	-132.041	-0.180	0.023
-566.602	549.845	-0.100	-0.238
-565.588	123.338	-0.172	-0.214
-564.573	290.392	-0.174	0.314
-563.558	800.000	-0.066	-0.252
-562.544	-200.000	0.026	-0.174
-561.529	18.765	0.110	-0.087
-560.515	-70.425	0.024	0.009
-559.500	-122.245	-0.298	0.048
-558.485	124.513	-0.079	0.099
-557.471	118.083	-0.112	0.138
-556.456	473.303	0.027	0.061
-555.442	102.340	0.071	0.083
-554.427	-200.000	0.014	0.126
-553.412	-97.300	0.087	0.022
-552.398	-200.000	-0.058	-0.430
-551.383	800.000	0.043	-0.176
-550.369	27.074	-0.247	-0.206
-549.354	51.718	0.062	-0.058
-548.339	201.463	0.131	0.201
-547.325	-150.115	0.456	-0.035
-546.310	-31.530	0.117	0.066
-545.296	526.833	-0.023	-0.054
-544.281	-52.442	0.266	-0.122
-543.266	-64.925	0.107	0.043
-542.252	-56.434	-0.129	-0.057
-541.237	-91.439	0.256	0.073
-540.223	-4.652	-0.127	-0.087
-539.208	-200.000	-0.031	-0.219
-538.193	86.872	0.338	0.371
-537.179	122.354	-0.162	-0.201
-536.164	800.000	-0.126	-0.450
-535.150	107.622	-0.148	0.175
-534.135	639.738	0.062	0.157
-533.121	229.426	-0.042	0.067
-532.106	-82.022	-0.183	-0.059
-531.091	-177.215	-0.059	-0.001
-530.077	-107.836	-0.312	-0.067
-529.062	-67.964	0.295	-0.114
-528.048	-45.798	-0.168	-0.082
-527.033	145.810	-0.181	0.240
-526.018	36.641	0.289	-0.254
-525.004	53.676	-0.143	0.137
-523.989	96.050	-0.133	-0.150
-522.975	209.222	-0.149	-0.231
-521.960	-129.936	0.341	-0.046
-520.945	61.177	-0.078	0.076
-519.931	-122.431	-0.015	0.002
-518.916	27.610	0.078	-0.065
-517.902	62.803	-0.039	-0.039
-516.887	-200.000	-0.012	-0.100
-515.872	-200.000	0.031	-0.201
-514.858	-200.000	0.034	-0.187
-513.843	416.643	-0.077	0.162
-512.829	800.000	0.087	0.306
-511.814	-180.751	0.290	0.006
-510.799	-38.407	-0.266	0.140
-509.785	-96.209	0.375	0.099
-508.770	800.000	0.060	-0.204
-507.756	-79.536	-0.149	0.050
-506.741	-94.181	0.344	-0.093
-505.726	-50.060	0.084	-0.039
-504.712	754.836	0.109	0.291
-503.697	56.143	0.166	0.160
-502.683	349.508	-0.186	-0.364
-501.668	-143.842	0.036	0.003
-500.653	155.959	-0.147	-0.201
-499.639	-200.000	-0.034	0.451
-498.624	-200.000	-0.036	0.296
-497.610	-200.000	0.020	0.166
-496.595	-100.549	0.255	-0.063
-495.581	19.457	0.046	-0.036
-494.566	-200.000	-0.029	0.156
-493.551	-21.131	-0.049	0.029
-492.537	96.019	0.185	-0.209
-491.522	475.716	0.144	-0.323
-490.508	-50.701	0.034	0.016
-489.493	-32.962	0.103	-0.057
-488.478	149.840	0.224	0.301
-487.464	-89.202	0.263	-0.077
-486.449	-200.000	0.033	-0.165
-485.435	-184.335	-0.342	-0.006
-484.420	193.605	0.120	-0.181
-483.405	245.316	0.083	-0.138
-482.391	-15.482	-0.226	0.143
-481.376	142.041	0.186	0.244
-480.362	-8.670	-0.087	-0.058
-479.347	85.313	0.267	-0.290
-478.332	-2.744	0.174	0.120
-477.318	-200.000	0.014	-0.159
-476.303	-95.382	-0.145	-0.039
-475.289	-200.000	-0.059	-0.275
-474.274	800.000	0.020	-0.060
-473.259	-200.000	-0.037	-0.166
-472.245	239.464	0.112	0.184
-471.230	-200.000	0.001	0.488
-470.216	-167.359	0.010	-0.000
-469.201	-77.038	0.332	0.115
-468.186	91.003	-0.123	-0.137
-467.172	-49.318	-0.198	0.093
-466.157	-200.000	0.022	0.124
-465.143	515.053	-0.113	0.262
-464.128	-16.176	-0.168	0.105
-463.113	-78.590	-0.058	0.020
-462.099	800.000	-0.071	0.210
-461.084	190.495	-0.168	0.250
-460.070	-175.120	-0.048	-0.001
-459.055	222.050	-0.035	-0.056
-458.040	-15.311	-0.236	0.150
-457.026	33.344	0.133	0.115
-456.011	179.208	0.104	-0.150
-454.997	75.331	-0.121	0.126
-453.982	-200.000	-0.022	-0.332
-452.968	13.040	-0.242	-0.185
-451.953	-35.080	0.285	0.154
-450.938	652.562	0.158	-0.401
-449.924	-27.257	-0.507	0.292
-448.909	-20.148	0.084	0.051
-447.895	21.597	0.244	0.196
-446.880	-94.441	-0.156	0.042
-445.865	-200.000	0.011	-0.303
-444.851	25.104	-0.057	0.047
-443.836	-33.251	0.193	0.106
-442.822	308.751	-0.143	0.264
-441.807	-122.638	0.264	-0.042
-440.792	-200.000	0.004	0.212
-439.778	-79.661	-0.008	0.003
-438.763	151.222	0.082	0.110
-437.749	41.878	0.130	-0.116
-436.734	-200.000	-0.076	-0.352
-435.719	73.769	-0.071	0.073
-434.705	11.079	0.260	0.197
-433.690	800.000	-0.076	-0.239
-432.676	130.958	-0.266	-0.337
-431.661	37.907	-0.104	0.091
-430.646	-169.262	0.120	-0.004
-429.632	-54.656	-0.053	-0.024
-428.617	-199.236	0.241	0.001
-427.603	-200.000	0.033	-0.145
-426.588	-37.860	0.325	0.171
-425.573	-155.459	-0.106	-0.007
-424.559	-200.000	-0.061	-0.269
-423.544	218.555	0.101	-0.160
-422.530	94.920	0.417	-0.469
-421.515	-138.525	0.145	0.016
-420.500	123.961	-0.208	-0.259
-419.486	-172.508	0.047	-0.001
-418.471	-137.226	-0.676	-0.076
-417.457	-110.252	0.227	0.047
-416.442	-200.000	-0.092	-0.472
-415.428	239.733	0.120	0.198
-414.413	-62.437	-0.141	-0.058
-413.398	-200.000	-0.011	0.086
-412.384	-51.256	-0.262	0.121
-411.369	204.874	-0.017	0.026
-410.355	-8.732	-0.262	0.173
-409.340	800.000	0.011	0.040
-408.325	144.614	-0.171	-0.226
-407.311	755.911	0.139	-0.372
-406.296	-46.656	-0.396	0.192
-405.282	-200.000	-0.047	0.296
-404.267	-23.806	0.278	-0.165
-403.252	800.000	0.109	0.328
-402.238	-26.312	0.233	-0.135
-401.223	17.954	0.182	0.143
-400.209	-49.364	0.134	0.063
-399.194	800.000	-0.006	0.027
-398.179	-110.005	0.145	0.030
-397.165	71.085	0.058	-0.059
-396.150	-200.000	-0.017	-0.175
-395.136	334.900	0.048	-0.093
-394.121	-179.644	0.204	0.004
-393.106	-200.000	0.061	0.389
-392.092	-47.850	-0.152	0.073
-391.077	316.497	0.065	0.121
-390.063	-200.000	0.042	0.188
-389.048	109.111	-0.182	0.215
-388.033	387.378	-0.071	0.146
-387.019	-200.000	-0.063	0.304
-386.004	116.647	0.123	-0.149
-384.990	-183.964	-0.190	0.003
-383.975	-200.000	-0.027	0.222
-382.960	85.013	0.084	0.091
-381.946	-13.564	-0.024	-0.016
-380.931	800.000	-0.052	-0.162
-379.917	694.003	0.102	-0.263
-378.902	446.523	0.060	-0.130
-377.888	-117.241	0.340	0.061
-376.873	-200.000	-0.062	0.365
-375.858	502.992	-0.133	-0.304
-374.844	-200.000	0.028	-0.125
-373.829	-200.000	0.024	-0.326
-372.815	604.842	0.047	-0.115
-371.800	69.801	-0.053	0.054
-370.785	11.726	0.139	0.105
-369.771	504.678	0.054	-0.124
-368.756	-200.000	-0.039	-0.227
-367.742	181.496	-0.051	-0.074
-366.727	14.975	0.084	-0.065
-365.712	-200.000	0.028	-0.210
-364.698	-200.000	-0.041	0.310
-363.683	132.023	0.063	-0.080
-362.669	-121.058	0.270	-0.045
-361.654	-140.320	0.228	-0.024
-360.639	-41.896	-0.236	0.119
-359.625	-200.000	-0.012	-0.109
-358.610	-76.824	-0.532	-0.183
-357.596	-100.120	0.139	0.034
-356.581	800.000	-0.116	-0.456
-355.566	-1.599	0.061	0.043
-354.552	-200.000	-0.013	0.081
-353.537	-22.221	-0.262	-0.156
-352.523	26.111	-0.219	0.181
-351.508	545.722	0.143	0.336
-350.493	-40.136	0.211	0.108
-349.479	136.567	-0.128	-0.165
-348.464	-200.000	0.064	-0.471
-347.450	408.777	0.216	-0.450
-346.435	264.611	-0.212	0.364
-345.420	164.254	-0.097	-0.134
-344.406	-200.000	0.019	0.405
-343.391	15.639	0.176	-0.137
-342.377	800.000	-0.072	-0.215
-341.362	226.869	0.052	-0.083
-340.348	800.000	-0.076	0.231
-339.333	-200.000	0.019	0.333
-338.318	-200.000	-0.008	0.197
-337.304	426.291	-0.060	0.127
-336.289	-164.750	0.369	0.016
-335.275	-66.138	0.230	-0.090
-334.260	-200.000	-0.082	-0.471
-333.245	-148.253	0.440	0.036
-332.231	-68.564	-0.087	-0.033
-331.216	-129.974	0.260	-0.035
-330.202	-90.395	0.290	-0.083
-329.187	674.972	-0.059	-0.152
-328.172	119.882	-0.165	0.201
-327.158	71.900	-0.386	0.395
-326.143	-200.000	0.033	0.201
-325.129	131.335	0.084	-0.106
-324.114	-21.149	0.067	0.040
-323.099	-121.657	-0.141	0.023
-322.085	-116.330	0.290	-0.053
-321.070	800.000	0.113	0.450
-320.056	-62.488	-0.096	-0.039
-319.041	-136.707	-0.402	-0.046
-318.026	19.198	0.343	-0.271
-317.012	679.072	-0.115	0.293
-315.997	-200.000	-0.002	0.119
-314.983	-166.885	0.233	-0.009
-313.968	23.492	-0.035	0.029
-312.953	-44.602	-0.170	0.084
-311.939	-126.791	0.247	-0.036
-310.924	-37.303	-0.289	0.152
-309.910	17.625	0.193	0.151
-308.895	250.180	0.203	-0.339
-307.880	800.000	0.019	0.057
-306.866	-122.598	-0.237	-0.038
-305.851	-102.437	-0.214	-0.050
-304.837	347.836	0.022	-0.043
-303.822	265.488	0.063	-0.109
-302.807	-200.000	0.015	0.094
-301.793	117.298	0.113	-0.137
-300.778	800.000	0.095	-0.257
-299.764	-200.000	0.060	-0.265
-298.749	77.674	-0.192	-0.201
-297.735	205.787	-0.161	-0.246
-296.720	800.000	0.040	-0.163
-295.705	217.694	-0.205	-0.322
-294.691	712.750	-0.171	-0.445
-293.676	312.670	0.071	-0.132
-292.662	-101.523	0.404	0.097
-291.647	298.146	-0.074	-0.134
-290.632	57.433	-0.120	0.116
-289.618	373.194	-0.065	0.129
-288.603	-82.775	0.195	-0.062
-287.589	-200.000	-0.017	0.143
-286.574	-200.000	0.005	0.178
-285.559	-193.514	0.329	-0.003
-284.545	800.000	-0.115	-0.398
-283.530	100.641	0.179	0.204
-282.516	-148.892	0.577	0.046
-281.501	26.264	-0.125	-0.103
-280.486	-37.097	0.113	-0.059
-279.472	-87.755	-0.365	-0.108
-278.457	203.091	-0.052	-0.079
-277.443	-37.902	0.108	-0.057
-276.428	-170.871	-0.174	0.006
-275.413	-101.972	0.267	-0.063
-274.399	-40.263	-0.235	-0.120
-273.384	-73.509	0.132	-0.047
-272.370	-62.960	-0.270	0.110
-271.355	157.024	-0.070	0.095
-270.340	-116.252	0.462	0.084
-269.326	-1.659	-0.135	0.094
-268.311	800.000	-0.088	-0.339
-267.297	800.000	0.052	0.196
-266.282	173.123	0.097	0.137
-265.267	299.145	-0.177	0.320
-264.253	140.653	0.265	0.345
-263.238	-200.000	-0.013	0.272
-262.224	238.811	0.048	-0.078
-261.209	62.619	-0.131	-0.129
-260.195	-200.000	-0.012	-0.210
-259.180	-200.000	-0.036	0.437
-258.165	36.105	0.110	-0.096
-257.151	-53.662	0.081	0.037
-256.136	679.933	-0.035	0.090
-255.122	133.148	0.223	0.283
-254.107	-200.000	0.053	0.257
-253.092	14.259	-0.232	0.177
-252.078	545.330	0.016	-0.038
-251.063	-200.000	-0.017	-0.243
-250.049	-124.628	0.133	-0.020
-249.034	800.000	-0.084	-0.250
-248.019	18.803	0.145	-0.114
-247.005	28.205	-0.232	0.193
-245.990	-200.000	0.010	-0.049
-244.976	-107.779	-0.069	-0.015
-243.961	344.384	-0.047	0.090
-242.946	288.072	-0.048	0.085
-241.932	212.267	0.062	0.096
-240.917	122.014	-0.140	-0.172
-239.903	45.840	0.136	0.123
-238.888	-72.844	0.174	-0.063
-237.873	-11.571	0.062	0.040
-236.859	419.567	-0.131	-0.276
-235.844	-19.831	-0.216	0.131
-234.830	-20.612	0.356	0.214
-233.815	79.638	-0.202	-0.213
-232.800	-117.828	-0.410	0.072
-231.786	-87.736	-0.168	0.050
-230.771	800.000	0.014	-0.043
-229.757	113.795	-0.083	0.099
-228.742	412.509	0.063	0.131
-227.727	264.666	-0.031	-0.053
-226.713	187.788	0.201	-0.294
-225.698	16.182	0.135	0.104
-224.684	174.931	-0.047	-0.066
-223.669	-92.373	-0.169	-0.047
-222.655	31.965	0.106	0.090
-221.640	-200.000	0.041	-0.185
-220.625	-200.000	-0.022	-0.129
-219.611	-200.000	-0.040	-0.198
-218.596	800.000	-0.082	0.260
-217.582	-200.000	-0.048	0.228
-216.567	148.654	0.185	-0.246
-215.552	-75.654	-0.044	0.015
-214.538	-150.965	-0.159	0.012
-213.523	-72.221	0.225	0.082
-212.509	-115.995	0.225	-0.041
-211.494	-157.544	0.065	0.004
-210.479	-200.000	0.043	0.259
-209.465	330.507	-0.049	0.093
-208.450	9.192	0.363	-0.269
-207.436	-78.808	0.140	0.047
-206.421	68.462	-0.264	-0.265
-205.406	13.176	0.103	-0.078
-204.392	-100.234	0.212	-0.052
-203.377	194.252	-0.153	-0.227
-202.363	800.000	-0.077	-0.237
-201.348	80.004	-0.083	-0.088
-200.333	540.353	-0.070	0.164
-199.319	-79.725	-0.287	-0.095
-198.304	28.803	0.168	0.140
-197.290	-200.000	-0.021	0.147
-196.275	563.611	0.131	-0.310
-195.260	-121.211	-0.121	-0.020
-194.246	63.947	0.054	0.053
-193.231	-126.070	-0.356	0.052
-192.217	800.000	-0.033	0.134
-191.202	800.000	0.046	0.127
-190.187	-113.318	0.165	0.032
-189.173	79.377	-0.129	0.136
-188.158	800.000	-0.106	-0.290
-187.144	-200.000	-0.020	0.237
-186.129	75.230	0.209	0.216
-185.114	800.000	-0.103	-0.315
-184.100	-111.957	-0.588	0.116
-183.085	120.016	-0.290	0.353
-182.071	647.683	-0.103	0.257
-181.056	-52.232	-0.407	-0.185
-180.042	800.000	-0.069	-0.230
-179.027	-200.000	0.012	0.229
-178.012	92.247	-0.174	0.192
-176.998	-191.400	0.158	0.002
-175.983	-4.630	0.568	-0.384
-174.969	-82.287	0.235	0.075
-173.954	13.105	-0.113	-0.086
-172.939	428.101	-0.062	-0.131
-171.925	675.599	0.162	-0.412
-170.910	-19.704	-0.088	0.054
-169.896	601.724	0.096	-0.234
-168.881	-56.595	-0.126	-0.055
-167.866	-56.072	-0.236	-0.103
-166.852	494.490	-0.075	-0.168
-165.837	66.859	0.261	-0.260
-164.823	229.560	0.054	0.087
-163.808	-88.676	-0.285	-0.083
-162.793	800.000	0.046	-0.162
-161.779	-13.839	0.119	0.075
-160.764	580.652	-0.210	0.504
-159.750	373.768	0.055	-0.110
-158.735	135.159	-0.127	0.162
-157.720	-108.255	0.060	0.013
-156.706	-150.323	0.333	-0.025
-155.691	-171.102	-0.288	0.010
-154.677	-108.838	0.517	0.108
-153.662	800.000	-0.068	-0.201
-152.647	-54.014	0.262	-0.117
-151.633	486.019	0.095	-0.211
-150.618	174.667	0.034	-0.047
-149.604	53.241	-0.220	-0.206
-148.589	-41.562	-0.138	-0.070
-147.574	-157.520	-0.205	-0.012
-146.560	253.076	0.036	-0.060
-145.545	-103.528	0.361	-0.083
-144.531	749.993	-0.130	0.343
-143.516	800.000	0.104	-0.317
-142.502	-172.141	0.247	-0.008
-141.487	-130.933	-0.284	-0.037
-140.472	-35.344	-0.317	0.168
-139.458	90.800	0.085	0.093
-138.443	-40.390	0.155	-0.079
-137.429	800.000	-0.056	0.170
-136.414	-22.745	-0.288	0.170
-135.399	-200.000	0.081	-0.417
-134.385	-200.000	0.001	-0.125
-133.370	-200.000	0.004	-0.053
-132.356	564.683	0.246	0.582
-131.341	-200.000	0.015	-0.185
-130.326	800.000	0.047	0.138
-129.312	-50.834	-0.125	0.058
-128.297	-173.246	0.167	-0.005
-127.283	137.701	-0.045	-0.058
-126.268	-126.116	-0.216	-0.032
-125.253	61.058	-0.239	-0.231
-124.239	-108.235	-0.417	-0.088
-123.224	-17.155	0.222	-0.137
