DTS Sentinel unit serial number:	SN413079Multiplexer serial number:	ORYXHardware model number:	OX4-SRSoftware version number:	ORYX F/W v4.00 Oryx Data Collector v3.7.2.0data status	okinstallation	princeton_trtdifferential loss correction	single-endedforward channel	channel 1reverse channel	N/Adate	2019/09/11time	03:40:11forward acquisition time	60.00reverse acquisition time	0.00gamma	496.2192k internal	0.2330k external	0.2330temperature offset calibration	0.9926default loss term (dB/km)	0.3790temperature slope calibration	1.0000multiplexer offset coefficient	1.0000multiplexer slope coefficient	1.0000fibre end	0.00T internal ref (°C)	29.50T ext. ref 1 (°C)	-0.29T ext. ref 2 (°C)	23.98length (m)	temperature (°C)	Stokes	anti-Stokes-747.200	228.859	0.072	-0.118
-746.185	-200.000	-0.042	-0.263
-745.171	10.192	-0.246	-0.189
-744.156	-200.000	-0.019	0.139
-743.142	172.787	-0.251	-0.364
-742.127	158.068	0.173	0.242
-741.112	662.436	0.077	-0.201
-740.098	-200.000	-0.096	0.432
-739.083	-27.438	0.148	0.087
-738.069	244.936	-0.137	0.232
-737.054	-197.664	-0.068	-0.000
-736.039	-71.130	-0.444	0.168
-735.025	-23.004	0.409	-0.248
-734.010	36.001	0.193	-0.171
-732.996	-88.277	-0.115	-0.035
-731.981	123.588	-0.113	0.143
-730.966	-77.264	-0.177	-0.062
-729.952	79.282	-0.061	-0.065
-728.937	-66.590	-0.246	-0.098
-727.923	800.000	-0.043	-0.132
-726.908	-200.000	0.079	-0.404
-725.894	800.000	-0.041	-0.143
-724.879	-98.068	-0.217	-0.056
-723.864	512.472	-0.166	-0.388
-722.850	800.000	0.115	-0.332
-721.835	13.515	-0.125	0.097
-720.821	318.483	-0.081	-0.154
-719.806	-200.000	0.042	0.309
-718.791	-16.782	0.110	0.070
-717.777	16.478	-0.113	-0.090
-716.762	-10.380	-0.086	-0.057
-715.748	75.147	0.107	-0.113
-714.733	-106.966	0.195	0.043
-713.718	82.191	0.102	0.111
-712.704	-184.435	-0.171	-0.003
-711.689	41.251	0.073	0.067
-710.675	62.752	0.130	0.131
-709.660	-53.323	0.136	0.063
-708.645	231.723	0.142	-0.234
-707.631	800.000	-0.038	-0.125
-706.616	-49.220	-0.268	-0.129
-705.602	-74.759	-0.157	-0.057
-704.587	19.811	-0.410	-0.332
-703.572	505.692	0.110	-0.255
-702.558	176.548	-0.108	0.157
-701.543	-200.000	-0.019	0.174
-700.529	266.598	-0.126	-0.221
-699.514	-200.000	-0.015	-0.099
-698.499	2.874	0.265	-0.194
-697.485	800.000	-0.054	-0.157
-696.470	-111.408	0.319	0.065
-695.456	-45.826	0.132	0.065
-694.441	-97.401	0.245	-0.064
-693.426	38.914	0.149	0.134
-692.412	553.871	0.067	0.163
-691.397	281.536	-0.195	0.352
-690.383	-122.516	-0.226	0.037
-689.368	800.000	-0.115	0.344
-688.354	-200.000	0.018	-0.138
-687.339	207.592	-0.139	-0.219
-686.324	-130.906	0.285	0.038
-685.310	414.292	0.033	-0.071
-684.295	34.339	0.339	-0.297
-683.281	289.651	-0.203	-0.369
-682.266	800.000	-0.079	-0.296
-681.251	15.739	0.381	-0.301
-680.237	52.821	-0.200	0.192
-679.222	-200.000	-0.005	0.093
-678.208	72.677	-0.103	-0.108
-677.193	-52.666	-0.159	-0.074
-676.178	-15.014	0.269	-0.173
-675.164	-150.144	-0.170	0.013
-674.149	-19.336	0.267	-0.166
-673.135	-176.230	0.066	-0.002
-672.120	266.912	0.055	0.097
-671.105	-200.000	-0.002	0.117
-670.091	65.448	-0.123	-0.125
-669.076	-23.095	-0.052	0.031
-668.062	-20.252	0.441	0.273
-667.047	573.178	0.126	0.308
-666.032	-2.196	-0.211	-0.149
-665.018	334.601	-0.173	-0.336
-664.003	-111.370	-0.488	0.100
-662.989	285.628	0.099	-0.179
-661.974	-119.643	-0.259	0.045
-660.959	-200.000	-0.040	0.335
-659.945	342.357	0.116	-0.229
-658.930	-11.326	-0.202	-0.134
-657.916	-200.000	-0.012	-0.089
-656.901	98.588	-0.374	-0.432
-655.886	-200.000	-0.071	0.369
-654.872	-40.511	-0.174	-0.090
-653.857	-200.000	0.025	0.203
-652.843	595.502	-0.010	0.025
-651.828	-79.407	-0.253	-0.086
-650.814	2.476	0.157	0.114
-649.799	-143.607	-0.580	0.055
-648.784	26.930	0.040	0.034
-647.770	265.513	-0.023	-0.041
-646.755	193.435	-0.193	-0.292
-645.741	-19.268	-0.022	0.014
-644.726	-20.177	-0.127	0.079
-643.711	-16.936	0.158	-0.100
-642.697	76.180	0.031	0.033
-641.682	-181.360	-0.225	-0.004
-640.668	-200.000	-0.032	0.462
-639.653	5.211	0.118	0.087
-638.638	-200.000	0.018	0.086
-637.624	-200.000	0.061	-0.415
-636.609	359.184	-0.077	0.155
-635.595	153.463	0.060	-0.082
-634.580	-144.279	-0.163	-0.015
-633.565	-18.737	-0.220	-0.137
-632.551	-1.897	0.269	0.190
-631.536	49.611	0.358	0.338
-630.522	343.768	-0.057	-0.113
-629.507	21.156	-0.210	-0.171
-628.492	17.863	-0.160	-0.128
-627.478	154.853	0.078	0.107
-626.463	23.709	0.178	-0.147
-625.449	-94.868	-0.123	0.033
-624.434	-16.590	0.210	-0.133
-623.419	23.459	0.100	0.082
-622.405	50.282	0.080	-0.076
-621.390	-83.175	0.172	0.055
-620.376	-4.167	-0.116	-0.080
-619.361	-2.282	-0.104	-0.073
-618.346	800.000	-0.032	0.110
-617.332	-22.193	0.311	-0.189
-616.317	256.088	0.108	-0.185
-615.303	127.505	0.168	0.213
-614.288	-40.537	-0.058	-0.030
-613.273	800.000	-0.043	-0.181
-612.259	313.791	-0.079	0.150
-611.244	800.000	0.083	0.336
-610.230	95.587	0.120	0.137
-609.215	26.119	0.160	-0.134
-608.201	-77.143	0.388	-0.136
-607.186	-11.920	-0.200	-0.131
-606.171	-82.957	-0.098	0.032
-605.157	-31.197	-0.153	0.086
-604.142	-200.000	-0.027	0.262
-603.128	-87.483	-0.082	0.025
-602.113	-121.260	0.081	0.014
-601.098	92.169	0.316	0.357
-600.084	510.847	-0.101	0.234
-599.069	800.000	0.088	0.312
-598.055	1.659	0.262	-0.189
-597.040	-20.430	-0.482	-0.297
-596.025	-200.000	-0.017	0.146
-595.011	-167.583	-0.212	-0.008
-593.996	-108.852	0.190	0.041
-592.982	-166.928	0.325	-0.013
-591.967	-86.686	-0.088	-0.027
-590.952	800.000	0.048	-0.172
-589.938	-32.218	-0.175	0.098
-588.923	11.751	-0.182	-0.140
-587.909	213.562	-0.107	0.170
-586.894	375.694	0.053	0.109
-585.879	-23.241	0.105	0.063
-584.865	-159.331	0.307	-0.017
-583.850	-34.724	-0.145	-0.079
-582.836	-200.000	0.005	-0.164
-581.821	-47.480	-0.172	0.084
-580.806	-4.366	-0.266	-0.184
-579.792	-106.049	-0.279	0.063
-578.777	92.480	0.101	0.114
-577.763	23.794	-0.357	-0.294
-576.748	150.745	0.168	-0.229
-575.733	227.123	-0.167	-0.272
-574.719	-169.288	0.467	-0.017
-573.704	-30.440	0.035	0.020
-572.690	800.000	0.050	-0.194
-571.675	169.062	-0.217	-0.309
-570.661	-126.619	-0.155	-0.023
-569.646	-167.407	-0.261	-0.010
-568.631	-135.785	0.123	0.015
-567.617	-7.528	0.138	-0.093
-566.602	393.498	-0.017	-0.036
-565.588	-174.535	0.147	0.004
-564.573	-200.000	0.008	0.145
-563.558	134.274	0.247	0.320
-562.544	81.543	0.067	-0.072
-561.529	35.978	-0.199	-0.175
-560.515	-200.000	-0.033	-0.156
-559.500	-95.291	-0.238	0.064
-558.485	117.333	-0.316	-0.389
-557.471	-127.835	-0.126	-0.018
-556.456	-169.156	0.305	0.011
-555.442	-200.000	-0.000	-0.267
-554.427	-54.544	0.098	0.044
-553.412	179.838	-0.127	-0.187
-552.398	31.344	0.111	-0.096
-551.383	250.852	0.094	-0.160
-550.369	-200.000	0.010	-0.053
-549.354	315.638	-0.071	0.133
-548.339	419.100	-0.029	0.062
-547.325	110.335	0.175	-0.210
-546.310	5.083	0.294	0.217
-545.296	19.088	-0.041	-0.033
-544.281	-200.000	-0.041	0.243
-543.266	63.669	-0.037	0.037
-542.252	-66.238	-0.256	0.102
-541.237	-115.477	0.225	0.042
-540.223	143.145	0.071	-0.094
-539.208	800.000	0.147	-0.545
-538.193	538.887	0.059	-0.139
-537.179	-76.086	-0.044	-0.016
-536.164	-69.875	-0.051	0.019
-535.150	800.000	-0.063	-0.224
-534.135	-79.839	0.238	0.080
-533.121	101.065	-0.067	-0.078
-532.106	-191.742	-0.103	-0.001
-531.091	-84.134	-0.266	-0.084
-530.077	-65.404	-0.181	0.073
-529.062	-83.086	-0.144	-0.046
-528.048	-152.744	0.542	-0.038
-527.033	-95.661	-0.230	-0.061
-526.018	65.587	-0.103	0.104
-525.004	660.691	0.067	-0.171
-523.989	6.563	-0.215	-0.159
-522.975	-82.975	0.144	-0.046
-521.960	265.245	0.196	-0.340
-520.945	319.990	0.194	-0.367
-519.931	-200.000	-0.043	0.314
-518.916	354.228	-0.048	-0.095
-517.902	-14.640	-0.326	0.209
-516.887	-104.706	0.233	0.054
-515.872	704.643	0.092	-0.243
-514.858	800.000	-0.058	-0.234
-513.843	-114.605	-0.220	-0.042
-512.829	-31.134	-0.311	-0.175
-511.814	-200.000	-0.074	0.353
-510.799	386.692	-0.084	0.173
-509.785	-117.785	0.210	0.038
-508.770	800.000	-0.194	0.609
-507.756	800.000	-0.036	-0.112
-506.741	-200.000	-0.023	0.123
-505.726	-101.114	-0.232	0.057
-504.712	-200.000	-0.019	0.216
-503.697	697.875	0.067	0.175
-502.683	800.000	-0.054	0.212
-501.668	-157.557	-0.604	-0.036
-500.653	-136.017	-0.249	0.029
-499.639	-80.013	-0.145	-0.048
-498.624	-200.000	0.021	0.126
-497.610	564.523	-0.072	-0.175
-496.595	-200.000	-0.025	-0.141
-495.581	800.000	0.078	-0.234
-494.566	-115.262	-0.263	-0.050
-493.551	-105.152	0.190	0.043
-492.537	50.536	-0.068	-0.064
-491.522	15.180	-0.232	-0.181
-490.508	-200.000	0.028	-0.179
-489.493	166.481	-0.207	0.293
-488.478	-126.282	-0.189	-0.028
-487.464	37.074	-0.165	-0.145
-486.449	425.831	-0.155	-0.333
-485.435	51.104	-0.271	-0.256
-484.420	-76.411	0.122	-0.043
-483.405	24.041	0.121	0.100
-482.391	-84.576	0.286	0.090
-481.376	99.558	-0.142	0.164
-480.362	-132.807	-0.121	0.015
-479.347	-58.429	0.314	0.136
-478.332	-200.000	0.009	0.047
-477.318	17.377	-0.137	0.108
-476.303	417.693	-0.035	-0.075
-475.289	800.000	-0.038	-0.110
-474.274	137.447	-0.135	0.176
-473.259	173.824	0.213	0.307
-472.245	316.919	0.160	0.300
-471.230	416.168	0.127	0.270
-470.216	-102.044	0.191	-0.046
-469.201	0.876	-0.018	-0.013
-468.186	-140.306	-0.099	-0.010
-467.172	51.103	0.082	-0.077
-466.157	-80.954	-0.232	0.077
-465.143	-50.870	-0.200	-0.094
-464.128	45.731	-0.105	0.097
-463.113	62.869	-0.063	0.063
-462.099	242.528	-0.106	0.177
-461.084	800.000	0.065	-0.187
-460.070	-54.149	-0.069	-0.031
-459.055	146.027	-0.242	-0.324
-458.040	-200.000	0.005	-0.117
-457.026	-118.054	0.229	-0.041
-456.011	-58.602	0.131	-0.056
-454.997	-160.548	0.122	-0.007
-453.982	148.913	-0.054	0.072
-452.968	436.201	-0.144	-0.312
-451.953	48.453	-0.011	-0.010
-450.938	800.000	0.065	-0.266
-449.924	-84.952	-0.294	0.092
-448.909	-77.653	-0.119	-0.041
-447.895	-132.975	0.586	0.074
-446.880	-200.000	0.021	-0.160
-445.865	125.945	-0.156	-0.197
-444.851	-136.127	0.253	-0.030
-443.836	-106.817	0.338	-0.075
-442.822	-17.482	-0.199	0.125
-441.807	-134.374	-0.123	0.015
-440.792	-103.601	0.195	0.046
-439.778	-200.000	0.052	0.374
-438.763	-181.720	0.371	-0.007
-437.749	32.265	-0.045	0.039
-436.734	-200.000	0.009	0.220
-435.719	249.109	0.083	0.140
-434.705	160.905	-0.177	-0.246
-433.690	-126.253	0.121	0.018
-432.676	-64.836	-0.089	0.036
-431.661	-32.694	0.294	-0.162
-430.646	333.940	-0.070	-0.134
-429.632	166.968	-0.084	0.119
-428.617	200.932	-0.078	0.119
-427.603	209.319	0.182	0.284
-426.588	320.198	0.142	0.268
-425.573	800.000	-0.063	-0.186
-424.559	129.286	-0.023	-0.029
-423.544	-106.943	-0.414	0.091
-422.530	-115.142	-0.140	-0.026
-421.515	-156.678	0.434	-0.027
-420.500	-27.113	-0.202	-0.117
-419.486	584.154	-0.079	-0.192
-418.471	-200.000	-0.014	-0.193
-417.457	195.776	-0.205	0.310
-416.442	-200.000	-0.027	-0.314
-415.428	278.105	-0.052	0.091
-414.413	-16.724	-0.298	-0.187
-413.398	-117.832	0.138	-0.025
-412.384	800.000	0.037	-0.114
-411.369	-200.000	-0.125	0.553
-410.355	256.102	-0.079	0.135
-409.340	135.853	0.130	0.169
-408.325	161.426	-0.090	0.125
-407.311	800.000	0.166	-0.474
-406.296	61.786	-0.176	0.174
-405.282	11.390	0.170	-0.129
-404.267	293.155	0.174	0.316
-403.252	246.383	0.153	-0.257
-402.238	98.475	0.102	0.117
-401.223	50.938	-0.079	-0.074
-400.209	-16.108	-0.252	0.159
-399.194	-200.000	0.048	-0.247
-398.179	800.000	0.045	0.163
-397.165	-45.572	-0.187	0.092
-396.150	148.390	-0.188	-0.252
-395.136	89.221	0.148	0.164
-394.121	-200.000	0.001	-0.014
-393.106	-1.270	-0.070	0.049
-392.092	800.000	0.057	0.198
-391.077	-200.000	-0.043	0.218
-390.063	-152.900	0.127	-0.009
-389.048	-48.948	-0.108	-0.051
-388.033	-200.000	0.019	-0.180
-387.019	-11.532	0.149	-0.097
-386.004	0.383	0.030	-0.022
-384.990	-5.737	0.122	-0.083
-383.975	800.000	-0.022	-0.064
-382.960	41.969	0.203	-0.183
-381.946	149.135	0.017	0.023
-380.931	213.511	-0.160	0.251
-379.917	-155.083	0.391	0.025
-378.902	-200.000	-0.010	-0.357
-377.888	-200.000	0.020	-0.212
-376.873	34.963	0.267	0.232
-375.858	194.759	-0.175	0.263
-374.844	-100.716	0.309	-0.076
-373.829	562.086	0.118	-0.284
-372.815	-6.765	0.225	0.152
-371.800	-107.202	-0.067	0.015
-370.785	800.000	0.051	0.196
-369.771	800.000	0.122	0.460
-368.756	-6.337	-0.068	0.046
-367.742	37.151	0.160	-0.141
-366.727	-29.661	-0.149	0.084
-365.712	44.423	-0.113	0.103
-364.698	-200.000	-0.027	0.347
-363.683	-60.926	0.411	0.172
-362.669	-17.497	-0.169	0.106
-361.654	-76.372	-0.163	-0.057
-360.639	327.293	0.207	-0.394
-359.625	-200.000	0.062	-0.293
-358.610	-27.746	0.090	0.052
-357.596	38.548	-0.079	0.070
-356.581	-107.381	-0.252	-0.055
-355.566	800.000	-0.079	0.251
-354.552	418.110	-0.235	-0.498
-353.537	-90.183	-0.231	0.067
-352.523	-167.034	0.366	-0.015
-351.508	-103.949	0.109	0.025
-350.493	184.172	0.103	-0.151
-349.479	-107.241	0.149	0.033
-348.464	650.375	0.062	-0.156
-347.450	-200.000	-0.087	0.405
-346.435	-37.189	0.265	-0.140
-345.420	-154.733	0.290	0.019
-344.406	800.000	0.076	-0.212
-343.391	-64.011	-0.299	-0.121
-342.377	-27.972	0.173	0.099
-341.362	196.685	-0.217	-0.327
-340.348	29.146	-0.223	0.188
-339.333	-42.509	0.407	-0.205
-338.318	-193.231	0.147	-0.001
-337.304	-13.363	0.121	0.078
-336.289	-89.809	0.183	-0.053
-335.275	-148.805	-0.317	0.025
-334.260	101.226	-0.074	0.086
-333.245	-114.829	0.073	-0.014
-332.231	800.000	-0.067	0.265
-331.216	16.150	0.149	0.116
-330.202	-200.000	-0.033	0.164
-329.187	148.830	0.159	0.212
-328.172	800.000	-0.054	-0.190
-327.158	-200.000	-0.002	-0.341
-326.143	536.487	-0.055	0.129
-325.129	-14.484	0.145	-0.092
-324.114	-200.000	0.050	-0.324
-323.099	582.774	0.102	0.248
-322.085	4.752	0.202	0.147
-321.070	213.361	0.162	0.253
-320.056	-143.920	-0.048	0.005
-319.041	-166.204	0.152	-0.006
-318.026	-200.000	-0.043	-0.292
-317.012	-94.354	0.145	0.039
-315.997	98.129	0.087	-0.100
-314.983	-200.000	0.038	-0.189
-313.968	157.225	0.173	-0.236
-312.953	41.862	0.210	-0.188
-311.939	-26.317	0.082	-0.048
-310.924	-29.344	0.075	0.042
-309.910	-200.000	-0.026	-0.116
-308.895	562.049	0.066	-0.159
-307.880	680.678	-0.046	-0.119
-306.866	222.070	-0.070	0.111
-305.851	439.764	0.155	0.335
-304.837	-106.323	0.217	-0.048
-303.822	-28.694	-0.177	-0.101
-302.807	129.159	0.045	-0.057
-301.793	800.000	0.041	-0.147
-300.778	-81.209	-0.190	-0.062
-299.764	586.583	-0.136	0.330
-298.749	89.722	0.069	-0.076
-297.735	-200.000	0.017	-0.085
-296.720	153.188	-0.181	0.245
-295.705	-71.279	-0.153	0.057
-294.691	-85.927	0.143	0.044
-293.676	-63.890	0.342	0.138
-292.662	196.193	0.196	-0.295
-291.647	-200.000	0.024	-0.143
-290.632	-110.227	0.260	0.054
-289.618	293.385	0.364	-0.657
-288.603	-151.972	0.383	0.028
-287.589	800.000	0.052	0.163
-286.574	312.595	0.116	0.215
-285.559	-161.349	0.094	0.005
-284.545	-200.000	0.021	-0.137
-283.530	-102.578	-0.256	0.061
-282.516	51.085	0.170	-0.160
-281.501	2.678	-0.216	-0.155
-280.486	104.736	-0.095	0.111
-279.472	-67.875	-0.070	0.027
-278.457	800.000	-0.030	-0.111
-277.443	-200.000	0.020	-0.133
-276.428	800.000	0.035	0.117
-275.413	-108.931	0.342	0.072
-274.399	-200.000	-0.019	0.407
-273.384	-200.000	-0.021	0.108
-272.370	-116.712	0.086	0.016
-271.355	-200.000	0.008	0.137
-270.340	-162.996	-0.108	-0.005
-269.326	-61.705	-0.199	0.082
-268.311	-100.819	0.112	0.027
-267.297	800.000	-0.074	0.215
-266.282	-200.000	0.014	0.120
-265.267	-125.224	0.102	-0.015
-264.253	75.232	-0.200	0.209
-263.238	-200.000	-0.043	0.386
-262.224	238.080	0.124	0.203
-261.209	800.000	-0.090	0.311
-260.195	172.819	-0.096	0.136
-259.180	45.778	0.183	0.167
-258.165	556.193	-0.198	0.471
-257.151	-144.553	-0.365	0.033
-256.136	107.241	-0.286	-0.336
-255.122	625.037	-0.133	-0.331
-254.107	800.000	-0.025	0.086
-253.092	-170.333	0.233	0.008
-252.078	-108.120	-0.237	-0.051
-251.063	14.285	0.225	-0.173
-250.049	800.000	0.132	0.452
-249.034	44.370	0.052	0.048
-248.019	-120.086	-0.155	0.026
-247.005	-186.447	-0.130	0.002
-245.990	-137.882	0.222	-0.024
-244.976	92.967	-0.081	0.090
-243.961	-200.000	-0.016	0.233
-242.946	-5.262	0.093	0.063
-241.932	-89.492	-0.162	0.047
-240.917	-144.664	0.311	-0.028
-239.903	-200.000	0.039	-0.227
-238.888	-1.372	-0.282	0.197
-237.873	-139.905	-0.292	0.030
-236.859	800.000	0.133	0.377
-235.844	506.712	0.046	0.105
-234.830	-75.361	-0.148	-0.052
-233.815	-200.000	-0.020	-0.231
-232.800	41.180	-0.260	0.232
-231.786	86.529	-0.049	-0.053
-230.771	-8.216	-0.348	-0.231
-229.757	-185.316	-0.272	-0.004
-228.742	-200.000	0.011	0.222
-227.727	-171.767	0.336	0.011
-226.713	606.017	0.076	-0.186
-225.698	679.241	0.072	0.184
-224.684	-87.218	-0.262	-0.078
-223.669	-200.000	-0.010	0.107
-222.655	-51.146	0.080	0.037
-221.640	-76.371	0.273	-0.095
-220.625	-69.225	0.124	-0.047
-219.611	800.000	0.098	-0.330
-218.596	800.000	0.071	0.220
-217.582	132.738	0.109	-0.138
-216.567	-177.289	0.197	0.005
-215.552	338.502	-0.156	-0.300
-214.538	-200.000	-0.008	-0.121
-213.523	-200.000	0.034	-0.159
-212.509	151.223	-0.131	-0.176
-211.494	504.339	0.095	0.217
-210.479	161.724	-0.080	0.110
-209.465	100.097	0.065	0.075
-208.450	-200.000	-0.052	-0.238
-207.436	27.297	-0.210	-0.174
-206.421	-104.865	-0.514	0.116
-205.406	139.544	-0.184	-0.239
-204.392	800.000	0.032	-0.111
-203.377	-71.472	0.224	0.082
-202.363	-43.844	-0.242	0.120
-201.348	-200.000	-0.044	0.193
-200.333	54.567	-0.111	0.105
-199.319	105.265	0.097	-0.113
-198.304	261.387	0.049	0.083
-197.290	198.706	0.083	0.125
-196.275	-200.000	0.055	-0.314
-195.260	-92.051	-0.374	-0.104
-194.246	-137.566	0.158	0.018
-193.231	214.237	0.167	0.261
-192.217	-200.000	-0.020	0.327
-191.202	637.995	-0.154	-0.386
-190.187	-110.170	0.074	-0.015
-189.173	-66.265	0.169	0.066
-188.158	-132.805	-0.059	-0.007
-187.144	800.000	0.116	-0.394
-186.129	-134.819	-0.172	-0.021
-185.114	-83.944	-0.258	-0.081
-184.100	-72.778	-0.271	-0.098
-183.085	-59.301	0.290	0.123
-182.071	-181.798	0.381	0.007
-181.056	-78.265	-0.273	-0.092
-180.042	274.726	-0.045	0.078
-179.027	-200.000	0.005	-0.092
-178.012	-140.265	0.207	-0.021
-176.998	800.000	-0.071	0.265
-175.983	63.354	0.208	-0.206
-174.969	-110.982	-0.590	-0.119
-173.954	-156.138	0.362	0.022
-172.939	401.668	0.126	0.261
-171.925	-200.000	-0.001	0.067
-170.910	102.756	0.072	-0.083
-169.896	-121.732	0.267	0.043
-168.881	702.218	-0.040	0.103
-167.866	-19.050	-0.088	0.054
-166.852	-98.410	-0.361	-0.091
-165.837	248.120	0.227	0.378
-164.823	-166.223	-0.340	0.014
-163.808	595.307	0.147	-0.359
-162.793	78.233	0.060	-0.064
-161.779	-24.809	0.085	0.050
-160.764	800.000	-0.047	-0.177
-159.750	397.789	-0.167	0.344
-158.735	259.994	-0.066	0.112
-157.720	524.454	-0.045	-0.104
-156.706	-200.000	-0.046	0.340
-155.691	-100.097	0.096	-0.024
-154.677	-67.863	0.066	0.025
-153.662	146.198	-0.137	-0.181
-152.647	-200.000	-0.042	0.197
-151.633	381.922	-0.094	0.190
-150.618	-72.079	-0.277	-0.101
-149.604	-45.827	-0.195	-0.095
-148.589	795.555	0.131	-0.354
-147.574	9.156	-0.211	0.157
-146.560	-87.763	0.393	0.116
-145.545	53.606	0.329	-0.311
-144.531	-42.024	0.044	0.022
-143.516	152.242	-0.140	-0.188
-142.502	-125.343	0.087	-0.013
-141.487	-49.378	0.131	0.062
-140.472	-43.022	0.225	0.112
-139.458	-200.000	-0.015	0.263
-138.443	180.578	0.089	0.129
-137.429	-42.471	0.208	0.104
-136.414	241.601	-0.149	-0.244
-135.399	180.984	0.140	-0.202
-134.385	6.099	0.286	-0.209
-133.370	-99.521	-0.289	-0.072
-132.356	170.189	0.065	0.092
-131.341	-121.049	-0.275	0.045
-130.326	708.400	-0.082	-0.212
-129.312	-117.885	-0.083	-0.015
-128.297	-200.000	0.074	0.331
-127.283	-200.000	0.026	-0.396
-126.268	-24.571	-0.211	0.124
-125.253	606.668	-0.113	-0.277
-124.239	43.295	-0.124	0.111
-123.224	-200.000	-0.002	0.399
-122.210	13.684	-0.105	-0.080
