DTS Sentinel unit serial number:	SN413079Multiplexer serial number:	ORYXHardware model number:	OX4-SRSoftware version number:	ORYX F/W v4.00 Oryx Data Collector v3.7.2.0data status	okinstallation	princeton_trtdifferential loss correction	single-endedforward channel	channel 1reverse channel	N/Adate	2019/09/17time	03:06:35forward acquisition time	60.00reverse acquisition time	0.00gamma	496.2192k internal	0.2323k external	0.2323temperature offset calibration	0.9956default loss term (dB/km)	0.3790temperature slope calibration	1.0000multiplexer offset coefficient	1.0000multiplexer slope coefficient	1.0000fibre end	0.00T internal ref (°C)	29.94T ext. ref 1 (°C)	0.12T ext. ref 2 (°C)	24.87length (m)	temperature (°C)	Stokes	anti-Stokes-747.200	-41.999	0.230	0.119
-746.185	-63.327	-0.208	0.087
-745.171	-200.000	-0.048	-0.314
-744.156	742.147	0.058	0.159
-743.142	240.356	0.047	0.080
-742.127	-200.000	-0.017	0.251
-741.112	370.671	-0.013	-0.026
-740.098	172.854	-0.208	0.303
-739.083	-66.657	0.067	-0.027
-738.069	-200.000	0.007	0.084
-737.054	800.000	0.112	-0.343
-736.039	97.472	-0.136	0.158
-735.025	-190.393	0.187	-0.002
-734.010	800.000	-0.039	-0.119
-732.996	-95.780	0.158	0.043
-731.981	-71.339	-0.373	-0.141
-730.966	-200.000	0.022	-0.207
-729.952	-200.000	0.001	0.081
-728.937	-200.000	-0.074	-0.432
-727.923	-123.279	-0.204	0.033
-726.908	-66.249	0.419	0.169
-725.894	-22.023	-0.101	-0.062
-724.879	-0.410	-0.251	0.180
-723.864	78.897	-0.103	-0.112
-722.850	153.145	-0.140	-0.193
-721.835	767.747	-0.041	0.111
-720.821	334.853	-0.157	-0.307
-719.806	40.199	0.077	-0.070
-718.791	23.807	-0.120	0.100
-717.777	-200.000	0.019	-0.179
-716.762	-22.053	0.159	0.097
-715.748	382.695	-0.137	0.284
-714.733	800.000	-0.123	0.455
-713.718	-200.000	0.007	-0.086
-712.704	-74.966	-0.079	-0.028
-711.689	800.000	0.083	-0.315
-710.675	800.000	-0.184	-0.580
-709.660	-55.600	-0.216	-0.097
-708.645	10.421	-0.248	-0.190
-707.631	-200.000	0.047	-0.310
-706.616	207.830	-0.140	-0.220
-705.602	585.723	0.092	-0.227
-704.587	-13.891	-0.047	-0.031
-703.572	14.283	0.124	0.097
-702.558	-14.186	0.095	0.062
-701.543	-200.000	0.009	-0.189
-700.529	264.715	0.089	0.157
-699.514	6.980	-0.174	0.131
-698.499	291.044	0.058	0.106
-697.485	800.000	-0.062	-0.255
-696.470	800.000	-0.094	0.289
-695.456	165.469	0.034	-0.049
-694.441	239.553	0.091	-0.152
-693.426	-104.109	-0.272	0.064
-692.412	32.445	0.191	0.167
-691.397	-200.000	0.007	-0.248
-690.383	-200.000	-0.017	-0.078
-689.368	-79.786	-0.362	-0.123
-688.354	-68.317	0.204	-0.080
-687.339	-200.000	-0.008	-0.220
-686.324	-88.049	-0.199	-0.060
-685.310	44.041	-0.166	-0.153
-684.295	-94.129	0.245	-0.068
-683.281	331.736	-0.060	0.116
-682.266	41.364	0.310	-0.282
-681.251	-99.989	-0.200	0.050
-680.237	91.226	-0.127	-0.144
-679.222	188.979	-0.069	0.104
-678.208	259.315	-0.065	0.113
-677.193	27.914	0.217	0.184
-676.178	-138.718	0.093	0.010
-675.164	106.051	0.181	-0.216
-674.149	91.014	-0.276	-0.312
-673.135	359.288	0.041	-0.082
-672.120	800.000	-0.042	-0.140
-671.105	-90.011	-0.096	0.028
-670.091	-93.164	-0.324	0.091
-669.076	-200.000	0.001	-0.076
-668.062	800.000	-0.129	0.488
-667.047	552.431	0.123	0.298
-666.032	-200.000	-0.022	0.160
-665.018	-161.574	0.186	-0.010
-664.003	-98.013	-0.089	0.023
-662.989	800.000	-0.107	-0.297
-661.974	-56.484	-0.127	-0.057
-660.959	310.257	-0.148	-0.278
-659.945	-25.819	0.455	0.270
-658.930	-27.570	-0.036	0.021
-657.916	800.000	-0.020	0.058
-656.901	800.000	-0.107	-0.350
-655.886	800.000	0.030	-0.116
-654.872	77.370	0.129	0.138
-653.857	-80.083	0.323	-0.109
-652.843	88.337	0.191	0.214
-651.828	800.000	0.077	-0.327
-650.814	-200.000	0.012	-0.138
-649.799	8.795	-0.086	-0.065
-648.784	43.739	-0.034	-0.032
-647.770	84.088	0.196	-0.216
-646.755	14.589	-0.039	-0.031
-645.741	152.943	0.092	0.126
-644.726	-108.820	-0.337	-0.073
-643.711	-200.000	-0.041	-0.222
-642.697	-8.230	0.259	0.176
-641.682	-123.711	0.309	-0.049
-640.668	33.566	0.079	0.069
-639.653	178.850	0.141	0.208
-638.638	56.859	-0.163	-0.160
-637.624	351.680	0.109	-0.218
-636.609	-7.207	0.227	-0.155
-635.595	-4.056	0.185	0.129
-634.580	-9.833	0.190	-0.127
-633.565	-138.036	-0.429	-0.048
-632.551	305.684	-0.097	0.182
-631.536	8.065	-0.172	0.129
-630.522	800.000	0.067	0.190
-629.507	-144.396	-0.047	-0.004
-628.492	-106.465	-0.060	-0.013
-627.478	-98.723	0.021	-0.005
-626.463	31.348	0.122	0.106
-625.449	-200.000	0.004	0.054
-624.434	-106.257	0.205	0.046
-623.419	-120.193	-0.281	0.048
-622.405	-200.000	0.165	0.000
-621.390	102.680	-0.099	0.116
-620.376	-30.376	-0.242	0.138
-619.361	166.243	-0.018	-0.025
-618.346	-200.000	0.036	-0.309
-617.332	800.000	0.021	0.088
-616.317	680.712	0.080	0.211
-615.303	101.121	-0.126	0.148
-614.288	10.521	-0.225	0.172
-613.273	-175.772	0.227	0.006
-612.259	207.317	-0.170	0.266
-611.244	-126.968	0.122	-0.018
-610.230	15.400	-0.330	0.260
-609.215	-67.676	0.200	-0.079
-608.201	100.198	0.092	-0.108
-607.186	-200.000	-0.005	-0.173
-606.171	-108.217	0.215	0.047
-605.157	-101.877	0.147	0.036
-604.142	-134.131	0.132	0.016
-603.128	-116.352	-0.181	-0.034
-602.113	-150.479	-0.263	-0.020
-601.098	-145.039	-0.255	-0.023
-600.084	-79.826	0.275	0.093
-599.069	800.000	-0.042	-0.118
-598.055	189.266	0.029	0.044
-597.040	-81.803	-0.232	0.076
-596.025	-200.000	-0.019	0.093
-595.011	-80.368	0.333	-0.112
-593.996	-34.065	-0.259	-0.143
-592.982	-94.243	-0.273	-0.075
-591.967	-200.000	0.044	0.239
-590.952	115.160	-0.149	-0.182
-589.938	-165.927	-0.354	-0.015
-588.923	-20.786	0.157	0.097
-587.909	483.476	0.140	-0.320
-586.894	-158.967	-0.328	0.019
-585.879	800.000	0.038	0.111
-584.865	-23.321	0.340	0.205
-583.850	800.000	0.011	-0.039
-582.836	800.000	0.015	-0.044
-581.821	209.725	-0.272	-0.428
-580.806	-119.901	-0.107	-0.018
-579.792	42.480	-0.075	-0.069
-578.777	-114.646	0.144	0.028
-577.763	79.808	-0.045	0.048
-576.748	186.919	0.080	-0.120
-575.733	95.546	0.027	-0.031
-574.719	800.000	0.028	-0.104
-573.704	199.665	-0.086	-0.133
-572.690	0.348	-0.206	-0.147
-571.675	-50.050	0.065	-0.031
-570.661	44.415	-0.166	-0.153
-569.646	800.000	-0.067	0.236
-568.631	-200.000	-0.047	0.220
-567.617	-32.306	-0.110	0.062
-566.602	800.000	-0.045	0.139
-565.588	-29.960	0.325	-0.186
-564.573	47.137	-0.131	0.122
-563.558	127.689	0.077	-0.098
-562.544	-40.546	-0.149	-0.077
-561.529	-12.423	0.152	-0.100
-560.515	-11.926	-0.166	-0.109
-559.500	-200.000	0.058	-0.261
-558.485	-200.000	0.006	-0.143
-557.471	21.629	0.284	-0.232
-556.456	-116.869	-0.121	0.022
-555.442	-109.006	-0.132	0.028
-554.427	-166.558	0.223	-0.009
-553.412	800.000	0.030	-0.099
-552.398	-69.847	0.322	-0.123
-551.383	146.336	0.277	0.372
-550.369	-100.781	-0.434	0.107
-549.354	-200.000	-0.000	-0.148
-548.339	754.625	0.028	0.075
-547.325	-163.029	0.197	0.010
-546.310	-174.912	0.233	0.007
-545.296	-28.125	-0.140	-0.081
-544.281	-200.000	0.069	-0.381
-543.266	-200.000	-0.066	-0.316
-542.252	-148.546	0.170	-0.014
-541.237	800.000	0.121	0.391
-540.223	800.000	0.079	-0.231
-539.208	-200.000	0.004	0.087
-538.193	-200.000	-0.036	-0.195
-537.179	74.493	-0.231	-0.243
-536.164	-144.225	-0.405	-0.038
-535.150	180.373	-0.125	0.184
-534.135	-135.543	0.106	-0.013
-533.121	-200.000	0.047	0.314
-532.106	-200.000	0.005	-0.235
-531.091	-98.334	0.202	-0.052
-530.077	800.000	0.073	-0.238
-529.062	-38.859	0.076	-0.040
-528.048	800.000	0.141	0.414
-527.033	-12.164	0.148	0.097
-526.018	10.497	0.160	0.122
-525.004	121.219	-0.138	0.172
-523.989	-18.525	0.187	0.117
-522.975	105.679	0.117	0.139
-521.960	-65.641	-0.052	-0.021
-520.945	152.036	0.147	0.200
-519.931	-114.917	-0.216	0.041
-518.916	493.400	0.149	0.341
-517.902	-200.000	-0.022	0.265
-516.887	259.184	-0.152	-0.262
-515.872	-136.373	0.057	-0.007
-514.858	418.394	0.058	0.124
-513.843	800.000	0.122	0.338
-512.829	109.569	0.113	0.135
-511.814	0.739	-0.085	0.061
-510.799	-39.839	0.233	-0.122
-509.785	-140.536	-0.080	0.008
-508.770	-61.932	0.172	-0.072
-507.756	-56.351	-0.223	0.099
-506.741	-102.582	0.343	0.082
-505.726	-52.309	0.047	-0.022
-504.712	-200.000	-0.031	0.180
-503.697	163.826	-0.077	0.109
-502.683	-148.164	-0.120	-0.010
-501.668	-200.000	-0.036	0.241
-500.653	112.053	-0.107	-0.130
-499.639	-200.000	-0.023	-0.238
-498.624	216.097	-0.087	-0.138
-497.610	51.221	-0.038	-0.036
-496.595	-189.609	0.124	-0.001
-495.581	-25.754	-0.049	0.029
-494.566	636.966	-0.060	-0.151
-493.551	-92.543	0.109	0.031
-492.537	-87.043	-0.103	-0.031
-491.522	-200.000	0.041	0.222
-490.508	154.373	-0.196	0.269
-489.493	-47.435	-0.294	0.143
-488.478	-37.083	0.341	0.183
-487.464	90.597	-0.154	-0.172
-486.449	-58.925	0.142	0.062
-485.435	22.607	-0.019	0.016
-484.420	-10.804	-0.067	-0.044
-483.405	313.521	0.077	0.144
-482.391	-83.334	0.349	0.112
-481.376	-151.909	0.400	-0.029
-480.362	93.409	-0.125	-0.142
-479.347	433.898	-0.028	0.061
-478.332	-200.000	-0.019	-0.155
-477.318	451.430	-0.077	-0.170
-476.303	-55.278	-0.018	0.008
-475.289	10.355	-0.041	0.031
-474.274	-78.513	-0.210	-0.072
-473.259	-6.935	-0.242	0.164
-472.245	-84.726	-0.236	-0.074
-471.230	252.660	-0.043	-0.073
-470.216	-200.000	-0.035	0.187
-469.201	262.058	0.139	0.240
-468.186	-118.682	-0.329	0.058
-467.172	-188.591	0.445	0.006
-466.157	-200.000	-0.020	0.089
-465.143	-81.046	0.118	-0.039
-464.128	-200.000	-0.004	0.267
-463.113	-106.111	-0.156	0.035
-462.099	71.105	-0.316	0.327
-461.084	161.241	-0.026	-0.036
-460.070	800.000	-0.033	-0.130
-459.055	86.504	-0.128	0.141
-458.040	-50.146	0.091	0.043
-457.026	-29.940	0.130	0.074
-456.011	-122.988	-0.620	-0.100
-454.997	20.468	0.132	0.107
-453.982	-130.991	0.017	0.002
-452.968	241.764	0.160	0.266
-451.953	2.425	-0.098	-0.071
-450.938	96.402	-0.329	-0.375
-449.924	-160.603	0.088	-0.005
-448.909	-102.914	0.223	-0.053
-447.895	-47.845	-0.317	-0.153
-446.880	53.576	-0.112	0.107
-445.865	-200.000	0.066	-0.408
-444.851	3.358	0.326	-0.237
-443.836	-200.000	0.027	-0.266
-442.822	82.743	0.318	-0.344
-441.807	-82.381	-0.239	0.077
-440.792	73.136	0.124	0.129
-439.778	-61.211	0.138	0.058
-438.763	800.000	-0.037	-0.108
-437.749	-200.000	0.006	-0.204
-436.734	-187.757	-0.407	-0.005
-435.719	-22.887	0.254	-0.153
-434.705	-200.000	-0.011	-0.218
-433.690	75.281	-0.300	-0.316
-432.676	-87.291	0.087	0.026
-431.661	800.000	0.116	-0.342
-430.646	79.127	0.153	-0.164
-429.632	-200.000	0.029	-0.146
-428.617	-54.487	0.113	-0.051
-427.603	-200.000	0.042	0.557
-426.588	-40.578	-0.186	-0.096
-425.573	800.000	0.100	-0.293
-424.559	-8.482	0.268	0.180
-423.544	-131.126	0.327	0.043
-422.530	-54.140	0.155	-0.070
-421.515	-139.407	0.063	0.007
-420.500	652.318	-0.033	0.083
-419.486	-127.846	0.184	-0.026
-418.471	-71.305	0.098	0.037
-417.457	-194.985	0.201	0.002
-416.442	151.482	-0.178	0.241
-415.428	800.000	-0.062	0.222
-414.413	237.059	0.071	-0.118
-413.398	-84.281	0.109	0.034
-412.384	-108.512	0.404	0.087
-411.369	30.417	0.370	0.315
-410.355	92.142	-0.133	0.150
-409.340	-90.340	0.049	0.014
-408.325	-200.000	0.018	-0.161
-407.311	52.584	0.184	0.175
-406.296	-158.355	0.231	0.013
-405.282	-63.419	-0.306	-0.125
-404.267	800.000	-0.042	0.184
-403.252	-123.461	0.259	-0.041
-402.238	-15.324	-0.103	0.066
-401.223	-57.153	-0.217	0.095
-400.209	-52.768	0.266	-0.122
-399.194	211.401	0.058	-0.092
-398.179	140.194	-0.024	-0.031
-397.165	-151.283	-0.342	-0.025
-396.150	14.996	-0.213	-0.166
-395.136	-34.080	-0.128	-0.070
-394.121	-111.534	-0.426	-0.086
-393.106	-200.000	-0.029	-0.226
-392.092	119.121	0.128	-0.158
-391.077	-200.000	-0.002	-0.179
-390.063	-88.486	-0.226	0.067
-389.048	134.239	-0.108	0.140
-388.033	489.172	0.125	-0.284
-387.019	234.858	-0.246	-0.404
-386.004	-161.286	-0.356	-0.018
-384.990	-101.462	0.400	0.097
-383.975	2.300	0.090	-0.065
-382.960	117.624	-0.254	-0.311
-381.946	800.000	-0.067	0.212
-380.931	800.000	-0.026	-0.105
-379.917	-81.324	-0.270	0.089
-378.902	-35.653	-0.132	0.071
-377.888	238.872	0.079	-0.130
-376.873	-200.000	-0.010	-0.054
-375.858	-132.402	0.274	-0.035
-374.844	800.000	-0.050	-0.207
-373.829	-200.000	0.003	-0.042
-372.815	-200.000	-0.004	0.139
-371.800	-86.750	-0.257	-0.078
-370.785	800.000	0.087	-0.256
-369.771	-200.000	-0.005	0.282
-368.756	116.262	0.088	-0.108
-367.742	-120.740	-0.347	0.058
-366.727	-25.675	-0.273	0.161
-365.712	-200.000	0.099	0.448
-364.698	9.435	0.094	-0.071
-363.683	229.036	0.061	-0.099
-362.669	124.544	-0.130	0.163
-361.654	800.000	-0.033	0.107
-360.639	-130.620	-0.105	-0.014
-359.625	-13.508	0.285	0.184
-358.610	671.403	-0.071	0.182
-357.596	-200.000	-0.013	-0.131
-356.581	693.173	-0.095	0.249
-355.566	722.441	-0.116	-0.307
-354.552	127.877	0.179	0.226
-353.537	134.290	-0.197	-0.253
-352.523	800.000	0.122	0.385
-351.508	-4.225	0.153	0.105
-350.493	3.564	-0.236	-0.171
-349.479	800.000	-0.057	0.189
-348.464	132.654	0.217	-0.278
-347.450	56.166	-0.120	0.116
-346.435	-200.000	0.021	0.111
-345.420	-107.668	-0.177	-0.038
-344.406	131.172	-0.082	0.105
-343.391	-200.000	-0.002	-0.062
-342.377	89.324	-0.159	0.176
-341.362	-146.926	-0.167	0.014
-340.348	-122.324	0.207	-0.034
-339.333	-151.142	0.067	-0.005
-338.318	428.448	-0.112	0.241
-337.304	145.387	0.087	-0.116
-336.289	-0.112	-0.110	0.078
-335.275	-55.294	-0.135	-0.060
-334.260	-200.000	0.064	0.402
-333.245	278.873	0.099	-0.175
-332.231	-200.000	0.001	-0.061
-331.216	-107.841	-0.229	-0.050
-330.202	99.725	-0.120	-0.138
-329.187	54.011	-0.170	-0.162
-328.172	800.000	-0.070	0.238
-327.158	412.190	-0.148	0.313
-326.143	-200.000	0.054	-0.286
-325.129	173.904	0.314	-0.450
-324.114	64.626	-0.056	-0.056
-323.099	-101.568	0.063	0.015
-322.085	800.000	0.082	-0.317
-321.070	-200.000	0.022	0.220
-320.056	-200.000	0.061	0.307
-319.041	122.143	0.174	-0.215
-318.026	-195.445	-0.074	-0.001
-317.012	-10.748	0.166	-0.109
-315.997	-200.000	-0.074	0.436
-314.983	-46.473	-0.299	0.145
-313.968	-49.507	-0.118	-0.056
-312.953	395.017	0.141	0.293
-311.939	129.855	0.173	0.220
-310.924	-200.000	-0.046	0.233
-309.910	-55.827	0.360	0.160
-308.895	-40.580	-0.100	0.052
-307.880	273.736	-0.043	-0.076
-306.866	-200.000	0.025	-0.110
-305.851	149.843	-0.103	0.139
-304.837	-200.000	0.048	0.277
-303.822	-60.386	0.181	-0.076
-302.807	-37.541	0.332	0.176
-301.793	410.557	-0.093	0.195
-300.778	332.649	-0.177	-0.339
-299.764	16.525	-0.059	-0.047
-298.749	-158.040	0.321	0.019
-297.735	116.097	-0.289	-0.351
-296.720	800.000	-0.093	0.270
-295.705	45.843	-0.034	0.031
-294.691	-44.390	-0.145	-0.072
-293.676	47.243	-0.092	-0.085
-292.662	-200.000	0.020	0.194
-291.647	-74.249	-0.234	-0.084
-290.632	-130.164	0.183	0.025
-289.618	-200.000	-0.059	0.274
-288.603	-84.781	0.261	0.081
-287.589	24.563	0.030	0.024
-286.574	-51.189	-0.120	-0.056
-285.559	800.000	0.059	-0.212
-284.545	133.432	-0.094	-0.120
-283.530	-60.935	0.107	0.045
-282.516	142.713	-0.103	0.136
-281.501	312.584	-0.182	-0.339
-280.486	77.393	0.138	0.145
-279.472	-200.000	-0.009	0.086
-278.457	2.459	0.104	0.074
-277.443	286.719	-0.167	-0.299
-276.428	736.387	0.055	0.145
-275.413	-67.544	-0.247	-0.096
-274.399	500.587	0.090	-0.205
-273.384	79.290	-0.114	0.121
-272.370	160.034	0.166	-0.230
-271.355	-140.126	-0.307	-0.032
-270.340	-39.460	-0.100	0.052
-269.326	143.927	0.165	-0.218
-268.311	62.605	0.207	0.205
-267.297	-200.000	0.007	0.213
-266.282	-200.000	-0.030	0.141
-265.267	-200.000	-0.025	-0.147
-264.253	373.197	-0.195	-0.393
-263.238	35.692	-0.213	-0.186
-262.224	49.255	-0.104	0.097
-261.209	-200.000	-0.018	-0.401
-260.195	110.625	-0.181	-0.216
-259.180	-90.093	0.264	-0.076
-258.165	-200.000	-0.010	-0.051
-257.151	364.256	0.092	-0.183
-256.136	800.000	-0.058	0.200
-255.122	20.466	-0.171	0.137
-254.107	-83.464	-0.161	-0.051
-253.092	-200.000	-0.023	0.443
-252.078	388.515	-0.104	0.213
-251.063	-99.084	0.371	-0.093
-250.049	-200.000	-0.416	0.001
-249.034	-200.000	0.001	-0.142
-248.019	-31.217	0.182	0.101
-247.005	47.160	-0.072	0.066
-245.990	65.482	0.192	0.192
-244.976	254.315	0.073	-0.124
-243.961	800.000	-0.144	-0.395
-242.946	-200.000	0.067	0.363
-241.932	87.135	0.151	-0.165
-240.917	-84.484	-0.031	-0.010
-239.903	-153.976	0.238	0.016
-238.888	171.411	0.158	0.224
-237.873	222.858	-0.030	0.048
-236.859	-200.000	-0.018	0.153
-235.844	800.000	-0.090	-0.290
-234.830	-200.000	0.077	0.347
-233.815	-81.727	0.561	-0.182
-232.800	69.868	-0.204	-0.209
-231.786	13.568	0.336	0.258
-230.771	-138.320	-0.047	-0.005
-229.757	-57.615	-0.094	-0.041
-228.742	315.427	0.131	-0.245
-227.727	165.861	-0.188	0.263
-226.713	-58.352	0.201	-0.086
-225.698	-125.255	-0.405	0.061
-224.684	-178.497	-0.132	0.003
-223.669	98.391	0.079	0.091
-222.655	119.476	-0.128	0.156
-221.640	30.792	-0.114	0.097
-220.625	-200.000	0.042	-0.202
-219.611	63.265	0.165	-0.163
-218.596	-131.807	0.465	0.060
-217.582	-11.875	-0.225	-0.146
-216.567	-78.866	0.346	-0.117
-215.552	-51.242	-0.124	0.058
-214.538	-200.000	0.002	-0.041
-213.523	-200.000	0.029	-0.329
-212.509	-29.966	0.175	0.098
-211.494	102.758	-0.102	-0.118
-210.479	-17.809	0.308	-0.191
-209.465	-75.064	0.054	0.019
-208.450	-61.084	-0.064	0.027
-207.436	-40.108	0.225	0.116
-206.421	183.216	-0.096	-0.140
-205.406	296.848	0.125	0.226
-204.392	327.284	-0.018	0.034
-203.377	624.858	0.091	-0.227
-202.363	61.883	-0.311	-0.306
-201.348	-200.000	-0.018	-0.112
-200.333	-200.000	0.021	-0.250
-199.319	-48.107	0.259	-0.124
-198.304	-166.560	-0.221	0.009
-197.290	278.219	-0.040	-0.071
-196.275	-68.995	0.081	-0.031
-195.260	205.598	0.187	0.288
-194.246	425.907	0.075	0.160
-193.231	-74.437	0.039	0.014
-192.217	136.814	0.016	-0.021
-191.202	800.000	0.003	-0.011
-190.187	542.574	0.062	-0.146
-189.173	136.968	0.102	0.132
-188.158	800.000	0.056	-0.167
-187.144	518.115	0.036	0.082
-186.129	-176.611	0.267	-0.007
-185.114	-12.206	0.105	0.068
-184.100	800.000	-0.047	0.130
-183.085	80.304	-0.178	-0.189
-182.071	-200.000	0.069	-0.334
-181.056	176.627	-0.063	0.091
-180.042	624.487	-0.124	0.309
-179.027	-164.512	-0.244	-0.011
-178.012	-1.168	-0.053	0.037
-176.998	-107.301	-0.321	0.070
-175.983	-125.404	-0.215	-0.032
-174.969	-200.000	0.003	-0.033
-173.954	106.341	0.074	0.087
-172.939	12.412	-0.306	0.233
-171.925	129.161	0.102	0.128
-170.910	-131.064	-0.176	-0.023
-169.896	335.523	0.159	-0.304
-168.881	-22.431	0.256	-0.153
-167.866	593.276	0.064	-0.155
-166.852	800.000	-0.038	0.119
-165.837	-57.389	-0.124	0.054
-164.823	-35.754	0.055	-0.029
-163.808	204.756	0.179	0.274
-162.793	-95.760	-0.248	-0.065
-161.779	36.168	-0.220	-0.191
-160.764	-81.009	0.189	0.062
-159.750	457.118	0.109	0.239
-158.735	343.004	0.071	0.137
-157.720	201.968	0.132	0.201
-156.706	-75.884	0.075	-0.026
-155.691	-19.520	-0.115	0.070
-154.677	800.000	-0.066	-0.198
-153.662	64.498	-0.064	-0.063
-152.647	-14.416	0.268	-0.170
-151.633	800.000	-0.052	0.226
-150.618	532.816	-0.121	0.282
-149.604	800.000	-0.125	0.340
-148.589	-200.000	0.010	0.054
-147.574	800.000	0.076	-0.316
-146.560	34.520	0.066	-0.057
-145.545	-200.000	0.010	0.260
-144.531	800.000	0.031	-0.126
-143.516	-200.000	0.093	-0.519
-142.502	17.517	0.171	-0.134
-141.487	-200.000	0.040	0.245
-140.472	-25.967	-0.057	-0.033
-139.458	-200.000	0.033	-0.262
-138.443	74.052	-0.145	0.150
-137.429	800.000	0.073	0.262
-136.414	-159.752	-0.158	-0.009
-135.399	-47.265	0.137	0.066
-134.385	-162.716	-0.064	-0.003
-133.370	36.924	0.167	0.145
-132.356	-200.000	-0.024	0.243
-131.341	65.906	0.163	-0.163
-130.326	88.213	-0.128	0.140
-129.312	-83.308	-0.503	-0.159
-128.297	-200.000	-0.009	-0.130
-127.283	650.550	-0.100	0.253
-126.268	-132.947	-0.283	0.035
-125.253	-185.537	0.215	-0.003
-124.239	-83.260	0.072	-0.023
-123.224	458.232	-0.029	0.063
-122.210	-19.641	-0.219	0.134
