DTS Sentinel unit serial number:	SN413079Multiplexer serial number:	ORYXHardware model number:	OX4-SRSoftware version number:	ORYX F/W v4.00 Oryx Data Collector v3.7.2.0data status	okinstallation	princeton_trtdifferential loss correction	single-endedforward channel	channel 1reverse channel	N/Adate	2019/09/19time	07:54:35forward acquisition time	60.00reverse acquisition time	0.00gamma	496.2192k internal	0.2341k external	0.2341temperature offset calibration	1.0011default loss term (dB/km)	0.3790temperature slope calibration	1.0000multiplexer offset coefficient	1.0000multiplexer slope coefficient	1.0000fibre end	0.00T internal ref (°C)	19.69T ext. ref 1 (°C)	0.56T ext. ref 2 (°C)	15.15length (m)	temperature (°C)	Stokes	anti-Stokes-747.200	120.914	-0.241	0.300
-746.185	-200.000	-0.016	-0.170
-745.171	65.049	-0.126	0.128
-744.156	-100.629	-0.211	0.052
-743.142	-200.000	-0.010	0.275
-742.127	29.026	-0.137	-0.116
-741.112	-16.279	-0.276	0.176
-740.098	800.000	-0.064	-0.194
-739.083	164.907	0.172	0.243
-738.069	46.481	-0.224	-0.208
-737.054	20.660	0.238	0.193
-736.039	80.633	-0.191	-0.206
-735.025	240.216	0.137	0.228
-734.010	279.491	0.114	-0.204
-732.996	800.000	0.034	-0.099
-731.981	-132.976	-0.123	0.016
-730.966	324.656	0.056	-0.108
-729.952	-200.000	0.068	0.367
-728.937	-85.891	-0.160	-0.050
-727.923	27.364	-0.080	0.067
-726.908	250.090	0.093	0.158
-725.894	-200.000	-0.025	-0.287
-724.879	133.087	-0.210	-0.271
-723.864	800.000	-0.088	-0.299
-722.850	457.409	0.136	-0.303
-721.835	566.256	-0.053	-0.128
-720.821	800.000	0.099	-0.327
-719.806	-147.300	-0.596	0.051
-718.791	-123.974	-0.376	0.059
-717.777	200.252	0.083	-0.127
-716.762	-6.864	0.208	0.141
-715.748	276.821	-0.192	-0.342
-714.733	-200.000	0.012	0.227
-713.718	-45.176	-0.256	0.127
-712.704	-200.000	0.005	0.116
-711.689	-200.000	-0.012	0.237
-710.675	358.573	-0.027	-0.054
-709.660	-106.225	-0.058	-0.013
-708.645	-200.000	0.049	0.273
-707.631	119.386	-0.036	-0.045
-706.616	-62.146	-0.297	-0.124
-705.602	-41.075	0.290	-0.150
-704.587	14.003	-0.069	0.054
-703.572	-80.397	0.336	-0.112
-702.558	301.409	-0.075	0.138
-701.543	-89.373	-0.016	-0.005
-700.529	-3.889	0.289	0.201
-699.514	800.000	-0.016	0.064
-698.499	-200.000	-0.019	-0.120
-697.485	-56.783	0.056	0.025
-696.470	738.034	0.078	-0.210
-695.456	225.026	-0.147	-0.238
-694.441	-154.948	-0.253	0.017
-693.426	515.078	-0.055	0.128
-692.412	279.827	-0.081	-0.144
-691.397	45.164	-0.139	-0.128
-690.383	-200.000	-0.003	-0.089
-689.368	-81.518	0.088	-0.029
-688.354	-146.862	0.275	-0.024
-687.339	186.861	-0.311	-0.464
-686.324	-200.000	0.004	-0.139
-685.310	97.553	-0.511	-0.587
-684.295	-101.260	0.368	-0.090
-683.281	-21.537	-0.278	0.170
-682.266	-21.608	0.092	0.056
-681.251	82.884	-0.472	-0.513
-680.237	-126.107	0.039	0.006
-679.222	-128.127	0.394	0.056
-678.208	-200.000	-0.044	-0.237
-677.193	-200.000	0.019	-0.287
-676.178	322.216	-0.141	0.269
-675.164	-130.100	0.244	-0.033
-674.149	-95.140	0.282	-0.076
-673.135	-126.312	-0.222	-0.033
-672.120	-31.664	-0.017	-0.010
-671.105	-86.869	-0.192	-0.059
-670.091	-4.690	0.212	-0.146
-669.076	192.867	-0.167	0.252
-668.062	64.117	-0.183	0.184
-667.047	475.063	-0.034	0.076
-666.032	280.632	-0.048	0.086
-665.018	343.667	-0.079	-0.154
-664.003	-143.112	-0.227	-0.022
-662.989	177.507	-0.133	-0.193
-661.974	-120.206	0.396	-0.068
-660.959	417.915	0.089	0.191
-659.945	147.996	0.206	-0.277
-658.930	-200.000	-0.035	-0.407
-657.916	543.981	0.030	0.072
-656.901	-86.973	-0.126	0.038
-655.886	23.104	-0.278	-0.228
-654.872	-105.613	-0.230	-0.052
-653.857	150.301	0.075	0.101
-652.843	-40.141	0.209	0.109
-651.828	800.000	-0.085	-0.259
-650.814	474.820	-0.078	-0.177
-649.799	-147.190	0.215	-0.018
-648.784	-167.814	0.062	0.002
-647.770	226.757	0.199	0.323
-646.755	-104.189	-0.521	-0.121
-645.741	-74.454	0.283	-0.102
-644.726	28.778	-0.109	-0.092
-643.711	-106.868	-0.093	0.021
-642.697	-200.000	0.046	0.233
-641.682	291.754	-0.067	-0.121
-640.668	569.798	0.063	0.152
-639.653	-110.618	-0.141	-0.029
-638.638	-200.000	0.010	-0.056
-637.624	6.162	0.168	-0.124
-636.609	800.000	-0.110	-0.321
-635.595	736.169	-0.036	0.098
-634.580	786.316	-0.078	-0.215
-633.565	-200.000	0.002	-0.267
-632.551	107.600	0.196	0.233
-631.536	-94.486	-0.179	0.049
-630.522	318.714	0.072	-0.136
-629.507	-91.838	0.101	0.029
-628.492	376.505	0.029	-0.058
-627.478	326.232	-0.007	-0.013
-626.463	297.569	-0.045	-0.083
-625.449	800.000	-0.049	0.201
-624.434	53.517	-0.077	0.073
-623.419	-200.000	0.006	0.183
-622.405	800.000	0.070	0.297
-621.390	-105.396	-0.155	-0.035
-620.376	800.000	-0.094	0.296
-619.361	505.695	0.057	0.131
-618.346	176.230	0.096	0.139
-617.332	155.529	-0.079	-0.108
-616.317	-128.627	-0.387	-0.055
-615.303	-172.993	0.238	0.007
-614.288	-154.224	0.305	0.021
-613.273	-73.117	-0.189	0.069
-612.259	206.689	0.093	0.144
-611.244	308.259	-0.101	-0.189
-610.230	208.954	0.074	0.115
-609.215	-119.882	0.277	-0.048
-608.201	112.012	-0.237	0.285
-607.186	57.005	0.329	0.319
-606.171	-200.000	-0.052	0.318
-605.157	-200.000	-0.001	-0.224
-604.142	328.727	-0.019	0.037
-603.128	-87.395	0.080	-0.024
-602.113	-13.491	0.107	0.069
-601.098	-23.993	-0.156	0.093
-600.084	-16.139	0.257	-0.163
-599.069	-23.350	-0.170	-0.102
-598.055	14.517	-0.221	-0.172
-597.040	-200.000	0.020	-0.126
-596.025	15.959	-0.091	-0.071
-595.011	28.667	-0.274	0.231
-593.996	198.388	0.182	-0.278
-592.982	-46.567	-0.310	-0.151
-591.967	-155.511	-0.119	0.008
-590.952	-52.445	0.541	0.249
-589.938	-106.532	0.188	-0.042
-588.923	-200.000	0.069	-0.492
-587.909	-200.000	-0.030	0.166
-586.894	470.601	0.102	0.229
-585.879	-10.640	0.208	0.137
-584.865	-63.979	0.184	-0.075
-583.850	-110.578	0.240	-0.049
-582.836	531.172	-0.188	-0.442
-581.821	-100.331	0.132	-0.033
-580.806	-45.571	-0.157	-0.077
-579.792	32.411	0.109	-0.094
-578.777	-200.000	-0.027	0.230
-577.763	7.094	0.085	-0.063
-576.748	113.247	0.093	-0.112
-575.733	284.841	0.052	-0.092
-574.719	367.985	0.178	0.357
-573.704	-153.224	0.238	0.017
-572.690	-101.609	-0.210	-0.051
-571.675	800.000	-0.070	0.223
-570.661	-62.218	-0.415	0.172
-569.646	792.042	0.092	-0.251
-568.631	-200.000	-0.020	0.394
-567.617	503.572	-0.057	-0.132
-566.602	167.566	-0.026	0.036
-565.588	-5.324	-0.046	-0.031
-564.573	800.000	-0.095	0.273
-563.558	108.114	0.183	-0.217
-562.544	117.454	-0.046	0.056
-561.529	-120.111	0.145	-0.025
-560.515	211.714	0.178	-0.280
-559.500	-59.393	-0.249	0.106
-558.485	-200.000	-0.046	0.357
-557.471	207.687	-0.157	0.244
-556.456	-56.217	0.087	-0.038
-555.442	-24.470	0.118	-0.070
-554.427	-200.000	-0.028	-0.338
-553.412	-200.000	0.012	0.091
-552.398	-200.000	0.022	0.256
-551.383	-84.943	0.099	0.031
-550.369	37.978	-0.153	-0.135
-549.354	-96.216	0.128	-0.034
-548.339	-113.358	-0.501	-0.098
-547.325	85.377	0.106	0.115
-546.310	19.060	-0.060	0.048
-545.296	-66.876	0.244	-0.096
-544.281	-122.202	0.198	0.032
-543.266	-200.000	0.020	-0.215
-542.252	-188.111	-0.146	-0.002
-541.237	-200.000	0.019	0.229
-540.223	800.000	-0.055	0.241
-539.208	-114.687	-0.088	0.017
-538.193	-200.000	-0.007	-0.075
-537.179	57.468	0.204	-0.198
-536.164	-132.341	0.137	-0.018
-535.150	-40.656	-0.203	-0.105
-534.135	-200.000	-0.011	0.248
-533.121	45.818	0.267	0.246
-532.106	-126.640	-0.055	0.008
-531.091	-200.000	0.018	-0.110
-530.077	-112.494	0.165	0.033
-529.062	203.012	0.111	0.170
-528.048	-145.640	0.161	-0.014
-527.033	-80.974	0.131	-0.043
-526.018	410.569	-0.044	0.093
-525.004	41.043	-0.353	0.317
-523.989	-49.648	0.300	0.142
-522.975	539.791	0.099	0.233
-521.960	-200.000	0.025	-0.390
-520.945	26.738	0.087	-0.073
-519.931	-200.000	0.059	-0.272
-518.916	-48.793	0.105	0.050
-517.902	800.000	0.086	-0.288
-516.887	27.723	0.248	-0.207
-515.872	-106.036	-0.211	0.047
-514.858	-37.024	0.173	-0.092
-513.843	86.305	0.075	-0.082
-512.829	-157.872	-0.193	-0.011
-511.814	-158.126	-0.154	-0.009
-510.799	551.435	0.068	0.161
-509.785	281.653	-0.062	-0.110
-508.770	-153.448	0.175	-0.012
-507.756	-67.639	0.193	-0.075
-506.741	-200.000	0.003	0.032
-505.726	120.809	-0.215	0.265
-504.712	755.953	0.112	0.301
-503.697	107.568	0.123	-0.145
-502.683	539.459	-0.063	-0.150
-501.668	31.775	0.042	-0.036
-500.653	-183.529	-0.524	-0.009
-499.639	-200.000	0.019	-0.256
-498.624	-153.544	-0.191	0.013
-497.610	-200.000	0.007	-0.069
-496.595	-23.125	0.042	-0.025
-495.581	59.798	-0.236	-0.232
-494.566	-29.028	0.229	-0.130
-493.551	-122.348	-0.240	0.039
-492.537	-140.629	0.144	-0.015
-491.522	396.806	0.065	-0.135
-490.508	292.145	-0.065	-0.117
-489.493	-200.000	0.016	0.140
-488.478	195.682	-0.118	0.178
-487.464	199.957	0.181	0.276
-486.449	307.246	0.083	-0.154
-485.435	337.513	-0.123	0.238
-484.420	2.604	0.368	-0.265
-483.405	-107.207	-0.145	0.032
-482.391	166.954	-0.048	0.067
-481.376	800.000	0.027	0.087
-480.362	800.000	0.037	0.135
-479.347	-105.015	0.186	0.042
-478.332	-200.000	-0.038	-0.207
-477.318	-134.805	-0.488	0.059
-476.303	383.700	-0.028	0.058
-475.289	-72.783	0.332	-0.121
-474.274	-87.324	-0.224	-0.067
-473.259	-163.922	-0.226	0.010
-472.245	800.000	0.071	0.285
-471.230	-18.221	-0.219	0.136
-470.216	272.464	0.159	0.278
-469.201	11.650	0.051	-0.039
-468.186	284.670	0.287	-0.512
-467.172	800.000	-0.072	-0.249
-466.157	-200.000	-0.006	0.134
-465.143	659.012	0.092	-0.236
-464.128	-4.086	-0.144	-0.099
-463.113	-63.965	-0.113	0.046
-462.099	-120.215	0.356	0.060
-461.084	179.975	-0.122	-0.177
-460.070	-200.000	0.073	-0.418
-459.055	-70.797	-0.188	-0.070
-458.040	-114.306	0.239	0.046
-457.026	199.978	0.102	0.156
-456.011	-82.675	0.090	-0.029
-454.997	405.682	0.138	0.289
-453.982	-31.564	0.405	-0.226
-452.968	-200.000	-0.007	0.115
-451.953	65.994	-0.196	-0.197
-450.938	-29.572	-0.464	-0.263
-449.924	-200.000	0.004	0.050
-448.909	800.000	-0.122	0.376
-447.895	-128.323	0.036	-0.005
-446.880	-138.711	-0.179	0.019
-445.865	-11.624	-0.398	-0.259
-444.851	-20.423	-0.200	-0.122
-443.836	-185.209	0.130	-0.002
-442.822	-51.512	0.103	-0.048
-441.807	-13.852	0.196	0.126
-440.792	56.614	0.072	-0.069
-439.778	618.437	0.053	-0.132
-438.763	53.834	0.109	-0.103
-437.749	165.370	-0.063	-0.088
-436.734	-2.504	0.111	-0.077
-435.719	800.000	0.054	0.206
-434.705	-143.181	-0.325	0.031
-433.690	-50.798	-0.138	0.064
-432.676	736.051	-0.099	-0.262
-431.661	-100.377	0.027	-0.007
-430.646	146.575	-0.057	0.076
-429.632	-96.276	-0.395	-0.104
-428.617	154.094	-0.201	-0.273
-427.603	-50.225	-0.089	-0.041
-426.588	800.000	-0.050	-0.154
-425.573	-200.000	0.064	-0.345
-424.559	-44.135	-0.201	-0.100
-423.544	251.512	0.108	-0.182
-422.530	79.663	-0.137	0.146
-421.515	-134.388	-0.272	0.033
-420.500	-89.116	0.136	-0.040
-419.486	48.570	-0.207	0.192
-418.471	-8.842	0.172	-0.114
-417.457	-143.695	0.004	-0.000
-416.442	-200.000	0.033	-0.241
-415.428	3.606	0.158	0.114
-414.413	-95.845	-0.064	0.017
-413.398	-200.000	0.004	-0.166
-412.384	-80.305	0.053	0.017
-411.369	18.468	0.079	0.063
-410.355	644.396	-0.062	0.156
-409.340	-200.000	-0.028	-0.199
-408.325	4.149	0.075	0.054
-407.311	-83.008	-0.110	-0.035
-406.296	-113.214	0.064	-0.013
-405.282	97.943	0.109	-0.124
-404.267	800.000	0.043	0.126
-403.252	-76.876	-0.161	-0.056
-402.238	-200.000	-0.010	-0.332
-401.223	-38.275	-0.184	-0.096
-400.209	-72.428	-0.586	-0.214
-399.194	315.894	-0.096	0.180
-398.179	-83.639	0.229	-0.072
-397.165	749.498	0.151	0.401
-396.150	721.084	0.103	-0.271
-395.136	-51.568	-0.242	-0.112
-394.121	-64.270	-0.063	0.025
-393.106	-180.399	-0.264	0.005
-392.092	100.375	0.147	-0.168
-391.077	800.000	0.082	0.296
-390.063	205.788	-0.011	0.017
-389.048	142.290	0.163	0.213
-388.033	-7.638	0.042	-0.028
-387.019	-200.000	0.037	-0.169
-386.004	59.792	0.326	0.318
-384.990	800.000	-0.038	-0.148
-383.975	-161.289	-0.577	0.030
-382.960	-68.984	0.281	0.107
-381.946	173.119	0.198	-0.282
-380.931	422.763	0.024	-0.052
-379.917	-97.820	-0.342	0.087
-378.902	-61.619	-0.304	0.126
-377.888	-200.000	0.060	-0.414
-376.873	-81.810	0.166	0.054
-375.858	221.392	-0.105	-0.166
-374.844	-172.074	-0.286	-0.009
-373.829	-22.480	0.217	-0.130
-372.815	-200.000	0.002	-0.144
-371.800	56.324	0.191	0.183
-370.785	156.206	0.163	0.222
-369.771	200.170	0.117	0.177
-368.756	-153.335	-0.251	-0.017
-367.742	18.633	-0.219	0.173
-366.727	248.303	0.154	0.257
-365.712	-108.644	-0.254	-0.054
-364.698	800.000	0.071	0.292
-363.683	128.556	-0.172	0.216
-362.669	239.261	0.160	-0.263
-361.654	-107.411	-0.278	0.060
-360.639	386.121	-0.109	-0.222
-359.625	423.972	-0.073	0.156
-358.610	76.734	-0.031	0.032
-357.596	143.192	0.120	-0.157
-356.581	800.000	0.030	-0.107
-355.566	562.452	0.083	0.198
-354.552	800.000	0.016	0.061
-353.537	408.621	0.017	0.035
-352.523	-84.661	-0.246	-0.076
-351.508	-106.971	0.081	0.018
-350.493	203.894	-0.203	0.310
-349.479	418.731	0.204	0.431
-348.464	800.000	0.028	0.076
-347.450	-90.351	-0.100	-0.029
-346.435	-64.424	0.305	0.122
-345.420	-155.165	0.126	-0.008
-344.406	800.000	0.073	-0.223
-343.391	-11.639	-0.177	-0.115
-342.377	-3.629	-0.308	-0.211
-341.362	-183.776	-0.138	-0.002
-340.348	36.227	0.232	-0.202
-339.333	262.279	-0.039	-0.066
-338.318	64.409	0.018	-0.018
-337.304	204.603	0.179	0.273
-336.289	-112.116	-0.044	-0.009
-335.275	-200.000	0.018	-0.176
-334.260	70.796	0.094	0.096
-333.245	11.481	0.061	-0.046
-332.231	-67.866	-0.085	0.033
-331.216	68.204	0.261	0.263
-330.202	-58.887	-0.263	0.112
-329.187	60.949	0.204	0.200
-328.172	714.568	-0.066	0.172
-327.158	733.862	-0.147	0.389
-326.143	-95.855	0.495	-0.130
-325.129	-200.000	0.032	-0.222
-324.114	-76.876	-0.455	0.157
-323.099	-200.000	-0.006	-0.225
-322.085	431.503	0.061	-0.131
-321.070	-123.154	0.232	0.037
-320.056	800.000	-0.085	0.256
-319.041	-200.000	0.074	0.341
-318.026	166.419	-0.153	-0.213
-317.012	135.990	-0.083	0.107
-315.997	88.620	-0.163	-0.178
-314.983	-200.000	-0.004	-0.200
-313.968	-57.079	-0.319	-0.139
-312.953	66.427	-0.173	-0.173
-311.939	-66.946	0.298	0.116
-310.924	-52.812	-0.131	-0.059
-309.910	-122.421	-0.124	-0.020
-308.895	-200.000	0.018	0.236
-307.880	-131.628	-0.231	0.030
-306.866	-200.000	-0.002	-0.226
-305.851	800.000	0.068	0.203
-304.837	265.832	0.150	-0.258
-303.822	-76.564	0.069	0.024
-302.807	-200.000	0.013	0.352
-301.793	645.297	0.123	-0.309
-300.778	-35.446	-0.153	-0.082
-299.764	-200.000	-0.024	0.262
-298.749	236.306	0.139	0.226
-297.735	-17.417	-0.263	0.163
-296.720	362.601	0.064	0.126
-295.705	-27.952	0.120	-0.068
-294.691	68.197	-0.242	0.244
-293.676	265.941	0.072	-0.123
-292.662	-24.841	0.218	0.127
-291.647	-27.652	0.134	0.076
-290.632	-117.659	0.241	0.043
-289.618	-50.887	-0.093	-0.043
-288.603	-200.000	-0.002	0.468
-287.589	138.676	-0.130	0.168
-286.574	-148.473	-0.367	0.030
-285.559	726.322	0.192	-0.504
-284.545	-81.134	0.036	0.012
-283.530	-200.000	-0.027	-0.135
-282.516	-200.000	0.016	-0.077
-281.501	143.983	0.091	-0.120
-280.486	59.801	0.259	0.252
-279.472	-200.000	-0.008	0.190
-278.457	31.388	0.124	-0.105
-277.443	-91.620	-0.161	0.045
-276.428	-116.977	0.287	-0.052
-275.413	800.000	-0.104	-0.411
-274.399	-101.153	-0.286	0.069
-273.384	-46.049	0.159	-0.077
-272.370	144.637	0.142	-0.186
-271.355	79.058	-0.273	-0.288
-270.340	177.662	-0.159	-0.227
-269.326	-187.267	0.295	0.004
-268.311	6.599	-0.083	0.061
-267.297	-14.468	-0.303	0.192
-266.282	-200.000	0.035	0.165
-265.267	147.799	0.043	-0.057
-264.253	46.534	-0.089	-0.081
-263.238	-177.788	-0.442	0.010
-262.224	800.000	0.061	-0.207
-261.209	800.000	0.059	0.204
-260.195	-44.504	0.037	-0.018
-259.180	-73.218	0.119	0.043
-258.165	437.700	0.114	0.244
-257.151	-98.041	-0.271	-0.069
-256.136	237.058	-0.124	-0.202
-255.122	95.126	0.114	0.128
-254.107	119.022	0.086	-0.104
-253.092	-23.273	-0.208	-0.123
-252.078	-14.436	0.162	0.102
-251.063	-58.141	-0.392	-0.168
-250.049	580.853	-0.019	-0.045
-249.034	28.841	0.217	-0.181
-248.019	26.567	0.089	0.073
-247.005	-112.705	0.363	-0.071
-245.990	133.264	0.241	-0.307
-244.976	-93.870	-0.331	-0.089
-243.961	-200.000	0.020	-0.171
-242.946	-157.304	-0.339	0.020
-241.932	-200.000	-0.001	0.008
-240.917	800.000	0.037	0.138
-239.903	-200.000	-0.024	0.323
-238.888	-38.512	0.144	0.075
-237.873	212.546	-0.086	-0.133
-236.859	-59.188	-0.249	0.105
-235.844	-200.000	-0.033	0.153
-234.830	-86.137	-0.423	-0.128
-233.815	-200.000	0.026	0.131
-232.800	-200.000	0.017	-0.108
-231.786	800.000	0.053	0.195
-230.771	123.892	0.060	0.074
-229.757	-1.077	-0.037	0.025
-228.742	434.476	-0.008	0.016
-227.727	78.253	-0.106	0.111
-226.713	166.155	-0.175	0.244
-225.698	222.914	0.181	-0.287
-224.684	115.974	0.057	-0.068
-223.669	78.107	-0.018	-0.019
-222.655	800.000	0.021	0.083
-221.640	162.940	0.136	0.188
-220.625	-200.000	-0.014	-0.060
-219.611	-200.000	0.012	-0.166
-218.596	24.727	0.089	-0.072
-217.582	-113.544	0.129	-0.025
-216.567	191.294	-0.034	0.051
-215.552	77.956	-0.168	-0.175
-214.538	-200.000	-0.020	0.412
-213.523	-200.000	0.002	0.019
-212.509	-73.087	0.264	0.095
-211.494	800.000	-0.037	-0.119
-210.479	-200.000	-0.021	-0.198
-209.465	283.223	-0.101	-0.178
-208.450	-200.000	0.068	0.515
-207.436	-200.000	-0.049	0.272
-206.421	-113.558	0.376	0.072
-205.406	800.000	0.067	0.204
-204.392	-153.195	0.131	-0.009
-203.377	-21.247	0.152	-0.091
-202.363	393.912	-0.068	-0.139
-201.348	-200.000	0.067	-0.492
-200.333	-200.000	0.010	0.372
-199.319	335.012	0.078	-0.148
-198.304	230.602	-0.023	-0.037
-197.290	14.471	-0.087	-0.067
-196.275	94.144	0.074	-0.082
-195.260	-200.000	-0.032	0.326
-194.246	-79.049	0.112	-0.037
-193.231	323.617	-0.004	0.007
-192.217	-1.576	0.193	0.134
-191.202	-46.127	-0.117	-0.056
-190.187	87.209	-0.105	0.114
-189.173	-127.175	0.384	-0.055
-188.158	-70.174	0.258	0.096
-187.144	-20.085	0.411	-0.249
-186.129	-31.736	0.462	0.254
-185.114	-109.398	-0.377	0.078
-184.100	-200.000	-0.020	0.247
-183.085	134.854	0.167	0.213
-182.071	-200.000	-0.040	-0.374
-181.056	-200.000	-0.033	-0.168
-180.042	800.000	-0.032	0.102
-179.027	-86.242	-0.173	0.052
-178.012	-200.000	0.031	-0.421
-176.998	100.337	0.286	-0.326
-175.983	-121.989	-0.104	-0.017
-174.969	800.000	0.025	-0.077
-173.954	-137.691	-0.153	0.017
-172.939	87.453	0.162	0.176
-171.925	-0.017	-0.112	0.078
-170.910	696.444	0.097	0.248
-169.896	-110.248	-0.255	-0.052
-168.881	-114.854	0.201	-0.038
-167.866	185.711	-0.118	0.172
-166.852	800.000	-0.027	-0.111
-165.837	515.058	0.132	-0.301
-164.823	-104.909	0.214	-0.048
-163.808	96.240	0.167	0.187
-162.793	-200.000	-0.007	0.050
-161.779	-84.058	-0.222	-0.069
-160.764	174.812	-0.028	0.039
-159.750	-200.000	-0.021	-0.182
-158.735	110.249	0.179	0.211
-157.720	-124.940	0.235	0.035
-156.706	-26.645	-0.239	0.137
-155.691	-90.604	-0.319	-0.090
-154.677	26.715	-0.126	-0.103
-153.662	-74.599	-0.273	0.096
-152.647	-121.002	0.316	-0.052
-151.633	-200.000	0.068	0.000
-150.618	-74.720	-0.300	-0.106
-149.604	154.826	-0.214	0.288
-148.589	-101.683	-0.145	0.035
-147.574	-200.000	-0.007	-0.241
-146.560	-131.701	-0.286	0.037
-145.545	31.268	0.271	-0.228
-144.531	-200.000	0.053	0.318
-143.516	365.164	-0.027	-0.052
-142.502	10.893	0.144	-0.108
-141.487	-193.059	-0.264	0.002
-140.472	-173.989	-0.312	-0.009
-139.458	359.430	-0.111	-0.218
-138.443	-74.595	-0.289	-0.102
-137.429	3.184	0.002	0.002
-136.414	-118.367	0.227	-0.039
-135.399	800.000	-0.063	0.206
-134.385	320.510	0.127	-0.236
-133.370	-200.000	-0.004	-0.154
-132.356	-90.142	0.038	-0.011
-131.341	800.000	-0.037	0.147
-130.326	-22.851	0.370	0.218
-129.312	60.448	-0.110	-0.107
-128.297	-131.480	-0.093	-0.012
-127.283	-195.920	-0.097	0.001
-126.268	-44.175	0.414	0.203
-125.253	-43.364	0.209	-0.103
-124.239	25.856	0.190	-0.155
-123.224	350.613	-0.147	-0.285
