DTS Sentinel unit serial number:	SN413079Multiplexer serial number:	ORYXHardware model number:	OX4-SRSoftware version number:	ORYX F/W v4.00 Oryx Data Collector v3.7.2.0data status	okinstallation	princeton_trtdifferential loss correction	single-endedforward channel	channel 1reverse channel	N/Adate	2019/09/15time	18:34:35forward acquisition time	60.00reverse acquisition time	0.00gamma	496.2192k internal	0.2290k external	0.2290temperature offset calibration	0.9932default loss term (dB/km)	0.3790temperature slope calibration	1.0000multiplexer offset coefficient	1.0000multiplexer slope coefficient	1.0000fibre end	0.00T internal ref (°C)	43.94T ext. ref 1 (°C)	6.77T ext. ref 2 (°C)	37.51length (m)	temperature (°C)	Stokes	anti-Stokes-747.200	-200.000	-0.002	0.044
-746.185	800.000	-0.149	0.454
-745.171	-146.619	-0.159	0.014
-744.156	-7.858	-0.080	-0.056
-743.142	800.000	0.155	0.569
-742.127	800.000	-0.084	0.243
-741.112	-200.000	-0.002	-0.265
-740.098	-200.000	0.041	-0.218
-739.083	-135.580	0.196	-0.024
-738.069	-148.093	-0.081	-0.007
-737.054	-200.000	-0.014	-0.320
-736.039	57.437	-0.168	0.168
-735.025	-40.838	0.056	0.030
-734.010	-139.634	-0.227	-0.025
-732.996	-112.635	-0.055	-0.011
-731.981	-154.934	0.053	-0.004
-730.966	22.464	-0.153	0.128
-729.952	-119.957	-0.385	-0.068
-728.937	-92.897	0.054	-0.015
-727.923	-7.757	-0.448	-0.310
-726.908	111.115	0.208	-0.257
-725.894	784.054	0.095	-0.265
-724.879	307.372	0.068	0.130
-723.864	-57.118	0.031	-0.014
-722.850	308.735	0.111	-0.211
-721.835	-63.169	-0.193	0.082
-720.821	68.460	0.171	-0.180
-719.806	-71.372	-0.087	0.033
-718.791	-172.346	-0.160	0.005
-717.777	-200.000	0.076	0.596
-716.762	800.000	-0.005	0.017
-715.748	-94.757	0.356	-0.099
-714.733	11.092	0.358	-0.280
-713.718	-200.000	-0.005	-0.248
-712.704	800.000	-0.068	-0.278
-711.689	113.132	0.262	-0.326
-710.675	800.000	0.062	0.237
-709.660	201.218	0.201	-0.317
-708.645	-61.684	-0.173	-0.074
-707.631	31.467	-0.032	-0.028
-706.616	-131.900	-0.084	0.011
-705.602	-200.000	0.027	-0.201
-704.587	-84.320	-0.203	-0.066
-703.572	9.488	0.073	-0.057
-702.558	71.042	0.148	-0.157
-701.543	-15.802	0.026	-0.017
-700.529	-200.000	-0.047	-0.312
-699.514	374.875	-0.078	-0.163
-698.499	-42.736	-0.118	-0.061
-697.485	69.824	0.110	-0.116
-696.470	24.445	0.324	-0.274
-695.456	-116.352	-0.129	-0.024
-694.441	-28.972	-0.050	0.030
-693.426	-55.614	0.519	-0.238
-692.412	-77.955	0.119	-0.042
-691.397	-151.084	0.311	-0.024
-690.383	123.583	-0.111	-0.143
-689.368	36.147	0.260	-0.234
-688.354	800.000	-0.054	0.224
-687.339	-200.000	-0.066	0.374
-686.324	234.163	-0.042	0.071
-685.310	-136.174	-0.157	0.019
-684.295	156.893	0.095	0.134
-683.281	556.315	-0.057	0.141
-682.266	20.517	0.196	-0.162
-681.251	241.855	-0.051	0.088
-680.237	-11.921	0.064	0.043
-679.222	77.486	0.071	0.078
-678.208	-200.000	0.008	-0.284
-677.193	122.081	-0.031	-0.040
-676.178	-200.000	-0.028	0.351
-675.164	-163.723	0.145	0.007
-674.149	59.793	0.240	-0.242
-673.135	134.174	0.109	-0.144
-672.120	46.322	0.178	0.169
-671.105	-14.338	-0.216	-0.142
-670.091	-200.000	0.011	-0.198
-669.076	-75.880	-0.096	0.035
-668.062	6.512	0.129	-0.098
-667.047	-13.266	0.331	-0.220
-666.032	-96.741	0.234	-0.063
-665.018	-200.000	-0.035	0.179
-664.003	-200.000	0.020	0.409
-662.989	182.441	-0.170	0.255
-661.974	800.000	0.030	0.085
-660.959	363.049	-0.168	-0.345
-659.945	-200.000	-0.012	-0.221
-658.930	-114.627	0.040	-0.008
-657.916	70.310	0.119	-0.125
-656.901	-124.934	-0.208	-0.033
-655.886	-116.515	-0.108	-0.020
-654.872	-50.369	-0.360	0.174
-653.857	-200.000	-0.012	0.234
-652.843	90.464	0.127	0.145
-651.828	-200.000	-0.003	0.180
-650.814	-48.018	-0.350	-0.173
-649.799	562.845	-0.110	-0.272
-648.784	110.443	-0.210	-0.258
-647.770	314.083	-0.055	-0.105
-646.755	-75.261	0.239	0.087
-645.741	49.097	0.171	0.164
-644.726	-93.321	-0.229	-0.065
-643.711	-200.000	-0.040	-0.268
-642.697	583.498	-0.032	-0.080
-641.682	326.508	-0.024	0.048
-640.668	299.641	0.079	0.148
-639.653	-200.000	0.050	0.280
-638.638	-163.390	-0.180	0.009
-637.624	-115.588	-0.190	0.036
-636.609	-200.000	0.042	-0.269
-635.595	-200.000	-0.039	-0.254
-634.580	-0.341	-0.141	-0.102
-633.565	-106.836	-0.233	0.053
-632.551	-110.967	0.091	0.019
-631.536	-157.610	0.218	-0.013
-630.522	-19.185	-0.103	-0.065
-629.507	-55.043	0.105	-0.048
-628.492	298.550	0.078	-0.147
-627.478	-54.109	0.136	-0.063
-626.463	593.203	-0.107	-0.270
-625.449	487.431	0.077	-0.180
-624.434	-200.000	-0.014	-0.082
-623.419	261.869	0.130	0.230
-622.405	-200.000	0.059	-0.291
-621.390	-200.000	0.000	-0.005
-620.376	33.683	0.225	0.199
-619.361	-96.003	-0.121	-0.033
-618.346	-86.573	-0.362	0.113
-617.332	332.074	-0.088	-0.172
-616.317	-97.042	-0.378	0.101
-615.303	800.000	0.067	-0.227
-614.288	12.314	-0.122	0.096
-613.273	79.482	0.116	-0.127
-612.259	264.722	-0.033	-0.059
-611.244	-200.000	0.016	0.426
-610.230	135.614	-0.218	0.289
-609.215	-200.000	0.064	0.344
-608.201	-142.793	-0.327	0.032
-607.186	-112.069	0.173	-0.036
-606.171	644.715	-0.128	-0.334
-605.157	120.688	-0.140	-0.178
-604.142	51.932	0.154	0.149
-603.128	-200.000	0.026	0.201
-602.113	-147.795	-0.338	-0.029
-601.098	-56.705	0.309	-0.139
-600.084	-51.731	0.323	0.153
-599.069	41.949	0.099	0.091
-598.055	-47.053	-0.409	-0.203
-597.040	-174.736	-0.325	0.009
-596.025	357.615	0.135	0.274
-595.011	624.219	0.105	0.268
-593.996	36.937	0.080	0.073
-592.982	-88.917	0.301	-0.091
-591.967	141.594	0.129	0.174
-590.952	-200.000	-0.222	0.001
-589.938	-144.725	-0.836	0.078
-588.923	-66.415	-0.056	-0.023
-587.909	-102.843	-0.094	-0.023
-586.894	-52.645	0.420	-0.198
-585.879	-176.865	-0.202	-0.005
-584.865	228.568	0.065	0.108
-583.850	222.426	-0.137	0.225
-582.836	-19.951	0.322	0.203
-581.821	293.844	-0.143	0.266
-580.806	-200.000	-0.024	-0.165
-579.792	-118.008	-0.439	-0.080
-578.777	-111.540	0.195	-0.040
-577.763	-50.858	0.183	0.087
-576.748	-200.000	-0.053	-0.246
-575.733	31.129	0.251	0.219
-574.719	314.050	-0.064	0.123
-573.704	-108.925	-0.283	-0.062
-572.690	-63.256	-0.119	-0.050
-571.675	421.086	-0.092	-0.200
-570.661	289.088	-0.145	0.267
-569.646	-80.408	-0.064	0.022
-568.631	302.583	0.200	0.376
-567.617	-62.208	0.203	0.086
-566.602	-200.000	0.024	-0.210
-565.588	25.372	-0.356	-0.301
-564.573	15.870	-0.044	-0.036
-563.558	800.000	0.105	-0.392
-562.544	800.000	0.067	-0.276
-561.529	-138.175	0.183	0.021
-560.515	-51.297	0.025	-0.012
-559.500	284.888	0.167	0.306
-558.485	-134.368	0.230	0.029
-557.471	50.218	-0.081	0.078
-556.456	-0.156	0.129	0.093
-555.442	-200.000	-0.004	0.136
-554.427	-108.118	-0.216	0.048
-553.412	-200.000	0.024	-0.144
-552.398	-200.000	0.006	-0.182
-551.383	-127.669	-0.193	0.028
-550.369	-75.716	-0.234	0.084
-549.354	243.309	-0.174	0.297
-548.339	-139.226	0.239	0.026
-547.325	-200.000	-0.008	-0.132
-546.310	571.052	-0.099	-0.245
-545.296	-200.000	-0.072	-0.428
-544.281	-83.315	-0.114	-0.037
-543.266	18.178	0.219	-0.178
-542.252	96.383	0.132	-0.153
-541.237	139.712	0.094	-0.126
-540.223	-91.813	0.099	0.029
-539.208	-21.963	-0.165	-0.102
-538.193	800.000	0.039	-0.165
-537.179	-9.810	0.184	-0.125
-536.164	-200.000	-0.051	0.455
-535.150	-24.712	0.402	-0.243
-534.135	76.158	-0.061	0.065
-533.121	-75.473	-0.318	0.115
-532.106	16.940	-0.201	0.162
-531.091	-98.789	0.034	-0.009
-530.077	-200.000	0.009	-0.283
-529.062	-200.000	0.013	-0.142
-528.048	800.000	0.010	-0.037
-527.033	-62.295	-0.351	-0.149
-526.018	355.739	-0.120	-0.243
-525.004	50.242	0.363	0.348
-523.989	-200.000	0.008	0.050
-522.975	800.000	-0.038	-0.147
-521.960	-181.979	-0.095	0.002
-520.945	-42.760	0.097	-0.050
-519.931	800.000	-0.048	-0.136
-518.916	-200.000	0.060	0.404
-517.902	151.884	0.217	0.300
-516.887	-200.000	-0.075	-0.450
-515.872	-56.212	0.217	-0.098
-514.858	-48.112	0.054	0.027
-513.843	-200.000	0.016	0.143
-512.829	800.000	0.144	0.406
-511.814	800.000	0.126	0.364
-510.799	120.106	0.247	0.311
-509.785	800.000	-0.056	-0.164
-508.770	-162.688	0.044	0.002
-507.756	315.748	0.082	0.158
-506.741	-48.086	0.058	-0.028
-505.726	64.333	0.017	0.018
-504.712	800.000	0.086	-0.319
-503.697	-94.837	-0.106	-0.029
-502.683	-102.479	0.152	-0.037
-501.668	-109.672	-0.210	0.045
-500.653	294.194	0.131	0.243
-499.639	800.000	0.034	-0.097
-498.624	-131.193	-0.412	0.056
-497.610	15.498	-0.464	-0.370
-496.595	-137.681	0.162	0.019
-495.581	-24.908	0.195	-0.118
-494.566	-6.959	0.094	-0.065
-493.551	800.000	0.047	0.153
-492.537	-200.000	-0.041	0.280
-491.522	-200.000	0.021	-0.259
-490.508	-200.000	-0.032	-0.282
-489.493	800.000	-0.029	-0.122
-488.478	-200.000	0.040	0.240
-487.464	-200.000	-0.000	-0.112
-486.449	266.294	0.040	-0.070
-485.435	499.559	0.035	-0.082
-484.420	-177.157	0.388	-0.010
-483.405	337.542	-0.087	0.171
-482.391	-54.102	0.131	-0.060
-481.376	-200.000	0.044	0.368
-480.362	800.000	-0.060	0.182
-479.347	-200.000	0.050	0.553
-478.332	-53.187	-0.225	0.105
-477.318	-65.384	-0.281	-0.115
-476.303	-121.033	-0.230	0.039
-475.289	-163.898	0.117	0.006
-474.274	27.593	-0.259	0.221
-473.259	-168.724	-0.204	-0.008
-472.245	494.488	-0.059	-0.138
-471.230	-123.007	0.233	-0.038
-470.216	-32.110	-0.232	-0.131
-469.201	800.000	-0.124	0.402
-468.186	-142.823	0.187	-0.018
-467.172	685.496	-0.153	-0.405
-466.157	800.000	0.100	-0.380
-465.143	-21.309	0.108	-0.067
-464.128	11.855	-0.172	-0.134
-463.113	800.000	0.063	-0.235
-462.099	-67.267	-0.026	-0.010
-461.084	162.265	0.020	0.028
-460.070	-200.000	-0.026	-0.251
-459.055	-162.423	0.299	0.015
-458.040	-200.000	-0.051	-0.394
-457.026	232.831	0.063	-0.104
-456.011	-200.000	-0.052	-0.272
-454.997	-95.172	0.388	0.106
-453.982	400.278	0.085	0.181
-452.968	434.884	-0.129	0.283
-451.953	800.000	-0.044	-0.151
-450.938	268.881	-0.109	0.193
-449.924	229.266	-0.167	0.277
-448.909	26.692	-0.174	-0.148
-447.895	109.486	0.148	0.180
-446.880	-200.000	-0.011	0.362
-445.865	75.330	0.237	-0.254
-444.851	-35.625	-0.250	-0.137
-443.836	-105.094	0.154	0.036
-442.822	-200.000	0.001	0.139
-441.807	-200.000	0.002	0.282
-440.792	32.182	0.119	-0.104
-439.778	-146.193	-0.128	0.011
-438.763	-40.026	-0.136	0.072
-437.749	-2.520	0.140	-0.099
-436.734	95.692	-0.241	-0.278
-435.719	248.891	0.015	-0.025
-434.705	-200.000	-0.001	0.026
-433.690	-113.005	0.211	0.042
-432.676	-200.000	-0.014	-0.239
-431.661	-10.741	-0.146	0.097
-430.646	70.310	0.169	-0.176
-429.632	-200.000	0.011	0.187
-428.617	-92.872	-0.178	-0.050
-427.603	-97.684	0.112	0.029
-426.588	-200.000	-0.410	0.001
-425.573	-200.000	0.011	-0.093
-424.559	-42.319	-0.272	-0.141
-423.544	192.520	-0.118	0.180
-422.530	-60.029	0.024	0.010
-421.515	-91.159	-0.319	0.093
-420.500	738.776	-0.115	-0.313
-419.486	-200.000	-0.017	-0.178
-418.471	160.727	0.144	0.204
-417.457	261.728	0.115	-0.201
-416.442	97.725	0.194	0.226
-415.428	800.000	-0.023	-0.075
-414.413	-28.621	0.230	0.134
-413.398	-26.451	-0.265	0.157
-412.384	164.810	-0.141	-0.202
-411.369	50.027	-0.063	0.060
-410.355	241.913	-0.159	-0.269
-409.340	-88.554	-0.176	-0.053
-408.325	-200.000	-0.028	-0.207
-407.311	-30.864	0.326	-0.186
-406.296	583.379	0.083	0.206
-405.282	3.751	-0.291	-0.215
-404.267	-49.564	0.189	-0.091
-403.252	-100.259	-0.133	-0.033
-402.238	31.486	-0.118	-0.103
-401.223	-61.985	-0.169	-0.071
-400.209	523.402	0.094	-0.223
-399.194	-131.115	0.153	0.021
-398.179	23.814	0.066	-0.055
-397.165	-200.000	-0.009	0.086
-396.150	-157.892	-0.204	0.012
-395.136	-200.000	0.029	-0.164
-394.121	-89.316	-0.322	-0.096
-393.106	-1.351	-0.126	-0.090
-392.092	11.859	0.330	-0.256
-391.077	-200.000	0.002	-0.207
-390.063	-6.865	-0.319	-0.219
-389.048	-132.220	0.277	-0.036
-388.033	-45.850	-0.064	-0.032
-387.019	-200.000	0.007	-0.118
-386.004	-62.091	0.078	0.033
-384.990	287.344	0.184	0.336
-383.975	-142.440	0.059	-0.006
-382.960	-112.233	-0.036	-0.007
-381.946	-67.995	-0.358	-0.141
-380.931	286.720	-0.126	-0.229
-379.917	-64.017	-0.089	-0.037
-378.902	232.318	-0.038	-0.063
-377.888	-83.028	-0.127	-0.041
-376.873	-200.000	0.031	-0.246
-375.858	-88.012	-0.181	0.055
-374.844	-200.000	-0.060	-0.498
-373.829	800.000	0.010	-0.043
-372.815	274.869	-0.060	-0.107
-371.800	424.000	-0.054	-0.118
-370.785	-128.645	-0.085	-0.012
-369.771	-153.238	-0.106	0.007
-368.756	-200.000	-0.012	0.184
-367.742	-41.623	0.149	0.077
-366.727	22.652	-0.233	-0.192
-365.712	58.019	0.365	-0.361
-364.698	41.552	0.060	-0.054
-363.683	-3.756	-0.243	0.170
-362.669	-60.988	0.127	-0.054
-361.654	134.644	-0.184	-0.242
-360.639	172.477	-0.157	-0.228
-359.625	-120.342	0.111	-0.019
-358.610	-200.000	-0.043	0.311
-357.596	336.094	-0.109	0.213
-356.581	-94.384	0.276	0.076
-355.566	-200.000	-0.027	0.214
-354.552	-77.108	0.261	-0.092
-353.537	-5.140	-0.117	0.081
-352.523	51.327	0.187	0.179
-351.508	16.866	0.077	-0.061
-350.493	234.613	0.045	0.074
-349.479	-171.302	0.360	0.012
-348.464	673.674	-0.056	-0.146
-347.450	-17.104	-0.127	-0.081
-346.435	449.892	-0.045	0.100
-345.420	800.000	0.107	0.470
-344.406	-200.000	0.043	0.352
-343.391	14.222	-0.259	0.203
-342.377	-200.000	-0.029	0.202
-341.362	133.721	0.149	0.195
-340.348	244.091	0.045	-0.076
-339.333	190.591	0.242	-0.367
-338.318	155.615	-0.122	0.169
-337.304	-20.741	-0.274	0.170
-336.289	323.293	-0.067	0.129
-335.275	112.626	-0.062	-0.076
-334.260	-29.195	-0.096	-0.055
-333.245	-46.314	-0.168	0.083
-332.231	-200.000	-0.015	0.299
-331.216	-54.622	-0.373	0.170
-330.202	800.000	0.058	0.217
-329.187	-30.405	-0.364	0.208
-328.172	-76.108	0.397	0.141
-327.158	107.147	0.171	0.204
-326.143	-200.000	0.023	-0.118
-325.129	-7.983	0.153	0.104
-324.114	800.000	0.054	-0.167
-323.099	78.163	-0.256	-0.275
-322.085	-89.419	0.117	0.035
-321.070	-127.007	0.059	-0.009
-320.056	-52.470	-0.294	0.137
-319.041	-96.088	0.204	-0.055
-318.026	115.248	0.112	-0.138
-317.012	0.646	-0.181	0.130
-315.997	683.715	-0.074	0.195
-314.983	40.963	0.120	-0.109
-313.968	-23.902	0.175	0.106
-312.953	-200.000	0.011	0.169
-311.939	800.000	0.028	0.099
-310.924	294.669	-0.240	-0.441
-309.910	0.686	-0.190	-0.137
-308.895	-200.000	0.007	0.055
-307.880	-200.000	0.032	0.239
-306.866	-69.278	0.244	-0.094
-305.851	-58.363	0.339	-0.148
-304.837	-97.858	-0.137	0.036
-303.822	282.698	0.222	0.401
-302.807	-78.234	0.063	0.022
-301.793	84.962	0.179	0.197
-300.778	-200.000	-0.030	0.395
-299.764	-162.662	0.327	0.016
-298.749	-200.000	-0.004	0.078
-297.735	-12.066	0.247	-0.163
-296.720	88.779	0.071	0.080
-295.705	205.887	0.119	0.187
-294.691	1.002	-0.106	0.076
-293.676	182.073	0.055	-0.082
-292.662	99.270	0.158	-0.183
-291.647	-200.000	-0.045	-0.202
-290.632	5.665	-0.086	0.064
-289.618	547.244	0.100	0.240
-288.603	421.796	0.045	0.096
-287.589	-200.000	0.010	-0.064
-286.574	215.513	0.124	-0.198
-285.559	800.000	0.053	-0.201
-284.545	-82.648	-0.075	-0.024
-283.530	-94.051	-0.148	-0.041
-282.516	-74.623	0.227	0.082
-281.501	-88.279	0.342	-0.103
-280.486	-200.000	0.037	0.217
-279.472	26.290	-0.187	0.157
-278.457	673.195	-0.037	-0.097
-277.443	-93.227	-0.266	-0.074
-276.428	-14.198	-0.219	-0.142
-275.413	392.401	0.093	0.195
-274.399	39.634	0.249	0.225
-273.384	800.000	0.033	0.107
-272.370	-138.165	0.194	0.022
-271.355	-20.363	0.170	0.105
-270.340	178.051	-0.201	0.295
-269.326	-174.809	0.407	0.012
-268.311	29.525	-0.129	-0.110
-267.297	-10.424	-0.053	0.035
-266.282	341.153	0.170	-0.334
-265.267	370.983	0.037	-0.076
-264.253	271.186	-0.190	0.337
-263.238	-200.000	0.061	-0.330
-262.224	-105.477	-0.217	0.050
-261.209	69.142	0.130	-0.134
-260.195	-1.999	0.240	-0.169
-259.180	-27.525	0.336	0.196
-258.165	-35.501	0.203	0.111
-257.151	102.023	-0.129	-0.151
-256.136	304.787	-0.084	-0.158
-255.122	-200.000	-0.018	0.239
-254.107	-114.803	0.222	-0.043
-253.092	-180.041	0.020	0.000
-252.078	105.200	0.164	0.194
-251.063	190.728	-0.122	-0.185
-250.049	32.307	0.205	0.178
-249.034	-15.525	-0.267	-0.172
-248.019	99.335	0.171	0.198
-247.005	-200.000	-0.031	-0.155
-245.990	25.374	0.288	-0.241
-244.976	333.100	-0.081	-0.157
-243.961	73.646	-0.088	-0.093
-242.946	-120.647	0.278	-0.047
-241.932	-23.181	0.299	-0.181
-240.917	285.889	0.161	0.292
-239.903	400.147	0.035	-0.075
-238.888	800.000	0.022	-0.077
-237.873	800.000	0.084	-0.349
-236.859	-200.000	-0.021	-0.109
-235.844	293.918	-0.162	-0.298
-234.830	163.973	0.114	0.161
-233.815	137.024	0.130	-0.171
-232.800	-200.000	0.002	0.113
-231.786	-185.059	-0.563	-0.009
-230.771	-200.000	-0.015	0.111
-229.757	-108.630	0.333	-0.072
-228.742	132.321	-0.285	-0.369
-227.727	-156.937	-0.064	-0.004
-226.713	-151.748	0.156	0.012
-225.698	-59.842	-0.156	0.067
-224.684	800.000	-0.049	-0.188
-223.669	-79.859	-0.170	-0.058
-222.655	-80.516	-0.294	-0.098
-221.640	-59.104	-0.048	-0.021
-220.625	421.888	-0.064	0.137
-219.611	33.731	0.120	0.104
-218.596	-125.631	-0.176	0.027
-217.582	201.833	0.053	-0.081
-216.567	77.040	-0.091	-0.097
-215.552	357.404	-0.191	0.382
-214.538	-130.012	0.265	0.036
-213.523	-200.000	0.009	-0.245
-212.509	396.862	-0.035	0.074
-211.494	-92.112	0.105	-0.030
-210.479	357.823	0.033	0.067
-209.465	-18.148	-0.123	0.077
-208.450	-200.000	0.023	-0.194
-207.436	97.252	0.075	0.086
-206.421	-190.066	-0.170	0.002
-205.406	-182.717	-0.304	0.006
-204.392	-200.000	0.011	0.154
-203.377	-200.000	-0.021	0.144
-202.363	-27.377	0.151	-0.088
-201.348	-134.120	0.323	-0.040
-200.333	163.217	0.076	0.108
-199.319	-200.000	0.045	0.314
-198.304	800.000	0.092	0.326
-197.290	118.380	-0.284	0.352
-196.275	-79.402	-0.174	-0.059
-195.260	-71.018	0.161	0.061
-194.246	61.803	-0.154	-0.154
-193.231	-200.000	0.039	0.329
-192.217	-135.597	0.269	0.032
-191.202	-168.576	-0.077	-0.003
-190.187	26.877	0.340	0.286
-189.173	237.011	-0.164	0.273
-188.158	800.000	0.058	0.191
-187.144	65.903	0.206	-0.210
-186.129	-31.547	-0.212	0.120
-185.114	342.663	-0.126	-0.247
-184.100	-50.022	-0.121	0.058
-183.085	-200.000	0.031	0.265
-182.071	-200.000	0.017	0.126
-181.056	800.000	0.096	-0.338
-180.042	169.710	0.103	0.148
-179.027	-200.000	0.033	0.220
-178.012	800.000	0.139	-0.396
-176.998	-33.272	0.184	0.102
-175.983	6.567	0.252	0.188
-174.969	-200.000	0.004	-0.087
-173.954	800.000	0.013	0.037
-172.939	-115.612	-0.310	-0.058
-171.925	61.966	0.167	-0.167
-170.910	199.319	0.129	-0.199
-169.896	18.848	-0.195	-0.157
-168.881	-60.863	-0.205	0.087
-167.866	-20.658	-0.087	0.054
-166.852	8.771	0.272	0.205
-165.837	37.379	-0.192	-0.171
-164.823	-93.456	-0.185	0.051
-163.808	-53.114	-0.050	0.023
-162.793	-151.790	0.387	-0.028
-161.779	387.611	-0.122	0.252
-160.764	697.829	0.068	-0.179
-159.750	-50.772	0.323	-0.152
-158.735	-200.000	-0.001	0.203
-157.720	328.318	0.035	0.068
-156.706	-10.896	0.115	-0.076
-155.691	188.791	0.172	0.258
-154.677	-200.000	-0.012	0.086
-153.662	-180.930	0.353	-0.007
-152.647	-113.773	-0.158	-0.031
-151.633	194.917	-0.244	0.371
-150.618	39.196	0.184	0.165
-149.604	-200.000	-0.040	0.229
-148.589	-152.937	0.138	-0.010
-147.574	-102.567	0.131	0.031
-146.560	-76.630	-0.093	0.033
-145.545	146.061	-0.201	-0.269
-144.531	-63.374	0.166	0.068
-143.516	124.529	-0.115	0.145
-142.502	-61.178	-0.081	-0.034
-141.487	-103.558	0.331	-0.078
-140.472	91.761	-0.122	0.137
-139.458	-60.546	-0.325	-0.138
-138.443	-200.000	0.034	-0.173
-137.429	-109.098	0.171	0.036
-136.414	-124.586	0.033	0.005
-135.399	-89.854	-0.441	0.129
-134.385	-56.622	-0.103	-0.046
-133.370	253.902	0.103	-0.177
-132.356	-200.000	0.031	-0.282
-131.341	-125.082	0.305	0.047
-130.326	-86.003	-0.317	0.098
-129.312	87.399	0.074	0.082
-128.297	249.753	0.154	-0.262
-127.283	-20.443	0.182	-0.112
-126.268	255.383	-0.065	0.111
-125.253	800.000	-0.048	-0.210
-124.239	-200.000	0.062	-0.452
-123.224	-91.125	0.314	-0.090
-122.210	-74.293	-0.180	-0.065
