DTS Sentinel unit serial number:	SN413079Multiplexer serial number:	ORYXHardware model number:	OX4-SRSoftware version number:	ORYX F/W v4.00 Oryx Data Collector v3.7.2.0data status	okinstallation	princeton_trtdifferential loss correction	single-endedforward channel	channel 1reverse channel	N/Adate	2019/09/17time	00:06:35forward acquisition time	60.00reverse acquisition time	0.00gamma	496.2192k internal	0.2325k external	0.2325temperature offset calibration	0.9954default loss term (dB/km)	0.3790temperature slope calibration	1.0000multiplexer offset coefficient	1.0000multiplexer slope coefficient	1.0000fibre end	0.00T internal ref (°C)	29.56T ext. ref 1 (°C)	0.10T ext. ref 2 (°C)	23.91length (m)	temperature (°C)	Stokes	anti-Stokes-747.200	-83.065	-0.301	0.098
-746.185	-200.000	-0.029	0.277
-745.171	800.000	-0.070	0.218
-744.156	294.919	-0.132	0.244
-743.142	227.064	-0.101	0.165
-742.127	-0.623	-0.124	-0.088
-741.112	-107.908	0.325	0.071
-740.098	292.889	0.163	-0.300
-739.083	800.000	-0.026	0.094
-738.069	207.371	0.109	0.171
-737.054	-200.000	0.000	0.115
-736.039	171.137	0.153	0.221
-735.025	-124.349	0.320	-0.050
-734.010	-200.000	0.042	-0.339
-732.996	-86.084	-0.297	-0.093
-731.981	-40.503	0.098	0.051
-730.966	-124.924	-0.083	-0.013
-729.952	-32.164	0.157	0.088
-728.937	800.000	0.035	-0.113
-727.923	-200.000	0.014	-0.194
-726.908	-97.227	-0.349	-0.092
-725.894	352.347	-0.115	0.230
-724.879	61.550	0.110	0.110
-723.864	32.608	-0.442	0.385
-722.850	-16.392	-0.150	-0.096
-721.835	-200.000	-0.008	0.282
-720.821	24.148	-0.100	-0.084
-719.806	-159.448	-0.203	0.011
-718.791	-184.247	-0.444	0.007
-717.777	145.133	0.267	0.361
-716.762	72.952	0.272	-0.286
-715.748	800.000	0.114	-0.341
-714.733	-200.000	0.000	0.100
-713.718	-200.000	0.023	0.102
-712.704	-14.581	-0.072	-0.047
-711.689	356.417	-0.113	0.227
-710.675	800.000	-0.062	0.229
-709.660	194.218	-0.039	0.060
-708.645	-200.000	-0.012	-0.136
-707.631	-200.000	-0.026	0.250
-706.616	-167.082	0.075	0.003
-705.602	74.508	0.132	-0.140
-704.587	-112.643	0.128	-0.026
-703.572	129.464	-0.134	0.173
-702.558	-163.557	-0.108	0.005
-701.543	15.258	0.014	0.011
-700.529	-91.516	0.173	0.050
-699.514	312.140	0.061	0.116
-698.499	1.744	0.042	0.031
-697.485	-14.363	0.257	-0.167
-696.470	-149.730	-0.065	0.005
-695.456	-72.917	0.383	0.142
-694.441	-200.000	0.018	0.265
-693.426	-200.000	0.059	-0.308
-692.412	-17.699	0.159	-0.101
-691.397	-33.459	0.274	-0.152
-690.383	-56.515	-0.326	0.145
-689.368	18.576	0.119	-0.095
-688.354	64.538	0.239	-0.243
-687.339	530.259	0.033	-0.078
-686.324	243.576	0.161	-0.273
-685.310	-125.803	0.389	-0.059
-684.295	-117.844	-0.168	0.030
-683.281	76.515	-0.278	0.296
-682.266	-200.000	-0.024	-0.152
-681.251	-200.000	0.048	-0.223
-680.237	-137.339	-0.174	-0.020
-679.222	-200.000	-0.004	-0.235
-678.208	-200.000	0.067	-0.331
-677.193	-88.162	0.119	-0.036
-676.178	98.590	-0.105	0.121
-675.164	223.655	0.071	0.115
-674.149	-65.357	-0.099	0.040
-673.135	-200.000	-0.001	-0.065
-672.120	-37.392	-0.081	0.043
-671.105	173.266	0.103	-0.149
-670.091	-36.615	0.054	0.029
-669.076	-94.472	0.263	0.072
-668.062	-58.840	-0.085	-0.037
-667.047	-25.247	-0.294	-0.175
-666.032	-34.123	0.325	-0.180
-665.018	196.486	0.041	-0.063
-664.003	-200.000	-0.083	0.496
-662.989	-200.000	0.007	0.434
-661.974	264.142	0.074	0.129
-660.959	644.944	0.028	0.072
-659.945	-106.007	-0.211	0.048
-658.930	67.026	0.196	-0.201
-657.916	132.929	-0.099	0.128
-656.901	-54.107	0.253	-0.116
-655.886	-98.180	0.404	-0.105
-654.872	289.180	-0.040	-0.073
-653.857	-200.000	0.019	-0.151
-652.843	-130.391	-0.037	-0.005
-651.828	-57.778	0.147	-0.065
-650.814	-31.749	0.309	0.174
-649.799	-104.252	-0.393	0.092
-648.784	800.000	0.083	-0.367
-647.770	-2.030	0.047	-0.033
-646.755	101.865	0.235	0.276
-645.741	36.515	-0.220	0.195
-644.726	-12.227	-0.221	-0.145
-643.711	-153.455	-0.254	-0.018
-642.697	-102.965	0.123	-0.029
-641.682	797.503	0.032	-0.089
-640.668	70.147	-0.089	-0.093
-639.653	-200.000	-0.027	-0.213
-638.638	709.016	0.142	-0.378
-637.624	-133.219	0.046	0.006
-636.609	-118.651	0.305	0.054
-635.595	-200.000	-0.000	0.106
-634.580	-141.551	0.432	0.044
-633.565	-70.765	-0.210	0.080
-632.551	39.860	0.123	-0.111
-631.536	190.868	0.043	0.065
-630.522	752.116	-0.053	-0.144
-629.507	-24.894	-0.117	-0.070
-628.492	-200.000	-0.034	-0.171
-627.478	481.742	0.114	-0.259
-626.463	-68.337	0.199	-0.078
-625.449	13.874	0.147	-0.115
-624.434	94.993	0.168	-0.192
-623.419	287.533	-0.071	0.129
-622.405	51.320	0.129	-0.123
-621.390	-89.241	-0.244	-0.072
-620.376	800.000	-0.162	0.543
-619.361	113.890	0.087	-0.106
-618.346	-67.024	-0.193	0.077
-617.332	-66.014	0.124	0.050
-616.317	-126.837	0.198	0.029
-615.303	34.479	-0.305	-0.268
-614.288	31.156	0.295	-0.254
-613.273	38.256	0.106	-0.095
-612.259	-200.000	0.253	0.000
-611.244	77.632	-0.198	-0.211
-610.230	-159.541	0.078	-0.004
-609.215	-200.000	0.027	-0.159
-608.201	-200.000	-0.014	-0.197
-607.186	-85.478	0.339	0.106
-606.171	125.640	-0.215	0.272
-605.157	-200.000	-0.034	0.173
-604.142	92.838	0.120	-0.136
-603.128	-200.000	-0.013	-0.134
-602.113	-150.917	0.068	0.005
-601.098	-31.534	0.177	-0.100
-600.084	433.073	0.114	0.248
-599.069	-200.000	-0.010	0.113
-598.055	-200.000	-0.022	-0.112
-597.040	-98.715	0.068	0.017
-596.025	152.537	0.121	-0.166
-595.011	-77.281	-0.039	0.014
-593.996	-200.000	-0.009	0.293
-592.982	-91.341	0.389	-0.112
-591.967	76.365	-0.020	0.021
-590.952	85.164	-0.115	-0.127
-589.938	-200.000	0.074	-0.000
-588.923	61.615	0.077	-0.077
-587.909	-157.220	-0.166	-0.010
-586.894	-127.054	0.173	-0.025
-585.879	-200.000	0.064	0.347
-584.865	-52.503	-0.213	0.099
-583.850	-74.836	0.353	0.127
-582.836	-200.000	0.025	-0.472
-581.821	750.434	0.123	-0.332
-580.806	284.434	0.108	0.194
-579.792	-109.893	-0.177	-0.037
-578.777	-200.000	-0.064	0.335
-577.763	64.990	0.064	0.064
-576.748	-2.289	0.617	-0.434
-575.733	4.003	-0.081	-0.059
-574.719	-200.000	-0.036	-0.160
-573.704	88.216	-0.339	-0.377
-572.690	-200.000	-0.018	0.262
-571.675	-200.000	-0.002	0.194
-570.661	385.460	-0.043	0.088
-569.646	440.833	0.177	0.387
-568.631	-90.975	0.486	-0.140
-567.617	-134.098	-0.270	-0.033
-566.602	411.833	-0.135	0.288
-565.588	-160.674	0.184	-0.010
-564.573	346.821	0.171	-0.338
-563.558	-110.456	0.409	0.085
-562.544	-144.037	0.154	0.015
-561.529	331.080	0.067	0.130
-560.515	19.350	0.106	0.085
-559.500	-18.394	0.496	0.310
-558.485	-200.000	0.022	0.117
-557.471	800.000	-0.045	-0.143
-556.456	-200.000	-0.033	0.175
-555.442	236.956	-0.099	-0.164
-554.427	-158.073	-0.175	-0.010
-553.412	303.456	0.187	-0.346
-552.398	153.010	-0.216	-0.296
-551.383	89.221	0.106	0.118
-550.369	-83.468	0.378	0.121
-549.354	800.000	-0.070	-0.271
-548.339	800.000	0.022	-0.094
-547.325	701.713	-0.078	0.206
-546.310	13.356	-0.138	0.107
-545.296	-111.120	-0.257	0.053
-544.281	31.759	0.191	-0.165
-543.266	-181.607	-0.124	-0.002
-542.252	311.685	-0.095	-0.178
-541.237	155.333	-0.147	0.202
-540.223	80.237	0.162	0.175
-539.208	800.000	0.022	0.083
-538.193	-109.716	0.136	-0.029
-537.179	-200.000	0.009	0.090
-536.164	-34.183	0.068	-0.037
-535.150	-13.479	-0.251	-0.163
-534.135	-68.974	-0.212	-0.082
-533.121	74.438	-0.058	0.061
-532.106	-51.351	0.184	0.086
-531.091	-96.553	-0.353	-0.093
-530.077	228.121	-0.051	0.083
-529.062	-200.000	-0.038	-0.280
-528.048	800.000	-0.055	-0.209
-527.033	465.956	0.015	0.034
-526.018	207.988	0.018	0.028
-525.004	218.690	0.227	0.363
-523.989	-22.898	-0.195	-0.117
-522.975	-200.000	-0.011	-0.112
-521.960	238.563	-0.183	-0.305
-520.945	38.953	-0.114	-0.102
-519.931	29.747	-0.121	0.103
-518.916	236.651	-0.068	0.112
-517.902	800.000	0.088	-0.302
-516.887	-40.608	0.151	0.079
-515.872	800.000	-0.099	-0.340
-514.858	430.171	-0.088	-0.191
-513.843	281.095	0.166	0.297
-512.829	298.941	0.189	-0.348
-511.814	88.877	-0.198	-0.220
-510.799	-128.690	0.362	-0.051
-509.785	-91.510	-0.271	0.077
-508.770	41.863	-0.235	0.213
-507.756	311.656	-0.064	0.120
-506.741	-67.963	-0.065	0.026
-505.726	29.423	-0.263	0.223
-504.712	-49.226	0.074	-0.035
-503.697	-88.045	0.272	-0.081
-502.683	-200.000	0.008	-0.092
-501.668	-200.000	0.023	0.259
-500.653	-97.389	-0.259	0.067
-499.639	-89.122	-0.117	-0.035
-498.624	800.000	-0.083	0.318
-497.610	-175.564	0.238	-0.006
-496.595	-200.000	0.018	-0.161
-495.581	36.769	0.157	0.139
-494.566	-200.000	-0.027	0.160
-493.551	800.000	-0.064	-0.246
-492.537	49.427	-0.314	0.296
-491.522	-149.805	-0.238	-0.019
-490.508	76.569	0.049	0.051
-489.493	-132.458	0.088	-0.011
-488.478	-101.971	0.264	-0.064
-487.464	-200.000	0.030	-0.285
-486.449	112.057	0.162	0.195
-485.435	-102.599	-0.140	-0.033
-484.420	-75.272	-0.355	-0.126
-483.405	84.135	-0.032	-0.035
-482.391	-154.469	0.123	-0.008
-481.376	266.713	-0.107	-0.187
-480.362	-200.000	0.048	0.212
-479.347	20.369	-0.097	0.078
-478.332	-100.085	0.153	0.038
-477.318	-102.105	-0.181	-0.043
-476.303	-143.475	-0.221	0.021
-475.289	103.637	0.139	0.163
-474.274	-78.392	0.280	-0.096
-473.259	-158.046	0.090	0.005
-472.245	-13.634	-0.376	-0.243
-471.230	-148.316	0.169	-0.014
-470.216	-112.654	0.049	0.010
-469.201	800.000	0.080	-0.237
-468.186	-200.000	-0.011	0.135
-467.172	-200.000	-0.076	0.333
-466.157	-137.758	-0.417	-0.047
-465.143	-200.000	-0.025	0.132
-464.128	-47.672	-0.018	0.009
-463.113	114.133	-0.065	0.079
-462.099	507.427	-0.087	-0.202
-461.084	400.759	-0.062	-0.129
-460.070	72.851	0.133	-0.139
-459.055	-80.685	-0.159	-0.053
-458.040	-178.520	-0.070	0.002
-457.026	-126.575	0.221	-0.033
-456.011	-200.000	-0.027	-0.129
-454.997	-200.000	0.048	0.220
-453.982	-193.854	0.127	-0.001
-452.968	-200.000	-0.048	0.225
-451.953	-200.000	-0.010	0.145
-450.938	-86.925	0.105	0.032
-449.924	250.912	0.123	-0.208
-448.909	-200.000	-0.001	0.072
-447.895	-100.629	0.128	-0.032
-446.880	224.725	0.073	-0.117
-445.865	-146.917	-0.220	-0.019
-444.851	346.135	-0.141	-0.276
-443.836	232.873	-0.132	-0.217
-442.822	117.457	-0.235	0.288
-441.807	-36.374	-0.227	0.122
-440.792	441.289	0.089	0.195
-439.778	-49.418	0.275	0.131
-438.763	-27.023	-0.206	-0.120
-437.749	43.007	-0.294	0.268
-436.734	429.919	-0.109	0.236
-435.719	-187.558	-0.293	-0.004
-434.705	296.183	-0.089	0.163
-433.690	27.584	-0.154	-0.129
-432.676	800.000	0.084	0.267
-431.661	-200.000	-0.014	-0.118
-430.646	-52.965	0.228	-0.104
-429.632	252.445	-0.219	-0.372
-428.617	-128.313	-0.129	-0.018
-427.603	-24.837	0.451	-0.267
-426.588	-15.751	0.124	-0.079
-425.573	-200.000	-0.018	-0.154
-424.559	-33.846	-0.114	-0.062
-423.544	-82.379	-0.216	0.070
-422.530	-12.722	0.293	-0.191
-421.515	-112.832	-0.247	-0.049
-420.500	-75.426	0.314	-0.111
-419.486	186.564	0.126	-0.187
-418.471	-161.231	-0.223	0.012
-417.457	-97.487	0.258	0.067
-416.442	-136.271	-0.132	-0.015
-415.428	-39.045	0.203	-0.106
-414.413	-74.855	-0.283	0.101
-413.398	-54.749	-0.272	-0.122
-412.384	21.594	-0.232	-0.188
-411.369	-151.622	0.257	-0.019
-410.355	-200.000	-0.024	0.187
-409.340	-147.524	-0.235	-0.020
-408.325	328.368	-0.137	0.262
-407.311	-136.677	0.213	0.024
-406.296	-2.196	-0.058	0.040
-405.282	800.000	-0.029	0.126
-404.267	-42.244	0.034	0.017
-403.252	261.872	0.102	-0.177
-402.238	82.778	-0.034	-0.037
-401.223	-77.232	-0.267	0.092
-400.209	-145.706	-0.155	0.014
-399.194	225.343	-0.026	-0.043
-398.179	46.436	0.067	0.062
-397.165	-200.000	-0.015	-0.155
-396.150	-183.032	-0.280	-0.005
-395.136	107.328	0.261	0.309
-394.121	-18.327	0.258	0.160
-393.106	81.969	-0.111	0.119
-392.092	-35.791	-0.131	-0.071
-391.077	33.216	-0.275	-0.238
-390.063	-200.000	-0.006	0.107
-389.048	-69.330	-0.195	-0.074
-388.033	0.135	0.291	0.206
-387.019	-200.000	0.005	0.083
-386.004	240.139	0.143	0.238
-384.990	-33.029	-0.332	0.183
-383.975	-200.000	0.084	0.379
-382.960	-20.803	-0.190	0.116
-381.946	-200.000	-0.010	-0.070
-380.931	-18.147	-0.172	-0.107
-379.917	-161.930	0.368	0.019
-378.902	70.320	0.078	-0.080
-377.888	-114.963	0.148	-0.028
-376.873	71.513	0.220	-0.227
-375.858	28.885	0.308	0.260
-374.844	-71.402	-0.296	-0.110
-373.829	6.471	0.065	0.048
-372.815	-77.547	0.183	0.063
-371.800	-180.240	0.140	0.003
-370.785	-153.961	-0.199	0.014
-369.771	49.983	0.180	-0.169
-368.756	-122.901	-0.076	-0.012
-367.742	32.926	0.269	-0.231
-366.727	-66.515	-0.057	-0.023
-365.712	99.474	-0.142	0.164
-364.698	638.227	-0.049	-0.123
-363.683	-168.121	0.136	-0.005
-362.669	-200.000	0.029	-0.145
-361.654	-129.861	-0.277	-0.038
-360.639	800.000	-0.083	0.286
-359.625	-152.366	0.196	0.014
-358.610	20.170	0.192	0.154
-357.596	-86.031	0.036	-0.011
-356.581	151.761	-0.027	-0.036
-355.566	-200.000	0.061	0.298
-354.552	-77.365	0.223	-0.077
-353.537	20.631	-0.104	0.084
-352.523	475.622	0.131	0.295
-351.508	-96.712	0.071	-0.019
-350.493	-200.000	0.020	0.232
-349.479	-84.545	0.158	-0.050
-348.464	-99.217	0.071	-0.018
-347.450	-66.414	-0.118	-0.047
-346.435	53.758	-0.089	0.085
-345.420	440.584	0.027	-0.058
-344.406	255.476	0.238	0.405
-343.391	-200.000	0.009	0.157
-342.377	-200.000	-0.014	-0.124
-341.362	-176.472	-0.177	0.005
-340.348	146.523	0.237	0.316
-339.333	-200.000	0.024	-0.133
-338.318	-120.350	0.073	-0.012
-337.304	-4.233	0.129	0.089
-336.289	-200.000	0.039	-0.188
-335.275	230.812	-0.028	0.046
-334.260	87.489	-0.046	0.050
-333.245	-145.167	0.142	-0.013
-332.231	-200.000	-0.010	-0.171
-331.216	-14.459	0.150	0.096
-330.202	299.275	0.199	-0.364
-329.187	-200.000	-0.060	-0.336
-328.172	800.000	0.186	-0.538
-327.158	-14.070	-0.271	-0.174
-326.143	-66.702	0.040	-0.016
-325.129	-200.000	-0.069	0.379
-324.114	26.498	0.078	-0.065
-323.099	450.245	-0.124	0.273
-322.085	-200.000	-0.004	-0.042
-321.070	87.663	-0.283	-0.311
-320.056	800.000	0.024	0.067
-319.041	313.210	0.124	-0.232
-318.026	-200.000	-0.015	0.116
-317.012	-200.000	0.018	-0.091
-315.997	68.009	0.169	0.171
-314.983	216.016	0.149	0.235
-313.968	-124.391	-0.128	-0.020
-312.953	-200.000	-0.017	0.462
-311.939	447.659	-0.094	0.206
-310.924	-161.996	-0.219	0.011
-309.910	800.000	-0.086	0.276
-308.895	-200.000	0.006	0.066
-307.880	590.312	0.076	0.186
-306.866	-200.000	0.013	0.389
-305.851	-200.000	-0.020	-0.119
-304.837	172.229	-0.030	-0.042
-303.822	75.641	-0.082	0.086
-302.807	-199.718	-0.137	0.001
-301.793	213.180	-0.028	-0.043
-300.778	12.579	-0.128	0.098
-299.764	70.450	0.120	0.123
-298.749	800.000	-0.089	0.327
-297.735	-169.961	-0.222	0.008
-296.720	-12.299	0.482	0.313
-295.705	-113.969	0.125	0.024
-294.691	-200.000	-0.045	0.443
-293.676	-114.397	-0.174	0.033
-292.662	469.917	-0.039	-0.087
-291.647	-74.196	-0.110	0.039
-290.632	-121.592	0.059	0.010
-289.618	-31.807	0.142	-0.079
-288.603	-200.000	-0.323	0.001
-287.589	-163.292	0.179	-0.008
-286.574	-167.175	-0.169	0.007
-285.559	2.599	0.073	-0.053
-284.545	800.000	-0.067	-0.242
-283.530	193.352	0.117	0.176
-282.516	-91.705	0.231	-0.065
-281.501	539.205	-0.043	-0.102
-280.486	55.649	0.359	0.344
-279.472	-106.703	0.328	0.072
-278.457	306.063	-0.005	-0.009
-277.443	-59.834	-0.336	0.142
-276.428	800.000	-0.026	-0.072
-275.413	-14.849	-0.231	-0.147
-274.399	33.659	0.363	-0.313
-273.384	800.000	-0.120	-0.433
-272.370	11.662	0.043	0.032
-271.355	86.117	-0.160	0.174
-270.340	244.951	0.205	0.341
-269.326	-65.140	-0.302	0.121
-268.311	-48.916	-0.195	0.092
-267.297	-24.643	-0.366	0.216
-266.282	-69.007	0.196	0.075
-265.267	-171.590	0.214	-0.007
-264.253	-200.000	-0.007	0.046
-263.238	-15.646	0.381	-0.241
-262.224	-33.213	-0.247	-0.135
-261.209	-61.888	0.316	-0.131
-260.195	-44.958	0.007	-0.003
-259.180	-67.984	-0.111	-0.043
-258.165	-111.678	0.154	0.031
-257.151	792.574	0.124	0.338
-256.136	143.670	0.157	0.207
-255.122	414.813	0.109	0.230
-254.107	292.508	-0.032	0.058
-253.092	184.517	-0.089	0.130
-252.078	155.469	-0.139	0.189
-251.063	-200.000	-0.039	0.356
-250.049	19.699	-0.145	0.115
-249.034	74.854	0.066	-0.069
-248.019	-84.413	-0.212	-0.066
-247.005	87.479	-0.283	-0.310
-245.990	-95.682	-0.118	-0.031
-244.976	800.000	0.040	0.166
-243.961	13.063	-0.175	-0.134
-242.946	-89.137	-0.093	0.027
-241.932	800.000	-0.040	-0.163
-240.917	-200.000	0.020	0.289
-239.903	387.703	0.029	0.059
-238.888	185.659	0.154	0.227
-237.873	135.614	-0.236	-0.304
-236.859	-200.000	0.001	0.211
-235.844	306.336	-0.072	-0.132
-234.830	-49.426	0.328	-0.155
-233.815	-200.000	-0.020	0.155
-232.800	64.416	-0.152	0.152
-231.786	-200.000	0.034	-0.188
-230.771	-200.000	0.005	0.101
-229.757	-29.379	0.069	0.039
-228.742	9.599	-0.147	0.110
-227.727	-54.293	-0.095	0.043
-226.713	109.605	-0.085	0.100
-225.698	-143.519	-0.158	-0.015
-224.684	-168.723	-0.186	0.007
-223.669	121.594	-0.183	0.226
-222.655	21.079	0.088	0.070
-221.640	-107.486	-0.239	-0.052
-220.625	143.357	0.050	-0.066
-219.611	324.948	-0.192	0.362
-218.596	458.952	-0.064	-0.140
-217.582	126.224	-0.317	-0.396
-216.567	142.779	0.071	0.094
-215.552	-72.337	0.179	-0.065
-214.538	68.679	-0.143	-0.145
-213.523	57.915	0.209	-0.203
-212.509	-200.000	-0.076	-0.339
-211.494	-160.275	0.215	-0.011
-210.479	-200.000	-0.031	0.267
-209.465	188.498	-0.133	0.197
-208.450	-33.284	-0.202	-0.110
-207.436	31.662	0.183	-0.156
-206.421	-8.240	-0.175	0.116
-205.406	230.048	-0.230	-0.371
-204.392	129.391	-0.040	0.051
-203.377	223.348	-0.074	-0.118
-202.363	186.531	0.056	-0.083
-201.348	-57.561	0.226	0.098
-200.333	800.000	-0.021	-0.070
-199.319	30.645	0.179	0.151
-198.304	-41.702	-0.215	-0.109
-197.290	222.767	-0.092	-0.146
-196.275	200.034	0.164	0.249
-195.260	673.493	0.062	-0.160
-194.246	-9.449	0.451	-0.297
-193.231	518.084	0.144	-0.332
-192.217	360.536	-0.111	-0.219
-191.202	-200.000	0.015	-0.230
-190.187	94.326	-0.036	-0.041
-189.173	406.155	0.027	0.055
-188.158	199.091	-0.221	-0.334
-187.144	-16.661	-0.072	0.045
-186.129	250.051	-0.117	0.196
-185.114	-200.000	0.038	0.210
-184.100	167.003	0.184	0.257
-183.085	31.871	0.223	0.189
-182.071	-85.522	-0.167	-0.051
-181.056	-30.052	0.120	-0.067
-180.042	595.514	-0.148	0.361
-179.027	-100.428	-0.116	-0.028
-178.012	301.711	-0.140	0.256
-176.998	-23.896	-0.097	0.057
-175.983	-39.213	-0.189	-0.098
-174.969	-145.349	0.396	-0.035
-173.954	126.437	0.138	-0.173
-172.939	-61.395	-0.152	0.063
-171.925	-110.176	0.239	0.049
-170.910	-35.906	0.062	-0.033
-169.896	-29.999	0.083	-0.047
-168.881	-132.745	0.095	0.012
-167.866	-151.687	-0.231	0.017
-166.852	223.885	-0.142	-0.227
-165.837	739.150	0.095	-0.250
-164.823	291.554	-0.224	-0.402
-163.808	56.258	0.049	0.046
-162.793	-74.348	-0.157	-0.056
-161.779	-66.143	0.246	-0.097
-160.764	343.535	0.191	-0.369
-159.750	273.718	0.106	0.184
-158.735	693.496	-0.043	-0.110
-157.720	65.364	-0.210	-0.209
-156.706	-74.787	-0.170	-0.060
-155.691	44.318	0.060	-0.054
-154.677	477.082	0.084	-0.188
-153.662	-91.375	-0.234	0.066
-152.647	800.000	-0.068	0.202
-151.633	-32.704	0.238	-0.131
-150.618	800.000	0.058	-0.225
-149.604	151.583	0.116	-0.155
-148.589	800.000	0.037	-0.108
-147.574	-137.384	0.560	0.063
-146.560	-200.000	-0.051	0.226
-145.545	-147.875	0.367	0.030
-144.531	-136.520	0.138	-0.016
-143.516	310.283	0.065	-0.120
-142.502	318.460	0.134	-0.250
-141.487	264.527	0.077	0.133
-140.472	-200.000	0.010	0.220
-139.458	-200.000	-0.067	0.332
-138.443	-145.297	-0.398	0.035
-137.429	-127.116	0.160	0.023
-136.414	164.529	0.136	0.188
-135.399	134.741	0.102	0.131
-134.385	-200.000	0.014	-0.075
-133.370	-200.000	0.002	0.143
-132.356	168.445	-0.092	-0.130
-131.341	522.484	0.095	-0.221
-130.326	800.000	0.009	0.027
-129.312	-18.452	0.088	0.054
-128.297	-200.000	0.006	0.047
-127.283	376.300	-0.017	-0.033
-126.268	156.477	0.086	0.116
-125.253	-200.000	0.017	0.116
-124.239	95.380	0.118	0.132
-123.224	600.237	0.091	-0.221
-122.210	138.043	0.133	0.172
