DTS Sentinel unit serial number:	SN413079Multiplexer serial number:	ORYXHardware model number:	OX4-SRSoftware version number:	ORYX F/W v4.00 Oryx Data Collector v3.7.2.0data status	okinstallation	princeton_trtdifferential loss correction	single-endedforward channel	channel 1reverse channel	N/Adate	2019/09/13time	05:30:35forward acquisition time	60.00reverse acquisition time	0.00gamma	496.2192k internal	0.2335k external	0.2335temperature offset calibration	1.0160default loss term (dB/km)	0.3790temperature slope calibration	1.0000multiplexer offset coefficient	1.0000multiplexer slope coefficient	1.0000fibre end	0.00T internal ref (°C)	26.27T ext. ref 1 (°C)	4.04T ext. ref 2 (°C)	20.86length (m)	temperature (°C)	Stokes	anti-Stokes-747.200	-64.503	-0.093	-0.038
-746.185	299.838	-0.205	-0.380
-745.171	-65.248	0.115	-0.046
-744.156	-140.994	-0.231	0.024
-743.142	174.341	0.097	0.141
-742.127	248.800	-0.185	0.315
-741.112	-164.564	-0.114	-0.005
-740.098	-64.171	-0.244	0.100
-739.083	800.000	0.047	0.171
-738.069	261.052	0.213	0.370
-737.054	-149.960	0.334	0.026
-736.039	-125.487	-0.485	0.074
-735.025	55.199	0.061	0.060
-734.010	-106.204	-0.328	-0.074
-732.996	521.720	-0.131	-0.308
-731.981	46.799	-0.083	0.078
-730.966	-80.037	0.063	-0.021
-729.952	238.880	0.070	-0.116
-728.937	104.179	-0.185	0.218
-727.923	-8.437	-0.171	0.115
-726.908	-200.000	0.007	0.119
-725.894	-72.186	-0.358	0.133
-724.879	-200.000	-0.008	0.251
-723.864	-33.746	-0.193	-0.107
-722.850	172.663	-0.084	-0.121
-721.835	-28.647	-0.282	-0.163
-720.821	-31.755	-0.215	-0.121
-719.806	-133.882	0.225	0.028
-718.791	-200.000	-0.104	-0.000
-717.777	-200.000	-0.024	0.191
-716.762	78.805	0.091	0.097
-715.748	65.051	-0.291	-0.295
-714.733	3.687	-0.135	-0.099
-713.718	274.121	-0.065	-0.116
-712.704	21.493	-0.270	-0.220
-711.689	114.475	-0.130	0.159
-710.675	183.671	-0.148	0.219
-709.660	-128.553	-0.314	-0.045
-708.645	-51.127	0.266	-0.125
-707.631	294.429	0.084	-0.155
-706.616	9.778	-0.261	0.199
-705.602	800.000	-0.072	-0.202
-704.587	29.561	0.217	-0.185
-703.572	-103.278	-0.196	-0.046
-702.558	-82.285	-0.421	-0.137
-701.543	-78.969	-0.099	-0.034
-700.529	-125.450	-0.082	0.012
-699.514	15.775	-0.207	0.163
-698.499	359.831	0.060	-0.120
-697.485	-65.040	0.118	0.048
-696.470	-20.155	-0.146	-0.090
-695.456	-200.000	0.012	0.137
-694.441	-27.105	-0.163	0.095
-693.426	-200.000	0.142	-0.644
-692.412	-18.126	0.099	-0.062
-691.397	-200.000	-0.004	0.203
-690.383	-152.122	-0.212	-0.015
-689.368	50.393	-0.089	0.085
-688.354	-20.155	0.117	0.072
-687.339	800.000	-0.102	-0.324
-686.324	-200.000	0.045	-0.359
-685.310	-200.000	-0.007	-0.153
-684.295	21.329	0.202	-0.164
-683.281	32.508	-0.178	-0.154
-682.266	-145.309	0.282	-0.026
-681.251	-200.000	-0.013	-0.148
-680.237	-44.087	-0.123	0.062
-679.222	-37.134	0.201	0.108
-678.208	-97.063	0.071	0.019
-677.193	-122.314	-0.323	-0.053
-676.178	227.707	-0.084	0.137
-675.164	524.433	-0.140	-0.330
-674.149	-109.542	0.211	0.045
-673.135	95.102	-0.172	-0.196
-672.120	-200.000	0.035	0.173
-671.105	-147.775	-0.061	0.005
-670.091	-115.864	0.277	0.052
-669.076	-85.571	-0.305	0.095
-668.062	800.000	0.110	0.322
-667.047	-60.582	-0.136	-0.058
-666.032	454.048	0.124	0.276
-665.018	-38.782	-0.338	-0.179
-664.003	259.903	0.106	0.184
-662.989	800.000	0.065	0.187
-661.974	-200.000	-0.053	-0.241
-660.959	-31.159	-0.096	-0.054
-659.945	64.253	0.054	0.055
-658.930	-23.814	-0.107	0.064
-657.916	-53.227	0.260	0.119
-656.901	-134.053	0.081	-0.010
-655.886	-81.003	0.328	-0.109
-654.872	9.390	0.132	-0.100
-653.857	37.520	-0.143	0.127
-652.843	-83.855	0.096	0.031
-651.828	-2.847	-0.169	0.118
-650.814	524.538	0.081	0.191
-649.799	-120.664	-0.160	-0.027
-648.784	800.000	-0.053	-0.182
-647.770	-56.160	-0.279	-0.125
-646.755	-20.429	-0.267	-0.165
-645.741	112.849	-0.088	-0.107
-644.726	800.000	-0.056	0.233
-643.711	-37.673	0.219	-0.117
-642.697	611.911	0.061	-0.152
-641.682	-200.000	0.003	-0.105
-640.668	527.438	0.021	-0.050
-639.653	516.700	0.038	0.089
-638.638	-18.250	0.223	-0.140
-637.624	-200.000	0.058	0.256
-636.609	-152.013	-0.212	-0.015
-635.595	-99.463	0.111	-0.028
-634.580	-70.134	0.202	-0.077
-633.565	800.000	0.024	0.088
-632.551	27.858	-0.164	0.138
-631.536	-18.708	-0.205	-0.128
-630.522	-200.000	0.030	0.305
-629.507	800.000	0.045	0.152
-628.492	50.518	-0.085	-0.080
-627.478	-200.000	-0.007	-0.480
-626.463	800.000	-0.086	-0.252
-625.449	-186.414	0.040	-0.001
-624.434	-200.000	-0.013	0.126
-623.419	-88.314	-0.194	-0.058
-622.405	289.919	-0.013	-0.023
-621.390	-81.050	-0.362	0.120
-620.376	800.000	0.024	-0.100
-619.361	-123.992	0.107	0.017
-618.346	-200.000	-0.030	-0.157
-617.332	499.112	-0.083	-0.191
-616.317	-200.000	0.022	-0.276
-615.303	-200.000	-0.015	-0.129
-614.288	220.930	0.065	0.104
-613.273	-66.969	0.188	-0.074
-612.259	89.528	0.130	-0.145
-611.244	-107.791	-0.063	0.014
-610.230	800.000	-0.076	0.220
-609.215	-200.000	-0.076	-0.405
-608.201	-93.816	-0.145	0.040
-607.186	-200.000	0.001	-0.099
-606.171	-41.722	-0.191	-0.098
-605.157	202.535	-0.261	-0.403
-604.142	-200.000	-0.028	0.239
-603.128	314.681	-0.227	-0.427
-602.113	177.406	-0.046	-0.067
-601.098	20.440	-0.324	0.262
-600.084	-88.924	0.312	-0.092
-599.069	78.177	0.364	0.388
-598.055	730.620	0.093	0.250
-597.040	-61.453	0.215	0.090
-596.025	-200.000	0.001	0.286
-595.011	-83.403	0.341	0.109
-593.996	-200.000	0.009	-0.270
-592.982	-89.934	-0.009	-0.003
-591.967	-52.890	0.286	0.132
-590.952	800.000	0.021	0.089
-589.938	800.000	-0.018	-0.062
-588.923	119.004	-0.124	0.153
-587.909	392.276	-0.167	-0.346
-586.894	207.384	0.050	-0.079
-585.879	574.699	-0.099	0.241
-584.865	-200.000	-0.018	0.355
-583.850	115.446	0.373	-0.455
-582.836	-110.146	-0.229	0.048
-581.821	800.000	0.047	-0.129
-580.806	-82.489	-0.178	0.058
-579.792	747.706	-0.130	-0.351
-578.777	131.437	0.171	0.219
-577.763	-200.000	-0.018	0.185
-576.748	364.978	-0.156	-0.314
-575.733	173.349	0.077	-0.111
-574.719	418.522	-0.065	-0.140
-573.704	584.072	0.170	-0.416
-572.690	-200.000	0.047	-0.214
-571.675	8.930	0.152	0.115
-570.661	243.008	0.168	0.281
-569.646	-200.000	0.021	0.138
-568.631	-151.752	-0.229	0.017
-567.617	64.053	0.032	0.032
-566.602	-114.949	-0.194	0.037
-565.588	369.793	0.084	-0.171
-564.573	258.092	-0.188	-0.323
-563.558	-57.985	-0.192	0.084
-562.544	-200.000	-0.007	-0.288
-561.529	277.856	0.033	-0.059
-560.515	38.780	0.429	0.382
-559.500	-147.716	-0.043	-0.004
-558.485	271.051	0.010	0.017
-557.471	-130.488	0.062	-0.008
-556.456	-92.558	-0.155	0.044
-555.442	800.000	0.058	-0.168
-554.427	66.843	0.223	0.226
-553.412	-200.000	-0.030	0.153
-552.398	277.553	0.042	-0.074
-551.383	-48.473	-0.140	0.067
-550.369	-67.322	0.216	0.085
-549.354	-182.374	0.139	-0.003
-548.339	483.223	0.135	-0.306
-547.325	800.000	0.061	0.209
-546.310	-37.518	-0.100	-0.053
-545.296	22.949	0.131	-0.107
-544.281	800.000	0.077	-0.324
-543.266	130.555	0.054	-0.069
-542.252	800.000	0.057	0.243
-541.237	146.955	-0.058	0.078
-540.223	-200.000	0.038	-0.294
-539.208	41.895	0.040	0.037
-538.193	426.930	-0.077	-0.165
-537.179	51.463	-0.086	-0.081
-536.164	-200.000	-0.004	-0.083
-535.150	353.533	0.070	-0.139
-534.135	195.639	0.143	0.217
-533.121	57.979	-0.060	-0.058
-532.106	284.664	-0.160	-0.287
-531.091	-200.000	-0.019	0.134
-530.077	800.000	-0.125	0.498
-529.062	196.028	-0.187	-0.284
-528.048	-71.392	0.074	0.027
-527.033	-46.132	0.162	0.079
-526.018	262.755	-0.070	0.122
-525.004	543.284	-0.191	0.454
-523.989	121.257	0.272	-0.338
-522.975	486.128	0.119	0.269
-521.960	5.696	0.135	0.099
-520.945	-88.244	-0.245	0.073
-519.931	-197.415	-0.355	-0.002
-518.916	800.000	-0.094	0.390
-517.902	-4.196	-0.249	-0.171
-516.887	-38.789	0.317	0.167
-515.872	436.801	0.055	0.120
-514.858	96.960	-0.291	0.332
-513.843	-200.000	-0.015	0.126
-512.829	171.586	-0.167	-0.239
-511.814	-95.974	0.148	0.039
-510.799	-14.585	-0.055	0.035
-509.785	-13.446	-0.136	-0.088
-508.770	-35.391	0.254	0.137
-507.756	83.753	-0.102	0.111
-506.741	-77.859	-0.282	-0.097
-505.726	451.538	-0.032	0.069
-504.712	-200.000	0.016	0.167
-503.697	226.577	-0.149	-0.241
-502.683	89.280	-0.142	0.158
-501.668	-76.862	0.173	-0.060
-500.653	-200.000	-0.005	-0.085
-499.639	115.497	0.188	0.229
-498.624	-95.450	0.161	-0.043
-497.610	67.894	0.301	-0.306
-496.595	-21.796	-0.295	-0.179
-495.581	800.000	-0.052	-0.166
-494.566	-66.203	-0.061	-0.024
-493.551	-92.116	0.240	-0.067
-492.537	-200.000	0.019	-0.146
-491.522	21.874	0.151	0.123
-490.508	361.483	0.080	0.159
-489.493	-36.142	-0.108	-0.058
-488.478	786.009	0.234	-0.638
-487.464	-42.569	0.119	-0.060
-486.449	-151.167	0.444	-0.033
-485.435	-87.425	0.183	-0.055
-484.420	131.174	0.127	0.163
-483.405	-200.000	-0.020	-0.259
-482.391	-88.381	0.117	-0.035
-481.376	310.627	0.120	0.223
-480.362	-129.214	-0.210	0.029
-479.347	69.269	-0.097	-0.100
-478.332	80.616	-0.198	0.212
-477.318	800.000	-0.096	0.297
-476.303	116.048	0.187	0.228
-475.289	-64.973	0.426	0.171
-474.274	374.485	-0.164	-0.331
-473.259	54.305	-0.227	0.218
-472.245	-23.905	0.222	0.132
-471.230	-175.358	-0.375	-0.010
-470.216	123.449	-0.104	-0.130
-469.201	-200.000	0.008	0.094
-468.186	-200.000	-0.003	-0.121
-467.172	-200.000	-0.013	0.085
-466.157	-200.000	0.037	-0.204
-465.143	-133.844	0.250	0.031
-464.128	70.622	0.142	0.146
-463.113	800.000	-0.045	-0.150
-462.099	-114.589	-0.174	0.033
-461.084	38.221	-0.054	-0.048
-460.070	-200.000	0.015	-0.110
-459.055	-200.000	0.016	0.227
-458.040	-115.689	-0.238	0.044
-457.026	-116.756	0.164	0.030
-456.011	534.465	0.109	0.256
-454.997	-27.647	-0.199	0.115
-453.982	757.579	0.124	-0.334
-452.968	59.179	0.075	-0.074
-451.953	-109.448	0.195	-0.041
-450.938	-97.986	0.124	0.032
-449.924	-2.338	-0.107	0.075
-448.909	431.161	-0.115	-0.247
-447.895	329.738	-0.121	0.231
-446.880	63.896	0.084	0.084
-445.865	-33.932	0.088	0.048
-444.851	49.552	0.125	0.117
-443.836	346.471	-0.097	0.190
-442.822	-150.520	-0.230	0.018
-441.807	50.606	0.143	-0.135
-440.792	-129.465	-0.210	0.029
-439.778	350.300	0.136	-0.268
-438.763	-177.493	0.085	-0.002
-437.749	-200.000	-0.004	-0.115
-436.734	6.435	0.201	-0.148
-435.719	800.000	0.051	0.186
-434.705	-152.165	-0.086	-0.006
-433.690	-200.000	0.028	-0.133
-432.676	-13.001	-0.095	0.061
-431.661	390.656	-0.098	-0.201
-430.646	-52.914	-0.110	-0.050
-429.632	-104.561	-0.349	-0.080
-428.617	556.682	0.051	-0.122
-427.603	-200.000	0.000	-0.253
-426.588	346.413	0.087	0.169
-425.573	69.606	0.017	-0.017
-424.559	40.412	0.046	0.041
-423.544	-200.000	-0.036	0.287
-422.530	148.469	-0.059	0.080
-421.515	-55.940	-0.285	-0.126
-420.500	-200.000	-0.036	-0.466
-419.486	154.511	0.083	-0.114
-418.471	-200.000	0.059	0.277
-417.457	41.505	-0.154	-0.138
-416.442	-166.562	0.424	0.018
-415.428	-181.179	0.213	-0.004
-414.413	-62.475	0.115	0.047
-413.398	64.814	-0.082	0.082
-412.384	-200.000	0.011	-0.076
-411.369	-36.721	-0.065	-0.034
-410.355	-200.000	-0.048	-0.419
-409.340	116.926	-0.132	0.161
-408.325	800.000	0.049	-0.172
-407.311	-77.539	-0.146	0.050
-406.296	87.296	0.190	-0.209
-405.282	-136.793	-0.150	0.017
-404.267	710.075	-0.083	-0.218
-403.252	207.586	0.143	-0.221
-402.238	429.574	-0.024	-0.051
-401.223	-200.000	-0.042	0.277
-400.209	800.000	0.079	-0.332
-399.194	-200.000	0.076	-0.612
-398.179	-200.000	-0.010	0.155
-397.165	64.405	0.217	0.217
-396.150	177.263	-0.152	-0.220
-395.136	-33.475	-0.246	-0.135
-394.121	-36.242	-0.172	0.092
-393.106	50.705	0.180	0.169
-392.092	47.700	-0.158	-0.146
-391.077	-143.269	0.093	0.009
-390.063	575.101	0.063	-0.152
-389.048	-55.652	-0.282	0.125
-388.033	425.835	0.097	-0.206
-387.019	-79.105	-0.340	-0.114
-386.004	-44.453	-0.168	0.083
-384.990	393.022	-0.130	0.268
-383.975	-95.451	0.119	0.032
-382.960	-117.639	-0.133	0.024
-381.946	-200.000	0.011	-0.048
-380.931	15.802	0.076	0.059
-379.917	800.000	-0.029	0.092
-378.902	-200.000	-0.034	-0.193
-377.888	-34.448	-0.387	-0.210
-376.873	271.591	-0.012	-0.021
-375.858	677.034	0.062	0.159
-374.844	-33.476	-0.234	0.128
-373.829	-39.157	0.158	-0.082
-372.815	-85.220	0.244	-0.076
-371.800	28.415	0.126	-0.105
-370.785	-83.526	-0.100	0.032
-369.771	545.322	0.112	-0.264
-368.756	-36.455	-0.155	0.083
-367.742	113.857	0.154	0.185
-366.727	800.000	0.031	0.085
-365.712	800.000	0.076	0.235
-364.698	-87.571	-0.203	-0.061
-363.683	-200.000	-0.036	0.317
-362.669	15.115	0.294	0.228
-361.654	5.970	0.196	-0.144
-360.639	800.000	0.080	-0.269
-359.625	-200.000	-0.000	-0.010
-358.610	-194.739	-0.070	0.001
-357.596	-200.000	-0.016	-0.077
-356.581	800.000	0.042	-0.122
-355.566	35.609	0.012	0.011
-354.552	271.321	0.151	0.264
-353.537	88.350	0.096	0.106
-352.523	-81.732	-0.247	0.080
-351.508	-200.000	-0.264	0.000
-350.493	-200.000	-0.038	0.363
-349.479	207.582	-0.045	0.069
-348.464	267.233	0.103	0.178
-347.450	-137.373	0.274	0.031
-346.435	-171.356	-0.102	0.003
-345.420	-200.000	-0.026	0.182
-344.406	-159.115	0.261	-0.015
-343.391	-91.644	-0.338	-0.095
-342.377	24.636	-0.132	-0.108
-341.362	-130.215	-0.178	0.024
-340.348	-82.465	0.368	0.118
-339.333	25.927	-0.141	-0.116
-338.318	-200.000	0.006	0.080
-337.304	800.000	0.037	-0.118
-336.289	-66.146	0.320	-0.126
-335.275	612.251	-0.086	-0.213
-334.260	477.124	0.069	0.155
-333.245	-78.522	-0.142	0.048
-332.231	800.000	0.045	0.153
-331.216	226.917	-0.043	-0.069
-330.202	-29.454	0.390	-0.221
-329.187	-74.482	-0.253	-0.090
-328.172	800.000	-0.054	-0.171
-327.158	-200.000	-0.006	-0.117
-326.143	235.734	-0.038	0.063
-325.129	800.000	0.048	0.157
-324.114	43.652	-0.288	-0.260
-323.099	189.790	0.156	-0.231
-322.085	-137.388	0.057	0.006
-321.070	-200.000	0.014	0.232
-320.056	-88.644	0.230	-0.068
-319.041	52.755	0.193	0.182
-318.026	-41.425	-0.173	0.088
-317.012	-34.262	0.171	-0.093
-315.997	800.000	0.016	0.058
-314.983	-200.000	0.008	-0.289
-313.968	252.586	0.150	0.252
-312.953	-124.979	0.092	0.014
-311.939	800.000	-0.045	-0.130
-310.924	-200.000	-0.069	0.541
-309.910	418.076	-0.014	0.029
-308.895	-200.000	-0.033	0.213
-307.880	-3.497	0.245	-0.168
-306.866	-38.611	-0.116	-0.061
-305.851	240.433	-0.121	0.199
-304.837	-182.768	0.124	-0.002
-303.822	33.245	-0.066	0.056
-302.807	-51.229	-0.162	-0.075
-301.793	-89.847	0.259	-0.075
-300.778	-25.202	0.212	0.124
-299.764	126.539	0.146	0.183
-298.749	225.649	-0.043	0.069
-297.735	-200.000	-0.031	0.475
-296.720	-163.043	-0.535	0.026
-295.705	348.653	0.136	0.264
-294.691	-200.000	-0.027	0.266
-293.676	-126.467	-0.381	0.056
-292.662	-78.220	0.281	0.095
-291.647	453.211	0.076	-0.167
-290.632	800.000	-0.081	0.271
-289.618	129.220	-0.044	-0.055
-288.603	-52.692	-0.157	0.072
-287.589	152.335	-0.055	0.074
-286.574	-153.334	-0.054	-0.004
-285.559	70.034	0.093	-0.094
-284.545	153.686	-0.146	-0.198
-283.530	-2.466	0.193	0.133
-282.516	-90.140	0.352	0.101
-281.501	5.640	-0.295	-0.215
-280.486	-27.240	0.158	0.091
-279.472	800.000	0.177	0.509
-278.457	18.754	-0.214	0.169
-277.443	800.000	0.033	-0.136
-276.428	18.077	-0.077	0.061
-275.413	800.000	0.012	-0.035
-274.399	-136.757	-0.123	-0.014
-273.384	82.308	0.181	-0.194
-272.370	800.000	0.125	0.454
-271.355	-24.149	0.207	0.122
-270.340	6.651	-0.122	0.089
-269.326	34.602	0.067	-0.058
-268.311	-200.000	-0.016	-0.262
-267.297	-18.870	-0.026	-0.016
-266.282	-79.270	-0.142	0.047
-265.267	-72.694	0.177	0.065
-264.253	568.388	0.069	0.164
-263.238	-200.000	0.021	-0.173
-262.224	-77.963	-0.036	-0.012
-261.209	569.880	-0.113	-0.272
-260.195	77.304	-0.341	0.358
-259.180	-144.741	0.176	-0.016
-258.165	-60.671	0.083	-0.035
-257.151	-98.572	0.267	-0.067
-256.136	-106.936	0.140	0.030
-255.122	-200.000	-0.031	0.286
-254.107	62.402	-0.151	-0.148
-253.092	800.000	-0.040	-0.156
-252.078	444.523	-0.052	-0.113
-251.063	-91.281	0.123	-0.035
-250.049	800.000	0.099	-0.327
-249.034	-143.509	-0.331	-0.031
-248.019	-82.292	0.195	0.063
-247.005	-46.993	-0.201	0.097
-245.990	-43.315	-0.165	0.082
-244.976	216.323	-0.030	0.047
-243.961	-55.168	-0.105	0.047
-242.946	-25.691	-0.227	0.132
-241.932	75.447	0.175	0.182
-240.917	-200.000	0.010	0.200
-239.903	-113.842	-0.212	0.041
-238.888	8.422	0.081	0.060
-237.873	64.861	-0.252	0.251
-236.859	-147.481	0.165	-0.014
-235.844	-184.280	-0.148	0.002
-234.830	-106.684	0.181	-0.040
-233.815	3.639	0.048	-0.035
-232.800	2.177	-0.298	-0.212
-231.786	171.520	0.123	-0.174
-230.771	-95.386	-0.184	0.049
-229.757	74.364	0.107	0.111
-228.742	800.000	-0.060	-0.209
-227.727	57.515	-0.211	-0.203
-226.713	-200.000	-0.036	0.228
-225.698	-163.178	0.267	0.013
-224.684	-153.031	0.069	-0.005
-223.669	-124.699	0.261	-0.040
-222.655	-33.456	-0.029	0.016
-221.640	-81.800	-0.149	0.048
-220.625	800.000	-0.067	0.232
-219.611	557.830	-0.049	-0.115
-218.596	-200.000	0.020	0.221
-217.582	-143.712	0.191	-0.018
-216.567	800.000	-0.060	0.224
-215.552	-7.090	-0.147	0.098
-214.538	186.354	0.060	-0.088
-213.523	-38.657	0.285	0.148
-212.509	-7.596	-0.135	0.090
-211.494	-120.838	0.317	0.053
-210.479	-200.000	-0.007	0.042
-209.465	-37.112	0.375	0.198
-208.450	4.863	-0.131	-0.095
-207.436	212.614	-0.128	0.198
-206.421	800.000	-0.059	-0.171
-205.406	800.000	-0.044	0.156
-204.392	67.765	0.158	0.159
-203.377	282.070	0.166	0.292
-202.363	368.850	-0.028	-0.056
-201.348	100.799	0.106	-0.122
-200.333	30.760	-0.092	0.077
-199.319	188.755	0.147	-0.216
-198.304	210.215	0.056	0.086
-197.290	-200.000	0.020	-0.363
-196.275	-90.750	-0.177	0.050
-195.260	189.460	0.192	0.282
-194.246	554.990	0.046	-0.110
-193.231	497.850	-0.092	0.208
-192.217	648.785	0.096	-0.242
-191.202	-200.000	-0.006	0.104
-190.187	138.907	-0.095	-0.123
-189.173	-37.853	-0.094	-0.049
-188.158	-114.434	0.095	-0.018
-187.144	172.215	0.067	0.095
-186.129	-200.000	0.052	0.379
-185.114	-27.246	0.103	0.059
-184.100	-37.230	-0.197	0.104
-183.085	-106.924	0.223	-0.049
-182.071	-6.294	0.150	-0.101
-181.056	198.704	-0.160	0.241
-180.042	-149.699	-0.416	0.032
-179.027	-29.621	-0.240	-0.135
-178.012	-200.000	-0.000	0.035
-176.998	115.339	-0.205	0.247
-175.983	493.305	0.127	-0.286
-174.969	-65.246	0.146	-0.058
-173.954	486.548	-0.126	-0.282
-172.939	-200.000	-0.000	-0.155
-171.925	82.406	0.253	0.270
-170.910	-112.078	-0.324	0.064
-169.896	-122.316	-0.009	0.001
-168.881	-71.683	-0.203	0.074
-167.866	800.000	-0.085	-0.364
-166.852	505.666	0.155	-0.353
-165.837	92.812	0.175	-0.194
-164.823	-86.944	0.421	-0.126
-163.808	-104.912	-0.147	-0.033
-162.793	-158.660	-0.255	-0.014
-161.779	-200.000	0.018	0.342
-160.764	-200.000	0.031	-0.193
-159.750	104.847	0.058	-0.067
-158.735	409.130	-0.162	-0.336
-157.720	800.000	-0.081	-0.253
-156.706	307.555	0.103	0.189
-155.691	184.318	-0.071	-0.103
-154.677	188.206	0.210	0.308
-153.662	-200.000	-0.016	-0.083
-152.647	-6.452	-0.206	0.138
-151.633	-23.219	0.135	0.079
-150.618	-200.000	0.020	0.155
-149.604	-18.067	0.251	-0.155
-148.589	786.329	0.086	-0.231
-147.574	-200.000	0.017	-0.132
-146.560	-35.449	-0.214	-0.114
-145.545	-200.000	-0.053	-0.369
-144.531	-196.081	-0.300	-0.002
-143.516	-50.144	0.016	0.007
-142.502	198.719	-0.137	-0.206
-141.487	-200.000	-0.037	-0.305
-140.472	204.845	-0.121	0.184
-139.458	-21.456	-0.081	-0.048
-138.443	-12.702	0.085	-0.055
-137.429	-200.000	-0.034	-0.161
-136.414	41.553	-0.084	-0.074
-135.399	213.464	0.158	-0.244
-134.385	-200.000	-0.011	0.203
-133.370	-137.419	-0.102	0.011
-132.356	800.000	0.047	0.172
-131.341	121.111	0.049	-0.060
-130.326	57.354	0.112	0.107
-129.312	-200.000	0.024	0.271
-128.297	305.801	0.068	-0.123
-127.283	66.486	-0.038	-0.038
-126.268	22.280	0.309	-0.248
-125.253	60.168	0.340	-0.329
-124.239	-64.168	-0.080	-0.032
-123.224	-84.013	0.502	-0.156
-122.210	93.132	0.206	-0.229
-121.195	800.000	0.074	-0.263
