DTS Sentinel unit serial number:	SN413079Multiplexer serial number:	ORYXHardware model number:	OX4-SRSoftware version number:	ORYX F/W v4.00 Oryx Data Collector v3.7.2.0data status	okinstallation	princeton_trtdifferential loss correction	single-endedforward channel	channel 1reverse channel	N/Adate	2019/09/12time	18:45:34forward acquisition time	15.00reverse acquisition time	0.00gamma	496.2192k internal	0.2318k external	0.2318temperature offset calibration	1.0109default loss term (dB/km)	0.3790temperature slope calibration	1.0000multiplexer offset coefficient	1.0000multiplexer slope coefficient	1.0000fibre end	0.00T internal ref (°C)	33.00T ext. ref 1 (°C)	2.94T ext. ref 2 (°C)	27.48length (m)	temperature (°C)	Stokes	anti-Stokes-747.200	-132.726	-0.480	0.062
-746.185	-200.000	0.023	0.203
-745.171	-175.860	0.590	-0.016
-744.156	-134.175	-0.263	-0.033
-743.142	41.480	-0.225	-0.206
-742.127	-200.000	0.048	0.271
-741.112	-75.861	-0.299	0.107
-740.098	-48.110	-0.906	-0.443
-739.083	-200.000	0.014	0.817
-738.069	225.418	-0.328	0.537
-737.054	24.348	-0.550	0.460
-736.039	-74.495	-0.263	0.096
-735.025	-14.065	-0.387	0.253
-734.010	-11.484	-0.999	-0.665
-732.996	-6.889	0.338	-0.232
-731.981	-131.655	-0.242	0.032
-730.966	-161.001	0.195	0.010
-729.952	-121.768	-0.277	-0.046
-728.937	-128.508	0.276	0.040
-727.923	219.326	0.270	-0.436
-726.908	129.037	-0.196	-0.253
-725.894	800.000	-0.205	-0.585
-724.879	621.032	0.442	-1.124
-723.864	-200.000	-0.231	-1.500
-722.850	772.186	0.129	-0.354
-721.835	-124.640	-0.717	-0.112
-720.821	-167.615	-0.329	0.013
-719.806	-57.286	-0.477	0.212
-718.791	-113.965	1.187	0.233
-717.777	-127.534	-0.516	-0.076
-716.762	-127.513	-0.808	-0.119
-715.748	79.443	-0.273	-0.296
-714.733	800.000	0.043	0.167
-713.718	800.000	-0.220	0.709
-712.704	33.798	0.192	0.169
-711.689	148.476	-0.527	0.719
-710.675	-120.360	-0.299	-0.051
-709.660	-22.449	-0.401	0.246
-708.645	-32.668	-0.938	0.527
-707.631	-113.550	-0.932	-0.184
-706.616	-9.434	0.605	-0.408
-705.602	-7.785	-0.376	-0.257
-704.587	-86.521	0.656	0.203
-703.572	457.032	-0.250	-0.560
-702.558	291.205	0.442	0.812
-701.543	-43.687	-0.277	-0.141
-700.529	19.584	-0.843	0.685
-699.514	800.000	0.195	0.721
-698.499	168.519	0.484	-0.697
-697.485	-200.000	0.054	-0.540
-696.470	-52.444	0.776	-0.363
-695.456	-0.238	0.451	-0.324
-694.441	754.718	-0.357	0.975
-693.426	-200.000	0.001	0.600
-692.412	8.812	0.288	-0.220
-691.397	61.559	-0.092	-0.092
-690.383	127.862	0.348	-0.447
-689.368	-100.242	-0.305	0.077
-688.354	-200.000	-0.014	0.205
-687.339	26.554	-0.384	0.325
-686.324	-124.132	-0.612	-0.097
-685.310	800.000	-0.283	0.900
-684.295	-70.979	0.773	0.294
-683.281	-58.143	0.516	0.227
-682.266	606.842	0.060	0.151
-681.251	800.000	0.095	0.395
-680.237	-15.921	0.862	-0.554
-679.222	-0.968	0.531	0.379
-678.208	9.810	0.199	-0.152
-677.193	-54.430	-0.799	0.365
-676.178	13.162	-0.262	0.205
-675.164	-200.000	-0.013	-0.241
-674.149	48.887	-0.121	0.115
-673.135	37.511	-0.150	-0.134
-672.120	39.612	-0.371	-0.336
-671.105	47.517	-0.317	-0.298
-670.091	146.612	-0.479	-0.650
-669.076	15.517	-0.146	-0.116
-668.062	-145.308	0.148	-0.013
-667.047	800.000	-0.086	0.286
-666.032	165.046	-0.145	0.207
-665.018	380.389	0.140	-0.289
-664.003	-121.378	-0.570	0.096
-662.989	38.722	0.217	-0.195
-661.974	-200.000	0.008	-0.051
-660.959	-80.498	0.499	0.168
-659.945	-145.194	0.046	0.004
-658.930	145.551	0.036	-0.048
-657.916	-200.000	-0.011	-0.237
-656.901	120.833	-0.064	-0.081
-655.886	-101.298	0.615	0.152
-654.872	-128.351	0.186	-0.027
-653.857	92.316	-0.235	0.267
-652.843	11.527	-0.285	-0.220
-651.828	672.482	-0.262	0.685
-650.814	-200.000	0.030	0.569
-649.799	48.764	0.299	-0.283
-648.784	470.908	0.157	-0.356
-647.770	-114.796	0.498	-0.096
-646.755	181.691	0.368	0.546
-645.741	-4.490	0.493	0.344
-644.726	-88.328	0.262	-0.079
-643.711	238.402	0.465	0.779
-642.697	488.512	-0.045	0.104
-641.682	53.150	0.106	0.102
-640.668	-200.000	0.007	0.068
-639.653	-142.814	-0.638	-0.063
-638.638	-130.909	-0.374	0.050
-637.624	8.458	0.456	-0.346
-636.609	773.695	-0.183	-0.504
-635.595	-10.883	0.170	-0.113
-634.580	334.755	0.120	0.235
-633.565	-7.073	-0.408	-0.279
-632.551	-189.484	-0.815	0.010
-631.536	-103.819	0.133	0.031
-630.522	131.338	0.499	-0.646
-629.507	-80.526	-0.392	-0.132
-628.492	-200.000	0.058	0.469
-627.478	-200.000	-0.084	0.516
-626.463	-3.834	0.333	-0.233
-625.449	-113.842	0.808	-0.158
-624.434	-200.000	-0.007	0.536
-623.419	800.000	-0.119	0.401
-622.405	49.843	0.537	-0.510
-621.390	0.195	0.270	0.194
-620.376	-200.000	-0.074	0.685
-619.361	-42.368	0.602	0.309
-618.346	-200.000	-0.040	-0.559
-617.332	170.689	0.166	-0.240
-616.317	-56.545	-0.353	-0.158
-615.303	-78.063	0.414	0.144
-614.288	259.351	0.215	-0.374
-613.273	-200.000	0.125	-1.081
-612.259	-83.931	-0.263	-0.084
-611.244	-104.049	0.428	-0.100
-610.230	-12.374	-1.010	-0.664
-609.215	800.000	0.128	-0.521
-608.201	-200.000	-0.059	0.354
-607.186	-0.160	0.385	-0.276
-606.171	4.082	0.519	0.382
-605.157	-30.814	0.670	-0.382
-604.142	-90.294	-0.236	0.069
-603.128	-86.684	0.354	0.109
-602.113	26.288	-0.510	0.429
-601.098	-32.636	-0.527	0.295
-600.084	-84.491	0.218	0.069
-599.069	169.869	0.172	0.248
-598.055	-200.000	-0.007	-1.032
-597.040	-17.669	-0.623	-0.394
-596.025	-200.000	-0.012	-0.516
-595.011	11.020	0.559	-0.430
-593.996	-187.672	0.343	0.005
-592.982	-164.875	-0.277	-0.012
-591.967	-9.507	-0.452	0.304
-590.952	-200.000	-0.010	-0.855
-589.938	102.800	0.172	0.202
-588.923	-81.851	0.050	0.016
-587.909	267.068	-0.202	-0.355
-586.894	-34.481	0.518	0.286
-585.879	590.655	0.226	-0.560
-584.865	-55.913	-0.873	-0.392
-583.850	-63.237	-0.684	0.283
-582.836	225.227	-0.646	1.051
-581.821	-80.627	-0.769	-0.258
-580.806	-29.973	-0.608	-0.348
-579.792	-200.000	0.047	-0.382
-578.777	-32.460	0.539	-0.302
-577.763	543.252	0.348	0.835
-576.748	800.000	-0.055	-0.192
-575.733	6.841	0.168	-0.126
-574.719	64.604	0.319	-0.323
-573.704	55.349	-0.293	0.285
-572.690	60.688	-0.423	-0.421
-571.675	175.118	-0.109	0.158
-570.661	66.402	0.499	-0.510
-569.646	-3.512	-0.619	0.433
-568.631	800.000	-0.084	0.242
-567.617	191.743	0.366	-0.554
-566.602	113.311	-0.087	0.106
-565.588	-10.021	-0.489	-0.327
-564.573	234.204	0.151	0.250
-563.558	800.000	0.042	0.132
-562.544	-15.153	-0.538	-0.346
-561.529	-200.000	-0.067	-0.313
-560.515	-68.232	0.241	0.094
-559.500	35.665	0.218	0.192
-558.485	86.427	-0.538	0.596
-557.471	-51.756	-0.281	0.132
-556.456	-180.846	0.301	-0.006
-555.442	3.805	0.591	-0.433
-554.427	-45.104	0.759	-0.379
-553.412	110.132	-0.250	0.302
-552.398	800.000	-0.100	0.283
-551.383	-71.812	-1.014	0.380
-550.369	-200.000	0.002	-0.111
-549.354	96.442	-0.882	1.014
-548.339	8.416	-0.819	0.618
-547.325	-68.405	0.458	-0.179
-546.310	-200.000	0.020	-0.541
-545.296	-35.253	-0.304	0.166
-544.281	-200.000	-0.037	-0.505
-543.266	-200.000	0.036	-0.789
-542.252	-35.326	-1.163	-0.635
-541.237	39.005	0.670	-0.601
-540.223	-76.838	0.706	0.248
-539.208	-200.000	-0.173	-1.026
-538.193	380.467	-0.037	0.076
-537.179	64.915	-0.409	-0.415
-536.164	42.254	-0.685	-0.625
-535.150	-18.744	-0.277	-0.173
-534.135	-119.505	1.097	0.191
-533.121	4.239	0.640	0.470
-532.106	800.000	-0.028	-0.111
-531.091	-200.000	0.058	0.353
-530.077	-152.448	0.259	0.019
-529.062	58.209	0.204	0.200
-528.048	-200.000	-0.072	0.568
-527.033	-93.792	-0.332	-0.092
-526.018	98.666	0.234	0.271
-525.004	-200.000	0.004	-0.925
-523.989	-56.057	-0.269	0.120
-522.975	50.889	0.259	0.247
-521.960	68.510	0.160	-0.164
-520.945	-144.783	0.416	-0.038
-519.931	800.000	0.218	-0.632
-518.916	-111.875	-0.428	0.087
-517.902	-51.283	0.512	0.240
-516.887	-114.884	0.447	-0.085
-515.872	32.665	-0.494	-0.429
-514.858	-200.000	-0.033	-0.184
-513.843	-200.000	0.013	0.167
-512.829	-19.060	-0.163	-0.102
-511.814	-72.575	0.352	0.130
-510.799	-89.962	0.828	-0.242
-509.785	-200.000	-0.070	0.626
-508.770	-22.710	-0.057	0.034
-507.756	64.553	-0.429	0.433
-506.741	-200.000	0.130	-0.598
-505.726	-149.995	0.211	0.016
-504.712	675.698	0.296	0.771
-503.697	800.000	-0.104	0.374
-502.683	-21.607	0.199	0.121
-501.668	-70.613	0.557	0.211
-500.653	-200.000	-0.027	-0.482
-499.639	54.492	-0.338	0.326
-498.624	43.742	-0.238	-0.218
-497.610	-200.000	-0.079	-0.801
-496.595	105.535	0.207	-0.245
-495.581	800.000	-0.212	-0.726
-494.566	29.621	-0.254	0.217
-493.551	800.000	0.161	-0.472
-492.537	-136.540	0.590	0.069
-491.522	-73.440	-0.365	0.134
-490.508	-200.000	-0.017	0.084
-489.493	-108.833	0.816	0.175
-488.478	318.996	0.032	0.060
-487.464	-200.000	0.051	0.564
-486.449	-20.587	-0.351	0.216
-485.435	-102.437	0.443	0.106
-484.420	-200.000	-0.058	-0.334
-483.405	-200.000	-0.115	-0.800
-482.391	-200.000	-0.029	0.241
-481.376	753.575	0.095	0.256
-480.362	259.257	0.105	0.182
-479.347	283.432	-0.183	0.329
-478.332	-167.852	-0.464	-0.018
-477.318	506.471	-0.281	-0.652
-476.303	-200.000	-0.171	-1.015
-475.289	118.253	0.119	0.147
-474.274	-200.000	-0.042	0.270
-473.259	-200.000	0.010	0.151
-472.245	271.310	-0.182	-0.322
-471.230	-135.197	-0.428	0.051
-470.216	-34.620	0.325	0.178
-469.201	-163.129	-0.734	-0.035
-468.186	163.749	0.195	0.275
-467.172	-132.482	0.441	-0.057
-466.157	-111.989	0.823	0.166
-465.143	84.797	0.520	0.570
-464.128	-38.449	0.690	0.365
-463.113	-200.000	0.016	0.262
-462.099	77.865	0.302	-0.322
-461.084	104.884	-0.340	-0.402
-460.070	-1.614	-0.138	-0.097
-459.055	-76.316	-1.620	0.571
-458.040	20.529	0.908	0.735
-457.026	-123.755	0.301	-0.048
-456.011	-83.593	1.206	-0.386
-454.997	-63.790	-0.219	-0.090
-453.982	356.245	-0.615	1.226
-452.968	-200.000	0.026	0.823
-451.953	-88.356	-0.902	0.270
-450.938	-59.852	0.495	0.212
-449.924	-4.149	0.725	-0.502
-448.909	-108.585	-0.305	0.065
-447.895	284.618	-0.278	0.500
-446.880	-16.510	0.373	0.236
-445.865	-200.000	0.089	-0.395
-444.851	29.091	-0.445	0.377
-443.836	172.746	0.004	0.005
-442.822	116.487	0.192	-0.235
-441.807	308.113	-0.325	0.606
-440.792	-103.374	0.794	0.187
-439.778	-42.575	0.528	0.269
-438.763	-91.085	0.144	0.041
-437.749	-108.412	0.866	0.187
-436.734	175.226	-0.607	-0.880
-435.719	-200.000	0.153	-0.885
-434.705	-139.896	-0.829	0.088
-433.690	-200.000	0.110	-0.553
-432.676	-161.385	0.377	-0.019
-431.661	-200.000	-0.000	0.291
-430.646	264.408	0.329	0.572
-429.632	290.135	-0.224	0.407
-428.617	181.337	-0.426	0.626
-427.603	84.162	0.312	-0.340
-426.588	-200.000	0.091	-0.544
-425.573	328.191	0.033	0.063
-424.559	50.059	-0.467	-0.441
-423.544	-136.105	-0.326	-0.038
-422.530	-183.646	-0.203	-0.003
-421.515	12.130	0.879	-0.676
-420.500	-200.000	-0.000	-0.043
-419.486	1.565	0.840	0.604
-418.471	-171.122	-0.234	-0.008
-417.457	203.365	0.188	0.290
-416.442	-73.949	-0.625	-0.227
-415.428	-30.223	-0.850	0.483
-414.413	-200.000	-0.058	0.375
-413.398	-33.283	0.749	0.414
-412.384	-11.734	0.497	0.326
-411.369	95.571	-0.322	-0.366
-410.355	-200.000	-0.094	-0.548
-409.340	-34.940	-0.296	0.161
-408.325	221.809	0.143	0.230
-407.311	800.000	0.257	-0.821
-406.296	184.382	-0.205	0.303
-405.282	29.750	0.113	0.096
-404.267	-68.483	0.380	0.147
-403.252	620.560	0.137	-0.344
-402.238	167.455	-0.099	0.140
-401.223	-13.298	-0.290	0.188
-400.209	-200.000	0.003	0.285
-399.194	-153.345	-0.671	-0.047
-398.179	-200.000	0.012	-1.151
-397.165	128.269	-0.245	-0.312
-396.150	339.854	-0.488	-0.950
-395.136	63.362	0.695	-0.696
-394.121	17.627	0.236	-0.187
-393.106	41.585	0.410	-0.371
-392.092	-76.958	0.526	0.184
-391.077	-200.000	0.052	-0.275
-390.063	77.481	-0.329	0.349
-389.048	39.153	0.533	0.476
-388.033	-57.363	0.579	-0.254
-387.019	-200.000	-0.064	1.012
-386.004	-27.754	-0.044	-0.025
-384.990	-127.077	-0.676	-0.099
-383.975	-115.063	-0.383	-0.073
-382.960	-200.000	0.098	0.532
-381.946	800.000	-0.315	1.083
-380.931	442.914	-0.205	-0.449
-379.917	25.968	0.852	-0.709
-378.902	116.189	-0.903	1.104
-377.888	477.623	-0.108	0.244
-376.873	-62.849	-0.407	0.168
-375.858	-200.000	-0.036	-0.769
-374.844	-116.793	-0.292	0.053
-373.829	659.731	0.304	-0.781
-372.815	532.029	0.095	-0.223
-371.800	-135.669	-0.133	-0.016
-370.785	-77.003	-0.533	0.186
-369.771	800.000	-0.118	-0.332
-368.756	113.528	0.274	0.332
-367.742	-127.892	-0.768	-0.110
-366.727	267.326	-0.381	-0.664
-365.712	-154.572	-0.742	-0.049
-364.698	-70.541	-1.128	-0.426
-363.683	-167.877	0.298	0.012
-362.669	-200.000	0.042	-0.660
-361.654	0.577	0.532	0.380
-360.639	-42.219	0.437	-0.223
-359.625	-44.518	0.513	0.256
-358.610	800.000	-0.139	-0.546
-357.596	-148.450	-0.425	0.035
-356.581	535.958	0.179	-0.423
-355.566	212.140	0.570	-0.895
-354.552	-170.204	0.582	-0.021
-353.537	-94.020	-0.806	0.221
-352.523	800.000	0.210	0.857
-351.508	-200.000	0.041	0.781
-350.493	-1.045	-0.400	0.282
-349.479	-116.916	0.191	-0.035
-348.464	-200.000	-0.011	-0.398
-347.450	-113.415	-0.634	-0.124
-346.435	-63.329	-0.120	0.049
-345.420	40.862	-0.227	0.205
-344.406	73.214	-0.414	-0.431
-343.391	155.978	0.513	0.705
-342.377	-200.000	0.080	-0.446
-341.362	-133.469	-0.310	0.039
-340.348	-142.270	0.128	0.013
-339.333	-174.673	0.733	-0.021
-338.318	751.150	-0.190	-0.510
-337.304	44.722	0.176	-0.161
-336.289	-72.291	-0.722	0.266
-335.275	-158.684	-0.308	-0.018
-334.260	-52.221	-0.434	-0.200
-333.245	-66.067	-0.351	-0.140
-332.231	-200.000	-0.019	-0.108
-331.216	274.145	0.381	0.671
-330.202	33.454	0.440	-0.381
-329.187	800.000	0.201	-0.581
-328.172	41.512	-0.106	-0.096
-327.158	800.000	0.109	-0.471
-326.143	-44.288	-0.585	0.292
-325.129	-200.000	-0.007	-0.879
-324.114	-200.000	0.028	-0.162
-323.099	800.000	-0.030	-0.100
-322.085	64.293	0.094	0.095
-321.070	177.946	-0.066	-0.096
-320.056	-200.000	-0.014	0.175
-319.041	-4.010	0.505	-0.348
-318.026	-126.584	0.385	-0.057
-317.012	-17.626	-0.720	0.451
-315.997	108.874	0.336	0.400
-314.983	48.513	-0.736	-0.686
-313.968	-200.000	-0.000	-0.595
-312.953	800.000	-0.097	-0.288
-311.939	223.922	0.375	-0.603
-310.924	800.000	-0.070	0.274
-309.910	124.038	-0.189	0.236
-308.895	320.080	0.393	-0.742
-307.880	-51.051	0.768	0.358
-306.866	-19.377	0.845	-0.521
-305.851	276.004	0.161	-0.283
-304.837	113.307	-0.055	0.066
-303.822	7.696	0.452	-0.336
-302.807	-144.749	0.118	-0.011
-301.793	-96.215	-0.868	-0.229
-300.778	-200.000	-0.090	-0.533
-299.764	-102.164	0.682	0.163
-298.749	33.905	0.633	0.548
-297.735	800.000	0.116	-0.469
-296.720	89.981	-0.483	0.537
-295.705	-20.247	0.239	-0.147
-294.691	69.724	-0.602	0.617
-293.676	428.009	0.170	0.364
-292.662	320.263	0.380	0.717
-291.647	-200.000	0.031	-0.181
-290.632	-182.906	0.792	0.014
-289.618	345.968	0.340	0.664
-288.603	-0.937	0.253	0.178
-287.589	178.224	0.984	-1.427
-286.574	-200.000	0.042	-0.332
-285.559	800.000	-0.234	0.902
-284.545	694.088	-0.143	0.373
-283.530	-200.000	0.128	0.599
-282.516	-200.000	-0.055	0.633
-281.501	567.786	0.344	0.829
-280.486	-138.080	-0.813	0.090
-279.472	16.715	0.438	0.344
-278.457	-48.578	-0.968	-0.462
-277.443	188.015	-0.025	0.036
-276.428	-200.000	0.165	0.928
-275.413	250.787	0.349	0.589
-274.399	-84.341	-0.411	-0.129
-273.384	114.229	0.054	-0.066
-272.370	404.087	0.303	0.634
-271.355	483.776	0.134	-0.303
-270.340	198.453	0.203	-0.308
-269.326	-85.969	-0.288	-0.089
-268.311	800.000	-0.050	0.178
-267.297	49.574	-0.301	-0.282
-266.282	515.388	-0.379	0.879
-265.267	-71.932	-0.206	-0.076
-264.253	-116.838	0.586	-0.107
-263.238	-200.000	0.044	-0.679
-262.224	-155.056	0.407	0.026
-261.209	94.603	-0.407	0.459
-260.195	800.000	0.177	0.515
-259.180	168.481	-0.468	-0.662
-258.165	-130.289	-0.720	0.097
-257.151	353.258	-0.196	-0.386
-256.136	90.539	0.200	0.223
-255.122	-125.893	-0.686	0.103
-254.107	-76.843	-0.365	0.127
-253.092	-95.829	0.824	0.218
-252.078	191.667	-0.192	0.286
-251.063	-108.227	-0.386	0.083
-250.049	467.097	0.028	-0.062
-249.034	-20.834	-0.386	0.235
-248.019	-200.000	0.079	-0.789
-247.005	-37.783	0.432	-0.228
-245.990	78.137	0.223	0.236
-244.976	-200.000	0.012	0.664
-243.961	-105.507	0.236	-0.053
-242.946	800.000	0.225	-0.728
-241.932	96.343	-0.539	0.612
-240.917	513.929	0.146	0.338
-239.903	-61.743	-0.406	0.169
-238.888	-126.548	0.325	-0.048
-237.873	-162.978	0.102	-0.005
-236.859	-200.000	0.042	-0.482
-235.844	800.000	0.085	0.271
-234.830	-200.000	-0.070	-0.433
-233.815	-200.000	0.086	0.926
-232.800	-171.796	-0.391	-0.013
-231.786	-124.391	0.379	-0.059
-230.771	-200.000	0.006	0.321
-229.757	800.000	-0.123	-0.377
-228.742	-89.277	0.199	0.058
-227.727	-41.435	-0.124	0.064
-226.713	-200.000	-0.155	-0.707
-225.698	698.284	0.119	0.310
-224.684	139.239	0.177	-0.231
-223.669	800.000	-0.157	-0.597
-222.655	-70.240	-0.519	-0.195
-221.640	-19.287	0.498	0.307
-220.625	117.037	-0.544	0.663
-219.611	-27.880	0.734	0.421
-218.596	66.928	-0.441	0.445
-217.582	85.185	-0.526	-0.572
-216.567	800.000	0.031	-0.095
-215.552	378.985	-0.307	0.623
-214.538	-69.146	0.606	0.231
-213.523	34.770	0.095	0.082
-212.509	-200.000	-0.053	0.354
-211.494	620.473	0.148	-0.370
-210.479	-68.588	-0.877	0.337
-209.465	-181.250	0.120	-0.002
-208.450	570.327	-0.295	0.711
-207.436	58.046	-0.356	-0.345
-206.421	-200.000	0.012	0.199
-205.406	-114.630	0.123	0.023
-204.392	800.000	0.111	-0.440
-203.377	71.593	-0.620	-0.638
-202.363	-57.056	0.475	0.208
-201.348	-200.000	0.080	0.473
-200.333	-200.000	-0.131	-0.632
-199.319	61.059	-0.083	0.081
-198.304	-32.777	0.726	-0.400
-197.290	35.989	-0.171	-0.149
-196.275	-137.615	-1.443	-0.161
-195.260	230.286	0.164	-0.266
-194.246	800.000	0.113	0.439
-193.231	-150.165	-0.287	0.022
-192.217	426.372	-0.190	-0.406
-191.202	38.639	0.619	0.547
-190.187	-63.919	0.686	0.278
-189.173	129.555	0.108	0.136
-188.158	-79.978	0.411	0.137
-187.144	-200.000	0.048	0.537
-186.129	137.610	-0.202	0.261
-185.114	-101.492	-0.586	-0.141
-184.100	16.692	0.359	0.281
-183.085	-153.164	0.120	0.008
-182.071	145.310	-0.336	-0.445
-181.056	262.489	-0.398	0.684
-180.042	205.604	0.704	1.084
-179.027	-121.233	0.195	0.032
-178.012	477.162	0.210	-0.470
-176.998	381.165	-0.365	-0.742
-175.983	-104.486	-0.443	-0.101
-174.969	156.633	0.601	0.822
-173.954	36.689	-0.288	0.252
-172.939	-8.121	0.479	0.319
-171.925	191.367	-0.611	0.911
-170.910	-200.000	-0.006	-0.630
-169.896	-184.446	-0.579	0.009
-168.881	-200.000	0.013	-0.939
-167.866	-75.937	0.546	0.191
-166.852	-127.049	-0.837	0.122
-165.837	306.822	-0.178	-0.327
-164.823	396.711	0.072	-0.150
-163.808	-200.000	0.171	0.905
-162.793	191.509	-0.326	0.485
-161.779	-200.000	-0.062	0.982
-160.764	-200.000	-0.146	-0.747
-159.750	229.745	0.432	0.698
-158.735	-64.563	-0.512	-0.206
-157.720	800.000	0.176	0.483
-156.706	227.013	-0.195	-0.314
-155.691	181.852	-0.263	-0.383
-154.677	-64.541	-0.162	-0.065
-153.662	130.972	-0.348	0.442
-152.647	-131.703	0.995	0.129
-151.633	-59.806	-0.487	0.206
-150.618	146.771	0.219	-0.291
-149.604	-98.346	-0.831	0.211
-148.589	334.149	0.076	0.145
-147.574	276.078	0.319	-0.560
-146.560	538.192	-0.046	0.107
-145.545	49.137	0.367	0.341
-144.531	-200.000	-0.125	0.771
-143.516	683.493	0.198	-0.510
-142.502	-74.044	-0.124	0.044
-141.487	142.729	-0.558	-0.733
-140.472	-200.000	0.072	-0.446
-139.458	161.623	0.361	-0.500
-138.443	20.915	-0.604	0.484
-137.429	-67.401	1.251	-0.486
-136.414	16.094	-0.200	-0.156
-135.399	-24.703	-0.413	-0.243
-134.385	-96.038	-0.189	-0.050
-133.370	5.905	0.784	0.574
-132.356	-72.124	-0.698	0.256
-131.341	-200.000	-0.045	-0.526
-130.326	-172.755	-0.372	-0.011
-129.312	-200.000	0.019	0.241
-128.297	-98.841	-0.586	-0.147
-127.283	456.439	-0.308	0.675
-126.268	800.000	-0.159	-0.478
-125.253	258.976	0.221	0.377
-124.239	-98.787	0.395	-0.099
-123.224	-200.000	-0.691	-0.001
-122.210	144.659	0.457	0.603
-121.195	-200.000	0.115	-0.548
