DTS Sentinel unit serial number:	SN413079Multiplexer serial number:	ORYXHardware model number:	OX4-SRSoftware version number:	ORYX F/W v4.00 Oryx Data Collector v3.7.2.0data status	okinstallation	princeton_trtdifferential loss correction	single-endedforward channel	channel 1reverse channel	N/Adate	2019/09/17time	03:42:35forward acquisition time	60.00reverse acquisition time	0.00gamma	496.2192k internal	0.2323k external	0.2323temperature offset calibration	0.9961default loss term (dB/km)	0.3790temperature slope calibration	1.0000multiplexer offset coefficient	1.0000multiplexer slope coefficient	1.0000fibre end	0.00T internal ref (°C)	30.00T ext. ref 1 (°C)	0.15T ext. ref 2 (°C)	24.47length (m)	temperature (°C)	Stokes	anti-Stokes-747.200	127.991	-0.146	-0.188
-746.185	-66.105	-0.122	0.049
-745.171	-41.046	0.341	0.178
-744.156	122.153	-0.167	-0.210
-743.142	800.000	0.086	-0.261
-742.127	612.814	0.126	0.318
-741.112	-84.827	0.134	0.042
-740.098	-200.000	-0.051	0.309
-739.083	197.856	-0.199	0.307
-738.069	31.060	-0.167	0.144
-737.054	-48.508	-0.357	0.174
-736.039	-35.664	-0.290	0.159
-735.025	800.000	0.066	0.290
-734.010	106.528	-0.146	0.175
-732.996	581.739	-0.146	-0.361
-731.981	-200.000	-0.019	0.198
-730.966	-68.458	0.192	0.075
-729.952	306.447	-0.139	-0.260
-728.937	-170.454	-0.127	-0.004
-727.923	79.970	-0.202	-0.219
-726.908	-23.174	0.298	-0.181
-725.894	-182.144	0.063	-0.001
-724.879	103.425	-0.161	-0.190
-723.864	-35.324	0.186	0.102
-722.850	-114.806	-0.354	0.068
-721.835	24.338	0.063	-0.052
-720.821	22.356	0.006	0.005
-719.806	-130.956	-0.103	0.014
-718.791	-33.517	-0.253	0.141
-717.777	27.490	0.242	-0.206
-716.762	323.039	-0.070	-0.134
-715.748	7.834	0.120	-0.091
-714.733	-200.000	0.004	0.106
-713.718	-65.353	0.074	-0.030
-712.704	800.000	-0.113	-0.437
-711.689	-87.704	-0.341	-0.104
-710.675	-200.000	0.005	0.182
-709.660	-200.000	0.022	-0.237
-708.645	51.928	0.049	0.047
-707.631	-0.617	-0.192	-0.137
-706.616	-152.006	-0.256	0.019
-705.602	-3.105	-0.004	-0.003
-704.587	800.000	0.037	0.120
-703.572	-8.523	0.269	-0.182
-702.558	-200.000	-0.016	-0.196
-701.543	-87.111	0.221	0.068
-700.529	43.596	0.164	-0.151
-699.514	68.830	-0.095	-0.098
-698.499	-200.000	0.000	-0.191
-697.485	-108.319	0.091	-0.020
-696.470	26.546	-0.239	-0.201
-695.456	-93.339	-0.120	0.034
-694.441	5.865	0.229	-0.171
-693.426	-89.640	-0.301	0.089
-692.412	150.649	-0.177	-0.242
-691.397	-200.000	-0.003	0.031
-690.383	735.860	-0.033	0.090
-689.368	-92.158	-0.198	-0.056
-688.354	223.688	-0.183	-0.298
-687.339	800.000	-0.124	-0.393
-686.324	-97.929	0.338	-0.088
-685.310	11.256	-0.120	0.093
-684.295	-200.000	-0.049	0.356
-683.281	-53.921	0.196	-0.090
-682.266	275.253	0.012	-0.021
-681.251	315.556	0.080	-0.152
-680.237	42.396	-0.165	0.151
-679.222	-139.239	-0.383	-0.042
-678.208	-197.698	-0.220	-0.001
-677.193	13.400	-0.080	0.062
-676.178	312.193	0.009	-0.017
-675.164	546.693	-0.074	0.178
-674.149	-33.840	-0.331	-0.184
-673.135	146.695	0.012	-0.016
-672.120	-101.679	0.054	0.013
-671.105	76.196	0.073	0.078
-670.091	-67.538	-0.045	-0.018
-669.076	215.627	-0.154	0.247
-668.062	572.769	0.062	-0.151
-667.047	-38.551	-0.181	-0.096
-666.032	-36.198	0.196	-0.106
-665.018	800.000	0.060	0.265
-664.003	331.699	-0.024	0.046
-662.989	-58.029	-0.177	-0.078
-661.974	-139.661	-0.080	0.009
-660.959	-55.714	0.316	-0.142
-659.945	-180.614	-0.193	0.004
-658.930	-200.000	0.005	-0.225
-657.916	152.706	-0.159	-0.219
-656.901	-200.000	0.000	0.271
-655.886	-80.142	0.160	-0.054
-654.872	36.985	-0.121	-0.108
-653.857	800.000	-0.114	-0.376
-652.843	610.731	0.051	-0.128
-651.828	1.820	-0.354	-0.256
-650.814	64.300	-0.105	0.106
-649.799	-200.000	0.002	0.078
-648.784	-182.634	0.242	0.004
-647.770	28.709	-0.147	-0.125
-646.755	160.705	-0.015	0.021
-645.741	95.222	0.063	-0.072
-644.726	41.193	-0.133	-0.121
-643.711	-84.812	0.166	-0.053
-642.697	-200.000	-0.010	0.254
-641.682	247.350	0.113	0.192
-640.668	-200.000	-0.030	-0.213
-639.653	127.482	0.177	0.226
-638.638	-200.000	-0.004	0.131
-637.624	-30.451	0.295	-0.168
-636.609	139.967	-0.269	0.357
-635.595	-102.023	-0.122	0.030
-634.580	-155.679	0.205	0.013
-633.565	195.405	-0.048	-0.073
-632.551	285.999	0.146	-0.264
-631.536	92.631	0.273	-0.309
-630.522	44.251	-0.228	0.210
-629.507	800.000	0.089	0.257
-628.492	101.347	-0.182	-0.213
-627.478	-8.842	0.416	-0.280
-626.463	90.847	0.252	-0.284
-625.449	440.632	-0.102	-0.224
-624.434	-107.503	-0.247	0.054
-623.419	-95.803	-0.258	0.069
-622.405	-200.000	-0.028	-0.163
-621.390	800.000	-0.091	0.255
-620.376	-71.095	0.057	0.022
-619.361	-200.000	0.021	-0.094
-618.346	-117.069	-0.114	-0.021
-617.332	86.684	0.100	0.110
-616.317	-29.604	-0.165	-0.095
-615.303	24.890	0.216	-0.180
-614.288	117.390	-0.223	-0.275
-613.273	800.000	-0.138	-0.593
-612.259	-200.000	0.012	-0.078
-611.244	156.421	-0.052	0.072
-610.230	648.985	-0.166	0.427
-609.215	86.725	0.193	0.214
-608.201	-120.173	0.241	0.041
-607.186	101.431	0.133	0.156
-606.171	376.340	0.093	0.190
-605.157	-89.572	0.097	-0.029
-604.142	-99.088	-0.379	-0.096
-603.128	73.142	0.214	-0.225
-602.113	125.337	-0.119	0.150
-601.098	-32.897	-0.091	0.051
-600.084	-200.000	-0.031	-0.232
-599.069	-75.732	-0.231	-0.082
-598.055	-165.869	-0.245	-0.011
-597.040	-68.433	-0.218	0.085
-596.025	-116.927	0.305	0.056
-595.011	-166.734	-0.315	-0.013
-593.996	149.707	0.153	0.209
-592.982	331.288	0.066	-0.128
-591.967	-200.000	0.006	0.159
-590.952	-15.292	0.085	0.054
-589.938	800.000	-0.051	-0.194
-588.923	800.000	-0.083	0.243
-587.909	-200.000	-0.025	0.398
-586.894	-200.000	0.033	-0.247
-585.879	25.787	-0.133	0.111
-584.865	-95.126	-0.375	-0.102
-583.850	322.716	-0.026	-0.049
-582.836	800.000	-0.057	-0.211
-581.821	-200.000	0.022	0.269
-580.806	-15.571	-0.152	0.097
-579.792	20.607	0.208	0.169
-578.777	108.450	-0.187	0.225
-577.763	329.947	-0.050	0.097
-576.748	-159.032	0.368	0.021
-575.733	800.000	-0.076	0.225
-574.719	158.765	0.003	0.005
-573.704	111.284	0.250	-0.302
-572.690	-200.000	-0.052	0.267
-571.675	7.673	-0.258	-0.194
-570.661	800.000	-0.176	-0.574
-569.646	800.000	-0.078	-0.315
-568.631	-151.034	-0.071	0.005
-567.617	-153.637	0.337	-0.023
-566.602	-113.746	-0.082	0.016
-565.588	-99.020	-0.281	0.071
-564.573	-159.358	-0.178	-0.010
-563.558	3.963	-0.373	-0.273
-562.544	-200.000	0.029	-0.212
-561.529	293.084	-0.057	-0.104
-560.515	-175.350	-0.119	-0.003
-559.500	88.793	-0.219	-0.245
-558.485	800.000	0.024	-0.074
-557.471	18.191	-0.131	-0.105
-556.456	55.913	-0.200	0.194
-555.442	-200.000	0.003	0.069
-554.427	452.805	-0.048	-0.107
-553.412	-200.000	0.002	-0.084
-552.398	240.027	0.266	-0.444
-551.383	-200.000	0.035	-0.502
-550.369	-200.000	-0.035	-0.155
-549.354	-90.331	-0.419	0.122
-548.339	594.466	0.146	-0.362
-547.325	723.445	0.023	0.062
-546.310	-124.589	-0.028	-0.004
-545.296	-200.000	0.037	0.269
-544.281	577.735	-0.084	0.205
-543.266	54.616	0.233	0.226
-542.252	171.971	-0.024	-0.034
-541.237	-111.977	0.110	0.022
-540.223	-73.610	0.341	-0.125
-539.208	413.465	-0.017	-0.036
-538.193	-200.000	-0.006	-0.077
-537.179	741.636	-0.063	-0.170
-536.164	-200.000	-0.002	0.045
-535.150	-200.000	-0.053	0.337
-534.135	52.300	0.146	-0.139
-533.121	-117.920	0.140	0.025
-532.106	-50.390	-0.213	0.101
-531.091	-87.677	-0.248	0.075
-530.077	-200.000	-0.022	0.178
-529.062	596.771	-0.103	-0.256
-528.048	86.703	0.124	0.137
-527.033	211.016	0.017	-0.027
-526.018	74.942	-0.119	0.125
-525.004	98.358	-0.135	-0.155
-523.989	-1.802	-0.173	-0.122
-522.975	-78.160	0.223	0.077
-521.960	800.000	0.095	0.295
-520.945	-84.691	0.367	0.116
-519.931	-40.408	0.159	-0.083
-518.916	-200.000	-0.013	-0.094
-517.902	-106.719	-0.438	-0.098
-516.887	-130.825	0.171	0.023
-515.872	-58.431	0.230	0.100
-514.858	-200.000	-0.003	0.033
-513.843	-37.391	-0.104	-0.055
-512.829	-45.080	-0.161	0.080
-511.814	-147.719	-0.224	0.019
-510.799	203.596	0.099	0.154
-509.785	76.541	-0.214	0.227
-508.770	595.392	-0.070	0.173
-507.756	-130.710	-0.330	0.044
-506.741	-49.342	-0.283	0.135
-505.726	62.935	-0.078	0.078
-504.712	800.000	0.032	-0.137
-503.697	-158.030	-0.177	-0.010
-502.683	230.829	-0.164	0.268
-501.668	-155.746	0.310	0.020
-500.653	77.123	-0.201	-0.214
-499.639	800.000	-0.022	0.094
-498.624	800.000	-0.102	0.317
-497.610	-200.000	-0.028	0.391
-496.595	-158.673	-0.235	0.013
-495.581	57.075	0.191	0.187
-494.566	800.000	0.067	0.247
-493.551	-83.559	0.129	0.041
-492.537	126.166	0.077	-0.098
-491.522	197.292	-0.123	-0.187
-490.508	117.913	-0.092	0.114
-489.493	-146.105	0.121	-0.011
-488.478	-34.808	0.059	0.032
-487.464	178.617	0.111	0.162
-486.449	-153.252	0.274	0.019
-485.435	43.694	0.223	-0.204
-484.420	800.000	-0.150	-0.450
-483.405	162.012	0.097	-0.136
-482.391	-200.000	0.025	0.224
-481.376	-58.856	0.369	-0.160
-480.362	-69.716	-0.215	-0.082
-479.347	117.703	-0.161	0.198
-478.332	800.000	-0.091	-0.314
-477.318	250.241	0.122	0.207
-476.303	-41.861	0.184	-0.094
-475.289	708.362	-0.124	0.328
-474.274	33.619	0.096	-0.084
-473.259	-100.414	-0.162	0.040
-472.245	648.645	0.065	0.167
-471.230	-23.668	-0.151	-0.090
-470.216	-86.109	0.169	-0.052
-469.201	74.572	-0.082	-0.086
-468.186	112.404	0.092	0.111
-467.172	39.043	-0.043	-0.038
-466.157	-200.000	0.005	0.228
-465.143	-96.372	-0.133	-0.035
-464.128	800.000	0.080	-0.280
-463.113	-106.673	0.374	-0.083
-462.099	343.053	0.154	-0.302
-461.084	-33.046	-0.172	-0.095
-460.070	32.288	-0.237	0.205
-459.055	-8.703	-0.188	-0.126
-458.040	-66.125	0.238	-0.095
-457.026	-35.486	-0.303	0.164
-456.011	0.205	0.016	-0.011
-454.997	160.311	-0.029	-0.041
-453.982	68.838	-0.090	-0.093
-452.968	800.000	-0.076	0.227
-451.953	518.932	-0.067	-0.158
-450.938	63.699	-0.165	-0.166
-449.924	-200.000	-0.004	0.327
-448.909	-50.222	-0.084	0.040
-447.895	-149.674	0.262	0.021
-446.880	-108.809	-0.279	0.059
-445.865	-200.000	-0.049	-0.351
-444.851	-200.000	-0.012	0.053
-443.836	800.000	-0.058	-0.250
-442.822	-42.465	-0.073	0.037
-441.807	278.112	0.136	0.242
-440.792	130.562	-0.042	0.054
-439.778	-200.000	-0.028	0.189
-438.763	-127.758	0.149	0.022
-437.749	-66.576	-0.272	0.108
-436.734	180.839	-0.061	-0.089
-435.719	-144.851	-0.322	-0.029
-434.705	-166.246	-0.299	0.013
-433.690	228.611	-0.050	-0.081
-432.676	-200.000	-0.057	-0.341
-431.661	106.909	0.144	-0.171
-430.646	-200.000	0.009	0.117
-429.632	800.000	-0.048	-0.208
-428.617	36.974	-0.162	0.143
-427.603	-200.000	0.007	-0.184
-426.588	-61.144	0.252	-0.106
-425.573	-200.000	0.049	-0.350
-424.559	-160.594	0.143	-0.008
-423.544	43.604	0.124	0.113
-422.530	642.781	-0.084	-0.214
-421.515	-159.769	0.124	-0.007
-420.500	-28.557	0.204	-0.117
-419.486	-27.779	0.153	0.089
-418.471	-200.000	-0.027	-0.166
-417.457	-123.205	0.301	0.048
-416.442	158.590	0.196	-0.272
-415.428	194.078	-0.187	-0.282
-414.413	-200.000	0.031	-0.139
-413.398	-46.914	0.159	0.078
-412.384	-63.083	-0.104	-0.043
-411.369	-200.000	-0.049	0.240
-410.355	149.822	0.158	0.213
-409.340	-200.000	-0.010	0.254
-408.325	-77.011	-0.188	0.066
-407.311	-200.000	0.011	0.084
-406.296	96.082	0.120	0.136
-405.282	-200.000	-0.031	0.243
-404.267	119.124	-0.127	-0.157
-403.252	-75.004	-0.188	0.067
-402.238	147.102	0.211	0.283
-401.223	800.000	0.087	0.320
-400.209	-200.000	0.029	0.176
-399.194	484.124	0.118	0.269
-398.179	34.452	0.442	0.385
-397.165	-200.000	0.011	0.100
-396.150	800.000	-0.035	-0.113
-395.136	800.000	0.119	-0.381
-394.121	19.918	0.189	-0.152
-393.106	37.011	0.064	-0.057
-392.092	169.655	-0.130	-0.186
-391.077	29.882	0.335	0.284
-390.063	-70.306	-0.172	0.065
-389.048	-65.068	0.112	-0.045
-388.033	108.632	0.187	-0.223
-387.019	412.076	0.118	0.249
-386.004	-96.455	0.219	0.058
-384.990	-51.108	-0.302	-0.141
-383.975	-200.000	0.031	-0.141
-382.960	39.891	-0.130	0.116
-381.946	-26.253	0.308	-0.180
-380.931	-200.000	-0.008	-0.121
-379.917	191.222	0.166	-0.249
-378.902	58.631	0.055	-0.054
-377.888	-61.714	-0.042	0.017
-376.873	-5.578	0.278	-0.190
-375.858	417.581	-0.216	0.458
-374.844	-51.638	0.082	-0.038
-373.829	-200.000	0.012	-0.380
-372.815	-146.810	0.123	0.011
-371.800	189.465	0.123	-0.184
-370.785	800.000	-0.092	-0.280
-369.771	-40.075	0.338	-0.175
-368.756	-6.395	0.281	0.191
-367.742	136.099	0.194	0.252
-366.727	178.466	0.148	0.214
-365.712	88.701	0.063	0.069
-364.698	-143.365	-0.346	0.033
-363.683	98.848	0.102	0.117
-362.669	178.084	-0.058	0.085
-361.654	229.726	-0.196	0.319
-360.639	800.000	-0.075	0.217
-359.625	-70.829	0.054	0.020
-358.610	450.385	0.033	0.072
-357.596	-58.668	0.244	-0.105
-356.581	-106.088	0.233	-0.052
-355.566	166.163	0.235	-0.331
-354.552	-200.000	0.028	-0.180
-353.537	195.690	0.119	-0.179
-352.523	-200.000	-0.026	-0.260
-351.508	277.117	-0.048	0.084
-350.493	800.000	0.024	-0.097
-349.479	-24.014	-0.174	-0.103
-348.464	75.163	0.036	0.037
-347.450	-101.323	0.148	0.036
-346.435	-173.096	0.209	0.006
-345.420	-200.000	-0.025	0.495
-344.406	398.749	0.174	-0.361
-343.391	800.000	0.007	-0.025
-342.377	64.843	0.200	0.200
-341.362	-200.000	0.007	0.076
-340.348	800.000	0.022	-0.064
-339.333	-200.000	0.045	0.373
-338.318	-104.270	0.046	-0.011
-337.304	366.598	0.068	-0.136
-336.289	-32.906	-0.186	-0.103
-335.275	800.000	0.055	0.208
-334.260	-10.850	-0.159	-0.105
-333.245	-81.685	0.079	-0.026
-332.231	17.811	0.181	-0.144
-331.216	-121.155	0.125	0.021
-330.202	-79.400	0.078	0.026
-329.187	-108.727	0.401	0.085
-328.172	-104.468	-0.083	-0.019
-327.158	-53.056	-0.151	-0.069
-326.143	9.504	-0.471	0.355
-325.129	-200.000	-0.047	-0.306
-324.114	-200.000	0.044	-0.198
-323.099	78.286	-0.154	0.163
-322.085	-142.080	-0.110	-0.011
-321.070	360.914	0.158	-0.314
-320.056	451.273	-0.029	-0.063
-319.041	25.659	0.073	-0.060
-318.026	-200.000	-0.003	0.054
-317.012	800.000	0.108	-0.423
-315.997	-159.386	-0.382	0.021
-314.983	102.676	-0.165	-0.192
-313.968	-42.875	-0.433	-0.218
-312.953	-200.000	-0.004	0.275
-311.939	-6.441	0.324	-0.220
-310.924	62.019	0.249	0.246
-309.910	-200.000	-0.023	0.107
-308.895	800.000	0.017	0.072
-307.880	-200.000	0.013	-0.175
-306.866	-95.895	-0.173	0.046
-305.851	59.555	0.094	-0.092
-304.837	493.851	0.157	0.357
-303.822	-194.385	0.205	-0.002
-302.807	168.538	0.038	-0.054
-301.793	-49.709	0.157	-0.074
-300.778	21.886	-0.083	0.067
-299.764	502.118	-0.210	0.482
-298.749	315.019	-0.085	-0.159
-297.735	-200.000	-0.004	-0.108
-296.720	8.244	-0.124	-0.092
-295.705	-171.877	0.243	0.008
-294.691	800.000	0.104	-0.401
-293.676	-17.133	0.157	-0.098
-292.662	-35.364	0.177	-0.096
-291.647	-43.380	-0.109	0.055
-290.632	-200.000	0.032	-0.175
-289.618	-135.241	-0.449	-0.053
-288.603	277.450	0.119	0.210
-287.589	29.342	0.165	0.139
-286.574	-200.000	0.030	0.337
-285.559	432.026	0.038	0.081
-284.545	-200.000	-0.019	0.228
-283.530	1.868	0.095	-0.068
-282.516	28.336	-0.032	-0.027
-281.501	194.743	-0.109	0.164
-280.486	-41.473	-0.235	0.120
-279.472	447.062	-0.211	0.461
-278.457	-10.599	-0.259	0.170
-277.443	-200.000	0.081	-0.551
-276.428	800.000	-0.050	0.160
-275.413	219.001	-0.119	0.188
-274.399	-161.063	-0.055	-0.003
-273.384	-200.000	-0.043	0.254
-272.370	800.000	-0.084	-0.313
-271.355	-107.481	0.191	0.042
-270.340	4.699	-0.328	-0.239
-269.326	161.970	0.133	-0.185
-268.311	800.000	-0.060	0.222
-267.297	399.641	-0.189	0.394
-266.282	-122.365	-0.107	0.017
-265.267	125.545	0.204	-0.256
-264.253	-106.552	0.022	-0.005
-263.238	-90.973	0.170	0.049
-262.224	-86.863	0.247	-0.075
-261.209	104.681	0.316	0.370
-260.195	-130.686	0.365	0.049
-259.180	800.000	0.037	-0.107
-258.165	-43.430	0.216	0.108
-257.151	110.943	0.178	0.213
-256.136	-200.000	0.013	0.103
-255.122	111.301	0.192	-0.229
-254.107	-200.000	-0.014	0.233
-253.092	255.887	-0.026	-0.044
-252.078	70.189	-0.121	0.124
-251.063	-43.757	0.164	-0.082
-250.049	13.782	-0.121	0.093
-249.034	-96.335	-0.304	0.080
-248.019	10.331	0.037	-0.028
-247.005	-169.890	-0.238	0.008
-245.990	-200.000	0.014	-0.189
-244.976	145.559	-0.158	-0.209
-243.961	28.199	0.214	-0.179
-242.946	37.771	-0.234	-0.206
-241.932	21.241	-0.278	0.224
-240.917	-200.000	-0.003	0.035
-239.903	800.000	0.099	0.349
-238.888	-200.000	0.045	-0.230
-237.873	-105.666	-0.201	0.045
-236.859	-39.460	0.269	-0.140
-235.844	39.645	0.091	0.081
-234.830	-64.820	-0.149	0.060
-233.815	-57.091	0.078	0.034
-232.800	-84.682	0.097	-0.030
-231.786	-200.000	0.004	0.169
-230.771	26.475	0.198	0.164
-229.757	-200.000	-0.045	-0.297
-228.742	13.248	-0.151	-0.115
-227.727	-200.000	0.002	-0.075
-226.713	-63.891	-0.231	0.093
-225.698	106.516	-0.121	0.142
-224.684	-32.472	-0.105	-0.058
-223.669	800.000	-0.041	-0.174
-222.655	-138.541	-0.440	-0.048
-221.640	-185.626	0.259	-0.004
-220.625	-91.932	-0.303	0.085
-219.611	-168.920	-0.156	-0.006
-218.596	-95.855	0.237	-0.062
-217.582	-83.417	-0.510	-0.162
-216.567	-4.254	0.042	0.028
-215.552	45.810	-0.206	0.188
-214.538	88.645	0.144	0.158
-213.523	800.000	-0.080	0.278
-212.509	-87.298	0.140	-0.042
-211.494	308.281	-0.165	0.305
-210.479	14.741	0.121	0.094
-209.465	67.556	0.227	-0.229
-208.450	-80.711	0.071	0.023
-207.436	50.588	0.191	0.179
-206.421	-11.577	0.367	0.238
-205.406	-59.062	-0.144	-0.061
-204.392	-68.058	-0.045	-0.017
-203.377	-162.804	-0.350	0.017
-202.363	121.881	-0.167	-0.206
-201.348	539.770	0.024	0.057
-200.333	-200.000	0.017	0.161
-199.319	669.986	0.048	-0.124
-198.304	-200.000	-0.003	0.093
-197.290	-200.000	-0.029	-0.166
-196.275	800.000	0.081	0.256
-195.260	417.539	-0.048	0.100
-194.246	-200.000	0.058	-0.438
-193.231	-10.423	0.154	0.101
-192.217	-200.000	0.069	0.402
-191.202	96.028	0.098	0.110
-190.187	36.558	0.049	-0.043
-189.173	750.112	-0.021	0.056
-188.158	-200.000	-0.004	-0.055
-187.144	-120.627	-0.369	-0.062
-186.129	-169.280	0.098	0.004
-185.114	-177.426	-0.232	0.006
-184.100	-72.989	0.052	-0.019
-183.085	800.000	0.027	0.108
-182.071	218.230	-0.127	0.201
-181.056	-123.611	0.120	-0.019
-180.042	-9.410	0.252	-0.167
-179.027	-117.862	0.317	0.056
-178.012	72.279	-0.160	0.165
-176.998	-200.000	-0.024	-0.217
-175.983	103.428	0.157	-0.182
-174.969	-42.833	0.158	0.080
-173.954	53.866	-0.095	0.090
-172.939	-41.475	-0.015	0.008
-171.925	144.239	0.116	-0.153
-170.910	-200.000	-0.048	-0.248
-169.896	304.828	0.039	-0.071
-168.881	15.711	-0.238	-0.184
-167.866	-200.000	-0.033	-0.307
-166.852	-7.058	0.259	-0.173
-165.837	-84.457	0.262	0.082
-164.823	129.846	-0.177	-0.224
-163.808	12.968	-0.208	0.158
-162.793	263.343	-0.142	0.244
-161.779	800.000	-0.042	-0.121
-160.764	-41.745	0.122	0.062
-159.750	399.377	0.127	-0.263
-158.735	800.000	-0.032	0.130
-157.720	-151.632	-0.132	-0.010
-156.706	238.627	0.026	0.042
-155.691	800.000	-0.080	-0.273
-154.677	2.148	-0.228	-0.162
-153.662	551.741	0.062	0.148
-152.647	800.000	-0.060	0.226
-151.633	-200.000	-0.016	0.199
-150.618	94.668	0.094	-0.106
-149.604	-200.000	-0.005	-0.184
-148.589	-200.000	-0.045	-0.237
-147.574	-89.543	-0.167	-0.049
-146.560	11.046	-0.181	0.136
-145.545	277.564	-0.084	-0.147
-144.531	800.000	0.073	0.246
-143.516	111.335	0.283	0.337
-142.502	1.603	0.154	0.109
-141.487	-200.000	-0.067	0.333
-140.472	26.066	0.202	0.166
-139.458	800.000	-0.062	0.207
-138.443	108.467	0.313	0.368
-137.429	85.610	-0.139	0.150
-136.414	-200.000	0.016	-0.118
-135.399	-200.000	0.030	-0.179
-134.385	-91.461	-0.245	0.069
-133.370	132.648	-0.218	-0.277
-132.356	-200.000	0.003	0.368
-131.341	800.000	-0.081	0.322
-130.326	-96.108	0.334	0.088
-129.312	-200.000	0.030	-0.272
-128.297	-38.337	0.192	0.100
-127.283	-35.692	0.299	-0.160
-126.268	95.083	0.147	-0.165
-125.253	-177.688	-0.149	0.004
-124.239	-136.516	-0.153	-0.018
-123.224	18.420	-0.116	0.091
-122.210	-183.232	-0.170	0.003
-121.195	34.465	-0.185	-0.159
