DTS Sentinel unit serial number:	SN413079Multiplexer serial number:	ORYXHardware model number:	OX4-SRSoftware version number:	ORYX F/W v4.00 Oryx Data Collector v3.7.2.0data status	okinstallation	princeton_trtdifferential loss correction	single-endedforward channel	channel 1reverse channel	N/Adate	2019/09/19time	15:22:35forward acquisition time	60.00reverse acquisition time	0.00gamma	496.2192k internal	0.2313k external	0.2313temperature offset calibration	1.0020default loss term (dB/km)	0.3790temperature slope calibration	1.0000multiplexer offset coefficient	1.0000multiplexer slope coefficient	1.0000fibre end	0.00T internal ref (°C)	33.81T ext. ref 1 (°C)	1.15T ext. ref 2 (°C)	30.56length (m)	temperature (°C)	Stokes	anti-Stokes-747.200	234.828	-0.291	-0.487
-746.185	82.715	0.051	0.056
-745.171	-26.717	-0.128	0.076
-744.156	-200.000	0.015	0.304
-743.142	374.451	0.122	-0.251
-742.127	41.560	0.142	0.130
-741.112	162.188	0.150	-0.213
-740.098	-27.091	-0.073	0.043
-739.083	800.000	0.067	-0.284
-738.069	145.543	0.154	0.209
-737.054	202.482	-0.160	0.251
-736.039	-124.080	-0.270	-0.043
-735.025	455.874	0.057	-0.129
-734.010	-200.000	0.010	-0.124
-732.996	-200.000	0.037	-0.259
-731.981	69.999	-0.074	0.078
-730.966	-39.228	-0.322	-0.171
-729.952	672.788	-0.058	-0.151
-728.937	9.938	-0.042	0.033
-727.923	-121.707	-0.186	-0.031
-726.908	124.490	-0.239	-0.305
-725.894	-120.917	0.226	0.039
-724.879	311.613	-0.062	0.118
-723.864	-200.000	-0.009	0.058
-722.850	212.605	0.124	0.198
-721.835	800.000	-0.030	-0.087
-720.821	12.816	-0.192	-0.150
-719.806	-10.923	-0.449	-0.300
-718.791	-200.000	0.011	-0.115
-717.777	-69.603	-0.256	0.099
-716.762	-94.415	-0.252	0.070
-715.748	-200.000	0.000	0.105
-714.733	800.000	0.078	0.269
-713.718	800.000	-0.145	0.478
-712.704	25.023	0.271	-0.228
-711.689	-108.074	0.233	-0.051
-710.675	-200.000	0.024	0.135
-709.660	54.806	-0.085	0.083
-708.645	-38.289	-0.222	0.119
-707.631	-70.263	-0.302	-0.116
-706.616	25.120	-0.168	-0.141
-705.602	86.306	-0.130	-0.145
-704.587	-200.000	-0.024	0.154
-703.572	51.009	0.123	0.118
-702.558	-200.000	-0.024	0.197
-701.543	-200.000	-0.005	-0.137
-700.529	-200.000	-0.015	-0.113
-699.514	188.861	0.141	0.213
-698.499	44.598	-0.155	-0.144
-697.485	-132.365	-0.319	-0.042
-696.470	-200.000	0.055	-0.336
-695.456	-138.594	-0.487	0.054
-694.441	-162.944	0.205	0.010
-693.426	427.802	0.042	0.092
-692.412	201.664	0.157	-0.245
-691.397	-51.592	0.087	-0.041
-690.383	69.025	-0.130	0.136
-689.368	-200.000	-0.002	0.049
-688.354	160.056	0.075	-0.106
-687.339	-77.423	0.060	0.021
-686.324	-137.306	-0.125	0.014
-685.310	800.000	-0.138	-0.405
-684.295	-114.708	0.123	0.024
-683.281	81.106	0.080	0.088
-682.266	-131.736	0.168	0.022
-681.251	516.107	-0.136	-0.321
-680.237	-165.680	-0.248	-0.011
-679.222	-200.000	0.029	0.244
-678.208	402.525	0.139	-0.295
-677.193	-160.942	0.152	-0.008
-676.178	20.674	-0.142	0.116
-675.164	187.503	-0.052	-0.079
-674.149	384.566	-0.040	0.083
-673.135	800.000	-0.037	0.149
-672.120	425.099	0.151	0.328
-671.105	800.000	0.124	-0.452
-670.091	71.037	-0.065	0.069
-669.076	121.819	-0.053	0.067
-668.062	30.586	0.139	0.120
-667.047	-21.914	0.187	0.115
-666.032	-200.000	0.011	-0.132
-665.018	-68.450	-0.175	-0.069
-664.003	-200.000	0.054	-0.532
-662.989	16.729	0.301	-0.241
-661.974	192.406	-0.209	-0.319
-660.959	21.577	-0.088	-0.072
-659.945	-178.205	0.111	0.003
-658.930	-200.000	-0.024	0.297
-657.916	-183.341	0.279	-0.005
-656.901	48.900	0.052	-0.049
-655.886	-200.000	0.016	-0.142
-654.872	-200.000	0.015	0.096
-653.857	12.739	-0.070	0.054
-652.843	-37.474	0.271	-0.146
-651.828	57.634	0.067	0.067
-650.814	242.776	-0.089	-0.151
-649.799	-200.000	0.054	-0.353
-648.784	515.764	-0.093	0.220
-647.770	-35.980	0.061	0.034
-646.755	-51.443	-0.233	-0.110
-645.741	190.845	0.032	-0.049
-644.726	233.704	-0.107	-0.178
-643.711	-37.822	-0.037	-0.020
-642.697	-24.919	-0.166	0.100
-641.682	-99.122	0.405	0.104
-640.668	-188.861	-0.163	0.002
-639.653	800.000	-0.092	-0.387
-638.638	-85.739	0.223	0.070
-637.624	138.243	0.251	-0.333
-636.609	-105.341	-0.260	-0.060
-635.595	34.870	0.095	0.084
-634.580	-200.000	-0.002	-0.026
-633.565	-57.011	-0.239	-0.106
-632.551	81.925	0.108	0.118
-631.536	-97.265	0.039	0.010
-630.522	-23.958	-0.367	-0.221
-629.507	88.027	-0.051	0.057
-628.492	-83.531	-0.072	-0.023
-627.478	285.602	-0.021	0.038
-626.463	182.674	-0.143	0.212
-625.449	-200.000	0.020	-0.215
-624.434	171.536	0.192	0.278
-623.419	800.000	0.034	-0.127
-622.405	-200.000	-0.001	-0.328
-621.390	800.000	-0.044	-0.179
-620.376	-200.000	-0.005	-0.163
-619.361	119.064	0.186	0.232
-618.346	483.662	-0.031	0.072
-617.332	-63.409	-0.322	-0.134
-616.317	-118.339	-0.126	0.023
-615.303	-31.478	-0.179	-0.102
-614.288	327.993	-0.116	0.225
-613.273	213.418	0.076	-0.121
-612.259	-200.000	0.023	-0.297
-611.244	66.478	0.196	-0.201
-610.230	-153.952	-0.446	0.031
-609.215	-118.450	0.189	-0.034
-608.201	-55.295	0.158	0.071
-607.186	15.488	0.307	0.244
-606.171	-134.273	-0.106	-0.013
-605.157	800.000	-0.154	0.486
-604.142	-136.652	-0.290	0.034
-603.128	-186.676	-0.363	0.005
-602.113	264.720	0.086	-0.152
-601.098	115.608	0.095	0.117
-600.084	-103.822	-0.195	0.046
-599.069	-73.471	-0.352	-0.130
-598.055	211.296	0.208	0.330
-597.040	55.646	-0.138	-0.135
-596.025	12.235	-0.295	-0.229
-595.011	800.000	-0.022	0.091
-593.996	101.921	-0.167	0.197
-592.982	-200.000	0.026	-0.129
-591.967	-125.469	-0.255	-0.039
-590.952	-158.708	0.254	0.015
-589.938	-34.760	-0.090	-0.049
-588.923	392.690	-0.120	-0.251
-587.909	213.855	0.121	0.192
-586.894	-15.239	-0.157	0.101
-585.879	187.165	0.195	0.293
-584.865	589.479	0.083	-0.207
-583.850	57.083	-0.069	0.068
-582.836	-37.546	-0.207	-0.111
-581.821	-85.949	0.277	-0.086
-580.806	486.093	0.037	0.084
-579.792	7.142	-0.175	-0.132
-578.777	297.673	-0.117	-0.216
-577.763	800.000	-0.055	0.198
-576.748	630.019	-0.153	-0.389
-575.733	-61.782	0.265	-0.112
-574.719	-197.497	0.051	-0.000
-573.704	478.024	0.050	0.113
-572.690	-70.559	0.195	0.074
-571.675	-200.000	-0.011	-0.181
-570.661	21.523	-0.236	-0.194
-569.646	-110.024	0.365	0.077
-568.631	-200.000	0.009	-0.275
-567.617	8.983	-0.290	-0.220
-566.602	-184.127	0.232	-0.004
-565.588	800.000	0.061	0.233
-564.573	345.751	0.204	-0.405
-563.558	704.488	-0.035	-0.093
-562.544	79.789	0.098	-0.106
-561.529	-88.868	-0.179	0.053
-560.515	-125.293	0.126	0.019
-559.500	84.221	0.241	-0.265
-558.485	-180.692	0.121	0.002
-557.471	-9.814	0.117	0.078
-556.456	-93.657	0.015	-0.004
-555.442	800.000	0.007	0.024
-554.427	4.092	-0.262	0.193
-553.412	-31.973	-0.213	0.120
-552.398	800.000	-0.097	-0.339
-551.383	800.000	-0.040	0.122
-550.369	800.000	-0.065	0.261
-549.354	25.315	0.239	-0.200
-548.339	-71.044	-0.147	-0.056
-547.325	-200.000	-0.053	-0.325
-546.310	11.104	0.326	0.251
-545.296	-76.605	0.088	-0.031
-544.281	-200.000	0.039	0.186
-543.266	0.559	-0.315	0.227
-542.252	-49.686	0.131	0.062
-541.237	39.552	0.178	-0.161
-540.223	230.247	0.044	-0.073
-539.208	-56.950	-0.335	0.149
-538.193	-200.000	0.023	0.197
-537.179	800.000	-0.092	-0.263
-536.164	-170.962	-0.109	-0.004
-535.150	1.654	0.159	-0.115
-534.135	99.710	-0.084	0.098
-533.121	127.050	0.254	-0.324
-532.106	2.020	-0.116	0.084
-531.091	31.023	-0.154	0.133
-530.077	62.493	-0.192	0.193
-529.062	50.048	0.070	-0.066
-528.048	-200.000	-0.032	-0.279
-527.033	26.943	-0.179	-0.151
-526.018	-36.043	0.040	0.022
-525.004	-200.000	0.050	0.247
-523.989	-14.125	-0.275	-0.178
-522.975	-200.000	-0.052	-0.372
-521.960	157.956	0.193	0.268
-520.945	0.710	-0.271	-0.195
-519.931	-27.816	-0.336	-0.196
-518.916	197.122	-0.145	-0.223
-517.902	-114.086	-0.200	0.039
-516.887	-200.000	-0.003	0.214
-515.872	800.000	-0.039	0.134
-514.858	500.637	0.068	0.157
-513.843	92.122	0.111	-0.126
-512.829	-200.000	-0.005	-0.146
-511.814	-200.000	-0.019	-0.127
-510.799	62.901	0.102	-0.103
-509.785	162.643	-0.080	0.113
-508.770	-200.000	0.008	0.057
-507.756	-91.313	-0.030	0.009
-506.741	800.000	-0.050	0.199
-505.726	800.000	0.020	0.079
-504.712	135.397	-0.135	-0.176
-503.697	296.338	-0.176	-0.324
-502.683	-200.000	-0.068	-0.520
-501.668	-101.254	-0.212	-0.052
-500.653	-129.650	0.345	-0.048
-499.639	-200.000	-0.068	0.335
-498.624	-2.661	-0.211	-0.149
-497.610	-200.000	0.026	0.213
-496.595	121.107	0.118	0.148
-495.581	80.617	-0.122	-0.132
-494.566	367.474	-0.060	0.122
-493.551	-96.076	-0.091	0.024
-492.537	36.436	-0.196	0.174
-491.522	-101.801	0.079	-0.019
-490.508	190.754	-0.118	-0.178
-489.493	-200.000	0.019	0.120
-488.478	519.650	0.124	0.291
-487.464	-200.000	-0.063	-0.287
-486.449	196.945	-0.114	-0.175
-485.435	-75.967	0.186	-0.066
-484.420	113.999	0.052	-0.063
-483.405	-200.000	0.034	0.186
-482.391	68.858	-0.116	-0.119
-481.376	537.893	0.031	-0.075
-480.362	-2.936	-0.222	-0.156
-479.347	-90.582	0.079	0.023
-478.332	-122.788	0.296	0.048
-477.318	-113.430	-0.271	0.053
-476.303	800.000	-0.060	-0.240
-475.289	-30.436	0.200	0.114
-474.274	57.766	-0.250	0.246
-473.259	122.179	0.148	-0.186
-472.245	-81.116	0.101	0.034
-471.230	-58.648	0.099	0.043
-470.216	170.724	0.008	0.011
-469.201	74.907	0.117	-0.124
-468.186	-55.851	0.225	0.101
-467.172	800.000	-0.078	0.218
-466.157	-65.557	0.231	-0.093
-465.143	-200.000	0.014	0.208
-464.128	7.436	-0.314	0.235
-463.113	101.967	0.194	0.227
-462.099	113.473	-0.118	-0.144
-461.084	66.671	0.083	0.085
-460.070	800.000	0.096	0.386
-459.055	-48.708	0.125	-0.060
-458.040	-18.918	0.287	-0.179
-457.026	57.924	0.090	-0.089
-456.011	146.202	0.049	0.066
-454.997	49.941	0.177	0.167
-453.982	-109.720	0.146	0.031
-452.968	-138.787	-0.230	-0.025
-451.953	434.414	0.100	0.218
-450.938	134.492	0.053	0.068
-449.924	4.842	0.186	0.137
-448.909	-95.403	-0.268	-0.072
-447.895	135.219	-0.122	0.159
-446.880	-200.000	0.065	-0.308
-445.865	-32.428	0.057	-0.032
-444.851	205.691	0.141	0.220
-443.836	98.124	0.101	0.117
-442.822	192.530	-0.138	-0.209
-441.807	69.313	-0.119	0.123
-440.792	-200.000	0.004	-0.182
-439.778	-200.000	-0.013	0.200
-438.763	-120.919	0.450	0.076
-437.749	134.946	-0.090	-0.117
-436.734	-121.566	-0.172	0.029
-435.719	-193.515	0.301	-0.003
-434.705	14.474	-0.195	-0.153
-433.690	-11.283	0.182	0.120
-432.676	319.776	0.119	-0.227
-431.661	73.145	-0.181	-0.190
-430.646	112.851	0.051	-0.062
-429.632	-118.155	-0.189	-0.034
-428.617	51.058	-0.248	-0.235
-427.603	-123.287	-0.261	-0.042
-426.588	-126.102	0.183	-0.027
-425.573	-118.915	-0.114	0.020
-424.559	416.626	0.115	-0.246
-423.544	198.688	-0.113	0.173
-422.530	-59.455	-0.366	0.157
-421.515	83.003	-0.065	-0.071
-420.500	82.109	-0.169	-0.184
-419.486	517.883	0.085	-0.199
-418.471	174.306	-0.092	0.134
-417.457	-93.943	-0.251	-0.069
-416.442	-200.000	0.055	0.361
-415.428	-64.421	0.068	0.028
-414.413	-200.000	-0.017	-0.374
-413.398	42.609	-0.067	-0.061
-412.384	-85.863	-0.319	-0.099
-411.369	800.000	0.032	0.094
-410.355	-10.885	0.130	0.086
-409.340	-60.370	0.203	-0.086
-408.325	75.854	0.057	0.061
-407.311	65.714	0.326	0.331
-406.296	176.031	0.056	-0.082
-405.282	-200.000	0.043	-0.242
-404.267	-0.770	-0.059	-0.042
-403.252	800.000	0.057	0.185
-402.238	-115.538	-0.244	-0.046
-401.223	402.057	0.073	0.153
-400.209	159.446	0.098	0.137
-399.194	117.870	0.041	0.051
-398.179	463.994	-0.082	-0.184
-397.165	312.947	0.162	0.304
-396.150	68.282	0.021	0.021
-395.136	-181.834	-0.462	-0.009
-394.121	800.000	0.078	-0.255
-393.106	-64.805	-0.171	-0.069
-392.092	-160.837	0.275	0.015
-391.077	138.946	0.102	0.135
-390.063	406.813	-0.089	-0.189
-389.048	800.000	0.025	0.074
-388.033	23.616	0.184	0.151
-387.019	447.400	0.000	-0.001
-386.004	93.978	0.197	0.224
-384.990	-150.933	-0.374	0.028
-383.975	-200.000	0.020	-0.314
-382.960	-200.000	-0.044	0.237
-381.946	-166.855	-0.286	-0.012
-380.931	-149.932	-0.159	-0.012
-379.917	84.378	0.046	-0.050
-378.902	-162.062	0.120	-0.006
-377.888	-65.319	-0.249	0.100
-376.873	393.929	0.075	-0.157
-375.858	800.000	0.063	-0.204
-374.844	141.126	0.074	0.097
-373.829	-200.000	0.003	0.303
-372.815	18.145	-0.084	0.067
-371.800	-65.059	0.303	0.122
-370.785	348.266	-0.119	-0.234
-369.771	-200.000	0.021	-0.188
-368.756	-57.343	0.314	-0.138
-367.742	92.062	-0.145	0.163
-366.727	18.031	-0.338	0.269
-365.712	-37.659	0.459	-0.244
-364.698	-78.765	-0.110	0.038
-363.683	-200.000	-0.037	0.461
-362.669	-62.821	0.211	0.087
-361.654	56.755	0.172	0.167
-360.639	-40.304	-0.606	-0.315
-359.625	103.835	0.016	-0.019
-358.610	-197.680	0.133	0.001
-357.596	800.000	0.063	0.182
-356.581	-144.264	0.289	0.027
-355.566	59.353	-0.082	0.081
-354.552	419.399	0.026	0.056
-353.537	-200.000	-0.007	0.154
-352.523	-80.029	0.416	-0.139
-351.508	-108.201	-0.370	-0.080
-350.493	-45.681	0.092	0.046
-349.479	437.011	0.021	-0.045
-348.464	-200.000	-0.026	-0.288
-347.450	425.811	0.085	0.182
-346.435	-200.000	-0.004	-0.066
-345.420	-102.870	-0.541	0.128
-344.406	-14.009	0.254	0.163
-343.391	800.000	-0.145	0.505
-342.377	-95.929	0.212	0.056
-341.362	-200.000	0.004	-0.066
-340.348	257.974	-0.124	-0.213
-339.333	-3.741	0.129	-0.090
-338.318	358.223	0.076	-0.151
-337.304	-13.882	-0.055	0.035
-336.289	-69.960	0.102	-0.039
-335.275	195.581	0.166	0.252
-334.260	-165.036	-0.135	0.006
-333.245	101.155	0.016	-0.019
-332.231	-164.118	0.471	0.022
-331.216	-152.066	-0.190	0.014
-330.202	-11.881	0.099	-0.065
-329.187	-200.000	0.077	0.377
-328.172	701.595	0.118	-0.310
-327.158	294.266	0.111	-0.203
-326.143	-97.855	0.322	-0.083
-325.129	-4.820	0.466	-0.321
-324.114	-79.148	-0.296	0.100
-323.099	172.638	-0.192	0.276
-322.085	48.640	-0.169	0.158
-321.070	101.882	0.133	0.154
-320.056	133.044	0.083	-0.107
-319.041	-106.028	0.308	-0.069
-318.026	-22.658	-0.052	0.031
-317.012	-40.915	-0.083	-0.043
-315.997	-200.000	-0.036	-0.255
-314.983	71.219	0.302	-0.312
-313.968	-70.310	-0.141	0.054
-312.953	176.786	-0.156	-0.227
-311.939	-138.321	0.126	0.014
-310.924	-149.215	-0.129	-0.010
-309.910	800.000	-0.107	0.295
-308.895	176.895	0.041	0.059
-307.880	-117.223	0.290	-0.052
-306.866	-11.644	0.111	-0.073
-305.851	-5.853	0.196	-0.134
-304.837	-95.097	0.041	0.011
-303.822	-44.470	0.028	-0.014
-302.807	-200.000	0.067	0.500
-301.793	786.022	-0.052	0.142
-300.778	-42.592	-0.215	0.109
-299.764	125.749	-0.162	0.204
-298.749	800.000	0.002	-0.009
-297.735	123.266	0.159	-0.198
-296.720	-200.000	-0.007	0.047
-295.705	800.000	-0.083	0.324
-294.691	260.786	-0.126	0.216
-293.676	800.000	0.029	0.114
-292.662	-82.668	-0.260	-0.084
-291.647	33.546	-0.085	-0.074
-290.632	-200.000	0.015	-0.105
-289.618	-98.867	0.225	-0.057
-288.603	290.064	0.073	-0.133
-287.589	-200.000	-0.076	-0.356
-286.574	54.221	-0.286	-0.274
-285.559	-200.000	-0.152	0.000
-284.545	-48.388	0.338	0.162
-283.530	-200.000	-0.032	-0.223
-282.516	-158.100	-0.198	0.012
-281.501	-172.373	-0.115	0.004
-280.486	233.031	-0.211	0.345
-279.472	207.495	0.118	0.184
-278.457	-62.971	0.434	-0.179
-277.443	-171.156	0.320	-0.011
-276.428	-200.000	0.010	-0.163
-275.413	-200.000	-0.006	-0.112
-274.399	38.623	-0.246	0.218
-273.384	-200.000	0.000	0.130
-272.370	85.530	0.341	0.373
-271.355	-141.171	-0.208	0.021
-270.340	-22.087	-0.046	-0.028
-269.326	-104.225	-0.147	-0.034
-268.311	-200.000	0.102	-0.000
-267.297	-200.000	0.009	0.040
-266.282	-62.250	-0.282	-0.117
-265.267	735.999	-0.111	0.296
-264.253	-30.939	0.049	0.028
-263.238	800.000	0.147	-0.410
-262.224	204.819	-0.107	0.165
-261.209	-125.063	-0.392	0.060
-260.195	32.878	0.121	0.104
-259.180	328.988	0.064	0.122
-258.165	15.312	-0.234	-0.182
-257.151	-74.775	0.294	-0.105
-256.136	800.000	-0.102	0.290
-255.122	231.580	-0.142	-0.231
-254.107	800.000	0.062	0.198
-253.092	757.675	0.047	-0.125
-252.078	-85.800	-0.179	0.055
-251.063	-32.747	-0.180	-0.100
-250.049	-131.529	-0.303	0.040
-249.034	-200.000	-0.032	0.193
-248.019	3.893	-0.219	-0.159
-247.005	137.120	-0.020	0.026
-245.990	-53.424	0.103	0.047
-244.976	-87.017	-0.320	0.097
-243.961	-105.432	0.295	0.067
-242.946	-200.000	-0.032	0.210
-241.932	10.106	-0.138	-0.105
-240.917	376.383	0.088	-0.178
-239.903	33.924	0.108	0.093
-238.888	90.969	0.210	0.234
-237.873	-50.811	-0.143	-0.067
-236.859	78.080	0.137	-0.145
-235.844	-35.597	0.068	-0.037
-234.830	71.092	0.184	0.190
-233.815	-200.000	-0.008	-0.146
-232.800	-86.972	0.160	0.049
-231.786	108.321	0.162	0.192
-230.771	-86.171	0.161	-0.049
-229.757	-200.000	0.003	0.229
-228.742	-200.000	-0.025	-0.300
-227.727	800.000	-0.023	-0.099
-226.713	-81.971	0.141	0.046
-225.698	-151.048	0.176	0.013
-224.684	216.508	-0.175	0.277
-223.669	-63.965	-0.070	-0.028
-222.655	-39.218	0.167	-0.087
-221.640	56.629	-0.227	-0.219
-220.625	-200.000	0.017	-0.276
-219.611	142.227	-0.209	-0.275
-218.596	61.747	-0.070	0.069
-217.582	-105.635	0.317	-0.071
-216.567	41.900	-0.087	0.078
-215.552	-123.054	0.124	0.020
-214.538	-30.489	0.066	0.037
-213.523	-57.649	-0.149	0.065
-212.509	2.670	0.091	-0.066
-211.494	-98.093	0.166	-0.042
-210.479	-52.810	-0.075	0.034
-209.465	108.258	0.192	0.227
-208.450	-200.000	-0.011	0.174
-207.436	-14.024	-0.071	0.046
-206.421	113.681	0.175	0.212
-205.406	-200.000	0.026	0.224
-204.392	-150.025	0.122	-0.009
-203.377	213.138	-0.107	-0.168
-202.363	10.163	0.199	0.150
-201.348	309.520	-0.053	0.099
-200.333	-119.518	0.303	-0.052
-199.319	800.000	-0.111	0.412
-198.304	-200.000	-0.033	-0.317
-197.290	-45.990	-0.406	-0.199
-196.275	800.000	-0.091	0.330
-195.260	-80.515	0.181	-0.060
-194.246	-200.000	-0.010	-0.310
-193.231	800.000	0.085	0.309
-192.217	-81.403	0.334	0.109
-191.202	-173.588	-0.189	0.006
-190.187	800.000	-0.041	0.170
-189.173	45.483	0.128	-0.117
-188.158	-109.485	0.150	-0.032
-187.144	-148.826	0.224	-0.018
-186.129	162.134	0.126	-0.175
-185.114	-67.729	-0.250	-0.097
-184.100	-200.000	0.017	-0.345
-183.085	-200.000	-0.002	0.203
-182.071	-79.313	-0.144	0.048
-181.056	-79.458	0.289	-0.097
-180.042	800.000	-0.057	-0.216
-179.027	800.000	-0.073	0.216
-178.012	800.000	-0.118	0.495
-176.998	113.866	-0.152	-0.183
-175.983	-94.277	-0.216	0.059
-174.969	-154.642	0.389	-0.026
-173.954	-200.000	-0.018	0.223
-172.939	206.932	0.138	-0.213
-171.925	-200.000	-0.026	0.136
-170.910	800.000	0.117	-0.334
-169.896	-102.103	0.071	-0.017
-168.881	-200.000	0.043	0.273
-167.866	-200.000	0.017	0.154
-166.852	-48.911	-0.126	0.060
-165.837	-151.134	0.187	-0.014
-164.823	-14.844	0.236	0.150
-163.808	-5.263	0.229	-0.156
-162.793	-78.778	-0.070	0.024
-161.779	305.045	0.032	-0.059
-160.764	-151.313	0.488	-0.036
-159.750	-117.079	0.096	0.017
-158.735	-133.127	-0.035	0.004
-157.720	-200.000	0.004	-0.051
-156.706	-110.977	-0.252	-0.051
-155.691	-103.215	-0.079	0.018
-154.677	-200.000	-0.022	0.197
-153.662	320.009	-0.112	-0.210
-152.647	38.556	0.123	0.109
-151.633	89.493	0.155	0.172
-150.618	517.006	-0.067	-0.156
-149.604	-58.211	0.307	-0.133
-148.589	-200.000	-0.009	-0.157
-147.574	-2.360	-0.340	0.236
-146.560	-92.875	-0.062	-0.017
-145.545	-111.557	0.024	-0.005
-144.531	-14.427	-0.157	0.100
-143.516	-36.215	-0.143	-0.076
-142.502	-34.803	0.229	0.124
-141.487	800.000	-0.113	0.346
-140.472	-59.423	-0.401	-0.171
-139.458	-200.000	-0.006	-0.314
-138.443	-66.083	-0.153	0.060
-137.429	62.364	-0.187	0.185
-136.414	-200.000	0.070	0.393
-135.399	-91.797	0.073	-0.021
-134.385	23.854	-0.118	-0.096
-133.370	88.783	-0.159	0.176
-132.356	211.408	-0.039	0.061
-131.341	130.101	-0.244	-0.309
-130.326	800.000	-0.093	-0.289
-129.312	422.960	-0.140	-0.298
-128.297	-200.000	-0.001	0.150
-127.283	-38.816	0.056	-0.029
-126.268	-81.568	0.572	0.186
-125.253	125.167	0.196	0.244
-124.239	423.028	0.090	-0.191
-123.224	-200.000	0.011	0.056
-122.210	-200.000	-0.107	0.000
-121.195	29.920	-0.169	-0.142
