DTS Sentinel unit serial number:	SN413079Multiplexer serial number:	ORYXHardware model number:	OX4-SRSoftware version number:	ORYX F/W v4.00 Oryx Data Collector v3.7.2.0data status	okinstallation	princeton_trtdifferential loss correction	single-endedforward channel	channel 1reverse channel	N/Adate	2019/09/18time	09:14:35forward acquisition time	60.00reverse acquisition time	0.00gamma	496.2192k internal	0.2336k external	0.2336temperature offset calibration	0.9969default loss term (dB/km)	0.3790temperature slope calibration	1.0000multiplexer offset coefficient	1.0000multiplexer slope coefficient	1.0000fibre end	0.00T internal ref (°C)	25.67T ext. ref 1 (°C)	0.25T ext. ref 2 (°C)	23.06length (m)	temperature (°C)	Stokes	anti-Stokes-747.200	-200.000	0.047	-0.242
-746.185	-200.000	0.006	-0.183
-745.171	-9.206	0.105	0.070
-744.156	-34.081	0.108	0.059
-743.142	47.050	0.240	-0.224
-742.127	293.328	0.150	0.275
-741.112	800.000	0.057	-0.174
-740.098	-144.676	-0.248	-0.023
-739.083	139.942	0.398	-0.527
-738.069	-39.905	-0.280	0.147
-737.054	82.778	-0.104	0.114
-736.039	-95.769	0.334	0.090
-735.025	-135.619	0.217	-0.026
-734.010	800.000	-0.063	0.236
-732.996	-200.000	0.015	-0.298
-731.981	-200.000	0.011	0.129
-730.966	-110.404	-0.132	0.028
-729.952	92.439	-0.194	0.220
-728.937	-200.000	-0.039	0.236
-727.923	161.665	-0.128	0.180
-726.908	131.951	-0.157	0.202
-725.894	104.129	-0.072	0.085
-724.879	-114.753	-0.248	-0.047
-723.864	800.000	-0.045	-0.165
-722.850	333.446	0.044	-0.085
-721.835	220.690	-0.048	-0.077
-720.821	54.141	0.116	0.112
-719.806	800.000	0.063	-0.239
-718.791	132.796	-0.149	0.193
-717.777	-200.000	0.020	-0.459
-716.762	357.264	-0.229	-0.458
-715.748	-102.806	0.339	-0.081
-714.733	147.675	-0.193	0.261
-713.718	67.306	-0.149	0.153
-712.704	-158.486	0.344	-0.020
-711.689	-174.607	-0.251	-0.007
-710.675	-200.000	0.007	0.096
-709.660	269.123	-0.148	0.260
-708.645	-60.014	0.370	0.158
-707.631	-153.054	0.325	-0.023
-706.616	303.006	-0.173	-0.322
-705.602	-200.000	-0.002	-0.064
-704.587	30.947	-0.302	-0.260
-703.572	800.000	-0.041	-0.134
-702.558	-20.532	-0.336	-0.207
-701.543	800.000	-0.013	-0.042
-700.529	-36.501	0.156	-0.084
-699.514	318.534	0.151	-0.287
-698.499	800.000	0.070	0.208
-697.485	173.013	-0.232	-0.335
-696.470	-99.322	-0.287	-0.073
-695.456	15.472	-0.118	0.093
-694.441	-66.826	0.098	0.039
-693.426	-80.538	0.269	-0.090
-692.412	690.961	0.052	-0.136
-691.397	-18.001	-0.339	0.213
-690.383	52.102	-0.410	-0.392
-689.368	112.810	0.215	-0.261
-688.354	4.943	0.365	-0.269
-687.339	-106.482	-0.221	-0.049
-686.324	-55.484	0.307	-0.138
-685.310	133.330	-0.109	0.141
-684.295	800.000	-0.114	0.384
-683.281	800.000	0.097	-0.362
-682.266	800.000	-0.038	0.122
-681.251	-177.259	0.160	0.004
-680.237	-28.933	0.252	0.145
-679.222	-83.501	-0.279	0.089
-678.208	0.799	0.107	0.077
-677.193	-89.779	-0.242	-0.071
-676.178	397.522	0.072	-0.150
-675.164	-94.006	-0.200	0.055
-674.149	-200.000	0.000	-0.147
-673.135	800.000	-0.036	-0.151
-672.120	168.477	0.186	0.266
-671.105	373.219	0.047	-0.096
-670.091	-49.235	0.133	0.064
-669.076	-70.867	0.173	0.065
-668.062	-138.118	-0.212	0.024
-667.047	2.064	0.245	-0.177
-666.032	17.301	-0.026	0.021
-665.018	-200.000	-0.020	0.182
-664.003	800.000	0.057	-0.230
-662.989	32.129	-0.110	0.095
-661.974	800.000	-0.092	-0.346
-660.959	226.960	0.086	-0.141
-659.945	-30.210	-0.302	0.172
-658.930	10.212	0.279	0.213
-657.916	-119.345	0.267	-0.046
-656.901	406.422	-0.077	0.162
-655.886	351.839	0.047	0.094
-654.872	-29.484	-0.105	-0.060
-653.857	-174.211	0.151	-0.004
-652.843	91.569	-0.106	-0.119
-651.828	-200.000	0.001	-0.156
-650.814	77.373	0.116	-0.124
-649.799	15.018	0.271	-0.212
-648.784	-41.458	-0.264	0.136
-647.770	631.804	-0.080	-0.203
-646.755	800.000	-0.022	0.063
-645.741	-121.115	0.241	-0.040
-644.726	800.000	-0.065	-0.270
-643.711	-33.366	0.174	-0.096
-642.697	-77.067	-0.085	0.030
-641.682	-120.638	0.243	0.041
-640.668	-27.805	-0.139	0.081
-639.653	-81.061	-0.412	0.136
-638.638	-11.693	0.333	0.219
-637.624	-200.000	0.018	0.360
-636.609	-119.384	0.113	-0.020
-635.595	-200.000	-0.043	-0.221
-634.580	-200.000	0.026	0.221
-633.565	358.808	0.049	0.097
-632.551	800.000	-0.026	0.091
-631.536	17.435	-0.097	-0.077
-630.522	-5.688	-0.223	0.152
-629.507	-10.634	0.227	0.150
-628.492	53.907	0.270	0.259
-627.478	-86.110	0.408	0.126
-626.463	371.029	-0.045	0.091
-625.449	-200.000	0.017	-0.315
-624.434	-0.086	0.075	0.054
-623.419	-189.554	-0.109	0.001
-622.405	-200.000	0.022	-0.163
-621.390	-47.122	-0.230	-0.112
-620.376	40.168	0.157	0.141
-619.361	56.820	-0.163	0.158
-618.346	-100.674	-0.445	-0.110
-617.332	-76.431	0.305	0.107
-616.317	49.788	0.208	0.196
-615.303	-200.000	-0.000	0.190
-614.288	-70.112	-0.380	0.144
-613.273	-179.339	0.172	-0.004
-612.259	411.202	-0.039	-0.084
-611.244	73.267	-0.046	0.048
-610.230	-95.399	-0.141	-0.038
-609.215	155.366	0.169	-0.232
-608.201	93.250	0.118	-0.134
-607.186	800.000	0.061	-0.201
-606.171	-200.000	-0.017	-0.084
-605.157	-44.722	-0.185	-0.092
-604.142	24.958	0.149	-0.124
-603.128	-135.160	0.405	0.049
-602.113	269.224	0.088	-0.154
-601.098	-192.454	-0.135	0.001
-600.084	-66.970	0.148	-0.059
-599.069	428.924	0.059	0.128
-598.055	-200.000	-0.006	-0.216
-597.040	-105.761	-0.374	-0.084
-596.025	-73.628	-0.202	-0.074
-595.011	-3.426	0.186	-0.129
-593.996	-20.393	-0.072	-0.044
-592.982	-200.000	-0.033	0.224
-591.967	-200.000	0.005	-0.028
-590.952	629.363	-0.181	0.456
-589.938	66.931	0.176	0.178
-588.923	-42.948	-0.139	-0.070
-587.909	800.000	0.053	-0.213
-586.894	213.371	-0.133	-0.210
-585.879	-103.138	-0.049	-0.011
-584.865	-200.000	-0.012	-0.140
-583.850	-69.773	0.135	0.051
-582.836	-161.910	-0.072	0.004
-581.821	46.874	-0.135	-0.126
-580.806	283.329	0.164	-0.294
-579.792	-200.000	-0.054	-0.255
-578.777	-155.257	0.319	0.021
-577.763	329.463	0.096	-0.185
-576.748	-77.684	0.207	-0.072
-575.733	100.970	0.110	-0.127
-574.719	326.951	0.125	-0.238
-573.704	-200.000	0.011	0.188
-572.690	-34.632	-0.169	-0.092
-571.675	46.544	-0.221	0.205
-570.661	108.837	-0.167	0.200
-569.646	685.238	0.098	0.254
-568.631	178.166	0.053	-0.077
-567.617	-95.141	0.091	0.025
-566.602	-200.000	-0.003	-0.188
-565.588	66.267	-0.075	0.076
-564.573	258.807	0.076	-0.131
-563.558	16.200	0.054	0.043
-562.544	-153.742	-0.153	-0.010
-561.529	-200.000	-0.005	-0.148
-560.515	253.210	0.061	0.104
-559.500	800.000	0.016	-0.062
-558.485	-139.934	-0.301	-0.032
-557.471	-27.987	-0.143	0.083
-556.456	431.201	0.042	0.091
-555.442	141.095	-0.089	0.118
-554.427	-57.024	0.160	-0.070
-553.412	18.334	-0.056	-0.045
-552.398	-193.126	-0.227	-0.002
-551.383	215.557	0.213	-0.337
-550.369	-74.703	0.200	-0.072
-549.354	800.000	0.040	-0.165
-548.339	800.000	-0.088	-0.268
-547.325	800.000	-0.060	0.169
-546.310	-200.000	-0.064	-0.300
-545.296	-74.505	0.183	0.066
-544.281	-42.818	-0.201	0.102
-543.266	-97.675	0.239	0.062
-542.252	191.439	-0.061	0.092
-541.237	-129.882	0.114	0.016
-540.223	-20.288	-0.090	0.055
-539.208	-122.324	-0.194	-0.032
-538.193	-131.600	0.132	0.017
-537.179	-96.770	0.212	-0.056
-536.164	-50.304	-0.073	-0.034
-535.150	189.917	-0.131	-0.197
-534.135	-164.483	-0.430	-0.020
-533.121	-200.000	0.073	0.439
-532.106	282.906	-0.192	0.344
-531.091	-107.807	0.029	0.006
-530.077	-14.793	-0.293	-0.188
-529.062	-126.874	-0.140	-0.021
-528.048	800.000	0.054	0.206
-527.033	800.000	0.027	0.096
-526.018	38.565	0.041	0.037
-525.004	418.553	-0.036	0.077
-523.989	-200.000	-0.023	-0.215
-522.975	1.433	-0.037	-0.026
-521.960	-44.503	-0.244	-0.121
-520.945	96.610	0.220	-0.251
-519.931	-110.740	-0.129	0.027
-518.916	-200.000	-0.007	0.128
-517.902	-9.672	-0.159	-0.105
-516.887	23.690	0.106	0.087
-515.872	-39.637	0.083	-0.043
-514.858	279.924	-0.169	-0.300
-513.843	800.000	0.073	-0.253
-512.829	800.000	-0.048	-0.134
-511.814	-200.000	0.044	0.344
-510.799	-200.000	-0.121	-0.590
-509.785	-200.000	0.026	-0.260
-508.770	118.046	0.221	-0.271
-507.756	497.224	-0.055	0.125
-506.741	-105.560	0.388	-0.088
-505.726	-119.019	-0.099	-0.017
-504.712	213.448	0.092	-0.145
-503.697	800.000	-0.093	0.271
-502.683	-75.682	-0.425	0.150
-501.668	-29.711	0.185	0.105
-500.653	-134.301	-0.265	-0.032
-499.639	3.157	-0.128	0.093
-498.624	137.151	-0.166	0.216
-497.610	176.177	0.164	0.237
-496.595	101.767	0.082	0.096
-495.581	-128.333	-0.278	-0.039
-494.566	-116.215	-0.261	-0.048
-493.551	105.998	-0.307	-0.362
-492.537	-87.004	-0.662	-0.201
-491.522	-46.948	-0.229	0.111
-490.508	-59.683	-0.246	-0.105
-489.493	-86.296	-0.268	0.082
-488.478	110.053	-0.099	0.118
-487.464	-86.164	-0.238	-0.073
-486.449	121.448	-0.167	-0.206
-485.435	713.660	0.181	0.476
-484.420	516.730	0.197	0.459
-483.405	-200.000	-0.009	-0.120
-482.391	-200.000	0.017	0.093
-481.376	-49.472	-0.339	0.161
-480.362	-119.875	0.252	0.043
-479.347	-200.000	-0.005	0.293
-478.332	482.463	0.085	-0.193
-477.318	-35.078	0.351	0.190
-476.303	-119.849	0.117	-0.020
-475.289	244.600	0.183	0.306
-474.274	-44.735	0.117	-0.058
-473.259	387.718	0.085	0.174
-472.245	-155.048	0.316	0.021
-471.230	-15.295	-0.147	-0.093
-470.216	4.878	0.121	0.088
-469.201	-30.151	0.153	-0.086
-468.186	-102.301	-0.226	-0.054
-467.172	-89.826	-0.181	-0.053
-466.157	8.003	0.263	-0.196
-465.143	-200.000	-0.057	-0.268
-464.128	-33.099	0.267	0.147
-463.113	-46.147	-0.311	0.152
-462.099	-200.000	0.003	0.263
-461.084	-67.398	0.053	-0.021
-460.070	-18.408	-0.156	-0.097
-459.055	-200.000	-0.063	0.288
-458.040	-200.000	0.003	-0.090
-457.026	262.305	0.031	0.053
-456.011	800.000	0.042	0.133
-454.997	-200.000	0.012	0.132
-453.982	800.000	-0.062	-0.188
-452.968	-111.193	0.349	0.071
-451.953	-171.985	-0.107	-0.003
-450.938	-200.000	0.020	0.137
-449.924	15.509	0.210	-0.164
-448.909	-72.000	-0.473	0.175
-447.895	-30.593	-0.213	-0.120
-446.880	4.159	-0.392	0.285
-445.865	4.291	0.091	0.066
-444.851	-40.662	-0.221	-0.114
-443.836	-43.147	0.092	0.046
-442.822	-30.781	-0.111	-0.062
-441.807	-100.421	-0.130	0.032
-440.792	395.229	0.094	-0.195
-439.778	455.412	0.124	0.274
-438.763	-200.000	-0.032	-0.154
-437.749	788.020	0.041	0.111
-436.734	563.130	0.056	-0.134
-435.719	187.809	-0.111	0.164
-434.705	-69.867	0.241	-0.091
-433.690	800.000	0.080	-0.306
-432.676	355.995	0.236	0.466
-431.661	119.477	0.157	-0.193
-430.646	-59.186	-0.320	-0.137
-429.632	-157.440	0.309	-0.018
-428.617	800.000	0.083	-0.259
-427.603	-8.779	-0.080	0.053
-426.588	33.337	-0.090	0.077
-425.573	-200.000	-0.029	-0.135
-424.559	-23.255	0.109	0.065
-423.544	-23.950	-0.197	0.117
-422.530	-98.535	-0.176	0.045
-421.515	-171.289	-0.079	0.003
-420.500	-81.765	-0.156	-0.051
-419.486	-200.000	-0.053	-0.281
-418.471	449.035	0.109	-0.238
-417.457	-91.143	0.206	0.059
-416.442	124.725	0.126	-0.158
-415.428	155.735	-0.044	0.061
-414.413	200.126	0.090	-0.137
-413.398	43.351	-0.308	0.279
-412.384	567.331	0.092	0.221
-411.369	800.000	-0.046	-0.149
-410.355	-89.939	-0.240	-0.070
-409.340	-49.735	0.130	-0.061
-408.325	83.843	0.192	-0.208
-407.311	-200.000	-0.028	0.279
-406.296	-141.420	0.462	0.046
-405.282	382.764	0.045	-0.092
-404.267	33.311	-0.174	-0.150
-403.252	-16.893	0.150	0.094
-402.238	-30.805	-0.181	-0.102
-401.223	800.000	-0.005	-0.014
-400.209	-5.414	0.109	0.074
-399.194	48.981	-0.060	-0.055
-398.179	-200.000	-0.014	0.250
-397.165	1.612	-0.282	-0.201
-396.150	-80.274	0.327	-0.108
-395.136	800.000	-0.043	0.124
-394.121	165.640	-0.265	0.372
-393.106	-123.954	0.137	-0.021
-392.092	-0.277	0.107	-0.075
-391.077	58.710	-0.049	-0.048
-390.063	419.951	-0.067	-0.142
-389.048	-57.243	-0.230	-0.100
-388.033	-89.131	0.133	-0.039
-387.019	349.956	0.132	0.257
-386.004	-59.560	0.104	-0.044
-384.990	620.061	-0.062	0.155
-383.975	-38.129	-0.174	0.091
-382.960	-16.388	-0.210	-0.132
-381.946	275.993	0.055	-0.096
-380.931	800.000	-0.004	-0.013
-379.917	91.733	-0.122	-0.135
-378.902	-200.000	0.020	0.125
-377.888	352.714	-0.083	0.163
-376.873	-174.395	0.309	-0.009
-375.858	198.940	-0.057	0.086
-374.844	96.116	0.127	-0.144
-373.829	-52.965	-0.086	-0.039
-372.815	-43.311	-0.227	0.114
-371.800	-200.000	-0.077	-0.365
-370.785	123.318	-0.150	-0.186
-369.771	-6.017	0.139	0.094
-368.756	-200.000	-0.060	-0.303
-367.742	53.031	-0.276	-0.261
-366.727	222.312	-0.125	0.199
-365.712	311.386	-0.122	-0.226
-364.698	82.175	0.137	-0.147
-363.683	-200.000	-0.051	0.293
-362.669	-89.432	0.222	-0.065
-361.654	-137.708	-0.073	-0.008
-360.639	-84.162	0.338	-0.106
-359.625	38.658	0.224	-0.198
-358.610	135.779	0.113	0.146
-357.596	-76.987	0.155	0.054
-356.581	-33.410	-0.223	-0.122
-355.566	-200.000	0.028	-0.271
-354.552	800.000	0.042	-0.179
-353.537	33.095	0.102	-0.088
-352.523	-174.697	-0.208	-0.006
-351.508	-63.854	0.096	0.039
-350.493	-10.892	-0.076	-0.050
-349.479	800.000	0.042	-0.147
-348.464	68.023	0.105	-0.106
-347.450	122.472	0.192	-0.238
-346.435	34.311	-0.148	0.127
-345.420	-200.000	-0.042	-0.295
-344.406	-3.281	-0.378	-0.261
-343.391	800.000	0.051	0.144
-342.377	500.905	0.139	-0.317
-341.362	800.000	-0.040	-0.148
-340.348	-200.000	0.022	0.209
-339.333	-200.000	0.001	0.100
-338.318	292.664	0.070	-0.126
-337.304	-11.892	0.236	-0.153
-336.289	-200.000	0.005	-0.259
-335.275	567.802	-0.101	0.243
-334.260	44.156	-0.292	-0.265
-333.245	48.322	-0.133	-0.123
-332.231	-115.896	0.243	0.045
-331.216	-26.441	0.114	0.066
-330.202	684.181	0.084	-0.217
-329.187	800.000	-0.070	-0.240
-328.172	-91.510	0.357	-0.101
-327.158	-11.800	0.252	0.163
-326.143	-166.168	0.269	0.011
-325.129	-82.821	-0.243	0.078
-324.114	141.522	-0.206	-0.269
-323.099	-47.455	0.259	-0.124
-322.085	16.071	0.086	-0.067
-321.070	35.764	-0.080	-0.070
-320.056	-200.000	-0.015	0.233
-319.041	-23.966	0.017	0.010
-318.026	347.167	-0.165	-0.320
-317.012	53.890	0.207	-0.197
-315.997	-72.777	-0.234	-0.085
-314.983	135.983	0.144	0.186
-313.968	-200.000	-0.047	-0.253
-312.953	-200.000	0.008	-0.034
-311.939	-36.629	-0.277	-0.147
-310.924	-81.321	0.143	0.046
-309.910	312.944	0.119	-0.220
-308.895	137.552	0.055	0.072
-307.880	-58.524	-0.418	-0.179
-306.866	72.508	0.110	0.114
-305.851	620.449	0.072	0.179
-304.837	312.739	0.120	-0.223
-303.822	29.454	0.126	0.106
-302.807	148.836	-0.288	-0.384
-301.793	-145.888	0.258	-0.023
-300.778	-200.000	-0.042	0.299
-299.764	-94.866	-0.019	-0.005
-298.749	193.267	0.096	0.144
-297.735	-138.439	-0.114	-0.012
-296.720	800.000	-0.058	0.202
-295.705	-89.607	-0.353	0.102
-294.691	-80.789	0.135	0.044
-293.676	-124.670	0.078	0.012
-292.662	-178.389	-0.229	-0.005
-291.647	800.000	-0.055	-0.169
-290.632	-20.268	0.249	-0.151
-289.618	-30.088	0.242	-0.136
-288.603	41.365	-0.075	0.067
-287.589	34.467	-0.241	0.207
-286.574	-200.000	0.016	-0.337
-285.559	-102.676	0.262	0.062
-284.545	-85.985	0.149	0.045
-283.530	-34.578	-0.134	-0.073
-282.516	-200.000	-0.028	-0.171
-281.501	-200.000	-0.025	0.119
-280.486	-61.931	0.328	-0.135
-279.472	11.780	0.183	0.139
-278.457	-92.190	-0.101	0.028
-277.443	154.269	-0.041	0.055
-276.428	-51.109	0.035	-0.016
-275.413	-82.374	0.113	-0.036
-274.399	477.767	-0.045	-0.100
-273.384	-23.159	-0.186	0.110
-272.370	662.579	0.104	0.265
-271.355	800.000	0.085	0.355
-270.340	-129.628	0.119	-0.016
-269.326	-13.130	-0.240	-0.154
-268.311	172.968	-0.208	0.296
-267.297	194.301	-0.142	-0.213
-266.282	-200.000	0.019	-0.201
-265.267	-200.000	-0.009	0.144
-264.253	58.300	0.146	-0.141
-263.238	143.510	-0.129	-0.170
-262.224	62.804	-0.064	0.063
-261.209	-70.359	0.199	0.074
-260.195	-58.159	-0.162	0.069
-259.180	-200.000	0.011	0.146
-258.165	-74.567	0.590	0.209
-257.151	-139.275	0.096	-0.010
-256.136	-140.452	0.423	-0.043
-255.122	585.941	0.151	0.365
-254.107	480.186	0.085	-0.189
-253.092	-94.414	-0.116	-0.031
-252.078	-200.000	-0.021	-0.142
-251.063	-200.000	0.493	-0.000
-250.049	422.741	0.202	0.427
-249.034	-200.000	-0.005	-0.350
-248.019	8.944	-0.120	0.089
-247.005	91.479	0.304	-0.336
-245.990	-200.000	-0.406	-0.001
-244.976	280.985	0.053	0.094
-243.961	-200.000	0.030	0.152
-242.946	-200.000	-0.055	-0.306
-241.932	-132.388	0.275	-0.035
-240.917	-108.695	-0.529	0.112
-239.903	-200.000	0.016	-0.168
-238.888	800.000	0.047	-0.163
-237.873	800.000	0.029	0.101
-236.859	-200.000	-0.017	0.320
-235.844	189.644	-0.125	0.185
-234.830	800.000	0.153	0.490
-233.815	800.000	0.016	0.048
-232.800	152.919	0.213	0.287
-231.786	-200.000	-0.008	0.062
-230.771	-182.502	-0.343	0.006
-229.757	-200.000	0.064	0.392
-228.742	137.218	-0.176	-0.226
-227.727	-83.109	-0.308	-0.098
-226.713	-34.214	0.109	-0.059
-225.698	-133.172	0.163	-0.020
-224.684	-200.000	-0.023	0.337
-223.669	-200.000	-0.027	-0.296
-222.655	585.721	0.063	0.152
-221.640	85.836	0.296	0.320
-220.625	-98.072	-0.261	0.066
-219.611	800.000	0.042	-0.177
-218.596	-200.000	0.075	0.362
-217.582	-200.000	0.044	-0.254
-216.567	325.738	0.082	0.155
-215.552	-125.312	-0.171	0.026
-214.538	-143.567	0.243	-0.023
-213.523	172.252	-0.116	0.165
-212.509	8.662	0.071	-0.053
-211.494	92.907	-0.106	0.117
-210.479	-200.000	-0.018	0.147
-209.465	79.566	-0.294	-0.310
-208.450	16.781	0.176	0.137
-207.436	-200.000	0.007	-0.046
-206.421	355.424	0.093	0.182
-205.406	-200.000	-0.020	-0.091
-204.392	408.389	-0.071	0.147
-203.377	-200.000	-0.039	0.229
-202.363	175.078	-0.105	-0.149
-201.348	-152.107	0.209	0.015
-200.333	-92.303	0.355	0.098
-199.319	800.000	0.052	0.163
-198.304	351.204	0.151	0.293
-197.290	-200.000	-0.047	0.297
-196.275	175.363	-0.411	0.586
-195.260	-36.868	0.153	-0.081
-194.246	-10.760	-0.250	0.162
-193.231	-200.000	-0.004	-0.107
-192.217	-200.000	0.050	-0.271
-191.202	800.000	-0.129	0.488
-190.187	-200.000	0.032	0.368
-189.173	-67.984	0.008	-0.003
-188.158	-200.000	0.027	-0.201
-187.144	800.000	0.051	0.155
-186.129	-131.914	-0.287	-0.037
-185.114	-61.771	-0.287	-0.118
-184.100	-46.420	0.065	0.032
-183.085	227.350	-0.206	-0.329
-182.071	284.615	0.097	-0.171
-181.056	-110.894	-0.200	0.040
-180.042	537.560	0.059	-0.138
-179.027	159.234	0.151	0.206
-178.012	-152.641	0.156	0.011
-176.998	-200.000	-0.005	0.286
-175.983	-37.876	0.212	-0.111
-174.969	-0.222	-0.081	-0.057
-173.954	-132.535	-0.141	0.018
-172.939	800.000	-0.039	0.135
-171.925	174.366	-0.108	0.153
-170.910	4.938	0.573	0.414
-169.896	173.582	0.261	0.369
-168.881	706.148	-0.070	-0.182
-167.866	800.000	0.069	-0.189
-166.852	799.300	0.104	-0.281
-165.837	-5.140	-0.273	0.184
-164.823	800.000	0.051	-0.216
-163.808	-25.373	0.357	-0.207
-162.793	-120.007	-0.117	0.020
-161.779	800.000	0.081	0.250
-160.764	-79.785	-0.103	-0.034
-159.750	756.418	0.060	0.161
-158.735	-42.165	0.095	0.048
-157.720	-146.572	-0.307	-0.026
-156.706	60.749	-0.144	0.140
-155.691	800.000	-0.062	0.183
-154.677	-34.651	0.274	-0.147
-153.662	152.618	0.092	0.123
-152.647	164.142	0.106	0.147
-151.633	107.132	0.062	-0.072
-150.618	-64.191	-0.240	-0.096
-149.604	-84.636	0.112	0.035
-148.589	-152.236	0.265	-0.019
-147.574	88.329	-0.040	-0.044
-146.560	-200.000	0.032	-0.206
-145.545	-86.222	0.384	0.116
-144.531	-79.218	0.264	0.088
-143.516	-200.000	-0.041	-0.182
-142.502	53.414	0.495	-0.466
-141.487	-64.924	0.317	-0.126
-140.472	4.943	0.338	-0.244
-139.458	-14.325	-0.252	0.159
-138.443	-35.589	0.135	0.072
-137.429	-200.000	0.007	-0.119
-136.414	-37.961	-0.090	-0.047
-135.399	73.753	0.153	0.158
-134.385	301.469	0.039	0.071
-133.370	800.000	-0.008	-0.022
-132.356	-96.699	0.318	-0.082
-131.341	-139.981	0.219	0.023
-130.326	800.000	0.043	0.125
-129.312	506.719	0.119	0.270
-128.297	-78.220	0.233	0.078
-127.283	-171.076	0.378	0.013
-126.268	-98.315	0.294	0.074
-125.253	331.235	0.037	-0.070
-124.239	-20.562	-0.216	0.130
-123.224	-81.110	0.081	-0.026
-122.210	-108.193	-0.346	-0.073
-121.195	-133.514	0.367	0.045
