DTS Sentinel unit serial number:	SN413079Multiplexer serial number:	ORYXHardware model number:	OX4-SRSoftware version number:	ORYX F/W v4.00 Oryx Data Collector v3.7.2.0data status	okinstallation	princeton_trtdifferential loss correction	single-endedforward channel	channel 1reverse channel	N/Adate	2019/09/17time	17:42:35forward acquisition time	60.00reverse acquisition time	0.00gamma	496.2192k internal	0.2291k external	0.2291temperature offset calibration	0.9956default loss term (dB/km)	0.3790temperature slope calibration	1.0000multiplexer offset coefficient	1.0000multiplexer slope coefficient	1.0000fibre end	0.00T internal ref (°C)	43.39T ext. ref 1 (°C)	0.34T ext. ref 2 (°C)	38.72length (m)	temperature (°C)	Stokes	anti-Stokes-747.200	14.874	-0.057	-0.045
-746.185	800.000	0.057	0.165
-745.171	-152.292	0.139	0.010
-744.156	-18.512	0.126	0.081
-743.142	15.345	-0.317	0.254
-742.127	135.183	0.347	0.461
-741.112	7.311	-0.194	0.148
-740.098	-109.288	0.172	-0.037
-739.083	563.005	0.030	-0.075
-738.069	202.847	-0.185	-0.292
-737.054	-166.157	-0.254	0.011
-736.039	-125.861	-0.499	0.077
-735.025	-200.000	0.008	0.096
-734.010	-81.281	0.056	-0.019
-732.996	261.424	-0.213	-0.378
-731.981	-6.500	0.090	0.063
-730.966	636.512	-0.079	0.206
-729.952	72.207	-0.330	-0.352
-728.937	67.142	0.220	-0.229
-727.923	88.907	0.095	-0.109
-726.908	-85.612	0.115	-0.037
-725.894	-200.000	-0.048	-0.253
-724.879	-57.788	-0.104	-0.046
-723.864	-200.000	-0.030	-0.381
-722.850	566.574	0.156	-0.386
-721.835	0.159	0.274	-0.200
-720.821	205.377	0.051	-0.081
-719.806	-93.932	0.188	-0.053
-718.791	800.000	0.086	-0.338
-717.777	-64.175	0.131	-0.054
-716.762	-100.788	0.293	-0.074
-715.748	-200.000	-0.004	-0.084
-714.733	33.204	0.181	0.161
-713.718	216.463	-0.148	0.240
-712.704	149.117	0.077	-0.106
-711.689	-200.000	-0.049	0.393
-710.675	-200.000	0.013	0.216
-709.660	800.000	0.017	-0.049
-708.645	174.668	0.217	-0.320
-707.631	454.686	-0.099	0.224
-706.616	-200.000	0.029	0.422
-705.602	-10.757	0.244	0.165
-704.587	-147.929	0.398	-0.034
-703.572	-38.059	-0.146	-0.079
-702.558	44.952	-0.168	0.159
-701.543	4.343	0.153	-0.114
-700.529	-5.758	-0.154	-0.108
-699.514	-108.695	0.332	-0.073
-698.499	-155.165	-0.421	0.028
-697.485	-25.350	0.145	0.088
-696.470	99.208	0.073	0.086
-695.456	-76.186	-0.414	0.149
-694.441	-114.639	-0.228	-0.045
-693.426	132.525	-0.214	0.282
-692.412	-112.766	0.127	0.026
-691.397	-200.000	-0.000	-0.183
-690.383	1.286	-0.176	-0.129
-689.368	-44.671	-0.210	-0.107
-688.354	800.000	0.084	-0.321
-687.339	-200.000	0.028	0.278
-686.324	-18.246	-0.346	-0.221
-685.310	38.196	0.051	-0.046
-684.295	-95.489	-0.155	-0.043
-683.281	-89.242	-0.189	-0.057
-682.266	-19.873	-0.199	0.126
-681.251	2.942	-0.348	-0.258
-680.237	-200.000	0.051	-0.339
-679.222	171.612	-0.119	0.175
-678.208	-97.437	-0.327	0.087
-677.193	-200.000	-0.022	0.169
-676.178	-200.000	-0.008	0.292
-675.164	-200.000	-0.001	-0.021
-674.149	-200.000	0.023	-0.206
-673.135	-91.298	-0.222	-0.065
-672.120	-36.995	-0.463	0.253
-671.105	-185.039	-0.175	-0.003
-670.091	669.541	0.116	0.307
-669.076	-48.443	0.079	-0.039
-668.062	70.340	0.054	0.057
-667.047	-200.000	-0.044	-0.209
-666.032	-38.752	0.266	-0.143
-665.018	181.862	-0.173	-0.260
-664.003	263.666	0.066	0.117
-662.989	-65.025	0.245	0.101
-661.974	-1.815	0.247	0.178
-660.959	-200.000	0.076	0.406
-659.945	256.320	-0.172	0.302
-658.930	800.000	-0.078	-0.301
-657.916	-52.417	0.076	-0.036
-656.901	-122.061	-0.216	-0.036
-655.886	404.859	0.189	0.405
-654.872	239.684	-0.118	-0.200
-653.857	253.442	0.196	-0.342
-652.843	-90.979	0.201	-0.059
-651.828	245.515	0.059	0.102
-650.814	225.158	0.110	-0.182
-649.799	-200.000	-0.046	-0.264
-648.784	800.000	0.097	0.310
-647.770	-59.001	-0.080	-0.035
-646.755	294.601	0.118	-0.221
-645.741	586.647	-0.207	-0.521
-644.726	39.148	0.201	-0.184
-643.711	-57.937	0.223	0.099
-642.697	-96.722	-0.368	-0.099
-641.682	-59.193	0.140	0.061
-640.668	7.738	0.232	-0.177
-639.653	-49.928	0.080	-0.039
-638.638	261.811	-0.071	0.125
-637.624	-156.473	-0.154	-0.010
-636.609	672.316	0.059	-0.155
-635.595	800.000	0.031	-0.099
-634.580	-45.405	-0.108	0.055
-633.565	-200.000	-0.020	-0.091
-632.551	91.291	-0.248	0.283
-631.536	309.447	0.114	0.217
-630.522	-7.283	0.229	0.158
-629.507	800.000	0.035	-0.148
-628.492	-140.274	-0.223	-0.024
-627.478	36.372	-0.151	0.135
-626.463	-10.511	-0.080	-0.054
-625.449	116.976	-0.083	-0.104
-624.434	60.788	0.058	-0.059
-623.419	-200.000	-0.022	-0.109
-622.405	48.237	-0.023	-0.022
-621.390	-26.336	-0.208	0.124
-620.376	800.000	0.047	0.186
-619.361	-200.000	0.002	-0.072
-618.346	-189.224	0.235	0.003
-617.332	267.804	0.017	-0.030
-616.317	-177.803	0.418	-0.010
-615.303	-200.000	-0.009	0.166
-614.288	-200.000	-0.031	-0.172
-613.273	-14.849	-0.130	0.085
-612.259	-79.806	0.183	-0.063
-611.244	110.966	-0.210	0.257
-610.230	221.165	0.082	0.134
-609.215	-200.000	-0.009	0.257
-608.201	-28.497	-0.186	-0.109
-607.186	104.073	0.144	-0.172
-606.171	89.133	0.158	-0.180
-605.157	244.676	0.035	-0.060
-604.142	312.182	0.107	-0.204
-603.128	800.000	-0.080	0.344
-602.113	-157.594	0.346	-0.021
-601.098	-139.339	0.095	0.010
-600.084	-79.007	0.052	0.018
-599.069	3.483	-0.202	-0.150
-598.055	-28.802	0.217	0.127
-597.040	800.000	-0.092	0.326
-596.025	-128.789	0.272	0.039
-595.011	-116.563	-0.239	0.045
-593.996	63.352	-0.092	-0.094
-592.982	293.258	0.146	-0.271
-591.967	36.582	-0.043	0.038
-590.952	-86.969	0.066	0.021
-589.938	41.036	-0.176	-0.162
-588.923	-105.956	-0.104	-0.024
-587.909	800.000	-0.047	-0.164
-586.894	-131.159	0.091	0.012
-585.879	39.719	0.245	0.223
-584.865	730.020	0.009	-0.024
-583.850	-155.331	-0.279	0.018
-582.836	-51.114	-0.149	-0.071
-581.821	800.000	0.082	0.305
-580.806	22.291	-0.179	0.149
-579.792	-140.177	-0.178	-0.019
-578.777	800.000	0.093	-0.287
-577.763	11.760	0.457	0.357
-576.748	150.489	0.021	-0.028
-575.733	-23.295	-0.015	0.009
-574.719	119.202	0.063	-0.079
-573.704	148.539	0.176	-0.241
-572.690	-160.344	0.152	-0.008
-571.675	-19.645	0.180	-0.113
-570.661	800.000	0.052	0.152
-569.646	299.162	0.045	0.084
-568.631	-33.315	0.089	-0.050
-567.617	283.844	-0.064	0.117
-566.602	646.919	0.131	0.340
-565.588	-28.691	0.062	-0.036
-564.573	342.526	-0.168	-0.335
-563.558	159.727	-0.111	-0.158
-562.544	-200.000	-0.026	-0.163
-561.529	800.000	-0.046	-0.162
-560.515	-105.087	0.084	-0.020
-559.500	-2.383	-0.135	0.096
-558.485	800.000	0.039	0.137
-557.471	800.000	-0.094	-0.270
-556.456	-161.482	0.068	-0.004
-555.442	800.000	0.011	0.048
-554.427	-150.498	0.223	-0.017
-553.412	178.119	-0.119	-0.176
-552.398	-200.000	-0.358	-0.000
-551.383	116.903	-0.130	0.162
-550.369	-93.256	-0.303	0.085
-549.354	550.603	0.036	-0.088
-548.339	-200.000	0.033	-0.200
-547.325	-200.000	0.014	-0.170
-546.310	800.000	0.019	0.068
-545.296	75.895	-0.112	-0.120
-544.281	389.250	0.115	0.242
-543.266	800.000	-0.063	0.277
-542.252	189.806	0.208	0.318
-541.237	45.201	-0.099	-0.092
-540.223	-108.910	0.143	0.031
-539.208	800.000	-0.097	-0.283
-538.193	-200.000	-0.016	-0.138
-537.179	-98.974	-0.225	-0.058
-536.164	800.000	-0.060	-0.205
-535.150	800.000	0.069	-0.218
-534.135	800.000	0.084	-0.306
-533.121	800.000	0.039	0.124
-532.106	132.578	-0.043	0.057
-531.091	-120.052	-0.085	0.015
-530.077	-87.988	-0.393	0.120
-529.062	-143.062	0.093	0.009
-528.048	-200.000	-0.046	-0.379
-527.033	14.750	-0.225	0.178
-526.018	135.984	-0.087	0.115
-525.004	-53.957	0.243	-0.112
-523.989	349.789	0.129	-0.258
-522.975	-84.876	-0.212	-0.068
-521.960	800.000	0.060	-0.260
-520.945	103.728	0.252	0.300
-519.931	-83.258	0.408	0.133
-518.916	10.866	0.102	-0.079
-517.902	-92.788	0.157	0.045
-516.887	255.369	-0.101	0.176
-515.872	-66.558	0.235	0.095
-514.858	642.641	0.050	0.129
-513.843	-112.456	0.399	-0.081
-512.829	-200.000	0.023	0.185
-511.814	99.765	0.109	0.129
-510.799	-200.000	-0.010	0.277
-509.785	-102.041	-0.255	0.062
-508.770	800.000	-0.006	0.019
-507.756	160.336	0.063	-0.089
-506.741	-200.000	-0.029	-0.350
-505.726	-26.275	0.249	0.148
-504.712	-74.382	0.048	0.017
-503.697	800.000	0.057	-0.224
-502.683	87.027	0.072	-0.080
-501.668	-60.123	0.386	0.167
-500.653	-70.706	-0.293	0.112
-499.639	152.486	-0.040	-0.055
-498.624	-200.000	0.017	-0.127
-497.610	-200.000	-0.027	-0.302
-496.595	-28.914	-0.231	0.134
-495.581	35.406	-0.199	0.177
-494.566	-200.000	0.036	0.281
-493.551	476.105	-0.077	-0.176
-492.537	185.963	0.013	-0.020
-491.522	273.420	0.148	-0.265
-490.508	42.612	0.084	0.078
-489.493	800.000	0.022	0.097
-488.478	228.399	-0.081	-0.133
-487.464	82.658	-0.193	-0.212
-486.449	-200.000	0.011	-0.146
-485.435	117.412	-0.110	0.138
-484.420	-178.313	0.175	-0.004
-483.405	-12.592	0.135	0.090
-482.391	-8.446	-0.259	0.176
-481.376	212.914	-0.073	0.117
-480.362	-200.000	-0.025	-0.278
-479.347	138.712	-0.264	-0.351
-478.332	-135.296	-0.140	0.017
-477.318	-19.881	-0.236	0.148
-476.303	135.898	-0.133	-0.176
-475.289	227.752	0.033	-0.055
-474.274	11.367	0.149	-0.116
-473.259	37.452	0.168	0.151
-472.245	28.159	-0.228	0.195
-471.230	-200.000	0.018	-0.089
-470.216	46.817	0.262	-0.247
-469.201	-60.276	-0.141	0.061
-468.186	-79.821	0.292	-0.100
-467.172	26.958	-0.180	-0.153
-466.157	-126.367	-0.134	-0.020
-465.143	47.553	0.147	0.139
-464.128	-98.140	-0.386	-0.101
-463.113	800.000	0.052	0.187
-462.099	-63.368	0.140	0.059
-461.084	-10.843	0.026	-0.018
-460.070	800.000	-0.028	0.115
-459.055	-200.000	0.012	0.136
-458.040	-90.777	0.149	-0.043
-457.026	41.910	-0.192	-0.177
-456.011	-161.110	0.042	-0.002
-454.997	-69.523	-0.242	-0.094
-453.982	183.128	-0.169	-0.252
-452.968	-70.421	0.273	0.105
-451.953	216.474	-0.120	0.194
-450.938	35.792	-0.128	-0.114
-449.924	-167.667	-0.096	-0.004
-448.909	37.516	-0.070	-0.063
-447.895	706.679	0.094	0.250
-446.880	-7.190	-0.192	-0.132
-445.865	-40.497	0.083	0.044
-444.851	150.566	-0.161	-0.222
-443.836	-66.753	0.108	-0.043
-442.822	-112.429	0.069	-0.014
-441.807	-184.933	0.092	-0.001
-440.792	129.537	-0.224	-0.290
-439.778	800.000	0.024	-0.073
-438.763	-106.330	0.169	-0.038
-437.749	196.506	-0.151	-0.233
-436.734	-145.598	0.108	-0.010
-435.719	-50.386	-0.295	-0.141
-434.705	352.830	0.119	0.238
-433.690	-200.000	-0.003	-0.039
-432.676	-200.000	0.042	0.196
-431.661	-163.846	0.176	-0.008
-430.646	-53.090	-0.055	-0.026
-429.632	-39.375	0.149	-0.079
-428.617	800.000	-0.028	-0.101
-427.603	-21.905	-0.273	-0.168
-426.588	-31.091	-0.162	-0.093
-425.573	-47.056	-0.186	-0.092
-424.559	-200.000	-0.028	0.285
-423.544	-200.000	-0.006	-0.065
-422.530	-79.731	0.147	-0.050
-421.515	-152.166	0.448	-0.033
-420.500	-99.062	0.051	0.013
-419.486	43.291	0.164	0.151
-418.471	81.435	-0.103	0.112
-417.457	-200.000	0.082	0.374
-416.442	84.087	0.051	0.057
-415.428	-52.452	-0.206	-0.097
-414.413	-66.981	0.117	-0.047
-413.398	-48.977	-0.349	0.169
-412.384	42.688	0.264	0.243
-411.369	-190.815	0.193	-0.002
-410.355	-36.935	-0.513	-0.278
-409.340	-200.000	0.014	-0.187
-408.325	-61.893	-0.042	0.018
-407.311	51.065	-0.114	-0.110
-406.296	133.393	-0.150	0.195
-405.282	7.142	-0.111	-0.083
-404.267	-200.000	-0.023	-0.386
-403.252	115.072	-0.092	0.114
-402.238	66.191	-0.118	0.121
-401.223	410.694	0.081	0.173
-400.209	34.276	-0.430	-0.378
-399.194	800.000	0.066	0.220
-398.179	-200.000	-0.013	0.225
-397.165	500.427	-0.081	-0.189
-396.150	206.937	0.102	-0.161
-395.136	-56.527	-0.238	0.106
-394.121	-61.319	0.135	0.057
-393.106	68.891	0.136	-0.141
-392.092	-123.671	0.210	0.034
-391.077	20.827	0.166	0.136
-390.063	-135.374	-0.133	-0.016
-389.048	-200.000	0.012	0.060
-388.033	-101.313	0.069	-0.017
-387.019	88.867	-0.116	0.130
-386.004	104.846	0.056	0.067
-384.990	-119.049	-0.535	0.095
-383.975	-94.152	-0.416	0.115
-382.960	-141.962	-0.128	-0.013
-381.946	-4.823	0.361	-0.251
-380.931	-59.647	-0.126	0.055
-379.917	-170.193	0.137	-0.005
-378.902	-2.670	-0.123	-0.087
-377.888	57.725	0.060	-0.060
-376.873	272.027	0.141	0.251
-375.858	-152.734	-0.138	-0.010
-374.844	66.328	0.221	0.226
-373.829	-88.965	-0.123	0.037
-372.815	12.159	0.254	0.197
-371.800	800.000	-0.041	0.132
-370.785	362.320	-0.131	0.264
-369.771	8.705	-0.337	0.256
-368.756	567.169	-0.093	0.227
-367.742	109.877	-0.255	0.309
-366.727	-46.853	0.252	0.124
-365.712	17.077	-0.070	-0.056
-364.698	800.000	0.033	0.126
-363.683	-200.000	-0.018	-0.194
-362.669	107.797	0.192	-0.231
-361.654	800.000	-0.050	-0.219
-360.639	-165.063	0.299	0.013
-359.625	-55.151	0.447	0.203
-358.610	-126.653	-0.171	0.026
-357.596	-2.927	0.045	0.032
-356.581	31.890	-0.212	-0.184
-355.566	-200.000	0.054	-0.489
-354.552	135.271	-0.052	0.068
-353.537	-200.000	0.027	0.250
-352.523	-8.561	0.250	-0.169
-351.508	97.633	-0.036	-0.041
-350.493	-105.113	0.228	0.052
-349.479	-57.939	-0.165	0.073
-348.464	-85.828	0.260	-0.081
-347.450	136.427	0.157	-0.207
-346.435	-54.003	-0.150	0.069
-345.420	436.744	-0.111	0.243
-344.406	800.000	-0.043	-0.157
-343.391	31.444	-0.177	0.153
-342.377	413.998	-0.141	0.303
-341.362	-41.442	0.086	-0.044
-340.348	153.917	-0.101	-0.139
-339.333	-32.855	0.389	-0.218
-338.318	-200.000	-0.015	-0.156
-337.304	530.805	0.058	0.137
-336.289	2.977	-0.226	0.165
-335.275	-200.000	-0.007	0.211
-334.260	-155.624	0.044	0.003
-333.245	267.542	-0.118	-0.208
-332.231	-98.392	-0.543	-0.140
-331.216	791.114	-0.108	-0.299
-330.202	-4.322	0.153	0.107
-329.187	-200.000	-0.008	0.101
-328.172	16.533	-0.181	0.144
-327.158	-200.000	-0.005	0.127
-326.143	244.041	-0.135	0.228
-325.129	-200.000	0.006	-0.196
-324.114	-29.807	-0.030	0.017
-323.099	800.000	0.056	0.159
-322.085	353.619	-0.068	-0.136
-321.070	-133.080	-0.223	-0.029
-320.056	800.000	-0.041	0.148
-319.041	-50.516	0.099	-0.047
-318.026	-86.382	-0.187	0.058
-317.012	113.921	-0.078	0.096
-315.997	-76.421	0.176	-0.062
-314.983	68.539	-0.217	0.224
-313.968	81.724	-0.091	-0.099
-312.953	-200.000	0.003	-0.116
-311.939	-10.535	-0.074	0.049
-310.924	-200.000	0.036	-0.192
-309.910	270.867	0.053	-0.094
-308.895	-200.000	-0.002	0.101
-307.880	157.604	0.025	0.035
-306.866	-37.820	-0.420	-0.225
-305.851	-24.252	-0.209	0.126
-304.837	692.858	0.073	-0.191
-303.822	-49.745	0.161	-0.077
-302.807	324.354	-0.161	-0.309
-301.793	-122.243	0.411	0.068
-300.778	-200.000	0.021	-0.113
-299.764	379.573	-0.079	-0.163
-298.749	-147.837	0.298	-0.025
-297.735	111.965	-0.087	-0.105
-296.720	222.539	-0.115	0.186
-295.705	-58.621	-0.387	-0.169
-294.691	-105.983	-0.253	0.057
-293.676	-169.393	0.145	-0.005
-292.662	154.357	-0.165	-0.227
-291.647	172.807	0.073	0.105
-290.632	-72.478	0.219	-0.081
-289.618	-42.328	0.166	-0.085
-288.603	-68.352	0.184	0.072
-287.589	-45.248	0.089	0.044
-286.574	-20.377	-0.116	0.072
-285.559	44.291	0.246	0.227
-284.545	164.411	-0.186	-0.264
-283.530	5.834	-0.110	-0.082
-282.516	-200.000	-0.021	0.109
-281.501	-56.680	0.150	-0.067
-280.486	391.944	-0.076	0.159
-279.472	180.271	0.080	0.118
-278.457	218.889	-0.034	-0.055
-277.443	204.618	-0.065	0.101
-276.428	41.278	0.161	0.147
-275.413	-17.365	-0.303	-0.192
-274.399	-93.757	0.206	-0.057
-273.384	209.293	0.030	0.047
-272.370	-50.739	0.059	-0.028
-271.355	-64.512	0.130	-0.053
-270.340	-112.327	0.268	0.054
-269.326	-114.984	0.051	0.010
-268.311	451.704	-0.070	0.156
-267.297	16.491	0.076	0.060
-266.282	72.746	-0.104	-0.109
-265.267	-172.166	0.280	-0.009
-264.253	-24.478	0.222	-0.133
-263.238	-78.290	0.303	-0.104
-262.224	40.300	0.192	0.173
-261.209	-6.361	-0.306	0.210
-260.195	-188.344	-0.095	0.001
-259.180	-157.394	0.292	0.018
-258.165	-200.000	0.038	0.432
-257.151	100.881	-0.070	0.082
-256.136	-4.966	0.164	-0.113
-255.122	36.884	0.058	0.052
-254.107	-138.096	-0.197	0.022
-253.092	-109.960	0.364	0.077
-252.078	46.080	-0.135	0.125
-251.063	-148.574	-0.190	-0.016
-250.049	-30.798	0.287	-0.163
-249.034	800.000	-0.106	0.307
-248.019	277.988	0.078	-0.140
-247.005	152.809	-0.148	0.203
-245.990	-67.890	-0.326	0.128
-244.976	340.432	-0.111	-0.218
-243.961	-200.000	0.026	0.251
-242.946	-93.365	-0.390	0.109
-241.932	209.385	0.017	-0.026
-240.917	-11.990	-0.146	0.096
-239.903	258.042	0.062	0.108
-238.888	27.586	-0.194	-0.164
-237.873	-25.803	0.453	-0.268
-236.859	800.000	-0.048	0.196
-235.844	121.144	-0.229	0.286
-234.830	380.577	0.024	0.049
-233.815	-66.265	0.334	0.133
-232.800	25.378	0.064	-0.054
-231.786	-93.431	0.237	-0.066
-230.771	491.297	-0.095	-0.219
-229.757	-118.288	0.356	0.064
-228.742	800.000	-0.059	-0.225
-227.727	-148.595	-0.297	-0.024
-226.713	800.000	-0.027	-0.114
-225.698	-200.000	0.019	-0.097
-224.684	81.891	0.059	0.064
-223.669	516.454	-0.091	-0.214
-222.655	41.645	-0.109	0.099
-221.640	-200.000	0.027	-0.124
-220.625	-200.000	-0.018	0.176
-219.611	170.113	0.063	0.090
-218.596	-200.000	0.027	-0.250
-217.582	-113.302	-0.190	-0.037
-216.567	-200.000	0.004	0.233
-215.552	34.641	0.023	-0.020
-214.538	-107.288	0.288	0.064
-213.523	-200.000	0.023	0.314
-212.509	212.183	0.038	0.061
-211.494	-200.000	0.010	0.081
-210.479	8.389	-0.226	0.171
-209.465	-112.667	-0.126	0.025
-208.450	-163.657	-0.085	0.004
-207.436	-27.329	-0.119	-0.069
-206.421	-200.000	0.038	-0.320
-205.406	-200.000	-0.031	0.180
-204.392	139.814	0.182	0.240
-203.377	-200.000	-0.022	-0.121
-202.363	562.418	0.109	-0.265
-201.348	552.826	-0.181	0.437
-200.333	-104.665	-0.165	0.038
-199.319	37.701	0.340	0.302
-198.304	-91.246	-0.035	-0.010
-197.290	-34.527	-0.142	0.078
-196.275	800.000	-0.063	-0.175
-195.260	800.000	0.046	0.145
-194.246	-115.412	-0.171	-0.032
-193.231	254.057	0.063	0.107
-192.217	-97.286	0.101	0.026
-191.202	149.089	0.064	0.087
-190.187	800.000	0.054	0.179
-189.173	368.790	0.066	0.135
-188.158	78.373	0.096	-0.102
-187.144	-136.353	-0.259	0.030
-186.129	359.945	0.076	-0.153
-185.114	800.000	0.203	0.582
-184.100	-12.593	0.287	0.188
-183.085	304.742	0.176	0.327
-182.071	-200.000	0.026	-0.177
-181.056	276.804	0.097	-0.172
-180.042	24.892	-0.200	0.166
-179.027	32.603	0.238	-0.206
-178.012	60.253	0.249	-0.246
-176.998	-141.525	0.131	0.013
-175.983	-200.000	0.028	-0.145
-174.969	-22.880	0.342	-0.207
-173.954	32.734	-0.102	0.089
-172.939	-27.050	0.106	0.062
-171.925	-200.000	-0.012	-0.058
-170.910	63.936	-0.053	0.053
-169.896	544.076	0.087	-0.209
-168.881	-200.000	0.029	-0.165
-167.866	200.662	-0.209	-0.321
-166.852	-200.000	0.051	-0.269
-165.837	265.506	-0.065	0.113
-164.823	800.000	-0.119	-0.391
-163.808	36.257	0.133	-0.118
-162.793	199.577	-0.136	0.208
-161.779	-200.000	0.041	-0.204
-160.764	91.514	-0.204	0.230
-159.750	-120.995	0.253	-0.042
-158.735	-127.551	0.240	0.035
-157.720	-200.000	0.006	0.106
-156.706	-7.818	0.035	-0.024
-155.691	-47.347	-0.136	0.066
-154.677	540.775	0.074	0.177
-153.662	19.483	0.085	0.068
-152.647	-30.232	-0.231	-0.131
-151.633	28.688	0.092	-0.078
-150.618	-21.104	0.064	-0.039
-149.604	-195.651	0.186	0.001
-148.589	498.321	-0.055	-0.127
-147.574	61.842	0.192	0.191
-146.560	15.174	0.213	-0.167
-145.545	-126.222	0.080	-0.012
-144.531	-200.000	0.007	0.121
-143.516	41.936	0.185	0.168
-142.502	-107.031	-0.116	-0.026
-141.487	147.609	0.062	-0.084
-140.472	4.594	0.065	-0.048
-139.458	413.723	-0.152	-0.324
-138.443	-80.555	0.419	0.139
-137.429	-200.000	0.015	0.105
-136.414	94.990	0.197	-0.224
-135.399	72.761	0.154	-0.161
-134.385	-200.000	-0.043	0.347
-133.370	59.746	0.063	0.063
-132.356	-200.000	-0.034	-0.361
-131.341	55.813	-0.144	0.140
-130.326	619.453	0.116	0.291
-129.312	29.160	0.461	-0.391
-128.297	-200.000	0.021	0.182
-127.283	-72.010	0.281	-0.105
-126.268	48.096	0.367	0.343
-125.253	412.336	0.071	0.150
-124.239	310.071	-0.066	-0.123
-123.224	-25.260	0.024	-0.014
-122.210	-41.957	0.204	-0.105
-121.195	182.137	0.224	0.330
-120.180	-102.457	-0.056	0.013
