DTS Sentinel unit serial number:	SN413079Multiplexer serial number:	ORYXHardware model number:	OX4-SRSoftware version number:	ORYX F/W v4.00 Oryx Data Collector v3.7.2.0data status	okinstallation	princeton_trtdifferential loss correction	single-endedforward channel	channel 1reverse channel	N/Adate	2019/09/11time	13:20:11forward acquisition time	60.00reverse acquisition time	0.00gamma	496.2192k internal	0.2294k external	0.2294temperature offset calibration	0.9984default loss term (dB/km)	0.3790temperature slope calibration	1.0000multiplexer offset coefficient	1.0000multiplexer slope coefficient	1.0000fibre end	0.00T internal ref (°C)	41.94T ext. ref 1 (°C)	0.80T ext. ref 2 (°C)	36.10length (m)	temperature (°C)	Stokes	anti-Stokes-747.200	151.245	-0.051	0.071
-746.185	483.731	0.110	0.257
-745.171	-57.327	-0.182	-0.082
-744.156	-75.186	0.318	0.116
-743.142	107.081	-0.096	0.117
-742.127	579.539	0.146	0.367
-741.112	118.572	0.165	0.208
-740.098	800.000	-0.127	0.403
-739.083	-102.414	0.228	-0.056
-738.069	-167.775	-0.202	-0.008
-737.054	-200.000	-0.004	-0.048
-736.039	800.000	-0.042	0.123
-735.025	-200.000	0.387	0.000
-734.010	-200.000	-0.065	-0.488
-732.996	-114.297	0.234	-0.046
-731.981	-48.833	0.219	-0.108
-730.966	-21.792	-0.173	0.108
-729.952	474.176	0.115	0.264
-728.937	-67.596	0.094	-0.037
-727.923	800.000	-0.061	-0.177
-726.908	-32.987	-0.340	-0.193
-725.894	-147.804	-0.431	0.037
-724.879	-68.103	-0.207	-0.082
-723.864	149.936	-0.087	-0.121
-722.850	67.602	-0.185	-0.193
-721.835	-112.774	0.226	-0.046
-720.821	800.000	-0.032	0.135
-719.806	-179.910	-0.211	0.005
-718.791	-200.000	-0.006	-0.134
-717.777	70.832	-0.117	-0.124
-716.762	-13.204	-0.132	0.087
-715.748	-108.576	0.109	-0.024
-714.733	-30.490	0.150	0.087
-713.718	800.000	-0.036	-0.130
-712.704	182.579	-0.124	-0.187
-711.689	167.152	-0.105	0.152
-710.675	-27.568	0.194	-0.115
-709.660	-6.922	0.051	0.035
-708.645	73.778	0.170	0.182
-707.631	-26.799	0.237	-0.141
-706.616	-104.523	-0.183	-0.043
-705.602	-68.767	0.156	-0.061
-704.587	-125.756	0.241	-0.037
-703.572	166.472	-0.039	0.057
-702.558	-138.509	0.228	0.026
-701.543	-83.940	0.093	-0.030
-700.529	-42.318	0.082	-0.043
-699.514	800.000	0.013	-0.042
-698.499	-76.315	-0.126	-0.045
-697.485	-65.659	-0.196	-0.080
-696.470	-44.083	0.135	0.069
-695.456	-2.887	-0.141	0.101
-694.441	-174.594	0.141	-0.004
-693.426	-200.000	-0.026	-0.127
-692.412	565.974	-0.224	0.555
-691.397	-200.000	0.007	-0.114
-690.383	222.723	-0.123	-0.203
-689.368	800.000	-0.107	-0.305
-688.354	677.338	0.039	0.104
-687.339	273.523	0.088	-0.159
-686.324	331.250	0.050	0.099
-685.310	13.749	0.124	-0.099
-684.295	-177.741	-0.281	-0.007
-683.281	-126.199	0.223	-0.034
-682.266	108.204	0.193	-0.235
-681.251	304.943	-0.098	-0.186
-680.237	357.341	0.072	0.147
-679.222	-200.000	-0.013	-0.109
-678.208	-158.718	-0.189	0.011
-677.193	800.000	-0.101	0.343
-676.178	-200.000	0.016	-0.197
-675.164	353.345	0.035	-0.071
-674.149	0.682	-0.264	0.193
-673.135	174.033	0.113	-0.166
-672.120	20.923	-0.121	0.100
-671.105	158.439	-0.163	0.231
-670.091	-7.635	-0.051	-0.035
-669.076	-93.012	-0.206	0.058
-668.062	27.895	-0.339	0.291
-667.047	134.020	-0.136	0.180
-666.032	800.000	0.039	0.114
-665.018	-191.754	-0.135	0.001
-664.003	-76.481	0.080	-0.029
-662.989	-2.745	0.100	-0.071
-661.974	-200.000	0.004	0.055
-660.959	105.230	-0.011	0.013
-659.945	-33.395	-0.164	0.092
-658.930	258.342	-0.072	-0.126
-657.916	-14.822	-0.100	-0.066
-656.901	-200.000	-0.002	0.031
-655.886	-76.601	-0.260	-0.093
-654.872	-200.000	0.011	-0.183
-653.857	800.000	-0.016	0.070
-652.843	200.872	-0.187	-0.293
-651.828	182.463	0.032	-0.047
-650.814	200.404	0.150	-0.235
-649.799	-84.933	0.217	-0.069
-648.784	-77.355	-0.180	-0.064
-647.770	364.930	-0.145	0.298
-646.755	-38.836	-0.472	-0.254
-645.741	-30.053	-0.254	-0.147
-644.726	-79.522	-0.142	0.049
-643.711	-29.649	0.074	0.043
-642.697	800.000	-0.046	-0.164
-641.682	204.888	-0.018	0.029
-640.668	124.803	0.234	0.299
-639.653	-97.943	0.142	-0.037
-638.638	0.085	0.094	-0.068
-637.624	-200.000	-0.031	0.416
-636.609	116.213	-0.111	0.138
-635.595	800.000	0.065	-0.222
-634.580	12.928	0.134	-0.105
-633.565	800.000	0.052	0.172
-632.551	264.656	0.087	0.154
-631.536	-76.506	0.417	0.149
-630.522	-200.000	-0.029	0.173
-629.507	-16.691	0.313	-0.202
-628.492	443.002	-0.052	0.117
-627.478	-200.000	0.410	-0.001
-626.463	-148.342	0.309	0.026
-625.449	-159.674	-0.395	-0.022
-624.434	-98.527	-0.209	-0.054
-623.419	88.676	-0.050	0.056
-622.405	-200.000	0.016	-0.085
-621.390	-197.886	0.324	0.002
-620.376	-92.949	0.079	0.023
-619.361	-22.211	0.177	0.109
-618.346	800.000	-0.075	0.319
-617.332	573.078	-0.066	0.164
-616.317	603.938	0.077	0.195
-615.303	39.189	-0.170	-0.154
-614.288	-200.000	0.014	-0.138
-613.273	-70.274	-0.486	-0.188
-612.259	134.368	0.058	-0.077
-611.244	231.736	-0.094	-0.157
-610.230	328.416	0.154	-0.302
-609.215	143.101	0.100	-0.135
-608.201	-200.000	-0.004	-0.190
-607.186	800.000	0.064	0.239
-606.171	-30.104	0.172	0.099
-605.157	-200.000	0.052	-0.301
-604.142	-114.683	-0.207	-0.040
-603.128	-49.729	-0.218	0.105
-602.113	22.669	-0.272	0.227
-601.098	149.615	0.117	0.161
-600.084	-200.000	-0.046	-0.236
-599.069	96.469	-0.178	-0.207
-598.055	-10.132	0.048	-0.033
-597.040	-200.000	-0.008	-0.073
-596.025	-118.184	0.087	0.016
-595.011	-20.296	0.191	-0.120
-593.996	125.834	-0.099	0.127
-592.982	-200.000	0.009	-0.235
-591.967	-121.596	0.087	-0.015
-590.952	309.322	-0.183	0.347
-589.938	-95.006	0.160	0.044
-588.923	-158.372	-0.142	0.008
-587.909	-36.969	0.302	-0.164
-586.894	7.878	0.074	-0.056
-585.879	317.149	0.102	0.196
-584.865	-200.000	-0.003	-0.281
-583.850	505.682	-0.102	-0.241
-582.836	-200.000	-0.065	-0.362
-581.821	-200.000	0.049	0.308
-580.806	-64.328	0.380	0.157
-579.792	-144.134	-0.262	-0.025
-578.777	118.360	-0.035	0.044
-577.763	-95.383	-0.068	-0.019
-576.748	392.232	-0.089	0.188
-575.733	55.822	-0.113	-0.111
-574.719	-13.734	0.134	-0.088
-573.704	-200.000	-0.006	0.199
-572.690	-200.000	-0.001	-0.276
-571.675	-79.395	-0.454	0.156
-570.661	-37.846	0.232	0.126
-569.646	148.754	0.055	0.076
-568.631	419.110	0.263	-0.571
-567.617	-40.794	0.391	-0.206
-566.602	-99.452	0.078	-0.020
-565.588	-99.905	0.089	-0.023
-564.573	9.034	0.110	-0.084
-563.558	179.905	-0.176	-0.261
-562.544	-200.000	0.026	-0.252
-561.529	135.177	-0.178	0.235
-560.515	272.839	-0.054	0.098
-559.500	579.799	-0.139	0.345
-558.485	298.026	-0.054	0.101
-557.471	-69.676	-0.302	0.117
-556.456	151.134	-0.165	0.228
-555.442	-200.000	-0.010	0.333
-554.427	-200.000	0.040	-0.191
-553.412	224.724	0.133	-0.218
-552.398	2.024	0.055	-0.040
-551.383	800.000	-0.014	-0.053
-550.369	800.000	-0.035	-0.124
-549.354	-142.081	-0.113	0.011
-548.339	-52.941	0.289	0.135
-547.325	-168.161	0.249	0.010
-546.310	-200.000	-0.028	0.173
-545.296	14.766	0.093	0.074
-544.281	0.545	0.260	-0.189
-543.266	218.818	0.183	-0.296
-542.252	-186.170	-0.424	0.006
-541.237	51.562	0.140	-0.135
-540.223	-200.000	-0.004	-0.122
-539.208	-189.473	-0.350	-0.004
-538.193	16.569	-0.244	0.195
-537.179	-114.507	-0.066	0.013
-536.164	9.102	-0.343	0.262
-535.150	14.267	-0.153	0.121
-534.135	40.127	0.310	-0.282
-533.121	44.838	0.221	0.207
-532.106	266.669	0.022	-0.039
-531.091	-200.000	-0.005	-0.083
-530.077	-200.000	-0.032	0.286
-529.062	798.950	0.058	-0.161
-528.048	17.825	0.128	0.103
-527.033	800.000	-0.111	0.367
-526.018	-79.739	-0.102	-0.035
-525.004	-200.000	0.050	-0.332
-523.989	-107.312	-0.233	0.052
-522.975	151.620	-0.120	-0.166
-521.960	131.046	-0.125	0.163
-520.945	-200.000	-0.014	0.137
-519.931	210.566	-0.220	-0.350
-518.916	-128.846	-0.096	-0.014
-517.902	-22.550	-0.398	-0.244
-516.887	75.232	-0.142	0.152
-515.872	25.542	-0.206	0.174
-514.858	-115.443	-0.285	0.054
-513.843	12.348	0.189	0.147
-512.829	96.127	0.180	-0.209
-511.814	295.582	0.103	0.191
-510.799	-40.224	-0.232	0.122
-509.785	-92.983	0.089	-0.025
-508.770	27.851	-0.220	-0.188
-507.756	800.000	0.020	-0.078
-506.741	202.850	-0.163	-0.256
-505.726	-35.992	-0.047	-0.026
-504.712	-182.049	0.133	0.003
-503.697	96.002	-0.068	0.079
-502.683	-129.171	-0.323	-0.046
-501.668	-168.506	0.267	-0.010
-500.653	-64.668	-0.379	-0.156
-499.639	800.000	-0.110	-0.359
-498.624	19.828	-0.228	-0.186
-497.610	147.681	0.215	0.294
-496.595	71.874	-0.158	0.167
-495.581	52.028	-0.191	-0.185
-494.566	-15.815	0.293	-0.189
-493.551	800.000	0.058	-0.252
-492.537	800.000	-0.055	0.180
-491.522	-106.356	0.211	-0.048
-490.508	6.692	-0.255	0.192
-489.493	473.417	-0.108	-0.246
-488.478	-33.008	0.219	-0.123
-487.464	-50.592	0.096	-0.046
-486.449	-141.624	0.185	0.019
-485.435	151.598	0.153	0.210
-484.420	68.997	0.080	0.083
-483.405	-71.530	0.192	-0.073
-482.391	403.724	-0.064	-0.136
-481.376	261.231	0.053	-0.093
-480.362	-200.000	0.034	0.329
-479.347	54.333	-0.015	-0.014
-478.332	83.796	0.241	0.266
-477.318	800.000	0.063	-0.197
-476.303	-142.955	-0.164	0.016
-475.289	-200.000	-0.016	0.078
-474.274	36.556	-0.228	-0.204
-473.259	-60.470	-0.519	0.223
-472.245	800.000	0.059	0.197
-471.230	334.338	0.050	-0.098
-470.216	18.108	0.057	-0.046
-469.201	532.061	0.053	0.127
-468.186	-72.023	0.252	-0.095
-467.172	-200.000	-0.007	-0.045
-466.157	137.495	0.140	0.186
-465.143	147.105	0.059	-0.081
-464.128	-53.630	0.256	0.118
-463.113	64.649	-0.040	-0.041
-462.099	-200.000	-0.012	0.125
-461.084	-38.700	-0.100	0.053
-460.070	-35.541	-0.090	-0.049
-459.055	90.000	0.121	-0.137
-458.040	96.797	0.082	0.095
-457.026	-86.212	0.241	0.075
-456.011	-200.000	0.005	-0.039
-454.997	215.550	0.208	0.334
-453.982	-68.741	-0.168	-0.066
-452.968	800.000	0.117	-0.332
-451.953	-93.368	-0.252	0.071
-450.938	-44.033	-0.199	-0.101
-449.924	27.053	0.176	-0.149
-448.909	-40.707	-0.150	-0.078
-447.895	-200.000	0.026	0.299
-446.880	87.235	0.425	0.474
-445.865	-52.816	0.153	0.071
-444.851	-97.077	-0.119	0.031
-443.836	-200.000	0.022	-0.398
-442.822	97.359	-0.232	-0.269
-441.807	-83.594	-0.130	0.042
-440.792	651.193	0.019	0.049
-439.778	-200.000	0.008	0.448
-438.763	-200.000	0.003	0.094
-437.749	-67.053	0.218	0.087
-436.734	16.029	0.194	0.154
-435.719	10.155	-0.287	0.221
-434.705	-65.772	0.127	0.051
-433.690	800.000	0.081	0.312
-432.676	-1.017	-0.205	0.147
-431.661	-200.000	-0.027	0.209
-430.646	456.720	0.072	-0.161
-429.632	-200.000	0.012	-0.275
-428.617	-190.427	-0.320	-0.004
-427.603	-144.167	0.167	0.016
-426.588	31.896	0.070	-0.061
-425.573	67.693	0.289	-0.299
-424.559	55.861	-0.107	0.104
-423.544	62.560	-0.040	-0.041
-422.530	-106.373	-0.238	-0.054
-421.515	-158.514	0.425	0.025
-420.500	90.724	0.253	-0.286
-419.486	-200.000	0.041	0.374
-418.471	-200.000	-0.064	0.360
-417.457	31.909	-0.287	-0.250
-416.442	233.140	0.081	-0.135
-415.428	800.000	-0.060	-0.191
-414.413	-42.038	-0.253	-0.131
-413.398	-46.323	0.066	0.033
-412.384	-87.697	-0.354	0.108
-411.369	0.989	0.260	0.188
-410.355	-200.000	0.063	0.350
-409.340	-200.000	0.075	0.398
-408.325	-32.927	-0.165	0.092
-407.311	382.079	-0.194	-0.402
-406.296	-117.018	0.175	0.032
-405.282	256.190	0.127	-0.220
-404.267	158.608	0.129	0.180
-403.252	641.309	0.063	0.162
-402.238	67.591	0.119	0.123
-401.223	554.248	0.052	-0.126
-400.209	26.864	0.149	-0.126
-399.194	-132.844	-0.124	0.016
-398.179	133.686	-0.048	0.062
-397.165	211.400	-0.049	-0.078
-396.150	-114.511	0.103	0.020
-395.136	-200.000	0.020	0.609
-394.121	-200.000	0.019	0.150
-393.106	-69.530	-0.114	-0.044
-392.092	55.090	-0.137	-0.134
-391.077	800.000	-0.118	-0.376
-390.063	-200.000	0.039	0.262
-389.048	254.484	-0.154	0.265
-388.033	283.953	0.084	0.153
-387.019	-144.321	0.163	0.015
-386.004	-124.738	-0.138	-0.021
-384.990	-71.972	-0.159	-0.060
-383.975	-200.000	0.014	0.155
-382.960	-142.737	0.284	-0.028
-381.946	-135.232	-0.243	-0.029
-380.931	496.325	-0.098	0.226
-379.917	-200.000	0.017	-0.089
-378.902	800.000	-0.036	-0.104
-377.888	-28.751	-0.174	0.101
-376.873	38.346	-0.069	0.062
-375.858	-108.581	0.266	-0.058
-374.844	-200.000	-0.021	0.111
-373.829	182.582	-0.156	-0.232
-372.815	620.041	0.100	0.252
-371.800	-161.511	0.325	-0.017
-370.785	-177.682	-0.195	0.005
-369.771	800.000	0.056	0.195
-368.756	195.503	0.034	0.052
-367.742	276.153	-0.088	-0.158
-366.727	-171.895	0.248	-0.008
-365.712	46.963	-0.166	-0.155
-364.698	68.925	-0.067	0.069
-363.683	112.206	0.088	0.107
-362.669	800.000	-0.040	-0.115
-361.654	378.250	0.249	0.513
-360.639	-103.636	0.250	0.059
-359.625	-41.398	-0.187	-0.097
-358.610	-165.525	0.294	0.013
-357.596	91.342	-0.227	-0.257
-356.581	-200.000	-0.007	-0.305
-355.566	800.000	0.058	-0.168
-354.552	258.272	-0.111	-0.193
-353.537	335.935	0.025	-0.050
-352.523	-82.369	0.367	-0.120
-351.508	132.528	-0.102	-0.133
-350.493	21.274	-0.315	-0.258
-349.479	89.721	-0.240	-0.270
-348.464	-64.988	0.533	0.217
-347.450	-183.360	0.217	-0.004
-346.435	5.151	-0.266	-0.197
-345.420	50.007	-0.197	-0.187
-344.406	-45.966	-0.313	-0.156
-343.391	-48.650	-0.182	-0.088
-342.377	0.686	0.134	-0.097
-341.362	293.985	-0.072	0.132
-340.348	800.000	0.099	-0.288
-339.333	-8.805	-0.154	-0.104
-338.318	220.256	0.062	-0.100
-337.304	-168.011	0.063	-0.002
-336.289	-200.000	-0.050	-0.242
-335.275	-200.000	-0.033	-0.304
-334.260	-81.590	-0.241	0.080
-333.245	800.000	0.103	-0.353
-332.231	800.000	-0.079	0.267
-331.216	55.373	-0.106	0.103
-330.202	-90.834	-0.234	-0.068
-329.187	800.000	0.046	-0.156
-328.172	-38.317	-0.360	-0.192
-327.158	-96.551	-0.215	-0.057
-326.143	325.805	-0.016	-0.030
-325.129	-103.383	0.244	0.058
-324.114	-87.701	0.168	0.051
-323.099	-167.402	0.440	-0.018
-322.085	-73.615	0.175	0.064
-321.070	-200.000	-0.021	0.275
-320.056	-74.807	0.405	-0.146
-319.041	-81.121	0.049	-0.016
-318.026	-44.726	-0.129	-0.065
-317.012	-62.749	-0.351	0.146
-315.997	-200.000	-0.016	-0.070
-314.983	-141.643	-0.182	0.018
-313.968	-32.873	0.177	0.099
-312.953	13.554	-0.224	-0.175
-311.939	-104.387	0.248	-0.058
-310.924	8.253	0.208	0.157
-309.910	-28.021	0.324	0.189
-308.895	-134.117	0.182	-0.023
-307.880	116.864	0.327	-0.403
-306.866	-95.117	0.047	-0.013
-305.851	788.222	0.015	0.040
-304.837	128.707	0.025	-0.032
-303.822	-107.385	0.272	-0.060
-302.807	22.535	0.236	-0.194
-301.793	-17.944	-0.168	0.106
-300.778	-200.000	0.048	0.271
-299.764	800.000	-0.032	0.137
-298.749	800.000	0.078	-0.257
-297.735	-148.634	-0.264	-0.022
-296.720	396.073	0.146	0.306
-295.705	151.708	0.128	0.175
-294.691	-61.635	-0.030	-0.013
-293.676	-200.000	-0.430	0.000
-292.662	-200.000	0.014	0.142
-291.647	570.515	0.061	-0.148
-290.632	20.701	-0.171	-0.139
-289.618	-200.000	-0.010	0.159
-288.603	-59.431	0.361	-0.156
-287.589	-200.000	-0.025	-0.112
-286.574	-200.000	-0.001	0.155
-285.559	-200.000	-0.055	-0.383
-284.545	800.000	0.020	-0.080
-283.530	-130.048	-0.332	0.046
-282.516	800.000	-0.027	-0.091
-281.501	-147.420	-0.276	-0.023
-280.486	249.690	-0.077	-0.131
-279.472	151.193	-0.096	-0.131
-278.457	800.000	0.050	0.183
-277.443	-25.123	-0.033	0.020
-276.428	38.541	0.015	0.013
-275.413	143.023	-0.029	-0.038
-274.399	-200.000	0.030	0.157
-273.384	172.325	-0.046	-0.066
-272.370	-33.834	-0.096	0.053
-271.355	-102.801	-0.144	0.034
-270.340	-113.443	0.439	0.086
-269.326	800.000	-0.120	0.380
-268.311	116.464	-0.162	-0.199
-267.297	-47.371	0.190	-0.093
-266.282	621.322	0.140	-0.353
-265.267	27.388	0.220	-0.185
-264.253	-28.160	0.044	0.026
-263.238	181.515	-0.063	0.092
-262.224	19.120	-0.216	-0.174
-261.209	-200.000	-0.009	-0.173
-260.195	225.553	-0.167	-0.272
-259.180	-171.351	-0.300	-0.010
-258.165	-60.345	0.225	0.096
-257.151	800.000	-0.061	0.264
-256.136	-75.071	0.085	0.031
-255.122	42.850	-0.232	0.212
-254.107	-161.955	0.139	0.007
-253.092	25.427	-0.087	0.073
-252.078	-90.099	0.157	-0.046
-251.063	-200.000	-0.072	-0.325
-250.049	8.266	-0.317	-0.239
-249.034	-200.000	-0.026	0.126
-248.019	-34.992	0.353	-0.193
-247.005	-74.255	0.234	-0.085
-245.990	7.194	0.285	0.213
-244.976	-61.636	0.255	-0.107
-243.961	96.053	-0.215	0.246
-242.946	800.000	0.055	-0.212
-241.932	-200.000	0.005	0.034
-240.917	800.000	-0.041	0.140
-239.903	322.558	-0.095	-0.182
-238.888	800.000	0.051	-0.142
-237.873	109.850	-0.220	-0.264
-236.859	-146.595	-0.209	-0.018
-235.844	-56.903	-0.133	-0.059
-234.830	232.550	-0.091	-0.150
-233.815	0.500	-0.288	-0.206
-232.800	-200.000	0.011	-0.105
-231.786	217.994	-0.064	0.102
-230.771	800.000	-0.016	-0.047
-229.757	-200.000	-0.078	0.563
-228.742	234.944	0.158	0.261
-227.727	-200.000	-0.095	0.429
-226.713	-58.051	0.173	-0.076
-225.698	-94.343	-0.247	0.068
-224.684	-31.817	-0.077	-0.043
-223.669	414.877	0.086	0.183
-222.655	800.000	0.068	0.192
-221.640	-12.943	-0.224	0.146
-220.625	-28.403	-0.075	0.043
-219.611	-152.809	-0.344	-0.024
-218.596	-200.000	-0.004	0.084
-217.582	120.360	0.067	-0.083
-216.567	12.612	0.205	0.158
-215.552	700.986	-0.057	0.149
-214.538	-200.000	-0.026	-0.117
-213.523	-200.000	-0.005	-0.023
-212.509	-77.511	0.137	0.048
-211.494	-8.328	-0.220	0.148
-210.479	5.290	0.257	0.190
-209.465	207.376	-0.192	0.299
-208.450	-23.180	0.030	0.018
-207.436	-12.497	0.125	0.082
-206.421	287.476	-0.189	0.343
-205.406	4.633	-0.073	0.054
-204.392	-200.000	-0.061	0.317
-203.377	-120.718	0.100	0.017
-202.363	-51.000	0.172	-0.081
-201.348	-175.480	0.265	-0.007
-200.333	800.000	0.093	0.287
-199.319	-200.000	0.016	0.230
-198.304	-33.544	0.199	-0.110
-197.290	-200.000	-0.036	0.209
-196.275	-38.418	0.172	0.091
-195.260	420.903	-0.102	-0.219
-194.246	-200.000	-0.022	-0.095
-193.231	-87.540	0.154	-0.047
-192.217	179.619	-0.063	-0.093
-191.202	39.379	-0.195	-0.175
-190.187	-88.990	-0.156	0.046
-189.173	-200.000	-0.423	0.002
-188.158	-157.583	-0.283	0.017
-187.144	-55.979	0.176	-0.078
-186.129	192.787	0.085	-0.129
-185.114	9.348	0.078	-0.059
-184.100	-89.591	0.633	-0.186
-183.085	-35.127	0.317	-0.173
-182.071	44.055	0.279	-0.256
-181.056	-114.599	0.100	0.019
-180.042	-48.265	-0.090	0.043
-179.027	22.621	-0.036	-0.029
-178.012	-76.423	-0.153	0.054
-176.998	173.294	-0.062	-0.089
-175.983	21.616	-0.145	-0.118
-174.969	-103.850	0.127	0.030
-173.954	-200.000	0.018	0.161
-172.939	73.852	-0.208	0.218
-171.925	92.203	0.241	0.271
-170.910	800.000	0.056	0.221
-169.896	-18.914	0.080	0.050
-168.881	-200.000	-0.052	0.282
-167.866	34.423	-0.097	0.085
-166.852	-55.080	0.064	0.029
-165.837	800.000	-0.105	-0.295
-164.823	333.936	0.081	-0.157
-163.808	-10.697	0.178	-0.118
-162.793	-57.530	-0.055	-0.024
-161.779	116.891	0.123	-0.151
-160.764	104.806	0.151	-0.177
-159.750	-173.707	0.170	0.005
-158.735	400.739	0.104	0.217
-157.720	-148.373	-0.275	-0.023
-156.706	800.000	-0.073	-0.213
-155.691	-80.894	0.164	0.054
-154.677	694.236	0.073	0.190
-153.662	116.977	-0.301	-0.370
-152.647	-200.000	0.084	0.422
-151.633	-200.000	0.075	-0.345
-150.618	226.145	0.129	-0.210
-149.604	-200.000	-0.023	0.268
-148.589	63.157	0.085	0.085
-147.574	12.791	0.159	0.123
-146.560	382.878	-0.102	-0.209
-145.545	-200.000	-0.025	-0.171
-144.531	-132.679	0.181	-0.023
-143.516	479.359	0.131	0.296
-142.502	-69.267	-0.194	0.074
-141.487	399.087	0.142	0.297
-140.472	2.330	-0.167	0.121
-139.458	21.101	-0.363	-0.295
-138.443	-200.000	0.009	0.077
-137.429	469.389	-0.145	-0.326
-136.414	204.953	0.250	0.387
-135.399	-15.504	0.135	-0.086
-134.385	70.874	0.033	0.034
-133.370	183.004	0.195	-0.287
-132.356	36.145	-0.064	0.056
-131.341	-100.312	0.135	-0.033
-130.326	-51.655	-0.180	0.084
-129.312	58.611	-0.139	-0.136
-128.297	-32.463	-0.266	0.148
-127.283	102.011	0.150	0.175
-126.268	28.829	0.191	0.161
-125.253	-200.000	-0.030	-0.160
-124.239	-87.215	-0.242	0.073
-123.224	35.905	-0.281	0.247
-122.210	-147.755	0.203	0.017
-121.195	-200.000	-0.033	-0.388
