DTS Sentinel unit serial number:	SN413079Multiplexer serial number:	ORYXHardware model number:	OX4-SRSoftware version number:	ORYX F/W v4.00 Oryx Data Collector v3.7.2.0data status	okinstallation	princeton_trtdifferential loss correction	single-endedforward channel	channel 1reverse channel	N/Adate	2019/09/12time	18:20:34forward acquisition time	15.00reverse acquisition time	0.00gamma	496.2192k internal	0.2318k external	0.2318temperature offset calibration	1.0108default loss term (dB/km)	0.3790temperature slope calibration	1.0000multiplexer offset coefficient	1.0000multiplexer slope coefficient	1.0000fibre end	0.00T internal ref (°C)	33.44T ext. ref 1 (°C)	2.99T ext. ref 2 (°C)	28.06length (m)	temperature (°C)	Stokes	anti-Stokes-747.200	800.000	0.179	-0.790
-746.185	252.406	0.263	0.455
-745.171	149.720	0.349	0.479
-744.156	546.487	-0.309	0.747
-743.142	-27.574	0.327	0.192
-742.127	352.798	0.266	0.534
-741.112	-131.688	-0.540	-0.072
-740.098	107.665	-0.437	0.527
-739.083	379.290	0.093	0.193
-738.069	-59.086	0.045	0.020
-737.054	-155.089	0.843	-0.056
-736.039	-9.492	-0.591	0.399
-735.025	313.537	0.467	0.889
-734.010	-58.300	-0.538	0.237
-732.996	540.498	0.132	0.319
-731.981	-200.000	0.145	0.743
-730.966	-200.000	0.004	-0.335
-729.952	-54.624	-0.405	-0.186
-728.937	204.567	0.498	-0.781
-727.923	800.000	-0.158	-0.536
-726.908	164.304	0.433	0.617
-725.894	-200.000	-0.082	0.446
-724.879	-20.881	0.636	0.394
-723.864	800.000	0.266	0.788
-722.850	38.804	0.348	0.314
-721.835	-61.775	-0.817	0.346
-720.821	-200.000	-0.001	-0.010
-719.806	-88.400	0.657	-0.199
-718.791	-38.009	0.168	0.090
-717.777	110.054	-0.196	-0.238
-716.762	17.465	-0.106	-0.085
-715.748	39.504	-0.218	0.198
-714.733	85.919	0.461	0.512
-713.718	-200.000	0.073	-0.606
-712.704	108.725	-0.199	-0.240
-711.689	-25.724	0.452	0.269
-710.675	-75.345	0.523	0.189
-709.660	-0.258	0.533	0.383
-708.645	-60.866	-0.650	-0.278
-707.631	4.618	-0.499	-0.370
-706.616	59.518	0.352	0.351
-705.602	38.645	-0.107	0.096
-704.587	108.318	-0.238	0.287
-703.572	130.296	0.332	-0.429
-702.558	-78.883	-0.461	-0.159
-701.543	-79.120	-0.317	0.109
-700.529	78.066	0.158	-0.170
-699.514	-200.000	0.097	0.828
-698.499	-83.968	0.209	-0.067
-697.485	-200.000	0.017	0.074
-696.470	192.198	0.406	-0.619
-695.456	510.192	-0.254	-0.598
-694.441	800.000	0.283	0.979
-693.426	-99.070	-0.325	0.083
-692.412	-6.822	-0.420	-0.289
-691.397	-38.634	0.113	0.060
-690.383	-187.697	0.512	-0.007
-689.368	800.000	0.169	0.637
-688.354	-84.589	0.159	0.051
-687.339	55.977	0.610	0.598
-686.324	800.000	0.254	1.015
-685.310	429.269	-0.206	-0.449
-684.295	-56.721	-0.530	0.237
-683.281	6.461	-0.341	-0.256
-682.266	800.000	-0.159	0.570
-681.251	800.000	0.214	-0.707
-680.237	48.579	-0.213	-0.201
-679.222	-200.000	-0.036	0.175
-678.208	-116.193	-0.696	-0.130
-677.193	117.808	-0.589	-0.732
-676.178	-200.000	0.024	-0.915
-675.164	-175.205	1.197	-0.033
-674.149	-160.008	-0.642	0.035
-673.135	120.201	0.324	-0.406
-672.120	355.603	0.403	0.809
-671.105	203.998	0.387	0.605
-670.091	-100.215	-0.428	-0.107
-669.076	800.000	-0.148	0.449
-668.062	-130.053	-0.600	0.083
-667.047	95.641	-0.425	-0.489
-666.032	-100.877	0.582	0.144
-665.018	-40.206	-0.405	-0.213
-664.003	-113.228	0.461	0.091
-662.989	186.129	-0.424	0.636
-661.974	-65.329	-0.637	0.259
-660.959	-115.591	0.227	0.043
-659.945	-56.968	-0.777	0.346
-658.930	240.877	0.115	-0.194
-657.916	-30.205	-0.368	0.211
-656.901	13.839	-0.436	0.342
-655.886	-162.701	0.700	-0.035
-654.872	513.867	0.066	-0.154
-653.857	9.227	0.136	-0.104
-652.843	118.666	-0.242	0.301
-651.828	-26.741	0.697	-0.411
-650.814	226.470	0.081	0.132
-649.799	171.062	0.124	0.179
-648.784	-78.723	0.744	0.256
-647.770	-187.761	-0.683	-0.009
-646.755	-200.000	-0.019	-0.551
-645.741	-200.000	0.055	0.527
-644.726	800.000	0.181	-0.764
-643.711	-92.806	0.165	-0.047
-642.697	321.216	-0.479	-0.918
-641.682	-115.536	0.128	0.024
-640.668	411.899	0.335	0.716
-639.653	800.000	0.067	0.238
-638.638	-40.751	0.492	0.257
-637.624	-12.776	-0.242	-0.159
-636.609	-18.551	-0.310	0.195
-635.595	2.319	0.386	-0.282
-634.580	173.929	0.256	-0.373
-633.565	84.850	0.510	-0.563
-632.551	6.682	0.095	-0.072
-631.536	-15.603	-0.226	0.145
-630.522	-200.000	0.004	-1.018
-629.507	-11.703	0.831	-0.550
-628.492	-164.035	0.629	0.029
-627.478	-23.179	-0.148	-0.090
-626.463	164.840	-0.382	0.543
-625.449	207.273	-0.415	0.653
-624.434	-159.293	0.333	0.019
-623.419	17.963	0.406	0.326
-622.405	239.548	0.193	-0.324
-621.390	-200.000	-0.015	0.175
-620.376	-200.000	-0.106	0.516
-619.361	-200.000	-0.033	0.342
-618.346	8.256	0.511	0.387
-617.332	-138.945	-0.701	0.077
-616.317	-134.082	-0.448	-0.056
-615.303	-200.000	0.000	-0.264
-614.288	-27.944	0.668	0.390
-613.273	357.572	0.084	0.168
-612.259	-42.103	0.506	0.261
-611.244	-170.500	0.223	-0.008
-610.230	-22.325	0.482	0.294
-609.215	800.000	-0.127	0.544
-608.201	460.390	0.318	-0.712
-607.186	-200.000	0.131	0.608
-606.171	-61.186	0.177	-0.075
-605.157	18.753	-0.677	-0.545
-604.142	-70.280	0.155	0.059
-603.128	551.171	-0.226	-0.546
-602.113	167.635	-0.076	0.109
-601.098	-200.000	-0.129	-0.606
-600.084	-2.530	-0.668	-0.471
-599.069	800.000	-0.006	0.023
-598.055	203.054	-0.081	0.126
-597.040	135.837	0.217	-0.284
-596.025	-200.000	0.073	0.339
-595.011	-167.712	-0.132	-0.005
-593.996	-4.565	0.485	0.337
-592.982	-108.662	-1.029	0.222
-591.967	-123.225	-0.525	-0.084
-590.952	-200.000	0.012	-0.361
-589.938	-88.743	-0.770	0.230
-588.923	-106.878	-0.168	-0.037
-587.909	-84.307	0.192	0.061
-586.894	204.665	0.127	-0.198
-585.879	15.360	0.037	-0.029
-584.865	-200.000	0.005	-0.428
-583.850	-200.000	0.079	-0.747
-582.836	-189.630	-0.604	0.007
-581.821	-9.147	-0.247	-0.166
-580.806	-48.874	0.277	-0.134
-579.792	190.372	-0.395	-0.596
-578.777	-200.000	0.028	0.321
-577.763	-64.228	-0.261	0.107
-576.748	-38.254	-0.490	0.261
-575.733	7.057	0.306	-0.229
-574.719	-115.906	-0.596	0.112
-573.704	381.328	-0.342	-0.705
-572.690	-71.048	0.389	-0.147
-571.675	-200.000	0.076	-0.398
-570.661	754.707	-0.140	0.379
-569.646	-87.311	0.909	0.277
-568.631	800.000	-0.109	-0.330
-567.617	-156.974	-1.052	0.065
-566.602	681.305	-0.349	0.913
-565.588	196.286	-0.038	0.058
-564.573	127.596	-0.242	0.309
-563.558	-44.584	0.149	-0.075
-562.544	12.141	-0.560	-0.433
-561.529	206.860	0.180	-0.282
-560.515	-60.603	0.260	-0.111
-559.500	61.958	0.524	-0.525
-558.485	-200.000	0.088	-0.428
-557.471	140.716	0.388	-0.515
-556.456	-200.000	0.087	-0.529
-555.442	-10.061	-0.236	-0.158
-554.427	159.447	0.305	0.426
-553.412	589.585	-0.135	0.334
-552.398	213.734	-0.179	-0.285
-551.383	83.246	0.710	0.777
-550.369	101.765	0.285	0.334
-549.354	-23.040	-0.363	0.220
-548.339	34.359	0.483	0.424
-547.325	800.000	-0.045	-0.193
-546.310	-139.817	0.452	-0.048
-545.296	-27.777	-1.063	-0.619
-544.281	58.430	-0.378	-0.372
-543.266	-200.000	-0.060	-0.494
-542.252	800.000	0.103	-0.432
-541.237	800.000	0.211	0.692
-540.223	326.728	-0.269	-0.518
-539.208	-200.000	0.158	-1.221
-538.193	281.876	0.644	-1.159
-537.179	-24.181	-0.339	-0.203
-536.164	1.660	-0.499	0.361
-535.150	66.287	0.337	0.344
-534.135	-160.563	0.591	0.032
-533.121	-83.505	-0.115	0.037
-532.106	-90.998	0.284	-0.082
-531.091	-20.601	0.567	-0.350
-530.077	800.000	0.226	-0.883
-529.062	94.596	0.665	0.759
-528.048	-40.212	0.561	0.293
-527.033	-81.332	-0.171	0.057
-526.018	-11.147	-0.476	-0.315
-525.004	8.621	0.258	-0.195
-523.989	-140.857	0.242	0.025
-522.975	-95.950	-0.624	-0.167
-521.960	-200.000	0.121	0.542
-520.945	103.366	0.229	-0.270
-519.931	-159.188	-0.610	0.034
-518.916	-168.248	-0.863	-0.033
-517.902	-200.000	-0.045	0.258
-516.887	-200.000	-0.042	-0.316
-515.872	150.089	0.052	-0.071
-514.858	148.202	-0.416	-0.563
-513.843	98.746	0.239	0.276
-512.829	-98.621	-0.251	-0.064
-511.814	208.834	-0.125	-0.197
-510.799	22.087	0.210	-0.172
-509.785	282.726	-0.376	0.677
-508.770	-159.727	-0.350	-0.019
-507.756	256.740	-0.305	-0.525
-506.741	-138.414	0.306	-0.034
-505.726	3.434	0.881	-0.643
-504.712	-42.531	-0.372	-0.190
-503.697	89.164	0.545	-0.608
-502.683	103.528	0.347	0.408
-501.668	-200.000	-0.020	0.108
-500.653	-45.640	0.200	0.099
-499.639	179.346	0.260	0.382
-498.624	-122.975	0.124	0.020
-497.610	-69.800	0.477	-0.183
-496.595	800.000	0.128	0.373
-495.581	-51.658	-0.954	0.446
-494.566	153.295	-0.293	0.402
-493.551	-86.373	0.723	-0.223
-492.537	800.000	-0.165	0.492
-491.522	327.366	0.221	-0.424
-490.508	-67.949	-0.580	-0.227
-489.493	-57.826	-0.504	0.221
-488.478	800.000	-0.160	0.579
-487.464	-29.031	0.275	0.158
-486.449	-111.479	0.566	-0.116
-485.435	83.916	0.424	-0.463
-484.420	-116.311	-0.224	0.042
-483.405	96.732	-0.400	-0.459
-482.391	18.135	-0.317	0.253
-481.376	-58.909	0.548	-0.237
-480.362	-37.795	-0.586	-0.313
-479.347	101.481	-0.254	-0.296
-478.332	-200.000	0.038	0.401
-477.318	-78.326	1.168	-0.402
-476.303	-34.448	-0.186	-0.102
-475.289	-200.000	0.003	-0.189
-474.274	70.235	0.212	0.219
-473.259	-87.099	0.600	-0.183
-472.245	419.816	-0.179	0.384
-471.230	14.663	0.478	-0.374
-470.216	-200.000	-0.043	-0.315
-469.201	57.131	-0.200	-0.195
-468.186	-43.256	-0.204	0.103
-467.172	800.000	0.073	0.226
-466.157	789.958	0.107	0.295
-465.143	20.895	0.672	-0.545
-464.128	628.152	0.132	-0.335
-463.113	530.375	0.044	0.105
-462.099	104.238	-0.092	-0.109
-461.084	368.123	0.073	-0.148
-460.070	-144.942	-0.633	-0.058
-459.055	480.339	-0.183	-0.415
-458.040	65.262	-0.444	-0.449
-457.026	-170.097	0.316	0.011
-456.011	-61.720	-0.152	-0.064
-454.997	-95.597	0.980	0.263
-453.982	800.000	-0.139	-0.554
-452.968	172.156	0.370	0.532
-451.953	30.301	0.117	0.100
-450.938	-133.222	-1.212	-0.153
-449.924	-77.304	-0.723	0.251
-448.909	-68.125	-0.400	-0.156
-447.895	-200.000	-0.012	0.053
-446.880	-200.000	-0.054	-0.665
-445.865	-200.000	0.051	-0.243
-444.851	-127.346	-0.737	0.107
-443.836	61.302	-0.451	-0.448
-442.822	-151.528	-0.704	0.052
-441.807	112.435	0.190	-0.230
-440.792	511.483	0.247	0.576
-439.778	23.899	-0.650	-0.536
-438.763	-131.463	-0.512	0.068
-437.749	800.000	0.094	-0.340
-436.734	800.000	-0.162	0.494
-435.719	20.572	0.528	-0.428
-434.705	-51.303	-0.432	0.202
-433.690	800.000	-0.191	-0.618
-432.676	152.055	-0.653	-0.891
-431.661	-109.316	-0.293	0.062
-430.646	-139.886	0.561	-0.059
-429.632	800.000	0.150	0.466
-428.617	-200.000	0.716	-0.002
-427.603	800.000	-0.107	-0.368
-426.588	-130.708	0.035	0.005
-425.573	238.328	-0.271	0.449
-424.559	-36.983	-0.407	0.218
-423.544	-57.516	0.575	-0.252
-422.530	-80.133	-0.573	0.192
-421.515	-38.629	-0.102	-0.054
-420.500	437.999	0.413	-0.900
-419.486	74.872	-0.169	0.178
-418.471	-188.789	-0.631	-0.008
-417.457	137.360	-0.442	-0.578
-416.442	99.127	0.247	-0.285
-415.428	278.438	-0.351	0.625
-414.413	154.163	-0.176	0.241
-413.398	205.888	-0.090	0.139
-412.384	237.464	0.116	-0.192
-411.369	334.413	0.346	0.669
-410.355	66.392	-0.497	0.505
-409.340	-13.161	0.157	0.102
-408.325	800.000	-0.265	-0.788
-407.311	91.109	-0.201	0.226
-406.296	800.000	0.160	0.586
-405.282	-200.000	0.047	0.528
-404.267	-200.000	0.031	-0.271
-403.252	204.772	-0.098	-0.152
-402.238	425.436	-0.364	0.784
-401.223	-94.383	0.181	0.049
-400.209	-162.782	-0.192	-0.009
-399.194	800.000	-0.040	-0.171
-398.179	56.571	-0.251	0.243
-397.165	-200.000	-0.090	-0.412
-396.150	-52.866	0.731	0.336
-395.136	-99.422	-0.433	0.109
-394.121	-76.278	-0.461	0.162
-393.106	-154.294	0.849	-0.057
-392.092	103.314	0.320	-0.375
-391.077	-20.284	-0.424	-0.260
-390.063	-200.000	-0.039	0.271
-389.048	-56.063	0.404	0.180
-388.033	99.132	0.161	-0.185
-387.019	23.661	0.366	0.301
-386.004	36.705	0.685	-0.604
-384.990	-200.000	0.009	-0.627
-383.975	124.491	0.140	-0.176
-382.960	548.371	-0.243	-0.581
-381.946	141.713	-0.515	-0.680
-380.931	223.285	-0.156	-0.251
-379.917	509.198	-0.583	1.353
-378.902	-158.505	0.579	-0.033
-377.888	8.695	-0.252	-0.190
-376.873	-49.726	0.301	-0.143
-375.858	139.501	0.206	-0.270
-374.844	172.019	0.264	-0.378
-373.829	-34.175	-0.404	0.221
-372.815	14.358	-0.973	0.757
-371.800	279.811	0.246	0.439
-370.785	-200.000	0.083	-0.384
-369.771	-200.000	-0.054	-0.464
-368.756	-29.189	-0.280	-0.160
-367.742	83.867	0.584	-0.636
-366.727	106.806	0.667	0.790
-365.712	-150.936	0.918	-0.069
-364.698	-200.000	0.032	0.260
-363.683	-119.058	-0.349	-0.061
-362.669	42.154	-0.497	0.450
-361.654	-48.819	0.418	-0.200
-360.639	-79.348	-0.573	0.193
-359.625	25.367	0.491	-0.407
-358.610	52.900	0.731	0.697
-357.596	146.310	-0.144	-0.192
-356.581	-200.000	-0.031	0.361
-355.566	105.197	-0.195	0.230
-354.552	-133.219	-0.156	0.020
-353.537	-65.705	0.297	0.119
-352.523	-112.370	-0.920	0.184
-351.508	281.142	0.269	0.480
-350.493	800.000	-0.072	0.208
-349.479	292.905	-0.299	-0.543
-348.464	-79.678	0.520	0.175
-347.450	66.552	-0.276	-0.280
-346.435	82.348	0.363	-0.393
-345.420	800.000	0.351	0.964
-344.406	-200.000	-0.062	0.503
-343.391	399.049	0.158	-0.329
-342.377	121.424	0.132	0.164
-341.362	-153.781	-0.751	-0.051
-340.348	-200.000	0.020	0.501
-339.333	-200.000	0.028	-0.206
-338.318	-200.000	0.039	0.215
-337.304	-200.000	-0.047	-0.380
-336.289	-18.654	-1.029	-0.639
-335.275	-39.097	-0.213	-0.112
-334.260	208.356	0.215	0.336
-333.245	-38.952	-0.331	0.174
-332.231	-55.933	0.099	-0.044
-331.216	61.683	0.172	0.170
-330.202	-200.000	0.076	-0.662
-329.187	-0.603	0.254	-0.180
-328.172	-50.885	-1.143	-0.535
-327.158	-200.000	0.004	-0.317
-326.143	159.552	-0.108	0.150
-325.129	-200.000	-0.082	-0.460
-324.114	-200.000	0.070	0.489
-323.099	175.415	-0.579	0.836
-322.085	252.944	0.186	0.315
-321.070	-187.717	-1.265	0.017
-320.056	191.214	0.499	-0.747
-319.041	800.000	-0.132	-0.367
-318.026	800.000	-0.222	-0.692
-317.012	94.242	0.337	0.381
-315.997	150.245	-0.266	0.359
-314.983	-96.371	0.565	0.149
-313.968	-200.000	0.044	0.207
-312.953	71.750	0.348	0.360
-311.939	-106.978	0.293	0.065
-310.924	17.172	0.083	0.066
-309.910	-186.769	-1.309	0.018
-308.895	263.401	-0.372	-0.644
-307.880	-184.483	-0.414	0.007
-306.866	-73.224	0.560	0.204
-305.851	121.779	-0.168	-0.209
-304.837	-64.715	-1.097	-0.442
-303.822	-200.000	-0.037	-0.730
-302.807	26.683	-0.546	-0.455
-301.793	-47.281	-0.896	-0.434
-300.778	-73.820	0.442	-0.160
-299.764	-128.978	0.832	-0.116
-298.749	163.882	0.082	0.115
-297.735	-156.162	0.435	0.027
-296.720	-200.000	0.023	0.127
-295.705	800.000	0.262	0.848
-294.691	27.450	-0.645	0.540
-293.676	163.942	0.580	-0.812
-292.662	29.045	-0.516	0.435
-291.647	-200.000	0.099	-0.690
-290.632	-7.247	-0.415	0.280
-289.618	412.901	0.216	-0.457
-288.603	46.882	0.930	0.860
-287.589	-126.123	0.362	0.054
-286.574	-42.632	0.478	0.242
-285.559	800.000	0.085	-0.346
-284.545	175.950	-0.330	0.476
-283.530	66.446	-0.392	0.396
-282.516	-61.228	0.226	-0.095
-281.501	-16.086	-0.049	0.031
-280.486	800.000	0.167	-0.530
-279.472	-51.248	0.243	0.113
-278.457	494.881	-0.271	0.619
-277.443	185.828	-0.408	-0.602
-276.428	13.608	0.341	-0.263
-275.413	370.137	0.010	0.020
-274.399	-122.119	0.275	0.045
-273.384	43.151	0.772	0.700
-272.370	-122.331	-0.708	0.115
-271.355	-56.850	0.251	0.110
-270.340	48.004	0.310	0.288
-269.326	-123.427	-0.254	-0.040
-268.311	800.000	0.058	0.231
-267.297	-200.000	-0.084	0.674
-266.282	99.807	0.182	0.210
-265.267	74.250	0.361	0.377
-264.253	-0.304	0.447	0.316
-263.238	-102.579	0.425	-0.101
-262.224	558.413	-0.343	0.822
-261.209	-200.000	0.023	0.648
-260.195	-148.568	-0.288	0.023
-259.180	-86.366	0.109	0.033
-258.165	-57.942	0.353	0.153
-257.151	-14.619	-0.714	0.456
-256.136	324.943	0.392	0.744
-255.122	140.526	0.480	0.630
-254.107	631.007	0.418	-1.052
-253.092	-136.137	-0.593	-0.069
-252.078	-73.674	0.621	0.225
-251.063	-114.948	0.175	-0.033
-250.049	-200.000	0.000	-0.081
-249.034	117.107	-0.428	0.522
-248.019	800.000	-0.231	0.814
-247.005	52.199	-0.259	-0.245
-245.990	-78.685	-0.451	0.153
-244.976	800.000	0.174	0.529
-243.961	-90.268	1.074	0.310
-242.946	-200.000	0.070	-0.404
-241.932	-122.481	-0.111	0.018
-240.917	-39.055	-0.489	-0.255
-239.903	10.204	0.535	-0.404
-238.888	-122.441	0.855	0.138
-237.873	41.362	0.121	0.109
-236.859	375.027	-0.352	0.713
-235.844	-200.000	-0.130	0.935
-234.830	800.000	0.318	-1.030
-233.815	-200.000	-0.067	0.770
-232.800	-200.000	-0.011	-0.319
-231.786	-19.834	0.210	-0.129
-230.771	27.233	0.062	0.051
-229.757	-187.190	0.117	-0.002
-228.742	321.183	0.406	0.766
-227.727	109.706	-0.640	-0.761
-226.713	-105.455	-0.448	0.101
-225.698	-200.000	0.022	-0.199
-224.684	-171.994	0.750	-0.024
-223.669	-200.000	0.110	-0.780
-222.655	29.064	0.064	0.054
-221.640	800.000	0.095	0.269
-220.625	-61.216	0.460	0.192
-219.611	-106.380	0.716	-0.159
-218.596	-200.000	0.085	-0.768
-217.582	-160.870	0.376	0.020
-216.567	-6.195	-0.629	0.426
-215.552	-65.772	-0.241	0.095
-214.538	800.000	0.325	-0.924
-213.523	-200.000	-0.047	0.336
-212.509	800.000	0.182	0.551
-211.494	43.448	0.484	0.438
-210.479	-141.505	0.649	0.065
-209.465	-200.000	-0.098	-0.606
-208.450	404.141	0.144	0.301
-207.436	237.905	0.351	0.578
-206.421	116.605	0.147	0.179
-205.406	-168.199	-0.948	-0.036
-204.392	-200.000	0.068	0.648
-203.377	98.493	-0.540	-0.617
-202.363	345.095	-0.434	0.845
-201.348	-56.976	0.518	-0.227
-200.333	133.717	0.559	0.717
-199.319	179.323	0.810	1.174
-198.304	-5.053	0.188	-0.128
-197.290	-109.269	-0.492	0.103
-196.275	-83.304	0.383	0.122
-195.260	-200.000	-0.069	0.504
-194.246	-60.534	0.880	0.370
-193.231	70.879	0.100	-0.102
-192.217	94.186	0.099	-0.111
-191.202	-200.000	0.098	-0.534
-190.187	-200.000	0.108	0.560
-189.173	310.067	-0.140	-0.259
-188.158	-7.328	0.294	-0.197
-187.144	800.000	-0.216	0.756
-186.129	-87.600	0.070	0.021
-185.114	-20.497	0.603	-0.367
-184.100	245.274	0.115	-0.192
-183.085	-17.952	-0.434	0.269
-182.071	-200.000	-0.022	0.407
-181.056	-28.662	-0.143	-0.082
-180.042	-36.412	0.508	-0.271
-179.027	-83.406	-0.452	0.143
-178.012	-106.286	-0.186	0.041
-176.998	425.803	0.340	-0.725
-175.983	-68.039	0.216	-0.083
-174.969	-72.258	0.211	0.077
-173.954	-125.257	-0.087	-0.013
-172.939	-200.000	-0.003	0.046
-171.925	-200.000	-0.030	0.256
-170.910	-200.000	-0.103	-0.466
-169.896	623.483	-0.148	0.368
-168.881	564.998	-0.348	0.834
-167.866	48.522	0.087	-0.080
-166.852	-35.813	0.011	-0.006
-165.837	65.251	0.271	-0.271
-164.823	34.093	0.472	-0.407
-163.808	-200.000	0.088	0.396
-162.793	336.282	-0.166	0.318
-161.779	192.977	0.276	0.412
-160.764	-91.974	0.382	-0.107
-159.750	-200.000	-0.116	-0.617
-158.735	45.080	0.051	-0.047
-157.720	170.458	-0.428	-0.606
-156.706	-22.041	-0.921	0.553
-155.691	800.000	-0.223	0.615
-154.677	-78.387	-0.800	0.271
-153.662	-69.729	-0.655	-0.248
-152.647	-55.701	-0.388	0.172
-151.633	-124.107	-0.717	0.111
-150.618	-107.615	0.417	-0.090
-149.604	-112.459	-0.303	-0.060
-148.589	107.276	-0.037	-0.043
-147.574	-200.000	0.024	0.408
-146.560	-200.000	-0.092	0.808
-145.545	-89.113	0.667	-0.195
-144.531	71.359	0.431	0.442
-143.516	467.483	0.011	-0.024
-142.502	-31.365	-0.501	-0.279
-141.487	-200.000	-0.016	-0.362
-140.472	-88.330	0.367	0.108
-139.458	800.000	0.108	0.357
-138.443	-150.691	0.320	-0.024
-137.429	179.812	-0.769	-1.114
-136.414	28.276	0.564	-0.471
-135.399	27.845	0.018	0.015
-134.385	-39.688	0.238	0.123
-133.370	-113.063	-0.322	-0.063
-132.356	360.604	-0.257	0.508
-131.341	47.046	0.427	0.392
-130.326	170.167	-0.265	0.374
-129.312	66.461	-0.245	0.246
-128.297	-21.528	0.555	0.334
-127.283	-148.903	-0.133	0.011
-126.268	-16.079	0.455	-0.286
-125.253	605.642	-0.173	0.426
-124.239	-68.020	0.600	-0.231
-123.224	-33.419	1.046	-0.571
-122.210	48.358	-0.445	-0.412
-121.195	280.282	-0.387	0.684
-120.180	-110.327	-0.607	0.125
-119.166	-200.000	0.074	0.552
