DTS Sentinel unit serial number:	SN413079Multiplexer serial number:	ORYXHardware model number:	OX4-SRSoftware version number:	ORYX F/W v4.00 Oryx Data Collector v3.7.2.0data status	okinstallation	princeton_trtdifferential loss correction	single-endedforward channel	channel 1reverse channel	N/Adate	2019/09/11time	10:16:11forward acquisition time	60.00reverse acquisition time	0.00gamma	496.2192k internal	0.2299k external	0.2299temperature offset calibration	0.9952default loss term (dB/km)	0.3790temperature slope calibration	1.0000multiplexer offset coefficient	1.0000multiplexer slope coefficient	1.0000fibre end	0.00T internal ref (°C)	35.94T ext. ref 1 (°C)	0.13T ext. ref 2 (°C)	33.99length (m)	temperature (°C)	Stokes	anti-Stokes-747.200	-3.496	0.202	0.144
-746.185	23.629	-0.081	-0.068
-745.171	140.896	-0.063	-0.085
-744.156	-121.453	0.253	0.043
-743.142	-72.170	-0.299	-0.113
-742.127	-34.041	0.094	0.053
-741.112	-200.000	-0.000	0.445
-740.098	188.760	-0.130	0.198
-739.083	130.294	0.099	0.130
-738.069	-106.610	0.138	-0.031
-737.054	800.000	-0.072	0.205
-736.039	-98.050	-0.303	0.080
-735.025	144.694	0.236	0.322
-734.010	-19.237	-0.144	0.091
-732.996	-134.580	0.312	0.039
-731.981	72.463	0.182	0.194
-730.966	-83.351	-0.305	-0.100
-729.952	800.000	-0.077	0.222
-728.937	120.045	-0.119	0.150
-727.923	-101.551	0.194	-0.048
-726.908	-100.511	-0.122	0.031
-725.894	140.235	-0.010	-0.014
-724.879	-115.848	-0.268	-0.051
-723.864	800.000	-0.099	-0.316
-722.850	-114.340	0.128	0.025
-721.835	500.624	-0.014	-0.032
-720.821	738.656	0.071	0.195
-719.806	-200.000	0.026	-0.122
-718.791	14.291	-0.177	-0.140
-717.777	-142.259	0.221	0.022
-716.762	-0.404	0.076	0.055
-715.748	-109.999	-0.088	-0.019
-714.733	-44.746	0.222	-0.113
-713.718	800.000	0.029	-0.122
-712.704	411.920	-0.029	0.063
-711.689	5.674	0.078	0.059
-710.675	-200.000	-0.009	0.102
-709.660	-200.000	-0.017	-0.131
-708.645	-200.000	-0.016	0.132
-707.631	800.000	0.062	-0.235
-706.616	-154.964	-0.072	-0.005
-705.602	268.741	0.085	0.151
-704.587	-89.958	-0.285	-0.085
-703.572	151.181	-0.087	-0.121
-702.558	-40.552	0.108	-0.057
-701.543	-126.674	0.014	-0.002
-700.529	172.894	0.306	-0.449
-699.514	451.530	0.063	-0.141
-698.499	451.531	-0.106	0.239
-697.485	517.059	-0.054	-0.128
-696.470	800.000	0.028	0.114
-695.456	427.761	-0.074	0.162
-694.441	-200.000	-0.023	-0.110
-693.426	187.242	-0.096	-0.146
-692.412	35.727	0.176	-0.158
-691.397	-94.294	-0.112	-0.031
-690.383	-62.996	0.269	0.113
-689.368	-1.953	-0.192	0.137
-688.354	49.298	-0.238	-0.228
-687.339	238.511	-0.017	0.028
-686.324	800.000	-0.098	0.318
-685.310	403.715	0.029	0.063
-684.295	28.496	0.038	0.033
-683.281	476.919	-0.081	0.188
-682.266	247.750	-0.088	-0.151
-681.251	96.144	0.184	-0.214
-680.237	163.061	-0.099	0.142
-679.222	12.447	-0.240	-0.188
-678.208	-200.000	0.004	-0.111
-677.193	-191.414	-0.333	-0.003
-676.178	418.048	-0.012	0.026
-675.164	153.086	-0.082	0.114
-674.149	-143.190	-0.272	-0.027
-673.135	-116.062	-0.282	0.053
-672.120	-43.106	-0.229	0.118
-671.105	-176.452	0.017	0.000
-670.091	-158.227	-0.201	-0.012
-669.076	174.562	0.119	-0.176
-668.062	401.816	0.018	0.039
-667.047	-200.000	0.012	0.429
-666.032	72.090	0.333	-0.353
-665.018	136.150	-0.212	-0.280
-664.003	-42.599	-0.150	-0.078
-662.989	442.100	-0.103	-0.230
-661.974	-72.396	-0.318	0.120
-660.959	232.616	0.034	-0.057
-659.945	-122.546	-0.163	0.027
-658.930	-18.900	0.030	0.019
-657.916	-56.021	0.166	-0.075
-656.901	-95.805	0.098	-0.027
-655.886	-57.194	-0.334	0.150
-654.872	38.347	-0.143	0.130
-653.857	-37.574	0.172	0.093
-652.843	800.000	-0.036	0.136
-651.828	294.382	-0.089	0.165
-650.814	800.000	-0.048	-0.179
-649.799	-200.000	-0.043	0.277
-648.784	800.000	-0.063	0.206
-647.770	-13.606	0.380	-0.250
-646.755	314.219	-0.138	0.264
-645.741	-52.616	0.202	-0.095
-644.726	-31.738	0.097	-0.055
-643.711	145.891	-0.099	0.135
-642.697	18.373	-0.201	-0.163
-641.682	-116.955	0.260	-0.048
-640.668	-9.605	0.437	-0.296
-639.653	99.735	-0.121	-0.142
-638.638	75.100	0.169	-0.181
-637.624	-90.466	-0.225	-0.066
-636.609	57.939	-0.215	0.214
-635.595	55.963	-0.044	-0.043
-634.580	-108.069	-0.061	0.014
-633.565	-102.656	0.401	0.097
-632.551	54.454	-0.166	0.163
-631.536	-116.493	-0.267	-0.050
-630.522	800.000	-0.077	-0.275
-629.507	283.026	-0.113	-0.206
-628.492	42.744	0.348	-0.322
-627.478	104.395	-0.134	-0.160
-626.463	197.289	-0.201	-0.312
-625.449	-89.976	0.185	0.055
-624.434	-200.000	-0.031	0.196
-623.419	-165.010	0.139	-0.006
-622.405	-26.198	-0.073	0.044
-621.390	146.717	-0.295	-0.402
-620.376	-200.000	-0.026	-0.324
-619.361	800.000	-0.059	0.203
-618.346	-60.683	-0.104	-0.045
-617.332	-200.000	-0.037	0.227
-616.317	800.000	0.058	-0.218
-615.303	312.146	0.215	0.410
-614.288	-55.609	-0.437	0.199
-613.273	800.000	0.147	-0.453
-612.259	-187.274	-0.269	0.004
-611.244	-200.000	0.047	-0.240
-610.230	800.000	0.043	-0.131
-609.215	136.119	0.080	-0.105
-608.201	-103.565	0.496	-0.118
-607.186	-200.000	0.041	0.246
-606.171	800.000	0.062	0.206
-605.157	25.584	-0.074	-0.062
-604.142	800.000	0.111	0.341
-603.128	-96.169	0.222	-0.060
-602.113	-200.000	-0.014	-0.271
-601.098	95.007	0.037	-0.042
-600.084	-200.000	-0.038	-0.306
-599.069	-88.558	0.033	0.010
-598.055	135.575	0.109	-0.144
-597.040	346.693	-0.154	-0.307
-596.025	524.369	-0.072	-0.171
-595.011	-92.586	0.123	0.035
-593.996	65.325	-0.133	0.136
-592.982	-65.444	-0.172	0.070
-591.967	-194.716	-0.410	0.003
-590.952	-193.510	-0.433	0.004
-589.938	-109.008	0.184	0.040
-588.923	-63.750	0.277	-0.115
-587.909	114.047	-0.208	-0.257
-586.894	-23.349	-0.163	-0.099
-585.879	465.916	0.016	-0.035
-584.865	295.966	-0.186	-0.345
-583.850	-72.225	0.071	0.027
-582.836	-200.000	0.042	-0.304
-581.821	800.000	0.077	-0.277
-580.806	50.233	0.262	-0.251
-579.792	225.053	0.172	-0.282
-578.777	-147.071	0.126	0.011
-577.763	60.487	0.222	0.223
-576.748	49.295	-0.178	-0.170
-575.733	-146.721	0.261	0.023
-574.719	65.450	0.076	0.078
-573.704	0.370	-0.038	-0.027
-572.690	-159.952	0.524	-0.029
-571.675	273.528	-0.117	-0.210
-570.661	-200.000	0.041	0.206
-569.646	-19.999	-0.353	0.221
-568.631	42.840	0.062	0.057
-567.617	53.447	0.153	-0.149
-566.602	-92.385	-0.253	0.072
-565.588	-117.042	-0.216	0.040
-564.573	-200.000	0.045	0.211
-563.558	-200.000	-0.051	-0.306
-562.544	-36.810	0.335	-0.182
-561.529	-136.223	-0.031	-0.004
-560.515	614.134	-0.144	-0.365
-559.500	-69.413	0.269	-0.104
-558.485	800.000	0.032	0.097
-557.471	-159.664	-0.393	-0.022
-556.456	-81.529	-0.235	0.078
-555.442	800.000	-0.131	-0.383
-554.427	800.000	-0.057	0.159
-553.412	-200.000	-0.113	0.520
-552.398	636.954	-0.086	-0.220
-551.383	13.083	0.141	-0.110
-550.369	153.286	0.088	-0.122
-549.354	-27.418	0.264	0.156
-548.339	-170.759	-0.211	-0.007
-547.325	-200.000	0.002	0.091
-546.310	15.923	0.151	0.121
-545.296	-9.879	-0.166	0.111
-544.281	800.000	-0.024	-0.074
-543.266	-29.578	-0.033	-0.019
-542.252	-4.201	-0.116	0.081
-541.237	173.963	0.105	-0.154
-540.223	-7.981	0.136	-0.093
-539.208	-200.000	-0.001	0.252
-538.193	112.745	-0.122	-0.150
-537.179	-19.080	-0.134	-0.084
-536.164	800.000	-0.036	0.127
-535.150	302.634	0.135	0.253
-534.135	756.701	0.091	0.248
-533.121	118.471	-0.220	0.275
-532.106	-89.914	-0.114	0.034
-531.091	-12.453	-0.236	0.156
-530.077	-200.000	-0.008	0.127
-529.062	502.435	0.048	0.113
-528.048	526.655	0.138	0.328
-527.033	319.611	-0.152	0.291
-526.018	295.884	0.211	-0.391
-525.004	416.333	0.045	-0.098
-523.989	-187.851	0.152	0.002
-522.975	249.217	0.054	-0.092
-521.960	-200.000	0.027	-0.231
-520.945	131.395	-0.126	-0.164
-519.931	-200.000	0.004	0.212
-518.916	16.525	0.318	0.254
-517.902	570.055	0.135	0.333
-516.887	-200.000	0.022	-0.167
-515.872	418.284	0.129	-0.279
-514.858	-49.288	-0.155	0.075
-513.843	-104.707	0.185	0.043
-512.829	323.582	-0.181	0.348
-511.814	96.005	0.149	-0.173
-510.799	-90.390	-0.197	-0.058
-509.785	66.874	0.127	0.131
-508.770	-200.000	0.024	0.121
-507.756	143.982	-0.260	-0.350
-506.741	698.002	0.059	-0.158
-505.726	679.720	-0.122	0.321
-504.712	74.118	-0.169	-0.179
-503.697	-82.022	-0.239	-0.079
-502.683	609.345	-0.137	0.347
-501.668	208.291	-0.147	0.232
-500.653	-97.961	0.189	0.049
-499.639	7.542	-0.219	-0.166
-498.624	-102.571	0.259	0.062
-497.610	67.418	0.025	-0.025
-496.595	-8.009	-0.046	-0.032
-495.581	114.806	0.222	-0.274
-494.566	-31.848	-0.304	-0.172
-493.551	189.250	0.162	-0.245
-492.537	37.560	0.180	-0.161
-491.522	63.990	0.085	-0.087
-490.508	96.989	-0.175	-0.202
-489.493	25.805	-0.084	0.070
-488.478	107.536	-0.184	-0.221
-487.464	-102.984	0.259	0.062
-486.449	318.107	-0.033	0.063
-485.435	-9.180	0.185	-0.125
-484.420	-185.787	0.196	0.003
-483.405	86.569	0.084	-0.093
-482.391	78.617	0.115	0.124
-481.376	800.000	0.073	0.252
-480.362	-16.292	-0.209	-0.134
-479.347	-99.048	0.174	0.045
-478.332	-200.000	0.322	0.001
-477.318	-15.064	-0.290	0.188
-476.303	255.963	0.078	-0.135
-475.289	-200.000	-0.018	-0.172
-474.274	-200.000	0.007	0.192
-473.259	150.735	0.046	0.064
-472.245	800.000	-0.040	-0.157
-471.230	800.000	0.035	0.130
-470.216	-104.240	-0.136	-0.032
-469.201	350.921	0.057	-0.113
-468.186	29.030	-0.097	0.083
-467.172	-60.175	0.091	-0.039
-466.157	60.170	0.174	0.174
-465.143	196.855	-0.036	-0.056
-464.128	-168.929	0.177	-0.007
-463.113	-4.344	-0.199	0.139
-462.099	-11.964	-0.186	0.123
-461.084	-151.586	0.216	0.016
-460.070	-97.245	0.130	0.034
-459.055	-101.323	-0.085	0.021
-458.040	30.820	0.103	-0.089
-457.026	-200.000	0.001	-0.217
-456.011	-78.302	-0.154	-0.053
-454.997	68.736	-0.183	0.190
-453.982	-200.000	0.009	0.253
-452.968	-94.402	-0.297	0.082
-451.953	-200.000	0.007	0.127
-450.938	5.401	0.182	-0.135
-449.924	39.629	0.073	-0.066
-448.909	800.000	-0.114	-0.484
-447.895	-200.000	-0.042	0.265
-446.880	185.641	0.087	-0.130
-445.865	324.678	0.121	-0.233
-444.851	135.091	-0.161	-0.210
-443.836	0.605	-0.474	-0.342
-442.822	143.769	-0.130	0.175
-441.807	-28.375	0.236	0.137
-440.792	496.990	0.074	-0.172
-439.778	124.907	-0.066	-0.084
-438.763	475.682	0.104	-0.236
-437.749	47.438	-0.213	0.201
-436.734	-200.000	-0.070	0.336
-435.719	800.000	-0.087	-0.274
-434.705	10.979	0.112	-0.086
-433.690	297.956	0.057	-0.105
-432.676	-118.445	-0.507	0.091
-431.661	-200.000	0.020	-0.205
-430.646	-76.237	-0.278	0.099
-429.632	800.000	-0.108	0.391
-428.617	-52.411	-0.178	0.083
-427.603	-82.886	0.193	-0.063
-426.588	-114.974	0.024	-0.005
-425.573	-169.751	0.192	0.007
-424.559	501.088	0.045	-0.105
-423.544	-115.782	-0.109	0.021
-422.530	-17.123	-0.419	0.266
-421.515	-83.957	0.391	0.125
-420.500	8.780	-0.059	0.045
-419.486	-200.000	-0.019	-0.124
-418.471	122.789	0.237	0.299
-417.457	-200.000	0.009	0.084
-416.442	479.355	0.086	-0.195
-415.428	-56.307	-0.208	-0.093
-414.413	354.655	-0.074	0.148
-413.398	-200.000	-0.031	0.154
-412.384	-134.923	-0.143	0.017
-411.369	31.789	-0.177	-0.154
-410.355	22.447	-0.130	-0.107
-409.340	494.988	0.060	-0.139
-408.325	137.749	-0.073	-0.096
-407.311	800.000	-0.088	0.300
-406.296	-200.000	0.010	-0.061
-405.282	-27.864	-0.093	0.054
-404.267	39.187	0.094	-0.085
-403.252	-94.671	-0.223	-0.061
-402.238	-23.134	0.089	0.054
-401.223	-41.390	0.019	-0.010
-400.209	-115.745	0.088	-0.017
-399.194	-200.000	-0.010	-0.112
-398.179	375.294	-0.055	-0.112
-397.165	-100.036	0.153	-0.038
-396.150	-200.000	0.003	-0.021
-395.136	-200.000	-0.003	-0.111
-394.121	-76.890	-0.037	0.013
-393.106	800.000	0.028	0.086
-392.092	-163.235	0.118	-0.006
-391.077	-200.000	0.059	-0.338
-390.063	-69.989	-0.466	-0.179
-389.048	-102.650	-0.240	0.058
-388.033	-108.557	0.336	0.073
-387.019	-128.686	0.215	0.031
-386.004	219.019	-0.132	0.212
-384.990	-32.814	-0.260	-0.145
-383.975	-148.221	0.173	0.014
-382.960	-132.203	-0.288	0.038
-381.946	345.332	0.137	-0.271
-380.931	800.000	0.034	-0.138
-379.917	-23.305	0.341	0.206
-378.902	-200.000	-0.000	-0.231
-377.888	164.617	0.123	0.175
-376.873	363.904	0.023	-0.047
-375.858	-19.608	0.221	-0.138
-374.844	800.000	0.049	0.207
-373.829	47.293	-0.089	0.084
-372.815	800.000	0.070	0.296
-371.800	-142.041	-0.041	-0.004
-370.785	-100.817	0.287	0.071
-369.771	-10.560	-0.218	0.145
-368.756	-56.044	0.209	-0.094
-367.742	-200.000	-0.021	-0.102
-366.727	800.000	-0.046	-0.152
-365.712	586.176	0.078	0.192
-364.698	66.077	-0.171	0.175
-363.683	579.094	0.005	-0.012
-362.669	-117.242	0.115	-0.021
-361.654	112.030	-0.372	0.451
-360.639	-32.082	-0.151	0.085
-359.625	89.986	0.160	-0.179
-358.610	-200.000	0.058	0.270
-357.596	-200.000	-0.083	0.491
-356.581	-5.799	-0.157	0.108
-355.566	-200.000	0.002	0.123
-354.552	3.294	0.387	0.283
-353.537	-200.000	-0.009	0.142
-352.523	750.071	-0.031	-0.084
-351.508	800.000	-0.050	-0.199
-350.493	800.000	0.073	-0.294
-349.479	-10.325	0.189	0.126
-348.464	59.103	0.108	-0.106
-347.450	382.437	0.162	0.334
-346.435	4.153	-0.220	-0.162
-345.420	-113.524	-0.376	-0.074
-344.406	340.824	0.156	-0.307
-343.391	-111.845	0.315	-0.064
-342.377	-102.212	-0.274	0.066
-341.362	-119.481	-0.397	0.069
-340.348	800.000	-0.078	0.245
-339.333	-97.341	-0.278	0.073
-338.318	46.028	0.368	0.342
-337.304	-26.280	-0.203	0.120
-336.289	-101.242	0.161	-0.040
-335.275	-200.000	0.021	-0.135
-334.260	-200.000	0.007	0.157
-333.245	409.614	0.118	-0.251
-332.231	-200.000	0.017	0.392
-331.216	218.120	-0.069	0.111
-330.202	-43.347	0.161	0.082
-329.187	-137.274	-0.175	-0.020
-328.172	387.178	-0.099	-0.205
-327.158	-79.283	-0.383	-0.130
-326.143	-101.856	0.487	-0.118
-325.129	-6.940	0.168	0.115
-324.114	375.588	-0.101	-0.206
-323.099	70.482	0.060	-0.062
-322.085	-21.061	-0.095	0.058
-321.070	125.849	-0.076	0.096
-320.056	12.622	0.100	-0.078
-319.041	95.063	-0.080	0.091
-318.026	453.359	-0.041	-0.091
-317.012	-152.921	0.085	0.006
-315.997	57.552	0.140	0.137
-314.983	87.655	-0.220	0.244
-313.968	-76.981	0.235	-0.082
-312.953	502.938	-0.108	0.250
-311.939	184.109	0.203	-0.301
-310.924	800.000	-0.098	-0.331
-309.910	-200.000	-0.045	0.254
-308.895	63.486	0.210	-0.211
-307.880	-184.153	0.027	-0.000
-306.866	-165.269	0.045	-0.002
-305.851	800.000	-0.042	-0.163
-304.837	-131.911	0.018	-0.002
-303.822	-143.992	0.161	0.015
-302.807	143.265	0.164	0.219
-301.793	222.434	-0.034	-0.056
-300.778	-151.303	0.114	0.009
-299.764	-87.329	-0.306	-0.093
-298.749	-1.311	-0.020	-0.014
-297.735	-82.508	0.252	0.082
-296.720	118.431	-0.074	0.091
-295.705	-29.756	0.221	0.127
-294.691	-200.000	0.000	0.254
-293.676	282.195	0.040	-0.072
-292.662	-105.173	-0.206	0.047
-291.647	59.057	-0.028	-0.028
-290.632	230.183	0.100	-0.163
-289.618	-103.735	0.129	-0.030
-288.603	800.000	0.063	-0.233
-287.589	-44.616	0.150	0.075
-286.574	800.000	0.095	0.332
-285.559	329.615	0.127	0.245
-284.545	-36.587	-0.452	-0.243
-283.530	793.346	-0.025	0.069
-282.516	4.350	-0.181	0.133
-281.501	-169.757	-0.291	0.011
-280.486	-200.000	0.057	0.450
-279.472	530.359	0.097	0.229
-278.457	-200.000	-0.080	0.401
-277.443	-96.546	0.176	-0.046
-276.428	61.145	0.286	-0.285
-275.413	-21.902	-0.353	-0.215
-274.399	134.063	0.084	0.110
-273.384	-120.402	0.364	0.062
-272.370	-200.000	-0.010	-0.256
-271.355	202.628	-0.257	0.398
-270.340	117.903	-0.042	-0.052
-269.326	-200.000	-0.022	0.192
-268.311	760.643	-0.190	0.515
-267.297	-182.598	0.186	0.003
-266.282	-124.245	0.145	-0.023
-265.267	51.816	0.159	0.152
-264.253	-128.219	-0.465	-0.066
-263.238	81.843	-0.022	-0.024
-262.224	307.590	-0.154	-0.287
-261.209	-200.000	-0.016	0.091
-260.195	-200.000	-0.004	0.264
-259.180	-7.860	-0.227	-0.153
-258.165	-133.297	-0.093	-0.012
-257.151	4.306	-0.142	0.105
-256.136	-200.000	0.094	-0.498
-255.122	6.290	-0.054	0.040
-254.107	45.192	0.157	0.145
-253.092	-87.478	-0.300	-0.091
-252.078	-30.731	-0.332	0.188
-251.063	-126.403	0.314	0.047
-250.049	93.384	0.078	0.088
-249.034	359.679	-0.042	0.084
-248.019	800.000	-0.124	-0.358
-247.005	-200.000	-0.021	0.106
-245.990	-123.824	-0.363	-0.057
-244.976	-200.000	0.010	0.112
-243.961	-200.000	-0.020	-0.129
-242.946	257.204	0.104	-0.178
-241.932	279.911	0.157	-0.281
-240.917	-72.091	0.071	-0.026
-239.903	-200.000	0.014	0.160
-238.888	800.000	-0.079	-0.244
-237.873	-43.202	-0.083	0.042
-236.859	211.740	0.172	0.271
-235.844	95.230	-0.104	-0.119
-234.830	201.878	-0.135	-0.208
-233.815	-103.183	-0.071	-0.017
-232.800	-8.404	0.350	0.235
-231.786	-110.802	0.154	-0.032
-230.771	-200.000	-0.013	-0.207
-229.757	-200.000	0.033	-0.299
-228.742	13.453	0.123	-0.096
-227.727	-89.894	0.095	-0.028
-226.713	547.850	0.058	0.138
-225.698	0.890	0.208	0.149
-224.684	197.105	-0.119	-0.181
-223.669	800.000	0.024	-0.103
-222.655	686.977	-0.122	0.318
-221.640	-191.852	-0.144	-0.001
-220.625	487.914	-0.034	-0.076
-219.611	-128.541	-0.055	0.008
-218.596	394.269	0.060	-0.126
-217.582	-162.644	0.038	-0.002
-216.567	800.000	-0.147	0.454
-215.552	-26.534	0.122	-0.071
-214.538	737.445	-0.023	0.061
-213.523	-13.271	0.169	-0.110
-212.509	69.363	0.213	-0.219
-211.494	-96.521	0.417	-0.110
-210.479	-30.126	0.098	0.056
-209.465	77.711	-0.272	-0.289
-208.450	-12.708	-0.246	-0.161
-207.436	85.021	-0.126	-0.138
-206.421	-109.562	-0.277	0.058
-205.406	-15.546	0.218	0.139
-204.392	314.584	0.136	0.257
-203.377	-7.696	-0.065	0.044
-202.363	-69.473	-0.252	0.096
-201.348	-158.022	0.165	0.010
-200.333	57.616	-0.324	-0.317
-199.319	-12.470	0.413	-0.269
-198.304	-88.285	0.326	0.097
-197.290	397.131	-0.191	0.398
-196.275	48.200	-0.157	-0.147
-195.260	360.349	0.025	-0.050
-194.246	-200.000	0.003	-0.221
-193.231	246.309	-0.176	0.296
-192.217	113.294	0.316	0.382
-191.202	-200.000	0.039	0.191
-190.187	-200.000	-0.042	0.367
-189.173	147.030	0.068	-0.091
-188.158	321.939	0.124	0.237
-187.144	-107.784	0.140	0.031
-186.129	-171.779	-0.055	-0.002
-185.114	800.000	0.128	0.470
-184.100	345.934	0.191	-0.375
-183.085	182.898	0.133	0.197
-182.071	800.000	0.124	-0.452
-181.056	72.493	0.223	-0.232
-180.042	-56.638	-0.303	0.134
-179.027	800.000	-0.098	0.283
-178.012	-87.529	-0.199	-0.060
-176.998	219.867	-0.116	0.186
-175.983	-9.678	0.069	-0.046
-174.969	43.622	0.056	0.051
-173.954	161.707	-0.076	0.106
-172.939	208.466	-0.082	0.129
-171.925	800.000	0.022	0.090
-170.910	-200.000	0.008	0.126
-169.896	98.735	-0.168	-0.194
-168.881	800.000	0.097	-0.269
-167.866	-101.517	-0.073	-0.018
-166.852	-136.391	0.190	0.022
-165.837	800.000	0.028	0.107
-164.823	13.026	0.276	0.213
-163.808	-200.000	0.054	0.246
-162.793	-22.207	0.201	0.122
-161.779	44.727	-0.109	-0.100
-160.764	143.717	-0.195	-0.260
-159.750	95.369	0.156	-0.177
-158.735	-200.000	0.001	0.052
-157.720	-184.994	-0.152	-0.002
-156.706	-107.934	-0.276	-0.060
-155.691	-169.179	0.418	-0.015
-154.677	51.215	-0.081	-0.076
-153.662	141.433	0.145	0.192
-152.647	-73.202	0.358	0.131
-151.633	93.815	-0.178	-0.201
-150.618	277.002	-0.089	-0.158
-149.604	-79.693	-0.207	0.070
-148.589	31.746	0.182	0.156
-147.574	-51.663	0.233	0.108
-146.560	-46.640	0.176	-0.086
-145.545	-81.669	0.145	-0.047
-144.531	36.559	0.101	0.089
-143.516	-200.000	-0.025	-0.308
-142.502	284.536	0.085	0.152
-141.487	316.896	0.151	-0.284
-140.472	-61.599	0.245	-0.103
-139.458	164.160	-0.112	-0.157
-138.443	-54.806	0.298	-0.134
-137.429	-150.732	0.004	-0.000
-136.414	-200.000	-0.026	0.206
-135.399	-31.243	0.012	-0.007
-134.385	800.000	0.022	0.090
-133.370	-200.000	-0.010	0.133
-132.356	-200.000	-0.027	0.221
-131.341	116.051	0.349	0.426
-130.326	800.000	-0.073	0.224
-129.312	95.814	-0.243	-0.276
-128.297	128.664	0.108	-0.137
-127.283	430.383	0.104	0.225
-126.268	16.922	-0.056	-0.044
-125.253	-200.000	-0.011	0.075
-124.239	-171.088	-0.270	-0.009
-123.224	-173.412	0.152	0.005
-122.210	-38.758	-0.171	-0.090
-121.195	281.831	0.139	-0.249
