DTS Sentinel unit serial number:	SN413079Multiplexer serial number:	ORYXHardware model number:	OX4-SRSoftware version number:	ORYX F/W v4.00 Oryx Data Collector v3.7.2.0data status	okinstallation	princeton_trtdifferential loss correction	single-endedforward channel	channel 1reverse channel	N/Adate	2019/09/12time	18:26:34forward acquisition time	15.00reverse acquisition time	0.00gamma	496.2192k internal	0.2318k external	0.2318temperature offset calibration	1.0096default loss term (dB/km)	0.3790temperature slope calibration	1.0000multiplexer offset coefficient	1.0000multiplexer slope coefficient	1.0000fibre end	0.00T internal ref (°C)	33.31T ext. ref 1 (°C)	2.88T ext. ref 2 (°C)	27.97length (m)	temperature (°C)	Stokes	anti-Stokes-747.200	71.430	-0.051	-0.053
-746.185	44.473	0.205	0.191
-745.171	49.838	-0.219	-0.209
-744.156	-80.844	0.328	0.110
-743.142	800.000	0.075	0.318
-742.127	-133.324	-0.644	-0.082
-741.112	-43.179	0.380	0.195
-740.098	-91.718	-0.505	-0.145
-739.083	-119.278	1.028	0.181
-738.069	-26.225	0.472	-0.281
-737.054	800.000	0.076	0.265
-736.039	250.204	-0.437	-0.751
-735.025	-16.020	0.202	0.130
-734.010	800.000	-0.122	-0.425
-732.996	-200.000	0.080	0.547
-731.981	-71.248	0.338	0.128
-730.966	-74.942	0.123	0.045
-729.952	-9.185	0.627	0.424
-728.937	-96.100	-0.399	-0.107
-727.923	-200.000	0.029	0.271
-726.908	-132.315	-0.207	0.027
-725.894	65.375	0.363	-0.372
-724.879	800.000	-0.054	-0.180
-723.864	11.660	-0.462	0.358
-722.850	89.238	-0.223	-0.251
-721.835	81.103	-0.385	0.420
-720.821	-77.819	-0.829	0.290
-719.806	-141.672	0.587	0.060
-718.791	3.984	0.403	-0.298
-717.777	366.367	0.125	-0.254
-716.762	95.864	0.333	-0.384
-715.748	12.357	0.279	-0.217
-714.733	300.929	0.125	0.234
-713.718	-33.726	0.666	-0.371
-712.704	79.854	0.221	0.240
-711.689	738.319	0.193	-0.524
-710.675	11.334	-0.267	-0.207
-709.660	362.705	-0.240	0.487
-708.645	-200.000	0.018	0.208
-707.631	278.764	0.137	-0.246
-706.616	-40.758	-0.491	0.257
-705.602	101.933	0.356	-0.420
-704.587	-200.000	0.033	-0.328
-703.572	339.956	-0.534	1.054
-702.558	-61.615	-0.163	0.069
-701.543	-200.000	0.227	0.001
-700.529	-200.000	-0.009	0.108
-699.514	339.278	0.408	-0.803
-698.499	-130.387	0.505	0.069
-697.485	-63.573	-0.535	0.222
-696.470	-1.796	-0.172	0.122
-695.456	-128.341	0.488	-0.070
-694.441	47.798	0.542	-0.511
-693.426	-200.000	-0.006	0.282
-692.412	16.895	-0.521	0.417
-691.397	358.274	-0.279	0.563
-690.383	-200.000	-0.079	0.526
-689.368	70.037	0.259	0.270
-688.354	-9.513	0.269	-0.181
-687.339	-102.883	-0.338	-0.081
-686.324	234.474	0.265	0.442
-685.310	-200.000	0.093	0.971
-684.295	209.126	-0.211	0.334
-683.281	205.941	0.400	0.629
-682.266	34.746	0.358	0.316
-681.251	73.860	0.459	0.486
-680.237	-200.000	-0.012	0.583
-679.222	-75.897	-0.264	0.095
-678.208	-152.362	-0.484	0.035
-677.193	-200.000	0.068	0.560
-676.178	800.000	-0.144	-0.564
-675.164	36.360	0.415	-0.370
-674.149	125.959	-0.352	0.449
-673.135	67.496	-0.312	0.322
-672.120	-65.744	-0.159	0.064
-671.105	281.842	0.204	0.369
-670.091	-161.182	0.235	0.012
-669.076	-98.193	-0.654	-0.170
-668.062	-200.000	0.054	-0.432
-667.047	76.240	0.354	-0.378
-666.032	-200.000	-0.201	-1.217
-665.018	800.000	-0.099	0.364
-664.003	237.779	-0.125	0.209
-662.989	-8.325	0.405	0.275
-661.974	67.057	-0.482	-0.495
-660.959	-200.000	0.004	-0.389
-659.945	34.363	0.399	0.352
-658.930	-157.064	-0.653	-0.040
-657.916	106.308	-0.414	0.494
-656.901	-140.948	-0.301	0.031
-655.886	75.075	-0.143	-0.152
-654.872	-200.000	-0.013	0.076
-653.857	-191.664	0.432	-0.004
-652.843	-200.000	0.153	-0.767
-651.828	148.764	0.677	0.923
-650.814	-101.963	0.579	0.141
-649.799	107.088	-0.565	0.677
-648.784	800.000	-0.037	-0.122
-647.770	-200.000	-0.038	-0.519
-646.755	-200.000	-0.020	0.606
-645.741	800.000	-0.081	0.254
-644.726	-145.548	0.339	-0.031
-643.711	-78.044	-0.830	0.288
-642.697	102.039	0.489	0.576
-641.682	-175.649	0.155	-0.004
-640.668	-95.095	-0.943	0.257
-639.653	-200.000	-0.137	-0.696
-638.638	23.171	-0.215	-0.178
-637.624	-141.912	-0.570	0.057
-636.609	61.702	-0.644	-0.646
-635.595	-32.580	0.874	-0.491
-634.580	3.237	0.445	-0.326
-633.565	153.182	0.215	0.297
-632.551	-200.000	0.050	-0.266
-631.536	-15.888	-0.447	-0.287
-630.522	142.398	0.442	-0.592
-629.507	501.808	0.157	-0.366
-628.492	-52.970	-0.474	-0.220
-627.478	-91.372	0.446	-0.128
-626.463	217.391	-0.209	0.335
-625.449	800.000	0.055	-0.155
-624.434	-43.832	0.285	0.144
-623.419	318.736	-0.324	0.618
-622.405	267.084	0.514	-0.905
-621.390	-171.847	0.359	0.012
-620.376	313.260	0.334	-0.633
-619.361	-86.971	-1.253	-0.385
-618.346	-200.000	0.034	0.233
-617.332	49.673	0.049	-0.046
-616.317	20.954	0.186	-0.152
-615.303	-200.000	0.010	-0.220
-614.288	73.343	0.039	0.041
-613.273	7.065	-0.324	0.243
-612.259	60.840	-0.359	0.358
-611.244	365.425	-0.517	1.049
-610.230	-200.000	0.114	0.643
-609.215	-102.929	-0.082	0.020
-608.201	100.167	-0.116	-0.135
-607.186	-87.267	0.094	0.029
-606.171	-200.000	-0.002	-0.470
-605.157	-18.724	0.757	-0.475
-604.142	-72.154	0.250	0.093
-603.128	-13.473	0.501	0.327
-602.113	-200.000	0.156	-0.703
-601.098	-113.525	-0.316	0.062
-600.084	158.116	0.120	-0.167
-599.069	203.026	0.389	-0.606
-598.055	-200.000	0.033	0.912
-597.040	-3.497	0.675	0.473
-596.025	382.286	0.272	-0.563
-595.011	-38.187	0.113	0.060
-593.996	287.645	0.098	0.178
-592.982	800.000	0.213	0.728
-591.967	-146.071	-0.260	-0.023
-590.952	-48.608	-0.701	0.339
-589.938	60.262	0.807	0.804
-588.923	7.122	0.396	0.297
-587.909	21.610	0.654	-0.535
-586.894	373.697	0.165	0.338
-585.879	186.643	-0.181	0.272
-584.865	-63.810	-0.314	-0.130
-583.850	-200.000	0.061	-0.809
-582.836	242.404	-0.051	0.086
-581.821	800.000	0.249	0.753
-580.806	-5.347	0.490	0.339
-579.792	178.345	-0.230	0.338
-578.777	103.372	-0.388	0.458
-577.763	-194.934	-0.434	-0.003
-576.748	-62.824	-0.708	-0.295
-575.733	527.571	-0.256	-0.608
-574.719	-45.036	-0.680	-0.340
-573.704	-175.042	-0.396	0.011
-572.690	800.000	-0.073	0.296
-571.675	-44.569	-0.724	-0.364
-570.661	140.343	0.247	-0.328
-569.646	-200.000	0.015	0.073
-568.631	-12.446	0.595	0.391
-567.617	113.880	0.530	-0.648
-566.602	-118.693	0.633	0.112
-565.588	30.564	-0.283	-0.243
-564.573	231.886	-0.118	0.195
-563.558	-133.233	-0.677	-0.086
-562.544	-106.596	0.459	-0.103
-561.529	78.685	0.180	0.193
-560.515	87.669	0.255	0.283
-559.500	-200.000	0.126	0.769
-558.485	-105.238	-0.341	0.078
-557.471	-200.000	0.089	1.038
-556.456	-53.816	-0.252	-0.116
-555.442	-4.264	1.070	0.744
-554.427	-126.314	0.653	-0.098
-553.412	-200.000	-0.165	0.790
-552.398	373.599	0.311	0.635
-551.383	50.330	0.593	-0.563
-550.369	-18.604	0.643	-0.403
-549.354	-38.885	-0.503	0.266
-548.339	307.319	0.272	-0.510
-547.325	-117.250	-0.267	0.049
-546.310	18.701	-0.974	0.783
-545.296	487.865	0.270	0.619
-544.281	-200.000	-0.063	0.305
-543.266	-57.857	0.658	0.289
-542.252	13.350	-0.090	-0.070
-541.237	-50.294	-0.422	0.200
-540.223	40.237	-0.349	0.315
-539.208	-160.955	1.106	0.058
-538.193	-26.558	-1.193	-0.702
-537.179	-200.000	0.040	0.285
-536.164	532.728	-0.154	0.367
-535.150	223.699	-0.609	0.987
-534.135	-200.000	0.077	0.501
-533.121	-150.738	0.556	0.042
-532.106	201.354	0.147	-0.227
-531.091	-200.000	-0.017	0.225
-530.077	-48.730	-0.238	-0.114
-529.062	223.598	-0.210	0.341
-528.048	173.417	0.547	0.792
-527.033	184.956	0.329	-0.490
-526.018	283.595	-0.411	0.741
-525.004	217.278	-0.151	-0.241
-523.989	-200.000	-0.018	-0.381
-522.975	313.947	-0.101	0.190
-521.960	-146.604	-0.228	0.020
-520.945	266.082	-0.289	0.506
-519.931	-11.295	-0.172	-0.114
-518.916	800.000	-0.305	0.858
-517.902	-130.527	0.537	0.073
-516.887	128.267	-0.242	-0.309
-515.872	366.430	-0.046	0.094
-514.858	-117.387	1.078	-0.196
-513.843	-200.000	-0.058	-0.631
-512.829	-60.708	0.618	0.263
-511.814	126.582	0.627	0.796
-510.799	800.000	0.083	0.343
-509.785	-200.000	0.026	0.146
-508.770	-180.049	-0.304	-0.006
-507.756	126.093	-0.184	-0.233
-506.741	-40.968	-0.261	-0.135
-505.726	106.501	-0.170	-0.202
-504.712	-115.115	-0.306	0.058
-503.697	-132.567	0.355	0.046
-502.683	356.858	-0.184	0.368
-501.668	-200.000	0.041	0.799
-500.653	-156.010	-0.830	-0.053
-499.639	-145.248	0.293	0.027
-498.624	-72.142	-0.148	-0.055
-497.610	544.554	0.153	0.367
-496.595	-200.000	0.076	0.343
-495.581	-200.000	-0.202	0.974
-494.566	258.850	-0.232	0.401
-493.551	-200.000	-0.117	0.758
-492.537	-200.000	0.022	-0.444
-491.522	19.597	0.323	-0.260
-490.508	669.430	-0.166	-0.431
-489.493	-200.000	0.005	-0.656
-488.478	241.124	-0.234	-0.392
-487.464	-8.204	0.433	-0.292
-486.449	112.379	-0.266	0.322
-485.435	-54.809	0.340	-0.154
-484.420	56.281	0.157	0.152
-483.405	43.652	0.635	-0.582
-482.391	-200.000	0.213	-0.984
-481.376	214.853	0.301	-0.479
-480.362	-81.595	1.065	0.351
-479.347	-90.685	0.644	0.186
-478.332	-91.547	-0.393	0.112
-477.318	548.142	-0.216	0.519
-476.303	-10.239	-0.386	0.256
-475.289	216.541	-0.621	-0.990
-474.274	-38.446	-0.171	0.091
-473.259	-95.115	0.412	-0.111
-472.245	-200.000	0.069	-1.108
-471.230	-30.912	0.367	-0.207
-470.216	-200.000	-0.049	-0.731
-469.201	-56.788	-0.803	0.356
-468.186	-152.201	0.399	-0.029
-467.172	-22.896	0.293	-0.177
-466.157	305.831	-0.199	-0.370
-465.143	115.143	-0.402	0.491
-464.128	1.612	0.537	0.387
-463.113	800.000	0.100	-0.399
-462.099	800.000	-0.341	-0.989
-461.084	2.434	0.262	-0.190
-460.070	-68.604	0.205	-0.079
-459.055	-51.063	-0.106	-0.050
-458.040	-133.099	0.598	-0.076
-457.026	297.659	-0.359	-0.660
-456.011	149.742	-0.222	-0.301
-454.997	131.453	-0.152	-0.195
-453.982	-133.723	-0.832	0.104
-452.968	-116.881	0.597	0.109
-451.953	53.590	-0.512	-0.492
-450.938	101.914	0.165	-0.192
-449.924	734.831	0.187	0.500
-448.909	-200.000	0.023	-0.521
-447.895	-170.165	0.904	0.032
-446.880	593.656	-0.253	0.627
-445.865	-200.000	-0.006	0.481
-444.851	-21.941	-0.474	-0.288
-443.836	-200.000	0.080	0.982
-442.822	339.101	0.136	0.266
-441.807	796.392	0.243	0.671
-440.792	-93.954	0.860	-0.236
-439.778	-200.000	0.027	0.401
-438.763	176.268	0.110	-0.160
-437.749	106.143	0.397	-0.471
-436.734	547.693	-0.150	-0.360
-435.719	-127.008	-0.280	-0.041
-434.705	-54.538	-0.614	0.278
-433.690	-97.635	0.293	0.076
-432.676	-154.634	1.100	-0.073
-431.661	39.584	0.796	0.714
-430.646	532.185	-0.130	0.308
-429.632	-86.440	-0.400	-0.123
-428.617	-136.090	0.124	0.015
-427.603	-200.000	-0.436	-0.001
-426.588	-47.953	0.157	0.076
-425.573	-200.000	-0.007	-0.719
-424.559	172.941	0.447	-0.644
-423.544	80.766	0.350	0.377
-422.530	213.754	0.413	-0.652
-421.515	-41.792	-1.188	0.609
-420.500	182.080	-0.127	0.186
-419.486	117.915	0.454	0.559
-418.471	-161.215	0.800	-0.042
-417.457	-99.069	-0.928	-0.235
-416.442	345.710	-0.193	-0.379
-415.428	249.028	-0.303	0.514
-414.413	418.118	-0.187	-0.400
-413.398	234.300	-0.216	-0.356
-412.384	710.516	0.206	0.545
-411.369	674.432	-0.212	-0.549
-410.355	-67.083	-0.745	-0.294
-409.340	-2.481	0.172	-0.121
-408.325	257.498	0.151	0.260
-407.311	498.745	-0.203	-0.467
-406.296	-174.929	-0.266	-0.007
-405.282	-94.123	0.498	-0.136
-404.267	-83.501	0.475	0.152
-403.252	179.292	0.318	0.465
-402.238	-200.000	-0.001	-0.164
-401.223	-144.589	-0.423	0.039
-400.209	571.316	-0.309	-0.751
-399.194	180.541	-0.273	0.401
-398.179	411.339	-0.267	-0.566
-397.165	800.000	0.149	0.463
-396.150	-73.705	0.464	-0.169
-395.136	-41.713	-0.569	-0.292
-394.121	-48.575	-0.082	0.040
-393.106	-110.041	0.086	-0.018
-392.092	-39.890	-0.583	-0.304
-391.077	469.289	-0.119	-0.266
-390.063	-91.364	0.498	0.142
-389.048	-131.851	0.390	0.051
-388.033	54.080	-0.219	0.210
-387.019	-74.409	0.859	0.309
-386.004	800.000	-0.044	0.154
-384.990	243.068	-0.158	0.265
-383.975	114.816	-0.124	-0.150
-382.960	8.551	-0.889	0.668
-381.946	-131.048	-0.257	-0.034
-380.931	-10.378	0.383	0.253
-379.917	221.577	-0.183	-0.293
-378.902	206.293	0.153	-0.237
-377.888	800.000	-0.296	0.985
-376.873	-200.000	0.088	-0.529
-375.858	-200.000	-0.138	-0.825
-374.844	-73.612	0.178	0.065
-373.829	-200.000	0.190	0.947
-372.815	-200.000	0.003	0.014
-371.800	136.836	0.269	0.351
-370.785	-114.079	-0.565	0.109
-369.771	-120.388	-1.015	-0.172
-368.756	-133.749	-0.702	-0.087
-367.742	111.055	0.431	-0.517
-366.727	183.166	0.293	0.432
-365.712	800.000	-0.324	1.007
-364.698	-41.273	0.628	0.323
-363.683	503.255	0.307	0.708
-362.669	-200.000	-0.014	-0.184
-361.654	-161.478	0.489	-0.025
-360.639	369.029	0.241	-0.487
-359.625	-7.320	-0.634	0.428
-358.610	800.000	0.057	-0.190
-357.596	163.653	-0.452	-0.634
-356.581	-132.204	0.725	0.094
-355.566	5.002	0.667	-0.489
-354.552	208.362	-0.191	-0.298
-353.537	-57.563	-0.411	0.180
-352.523	28.797	0.203	0.172
-351.508	-47.458	-1.146	-0.555
-350.493	216.149	-0.308	-0.489
-349.479	607.849	-0.227	-0.565
-348.464	-200.000	-0.021	0.403
-347.450	309.747	0.397	-0.740
-346.435	-200.000	0.059	-0.482
-345.420	377.431	0.098	-0.200
-344.406	412.502	0.242	-0.513
-343.391	58.446	0.275	0.269
-342.377	94.879	0.158	0.179
-341.362	-200.000	0.082	-0.452
-340.348	-200.000	0.087	-0.389
-339.333	-54.105	0.494	0.224
-338.318	-1.689	-0.647	-0.454
-337.304	239.137	-0.162	0.269
-336.289	-17.376	0.350	-0.219
-335.275	800.000	0.159	0.507
-334.260	-200.000	0.147	0.716
-333.245	-137.389	0.677	0.076
-332.231	-200.000	0.058	-0.339
-331.216	-96.087	-0.427	0.113
-330.202	12.349	-0.177	-0.136
-329.187	-30.327	-0.312	-0.176
-328.172	-200.000	-0.018	-0.123
-327.158	6.634	0.468	0.347
-326.143	-10.045	0.396	0.262
-325.129	-91.679	-0.486	-0.138
-324.114	-200.000	0.008	0.326
-323.099	162.207	0.123	0.172
-322.085	36.359	0.509	-0.447
-321.070	184.404	0.783	-1.155
-320.056	800.000	0.014	-0.045
-319.041	-200.000	-0.009	-0.260
-318.026	800.000	0.302	-1.150
-317.012	-17.358	-0.453	-0.284
-315.997	-110.948	0.386	0.079
-314.983	-200.000	0.043	-1.100
-313.968	-33.456	0.475	0.261
-312.953	-45.084	1.081	-0.535
-311.939	152.427	-0.556	0.755
-310.924	374.008	0.293	0.594
-309.910	-200.000	0.145	0.636
-308.895	53.173	-0.659	-0.628
-307.880	-189.071	-0.907	-0.011
-306.866	-200.000	-0.010	0.226
-305.851	800.000	0.125	0.540
-304.837	91.755	-0.481	0.539
-303.822	-3.615	-0.427	-0.295
-302.807	-100.279	0.671	-0.166
-301.793	124.100	-0.234	-0.292
-300.778	800.000	-0.291	-0.911
-299.764	37.751	-0.387	0.342
-298.749	-81.217	0.252	0.083
-297.735	84.988	0.270	-0.294
-296.720	534.698	0.179	0.422
-295.705	-110.682	-0.323	-0.066
-294.691	552.210	0.318	0.761
-293.676	-200.000	0.050	-0.413
-292.662	-92.388	-0.578	0.162
-291.647	-107.916	0.540	0.117
-290.632	-200.000	0.057	0.440
-289.618	-200.000	0.007	-0.126
-288.603	574.048	-0.052	-0.127
-287.589	113.773	-0.664	-0.802
-286.574	800.000	0.226	0.624
-285.559	800.000	0.129	-0.497
-284.545	-200.000	-0.032	-0.750
-283.530	-45.722	0.764	-0.375
-282.516	439.434	-0.405	0.879
-281.501	30.734	-0.579	0.492
-280.486	-180.641	-0.354	-0.007
-279.472	-87.129	-0.490	0.148
-278.457	-18.703	-0.576	-0.357
-277.443	-2.324	-0.582	-0.406
-276.428	-16.605	-0.222	0.140
-275.413	-9.907	0.980	-0.648
-274.399	800.000	0.020	0.056
-273.384	64.621	0.328	-0.329
-272.370	-126.491	-0.780	0.115
-271.355	-200.000	0.011	0.059
-270.340	532.058	-0.242	0.569
-269.326	-200.000	0.029	-0.680
-268.311	24.686	0.430	-0.354
-267.297	475.065	0.398	0.892
-266.282	332.901	-0.065	0.126
-265.267	-134.200	-0.168	-0.021
-264.253	-15.731	0.290	0.184
-263.238	-200.000	-0.116	0.504
-262.224	-25.276	0.224	-0.132
-261.209	-16.780	-0.697	0.438
-260.195	21.142	-0.696	-0.561
-259.180	-43.356	-0.445	-0.223
-258.165	63.733	0.240	0.240
-257.151	-73.715	-0.469	-0.169
-256.136	-175.605	-0.373	0.010
-255.122	-200.000	-0.139	0.983
-254.107	158.844	0.376	0.518
-253.092	287.926	0.587	1.055
-252.078	498.331	-0.250	-0.573
-251.063	-69.409	-0.849	-0.323
-250.049	-130.875	0.395	0.053
-249.034	177.204	-0.271	0.392
-248.019	641.886	-0.296	-0.749
-247.005	-133.624	-0.818	-0.102
-245.990	-200.000	-0.006	-0.631
-244.976	-95.728	-0.200	0.053
-243.961	57.796	-0.061	-0.059
-242.946	66.462	0.352	-0.355
-241.932	499.042	0.212	0.485
-240.917	-16.962	-0.266	0.167
-239.903	-200.000	0.110	0.699
-238.888	-102.405	0.552	-0.131
-237.873	-7.992	0.618	0.414
-236.859	68.718	-0.494	0.503
-235.844	79.011	-0.570	0.606
-234.830	-124.625	0.406	-0.062
-233.815	88.623	-0.578	0.637
-232.800	304.505	-0.063	0.115
-231.786	461.041	0.159	0.352
-230.771	75.678	0.395	0.414
-229.757	800.000	0.134	0.382
-228.742	-200.000	-0.012	0.114
-227.727	148.573	-0.497	-0.666
-226.713	61.421	-0.220	0.217
-225.698	675.712	-0.100	0.257
-224.684	800.000	-0.211	-0.814
-223.669	52.675	-0.044	0.041
-222.655	-25.706	-0.243	-0.142
-221.640	140.581	-0.419	0.549
-220.625	-200.000	0.042	-0.278
-219.611	149.335	0.074	-0.099
-218.596	254.822	0.358	0.608
-217.582	-117.357	-0.220	0.040
-216.567	1.233	0.494	0.352
-215.552	800.000	0.164	-0.472
-214.538	84.658	0.173	-0.188
-213.523	15.195	-0.382	0.297
-212.509	-200.000	-0.045	-0.256
-211.494	382.558	-0.204	0.416
-210.479	800.000	0.232	0.687
-209.465	561.288	-0.083	-0.199
-208.450	-200.000	-0.002	-0.865
-207.436	-200.000	-0.106	1.099
-206.421	-98.743	0.711	0.179
-205.406	173.512	-0.136	-0.194
-204.392	275.169	-0.218	-0.382
-203.377	-2.620	0.620	-0.430
-202.363	-200.000	-0.029	-1.131
-201.348	577.150	0.167	0.404
-200.333	161.219	-0.709	0.982
-199.319	-113.110	-0.723	0.141
-198.304	130.656	-0.109	0.139
-197.290	53.807	0.538	-0.512
-196.275	-200.000	0.095	-0.607
-195.260	-48.041	0.744	0.356
-194.246	800.000	-0.069	0.196
-193.231	685.446	0.233	0.604
-192.217	509.104	-0.397	-0.913
-191.202	-112.464	-0.291	0.058
-190.187	476.560	-0.247	0.552
-189.173	-200.000	0.795	-0.004
-188.158	800.000	-0.151	-0.529
-187.144	133.503	0.398	-0.510
-186.129	178.360	0.143	-0.206
-185.114	-161.056	-0.496	0.026
-184.100	458.323	-0.248	-0.545
-183.085	173.458	0.309	-0.442
-182.071	-129.477	0.571	-0.078
-181.056	782.803	0.211	-0.572
-180.042	88.073	0.267	-0.293
-179.027	165.046	-0.201	-0.281
-178.012	-35.783	0.787	0.422
-176.998	18.654	-0.279	-0.221
-175.983	363.149	-0.476	0.948
-174.969	-200.000	0.108	-1.198
-173.954	-200.000	-0.023	0.563
-172.939	-18.726	-0.821	-0.507
-171.925	-200.000	-0.009	0.484
-170.910	-73.174	0.276	-0.100
-169.896	397.284	0.558	-1.154
-168.881	118.366	0.249	-0.303
-167.866	415.972	-0.294	-0.621
-166.852	240.622	0.227	0.375
-165.837	-168.222	0.428	-0.016
-164.823	-127.291	0.971	0.140
-163.808	-88.499	-0.458	-0.135
-162.793	304.586	-0.130	-0.240
-161.779	353.333	-0.101	0.198
-160.764	-98.075	0.267	0.068
-159.750	-57.841	-0.512	-0.222
-158.735	-60.303	-0.412	0.173
-157.720	-200.000	0.068	-0.370
-156.706	-69.839	-0.187	0.071
-155.691	-200.000	-0.021	-0.404
-154.677	-61.496	-0.402	0.167
-153.662	800.000	-0.202	-0.559
-152.647	174.362	-0.567	-0.811
-151.633	248.849	0.189	-0.316
-150.618	-107.765	0.413	-0.089
-149.604	83.508	0.529	-0.570
-148.589	433.322	0.183	0.392
-147.574	-200.000	0.003	0.502
-146.560	221.942	0.186	0.295
-145.545	-14.605	1.015	-0.645
-144.531	-61.802	0.792	-0.328
-143.516	71.640	-0.311	-0.320
-142.502	-135.414	0.242	0.029
-141.487	-57.458	0.905	0.393
-140.472	433.050	-0.280	-0.600
-139.458	-24.565	0.253	-0.149
-138.443	800.000	0.099	-0.354
-137.429	321.607	-0.132	0.249
-136.414	-200.000	0.072	0.487
-135.399	325.751	0.295	0.558
-134.385	-200.000	0.006	-0.283
-133.370	475.654	0.253	0.565
-132.356	415.769	-0.381	-0.803
-131.341	21.312	0.608	-0.489
-130.326	-132.210	0.877	-0.112
-129.312	-156.077	0.481	-0.030
-128.297	-44.171	-0.410	-0.204
-127.283	530.291	0.237	-0.553
-126.268	445.573	-0.264	-0.573
-125.253	-41.684	-0.740	0.376
-124.239	-135.817	0.548	0.064
-123.224	-147.656	0.530	-0.044
-122.210	-200.000	-0.107	-0.798
-121.195	-200.000	-0.003	0.746
