DTS Sentinel unit serial number:	SN413079Multiplexer serial number:	ORYXHardware model number:	OX4-SRSoftware version number:	ORYX F/W v4.00 Oryx Data Collector v3.7.2.0data status	okinstallation	princeton_trtdifferential loss correction	single-endedforward channel	channel 1reverse channel	N/Adate	2019/09/14time	01:14:35forward acquisition time	60.00reverse acquisition time	0.00gamma	496.2192k internal	0.2336k external	0.2336temperature offset calibration	1.0080default loss term (dB/km)	0.3790temperature slope calibration	1.0000multiplexer offset coefficient	1.0000multiplexer slope coefficient	1.0000fibre end	0.00T internal ref (°C)	26.37T ext. ref 1 (°C)	3.18T ext. ref 2 (°C)	21.37length (m)	temperature (°C)	Stokes	anti-Stokes-747.200	-113.818	0.232	0.045
-746.185	-91.090	-0.281	-0.081
-745.171	-39.064	0.193	-0.102
-744.156	652.425	-0.127	0.327
-743.142	11.706	-0.114	-0.088
-742.127	80.668	0.012	-0.012
-741.112	25.338	0.297	-0.248
-740.098	-38.590	0.182	0.096
-739.083	800.000	-0.077	-0.318
-738.069	-89.345	-0.397	0.117
-737.054	-200.000	-0.033	0.162
-736.039	-94.241	-0.162	0.045
-735.025	-200.000	0.006	0.094
-734.010	-111.129	-0.096	-0.020
-732.996	-165.664	-0.256	-0.011
-731.981	-66.121	-0.233	-0.093
-730.966	667.347	0.101	-0.262
-729.952	207.951	-0.079	0.123
-728.937	516.362	-0.040	0.095
-727.923	216.942	-0.233	-0.373
-726.908	-97.121	-0.035	-0.009
-725.894	-152.844	-0.219	0.016
-724.879	-200.000	0.005	-0.141
-723.864	-0.797	-0.230	0.164
-722.850	2.978	0.067	0.049
-721.835	800.000	-0.086	0.255
-720.821	82.637	-0.092	0.100
-719.806	144.760	-0.100	-0.133
-718.791	-200.000	0.005	-0.025
-717.777	-200.000	0.055	-0.355
-716.762	800.000	0.062	-0.268
-715.748	800.000	-0.060	-0.179
-714.733	800.000	0.086	-0.291
-713.718	800.000	-0.058	-0.247
-712.704	-105.332	-0.309	-0.071
-711.689	104.401	-0.142	0.167
-710.675	-4.678	0.206	-0.142
-709.660	-200.000	-0.061	-0.438
-708.645	800.000	-0.122	0.382
-707.631	145.054	-0.163	0.219
-706.616	-200.000	-0.008	-0.401
-705.602	-11.753	-0.258	-0.170
-704.587	-103.813	0.332	0.078
-703.572	800.000	0.118	-0.390
-702.558	-105.986	0.125	0.028
-701.543	-142.639	-0.213	-0.021
-700.529	-87.510	-0.501	-0.152
-699.514	282.277	-0.164	0.294
-698.499	-51.056	0.154	-0.072
-697.485	-48.942	0.044	-0.021
-696.470	320.546	0.118	-0.224
-695.456	0.094	-0.176	0.126
-694.441	-148.541	0.258	-0.021
-693.426	-158.601	0.054	0.003
-692.412	-131.230	0.376	-0.050
-691.397	-50.412	-0.281	0.133
-690.383	316.286	-0.058	-0.109
-689.368	-200.000	0.047	0.212
-688.354	-181.296	-0.150	0.003
-687.339	-200.000	-0.006	-0.046
-686.324	203.515	-0.075	-0.117
-685.310	289.435	0.303	0.551
-684.295	-40.903	-0.401	-0.208
-683.281	-26.132	0.314	-0.185
-682.266	-200.000	-0.036	-0.194
-681.251	-120.538	-0.131	-0.022
-680.237	-39.909	-0.096	0.050
-679.222	-73.401	0.064	-0.023
-678.208	-71.480	-0.231	-0.087
-677.193	189.491	-0.139	0.209
-676.178	23.690	0.159	0.131
-675.164	-92.124	0.125	0.035
-674.149	-80.799	-0.423	-0.141
-673.135	-174.984	0.138	-0.004
-672.120	-22.906	0.169	0.102
-671.105	800.000	0.093	0.312
-670.091	285.790	0.123	-0.222
-669.076	546.714	-0.045	-0.109
-668.062	9.648	-0.163	0.124
-667.047	-200.000	0.005	-0.160
-666.032	-22.459	-0.368	-0.223
-665.018	267.271	-0.063	0.110
-664.003	-102.105	-0.048	0.012
-662.989	23.833	0.181	-0.150
-661.974	-101.138	0.230	0.056
-660.959	-81.050	0.114	-0.038
-659.945	-53.924	0.209	-0.095
-658.930	-60.301	-0.296	0.126
-657.916	586.196	-0.039	0.096
-656.901	800.000	0.080	0.316
-655.886	-153.083	-0.258	0.018
-654.872	-76.053	-0.184	-0.065
-653.857	-105.224	-0.121	0.028
-652.843	-59.293	0.201	0.087
-651.828	-95.110	-0.183	-0.049
-650.814	-16.068	-0.159	0.101
-649.799	-74.088	-0.200	-0.072
-648.784	-200.000	0.026	0.290
-647.770	441.552	0.045	-0.099
-646.755	-200.000	0.191	0.001
-645.741	705.397	-0.045	-0.118
-644.726	-125.976	-0.314	0.047
-643.711	130.043	0.027	-0.035
-642.697	-66.068	-0.198	-0.079
-641.682	22.210	0.315	-0.257
-640.668	672.483	-0.118	0.306
-639.653	134.386	-0.055	0.072
-638.638	29.278	-0.159	0.135
-637.624	76.330	0.071	0.075
-636.609	288.131	-0.060	0.109
-635.595	-96.222	0.523	0.139
-634.580	-149.462	-0.135	0.011
-633.565	-124.454	0.126	0.020
-632.551	800.000	0.016	-0.059
-631.536	-200.000	-0.059	-0.279
-630.522	-200.000	0.044	0.336
-629.507	-22.754	-0.210	0.127
-628.492	230.405	-0.077	0.126
-627.478	800.000	0.076	-0.293
-626.463	-119.074	-0.094	-0.016
-625.449	-200.000	0.044	-0.234
-624.434	-52.602	0.117	0.054
-623.419	-105.785	0.167	0.038
-622.405	-11.635	0.262	0.172
-621.390	-23.913	-0.172	0.103
-620.376	-137.899	0.145	-0.016
-619.361	18.705	0.148	-0.118
-618.346	308.736	0.126	-0.235
-617.332	-1.386	-0.047	-0.033
-616.317	5.569	0.127	-0.094
-615.303	-138.843	-0.221	0.024
-614.288	-35.174	-0.092	0.050
-613.273	-79.230	-0.323	-0.109
-612.259	7.366	0.193	0.144
-611.244	482.111	0.086	-0.196
-610.230	-45.754	-0.276	0.136
-609.215	-200.000	-0.037	-0.227
-608.201	-200.000	-0.018	-0.094
-607.186	653.996	-0.128	-0.327
-606.171	-200.000	-0.001	0.216
-605.157	463.790	-0.034	-0.076
-604.142	264.084	0.177	0.307
-603.128	800.000	-0.136	-0.442
-602.113	418.711	0.066	-0.142
-601.098	609.699	0.104	0.258
-600.084	86.632	0.128	0.141
-599.069	-200.000	0.004	-0.421
-598.055	439.677	-0.155	-0.338
-597.040	40.515	0.268	-0.241
-596.025	-113.437	-0.268	-0.052
-595.011	-69.868	-0.226	-0.086
-593.996	16.365	-0.089	-0.070
-592.982	-200.000	0.053	0.353
-591.967	-114.017	0.229	0.044
-590.952	800.000	0.016	-0.049
-589.938	135.832	0.214	-0.278
-588.923	-95.285	-0.113	-0.030
-587.909	800.000	0.038	-0.142
-586.894	369.830	-0.085	-0.172
-585.879	36.123	-0.100	0.088
-584.865	800.000	-0.058	-0.219
-583.850	-200.000	0.020	-0.240
-582.836	-114.210	0.408	-0.079
-581.821	70.924	0.139	0.143
-580.806	-200.000	-0.016	0.317
-579.792	54.989	0.317	0.305
-578.777	800.000	0.093	0.380
-577.763	330.201	-0.093	0.179
-576.748	-73.369	0.217	-0.079
-575.733	-17.777	0.240	-0.150
-574.719	278.509	0.076	0.136
-573.704	97.594	-0.141	0.161
-572.690	81.929	-0.128	-0.139
-571.675	-200.000	-0.027	-0.313
-570.661	-182.932	-0.199	0.004
-569.646	259.796	-0.116	-0.200
-568.631	-167.527	-0.160	-0.006
-567.617	110.283	-0.083	-0.099
-566.602	-200.000	0.013	-0.163
-565.588	-200.000	-0.043	-0.266
-564.573	740.651	0.057	-0.153
-563.558	-200.000	-0.047	-0.385
-562.544	139.548	0.032	-0.042
-561.529	561.532	0.157	-0.380
-560.515	139.489	-0.040	0.052
-559.500	-133.631	-0.417	-0.052
-558.485	-187.868	-0.251	0.003
-557.471	-200.000	-0.037	0.187
-556.456	-112.373	0.268	0.053
-555.442	121.475	-0.195	-0.242
-554.427	-85.632	-0.271	-0.084
-553.412	418.602	-0.029	-0.063
-552.398	-84.427	-0.284	-0.090
-551.383	511.775	0.048	-0.111
-550.369	21.988	0.252	-0.205
-549.354	93.907	0.125	0.141
-548.339	800.000	-0.045	0.152
-547.325	71.861	0.210	-0.218
-546.310	-78.017	0.323	0.111
-545.296	257.968	0.093	0.159
-544.281	-75.725	-0.270	-0.096
-543.266	123.702	-0.228	0.284
-542.252	-45.980	0.083	0.041
-541.237	-98.755	0.338	0.086
-540.223	-125.309	0.235	0.036
-539.208	-200.000	0.027	-0.155
-538.193	-85.882	0.210	-0.065
-537.179	90.309	-0.098	-0.109
-536.164	-200.000	-0.024	0.126
-535.150	-200.000	-0.057	0.272
-534.135	800.000	-0.004	0.013
-533.121	21.526	-0.091	-0.074
-532.106	-37.235	0.188	-0.100
-531.091	-20.445	0.155	-0.095
-530.077	-62.322	0.252	-0.104
-529.062	522.878	0.100	0.233
-528.048	-18.985	0.025	-0.016
-527.033	800.000	-0.027	-0.090
-526.018	41.419	0.145	-0.130
-525.004	-25.829	-0.106	-0.062
-523.989	418.234	-0.117	0.249
-522.975	-67.649	0.291	-0.114
-521.960	-200.000	-0.026	0.255
-520.945	-193.944	-0.215	0.002
-519.931	-186.340	-0.414	-0.006
-518.916	108.481	0.136	0.162
-517.902	-200.000	-0.002	-0.041
-516.887	29.525	0.224	-0.190
-515.872	-69.698	0.079	-0.030
-514.858	413.030	0.052	0.111
-513.843	437.855	0.167	-0.362
-512.829	60.160	-0.152	0.149
-511.814	120.871	-0.108	0.134
-510.799	14.304	-0.310	-0.241
-509.785	-41.907	-0.355	-0.181
-508.770	62.881	-0.121	-0.121
-507.756	665.977	-0.116	-0.299
-506.741	-200.000	-0.001	-0.239
-505.726	-200.000	0.047	-0.234
-504.712	800.000	0.044	-0.134
-503.697	-200.000	0.028	-0.287
-502.683	267.819	-0.194	0.338
-501.668	153.844	0.193	0.263
-500.653	74.814	-0.185	0.193
-499.639	602.415	0.062	-0.154
-498.624	-133.152	0.333	0.042
-497.610	101.854	0.120	0.139
-496.595	-118.886	0.600	0.105
-495.581	-134.013	0.242	-0.030
-494.566	-2.723	-0.108	-0.075
-493.551	8.954	0.309	-0.232
-492.537	48.774	0.149	-0.139
-491.522	-63.507	-0.146	0.060
-490.508	370.998	0.052	-0.105
-489.493	800.000	-0.042	0.132
-488.478	-76.785	-0.476	0.166
-487.464	-139.869	-0.142	0.015
-486.449	-45.173	0.134	-0.066
-485.435	212.184	0.214	0.336
-484.420	98.583	0.064	0.074
-483.405	153.274	-0.139	0.190
-482.391	-130.719	-0.457	0.061
-481.376	10.920	-0.368	0.280
-480.362	217.354	0.136	0.216
-479.347	445.038	0.108	0.236
-478.332	72.967	0.083	0.086
-477.318	159.172	-0.188	0.260
-476.303	-25.705	0.117	0.068
-475.289	-58.260	-0.277	-0.120
-474.274	9.657	0.207	0.156
-473.259	-200.000	0.020	0.188
-472.245	-33.054	0.057	-0.031
-471.230	-200.000	0.005	0.109
-470.216	286.899	0.059	-0.107
-469.201	-11.201	-0.183	0.120
-468.186	-118.858	-0.321	0.056
-467.172	-200.000	-0.048	-0.222
-466.157	570.872	-0.166	-0.402
-465.143	86.289	0.177	0.193
-464.128	125.453	-0.064	-0.080
-463.113	-115.710	0.252	-0.047
-462.099	-200.000	-0.007	0.178
-461.084	374.420	-0.094	-0.190
-460.070	311.473	0.119	-0.221
-459.055	44.445	0.288	0.263
-458.040	482.825	0.095	0.214
-457.026	23.279	0.106	0.087
-456.011	14.324	0.208	-0.161
-454.997	21.471	-0.309	0.250
-453.982	296.780	-0.082	0.150
-452.968	-99.470	-0.418	0.104
-451.953	11.528	-0.069	0.053
-450.938	-140.737	-0.365	-0.037
-449.924	175.390	0.044	0.064
-448.909	-171.899	0.349	0.011
-447.895	-200.000	-0.008	-0.308
-446.880	436.784	0.040	-0.087
-445.865	-43.222	-0.372	-0.187
-444.851	259.688	-0.027	-0.047
-443.836	127.581	0.265	-0.334
-442.822	53.123	0.115	0.110
-441.807	-115.736	0.259	-0.048
-440.792	-74.888	0.402	-0.143
-439.778	196.208	0.071	-0.108
-438.763	476.934	0.078	-0.176
-437.749	-200.000	0.004	0.179
-436.734	-123.434	0.177	-0.028
-435.719	-133.701	-0.113	0.014
-434.705	-84.114	-0.152	0.048
-433.690	160.861	-0.118	-0.164
-432.676	-46.224	0.123	0.060
-431.661	-198.277	-0.231	-0.001
-430.646	-95.783	0.135	0.036
-429.632	-200.000	0.008	-0.205
-428.617	8.820	-0.229	-0.171
-427.603	-38.466	-0.122	-0.064
-426.588	-92.361	-0.221	0.062
-425.573	163.856	0.304	0.425
-424.559	-146.912	0.259	0.022
-423.544	14.045	-0.041	-0.032
-422.530	-38.699	-0.475	-0.249
-421.515	-93.210	0.315	-0.087
-420.500	768.904	-0.046	-0.124
-419.486	62.505	-0.166	-0.164
-418.471	-20.135	0.171	-0.104
-417.457	800.000	-0.051	0.157
-416.442	-92.670	-0.311	0.086
-415.428	-119.082	-0.235	-0.041
-414.413	-118.645	0.366	0.064
-413.398	-200.000	-0.009	-0.220
-412.384	130.713	-0.181	0.231
-411.369	-200.000	-0.072	0.477
-410.355	800.000	-0.060	-0.242
-409.340	-79.478	-0.191	-0.064
-408.325	63.364	-0.158	0.157
-407.311	-200.000	-0.004	0.023
-406.296	125.521	0.046	0.057
-405.282	26.717	-0.174	0.144
-404.267	62.216	0.060	-0.060
-403.252	800.000	-0.100	0.361
-402.238	-190.148	-0.391	0.004
-401.223	434.958	0.035	-0.076
-400.209	800.000	-0.033	0.111
-399.194	-87.927	-0.488	0.146
-398.179	-91.326	-0.250	-0.071
-397.165	-85.639	0.399	-0.123
-396.150	286.151	0.082	0.146
-395.136	-48.107	-0.119	0.057
-394.121	-200.000	-0.024	0.122
-393.106	48.209	0.060	-0.056
-392.092	-82.710	-0.094	-0.030
-391.077	-102.004	0.271	-0.065
-390.063	-133.436	-0.208	-0.026
-389.048	64.095	0.186	0.185
-388.033	-62.001	0.092	0.038
-387.019	545.623	-0.085	0.202
-386.004	-104.679	0.106	-0.024
-384.990	184.996	-0.211	-0.310
-383.975	800.000	-0.100	-0.332
-382.960	260.225	-0.064	-0.110
-381.946	-152.415	0.259	0.018
-380.931	-123.099	-0.217	0.034
-379.917	6.148	-0.198	0.145
-378.902	800.000	0.068	0.255
-377.888	-51.817	-0.259	-0.119
-376.873	-91.064	0.512	-0.145
-375.858	-104.598	0.254	0.058
-374.844	-119.037	-0.063	0.011
-373.829	306.513	-0.086	-0.158
-372.815	-200.000	-0.055	0.293
-371.800	7.366	0.070	0.052
-370.785	-175.520	0.193	0.005
-369.771	-99.923	-0.272	0.067
-368.756	28.979	0.247	0.207
-367.742	-76.128	0.489	0.171
-366.727	-200.000	-0.072	-0.318
-365.712	-200.000	0.001	-0.099
-364.698	-88.040	-0.195	0.058
-363.683	800.000	-0.051	-0.171
-362.669	-30.538	-0.217	-0.122
-361.654	90.858	0.131	-0.146
-360.639	-57.484	-0.184	0.080
-359.625	312.953	-0.030	0.056
-358.610	-80.353	0.237	-0.078
-357.596	5.521	0.163	0.119
-356.581	-128.207	0.427	-0.060
-355.566	142.591	0.031	0.041
-354.552	-73.645	-0.106	0.038
-353.537	350.082	0.112	-0.218
-352.523	-99.375	-0.184	-0.046
-351.508	-159.157	-0.128	-0.007
-350.493	31.131	-0.278	0.236
-349.479	45.950	0.170	-0.156
-348.464	-200.000	0.007	0.290
-347.450	307.427	-0.123	0.226
-346.435	296.987	0.174	0.315
-345.420	-149.248	0.150	-0.012
-344.406	800.000	0.017	0.064
-343.391	-101.951	0.146	-0.035
-342.377	-48.105	0.207	-0.099
-341.362	-200.000	-0.011	0.143
-340.348	-73.471	0.169	-0.061
-339.333	612.516	-0.070	0.172
-338.318	198.680	0.042	0.064
-337.304	49.267	-0.135	0.126
-336.289	800.000	0.040	0.160
-335.275	-96.477	0.206	0.054
-334.260	92.151	0.108	0.120
-333.245	-110.009	0.523	-0.108
-332.231	109.764	0.182	-0.215
-331.216	-173.435	0.318	0.009
-330.202	110.185	0.137	0.162
-329.187	-200.000	-0.031	0.230
-328.172	-200.000	0.037	0.189
-327.158	-40.427	0.080	0.041
-326.143	-200.000	0.001	0.277
-325.129	402.081	0.080	-0.166
-324.114	-112.916	-0.326	0.064
-323.099	365.381	0.075	-0.150
-322.085	36.649	0.398	0.347
-321.070	57.521	-0.168	0.162
-320.056	-200.000	0.049	-0.274
-319.041	59.056	0.103	0.100
-318.026	-97.197	-0.286	0.074
-317.012	165.007	-0.146	-0.203
-315.997	-134.260	0.100	-0.012
-314.983	-71.758	0.213	0.079
-313.968	-200.000	-0.029	-0.211
-312.953	17.134	-0.190	0.149
-311.939	-8.517	0.171	-0.113
-310.924	-200.000	0.021	0.156
-309.910	0.480	-0.232	0.164
-308.895	-113.296	-0.341	-0.066
-307.880	-43.614	0.313	-0.156
-306.866	-152.070	0.161	-0.012
-305.851	-26.877	-0.173	-0.100
-304.837	800.000	-0.074	0.215
-303.822	-88.507	-0.046	-0.014
-302.807	165.115	-0.013	-0.019
-301.793	-43.376	-0.236	0.118
-300.778	323.415	-0.229	0.432
-299.764	693.207	-0.083	0.215
-298.749	-109.303	0.233	-0.049
-297.735	-122.009	-0.250	0.041
-296.720	158.076	0.120	0.165
-295.705	-58.135	-0.125	0.054
-294.691	55.776	0.125	0.119
-293.676	-200.000	0.016	-0.218
-292.662	-47.709	0.306	0.146
-291.647	-48.873	-0.260	-0.123
-290.632	-81.219	0.306	0.100
-289.618	8.634	0.252	-0.187
-288.603	191.279	-0.134	-0.199
-287.589	102.267	0.037	-0.043
-286.574	374.878	0.210	0.422
-285.559	-200.000	-0.022	0.323
-284.545	740.549	-0.098	-0.260
-283.530	139.852	0.243	-0.316
-282.516	26.742	-0.081	-0.067
-281.501	-200.000	-0.004	0.173
-280.486	24.442	0.101	-0.082
-279.472	211.859	0.141	0.219
-278.457	-200.000	-0.008	-0.121
-277.443	284.804	0.157	-0.280
-276.428	252.144	-0.112	0.188
-275.413	194.756	-0.193	-0.288
-274.399	800.000	0.056	0.179
-273.384	-31.584	-0.195	0.108
-272.370	59.434	-0.342	-0.332
-271.355	174.347	0.043	-0.062
-270.340	-200.000	0.026	0.154
-269.326	668.220	-0.012	-0.030
-268.311	155.990	0.048	-0.065
-267.297	-159.001	-0.422	-0.024
-266.282	668.725	0.059	0.151
-265.267	-95.173	-0.098	0.026
-264.253	219.313	-0.160	-0.252
-263.238	800.000	0.045	-0.180
-262.224	-20.567	0.389	-0.235
-261.209	-200.000	-0.070	-0.378
-260.195	40.969	-0.154	0.137
-259.180	-126.282	0.250	-0.037
-258.165	221.076	-0.295	0.467
-257.151	-40.485	0.219	-0.112
-256.136	-28.349	0.124	-0.070
-255.122	800.000	0.004	0.016
-254.107	3.308	-0.550	0.394
-253.092	-44.083	0.035	0.017
-252.078	23.959	0.112	-0.091
-251.063	73.004	-0.044	0.045
-250.049	-71.506	-0.345	0.127
-249.034	17.477	0.241	-0.189
-248.019	-60.588	0.049	-0.021
-247.005	-200.000	0.070	-0.401
-245.990	-42.986	-0.083	-0.041
-244.976	-81.452	0.101	-0.033
-243.961	-200.000	-0.013	-0.279
-242.946	262.141	0.108	0.185
-241.932	-76.684	0.374	-0.129
-240.917	-200.000	-0.009	-0.231
-239.903	272.131	-0.104	-0.181
-238.888	105.945	-0.142	-0.166
-237.873	2.863	-0.163	0.117
-236.859	32.365	0.235	0.200
-235.844	54.634	-0.206	-0.195
-234.830	570.894	-0.059	0.142
-233.815	259.323	-0.129	-0.219
-232.800	-200.000	-0.013	-0.131
-231.786	800.000	0.061	0.220
-230.771	319.603	-0.149	-0.277
-229.757	-61.973	0.036	-0.015
-228.742	-160.322	0.078	0.004
-227.727	752.120	-0.085	0.225
-226.713	-200.000	0.013	-0.058
-225.698	-91.503	0.324	0.091
-224.684	800.000	-0.093	0.352
-223.669	547.898	0.101	-0.238
-222.655	-166.747	-0.405	-0.016
-221.640	-104.446	0.279	-0.064
-220.625	121.619	-0.057	-0.070
-219.611	-108.992	-0.202	0.042
-218.596	-147.029	-0.065	-0.005
-217.582	171.438	-0.138	0.194
-216.567	-89.425	0.281	0.081
-215.552	-200.000	-0.019	0.199
-214.538	-200.000	0.075	-0.325
-213.523	717.521	0.055	-0.143
-212.509	-32.097	-0.303	0.167
-211.494	2.516	-0.077	0.055
-210.479	-200.000	0.002	0.205
-209.465	547.969	0.125	0.294
-208.450	800.000	-0.075	0.227
-207.436	77.108	-0.075	0.078
-206.421	215.679	0.013	0.020
-205.406	373.878	0.126	-0.251
-204.392	-66.911	-0.329	0.128
-203.377	-182.745	-0.150	0.003
-202.363	33.649	0.121	-0.104
-201.348	-122.629	-0.161	-0.026
-200.333	129.893	-0.113	0.142
-199.319	-54.822	0.278	0.123
-198.304	-99.401	0.219	-0.054
-197.290	-200.000	-0.007	0.111
-196.275	435.513	0.096	-0.206
-195.260	-61.089	-0.078	0.032
-194.246	-56.133	-0.286	0.125
-193.231	183.966	-0.147	-0.213
-192.217	61.581	-0.123	0.121
-191.202	-106.823	-0.161	-0.035
-190.187	-100.631	0.198	0.048
-189.173	591.251	-0.158	-0.382
-188.158	-200.000	0.008	-0.119
-187.144	-42.546	-0.208	-0.104
-186.129	-200.000	-0.011	-0.060
-185.114	67.383	-0.264	-0.265
-184.100	183.573	0.121	0.176
-183.085	273.291	-0.223	0.387
-182.071	120.135	0.087	-0.106
-181.056	800.000	0.033	0.106
-180.042	398.409	0.066	-0.136
-179.027	-16.055	0.116	0.072
-178.012	-200.000	0.074	-0.379
-176.998	-200.000	0.084	0.415
-175.983	242.039	0.025	-0.040
-174.969	-200.000	-0.022	0.108
-173.954	399.854	0.050	0.104
-172.939	-27.955	-0.141	-0.080
-171.925	219.138	0.019	0.030
-170.910	800.000	0.024	-0.098
-169.896	800.000	0.060	0.247
-168.881	-159.094	0.396	-0.022
-167.866	-36.944	-0.350	-0.184
-166.852	-111.783	0.055	-0.011
-165.837	35.626	-0.109	-0.094
-164.823	-200.000	-0.001	-0.048
-163.808	182.005	0.045	0.065
-162.793	475.623	-0.117	0.260
-161.779	-200.000	0.019	-0.158
-160.764	71.044	-0.083	-0.084
-159.750	-200.000	0.037	0.212
-158.735	800.000	0.082	0.250
-157.720	-41.754	0.150	0.076
-156.706	143.336	0.039	-0.051
-155.691	-200.000	0.002	0.256
-154.677	-85.737	0.301	0.092
-153.662	-200.000	0.015	-0.217
-152.647	71.229	-0.172	-0.175
-151.633	122.189	-0.101	0.124
-150.618	461.558	0.109	0.238
-149.604	-200.000	0.017	-0.160
-148.589	-147.180	-0.217	-0.018
-147.574	90.522	-0.104	0.114
-146.560	629.328	0.125	0.310
-145.545	800.000	0.152	-0.438
-144.531	81.380	-0.144	-0.153
-143.516	-127.389	0.149	0.021
-142.502	-1.974	0.180	-0.124
-141.487	112.540	0.203	0.241
-140.472	800.000	-0.124	0.363
-139.458	-76.921	-0.314	0.108
-138.443	595.738	0.043	0.104
-137.429	227.378	0.058	-0.092
-136.414	-200.000	-0.028	-0.149
-135.399	800.000	-0.014	0.058
-134.385	-171.281	-0.117	-0.004
-133.370	63.406	0.140	0.137
-132.356	-69.055	0.215	-0.081
-131.341	-29.022	0.217	0.122
-130.326	-7.107	0.294	0.196
-129.312	-200.000	0.003	0.133
-128.297	-52.282	-0.194	0.088
-127.283	572.711	0.180	0.429
-126.268	-200.000	0.022	0.355
-125.253	-200.000	-0.030	-0.207
-124.239	166.699	0.201	0.279
-123.224	96.533	0.167	-0.188
-122.210	-180.489	0.219	0.004
-121.195	647.196	0.036	0.091
