DTS Sentinel unit serial number:	SN413079Multiplexer serial number:	ORYXHardware model number:	OX4-SRSoftware version number:	ORYX F/W v4.00 Oryx Data Collector v3.7.2.0data status	okinstallation	princeton_trtdifferential loss correction	single-endedforward channel	channel 1reverse channel	N/Adate	2019/09/12time	21:14:35forward acquisition time	60.00reverse acquisition time	0.00gamma	496.2192k internal	0.2325k external	0.2325temperature offset calibration	1.0146default loss term (dB/km)	0.3790temperature slope calibration	1.0000multiplexer offset coefficient	1.0000multiplexer slope coefficient	1.0000fibre end	0.00T internal ref (°C)	30.64T ext. ref 1 (°C)	3.64T ext. ref 2 (°C)	25.25length (m)	temperature (°C)	Stokes	anti-Stokes-747.200	800.000	0.041	-0.129
-746.185	25.417	-0.207	0.174
-745.171	-200.000	0.028	0.180
-744.156	657.453	-0.105	0.272
-743.142	-47.362	-0.302	-0.148
-742.127	770.676	-0.070	0.191
-741.112	3.154	0.302	-0.222
-740.098	144.284	-0.268	0.361
-739.083	-200.000	-0.050	0.353
-738.069	-14.468	-0.227	0.147
-737.054	420.260	-0.058	-0.125
-736.039	800.000	-0.099	0.323
-735.025	-95.180	0.295	-0.080
-734.010	424.589	-0.139	-0.301
-732.996	-28.146	-0.438	0.255
-731.981	295.372	0.100	-0.184
-730.966	800.000	-0.068	0.199
-729.952	-114.513	-0.274	-0.053
-728.937	-94.448	-0.338	-0.093
-727.923	58.369	0.199	0.196
-726.908	800.000	-0.093	0.389
-725.894	-200.000	-0.060	-0.408
-724.879	-26.468	-0.322	-0.190
-723.864	-141.030	-0.094	0.010
-722.850	-200.000	0.013	0.124
-721.835	217.774	-0.129	-0.207
-720.821	-74.784	0.093	-0.034
-719.806	-110.566	-0.266	-0.056
-718.791	762.850	0.137	0.375
-717.777	167.596	-0.033	0.047
-716.762	-157.461	0.390	-0.024
-715.748	-14.498	-0.010	-0.007
-714.733	-114.502	-0.338	0.065
-713.718	-90.736	-0.234	0.068
-712.704	52.176	0.103	-0.099
-711.689	-200.000	0.132	-0.593
-710.675	45.376	-0.043	-0.040
-709.660	-200.000	0.072	-0.427
-708.645	-84.328	0.199	0.064
-707.631	800.000	-0.032	-0.140
-706.616	-122.846	0.435	0.071
-705.602	-63.495	-0.318	0.131
-704.587	800.000	-0.083	-0.234
-703.572	14.934	0.156	0.123
-702.558	-200.000	-0.037	0.172
-701.543	0.186	0.134	0.096
-700.529	49.072	-0.037	0.035
-699.514	-160.248	0.176	0.010
-698.499	-6.162	0.105	-0.072
-697.485	112.393	-0.081	-0.099
-696.470	-200.000	-0.014	-0.230
-695.456	-63.744	0.110	-0.046
-694.441	119.311	0.146	-0.182
-693.426	-200.000	0.019	0.229
-692.412	273.491	0.144	-0.257
-691.397	260.408	-0.081	0.141
-690.383	800.000	0.082	-0.259
-689.368	500.412	0.065	-0.152
-688.354	-7.684	-0.096	0.066
-687.339	180.734	0.055	-0.081
-686.324	-200.000	-0.002	0.087
-685.310	330.830	-0.120	-0.233
-684.295	269.933	0.085	-0.151
-683.281	-200.000	0.020	0.151
-682.266	-99.428	-0.212	0.054
-681.251	88.979	-0.073	0.082
-680.237	800.000	-0.015	-0.043
-679.222	-200.000	-0.008	-0.299
-678.208	-101.283	0.179	0.044
-677.193	-51.154	-0.272	0.128
-676.178	800.000	-0.077	0.301
-675.164	73.998	-0.085	-0.089
-674.149	48.397	-0.230	0.216
-673.135	515.359	-0.107	0.252
-672.120	-200.000	-0.053	0.395
-671.105	-200.000	-0.027	0.152
-670.091	-79.840	0.574	0.194
-669.076	-200.000	-0.008	0.141
-668.062	5.465	-0.135	-0.100
-667.047	-133.603	0.173	-0.022
-666.032	800.000	0.004	-0.013
-665.018	195.129	-0.078	-0.119
-664.003	72.774	0.320	-0.336
-662.989	800.000	-0.063	-0.191
-661.974	-46.323	-0.010	0.005
-660.959	-22.715	-0.314	-0.191
-659.945	800.000	0.083	-0.240
-658.930	675.004	-0.091	0.237
-657.916	-188.492	-0.192	-0.002
-656.901	-200.000	0.020	-0.168
-655.886	-48.458	-0.069	0.033
-654.872	-77.248	-0.069	-0.024
-653.857	62.190	0.250	0.251
-652.843	-182.096	-0.225	-0.004
-651.828	707.840	0.066	0.175
-650.814	-200.000	-0.027	0.483
-649.799	154.124	0.054	-0.075
-648.784	800.000	0.062	-0.181
-647.770	-112.812	-0.125	0.025
-646.755	317.549	0.009	0.017
-645.741	-35.242	0.229	-0.125
-644.726	-182.237	-0.163	-0.003
-643.711	-115.979	-0.155	-0.029
-642.697	56.077	-0.100	0.097
-641.682	800.000	0.017	-0.067
-640.668	-119.085	0.541	0.095
-639.653	104.859	-0.062	0.074
-638.638	-20.945	-0.209	0.129
-637.624	-140.545	-0.204	-0.021
-636.609	-200.000	-0.063	0.282
-635.595	74.921	0.261	0.276
-634.580	-92.035	0.130	0.037
-633.565	-200.000	-0.421	0.001
-632.551	-200.000	-0.046	-0.214
-631.536	-28.032	-0.308	-0.179
-630.522	44.509	0.095	-0.088
-629.507	-89.478	-0.186	0.055
-628.492	-74.839	-0.305	-0.110
-627.478	681.984	0.140	-0.366
-626.463	-70.607	0.263	0.100
-625.449	-108.243	-0.208	0.045
-624.434	-91.083	0.109	-0.031
-623.419	-77.013	0.088	0.031
-622.405	-84.590	0.172	-0.055
-621.390	-85.834	0.119	0.037
-620.376	-200.000	-0.013	0.260
-619.361	68.969	-0.306	-0.316
-618.346	137.928	0.359	-0.472
-617.332	-200.000	0.243	-0.001
-616.317	174.930	0.222	0.323
-615.303	-50.171	0.096	0.046
-614.288	-184.637	-0.116	-0.002
-613.273	75.485	-0.169	-0.179
-612.259	-98.016	-0.234	0.060
-611.244	-200.000	0.069	0.326
-610.230	9.806	0.052	0.040
-609.215	-118.208	0.165	-0.029
-608.201	264.156	0.094	-0.164
-607.186	-110.490	0.067	0.014
-606.171	215.724	0.095	-0.152
-605.157	-134.516	0.299	-0.037
-604.142	-32.544	-0.135	-0.076
-603.128	718.829	0.051	-0.137
-602.113	-200.000	-0.036	-0.284
-601.098	229.780	0.221	0.363
-600.084	-121.827	-0.132	-0.022
-599.069	-67.801	-0.448	0.176
-598.055	259.969	0.014	0.025
-597.040	800.000	-0.086	-0.252
-596.025	800.000	-0.094	-0.358
-595.011	254.243	-0.095	-0.162
-593.996	-134.393	-0.238	0.029
-592.982	-100.109	0.236	0.059
-591.967	96.942	0.249	-0.287
-590.952	174.262	0.134	0.195
-589.938	-91.904	-0.049	0.014
-588.923	107.994	0.186	0.223
-587.909	-200.000	0.016	0.409
-586.894	-125.743	-0.111	0.017
-585.879	424.054	0.081	0.174
-584.865	85.708	0.084	0.093
-583.850	-100.012	0.199	-0.050
-582.836	-75.124	-0.167	0.060
-581.821	-105.868	-0.138	-0.031
-580.806	74.161	0.151	-0.159
-579.792	-14.075	0.172	-0.111
-578.777	800.000	-0.064	0.272
-577.763	78.095	-0.004	-0.004
-576.748	-67.306	-0.116	0.046
-575.733	-102.219	-0.103	-0.025
-574.719	74.415	0.071	-0.075
-573.704	77.828	-0.325	-0.347
-572.690	-200.000	-0.025	-0.158
-571.675	757.073	0.093	-0.253
-570.661	-14.848	0.178	0.114
-569.646	-200.000	0.001	0.255
-568.631	-200.000	0.027	0.151
-567.617	9.018	0.481	0.364
-566.602	57.807	0.131	-0.128
-565.588	164.678	0.251	0.354
-564.573	-122.790	-0.130	-0.021
-563.558	800.000	-0.039	0.116
-562.544	800.000	0.049	0.192
-561.529	45.659	-0.075	0.069
-560.515	-129.181	-0.401	-0.056
-559.500	-106.959	0.057	0.013
-558.485	27.600	0.099	0.084
-557.471	489.520	0.153	-0.350
-556.456	253.315	0.118	0.202
-555.442	79.512	0.281	0.302
-554.427	-185.487	0.060	-0.001
-553.412	-50.085	-0.332	-0.158
-552.398	-98.169	0.327	0.084
-551.383	-200.000	-0.039	-0.190
-550.369	101.803	0.120	-0.140
-549.354	560.659	-0.157	-0.379
-548.339	-157.696	-0.088	-0.005
-547.325	-200.000	0.028	-0.264
-546.310	-62.636	-0.105	-0.044
-545.296	129.254	0.140	-0.178
-544.281	108.247	-0.081	0.097
-543.266	40.563	0.144	-0.130
-542.252	-200.000	-0.031	0.173
-541.237	226.098	0.181	-0.294
-540.223	-35.402	0.190	-0.104
-539.208	280.949	0.152	-0.272
-538.193	-64.055	-0.228	-0.093
-537.179	19.456	0.192	-0.155
-536.164	-161.198	-0.187	0.010
-535.150	299.433	-0.045	0.083
-534.135	-55.418	-0.080	-0.036
-533.121	800.000	0.074	-0.308
-532.106	158.801	-0.201	-0.279
-531.091	-90.265	-0.239	-0.070
-530.077	-200.000	-0.023	-0.303
-529.062	-200.000	0.082	-0.393
-528.048	800.000	0.013	-0.045
-527.033	189.754	0.034	0.050
-526.018	776.152	0.114	-0.311
-525.004	-114.910	-0.072	0.014
-523.989	71.599	-0.079	-0.082
-522.975	121.424	-0.181	0.225
-521.960	800.000	-0.047	-0.162
-520.945	-68.398	0.225	0.087
-519.931	658.837	0.044	0.113
-518.916	592.640	0.123	0.303
-517.902	80.360	0.161	0.174
-516.887	2.691	-0.071	-0.052
-515.872	-200.000	-0.034	-0.179
-514.858	-123.135	0.129	0.021
-513.843	-106.488	0.293	0.065
-512.829	-93.996	0.150	0.041
-511.814	492.260	-0.224	-0.514
-510.799	360.837	0.184	-0.369
-509.785	394.630	0.053	-0.111
-508.770	-114.524	-0.104	-0.020
-507.756	-23.236	0.213	-0.128
-506.741	-89.433	-0.160	0.047
-505.726	800.000	0.019	-0.053
-504.712	-91.370	-0.169	0.048
-503.697	-156.500	0.043	-0.003
-502.683	-76.311	-0.286	-0.101
-501.668	-200.000	0.026	-0.293
-500.653	39.181	0.018	-0.016
-499.639	99.990	-0.154	0.179
-498.624	-62.838	0.264	0.109
-497.610	-183.324	0.316	-0.006
-496.595	-200.000	-0.012	0.122
-495.581	-52.556	0.059	-0.027
-494.566	-40.019	0.313	0.163
-493.551	597.977	0.028	-0.070
-492.537	200.424	-0.112	0.172
-491.522	683.470	0.100	0.260
-490.508	246.129	-0.064	-0.108
-489.493	88.196	-0.035	-0.039
-488.478	636.465	0.049	0.124
-487.464	114.181	0.182	0.221
-486.449	415.968	0.126	0.268
-485.435	119.427	-0.222	0.274
-484.420	321.749	-0.160	0.304
-483.405	-57.991	-0.059	0.026
-482.391	-200.000	-0.072	-0.378
-481.376	-74.298	0.144	0.052
-480.362	195.597	-0.174	0.264
-479.347	-126.996	-0.303	-0.044
-478.332	-59.023	0.255	-0.110
-477.318	191.445	-0.030	-0.046
-476.303	58.061	0.294	0.287
-475.289	49.972	0.087	0.081
-474.274	-95.909	-0.255	0.068
-473.259	-122.942	-0.237	0.038
-472.245	-200.000	0.009	0.157
-471.230	71.302	-0.039	0.041
-470.216	194.508	-0.129	-0.195
-469.201	-63.432	0.047	0.019
-468.186	-200.000	0.000	-0.045
-467.172	129.276	-0.228	-0.290
-466.157	126.453	-0.088	0.111
-465.143	191.355	0.072	-0.108
-464.128	8.008	-0.082	0.061
-463.113	-36.065	-0.305	-0.165
-462.099	-200.000	-0.073	0.422
-461.084	31.764	-0.281	0.242
-460.070	800.000	0.057	0.214
-459.055	316.185	0.066	-0.125
-458.040	81.624	0.404	0.436
-457.026	-200.000	-0.001	0.182
-456.011	-45.262	-0.388	0.192
-454.997	-178.114	-0.196	-0.005
-453.982	-7.799	-0.130	-0.087
-452.968	21.118	-0.171	0.138
-451.953	-158.836	0.170	0.010
-450.938	-47.679	0.134	-0.065
-449.924	427.030	-0.114	0.246
-448.909	-116.116	-0.210	0.039
-447.895	-102.565	0.196	0.047
-446.880	165.053	-0.101	0.142
-445.865	800.000	0.027	0.086
-444.851	-113.248	-0.142	-0.028
-443.836	-200.000	-0.019	0.264
-442.822	800.000	0.023	0.091
-441.807	128.736	-0.082	0.104
-440.792	192.713	0.033	0.050
-439.778	-59.938	-0.308	-0.131
-438.763	176.131	0.175	-0.253
-437.749	307.688	0.100	-0.185
-436.734	59.930	0.111	-0.109
-435.719	-155.614	0.182	-0.012
-434.705	800.000	0.063	-0.187
-433.690	-96.557	-0.191	-0.050
-432.676	-51.253	0.361	0.168
-431.661	272.722	0.060	0.105
-430.646	-73.619	-0.134	0.049
-429.632	-200.000	0.027	-0.163
-428.617	-70.142	-0.243	-0.092
-427.603	264.526	-0.148	0.256
-426.588	-12.770	-0.334	0.217
-425.573	28.902	-0.046	0.039
-424.559	-200.000	-0.032	0.358
-423.544	800.000	-0.042	-0.120
-422.530	-136.685	0.501	-0.058
-421.515	71.049	-0.113	-0.117
-420.500	-127.637	0.327	0.047
-419.486	-14.243	0.136	-0.087
-418.471	800.000	0.068	0.202
-417.457	-122.693	-0.279	0.045
-416.442	-152.639	0.077	0.005
-415.428	-76.107	-0.393	-0.138
-414.413	-76.467	0.333	-0.117
-413.398	508.287	0.131	0.303
-412.384	-113.344	-0.325	0.064
-411.369	-85.364	-0.183	-0.057
-410.355	-90.848	-0.126	0.036
-409.340	-200.000	0.269	-0.001
-408.325	178.666	-0.141	-0.205
-407.311	-86.242	-0.145	-0.044
-406.296	-200.000	0.039	-0.252
-405.282	11.185	-0.142	-0.108
-404.267	-112.151	-0.275	0.055
-403.252	119.848	0.189	-0.234
-402.238	-11.452	0.273	-0.179
-401.223	330.260	-0.013	0.025
-400.209	663.315	0.075	0.192
-399.194	-30.566	-0.315	0.178
-398.179	-149.829	0.017	0.001
-397.165	-23.082	0.146	-0.087
-396.150	-44.740	0.252	-0.125
-395.136	-118.580	-0.334	-0.059
-394.121	-71.933	-0.174	-0.065
-393.106	-105.321	0.081	0.018
-392.092	96.933	0.009	-0.010
-391.077	-200.000	0.030	-0.477
-390.063	102.482	-0.125	-0.146
-389.048	800.000	0.045	0.143
-388.033	-111.634	-0.427	0.086
-387.019	-200.000	0.002	-0.396
-386.004	416.934	0.156	-0.331
-384.990	-200.000	0.049	0.230
-383.975	-200.000	-0.042	-0.305
-382.960	-200.000	-0.014	-0.169
-381.946	52.063	0.260	-0.246
-380.931	800.000	0.068	0.226
-379.917	368.362	-0.090	-0.181
-378.902	31.984	0.174	-0.149
-377.888	-145.022	0.068	-0.006
-376.873	34.055	0.079	0.068
-375.858	-131.538	-0.366	-0.048
-374.844	-200.000	0.048	-0.418
-373.829	283.564	-0.122	-0.218
-372.815	365.285	0.163	0.326
-371.800	189.301	0.114	0.169
-370.785	800.000	-0.070	-0.256
-369.771	194.858	-0.172	0.259
-368.756	-200.000	0.048	-0.299
-367.742	779.480	-0.091	-0.248
-366.727	181.360	0.119	-0.175
-365.712	-156.400	0.291	0.018
-364.698	-81.635	-0.256	0.084
-363.683	800.000	-0.041	0.159
-362.669	-200.000	-0.019	0.218
-361.654	800.000	0.037	-0.117
-360.639	-27.076	0.335	-0.194
-359.625	9.322	-0.224	0.168
-358.610	-30.979	-0.117	-0.066
-357.596	40.270	0.131	-0.117
-356.581	-96.760	-0.386	0.101
-355.566	135.617	0.105	0.136
-354.552	480.187	-0.114	-0.256
-353.537	-158.501	0.308	-0.018
-352.523	393.541	-0.117	-0.243
-351.508	743.234	-0.078	-0.209
-350.493	800.000	0.038	0.145
-349.479	-56.804	0.005	0.002
-348.464	-21.502	0.296	-0.179
-347.450	-180.662	-0.210	0.004
-346.435	800.000	-0.018	-0.063
-345.420	-200.000	-0.020	-0.155
-344.406	-64.960	-0.109	0.044
-343.391	-96.914	-0.112	0.029
-342.377	73.347	-0.094	-0.097
-341.362	-141.783	0.240	0.024
-340.348	101.373	0.285	0.330
-339.333	-109.343	-0.182	-0.038
-338.318	-97.172	-0.086	-0.022
-337.304	-200.000	-0.001	-0.245
-336.289	780.272	-0.055	-0.149
-335.275	191.526	0.089	0.133
-334.260	7.139	0.325	0.240
-333.245	800.000	-0.073	-0.249
-332.231	-154.316	-0.212	0.014
-331.216	-200.000	-0.006	0.238
-330.202	672.800	0.021	-0.053
-329.187	-114.227	0.218	0.042
-328.172	800.000	0.023	-0.092
-327.158	-64.685	0.183	-0.074
-326.143	-197.320	0.198	0.001
-325.129	800.000	0.084	0.248
-324.114	-29.784	-0.243	-0.138
-323.099	-39.714	-0.126	0.065
-322.085	-104.585	-0.229	-0.052
-321.070	-59.445	-0.317	0.135
-320.056	-108.598	-0.425	0.091
-319.041	-200.000	-0.009	0.244
-318.026	-200.000	0.009	-0.083
-317.012	-114.853	-0.431	-0.082
-315.997	-18.688	0.139	0.086
-314.983	414.308	0.115	-0.243
-313.968	42.322	-0.120	-0.108
-312.953	-200.000	0.022	0.150
-311.939	322.726	0.055	-0.104
-310.924	20.000	-0.243	0.194
-309.910	-200.000	-0.004	0.330
-308.895	-26.537	-0.071	0.041
-307.880	-200.000	0.017	0.143
-306.866	-123.940	0.127	-0.020
-305.851	-51.070	-0.194	0.090
-304.837	-181.608	-0.156	-0.003
-303.822	53.405	-0.064	-0.061
-302.807	-8.965	0.347	-0.231
-301.793	-85.772	0.215	-0.066
-300.778	22.923	-0.173	-0.141
-299.764	-25.824	0.111	0.065
-298.749	286.388	0.078	-0.139
-297.735	544.666	0.182	-0.431
-296.720	124.992	-0.035	-0.044
-295.705	-195.168	-0.205	0.002
-294.691	-127.782	-0.432	0.062
-293.676	-45.600	-0.195	-0.096
-292.662	-55.893	0.097	0.043
-291.647	-54.344	0.116	0.052
-290.632	638.896	-0.050	0.127
-289.618	207.266	-0.185	-0.287
-288.603	57.451	-0.042	-0.041
-287.589	419.791	-0.137	0.291
-286.574	-2.476	0.197	0.137
-285.559	-111.687	-0.240	-0.048
-284.545	-113.830	0.314	-0.061
-283.530	-61.798	0.185	0.077
-282.516	17.082	0.140	0.110
-281.501	-10.799	-0.138	-0.091
-280.486	-22.733	0.194	0.116
-279.472	-95.745	-0.382	0.101
-278.457	-115.098	0.133	0.025
-277.443	59.257	-0.337	0.329
-276.428	456.856	0.022	-0.049
-275.413	84.098	-0.088	-0.095
-274.399	-86.873	-0.068	-0.021
-273.384	800.000	-0.060	0.166
-272.370	593.486	-0.046	0.112
-271.355	8.608	-0.342	0.255
-270.340	-6.701	0.312	0.210
-269.326	-200.000	-0.000	0.139
-268.311	70.217	0.138	0.141
-267.297	800.000	0.122	0.378
-266.282	-71.513	0.156	-0.058
-265.267	-73.774	0.118	-0.042
-264.253	333.402	-0.113	0.216
-263.238	-200.000	0.047	-0.259
-262.224	86.998	-0.135	0.148
-261.209	-116.518	-0.277	-0.051
-260.195	252.903	0.200	0.338
-259.180	-45.817	0.376	-0.184
-258.165	-179.799	0.194	0.004
-257.151	360.231	-0.075	0.148
-256.136	5.406	-0.189	-0.138
-255.122	-21.381	0.207	-0.125
-254.107	-19.087	-0.108	-0.067
-253.092	800.000	-0.065	0.210
-252.078	-200.000	0.003	0.110
-251.063	133.207	0.188	0.241
-250.049	75.421	0.104	0.109
-249.034	99.446	0.117	-0.134
-248.019	112.987	0.144	-0.173
-247.005	287.399	-0.128	0.229
-245.990	42.848	-0.150	0.136
-244.976	20.259	0.109	0.087
-243.961	262.379	0.026	-0.045
-242.946	-129.574	0.142	-0.019
-241.932	-10.422	0.099	0.065
-240.917	800.000	-0.021	-0.089
-239.903	-200.000	0.001	-0.314
-238.888	384.893	-0.189	0.386
-237.873	-192.636	-0.036	-0.000
-236.859	-63.752	-0.241	-0.098
-235.844	-48.151	0.384	0.184
-234.830	322.578	-0.228	0.430
-233.815	-109.194	-0.114	-0.024
-232.800	-200.000	-0.045	0.369
-231.786	-109.594	0.182	-0.038
-230.771	-200.000	0.005	-0.183
-229.757	54.502	-0.295	0.281
-228.742	325.525	0.116	-0.219
-227.727	-59.055	-0.404	0.172
-226.713	-23.095	0.344	-0.205
-225.698	204.761	-0.030	0.046
-224.684	777.008	-0.072	0.194
-223.669	-35.817	0.098	-0.053
-222.655	-101.005	0.123	0.030
-221.640	-124.313	0.079	0.012
-220.625	24.678	0.116	0.095
-219.611	99.383	0.242	-0.277
-218.596	-73.854	0.458	-0.165
-217.582	-106.050	0.225	-0.050
-216.567	475.567	-0.157	0.351
-215.552	-152.547	-0.219	-0.015
-214.538	133.709	-0.148	0.190
-213.523	-200.000	0.003	-0.068
-212.509	99.769	0.364	0.417
-211.494	-100.302	-0.436	-0.107
-210.479	-10.683	-0.272	0.178
-209.465	-200.000	0.014	-0.122
-208.450	388.934	-0.106	-0.218
-207.436	187.769	0.190	-0.280
-206.421	-72.860	-0.255	0.093
-205.406	-200.000	0.030	-0.204
-204.392	-137.858	-0.170	-0.019
-203.377	134.522	0.057	0.072
-202.363	6.749	0.339	0.249
-201.348	-79.530	0.304	0.101
-200.333	192.961	0.007	0.011
-199.319	-200.000	0.008	0.239
-198.304	199.236	0.072	0.109
-197.290	-200.000	0.041	0.206
-196.275	-98.927	-0.479	0.120
-195.260	7.538	-0.051	0.038
-194.246	201.113	-0.131	-0.199
-193.231	16.348	0.257	-0.200
-192.217	-200.000	0.029	-0.204
-191.202	-49.471	0.162	0.076
-190.187	170.835	-0.071	-0.100
-189.173	142.824	-0.156	-0.205
-188.158	800.000	0.058	-0.237
-187.144	-200.000	-0.022	0.139
-186.129	32.404	-0.109	-0.093
-185.114	-82.348	-0.369	0.119
-184.100	-28.723	0.262	-0.149
-183.085	800.000	-0.029	-0.084
-182.071	90.124	0.075	0.083
-181.056	-115.565	0.255	-0.047
-180.042	-37.309	0.118	0.062
-179.027	-200.000	0.045	-0.305
-178.012	-132.387	-0.066	-0.008
-176.998	-19.667	-0.260	0.159
-175.983	-28.954	0.352	0.200
-174.969	-200.000	-0.115	0.543
-173.954	-93.717	0.257	-0.070
-172.939	121.148	-0.169	-0.208
-171.925	-143.512	0.282	-0.027
-170.910	-33.481	0.139	0.076
-169.896	-65.133	-0.110	0.044
-168.881	-134.835	-0.284	0.034
-167.866	116.705	0.276	-0.334
-166.852	51.903	0.167	-0.157
-165.837	-200.000	0.045	-0.201
-164.823	68.763	0.157	0.159
-163.808	-104.023	-0.332	-0.076
-162.793	130.684	-0.069	-0.087
-161.779	-200.000	0.017	0.151
-160.764	-72.949	-0.176	0.064
-159.750	-56.255	0.173	0.076
-158.735	-200.000	0.009	0.222
-157.720	-200.000	0.011	-0.144
-156.706	174.158	0.277	0.394
-155.691	143.444	0.163	-0.214
-154.677	66.105	0.140	-0.140
-153.662	-79.135	-0.186	0.062
-152.647	800.000	0.057	0.164
-151.633	148.902	-0.189	-0.252
-150.618	96.849	-0.137	-0.155
-149.604	662.251	0.025	0.064
-148.589	-155.641	0.473	0.030
-147.574	371.154	-0.071	0.142
-146.560	-64.141	0.084	-0.034
-145.545	-6.913	-0.285	0.191
-144.531	339.923	0.131	0.251
-143.516	284.940	0.040	0.070
-142.502	-200.000	-0.024	0.160
-141.487	596.199	-0.136	-0.331
-140.472	-134.382	0.407	-0.049
-139.458	-93.509	0.342	-0.093
-138.443	800.000	0.133	-0.474
-137.429	800.000	0.040	0.138
-136.414	800.000	0.044	0.148
-135.399	51.244	0.150	-0.140
-134.385	239.076	0.110	-0.180
-133.370	-200.000	0.048	0.478
-132.356	110.745	0.084	0.099
-131.341	-200.000	0.025	0.307
-130.326	-200.000	-0.041	-0.337
-129.312	-97.922	0.170	0.043
-128.297	-68.593	0.129	0.049
-127.283	-43.949	0.238	0.118
-126.268	52.875	-0.142	0.134
-125.253	-110.952	-0.254	0.051
-124.239	-120.684	0.255	-0.042
-123.224	48.656	0.074	-0.069
-122.210	50.592	0.279	-0.260
-121.195	800.000	0.029	-0.095
