DTS Sentinel unit serial number:	SN413079Multiplexer serial number:	ORYXHardware model number:	OX4-SRSoftware version number:	ORYX F/W v4.00 Oryx Data Collector v3.7.2.0data status	okinstallation	princeton_trtdifferential loss correction	single-endedforward channel	channel 1reverse channel	N/Adate	2019/09/13time	00:22:35forward acquisition time	60.00reverse acquisition time	0.00gamma	496.2192k internal	0.2328k external	0.2328temperature offset calibration	1.0145default loss term (dB/km)	0.3790temperature slope calibration	1.0000multiplexer offset coefficient	1.0000multiplexer slope coefficient	1.0000fibre end	0.00T internal ref (°C)	28.44T ext. ref 1 (°C)	3.71T ext. ref 2 (°C)	23.06length (m)	temperature (°C)	Stokes	anti-Stokes-747.200	166.508	-0.147	0.210
-746.185	-51.490	-0.220	-0.104
-745.171	-200.000	-0.025	0.241
-744.156	800.000	0.013	0.043
-743.142	-115.579	-0.582	0.110
-742.127	-41.070	-0.117	-0.061
-741.112	-127.032	-0.143	-0.021
-740.098	45.977	-0.244	0.228
-739.083	-153.903	0.054	-0.004
-738.069	324.133	-0.249	0.479
-737.054	32.646	-0.265	-0.231
-736.039	211.913	-0.213	0.338
-735.025	20.570	0.059	0.048
-734.010	-171.011	-0.246	-0.008
-732.996	-22.132	0.129	0.079
-731.981	74.635	-0.178	-0.189
-730.966	67.306	-0.055	0.056
-729.952	-92.663	-0.212	-0.060
-728.937	24.897	-0.249	-0.208
-727.923	331.574	-0.028	0.054
-726.908	20.958	0.081	0.066
-725.894	140.842	-0.085	-0.114
-724.879	800.000	-0.068	0.251
-723.864	116.270	-0.153	-0.188
-722.850	45.667	0.324	-0.301
-721.835	-87.068	0.252	0.077
-720.821	-200.000	-0.079	0.449
-719.806	-129.814	-0.260	0.036
-718.791	-36.710	0.144	0.078
-717.777	-139.208	0.342	0.037
-716.762	237.258	-0.047	-0.079
-715.748	-200.000	-0.015	-0.286
-714.733	800.000	0.051	-0.209
-713.718	-60.507	-0.182	0.078
-712.704	314.896	0.085	0.161
-711.689	-200.000	0.017	0.197
-710.675	-37.888	0.102	-0.054
-709.660	131.470	0.044	0.057
-708.645	10.114	-0.187	0.143
-707.631	563.775	-0.039	0.095
-706.616	-128.433	0.208	-0.030
-705.602	30.612	0.196	0.169
-704.587	-4.463	0.120	-0.084
-703.572	188.919	-0.074	-0.112
-702.558	123.886	-0.203	0.256
-701.543	767.490	0.079	0.216
-700.529	-111.623	0.206	0.042
-699.514	26.307	-0.086	0.072
-698.499	205.368	-0.082	-0.129
-697.485	800.000	0.096	0.279
-696.470	229.682	0.098	0.161
-695.456	800.000	0.075	0.285
-694.441	128.703	0.236	0.302
-693.426	128.760	-0.129	0.166
-692.412	-92.406	0.172	-0.049
-691.397	-57.874	0.077	0.034
-690.383	417.477	0.080	-0.172
-689.368	-14.981	0.209	0.135
-688.354	-200.000	0.050	0.226
-687.339	97.116	-0.209	-0.241
-686.324	72.172	-0.194	0.203
-685.310	-138.746	-0.203	-0.022
-684.295	39.538	-0.148	-0.134
-683.281	-172.741	-0.421	0.013
-682.266	-102.260	-0.186	0.045
-681.251	86.852	-0.148	-0.164
-680.237	-12.657	-0.273	-0.179
-679.222	176.870	0.066	-0.097
-678.208	-200.000	0.082	-0.402
-677.193	752.444	-0.036	-0.097
-676.178	222.373	-0.107	-0.174
-675.164	-78.624	-0.214	-0.073
-674.149	-200.000	0.016	0.323
-673.135	21.015	-0.030	0.024
-672.120	800.000	0.075	-0.326
-671.105	-116.293	-0.412	0.077
-670.091	94.446	-0.114	0.130
-669.076	310.763	-0.041	0.078
-668.062	-88.365	0.202	-0.061
-667.047	-102.310	-0.239	-0.058
-666.032	-117.674	-0.252	0.046
-665.018	800.000	-0.089	0.311
-664.003	19.295	0.151	-0.121
-662.989	-131.745	-0.138	-0.018
-661.974	-29.147	-0.251	0.144
-660.959	57.933	-0.082	0.080
-659.945	800.000	-0.098	0.365
-658.930	-60.352	0.085	-0.036
-657.916	-32.412	0.008	-0.005
-656.901	-96.428	-0.383	0.102
-655.886	-163.832	-0.139	-0.007
-654.872	224.265	-0.099	0.161
-653.857	79.060	-0.073	0.079
-652.843	-112.358	0.047	0.010
-651.828	800.000	0.089	-0.343
-650.814	-67.032	-0.076	0.030
-649.799	-58.332	0.081	0.035
-648.784	162.076	-0.202	-0.284
-647.770	306.306	0.130	-0.242
-646.755	-200.000	0.009	-0.192
-645.741	44.477	0.191	-0.176
-644.726	8.914	0.094	0.071
-643.711	800.000	-0.034	0.122
-642.697	441.923	-0.233	0.512
-641.682	87.227	0.367	-0.407
-640.668	104.933	0.108	0.128
-639.653	-140.238	0.210	-0.022
-638.638	-200.000	0.007	0.339
-637.624	-152.718	-0.235	0.017
-636.609	-130.823	-0.199	-0.027
-635.595	-83.119	-0.089	0.029
-634.580	-8.291	0.172	0.116
-633.565	-3.451	-0.118	0.082
-632.551	-111.278	-0.123	0.025
-631.536	91.248	0.173	0.195
-630.522	-127.703	-0.100	-0.015
-629.507	93.640	-0.269	0.306
-628.492	35.634	0.160	0.141
-627.478	556.788	-0.089	-0.215
-626.463	148.040	0.079	-0.107
-625.449	74.796	0.066	0.070
-624.434	-35.580	0.156	-0.085
-623.419	800.000	-0.041	-0.139
-622.405	32.058	0.108	0.093
-621.390	6.765	0.157	-0.117
-620.376	70.908	0.056	0.059
-619.361	-24.211	-0.117	0.070
-618.346	-124.400	0.639	0.100
-617.332	-141.059	0.068	0.007
-616.317	-136.660	0.137	0.016
-615.303	-92.189	0.040	0.011
-614.288	191.543	-0.007	0.010
-613.273	221.808	0.212	0.342
-612.259	-164.746	-0.336	0.015
-611.244	89.513	0.141	-0.157
-610.230	256.600	0.178	-0.306
-609.215	-19.152	-0.339	0.211
-608.201	224.341	-0.200	-0.325
-607.186	-200.000	-0.023	-0.179
-606.171	777.476	0.084	0.230
-605.157	-200.000	-0.017	-0.154
-604.142	-79.328	0.171	-0.058
-603.128	800.000	0.105	-0.328
-602.113	-200.000	-0.040	0.290
-601.098	-200.000	0.026	0.559
-600.084	370.252	-0.016	0.032
-599.069	-144.602	-0.077	-0.007
-598.055	212.282	-0.111	0.176
-597.040	-200.000	0.027	-0.263
-596.025	85.656	0.252	-0.277
-595.011	-160.411	0.210	-0.011
-593.996	704.624	-0.080	0.211
-592.982	-9.821	-0.076	-0.051
-591.967	192.178	0.212	0.320
-590.952	-89.150	0.340	-0.101
-589.938	-141.167	0.300	0.031
-588.923	800.000	0.018	-0.068
-587.909	59.272	0.148	-0.146
-586.894	-135.661	-0.314	0.037
-585.879	-108.999	0.100	-0.021
-584.865	800.000	0.041	-0.159
-583.850	67.041	0.108	0.110
-582.836	-200.000	0.021	0.221
-581.821	19.474	0.159	-0.128
-580.806	-10.183	-0.147	0.097
-579.792	85.080	-0.081	-0.089
-578.777	-59.837	0.287	-0.123
-577.763	97.127	-0.044	-0.051
-576.748	-200.000	-0.029	0.227
-575.733	-146.107	-0.299	-0.026
-574.719	190.018	0.243	-0.365
-573.704	88.359	0.217	-0.242
-572.690	52.452	0.080	0.076
-571.675	800.000	-0.021	-0.059
-570.661	329.363	-0.053	-0.101
-569.646	685.669	0.054	0.142
-568.631	342.975	-0.106	0.207
-567.617	-200.000	-0.018	-0.259
-566.602	-132.039	0.336	-0.044
-565.588	-68.117	-0.168	0.066
-564.573	125.559	0.119	-0.150
-563.558	66.228	0.115	-0.116
-562.544	-200.000	-0.027	-0.346
-561.529	-200.000	-0.081	-0.421
-560.515	-38.844	-0.278	-0.146
-559.500	-200.000	0.026	-0.202
-558.485	-36.078	0.145	-0.078
-557.471	184.200	-0.062	-0.092
-556.456	179.084	-0.151	-0.222
-555.442	609.142	0.058	0.144
-554.427	-108.863	-0.113	0.024
-553.412	-7.448	0.126	-0.085
-552.398	100.985	0.148	0.172
-551.383	-136.543	0.394	0.046
-550.369	128.188	-0.029	0.037
-549.354	-62.877	0.361	0.149
-548.339	-148.899	-0.188	-0.015
-547.325	-27.956	-0.088	0.051
-546.310	-43.148	-0.275	0.139
-545.296	800.000	0.120	0.458
-544.281	-67.308	0.370	0.146
-543.266	-120.837	0.131	0.022
-542.252	-200.000	0.057	0.284
-541.237	1.681	-0.259	-0.187
-540.223	-69.192	-0.340	-0.131
-539.208	-90.794	-0.125	-0.036
-538.193	-200.000	-0.008	-0.218
-537.179	340.171	0.142	0.277
-536.164	329.491	0.056	0.107
-535.150	-140.790	-0.021	-0.002
-534.135	450.292	0.072	0.159
-533.121	800.000	-0.017	0.057
-532.106	60.950	-0.226	-0.224
-531.091	-120.110	0.055	0.009
-530.077	-200.000	0.024	-0.159
-529.062	168.976	0.034	-0.048
-528.048	-200.000	0.057	-0.597
-527.033	221.214	-0.095	0.152
-526.018	-135.644	-0.363	0.043
-525.004	284.696	-0.103	-0.186
-523.989	-162.494	0.225	-0.011
-522.975	800.000	-0.027	-0.080
-521.960	-200.000	-0.012	0.421
-520.945	-78.782	-0.108	0.037
-519.931	-85.675	0.163	-0.050
-518.916	138.854	-0.187	-0.246
-517.902	-110.533	-0.223	0.046
-516.887	-38.933	-0.091	0.048
-515.872	331.081	0.054	-0.103
-514.858	-200.000	-0.023	0.326
-513.843	800.000	-0.065	-0.249
-512.829	-44.391	-0.158	0.079
-511.814	22.292	0.127	-0.104
-510.799	-200.000	0.260	0.001
-509.785	327.351	-0.151	0.289
-508.770	497.814	-0.074	-0.169
-507.756	788.729	0.052	0.142
-506.741	-200.000	-0.023	0.177
-505.726	-200.000	0.011	0.161
-504.712	-19.531	-0.180	0.111
-503.697	-117.392	0.177	0.032
-502.683	-95.437	-0.240	-0.064
-501.668	-69.041	-0.185	-0.071
-500.653	-53.745	-0.237	-0.108
-499.639	-200.000	0.062	0.313
-498.624	257.749	0.147	-0.252
-497.610	-49.515	0.082	0.039
-496.595	-200.000	-0.025	-0.168
-495.581	210.982	-0.241	0.378
-494.566	-47.597	0.134	0.065
-493.551	-200.000	0.046	-0.263
-492.537	-73.584	-0.450	0.164
-491.522	-200.000	0.062	-0.306
-490.508	-112.629	0.274	0.054
-489.493	-96.726	-0.173	0.045
-488.478	-158.574	0.238	0.014
-487.464	-200.000	-0.020	0.107
-486.449	72.994	-0.128	-0.133
-485.435	-113.530	-0.227	-0.044
-484.420	800.000	-0.111	-0.422
-483.405	757.129	0.130	-0.352
-482.391	-13.465	-0.176	0.114
-481.376	280.653	0.095	-0.169
-480.362	157.146	0.044	-0.060
-479.347	-34.602	-0.310	0.169
-478.332	130.539	-0.162	-0.207
-477.318	-19.893	0.076	-0.047
-476.303	69.739	-0.175	0.180
-475.289	-200.000	-0.018	0.126
-474.274	-200.000	0.010	-0.084
-473.259	-200.000	0.056	-0.338
-472.245	-200.000	0.009	-0.170
-471.230	800.000	0.058	0.161
-470.216	-145.242	-0.077	-0.007
-469.201	-35.706	-0.448	0.242
-468.186	-134.037	0.378	0.047
-467.172	-69.560	0.122	0.046
-466.157	-182.950	-0.090	-0.002
-465.143	463.448	0.066	0.147
-464.128	-200.000	-0.016	0.136
-463.113	-105.626	-0.295	-0.067
-462.099	129.036	0.164	-0.208
-461.084	25.388	0.214	0.177
-460.070	686.500	-0.032	0.082
-459.055	-88.079	-0.230	-0.069
-458.040	-115.633	-0.084	0.016
-457.026	-200.000	0.012	-0.080
-456.011	-200.000	-0.006	0.222
-454.997	-126.799	0.091	0.013
-453.982	305.429	0.094	-0.174
-452.968	-58.147	0.079	0.034
-451.953	-94.880	-0.409	-0.110
-450.938	132.638	-0.156	0.200
-449.924	-53.418	0.241	0.110
-448.909	107.021	0.068	0.080
-447.895	-200.000	-0.024	0.252
-446.880	-24.906	-0.097	0.057
-445.865	-200.000	0.076	-0.376
-444.851	60.388	-0.196	-0.193
-443.836	-126.095	-0.169	-0.025
-442.822	129.322	0.300	-0.381
-441.807	183.795	0.159	-0.234
-440.792	-78.662	-0.131	-0.044
-439.778	741.540	0.082	-0.220
-438.763	137.531	0.088	-0.114
-437.749	5.820	-0.182	0.134
-436.734	75.266	0.127	-0.134
-435.719	-200.000	-0.071	-0.364
-434.705	-68.589	0.172	-0.066
-433.690	-39.705	0.234	0.122
-432.676	-125.080	0.185	-0.028
-431.661	20.235	-0.267	-0.215
-430.646	399.570	-0.092	0.192
-429.632	800.000	-0.152	0.500
-428.617	-46.923	0.175	0.085
-427.603	-200.000	0.000	0.185
-426.588	-200.000	-0.030	0.293
-425.573	-76.661	0.321	0.112
-424.559	238.285	-0.054	0.089
-423.544	-200.000	0.119	0.000
-422.530	247.354	0.238	-0.400
-421.515	-29.724	0.072	0.041
-420.500	441.633	-0.072	-0.157
-419.486	138.422	0.388	-0.506
-418.471	-160.613	-0.210	0.011
-417.457	-200.000	0.020	0.188
-416.442	-64.644	-0.027	-0.011
-415.428	-200.000	-0.030	0.248
-414.413	-61.587	-0.124	0.052
-413.398	285.916	0.202	0.363
-412.384	445.551	-0.102	0.223
-411.369	-35.394	0.123	-0.066
-410.355	52.186	-0.034	0.032
-409.340	-137.950	-0.345	0.038
-408.325	-76.174	-0.127	0.045
-407.311	-20.734	-0.139	-0.085
-406.296	-200.000	0.067	-0.313
-405.282	800.000	-0.109	-0.336
-404.267	148.527	0.233	0.313
-403.252	-145.771	-0.331	0.029
-402.238	292.313	0.183	-0.331
-401.223	640.540	0.080	-0.202
-400.209	-112.080	-0.120	0.024
-399.194	-180.086	0.104	-0.002
-398.179	628.603	0.009	0.023
-397.165	22.202	-0.142	-0.116
-396.150	147.246	-0.192	-0.257
-395.136	-34.985	-0.151	0.082
-394.121	800.000	-0.081	0.261
-393.106	800.000	0.021	0.084
-392.092	-200.000	-0.002	0.159
-391.077	9.189	0.159	0.119
-390.063	117.218	-0.101	-0.123
-389.048	14.997	-0.223	0.173
-388.033	-200.000	0.103	-0.000
-387.019	491.744	-0.158	0.359
-386.004	-125.350	-0.301	0.046
-384.990	-135.948	-0.151	-0.018
-383.975	67.340	0.129	-0.131
-382.960	-200.000	-0.005	0.104
-381.946	-166.094	0.102	-0.004
-380.931	800.000	0.031	-0.101
-379.917	438.185	0.112	0.243
-378.902	-19.571	-0.223	-0.137
-377.888	578.924	0.045	-0.109
-376.873	-1.932	-0.152	0.106
-375.858	-200.000	-0.012	0.335
-374.844	627.916	-0.083	0.207
-373.829	296.162	0.117	-0.212
-372.815	428.551	-0.068	0.145
-371.800	-31.646	0.292	0.163
-370.785	65.772	0.172	-0.173
-369.771	-200.000	-0.022	-0.278
-368.756	-200.000	0.015	-0.126
-367.742	27.930	-0.236	0.197
-366.727	-200.000	-0.019	-0.173
-365.712	84.098	0.237	0.257
-364.698	315.646	-0.139	-0.260
-363.683	62.035	-0.259	-0.257
-362.669	-167.434	0.141	-0.006
-361.654	201.498	0.086	0.132
-360.639	29.054	0.260	0.219
-359.625	222.746	0.046	0.074
-358.610	-200.000	-0.033	0.185
-357.596	34.647	-0.154	-0.134
-356.581	419.110	0.097	-0.206
-355.566	116.291	0.084	-0.102
-354.552	-16.697	-0.134	-0.084
-353.537	800.000	0.038	0.139
-352.523	500.683	0.076	0.174
-351.508	158.744	-0.108	-0.148
-350.493	-42.939	-0.080	0.040
-349.479	138.241	-0.047	-0.062
-348.464	-64.915	0.367	0.147
-347.450	-109.974	-0.154	0.032
-346.435	267.918	0.159	-0.276
-345.420	59.834	-0.302	-0.296
-344.406	800.000	0.081	-0.240
-343.391	-126.582	-0.133	-0.020
-342.377	189.750	-0.133	-0.198
-341.362	145.257	-0.090	-0.119
-340.348	-31.953	-0.330	0.183
-339.333	313.636	-0.164	0.306
-338.318	244.407	0.072	-0.120
-337.304	280.323	-0.096	0.170
-336.289	-200.000	-0.007	-0.244
-335.275	-37.052	-0.189	0.100
-334.260	35.988	-0.197	0.172
-333.245	493.668	-0.152	-0.346
-332.231	-115.958	-0.444	-0.082
-331.216	-95.015	-0.124	0.033
-330.202	800.000	-0.092	0.321
-329.187	-89.205	0.258	0.075
-328.172	135.932	-0.146	0.188
-327.158	-51.969	0.129	0.059
-326.143	95.661	0.136	-0.154
-325.129	578.773	-0.041	-0.098
-324.114	228.817	0.090	-0.146
-323.099	-125.738	0.237	-0.035
-322.085	635.621	-0.038	0.096
-321.070	-200.000	0.048	0.250
-320.056	-83.777	0.066	-0.021
-319.041	-81.393	-0.230	0.075
-318.026	-115.858	0.143	-0.027
-317.012	242.729	0.050	0.083
-315.997	13.492	0.150	0.116
-314.983	3.094	-0.207	0.149
-313.968	-72.327	-0.178	-0.065
-312.953	136.360	0.179	0.231
-311.939	-10.595	0.271	0.178
-310.924	-9.054	-0.120	0.080
-309.910	-200.000	0.010	0.202
-308.895	-200.000	-0.033	-0.190
-307.880	-85.043	-0.196	0.061
-306.866	-45.206	-0.178	0.087
-305.851	400.952	-0.077	-0.160
-304.837	800.000	-0.027	0.075
-303.822	-26.298	0.243	0.141
-302.807	-1.428	0.173	0.121
-301.793	-200.000	0.041	-0.186
-300.778	588.120	0.059	0.143
-299.764	-147.781	0.161	-0.013
-298.749	-200.000	-0.008	-0.073
-297.735	505.690	0.048	-0.111
-296.720	33.366	0.283	0.244
-295.705	141.329	-0.173	0.226
-294.691	-78.027	-0.084	-0.029
-293.676	-131.247	-0.230	0.030
-292.662	-133.683	-0.424	0.052
-291.647	-31.746	-0.103	0.057
-290.632	-43.600	0.237	0.118
-289.618	30.812	-0.337	0.285
-288.603	739.951	0.139	0.369
-287.589	-21.458	0.364	0.220
-286.574	163.259	0.089	-0.124
-285.559	-82.116	0.104	0.033
-284.545	225.690	0.100	0.161
-283.530	737.845	-0.034	-0.091
-282.516	183.462	0.080	0.117
-281.501	186.508	0.174	0.256
-280.486	645.202	-0.111	-0.280
-279.472	193.323	-0.104	0.156
-278.457	540.689	-0.062	0.147
-277.443	-75.137	-0.107	0.038
-276.428	800.000	-0.113	-0.398
-275.413	576.813	0.032	0.077
-274.399	364.163	0.105	-0.208
-273.384	8.668	-0.208	-0.155
-272.370	311.942	-0.053	-0.099
-271.355	-131.468	-0.154	0.020
-270.340	40.287	-0.135	0.120
-269.326	609.356	-0.094	0.231
-268.311	-66.105	-0.293	-0.116
-267.297	800.000	0.036	-0.125
-266.282	88.348	0.104	0.114
-265.267	366.004	0.165	-0.329
-264.253	410.869	-0.019	-0.039
-263.238	14.559	-0.073	0.056
-262.224	800.000	-0.055	0.177
-261.209	-113.305	-0.358	0.070
-260.195	575.249	-0.046	0.111
-259.180	-200.000	0.010	-0.213
-258.165	197.187	-0.047	-0.071
-257.151	800.000	0.015	-0.052
-256.136	-200.000	0.013	0.144
-255.122	183.471	0.113	0.165
-254.107	64.605	0.093	0.093
-253.092	-120.627	0.062	0.010
-252.078	-166.737	0.378	0.015
-251.063	-32.241	-0.234	-0.129
-250.049	201.035	0.178	0.271
-249.034	800.000	0.133	0.377
-248.019	-85.234	-0.198	-0.061
-247.005	800.000	-0.092	-0.382
-245.990	-200.000	-0.013	0.158
-244.976	83.241	0.080	0.086
-243.961	-110.592	-0.184	-0.038
-242.946	125.240	-0.102	-0.127
-241.932	51.104	-0.215	-0.201
-240.917	-10.613	-0.096	-0.062
-239.903	225.714	0.073	0.117
-238.888	-130.862	0.255	0.034
-237.873	-200.000	0.049	-0.265
-236.859	546.639	-0.085	-0.202
-235.844	-132.192	-0.213	0.027
-234.830	-38.742	-0.067	-0.035
-233.815	17.376	-0.200	0.157
-232.800	115.080	-0.022	0.027
-231.786	-120.844	-0.225	-0.037
-230.771	800.000	0.072	0.248
-229.757	800.000	0.086	0.295
-228.742	8.717	0.246	-0.183
-227.727	-184.993	-0.229	0.004
-226.713	415.745	-0.055	0.116
-225.698	-200.000	0.067	0.324
-224.684	-200.000	-0.011	-0.058
-223.669	-86.345	-0.057	-0.017
-222.655	468.068	-0.110	-0.243
-221.640	16.170	0.125	0.098
-220.625	333.481	0.062	-0.119
-219.611	-23.720	-0.098	-0.058
-218.596	-200.000	0.038	-0.386
-217.582	-148.532	-0.269	-0.022
-216.567	43.186	-0.224	0.202
-215.552	60.139	0.191	-0.186
-214.538	-200.000	0.009	0.114
-213.523	800.000	0.099	-0.357
-212.509	439.217	-0.121	-0.260
-211.494	-8.564	0.309	0.205
-210.479	-104.035	-0.169	0.039
-209.465	-200.000	-0.053	0.494
-208.450	800.000	0.104	0.332
-207.436	-57.950	-0.203	0.087
-206.421	-53.039	0.312	-0.142
-205.406	-41.629	-0.258	-0.131
-204.392	-81.152	0.042	-0.014
-203.377	-200.000	0.011	0.085
-202.363	191.528	0.135	-0.201
-201.348	153.059	-0.051	-0.069
-200.333	-149.467	0.370	-0.029
-199.319	-200.000	0.072	-0.383
-198.304	-165.177	0.232	0.010
-197.290	29.410	-0.128	-0.108
-196.275	48.544	0.245	0.226
-195.260	-51.928	0.524	0.240
-194.246	-85.583	-0.182	-0.056
-193.231	267.578	-0.162	-0.280
-192.217	-98.566	-0.433	-0.109
-191.202	-49.707	-0.112	0.052
-190.187	-200.000	-0.084	0.506
-189.173	-129.186	0.174	-0.024
-188.158	-47.686	0.136	-0.065
-187.144	691.210	-0.056	-0.146
-186.129	-40.418	-0.103	0.053
-185.114	793.216	0.181	-0.492
-184.100	311.053	0.086	-0.158
-183.085	-39.870	0.211	0.109
-182.071	-125.885	-0.130	-0.019
-181.056	-156.715	0.412	0.025
-180.042	800.000	-0.040	0.154
-179.027	201.856	0.249	0.379
-178.012	-200.000	0.034	-0.323
-176.998	800.000	0.044	0.148
-175.983	-18.888	0.371	0.227
-174.969	-172.066	0.275	0.009
-173.954	-22.121	0.424	-0.254
-172.939	-135.556	0.272	-0.032
-171.925	800.000	-0.055	-0.150
-170.910	118.223	0.233	-0.284
-169.896	-44.526	-0.062	0.030
-168.881	8.963	-0.106	-0.079
-167.866	400.981	0.092	-0.190
-166.852	459.602	0.068	-0.148
-165.837	533.110	0.106	0.248
-164.823	-58.619	-0.186	-0.080
-163.808	800.000	0.056	0.230
-162.793	-5.912	0.393	0.265
-161.779	175.901	-0.044	0.063
-160.764	-200.000	0.002	0.091
-159.750	-101.721	-0.157	0.037
-158.735	-200.000	-0.017	-0.333
-157.720	-102.667	-0.252	0.059
-156.706	175.372	-0.087	0.125
-155.691	-200.000	-0.041	0.283
-154.677	177.556	-0.162	-0.233
-153.662	287.394	0.116	-0.206
-152.647	-47.463	0.063	-0.030
-151.633	107.793	-0.298	-0.349
-150.618	521.237	-0.103	0.238
-149.604	-192.684	-0.151	0.001
-148.589	-198.144	0.180	-0.001
-147.574	509.949	-0.060	0.137
-146.560	-30.438	0.364	0.203
-145.545	-200.000	0.022	0.181
-144.531	245.658	0.091	-0.151
-143.516	-84.480	-0.262	-0.081
-142.502	-17.311	0.120	-0.074
-141.487	212.631	-0.062	0.096
-140.472	235.100	-0.147	-0.238
-139.458	64.080	-0.108	0.106
-138.443	-77.699	-0.175	0.060
-137.429	148.589	0.128	0.170
-136.414	11.622	0.121	-0.091
-135.399	-103.386	0.154	0.036
-134.385	-142.137	-0.202	-0.020
-133.370	-53.989	0.056	0.025
-132.356	-37.306	0.199	0.105
-131.341	-96.491	-0.124	-0.032
-130.326	66.112	0.097	0.097
-129.312	-200.000	-0.009	0.048
-128.297	-200.000	-0.032	-0.306
-127.283	59.813	-0.186	0.180
-126.268	800.000	0.092	-0.279
-125.253	-119.080	-0.134	-0.023
-124.239	-200.000	0.020	-0.206
-123.224	392.369	0.108	0.220
-122.210	-179.522	0.407	-0.009
-121.195	-131.028	0.224	0.029
