DTS Sentinel unit serial number:	SN413079Multiplexer serial number:	ORYXHardware model number:	OX4-SRSoftware version number:	ORYX F/W v4.00 Oryx Data Collector v3.7.2.0data status	okinstallation	princeton_trtdifferential loss correction	single-endedforward channel	channel 1reverse channel	N/Adate	2019/09/17time	05:42:35forward acquisition time	60.00reverse acquisition time	0.00gamma	496.2192k internal	0.2325k external	0.2325temperature offset calibration	0.9965default loss term (dB/km)	0.3790temperature slope calibration	1.0000multiplexer offset coefficient	1.0000multiplexer slope coefficient	1.0000fibre end	0.00T internal ref (°C)	29.06T ext. ref 1 (°C)	0.14T ext. ref 2 (°C)	22.82length (m)	temperature (°C)	Stokes	anti-Stokes-747.200	-200.000	0.003	0.220
-746.185	6.903	0.092	0.069
-745.171	60.967	-0.036	-0.036
-744.156	-109.239	-0.092	-0.020
-743.142	41.262	0.185	0.168
-742.127	-76.086	-0.070	-0.025
-741.112	-93.855	0.397	0.110
-740.098	800.000	-0.083	0.315
-739.083	-125.363	0.075	-0.012
-738.069	74.278	-0.191	0.202
-737.054	-116.218	-0.072	0.014
-736.039	-8.994	-0.181	-0.122
-735.025	-200.000	-0.003	-0.054
-734.010	800.000	-0.051	-0.175
-732.996	-200.000	0.013	-0.357
-731.981	-138.066	-0.170	-0.019
-730.966	213.945	-0.117	0.187
-729.952	800.000	0.057	-0.191
-728.937	179.643	0.114	-0.168
-727.923	275.252	0.107	0.190
-726.908	-179.897	-0.222	0.005
-725.894	654.277	0.110	-0.284
-724.879	-200.000	0.055	0.322
-723.864	1.327	0.083	0.060
-722.850	377.372	0.029	-0.060
-721.835	387.066	-0.096	0.199
-720.821	-56.667	-0.200	-0.089
-719.806	-66.202	-0.217	0.087
-718.791	492.443	0.080	-0.184
-717.777	100.467	0.139	0.163
-716.762	-140.454	0.100	-0.011
-715.748	-26.851	0.203	-0.119
-714.733	-127.062	-0.285	-0.042
-713.718	34.603	0.089	0.078
-712.704	-200.000	-0.005	0.191
-711.689	-200.000	-0.058	-0.269
-710.675	-136.958	-0.440	-0.051
-709.660	102.140	-0.169	0.199
-708.645	800.000	0.074	0.308
-707.631	-200.000	0.009	0.183
-706.616	800.000	0.154	0.579
-705.602	-113.973	0.111	-0.022
-704.587	101.324	-0.077	0.090
-703.572	91.741	0.130	-0.148
-702.558	-179.911	-0.164	-0.004
-701.543	-30.745	0.100	-0.057
-700.529	-29.336	-0.251	0.145
-699.514	-117.810	0.275	0.050
-698.499	-107.220	0.148	0.033
-697.485	800.000	-0.063	-0.235
-696.470	800.000	-0.024	0.078
-695.456	609.578	0.086	0.217
-694.441	50.584	-0.117	0.111
-693.426	-47.953	-0.145	0.071
-692.412	-175.963	0.260	-0.007
-691.397	-200.000	0.005	-0.053
-690.383	46.398	0.214	-0.200
-689.368	78.922	-0.334	-0.360
-688.354	31.144	-0.309	0.266
-687.339	293.126	-0.057	-0.104
-686.324	-200.000	-0.016	0.124
-685.310	-40.028	-0.090	-0.047
-684.295	238.356	-0.088	-0.148
-683.281	4.357	0.214	0.158
-682.266	244.927	-0.103	0.175
-681.251	-116.958	-0.248	0.046
-680.237	800.000	0.114	0.329
-679.222	-101.562	-0.300	-0.073
-678.208	-159.728	0.386	0.021
-677.193	-22.641	0.041	0.025
-676.178	800.000	-0.135	0.408
-675.164	-83.995	0.214	-0.069
-674.149	-46.177	-0.263	-0.130
-673.135	155.727	-0.307	0.425
-672.120	800.000	0.089	-0.284
-671.105	70.899	0.279	-0.290
-670.091	-149.236	-0.172	-0.014
-669.076	614.612	0.118	0.298
-668.062	-52.243	0.231	-0.108
-667.047	6.484	0.198	-0.148
-666.032	-96.665	0.081	0.021
-665.018	-70.440	-0.350	-0.134
-664.003	184.203	0.222	-0.331
-662.989	385.947	-0.026	-0.055
-661.974	800.000	-0.119	0.400
-660.959	-38.686	-0.255	0.136
-659.945	-35.273	-0.117	0.064
-658.930	156.790	-0.065	-0.090
-657.916	71.924	-0.105	-0.109
-656.901	800.000	0.011	0.043
-655.886	800.000	0.087	-0.311
-654.872	94.424	0.060	-0.069
-653.857	-200.000	-0.006	-0.074
-652.843	245.760	0.087	-0.148
-651.828	-200.000	-0.012	0.080
-650.814	501.768	-0.252	0.586
-649.799	-80.532	-0.174	-0.058
-648.784	76.153	-0.157	-0.167
-647.770	-85.794	-0.408	-0.127
-646.755	-22.575	0.138	0.084
-645.741	800.000	-0.036	-0.105
-644.726	108.670	-0.211	-0.253
-643.711	-191.762	0.102	-0.001
-642.697	-95.567	-0.180	-0.048
-641.682	405.635	0.159	-0.337
-640.668	-200.000	0.039	-0.227
-639.653	-200.000	-0.003	0.360
-638.638	-33.140	-0.133	-0.074
-637.624	545.115	0.079	-0.190
-636.609	-113.934	-0.163	-0.032
-635.595	-15.099	-0.044	-0.028
-634.580	-195.218	0.146	0.001
-633.565	800.000	-0.015	0.054
-632.551	-171.983	0.157	0.005
-631.536	618.178	-0.120	0.304
-630.522	-200.000	0.002	0.098
-629.507	72.050	-0.188	-0.197
-628.492	800.000	0.085	-0.245
-627.478	-93.288	-0.140	-0.039
-626.463	-107.542	0.272	-0.060
-625.449	-200.000	0.004	-0.320
-624.434	562.381	0.105	0.255
-623.419	-65.211	0.271	-0.110
-622.405	-63.464	-0.242	-0.100
-621.390	-76.685	0.296	0.104
-620.376	-140.222	0.149	0.016
-619.361	-93.426	-0.245	-0.068
-618.346	800.000	0.107	0.301
-617.332	105.654	0.140	0.166
-616.317	-89.569	0.236	-0.070
-615.303	-111.571	-0.161	-0.033
-614.288	-149.688	0.308	-0.024
-613.273	78.947	0.123	0.132
-612.259	-151.115	-0.236	-0.018
-611.244	-81.190	0.309	-0.102
-610.230	-5.647	-0.106	-0.073
-609.215	-41.456	-0.510	0.263
-608.201	286.678	-0.171	-0.310
-607.186	800.000	0.049	0.169
-606.171	-200.000	0.012	0.079
-605.157	800.000	0.154	-0.489
-604.142	-200.000	0.082	-0.375
-603.128	800.000	-0.024	-0.086
-602.113	-119.477	0.102	-0.018
-601.098	-106.327	-0.050	0.011
-600.084	183.911	0.178	-0.264
-599.069	800.000	0.062	-0.245
-598.055	-200.000	-0.004	0.120
-597.040	-69.916	-0.209	-0.080
-596.025	612.070	0.136	-0.342
-595.011	82.191	0.158	-0.172
-593.996	164.915	-0.123	0.174
-592.982	-24.239	0.196	-0.117
-591.967	800.000	-0.061	-0.260
-590.952	-47.423	-0.411	0.200
-589.938	-155.997	0.268	-0.017
-588.923	-161.759	0.347	0.018
-587.909	-85.502	-0.344	-0.108
-586.894	43.220	-0.080	-0.074
-585.879	131.013	-0.043	0.055
-584.865	251.228	0.158	-0.269
-583.850	7.747	-0.368	-0.276
-582.836	405.476	0.072	0.152
-581.821	52.067	-0.290	0.277
-580.806	501.344	-0.217	0.501
-579.792	104.292	-0.227	-0.268
-578.777	-89.534	0.194	-0.057
-577.763	-71.005	0.271	-0.102
-576.748	212.091	-0.058	-0.092
-575.733	-46.710	-0.225	-0.110
-574.719	-200.000	-0.043	-0.293
-573.704	182.128	0.166	-0.245
-572.690	-200.000	-0.006	0.298
-571.675	-157.761	0.393	-0.023
-570.661	267.615	0.149	0.261
-569.646	-118.116	-0.304	0.054
-568.631	800.000	-0.084	-0.308
-567.617	-149.162	-0.147	0.012
-566.602	-200.000	-0.036	-0.287
-565.588	74.756	-0.444	-0.468
-564.573	800.000	-0.041	0.143
-563.558	-200.000	-0.102	0.636
-562.544	25.792	-0.216	-0.180
-561.529	24.117	0.138	-0.114
-560.515	-200.000	0.011	-0.115
-559.500	25.644	0.289	-0.241
-558.485	-47.445	0.228	-0.111
-557.471	-200.000	-0.019	0.098
-556.456	-57.983	0.196	0.086
-555.442	177.007	-0.131	0.191
-554.427	800.000	-0.066	-0.183
-553.412	88.949	-0.278	-0.310
-552.398	287.529	0.049	-0.088
-551.383	-120.566	-0.075	-0.013
-550.369	143.116	0.087	-0.116
-549.354	-200.000	-0.045	0.000
-548.339	-38.025	0.310	0.165
-547.325	79.249	0.097	-0.104
-546.310	-36.108	0.237	0.128
-545.296	-200.000	-0.037	0.376
-544.281	-19.180	-0.196	0.122
-543.266	101.641	0.193	0.225
-542.252	286.371	0.093	0.168
-541.237	-55.408	0.090	0.041
-540.223	-200.000	-0.067	-0.426
-539.208	-200.000	-0.043	0.370
-538.193	-50.520	-0.281	-0.133
-537.179	37.107	0.142	0.126
-536.164	26.863	0.236	-0.198
-535.150	-89.526	0.124	0.036
-534.135	54.361	-0.280	-0.270
-533.121	-55.002	-0.121	0.055
-532.106	56.041	-0.201	0.195
-531.091	-45.799	0.320	-0.158
-530.077	-128.593	-0.368	0.052
-529.062	-200.000	0.070	-0.487
-528.048	726.795	-0.086	-0.231
-527.033	-137.740	0.370	0.042
-526.018	-181.067	-0.076	0.002
-525.004	-93.966	0.116	0.032
-523.989	75.917	0.168	-0.178
-522.975	144.189	0.108	0.144
-521.960	-90.595	0.247	-0.071
-520.945	-200.000	-0.097	0.453
-519.931	38.557	0.237	0.211
-518.916	-200.000	-0.000	0.099
-517.902	383.840	0.151	-0.312
-516.887	-9.174	0.208	0.139
-515.872	-90.670	0.196	-0.057
-514.858	127.659	0.201	-0.255
-513.843	800.000	0.047	0.165
-512.829	83.769	0.361	0.394
-511.814	800.000	0.081	0.311
-510.799	-200.000	-0.004	0.033
-509.785	800.000	0.083	0.294
-508.770	-80.748	-0.292	0.097
-507.756	-200.000	0.030	-0.587
-506.741	-200.000	0.003	-0.117
-505.726	235.764	-0.087	-0.144
-504.712	-78.814	-0.171	-0.058
-503.697	-49.628	-0.164	-0.078
-502.683	-200.000	0.003	-0.296
-501.668	184.317	0.167	-0.247
-500.653	-200.000	0.014	0.125
-499.639	159.768	-0.129	-0.180
-498.624	-5.005	-0.240	-0.165
-497.610	-132.785	-0.192	0.025
-496.595	-150.236	0.251	-0.019
-495.581	-187.997	-0.136	-0.002
-494.566	128.933	0.204	0.260
-493.551	800.000	-0.064	0.236
-492.537	-76.688	0.057	0.020
-491.522	325.436	0.110	-0.210
-490.508	-4.707	-0.380	0.262
-489.493	-200.000	0.020	0.411
-488.478	30.301	0.100	0.085
-487.464	-70.623	0.192	-0.073
-486.449	-137.610	-0.130	0.015
-485.435	-29.730	-0.113	0.064
-484.420	-33.505	0.122	0.067
-483.405	120.807	-0.146	0.181
-482.391	707.190	0.088	-0.232
-481.376	100.468	0.096	-0.112
-480.362	197.191	0.100	-0.152
-479.347	-200.000	0.042	0.274
-478.332	-200.000	-0.006	-0.241
-477.318	-200.000	-0.041	0.375
-476.303	800.000	0.065	0.268
-475.289	-37.407	0.191	-0.102
-474.274	-122.537	-0.108	0.017
-473.259	-200.000	0.012	-0.297
-472.245	-200.000	0.087	-0.410
-471.230	-167.166	0.131	-0.005
-470.216	-38.203	0.030	0.016
-469.201	-107.004	-0.189	0.042
-468.186	163.476	0.057	0.080
-467.172	-69.205	-0.144	0.055
-466.157	214.482	-0.153	0.242
-465.143	-184.204	-0.124	-0.002
-464.128	-200.000	-0.013	-0.071
-463.113	-200.000	-0.013	-0.091
-462.099	-76.899	-0.044	-0.015
-461.084	-121.556	0.375	0.062
-460.070	-156.711	0.107	0.007
-459.055	-200.000	-0.005	0.029
-458.040	13.481	0.251	-0.195
-457.026	-200.000	-0.008	-0.277
-456.011	-73.771	-0.312	-0.113
-454.997	-77.968	0.376	0.129
-453.982	396.824	-0.252	0.525
-452.968	-200.000	-0.314	-0.001
-451.953	-200.000	-0.029	-0.321
-450.938	-200.000	0.004	-0.050
-449.924	-200.000	-0.001	-0.007
-448.909	-102.138	0.107	0.026
-447.895	86.151	-0.096	0.105
-446.880	83.408	-0.147	-0.159
-445.865	272.262	-0.084	0.147
-444.851	-36.341	-0.129	-0.069
-443.836	-18.339	0.236	0.147
-442.822	4.602	-0.227	-0.166
-441.807	94.331	-0.141	-0.160
-440.792	-30.525	0.051	-0.029
-439.778	-38.224	-0.196	-0.104
-438.763	-88.767	0.060	-0.018
-437.749	87.042	-0.095	-0.104
-436.734	800.000	0.052	0.148
-435.719	-141.295	0.218	-0.022
-434.705	-7.122	0.183	-0.123
-433.690	233.654	0.038	-0.062
-432.676	-24.247	0.263	0.157
-431.661	435.312	0.101	0.218
-430.646	-111.088	-0.187	-0.038
-429.632	-128.164	0.054	-0.008
-428.617	-108.068	0.062	0.013
-427.603	348.882	0.076	-0.150
-426.588	-134.434	0.108	-0.013
-425.573	45.683	-0.160	0.148
-424.559	-106.478	-0.123	0.027
-423.544	-41.504	-0.167	-0.086
-422.530	-62.874	-0.187	-0.077
-421.515	209.517	-0.153	-0.238
-420.500	-29.624	0.121	-0.069
-419.486	-200.000	-0.283	0.001
-418.471	-110.231	-0.171	0.036
-417.457	800.000	0.079	0.335
-416.442	-58.574	-0.272	0.118
-415.428	-200.000	0.026	-0.167
-414.413	104.868	-0.170	-0.200
-413.398	-153.816	-0.212	-0.014
-412.384	-114.647	-0.211	0.040
-411.369	-159.435	0.135	0.007
-410.355	38.648	0.139	0.123
-409.340	-200.000	-0.042	0.263
-408.325	-200.000	-0.008	0.303
-407.311	-115.476	-0.118	0.022
-406.296	128.122	0.050	0.063
-405.282	44.877	-0.145	0.133
-404.267	-76.795	-0.030	0.010
-403.252	-83.664	0.372	0.118
-402.238	141.283	-0.346	-0.456
-401.223	68.679	0.088	-0.090
-400.209	-200.000	-0.066	0.451
-399.194	-50.378	0.269	0.126
-398.179	800.000	-0.099	0.277
-397.165	-200.000	-0.001	-0.101
-396.150	-143.902	0.061	0.006
-395.136	346.852	-0.088	-0.173
-394.121	-29.646	0.501	-0.285
-393.106	-2.450	-0.141	0.098
-392.092	-139.271	0.187	-0.020
-391.077	-88.836	0.307	0.091
-390.063	-33.544	-0.175	-0.096
-389.048	159.995	0.184	0.256
-388.033	-17.474	-0.244	0.152
-387.019	-32.411	0.413	-0.229
-386.004	-1.701	-0.281	-0.197
-384.990	-200.000	-0.045	-0.234
-383.975	-75.142	-0.177	-0.063
-382.960	284.102	0.223	0.400
-381.946	588.130	0.130	0.318
-380.931	38.785	0.197	-0.175
-379.917	474.463	0.173	-0.389
-378.902	34.540	0.323	-0.280
-377.888	-141.904	-0.616	0.061
-376.873	31.941	0.301	0.258
-375.858	-120.769	0.066	-0.011
-374.844	91.170	-0.214	0.239
-373.829	-200.000	-0.009	0.304
-372.815	111.348	-0.053	-0.064
-371.800	129.562	0.108	-0.137
-370.785	-51.596	-0.136	-0.063
-369.771	-58.887	0.437	-0.188
-368.756	-5.536	-0.020	0.014
-367.742	-200.000	-0.072	0.331
-366.727	-200.000	0.019	0.122
-365.712	-135.141	-0.193	0.023
-364.698	48.837	0.109	-0.102
-363.683	-106.835	0.419	0.092
-362.669	-112.611	-0.144	0.029
-361.654	-3.539	0.242	-0.168
-360.639	-126.185	0.172	0.026
-359.625	289.555	0.061	0.110
-358.610	-64.147	-0.373	-0.151
-357.596	29.232	0.331	0.279
-356.581	487.566	-0.101	0.229
-355.566	-60.745	-0.028	-0.012
-354.552	-149.854	-0.186	-0.014
-353.537	372.471	0.131	0.263
-352.523	-69.803	-0.207	-0.079
-351.508	69.343	0.198	0.203
-350.493	-200.000	-0.010	0.155
-349.479	562.297	-0.091	0.218
-348.464	163.963	-0.171	-0.239
-347.450	149.650	-0.026	0.035
-346.435	-65.293	0.145	0.058
-345.420	68.038	-0.229	-0.233
-344.406	59.004	0.228	-0.222
-343.391	-200.000	-0.028	-0.245
-342.377	-110.672	0.347	0.071
-341.362	-200.000	-0.071	0.382
-340.348	-36.791	0.048	-0.025
-339.333	-196.587	0.441	-0.003
-338.318	-200.000	0.036	0.264
-337.304	-200.000	0.058	0.000
-336.289	-84.641	0.148	-0.046
-335.275	-200.000	-0.018	-0.220
-334.260	-139.956	0.103	0.011
-333.245	-200.000	-0.009	0.132
-332.231	-134.946	0.272	-0.033
-331.216	-200.000	0.003	-0.153
-330.202	66.671	0.312	-0.315
-329.187	71.785	0.278	0.287
-328.172	-160.149	-0.084	0.005
-327.158	-200.000	0.044	-0.245
-326.143	-47.294	0.147	0.071
-325.129	-37.912	-0.146	0.077
-324.114	-29.635	0.281	0.159
-323.099	-99.336	0.464	-0.116
-322.085	-200.000	-0.054	-0.282
-321.070	116.517	0.029	0.035
-320.056	-62.379	-0.251	-0.104
-319.041	120.295	-0.273	0.336
-318.026	800.000	-0.056	0.217
-317.012	22.836	0.212	-0.172
-315.997	63.331	0.326	0.324
-314.983	-200.000	-0.028	0.230
-313.968	-54.963	-0.348	-0.156
-312.953	800.000	0.077	-0.237
-311.939	800.000	0.069	-0.254
-310.924	-200.000	0.008	-0.127
-309.910	-200.000	0.000	0.056
-308.895	-131.512	0.274	0.036
-307.880	-107.395	-0.327	0.071
-306.866	-79.639	0.210	-0.070
-305.851	100.607	-0.104	-0.120
-304.837	-169.961	0.282	0.010
-303.822	-146.916	0.153	-0.013
-302.807	-55.327	0.062	0.028
-301.793	-41.347	0.139	-0.071
-300.778	-40.150	0.326	-0.168
-299.764	664.399	-0.058	-0.148
-298.749	454.683	-0.101	-0.222
-297.735	-121.124	-0.019	0.003
-296.720	139.954	-0.124	-0.162
-295.705	-200.000	-0.015	-0.146
-294.691	-18.838	-0.259	0.160
-293.676	-84.201	-0.255	-0.080
-292.662	150.339	-0.094	-0.127
-291.647	-106.506	-0.134	0.030
-290.632	173.206	-0.067	0.095
-289.618	-27.355	0.278	0.160
-288.603	662.462	0.114	-0.291
-287.589	-14.608	-0.169	0.107
-286.574	-194.054	-0.377	-0.003
-285.559	-41.205	-0.292	0.149
-284.545	-131.716	0.111	-0.014
-283.530	-200.000	-0.025	0.378
-282.516	21.161	-0.365	-0.293
-281.501	90.656	0.028	-0.031
-280.486	-200.000	-0.042	-0.346
-279.472	26.379	-0.150	0.124
-278.457	-125.624	-0.262	-0.039
-277.443	-180.362	0.134	-0.003
-276.428	-200.000	0.060	-0.341
-275.413	167.554	-0.184	-0.259
-274.399	23.833	-0.212	0.173
-273.384	158.339	-0.187	0.257
-272.370	-200.000	-0.020	0.454
-271.355	256.146	0.075	0.128
-270.340	102.208	-0.070	-0.081
-269.326	-200.000	-0.001	0.246
-268.311	-200.000	0.081	0.640
-267.297	-12.212	-0.052	0.034
-266.282	362.852	0.073	0.146
-265.267	15.968	-0.074	-0.058
-264.253	800.000	0.124	0.355
-263.238	-95.001	-0.121	0.032
-262.224	-130.681	-0.446	-0.059
-261.209	73.906	0.173	-0.180
-260.195	800.000	-0.039	0.119
-259.180	76.638	0.014	-0.014
-258.165	-200.000	0.006	0.035
-257.151	-200.000	0.031	0.331
-256.136	-115.700	-0.347	-0.064
-255.122	-35.775	-0.084	-0.045
-254.107	206.299	-0.171	0.263
-253.092	-200.000	-0.321	0.001
-252.078	-42.468	0.147	0.074
-251.063	8.737	0.282	-0.210
-250.049	529.220	-0.167	0.391
-249.034	297.254	-0.100	0.182
-248.019	32.565	0.164	0.140
-247.005	-200.000	-0.034	-0.155
-245.990	97.305	-0.117	-0.133
-244.976	-200.000	0.019	0.253
-243.961	-38.784	-0.031	0.016
-242.946	20.575	-0.095	0.076
-241.932	-11.106	0.179	-0.117
-240.917	726.139	0.052	0.137
-239.903	-50.954	0.220	-0.102
-238.888	10.008	0.072	-0.054
-237.873	-129.615	0.125	0.017
-236.859	-61.332	-0.236	-0.098
-235.844	530.267	-0.102	-0.239
-234.830	-200.000	-0.033	-0.175
-233.815	236.332	-0.115	-0.189
-232.800	-155.064	-0.203	0.013
-231.786	800.000	0.116	0.327
-230.771	-54.492	0.137	-0.061
-229.757	42.710	-0.117	-0.106
-228.742	-149.990	-0.045	0.003
-227.727	-200.000	0.045	0.299
-226.713	151.493	0.174	-0.235
-225.698	48.929	-0.083	0.077
-224.684	800.000	-0.089	0.277
-223.669	358.239	0.103	-0.203
-222.655	-153.928	0.096	0.006
-221.640	694.871	-0.013	-0.035
-220.625	-62.707	0.199	0.082
-219.611	-49.504	0.168	-0.079
-218.596	266.826	-0.154	-0.266
-217.582	-200.000	-0.007	0.067
-216.567	-76.243	-0.113	0.039
-215.552	-200.000	-0.088	0.463
-214.538	-120.507	0.149	-0.025
-213.523	800.000	0.024	-0.072
-212.509	-65.422	-0.414	-0.164
-211.494	-66.453	0.020	-0.008
-210.479	-101.560	0.195	-0.047
-209.465	334.262	-0.056	0.106
-208.450	-117.076	0.279	0.050
-207.436	208.355	0.119	0.183
-206.421	-165.981	-0.016	0.001
-205.406	-77.146	-0.529	0.182
-204.392	-78.970	0.491	0.165
-203.377	800.000	0.054	-0.153
-202.363	800.000	0.055	-0.223
-201.348	-113.746	0.081	-0.016
-200.333	-12.090	-0.158	-0.102
-199.319	547.997	-0.157	0.371
-198.304	-14.570	0.174	0.111
-197.290	238.370	-0.132	0.217
-196.275	800.000	0.140	-0.466
-195.260	-153.643	0.206	0.014
-194.246	324.384	0.095	-0.180
-193.231	-16.608	0.278	-0.174
-192.217	129.117	-0.196	0.247
-191.202	-200.000	0.026	-0.185
-190.187	-111.527	-0.503	-0.101
-189.173	22.871	-0.315	-0.255
-188.158	800.000	-0.085	0.243
-187.144	-53.736	-0.190	0.085
-186.129	-63.202	0.186	0.076
-185.114	235.172	0.234	0.382
-184.100	800.000	-0.126	0.361
-183.085	-114.008	-0.375	0.072
-182.071	-33.673	0.183	0.100
-181.056	-149.284	0.368	-0.029
-180.042	-66.110	-0.103	-0.040
-179.027	-73.800	0.081	-0.029
-178.012	115.572	0.238	-0.287
-176.998	-88.035	-0.323	-0.096
-175.983	-200.000	-0.003	0.049
-174.969	-136.668	0.084	0.010
-173.954	148.367	-0.111	0.147
-172.939	66.314	-0.050	0.050
-171.925	213.776	-0.145	0.227
-170.910	-8.716	-0.284	-0.188
-169.896	19.643	-0.218	0.173
-168.881	191.887	-0.118	-0.176
-167.866	-200.000	0.021	-0.152
-166.852	800.000	0.074	0.310
-165.837	-10.655	-0.403	-0.263
-164.823	-94.472	0.240	-0.064
-163.808	-200.000	-0.030	0.440
-162.793	180.732	0.183	0.265
-161.779	-61.749	0.140	0.058
-160.764	257.257	-0.195	-0.331
-159.750	-114.965	-0.503	-0.094
-158.735	-109.083	0.136	-0.029
-157.720	508.036	-0.080	0.184
-156.706	-200.000	-0.055	-0.266
-155.691	80.059	-0.189	-0.201
-154.677	36.340	0.223	0.194
-153.662	145.270	0.140	0.185
-152.647	-200.000	0.012	0.288
-151.633	-123.877	0.138	0.021
-150.618	202.123	-0.110	-0.167
-149.604	-138.857	0.078	0.008
-148.589	-73.902	0.152	0.054
-147.574	-17.513	0.142	-0.088
-146.560	-200.000	-0.027	-0.268
-145.545	168.220	0.295	0.414
-144.531	-178.895	0.261	0.006
-143.516	-200.000	-0.001	0.216
-142.502	-183.889	0.091	0.002
-141.487	-46.128	-0.358	0.174
-140.472	800.000	0.076	-0.255
-139.458	58.225	0.218	-0.211
-138.443	-123.447	-0.225	-0.035
-137.429	-71.322	0.268	-0.099
-136.414	454.812	-0.050	0.110
-135.399	-153.060	-0.370	0.026
-134.385	-78.067	-0.262	-0.089
-133.370	29.715	0.051	-0.043
-132.356	-73.301	0.105	0.038
-131.341	-200.000	0.007	-0.071
-130.326	203.699	0.110	-0.168
-129.312	-27.899	-0.177	-0.101
-128.297	-200.000	0.033	0.185
-127.283	-106.039	-0.323	-0.072
-126.268	-56.395	0.105	0.046
-125.253	-97.461	0.180	-0.046
-124.239	15.890	-0.022	-0.017
-123.224	-200.000	-0.002	-0.173
