DTS Sentinel unit serial number:	SN413079Multiplexer serial number:	ORYXHardware model number:	OX4-SRSoftware version number:	ORYX F/W v4.00 Oryx Data Collector v3.7.2.0data status	okinstallation	princeton_trtdifferential loss correction	single-endedforward channel	channel 1reverse channel	N/Adate	2019/09/12time	20:22:35forward acquisition time	60.00reverse acquisition time	0.00gamma	496.2192k internal	0.2322k external	0.2322temperature offset calibration	1.0144default loss term (dB/km)	0.3790temperature slope calibration	1.0000multiplexer offset coefficient	1.0000multiplexer slope coefficient	1.0000fibre end	0.00T internal ref (°C)	31.37T ext. ref 1 (°C)	3.48T ext. ref 2 (°C)	25.98length (m)	temperature (°C)	Stokes	anti-Stokes-747.200	-200.000	-0.047	-0.292
-746.185	-83.239	0.205	-0.067
-745.171	81.003	-0.125	-0.136
-744.156	-200.000	-0.022	0.239
-743.142	-103.377	0.223	-0.053
-742.127	572.739	-0.203	0.499
-741.112	253.700	0.128	0.222
-740.098	52.090	-0.242	0.233
-739.083	-200.000	-0.411	-0.002
-738.069	67.986	-0.164	0.169
-737.054	-121.389	-0.281	0.047
-736.039	346.413	-0.123	0.245
-735.025	541.330	0.187	0.450
-734.010	-80.245	0.059	0.020
-732.996	-74.710	-0.178	0.065
-731.981	329.835	-0.145	-0.282
-730.966	535.045	-0.137	-0.328
-729.952	-131.021	0.156	-0.021
-728.937	800.000	0.066	0.199
-727.923	-200.000	0.013	-0.253
-726.908	118.531	-0.236	-0.294
-725.894	800.000	0.044	-0.190
-724.879	800.000	-0.045	-0.191
-723.864	-200.000	-0.011	-0.173
-722.850	-200.000	0.098	-0.613
-721.835	102.486	-0.048	0.057
-720.821	260.020	-0.055	-0.096
-719.806	21.400	-0.152	-0.125
-718.791	201.857	-0.130	-0.202
-717.777	326.115	0.145	-0.281
-716.762	429.639	0.011	-0.024
-715.748	46.609	0.113	0.106
-714.733	800.000	0.065	-0.203
-713.718	24.707	-0.191	0.159
-712.704	-200.000	-0.014	-0.160
-711.689	-200.000	-0.039	0.327
-710.675	33.414	-0.140	-0.123
-709.660	-31.826	0.345	0.195
-708.645	800.000	0.041	-0.127
-707.631	81.685	0.015	-0.016
-706.616	-27.739	0.256	0.150
-705.602	800.000	-0.053	-0.181
-704.587	800.000	0.053	-0.183
-703.572	800.000	0.048	-0.198
-702.558	59.710	0.208	0.207
-701.543	243.651	-0.108	-0.182
-700.529	6.261	-0.158	0.118
-699.514	800.000	-0.079	0.350
-698.499	-2.763	0.186	-0.131
-697.485	-200.000	-0.029	-0.323
-696.470	268.949	-0.178	-0.315
-695.456	-63.211	0.230	0.096
-694.441	159.920	-0.099	-0.138
-693.426	82.134	-0.026	-0.028
-692.412	253.554	0.052	0.090
-691.397	800.000	0.055	0.195
-690.383	-133.081	-0.302	0.039
-689.368	80.961	0.115	0.125
-688.354	-200.000	-0.013	-0.067
-687.339	800.000	-0.079	-0.290
-686.324	25.498	-0.195	-0.163
-685.310	107.531	-0.100	0.119
-684.295	-200.000	-0.049	-0.239
-683.281	247.157	-0.068	-0.115
-682.266	-36.294	-0.200	-0.108
-681.251	800.000	0.108	-0.343
-680.237	-145.603	-0.105	0.009
-679.222	800.000	-0.065	-0.224
-678.208	-170.192	-0.121	-0.004
-677.193	-200.000	0.000	0.106
-676.178	-200.000	-0.064	-0.336
-675.164	-63.623	-0.253	-0.105
-674.149	-200.000	0.081	-0.365
-673.135	-61.928	-0.280	0.118
-672.120	-121.421	0.250	-0.042
-671.105	-19.033	0.141	0.089
-670.091	172.450	0.055	-0.079
-669.076	-38.316	0.350	0.187
-668.062	800.000	-0.045	-0.146
-667.047	-7.591	-0.149	-0.102
-666.032	-200.000	-0.010	0.079
-665.018	-24.165	0.150	0.090
-664.003	800.000	-0.020	0.077
-662.989	147.936	-0.222	-0.302
-661.974	-24.770	-0.274	0.164
-660.959	800.000	0.014	0.063
-659.945	309.140	-0.042	-0.079
-658.930	22.938	0.077	0.063
-657.916	-88.503	0.242	-0.073
-656.901	93.274	-0.133	-0.151
-655.886	17.859	-0.144	0.115
-654.872	194.420	0.081	0.124
-653.857	-29.570	0.223	-0.129
-652.843	-0.520	0.236	-0.169
-651.828	-200.000	0.028	0.175
-650.814	-153.312	0.067	0.005
-649.799	283.307	-0.061	0.110
-648.784	800.000	0.019	0.062
-647.770	-127.679	-0.124	0.018
-646.755	800.000	0.047	-0.158
-645.741	-161.380	-0.274	-0.014
-644.726	800.000	0.078	0.258
-643.711	-141.997	0.237	-0.024
-642.697	628.914	0.128	-0.325
-641.682	72.971	0.157	0.165
-640.668	-33.062	-0.152	0.085
-639.653	-39.476	0.311	0.164
-638.638	91.628	-0.059	0.066
-637.624	-164.897	-0.290	0.013
-636.609	228.394	0.293	-0.481
-635.595	-90.457	0.112	0.033
-634.580	-68.265	0.107	0.042
-633.565	534.663	-0.106	-0.253
-632.551	800.000	0.145	-0.515
-631.536	730.609	0.053	-0.142
-630.522	18.267	-0.234	-0.188
-629.507	-200.000	-0.252	-0.001
-628.492	-43.901	0.160	0.081
-627.478	-200.000	0.014	-0.138
-626.463	-200.000	-0.002	-0.162
-625.449	-200.000	-0.036	-0.354
-624.434	300.553	0.114	0.211
-623.419	426.915	0.109	0.236
-622.405	49.871	-0.102	-0.097
-621.390	800.000	0.059	-0.190
-620.376	-176.154	0.108	-0.003
-619.361	800.000	0.066	0.209
-618.346	292.980	-0.116	-0.212
-617.332	-56.588	-0.191	-0.085
-616.317	58.925	0.124	-0.122
-615.303	-56.184	-0.186	0.083
-614.288	218.798	-0.058	-0.092
-613.273	-42.519	-0.188	-0.096
-612.259	179.179	-0.210	0.309
-611.244	-101.971	0.188	-0.046
-610.230	-200.000	0.031	-0.275
-609.215	227.615	0.154	-0.251
-608.201	-200.000	-0.039	0.209
-607.186	323.465	-0.116	-0.223
-606.171	-200.000	0.035	0.175
-605.157	229.588	0.167	0.274
-604.142	-200.000	-0.277	0.001
-603.128	-88.236	0.150	0.045
-602.113	5.218	-0.147	-0.109
-601.098	78.791	0.086	0.092
-600.084	-107.935	0.278	0.061
-599.069	169.577	-0.087	-0.125
-598.055	88.626	0.148	0.165
-597.040	-100.390	0.311	0.077
-596.025	-200.000	0.016	0.248
-595.011	49.931	0.061	-0.058
-593.996	86.474	-0.124	0.138
-592.982	-6.922	0.109	0.074
-591.967	27.562	-0.458	-0.387
-590.952	313.107	-0.090	-0.170
-589.938	-48.148	0.100	0.048
-588.923	42.731	0.071	0.065
-587.909	336.598	0.095	0.185
-586.894	24.474	0.259	-0.215
-585.879	305.380	0.136	0.254
-584.865	-36.044	-0.200	-0.109
-583.850	-200.000	-0.013	0.106
-582.836	-200.000	-0.021	0.095
-581.821	18.222	-0.136	0.109
-580.806	-68.905	0.154	-0.060
-579.792	-137.970	0.391	-0.044
-578.777	-23.813	-0.261	0.157
-577.763	-69.652	0.329	-0.126
-576.748	133.780	-0.144	-0.187
-575.733	-37.026	0.119	0.064
-574.719	8.481	0.108	0.082
-573.704	-109.151	0.145	-0.031
-572.690	-200.000	-0.024	-0.414
-571.675	-200.000	0.015	-0.182
-570.661	-114.458	0.201	0.039
-569.646	54.787	-0.085	0.082
-568.631	800.000	0.058	-0.220
-567.617	-48.081	-0.134	-0.065
-566.602	-200.000	-0.025	0.323
-565.588	-76.276	0.257	-0.091
-564.573	-60.385	0.227	-0.097
-563.558	24.381	-0.254	0.211
-562.544	-57.559	0.185	-0.081
-561.529	372.939	0.242	-0.493
-560.515	46.351	0.048	0.045
-559.500	-78.235	-0.164	0.057
-558.485	412.303	0.094	-0.200
-557.471	-200.000	0.010	0.233
-556.456	-144.094	0.314	-0.030
-555.442	-49.348	-0.264	0.126
-554.427	-168.812	0.212	0.008
-553.412	83.234	-0.160	0.175
-552.398	229.417	-0.114	0.187
-551.383	-43.671	-0.377	0.190
-550.369	40.609	-0.069	-0.063
-549.354	0.015	-0.136	0.097
-548.339	-182.410	0.369	-0.007
-547.325	616.666	-0.087	-0.218
-546.310	47.936	0.116	0.109
-545.296	-31.512	-0.065	0.037
-544.281	119.159	-0.062	0.077
-543.266	-200.000	0.019	-0.156
-542.252	101.826	0.113	-0.133
-541.237	-156.873	-0.210	-0.013
-540.223	-200.000	0.031	0.245
-539.208	283.509	0.013	0.023
-538.193	-200.000	0.012	-0.148
-537.179	401.691	0.156	-0.329
-536.164	659.221	-0.117	-0.302
-535.150	41.783	0.330	0.300
-534.135	-30.023	0.369	0.210
-533.121	184.712	0.082	0.121
-532.106	516.615	-0.090	-0.210
-531.091	103.850	0.211	-0.249
-530.077	-139.928	-0.174	0.018
-529.062	-75.989	-0.049	-0.017
-528.048	-200.000	0.032	-0.270
-527.033	800.000	0.040	-0.122
-526.018	-158.173	0.068	-0.004
-525.004	94.976	-0.272	0.310
-523.989	296.821	0.070	0.128
-522.975	259.669	-0.014	0.025
-521.960	88.319	-0.079	-0.088
-520.945	162.884	-0.141	-0.198
-519.931	433.282	-0.040	0.087
-518.916	217.435	0.099	-0.158
-517.902	-138.350	-0.094	0.010
-516.887	-149.415	-0.343	0.027
-515.872	187.413	0.039	-0.058
-514.858	-8.565	-0.527	0.355
-513.843	-138.531	-0.062	0.007
-512.829	-52.825	-0.162	-0.075
-511.814	800.000	-0.044	0.123
-510.799	34.356	0.153	0.133
-509.785	-11.219	-0.200	-0.132
-508.770	145.282	-0.105	-0.141
-507.756	800.000	-0.045	0.137
-506.741	263.659	-0.116	-0.202
-505.726	-56.703	-0.162	-0.072
-504.712	-27.025	0.153	0.090
-503.697	-6.678	-0.040	-0.027
-502.683	-0.442	-0.111	-0.079
-501.668	-111.386	-0.109	-0.022
-500.653	51.031	0.063	-0.060
-499.639	800.000	0.142	-0.478
-498.624	-33.187	0.163	-0.090
-497.610	550.836	0.036	0.086
-496.595	161.247	0.153	-0.215
-495.581	-77.854	-0.167	-0.058
-494.566	800.000	0.074	-0.290
-493.551	594.376	-0.043	-0.106
-492.537	62.835	-0.033	-0.033
-491.522	800.000	-0.086	0.237
-490.508	-28.608	0.401	-0.231
-489.493	-14.289	0.026	0.017
-488.478	-51.125	0.240	-0.112
-487.464	800.000	-0.030	0.084
-486.449	120.770	0.292	0.363
-485.435	154.013	0.219	-0.300
-484.420	264.473	-0.217	0.377
-483.405	-200.000	0.038	-0.192
-482.391	-57.266	-0.106	-0.046
-481.376	-179.352	0.470	0.010
-480.362	-145.667	0.254	0.023
-479.347	511.491	-0.157	0.365
-478.332	-126.045	0.115	-0.017
-477.318	246.807	-0.274	-0.462
-476.303	310.559	0.100	-0.188
-475.289	42.875	0.085	-0.077
-474.274	19.985	-0.271	0.218
-473.259	133.251	0.046	-0.060
-472.245	-200.000	0.026	-0.183
-471.230	658.858	-0.139	0.358
-470.216	38.717	0.378	0.337
-469.201	-22.751	0.055	0.033
-468.186	-76.111	0.211	0.074
-467.172	93.621	0.019	-0.022
-466.157	547.820	-0.060	0.143
-465.143	121.467	-0.106	0.132
-464.128	87.005	0.240	0.265
-463.113	-193.570	0.191	-0.002
-462.099	-122.266	-0.142	0.023
-461.084	717.515	-0.109	0.290
-460.070	54.216	0.199	-0.191
-459.055	-4.733	-0.300	-0.207
-458.040	2.444	-0.253	-0.183
-457.026	113.525	-0.107	0.130
-456.011	-49.261	0.199	0.095
-454.997	-129.874	0.447	-0.061
-453.982	212.150	-0.134	-0.212
-452.968	800.000	-0.015	0.041
-451.953	-64.466	0.264	-0.107
-450.938	-200.000	-0.008	-0.314
-449.924	-59.204	0.107	-0.046
-448.909	-102.728	0.147	0.035
-447.895	277.468	-0.100	0.177
-446.880	-200.000	-0.016	0.120
-445.865	736.566	0.118	-0.315
-444.851	800.000	0.088	0.276
-443.836	-14.586	-0.191	0.123
-442.822	800.000	-0.032	0.138
-441.807	387.828	0.066	0.137
-440.792	199.963	-0.111	0.169
-439.778	139.856	0.086	-0.113
-438.763	85.701	-0.239	-0.263
-437.749	800.000	-0.031	-0.096
-436.734	744.676	0.041	-0.110
-435.719	118.862	0.144	-0.178
-434.705	-67.478	-0.296	0.116
-433.690	-140.477	-0.178	-0.018
-432.676	170.438	0.061	0.087
-431.661	-65.420	-0.052	-0.021
-430.646	-49.039	0.218	0.104
-429.632	800.000	-0.039	-0.120
-428.617	-108.262	0.092	0.020
-427.603	-107.127	0.194	-0.043
-426.588	800.000	-0.022	-0.078
-425.573	-50.065	-0.219	-0.104
-424.559	-200.000	0.016	0.154
-423.544	800.000	-0.035	0.107
-422.530	-25.681	0.145	0.085
-421.515	99.877	-0.298	0.345
-420.500	-200.000	-0.033	0.403
-419.486	44.781	0.172	0.157
-418.471	-128.321	-0.384	0.055
-417.457	-128.823	-0.167	-0.023
-416.442	255.617	-0.085	-0.145
-415.428	-32.667	-0.102	-0.056
-414.413	-200.000	-0.044	-0.309
-413.398	-199.024	-0.171	-0.001
-412.384	-200.000	-0.006	-0.139
-411.369	800.000	0.111	-0.326
-410.355	-72.134	0.174	-0.064
-409.340	64.068	-0.289	0.290
-408.325	204.658	-0.129	-0.199
-407.311	-32.341	-0.231	0.128
-406.296	341.701	0.042	-0.082
-405.282	800.000	-0.048	-0.138
-404.267	-119.673	-0.065	0.011
-403.252	-200.000	-0.008	-0.225
-402.238	-200.000	0.035	-0.192
-401.223	800.000	0.022	0.076
-400.209	-126.264	-0.316	0.047
-399.194	-141.287	0.206	0.021
-398.179	-200.000	0.442	0.001
-397.165	160.050	-0.147	-0.205
-396.150	37.123	0.273	-0.241
-395.136	-130.320	0.228	-0.031
-394.121	-94.148	0.138	-0.038
-393.106	-75.648	-0.251	-0.089
-392.092	-43.205	0.186	-0.094
-391.077	91.365	-0.098	-0.109
-390.063	800.000	-0.112	-0.316
-389.048	-32.494	-0.074	-0.041
-388.033	168.602	-0.040	-0.057
-387.019	39.990	0.216	-0.193
-386.004	-52.800	-0.258	0.119
-384.990	800.000	-0.102	0.365
-383.975	336.640	-0.118	-0.229
-382.960	-74.514	-0.047	0.017
-381.946	99.259	-0.270	0.311
-380.931	-200.000	-0.011	0.143
-379.917	-54.392	-0.082	-0.037
-378.902	150.827	0.269	-0.364
-377.888	6.277	0.128	-0.094
-376.873	-200.000	-0.028	0.147
-375.858	-19.462	-0.353	0.218
-374.844	75.858	-0.132	0.139
-373.829	292.686	0.126	0.229
-372.815	-83.388	-0.191	0.061
-371.800	-122.362	0.114	0.019
-370.785	-162.263	0.313	0.016
-369.771	-161.136	0.023	0.001
-368.756	-82.096	-0.144	0.047
-367.742	70.969	0.053	-0.055
-366.727	91.249	-0.085	-0.095
-365.712	26.208	-0.013	-0.010
-364.698	-64.756	-0.131	0.053
-363.683	-41.258	-0.236	-0.121
-362.669	-61.269	-0.103	-0.043
-361.654	-200.000	-0.001	-0.132
-360.639	578.488	-0.104	0.254
-359.625	49.719	0.176	-0.165
-358.610	-127.585	0.071	0.010
-357.596	-50.139	-0.186	0.087
-356.581	64.030	-0.245	-0.245
-355.566	-87.942	0.209	0.063
-354.552	-200.000	-0.011	-0.117
-353.537	-200.000	-0.016	-0.162
-352.523	-106.836	-0.122	0.027
-351.508	-107.952	-0.247	-0.053
-350.493	-200.000	-0.034	-0.261
-349.479	-87.980	-0.223	0.067
-348.464	-0.298	0.228	-0.162
-347.450	-200.000	0.035	-0.371
-346.435	-107.366	0.280	-0.061
-345.420	800.000	0.050	-0.164
-344.406	242.841	0.123	0.204
-343.391	-200.000	0.044	0.265
-342.377	800.000	0.072	0.310
-341.362	-50.135	0.239	0.112
-340.348	79.355	0.158	-0.168
-339.333	800.000	0.037	-0.142
-338.318	-200.000	0.007	0.231
-337.304	-64.621	0.244	0.098
-336.289	-57.643	0.095	0.041
-335.275	205.071	-0.230	0.355
-334.260	-137.954	-0.089	0.010
-333.245	800.000	-0.015	0.051
-332.231	-71.646	0.032	0.012
-331.216	-123.737	0.197	0.031
-330.202	260.963	-0.030	-0.052
-329.187	-200.000	0.006	-0.096
-328.172	132.505	-0.110	0.140
-327.158	800.000	-0.071	-0.214
-326.143	-200.000	0.022	-0.406
-325.129	3.237	0.352	-0.255
-324.114	146.414	-0.076	-0.101
-323.099	-200.000	0.052	0.407
-322.085	-115.706	-0.145	0.027
-321.070	-50.486	-0.150	-0.070
-320.056	36.212	0.200	0.175
-319.041	-200.000	-0.024	0.206
-318.026	-25.999	0.129	-0.075
-317.012	800.000	-0.092	-0.290
-315.997	-81.480	-0.210	-0.069
-314.983	-200.000	-0.015	-0.079
-313.968	800.000	-0.041	-0.160
-312.953	94.444	-0.011	-0.013
-311.939	362.887	0.087	0.174
-310.924	332.645	0.152	0.291
-309.910	-23.906	0.177	0.105
-308.895	34.190	0.368	0.319
-307.880	-124.777	-0.114	-0.018
-306.866	-200.000	-0.061	0.410
-305.851	-70.873	-0.265	-0.099
-304.837	-87.865	-0.151	-0.045
-303.822	-164.701	0.160	-0.007
-302.807	-200.000	0.082	-0.376
-301.793	-29.724	0.235	0.133
-300.778	602.283	-0.084	0.206
-299.764	-80.739	0.210	-0.069
-298.749	18.982	0.230	-0.183
-297.735	-17.920	-0.115	0.072
-296.720	-47.379	0.156	0.075
-295.705	-15.398	0.169	-0.107
-294.691	81.011	-0.087	-0.093
-293.676	-78.528	-0.378	-0.129
-292.662	667.681	0.111	-0.285
-291.647	-41.729	0.436	0.222
-290.632	-200.000	-0.051	0.354
-289.618	-38.818	0.069	-0.036
-288.603	-12.547	-0.287	-0.186
-287.589	-101.301	0.329	0.080
-286.574	28.127	-0.138	-0.116
-285.559	-55.217	0.042	-0.019
-284.545	11.301	-0.132	-0.100
-283.530	302.266	0.180	-0.330
-282.516	92.337	-0.163	-0.182
-281.501	-159.770	-0.180	-0.010
-280.486	-172.049	-0.046	0.001
-279.472	-200.000	-0.027	0.142
-278.457	-21.568	-0.135	0.082
-277.443	-152.040	-0.292	-0.021
-276.428	-44.155	-0.171	-0.085
-275.413	800.000	0.058	0.252
-274.399	-200.000	0.053	0.318
-273.384	6.421	-0.168	0.124
-272.370	-200.000	0.001	-0.230
-271.355	800.000	0.009	0.036
-270.340	-153.466	0.250	0.017
-269.326	12.101	-0.155	-0.118
-268.311	87.402	-0.094	0.104
-267.297	-161.183	-0.114	0.006
-266.282	-60.616	0.081	-0.034
-265.267	-200.000	0.007	-0.155
-264.253	800.000	-0.051	0.202
-263.238	800.000	-0.071	0.253
-262.224	34.795	0.198	-0.172
-261.209	-45.166	0.075	0.037
-260.195	76.534	-0.102	0.107
-259.180	800.000	-0.038	-0.118
-258.165	175.039	-0.068	0.098
-257.151	-129.019	-0.050	-0.007
-256.136	-103.694	-0.321	0.075
-255.122	132.603	0.173	0.221
-254.107	-200.000	-0.047	0.431
-253.092	379.180	0.093	-0.189
-252.078	446.186	-0.041	-0.090
-251.063	75.768	0.201	0.210
-250.049	494.317	-0.083	0.188
-249.034	-200.000	0.020	-0.190
-248.019	7.288	0.027	-0.020
-247.005	177.195	0.088	0.127
-245.990	70.766	-0.214	0.219
-244.976	-39.273	-0.234	-0.122
-243.961	800.000	0.027	0.078
-242.946	0.059	-0.082	0.058
-241.932	-5.186	-0.135	0.092
-240.917	-51.386	-0.283	-0.131
-239.903	-9.147	-0.359	0.238
-238.888	-200.000	-0.010	0.123
-237.873	-32.444	0.293	0.162
-236.859	424.060	0.063	0.134
-235.844	-81.704	0.262	0.085
-234.830	-200.000	0.001	0.045
-233.815	-95.387	-0.175	0.046
-232.800	7.741	-0.157	0.117
-231.786	148.630	-0.057	-0.076
-230.771	-49.051	-0.067	0.032
-229.757	278.017	0.128	0.226
-228.742	47.370	-0.287	0.265
-227.727	-200.000	-0.023	0.307
-226.713	-200.000	-0.008	0.392
-225.698	377.594	-0.023	0.046
-224.684	-200.000	0.006	-0.049
-223.669	-15.656	-0.184	0.116
-222.655	40.937	0.148	0.132
-221.640	-200.000	-0.014	0.139
-220.625	373.180	0.082	0.165
-219.611	75.135	-0.099	0.103
-218.596	800.000	-0.097	-0.265
-217.582	790.460	0.035	-0.094
-216.567	-5.323	0.264	0.179
-215.552	-200.000	-0.022	0.142
-214.538	-63.918	-0.044	0.018
-213.523	200.602	-0.040	-0.061
-212.509	127.249	0.209	0.263
-211.494	-56.998	-0.087	-0.038
-210.479	174.356	-0.054	-0.077
-209.465	117.517	-0.142	-0.173
-208.450	800.000	0.083	-0.328
-207.436	800.000	0.120	-0.379
-206.421	800.000	-0.072	0.271
-205.406	800.000	-0.061	-0.228
-204.392	-200.000	0.015	-0.270
-203.377	-200.000	-0.023	0.231
-202.363	139.434	-0.236	0.307
-201.348	800.000	0.023	-0.070
-200.333	-200.000	-0.011	-0.104
-199.319	-200.000	-0.006	0.048
-198.304	-200.000	-0.030	-0.167
-197.290	800.000	0.081	-0.254
-196.275	547.129	0.162	0.383
-195.260	119.499	-0.053	0.065
-194.246	-200.000	-0.045	-0.282
-193.231	-130.536	0.068	0.009
-192.217	498.054	0.051	-0.117
-191.202	2.339	0.156	0.111
-190.187	-11.229	0.053	-0.034
-189.173	60.900	-0.093	0.092
-188.158	-40.637	-0.086	0.044
-187.144	-181.235	0.303	0.006
-186.129	-92.094	0.086	0.024
-185.114	-200.000	-0.009	-0.123
-184.100	-173.103	-0.121	0.004
-183.085	169.836	-0.166	-0.235
-182.071	-200.000	-0.048	0.381
-181.056	304.504	-0.098	-0.179
-180.042	-200.000	-0.009	-0.054
-179.027	715.497	-0.112	0.294
-178.012	247.264	-0.097	-0.161
-176.998	-200.000	0.012	0.101
-175.983	800.000	-0.067	-0.250
-174.969	-45.002	0.133	-0.066
-173.954	-3.486	-0.319	-0.220
-172.939	-36.697	-0.400	0.212
-171.925	-41.534	-0.246	0.125
-170.910	-200.000	-0.001	0.208
-169.896	-2.234	0.177	0.122
-168.881	220.891	-0.077	-0.122
-167.866	-171.936	0.213	-0.007
-166.852	-172.884	-0.208	0.006
-165.837	-200.000	-0.006	-0.193
-164.823	116.919	-0.091	-0.111
-163.808	61.526	0.060	0.059
-162.793	800.000	-0.106	0.445
-161.779	-137.188	0.432	-0.049
-160.764	-144.958	0.138	-0.012
-159.750	309.071	-0.198	0.366
-158.735	-200.000	0.014	0.068
-157.720	-200.000	0.013	0.235
-156.706	-124.803	0.463	0.071
-155.691	-29.811	0.214	-0.121
-154.677	647.500	0.113	-0.285
-153.662	102.684	-0.242	-0.280
-152.647	240.617	0.122	0.200
-151.633	-200.000	0.054	0.232
-150.618	321.324	-0.125	0.234
-149.604	520.492	0.016	-0.036
-148.589	-114.933	0.151	-0.028
-147.574	82.448	0.104	0.111
-146.560	-200.000	0.019	-0.100
-145.545	-80.682	-0.120	-0.039
-144.531	-64.288	-0.237	-0.095
-143.516	55.602	0.136	-0.130
-142.502	-40.586	0.370	-0.190
-141.487	-120.150	0.312	-0.053
-140.472	-106.770	0.086	0.019
-139.458	-90.985	0.015	0.004
-138.443	-122.136	-0.289	-0.047
-137.429	-200.000	-0.113	0.538
-136.414	268.369	-0.033	0.056
-135.399	57.141	0.228	0.219
-134.385	-86.423	0.181	0.055
-133.370	-53.188	0.343	0.156
-132.356	800.000	0.046	0.138
-131.341	-45.789	0.148	0.072
-130.326	-8.119	-0.235	0.156
-129.312	150.986	-0.136	-0.182
-128.297	269.384	0.076	0.131
-127.283	-196.468	-0.316	-0.002
-126.268	-33.359	0.282	-0.154
-125.253	44.142	0.246	-0.223
-124.239	498.017	-0.101	0.230
-123.224	-200.000	-0.018	-0.222
-122.210	-52.258	-0.078	0.036
-121.195	-200.000	-0.026	-0.228
