DTS Sentinel unit serial number:	SN413079Multiplexer serial number:	ORYXHardware model number:	OX4-SRSoftware version number:	ORYX F/W v4.00 Oryx Data Collector v3.7.2.0data status	okinstallation	princeton_trtdifferential loss correction	single-endedforward channel	channel 1reverse channel	N/Adate	2019/09/18time	22:14:35forward acquisition time	60.00reverse acquisition time	0.00gamma	496.2192k internal	0.2341k external	0.2341temperature offset calibration	1.0023default loss term (dB/km)	0.3790temperature slope calibration	1.0000multiplexer offset coefficient	1.0000multiplexer slope coefficient	1.0000fibre end	0.00T internal ref (°C)	24.39T ext. ref 1 (°C)	0.80T ext. ref 2 (°C)	18.18length (m)	temperature (°C)	Stokes	anti-Stokes-747.200	342.111	0.031	0.061
-746.185	-75.012	-0.292	0.105
-745.171	621.496	-0.037	0.094
-744.156	-74.021	-0.167	0.061
-743.142	92.632	-0.092	-0.104
-742.127	-10.845	-0.280	0.185
-741.112	-39.330	-0.443	-0.233
-740.098	-137.090	0.082	-0.009
-739.083	-200.000	-0.021	0.116
-738.069	-11.506	-0.245	0.161
-737.054	-91.031	0.206	-0.059
-736.039	475.298	-0.198	-0.449
-735.025	-8.432	0.326	0.220
-734.010	-51.955	0.064	-0.030
-732.996	-113.150	-0.353	0.070
-731.981	-63.851	0.243	0.100
-730.966	-163.458	-0.166	0.008
-729.952	147.077	-0.188	-0.254
-728.937	78.008	-0.186	0.199
-727.923	39.802	0.069	0.062
-726.908	445.731	-0.050	-0.109
-725.894	291.176	0.050	-0.091
-724.879	-10.262	-0.155	-0.103
-723.864	-200.000	0.000	-0.250
-722.850	63.661	0.221	-0.222
-721.835	-161.983	0.086	-0.004
-720.821	643.835	-0.089	0.228
-719.806	-47.690	0.319	-0.155
-718.791	33.014	0.225	0.195
-717.777	800.000	-0.114	-0.319
-716.762	348.658	-0.197	0.389
-715.748	134.448	-0.129	0.167
-714.733	229.171	0.191	0.312
-713.718	-16.764	0.148	-0.094
-712.704	147.385	-0.007	-0.009
-711.689	800.000	-0.106	-0.343
-710.675	-44.640	-0.045	0.022
-709.660	-34.958	-0.092	0.050
-708.645	-200.000	0.029	-0.147
-707.631	-16.537	-0.230	-0.146
-706.616	800.000	0.081	0.286
-705.602	-139.118	0.047	-0.005
-704.587	157.021	0.225	-0.311
-703.572	-41.829	0.228	-0.117
-702.558	-82.205	0.111	-0.036
-701.543	-200.000	0.076	-0.363
-700.529	-116.283	0.209	-0.039
-699.514	-70.549	0.305	-0.115
-698.499	-127.626	-0.018	-0.003
-697.485	-92.457	0.156	0.044
-696.470	-104.046	0.166	0.039
-695.456	-0.275	-0.166	0.118
-694.441	-150.767	-0.350	0.027
-693.426	-144.199	0.120	0.011
-692.412	-68.449	0.243	-0.094
-691.397	-170.435	-0.170	-0.006
-690.383	-46.893	-0.261	0.128
-689.368	-93.040	0.132	-0.037
-688.354	-200.000	-0.239	0.000
-687.339	92.965	0.071	-0.081
-686.324	-200.000	-0.072	-0.361
-685.310	-84.425	-0.228	-0.072
-684.295	-30.500	0.277	-0.157
-683.281	-45.870	-0.217	0.107
-682.266	-32.595	-0.184	-0.102
-681.251	-200.000	-0.054	-0.299
-680.237	800.000	-0.095	-0.291
-679.222	239.419	0.135	0.225
-678.208	800.000	-0.068	-0.222
-677.193	-200.000	0.014	-0.229
-676.178	264.361	-0.095	-0.165
-675.164	-200.000	-0.016	-0.421
-674.149	-200.000	-0.028	-0.236
-673.135	-63.200	0.163	-0.067
-672.120	159.637	0.090	0.126
-671.105	750.042	-0.130	-0.351
-670.091	736.965	-0.043	-0.116
-669.076	800.000	-0.036	-0.151
-668.062	139.706	-0.089	0.118
-667.047	-200.000	-0.007	-0.117
-666.032	28.051	0.076	0.064
-665.018	-128.852	-0.286	-0.040
-664.003	-6.436	0.172	0.117
-662.989	-150.623	-0.200	0.015
-661.974	340.983	-0.073	0.143
-660.959	-135.002	0.027	-0.003
-659.945	66.299	-0.168	0.171
-658.930	-85.530	0.040	-0.012
-657.916	800.000	0.049	-0.203
-656.901	-200.000	0.017	-0.400
-655.886	141.968	0.226	-0.299
-654.872	-200.000	-0.013	-0.155
-653.857	-12.709	0.417	0.272
-652.843	42.969	-0.341	-0.310
-651.828	-200.000	-0.029	-0.179
-650.814	91.627	-0.268	-0.301
-649.799	-25.999	-0.068	0.040
-648.784	-92.856	-0.091	-0.025
-647.770	0.856	0.105	-0.075
-646.755	-200.000	-0.031	-0.307
-645.741	275.149	0.106	-0.188
-644.726	-200.000	0.011	-0.141
-643.711	-17.149	0.389	-0.245
-642.697	-59.186	-0.283	-0.122
-641.682	467.174	-0.057	0.128
-640.668	-25.182	-0.269	-0.159
-639.653	-90.103	0.362	0.105
-638.638	-56.220	0.097	-0.043
-637.624	-70.527	-0.126	-0.048
-636.609	375.586	0.027	0.055
-635.595	-20.071	0.197	0.121
-634.580	16.418	-0.136	0.107
-633.565	-152.618	0.145	-0.010
-632.551	195.612	0.098	0.149
-631.536	-200.000	-0.007	0.038
-630.522	-23.871	-0.210	-0.125
-629.507	800.000	-0.063	0.188
-628.492	-78.787	-0.504	0.172
-627.478	800.000	-0.065	-0.242
-626.463	-65.631	0.122	-0.049
-625.449	52.842	0.032	0.030
-624.434	-151.419	0.090	-0.007
-623.419	15.201	-0.071	0.056
-622.405	426.206	0.025	-0.055
-621.390	146.490	0.139	-0.186
-620.376	-144.755	-0.136	-0.012
-619.361	-65.732	-0.217	0.087
-618.346	-105.221	0.300	-0.068
-617.332	-51.798	-0.129	0.060
-616.317	-200.000	-0.026	-0.167
-615.303	-107.049	-0.451	-0.099
-614.288	59.960	0.055	-0.054
-613.273	14.761	-0.232	0.181
-612.259	10.659	-0.170	-0.129
-611.244	-200.000	-0.025	-0.128
-610.230	-200.000	0.003	0.086
-609.215	41.025	-0.082	-0.074
-608.201	800.000	0.017	0.056
-607.186	113.664	-0.227	-0.275
-606.171	-114.742	0.036	0.007
-605.157	-38.296	0.083	0.044
-604.142	-6.746	0.169	-0.114
-603.128	186.366	-0.011	0.016
-602.113	-200.000	-0.046	0.489
-601.098	120.105	0.277	0.343
-600.084	-24.238	-0.271	-0.161
-599.069	-85.679	-0.060	-0.018
-598.055	-200.000	0.001	-0.088
-597.040	-48.632	0.062	0.030
-596.025	-174.078	0.157	0.005
-595.011	-200.000	0.002	-0.185
-593.996	-136.206	-0.086	0.010
-592.982	-200.000	-0.003	0.080
-591.967	800.000	-0.065	-0.181
-590.952	-95.440	-0.252	-0.067
-589.938	-192.989	-0.147	0.001
-588.923	-27.709	-0.207	-0.120
-587.909	642.760	0.097	0.246
-586.894	-29.935	0.198	-0.112
-585.879	55.322	0.235	0.227
-584.865	-69.840	0.225	-0.085
-583.850	-21.120	0.253	0.154
-582.836	111.649	-0.062	-0.074
-581.821	-128.040	0.341	0.049
-580.806	26.747	-0.104	0.087
-579.792	182.763	-0.187	0.275
-578.777	94.056	-0.126	-0.142
-577.763	161.440	-0.041	0.057
-576.748	-71.876	-0.067	0.025
-575.733	-200.000	0.003	-0.182
-574.719	-10.525	-0.255	0.168
-573.704	79.193	-0.262	-0.279
-572.690	-116.120	0.023	0.004
-571.675	142.109	0.120	0.159
-570.661	-1.411	-0.260	-0.183
-569.646	-154.767	0.383	-0.025
-568.631	37.787	-0.136	0.121
-567.617	109.051	-0.082	-0.098
-566.602	-87.019	-0.302	-0.092
-565.588	15.595	-0.370	-0.289
-564.573	36.574	-0.108	0.095
-563.558	646.087	0.059	0.150
-562.544	-200.000	0.001	0.067
-561.529	800.000	0.049	0.148
-560.515	-130.082	0.054	0.007
-559.500	-16.094	-0.096	0.061
-558.485	37.148	0.037	0.033
-557.471	327.130	0.086	0.164
-556.456	-200.000	-0.051	0.346
-555.442	-200.000	-0.013	0.207
-554.427	-50.599	-0.118	-0.055
-553.412	-49.390	-0.258	0.123
-552.398	-80.582	-0.514	-0.170
-551.383	68.797	-0.235	0.239
-550.369	267.198	-0.039	0.068
-549.354	59.281	0.166	0.163
-548.339	72.894	-0.113	0.118
-547.325	-200.000	0.053	0.329
-546.310	-200.000	0.014	0.084
-545.296	248.930	-0.242	0.407
-544.281	-200.000	-0.044	0.344
-543.266	-200.000	0.105	-0.000
-542.252	800.000	0.088	0.297
-541.237	-107.076	-0.203	0.045
-540.223	141.419	0.142	-0.187
-539.208	-107.305	-0.151	0.033
-538.193	733.444	0.054	-0.145
-537.179	-115.032	-0.260	-0.049
-536.164	351.632	0.217	-0.428
-535.150	800.000	0.089	0.258
-534.135	86.490	-0.179	0.196
-533.121	231.866	-0.072	-0.118
-532.106	-167.805	0.048	-0.002
-531.091	-83.870	-0.439	0.139
-530.077	57.091	0.110	0.107
-529.062	-12.193	-0.216	-0.140
-528.048	-200.000	-0.069	-0.380
-527.033	6.500	-0.258	-0.190
-526.018	-64.183	0.164	-0.067
-525.004	-200.000	-0.004	0.053
-523.989	-133.938	-0.094	0.012
-522.975	800.000	0.075	0.267
-521.960	-200.000	-0.006	0.090
-520.945	57.651	-0.182	-0.177
-519.931	-145.611	-0.039	-0.004
-518.916	-183.140	0.531	0.009
-517.902	-200.000	-0.009	-0.117
-516.887	20.740	-0.323	0.260
-515.872	800.000	0.069	-0.235
-514.858	-90.774	-0.178	0.051
-513.843	800.000	-0.112	-0.319
-512.829	800.000	0.101	0.325
-511.814	-47.935	0.199	-0.096
-510.799	-200.000	-0.051	-0.624
-509.785	125.391	-0.204	-0.256
-508.770	-145.293	-0.259	0.023
-507.756	-200.000	-0.000	-0.129
-506.741	-102.391	0.155	-0.037
-505.726	-53.299	-0.224	0.102
-504.712	22.794	0.269	0.219
-503.697	9.755	0.146	-0.110
-502.683	-200.000	-0.033	0.379
-501.668	-129.013	0.412	-0.057
-500.653	-200.000	0.046	0.221
-499.639	-172.089	0.247	0.008
-498.624	-200.000	-0.019	-0.300
-497.610	-6.015	0.117	0.079
-496.595	800.000	-0.098	-0.282
-495.581	-74.043	-0.273	-0.098
-494.566	800.000	0.093	0.265
-493.551	568.574	0.110	-0.266
-492.537	134.048	0.105	0.135
-491.522	-64.860	-0.105	0.042
-490.508	-143.223	-0.136	-0.013
-489.493	-200.000	-0.255	0.001
-488.478	-200.000	0.059	-0.272
-487.464	-24.270	-0.370	-0.219
-486.449	-200.000	0.071	0.386
-485.435	285.937	0.107	-0.192
-484.420	-49.517	0.033	0.015
-483.405	-140.967	0.158	0.016
-482.391	-8.289	0.054	-0.036
-481.376	-93.324	-0.296	-0.082
-480.362	772.334	0.111	-0.300
-479.347	519.882	0.063	0.145
-478.332	11.867	0.102	0.078
-477.318	137.538	0.100	0.130
-476.303	-200.000	0.111	0.488
-475.289	-25.699	0.329	0.192
-474.274	-88.272	-0.302	0.090
-473.259	800.000	-0.105	-0.345
-472.245	-191.278	-0.207	-0.002
-471.230	-59.444	0.082	-0.035
-470.216	-200.000	0.000	0.073
-469.201	-47.596	-0.165	-0.080
-468.186	0.476	0.285	0.202
-467.172	800.000	-0.080	-0.271
-466.157	-43.237	0.185	-0.093
-465.143	12.625	0.160	-0.123
-464.128	-73.501	-0.193	-0.070
-463.113	-115.491	0.252	0.047
-462.099	16.673	0.103	-0.081
-461.084	800.000	-0.017	-0.058
-460.070	-146.080	0.292	0.026
-459.055	800.000	-0.017	0.069
-458.040	-104.414	-0.274	0.063
-457.026	421.800	-0.086	0.182
-456.011	-98.521	0.075	0.019
-454.997	544.220	0.098	-0.231
-453.982	-200.000	0.013	-0.087
-452.968	94.043	0.224	0.252
-451.953	726.094	-0.112	0.295
-450.938	64.559	-0.179	0.179
-449.924	800.000	0.037	0.117
-448.909	58.197	0.121	-0.117
-447.895	-6.762	-0.027	0.018
-446.880	-89.790	-0.268	-0.078
-445.865	-169.639	0.280	0.010
-444.851	-200.000	-0.037	-0.429
-443.836	-59.160	-0.175	-0.075
-442.822	-39.822	0.248	0.128
-441.807	458.428	-0.119	0.262
-440.792	-200.000	0.072	0.389
-439.778	28.078	0.260	0.217
-438.763	-200.000	-0.016	-0.114
-437.749	-9.838	0.302	-0.199
-436.734	392.719	-0.237	-0.489
-435.719	-131.322	0.174	0.023
-434.705	-101.909	0.093	0.022
-433.690	4.715	0.098	-0.071
-432.676	-66.890	0.170	0.066
-431.661	800.000	-0.023	-0.079
-430.646	72.393	0.193	-0.199
-429.632	134.918	0.140	0.180
-428.617	431.787	0.200	-0.429
-427.603	-147.088	0.056	-0.005
-426.588	-200.000	-0.035	-0.201
-425.573	-200.000	0.014	-0.112
-424.559	-83.840	-0.027	0.008
-423.544	1.065	0.212	-0.151
-422.530	-59.056	-0.366	0.156
-421.515	800.000	-0.048	-0.201
-420.500	85.081	0.082	-0.089
-419.486	-13.519	0.324	-0.208
-418.471	30.162	-0.172	0.145
-417.457	173.750	-0.123	-0.176
-416.442	180.299	0.028	0.040
-415.428	3.177	-0.080	0.058
-414.413	-112.852	0.086	-0.017
-413.398	-13.203	-0.128	-0.082
-412.384	-117.490	-0.217	-0.039
-411.369	-200.000	-0.006	-0.147
-410.355	132.391	0.124	-0.158
-409.340	-200.000	-0.015	0.323
-408.325	40.269	0.170	0.151
-407.311	622.391	-0.094	-0.233
-406.296	-200.000	-0.246	-0.000
-405.282	-178.729	-0.091	0.002
-404.267	443.283	0.032	0.069
-403.252	-200.000	0.030	0.224
-402.238	-200.000	0.022	-0.110
-401.223	76.915	-0.178	-0.187
-400.209	320.628	0.157	0.294
-399.194	-63.104	-0.202	-0.082
-398.179	-19.132	0.035	0.022
-397.165	-171.392	0.314	0.010
-396.150	-200.000	-0.018	-0.212
-395.136	-143.239	-0.256	0.024
-394.121	-200.000	-0.028	-0.126
-393.106	-38.913	-0.223	0.116
-392.092	507.383	-0.063	-0.144
-391.077	-2.726	0.066	-0.046
-390.063	205.239	0.109	-0.167
-389.048	-29.567	-0.188	0.106
-388.033	252.133	0.065	-0.109
-387.019	30.180	0.147	-0.124
-386.004	-200.000	-0.028	-0.166
-384.990	-77.612	-0.117	-0.040
-383.975	800.000	-0.044	-0.169
-382.960	800.000	0.044	-0.157
-381.946	54.809	-0.144	-0.138
-380.931	130.895	0.062	-0.079
-379.917	-103.088	-0.228	0.053
-378.902	131.619	0.261	-0.332
-377.888	322.412	-0.111	0.208
-376.873	438.036	0.125	0.270
-375.858	-41.727	0.279	-0.142
-374.844	30.361	0.241	0.204
-373.829	-155.028	-0.214	0.014
-372.815	176.491	0.102	-0.147
-371.800	-181.757	0.253	0.005
-370.785	107.676	0.290	-0.341
-369.771	-200.000	0.032	-0.149
-368.756	18.899	-0.327	0.259
-367.742	800.000	0.112	0.380
-366.727	215.455	-0.145	-0.227
-365.712	-157.846	-0.189	-0.011
-364.698	-135.148	0.177	0.021
-363.683	-200.000	-0.027	0.164
-362.669	97.139	-0.032	-0.037
-361.654	-94.443	-0.138	-0.037
-360.639	185.109	0.038	-0.055
-359.625	800.000	-0.093	0.384
-358.610	576.140	0.155	-0.374
-357.596	4.040	0.131	0.094
-356.581	-60.689	0.129	-0.054
-355.566	396.972	-0.040	0.083
-354.552	-7.641	-0.072	0.048
-353.537	120.635	-0.328	0.402
-352.523	116.468	0.215	0.261
-351.508	-0.970	0.063	0.044
-350.493	-200.000	-0.028	-0.271
-349.479	-200.000	-0.049	-0.218
-348.464	-83.242	-0.121	0.038
-347.450	-151.299	-0.535	-0.039
-346.435	800.000	0.133	-0.397
-345.420	422.185	-0.128	0.271
-344.406	-92.353	0.093	-0.026
-343.391	11.860	0.082	0.062
-342.377	-6.161	-0.149	0.100
-341.362	-133.773	-0.157	-0.019
-340.348	19.772	0.219	-0.174
-339.333	194.026	0.073	-0.109
-338.318	177.361	-0.159	0.228
-337.304	-59.041	-0.020	0.009
-336.289	-43.327	0.067	0.033
-335.275	10.110	0.267	-0.200
-334.260	-113.283	-0.249	0.048
-333.245	-55.432	0.248	0.110
-332.231	-22.029	0.089	0.053
-331.216	-164.350	0.077	0.003
-330.202	47.400	-0.160	-0.147
-329.187	-24.066	0.239	-0.141
-328.172	-46.220	0.062	-0.030
-327.158	7.678	-0.212	0.157
-326.143	800.000	-0.087	-0.252
-325.129	-200.000	-0.047	0.307
-324.114	-95.312	-0.321	0.085
-323.099	800.000	0.066	-0.255
-322.085	14.979	-0.182	-0.140
-321.070	800.000	0.041	-0.169
-320.056	293.039	0.032	0.058
-319.041	-59.865	0.217	0.091
-318.026	-123.250	0.211	-0.033
-317.012	112.193	-0.160	0.191
-315.997	597.994	-0.053	0.130
-314.983	-200.000	0.044	0.255
-313.968	-5.654	-0.077	-0.052
-312.953	74.533	-0.224	0.232
-311.939	69.030	0.177	0.179
-310.924	528.827	-0.103	0.240
-309.910	-27.077	0.404	0.232
-308.895	445.940	-0.084	0.182
-307.880	-6.765	0.168	-0.112
-306.866	14.218	-0.263	-0.202
-305.851	-60.972	-0.101	0.042
-304.837	69.497	-0.174	-0.176
-303.822	-200.000	0.001	0.024
-302.807	800.000	0.054	0.154
-301.793	-147.129	-0.166	0.014
-300.778	-27.171	-0.029	0.017
-299.764	-90.745	0.118	0.034
-298.749	-21.871	-0.179	-0.107
-297.735	800.000	0.047	-0.158
-296.720	-200.000	0.004	-0.046
-295.705	-63.294	-0.152	0.062
-294.691	-112.144	0.249	0.049
-293.676	45.047	-0.216	-0.196
-292.662	-158.093	-0.286	0.017
-291.647	70.807	0.125	-0.127
-290.632	-125.582	0.216	0.032
-289.618	102.903	0.132	-0.153
-288.603	-200.000	0.076	-0.361
-287.589	442.547	-0.105	-0.226
-286.574	-170.266	-0.096	0.003
-285.559	-96.871	-0.292	-0.076
-284.545	-200.000	-0.035	0.236
-283.530	6.795	-0.130	-0.095
-282.516	382.010	0.059	0.119
-281.501	86.022	0.059	0.064
-280.486	46.836	0.308	0.281
-279.472	-113.096	-0.205	0.040
-278.457	-35.564	0.188	0.100
-277.443	-200.000	0.005	0.152
-276.428	-2.681	-0.198	-0.136
-275.413	-92.320	-0.094	-0.026
-274.399	-120.002	-0.251	-0.042
-273.384	366.333	-0.204	-0.405
-272.370	-28.704	-0.075	0.042
-271.355	-200.000	0.019	0.088
-270.340	-17.931	0.272	-0.168
-269.326	-49.813	0.234	0.109
-268.311	-30.670	0.278	0.155
-267.297	-74.885	-0.180	-0.064
-266.282	-99.682	0.166	-0.041
-265.267	203.770	-0.243	-0.370
-264.253	-30.549	0.182	-0.102
-263.238	-112.100	0.110	-0.022
-262.224	800.000	0.017	0.059
-261.209	501.467	0.232	-0.527
-260.195	766.417	-0.050	-0.134
-259.180	637.216	0.039	0.098
-258.165	81.794	0.248	0.264
-257.151	-200.000	-0.035	-0.195
-256.136	634.690	-0.156	0.389
-255.122	-74.498	0.272	0.096
-254.107	106.357	-0.219	0.255
-253.092	265.008	0.206	0.353
-252.078	-93.479	0.186	-0.051
-251.063	-51.452	-0.089	0.041
-250.049	-200.000	-0.005	0.155
-249.034	800.000	0.046	-0.153
-248.019	800.000	-0.069	-0.215
-247.005	-119.504	0.146	-0.025
-245.990	48.069	0.303	-0.278
-244.976	-136.664	-0.198	0.023
-243.961	-142.515	0.135	-0.013
-242.946	-22.805	-0.134	-0.079
-241.932	-200.000	0.060	-0.285
-240.917	506.830	-0.022	-0.049
-239.903	-181.901	0.298	-0.006
-238.888	246.299	0.130	0.216
-237.873	-75.772	-0.105	-0.037
-236.859	-176.023	0.104	-0.003
-235.844	-141.394	0.388	-0.039
-234.830	800.000	-0.065	-0.267
-233.815	-76.337	0.149	0.051
-232.800	-200.000	0.048	-0.215
-231.786	9.238	-0.104	-0.077
-230.771	-57.539	0.053	0.023
-229.757	-145.383	0.218	0.019
-228.742	-56.331	0.196	0.086
-227.727	-42.406	-0.349	0.175
-226.713	-140.618	-0.363	-0.037
-225.698	59.762	-0.215	0.208
-224.684	-195.000	0.260	-0.002
-223.669	-200.000	0.059	0.421
-222.655	-184.819	0.207	0.003
-221.640	-90.753	-0.244	0.069
-220.625	-131.752	-0.189	-0.024
-219.611	-200.000	-0.081	-0.488
-218.596	-29.593	0.136	0.077
-217.582	169.388	-0.049	-0.069
-216.567	-200.000	0.063	-0.349
-215.552	117.041	-0.034	-0.041
-214.538	-200.000	-0.042	0.299
-213.523	63.201	-0.095	0.093
-212.509	149.328	0.228	-0.303
-211.494	-35.703	0.332	0.176
-210.479	-119.066	-0.207	-0.035
-209.465	84.193	-0.181	0.194
-208.450	282.108	-0.191	0.336
-207.436	458.859	0.126	-0.274
-206.421	-103.670	0.224	0.052
-205.406	-200.000	0.003	0.036
-204.392	-87.008	0.132	-0.039
-203.377	-104.468	-0.180	-0.041
-202.363	-200.000	0.014	0.100
-201.348	-169.613	0.297	0.011
-200.333	140.001	0.132	-0.171
-199.319	-87.232	-0.200	-0.060
-198.304	-174.784	0.231	-0.006
-197.290	181.152	0.063	0.091
-196.275	800.000	-0.031	-0.127
-195.260	38.628	0.120	0.105
-194.246	437.337	0.119	-0.255
-193.231	-124.207	-0.616	0.095
-192.217	-50.486	-0.183	0.085
-191.202	800.000	0.036	0.147
-190.187	-67.815	-0.312	0.120
-189.173	348.286	0.139	0.270
-188.158	208.612	0.071	0.109
-187.144	59.954	0.032	-0.031
-186.129	800.000	-0.044	0.122
-185.114	-129.521	0.234	0.032
-184.100	-87.632	0.240	-0.071
-183.085	512.108	0.053	0.120
-182.071	-4.952	0.296	-0.200
-181.056	-85.934	-0.011	0.003
-180.042	800.000	0.053	-0.202
-179.027	-66.831	0.072	0.028
-178.012	-65.972	-0.093	0.036
-176.998	-159.244	0.187	0.010
-175.983	-7.304	-0.042	0.028
-174.969	-21.465	0.189	-0.113
-173.954	800.000	0.022	-0.088
-172.939	-96.518	-0.199	0.051
-171.925	800.000	-0.036	0.140
-170.910	114.683	0.175	0.209
-169.896	127.997	-0.174	0.217
-168.881	-106.481	0.268	0.059
-167.866	-132.322	-0.108	0.014
-166.852	800.000	-0.069	0.293
-165.837	483.680	0.169	0.377
-164.823	-113.377	0.310	0.060
-163.808	-103.239	0.358	-0.083
-162.793	51.939	0.124	0.115
-161.779	-51.120	-0.194	0.089
-160.764	800.000	0.049	0.183
-159.750	143.398	0.065	0.085
-158.735	14.523	0.205	-0.157
-157.720	495.805	-0.031	-0.070
-156.706	-149.978	-0.191	0.015
-155.691	-200.000	-0.074	0.440
-154.677	92.875	-0.088	0.097
-153.662	-200.000	-0.010	-0.095
-152.647	-54.296	0.167	-0.074
-151.633	319.044	0.032	0.059
-150.618	0.806	0.272	0.191
-149.604	137.397	0.193	0.247
-148.589	-24.546	0.181	-0.105
-147.574	-80.886	0.204	0.066
-146.560	-147.339	0.287	-0.024
-145.545	-98.258	-0.233	-0.058
-144.531	-66.480	-0.315	-0.123
-143.516	800.000	-0.033	-0.126
-142.502	279.754	-0.037	0.065
-141.487	214.410	0.090	-0.140
-140.472	9.022	0.216	-0.160
-139.458	143.169	-0.089	0.115
-138.443	377.286	-0.150	0.301
-137.429	144.754	0.146	0.190
-136.414	-64.250	0.157	0.063
-135.399	-90.941	0.419	-0.118
-134.385	-200.000	-0.001	0.124
-133.370	-200.000	-0.010	0.235
-132.356	466.319	0.022	0.049
-131.341	-6.079	0.236	0.158
-130.326	-50.822	0.088	0.041
-129.312	46.224	-0.130	-0.118
-128.297	49.452	0.235	-0.217
-127.283	-82.342	-0.071	-0.023
-126.268	800.000	0.079	-0.228
-125.253	800.000	-0.027	0.106
-124.239	100.898	0.114	-0.129
-123.224	-99.490	-0.151	0.037
-122.210	-25.379	0.149	0.086
-121.195	22.928	-0.149	0.120
