DTS Sentinel unit serial number:	SN413079Multiplexer serial number:	ORYXHardware model number:	OX4-SRSoftware version number:	ORYX F/W v4.00 Oryx Data Collector v3.7.2.0data status	okinstallation	princeton_trtdifferential loss correction	single-endedforward channel	channel 1reverse channel	N/Adate	2019/09/15time	16:22:35forward acquisition time	60.00reverse acquisition time	0.00gamma	496.2192k internal	0.2292k external	0.2292temperature offset calibration	0.9934default loss term (dB/km)	0.3790temperature slope calibration	1.0000multiplexer offset coefficient	1.0000multiplexer slope coefficient	1.0000fibre end	0.00T internal ref (°C)	43.69T ext. ref 1 (°C)	5.52T ext. ref 2 (°C)	40.06length (m)	temperature (°C)	Stokes	anti-Stokes-747.200	-84.178	0.257	0.083
-746.185	-74.925	-0.318	0.117
-745.171	455.886	-0.104	0.237
-744.156	800.000	0.083	0.268
-743.142	436.088	0.076	0.169
-742.127	300.903	-0.095	0.179
-741.112	-200.000	-0.001	-0.199
-740.098	779.763	-0.045	0.126
-739.083	800.000	0.075	0.243
-738.069	-23.788	-0.437	-0.268
-737.054	-20.391	0.048	-0.030
-736.039	-46.394	-0.263	0.132
-735.025	78.832	0.206	0.226
-734.010	590.648	0.019	-0.048
-732.996	122.446	-0.081	-0.103
-731.981	559.610	0.081	0.201
-730.966	247.843	-0.129	-0.224
-729.952	-126.306	-0.301	0.046
-728.937	-200.000	0.006	0.080
-727.923	145.460	0.172	0.235
-726.908	107.605	-0.290	0.353
-725.894	-104.251	0.382	0.091
-724.879	-51.960	0.230	0.110
-723.864	281.156	0.136	-0.248
-722.850	-73.598	-0.182	0.068
-721.835	187.859	-0.019	0.029
-720.821	598.623	-0.026	0.065
-719.806	-155.537	0.038	-0.003
-718.791	-53.088	0.333	0.157
-717.777	202.592	-0.024	0.037
-716.762	-200.000	-0.083	-0.437
-715.748	83.136	-0.200	-0.223
-714.733	-79.151	0.201	0.070
-713.718	69.735	0.086	-0.091
-712.704	10.090	0.195	0.152
-711.689	-130.526	-0.417	-0.058
-710.675	-187.527	0.186	0.003
-709.660	-200.000	0.002	-0.241
-708.645	-124.097	-0.442	-0.071
-707.631	-113.719	0.268	-0.053
-706.616	5.158	0.202	-0.152
-705.602	-20.584	0.109	0.069
-704.587	-106.851	-0.194	-0.044
-703.572	-200.000	-0.035	-0.356
-702.558	333.217	-0.089	0.177
-701.543	-92.986	-0.399	0.114
-700.529	-8.998	-0.315	0.216
-699.514	115.917	0.117	0.147
-698.499	-200.000	-0.022	0.538
-697.485	107.819	-0.237	0.288
-696.470	-200.000	-0.008	-0.075
-695.456	-95.634	0.095	0.026
-694.441	-100.255	0.282	-0.072
-693.426	-200.000	-0.036	0.217
-692.412	116.901	-0.087	0.110
-691.397	-200.000	-0.063	0.368
-690.383	800.000	0.058	-0.176
-689.368	-200.000	0.067	-0.384
-688.354	-58.083	-0.149	0.066
-687.339	-45.097	-0.057	-0.029
-686.324	-19.211	-0.241	-0.153
-685.310	191.916	-0.136	-0.210
-684.295	-125.176	0.211	0.033
-683.281	-200.000	0.033	-0.196
-682.266	241.786	0.142	-0.243
-681.251	215.083	-0.016	0.025
-680.237	-132.244	0.210	-0.028
-679.222	-2.399	-0.102	-0.073
-678.208	563.619	0.164	0.405
-677.193	-200.000	0.015	-0.117
-676.178	-200.000	-0.033	0.154
-675.164	800.000	-0.061	-0.244
-674.149	210.725	0.109	0.174
-673.135	-103.759	-0.207	-0.050
-672.120	-145.174	0.212	-0.020
-671.105	281.368	0.008	-0.014
-670.091	148.849	-0.119	0.164
-669.076	800.000	0.151	0.442
-668.062	800.000	0.055	-0.169
-667.047	800.000	0.034	-0.106
-666.032	-45.167	-0.297	-0.151
-665.018	-1.019	0.313	-0.226
-664.003	800.000	-0.067	0.209
-662.989	-77.140	-0.272	0.097
-661.974	210.761	-0.102	-0.164
-660.959	322.574	0.005	0.010
-659.945	-200.000	-0.061	-0.462
-658.930	248.139	0.145	-0.250
-657.916	-200.000	0.053	0.249
-656.901	-200.000	-0.003	0.112
-655.886	800.000	-0.051	0.200
-654.872	140.313	-0.128	0.172
-653.857	-200.000	0.018	-0.154
-652.843	-200.000	-0.058	0.300
-651.828	333.976	-0.089	-0.176
-650.814	42.577	0.206	0.191
-649.799	-15.740	-0.214	-0.139
-648.784	-200.000	-0.001	0.092
-647.770	-61.563	-0.252	-0.108
-646.755	-200.000	-0.079	-0.405
-645.741	82.324	0.194	-0.214
-644.726	90.031	0.140	-0.159
-643.711	-200.000	0.007	-0.447
-642.697	-53.852	0.148	0.069
-641.682	31.912	0.239	0.210
-640.668	318.985	0.094	0.181
-639.653	-200.000	0.006	0.052
-638.638	619.169	-0.084	-0.216
-637.624	-106.476	-0.169	-0.038
-636.609	-95.515	0.231	-0.063
-635.595	73.830	-0.250	0.268
-634.580	129.794	-0.131	0.171
-633.565	-64.264	-0.055	-0.023
-632.551	60.277	0.205	-0.206
-631.536	-134.399	0.242	0.030
-630.522	57.265	0.052	-0.052
-629.507	226.247	-0.048	0.080
-628.492	-74.867	-0.146	0.053
-627.478	-7.150	-0.209	0.144
-626.463	-200.000	0.108	0.617
-625.449	-200.000	0.059	-0.284
-624.434	165.639	-0.138	0.199
-623.419	-99.954	-0.236	-0.060
-622.405	-200.000	-0.000	-0.113
-621.390	39.094	-0.177	-0.161
-620.376	40.965	-0.081	-0.075
-619.361	-20.707	-0.194	-0.121
-618.346	11.533	-0.179	-0.140
-617.332	-129.845	-0.140	-0.020
-616.317	585.463	0.023	0.058
-615.303	175.077	-0.262	0.387
-614.288	-88.328	0.202	0.061
-613.273	337.733	0.044	0.087
-612.259	-38.818	0.283	0.152
-611.244	61.332	0.244	-0.247
-610.230	-45.173	-0.374	-0.189
-609.215	800.000	-0.052	0.204
-608.201	4.797	-0.126	0.094
-607.186	32.198	-0.140	-0.123
-606.171	-14.144	0.167	0.110
-605.157	41.715	-0.135	-0.124
-604.142	-120.266	0.053	0.009
-603.128	-134.536	0.088	0.011
-602.113	-174.945	-0.068	0.002
-601.098	140.455	-0.087	-0.117
-600.084	22.944	-0.065	-0.055
-599.069	-1.896	0.304	-0.217
-598.055	-136.024	-0.205	-0.024
-597.040	-87.859	0.262	0.080
-596.025	-119.729	-0.089	-0.016
-595.011	-90.342	-0.400	0.118
-593.996	-100.824	-0.205	0.051
-592.982	-36.745	0.390	0.213
-591.967	800.000	-0.115	0.402
-590.952	800.000	-0.040	0.149
-589.938	-34.681	0.329	-0.183
-588.923	-161.814	0.198	0.010
-587.909	-54.043	-0.222	-0.103
-586.894	-121.888	0.098	0.016
-585.879	-135.402	0.437	-0.053
-584.865	800.000	0.014	0.041
-583.850	-200.000	-0.005	0.060
-582.836	800.000	-0.039	-0.165
-581.821	-84.567	0.334	-0.107
-580.806	-199.528	-0.085	0.000
-579.792	690.434	-0.067	0.179
-578.777	-200.000	0.003	-0.120
-577.763	135.992	0.034	-0.045
-576.748	574.824	-0.154	0.382
-575.733	164.994	-0.009	-0.013
-574.719	52.763	-0.234	-0.228
-573.704	800.000	0.076	0.278
-572.690	70.124	0.062	-0.065
-571.675	-75.832	-0.131	-0.047
-570.661	87.672	-0.121	0.136
-569.646	-30.336	0.194	0.112
-568.631	47.716	-0.065	0.062
-567.617	800.000	-0.045	0.145
-566.602	135.103	-0.098	0.129
-565.588	800.000	0.023	0.090
-564.573	250.160	0.032	-0.055
-563.558	43.244	-0.136	-0.126
-562.544	-200.000	0.208	-0.001
-561.529	-148.864	-0.042	-0.003
-560.515	67.947	0.202	0.210
-559.500	415.426	-0.093	0.202
-558.485	-70.768	-0.147	0.056
-557.471	23.258	0.162	0.136
-556.456	-199.927	-0.321	-0.002
-555.442	800.000	-0.154	0.452
-554.427	18.884	0.198	-0.161
-553.412	339.893	0.204	-0.404
-552.398	-130.216	0.079	0.011
-551.383	5.553	-0.205	0.154
-550.369	800.000	-0.041	-0.182
-549.354	202.873	-0.028	-0.044
-548.339	-200.000	0.003	-0.019
-547.325	14.743	0.132	0.105
-546.310	-100.656	0.088	-0.022
-545.296	-200.000	0.065	-0.392
-544.281	-200.000	0.023	0.126
-543.266	-200.000	-0.006	0.288
-542.252	186.355	-0.104	0.158
-541.237	222.811	-0.026	0.042
-540.223	24.580	0.061	0.051
-539.208	-65.204	0.287	-0.117
-538.193	48.322	-0.091	0.086
-537.179	-102.238	0.385	0.094
-536.164	-185.752	-0.225	0.003
-535.150	800.000	0.047	-0.205
-534.135	150.840	0.174	-0.241
-533.121	-57.090	-0.203	-0.091
-532.106	-200.000	0.001	-0.037
-531.091	-200.000	0.006	0.029
-530.077	-115.363	0.377	-0.072
-529.062	-105.960	0.083	-0.019
-528.048	-55.234	-0.172	-0.078
-527.033	433.252	0.025	-0.055
-526.018	184.041	0.070	0.106
-525.004	265.503	0.068	-0.121
-523.989	50.029	0.075	0.072
-522.975	800.000	-0.080	0.324
-521.960	196.634	0.189	-0.291
-520.945	27.032	-0.252	-0.215
-519.931	-82.473	0.106	-0.035
-518.916	39.441	-0.155	-0.140
-517.902	109.894	-0.106	0.129
-516.887	325.230	-0.056	0.109
-515.872	-200.000	-0.026	-0.189
-514.858	122.483	-0.106	-0.134
-513.843	72.896	-0.016	0.017
-512.829	-95.464	-0.159	0.043
-511.814	-82.569	-0.149	-0.049
-510.799	-81.624	-0.176	-0.059
-509.785	-95.182	-0.137	0.038
-508.770	81.960	-0.102	0.113
-507.756	17.322	-0.235	0.190
-506.741	382.481	0.152	0.316
-505.726	-22.187	0.038	-0.024
-504.712	54.688	0.154	0.150
-503.697	800.000	0.049	0.190
-502.683	-200.000	0.031	-0.197
-501.668	473.337	-0.037	0.086
-500.653	-133.259	0.114	-0.015
-499.639	95.290	-0.032	-0.037
-498.624	106.037	-0.117	0.141
-497.610	26.448	-0.148	0.126
-496.595	-200.000	0.022	0.101
-495.581	-200.000	-0.003	-0.073
-494.566	10.374	0.150	0.116
-493.551	179.269	-0.094	-0.139
-492.537	-1.879	-0.131	0.093
-491.522	-51.085	0.319	-0.152
-490.508	122.186	0.115	0.146
-489.493	-200.000	-0.058	-0.300
-488.478	-200.000	-0.040	-0.201
-487.464	326.008	0.132	-0.256
-486.449	-200.000	-0.002	0.190
-485.435	800.000	-0.063	0.178
-484.420	-129.067	0.252	0.036
-483.405	-200.000	-0.019	-0.124
-482.391	81.816	0.175	0.192
-481.376	-200.000	-0.018	0.255
-480.362	800.000	0.133	-0.573
-479.347	-200.000	0.054	-0.262
-478.332	-97.750	0.205	0.054
-477.318	-130.239	-0.170	-0.023
-476.303	-200.000	-0.009	0.182
-475.289	-200.000	0.006	-0.040
-474.274	-69.575	0.282	-0.109
-473.259	-113.630	-0.282	0.056
-472.245	7.852	0.181	-0.137
-471.230	-165.796	-0.296	0.013
-470.216	120.584	-0.180	0.226
-469.201	-65.064	0.114	0.047
-468.186	-104.830	0.160	-0.037
-467.172	-29.822	0.114	-0.066
-466.157	-200.000	0.019	-0.300
-465.143	800.000	-0.011	-0.039
-464.128	97.671	0.273	0.318
-463.113	-128.827	-0.017	0.002
-462.099	79.264	-0.087	0.095
-461.084	-38.840	0.238	-0.127
-460.070	-37.301	-0.080	-0.043
-459.055	-56.006	-0.357	-0.161
-458.040	-185.107	0.235	-0.004
-457.026	18.305	0.075	-0.060
-456.011	-200.000	0.008	0.269
-454.997	735.116	-0.127	-0.345
-453.982	800.000	-0.048	-0.143
-452.968	260.956	-0.237	0.415
-451.953	-52.514	0.163	-0.076
-450.938	37.736	0.121	-0.108
-449.924	800.000	0.025	0.073
-448.909	-200.000	-0.124	0.567
-447.895	-108.437	0.161	0.035
-446.880	-124.682	0.389	-0.061
-445.865	185.665	-0.078	-0.117
-444.851	-16.144	-0.056	-0.036
-443.836	-200.000	0.057	0.305
-442.822	110.304	0.062	-0.075
-441.807	-61.958	-0.297	0.126
-440.792	150.485	-0.191	0.262
-439.778	-83.450	-0.032	-0.010
-438.763	800.000	-0.140	-0.408
-437.749	134.313	-0.066	0.087
-436.734	-96.726	0.240	0.064
-435.719	43.836	0.032	0.030
-434.705	-200.000	0.056	-0.442
-433.690	-54.942	-0.222	0.101
-432.676	211.597	-0.188	-0.298
-431.661	800.000	-0.042	-0.122
-430.646	800.000	-0.037	-0.104
-429.632	-200.000	-0.033	0.274
-428.617	-200.000	-0.023	0.117
-427.603	171.666	-0.058	-0.084
-426.588	-200.000	-0.006	0.045
-425.573	800.000	-0.046	0.152
-424.559	241.708	-0.104	-0.175
-423.544	382.700	0.206	-0.427
-422.530	-40.628	-0.140	-0.073
-421.515	-0.808	-0.251	0.180
-420.500	800.000	-0.007	0.022
-419.486	-200.000	-0.049	0.258
-418.471	28.616	-0.066	-0.057
-417.457	-200.000	-0.020	0.134
-416.442	-74.736	0.336	0.122
-415.428	178.013	0.122	-0.179
-414.413	-33.699	0.295	0.164
-413.398	-115.264	-0.265	-0.051
-412.384	-85.814	-0.278	-0.087
-411.369	150.922	-0.053	0.073
-410.355	800.000	-0.036	0.149
-409.340	800.000	-0.025	-0.080
-408.325	556.718	-0.107	-0.261
-407.311	454.598	0.131	-0.293
-406.296	7.070	0.124	-0.093
-405.282	-132.016	0.245	0.032
-404.267	143.614	0.113	0.152
-403.252	-200.000	-0.037	-0.371
-402.238	800.000	-0.082	-0.250
-401.223	57.490	0.077	0.076
-400.209	-200.000	0.028	0.160
-399.194	694.944	0.058	0.155
-398.179	68.803	0.218	0.226
-397.165	-42.866	-0.162	0.083
-396.150	-171.681	-0.102	-0.003
-395.136	-44.655	0.213	-0.107
-394.121	-59.686	-0.199	0.086
-393.106	-170.689	0.264	0.009
-392.092	167.900	0.160	-0.230
-391.077	-200.000	-0.033	-0.338
-390.063	272.697	-0.097	0.173
-389.048	430.735	0.102	0.222
-388.033	-200.000	-0.068	0.325
-387.019	800.000	-0.015	0.045
-386.004	-200.000	0.014	0.089
-384.990	253.819	-0.185	-0.319
-383.975	38.052	0.121	0.108
-382.960	-72.269	-0.050	-0.019
-381.946	-62.309	0.157	0.066
-380.931	8.622	0.080	0.061
-379.917	-38.756	0.405	0.215
-378.902	433.100	-0.113	0.247
-377.888	790.930	-0.034	0.095
-376.873	-200.000	0.054	0.278
-375.858	269.342	-0.073	-0.130
-374.844	672.780	0.014	-0.035
-373.829	-60.525	-0.101	-0.043
-372.815	145.286	-0.178	-0.240
-371.800	-74.839	0.250	-0.090
-370.785	31.420	-0.288	0.249
-369.771	265.343	0.106	0.186
-368.756	39.486	-0.032	0.029
-367.742	196.494	0.190	-0.292
-366.727	512.290	0.098	-0.230
-365.712	-27.862	-0.157	-0.092
-364.698	33.099	-0.297	0.260
-363.683	-108.226	0.317	0.069
-362.669	212.888	-0.192	-0.306
-361.654	134.052	0.110	-0.144
-360.639	192.227	0.064	0.098
-359.625	800.000	0.037	-0.140
-358.610	-86.135	0.062	-0.019
-357.596	355.978	-0.271	0.544
-356.581	-183.539	0.128	-0.002
-355.566	326.942	0.126	-0.244
-354.552	10.491	-0.357	0.274
-353.537	-63.735	0.317	-0.131
-352.523	-152.031	-0.273	0.020
-351.508	180.075	-0.166	0.246
-350.493	634.711	0.070	-0.179
-349.479	800.000	-0.091	-0.378
-348.464	-130.425	-0.070	-0.009
-347.450	800.000	0.021	0.087
-346.435	-200.000	0.062	0.539
-345.420	290.304	0.115	0.211
-344.406	60.419	0.054	-0.054
-343.391	-129.048	0.196	-0.028
-342.377	151.643	0.045	0.062
-341.362	-31.031	0.337	-0.192
-340.348	-200.000	-0.048	0.366
-339.333	-10.622	-0.067	0.045
-338.318	-182.077	0.227	0.004
-337.304	-200.000	-0.023	-0.229
-336.289	86.924	-0.184	-0.204
-335.275	469.137	-0.100	0.227
-334.260	-5.328	0.204	-0.141
-333.245	788.197	-0.103	-0.285
-332.231	-72.523	0.160	0.060
-331.216	525.271	0.098	0.233
-330.202	495.676	-0.051	0.118
-329.187	-67.157	0.249	0.099
-328.172	-32.907	0.180	-0.101
-327.158	-200.000	-0.037	0.280
-326.143	27.348	-0.025	0.021
-325.129	132.698	-0.069	-0.090
-324.114	-41.472	-0.078	-0.041
-323.099	-140.662	0.138	-0.014
-322.085	-200.000	0.005	0.120
-321.070	800.000	0.068	0.190
-320.056	-79.935	0.287	0.097
-319.041	-4.722	0.154	0.107
-318.026	313.025	0.163	-0.308
-317.012	9.990	0.185	0.142
-315.997	800.000	0.056	-0.180
-314.983	506.121	0.089	-0.207
-313.968	-109.274	0.256	-0.055
-312.953	-200.000	-0.017	-0.276
-311.939	-125.264	0.152	-0.023
-310.924	-200.000	0.027	-0.187
-309.910	137.253	0.037	0.048
-308.895	-102.089	-0.178	-0.043
-307.880	800.000	-0.046	-0.176
-306.866	-200.000	0.033	0.455
-305.851	-200.000	0.028	0.168
-304.837	-200.000	0.014	-0.090
-303.822	-30.091	-0.133	0.076
-302.807	144.754	-0.188	-0.253
-301.793	184.021	-0.117	0.175
-300.778	-162.339	0.154	-0.008
-299.764	-111.017	0.173	0.036
-298.749	-105.893	0.186	-0.042
-297.735	-200.000	-0.013	0.068
-296.720	-200.000	-0.305	-0.000
-295.705	-39.755	-0.228	-0.120
-294.691	-92.251	-0.151	0.043
-293.676	-127.725	-0.345	-0.050
-292.662	-134.507	-0.448	0.055
-291.647	90.929	0.055	0.062
-290.632	-65.295	-0.345	0.140
-289.618	34.237	0.236	-0.207
-288.603	-116.308	-0.224	0.042
-287.589	-200.000	-0.060	-0.285
-286.574	181.611	-0.127	-0.188
-285.559	800.000	-0.015	-0.044
-284.545	-5.056	-0.166	-0.115
-283.530	646.456	-0.092	0.237
-282.516	800.000	-0.048	-0.134
-281.501	746.456	-0.015	0.040
-280.486	151.167	0.245	0.336
-279.472	483.968	0.103	-0.236
-278.457	-42.134	0.210	-0.108
-277.443	-200.000	0.072	-0.379
-276.428	-94.996	-0.081	0.022
-275.413	618.357	0.041	-0.104
-274.399	-16.345	0.321	-0.205
-273.384	-133.476	0.266	0.034
-272.370	-200.000	0.004	-0.386
-271.355	89.112	0.189	-0.211
-270.340	-200.000	-0.049	0.258
-269.326	-28.703	0.130	0.075
-268.311	-172.484	0.350	0.011
-267.297	92.791	0.197	-0.223
-266.282	155.032	-0.104	-0.144
-265.267	0.218	-0.308	-0.221
-264.253	-200.000	-0.095	0.530
-263.238	-65.865	0.233	0.094
-262.224	-200.000	-0.020	0.207
-261.209	-18.921	-0.295	-0.184
-260.195	-149.343	-0.253	0.020
-259.180	586.790	-0.033	-0.082
-258.165	-4.804	0.092	-0.064
-257.151	-123.982	-0.474	-0.075
-256.136	-106.881	0.188	-0.042
-255.122	-42.686	-0.157	0.080
-254.107	-14.515	-0.045	0.029
-253.092	6.940	0.112	-0.084
-252.078	-64.647	-0.100	0.041
-251.063	790.988	-0.080	0.221
-250.049	-53.308	-0.214	0.098
-249.034	82.728	-0.141	0.153
-248.019	-103.567	0.431	-0.102
-247.005	-133.378	-0.371	0.047
-245.990	800.000	-0.019	-0.073
-244.976	331.248	-0.100	-0.194
-243.961	-200.000	-0.034	0.414
-242.946	-200.000	0.003	0.018
-241.932	-105.795	0.346	-0.079
-240.917	-76.714	-0.125	0.044
-239.903	322.988	0.018	0.035
-238.888	660.954	0.054	-0.138
-237.873	800.000	-0.088	0.279
-236.859	-110.697	-0.250	-0.052
-235.844	219.726	-0.195	0.314
-234.830	56.509	0.128	0.125
-233.815	24.191	0.173	-0.143
-232.800	-73.977	-0.343	0.125
-231.786	-102.582	-0.162	0.039
-230.771	-115.611	0.150	-0.028
-229.757	350.783	-0.047	-0.094
-228.742	-96.109	0.203	-0.054
-227.727	-90.093	0.201	0.059
-226.713	-85.313	0.227	0.071
-225.698	800.000	-0.079	-0.324
-224.684	-200.000	0.077	-0.400
-223.669	-154.546	0.204	-0.014
-222.655	-67.411	-0.058	-0.023
-221.640	149.838	0.136	0.184
-220.625	-122.726	0.306	-0.050
-219.611	-78.341	0.184	0.063
-218.596	-28.641	-0.116	0.067
-217.582	800.000	-0.053	-0.186
-216.567	-30.654	0.049	0.028
-215.552	542.804	0.034	0.082
-214.538	800.000	0.075	-0.297
-213.523	243.399	-0.122	0.205
-212.509	-200.000	0.023	-0.145
-211.494	800.000	-0.027	-0.095
-210.479	236.367	0.094	-0.156
-209.465	-135.783	0.238	0.028
-208.450	-39.479	0.124	-0.065
-207.436	-47.078	-0.253	-0.124
-206.421	800.000	0.076	-0.270
-205.406	59.947	0.182	-0.180
-204.392	-200.000	0.004	-0.043
-203.377	-104.170	-0.122	0.029
-202.363	-107.894	0.357	-0.078
-201.348	-200.000	-0.064	0.431
-200.333	39.757	0.176	-0.158
-199.319	721.554	0.064	0.169
-198.304	-88.229	-0.415	0.124
-197.290	-93.908	-0.276	-0.076
-196.275	187.153	-0.125	0.186
-195.260	-94.621	-0.173	-0.047
-194.246	-75.207	-0.403	-0.144
-193.231	2.258	0.264	0.191
-192.217	-166.083	0.164	0.007
-191.202	33.027	-0.039	-0.034
-190.187	100.258	0.316	0.367
-189.173	397.968	0.097	0.204
-188.158	-200.000	0.003	0.053
-187.144	-200.000	0.017	-0.172
-186.129	121.148	0.111	-0.139
-185.114	-122.958	0.191	0.031
-184.100	-78.483	-0.068	-0.023
-183.085	-24.764	0.182	-0.108
-182.071	85.942	-0.167	-0.184
-181.056	233.681	0.190	-0.313
-180.042	-200.000	-0.022	0.125
-179.027	-200.000	-0.010	-0.083
-178.012	51.129	-0.353	-0.335
-176.998	-31.796	0.158	-0.089
-175.983	81.114	0.136	0.147
-174.969	-154.331	-0.366	0.025
-173.954	-68.127	-0.353	0.138
-172.939	-24.080	0.140	0.084
-171.925	-200.000	-0.007	-0.033
-170.910	115.117	-0.028	-0.035
-169.896	-27.005	-0.267	-0.156
-168.881	220.632	0.128	0.206
-167.866	220.884	-0.166	-0.266
-166.852	-200.000	0.012	-0.117
-165.837	800.000	-0.075	-0.293
-164.823	70.652	0.184	0.190
-163.808	212.040	0.156	0.245
-162.793	-113.920	-0.343	0.067
-161.779	25.980	-0.244	0.203
-160.764	22.044	-0.346	0.282
-159.750	-200.000	-0.014	0.166
-158.735	-41.774	-0.210	0.108
-157.720	-127.428	0.064	0.009
-156.706	800.000	0.051	-0.164
-155.691	-159.003	-0.597	-0.034
-154.677	-200.000	-0.011	-0.318
-153.662	-157.690	0.102	0.006
-152.647	105.844	0.103	0.121
-151.633	800.000	0.050	0.185
-150.618	-132.818	-0.058	-0.007
-149.604	-200.000	-0.010	0.186
-148.589	-148.795	0.037	-0.003
-147.574	-200.000	0.014	-0.174
-146.560	-118.472	0.323	0.057
-145.545	134.276	-0.094	-0.122
-144.531	123.061	-0.178	-0.222
-143.516	-139.981	-0.103	0.011
-142.502	-78.393	0.409	-0.140
-141.487	95.073	0.125	0.142
-140.472	-138.058	-0.270	0.030
-139.458	-55.112	0.330	-0.148
-138.443	175.456	0.238	0.345
-137.429	522.299	0.145	0.341
-136.414	427.054	0.036	-0.078
-135.399	147.605	-0.091	0.123
-134.385	49.767	0.103	-0.097
-133.370	444.844	0.101	0.222
-132.356	-74.730	0.315	0.113
-131.341	-200.000	0.079	-0.350
-130.326	800.000	-0.015	-0.058
-129.312	-5.303	-0.122	-0.084
-128.297	113.963	0.364	-0.443
-127.283	-35.337	0.220	-0.119
-126.268	52.135	0.190	0.181
-125.253	-200.000	0.027	0.190
-124.239	-121.907	-0.282	0.046
-123.224	-143.252	0.107	0.010
-122.210	-200.000	-0.004	0.076
