DTS Sentinel unit serial number:	SN413079Multiplexer serial number:	ORYXHardware model number:	OX4-SRSoftware version number:	ORYX F/W v4.00 Oryx Data Collector v3.7.2.0data status	okinstallation	princeton_trtdifferential loss correction	single-endedforward channel	channel 1reverse channel	N/Adate	2019/09/13time	09:18:35forward acquisition time	60.00reverse acquisition time	0.00gamma	496.2192k internal	0.2325k external	0.2325temperature offset calibration	1.0162default loss term (dB/km)	0.3790temperature slope calibration	1.0000multiplexer offset coefficient	1.0000multiplexer slope coefficient	1.0000fibre end	0.00T internal ref (°C)	29.11T ext. ref 1 (°C)	4.41T ext. ref 2 (°C)	26.33length (m)	temperature (°C)	Stokes	anti-Stokes-747.200	-137.443	0.357	0.041
-746.185	-200.000	0.020	0.221
-745.171	178.244	-0.120	-0.176
-744.156	436.642	-0.041	0.089
-743.142	-120.021	0.298	0.052
-742.127	-109.128	-0.447	0.096
-741.112	612.513	-0.045	0.113
-740.098	100.156	0.135	0.158
-739.083	61.798	0.243	-0.244
-738.069	-25.975	-0.285	-0.169
-737.054	65.232	-0.184	-0.188
-736.039	-200.000	0.004	-0.022
-735.025	34.108	0.127	0.112
-734.010	-200.000	0.053	-0.339
-732.996	-89.632	-0.219	0.065
-731.981	33.814	0.168	-0.148
-730.966	-200.000	0.037	0.203
-729.952	183.815	-0.124	0.185
-728.937	161.686	-0.218	-0.308
-727.923	-200.000	0.008	0.318
-726.908	245.222	-0.173	0.293
-725.894	800.000	-0.087	-0.284
-724.879	27.233	-0.147	0.124
-723.864	800.000	-0.072	0.202
-722.850	87.517	0.165	0.184
-721.835	46.154	-0.351	-0.328
-720.821	-2.707	0.076	-0.053
-719.806	-73.973	-0.276	-0.101
-718.791	210.317	0.071	-0.112
-717.777	800.000	-0.037	-0.137
-716.762	800.000	-0.141	-0.403
-715.748	34.134	0.373	0.328
-714.733	314.553	-0.020	0.038
-713.718	29.894	-0.250	-0.215
-712.704	228.314	0.126	0.207
-711.689	-200.000	0.082	-0.610
-710.675	-155.300	0.074	-0.005
-709.660	313.873	0.033	-0.062
-708.645	-200.000	0.035	0.230
-707.631	-33.700	-0.359	0.200
-706.616	-54.061	0.294	-0.135
-705.602	185.546	0.212	0.317
-704.587	-23.728	0.145	-0.087
-703.572	800.000	-0.044	-0.131
-702.558	133.582	0.248	-0.324
-701.543	-42.727	0.058	0.030
-700.529	234.753	-0.034	-0.056
-699.514	445.910	0.102	-0.227
-698.499	178.568	-0.152	-0.223
-697.485	-83.857	0.215	0.069
-696.470	19.836	-0.106	0.086
-695.456	163.410	-0.077	-0.109
-694.441	-23.439	0.052	0.031
-693.426	800.000	0.104	0.384
-692.412	800.000	-0.025	-0.094
-691.397	-44.756	-0.306	0.154
-690.383	-55.088	-0.197	0.089
-689.368	120.785	-0.107	-0.134
-688.354	-104.314	0.291	-0.068
-687.339	-74.042	-0.200	0.073
-686.324	388.975	-0.103	-0.214
-685.310	-72.189	0.185	0.069
-684.295	4.173	0.092	-0.068
-683.281	-116.613	0.237	0.044
-682.266	-125.296	-0.155	-0.024
-681.251	-200.000	-0.035	-0.161
-680.237	-69.769	-0.084	0.032
-679.222	-42.490	0.236	-0.121
-678.208	-166.938	0.120	0.005
-677.193	-25.381	-0.164	-0.097
-676.178	-200.000	0.041	-0.245
-675.164	-24.553	-0.334	-0.200
-674.149	-5.518	-0.208	-0.144
-673.135	-151.498	-0.117	0.009
-672.120	-52.028	0.153	0.071
-671.105	-167.627	-0.528	-0.021
-670.091	-14.775	-0.204	-0.132
-669.076	-46.899	-0.203	-0.100
-668.062	-109.935	-0.131	-0.028
-667.047	-157.916	-0.278	-0.017
-666.032	-136.821	0.083	0.010
-665.018	-200.000	-0.011	0.072
-664.003	53.025	-0.077	-0.075
-662.989	-66.926	0.273	0.108
-661.974	-200.000	-0.001	-0.014
-660.959	-155.275	0.089	-0.006
-659.945	-31.824	0.140	-0.079
-658.930	13.048	0.144	0.112
-657.916	-200.000	-0.077	-0.561
-656.901	60.764	-0.177	-0.177
-655.886	-154.505	-0.160	-0.011
-654.872	-200.000	0.029	-0.174
-653.857	53.066	-0.180	0.173
-652.843	-92.769	0.316	0.089
-651.828	-101.868	0.022	0.005
-650.814	-151.219	-0.103	-0.008
-649.799	464.327	-0.095	0.214
-648.784	-47.589	0.241	-0.118
-647.770	507.550	0.055	-0.129
-646.755	-200.000	0.008	-0.045
-645.741	20.143	-0.300	-0.243
-644.726	-73.447	-0.160	-0.059
-643.711	-117.877	-0.140	0.025
-642.697	800.000	0.070	-0.294
-641.682	83.852	-0.110	-0.120
-640.668	-44.981	-0.324	-0.162
-639.653	-142.158	-0.201	-0.020
-638.638	-49.707	-0.057	0.027
-637.624	-200.000	0.006	-0.261
-636.609	39.741	-0.289	-0.260
-635.595	-62.707	0.091	0.038
-634.580	-103.176	-0.153	-0.036
-633.565	-11.985	-0.171	0.113
-632.551	100.680	-0.197	0.230
-631.536	-9.680	0.102	0.068
-630.522	-85.476	0.115	-0.036
-629.507	65.513	-0.093	-0.095
-628.492	-1.477	0.164	-0.116
-627.478	-200.000	-0.025	-0.401
-626.463	-200.000	0.029	-0.134
-625.449	-62.199	-0.235	-0.098
-624.434	-14.620	0.223	0.144
-623.419	49.658	-0.169	0.160
-622.405	-95.265	0.147	-0.040
-621.390	-200.000	0.007	0.169
-620.376	147.143	0.180	-0.243
-619.361	67.886	-0.097	-0.100
-618.346	-104.455	0.068	-0.016
-617.332	-125.400	-0.088	0.013
-616.317	800.000	-0.040	0.159
-615.303	166.157	-0.134	-0.191
-614.288	-51.285	0.154	0.072
-613.273	-200.000	-0.039	0.293
-612.259	-97.883	-0.171	0.044
-611.244	800.000	-0.045	0.164
-610.230	-101.074	0.280	-0.069
-609.215	-2.260	-0.076	0.053
-608.201	-200.000	-0.012	0.262
-607.186	-69.199	0.225	0.087
-606.171	800.000	-0.034	-0.138
-605.157	-97.789	-0.125	-0.032
-604.142	139.670	0.349	-0.461
-603.128	800.000	0.090	-0.327
-602.113	52.503	-0.120	0.115
-601.098	800.000	0.039	0.108
-600.084	-19.036	0.152	0.095
-599.069	-149.959	0.394	0.031
-598.055	43.956	-0.397	-0.365
-597.040	-122.495	0.446	-0.073
-596.025	250.213	-0.075	0.128
-595.011	172.118	-0.026	-0.037
-593.996	154.723	0.061	-0.084
-592.982	-73.025	-0.515	0.189
-591.967	-181.138	-0.254	-0.005
-590.952	176.402	-0.123	-0.180
-589.938	-124.905	-0.424	0.065
-588.923	-41.956	0.418	-0.215
-587.909	-96.115	-0.583	-0.155
-586.894	-96.887	-0.381	0.100
-585.879	231.637	-0.068	-0.112
-584.865	47.725	-0.085	0.079
-583.850	-63.138	0.164	0.068
-582.836	-200.000	0.019	0.405
-581.821	-200.000	-0.007	-0.113
-580.806	-171.756	0.097	-0.003
-579.792	-200.000	0.008	0.173
-578.777	-200.000	0.017	-0.299
-577.763	369.146	0.068	-0.138
-576.748	-99.895	0.291	0.073
-575.733	133.788	-0.069	0.089
-574.719	800.000	0.045	-0.190
-573.704	242.006	-0.158	-0.266
-572.690	-200.000	0.024	0.362
-571.675	-88.022	0.319	-0.096
-570.661	187.851	-0.086	-0.129
-569.646	-65.886	-0.401	-0.161
-568.631	-200.000	0.029	-0.142
-567.617	-8.994	0.179	0.120
-566.602	-19.710	0.331	0.205
-565.588	-200.000	0.029	0.339
-564.573	-120.789	-0.370	0.063
-563.558	431.567	-0.125	-0.271
-562.544	137.416	-0.065	-0.085
-561.529	-190.222	0.079	0.001
-560.515	-38.218	-0.348	-0.185
-559.500	17.727	-0.060	-0.048
-558.485	233.293	-0.125	-0.207
-557.471	-200.000	-0.055	0.348
-556.456	800.000	-0.092	0.283
-555.442	-52.916	0.201	0.093
-554.427	-200.000	0.002	-0.199
-553.412	-200.000	-0.019	-0.235
-552.398	-140.845	-0.325	0.033
-551.383	183.211	0.208	0.308
-550.369	643.296	0.121	-0.309
-549.354	-113.528	0.222	-0.043
-548.339	-42.270	-0.077	0.039
-547.325	39.651	0.051	-0.046
-546.310	20.150	0.202	-0.163
-545.296	-105.281	-0.439	-0.100
-544.281	19.119	0.267	0.214
-543.266	24.413	-0.150	0.124
-542.252	-168.356	0.187	0.007
-541.237	129.754	-0.186	0.238
-540.223	32.914	-0.319	0.276
-539.208	-129.183	0.241	-0.034
-538.193	-63.220	0.254	-0.105
-537.179	800.000	-0.070	-0.273
-536.164	458.284	0.055	0.121
-535.150	-42.472	0.092	0.047
-534.135	-121.258	-0.285	0.048
-533.121	-200.000	0.025	0.142
-532.106	-200.000	0.033	-0.191
-531.091	142.928	0.224	-0.297
-530.077	-5.467	-0.173	0.119
-529.062	-200.000	0.021	-0.144
-528.048	-123.441	0.285	0.045
-527.033	69.449	-0.169	0.174
-526.018	800.000	0.229	0.695
-525.004	-89.517	-0.259	-0.076
-523.989	-97.530	-0.198	-0.051
-522.975	-104.640	-0.263	-0.061
-521.960	278.827	-0.094	-0.167
-520.945	-79.199	0.069	-0.023
-519.931	-168.614	-0.072	0.003
-518.916	-200.000	-0.026	-0.156
-517.902	-21.479	-0.159	-0.097
-516.887	-69.091	0.320	0.123
-515.872	-200.000	0.015	0.178
-514.858	61.668	0.102	0.101
-513.843	-121.661	-0.267	-0.044
-512.829	38.250	0.086	0.076
-511.814	-124.687	0.244	0.038
-510.799	-57.963	-0.152	-0.066
-509.785	-62.831	-0.171	-0.071
-508.770	-94.270	-0.247	-0.068
-507.756	80.072	0.098	0.106
-506.741	-200.000	0.003	0.044
-505.726	19.425	0.281	-0.226
-504.712	-200.000	-0.046	-0.769
-503.697	59.462	0.074	-0.073
-502.683	-178.194	0.070	-0.002
-501.668	800.000	0.034	-0.131
-500.653	-139.311	0.206	-0.022
-499.639	-200.000	-0.067	-0.324
-498.624	1.562	-0.170	-0.122
-497.610	76.637	0.364	0.386
-496.595	-149.292	0.107	-0.008
-495.581	800.000	0.034	0.136
-494.566	-108.864	-0.111	-0.024
-493.551	-31.407	-0.337	0.190
-492.537	-200.000	-0.010	0.069
-491.522	39.922	-0.077	0.069
-490.508	-148.091	0.176	0.015
-489.493	-200.000	-0.005	0.050
-488.478	283.344	-0.057	0.102
-487.464	-72.604	0.042	-0.015
-486.449	-162.853	0.147	-0.007
-485.435	70.832	-0.098	-0.101
-484.420	800.000	0.073	-0.204
-483.405	-115.213	0.224	0.042
-482.391	-145.906	-0.055	0.005
-481.376	283.248	0.035	-0.064
-480.362	-84.422	0.281	-0.089
-479.347	800.000	0.008	0.026
-478.332	-102.625	-0.151	-0.036
-477.318	-58.026	0.266	0.116
-476.303	-97.130	0.035	-0.009
-475.289	-200.000	0.017	-0.216
-474.274	139.162	0.067	0.088
-473.259	-34.948	-0.023	-0.013
-472.245	-52.623	0.245	-0.113
-471.230	-20.659	0.147	0.090
-470.216	-87.040	-0.217	-0.066
-469.201	-200.000	-0.022	-0.131
-468.186	800.000	-0.085	-0.337
-467.172	-24.807	0.274	-0.163
-466.157	-64.839	-0.211	0.085
-465.143	-200.000	-0.001	-0.285
-464.128	172.804	0.077	0.111
-463.113	-53.915	0.195	-0.089
-462.099	-72.495	-0.111	-0.041
-461.084	-84.768	-0.152	0.048
-460.070	-124.472	0.250	0.039
-459.055	-105.490	-0.158	0.036
-458.040	-28.548	0.126	-0.073
-457.026	-172.606	0.211	-0.007
-456.011	-200.000	0.013	0.086
-454.997	47.271	0.273	0.254
-453.982	235.804	0.168	0.276
-452.968	78.224	0.228	0.243
-451.953	20.708	0.084	-0.068
-450.938	-34.994	-0.222	0.121
-449.924	-200.000	-0.009	0.222
-448.909	-71.654	-0.131	-0.049
-447.895	-82.054	0.248	0.081
-446.880	189.489	-0.089	-0.133
-445.865	800.000	-0.117	-0.361
-444.851	-33.132	0.300	0.166
-443.836	-200.000	0.036	0.195
-442.822	-127.340	0.170	-0.025
-441.807	-102.257	-0.189	0.045
-440.792	-53.589	0.200	0.091
-439.778	-69.744	-0.371	-0.141
-438.763	800.000	-0.050	-0.149
-437.749	12.108	0.203	-0.156
-436.734	-200.000	0.011	0.113
-435.719	-148.058	0.144	-0.012
-434.705	-191.879	0.190	0.002
-433.690	15.232	-0.083	-0.065
-432.676	-163.072	-0.104	-0.005
-431.661	-89.441	0.327	0.096
-430.646	132.379	-0.030	-0.039
-429.632	-84.234	0.129	-0.041
-428.617	-92.224	-0.072	-0.020
-427.603	-169.613	0.337	-0.012
-426.588	-104.203	0.453	-0.105
-425.573	-119.089	-0.253	-0.044
-424.559	800.000	-0.076	-0.216
-423.544	-21.972	0.407	-0.246
-422.530	-108.743	0.178	0.038
-421.515	73.154	-0.094	-0.097
-420.500	100.739	0.252	0.292
-419.486	-35.393	0.145	-0.079
-418.471	20.430	-0.066	-0.053
-417.457	-76.519	0.240	-0.084
-416.442	104.511	-0.097	-0.114
-415.428	10.034	-0.115	0.087
-414.413	189.731	-0.159	-0.237
-413.398	800.000	0.046	-0.155
-412.384	-45.490	-0.217	0.107
-411.369	444.214	0.033	0.071
-410.355	-200.000	0.053	-0.341
-409.340	145.096	0.162	-0.216
-408.325	24.288	-0.186	0.153
-407.311	-54.993	0.089	-0.040
-406.296	110.430	0.317	-0.379
-405.282	-58.024	-0.267	0.116
-404.267	-50.889	-0.298	-0.139
-403.252	-200.000	0.011	0.272
-402.238	-156.851	0.383	-0.023
-401.223	-54.620	-0.265	0.119
-400.209	242.441	0.153	-0.254
-399.194	198.819	-0.188	0.286
-398.179	-200.000	-0.001	-0.038
-397.165	-200.000	0.145	0.001
-396.150	122.006	-0.190	0.236
-395.136	54.883	-0.101	-0.097
-394.121	-148.115	-0.342	-0.028
-393.106	-200.000	-0.019	0.127
-392.092	149.998	0.141	0.191
-391.077	-133.817	-0.424	-0.052
-390.063	-200.000	0.018	0.217
-389.048	316.396	-0.071	0.134
-388.033	800.000	0.057	0.184
-387.019	339.353	0.037	0.072
-386.004	800.000	-0.060	0.177
-384.990	149.032	0.230	0.309
-383.975	379.108	0.268	-0.546
-382.960	-65.293	0.201	0.080
-381.946	-129.128	-0.138	-0.019
-380.931	-133.883	0.067	0.008
-379.917	-51.702	0.245	0.114
-378.902	-60.385	0.279	-0.118
-377.888	-152.902	-0.200	0.014
-376.873	131.003	-0.280	-0.357
-375.858	800.000	-0.056	-0.196
-374.844	-31.168	0.167	-0.094
-373.829	66.088	0.173	-0.174
-372.815	-167.137	0.184	-0.007
-371.800	-152.897	-0.367	-0.026
-370.785	725.040	-0.035	-0.094
-369.771	-85.419	-0.136	-0.042
-368.756	-200.000	0.008	-0.139
-367.742	200.239	0.094	-0.144
-366.727	53.443	-0.114	-0.108
-365.712	-166.238	0.376	0.016
-364.698	430.467	0.058	0.124
-363.683	-114.631	-0.410	-0.078
-362.669	-132.076	-0.249	0.032
-361.654	-6.820	0.084	0.057
-360.639	-200.000	0.056	0.435
-359.625	800.000	0.123	0.367
-358.610	-73.046	-0.182	0.067
-357.596	-28.069	-0.412	-0.237
-356.581	-61.035	-0.365	-0.153
-355.566	-83.155	-0.143	0.046
-354.552	97.195	-0.153	0.174
-353.537	-200.000	-0.026	-0.201
-352.523	-200.000	0.036	0.360
-351.508	800.000	-0.072	-0.273
-350.493	-57.038	-0.287	-0.126
-349.479	137.987	-0.115	0.150
-348.464	497.512	0.059	0.135
-347.450	800.000	-0.005	-0.017
-346.435	-73.052	-0.072	0.026
-345.420	800.000	-0.038	-0.157
-344.406	800.000	-0.036	0.107
-343.391	37.701	-0.116	0.103
-342.377	-49.052	0.084	-0.040
-341.362	84.422	-0.135	0.147
-340.348	338.900	0.066	-0.127
-339.333	269.541	-0.022	0.038
-338.318	20.039	0.081	-0.064
-337.304	-132.272	0.365	-0.047
-336.289	-90.810	-0.052	0.015
-335.275	-53.843	-0.033	0.015
-334.260	-39.026	-0.190	-0.099
-333.245	800.000	0.075	0.206
-332.231	226.972	-0.076	0.123
-331.216	-52.851	0.204	0.093
-330.202	60.810	0.173	0.171
-329.187	-92.013	-0.230	0.065
-328.172	-10.575	-0.106	0.070
-327.158	82.310	0.102	-0.110
-326.143	-145.475	-0.035	-0.003
-325.129	-200.000	0.005	0.118
-324.114	70.562	0.167	0.171
-323.099	-95.148	0.105	0.028
-322.085	-107.945	0.200	-0.043
-321.070	-94.531	0.103	-0.028
-320.056	40.473	0.177	-0.158
-319.041	692.895	0.022	0.058
-318.026	140.167	-0.183	0.240
-317.012	-200.000	0.007	0.268
-315.997	-200.000	-0.047	0.465
-314.983	-79.007	0.324	-0.109
-313.968	-91.647	0.288	0.081
-312.953	240.083	0.248	0.409
-311.939	-200.000	-0.080	0.409
-310.924	-118.222	0.084	0.015
-309.910	517.239	-0.062	-0.145
-308.895	185.185	0.204	0.300
-307.880	800.000	-0.071	0.269
-306.866	76.788	-0.106	-0.112
-305.851	-147.812	0.292	0.024
-304.837	407.893	0.130	-0.272
-303.822	-200.000	0.020	-0.131
-302.807	71.393	0.119	0.123
-301.793	-107.467	0.397	-0.086
-300.778	-51.967	-0.253	0.117
-299.764	58.349	-0.063	-0.062
-298.749	-200.000	-0.092	0.401
-297.735	250.568	0.236	0.398
-296.720	-93.076	0.226	0.062
-295.705	-23.951	0.054	-0.032
-294.691	-200.000	0.055	-0.496
-293.676	-34.578	-0.246	-0.134
-292.662	800.000	0.047	-0.165
-291.647	-77.783	-0.465	-0.159
-290.632	85.779	-0.128	0.139
-289.618	235.202	0.290	-0.474
-288.603	46.112	0.091	-0.084
-287.589	49.209	-0.256	0.239
-286.574	800.000	0.066	-0.208
-285.559	-26.664	0.089	0.052
-284.545	-164.440	0.116	0.005
-283.530	76.914	-0.228	0.240
-282.516	-103.242	0.182	0.043
-281.501	800.000	-0.005	0.014
-280.486	-73.647	-0.060	-0.022
-279.472	16.778	-0.315	-0.247
-278.457	-123.178	0.178	0.028
-277.443	293.637	-0.098	-0.178
-276.428	-189.382	0.274	0.003
-275.413	-200.000	0.044	-0.262
-274.399	-200.000	-0.036	-0.176
-273.384	-60.611	0.003	0.001
-272.370	-54.763	-0.358	-0.160
-271.355	-200.000	0.057	0.503
-270.340	773.907	-0.064	0.172
-269.326	-85.762	-0.041	-0.012
-268.311	43.780	-0.081	0.073
-267.297	-200.000	0.037	0.258
-266.282	142.679	0.042	-0.055
-265.267	-138.641	-0.344	-0.037
-264.253	508.959	0.154	0.353
-263.238	-200.000	0.019	0.277
-262.224	160.172	-0.273	0.377
-261.209	58.199	-0.414	-0.402
-260.195	121.816	0.148	0.182
-259.180	800.000	-0.045	0.167
-258.165	-14.730	-0.283	-0.180
-257.151	-84.143	-0.140	-0.044
-256.136	376.485	-0.154	0.312
-255.122	76.212	-0.224	-0.235
-254.107	800.000	-0.090	0.254
-253.092	800.000	-0.093	0.363
-252.078	185.941	0.104	0.152
-251.063	475.359	0.129	-0.287
-250.049	127.041	0.126	-0.158
-249.034	98.529	0.119	-0.136
-248.019	145.884	-0.094	-0.125
-247.005	38.759	-0.167	-0.147
-245.990	-200.000	0.013	0.078
-244.976	141.134	0.210	0.275
-243.961	-25.607	0.037	-0.022
-242.946	800.000	0.079	-0.223
-241.932	-161.536	0.215	-0.011
-240.917	426.117	0.186	0.396
-239.903	69.853	0.160	-0.163
-238.888	78.242	-0.272	-0.287
-237.873	-200.000	-0.004	-0.059
-236.859	335.932	-0.035	0.067
-235.844	-5.470	0.145	-0.099
-234.830	-200.000	-0.008	0.119
-233.815	-108.791	0.336	-0.071
-232.800	115.618	0.160	-0.193
-231.786	57.755	0.169	-0.164
-230.771	-30.711	0.225	-0.126
-229.757	-166.566	0.330	0.014
-228.742	-200.000	-0.010	-0.167
-227.727	-200.000	0.006	-0.169
-226.713	100.624	0.061	-0.070
-225.698	800.000	-0.033	0.110
-224.684	-200.000	0.020	0.346
-223.669	-0.798	-0.135	0.095
-222.655	461.097	-0.030	-0.066
-221.640	-15.095	0.276	0.174
-220.625	169.873	-0.168	0.238
-219.611	-100.780	0.294	0.072
-218.596	28.581	0.054	-0.045
-217.582	-78.176	-0.310	-0.105
-216.567	-50.482	-0.220	-0.103
-215.552	781.487	-0.041	0.111
-214.538	-25.019	0.134	-0.078
-213.523	134.443	-0.120	0.154
-212.509	-136.528	0.497	-0.057
-211.494	310.455	0.046	-0.085
-210.479	-142.166	0.329	-0.032
-209.465	800.000	-0.022	-0.073
-208.450	-21.421	-0.276	0.167
-207.436	800.000	0.074	-0.286
-206.421	-94.201	-0.433	0.117
-205.406	-73.333	-0.138	-0.050
-204.392	800.000	0.060	-0.244
-203.377	153.649	-0.123	-0.166
-202.363	-120.287	-0.261	-0.044
-201.348	-17.835	0.317	0.196
-200.333	204.011	0.142	-0.218
-199.319	-125.792	-0.114	0.017
-198.304	119.640	0.321	0.393
-197.290	-153.926	-0.294	0.020
-196.275	237.245	0.147	-0.240
-195.260	66.960	-0.292	-0.293
-194.246	-35.798	-0.213	0.114
-193.231	-31.131	0.219	-0.122
-192.217	800.000	-0.013	0.049
-191.202	235.053	-0.256	-0.418
-190.187	800.000	0.021	0.075
-189.173	-200.000	-0.084	0.471
-188.158	325.525	0.020	0.038
-187.144	-22.902	0.122	0.073
-186.129	103.972	-0.125	0.145
-185.114	124.525	0.142	0.176
-184.100	58.909	0.297	-0.288
-183.085	605.864	-0.103	0.252
-182.071	209.299	-0.076	0.117
-181.056	-8.107	-0.323	0.215
-180.042	-200.000	-0.077	0.407
-179.027	-200.000	-0.019	-0.144
-178.012	92.591	0.057	0.064
-176.998	-44.194	-0.207	-0.103
-175.983	-99.684	0.417	0.103
-174.969	-102.532	0.098	0.023
-173.954	-93.488	0.195	0.053
-172.939	616.897	-0.086	0.213
-171.925	-88.317	-0.149	0.044
-170.910	117.265	-0.104	-0.126
-169.896	800.000	0.071	0.213
-168.881	86.525	-0.229	-0.249
-167.866	-2.151	-0.282	0.195
-166.852	440.873	0.059	-0.128
-165.837	168.879	-0.153	-0.215
-164.823	-140.016	-0.387	-0.040
-163.808	284.234	-0.137	0.243
-162.793	-85.687	-0.197	0.060
-161.779	-200.000	0.027	-0.227
-160.764	28.106	-0.078	0.065
-159.750	640.808	0.023	0.058
-158.735	-54.563	-0.130	-0.058
-157.720	-109.504	0.177	0.037
-156.706	26.632	-0.108	-0.090
-155.691	-13.010	0.343	0.220
-154.677	141.958	-0.037	-0.048
-153.662	-200.000	0.027	-0.167
-152.647	800.000	-0.099	0.304
-151.633	-52.455	0.284	0.130
-150.618	-0.754	-0.208	-0.146
-149.604	-200.000	0.023	-0.204
-148.589	-200.000	-0.019	0.099
-147.574	-200.000	-0.019	-0.145
-146.560	-200.000	-0.054	-0.300
-145.545	168.715	-0.118	0.165
-144.531	-200.000	0.033	0.147
-143.516	-200.000	0.007	0.318
-142.502	-200.000	-0.023	0.232
-141.487	-139.053	0.278	0.030
-140.472	297.332	-0.030	-0.054
-139.458	-1.881	0.252	-0.174
-138.443	-30.527	0.179	-0.100
-137.429	-185.954	0.264	0.004
-136.414	-88.581	-0.156	0.046
-135.399	800.000	-0.062	-0.220
-134.385	-200.000	-0.049	-0.262
-133.370	800.000	-0.071	-0.243
-132.356	-200.000	-0.027	0.246
-131.341	-102.448	0.272	-0.064
-130.326	39.484	0.267	-0.236
-129.312	-15.488	0.193	-0.121
-128.297	-145.930	-0.350	0.031
-127.283	-63.002	-0.032	0.013
-126.268	93.022	0.078	-0.087
-125.253	-82.116	0.032	-0.010
-124.239	108.185	-0.127	-0.150
-123.224	546.930	-0.173	-0.408
-122.210	-112.951	0.220	-0.043
