DTS Sentinel unit serial number:	SN413079Multiplexer serial number:	ORYXHardware model number:	OX4-SRSoftware version number:	ORYX F/W v4.00 Oryx Data Collector v3.7.2.0data status	okinstallation	princeton_trtdifferential loss correction	single-endedforward channel	channel 1reverse channel	N/Adate	2019/09/12time	19:38:34forward acquisition time	15.00reverse acquisition time	0.00gamma	496.2192k internal	0.2323k external	0.2323temperature offset calibration	1.0131default loss term (dB/km)	0.3790temperature slope calibration	1.0000multiplexer offset coefficient	1.0000multiplexer slope coefficient	1.0000fibre end	0.00T internal ref (°C)	32.12T ext. ref 1 (°C)	3.40T ext. ref 2 (°C)	26.68length (m)	temperature (°C)	Stokes	anti-Stokes-747.200	123.331	0.246	0.311
-746.185	205.878	-0.470	-0.738
-745.171	-55.220	1.291	0.586
-744.156	6.820	0.378	0.285
-743.142	-98.537	1.172	0.302
-742.127	-200.000	-0.031	0.194
-741.112	82.277	-0.653	-0.716
-740.098	800.000	0.191	-0.622
-739.083	-200.000	-0.046	-0.243
-738.069	574.904	0.333	0.820
-737.054	91.614	-0.274	-0.311
-736.039	-200.000	0.015	0.631
-735.025	-200.000	0.074	-0.433
-734.010	-160.566	-0.943	0.051
-732.996	-200.000	-0.047	-0.357
-731.981	-135.748	-0.332	-0.040
-730.966	82.181	0.363	0.397
-729.952	-6.226	-0.359	-0.248
-728.937	614.233	0.033	-0.085
-727.923	8.386	-0.599	-0.455
-726.908	-200.000	-0.024	-0.607
-725.894	7.858	-0.523	-0.396
-724.879	-140.018	0.439	0.047
-723.864	-64.826	-1.404	-0.574
-722.850	-70.171	0.634	0.243
-721.835	-101.512	-1.094	0.269
-720.821	-200.000	-0.024	-0.616
-719.806	-200.000	0.090	0.422
-718.791	112.151	-0.493	0.602
-717.777	-78.127	-0.361	-0.125
-716.762	50.501	0.683	0.651
-715.748	405.872	0.171	-0.364
-714.733	-47.806	0.732	0.358
-713.718	139.774	0.333	-0.442
-712.704	-13.530	0.472	0.309
-711.689	71.940	-0.497	-0.522
-710.675	-200.000	-0.077	-0.520
-709.660	576.002	0.205	-0.504
-708.645	-24.960	-0.672	-0.402
-707.631	-76.525	0.641	-0.227
-706.616	-58.101	0.443	0.195
-705.602	40.837	-0.319	0.290
-704.587	10.865	0.477	-0.367
-703.572	35.009	-0.107	0.094
-702.558	395.357	-0.027	0.056
-701.543	800.000	-0.176	0.745
-700.529	800.000	0.022	-0.074
-699.514	-71.549	0.381	-0.144
-698.499	110.923	0.404	0.490
-697.485	800.000	-0.171	0.652
-696.470	2.786	-0.688	0.503
-695.456	19.780	0.282	0.229
-694.441	263.621	0.209	-0.367
-693.426	2.606	-0.420	-0.307
-692.412	264.142	-0.300	0.527
-691.397	23.815	0.374	-0.310
-690.383	408.483	-0.181	0.386
-689.368	251.797	-0.227	-0.390
-688.354	-24.764	-0.651	-0.390
-687.339	102.472	-0.540	0.636
-686.324	740.945	-0.065	0.177
-685.310	800.000	-0.201	0.562
-684.295	-39.314	-0.432	-0.228
-683.281	66.098	-0.908	-0.928
-682.266	-200.000	0.006	-0.114
-681.251	564.719	-0.288	0.703
-680.237	800.000	0.334	-1.055
-679.222	249.389	-0.213	0.363
-678.208	39.358	-0.336	-0.303
-677.193	465.601	0.224	-0.505
-676.178	444.690	0.328	-0.726
-675.164	-200.000	-0.120	0.765
-674.149	-68.902	0.287	0.112
-673.135	800.000	-0.355	1.048
-672.120	723.470	0.080	-0.215
-671.105	-95.326	-0.370	0.100
-670.091	198.186	-0.268	0.413
-669.076	-117.875	-0.513	-0.093
-668.062	134.792	-0.221	0.289
-667.047	-140.832	-0.955	0.099
-666.032	-176.577	-0.908	0.024
-665.018	800.000	-0.189	0.710
-664.003	30.630	0.409	0.352
-662.989	-200.000	-0.078	0.559
-661.974	-22.853	-0.227	-0.138
-660.959	-200.000	0.072	0.472
-659.945	49.005	-0.414	0.391
-658.930	-57.854	0.589	-0.259
-657.916	271.474	0.331	-0.588
-656.901	74.759	-0.177	0.188
-655.886	800.000	0.161	0.626
-654.872	-200.000	0.215	0.984
-653.857	-107.279	-0.764	0.169
-652.843	196.135	0.267	0.409
-651.828	140.369	0.307	0.408
-650.814	37.771	0.201	0.179
-649.799	86.809	-0.523	-0.581
-648.784	-86.826	-0.378	-0.116
-647.770	-200.000	-0.035	0.617
-646.755	183.966	0.213	-0.317
-645.741	527.446	-0.362	0.858
-644.726	-120.937	-1.014	0.172
-643.711	554.383	0.058	0.141
-642.697	29.379	-0.148	0.127
-641.682	-200.000	-0.102	-0.560
-640.668	-18.164	0.380	0.240
-639.653	114.923	-0.333	0.408
-638.638	-174.409	0.287	-0.008
-637.624	791.330	0.127	-0.350
-636.609	-68.696	0.693	0.270
-635.595	-116.830	-0.857	0.158
-634.580	209.878	0.303	0.479
-633.565	800.000	0.095	0.368
-632.551	-78.819	0.283	-0.097
-631.536	-183.673	-0.745	0.013
-630.522	28.538	-0.445	0.379
-629.507	-104.412	0.557	0.130
-628.492	259.529	-0.229	-0.397
-627.478	-41.643	-0.308	0.159
-626.463	800.000	0.225	0.646
-625.449	-93.404	-0.594	0.166
-624.434	-64.033	-0.712	-0.292
-623.419	-200.000	-0.082	-0.585
-622.405	-200.000	0.200	-1.275
-621.390	1.821	0.633	-0.458
-620.376	1.296	-0.479	0.346
-619.361	-54.031	-0.217	-0.099
-618.346	-87.270	0.236	0.072
-617.332	-97.433	-1.259	-0.329
-616.317	-200.000	-0.063	-0.679
-615.303	-18.975	-0.427	0.267
-614.288	-21.479	0.341	-0.209
-613.273	12.764	0.072	-0.056
-612.259	379.200	-0.090	0.185
-611.244	-108.622	-1.013	-0.218
-610.230	53.100	-0.383	-0.369
-609.215	16.562	-0.517	0.411
-608.201	-174.226	0.381	-0.011
-607.186	-28.398	-0.387	0.224
-606.171	-4.624	-0.040	0.028
-605.157	117.691	0.551	0.682
-604.142	83.000	0.515	0.563
-603.128	187.964	0.079	0.119
-602.113	-109.231	-0.879	0.187
-601.098	-200.000	0.168	0.897
-600.084	343.289	0.207	0.408
-599.069	166.848	-0.462	-0.658
-598.055	-200.000	0.066	-0.506
-597.040	-82.960	-0.623	0.202
-596.025	-19.986	0.305	-0.189
-595.011	-28.566	-0.357	-0.207
-593.996	135.414	0.050	-0.065
-592.982	85.798	0.336	-0.371
-591.967	-119.952	0.286	-0.049
-590.952	193.553	-0.192	0.291
-589.938	-200.000	0.113	0.545
-588.923	-53.791	-0.709	-0.325
-587.909	-123.458	0.352	0.056
-586.894	-134.912	-0.768	-0.093
-585.879	-59.058	-0.125	-0.054
-584.865	-81.517	0.772	0.255
-583.850	-200.000	0.022	0.406
-582.836	800.000	0.138	0.569
-581.821	-200.000	0.016	0.497
-580.806	-46.097	-0.352	0.174
-579.792	-111.624	0.822	0.167
-578.777	-118.800	-0.774	0.137
-577.763	141.101	0.300	-0.398
-576.748	-200.000	-0.172	0.994
-575.733	800.000	0.139	0.531
-574.719	-133.845	0.535	-0.067
-573.704	55.853	0.409	-0.398
-572.690	-200.000	0.133	-0.703
-571.675	-26.485	-0.259	-0.153
-570.661	127.296	0.214	0.273
-569.646	-97.668	-0.584	0.152
-568.631	-14.121	-0.283	0.183
-567.617	-200.000	0.030	0.276
-566.602	340.839	-0.339	0.663
-565.588	-30.838	-0.771	-0.437
-564.573	800.000	0.064	0.248
-563.558	-200.000	-0.121	0.874
-562.544	-200.000	0.022	0.442
-561.529	355.118	0.204	0.407
-560.515	411.945	0.170	0.363
-559.500	124.046	-0.394	0.496
-558.485	-200.000	0.214	1.156
-557.471	269.921	0.207	0.364
-556.456	49.334	0.333	-0.314
-555.442	800.000	0.037	-0.143
-554.427	-57.309	0.339	0.150
-553.412	-130.264	0.713	-0.097
-552.398	32.529	-0.510	-0.442
-551.383	234.092	-0.069	-0.114
-550.369	247.186	0.182	-0.307
-549.354	-152.671	0.787	-0.056
-548.339	-78.907	0.212	0.072
-547.325	800.000	-0.429	1.209
-546.310	52.968	0.646	0.619
-545.296	-119.124	0.257	-0.045
-544.281	-31.018	-0.925	0.523
-543.266	-200.000	-0.004	0.719
-542.252	-54.329	-0.854	-0.388
-541.237	-30.085	0.550	-0.313
-540.223	-71.686	0.222	-0.083
-539.208	800.000	-0.110	-0.423
-538.193	-200.000	0.060	0.338
-537.179	-171.686	-0.614	0.020
-536.164	65.399	0.595	0.603
-535.150	800.000	0.248	-0.816
-534.135	800.000	0.214	-0.908
-533.121	-81.266	0.383	-0.127
-532.106	800.000	-0.093	0.281
-531.091	6.365	0.721	-0.536
-530.077	4.044	0.209	0.153
-529.062	284.681	-0.467	0.842
-528.048	22.267	0.407	0.333
-527.033	400.841	0.394	0.829
-526.018	-128.079	-0.360	-0.052
-525.004	235.107	-0.193	0.320
-523.989	-200.000	-0.032	0.428
-522.975	114.735	0.055	0.068
-521.960	-31.119	-0.370	0.209
-520.945	47.807	-0.312	-0.292
-519.931	579.986	-0.247	-0.606
-518.916	-200.000	-0.006	0.081
-517.902	-47.092	0.276	-0.135
-516.887	-35.324	-0.660	0.359
-515.872	28.723	0.661	0.560
-514.858	57.384	0.440	0.430
-513.843	-62.804	0.738	0.306
-512.829	-200.000	-0.167	0.806
-511.814	-200.000	-0.047	-0.977
-510.799	659.617	0.125	0.321
-509.785	800.000	0.261	-0.748
-508.770	800.000	-0.264	-1.094
-507.756	800.000	0.163	-0.530
-506.741	98.371	-0.175	0.202
-505.726	-200.000	0.204	-0.925
-504.712	-88.435	-0.340	0.101
-503.697	542.839	-0.045	-0.107
-502.683	-118.738	0.170	-0.030
-501.668	800.000	-0.142	0.463
-500.653	161.570	0.426	0.597
-499.639	-84.983	0.187	0.059
-498.624	800.000	-0.316	-0.963
-497.610	-71.769	0.257	-0.096
-496.595	677.074	-0.166	0.432
-495.581	246.128	0.260	-0.438
-494.566	358.500	0.194	0.389
-493.551	-200.000	-0.057	-1.091
-492.537	-91.986	0.319	-0.090
-491.522	2.285	-1.039	0.751
-490.508	-17.800	0.358	-0.225
-489.493	140.620	0.587	-0.775
-488.478	-10.244	-0.129	0.086
-487.464	-37.247	0.708	0.378
-486.449	26.958	-0.136	0.114
-485.435	268.460	0.286	0.502
-484.420	-200.000	0.019	-0.405
-483.405	23.530	-0.224	0.184
-482.391	-166.360	-0.222	-0.009
-481.376	-113.010	0.345	-0.068
-480.362	133.756	-0.198	-0.256
-479.347	-200.000	0.060	-0.808
-478.332	-120.868	-1.222	0.206
-477.318	-170.205	0.443	0.016
-476.303	-200.000	0.004	-0.325
-475.289	-139.158	0.865	0.093
-474.274	356.032	0.297	-0.591
-473.259	193.231	-0.392	0.592
-472.245	9.496	0.286	-0.217
-471.230	233.230	-0.454	-0.746
-470.216	-90.661	0.301	0.087
-469.201	-117.780	0.093	0.017
-468.186	122.588	0.241	0.301
-467.172	-49.466	0.426	-0.203
-466.157	100.466	0.464	0.539
-465.143	-200.000	0.072	-0.544
-464.128	170.958	-0.317	0.454
-463.113	-93.253	1.118	-0.310
-462.099	781.587	0.059	0.160
-461.084	-57.105	-0.235	0.104
-460.070	-138.748	0.240	-0.026
-459.055	236.807	-0.636	1.053
-458.040	538.056	-0.325	0.773
-457.026	-151.103	-0.214	-0.016
-456.011	-11.267	-0.255	0.168
-454.997	-53.801	-0.417	0.190
-453.982	21.023	-0.596	-0.483
-452.968	-62.329	0.337	0.140
-451.953	187.871	0.366	-0.546
-450.938	68.697	0.689	-0.706
-449.924	-200.000	-0.039	0.278
-448.909	-200.000	0.044	-0.730
-447.895	30.770	-0.135	0.115
-446.880	-200.000	-0.007	0.821
-445.865	-152.840	-0.817	-0.058
-444.851	305.719	0.288	-0.535
-443.836	116.941	-0.071	-0.087
-442.822	800.000	-0.080	-0.309
-441.807	231.462	0.230	0.377
-440.792	-119.195	-0.759	0.132
-439.778	-200.000	-0.083	-0.747
-438.763	-200.000	0.017	0.749
-437.749	-200.000	-0.064	-0.843
-436.734	85.200	-0.093	-0.102
-435.719	744.074	0.260	-0.699
-434.705	35.266	0.807	0.706
-433.690	-79.837	0.694	0.233
-432.676	800.000	-0.374	1.415
-431.661	-14.580	-0.335	-0.215
-430.646	652.429	0.125	-0.320
-429.632	6.852	-0.704	0.523
-428.617	-137.331	-0.218	-0.025
-427.603	-200.000	0.083	-0.983
-426.588	-29.621	0.246	-0.140
-425.573	800.000	-0.093	-0.293
-424.559	800.000	-0.200	-0.679
-423.544	-120.559	-0.839	-0.142
-422.530	-175.438	0.500	0.014
-421.515	32.382	-0.291	0.251
-420.500	602.976	-0.185	0.460
-419.486	303.837	0.271	0.501
-418.471	-55.414	-1.357	-0.607
-417.457	-165.099	-0.750	0.033
-416.442	-43.790	-0.604	0.303
-415.428	38.967	-0.093	0.083
-414.413	387.159	0.118	0.242
-413.398	-176.652	0.402	0.010
-412.384	-138.399	0.658	-0.072
-411.369	-118.506	-0.875	-0.154
-410.355	138.064	0.675	-0.882
-409.340	-79.349	0.771	0.260
-408.325	-141.052	-0.986	0.101
-407.311	382.165	0.097	-0.200
-406.296	-200.000	-0.012	-0.242
-405.282	-39.876	0.805	-0.419
-404.267	-200.000	0.012	0.711
-403.252	-153.730	-0.399	-0.027
-402.238	-158.961	0.485	-0.027
-401.223	-62.549	0.193	-0.080
-400.209	-82.428	-0.414	0.134
-399.194	-56.738	-0.657	0.290
-398.179	-200.000	0.007	0.604
-397.165	-108.848	-0.206	-0.044
-396.150	-200.000	0.008	0.503
-395.136	-130.089	-0.388	-0.053
-394.121	87.622	-0.294	-0.324
-393.106	1.992	0.236	0.170
-392.092	-34.604	0.445	0.243
-391.077	800.000	0.264	0.743
-390.063	-81.668	-1.019	0.333
-389.048	-76.487	0.052	0.018
-388.033	78.364	0.408	0.434
-387.019	800.000	0.117	-0.374
-386.004	-152.443	-0.338	-0.024
-384.990	800.000	0.028	0.105
-383.975	800.000	0.177	-0.491
-382.960	3.784	-0.332	-0.242
-381.946	-145.612	0.380	0.034
-380.931	412.243	0.097	0.205
-379.917	-65.446	-0.370	-0.148
-378.902	41.383	0.660	-0.595
-377.888	-200.000	-0.069	0.618
-376.873	133.844	-0.826	1.065
-375.858	800.000	0.240	0.723
-374.844	-200.000	0.123	-0.855
-373.829	49.126	0.323	0.302
-372.815	-81.141	0.273	-0.090
-371.800	-79.849	-0.483	0.162
-370.785	-134.808	0.462	0.056
-369.771	800.000	-0.089	-0.371
-368.756	-9.986	-0.530	0.351
-367.742	96.246	0.096	-0.110
-366.727	-173.423	0.388	-0.012
-365.712	13.308	-0.123	-0.095
-364.698	-200.000	-0.150	-0.991
-363.683	800.000	-0.173	-0.526
-362.669	64.365	0.183	0.184
-361.654	110.521	-0.492	-0.588
-360.639	5.641	0.463	-0.340
-359.625	229.352	-0.419	-0.680
-358.610	0.290	-0.329	0.233
-357.596	-72.988	0.403	0.147
-356.581	-200.000	-0.067	0.426
-355.566	-200.000	0.023	0.586
-354.552	-200.000	0.037	0.324
-353.537	-32.172	0.377	0.210
-352.523	178.411	-0.189	0.275
-351.508	520.329	-0.036	0.083
-350.493	11.140	-0.542	0.412
-349.479	-200.000	0.058	0.257
-348.464	-124.240	0.533	-0.083
-347.450	38.780	0.443	-0.393
-346.435	-63.114	-0.477	0.196
-345.420	-200.000	0.052	0.276
-344.406	-91.251	0.656	-0.187
-343.391	6.743	-0.512	-0.379
-342.377	-200.000	-0.030	-0.534
-341.362	800.000	0.111	-0.434
-340.348	-119.734	-0.994	-0.171
-339.333	434.118	0.400	-0.864
-338.318	800.000	-0.047	0.174
-337.304	62.995	-0.459	0.457
-336.289	-144.494	0.672	0.062
-335.275	-200.000	0.015	0.261
-334.260	-37.107	-0.243	-0.130
-333.245	-200.000	-0.109	-0.610
-332.231	-110.544	0.452	0.093
-331.216	-200.000	0.010	-0.267
-330.202	-82.611	0.830	-0.267
-329.187	100.872	-0.439	0.507
-328.172	486.844	0.275	-0.624
-327.158	54.117	0.356	-0.340
-326.143	46.634	-0.488	0.450
-325.129	-142.646	-0.414	-0.040
-324.114	800.000	-0.083	-0.271
-323.099	-48.392	-0.726	0.348
-322.085	-19.421	-0.207	-0.127
-321.070	-200.000	0.119	-0.562
-320.056	391.869	-0.662	-1.366
-319.041	30.751	-0.410	0.348
-318.026	-158.233	-0.347	0.020
-317.012	-200.000	-0.075	-0.362
-315.997	195.938	0.371	-0.561
-314.983	55.187	0.324	0.311
-313.968	98.669	-0.167	-0.191
-312.953	-93.850	-0.597	0.163
-311.939	46.032	-0.481	0.442
-310.924	-200.000	0.056	-0.557
-309.910	-54.001	-0.674	-0.304
-308.895	-97.605	0.589	-0.152
-307.880	-200.000	-0.189	1.031
-306.866	800.000	0.073	-0.296
-305.851	800.000	0.074	0.212
-304.837	-200.000	-0.033	0.550
-303.822	243.608	0.348	0.579
-302.807	800.000	0.117	-0.379
-301.793	-81.946	-0.744	-0.242
-300.778	294.568	-0.444	-0.805
-299.764	115.721	0.529	0.643
-298.749	369.148	0.202	-0.406
-297.735	-27.780	-0.478	-0.275
-296.720	122.456	0.161	-0.200
-295.705	-78.521	-0.583	-0.198
-294.691	800.000	-0.085	-0.284
-293.676	162.085	0.153	0.212
-292.662	-71.667	0.177	-0.066
-291.647	46.228	0.093	-0.086
-290.632	-127.746	-0.416	-0.060
-289.618	68.170	0.743	-0.755
-288.603	-119.310	-0.135	0.023
-287.589	-69.707	0.433	-0.164
-286.574	333.556	-0.443	0.850
-285.559	-48.894	0.872	0.415
-284.545	66.984	0.596	-0.603
-283.530	-63.941	-0.425	0.172
-282.516	-46.319	-0.273	0.133
-281.501	582.277	0.249	-0.606
-280.486	50.698	-0.238	0.223
-279.472	270.645	0.148	0.258
-278.457	-113.433	0.553	-0.108
-277.443	33.798	0.534	-0.460
-276.428	-122.298	-0.444	-0.072
-275.413	31.910	0.547	-0.468
-274.399	-200.000	-0.036	-0.279
-273.384	-14.695	0.585	0.372
-272.370	-176.111	0.581	-0.015
-271.355	1.057	0.492	0.350
-270.340	-116.665	-0.517	0.094
-269.326	-84.079	-0.565	0.178
-268.311	-186.108	-0.163	0.002
-267.297	-152.379	0.215	0.015
-266.282	-200.000	0.158	-0.705
-265.267	361.635	-0.258	-0.512
-264.253	-65.011	-0.110	0.044
-263.238	800.000	0.078	-0.273
-262.224	114.310	0.420	0.506
-261.209	-49.420	0.185	0.088
-260.195	41.432	0.314	0.281
-259.180	-30.634	-0.073	0.041
-258.165	-120.647	-0.778	0.131
-257.151	-83.670	0.714	-0.226
-256.136	-115.281	0.665	-0.125
-255.122	-108.212	0.406	0.087
-254.107	76.145	0.084	0.088
-253.092	-124.868	-0.537	-0.082
-252.078	-200.000	-0.001	0.036
-251.063	-40.971	-0.688	0.352
-250.049	-200.000	0.075	0.409
-249.034	-200.000	0.077	-0.613
-248.019	56.911	0.397	0.383
-247.005	-118.117	-0.506	0.090
-245.990	216.957	0.142	0.224
-244.976	-103.415	0.299	-0.070
-243.961	650.318	0.401	-1.016
-242.946	-55.618	-0.592	0.262
-241.932	285.534	-0.405	-0.722
-240.917	-19.677	0.204	-0.125
-239.903	15.002	0.640	0.496
-238.888	800.000	0.224	-0.955
-237.873	105.127	-0.257	0.301
-236.859	379.595	0.196	-0.397
-235.844	-0.918	0.759	-0.532
-234.830	587.440	-0.332	-0.808
-233.815	-128.388	0.609	-0.086
-232.800	-200.000	-0.357	-0.001
-231.786	670.422	-0.466	1.194
-230.771	234.667	0.123	0.201
-229.757	-200.000	0.235	-1.466
-228.742	18.158	0.595	-0.470
-227.727	-102.636	-0.200	0.047
-226.713	-1.924	0.199	-0.138
-225.698	412.268	0.346	-0.727
-224.684	-131.051	0.307	-0.041
-223.669	800.000	0.172	0.653
-222.655	25.272	-0.589	-0.484
-221.640	36.831	-0.718	-0.628
-220.625	-168.293	0.038	-0.001
-219.611	6.060	0.600	0.440
-218.596	674.685	-0.066	0.170
-217.582	-200.000	-0.045	0.417
-216.567	800.000	0.205	0.561
-215.552	-142.386	0.866	0.084
-214.538	-200.000	0.082	0.505
-213.523	42.391	0.241	-0.217
-212.509	800.000	0.153	-0.519
-211.494	800.000	0.098	0.343
-210.479	-62.304	0.761	-0.313
-209.465	-45.495	0.893	0.438
-208.450	-75.470	0.834	0.294
-207.436	190.739	0.389	-0.579
-206.421	53.531	0.464	0.440
-205.406	119.154	-0.499	0.610
-204.392	-124.287	-0.244	0.038
-203.377	-166.250	-0.576	-0.024
-202.363	-17.735	0.109	0.068
-201.348	141.575	-0.107	0.140
-200.333	-85.040	0.537	0.166
-199.319	-122.950	-0.292	-0.046
-198.304	-200.000	0.110	-0.585
-197.290	182.571	-0.388	-0.565
-196.275	308.933	-0.183	-0.338
-195.260	482.510	-0.503	-1.129
-194.246	-43.350	0.392	0.196
-193.231	49.129	-0.075	-0.069
-192.217	83.838	-0.598	0.645
-191.202	-100.599	0.743	-0.181
-190.187	107.292	-0.177	-0.208
-189.173	-121.071	0.159	0.026
-188.158	-134.832	-0.125	-0.015
-187.144	-120.233	0.844	0.142
-186.129	-135.348	-0.492	0.058
-185.114	-170.038	-0.121	0.004
-184.100	240.494	0.539	0.888
-183.085	800.000	-0.201	-0.594
-182.071	490.790	0.178	0.402
-181.056	16.058	0.678	-0.528
-180.042	-97.009	-0.648	0.168
-179.027	800.000	-0.234	-0.705
-178.012	141.613	0.224	-0.293
-176.998	59.614	-0.027	0.026
-175.983	-31.417	-0.385	-0.214
-174.969	-152.152	0.643	-0.046
-173.954	665.752	-0.062	0.159
-172.939	-200.000	-0.003	0.187
-171.925	267.676	0.172	-0.298
-170.910	241.419	0.284	0.469
-169.896	-150.864	-0.400	-0.030
-168.881	-70.760	0.578	0.215
-167.866	-99.769	-0.362	0.090
-166.852	-54.255	-0.099	0.045
-165.837	-200.000	0.090	-0.849
-164.823	100.537	-0.108	0.124
-163.808	-51.102	0.941	0.436
-162.793	-17.244	-0.363	0.226
-161.779	-5.475	0.595	0.403
-160.764	-53.336	0.354	-0.160
-159.750	85.852	-0.280	-0.303
-158.735	-103.245	0.685	0.160
-157.720	-200.000	-0.059	-0.594
-156.706	-200.000	-0.021	-0.475
-155.691	-12.816	-0.661	0.425
-154.677	-200.000	-0.086	0.405
-153.662	-110.405	-1.275	0.261
-152.647	209.693	0.205	0.317
-151.633	-66.996	-0.619	0.241
-150.618	252.574	-0.267	-0.448
-149.604	-200.000	0.038	-0.594
-148.589	400.946	-0.489	-1.014
-147.574	-200.000	-0.051	-0.479
-146.560	145.255	0.440	0.581
-145.545	78.745	-0.796	0.840
-144.531	27.201	-0.100	0.083
-143.516	4.682	-0.120	-0.087
-142.502	-200.000	-0.777	-0.001
-141.487	409.123	0.104	0.218
-140.472	-17.171	0.306	-0.191
-139.458	-91.012	-0.205	0.058
-138.443	-200.000	0.006	-0.441
-137.429	464.246	-0.099	0.219
-136.414	-200.000	0.031	0.156
-135.399	-200.000	0.058	-0.576
-134.385	-27.411	0.418	-0.240
-133.370	-116.387	-0.710	0.129
-132.356	141.003	0.151	0.197
-131.341	470.597	-0.164	0.363
-130.326	-200.000	-0.004	-0.571
-129.312	20.673	-0.170	0.136
-128.297	13.299	0.812	0.621
-127.283	218.205	-0.470	-0.739
-126.268	-69.671	0.440	-0.166
-125.253	-194.211	0.766	-0.006
-124.239	50.604	-0.146	-0.136
-123.224	727.792	0.137	-0.360
-122.210	-140.122	-0.423	0.044
-121.195	107.495	-0.400	-0.469
-120.180	-93.101	0.596	0.164
