DTS Sentinel unit serial number:	SN413079Multiplexer serial number:	ORYXHardware model number:	OX4-SRSoftware version number:	ORYX F/W v4.00 Oryx Data Collector v3.7.2.0data status	okinstallation	princeton_trtdifferential loss correction	single-endedforward channel	channel 1reverse channel	N/Adate	2019/09/16time	18:06:35forward acquisition time	60.00reverse acquisition time	0.00gamma	496.2192k internal	0.2301k external	0.2301temperature offset calibration	0.9969default loss term (dB/km)	0.3790temperature slope calibration	1.0000multiplexer offset coefficient	1.0000multiplexer slope coefficient	1.0000fibre end	0.00T internal ref (°C)	37.44T ext. ref 1 (°C)	15.68T ext. ref 2 (°C)	31.08length (m)	temperature (°C)	Stokes	anti-Stokes-747.200	800.000	-0.059	0.257
-746.185	390.161	-0.270	0.571
-745.171	-92.947	-0.229	0.065
-744.156	44.505	0.109	-0.102
-743.142	-200.000	-0.002	0.479
-742.127	185.933	-0.121	0.183
-741.112	64.433	-0.217	-0.223
-740.098	-200.000	0.059	0.311
-739.083	21.489	-0.132	-0.110
-738.069	127.634	0.100	0.129
-737.054	84.190	0.038	-0.042
-736.039	-128.264	-0.199	-0.029
-735.025	129.883	-0.071	0.092
-734.010	-28.245	-0.159	-0.093
-732.996	50.720	-0.243	0.234
-731.981	-200.000	0.009	0.332
-730.966	-176.758	0.164	-0.004
-729.952	348.457	-0.049	-0.099
-728.937	-145.300	-0.250	0.023
-727.923	362.509	0.104	-0.212
-726.908	800.000	-0.033	-0.095
-725.894	-83.325	0.241	0.079
-724.879	-4.174	-0.255	0.180
-723.864	-147.844	0.155	-0.013
-722.850	-167.908	0.539	0.022
-721.835	-64.450	-0.061	0.025
-720.821	-200.000	0.009	-0.147
-719.806	-81.840	0.022	-0.007
-718.791	-200.000	-0.018	0.116
-717.777	-200.000	-0.059	-0.278
-716.762	800.000	-0.016	0.044
-715.748	119.359	-0.079	-0.100
-714.733	219.538	0.095	0.154
-713.718	-200.000	0.023	-0.113
-712.704	-181.397	-0.198	-0.004
-711.689	800.000	-0.114	-0.422
-710.675	0.525	-0.188	0.137
-709.660	670.485	0.067	-0.177
-708.645	63.487	0.103	-0.105
-707.631	55.004	-0.177	-0.174
-706.616	-94.216	0.428	-0.119
-705.602	-200.000	-0.046	-0.521
-704.587	16.883	0.179	0.144
-703.572	-105.174	0.391	0.091
-702.558	176.342	-0.193	0.286
-701.543	68.333	-0.066	-0.069
-700.529	800.000	-0.086	-0.383
-699.514	-174.230	-0.109	-0.003
-698.499	413.501	-0.063	-0.137
-697.485	-200.000	0.038	-0.254
-696.470	349.304	0.152	-0.305
-695.456	800.000	-0.044	-0.148
-694.441	-26.797	-0.161	-0.095
-693.426	691.669	-0.070	0.187
-692.412	-81.161	-0.271	-0.091
-691.397	-64.105	-0.122	-0.051
-690.383	-8.593	-0.327	0.223
-689.368	-102.559	-0.181	0.044
-688.354	-71.798	-0.253	-0.096
-687.339	239.147	-0.066	0.112
-686.324	-75.534	0.327	0.118
-685.310	800.000	-0.097	0.342
-684.295	146.482	0.065	0.089
-683.281	-85.383	-0.166	-0.053
-682.266	-200.000	-0.006	-0.101
-681.251	200.768	0.092	0.144
-680.237	-200.000	-0.012	-0.151
-679.222	-131.222	0.219	-0.030
-678.208	4.530	-0.162	0.121
-677.193	-36.398	-0.122	0.067
-676.178	-125.779	-0.097	-0.015
-675.164	-200.000	0.001	-0.098
-674.149	183.536	0.131	-0.196
-673.135	118.000	0.030	-0.038
-672.120	222.760	-0.124	-0.203
-671.105	-110.851	0.300	-0.063
-670.091	-189.889	0.138	-0.002
-669.076	-200.000	0.012	-0.154
-668.062	-89.205	-0.405	0.122
-667.047	-49.980	-0.051	-0.024
-666.032	-199.779	0.106	-0.001
-665.018	-11.492	-0.119	0.079
-664.003	-24.104	-0.265	-0.161
-662.989	-83.185	-0.273	-0.089
-661.974	600.854	0.014	-0.034
-660.959	-102.100	-0.231	0.056
-659.945	3.006	0.047	0.035
-658.930	69.900	-0.073	0.076
-657.916	236.178	0.105	-0.176
-656.901	-144.599	-0.113	0.011
-655.886	190.090	0.081	0.123
-654.872	231.500	-0.118	-0.196
-653.857	150.047	0.164	-0.226
-652.843	-51.294	0.074	0.035
-651.828	-166.157	0.080	0.003
-650.814	294.992	-0.160	-0.297
-649.799	535.467	-0.098	0.237
-648.784	-129.821	-0.223	-0.031
-647.770	-84.519	0.192	-0.062
-646.755	653.692	-0.172	-0.448
-645.741	138.692	0.137	0.183
-644.726	-132.154	-0.340	-0.045
-643.711	138.337	0.090	0.121
-642.697	-128.185	-0.222	-0.032
-641.682	-51.096	-0.130	-0.062
-640.668	-200.000	-0.015	-0.120
-639.653	405.315	0.017	0.036
-638.638	-48.503	-0.138	-0.067
-637.624	-54.264	-0.408	-0.188
-636.609	-200.000	0.034	-0.407
-635.595	-121.806	0.170	-0.028
-634.580	-36.369	-0.228	0.125
-633.565	212.795	-0.146	0.233
-632.551	-136.050	0.042	-0.005
-631.536	-13.303	-0.364	-0.240
-630.522	140.317	0.162	0.217
-629.507	-200.000	0.097	-0.442
-628.492	-56.711	0.336	0.151
-627.478	800.000	-0.025	-0.108
-626.463	129.807	-0.124	-0.160
-625.449	117.012	0.023	-0.029
-624.434	-200.000	-0.011	0.093
-623.419	50.597	-0.117	-0.112
-622.405	-21.338	0.020	-0.012
-621.390	-77.148	0.359	0.127
-620.376	38.944	-0.298	0.270
-619.361	-200.000	0.012	-0.055
-618.346	22.141	-0.175	0.145
-617.332	109.750	0.193	-0.235
-616.317	800.000	0.038	-0.164
-615.303	-200.000	-0.005	-0.395
-614.288	-200.000	-0.047	-0.223
-613.273	-100.546	0.451	-0.113
-612.259	800.000	0.079	-0.255
-611.244	-66.479	0.107	-0.043
-610.230	10.405	0.195	0.151
-609.215	800.000	0.039	-0.132
-608.201	614.495	-0.043	0.109
-607.186	-84.578	0.269	-0.086
-606.171	13.313	-0.272	-0.213
-605.157	29.405	-0.222	0.191
-604.142	-61.804	0.135	0.057
-603.128	14.887	-0.263	0.209
-602.113	-200.000	-0.056	-0.320
-601.098	-178.310	-0.258	0.006
-600.084	24.421	0.148	0.124
-599.069	800.000	-0.094	-0.340
-598.055	35.797	0.032	-0.028
-597.040	157.007	-0.085	0.119
-596.025	-187.874	0.228	0.003
-595.011	-101.770	0.124	-0.030
-593.996	176.485	0.125	-0.185
-592.982	-115.756	-0.107	-0.020
-591.967	-126.096	-0.093	-0.014
-590.952	72.419	-0.193	0.204
-589.938	-200.000	-0.013	-0.154
-588.923	34.946	-0.079	0.070
-587.909	-200.000	0.092	0.421
-586.894	200.037	0.080	-0.125
-585.879	-31.597	0.153	-0.087
-584.865	-48.424	-0.128	-0.062
-583.850	164.397	0.250	0.357
-582.836	64.043	0.224	0.229
-581.821	-27.657	0.180	-0.106
-580.806	-200.000	0.055	0.284
-579.792	-25.286	0.064	0.039
-578.777	-69.945	0.155	0.060
-577.763	-174.482	-0.346	-0.010
-576.748	-92.675	0.081	0.023
-575.733	-200.000	-0.079	-0.427
-574.719	151.622	-0.314	-0.434
-573.704	800.000	-0.036	0.108
-572.690	-200.000	0.011	0.227
-571.675	350.632	-0.096	0.192
-570.661	13.558	0.205	0.161
-569.646	800.000	-0.082	0.292
-568.631	156.142	0.067	-0.094
-567.617	-62.528	-0.205	0.086
-566.602	-94.146	0.081	-0.023
-565.588	51.938	-0.113	0.109
-564.573	-1.764	-0.154	-0.109
-563.558	-147.193	-0.260	0.022
-562.544	-200.000	0.006	-0.193
-561.529	-200.000	-0.026	0.213
-560.515	800.000	-0.008	0.033
-559.500	64.042	-0.185	0.189
-558.485	27.457	-0.074	-0.063
-557.471	-144.926	0.341	-0.032
-556.456	-200.000	0.002	0.071
-555.442	246.963	0.055	-0.093
-554.427	-62.614	0.237	-0.099
-553.412	-113.451	-0.365	-0.072
-552.398	71.878	0.230	-0.242
-551.383	-53.362	-0.403	0.187
-550.369	-115.576	-0.138	-0.026
-549.354	67.290	-0.225	0.232
-548.339	-128.128	0.266	-0.039
-547.325	-197.643	-0.138	-0.001
-546.310	-88.223	0.082	0.025
-545.296	15.136	0.229	-0.181
-544.281	-171.215	0.347	-0.012
-543.266	115.880	-0.021	0.027
-542.252	-141.844	-0.367	-0.037
-541.237	354.639	0.150	-0.302
-540.223	-26.296	0.103	-0.061
-539.208	-14.704	0.187	0.122
-538.193	371.334	-0.086	0.177
-537.179	-43.417	0.341	-0.174
-536.164	-46.902	-0.178	-0.088
-535.150	800.000	-0.011	0.032
-534.135	-200.000	0.025	0.130
-533.121	441.463	-0.122	0.270
-532.106	-88.308	-0.393	0.119
-531.091	7.592	0.370	0.280
-530.077	-200.000	0.003	-0.076
-529.062	-90.976	-0.222	-0.065
-528.048	800.000	-0.052	-0.190
-527.033	-41.613	-0.293	-0.152
-526.018	738.294	0.089	0.241
-525.004	800.000	0.036	0.150
-523.989	-200.000	0.006	0.301
-522.975	-200.000	0.007	0.217
-521.960	800.000	0.052	0.226
-520.945	41.385	0.178	0.163
-519.931	-35.552	0.237	0.130
-518.916	-111.584	-0.330	0.068
-517.902	-28.839	-0.110	0.064
-516.887	-115.837	-0.311	0.059
-515.872	43.793	0.236	-0.218
-514.858	-144.682	-0.239	-0.022
-513.843	-65.654	-0.227	0.092
-512.829	2.709	0.394	-0.289
-511.814	37.805	0.284	0.255
-510.799	-72.496	0.312	-0.117
-509.785	-71.033	-0.286	-0.109
-508.770	-124.758	0.321	-0.050
-507.756	-57.506	0.242	0.107
-506.741	-119.772	-0.201	-0.035
-505.726	95.914	-0.135	0.156
-504.712	-23.330	0.143	-0.087
-503.697	-200.000	0.035	0.212
-502.683	125.661	-0.049	0.062
-501.668	622.196	-0.043	-0.109
-500.653	-107.355	-0.224	0.050
-499.639	-200.000	0.003	0.353
-498.624	338.657	-0.041	0.080
-497.610	-125.686	-0.402	-0.062
-496.595	-200.000	-0.007	0.132
-495.581	43.805	-0.138	-0.128
-494.566	-21.089	0.382	0.236
-493.551	800.000	0.055	-0.206
-492.537	-79.416	0.253	0.087
-491.522	39.922	-0.235	-0.213
-490.508	-200.000	-0.040	-0.218
-489.493	392.341	0.094	-0.197
-488.478	180.670	-0.146	-0.216
-487.464	-190.706	-0.216	-0.002
-486.449	800.000	0.068	0.230
-485.435	49.576	-0.223	0.212
-484.420	395.301	-0.023	-0.048
-483.405	-91.993	0.185	-0.053
-482.391	5.470	0.283	-0.211
-481.376	-200.000	-0.002	-0.201
-480.362	800.000	0.054	0.231
-479.347	-200.000	-0.080	-0.365
-478.332	138.345	0.083	-0.110
-477.318	162.604	0.204	0.289
-476.303	-8.796	-0.335	0.227
-475.289	-200.000	-0.027	0.138
-474.274	569.924	-0.122	-0.300
-473.259	-105.597	0.416	0.095
-472.245	16.948	0.198	0.158
-471.230	-200.000	-0.011	-0.060
-470.216	181.975	-0.071	-0.105
-469.201	93.301	0.146	0.167
-468.186	6.062	-0.033	0.025
-467.172	-61.493	-0.137	0.058
-466.157	-147.853	0.169	-0.014
-465.143	-78.047	-0.102	0.036
-464.128	55.291	0.373	-0.363
-463.113	800.000	0.011	0.038
-462.099	-178.771	-0.050	-0.001
-461.084	-159.036	-0.276	0.016
-460.070	330.360	-0.064	0.124
-459.055	186.467	0.036	0.055
-458.040	-200.000	0.012	0.076
-457.026	-82.753	-0.136	-0.044
-456.011	13.856	-0.064	0.050
-454.997	106.914	0.190	0.227
-453.982	-200.000	0.037	-0.224
-452.968	589.225	-0.077	-0.191
-451.953	83.739	-0.121	-0.133
-450.938	-119.353	0.075	-0.013
-449.924	389.284	-0.096	0.200
-448.909	-40.517	-0.111	0.058
-447.895	-133.867	-0.259	-0.032
-446.880	800.000	0.058	-0.195
-445.865	-83.879	-0.270	0.087
-444.851	328.761	0.088	0.171
-443.836	800.000	-0.087	-0.292
-442.822	474.742	-0.012	0.027
-441.807	-50.923	0.077	-0.036
-440.792	-174.988	-0.134	0.004
-439.778	719.137	-0.059	0.158
-438.763	135.785	0.287	0.376
-437.749	-156.057	-0.100	-0.006
-436.734	15.971	0.094	0.074
-435.719	-200.000	-0.020	0.319
-434.705	800.000	-0.038	-0.133
-433.690	38.644	-0.208	0.187
-432.676	240.802	-0.026	0.043
-431.661	31.766	0.174	0.150
-430.646	298.178	0.032	0.060
-429.632	93.876	-0.236	-0.269
-428.617	-200.000	-0.035	0.260
-427.603	-200.000	-0.021	-0.133
-426.588	-200.000	0.042	-0.402
-425.573	-78.976	-0.142	-0.049
-424.559	19.602	0.196	-0.159
-423.544	800.000	-0.074	-0.327
-422.530	-148.349	-0.275	0.023
-421.515	-100.180	-0.216	-0.054
-420.500	-0.233	0.311	0.223
-419.486	-200.000	-0.005	-0.052
-418.471	121.332	0.111	-0.139
-417.457	-118.104	-0.273	-0.049
-416.442	85.110	0.433	0.477
-415.428	207.635	0.130	0.204
-414.413	70.651	-0.206	0.214
-413.398	239.357	0.137	-0.229
-412.384	134.267	0.173	-0.225
-411.369	800.000	-0.028	-0.084
-410.355	396.798	-0.056	-0.117
-409.340	-38.289	0.125	0.066
-408.325	129.762	-0.100	0.129
-407.311	-200.000	0.021	-0.101
-406.296	-108.499	0.316	-0.068
-405.282	134.935	0.087	0.113
-404.267	481.883	-0.058	-0.133
-403.252	-40.420	-0.146	-0.077
-402.238	-77.770	-0.054	-0.019
-401.223	-200.000	-0.028	-0.249
-400.209	-21.369	-0.103	-0.063
-399.194	43.338	0.342	-0.314
-398.179	-115.907	-0.217	0.041
-397.165	-4.841	-0.163	-0.113
-396.150	-171.057	0.303	-0.010
-395.136	-200.000	-0.037	0.216
-394.121	-52.351	0.199	-0.093
-393.106	-146.002	0.397	-0.035
-392.092	-200.000	-0.038	-0.271
-391.077	195.776	-0.059	-0.090
-390.063	-55.569	-0.099	0.045
-389.048	48.463	0.094	0.088
-388.033	12.595	-0.135	0.105
-387.019	204.870	-0.201	-0.313
-386.004	-200.000	-0.036	0.338
-384.990	-62.874	0.262	-0.109
-383.975	-21.421	0.180	0.110
-382.960	-114.447	0.351	0.068
-381.946	-158.124	-0.134	0.008
-380.931	800.000	-0.064	0.230
-379.917	58.169	0.274	-0.270
-378.902	-83.041	0.280	0.091
-377.888	800.000	0.008	0.031
-376.873	5.758	-0.213	0.158
-375.858	342.132	0.202	-0.396
-374.844	250.440	-0.051	-0.087
-373.829	60.833	0.170	-0.169
-372.815	-31.587	0.149	0.084
-371.800	653.669	0.079	0.203
-370.785	210.203	0.072	-0.114
-369.771	-154.210	-0.161	-0.011
-368.756	-124.617	-0.220	0.034
-367.742	800.000	-0.052	-0.147
-366.727	800.000	0.041	0.174
-365.712	13.254	0.207	-0.161
-364.698	-24.305	-0.158	-0.095
-363.683	-200.000	-0.003	-0.168
-362.669	-139.386	0.355	-0.038
-361.654	-68.718	-0.098	-0.038
-360.639	-150.109	-0.157	0.012
-359.625	-33.730	-0.148	-0.082
-358.610	-154.167	0.035	0.002
-357.596	557.864	0.123	0.298
-356.581	-200.000	0.144	0.813
-355.566	800.000	-0.100	0.407
-354.552	800.000	-0.111	-0.340
-353.537	723.123	-0.026	0.069
-352.523	800.000	-0.136	0.531
-351.508	-200.000	0.054	-0.438
-350.493	487.930	0.234	-0.537
-349.479	-200.000	0.001	-0.082
-348.464	-70.187	-0.400	-0.153
-347.450	800.000	-0.091	0.279
-346.435	497.199	0.086	-0.199
-345.420	72.745	0.333	0.348
-344.406	49.032	0.156	-0.147
-343.391	-59.108	0.096	-0.041
-342.377	-120.775	-0.134	0.023
-341.362	194.419	0.133	0.202
-340.348	402.312	-0.080	0.168
-339.333	-112.338	0.029	0.006
-338.318	720.798	0.106	-0.284
-337.304	-200.000	0.039	-0.379
-336.289	537.959	-0.095	-0.226
-335.275	-60.924	0.300	-0.127
-334.260	-119.891	0.394	-0.068
-333.245	-79.732	-0.117	-0.039
-332.231	-128.939	0.128	0.018
-331.216	800.000	-0.051	0.162
-330.202	-200.000	0.003	-0.413
-329.187	-91.673	0.124	-0.035
-328.172	46.428	-0.131	0.122
-327.158	-200.000	-0.016	-0.104
-326.143	-200.000	-0.027	-0.124
-325.129	76.019	-0.084	-0.089
-324.114	274.255	-0.059	-0.104
-323.099	15.399	-0.374	0.294
-322.085	800.000	0.029	0.097
-321.070	24.599	-0.242	-0.201
-320.056	73.446	-0.194	-0.204
-319.041	-200.000	-0.012	0.177
-318.026	13.464	0.386	0.300
-317.012	28.003	-0.063	-0.053
-315.997	-200.000	-0.005	-0.042
-314.983	-61.867	-0.296	-0.124
-313.968	-73.304	0.274	0.100
-312.953	51.521	-0.093	0.089
-311.939	92.975	0.238	0.269
-310.924	188.347	-0.061	-0.092
-309.910	800.000	0.091	0.351
-308.895	-78.790	-0.390	-0.133
-307.880	-200.000	-0.018	0.186
-306.866	69.188	-0.230	0.237
-305.851	41.189	0.124	0.112
-304.837	-108.603	0.168	0.036
-303.822	509.436	0.069	0.161
-302.807	-200.000	0.067	0.327
-301.793	-103.544	-0.170	-0.040
-300.778	210.456	-0.091	0.143
-299.764	273.039	-0.167	-0.296
-298.749	33.977	0.175	-0.152
-297.735	-62.744	-0.207	-0.086
-296.720	-200.000	0.023	-0.184
-295.705	5.632	0.349	-0.258
-294.691	536.821	0.086	0.205
-293.676	800.000	-0.099	0.386
-292.662	-200.000	-0.066	-0.307
-291.647	-164.582	0.399	0.018
-290.632	-200.000	0.016	-0.135
-289.618	-18.862	-0.280	0.175
-288.603	325.910	0.075	0.144
-287.589	-33.793	0.055	-0.030
-286.574	12.441	0.127	-0.098
-285.559	91.139	-0.058	0.065
-284.545	-142.535	-0.382	-0.037
-283.530	-180.243	-0.341	0.007
-282.516	37.660	-0.159	-0.142
-281.501	800.000	0.073	-0.205
-280.486	548.203	-0.066	-0.159
-279.472	362.046	0.035	0.069
-278.457	-68.937	0.123	-0.047
-277.443	255.292	-0.191	-0.327
-276.428	-34.470	-0.111	0.061
-275.413	-200.000	0.044	-0.214
-274.399	-67.152	-0.246	-0.097
-273.384	136.332	0.230	0.301
-272.370	100.450	-0.199	-0.232
-271.355	-103.897	0.401	-0.094
-270.340	13.884	-0.088	-0.068
-269.326	800.000	0.038	-0.133
-268.311	-147.169	0.147	-0.013
-267.297	-200.000	0.010	0.098
-266.282	-67.414	0.289	-0.113
-265.267	378.664	0.087	0.179
-264.253	-139.922	-0.345	-0.036
-263.238	491.820	0.043	-0.100
-262.224	-112.558	-0.191	0.038
-261.209	-123.016	0.062	0.010
-260.195	223.259	-0.220	0.355
-259.180	-3.979	0.060	0.041
-258.165	-20.419	-0.424	0.261
-257.151	333.723	-0.079	-0.153
-256.136	800.000	-0.103	0.319
-255.122	800.000	0.090	0.269
-254.107	-18.335	0.259	0.162
-253.092	800.000	-0.040	0.123
-252.078	-96.798	-0.280	-0.074
-251.063	14.383	-0.114	0.089
-250.049	-135.359	-0.257	0.031
-249.034	330.966	-0.071	-0.136
-248.019	800.000	0.038	-0.140
-247.005	-64.979	-0.292	0.118
-245.990	-12.089	-0.154	-0.101
-244.976	-200.000	0.005	-0.091
-243.961	-74.394	0.287	0.104
-242.946	-72.013	0.218	0.081
-241.932	-153.130	-0.028	0.002
-240.917	5.036	-0.025	-0.018
-239.903	594.366	0.070	-0.173
-238.888	-158.526	-0.316	-0.018
-237.873	14.447	0.197	0.154
-236.859	-200.000	-0.011	-0.173
-235.844	-200.000	-0.010	-0.068
-234.830	-190.409	0.324	-0.004
-233.815	800.000	0.043	-0.141
-232.800	-23.810	-0.345	-0.206
-231.786	562.042	-0.029	0.070
-230.771	-200.000	-0.022	-0.140
-229.757	383.369	0.115	-0.235
-228.742	543.239	0.060	0.142
-227.727	329.750	0.057	-0.109
-226.713	-200.000	0.027	0.355
-225.698	20.101	0.151	-0.122
-224.684	-162.011	-0.208	-0.010
-223.669	230.298	0.047	0.077
-222.655	-110.753	-0.250	0.052
-221.640	384.194	-0.094	-0.194
-220.625	-200.000	-0.004	-0.074
-219.611	-149.896	-0.170	-0.013
-218.596	17.406	0.075	0.060
-217.582	-17.302	0.076	0.048
-216.567	122.418	0.237	-0.296
-215.552	139.974	0.189	-0.249
-214.538	354.165	0.195	-0.386
-213.523	-200.000	0.012	-0.503
-212.509	143.022	-0.142	-0.189
-211.494	-90.961	0.117	0.034
-210.479	24.229	0.387	0.319
-209.465	-49.042	0.121	0.058
-208.450	-115.735	-0.102	0.019
-207.436	-103.274	0.216	0.051
-206.421	-37.302	-0.139	-0.074
-205.406	239.131	0.189	0.314
-204.392	-112.405	0.103	-0.021
-203.377	-99.293	-0.061	0.015
-202.363	127.123	-0.140	0.178
-201.348	-8.615	-0.068	0.045
-200.333	-108.296	0.361	-0.078
-199.319	38.370	-0.232	-0.206
-198.304	227.063	-0.146	0.236
-197.290	800.000	-0.067	0.226
-196.275	-200.000	-0.049	0.319
-195.260	44.294	0.050	0.046
-194.246	-9.612	0.019	0.012
-193.231	-200.000	0.016	0.137
-192.217	-124.764	0.107	0.017
-191.202	84.694	0.112	-0.123
-190.187	-36.413	-0.325	-0.175
-189.173	-23.680	0.099	0.059
-188.158	800.000	-0.071	-0.279
-187.144	-200.000	0.051	0.243
-186.129	4.341	-0.473	0.346
-185.114	-200.000	0.030	0.281
-184.100	6.795	0.164	-0.122
-183.085	112.206	-0.197	-0.237
-182.071	800.000	0.025	-0.090
-181.056	-23.104	-0.204	-0.122
-180.042	-58.070	0.116	-0.050
-179.027	-86.913	0.294	0.089
-178.012	800.000	-0.025	0.076
-176.998	-200.000	-0.014	0.125
-175.983	-200.000	0.055	-0.447
-174.969	72.713	-0.104	-0.109
-173.954	101.904	0.085	0.099
-172.939	388.697	-0.045	-0.093
-171.925	-130.741	0.188	-0.025
-170.910	-16.068	0.258	0.164
-169.896	178.438	0.148	0.216
-168.881	-200.000	0.056	0.365
-167.866	-146.922	0.361	-0.031
-166.852	-7.544	-0.201	-0.135
-165.837	-64.014	-0.364	-0.148
-164.823	373.677	-0.075	0.153
-163.808	-200.000	-0.007	0.321
-162.793	-40.553	0.067	-0.035
-161.779	-200.000	0.007	0.254
-160.764	720.764	0.087	0.230
-159.750	228.150	0.150	0.243
-158.735	-71.627	0.147	-0.055
-157.720	582.416	-0.102	0.249
-156.706	182.792	-0.101	0.149
-155.691	-26.652	0.054	-0.031
-154.677	-200.000	0.002	0.090
-153.662	800.000	-0.069	0.272
-152.647	800.000	0.131	-0.406
-151.633	-1.924	0.270	-0.189
-150.618	544.103	0.084	-0.199
-149.604	79.659	0.183	0.195
-148.589	-35.184	-0.327	0.177
-147.574	-200.000	0.012	0.069
-146.560	112.179	0.133	0.160
-145.545	-75.333	0.154	-0.055
-144.531	800.000	0.028	0.083
-143.516	-12.413	-0.064	0.042
-142.502	-200.000	-0.024	0.232
-141.487	347.133	0.026	0.052
-140.472	59.982	0.040	0.040
-139.458	-55.778	0.346	-0.154
-138.443	165.360	-0.061	-0.085
-137.429	417.705	0.094	-0.200
-136.414	98.922	0.151	0.173
-135.399	57.999	-0.109	0.106
-134.385	-38.852	-0.269	-0.141
-133.370	522.094	0.141	0.328
-132.356	-177.674	-0.180	0.004
-131.341	-129.026	-0.022	-0.003
-130.326	50.660	-0.053	0.050
-129.312	-139.943	-0.025	-0.003
-128.297	-58.051	-0.418	0.182
-127.283	460.951	0.051	-0.114
-126.268	710.243	-0.096	0.252
-125.253	51.006	0.094	0.089
-124.239	-163.937	0.213	-0.010
-123.224	-200.000	-0.006	0.216
-122.210	-51.463	0.137	0.064
