DTS Sentinel unit serial number:	SN413079Multiplexer serial number:	ORYXHardware model number:	OX4-SRSoftware version number:	ORYX F/W v4.00 Oryx Data Collector v3.7.2.0data status	okinstallation	princeton_trtdifferential loss correction	single-endedforward channel	channel 1reverse channel	N/Adate	2019/09/15time	10:50:35forward acquisition time	60.00reverse acquisition time	0.00gamma	496.2192k internal	0.2309k external	0.2309temperature offset calibration	0.9991default loss term (dB/km)	0.3790temperature slope calibration	1.0000multiplexer offset coefficient	1.0000multiplexer slope coefficient	1.0000fibre end	0.00T internal ref (°C)	34.23T ext. ref 1 (°C)	5.02T ext. ref 2 (°C)	29.72length (m)	temperature (°C)	Stokes	anti-Stokes-747.200	-109.418	-0.074	0.016
-746.185	800.000	-0.067	0.203
-745.171	8.191	0.176	-0.135
-744.156	-200.000	0.052	0.280
-743.142	-200.000	-0.009	0.276
-742.127	800.000	-0.112	0.418
-741.112	800.000	-0.055	0.211
-740.098	-200.000	-0.041	0.212
-739.083	302.477	-0.031	0.058
-738.069	-200.000	-0.025	0.163
-737.054	-200.000	-0.027	0.129
-736.039	-80.057	-0.122	0.042
-735.025	-24.348	0.229	0.139
-734.010	-200.000	0.005	0.028
-732.996	160.328	-0.068	-0.096
-731.981	-93.971	0.316	-0.088
-730.966	-200.000	0.003	0.283
-729.952	-73.444	-0.431	0.160
-728.937	-153.781	0.235	0.016
-727.923	107.111	0.100	-0.121
-726.908	108.084	0.164	0.199
-725.894	715.361	0.181	-0.488
-724.879	-93.436	-0.112	0.032
-723.864	191.017	-0.065	0.100
-722.850	28.064	-0.053	0.045
-721.835	108.885	-0.117	-0.142
-720.821	259.203	-0.234	-0.409
-719.806	562.700	0.033	-0.081
-718.791	-38.281	-0.154	0.083
-717.777	-200.000	-0.040	0.377
-716.762	-36.420	-0.092	0.051
-715.748	295.981	0.180	-0.335
-714.733	150.313	0.092	0.127
-713.718	64.029	-0.032	-0.033
-712.704	-71.344	-0.071	-0.027
-711.689	-105.131	-0.165	0.038
-710.675	345.381	0.141	-0.281
-709.660	82.162	-0.070	0.077
-708.645	263.143	-0.028	0.049
-707.631	142.672	-0.126	0.170
-706.616	-200.000	-0.023	0.313
-705.602	-189.391	-0.126	-0.001
-704.587	280.285	0.178	-0.323
-703.572	-142.895	-0.152	0.015
-702.558	146.254	0.081	0.110
-701.543	0.214	0.186	0.134
-700.529	-43.630	0.274	-0.140
-699.514	-149.880	-0.289	-0.023
-698.499	-29.887	0.256	-0.148
-697.485	81.529	0.145	-0.159
-696.470	800.000	-0.067	-0.245
-695.456	205.890	-0.035	-0.055
-694.441	244.378	-0.089	-0.151
-693.426	-200.000	0.028	-0.271
-692.412	413.716	-0.175	0.379
-691.397	53.991	0.258	0.251
-690.383	-142.576	0.111	-0.011
-689.368	-200.000	0.064	0.399
-688.354	119.700	0.110	-0.138
-687.339	187.882	-0.232	-0.352
-686.324	-9.339	-0.123	0.084
-685.310	-87.703	0.054	-0.017
-684.295	-104.291	-0.241	-0.057
-683.281	-47.301	-0.217	0.107
-682.266	-39.529	-0.271	0.144
-681.251	-200.000	-0.025	-0.114
-680.237	-63.940	-0.063	-0.026
-679.222	56.550	-0.100	-0.099
-678.208	-117.743	0.132	0.024
-677.193	262.029	0.060	0.105
-676.178	-95.481	0.137	-0.037
-675.164	402.808	0.046	0.099
-674.149	250.857	-0.101	-0.174
-673.135	142.996	0.317	0.427
-672.120	-12.056	0.049	0.032
-671.105	-119.716	-0.219	0.038
-670.091	-200.000	-0.013	0.072
-669.076	800.000	0.032	0.110
-668.062	-91.623	-0.303	-0.087
-667.047	-200.000	-0.008	0.282
-666.032	-97.868	0.220	0.058
-665.018	-200.000	0.004	-0.376
-664.003	-116.484	-0.226	-0.042
-662.989	-38.284	-0.097	-0.052
-661.974	800.000	-0.011	0.033
-660.959	179.460	0.123	0.182
-659.945	179.480	0.070	-0.104
-658.930	-200.000	-0.051	-0.333
-657.916	226.365	-0.097	0.159
-656.901	148.791	0.085	0.116
-655.886	278.091	-0.154	-0.277
-654.872	50.586	0.300	0.287
-653.857	-95.135	-0.128	-0.035
-652.843	-87.319	0.103	-0.032
-651.828	-200.000	0.007	-0.084
-650.814	-121.448	-0.139	0.023
-649.799	-41.363	-0.155	-0.081
-648.784	-200.000	-0.042	0.482
-647.770	-200.000	0.002	0.034
-646.755	-1.107	0.147	-0.105
-645.741	-140.729	-0.277	0.029
-644.726	-22.703	-0.087	-0.053
-643.711	33.098	0.079	0.069
-642.697	675.745	-0.134	0.353
-641.682	800.000	-0.063	-0.213
-640.668	11.428	0.065	0.050
-639.653	201.735	-0.130	0.203
-638.638	-94.977	-0.213	0.058
-637.624	-84.849	0.123	-0.039
-636.609	-49.619	-0.159	-0.077
-635.595	266.503	-0.033	0.058
-634.580	362.688	0.133	-0.270
-633.565	800.000	-0.029	0.093
-632.551	-84.093	-0.220	0.071
-631.536	13.569	0.195	0.153
-630.522	-200.000	0.007	0.299
-629.507	-35.892	0.207	0.113
-628.492	-24.938	0.086	-0.052
-627.478	-33.877	0.023	-0.013
-626.463	41.935	-0.136	-0.125
-625.449	-67.624	-0.391	0.155
-624.434	-85.466	-0.486	0.153
-623.419	800.000	0.069	-0.284
-622.405	-59.167	-0.161	0.070
-621.390	65.144	0.296	0.303
-620.376	800.000	0.093	-0.298
-619.361	3.419	-0.123	-0.091
-618.346	-138.309	-0.044	0.005
-617.332	328.668	-0.041	-0.080
-616.317	20.335	0.222	0.181
-615.303	383.797	-0.046	-0.095
-614.288	-6.805	0.224	-0.154
-613.273	-153.160	-0.204	0.014
-612.259	370.348	0.123	-0.251
-611.244	-104.511	-0.107	-0.025
-610.230	-64.345	-0.030	-0.012
-609.215	214.005	0.088	0.141
-608.201	673.941	-0.073	0.191
-607.186	-160.702	0.114	0.006
-606.171	-6.958	-0.071	0.049
-605.157	226.923	0.156	-0.255
-604.142	167.614	0.065	-0.093
-603.128	800.000	-0.035	-0.145
-602.113	76.653	0.231	-0.248
-601.098	131.670	0.079	0.103
-600.084	-4.881	-0.211	0.147
-599.069	-67.854	0.367	0.145
-598.055	40.071	-0.169	-0.153
-597.040	-200.000	0.003	-0.041
-596.025	-65.915	0.370	-0.149
-595.011	282.498	-0.077	0.139
-593.996	-110.399	-0.238	-0.050
-592.982	-123.699	-0.058	0.009
-591.967	0.721	-0.231	0.167
-590.952	279.322	0.054	0.098
-589.938	228.060	0.028	0.046
-588.923	-200.000	-0.054	0.261
-587.909	144.044	0.183	0.247
-586.894	-7.295	-0.198	-0.135
-585.879	-67.709	0.300	-0.119
-584.865	-80.575	0.126	-0.042
-583.850	107.502	-0.121	-0.145
-582.836	113.531	0.257	0.315
-581.821	-97.896	-0.395	0.103
-580.806	-200.000	0.021	-0.354
-579.792	196.896	0.011	-0.017
-578.777	56.230	-0.068	0.067
-577.763	-154.773	0.246	0.016
-576.748	-92.241	-0.149	0.042
-575.733	-167.544	0.413	0.017
-574.719	-200.000	-0.009	0.132
-573.704	-16.468	-0.111	-0.071
-572.690	-4.928	0.283	0.197
-571.675	-200.000	-0.114	-0.595
-570.661	-200.000	-0.008	-0.365
-569.646	-104.627	-0.142	0.033
-568.631	13.639	0.246	-0.193
-567.617	-41.412	-0.214	0.111
-566.602	-94.762	0.139	0.038
-565.588	-20.956	-0.168	0.104
-564.573	-200.000	-0.012	0.229
-563.558	-140.313	-0.324	0.034
-562.544	800.000	0.022	-0.089
-561.529	-65.753	-0.165	-0.067
-560.515	-200.000	-0.018	-0.241
-559.500	352.515	0.095	0.190
-558.485	21.163	-0.079	0.065
-557.471	203.994	-0.165	0.257
-556.456	-107.067	-0.266	0.059
-555.442	-10.742	-0.166	-0.111
-554.427	-200.000	-0.033	-0.169
-553.412	800.000	-0.084	-0.293
-552.398	269.473	-0.125	-0.221
-551.383	-130.770	0.352	0.048
-550.369	800.000	0.047	0.197
-549.354	130.905	0.054	0.070
-548.339	-149.422	0.195	0.016
-547.325	-7.594	-0.306	-0.208
-546.310	-200.000	-0.004	0.047
-545.296	-80.187	-0.211	0.071
-544.281	225.861	0.137	-0.224
-543.266	800.000	0.056	0.199
-542.252	43.624	-0.124	0.114
-541.237	-200.000	-0.030	-0.540
-540.223	73.433	0.110	0.117
-539.208	359.127	-0.077	0.156
-538.193	-117.556	-0.450	0.082
-537.179	800.000	-0.077	0.247
-536.164	-123.041	0.192	-0.031
-535.150	-28.919	-0.128	-0.074
-534.135	54.854	-0.130	0.127
-533.121	33.076	0.107	-0.094
-532.106	92.437	-0.174	0.198
-531.091	-32.734	0.310	-0.174
-530.077	0.784	-0.113	0.082
-529.062	-200.000	-0.027	0.218
-528.048	-58.308	0.114	-0.050
-527.033	800.000	0.100	-0.277
-526.018	-69.832	-0.122	-0.047
-525.004	-91.631	0.197	0.056
-523.989	-21.231	-0.097	0.060
-522.975	-167.063	0.097	0.004
-521.960	300.596	0.039	0.072
-520.945	800.000	0.045	-0.163
-519.931	192.157	-0.120	0.183
-518.916	-200.000	-0.010	-0.207
-517.902	-39.347	0.319	0.168
-516.887	42.210	0.156	-0.143
-515.872	-141.923	-0.139	-0.014
-514.858	25.849	-0.114	-0.096
-513.843	-61.038	-0.152	0.065
-512.829	133.403	-0.275	0.358
-511.814	-36.353	0.153	-0.083
-510.799	79.790	-0.068	-0.074
-509.785	349.236	0.148	-0.293
-508.770	183.586	-0.090	0.133
-507.756	-200.000	-0.031	-0.150
-506.741	-44.754	-0.324	0.163
-505.726	-200.000	0.005	-0.476
-504.712	225.384	0.225	-0.366
-503.697	433.085	0.091	0.199
-502.683	-54.292	-0.202	-0.092
-501.668	-52.550	-0.354	-0.165
-500.653	158.085	0.229	0.319
-499.639	-58.999	0.173	0.075
-498.624	50.500	0.047	-0.045
-497.610	-200.000	0.041	0.225
-496.595	227.765	-0.113	-0.185
-495.581	-28.650	-0.199	-0.115
-494.566	-79.008	0.297	0.101
-493.551	569.988	-0.090	0.221
-492.537	25.421	-0.059	-0.049
-491.522	101.653	0.051	-0.060
-490.508	-60.243	0.330	0.141
-489.493	-30.991	0.147	0.083
-488.478	13.090	0.264	0.206
-487.464	183.444	-0.128	0.191
-486.449	-17.440	-0.052	0.033
-485.435	31.763	-0.195	0.169
-484.420	800.000	0.099	-0.287
-483.405	800.000	-0.039	-0.121
-482.391	471.313	-0.071	0.161
-481.376	41.502	-0.129	-0.118
-480.362	800.000	0.136	0.379
-479.347	-126.197	0.093	-0.014
-478.332	207.374	-0.107	0.168
-477.318	170.912	0.155	-0.223
-476.303	-65.716	0.110	-0.044
-475.289	-47.813	0.190	0.093
-474.274	-200.000	-0.012	0.391
-473.259	-93.727	-0.290	-0.080
-472.245	64.436	0.121	-0.123
-471.230	-72.564	0.256	-0.095
-470.216	114.272	0.351	-0.430
-469.201	119.144	0.125	-0.156
-468.186	104.172	-0.114	0.135
-467.172	-97.323	-0.355	0.093
-466.157	-160.048	0.374	0.020
-465.143	154.389	0.094	0.130
-464.128	84.601	0.186	0.205
-463.113	216.959	-0.004	-0.006
-462.099	-200.000	0.011	-0.208
-461.084	800.000	-0.047	0.160
-460.070	310.641	0.064	0.121
-459.055	-53.770	-0.391	0.179
-458.040	-105.400	-0.135	0.031
-457.026	168.149	0.056	-0.079
-456.011	-35.582	-0.247	0.135
-454.997	-32.516	-0.181	0.102
-453.982	-200.000	0.005	-0.344
-452.968	-31.737	-0.028	-0.016
-451.953	-102.293	0.066	0.016
-450.938	-72.953	-0.392	0.145
-449.924	-68.633	0.039	0.015
-448.909	100.601	0.077	-0.089
-447.895	231.870	-0.111	0.184
-446.880	129.116	-0.137	-0.175
-445.865	800.000	0.072	-0.206
-444.851	117.003	-0.236	0.291
-443.836	800.000	-0.084	0.318
-442.822	-115.289	0.393	0.075
-441.807	-108.068	0.309	-0.067
-440.792	93.026	0.171	-0.194
-439.778	-151.530	0.246	0.018
-438.763	287.093	0.126	-0.228
-437.749	228.602	-0.119	0.195
-436.734	-200.000	-0.011	-0.061
-435.719	-200.000	0.060	0.276
-434.705	21.220	0.302	-0.247
-433.690	77.825	0.025	-0.026
-432.676	10.385	-0.211	-0.161
-431.661	46.457	0.157	0.146
-430.646	800.000	0.095	-0.328
-429.632	165.948	-0.205	0.291
-428.617	800.000	0.071	0.216
-427.603	-40.214	0.262	0.137
-426.588	-200.000	-0.036	0.202
-425.573	-30.884	0.217	0.123
-424.559	630.509	-0.067	0.170
-423.544	-200.000	-0.023	-0.155
-422.530	-101.959	-0.176	0.043
-421.515	-200.000	0.002	-0.151
-420.500	-22.693	0.167	0.101
-419.486	-56.244	-0.215	0.096
-418.471	4.239	0.215	0.158
-417.457	365.514	0.161	0.325
-416.442	-192.495	0.255	0.002
-415.428	18.022	-0.216	-0.173
-414.413	311.205	-0.114	-0.215
-413.398	224.740	0.073	-0.118
-412.384	279.967	-0.038	0.069
-411.369	-200.000	0.042	0.272
-410.355	800.000	0.127	-0.439
-409.340	-136.843	-0.152	0.018
-408.325	703.787	-0.169	0.447
-407.311	800.000	0.053	0.222
-406.296	-200.000	0.007	-0.168
-405.282	800.000	0.025	0.103
-404.267	96.746	0.033	0.038
-403.252	-60.836	0.147	-0.062
-402.238	-59.996	-0.194	-0.083
-401.223	90.277	-0.112	-0.126
-400.209	-200.000	0.050	-0.352
-399.194	181.563	0.020	0.029
-398.179	-200.000	-0.017	0.101
-397.165	-89.891	0.246	0.072
-396.150	-10.723	0.071	-0.047
-395.136	167.573	0.183	0.260
-394.121	49.934	0.329	0.311
-393.106	25.441	0.191	0.159
-392.092	800.000	0.081	-0.269
-391.077	153.709	-0.034	-0.046
-390.063	-139.065	-0.210	0.023
-389.048	-200.000	-0.058	0.415
-388.033	800.000	0.077	0.275
-387.019	-66.790	-0.081	-0.032
-386.004	-8.139	0.359	-0.243
-384.990	-148.355	-0.182	0.015
-383.975	189.326	0.092	-0.137
-382.960	800.000	-0.049	-0.157
-381.946	10.721	-0.125	0.096
-380.931	-200.000	-0.017	0.092
-379.917	103.196	0.068	0.080
-378.902	-109.669	0.383	0.081
-377.888	-83.794	0.184	0.059
-376.873	31.038	0.200	-0.172
-375.858	-64.371	0.228	-0.093
-374.844	800.000	0.055	0.220
-373.829	-200.000	-0.044	0.213
-372.815	22.839	0.063	0.051
-371.800	573.631	-0.092	-0.226
-370.785	795.332	-0.164	-0.451
-369.771	168.226	-0.233	0.333
-368.756	-166.149	0.294	-0.012
-367.742	-76.221	-0.144	0.051
-366.727	-200.000	-0.012	0.113
-365.712	-147.562	0.056	0.005
-364.698	-141.970	-0.259	-0.026
-363.683	-16.657	-0.243	-0.154
-362.669	37.193	0.078	-0.069
-361.654	57.051	0.186	-0.182
-360.639	-42.636	0.176	-0.090
-359.625	-200.000	-0.002	-0.021
-358.610	-91.196	0.102	0.029
-357.596	556.787	-0.211	0.508
-356.581	-92.805	-0.359	0.100
-355.566	761.428	-0.098	0.265
-354.552	169.201	-0.244	-0.348
-353.537	150.197	-0.162	-0.220
-352.523	-100.089	-0.321	-0.080
-351.508	77.070	0.092	-0.097
-350.493	-3.062	0.248	-0.173
-349.479	800.000	-0.084	-0.248
-348.464	-136.805	-0.413	-0.048
-347.450	-85.772	0.436	0.135
-346.435	-17.472	-0.154	-0.097
-345.420	-165.259	0.172	0.008
-344.406	-18.761	0.074	0.046
-343.391	-146.351	0.491	0.043
-342.377	-62.419	0.103	0.043
-341.362	-30.096	0.101	-0.057
-340.348	210.508	-0.023	0.037
-339.333	414.307	-0.108	0.230
-338.318	88.120	0.072	0.080
-337.304	-78.898	-0.185	0.063
-336.289	-200.000	0.016	-0.078
-335.275	373.373	0.131	-0.266
-334.260	691.736	0.066	-0.173
-333.245	621.749	0.088	-0.222
-332.231	122.409	-0.037	-0.047
-331.216	429.508	-0.082	-0.176
-330.202	-27.799	-0.198	0.115
-329.187	-87.708	0.218	0.066
-328.172	9.177	-0.082	0.062
-327.158	800.000	-0.060	-0.193
-326.143	-200.000	0.024	-0.134
-325.129	-112.485	0.173	-0.035
-324.114	61.603	-0.073	0.073
-323.099	9.485	-0.224	-0.170
-322.085	389.692	0.044	-0.091
-321.070	-65.332	-0.078	-0.031
-320.056	-26.177	0.088	0.052
-319.041	-170.329	0.495	0.017
-318.026	-200.000	0.018	-0.107
-317.012	76.297	-0.102	0.108
-315.997	171.609	0.283	0.406
-314.983	-200.000	0.024	0.242
-313.968	723.044	0.024	0.063
-312.953	215.219	-0.044	0.070
-311.939	-200.000	0.027	0.122
-310.924	800.000	0.090	-0.290
-309.910	800.000	0.025	-0.085
-308.895	-200.000	0.015	-0.161
-307.880	11.843	0.152	-0.116
-306.866	-69.678	0.188	0.072
-305.851	800.000	-0.084	-0.314
-304.837	-160.401	-0.194	-0.010
-303.822	-200.000	0.026	0.213
-302.807	145.712	0.058	0.078
-301.793	-76.196	0.164	-0.058
-300.778	-77.996	0.115	0.040
-299.764	800.000	-0.034	0.115
-298.749	800.000	-0.009	0.035
-297.735	584.007	-0.190	-0.466
-296.720	-200.000	-0.042	-0.303
-295.705	-149.228	0.106	-0.008
-294.691	346.570	-0.083	0.163
-293.676	-200.000	0.005	-0.357
-292.662	25.715	0.195	-0.162
-291.647	174.031	0.072	-0.104
-290.632	-200.000	0.002	0.122
-289.618	73.892	0.208	-0.218
-288.603	366.402	-0.202	-0.407
-287.589	-107.330	0.164	-0.036
-286.574	-180.516	-0.087	0.002
-285.559	-33.040	-0.134	-0.074
-284.545	-18.966	0.221	-0.137
-283.530	800.000	-0.058	0.188
-282.516	349.292	-0.109	0.215
-281.501	39.495	0.140	-0.125
-280.486	-110.379	-0.144	-0.030
-279.472	-114.153	-0.159	0.031
-278.457	259.685	0.174	-0.300
-277.443	800.000	-0.030	0.104
-276.428	-9.087	-0.249	-0.166
-275.413	-200.000	0.001	0.142
-274.399	344.961	-0.223	0.436
-273.384	-56.023	-0.166	-0.074
-272.370	19.075	0.080	0.064
-271.355	-33.419	0.198	-0.109
-270.340	41.968	-0.266	0.241
-269.326	-46.646	-0.148	-0.072
-268.311	-62.092	0.204	0.085
-267.297	800.000	0.098	-0.274
-266.282	40.370	0.298	-0.267
-265.267	-57.391	0.173	0.076
-264.253	-148.140	0.216	0.018
-263.238	800.000	0.133	-0.544
-262.224	-200.000	0.022	0.173
-261.209	800.000	0.028	-0.086
-260.195	-11.275	-0.136	-0.090
-259.180	-115.079	-0.309	0.059
-258.165	11.665	-0.382	-0.292
-257.151	-200.000	-0.002	-0.010
-256.136	-125.908	-0.051	0.008
-255.122	-108.009	0.103	-0.022
-254.107	110.093	-0.238	-0.285
-253.092	-185.537	0.197	-0.003
-252.078	800.000	-0.071	-0.235
-251.063	659.701	-0.071	-0.181
-250.049	86.835	-0.243	-0.267
-249.034	86.706	-0.065	0.071
-248.019	-125.095	-0.352	0.054
-247.005	-200.000	0.038	0.405
-245.990	249.998	0.042	0.072
-244.976	24.251	0.219	0.180
-243.961	-53.914	0.042	0.019
-242.946	-32.395	-0.059	-0.033
-241.932	-124.969	0.165	-0.025
-240.917	-56.813	-0.386	-0.170
-239.903	-9.107	-0.074	-0.050
-238.888	89.987	0.069	0.077
-237.873	24.154	0.326	0.269
-236.859	-75.024	-0.020	0.007
-235.844	-200.000	0.062	-0.292
-234.830	27.084	0.088	0.074
-233.815	672.671	-0.083	0.214
-232.800	-91.938	0.182	0.051
-231.786	-111.037	-0.340	-0.070
-230.771	537.095	-0.139	0.329
-229.757	90.114	-0.248	0.276
-228.742	-200.000	0.015	-0.115
-227.727	339.957	0.026	-0.051
-226.713	231.667	-0.144	-0.234
-225.698	619.921	-0.079	0.197
-224.684	-21.211	0.199	0.121
-223.669	276.794	-0.161	-0.284
-222.655	-23.030	-0.231	-0.139
-221.640	152.774	0.124	-0.169
-220.625	-120.671	0.057	0.010
-219.611	800.000	-0.155	0.447
-218.596	-36.203	0.113	-0.061
-217.582	-18.715	0.027	-0.017
-216.567	-49.342	-0.412	-0.196
-215.552	2.311	-0.229	0.165
-214.538	-155.523	0.049	-0.003
-213.523	800.000	0.032	0.112
-212.509	800.000	0.068	0.247
-211.494	180.185	0.053	0.077
-210.479	-200.000	0.013	0.130
-209.465	-57.533	-0.124	0.054
-208.450	-200.000	0.003	0.077
-207.436	-77.626	0.171	-0.059
-206.421	-81.671	0.112	-0.036
-205.406	-88.852	-0.115	0.034
-204.392	-30.215	-0.279	-0.158
-203.377	-155.380	0.256	-0.016
-202.363	-121.052	-0.190	0.032
-201.348	-94.839	-0.263	0.071
-200.333	374.513	0.132	0.267
-199.319	-47.263	0.167	0.081
-198.304	-78.187	-0.217	-0.074
-197.290	-82.158	0.259	-0.084
-196.275	165.964	0.120	0.170
-195.260	-97.252	0.263	0.068
-194.246	-200.000	0.011	0.089
-193.231	-36.270	0.057	0.031
-192.217	800.000	0.051	0.179
-191.202	-73.281	-0.151	0.055
-190.187	-200.000	0.046	-0.284
-189.173	-79.841	-0.142	0.047
-188.158	105.188	0.196	-0.230
-187.144	1.785	0.274	-0.197
-186.129	319.961	-0.091	-0.171
-185.114	800.000	0.104	-0.288
-184.100	172.233	0.101	-0.144
-183.085	42.381	-0.199	0.180
-182.071	-59.259	-0.208	-0.089
-181.056	537.080	-0.083	-0.196
-180.042	800.000	0.068	0.257
-179.027	-90.103	0.181	0.052
-178.012	-60.436	-0.201	0.085
-176.998	-200.000	-0.018	0.086
-175.983	-168.544	-0.102	0.004
-174.969	-200.000	-0.039	0.254
-173.954	-33.331	-0.054	0.030
-172.939	-78.314	-0.316	0.108
-171.925	348.953	-0.087	-0.171
-170.910	-176.874	-0.088	-0.002
-169.896	700.912	-0.084	-0.219
-168.881	44.996	-0.149	-0.136
-167.866	133.123	-0.179	0.230
-166.852	800.000	0.101	0.345
-165.837	10.377	0.078	0.059
-164.823	29.369	0.079	-0.067
-163.808	-96.581	0.324	0.085
-162.793	-34.092	0.045	-0.025
-161.779	-25.645	-0.253	-0.148
-160.764	-107.021	0.626	0.137
-159.750	-66.362	0.067	-0.027
-158.735	-151.302	-0.267	0.020
-157.720	6.877	-0.230	0.170
-156.706	-33.782	0.145	-0.080
-155.691	-33.810	0.069	-0.038
-154.677	-83.645	0.127	-0.040
-153.662	800.000	-0.023	-0.077
-152.647	-22.774	-0.145	-0.087
-151.633	142.202	-0.120	-0.158
-150.618	800.000	0.069	0.261
-149.604	748.519	-0.078	0.209
-148.589	390.856	0.128	-0.263
-147.574	274.597	-0.077	-0.135
-146.560	330.557	0.049	-0.094
-145.545	800.000	-0.075	0.263
-144.531	36.947	0.129	0.113
-143.516	-200.000	-0.020	-0.089
-142.502	1.015	0.064	-0.046
-141.487	569.136	0.126	0.305
-140.472	800.000	0.124	0.385
-139.458	-40.656	-0.191	0.098
-138.443	51.910	0.151	0.142
-137.429	-200.000	0.029	0.204
-136.414	-40.948	-0.228	0.117
-135.399	-100.660	0.135	0.033
-134.385	340.423	0.110	0.213
-133.370	784.894	-0.054	0.148
-132.356	-96.238	0.116	-0.030
-131.341	-117.932	0.318	0.056
-130.326	-43.686	0.177	0.088
-129.312	534.717	0.128	0.300
-128.297	-112.803	0.211	-0.042
-127.283	-18.860	0.146	0.090
-126.268	-72.855	-0.091	-0.033
-125.253	209.172	0.104	-0.162
-124.239	105.665	-0.168	0.197
-123.224	-200.000	0.019	0.374
-122.210	48.963	-0.250	-0.233
-121.195	22.199	0.133	0.108
-120.180	-68.068	0.346	0.134
-119.166	90.111	-0.205	-0.227
