DTS Sentinel unit serial number:	SN413079Multiplexer serial number:	ORYXHardware model number:	OX4-SRSoftware version number:	ORYX F/W v4.00 Oryx Data Collector v3.7.2.0data status	okinstallation	princeton_trtdifferential loss correction	single-endedforward channel	channel 1reverse channel	N/Adate	2019/09/15time	19:58:35forward acquisition time	60.00reverse acquisition time	0.00gamma	496.2192k internal	0.2313k external	0.2313temperature offset calibration	0.9954default loss term (dB/km)	0.3790temperature slope calibration	1.0000multiplexer offset coefficient	1.0000multiplexer slope coefficient	1.0000fibre end	0.00T internal ref (°C)	35.86T ext. ref 1 (°C)	7.54T ext. ref 2 (°C)	26.50length (m)	temperature (°C)	Stokes	anti-Stokes-747.200	151.721	-0.148	0.205
-746.185	-200.000	0.028	0.288
-745.171	421.547	0.140	0.305
-744.156	270.036	0.252	0.450
-743.142	478.002	0.145	0.332
-742.127	-166.857	0.282	-0.012
-741.112	-200.000	-0.019	0.093
-740.098	-120.717	-0.359	-0.062
-739.083	-200.000	-0.008	-0.089
-738.069	-121.637	0.141	-0.024
-737.054	697.829	0.024	-0.065
-736.039	800.000	0.088	0.265
-735.025	91.564	0.013	-0.015
-734.010	800.000	-0.050	0.190
-732.996	-200.000	0.026	-0.179
-731.981	81.157	0.170	0.186
-730.966	75.593	0.129	0.138
-729.952	-66.020	-0.436	-0.176
-728.937	-54.194	0.176	-0.081
-727.923	128.125	-0.197	-0.254
-726.908	402.898	-0.058	-0.123
-725.894	800.000	0.009	-0.038
-724.879	-66.538	-0.270	0.109
-723.864	579.351	-0.132	0.328
-722.850	48.179	-0.234	0.221
-721.835	193.642	0.149	-0.229
-720.821	800.000	-0.084	0.274
-719.806	33.406	0.294	-0.259
-718.791	-200.000	-0.010	-0.410
-717.777	120.380	-0.236	-0.296
-716.762	800.000	0.069	0.233
-715.748	-133.243	-0.372	-0.048
-714.733	127.287	0.087	0.112
-713.718	266.577	-0.140	0.249
-712.704	-200.000	0.030	-0.322
-711.689	-113.308	0.207	-0.041
-710.675	6.281	0.119	0.090
-709.660	-26.631	-0.203	-0.120
-708.645	-69.248	0.204	-0.079
-707.631	-25.684	0.256	-0.153
-706.616	-200.000	-0.024	-0.227
-705.602	800.000	-0.116	-0.373
-704.587	-96.925	0.542	-0.144
-703.572	-83.441	-0.351	-0.114
-702.558	-95.434	-0.144	-0.039
-701.543	-200.000	-0.004	0.133
-700.529	75.246	0.042	-0.045
-699.514	14.153	-0.071	-0.056
-698.499	-112.089	0.233	-0.047
-697.485	-74.537	-0.356	-0.130
-696.470	800.000	0.055	-0.199
-695.456	246.650	0.128	-0.218
-694.441	583.283	-0.020	-0.050
-693.426	-200.000	-0.039	-0.208
-692.412	800.000	0.070	-0.208
-691.397	37.858	0.236	-0.213
-690.383	-51.082	-0.269	-0.128
-689.368	206.071	0.147	-0.232
-688.354	-200.000	0.016	-0.079
-687.339	33.677	0.240	-0.211
-686.324	326.911	-0.056	-0.108
-685.310	42.313	0.197	0.181
-684.295	0.294	-0.308	-0.222
-683.281	56.083	0.092	-0.091
-682.266	-200.000	-0.066	0.322
-681.251	-117.141	0.225	-0.041
-680.237	-43.864	-0.070	0.035
-679.222	-71.669	0.421	-0.159
-678.208	-89.344	-0.280	-0.084
-677.193	-89.710	0.340	0.101
-676.178	380.629	-0.086	0.179
-675.164	-97.333	-0.082	-0.022
-674.149	396.169	0.183	0.387
-673.135	118.927	-0.098	-0.123
-672.120	10.022	-0.422	0.324
-671.105	35.445	0.257	0.228
-670.091	800.000	0.020	-0.086
-669.076	157.256	-0.073	0.102
-668.062	-62.459	0.277	0.117
-667.047	-118.861	0.331	-0.059
-666.032	800.000	0.076	0.285
-665.018	-113.356	0.178	0.035
-664.003	25.729	0.217	-0.183
-662.989	-36.339	0.136	0.074
-661.974	15.670	-0.023	-0.018
-660.959	-160.636	-0.058	-0.003
-659.945	19.201	0.134	0.109
-658.930	3.366	-0.106	0.078
-657.916	-169.373	-0.222	-0.008
-656.901	130.436	-0.130	-0.168
-655.886	169.706	-0.135	0.196
-654.872	-67.578	0.276	0.109
-653.857	-128.983	-0.119	-0.017
-652.843	-200.000	0.088	-0.467
-651.828	-200.000	0.049	0.421
-650.814	-120.420	0.085	0.015
-649.799	-61.504	0.281	0.119
-648.784	3.270	0.189	0.139
-647.770	-9.025	0.105	-0.071
-646.755	-37.126	-0.301	-0.163
-645.741	576.488	0.047	-0.117
-644.726	-100.835	0.327	-0.081
-643.711	76.558	0.147	0.157
-642.697	163.194	-0.174	-0.247
-641.682	-19.305	-0.147	0.092
-640.668	2.622	-0.092	0.068
-639.653	558.303	-0.110	-0.269
-638.638	715.389	0.061	-0.164
-637.624	-140.987	0.236	-0.024
-636.609	188.841	0.139	0.210
-635.595	-65.593	0.138	0.056
-634.580	-62.073	0.103	-0.044
-633.565	800.000	-0.075	-0.279
-632.551	10.674	0.031	0.024
-631.536	22.089	0.122	-0.101
-630.522	7.278	-0.192	-0.145
-629.507	800.000	0.073	-0.267
-628.492	-200.000	0.022	0.414
-627.478	174.450	0.259	0.378
-626.463	-56.187	0.279	-0.126
-625.449	-200.000	0.005	0.122
-624.434	285.475	0.135	0.247
-623.419	-73.172	-0.222	-0.082
-622.405	-42.690	-0.173	-0.089
-621.390	800.000	0.067	0.230
-620.376	-57.697	-0.428	-0.189
-619.361	-149.856	-0.181	-0.014
-618.346	-27.906	0.194	0.114
-617.332	-152.607	-0.180	0.013
-616.317	494.812	-0.041	0.096
-615.303	138.956	-0.162	-0.214
-614.288	-138.092	0.294	-0.033
-613.273	149.853	-0.100	-0.137
-612.259	-104.470	0.126	-0.029
-611.244	-114.047	-0.344	0.067
-610.230	76.525	0.264	0.282
-609.215	68.997	-0.097	0.101
-608.201	129.251	-0.052	-0.067
-607.186	117.350	-0.206	-0.255
-606.171	-77.768	0.211	0.073
-605.157	-26.555	0.112	0.066
-604.142	440.020	0.160	0.354
-603.128	-200.000	0.078	-0.357
-602.113	-50.960	-0.108	-0.051
-601.098	-65.578	0.194	-0.078
-600.084	170.774	-0.206	0.297
-599.069	178.290	0.155	-0.228
-598.055	800.000	-0.052	-0.198
-597.040	800.000	-0.029	-0.084
-596.025	-15.122	-0.106	0.068
-595.011	-10.253	0.302	0.202
-593.996	-181.070	-0.259	-0.005
-592.982	114.668	-0.182	0.224
-591.967	244.043	0.214	-0.362
-590.952	-200.000	0.048	-0.215
-589.938	-20.748	-0.019	-0.011
-588.923	1.649	0.082	-0.060
-587.909	-200.000	-0.048	0.498
-586.894	617.401	-0.156	-0.396
-585.879	34.494	0.187	-0.165
-584.865	-118.515	0.142	-0.025
-583.850	-98.527	0.055	0.014
-582.836	-200.000	-0.023	-0.340
-581.821	615.484	-0.098	-0.247
-580.806	407.758	-0.149	-0.318
-579.792	-200.000	0.009	0.055
-578.777	800.000	-0.108	-0.308
-577.763	-49.945	-0.167	-0.080
-576.748	-134.669	0.207	0.025
-575.733	149.805	0.187	0.255
-574.719	-13.453	0.092	0.060
-573.704	-200.000	-0.019	-0.208
-572.690	187.577	-0.092	0.138
-571.675	-95.502	-0.209	0.056
-570.661	186.856	-0.118	0.178
-569.646	-89.300	-0.181	-0.054
-568.631	800.000	-0.103	0.320
-567.617	108.125	-0.090	0.108
-566.602	800.000	0.024	-0.093
-565.588	-159.066	-0.068	-0.004
-564.573	308.387	-0.044	-0.083
-563.558	-97.622	0.220	-0.057
-562.544	800.000	0.035	-0.119
-561.529	38.447	-0.108	-0.097
-560.515	-135.277	-0.215	0.026
-559.500	-200.000	0.015	-0.183
-558.485	800.000	0.056	-0.204
-557.471	-200.000	0.019	-0.168
-556.456	13.316	-0.179	0.140
-555.442	-24.992	0.215	-0.128
-554.427	-189.512	0.387	-0.005
-553.412	-84.283	-0.127	-0.040
-552.398	526.031	-0.013	0.030
-551.383	-139.338	-0.030	-0.003
-550.369	53.803	-0.162	-0.156
-549.354	-18.572	0.185	0.116
-548.339	-113.878	0.079	0.015
-547.325	-167.564	-0.533	0.021
-546.310	26.804	-0.170	-0.143
-545.296	-78.633	0.159	-0.055
-544.281	-200.000	-0.012	-0.374
-543.266	-200.000	-0.015	0.153
-542.252	586.724	0.018	0.045
-541.237	163.862	0.208	-0.295
-540.223	76.428	-0.123	0.132
-539.208	-136.310	0.472	-0.055
-538.193	800.000	0.038	-0.109
-537.179	386.177	0.044	-0.091
-536.164	-0.997	-0.145	-0.103
-535.150	-53.564	-0.039	0.018
-534.135	-98.477	-0.365	0.094
-533.121	52.373	0.319	0.306
-532.106	-119.301	-0.100	-0.017
-531.091	-200.000	-0.009	-0.054
-530.077	-56.100	0.260	0.117
-529.062	255.478	-0.067	0.115
-528.048	-91.646	0.159	0.045
-527.033	-200.000	-0.006	0.132
-526.018	-200.000	-0.014	-0.159
-525.004	-105.825	-0.243	-0.055
-523.989	783.213	0.059	0.163
-522.975	-122.583	0.417	-0.068
-521.960	-200.000	-0.001	0.053
-520.945	-145.668	-0.041	0.004
-519.931	449.307	0.059	-0.132
-518.916	800.000	-0.091	-0.273
-517.902	97.412	-0.039	-0.045
-516.887	-28.029	-0.221	0.128
-515.872	-200.000	0.004	-0.178
-514.858	800.000	0.037	0.110
-513.843	-90.492	-0.352	-0.102
-512.829	800.000	-0.008	-0.032
-511.814	-200.000	-0.028	0.155
-510.799	-134.590	0.210	-0.026
-509.785	149.661	0.166	0.226
-508.770	-122.480	0.081	-0.013
-507.756	-82.158	0.279	-0.091
-506.741	34.331	-0.165	-0.144
-505.726	-200.000	-0.028	0.261
-504.712	-200.000	0.066	0.434
-503.697	111.222	-0.268	-0.324
-502.683	-117.287	0.401	0.073
-501.668	-8.585	0.173	0.117
-500.653	-128.097	-0.156	0.022
-499.639	-200.000	0.008	0.075
-498.624	-200.000	0.040	0.260
-497.610	-200.000	0.067	0.308
-496.595	215.142	0.028	-0.044
-495.581	-200.000	-0.009	-0.180
-494.566	-200.000	0.030	-0.173
-493.551	-150.726	-0.331	-0.025
-492.537	-140.467	0.142	0.015
-491.522	115.113	0.031	-0.038
-490.508	-200.000	-0.003	-0.137
-489.493	-200.000	0.018	0.350
-488.478	349.114	-0.038	0.075
-487.464	-90.117	0.236	-0.069
-486.449	78.314	-0.072	0.078
-485.435	77.346	0.429	-0.458
-484.420	-181.461	-0.289	-0.006
-483.405	-200.000	-0.026	0.256
-482.391	114.420	0.237	0.289
-481.376	800.000	0.089	0.313
-480.362	800.000	0.055	-0.164
-479.347	610.024	0.048	-0.122
-478.332	-140.034	-0.304	-0.032
-477.318	-200.000	-0.001	0.352
-476.303	-200.000	0.017	-0.235
-475.289	114.202	-0.029	-0.035
-474.274	-187.415	-0.079	-0.001
-473.259	-53.296	-0.105	0.048
-472.245	626.390	-0.177	-0.448
-471.230	-63.376	0.261	0.108
-470.216	512.656	-0.089	0.209
-469.201	11.389	0.252	0.193
-468.186	-78.934	-0.391	0.133
-467.172	-200.000	-0.005	-0.084
-466.157	557.934	0.081	-0.197
-465.143	-182.161	-0.083	0.002
-464.128	-52.273	0.098	0.046
-463.113	-58.031	-0.180	-0.079
-462.099	94.121	0.211	0.241
-461.084	-118.287	-0.335	0.060
-460.070	61.962	0.173	0.173
-459.055	671.955	0.173	-0.450
-458.040	-162.377	0.128	0.006
-457.026	-65.959	-0.213	0.085
-456.011	-150.775	0.377	-0.029
-454.997	7.033	0.344	0.257
-453.982	-79.553	0.248	0.084
-452.968	-49.095	0.158	0.076
-451.953	800.000	-0.082	0.263
-450.938	-187.316	-0.290	-0.004
-449.924	215.386	0.086	-0.137
-448.909	-200.000	-0.010	-0.138
-447.895	256.373	-0.066	-0.113
-446.880	800.000	0.068	0.242
-445.865	-83.718	-0.189	-0.061
-444.851	-152.589	-0.389	-0.028
-443.836	-200.000	-0.006	0.098
-442.822	26.451	-0.260	-0.218
-441.807	11.597	-0.274	-0.211
-440.792	-73.394	-0.502	-0.184
-439.778	-4.509	-0.152	0.105
-438.763	-132.520	-0.186	0.024
-437.749	-200.000	0.032	-0.225
-436.734	-200.000	-0.012	0.138
-435.719	193.170	-0.108	0.163
-434.705	77.926	0.172	0.184
-433.690	135.512	-0.192	0.250
-432.676	-119.534	0.304	-0.053
-431.661	151.987	0.053	-0.072
-430.646	455.108	-0.069	-0.154
-429.632	-132.524	0.242	0.031
-428.617	-75.939	-0.126	0.045
-427.603	-6.760	-0.014	0.009
-426.588	-26.246	0.190	0.112
-425.573	-121.222	0.060	0.010
-424.559	-6.212	-0.112	-0.077
-423.544	7.203	0.138	-0.103
-422.530	8.214	0.076	-0.057
-421.515	227.038	-0.179	-0.292
-420.500	-190.533	-0.240	-0.003
-419.486	118.966	-0.061	0.076
-418.471	800.000	-0.186	0.550
-417.457	-200.000	-0.013	0.202
-416.442	47.861	0.167	0.156
-415.428	-69.643	-0.220	-0.084
-414.413	178.410	0.090	0.131
-413.398	-107.414	0.090	0.020
-412.384	262.873	-0.085	-0.149
-411.369	-129.269	-0.318	0.044
-410.355	-40.625	0.246	-0.128
-409.340	88.384	0.072	-0.080
-408.325	110.278	-0.153	-0.183
-407.311	-200.000	-0.015	-0.227
-406.296	800.000	-0.049	0.182
-405.282	800.000	0.065	-0.255
-404.267	-55.838	0.204	0.091
-403.252	800.000	0.097	-0.406
-402.238	-200.000	-0.033	-0.346
-401.223	40.460	-0.282	0.254
-400.209	-200.000	-0.057	-0.621
-399.194	-102.859	0.156	-0.037
-398.179	-200.000	-0.044	0.255
-397.165	74.840	-0.042	0.044
-396.150	57.291	-0.310	0.303
-395.136	-200.000	0.004	0.058
-394.121	800.000	0.101	0.313
-393.106	328.411	-0.097	0.187
-392.092	511.862	0.091	0.211
-391.077	-9.402	-0.261	0.174
-390.063	800.000	0.067	-0.200
-389.048	-25.943	-0.033	-0.019
-388.033	-126.700	0.147	0.022
-387.019	122.118	-0.124	0.154
-386.004	-200.000	0.012	0.117
-384.990	-69.247	-0.160	0.061
-383.975	239.121	0.024	-0.039
-382.960	-96.316	-0.117	0.031
-381.946	128.817	0.183	-0.234
-380.931	627.668	0.068	0.172
-379.917	-200.000	-0.014	0.102
-378.902	167.259	-0.085	-0.121
-377.888	-200.000	-0.007	0.134
-376.873	-200.000	-0.048	0.315
-375.858	63.098	0.127	0.127
-374.844	7.857	-0.344	0.258
-373.829	-200.000	-0.014	0.151
-372.815	-64.887	-0.155	-0.063
-371.800	-123.003	0.297	0.048
-370.785	-109.359	0.097	0.020
-369.771	-137.904	-0.217	-0.024
-368.756	147.580	0.054	-0.073
-367.742	9.710	-0.232	-0.176
-366.727	153.123	-0.287	-0.392
-365.712	800.000	-0.061	-0.256
-364.698	157.254	-0.152	0.211
-363.683	-12.659	-0.130	0.085
-362.669	256.200	-0.164	0.282
-361.654	-188.248	0.134	-0.002
-360.639	-75.553	-0.125	-0.045
-359.625	-58.104	0.344	-0.150
-358.610	-67.020	0.117	-0.046
-357.596	141.324	0.122	0.162
-356.581	331.371	-0.019	0.037
-355.566	-9.443	-0.166	-0.111
-354.552	-110.858	0.231	-0.048
-353.537	159.378	0.100	0.138
-352.523	800.000	-0.085	-0.322
-351.508	-89.424	0.209	0.061
-350.493	212.857	-0.039	-0.062
-349.479	165.898	-0.066	0.094
-348.464	487.083	-0.060	-0.136
-347.450	-93.987	-0.336	0.092
-346.435	353.849	-0.236	-0.469
-345.420	94.503	-0.302	-0.343
-344.406	17.234	-0.164	-0.130
-343.391	-200.000	0.023	-0.122
-342.377	9.569	0.342	0.259
-341.362	-176.329	0.054	-0.001
-340.348	-56.736	-0.277	-0.122
-339.333	572.719	0.086	0.209
-338.318	750.244	0.049	-0.131
-337.304	36.325	-0.046	-0.040
-336.289	35.409	-0.095	-0.083
-335.275	125.294	-0.018	0.022
-334.260	-141.361	0.232	-0.023
-333.245	-124.009	-0.094	-0.015
-332.231	-79.129	0.091	-0.031
-331.216	14.642	0.202	-0.158
-330.202	-45.937	0.387	-0.190
-329.187	114.484	0.104	0.127
-328.172	-127.803	0.056	-0.008
-327.158	-58.733	0.084	-0.036
-326.143	-57.500	-0.324	-0.142
-325.129	-200.000	-0.014	0.239
-324.114	451.715	0.120	0.265
-323.099	-186.535	-0.109	-0.002
-322.085	-37.184	-0.141	0.075
-321.070	-200.000	0.048	-0.305
-320.056	800.000	0.068	0.211
-319.041	-89.477	0.116	0.034
-318.026	293.022	-0.081	-0.147
-317.012	-42.717	0.149	0.076
-315.997	-74.140	0.261	-0.094
-314.983	-69.175	0.273	-0.105
-313.968	-200.000	-0.041	-0.276
-312.953	-65.237	0.077	-0.031
-311.939	180.257	0.147	0.215
-310.924	-200.000	0.054	-0.352
-309.910	-84.003	-0.101	-0.032
-308.895	347.010	0.101	0.197
-307.880	-200.000	-0.056	0.384
-306.866	-3.820	0.153	-0.106
-305.851	-0.311	-0.165	-0.117
-304.837	5.808	0.071	0.053
-303.822	-200.000	0.031	-0.384
-302.807	-200.000	0.065	-0.609
-301.793	800.000	-0.142	0.432
-300.778	800.000	0.069	0.240
-299.764	800.000	-0.105	-0.298
-298.749	-96.379	0.191	-0.050
-297.735	-200.000	-0.026	0.384
-296.720	-107.719	0.272	0.059
-295.705	10.877	-0.099	-0.075
-294.691	151.580	0.094	-0.127
-293.676	800.000	0.043	-0.179
-292.662	800.000	0.089	0.359
-291.647	-1.636	-0.274	-0.193
-290.632	-125.986	-0.090	-0.013
-289.618	-123.231	0.212	0.034
-288.603	-67.825	-0.086	0.033
-287.589	-17.747	0.059	0.037
-286.574	-155.405	0.183	-0.012
-285.559	-91.326	-0.358	0.102
-284.545	61.010	0.037	0.037
-283.530	-200.000	0.046	0.274
-282.516	-34.371	-0.214	0.117
-281.501	-128.180	-0.156	-0.022
-280.486	441.110	-0.026	0.057
-279.472	97.426	-0.179	0.205
-278.457	-169.366	-0.083	0.003
-277.443	-200.000	-0.008	0.179
-276.428	434.319	-0.162	0.350
-275.413	800.000	0.045	-0.139
-274.399	-119.741	-0.131	-0.022
-273.384	800.000	-0.080	-0.235
-272.370	-124.472	0.206	0.032
-271.355	-200.000	-0.021	0.117
-270.340	-106.396	-0.221	-0.049
-269.326	-73.350	0.328	-0.119
-268.311	-79.119	-0.273	0.092
-267.297	-200.000	-0.045	0.296
-266.282	-124.070	-0.133	0.021
-265.267	-69.354	-0.194	-0.074
-264.253	47.268	-0.179	-0.166
-263.238	316.286	0.128	-0.241
-262.224	-109.033	0.128	-0.027
-261.209	-200.000	0.019	-0.289
-260.195	56.140	-0.177	-0.171
-259.180	-152.986	0.204	-0.014
-258.165	-200.000	0.016	0.081
-257.151	-200.000	0.038	-0.312
-256.136	800.000	-0.047	-0.162
-255.122	110.335	0.253	-0.303
-254.107	298.460	-0.084	-0.155
-253.092	-105.629	0.063	0.014
-252.078	2.176	0.234	0.168
-251.063	-90.787	-0.162	0.046
-250.049	27.758	0.127	0.107
-249.034	98.599	-0.168	0.192
-248.019	-108.071	-0.071	-0.015
-247.005	-132.626	-0.124	0.016
-245.990	25.409	0.092	0.076
-244.976	-71.293	-0.173	-0.065
-243.961	141.042	-0.027	-0.036
-242.946	44.166	0.068	0.062
-241.932	-179.187	-0.231	0.005
-240.917	-200.000	0.023	-0.387
-239.903	778.895	0.085	0.232
-238.888	95.532	0.097	0.110
-237.873	-10.454	0.054	-0.035
-236.859	209.449	-0.143	0.222
-235.844	600.989	-0.077	0.191
-234.830	-60.751	-0.092	0.039
-233.815	12.744	-0.085	-0.065
-232.800	288.096	-0.110	-0.199
-231.786	105.047	0.072	-0.085
-230.771	-124.714	0.202	0.031
-229.757	71.700	-0.373	-0.385
-228.742	17.396	0.163	-0.129
-227.727	277.041	0.113	0.200
-226.713	12.174	-0.323	-0.247
-225.698	800.000	-0.082	0.246
-224.684	22.284	-0.017	-0.014
-223.669	800.000	0.048	-0.158
-222.655	-200.000	-0.001	-0.218
-221.640	-200.000	-0.027	0.264
-220.625	206.207	0.078	0.121
-219.611	-6.187	-0.193	0.131
-218.596	-144.012	0.191	0.018
-217.582	-115.179	-0.040	0.008
-216.567	-100.811	0.134	-0.033
-215.552	-97.459	0.220	-0.057
-214.538	60.332	0.230	0.226
-213.523	800.000	0.029	0.085
-212.509	-56.367	0.229	0.101
-211.494	-157.771	-0.178	0.010
-210.479	-200.000	0.316	0.000
-209.465	113.838	0.156	-0.188
-208.450	-131.072	0.057	-0.008
-207.436	34.284	-0.114	0.099
-206.421	-5.127	-0.087	0.060
-205.406	-200.000	0.027	-0.138
-204.392	-81.737	0.166	-0.054
-203.377	800.000	0.032	0.107
-202.363	-68.987	0.185	0.071
-201.348	-100.953	-0.086	0.021
-200.333	-200.000	-0.009	-0.177
-199.319	-88.858	0.306	0.090
-198.304	348.816	-0.044	-0.087
-197.290	-5.753	0.113	-0.077
-196.275	189.561	-0.031	-0.046
-195.260	-178.913	-0.202	0.005
-194.246	-4.414	-0.058	-0.040
-193.231	-19.917	-0.109	-0.067
-192.217	782.633	-0.035	0.096
-191.202	-97.509	0.344	0.089
-190.187	800.000	0.083	0.354
-189.173	344.650	0.060	0.117
-188.158	313.589	-0.145	0.271
-187.144	-200.000	0.021	0.145
-186.129	-131.358	-0.261	0.034
-185.114	10.600	0.179	0.136
-184.100	-191.025	-0.429	0.004
-183.085	800.000	0.081	0.256
-182.071	360.972	-0.076	-0.152
-181.056	-72.250	-0.255	-0.094
-180.042	-101.182	0.176	0.043
-179.027	800.000	0.027	-0.085
-178.012	136.222	0.027	0.034
-176.998	153.351	-0.021	0.028
-175.983	79.288	0.220	-0.234
-174.969	-61.785	-0.194	0.080
-173.954	-200.000	0.059	0.405
-172.939	279.729	0.123	0.219
-171.925	-123.650	0.134	0.021
-170.910	369.590	-0.102	0.204
-169.896	-142.787	-0.109	0.011
-168.881	-116.084	0.078	0.014
-167.866	7.223	0.277	0.205
-166.852	800.000	-0.058	-0.214
-165.837	-85.212	0.291	-0.090
-164.823	-132.904	0.147	0.018
-163.808	192.745	-0.154	0.231
-162.793	-122.573	0.293	-0.047
-161.779	-54.536	0.422	-0.190
-160.764	800.000	-0.041	0.151
-159.750	225.240	0.090	-0.144
-158.735	-200.000	-0.008	-0.227
-157.720	-124.198	0.245	0.038
-156.706	-66.702	-0.139	-0.055
-155.691	44.801	-0.168	-0.153
-154.677	800.000	-0.050	0.168
-153.662	-200.000	-0.057	0.266
-152.647	-106.532	-0.313	-0.069
-151.633	459.905	0.125	0.275
-150.618	-155.578	0.162	0.010
-149.604	800.000	-0.023	0.078
-148.589	-200.000	0.029	0.382
-147.574	-47.955	0.088	0.042
-146.560	800.000	-0.051	-0.202
-145.545	-23.302	-0.075	0.045
-144.531	-120.038	-0.278	0.047
-143.516	238.358	0.109	-0.179
-142.502	-200.000	-0.028	-0.216
-141.487	407.337	0.064	0.134
-140.472	255.204	-0.090	0.153
-139.458	-200.000	-0.032	0.198
-138.443	-200.000	0.005	0.103
-137.429	153.205	0.065	0.088
-136.414	-63.281	0.475	-0.194
-135.399	800.000	-0.031	0.109
-134.385	85.202	-0.374	-0.407
-133.370	342.202	-0.031	-0.061
-132.356	-38.826	0.241	-0.126
-131.341	126.872	0.214	-0.268
-130.326	-74.104	0.055	0.020
-129.312	-200.000	-0.005	-0.298
-128.297	1.990	0.256	-0.183
-127.283	597.769	-0.083	0.204
-126.268	285.492	-0.051	0.091
-125.253	224.803	-0.085	0.136
-124.239	11.526	-0.409	0.310
-123.224	-200.000	0.010	0.112
-122.210	-105.429	0.374	0.084
