DTS Sentinel unit serial number:	SN413079Multiplexer serial number:	ORYXHardware model number:	OX4-SRSoftware version number:	ORYX F/W v4.00 Oryx Data Collector v3.7.2.0data status	okinstallation	princeton_trtdifferential loss correction	single-endedforward channel	channel 1reverse channel	N/Adate	2019/09/12time	06:24:11forward acquisition time	60.00reverse acquisition time	0.00gamma	496.2192k internal	0.2320k external	0.2320temperature offset calibration	1.0045default loss term (dB/km)	0.3790temperature slope calibration	1.0000multiplexer offset coefficient	1.0000multiplexer slope coefficient	1.0000fibre end	0.00T internal ref (°C)	32.14T ext. ref 1 (°C)	1.56T ext. ref 2 (°C)	27.39length (m)	temperature (°C)	Stokes	anti-Stokes-747.200	-102.735	0.143	0.034
-746.185	-29.294	-0.302	0.175
-745.171	82.113	-0.268	0.293
-744.156	-49.454	0.191	-0.092
-743.142	16.595	-0.134	0.107
-742.127	159.310	0.203	0.286
-741.112	-78.712	0.062	0.021
-740.098	35.181	-0.156	0.138
-739.083	-153.075	0.154	-0.011
-738.069	-200.000	-0.042	0.193
-737.054	514.740	0.047	-0.111
-736.039	-55.231	-0.125	0.057
-735.025	-54.607	0.316	0.144
-734.010	-154.437	-0.141	-0.010
-732.996	800.000	0.118	-0.405
-731.981	5.043	-0.168	0.125
-730.966	-200.000	0.013	-0.249
-729.952	-164.956	-0.371	0.017
-728.937	-200.000	-0.003	0.227
-727.923	-200.000	-0.004	0.181
-726.908	38.688	-0.088	0.080
-725.894	-0.636	0.111	-0.079
-724.879	800.000	0.050	-0.173
-723.864	35.391	-0.094	-0.083
-722.850	-200.000	-0.034	-0.182
-721.835	-12.761	0.124	-0.082
-720.821	33.509	-0.107	0.094
-719.806	-22.561	-0.027	-0.017
-718.791	-99.487	0.153	0.039
-717.777	593.065	-0.123	0.308
-716.762	114.021	-0.129	0.158
-715.748	-50.455	0.090	-0.043
-714.733	-105.305	-0.334	0.077
-713.718	-5.773	-0.289	0.200
-712.704	-200.000	-0.029	-0.382
-711.689	-23.904	-0.264	-0.160
-710.675	800.000	0.059	0.183
-709.660	328.647	0.084	0.163
-708.645	22.024	-0.284	-0.234
-707.631	800.000	0.091	0.286
-706.616	45.809	0.204	0.190
-705.602	52.017	-0.134	0.129
-704.587	-145.936	0.174	-0.016
-703.572	454.824	-0.020	0.045
-702.558	681.220	0.139	-0.364
-701.543	-34.270	0.238	-0.132
-700.529	800.000	0.075	0.214
-699.514	112.251	0.081	0.099
-698.499	-42.517	-0.262	0.135
-697.485	800.000	-0.046	0.140
-696.470	223.995	0.087	-0.142
-695.456	-136.833	0.571	-0.066
-694.441	55.724	-0.190	-0.186
-693.426	-97.917	-0.191	-0.050
-692.412	-84.912	0.072	0.023
-691.397	-97.866	-0.127	0.033
-690.383	109.757	-0.129	0.156
-689.368	-110.042	-0.085	-0.018
-688.354	800.000	-0.016	0.060
-687.339	-8.483	-0.077	0.052
-686.324	-50.725	-0.179	-0.085
-685.310	-168.463	-0.222	0.009
-684.295	51.908	-0.207	-0.199
-683.281	-21.185	-0.248	0.153
-682.266	-200.000	-0.021	-0.276
-681.251	268.497	-0.050	0.088
-680.237	75.003	-0.239	-0.254
-679.222	-142.605	0.216	0.021
-678.208	-200.000	0.001	0.007
-677.193	95.233	-0.129	-0.148
-676.178	-141.791	-0.427	-0.043
-675.164	-29.024	-0.146	0.085
-674.149	63.605	-0.094	-0.096
-673.135	800.000	0.067	-0.236
-672.120	-200.000	0.034	0.234
-671.105	-113.244	0.157	0.031
-670.091	-91.125	0.143	0.041
-669.076	-35.483	-0.072	0.039
-668.062	-200.000	-0.005	-0.062
-667.047	203.412	0.040	0.062
-666.032	-28.365	0.083	-0.048
-665.018	441.991	0.031	-0.069
-664.003	800.000	-0.059	-0.232
-662.989	117.284	0.141	-0.175
-661.974	53.843	-0.123	-0.119
-660.959	500.545	-0.072	0.167
-659.945	-200.000	0.007	-0.193
-658.930	-32.741	-0.128	-0.072
-657.916	-184.417	0.328	0.005
-656.901	235.974	0.024	-0.040
-655.886	-200.000	0.077	0.385
-654.872	65.774	0.104	0.106
-653.857	-55.592	-0.117	0.053
-652.843	-108.046	-0.216	0.047
-651.828	199.210	0.303	-0.468
-650.814	-131.070	-0.301	0.040
-649.799	-194.206	-0.133	0.001
-648.784	-200.000	0.011	0.143
-647.770	-87.488	-0.147	0.045
-646.755	-116.798	0.078	-0.014
-645.741	-135.316	-0.298	0.036
-644.726	-94.630	-0.485	0.133
-643.711	328.227	0.101	-0.195
-642.697	6.092	0.055	-0.041
-641.682	800.000	-0.033	-0.134
-640.668	-200.000	0.037	0.189
-639.653	-54.234	-0.105	-0.048
-638.638	106.719	0.201	-0.240
-637.624	-200.000	-0.015	-0.168
-636.609	388.170	0.058	-0.121
-635.595	-200.000	0.061	-0.280
-634.580	-200.000	-0.034	0.188
-633.565	-63.417	-0.333	0.138
-632.551	190.700	-0.159	-0.241
-631.536	800.000	0.012	-0.039
-630.522	127.854	-0.230	0.294
-629.507	20.643	-0.054	0.044
-628.492	-138.032	0.256	0.029
-627.478	-171.641	-0.164	-0.005
-626.463	540.838	-0.133	-0.318
-625.449	800.000	0.054	-0.201
-624.434	178.152	0.054	-0.080
-623.419	767.030	0.112	-0.306
-622.405	9.180	-0.207	-0.157
-621.390	594.963	0.077	0.192
-620.376	-95.795	-0.319	-0.086
-619.361	422.467	-0.187	-0.404
-618.346	-70.841	-0.084	0.032
-617.332	-80.048	0.304	0.102
-616.317	800.000	0.110	0.316
-615.303	-54.539	0.133	-0.061
-614.288	-131.054	-0.245	0.033
-613.273	43.511	-0.171	0.157
-612.259	-129.452	0.297	0.041
-611.244	55.965	-0.138	0.135
-610.230	-62.766	0.225	-0.094
-609.215	54.177	-0.122	0.118
-608.201	-200.000	-0.006	-0.201
-607.186	-67.315	-0.268	-0.106
-606.171	10.357	0.150	0.115
-605.157	41.009	-0.209	-0.189
-604.142	12.536	-0.259	-0.201
-603.128	-94.464	0.224	-0.062
-602.113	36.723	-0.125	-0.111
-601.098	428.100	0.075	-0.162
-600.084	-200.000	-0.020	0.139
-599.069	-140.358	0.078	0.008
-598.055	635.598	-0.064	-0.163
-597.040	154.719	-0.207	0.286
-596.025	76.937	0.052	0.056
-595.011	129.247	-0.109	-0.140
-593.996	262.063	0.128	0.222
-592.982	294.250	0.129	0.236
-591.967	23.260	0.128	0.106
-590.952	17.589	-0.158	0.127
-589.938	107.114	-0.072	0.086
-588.923	-121.289	-0.339	0.057
-587.909	-91.456	0.257	-0.074
-586.894	388.033	0.125	0.261
-585.879	727.226	-0.022	-0.059
-584.865	800.000	-0.057	-0.205
-583.850	-112.704	0.217	0.043
-582.836	-185.493	-0.210	-0.003
-581.821	-25.212	-0.252	0.150
-580.806	512.834	-0.146	-0.341
-579.792	39.712	-0.251	-0.226
-578.777	-163.873	0.144	-0.007
-577.763	-42.183	-0.493	0.253
-576.748	-1.476	-0.135	0.096
-575.733	-9.754	-0.096	-0.064
-574.719	-200.000	-0.015	-0.126
-573.704	97.322	0.045	0.052
-572.690	800.000	-0.054	0.233
-571.675	-97.953	-0.181	0.047
-570.661	43.479	-0.078	-0.072
-569.646	-200.000	0.008	0.190
-568.631	554.296	0.120	-0.290
-567.617	-200.000	0.013	0.082
-566.602	-159.964	-0.126	-0.007
-565.588	-200.000	-0.016	-0.232
-564.573	107.644	0.047	-0.057
-563.558	-153.387	-0.176	0.012
-562.544	241.092	-0.171	-0.287
-561.529	-67.647	-0.096	-0.038
-560.515	-200.000	0.022	-0.128
-559.500	797.450	0.044	0.122
-558.485	-61.471	0.087	-0.037
-557.471	-200.000	0.020	0.165
-556.456	81.990	0.067	-0.073
-555.442	-99.013	-0.414	0.105
-554.427	800.000	-0.022	0.092
-553.412	425.906	-0.075	-0.162
-552.398	-53.586	0.327	-0.150
-551.383	1.967	-0.139	-0.101
-550.369	-169.877	0.298	0.011
-549.354	-170.643	0.118	0.004
-548.339	-65.618	-0.223	-0.090
-547.325	-170.059	-0.024	0.001
-546.310	800.000	0.077	0.242
-545.296	-200.000	0.089	-0.479
-544.281	106.692	0.094	0.111
-543.266	410.681	0.060	0.128
-542.252	163.733	-0.129	0.182
-541.237	800.000	0.024	0.087
-540.223	179.684	-0.132	0.194
-539.208	-128.586	0.114	-0.016
-538.193	800.000	-0.060	0.252
-537.179	251.994	-0.067	0.114
-536.164	17.287	0.078	0.062
-535.150	-160.441	0.107	0.006
-534.135	77.103	-0.184	0.196
-533.121	-90.338	-0.223	-0.065
-532.106	463.140	0.072	0.162
-531.091	-7.889	-0.184	0.125
-530.077	-85.370	0.332	0.104
-529.062	-120.408	0.261	0.044
-528.048	-200.000	0.018	-0.231
-527.033	4.398	0.174	0.128
-526.018	206.634	0.192	0.300
-525.004	-169.827	-0.274	0.010
-523.989	-200.000	0.032	-0.146
-522.975	-200.000	-0.001	0.477
-521.960	625.192	-0.135	-0.342
-520.945	655.763	-0.042	-0.107
-519.931	-177.947	0.188	0.005
-518.916	-37.251	-0.232	-0.124
-517.902	42.225	-0.059	0.053
-516.887	-70.416	-0.301	-0.114
-515.872	-101.554	0.238	0.058
-514.858	-200.000	0.053	-0.373
-513.843	-130.951	-0.240	0.032
-512.829	-80.728	0.186	0.062
-511.814	-68.839	0.185	0.072
-510.799	-200.000	0.033	0.292
-509.785	800.000	0.073	0.320
-508.770	-90.582	-0.160	-0.047
-507.756	-11.510	0.213	0.140
-506.741	-81.162	0.262	0.087
-505.726	-162.793	-0.202	-0.010
-504.712	-200.000	-0.006	-0.121
-503.697	-81.341	-0.269	0.089
-502.683	9.861	0.285	0.216
-501.668	196.300	0.156	0.238
-500.653	-58.963	-0.351	-0.152
-499.639	-45.695	0.167	0.083
-498.624	82.826	-0.148	0.161
-497.610	800.000	0.031	-0.095
-496.595	-62.189	0.281	0.118
-495.581	351.815	-0.170	-0.338
-494.566	800.000	-0.067	-0.231
-493.551	-200.000	0.003	0.354
-492.537	61.621	0.150	-0.149
-491.522	399.969	0.144	-0.302
-490.508	215.595	0.043	0.068
-489.493	9.209	-0.134	-0.102
-488.478	-200.000	0.087	-0.397
-487.464	-42.883	0.246	-0.125
-486.449	800.000	-0.011	-0.042
-485.435	171.224	-0.190	-0.273
-484.420	-79.315	0.252	0.085
-483.405	800.000	-0.104	0.312
-482.391	57.226	0.122	0.119
-481.376	-118.204	0.279	-0.050
-480.362	786.379	-0.095	-0.261
-479.347	-25.178	0.199	0.118
-478.332	-86.420	0.168	0.052
-477.318	213.029	0.186	0.294
-476.303	-200.000	-0.033	0.247
-475.289	-108.963	-0.335	0.071
-474.274	800.000	-0.061	-0.205
-473.259	-31.492	0.080	-0.045
-472.245	287.163	0.075	0.136
-471.230	-76.065	-0.285	-0.101
-470.216	-29.777	-0.471	0.269
-469.201	-49.682	0.282	-0.134
-468.186	-53.683	-0.370	-0.169
-467.172	-200.000	-0.063	0.284
-466.157	237.031	-0.072	-0.120
-465.143	-110.553	-0.265	0.055
-464.128	35.903	0.260	-0.229
-463.113	67.672	0.043	-0.044
-462.099	-46.704	-0.215	-0.105
-461.084	132.477	-0.176	0.227
-460.070	-148.155	-0.218	0.018
-459.055	137.411	-0.089	-0.117
-458.040	-200.000	0.005	0.064
-457.026	54.405	-0.122	0.118
-456.011	653.340	-0.118	-0.303
-454.997	800.000	0.031	-0.125
-453.982	60.924	-0.046	0.045
-452.968	367.074	0.083	-0.168
-451.953	429.096	-0.006	-0.012
-450.938	135.926	-0.077	-0.100
-449.924	-117.844	0.130	0.023
-448.909	800.000	-0.054	0.182
-447.895	-38.483	-0.118	-0.062
-446.880	-155.157	0.188	-0.012
-445.865	-145.603	-0.073	-0.007
-444.851	-38.024	0.354	0.188
-443.836	375.176	-0.132	-0.269
-442.822	420.293	0.049	-0.104
-441.807	251.245	0.109	0.185
-440.792	273.222	-0.079	0.139
-439.778	800.000	0.013	-0.037
-438.763	134.497	-0.093	-0.121
-437.749	-127.617	-0.195	-0.028
-436.734	-65.421	0.221	0.089
-435.719	-200.000	0.034	0.190
-434.705	-25.030	-0.128	0.076
-433.690	-76.316	-0.406	0.143
-432.676	-73.693	0.177	0.064
-431.661	268.968	0.043	0.075
-430.646	-200.000	0.026	-0.125
-429.632	800.000	-0.094	0.268
-428.617	67.907	-0.075	-0.077
-427.603	-2.439	-0.190	-0.133
-426.588	24.269	0.429	-0.354
-425.573	195.818	-0.055	-0.084
-424.559	-125.796	-0.317	-0.048
-423.544	154.336	0.050	0.069
-422.530	-133.528	-0.216	0.027
-421.515	-78.809	0.119	0.040
-420.500	-87.231	-0.367	0.111
-419.486	93.631	0.315	-0.356
-418.471	681.684	0.133	-0.345
-417.457	-4.233	0.092	-0.063
-416.442	-198.507	0.480	0.003
-415.428	313.967	-0.236	-0.444
-414.413	3.087	0.155	0.112
-413.398	-150.788	0.264	0.020
-412.384	490.226	0.075	-0.171
-411.369	800.000	-0.067	0.192
-410.355	603.521	-0.081	-0.201
-409.340	-77.674	0.103	-0.036
-408.325	18.367	0.346	0.276
-407.311	-126.095	0.223	-0.033
-406.296	-132.759	-0.169	-0.022
-405.282	31.408	0.221	0.189
-404.267	800.000	-0.034	-0.130
-403.252	-87.525	-0.347	0.105
-402.238	407.668	-0.140	0.295
-401.223	-77.050	0.198	-0.069
-400.209	506.166	0.088	0.204
-399.194	82.482	0.078	0.085
-398.179	-200.000	-0.045	0.216
-397.165	-155.395	0.256	0.017
-396.150	-131.441	0.342	-0.045
-395.136	-58.364	0.120	0.052
-394.121	783.776	0.012	0.033
-393.106	-68.859	0.334	-0.129
-392.092	112.695	-0.056	-0.068
-391.077	-112.121	0.262	-0.053
-390.063	-103.501	-0.159	-0.037
-389.048	289.832	-0.084	-0.151
-388.033	-16.497	-0.171	0.108
-387.019	-20.518	0.026	-0.016
-386.004	-200.000	0.017	0.111
-384.990	-155.679	0.301	0.019
-383.975	-45.396	-0.195	-0.096
-382.960	-140.574	-0.242	0.025
-381.946	-108.007	0.191	-0.041
-380.931	72.807	0.137	0.143
-379.917	333.141	0.128	-0.246
-378.902	-55.252	0.073	0.033
-377.888	92.648	0.232	0.261
-376.873	14.875	0.233	-0.182
-375.858	94.779	-0.145	-0.165
-374.844	-148.171	0.343	-0.028
-373.829	-200.000	-0.008	-0.220
-372.815	27.711	0.195	-0.164
-371.800	-88.252	0.133	-0.040
-370.785	127.195	-0.155	0.196
-369.771	-200.000	-0.023	-0.210
-368.756	94.146	0.089	0.101
-367.742	-91.214	-0.189	-0.054
-366.727	236.754	-0.147	0.242
-365.712	188.157	-0.182	-0.272
-364.698	21.969	-0.126	-0.102
-363.683	-65.566	-0.046	-0.018
-362.669	-61.313	-0.249	0.104
-361.654	-73.854	0.090	0.032
-360.639	-190.634	0.288	0.003
-359.625	238.398	0.144	0.238
-358.610	-60.023	-0.185	0.079
-357.596	106.915	0.384	-0.454
-356.581	-63.122	-0.108	0.044
-355.566	189.034	0.135	-0.201
-354.552	-144.712	-0.462	-0.042
-353.537	-51.275	0.151	-0.071
-352.523	-129.265	0.414	0.057
-351.508	236.818	-0.053	-0.087
-350.493	27.282	-0.185	-0.155
-349.479	116.237	-0.087	0.106
-348.464	-200.000	-0.028	-0.148
-347.450	-200.000	-0.025	0.169
-346.435	206.036	-0.050	-0.078
-345.420	723.207	-0.064	-0.169
-344.406	141.552	-0.234	-0.309
-343.391	-200.000	0.008	0.048
-342.377	108.972	0.067	0.080
-341.362	147.317	0.126	0.169
-340.348	272.480	-0.051	-0.090
-339.333	296.930	-0.110	0.202
-338.318	-168.748	-0.230	-0.009
-337.304	143.756	0.051	-0.067
-336.289	-200.000	-0.040	-0.248
-335.275	71.840	-0.225	-0.233
-334.260	260.755	-0.122	-0.210
-333.245	-63.465	0.290	0.119
-332.231	60.173	-0.051	0.050
-331.216	-54.274	0.011	-0.005
-330.202	25.732	0.087	0.072
-329.187	21.760	-0.097	0.078
-328.172	-169.851	0.053	0.002
-327.158	-200.000	-0.041	-0.368
-326.143	74.212	-0.168	0.175
-325.129	-69.230	0.382	0.146
-324.114	-8.935	-0.217	0.145
-323.099	41.615	0.338	-0.305
-322.085	80.178	0.122	-0.130
-321.070	-146.805	0.179	0.015
-320.056	125.517	-0.070	0.088
-319.041	196.617	-0.116	-0.176
-318.026	-200.000	0.002	-0.080
-317.012	-70.431	-0.120	-0.045
-315.997	-200.000	-0.020	-0.216
-314.983	-88.549	0.383	-0.113
-313.968	-114.367	0.357	0.068
-312.953	-88.715	-0.249	0.074
-311.939	354.304	0.055	0.108
-310.924	800.000	0.046	0.151
-309.910	-15.094	0.322	0.205
-308.895	97.035	0.089	-0.102
-307.880	90.562	0.203	-0.225
-306.866	-22.355	0.369	0.222
-305.851	209.760	0.047	-0.073
-304.837	-109.205	-0.155	0.033
-303.822	-72.677	-0.056	-0.021
-302.807	-96.519	-0.044	-0.012
-301.793	-118.850	-0.288	-0.050
-300.778	-200.000	0.035	-0.155
-299.764	221.869	-0.073	-0.117
-298.749	173.772	-0.113	0.162
-297.735	187.035	0.131	0.194
-296.720	-200.000	0.013	0.499
-295.705	800.000	0.085	-0.372
-294.691	225.111	-0.185	-0.298
-293.676	-122.832	0.133	0.021
-292.662	36.204	-0.229	0.201
-291.647	-3.897	-0.071	0.049
-290.632	514.725	0.060	0.140
-289.618	-39.403	-0.103	0.054
-288.603	-61.388	0.289	0.121
-287.589	-146.765	-0.134	0.012
-286.574	210.818	0.303	-0.473
-285.559	304.440	0.071	-0.132
-284.545	65.866	0.087	0.088
-283.530	236.014	-0.099	-0.162
-282.516	252.346	-0.081	-0.136
-281.501	-98.705	-0.031	0.008
-280.486	4.793	0.283	-0.206
-279.472	46.928	-0.063	0.058
-278.457	-9.566	0.038	0.025
-277.443	-75.961	0.295	0.104
-276.428	-77.772	-0.277	-0.095
-275.413	-200.000	-0.034	-0.150
-274.399	783.614	-0.034	0.094
-273.384	-57.031	-0.125	-0.055
-272.370	-30.435	0.307	-0.173
-271.355	260.972	0.052	0.089
-270.340	-200.000	-0.033	0.173
-269.326	-200.000	0.050	-0.402
-268.311	-18.264	-0.183	0.113
-267.297	-52.066	0.295	-0.136
-266.282	-70.986	-0.161	0.060
-265.267	-200.000	0.001	0.497
-264.253	247.843	-0.119	0.199
-263.238	8.966	-0.215	-0.161
-262.224	-200.000	-0.055	-0.390
-261.209	13.405	0.100	-0.077
-260.195	800.000	-0.051	-0.142
-259.180	-111.874	0.116	-0.023
-258.165	-200.000	0.005	0.269
-257.151	447.279	0.095	0.207
-256.136	800.000	-0.095	0.349
-255.122	624.183	0.180	0.449
-254.107	-200.000	-0.002	-0.096
-253.092	-169.478	0.214	-0.008
-252.078	-99.257	-0.122	0.030
-251.063	10.864	0.291	0.221
-250.049	800.000	0.012	-0.044
-249.034	-19.497	-0.078	0.048
-248.019	-41.625	0.111	0.057
-247.005	84.324	0.229	-0.249
-245.990	-124.809	-0.387	0.059
-244.976	362.187	-0.053	0.106
-243.961	698.378	-0.068	-0.178
-242.946	82.179	-0.273	0.294
-241.932	-143.383	0.104	0.010
-240.917	-148.394	0.083	-0.007
-239.903	85.656	-0.224	0.244
-238.888	71.131	-0.269	0.276
-237.873	16.475	0.181	0.142
-236.859	-200.000	0.008	-0.153
-235.844	-102.331	0.231	-0.055
-234.830	507.038	0.026	-0.060
-233.815	-200.000	-0.065	0.315
-232.800	45.672	0.091	-0.083
-231.786	800.000	0.072	0.215
-230.771	-45.865	-0.101	-0.049
-229.757	-69.062	-0.338	0.129
-228.742	555.901	0.066	0.158
-227.727	-89.826	-0.138	0.040
-226.713	-144.962	0.229	0.021
-225.698	285.183	-0.086	0.154
-224.684	90.536	0.042	0.046
-223.669	-4.666	0.099	-0.068
-222.655	800.000	-0.047	0.168
-221.640	-114.779	-0.203	0.038
-220.625	81.319	0.012	0.013
-219.611	15.043	-0.152	-0.118
-218.596	15.274	0.053	0.041
-217.582	773.420	-0.119	-0.321
-216.567	800.000	-0.094	-0.264
-215.552	532.332	-0.092	0.215
-214.538	-10.508	0.204	0.134
-213.523	-57.243	0.121	-0.053
-212.509	-200.000	0.013	-0.182
-211.494	35.155	-0.158	-0.138
-210.479	251.959	0.049	-0.083
-209.465	323.876	-0.073	0.138
-208.450	77.252	0.317	0.334
-207.436	-101.087	0.340	0.083
-206.421	616.436	-0.025	0.062
-205.406	-128.293	-0.298	-0.042
-204.392	-200.000	-0.010	-0.346
-203.377	-61.281	-0.073	-0.030
-202.363	-129.372	0.279	0.038
-201.348	-68.036	-0.275	0.106
-200.333	-200.000	0.037	0.359
-199.319	276.116	0.182	0.320
-198.304	800.000	-0.023	0.089
-197.290	28.639	-0.096	-0.081
-196.275	-61.597	-0.167	0.070
-195.260	-143.806	-0.176	-0.016
-194.246	-37.535	-0.084	-0.044
-193.231	-116.154	0.090	-0.017
-192.217	410.411	-0.197	0.413
-191.202	-110.279	0.231	-0.048
-190.187	-119.610	-0.260	-0.045
-189.173	2.273	0.194	0.139
-188.158	-200.000	0.082	-0.370
-187.144	202.294	-0.140	0.214
-186.129	68.277	-0.247	0.251
-185.114	-115.985	0.107	-0.020
-184.100	545.947	0.214	-0.506
-183.085	-200.000	0.013	0.189
-182.071	221.643	0.129	0.204
-181.056	80.935	0.212	-0.227
-180.042	230.853	0.147	0.239
-179.027	-200.000	0.003	0.030
-178.012	-25.111	-0.359	0.211
-176.998	331.276	-0.027	-0.051
-175.983	138.228	0.108	0.141
-174.969	-68.569	-0.212	-0.081
-173.954	-121.025	-0.235	0.039
-172.939	-58.176	0.091	0.039
-171.925	-19.034	0.290	-0.178
-170.910	-78.508	0.312	-0.106
-169.896	-95.723	0.188	-0.050
-168.881	124.848	0.209	0.260
-167.866	-50.485	0.005	-0.002
-166.852	88.108	-0.196	0.215
-165.837	274.017	0.106	-0.185
-164.823	31.830	-0.121	0.103
-163.808	800.000	-0.061	-0.230
-162.793	169.162	0.229	-0.322
-161.779	-132.340	0.115	-0.015
-160.764	89.952	0.044	0.049
-159.750	800.000	0.036	0.120
-158.735	15.324	-0.251	0.194
-157.720	-200.000	0.014	0.253
-156.706	113.231	0.035	-0.042
-155.691	100.093	-0.046	0.053
-154.677	-24.493	0.287	-0.169
-153.662	50.609	0.096	0.090
-152.647	149.991	-0.284	-0.380
-151.633	207.234	0.103	-0.159
-150.618	-93.711	0.127	0.035
-149.604	800.000	-0.049	-0.176
-148.589	-52.301	-0.113	-0.052
-147.574	-200.000	0.075	0.333
-146.560	-200.000	0.044	-0.309
-145.545	-200.000	-0.001	0.335
-144.531	-80.809	0.234	0.077
-143.516	-200.000	0.006	0.172
-142.502	-200.000	0.444	-0.001
-141.487	-1.959	-0.035	0.024
-140.472	-200.000	0.048	0.240
-139.458	-93.530	0.274	0.075
-138.443	-106.882	-0.093	0.020
-137.429	132.805	-0.064	0.081
-136.414	94.151	0.039	-0.043
-135.399	65.138	0.155	0.155
-134.385	258.968	-0.092	-0.157
-133.370	800.000	0.103	-0.328
-132.356	92.102	0.162	-0.180
-131.341	27.152	0.105	-0.087
-130.326	325.945	0.182	0.343
-129.312	-151.557	-0.152	0.011
-128.297	-57.141	-0.593	-0.258
-127.283	-86.434	0.174	0.053
-126.268	-46.901	-0.277	-0.134
-125.253	-156.280	0.366	0.023
-124.239	-200.000	0.038	-0.329
-123.224	800.000	0.056	0.196
-122.210	346.564	-0.112	-0.217
-121.195	154.145	0.228	-0.309
-120.180	-200.000	0.020	-0.100
