DTS Sentinel unit serial number:	SN413079Multiplexer serial number:	ORYXHardware model number:	OX4-SRSoftware version number:	ORYX F/W v4.00 Oryx Data Collector v3.7.2.0data status	okinstallation	princeton_trtdifferential loss correction	single-endedforward channel	channel 1reverse channel	N/Adate	2019/09/12time	08:08:11forward acquisition time	60.00reverse acquisition time	0.00gamma	496.2192k internal	0.2313k external	0.2313temperature offset calibration	1.0046default loss term (dB/km)	0.3790temperature slope calibration	1.0000multiplexer offset coefficient	1.0000multiplexer slope coefficient	1.0000fibre end	0.00T internal ref (°C)	33.19T ext. ref 1 (°C)	1.67T ext. ref 2 (°C)	29.71length (m)	temperature (°C)	Stokes	anti-Stokes-747.200	126.925	-0.091	0.117
-746.185	-14.498	-0.199	0.130
-745.171	-200.000	0.084	0.000
-744.156	800.000	0.099	0.313
-743.142	-55.276	0.240	-0.109
-742.127	-111.657	-0.488	0.100
-741.112	800.000	0.090	-0.267
-740.098	-48.291	-0.143	0.070
-739.083	105.643	0.214	0.257
-738.069	729.599	0.012	-0.033
-737.054	-200.000	-0.033	0.324
-736.039	-71.592	-0.475	0.180
-735.025	-152.857	0.162	-0.012
-734.010	-34.491	-0.486	0.270
-732.996	-113.077	0.085	-0.017
-731.981	-48.100	-0.103	0.050
-730.966	-121.516	-0.280	0.047
-729.952	-200.000	0.000	0.378
-728.937	-39.342	0.405	-0.215
-727.923	-169.425	-0.249	0.009
-726.908	800.000	-0.069	0.271
-725.894	-94.116	0.144	-0.040
-724.879	-200.000	-0.030	0.214
-723.864	-22.010	-0.182	-0.112
-722.850	800.000	-0.090	-0.300
-721.835	-200.000	0.016	0.116
-720.821	0.639	0.109	-0.079
-719.806	-82.862	0.154	0.050
-718.791	-49.624	-0.123	-0.059
-717.777	292.554	0.147	-0.271
-716.762	-200.000	0.039	0.250
-715.748	350.949	-0.054	0.108
-714.733	800.000	-0.046	-0.135
-713.718	800.000	0.134	-0.389
-712.704	31.305	-0.194	-0.168
-711.689	800.000	0.060	-0.252
-710.675	158.079	-0.038	0.054
-709.660	-4.981	-0.230	-0.160
-708.645	200.026	-0.118	0.184
-707.631	-30.628	-0.153	0.088
-706.616	798.750	0.065	0.182
-705.602	800.000	-0.082	0.236
-704.587	-200.000	0.063	-0.433
-703.572	-11.626	-0.027	0.018
-702.558	-126.162	-0.191	0.029
-701.543	-200.000	-0.017	0.156
-700.529	478.772	-0.056	-0.128
-699.514	-200.000	0.002	0.103
-698.499	-35.452	-0.274	-0.151
-697.485	-183.078	-0.218	0.004
-696.470	7.096	0.164	0.124
-695.456	-39.362	-0.189	0.100
-694.441	102.492	-0.234	0.277
-693.426	-9.117	-0.114	-0.077
-692.412	-67.817	-0.105	0.042
-691.397	502.582	-0.092	-0.216
-690.383	474.088	-0.030	0.069
-689.368	-1.156	0.269	0.192
-688.354	-30.367	-0.221	0.127
-687.339	-38.963	0.171	0.091
-686.324	41.836	0.228	-0.209
-685.310	-176.806	0.148	-0.004
-684.295	-50.190	0.145	-0.070
-683.281	-200.000	0.007	-0.227
-682.266	-113.366	-0.217	0.043
-681.251	-81.924	-0.221	0.073
-680.237	-76.333	-0.201	-0.071
-679.222	157.169	-0.175	0.245
-678.208	-198.274	0.184	-0.001
-677.193	-20.065	0.191	0.119
-676.178	-139.299	-0.359	-0.039
-675.164	800.000	-0.108	-0.307
-674.149	800.000	0.052	-0.202
-673.135	-75.223	-0.301	0.109
-672.120	-200.000	-0.017	0.127
-671.105	-18.954	-0.199	-0.125
-670.091	800.000	-0.072	-0.232
-669.076	-200.000	0.019	-0.387
-668.062	-5.506	0.140	-0.097
-667.047	800.000	0.090	0.281
-666.032	800.000	0.086	-0.358
-665.018	-4.781	0.210	0.147
-664.003	13.900	0.165	-0.129
-662.989	202.562	-0.164	-0.257
-661.974	-72.688	-0.420	-0.157
-660.959	800.000	0.065	0.214
-659.945	-130.477	0.509	-0.070
-658.930	-42.557	-0.196	-0.101
-657.916	-67.806	0.232	-0.092
-656.901	-72.007	0.232	-0.087
-655.886	731.743	-0.058	-0.158
-654.872	-40.684	-0.258	0.135
-653.857	-6.170	-0.285	-0.197
-652.843	43.177	0.244	0.225
-651.828	366.018	0.037	-0.076
-650.814	800.000	0.026	0.092
-649.799	98.404	0.104	0.121
-648.784	-1.007	-0.317	-0.227
-647.770	43.607	-0.012	0.011
-646.755	-119.355	0.226	-0.040
-645.741	-55.245	-0.064	-0.029
-644.726	-200.000	0.046	-0.257
-643.711	800.000	-0.083	0.286
-642.697	107.759	-0.284	0.342
-641.682	10.580	0.293	0.225
-640.668	25.418	0.059	-0.049
-639.653	122.296	-0.200	-0.253
-638.638	-13.087	0.330	-0.216
-637.624	235.113	0.159	-0.266
-636.609	-32.077	-0.199	0.112
-635.595	137.499	0.106	-0.140
-634.580	-54.963	-0.441	0.201
-633.565	362.336	0.047	-0.095
-632.551	515.853	0.065	0.152
-631.536	-119.552	0.197	-0.034
-630.522	226.849	-0.097	-0.159
-629.507	304.205	-0.116	-0.216
-628.492	800.000	-0.061	-0.184
-627.478	38.366	-0.101	0.091
-626.463	-200.000	-0.003	0.229
-625.449	-170.037	-0.179	-0.006
-624.434	-130.999	-0.551	0.074
-623.419	26.521	-0.027	-0.023
-622.405	-200.000	-0.004	-0.185
-621.390	-200.000	0.017	-0.368
-620.376	400.821	-0.027	0.058
-619.361	-25.457	-0.170	0.102
-618.346	-12.794	-0.214	-0.141
-617.332	-10.885	-0.347	-0.232
-616.317	110.119	-0.185	-0.224
-615.303	-5.826	0.288	-0.199
-614.288	50.240	-0.045	-0.043
-613.273	-16.301	0.414	-0.265
-612.259	160.795	-0.082	0.115
-611.244	8.156	-0.276	0.209
-610.230	200.133	0.151	-0.234
-609.215	-157.347	0.143	0.009
-608.201	168.529	-0.117	0.168
-607.186	147.189	-0.095	0.128
-606.171	-125.526	0.165	-0.025
-605.157	249.209	-0.116	0.199
-604.142	456.601	-0.123	-0.275
-603.128	72.625	-0.082	0.086
-602.113	337.275	-0.045	-0.089
-601.098	-200.000	0.012	-0.147
-600.084	100.358	0.251	0.294
-599.069	215.865	-0.076	0.122
-598.055	-28.640	-0.168	0.098
-597.040	-71.008	0.285	-0.108
-596.025	-40.941	-0.069	0.036
-595.011	-200.000	-0.030	0.177
-593.996	-14.774	-0.140	0.091
-592.982	-200.000	0.095	0.616
-591.967	235.650	0.079	-0.132
-590.952	69.131	0.268	0.278
-589.938	360.905	0.207	0.418
-588.923	605.522	0.059	-0.148
-587.909	-62.175	-0.140	0.059
-586.894	-13.706	-0.175	0.114
-585.879	-141.250	-0.322	0.033
-584.865	-24.435	0.152	0.091
-583.850	800.000	0.057	-0.167
-582.836	-30.672	-0.222	0.126
-581.821	9.561	0.126	-0.096
-580.806	-28.019	0.069	0.040
-579.792	344.507	0.031	0.062
-578.777	73.920	0.256	0.270
-577.763	265.506	-0.109	-0.192
-576.748	-133.975	0.132	-0.017
-575.733	-147.647	0.066	0.006
-574.719	388.850	-0.145	-0.303
-573.704	-61.677	0.419	0.177
-572.690	800.000	-0.059	0.251
-571.675	-42.033	0.034	-0.018
-570.661	-134.284	0.242	0.030
-569.646	-53.102	-0.116	0.054
-568.631	-68.769	-0.477	0.186
-567.617	800.000	0.095	0.275
-566.602	-16.259	0.132	0.085
-565.588	-40.286	-0.209	-0.110
-564.573	-107.954	0.018	-0.004
-563.558	206.458	-0.180	-0.282
-562.544	800.000	-0.059	-0.195
-561.529	233.086	-0.167	-0.276
-560.515	-183.130	-0.340	0.006
-559.500	-86.625	-0.243	-0.075
-558.485	-19.480	0.149	-0.093
-557.471	-200.000	-0.097	0.567
-556.456	-200.000	0.007	0.051
-555.442	-187.956	0.178	-0.002
-554.427	-98.378	-0.192	-0.050
-553.412	204.966	0.134	-0.209
-552.398	-129.347	0.110	-0.015
-551.383	-19.884	-0.108	-0.067
-550.369	734.870	-0.151	-0.408
-549.354	-22.813	-0.209	0.127
-548.339	249.807	0.077	0.132
-547.325	615.883	0.085	-0.214
-546.310	-63.034	-0.319	-0.133
-545.296	726.119	-0.111	0.299
-544.281	-120.529	0.429	0.073
-543.266	142.071	-0.144	-0.192
-542.252	-200.000	-0.009	-0.079
-541.237	300.277	0.303	-0.562
-540.223	154.942	0.131	-0.181
-539.208	-2.174	-0.190	-0.134
-538.193	68.697	-0.175	-0.181
-537.179	-129.677	-0.079	-0.011
-536.164	-22.297	-0.158	0.096
-535.150	-63.880	0.280	0.115
-534.135	230.251	-0.033	-0.053
-533.121	23.018	0.275	-0.227
-532.106	-105.489	-0.233	0.053
-531.091	454.919	0.123	0.275
-530.077	182.562	0.125	-0.186
-529.062	-77.307	-0.224	0.078
-528.048	-62.536	0.076	-0.032
-527.033	-127.615	-0.134	0.020
-526.018	-58.105	0.336	-0.147
-525.004	-200.000	-0.029	-0.239
-523.989	-52.614	-0.099	-0.046
-522.975	-200.000	0.023	-0.363
-521.960	1.564	-0.264	0.191
-520.945	-80.583	0.064	0.022
-519.931	-200.000	0.023	-0.346
-518.916	-91.390	0.060	-0.017
-517.902	353.654	-0.181	0.362
-516.887	-131.382	-0.301	-0.040
-515.872	155.812	0.275	-0.382
-514.858	337.526	-0.063	0.123
-513.843	63.634	-0.101	-0.102
-512.829	35.301	-0.142	0.125
-511.814	-200.000	-0.035	0.207
-510.799	-75.105	0.220	0.079
-509.785	-63.723	-0.434	-0.179
-508.770	69.854	-0.126	-0.131
-507.756	131.629	0.152	-0.196
-506.741	649.271	-0.102	0.262
-505.726	46.584	0.040	0.037
-504.712	-200.000	0.042	0.216
-503.697	-122.222	0.005	-0.001
-502.683	-143.720	-0.174	-0.017
-501.668	327.939	0.039	0.076
-500.653	-81.043	-0.231	0.077
-499.639	146.873	-0.192	-0.259
-498.624	-200.000	0.030	-0.206
-497.610	41.340	-0.067	0.061
-496.595	350.287	-0.066	0.131
-495.581	-200.000	-0.003	0.081
-494.566	605.633	0.048	0.119
-493.551	-49.197	-0.172	-0.083
-492.537	727.612	0.109	-0.292
-491.522	-50.743	-0.207	0.098
-490.508	430.781	0.096	0.208
-489.493	-62.670	-0.062	-0.026
-488.478	-61.831	0.131	0.055
-487.464	-33.200	0.257	-0.143
-486.449	37.155	-0.280	-0.249
-485.435	328.985	-0.165	0.318
-484.420	-30.662	0.157	0.089
-483.405	184.551	-0.045	-0.068
-482.391	-39.822	-0.191	0.100
-481.376	-61.788	-0.056	-0.023
-480.362	-34.763	0.158	-0.087
-479.347	-57.270	0.131	0.058
-478.332	644.152	0.010	0.026
-477.318	11.935	-0.041	-0.032
-476.303	-7.185	0.269	-0.183
-475.289	-1.540	-0.210	0.148
-474.274	157.790	-0.183	0.255
-473.259	33.829	0.193	0.169
-472.245	800.000	-0.105	-0.298
-471.230	236.719	-0.169	-0.280
-470.216	122.287	-0.227	-0.285
-469.201	41.222	0.260	0.236
-468.186	-20.593	-0.162	-0.100
-467.172	-153.528	-0.378	0.026
-466.157	62.907	-0.128	0.128
-465.143	-82.315	-0.241	0.079
-464.128	69.454	-0.093	0.096
-463.113	7.213	-0.117	0.088
-462.099	25.685	0.177	-0.148
-461.084	-93.637	-0.201	0.056
-460.070	800.000	-0.108	0.302
-459.055	-200.000	-0.073	-0.351
-458.040	147.195	-0.157	-0.211
-457.026	436.866	0.092	-0.201
-456.011	-19.994	-0.226	-0.140
-454.997	-134.498	0.194	-0.024
-453.982	800.000	0.024	0.096
-452.968	89.211	0.155	-0.173
-451.953	-46.645	0.217	0.106
-450.938	229.834	-0.109	-0.179
-449.924	-37.796	0.155	0.082
-448.909	-166.775	-0.286	0.012
-447.895	800.000	-0.056	-0.237
-446.880	800.000	0.030	0.127
-445.865	145.952	-0.148	0.199
-444.851	224.333	-0.213	-0.345
-443.836	-120.768	0.057	-0.010
-442.822	-16.275	0.115	0.073
-441.807	-184.349	0.150	-0.002
-440.792	513.448	-0.071	0.167
-439.778	32.118	-0.150	0.130
-438.763	97.526	0.060	0.069
-437.749	525.963	0.074	0.175
-436.734	-200.000	0.022	-0.176
-435.719	-50.995	0.105	-0.049
-434.705	-200.000	0.019	-0.171
-433.690	69.718	-0.163	-0.168
-432.676	-168.745	0.179	0.007
-431.661	72.223	0.286	-0.298
-430.646	-53.322	0.043	-0.020
-429.632	84.908	-0.185	-0.203
-428.617	38.888	0.084	0.075
-427.603	-26.575	0.196	-0.115
-426.588	-32.467	-0.142	0.079
-425.573	226.831	-0.090	0.146
-424.559	142.617	-0.150	0.200
-423.544	582.078	-0.041	-0.101
-422.530	-110.008	-0.246	-0.052
-421.515	22.472	0.056	-0.046
-420.500	303.382	-0.010	-0.019
-419.486	-200.000	-0.009	-0.066
-418.471	-171.372	0.289	-0.010
-417.457	46.258	0.063	-0.058
-416.442	-30.500	-0.238	0.135
-415.428	661.973	0.103	0.265
-414.413	405.779	0.035	-0.074
-413.398	-35.020	0.037	0.020
-412.384	346.113	0.193	0.380
-411.369	-76.902	0.143	0.050
-410.355	-69.402	-0.096	-0.037
-409.340	-28.196	0.139	-0.081
-408.325	-73.062	0.297	-0.109
-407.311	-95.554	-0.178	0.048
-406.296	79.715	-0.161	0.173
-405.282	-82.752	-0.492	0.159
-404.267	-169.335	-0.124	0.005
-403.252	-136.538	-0.142	-0.016
-402.238	134.447	0.229	0.298
-401.223	-200.000	0.009	-0.239
-400.209	-190.413	-0.051	0.001
-399.194	179.275	-0.015	-0.022
-398.179	-200.000	-0.001	-0.277
-397.165	-59.372	0.275	-0.118
-396.150	-124.529	-0.301	-0.047
-395.136	569.974	0.079	0.192
-394.121	105.660	0.260	0.307
-393.106	552.168	0.085	-0.205
-392.092	116.923	0.208	-0.255
-391.077	-75.235	0.359	-0.128
-390.063	727.321	-0.158	0.423
-389.048	400.446	-0.099	0.209
-388.033	207.896	0.142	-0.222
-387.019	-105.134	-0.100	0.023
-386.004	-157.190	-0.057	-0.003
-384.990	277.018	-0.112	-0.199
-383.975	-15.266	0.117	0.075
-382.960	90.573	0.162	0.181
-381.946	800.000	0.039	-0.158
-380.931	-200.000	-0.014	0.129
-379.917	-87.246	-0.203	0.062
-378.902	112.533	0.173	0.210
-377.888	327.666	0.120	0.230
-376.873	-120.609	-0.056	-0.009
-375.858	800.000	0.117	-0.370
-374.844	369.446	-0.119	-0.241
-373.829	105.037	0.151	-0.178
-372.815	-200.000	0.007	0.285
-371.800	-140.751	-0.405	-0.042
-370.785	45.591	-0.088	0.081
-369.771	0.783	-0.283	-0.202
-368.756	-70.382	-0.441	0.167
-367.742	43.649	0.226	-0.207
-366.727	-49.319	0.145	-0.069
-365.712	308.395	-0.049	0.091
-364.698	-82.318	-0.450	-0.146
-363.683	800.000	-0.070	-0.224
-362.669	18.652	0.402	-0.321
-361.654	-200.000	0.022	-0.253
-360.639	59.095	0.065	-0.064
-359.625	-200.000	0.006	0.178
-358.610	26.883	-0.076	-0.064
-357.596	28.231	0.181	-0.153
-356.581	104.995	0.235	0.277
-355.566	-73.508	0.342	0.125
-354.552	-81.091	-0.219	-0.072
-353.537	-44.369	0.219	0.110
-352.523	-77.437	-0.271	0.094
-351.508	-200.000	0.049	-0.487
-350.493	286.051	0.079	-0.142
-349.479	411.423	-0.070	-0.148
-348.464	-70.048	0.281	-0.107
-347.450	-107.264	0.120	0.026
-346.435	-200.000	-0.001	0.026
-345.420	-200.000	0.071	0.313
-344.406	-200.000	-0.031	-0.445
-343.391	-14.646	-0.270	0.173
-342.377	-101.591	-0.380	0.092
-341.362	-124.399	0.259	0.040
-340.348	302.553	0.118	-0.218
-339.333	-200.000	0.028	-0.323
-338.318	437.232	-0.060	0.130
-337.304	-137.646	-0.202	0.023
-336.289	-115.282	0.279	0.053
-335.275	-2.197	-0.143	0.100
-334.260	110.440	0.213	-0.255
-333.245	-38.329	0.132	-0.070
-332.231	340.852	-0.113	-0.221
-331.216	712.426	0.132	-0.350
-330.202	136.259	0.121	-0.157
-329.187	-16.752	0.207	-0.131
-328.172	-165.756	-0.075	-0.003
-327.158	-48.928	-0.141	0.067
-326.143	156.047	0.126	0.173
-325.129	800.000	0.011	-0.045
-324.114	-200.000	0.009	0.153
-323.099	-9.485	0.225	0.150
-322.085	-47.395	0.420	0.204
-321.070	31.613	-0.072	-0.062
-320.056	-200.000	0.031	-0.415
-319.041	-147.610	-0.062	-0.005
-318.026	-5.261	-0.064	0.044
-317.012	-200.000	0.082	0.377
-315.997	67.439	-0.302	0.307
-314.983	-88.148	0.116	0.035
-313.968	-5.353	0.072	0.050
-312.953	-104.007	0.222	-0.052
-311.939	84.912	-0.075	-0.082
-310.924	-6.277	-0.346	0.236
-309.910	-133.672	-0.225	-0.028
-308.895	-200.000	0.022	0.127
-307.880	636.994	0.068	-0.173
-306.866	84.683	-0.085	-0.092
-305.851	800.000	0.126	0.358
-304.837	800.000	0.002	-0.009
-303.822	-164.596	-0.182	0.008
-302.807	-200.000	0.031	-0.209
-301.793	-32.576	-0.114	-0.063
-300.778	34.740	-0.171	-0.149
-299.764	-87.398	0.217	0.065
-298.749	594.913	-0.042	-0.105
-297.735	800.000	0.082	0.282
-296.720	67.930	-0.059	0.060
-295.705	-2.127	0.151	-0.105
-294.691	454.162	0.076	-0.167
-293.676	-200.000	-0.013	0.076
-292.662	-11.762	0.040	-0.026
-291.647	-118.947	0.219	-0.038
-290.632	-7.486	0.204	0.137
-289.618	478.283	-0.038	-0.085
-288.603	800.000	0.021	0.092
-287.589	167.499	-0.110	0.156
-286.574	-5.495	0.182	0.125
-285.559	695.150	0.137	-0.359
-284.545	428.221	0.099	-0.212
-283.530	223.692	0.171	-0.275
-282.516	-135.719	-0.296	-0.035
-281.501	59.618	0.242	0.238
-280.486	-200.000	-0.098	-0.540
-279.472	326.737	-0.096	0.183
-278.457	604.775	0.117	-0.289
-277.443	-82.397	0.220	-0.071
-276.428	-200.000	0.046	0.398
-275.413	207.692	-0.054	0.085
-274.399	546.593	0.121	-0.289
-273.384	-200.000	0.012	-0.055
-272.370	-200.000	0.039	0.189
-271.355	-115.266	0.346	-0.065
-270.340	25.242	-0.204	0.168
-269.326	-144.341	-0.167	0.015
-268.311	-52.606	-0.265	-0.122
-267.297	-200.000	0.049	-0.275
-266.282	-200.000	0.078	0.425
-265.267	-35.756	-0.300	-0.162
-264.253	2.730	-0.289	-0.208
-263.238	600.179	-0.074	-0.182
-262.224	153.982	0.192	0.262
-261.209	583.202	0.058	0.142
-260.195	-101.600	-0.161	0.039
-259.180	-89.041	0.186	0.055
-258.165	679.401	0.064	-0.165
-257.151	279.747	0.058	-0.102
-256.136	800.000	-0.096	-0.324
-255.122	100.982	0.102	-0.118
-254.107	159.490	-0.214	0.296
-253.092	118.421	0.198	-0.243
-252.078	-155.001	-0.113	0.007
-251.063	94.791	0.234	0.265
-250.049	178.742	0.073	0.106
-249.034	-200.000	-0.054	0.257
-248.019	72.376	0.068	0.071
-247.005	800.000	-0.047	0.155
-245.990	-175.161	0.260	-0.007
-244.976	-200.000	-0.005	-0.090
-243.961	613.843	-0.153	-0.382
-242.946	-154.392	-0.084	-0.006
-241.932	415.403	0.084	0.179
-240.917	1.270	0.190	-0.136
-239.903	-57.149	-0.201	0.088
-238.888	66.129	-0.218	0.220
-237.873	308.847	-0.207	-0.384
-236.859	800.000	0.034	0.110
-235.844	351.148	-0.093	0.183
-234.830	-43.464	-0.202	0.101
-233.815	-149.406	0.079	-0.006
-232.800	124.215	0.203	0.253
-231.786	57.807	0.077	0.075
-230.771	268.761	0.197	0.344
-229.757	800.000	-0.055	0.167
-228.742	793.696	0.112	0.305
-227.727	-91.138	0.398	-0.113
-226.713	114.456	0.086	0.104
-225.698	-200.000	0.011	-0.070
-224.684	-200.000	-0.007	-0.293
-223.669	-20.639	-0.252	-0.154
-222.655	-10.736	-0.164	0.108
-221.640	56.375	0.409	0.395
-220.625	-200.000	0.012	-0.136
-219.611	100.891	0.135	0.156
-218.596	-135.530	-0.060	-0.007
-217.582	-200.000	-0.086	0.425
-216.567	104.304	0.067	0.078
-215.552	-151.472	0.219	0.016
-214.538	65.585	-0.121	-0.121
-213.523	595.449	0.102	0.250
-212.509	-28.308	0.177	-0.102
-211.494	-200.000	-0.018	0.300
-210.479	-161.723	-0.330	-0.017
-209.465	-155.971	-0.209	0.013
-208.450	-52.266	-0.219	0.101
-207.436	-200.000	-0.016	0.227
-206.421	65.240	-0.138	-0.139
-205.406	-13.343	-0.160	-0.103
-204.392	217.401	-0.025	-0.039
-203.377	68.108	0.248	-0.252
-202.363	-200.000	0.007	-0.231
-201.348	48.645	0.114	0.106
-200.333	-200.000	-0.020	-0.090
-199.319	87.249	0.027	0.030
-198.304	-200.000	-0.018	0.410
-197.290	-56.295	0.167	-0.074
-196.275	-157.342	-0.217	-0.013
-195.260	-71.662	0.479	-0.177
-194.246	-200.000	0.027	-0.128
-193.231	-200.000	0.014	0.346
-192.217	52.874	0.280	0.266
-191.202	-111.928	-0.284	0.057
-190.187	-145.554	0.246	-0.022
-189.173	514.089	-0.081	0.188
-188.158	-64.357	0.240	0.097
-187.144	74.176	-0.136	-0.141
-186.129	-124.425	-0.025	-0.004
-185.114	800.000	0.031	0.097
-184.100	-200.000	-0.023	0.245
-183.085	-200.000	0.037	0.178
-182.071	87.595	-0.034	0.037
-181.056	172.101	-0.145	-0.207
-180.042	135.826	0.275	0.355
-179.027	800.000	-0.024	-0.096
-178.012	-25.959	0.179	0.105
-176.998	-81.537	-0.050	-0.016
-175.983	800.000	-0.030	0.089
-174.969	83.580	0.162	0.175
-173.954	-112.237	-0.105	-0.021
-172.939	800.000	0.008	0.027
-171.925	-200.000	-0.023	-0.206
-170.910	800.000	0.021	0.060
-169.896	-8.880	-0.087	0.058
-168.881	-160.338	0.268	-0.014
-167.866	78.726	0.128	0.136
-166.852	-105.719	-0.194	-0.043
-165.837	688.513	0.043	-0.111
-164.823	-52.545	0.221	-0.101
-163.808	-97.913	0.329	0.084
-162.793	800.000	-0.072	0.204
-161.779	-87.996	0.201	0.060
-160.764	341.930	0.169	0.328
-159.750	17.515	0.235	-0.185
-158.735	-41.710	0.088	-0.045
-157.720	-200.000	0.100	0.438
-156.706	-174.952	-0.114	-0.003
-155.691	47.414	0.147	-0.135
-154.677	602.217	-0.024	-0.059
-153.662	800.000	0.062	0.233
-152.647	-40.358	0.184	0.095
-151.633	215.252	0.108	0.169
-150.618	-74.336	-0.275	0.098
-149.604	35.416	0.171	-0.149
-148.589	-112.583	-0.319	0.063
-147.574	11.588	-0.119	0.090
-146.560	105.164	-0.188	-0.220
-145.545	-200.000	-0.003	-0.072
-144.531	-116.770	-0.162	0.029
-143.516	-200.000	0.056	-0.349
-142.502	324.409	0.205	-0.389
-141.487	-152.277	0.091	-0.006
-140.472	-200.000	-0.036	-0.184
-139.458	25.549	-0.082	-0.068
-138.443	697.886	0.021	0.056
-137.429	-200.000	0.009	-0.159
-136.414	10.506	0.264	-0.199
-135.399	-34.836	-0.166	-0.090
-134.385	246.828	0.137	0.229
-133.370	60.891	-0.119	-0.117
-132.356	327.532	-0.044	-0.083
-131.341	-121.656	0.094	-0.015
-130.326	14.635	-0.300	0.232
-129.312	-200.000	-0.010	0.218
-128.297	-83.046	-0.087	-0.028
-127.283	-98.378	0.149	-0.038
-126.268	383.153	0.060	0.123
-125.253	-200.000	0.028	-0.391
-124.239	73.115	-0.341	0.353
-123.224	526.040	-0.026	0.061
-122.210	234.360	-0.151	0.247
-121.195	19.276	0.132	0.105
