DTS Sentinel unit serial number:	SN413079Multiplexer serial number:	ORYXHardware model number:	OX4-SRSoftware version number:	ORYX F/W v4.00 Oryx Data Collector v3.7.2.0data status	okinstallation	princeton_trtdifferential loss correction	single-endedforward channel	channel 1reverse channel	N/Adate	2019/09/15time	05:18:35forward acquisition time	60.00reverse acquisition time	0.00gamma	496.2192k internal	0.2325k external	0.2325temperature offset calibration	0.9995default loss term (dB/km)	0.3790temperature slope calibration	1.0000multiplexer offset coefficient	1.0000multiplexer slope coefficient	1.0000fibre end	0.00T internal ref (°C)	30.59T ext. ref 1 (°C)	4.79T ext. ref 2 (°C)	25.53length (m)	temperature (°C)	Stokes	anti-Stokes-747.200	-200.000	0.062	-0.353
-746.185	10.540	0.262	0.202
-745.171	-125.693	0.081	-0.012
-744.156	204.977	-0.131	0.206
-743.142	-200.000	-0.035	0.167
-742.127	-200.000	0.000	0.175
-741.112	-41.156	-0.210	0.110
-740.098	27.993	-0.267	0.227
-739.083	-118.403	0.231	-0.041
-738.069	248.712	0.167	0.286
-737.054	-27.959	-0.200	-0.117
-736.039	120.817	-0.289	0.362
-735.025	-69.250	-0.022	-0.008
-734.010	-114.407	-0.337	-0.065
-732.996	-200.000	0.004	-0.361
-731.981	-86.037	-0.114	-0.035
-730.966	-75.471	-0.158	0.057
-729.952	-18.865	-0.366	-0.230
-728.937	-147.874	-0.123	-0.010
-727.923	-111.286	-0.538	-0.111
-726.908	-200.000	0.067	0.410
-725.894	-161.204	0.285	0.015
-724.879	-165.531	-0.371	-0.016
-723.864	-51.036	-0.213	-0.101
-722.850	1.691	0.201	-0.146
-721.835	800.000	0.074	-0.212
-720.821	14.258	0.296	0.232
-719.806	800.000	-0.036	-0.158
-718.791	-13.803	0.059	0.038
-717.777	-68.812	0.156	0.061
-716.762	-97.562	-0.259	-0.068
-715.748	751.799	0.045	-0.121
-714.733	214.739	-0.138	0.220
-713.718	157.769	0.100	-0.139
-712.704	800.000	0.010	-0.042
-711.689	-157.887	0.271	0.016
-710.675	-200.000	-0.022	-0.253
-709.660	314.754	-0.017	-0.031
-708.645	-200.000	-0.040	-0.283
-707.631	-128.865	0.247	0.035
-706.616	65.254	-0.120	-0.122
-705.602	23.068	0.243	-0.201
-704.587	39.251	-0.128	-0.115
-703.572	-121.259	-0.186	-0.031
-702.558	800.000	-0.077	-0.281
-701.543	800.000	0.075	-0.254
-700.529	124.250	0.179	0.227
-699.514	-200.000	-0.018	0.571
-698.499	-44.416	0.211	-0.106
-697.485	290.228	0.227	-0.415
-696.470	-35.138	0.029	-0.016
-695.456	68.569	-0.178	0.184
-694.441	56.178	0.144	0.141
-693.426	-73.279	-0.222	-0.082
-692.412	800.000	-0.196	-0.563
-691.397	-104.689	-0.154	0.036
-690.383	-200.000	-0.062	-0.762
-689.368	-200.000	0.010	0.106
-688.354	433.074	0.087	-0.191
-687.339	-157.129	-0.259	0.016
-686.324	-8.467	0.199	-0.134
-685.310	107.922	-0.069	-0.083
-684.295	-200.000	0.007	-0.418
-683.281	-2.746	0.444	-0.313
-682.266	-82.976	-0.108	0.035
-681.251	800.000	0.066	0.230
-680.237	-200.000	-0.001	-0.300
-679.222	-157.722	0.198	-0.012
-678.208	-117.466	0.213	-0.039
-677.193	-28.300	-0.210	0.122
-676.178	7.242	-0.111	0.083
-675.164	27.764	0.105	0.089
-674.149	-65.552	0.061	-0.025
-673.135	9.336	-0.261	-0.198
-672.120	800.000	0.079	0.302
-671.105	-136.628	0.117	0.014
-670.091	-79.597	0.142	-0.048
-669.076	-29.890	0.223	-0.128
-668.062	-50.988	-0.108	0.051
-667.047	800.000	-0.049	0.205
-666.032	-86.065	-0.050	0.016
-665.018	-103.444	-0.247	-0.059
-664.003	-115.477	-0.232	0.044
-662.989	0.056	-0.120	0.086
-661.974	181.025	0.048	0.071
-660.959	800.000	-0.041	0.147
-659.945	-147.762	0.148	0.012
-658.930	-133.981	0.181	0.023
-657.916	-200.000	0.010	-0.132
-656.901	-127.611	0.237	0.035
-655.886	-191.852	-0.154	0.002
-654.872	42.164	0.060	-0.054
-653.857	216.278	0.083	-0.133
-652.843	-7.508	-0.043	-0.029
-651.828	-156.635	-0.160	0.010
-650.814	19.218	0.076	-0.061
-649.799	800.000	0.070	0.260
-648.784	122.773	-0.110	0.139
-647.770	13.479	-0.019	-0.015
-646.755	179.583	-0.091	-0.135
-645.741	196.781	0.046	-0.071
-644.726	373.477	0.130	0.266
-643.711	40.796	-0.194	-0.176
-642.697	-38.183	0.262	-0.140
-641.682	800.000	0.036	0.135
-640.668	-6.634	-0.161	0.110
-639.653	-106.996	-0.307	-0.068
-638.638	277.335	-0.162	-0.289
-637.624	-77.757	0.204	0.071
-636.609	-68.976	-0.608	-0.236
-635.595	-30.802	-0.169	-0.096
-634.580	-118.182	-0.235	-0.042
-633.565	-81.500	0.144	-0.047
-632.551	341.572	-0.113	0.222
-631.536	800.000	0.041	0.144
-630.522	92.881	-0.084	-0.095
-629.507	527.825	-0.076	0.179
-628.492	-68.324	-0.225	0.088
-627.478	-200.000	-0.034	-0.153
-626.463	695.450	0.118	-0.310
-625.449	25.923	0.067	-0.056
-624.434	-176.049	-0.425	-0.011
-623.419	-200.000	0.031	-0.230
-622.405	-200.000	0.014	-0.278
-621.390	159.206	-0.077	0.108
-620.376	196.759	0.047	0.072
-619.361	-200.000	-0.012	-0.220
-618.346	-16.379	0.004	-0.003
-617.332	234.969	-0.154	0.256
-616.317	60.344	-0.119	-0.118
-615.303	335.974	-0.049	-0.096
-614.288	-91.043	-0.049	-0.014
-613.273	-78.479	-0.259	-0.089
-612.259	678.064	0.040	0.104
-611.244	-157.170	-0.132	0.008
-610.230	72.193	-0.075	-0.078
-609.215	-200.000	-0.036	-0.213
-608.201	-62.927	-0.271	0.113
-607.186	-200.000	0.020	-0.114
-606.171	-138.697	-0.231	0.025
-605.157	-200.000	-0.067	0.317
-604.142	-105.998	-0.249	0.056
-603.128	-26.313	-0.042	0.025
-602.113	800.000	0.078	0.240
-601.098	800.000	-0.081	-0.237
-600.084	-41.456	0.059	0.030
-599.069	-200.000	-0.005	-0.136
-598.055	-156.667	0.213	-0.013
-597.040	-41.859	-0.339	-0.174
-596.025	-200.000	-0.041	-0.378
-595.011	297.567	0.114	-0.211
-593.996	-200.000	-0.073	0.357
-592.982	423.099	-0.074	0.159
-591.967	-15.175	-0.044	0.028
-590.952	-68.920	-0.310	-0.120
-589.938	42.548	0.032	0.029
-588.923	-200.000	0.006	0.065
-587.909	800.000	0.155	-0.463
-586.894	-200.000	-0.001	-0.185
-585.879	-17.219	-0.151	-0.095
-584.865	-200.000	0.006	-0.200
-583.850	23.039	-0.095	0.078
-582.836	185.023	0.073	0.108
-581.821	442.812	-0.045	0.099
-580.806	51.694	-0.108	-0.103
-579.792	522.302	0.082	0.193
-578.777	-200.000	-0.013	0.169
-577.763	-132.172	0.559	0.073
-576.748	346.672	-0.108	0.214
-575.733	-24.477	-0.362	0.216
-574.719	800.000	0.084	-0.349
-573.704	225.787	0.032	0.053
-572.690	56.001	0.134	-0.130
-571.675	322.318	0.185	-0.353
-570.661	38.855	0.317	-0.284
-569.646	36.409	0.124	0.110
-568.631	-83.571	0.077	0.025
-567.617	-9.312	0.120	0.081
-566.602	-200.000	0.050	-0.403
-565.588	67.270	-0.059	0.060
-564.573	340.441	0.155	-0.304
-563.558	-32.032	-0.026	0.015
-562.544	-10.445	-0.085	0.056
-561.529	-200.000	-0.014	-0.171
-560.515	800.000	-0.053	0.194
-559.500	774.940	-0.053	0.145
-558.485	-116.046	-0.138	-0.026
-557.471	-127.513	0.144	0.021
-556.456	-108.639	-0.322	-0.069
-555.442	-8.198	0.354	-0.239
-554.427	108.816	0.140	0.167
-553.412	800.000	-0.083	0.364
-552.398	215.181	0.194	0.308
-551.383	207.634	0.119	-0.186
-550.369	-148.205	0.229	-0.019
-549.354	-12.757	-0.112	0.073
-548.339	56.016	0.225	-0.218
-547.325	129.624	-0.105	0.134
-546.310	703.949	-0.045	0.118
-545.296	-131.087	-0.298	-0.040
-544.281	-92.428	0.150	0.042
-543.266	-35.477	-0.367	-0.200
-542.252	263.254	0.067	-0.117
-541.237	-200.000	-0.014	-0.120
-540.223	59.459	-0.004	0.004
-539.208	417.709	0.129	0.275
-538.193	-15.910	0.139	0.089
-537.179	108.474	0.093	-0.111
-536.164	27.801	-0.045	-0.038
-535.150	77.280	-0.117	-0.125
-534.135	-98.925	0.266	-0.068
-533.121	108.047	-0.037	0.044
-532.106	255.682	-0.078	0.134
-531.091	800.000	-0.089	-0.246
-530.077	-40.445	0.063	0.033
-529.062	-34.452	-0.213	-0.117
-528.048	603.509	-0.143	0.356
-527.033	-14.695	-0.446	0.287
-526.018	-54.625	0.156	-0.071
-525.004	-190.612	0.264	-0.003
-523.989	-166.629	0.060	-0.002
-522.975	395.588	-0.042	0.087
-521.960	81.645	-0.187	0.202
-520.945	-200.000	-0.011	-0.184
-519.931	-164.978	0.027	0.001
-518.916	35.157	0.136	0.119
-517.902	-71.446	-0.096	0.036
-516.887	-118.621	-0.221	-0.039
-515.872	467.803	0.077	-0.174
-514.858	-86.498	0.313	-0.096
-513.843	-44.461	0.197	-0.099
-512.829	145.863	-0.246	0.329
-511.814	380.324	0.054	0.110
-510.799	-79.718	0.199	-0.067
-509.785	258.984	-0.166	-0.286
-508.770	-87.644	-0.072	-0.022
-507.756	364.210	-0.102	-0.206
-506.741	-83.611	-0.115	-0.037
-505.726	-200.000	0.004	-0.034
-504.712	-143.645	0.158	0.015
-503.697	52.107	0.146	-0.140
-502.683	116.649	0.293	-0.359
-501.668	-95.688	-0.122	0.033
-500.653	3.717	-0.158	0.115
-499.639	800.000	-0.113	0.321
-498.624	696.685	0.090	0.237
-497.610	-35.439	0.212	-0.115
-496.595	154.617	-0.231	-0.318
-495.581	-139.996	-0.070	-0.007
-494.566	196.660	-0.005	-0.008
-493.551	-150.291	-0.055	-0.004
-492.537	-132.008	-0.452	-0.059
-491.522	510.646	-0.150	-0.349
-490.508	160.716	0.133	0.186
-489.493	-200.000	-0.075	0.484
-488.478	-200.000	-0.013	-0.191
-487.464	-68.397	-0.231	0.090
-486.449	800.000	0.080	0.233
-485.435	-105.152	-0.419	-0.096
-484.420	-200.000	-0.028	-0.147
-483.405	178.479	0.158	-0.231
-482.391	-89.718	-0.178	0.052
-481.376	-91.636	0.089	0.025
-480.362	6.374	-0.277	0.205
-479.347	33.645	-0.327	0.284
-478.332	-5.525	0.175	-0.120
-477.318	-112.308	-0.182	-0.036
-476.303	-2.292	-0.370	0.260
-475.289	-135.351	0.190	-0.023
-474.274	-132.721	0.057	0.007
-473.259	-82.299	0.243	-0.079
-472.245	800.000	-0.009	-0.028
-471.230	337.280	0.043	-0.083
-470.216	3.253	-0.065	0.047
-469.201	-146.894	0.174	-0.015
-468.186	-147.941	-0.380	0.032
-467.172	-43.251	-0.213	-0.108
-466.157	-200.000	-0.093	0.521
-465.143	800.000	0.028	0.115
-464.128	-155.166	-0.121	-0.008
-463.113	60.117	0.119	-0.118
-462.099	-200.000	0.023	-0.185
-461.084	169.649	0.150	0.215
-460.070	-42.857	-0.060	0.030
-459.055	145.828	-0.059	-0.078
-458.040	-53.818	0.309	-0.141
-457.026	-6.356	-0.191	-0.130
-456.011	-39.746	-0.205	-0.107
-454.997	-36.694	-0.355	0.190
-453.982	398.140	0.024	-0.051
-452.968	77.275	0.298	-0.316
-451.953	-16.752	-0.360	0.227
-450.938	-46.495	-0.143	0.070
-449.924	-200.000	0.008	-0.134
-448.909	84.707	-0.232	-0.253
-447.895	800.000	0.074	-0.216
-446.880	648.246	0.015	0.037
-445.865	800.000	-0.023	-0.069
-444.851	324.843	-0.144	0.274
-443.836	-118.196	-0.133	-0.024
-442.822	-200.000	-0.081	0.397
-441.807	-74.955	0.383	0.137
-440.792	73.211	-0.251	0.262
-439.778	-200.000	-0.037	0.280
-438.763	800.000	0.020	-0.082
-437.749	420.826	0.037	-0.080
-436.734	-200.000	-0.107	0.514
-435.719	460.415	-0.044	-0.098
-434.705	3.794	-0.141	-0.103
-433.690	8.969	-0.140	0.106
-432.676	361.249	-0.097	-0.193
-431.661	85.002	-0.134	-0.147
-430.646	-106.369	0.199	-0.044
-429.632	-200.000	-0.017	0.187
-428.617	94.707	-0.142	0.161
-427.603	-39.738	-0.309	-0.161
-426.588	112.408	-0.096	0.116
-425.573	-194.761	-0.135	-0.001
-424.559	-61.174	0.233	0.098
-423.544	-100.100	0.045	0.011
-422.530	-85.337	-0.100	-0.031
-421.515	-200.000	-0.030	0.389
-420.500	-200.000	0.032	-0.140
-419.486	-39.615	0.203	0.106
-418.471	-200.000	-0.021	0.205
-417.457	-48.714	0.059	0.028
-416.442	-200.000	-0.040	0.214
-415.428	800.000	-0.074	-0.290
-414.413	734.013	-0.045	0.121
-413.398	-200.000	-0.033	-0.434
-412.384	-200.000	0.055	-0.349
-411.369	154.481	-0.090	-0.123
-410.355	150.731	-0.035	0.048
-409.340	442.154	-0.125	-0.273
-408.325	279.649	-0.051	0.090
-407.311	800.000	0.160	-0.524
-406.296	-56.855	-0.485	-0.214
-405.282	-53.309	0.212	-0.097
-404.267	-85.613	-0.214	-0.066
-403.252	-172.037	0.023	-0.001
-402.238	101.504	-0.191	-0.222
-401.223	309.010	0.118	-0.219
-400.209	364.671	0.183	-0.366
-399.194	-88.716	-0.124	0.037
-398.179	-155.286	0.142	-0.009
-397.165	-200.000	0.022	0.130
-396.150	-142.928	0.326	0.032
-395.136	3.481	0.119	0.087
-394.121	-46.776	0.080	-0.039
-393.106	800.000	0.070	0.290
-392.092	30.305	-0.142	-0.121
-391.077	-200.000	0.052	0.477
-390.063	-157.903	-0.186	-0.011
-389.048	-32.446	0.165	0.091
-388.033	642.199	0.040	-0.101
-387.019	57.524	-0.124	-0.121
-386.004	-176.561	0.086	-0.002
-384.990	105.226	-0.190	0.223
-383.975	175.104	0.013	0.018
-382.960	800.000	-0.058	0.166
-381.946	4.239	-0.405	-0.295
-380.931	127.461	0.382	0.482
-379.917	122.726	-0.117	0.146
-378.902	14.875	-0.239	-0.186
-377.888	158.668	0.334	-0.462
-376.873	800.000	-0.088	0.336
-375.858	800.000	0.106	0.410
-374.844	-147.753	-0.255	0.021
-373.829	395.192	-0.120	0.249
-372.815	126.103	0.170	0.213
-371.800	-87.603	-0.346	0.104
-370.785	-78.861	0.284	0.096
-369.771	14.519	0.253	0.197
-368.756	-158.307	-0.082	-0.005
-367.742	-200.000	-0.064	0.328
-366.727	-155.055	0.405	-0.026
-365.712	-200.000	-0.043	-0.208
-364.698	-44.358	-0.074	-0.037
-363.683	-200.000	-0.062	0.273
-362.669	-3.387	0.103	0.071
-361.654	-55.230	-0.078	0.035
-360.639	511.400	0.070	0.162
-359.625	-65.482	-0.088	-0.035
-358.610	-200.000	0.012	0.171
-357.596	22.824	-0.304	-0.248
-356.581	-9.103	0.135	-0.090
-355.566	-15.423	-0.134	-0.085
-354.552	-71.142	0.095	0.035
-353.537	-4.120	-0.164	-0.113
-352.523	-200.000	0.027	0.226
-351.508	0.226	-0.249	0.176
-350.493	800.000	0.101	-0.418
-349.479	62.982	0.251	-0.250
-348.464	-200.000	-0.018	-0.080
-347.450	34.596	-0.179	0.156
-346.435	24.563	0.133	0.109
-345.420	-200.000	0.037	0.300
-344.406	-27.030	0.244	-0.142
-343.391	-146.299	0.252	-0.022
-342.377	-12.170	-0.066	-0.043
-341.362	50.558	0.240	0.225
-340.348	-110.320	0.244	-0.050
-339.333	168.131	0.166	-0.235
-338.318	-135.654	-0.214	-0.025
-337.304	-200.000	0.005	0.229
-336.289	-56.548	-0.087	-0.038
-335.275	-200.000	-0.007	0.353
-334.260	-200.000	0.025	0.273
-333.245	-200.000	-0.048	0.336
-332.231	5.031	0.067	-0.049
-331.216	430.036	-0.127	0.273
-330.202	-120.170	0.237	-0.040
-329.187	-200.000	0.032	0.166
-328.172	-21.477	0.199	0.120
-327.158	142.913	-0.091	0.120
-326.143	-84.377	0.248	0.078
-325.129	-50.932	0.211	-0.099
-324.114	-28.840	-0.111	-0.064
-323.099	305.282	-0.071	0.132
-322.085	23.085	0.214	0.174
-321.070	-25.568	0.082	-0.048
-320.056	12.081	0.080	0.061
-319.041	-200.000	-0.032	0.478
-318.026	-200.000	-0.038	0.438
-317.012	243.299	-0.053	-0.088
-315.997	31.682	-0.177	0.151
-314.983	-73.640	0.320	0.116
-313.968	-200.000	0.012	-0.126
-312.953	-151.784	0.563	0.041
-311.939	-57.076	-0.184	0.081
-310.924	83.833	0.098	0.106
-309.910	-200.000	0.050	-0.627
-308.895	-60.879	0.298	0.125
-307.880	124.256	-0.146	0.182
-306.866	115.865	0.205	0.248
-305.851	-200.000	-0.038	0.334
-304.837	-121.783	-0.146	-0.024
-303.822	-38.321	-0.275	0.144
-302.807	53.413	0.071	0.067
-301.793	3.290	-0.291	0.210
-300.778	-60.891	0.292	0.122
-299.764	800.000	-0.045	0.138
-298.749	-64.764	0.336	0.135
-297.735	-85.049	-0.146	-0.045
-296.720	458.119	0.044	0.098
-295.705	-31.962	-0.054	-0.030
-294.691	-200.000	-0.045	-0.456
-293.676	-200.000	-0.057	-0.369
-292.662	321.035	0.047	-0.088
-291.647	144.294	0.072	0.095
-290.632	-200.000	-0.014	0.105
-289.618	48.551	0.070	-0.065
-288.603	89.527	0.182	0.201
-287.589	508.050	0.108	-0.248
-286.574	800.000	0.088	-0.331
-285.559	495.974	0.080	0.183
-284.545	-200.000	-0.015	0.192
-283.530	-200.000	-0.006	-0.322
-282.516	-125.471	-0.267	-0.040
-281.501	-26.583	0.327	-0.190
-280.486	-42.834	0.045	-0.023
-279.472	626.291	-0.070	0.176
-278.457	-52.705	0.238	0.109
-277.443	-132.682	0.403	0.051
-276.428	-149.599	-0.114	-0.009
-275.413	423.643	-0.056	-0.119
-274.399	-200.000	-0.047	-0.256
-273.384	800.000	-0.113	-0.352
-272.370	126.567	0.037	0.046
-271.355	60.339	0.128	0.125
-270.340	800.000	-0.097	-0.349
-269.326	-6.648	0.367	0.247
-268.311	-61.025	0.192	0.080
-267.297	405.201	0.162	-0.338
-266.282	-94.513	0.118	0.032
-265.267	70.473	0.255	-0.261
-264.253	-194.676	0.225	-0.002
-263.238	-87.889	0.107	-0.032
-262.224	-48.842	-0.151	-0.072
-261.209	185.532	0.167	0.246
-260.195	440.790	-0.051	0.111
-259.180	94.109	0.262	0.295
-258.165	-155.756	0.497	0.032
-257.151	215.462	0.153	-0.240
-256.136	225.710	0.029	-0.046
-255.122	-111.438	0.066	0.013
-254.107	23.553	0.299	0.244
-253.092	498.540	0.082	0.187
-252.078	-3.302	-0.066	0.045
-251.063	-95.994	0.252	-0.066
-250.049	-200.000	-0.021	0.093
-249.034	-89.232	0.154	-0.045
-248.019	-200.000	0.024	-0.120
-247.005	800.000	0.082	0.248
-245.990	-74.087	0.106	-0.038
-244.976	7.148	-0.163	-0.121
-243.961	800.000	0.130	-0.356
-242.946	28.134	0.359	-0.300
-241.932	-149.305	-0.258	-0.020
-240.917	-55.073	-0.236	-0.105
-239.903	-152.857	0.211	-0.015
-238.888	-19.115	0.210	0.129
-237.873	261.969	-0.082	0.140
-236.859	38.690	-0.205	-0.181
-235.844	-61.067	0.128	-0.053
-234.830	164.164	-0.050	0.070
-233.815	-200.000	0.016	-0.213
-232.800	-200.000	0.028	-0.128
-231.786	-157.031	-0.126	0.008
-230.771	247.406	0.100	-0.168
-229.757	800.000	0.099	0.331
-228.742	-200.000	-0.042	0.185
-227.727	520.477	-0.145	-0.337
-226.713	-94.543	0.352	0.095
-225.698	-90.962	-0.221	0.063
-224.684	800.000	-0.033	0.101
-223.669	-200.000	0.046	0.320
-222.655	-110.078	0.186	-0.038
-221.640	185.789	0.214	0.314
-220.625	-135.929	0.246	-0.029
-219.611	-102.930	-0.157	-0.037
-218.596	800.000	0.038	-0.119
-217.582	21.797	-0.131	0.106
-216.567	-13.407	-0.163	-0.105
-215.552	-190.724	-0.257	0.003
-214.538	281.844	-0.167	-0.296
-213.523	800.000	-0.075	0.291
-212.509	-12.435	0.034	-0.022
-211.494	-35.247	-0.127	0.068
-210.479	42.948	0.212	0.191
-209.465	-123.884	0.234	0.037
-208.450	-117.001	-0.083	-0.015
-207.436	-0.681	0.300	-0.210
-206.421	-200.000	0.004	-0.103
-205.406	-200.000	-0.089	-0.500
-204.392	-95.512	0.249	0.066
-203.377	-127.440	-0.234	-0.034
-202.363	383.526	-0.248	-0.504
-201.348	-29.934	-0.156	0.088
-200.333	86.594	0.010	0.011
-199.319	42.414	0.169	-0.152
-198.304	800.000	-0.014	-0.057
-197.290	-91.188	-0.112	0.032
-196.275	-48.396	0.260	-0.124
-195.260	-59.604	-0.146	0.062
-194.246	59.576	-0.058	-0.056
-193.231	-68.324	0.070	0.027
-192.217	-149.582	-0.291	-0.023
-191.202	800.000	0.031	0.096
-190.187	204.352	-0.169	-0.258
-189.173	373.731	-0.050	0.101
-188.158	-161.177	-0.167	0.009
-187.144	-200.000	0.022	-0.180
-186.129	442.988	-0.124	0.268
-185.114	-200.000	0.034	-0.184
-184.100	800.000	0.032	-0.131
-183.085	-17.136	0.310	-0.193
-182.071	800.000	-0.029	0.082
-181.056	763.681	-0.045	0.120
-180.042	17.238	0.186	0.145
-179.027	-109.744	0.194	-0.040
-178.012	80.305	0.117	-0.125
-176.998	518.527	0.057	-0.131
-175.983	-22.002	0.079	-0.048
-174.969	-85.390	0.205	-0.063
-173.954	142.013	0.172	0.225
-172.939	389.965	0.114	0.233
-171.925	-30.424	-0.106	0.060
-170.910	-134.819	-0.306	-0.037
-169.896	438.739	-0.028	0.060
-168.881	-83.233	0.155	-0.049
-167.866	-200.000	-0.017	0.225
-166.852	800.000	0.002	0.007
-165.837	64.077	-0.239	-0.237
-164.823	-12.421	0.372	-0.239
-163.808	-54.289	0.142	0.064
-162.793	411.136	0.110	-0.230
-161.779	111.790	0.060	0.071
-160.764	-153.054	-0.104	-0.007
-159.750	27.042	0.242	0.200
-158.735	-7.744	-0.208	0.139
-157.720	144.261	0.079	-0.103
-156.706	541.834	-0.028	-0.065
-155.691	-28.115	-0.289	-0.165
-154.677	-200.000	0.032	-0.355
-153.662	-200.000	-0.035	0.168
-152.647	800.000	-0.062	-0.205
-151.633	35.538	0.149	-0.129
-150.618	-36.428	-0.124	0.066
-149.604	252.979	-0.066	0.111
-148.589	-200.000	0.072	-0.407
-147.574	177.412	0.086	-0.124
-146.560	631.477	0.073	0.181
-145.545	-93.778	0.056	-0.015
-144.531	-200.000	0.044	-0.270
-143.516	143.521	0.105	0.138
-142.502	248.601	-0.257	-0.428
-141.487	0.411	0.233	-0.164
-140.472	679.999	-0.098	0.250
-139.458	86.283	-0.117	0.127
-138.443	99.205	-0.216	-0.246
-137.429	24.516	0.049	-0.040
-136.414	-200.000	-0.006	0.258
-135.399	-110.729	0.075	-0.015
-134.385	-75.621	0.209	-0.073
-133.370	45.210	0.155	-0.141
-132.356	-200.000	-0.048	0.272
-131.341	-12.754	0.274	-0.176
-130.326	204.375	-0.134	-0.205
-129.312	-200.000	0.009	-0.352
-128.297	14.979	0.248	-0.191
-127.283	-145.980	-0.259	0.023
-126.268	-11.681	-0.125	-0.081
-125.253	-200.000	-0.012	-0.075
-124.239	800.000	0.077	-0.284
-123.224	88.595	0.046	-0.050
-122.210	184.889	0.109	0.160
