DTS Sentinel unit serial number:	SN413079Multiplexer serial number:	ORYXHardware model number:	OX4-SRSoftware version number:	ORYX F/W v4.00 Oryx Data Collector v3.7.2.0data status	okinstallation	princeton_trtdifferential loss correction	single-endedforward channel	channel 1reverse channel	N/Adate	2019/09/16time	16:22:35forward acquisition time	60.00reverse acquisition time	0.00gamma	496.2192k internal	0.2294k external	0.2294temperature offset calibration	0.9961default loss term (dB/km)	0.3790temperature slope calibration	1.0000multiplexer offset coefficient	1.0000multiplexer slope coefficient	1.0000fibre end	0.00T internal ref (°C)	40.44T ext. ref 1 (°C)	15.04T ext. ref 2 (°C)	34.37length (m)	temperature (°C)	Stokes	anti-Stokes-747.200	230.523	-0.065	0.108
-746.185	92.581	0.099	0.115
-745.171	-112.388	0.244	0.050
-744.156	-101.523	-0.110	0.027
-743.142	4.064	0.095	-0.071
-742.127	-70.903	-0.173	0.067
-741.112	71.776	0.037	0.039
-740.098	-62.146	-0.359	0.153
-739.083	800.000	-0.086	0.257
-738.069	-84.842	-0.063	0.020
-737.054	-129.076	-0.171	0.024
-736.039	-117.021	-0.066	-0.012
-735.025	65.422	-0.203	-0.210
-734.010	-200.000	0.043	-0.296
-732.996	683.955	-0.090	-0.241
-731.981	-200.000	-0.041	-0.201
-730.966	-200.000	-0.025	0.468
-729.952	-200.000	0.008	-0.138
-728.937	-120.744	-0.315	0.054
-727.923	43.559	0.133	-0.124
-726.908	599.190	-0.086	-0.217
-725.894	38.854	-0.105	0.096
-724.879	16.627	-0.256	-0.207
-723.864	-105.130	-0.048	-0.011
-722.850	-5.046	-0.130	0.091
-721.835	-88.194	-0.164	0.050
-720.821	107.911	-0.310	0.377
-719.806	-200.000	0.009	-0.046
-718.791	-50.912	0.055	0.026
-717.777	-36.513	-0.335	-0.184
-716.762	103.658	0.022	0.027
-715.748	-75.461	0.027	0.010
-714.733	-150.989	0.269	0.021
-713.718	49.751	-0.251	-0.242
-712.704	-23.316	0.457	-0.281
-711.689	-76.252	-0.023	0.008
-710.675	-200.000	0.052	0.000
-709.660	-114.683	0.130	0.025
-708.645	-84.531	0.227	-0.073
-707.631	-200.000	0.008	-0.123
-706.616	-53.931	-0.217	-0.101
-705.602	-200.000	-0.008	-0.157
-704.587	286.786	0.142	-0.261
-703.572	800.000	-0.013	0.057
-702.558	121.725	-0.184	-0.235
-701.543	-7.713	0.381	0.263
-700.529	-24.923	0.063	-0.038
-699.514	12.558	0.181	-0.142
-698.499	-85.925	0.237	0.075
-697.485	-200.000	0.011	-0.169
-696.470	-123.989	-0.168	0.027
-695.456	-55.148	0.295	-0.136
-694.441	-200.000	-0.015	-0.096
-693.426	274.642	-0.243	-0.440
-692.412	800.000	-0.099	-0.305
-691.397	-148.361	-0.182	0.015
-690.383	800.000	0.046	-0.174
-689.368	-51.579	0.217	0.103
-688.354	-134.963	0.078	-0.010
-687.339	800.000	0.092	0.297
-686.324	367.513	-0.047	-0.096
-685.310	294.967	0.043	0.080
-684.295	-61.300	0.024	0.010
-683.281	294.270	0.182	-0.339
-682.266	-85.878	0.352	-0.111
-681.251	-104.930	0.190	0.045
-680.237	-66.374	-0.127	-0.051
-679.222	29.564	0.071	0.061
-678.208	-200.000	0.013	-0.250
-677.193	800.000	-0.130	-0.528
-676.178	-137.495	0.185	-0.021
-675.164	124.234	0.088	-0.113
-674.149	-108.342	0.239	0.053
-673.135	-56.826	-0.234	-0.105
-672.120	800.000	-0.044	-0.185
-671.105	-200.000	0.012	-0.069
-670.091	260.972	-0.028	0.049
-669.076	140.571	-0.075	-0.102
-668.062	-172.007	-0.133	0.004
-667.047	800.000	-0.011	-0.043
-666.032	97.454	0.220	0.258
-665.018	800.000	-0.099	-0.375
-664.003	14.793	-0.297	0.237
-662.989	-200.000	0.023	0.227
-661.974	97.215	0.199	-0.233
-660.959	-127.635	-0.523	0.077
-659.945	-74.876	-0.142	0.052
-658.930	-199.103	0.235	0.001
-657.916	270.004	0.076	-0.137
-656.901	800.000	0.084	0.277
-655.886	56.495	-0.129	0.128
-654.872	560.951	0.043	-0.106
-653.857	-200.000	-0.011	-0.352
-652.843	-200.000	0.002	0.176
-651.828	800.000	0.071	0.258
-650.814	-1.862	0.220	0.158
-649.799	-98.180	-0.579	-0.152
-648.784	138.020	0.105	0.141
-647.770	217.498	-0.130	0.211
-646.755	-64.537	-0.170	-0.070
-645.741	800.000	0.047	-0.147
-644.726	800.000	-0.059	0.188
-643.711	-200.000	0.001	0.270
-642.697	-137.921	-0.232	-0.026
-641.682	-200.000	-0.020	0.181
-640.668	-200.000	-0.001	0.073
-639.653	-200.000	-0.053	0.276
-638.638	365.885	-0.113	-0.233
-637.624	10.337	0.413	-0.320
-636.609	800.000	-0.017	-0.049
-635.595	800.000	0.029	-0.124
-634.580	81.917	-0.166	-0.183
-633.565	251.872	-0.063	0.109
-632.551	800.000	0.060	-0.259
-631.536	-161.926	0.053	0.003
-630.522	-36.642	-0.098	-0.053
-629.507	241.198	-0.097	-0.165
-628.492	800.000	0.082	0.350
-627.478	378.894	0.104	-0.216
-626.463	-200.000	0.068	-0.336
-625.449	-7.056	0.160	0.111
-624.434	-181.298	0.109	0.002
-623.419	800.000	0.100	0.302
-622.405	-41.049	0.092	-0.048
-621.390	368.748	0.093	0.192
-620.376	-200.000	-0.009	-0.054
-619.361	33.818	0.146	0.129
-618.346	23.937	-0.280	-0.235
-617.332	677.508	0.129	0.341
-616.317	-100.970	0.060	-0.015
-615.303	-72.245	-0.044	-0.017
-614.288	-200.000	-0.012	-0.130
-613.273	-200.000	0.018	0.155
-612.259	-200.000	-0.001	-0.135
-611.244	-200.000	0.011	-0.234
-610.230	-200.000	0.020	-0.119
-609.215	-133.480	-0.080	-0.010
-608.201	278.469	0.053	-0.096
-607.186	-98.006	-0.303	-0.080
-606.171	-92.218	-0.429	-0.123
-605.157	-28.860	-0.079	0.046
-604.142	-133.311	0.185	-0.024
-603.128	-40.712	-0.084	-0.044
-602.113	310.073	0.170	0.323
-601.098	-28.544	-0.204	0.120
-600.084	-77.972	-0.248	-0.087
-599.069	152.372	0.101	-0.140
-598.055	-200.000	0.003	0.108
-597.040	-148.126	-0.401	-0.034
-596.025	-113.683	0.241	0.048
-595.011	800.000	0.093	-0.337
-593.996	6.906	-0.157	0.119
-592.982	116.205	0.108	0.135
-591.967	30.217	0.280	0.243
-590.952	-77.136	0.294	-0.104
-589.938	-130.126	-0.110	0.015
-588.923	-105.131	0.176	0.041
-587.909	193.024	-0.115	0.176
-586.894	-200.000	0.004	-0.065
-585.879	79.188	-0.089	0.097
-584.865	-163.180	0.096	-0.005
-583.850	-168.260	0.184	0.007
-582.836	-152.706	-0.200	0.014
-581.821	-7.953	-0.184	0.126
-580.806	443.356	0.201	-0.449
-579.792	107.937	-0.155	-0.188
-578.777	-192.822	-0.185	0.002
-577.763	-200.000	-0.007	0.081
-576.748	67.066	0.212	0.220
-575.733	-13.589	0.156	0.103
-574.719	194.251	0.079	0.122
-573.704	168.029	0.112	0.162
-572.690	296.367	-0.085	0.159
-571.675	-200.000	-0.003	-0.243
-570.661	-200.000	-0.013	0.109
-569.646	64.099	0.201	-0.206
-568.631	-144.858	-0.114	-0.011
-567.617	-142.422	-0.189	-0.019
-566.602	-100.377	-0.096	-0.024
-565.588	110.324	0.228	0.278
-564.573	173.882	-0.168	-0.246
-563.558	-137.562	-0.364	-0.042
-562.544	-200.000	0.013	-0.260
-561.529	-116.389	0.238	-0.045
-560.515	508.654	0.015	0.036
-559.500	25.447	-0.136	0.115
-558.485	-200.000	-0.013	0.063
-557.471	65.274	-0.099	-0.102
-556.456	-25.408	0.090	-0.054
-555.442	-139.367	-0.276	-0.030
-554.427	-129.896	0.189	0.026
-553.412	-92.984	-0.296	-0.084
-552.398	-200.000	-0.154	0.000
-551.383	-59.913	-0.072	0.031
-550.369	800.000	-0.032	0.100
-549.354	-156.740	-0.234	0.015
-548.339	221.132	-0.105	0.170
-547.325	113.703	0.054	-0.067
-546.310	-104.686	-0.305	-0.071
-545.296	-15.278	0.017	-0.011
-544.281	-200.000	-0.040	-0.229
-543.266	-200.000	0.022	0.135
-542.252	800.000	0.092	-0.286
-541.237	800.000	-0.019	0.084
-540.223	112.407	-0.254	-0.311
-539.208	-4.817	0.404	-0.282
-538.193	106.892	-0.124	-0.149
-537.179	362.669	-0.115	-0.234
-536.164	-104.337	0.112	0.026
-535.150	395.954	0.053	-0.113
-534.135	-24.235	-0.223	-0.135
-533.121	66.050	0.092	0.095
-532.106	179.474	-0.032	-0.048
-531.091	-182.390	0.129	-0.002
-530.077	156.667	0.123	-0.173
-529.062	-68.549	0.252	0.099
-528.048	381.268	0.027	0.056
-527.033	84.521	0.216	0.239
-526.018	337.970	0.050	0.098
-525.004	-95.496	-0.211	0.057
-523.989	87.973	-0.153	0.172
-522.975	316.089	-0.077	-0.147
-521.960	12.712	-0.193	-0.151
-520.945	800.000	0.124	0.475
-519.931	-55.038	-0.235	0.107
-518.916	125.847	0.021	-0.027
-517.902	621.836	-0.044	0.112
-516.887	-27.121	-0.073	0.043
-515.872	155.089	-0.090	-0.126
-514.858	-154.111	0.354	0.024
-513.843	-36.132	-0.056	0.031
-512.829	800.000	0.062	0.226
-511.814	163.304	-0.212	-0.303
-510.799	78.437	-0.159	0.172
-509.785	-181.008	0.113	-0.002
-508.770	21.343	-0.161	-0.132
-507.756	169.157	-0.071	0.102
-506.741	-127.282	-0.117	-0.017
-505.726	147.473	0.076	-0.104
-504.712	800.000	0.039	-0.130
-503.697	103.227	0.075	-0.089
-502.683	70.200	-0.017	0.018
-501.668	-200.000	0.026	0.173
-500.653	288.076	-0.021	-0.039
-499.639	-200.000	0.029	-0.128
-498.624	800.000	0.061	0.250
-497.610	328.259	-0.132	0.256
-496.595	96.293	-0.049	-0.056
-495.581	-200.000	-0.007	0.120
-494.566	152.052	-0.097	-0.134
-493.551	-200.000	-0.001	0.069
-492.537	81.599	-0.093	-0.102
-491.522	-200.000	0.057	0.349
-490.508	239.648	-0.041	0.069
-489.493	-60.825	0.185	-0.079
-488.478	-200.000	0.018	-0.159
-487.464	52.345	0.058	0.056
-486.449	-200.000	-0.043	-0.221
-485.435	35.592	0.127	-0.113
-484.420	-143.015	0.157	0.015
-483.405	583.087	0.098	0.244
-482.391	-200.000	0.016	0.298
-481.376	61.670	-0.142	-0.143
-480.362	-124.509	-0.175	0.028
-479.347	125.973	-0.156	-0.200
-478.332	-200.000	0.009	-0.091
-477.318	-61.190	-0.141	-0.060
-476.303	203.309	-0.081	0.127
-475.289	80.236	0.041	-0.045
-474.274	800.000	-0.068	-0.276
-473.259	-200.000	-0.035	-0.182
-472.245	-200.000	-0.027	0.121
-471.230	109.309	-0.113	0.137
-470.216	800.000	-0.037	-0.128
-469.201	374.726	0.097	-0.199
-468.186	266.205	0.045	-0.080
-467.172	68.413	-0.206	-0.214
-466.157	1.699	-0.027	0.020
-465.143	-200.000	-0.030	0.405
-464.128	-200.000	-0.026	-0.232
-463.113	68.031	0.155	-0.160
-462.099	-200.000	0.016	0.341
-461.084	118.610	0.074	-0.093
-460.070	45.923	-0.247	0.231
-459.055	-200.000	0.040	-0.279
-458.040	368.457	-0.076	0.154
-457.026	800.000	-0.110	0.322
-456.011	94.060	0.071	-0.082
-454.997	-5.545	-0.068	0.047
-453.982	-200.000	0.001	0.005
-452.968	-200.000	0.016	-0.286
-451.953	-200.000	0.061	-0.378
-450.938	-200.000	-0.101	-0.491
-449.924	67.537	-0.258	0.266
-448.909	-158.977	0.366	-0.021
-447.895	-14.490	-0.244	0.159
-446.880	-200.000	0.003	-0.112
-445.865	800.000	-0.083	0.260
-444.851	-108.324	-0.198	-0.043
-443.836	267.872	0.043	-0.076
-442.822	800.000	-0.015	0.061
-441.807	299.364	-0.130	-0.243
-440.792	-176.946	0.347	-0.009
-439.778	-171.264	0.077	0.003
-438.763	-98.933	0.322	-0.083
-437.749	-44.586	-0.014	0.007
-436.734	15.114	0.152	-0.120
-435.719	-51.295	-0.071	-0.033
-434.705	61.015	-0.170	-0.170
-433.690	800.000	-0.054	0.197
-432.676	-39.502	0.117	0.062
-431.661	-5.633	-0.189	0.131
-430.646	-81.705	0.085	0.028
-429.632	-148.638	0.067	-0.006
-428.617	355.010	0.113	0.228
-427.603	280.613	0.140	0.253
-426.588	65.740	0.275	-0.282
-425.573	19.010	0.131	-0.106
-424.559	-200.000	-0.034	0.204
-423.544	-200.000	-0.052	0.286
-422.530	98.778	-0.173	0.201
-421.515	425.497	0.052	0.114
-420.500	-160.886	-0.191	0.010
-419.486	-200.000	-0.049	0.330
-418.471	-105.913	-0.126	0.029
-417.457	77.580	0.204	0.220
-416.442	371.021	0.195	0.400
-415.428	221.824	-0.158	0.257
-414.413	-200.000	-0.028	0.203
-413.398	28.346	-0.220	0.188
-412.384	333.951	-0.082	0.161
-411.369	221.720	-0.079	0.129
-410.355	-54.882	-0.425	0.194
-409.340	800.000	-0.044	0.157
-408.325	-37.407	-0.318	0.172
-407.311	-30.803	0.316	-0.180
-406.296	800.000	0.090	0.319
-405.282	-200.000	-0.050	0.385
-404.267	800.000	0.065	-0.235
-403.252	-200.000	-0.009	-0.145
-402.238	-200.000	-0.043	0.332
-401.223	-57.272	0.228	0.101
-400.209	-18.274	0.053	0.033
-399.194	453.210	0.079	0.176
-398.179	436.241	0.065	0.143
-397.165	-83.935	-0.268	-0.086
-396.150	-200.000	0.013	0.285
-395.136	-200.000	0.052	0.332
-394.121	-200.000	-0.004	-0.286
-393.106	-200.000	0.054	-0.532
-392.092	-200.000	-0.009	0.108
-391.077	-200.000	0.003	-0.052
-390.063	57.867	0.211	-0.209
-389.048	-29.981	-0.129	-0.074
-388.033	170.835	0.061	-0.088
-387.019	-98.413	-0.335	0.086
-386.004	164.873	0.070	-0.100
-384.990	128.249	0.179	-0.229
-383.975	16.359	0.109	0.087
-382.960	800.000	0.107	0.422
-381.946	-22.768	-0.181	0.110
-380.931	160.578	0.157	0.221
-379.917	58.838	-0.095	-0.094
-378.902	245.298	-0.201	0.341
-377.888	-125.291	0.128	-0.020
-376.873	-200.000	-0.077	-0.349
-375.858	800.000	-0.016	0.044
-374.844	63.741	-0.156	0.158
-373.829	34.931	-0.056	0.050
-372.815	-22.326	-0.127	0.077
-371.800	-139.743	0.192	0.021
-370.785	-200.000	-0.034	-0.222
-369.771	342.504	0.077	-0.151
-368.756	164.614	0.185	-0.262
-367.742	133.909	-0.133	-0.174
-366.727	-127.778	-0.098	-0.014
-365.712	-116.874	0.149	-0.027
-364.698	59.364	0.039	0.039
-363.683	-63.996	-0.041	-0.017
-362.669	-140.240	-0.188	0.020
-361.654	-109.433	0.099	-0.021
-360.639	-6.884	0.194	0.133
-359.625	-76.109	0.300	0.107
-358.610	-25.684	0.581	0.345
-357.596	-115.480	0.310	-0.059
-356.581	217.389	-0.082	-0.132
-355.566	53.865	0.080	0.077
-354.552	307.498	-0.087	0.162
-353.537	78.605	-0.299	-0.322
-352.523	392.933	0.128	-0.269
-351.508	-200.000	-0.034	0.159
-350.493	254.245	-0.153	0.264
-349.479	800.000	0.090	-0.254
-348.464	-91.922	0.330	-0.094
-347.450	-57.560	0.295	-0.130
-346.435	800.000	0.068	0.295
-345.420	173.209	0.222	-0.322
-344.406	-21.325	0.200	-0.123
-343.391	-82.604	-0.229	0.075
-342.377	-200.000	-0.025	0.169
-341.362	-200.000	0.039	0.394
-340.348	-200.000	-0.044	-0.225
-339.333	-122.902	-0.286	0.046
-338.318	-200.000	-0.005	0.213
-337.304	-106.417	0.176	-0.040
-336.289	-200.000	0.006	-0.134
-335.275	-117.525	0.144	0.026
-334.260	-64.995	-0.252	-0.102
-333.245	225.821	-0.054	0.087
-332.231	338.641	-0.072	-0.141
-331.216	0.791	0.136	0.098
-330.202	-200.000	0.040	-0.515
-329.187	35.283	-0.178	-0.157
-328.172	-12.202	0.168	0.111
-327.158	-38.651	-0.301	-0.160
-326.143	109.346	0.120	-0.145
-325.129	-51.009	0.524	-0.248
-324.114	227.025	0.114	-0.187
-323.099	149.919	-0.059	0.081
-322.085	95.992	-0.123	0.141
-321.070	159.557	0.139	0.194
-320.056	800.000	0.074	0.241
-319.041	-200.000	0.006	-0.160
-318.026	83.935	0.108	0.118
-317.012	46.748	0.044	-0.041
-315.997	700.826	0.075	-0.198
-314.983	-200.000	-0.006	0.429
-313.968	375.546	-0.042	-0.087
-312.953	-200.000	0.083	0.375
-311.939	64.072	-0.242	-0.245
-310.924	753.807	0.052	-0.142
-309.910	-200.000	-0.038	-0.252
-308.895	-134.974	0.116	-0.014
-307.880	800.000	-0.014	0.062
-306.866	247.454	0.062	0.105
-305.851	-161.528	-0.208	-0.011
-304.837	-40.655	-0.080	-0.042
-303.822	-200.000	-0.044	0.233
-302.807	175.846	0.187	0.273
-301.793	-200.000	-0.019	0.202
-300.778	-200.000	0.012	-0.067
-299.764	-21.874	0.264	-0.161
-298.749	-84.272	-0.290	-0.092
-297.735	544.859	0.057	-0.137
-296.720	-70.122	-0.130	0.050
-295.705	66.992	-0.261	-0.268
-294.691	-45.307	-0.438	0.219
-293.676	125.645	0.113	0.143
-292.662	-51.780	-0.179	0.084
-291.647	124.196	-0.009	-0.011
-290.632	-80.143	0.117	0.039
-289.618	-24.515	0.236	0.141
-288.603	0.457	-0.095	0.068
-287.589	85.990	0.286	0.316
-286.574	-55.259	-0.129	-0.058
-285.559	-66.351	-0.326	0.130
-284.545	-63.776	0.384	0.158
-283.530	-159.717	-0.306	-0.017
-282.516	-134.848	0.156	0.019
-281.501	113.525	0.165	0.201
-280.486	800.000	-0.079	-0.278
-279.472	-200.000	0.005	-0.300
-278.457	-200.000	-0.054	0.612
-277.443	-139.947	-0.165	0.017
-276.428	419.090	0.081	-0.174
-275.413	-77.595	0.090	-0.031
-274.399	800.000	0.101	0.336
-273.384	-140.844	0.132	0.014
-272.370	-45.430	0.097	-0.048
-271.355	-103.462	-0.308	-0.073
-270.340	-80.298	0.225	-0.076
-269.326	-94.644	0.428	0.117
-268.311	515.410	-0.114	0.266
-267.297	-145.115	0.208	0.019
-266.282	62.612	-0.105	0.105
-265.267	43.359	-0.099	-0.091
-264.253	382.845	-0.040	0.082
-263.238	800.000	-0.064	-0.219
-262.224	204.666	0.104	0.162
-261.209	309.161	0.070	0.131
-260.195	114.118	0.094	-0.115
-259.180	-25.889	-0.026	0.015
-258.165	-105.716	0.257	-0.058
-257.151	-200.000	0.010	-0.097
-256.136	-104.290	-0.321	0.075
-255.122	-200.000	0.007	0.091
-254.107	-51.143	0.262	-0.123
-253.092	-200.000	-0.051	-0.229
-252.078	259.245	0.080	-0.138
-251.063	-29.496	0.362	-0.207
-250.049	-44.261	0.079	-0.040
-249.034	10.071	-0.291	-0.222
-248.019	-46.384	-0.237	0.117
-247.005	324.977	-0.116	-0.222
-245.990	-200.000	0.086	-0.411
-244.976	-76.187	-0.316	0.112
-243.961	-194.419	-0.193	-0.002
-242.946	800.000	0.109	-0.345
-241.932	42.772	-0.156	-0.142
-240.917	53.500	0.239	-0.230
-239.903	18.206	-0.116	-0.093
-238.888	-200.000	0.030	-0.156
-237.873	-29.389	-0.224	-0.129
-236.859	800.000	0.043	0.149
-235.844	-2.988	0.153	-0.107
-234.830	-113.131	-0.063	-0.012
-233.815	28.913	-0.048	-0.041
-232.800	-46.127	-0.013	0.006
-231.786	-98.076	-0.060	0.015
-230.771	-41.217	0.258	-0.133
-229.757	-200.000	0.052	-0.384
-228.742	66.383	0.114	0.116
-227.727	-82.409	-0.050	-0.016
-226.713	34.481	0.178	-0.155
-225.698	191.306	0.012	-0.018
-224.684	79.996	-0.179	-0.192
-223.669	-57.258	0.132	-0.058
-222.655	-74.697	0.424	0.153
-221.640	91.734	0.272	-0.307
-220.625	19.888	-0.080	-0.064
-219.611	194.484	-0.071	-0.107
-218.596	-88.951	-0.383	0.114
-217.582	-23.524	0.297	-0.179
-216.567	-200.000	-0.022	0.224
-215.552	800.000	-0.090	-0.256
-214.538	376.243	0.041	-0.083
-213.523	-7.801	-0.279	-0.188
-212.509	800.000	-0.069	-0.232
-211.494	-68.587	0.140	-0.054
-210.479	800.000	0.095	-0.282
-209.465	157.371	-0.058	0.081
-208.450	36.908	0.167	-0.148
-207.436	12.016	0.095	0.073
-206.421	-102.436	0.154	-0.037
-205.406	195.775	0.024	-0.037
-204.392	92.629	0.180	-0.204
-203.377	284.980	0.154	-0.277
-202.363	187.324	-0.076	-0.113
-201.348	-157.022	0.181	0.011
-200.333	-88.868	0.039	0.012
-199.319	-20.226	-0.073	0.045
-198.304	800.000	0.066	0.186
-197.290	-114.875	-0.595	0.113
-196.275	-91.229	0.301	0.086
-195.260	510.847	-0.066	0.155
-194.246	-200.000	-0.020	-0.270
-193.231	800.000	-0.082	0.308
-192.217	136.064	-0.104	-0.136
-191.202	-5.830	-0.133	-0.091
-190.187	22.023	-0.268	-0.219
-189.173	-162.221	-0.361	0.018
-188.158	-97.929	0.333	0.086
-187.144	90.058	0.245	-0.274
-186.129	-200.000	0.002	-0.165
-185.114	-23.427	-0.214	-0.129
-184.100	-200.000	0.020	0.256
-183.085	800.000	-0.080	0.291
-182.071	34.080	0.095	-0.083
-181.056	-200.000	0.031	0.253
-180.042	-93.931	0.311	-0.086
-179.027	800.000	0.019	0.061
-178.012	-62.973	0.173	0.071
-176.998	-155.489	0.119	0.008
-175.983	-200.000	-0.003	-0.173
-174.969	199.985	0.108	-0.165
-173.954	37.560	0.072	0.064
-172.939	1.164	0.456	0.327
-171.925	-133.986	0.120	-0.015
-170.910	-65.743	0.172	0.069
-169.896	-102.669	-0.261	0.062
-168.881	-30.647	0.043	0.024
-167.866	-99.801	0.091	-0.023
-166.852	223.049	0.142	0.229
-165.837	-70.199	-0.297	0.113
-164.823	-3.715	-0.148	0.103
-163.808	800.000	-0.091	0.265
-162.793	-32.597	0.258	0.144
-161.779	351.138	0.106	0.210
-160.764	-124.536	-0.228	0.035
-159.750	54.986	0.117	-0.113
-158.735	-110.070	0.208	-0.043
-157.720	256.323	0.124	0.212
-156.706	7.594	-0.040	0.030
-155.691	156.609	-0.268	-0.370
-154.677	12.320	0.192	-0.148
-153.662	-175.323	-0.099	-0.003
-152.647	-158.208	-0.630	0.037
-151.633	722.079	0.080	0.212
-150.618	-12.882	0.180	-0.117
-149.604	-200.000	0.028	-0.161
-148.589	110.257	-0.112	-0.134
-147.574	212.078	0.076	-0.119
-146.560	-185.524	0.171	-0.003
-145.545	-53.756	0.053	0.024
-144.531	-178.796	-0.141	0.003
-143.516	40.276	-0.140	0.126
-142.502	-124.273	0.377	0.059
-141.487	-67.088	-0.235	0.092
-140.472	-200.000	-0.019	-0.261
-139.458	582.326	0.147	-0.360
-138.443	-17.711	0.214	0.134
-137.429	-42.960	-0.421	0.213
-136.414	-82.835	0.321	0.103
-135.399	315.028	-0.100	-0.189
-134.385	800.000	0.064	-0.191
-133.370	800.000	-0.083	0.331
-132.356	66.056	0.244	0.248
-131.341	54.512	0.111	-0.107
-130.326	234.218	-0.065	0.107
-129.312	19.471	0.209	-0.168
-128.297	-72.484	0.216	0.080
-127.283	-2.571	0.061	0.043
-126.268	-84.816	0.363	0.114
-125.253	-69.200	-0.444	-0.170
-124.239	800.000	-0.034	-0.098
-123.224	800.000	-0.065	0.239
-122.210	-75.684	-0.175	0.062
-121.195	582.744	0.023	0.056
