DTS Sentinel unit serial number:	SN413079Multiplexer serial number:	ORYXHardware model number:	OX4-SRSoftware version number:	ORYX F/W v4.00 Oryx Data Collector v3.7.2.0data status	okinstallation	princeton_trtdifferential loss correction	single-endedforward channel	channel 1reverse channel	N/Adate	2019/09/15time	04:10:35forward acquisition time	60.00reverse acquisition time	0.00gamma	496.2192k internal	0.2323k external	0.2323temperature offset calibration	0.9987default loss term (dB/km)	0.3790temperature slope calibration	1.0000multiplexer offset coefficient	1.0000multiplexer slope coefficient	1.0000fibre end	0.00T internal ref (°C)	30.94T ext. ref 1 (°C)	4.64T ext. ref 2 (°C)	25.77length (m)	temperature (°C)	Stokes	anti-Stokes-747.200	-84.936	-0.330	0.105
-746.185	-200.000	-0.004	0.086
-745.171	54.998	0.119	-0.116
-744.156	188.655	-0.120	0.181
-743.142	82.824	-0.234	0.256
-742.127	-169.741	-0.141	-0.005
-741.112	-91.254	-0.427	0.123
-740.098	-146.005	0.544	-0.049
-739.083	-200.000	0.002	-0.115
-738.069	3.480	-0.084	-0.062
-737.054	-200.000	-0.000	-0.259
-736.039	449.164	-0.025	0.055
-735.025	390.441	0.181	0.380
-734.010	211.847	-0.101	-0.161
-732.996	212.213	-0.064	-0.102
-731.981	-148.868	0.148	0.012
-730.966	24.425	-0.112	0.094
-729.952	-97.001	-0.231	-0.061
-728.937	-148.910	-0.415	0.034
-727.923	346.109	0.121	0.240
-726.908	-107.442	0.141	0.031
-725.894	-200.000	-0.020	-0.212
-724.879	357.449	-0.078	0.158
-723.864	-200.000	-0.030	-0.363
-722.850	800.000	0.066	0.244
-721.835	622.384	-0.015	-0.038
-720.821	589.906	-0.045	0.111
-719.806	-200.000	0.055	-0.472
-718.791	89.054	0.175	0.197
-717.777	-127.075	-0.064	0.009
-716.762	-20.266	0.066	-0.041
-715.748	117.730	-0.105	0.131
-714.733	193.518	0.050	-0.076
-713.718	-200.000	0.005	-0.302
-712.704	-123.053	-0.039	-0.006
-711.689	18.012	0.118	-0.095
-710.675	683.059	-0.099	-0.261
-709.660	-53.196	0.355	0.164
-708.645	-16.271	-0.147	0.094
-707.631	-47.681	-0.157	0.077
-706.616	-95.613	-0.182	-0.049
-705.602	-200.000	-0.013	0.119
-704.587	-127.941	-0.052	0.008
-703.572	-121.986	0.126	0.021
-702.558	108.509	-0.191	-0.230
-701.543	3.153	-0.206	0.151
-700.529	-200.000	0.052	-0.237
-699.514	-200.000	0.042	-0.334
-698.499	-63.387	-0.345	-0.143
-697.485	-106.889	-0.174	-0.039
-696.470	144.218	-0.068	-0.091
-695.456	151.540	0.061	-0.084
-694.441	95.693	0.073	0.084
-693.426	-200.000	0.002	0.034
-692.412	-181.235	-0.173	-0.003
-691.397	-65.570	0.078	-0.031
-690.383	166.070	0.233	0.332
-689.368	45.064	-0.079	-0.074
-688.354	437.311	0.095	-0.208
-687.339	800.000	0.068	-0.295
-686.324	-148.944	-0.110	-0.009
-685.310	800.000	0.061	-0.265
-684.295	62.605	-0.286	-0.288
-683.281	-92.643	0.293	0.083
-682.266	321.381	0.097	0.186
-681.251	800.000	-0.053	-0.193
-680.237	-143.436	0.273	-0.026
-679.222	-74.540	-0.073	0.026
-678.208	304.989	-0.173	0.324
-677.193	-64.182	-0.048	-0.020
-676.178	141.782	-0.049	0.065
-675.164	-21.377	-0.350	0.215
-674.149	800.000	0.031	0.090
-673.135	236.768	0.132	-0.220
-672.120	-43.296	-0.328	-0.167
-671.105	800.000	-0.022	0.097
-670.091	-73.437	-0.161	0.059
-669.076	-200.000	-0.046	-0.214
-668.062	97.296	-0.095	-0.109
-667.047	107.936	0.145	0.174
-666.032	-200.000	-0.044	0.241
-665.018	-71.940	0.037	0.014
-664.003	31.031	0.151	-0.131
-662.989	22.064	0.115	0.095
-661.974	-69.249	0.159	0.062
-660.959	-131.848	0.332	0.044
-659.945	620.758	0.034	-0.087
-658.930	154.395	0.070	-0.096
-657.916	11.624	0.091	0.070
-656.901	-109.352	0.266	0.057
-655.886	-200.000	-0.014	-0.286
-654.872	-131.544	-0.253	-0.034
-653.857	-200.000	-0.072	-0.414
-652.843	154.340	0.129	-0.178
-651.828	8.528	0.056	0.042
-650.814	-96.521	0.180	0.048
-649.799	-12.035	-0.313	-0.206
-648.784	-120.851	0.175	-0.030
-647.770	-153.819	0.113	0.008
-646.755	259.957	0.055	0.096
-645.741	168.248	-0.080	-0.115
-644.726	751.884	0.170	-0.461
-643.711	800.000	-0.016	0.054
-642.697	-200.000	0.029	0.311
-641.682	-200.000	0.050	0.293
-640.668	-200.000	0.043	-0.297
-639.653	-84.807	-0.239	-0.076
-638.638	352.198	-0.127	0.252
-637.624	274.100	-0.114	0.202
-636.609	-52.482	0.203	-0.095
-635.595	800.000	0.021	0.083
-634.580	-114.477	0.181	0.035
-633.565	-200.000	-0.058	-0.275
-632.551	187.418	-0.188	-0.283
-631.536	-87.626	-0.004	-0.001
-630.522	97.650	-0.137	-0.159
-629.507	33.929	0.349	-0.306
-628.492	331.418	0.115	-0.223
-627.478	-200.000	-0.041	-0.184
-626.463	-200.000	-0.048	-0.385
-625.449	-200.000	0.018	-0.161
-624.434	374.914	0.031	0.064
-623.419	-7.329	-0.098	0.067
-622.405	-200.000	-0.012	-0.216
-621.390	800.000	-0.085	-0.357
-620.376	800.000	-0.005	-0.013
-619.361	-57.817	-0.148	0.065
-618.346	1.229	-0.232	0.167
-617.332	-200.000	-0.001	-0.018
-616.317	-152.403	0.122	-0.009
-615.303	24.531	0.368	-0.306
-614.288	57.718	0.513	-0.504
-613.273	270.188	-0.072	-0.127
-612.259	95.159	-0.164	-0.188
-611.244	-25.753	-0.167	-0.099
-610.230	107.821	-0.086	-0.103
-609.215	-123.152	0.189	-0.030
-608.201	-31.523	-0.291	-0.164
-607.186	39.843	0.246	0.222
-606.171	-190.788	0.119	-0.001
-605.157	2.325	-0.108	-0.079
-604.142	-200.000	0.014	0.108
-603.128	-122.058	-0.340	0.056
-602.113	800.000	0.066	-0.197
-601.098	-92.580	-0.190	0.054
-600.084	163.535	-0.125	0.176
-599.069	-143.425	-0.144	-0.014
-598.055	-122.651	-0.272	-0.044
-597.040	13.616	0.205	0.160
-596.025	-42.960	0.138	0.071
-595.011	-185.487	-0.230	0.004
-593.996	-44.457	0.255	-0.128
-592.982	-175.305	0.160	0.004
-591.967	522.500	-0.035	-0.082
-590.952	-200.000	-0.021	0.260
-589.938	119.569	-0.071	0.088
-588.923	105.549	-0.179	0.212
-587.909	-153.231	-0.248	0.017
-586.894	-109.387	0.223	0.047
-585.879	-8.640	-0.125	0.084
-584.865	88.353	-0.218	-0.243
-583.850	800.000	-0.054	0.216
-582.836	57.248	-0.048	-0.047
-581.821	-200.000	0.061	-0.348
-580.806	75.497	0.146	-0.155
-579.792	-28.437	-0.066	-0.038
-578.777	-87.234	-0.535	0.163
-577.763	-25.489	0.042	0.025
-576.748	-80.932	0.327	-0.109
-575.733	-200.000	0.004	-0.195
-574.719	-134.773	0.229	-0.028
-573.704	-88.120	0.171	-0.051
-572.690	-99.391	-0.376	0.095
-571.675	95.254	0.115	-0.131
-570.661	-165.566	0.151	-0.007
-569.646	-190.203	0.421	0.005
-568.631	-200.000	-0.030	0.166
-567.617	9.805	-0.181	0.137
-566.602	-43.505	-0.464	0.235
-565.588	115.675	0.062	-0.076
-564.573	96.004	0.062	0.071
-563.558	-92.917	0.148	0.041
-562.544	28.198	0.146	-0.123
-561.529	46.795	0.103	-0.096
-560.515	800.000	0.164	0.456
-559.500	-27.989	-0.327	-0.190
-558.485	-47.779	0.191	0.093
-557.471	-186.795	0.068	0.001
-556.456	315.568	-0.025	-0.048
-555.442	654.365	0.021	-0.053
-554.427	62.829	-0.069	-0.069
-553.412	-200.000	0.017	-0.179
-552.398	-41.064	-0.283	0.147
-551.383	244.010	0.024	0.040
-550.369	-166.590	0.293	-0.012
-549.354	-141.883	0.494	0.049
-548.339	-200.000	-0.018	-0.220
-547.325	-99.615	-0.364	-0.092
-546.310	114.977	-0.152	-0.186
-545.296	-75.221	-0.149	-0.053
-544.281	12.654	0.086	-0.066
-543.266	149.838	0.141	0.191
-542.252	-200.000	0.042	-0.191
-541.237	-155.859	0.215	0.014
-540.223	59.401	-0.175	0.173
-539.208	455.339	0.061	0.136
-538.193	-3.270	0.140	-0.098
-537.179	-200.000	0.015	-0.198
-536.164	800.000	0.094	0.303
-535.150	423.933	0.173	-0.373
-534.135	-2.251	-0.219	-0.154
-533.121	66.588	-0.021	0.021
-532.106	-122.531	-0.174	0.028
-531.091	-127.162	0.159	0.023
-530.077	8.578	-0.050	-0.038
-529.062	-125.089	-0.274	-0.042
-528.048	-200.000	0.062	-0.427
-527.033	-200.000	-0.040	-0.183
-526.018	800.000	0.041	-0.157
-525.004	-200.000	-0.008	0.148
-523.989	-155.117	-0.297	-0.019
-522.975	-8.666	-0.510	0.343
-521.960	-182.032	0.100	0.002
-520.945	-200.000	-0.009	0.128
-519.931	-200.000	-0.022	0.100
-518.916	38.785	0.103	-0.092
-517.902	-127.730	-0.186	0.027
-516.887	-36.273	0.238	0.129
-515.872	339.400	-0.065	-0.127
-514.858	-104.084	0.105	0.025
-513.843	-94.443	0.344	0.094
-512.829	-31.593	0.216	0.121
-511.814	-115.020	0.377	0.072
-510.799	-113.616	0.313	0.061
-509.785	47.179	0.049	-0.046
-508.770	-23.785	-0.264	0.158
-507.756	-200.000	0.038	0.371
-506.741	-24.822	0.134	-0.079
-505.726	-200.000	-0.008	0.116
-504.712	-61.160	0.196	-0.083
-503.697	-145.425	-0.207	0.019
-502.683	-51.308	0.226	-0.106
-501.668	7.789	-0.423	0.317
-500.653	68.575	-0.176	0.180
-499.639	198.724	-0.199	0.305
-498.624	330.664	-0.055	-0.105
-497.610	395.711	-0.130	0.270
-496.595	-38.949	0.074	0.039
-495.581	-32.653	-0.086	0.048
-494.566	33.588	0.083	-0.072
-493.551	23.061	-0.355	0.291
-492.537	-176.063	-0.233	0.006
-491.522	15.278	0.128	-0.101
-490.508	-78.352	-0.393	0.135
-489.493	-129.124	0.256	-0.036
-488.478	-200.000	0.021	-0.254
-487.464	-200.000	-0.011	0.084
-486.449	151.200	-0.228	0.310
-485.435	119.866	0.112	-0.139
-484.420	351.464	-0.120	-0.238
-483.405	84.264	-0.081	-0.088
-482.391	-123.861	0.168	-0.026
-481.376	-101.344	-0.312	0.076
-480.362	-110.292	-0.186	0.039
-479.347	553.094	-0.078	0.188
-478.332	81.402	-0.068	-0.073
-477.318	-46.969	0.053	-0.026
-476.303	-154.915	0.301	0.020
-475.289	390.727	-0.090	-0.186
-474.274	-7.982	0.085	-0.057
-473.259	185.434	0.039	0.058
-472.245	-200.000	-0.006	0.151
-471.230	-159.305	0.198	0.011
-470.216	-87.711	-0.165	0.050
-469.201	-162.406	0.424	0.021
-468.186	800.000	0.012	0.036
-467.172	-61.765	0.252	0.105
-466.157	104.784	-0.136	0.160
-465.143	-88.512	-0.168	0.050
-464.128	-135.124	-0.274	-0.033
-463.113	199.511	-0.046	0.070
-462.099	9.449	-0.167	-0.126
-461.084	151.186	-0.238	0.324
-460.070	-9.563	-0.275	-0.183
-459.055	-200.000	-0.022	0.129
-458.040	794.866	-0.065	0.177
-457.026	-200.000	-0.040	-0.272
-456.011	158.134	-0.075	0.104
-454.997	139.824	-0.038	0.051
-453.982	-127.614	-0.271	0.039
-452.968	479.921	-0.056	0.126
-451.953	40.063	-0.025	-0.022
-450.938	-49.320	0.223	0.106
-449.924	-21.447	0.161	-0.098
-448.909	-156.195	-0.316	0.020
-447.895	33.064	0.096	0.083
-446.880	172.760	-0.241	-0.347
-445.865	34.593	-0.131	-0.114
-444.851	290.204	0.037	0.068
-443.836	124.448	-0.268	-0.337
-442.822	-62.874	-0.024	0.010
-441.807	-200.000	-0.075	-0.339
-440.792	-61.524	0.162	0.068
-439.778	99.109	-0.162	-0.187
-438.763	-200.000	0.021	-0.136
-437.749	-200.000	0.025	0.243
-436.734	-71.557	0.158	-0.059
-435.719	-200.000	0.025	-0.118
-434.705	-200.000	-0.023	-0.314
-433.690	800.000	0.040	-0.169
-432.676	-200.000	0.051	-0.454
-431.661	-200.000	-0.016	-0.273
-430.646	-200.000	0.000	-0.114
-429.632	36.779	0.250	-0.220
-428.617	-4.654	0.095	-0.065
-427.603	-157.348	0.297	0.018
-426.588	408.313	-0.204	0.430
-425.573	-84.742	-0.129	-0.041
-424.559	800.000	0.075	0.276
-423.544	-200.000	0.025	0.109
-422.530	-37.649	-0.082	0.043
-421.515	-152.062	-0.161	-0.012
-420.500	-103.347	0.274	0.064
-419.486	-144.367	0.281	0.026
-418.471	-200.000	0.009	-0.270
-417.457	366.864	0.065	-0.132
-416.442	-184.656	-0.192	0.003
-415.428	12.881	0.152	-0.117
-414.413	800.000	0.067	-0.274
-413.398	13.786	-0.158	-0.123
-412.384	35.859	-0.015	-0.013
-411.369	100.073	-0.185	0.213
-410.355	126.942	-0.055	0.070
-409.340	-200.000	-0.007	0.106
-408.325	-81.556	-0.105	-0.034
-407.311	291.642	0.122	-0.221
-406.296	-55.829	-0.484	-0.216
-405.282	800.000	0.076	-0.248
-404.267	-104.194	0.303	-0.070
-403.252	-34.458	0.195	-0.106
-402.238	7.804	0.082	-0.061
-401.223	592.716	0.115	0.282
-400.209	-200.000	-0.025	-0.297
-399.194	231.644	-0.128	-0.210
-398.179	-32.144	-0.153	-0.085
-397.165	40.820	0.172	0.155
-396.150	-102.489	0.209	-0.050
-395.136	27.299	-0.219	-0.184
-394.121	-28.637	0.234	-0.134
-393.106	41.611	0.217	-0.196
-392.092	73.888	-0.375	-0.391
-391.077	-25.701	0.109	0.064
-390.063	68.830	0.061	-0.062
-389.048	800.000	-0.034	0.144
-388.033	800.000	0.032	-0.092
-387.019	636.069	0.135	0.342
-386.004	-12.481	-0.240	-0.156
-384.990	-102.722	0.192	-0.046
-383.975	352.231	-0.057	0.112
-382.960	-62.395	0.146	0.061
-381.946	55.120	0.210	-0.202
-380.931	593.233	-0.043	0.106
-379.917	-12.661	0.396	-0.257
-378.902	-104.862	-0.425	0.097
-377.888	800.000	0.050	0.174
-376.873	-45.711	0.210	0.103
-375.858	673.358	0.067	0.174
-374.844	-52.412	-0.212	0.098
-373.829	-55.802	-0.115	-0.051
-372.815	213.020	-0.283	0.445
-371.800	-200.000	0.001	0.102
-370.785	545.272	0.090	-0.215
-369.771	120.898	-0.167	-0.207
-368.756	672.268	0.103	0.265
-367.742	-95.424	0.039	-0.010
-366.727	-30.379	0.033	0.019
-365.712	800.000	0.116	0.441
-364.698	-200.000	0.004	0.052
-363.683	800.000	-0.040	0.161
-362.669	38.209	0.062	-0.055
-361.654	5.410	0.200	-0.146
-360.639	136.199	0.083	-0.107
-359.625	-34.133	-0.390	0.213
-358.610	-52.621	0.250	0.115
-357.596	800.000	0.022	-0.062
-356.581	-96.124	0.187	0.049
-355.566	-172.273	0.127	-0.004
-354.552	162.749	-0.191	0.266
-353.537	-119.706	-0.190	-0.033
-352.523	-90.468	-0.217	-0.062
-351.508	-84.510	0.265	-0.083
-350.493	-78.172	0.226	0.077
-349.479	508.469	-0.084	-0.193
-348.464	605.166	0.161	0.400
-347.450	207.032	0.072	-0.112
-346.435	-82.407	-0.414	-0.134
-345.420	-109.390	0.187	0.039
-344.406	103.047	-0.181	-0.211
-343.391	-43.661	-0.100	-0.050
-342.377	778.614	0.034	0.093
-341.362	92.692	-0.045	-0.051
-340.348	36.700	-0.085	-0.075
-339.333	-51.147	0.155	-0.072
-338.318	-59.105	-0.080	-0.034
-337.304	100.293	0.159	-0.184
-336.289	-102.848	0.203	-0.048
-335.275	800.000	0.168	-0.570
-334.260	-200.000	-0.036	0.194
-333.245	-111.747	0.281	0.057
-332.231	800.000	-0.033	-0.111
-331.216	-66.255	-0.225	-0.089
-330.202	-200.000	-0.293	0.001
-329.187	-40.539	0.188	-0.097
-328.172	101.776	-0.057	0.066
-327.158	-200.000	0.039	0.659
-326.143	-27.348	0.235	-0.136
-325.129	-36.625	0.208	0.111
-324.114	217.746	-0.167	-0.264
-323.099	-200.000	-0.041	-0.240
-322.085	-12.392	-0.093	0.060
-321.070	-35.437	-0.259	0.140
-320.056	-146.099	0.131	0.011
-319.041	35.302	-0.100	0.087
-318.026	-156.388	0.269	-0.017
-317.012	-200.000	-0.382	-0.001
-315.997	-74.466	-0.296	-0.106
-314.983	800.000	0.002	0.008
-313.968	-97.886	-0.034	0.009
-312.953	-67.931	-0.085	0.033
-311.939	210.225	0.195	-0.304
-310.924	-200.000	-0.029	-0.127
-309.910	-54.851	0.113	-0.051
-308.895	-200.000	0.003	-0.096
-307.880	-136.965	-0.063	-0.007
-306.866	-200.000	-0.004	0.153
-305.851	40.080	-0.209	0.187
-304.837	-200.000	-0.006	0.298
-303.822	274.119	-0.139	-0.244
-302.807	21.046	-0.068	0.055
-301.793	-200.000	-0.016	0.091
-300.778	-40.997	-0.198	0.102
-299.764	116.068	0.190	-0.231
-298.749	-108.044	0.116	0.025
-297.735	-200.000	-0.011	0.184
-296.720	-109.374	-0.063	-0.013
-295.705	-36.836	0.183	-0.097
-294.691	21.066	0.130	0.105
-293.676	130.246	-0.046	0.059
-292.662	349.109	-0.127	-0.248
-291.647	77.205	-0.054	-0.057
-290.632	73.547	0.119	-0.124
-289.618	-92.405	-0.218	-0.061
-288.603	75.299	0.211	0.220
-287.589	289.264	-0.065	0.117
-286.574	175.910	0.149	0.214
-285.559	290.201	-0.068	-0.122
-284.545	383.430	-0.063	-0.128
-283.530	-75.373	0.226	0.080
-282.516	6.963	-0.152	0.113
-281.501	-181.523	-0.196	-0.004
-280.486	-7.188	0.035	0.024
-279.472	-200.000	-0.033	0.200
-278.457	545.744	0.155	0.366
-277.443	0.005	-0.146	0.103
-276.428	458.091	0.072	0.158
-275.413	-200.000	0.016	0.159
-274.399	-47.505	-0.181	0.087
-273.384	-71.852	-0.125	0.046
-272.370	-84.043	0.247	0.078
-271.355	344.220	-0.038	0.073
-270.340	-129.545	-0.466	0.064
-269.326	-63.968	0.195	-0.079
-268.311	53.407	-0.072	0.069
-267.297	-187.739	-0.120	-0.002
-266.282	5.628	-0.021	0.016
-265.267	-106.137	0.371	-0.083
-264.253	89.259	0.243	0.268
-263.238	226.802	0.063	0.102
-262.224	39.655	0.167	0.148
-261.209	-30.716	0.235	-0.132
-260.195	214.074	0.085	-0.133
-259.180	-159.452	-0.071	-0.004
-258.165	302.474	0.156	0.286
-257.151	346.511	0.148	0.288
-256.136	-200.000	0.026	0.221
-255.122	-57.504	-0.122	-0.053
-254.107	800.000	0.049	0.135
-253.092	-200.000	0.073	0.447
-252.078	-29.579	0.122	-0.069
-251.063	-200.000	0.056	0.280
-250.049	402.936	-0.018	-0.038
-249.034	-15.379	0.242	0.153
-248.019	-5.530	0.216	-0.147
-247.005	800.000	0.065	0.193
-245.990	-5.625	-0.378	-0.257
-244.976	-64.155	-0.379	-0.153
-243.961	63.440	0.172	-0.171
-242.946	203.339	0.203	-0.311
-241.932	149.243	0.102	-0.136
-240.917	-34.307	-0.173	0.094
-239.903	378.112	-0.205	-0.415
-238.888	142.498	0.175	0.230
-237.873	255.622	0.065	0.111
-236.859	274.669	-0.164	-0.288
-235.844	14.700	0.074	-0.057
-234.830	-70.947	0.123	0.046
-233.815	187.568	0.109	-0.160
-232.800	-72.764	-0.408	0.149
-231.786	-126.832	0.237	0.035
-230.771	-200.000	0.012	0.268
-229.757	-200.000	0.041	-0.263
-228.742	29.465	0.265	-0.223
-227.727	11.370	-0.256	0.194
-226.713	-106.910	0.253	0.055
-225.698	-12.971	0.281	-0.181
-224.684	800.000	0.047	0.135
-223.669	-7.540	-0.095	0.064
-222.655	-157.453	0.233	0.014
-221.640	800.000	-0.076	0.231
-220.625	-24.079	0.420	-0.248
-219.611	-14.196	0.217	-0.138
-218.596	-200.000	0.007	0.299
-217.582	-200.000	-0.102	0.448
-216.567	-200.000	-0.011	-0.312
-215.552	800.000	-0.032	-0.104
-214.538	800.000	-0.078	0.298
-213.523	196.251	-0.137	0.206
-212.509	228.580	-0.261	-0.420
-211.494	800.000	-0.092	-0.252
-210.479	-200.000	-0.002	0.287
-209.465	-124.028	0.130	0.020
-208.450	-64.890	-0.144	0.058
-207.436	30.196	0.246	0.207
-206.421	-33.521	-0.253	0.138
-205.406	74.226	0.295	-0.307
-204.392	260.807	-0.079	0.136
-203.377	-84.695	0.470	0.146
-202.363	-200.000	-0.002	-0.049
-201.348	800.000	0.047	-0.154
-200.333	-57.261	0.243	0.106
-199.319	-12.992	0.358	-0.230
-198.304	2.094	-0.012	-0.008
-197.290	-59.653	0.155	0.066
-196.275	496.941	-0.105	0.238
-195.260	-200.000	-0.004	0.031
-194.246	-200.000	0.022	0.327
-193.231	800.000	-0.038	0.135
-192.217	460.135	-0.077	0.169
-191.202	-200.000	0.022	-0.204
-190.187	-116.461	-0.207	0.038
-189.173	-69.004	0.285	-0.108
-188.158	-71.824	-0.205	-0.075
-187.144	242.955	0.158	0.261
-186.129	800.000	0.135	0.427
-185.114	13.515	-0.194	-0.149
-184.100	-155.771	0.142	0.009
-183.085	800.000	0.064	0.192
-182.071	-22.728	-0.211	-0.126
-181.056	-114.252	-0.335	0.064
-180.042	122.982	-0.130	-0.161
-179.027	-200.000	0.002	0.101
-178.012	188.409	-0.075	0.111
-176.998	91.903	-0.241	0.267
-175.983	-200.000	0.025	0.196
-174.969	186.293	0.129	-0.190
-173.954	9.340	0.216	0.161
-172.939	-74.890	-0.190	-0.067
-171.925	-79.359	-0.187	0.063
-170.910	-101.307	0.252	0.061
-169.896	-161.820	0.170	0.009
-168.881	-119.315	-0.339	0.058
-167.866	113.636	-0.102	0.122
-166.852	-3.895	-0.338	0.232
-165.837	-115.973	-0.227	-0.042
-164.823	28.985	-0.163	0.137
-163.808	-200.000	-0.033	-0.177
-162.793	-21.597	0.239	0.144
-161.779	-200.000	-0.051	0.449
-160.764	-200.000	0.017	-0.242
-159.750	-20.430	0.088	0.053
-158.735	24.735	0.235	-0.192
-157.720	-42.199	-0.326	-0.164
-156.706	298.631	-0.134	-0.243
-155.691	-143.576	0.265	0.025
-154.677	534.211	0.089	0.209
-153.662	274.084	0.094	0.164
-152.647	-149.760	-0.054	-0.004
-151.633	221.590	0.100	-0.159
-150.618	-200.000	-0.026	-0.214
-149.604	247.969	0.195	0.326
-148.589	-200.000	-0.047	0.225
-147.574	492.058	0.107	-0.243
-146.560	-33.845	0.282	0.153
-145.545	-124.874	0.250	-0.038
-144.531	214.213	-0.071	0.110
-143.516	133.474	-0.131	0.167
-142.502	-200.000	0.022	-0.153
-141.487	-98.188	0.447	0.113
-140.472	150.256	-0.241	0.323
-139.458	-200.000	0.016	0.268
-138.443	47.486	0.277	-0.255
-137.429	-200.000	-0.055	0.249
-136.414	-10.285	0.233	0.152
-135.399	-38.295	0.236	-0.123
-134.385	-200.000	-0.019	-0.401
-133.370	395.080	0.099	-0.203
-132.356	800.000	0.120	0.337
-131.341	-70.568	-0.379	0.141
-130.326	800.000	0.049	-0.203
-129.312	267.416	0.123	0.212
-128.297	340.748	-0.117	-0.226
-127.283	406.685	0.047	0.099
-126.268	-139.668	0.124	0.013
-125.253	121.919	0.087	0.107
-124.239	-10.630	-0.411	0.268
-123.224	717.446	0.130	0.339
-122.210	-87.531	0.158	0.047
-121.195	-200.000	0.021	0.095
