DTS Sentinel unit serial number:	SN413079Multiplexer serial number:	ORYXHardware model number:	OX4-SRSoftware version number:	ORYX F/W v4.00 Oryx Data Collector v3.7.2.0data status	okinstallation	princeton_trtdifferential loss correction	single-endedforward channel	channel 1reverse channel	N/Adate	2019/09/13time	12:54:35forward acquisition time	60.00reverse acquisition time	0.00gamma	496.2192k internal	0.2306k external	0.2306temperature offset calibration	1.0167default loss term (dB/km)	0.3790temperature slope calibration	1.0000multiplexer offset coefficient	1.0000multiplexer slope coefficient	1.0000fibre end	0.00T internal ref (°C)	34.75T ext. ref 1 (°C)	4.57T ext. ref 2 (°C)	30.50length (m)	temperature (°C)	Stokes	anti-Stokes-747.200	11.062	0.121	-0.094
-746.185	-200.000	-0.042	-0.285
-745.171	62.737	0.147	0.149
-744.156	-47.224	-0.245	0.121
-743.142	0.559	0.188	0.136
-742.127	-61.700	0.285	0.122
-741.112	-25.364	0.078	-0.047
-740.098	-17.212	-0.403	0.258
-739.083	125.458	0.108	-0.138
-738.069	800.000	0.114	0.336
-737.054	-49.236	-0.143	-0.069
-736.039	-60.146	-0.425	0.184
-735.025	-38.054	0.138	0.074
-734.010	-121.175	-0.485	-0.083
-732.996	-52.530	-0.322	-0.152
-731.981	-32.784	-0.186	-0.105
-730.966	-52.443	0.058	0.027
-729.952	622.865	-0.033	-0.084
-728.937	-200.000	0.053	-0.238
-727.923	79.864	-0.077	-0.084
-726.908	27.086	-0.296	0.252
-725.894	517.755	-0.090	0.213
-724.879	-115.437	0.333	0.064
-723.864	115.622	-0.107	-0.133
-722.850	-43.206	-0.211	-0.109
-721.835	66.080	-0.196	-0.202
-720.821	-34.271	-0.232	0.129
-719.806	800.000	-0.045	-0.174
-718.791	-85.120	-0.044	-0.014
-717.777	-184.184	-0.180	0.003
-716.762	81.165	0.043	-0.047
-715.748	-65.797	-0.210	-0.085
-714.733	55.765	-0.164	-0.161
-713.718	-26.246	0.137	-0.082
-712.704	138.555	-0.154	0.205
-711.689	469.227	0.105	-0.239
-710.675	-181.324	0.336	-0.007
-709.660	-94.709	-0.343	0.095
-708.645	128.493	-0.136	0.176
-707.631	222.157	-0.109	-0.179
-706.616	312.024	0.030	0.057
-705.602	800.000	0.044	0.136
-704.587	221.224	-0.155	-0.252
-703.572	-200.000	0.002	-0.195
-702.558	13.434	-0.087	-0.069
-701.543	121.552	-0.058	-0.073
-700.529	-200.000	-0.004	-0.078
-699.514	-200.000	-0.043	-0.233
-698.499	224.122	0.053	0.087
-697.485	-111.182	-0.297	-0.062
-696.470	251.543	-0.217	0.375
-695.456	-132.881	-0.221	-0.029
-694.441	-21.366	-0.138	-0.086
-693.426	-175.982	-0.135	-0.004
-692.412	21.949	-0.409	-0.339
-691.397	-200.000	0.020	0.242
-690.383	-200.000	-0.085	-0.446
-689.368	-200.000	0.057	0.308
-688.354	557.625	-0.017	0.042
-687.339	-155.373	0.193	0.013
-686.324	-64.740	0.233	0.096
-685.310	249.152	-0.043	-0.074
-684.295	138.844	-0.210	-0.281
-683.281	71.386	-0.196	0.206
-682.266	596.042	0.123	0.309
-681.251	247.618	-0.144	0.248
-680.237	53.466	-0.125	-0.122
-679.222	98.195	0.112	0.131
-678.208	614.921	-0.154	-0.391
-677.193	-178.966	0.107	-0.002
-676.178	-35.707	0.165	-0.091
-675.164	800.000	-0.089	-0.303
-674.149	-54.675	-0.255	0.117
-673.135	-129.325	0.060	0.009
-672.120	-181.863	0.087	-0.002
-671.105	155.436	-0.157	0.219
-670.091	-143.137	0.230	0.022
-669.076	800.000	0.043	0.148
-668.062	356.542	0.063	-0.128
-667.047	705.712	0.094	-0.251
-666.032	-200.000	0.002	-0.042
-665.018	-139.713	-0.261	0.028
-664.003	-72.016	-0.040	0.015
-662.989	-200.000	-0.016	0.304
-661.974	656.727	0.114	-0.297
-660.959	86.740	-0.176	-0.197
-659.945	124.414	-0.163	-0.208
-658.930	-200.000	0.024	-0.414
-657.916	643.579	-0.119	-0.307
-656.901	-45.253	-0.251	0.126
-655.886	-61.517	0.091	0.039
-654.872	104.960	-0.067	-0.080
-653.857	-103.840	0.316	0.075
-652.843	-123.358	-0.241	-0.039
-651.828	-57.576	0.130	0.058
-650.814	-63.999	-0.133	0.055
-649.799	-174.700	0.122	0.004
-648.784	-200.000	-0.017	-0.154
-647.770	-200.000	-0.100	-0.555
-646.755	-0.534	0.073	-0.053
-645.741	110.791	-0.141	-0.172
-644.726	151.639	0.080	-0.110
-643.711	-99.541	-0.067	0.017
-642.697	800.000	-0.106	-0.386
-641.682	-161.965	0.198	-0.010
-640.668	158.783	-0.197	0.277
-639.653	-143.319	0.059	-0.006
-638.638	-58.814	0.205	0.090
-637.624	752.594	-0.113	0.310
-636.609	-88.481	-0.151	-0.046
-635.595	36.358	-0.343	0.306
-634.580	16.801	-0.189	-0.151
-633.565	643.553	-0.034	-0.088
-632.551	246.015	0.080	-0.136
-631.536	-60.824	0.228	0.098
-630.522	-90.742	0.169	-0.049
-629.507	542.612	-0.077	-0.186
-628.492	-187.803	0.274	0.004
-627.478	-55.973	-0.201	-0.091
-626.463	121.416	0.240	-0.303
-625.449	18.587	0.153	0.124
-624.434	41.205	-0.193	0.177
-623.419	-175.720	0.248	0.007
-622.405	202.567	-0.159	0.249
-621.390	-172.698	0.348	-0.011
-620.376	-164.656	-0.332	0.015
-619.361	505.062	-0.099	-0.233
-618.346	-200.000	0.058	-0.289
-617.332	-63.656	-0.193	0.080
-616.317	26.591	-0.091	-0.077
-615.303	-200.000	-0.004	0.130
-614.288	-49.285	0.430	0.208
-613.273	671.318	-0.100	-0.262
-612.259	-66.995	-0.063	-0.025
-611.244	-200.000	0.006	-0.397
-610.230	-6.008	-0.221	0.153
-609.215	-155.892	-0.289	0.019
-608.201	504.703	-0.140	-0.327
-607.186	-160.765	0.225	-0.012
-606.171	-83.492	-0.133	-0.043
-605.157	-101.730	-0.409	-0.100
-604.142	800.000	-0.048	-0.196
-603.128	-96.068	-0.157	-0.042
-602.113	-76.571	-0.140	-0.050
-601.098	-24.078	0.367	0.222
-600.084	375.392	-0.075	-0.156
-599.069	-190.333	0.086	-0.001
-598.055	109.641	-0.181	-0.220
-597.040	-200.000	0.033	0.247
-596.025	86.681	0.137	0.153
-595.011	-200.000	-0.004	0.171
-593.996	156.918	-0.129	0.181
-592.982	800.000	0.051	0.212
-591.967	800.000	0.041	-0.125
-590.952	800.000	0.042	0.125
-589.938	-16.992	0.188	-0.120
-588.923	213.931	-0.224	-0.358
-587.909	175.867	-0.149	-0.219
-586.894	-17.421	0.031	-0.020
-585.879	-120.329	0.154	-0.026
-584.865	-200.000	-0.060	0.404
-583.850	256.487	-0.090	0.156
-582.836	117.247	0.064	0.079
-581.821	102.124	-0.245	-0.290
-580.806	-200.000	0.034	0.196
-579.792	-152.890	0.287	0.021
-578.777	84.563	-0.171	-0.189
-577.763	800.000	0.106	-0.369
-576.748	-200.000	0.007	0.331
-575.733	74.155	-0.096	-0.102
-574.719	91.228	-0.147	-0.167
-573.704	366.667	0.080	-0.164
-572.690	240.416	-0.157	0.264
-571.675	13.892	-0.195	-0.153
-570.661	85.868	-0.162	-0.180
-569.646	146.992	-0.089	-0.121
-568.631	35.135	0.121	-0.107
-567.617	800.000	-0.088	-0.334
-566.602	-134.674	-0.117	-0.014
-565.588	61.269	-0.024	0.024
-564.573	-130.049	-0.067	-0.009
-563.558	-200.000	0.007	-0.113
-562.544	-84.358	0.219	-0.070
-561.529	308.458	0.108	-0.203
-560.515	669.923	0.041	-0.106
-559.500	800.000	-0.046	-0.201
-558.485	120.865	-0.084	0.106
-557.471	-163.746	-0.221	-0.010
-556.456	18.358	0.277	-0.223
-555.442	-67.080	0.258	0.103
-554.427	-27.206	0.235	0.138
-553.412	800.000	-0.048	0.159
-552.398	800.000	-0.108	0.311
-551.383	85.317	0.098	-0.108
-550.369	120.053	-0.060	0.076
-549.354	-200.000	0.041	-0.321
-548.339	44.383	-0.125	0.116
-547.325	-56.229	0.245	0.110
-546.310	-107.943	-0.121	0.026
-545.296	-44.702	-0.297	0.150
-544.281	45.603	-0.207	0.193
-543.266	800.000	0.077	0.242
-542.252	-200.000	-0.023	0.325
-541.237	800.000	-0.006	-0.022
-540.223	230.535	-0.010	-0.016
-539.208	434.399	0.099	-0.217
-538.193	206.892	-0.189	-0.298
-537.179	-112.161	-0.208	0.042
-536.164	472.074	-0.025	-0.057
-535.150	-200.000	-0.026	0.403
-534.135	562.996	0.081	-0.199
-533.121	706.571	0.115	0.308
-532.106	5.714	-0.188	-0.140
-531.091	145.751	-0.058	-0.078
-530.077	292.603	-0.098	-0.180
-529.062	158.071	-0.212	0.296
-528.048	-19.283	0.202	-0.127
-527.033	6.244	-0.102	-0.076
-526.018	800.000	-0.021	-0.086
-525.004	65.864	0.158	0.162
-523.989	-200.000	-0.012	0.073
-522.975	25.875	-0.316	-0.266
-521.960	-77.298	0.282	0.099
-520.945	580.317	0.104	-0.258
-519.931	800.000	0.030	0.108
-518.916	272.828	-0.137	-0.245
-517.902	202.978	0.047	-0.074
-516.887	-16.011	-0.136	0.087
-515.872	-92.311	0.305	0.087
-514.858	44.432	-0.151	0.140
-513.843	-100.553	-0.114	-0.028
-512.829	346.441	0.124	0.247
-511.814	-200.000	-0.010	0.181
-510.799	-73.755	-0.093	-0.034
-509.785	14.035	0.451	-0.354
-508.770	-200.000	-0.016	-0.207
-507.756	-107.736	0.122	-0.027
-506.741	-200.000	-0.093	0.499
-505.726	-8.869	0.058	0.039
-504.712	-102.966	0.118	0.028
-503.697	-174.801	0.217	0.006
-502.683	-200.000	0.033	0.203
-501.668	449.319	-0.063	0.139
-500.653	-86.501	-0.456	-0.141
-499.639	-137.830	-0.198	-0.022
-498.624	-44.072	0.169	-0.085
-497.610	5.202	-0.160	-0.119
-496.595	800.000	-0.064	-0.198
-495.581	-83.347	0.309	-0.100
-494.566	-200.000	0.025	-0.143
-493.551	223.984	-0.071	-0.116
-492.537	-100.500	0.170	0.042
-491.522	-200.000	0.003	0.401
-490.508	109.488	0.270	0.326
-489.493	84.469	-0.242	0.267
-488.478	-200.000	0.016	-0.149
-487.464	286.627	-0.231	-0.419
-486.449	-158.899	0.239	0.014
-485.435	-14.467	0.166	-0.108
-484.420	-21.608	-0.327	0.200
-483.405	214.099	-0.231	-0.368
-482.391	-200.000	-0.024	-0.116
-481.376	25.900	-0.044	-0.037
-480.362	172.313	0.035	-0.051
-479.347	130.498	-0.171	-0.221
-478.332	-200.000	0.017	0.128
-477.318	-9.350	-0.069	0.046
-476.303	50.324	0.201	0.191
-475.289	-117.715	0.278	-0.050
-474.274	-200.000	0.038	-0.257
-473.259	-30.851	0.297	0.169
-472.245	-200.000	-0.005	0.282
-471.230	-200.000	0.028	-0.379
-470.216	298.803	0.071	0.132
-469.201	384.724	-0.034	0.070
-468.186	-88.971	0.102	0.030
-467.172	800.000	-0.051	-0.199
-466.157	619.192	-0.138	-0.350
-465.143	-63.757	-0.340	-0.140
-464.128	800.000	-0.038	0.116
-463.113	-5.229	0.254	0.176
-462.099	-200.000	0.072	0.416
-461.084	51.592	0.115	-0.110
-460.070	45.450	-0.211	-0.196
-459.055	707.037	0.097	-0.257
-458.040	-200.000	-0.014	-0.146
-457.026	-200.000	-0.043	0.390
-456.011	-132.477	-0.084	-0.011
-454.997	-23.931	0.086	-0.052
-453.982	-129.271	0.184	0.026
-452.968	-200.000	-0.020	0.260
-451.953	273.800	0.081	0.144
-450.938	-43.895	0.161	0.082
-449.924	34.564	-0.146	0.128
-448.909	470.975	0.070	0.158
-447.895	-23.295	-0.446	-0.270
-446.880	800.000	-0.193	-0.554
-445.865	-95.705	0.023	0.006
-444.851	-200.000	-0.224	0.001
-443.836	40.064	-0.093	0.084
-442.822	254.451	0.069	0.119
-441.807	-172.264	0.302	-0.010
-440.792	47.801	0.147	-0.138
-439.778	-36.567	-0.276	0.149
-438.763	-200.000	0.008	-0.142
-437.749	93.085	0.130	-0.148
-436.734	352.558	-0.152	0.304
-435.719	-200.000	-0.037	0.176
-434.705	9.914	-0.170	-0.130
-433.690	9.672	-0.052	-0.040
-432.676	-136.673	0.296	-0.034
-431.661	331.667	-0.083	-0.160
-430.646	-33.952	0.367	-0.203
-429.632	12.444	0.059	-0.046
-428.617	800.000	-0.088	-0.348
-427.603	583.279	-0.094	-0.233
-426.588	47.044	0.327	0.305
-425.573	10.177	-0.273	0.208
-424.559	30.312	-0.084	0.072
-423.544	-33.904	0.129	0.071
-422.530	-144.189	0.304	-0.029
-421.515	525.522	0.111	-0.263
-420.500	-200.000	-0.038	0.178
-419.486	-61.867	0.098	-0.041
-418.471	-98.940	0.188	-0.048
-417.457	-200.000	0.008	-0.157
-416.442	-82.183	-0.206	-0.068
-415.428	521.112	0.048	-0.113
-414.413	800.000	-0.042	0.176
-413.398	39.104	0.119	-0.107
-412.384	-112.476	0.200	0.040
-411.369	357.322	-0.087	0.174
-410.355	800.000	0.075	0.228
-409.340	50.262	-0.148	-0.141
-408.325	124.479	-0.101	0.128
-407.311	359.215	-0.115	0.231
-406.296	-95.117	0.184	0.050
-405.282	50.008	-0.252	-0.239
-404.267	69.673	0.211	-0.218
-403.252	800.000	-0.095	0.349
-402.238	63.946	-0.312	0.315
-401.223	599.479	-0.126	0.314
-400.209	-149.804	0.338	0.027
-399.194	-125.772	0.217	-0.033
-398.179	-134.057	-0.384	-0.048
-397.165	24.403	0.230	0.191
-396.150	-11.633	-0.148	-0.098
-395.136	-200.000	-0.006	-0.060
-394.121	-105.890	0.081	-0.018
-393.106	28.416	-0.010	-0.009
-392.092	488.657	-0.109	0.250
-391.077	441.489	-0.061	-0.133
-390.063	-134.023	0.165	-0.021
-389.048	227.940	0.079	0.129
-388.033	-10.640	-0.196	-0.130
-387.019	-200.000	-0.001	-0.215
-386.004	-21.164	-0.292	-0.179
-384.990	800.000	-0.030	-0.129
-383.975	261.233	0.103	-0.179
-382.960	-131.960	-0.298	-0.039
-381.946	-200.000	0.055	-0.344
-380.931	-16.895	0.110	0.070
-379.917	184.187	0.093	-0.138
-378.902	-200.000	0.022	-0.167
-377.888	19.423	-0.047	-0.038
-376.873	800.000	0.093	0.367
-375.858	800.000	-0.127	0.500
-374.844	-76.766	0.237	-0.083
-373.829	-68.684	-0.126	-0.049
-372.815	800.000	-0.088	0.245
-371.800	9.211	-0.417	0.316
-370.785	420.335	-0.183	0.393
-369.771	-84.159	0.153	0.049
-368.756	-52.653	0.034	0.016
-367.742	-197.254	0.247	0.002
-366.727	800.000	0.028	-0.103
-365.712	27.411	0.012	-0.010
-364.698	-78.302	-0.219	-0.075
-363.683	-200.000	-0.021	0.154
-362.669	800.000	0.072	-0.250
-361.654	-123.859	-0.109	-0.017
-360.639	-40.885	0.211	-0.110
-359.625	54.307	-0.230	0.222
-358.610	70.853	0.150	0.156
-357.596	-200.000	-0.024	0.143
-356.581	199.935	-0.044	-0.067
-355.566	-122.104	0.328	0.054
-354.552	134.079	0.232	-0.302
-353.537	-200.000	0.022	0.172
-352.523	-134.667	-0.274	-0.033
-351.508	-185.419	0.112	0.002
-350.493	-88.238	0.029	-0.009
-349.479	481.345	0.086	-0.196
-348.464	-67.716	0.181	0.071
-347.450	-116.089	0.263	0.049
-346.435	-200.000	-0.028	-0.295
-345.420	-115.994	-0.271	0.051
-344.406	-73.783	-0.246	-0.090
-343.391	800.000	0.049	-0.198
-342.377	63.713	-0.092	-0.092
-341.362	-4.511	0.125	-0.086
-340.348	-200.000	-0.009	0.119
-339.333	-112.327	0.249	-0.050
-338.318	556.731	-0.104	0.252
-337.304	-73.681	-0.422	0.154
-336.289	-117.264	-0.288	-0.052
-335.275	-200.000	-0.004	-0.403
-334.260	45.655	-0.191	-0.177
-333.245	800.000	-0.010	-0.028
-332.231	112.755	-0.105	-0.128
-331.216	-73.218	0.259	0.095
-330.202	-103.925	-0.170	-0.040
-329.187	-63.674	0.304	-0.125
-328.172	415.546	-0.024	0.052
-327.158	-200.000	-0.009	-0.611
-326.143	800.000	0.082	-0.314
-325.129	800.000	0.033	-0.120
-324.114	-28.159	0.269	-0.156
-323.099	-77.015	-0.077	0.027
-322.085	91.130	-0.074	0.083
-321.070	-200.000	0.029	0.228
-320.056	52.130	0.160	0.152
-319.041	-71.694	0.361	0.135
-318.026	-104.788	-0.195	-0.045
-317.012	-200.000	-0.058	-0.287
-315.997	348.622	-0.131	0.259
-314.983	-51.514	0.296	0.139
-313.968	-133.829	-0.453	0.056
-312.953	-38.693	-0.077	-0.040
-311.939	95.918	0.207	0.237
-310.924	-200.000	0.029	0.229
-309.910	250.878	-0.015	-0.026
-308.895	-200.000	0.005	-0.033
-307.880	-28.410	0.111	0.064
-306.866	-3.527	-0.339	0.236
-305.851	-78.483	0.270	0.093
-304.837	-135.543	-0.214	0.025
-303.822	11.491	0.103	0.079
-302.807	-200.000	-0.024	0.167
-301.793	-165.281	0.234	-0.010
-300.778	-114.454	0.231	0.044
-299.764	800.000	0.119	0.365
-298.749	-103.851	-0.235	-0.055
-297.735	-200.000	-0.007	0.123
-296.720	-200.000	-0.054	-0.507
-295.705	-113.820	-0.344	0.067
-294.691	-200.000	0.034	0.178
-293.676	-136.353	0.067	-0.008
-292.662	-50.789	-0.080	-0.038
-291.647	100.092	-0.112	-0.129
-290.632	10.729	0.100	0.076
-289.618	-7.524	0.278	0.188
-288.603	-200.000	-0.021	0.133
-287.589	132.297	-0.042	-0.054
-286.574	-18.811	0.035	0.022
-285.559	-80.412	-0.312	-0.104
-284.545	-7.247	0.140	0.095
-283.530	242.146	-0.204	0.341
-282.516	800.000	-0.076	0.277
-281.501	172.072	0.178	0.256
-280.486	-44.372	0.398	0.199
-279.472	800.000	0.065	0.276
-278.457	238.491	0.057	0.095
-277.443	-108.086	0.312	-0.068
-276.428	-119.707	0.120	-0.021
-275.413	-142.917	0.244	0.024
-274.399	-200.000	0.034	-0.159
-273.384	148.905	0.122	0.164
-272.370	-8.107	0.146	-0.098
-271.355	800.000	0.054	-0.170
-270.340	800.000	-0.031	-0.122
-269.326	-17.026	0.265	0.167
-268.311	8.063	-0.075	0.056
-267.297	-16.715	0.165	0.104
-266.282	800.000	0.046	-0.129
-265.267	-16.650	0.234	0.148
-264.253	-200.000	-0.020	-0.265
-263.238	-41.094	0.247	-0.127
-262.224	156.189	-0.191	-0.263
-261.209	800.000	0.135	0.430
-260.195	-95.618	0.319	0.085
-259.180	108.662	-0.175	0.209
-258.165	-200.000	0.036	0.258
-257.151	-93.068	0.248	0.069
-256.136	-141.854	0.160	-0.016
-255.122	800.000	-0.017	0.051
-254.107	124.712	-0.154	0.193
-253.092	-186.891	0.081	-0.001
-252.078	-24.360	-0.149	-0.089
-251.063	-14.468	0.158	0.101
-250.049	-117.735	-0.265	0.048
-249.034	-68.718	0.150	-0.058
-248.019	-200.000	-0.016	-0.116
-247.005	800.000	-0.055	0.165
-245.990	26.564	0.100	-0.084
-244.976	26.080	-0.305	-0.254
-243.961	63.764	-0.173	0.174
-242.946	-64.447	0.263	-0.107
-241.932	-26.959	0.206	-0.120
-240.917	679.729	0.124	0.322
-239.903	-138.273	-0.116	-0.013
-238.888	-200.000	-0.005	0.257
-237.873	75.539	-0.152	-0.160
-236.859	-200.000	-0.006	-0.461
-235.844	218.669	-0.031	-0.050
-234.830	-91.249	0.114	-0.032
-233.815	800.000	0.032	-0.120
-232.800	800.000	-0.033	-0.094
-231.786	-109.039	-0.117	-0.025
-230.771	-187.326	-0.325	-0.004
-229.757	-200.000	-0.034	0.254
-228.742	-82.178	-0.134	0.044
-227.727	-65.850	-0.148	-0.059
-226.713	-106.331	-0.041	-0.009
-225.698	196.250	-0.069	0.105
-224.684	78.284	-0.032	-0.034
-223.669	-100.182	-0.243	-0.060
-222.655	-145.748	-0.522	0.046
-221.640	558.491	0.086	-0.207
-220.625	173.043	0.058	0.083
-219.611	-200.000	-0.026	-0.128
-218.596	244.853	0.139	0.233
-217.582	-200.000	-0.018	0.114
-216.567	800.000	-0.094	-0.291
-215.552	78.480	0.250	-0.266
-214.538	-142.190	-0.170	0.017
-213.523	-16.218	-0.041	0.026
-212.509	25.204	0.192	-0.159
-211.494	23.081	-0.160	0.131
-210.479	-86.249	0.586	-0.180
-209.465	-103.489	-0.103	0.024
-208.450	-29.468	0.032	0.018
-207.436	444.120	0.076	0.166
-206.421	21.124	-0.113	-0.091
-205.406	-200.000	-0.068	0.317
-204.392	50.326	0.164	-0.154
-203.377	-150.770	0.317	0.024
-202.363	-133.621	0.022	0.003
-201.348	-80.058	-0.217	-0.073
-200.333	7.729	-0.111	-0.083
-199.319	52.709	-0.297	-0.283
-198.304	-99.977	0.181	-0.045
-197.290	-83.022	-0.174	-0.056
-196.275	37.395	0.259	-0.229
-195.260	-107.142	0.272	0.060
-194.246	164.218	0.096	0.135
-193.231	105.526	0.123	-0.144
-192.217	-93.401	0.343	-0.095
-191.202	355.181	-0.161	0.319
-190.187	-50.831	0.138	-0.064
-189.173	-152.365	0.131	-0.009
-188.158	-200.000	-0.001	0.154
-187.144	72.902	-0.241	-0.250
-186.129	52.498	-0.243	0.231
-185.114	6.656	0.259	0.192
-184.100	-200.000	0.026	0.291
-183.085	-6.761	-0.219	0.148
-182.071	556.597	-0.044	0.105
-181.056	58.556	0.126	0.123
-180.042	223.507	-0.061	0.097
-179.027	-154.069	-0.141	-0.010
-178.012	34.990	0.015	-0.013
-176.998	-163.164	0.221	-0.011
-175.983	77.592	-0.054	0.057
-174.969	800.000	0.011	-0.043
-173.954	-200.000	-0.067	-0.340
-172.939	-27.668	-0.170	0.098
-171.925	520.288	0.039	-0.091
-170.910	-61.602	0.221	-0.092
-169.896	-59.658	-0.313	-0.133
-168.881	-200.000	-0.032	0.181
-167.866	130.274	0.119	0.151
-166.852	-200.000	-0.005	0.147
-165.837	536.076	0.196	0.462
-164.823	35.595	-0.091	-0.079
-163.808	-142.776	-0.198	-0.019
-162.793	800.000	-0.096	0.307
-161.779	454.047	0.040	0.087
-160.764	717.758	-0.074	-0.197
-159.750	-200.000	-0.030	-0.135
-158.735	87.375	-0.048	-0.053
-157.720	800.000	0.051	-0.165
-156.706	-64.438	-0.275	0.111
-155.691	-92.848	0.196	0.055
-154.677	250.792	-0.067	0.114
-153.662	800.000	0.030	-0.092
-152.647	-200.000	0.001	0.100
-151.633	800.000	0.094	0.286
-150.618	800.000	-0.130	0.387
-149.604	-200.000	-0.007	0.290
-148.589	45.531	0.075	0.069
-147.574	-132.685	0.287	0.037
-146.560	-156.980	0.130	-0.008
-145.545	68.002	0.196	-0.199
-144.531	76.228	-0.118	-0.124
-143.516	-200.000	-0.001	-0.077
-142.502	79.627	-0.188	0.201
-141.487	1.892	0.062	0.045
-140.472	82.981	-0.234	-0.253
-139.458	-118.282	0.198	0.035
-138.443	3.476	0.237	-0.171
-137.429	-77.176	0.238	-0.082
-136.414	-130.794	0.404	-0.054
-135.399	0.320	-0.236	-0.167
-134.385	207.007	-0.200	-0.309
-133.370	-200.000	-0.009	-0.170
-132.356	-200.000	-0.001	-0.140
-131.341	-200.000	-0.032	-0.218
-130.326	519.225	0.075	-0.174
-129.312	486.772	0.014	-0.031
-128.297	779.981	-0.058	0.158
-127.283	167.451	-0.041	0.058
-126.268	20.591	0.170	-0.137
-125.253	468.040	-0.246	0.548
-124.239	33.120	0.193	-0.166
-123.224	800.000	-0.068	0.264
-122.210	65.666	-0.196	0.197
