DTS Sentinel unit serial number:	SN413079Multiplexer serial number:	ORYXHardware model number:	OX4-SRSoftware version number:	ORYX F/W v4.00 Oryx Data Collector v3.7.2.0data status	okinstallation	princeton_trtdifferential loss correction	single-endedforward channel	channel 1reverse channel	N/Adate	2019/09/15time	01:42:35forward acquisition time	60.00reverse acquisition time	0.00gamma	496.2192k internal	0.2321k external	0.2321temperature offset calibration	0.9987default loss term (dB/km)	0.3790temperature slope calibration	1.0000multiplexer offset coefficient	1.0000multiplexer slope coefficient	1.0000fibre end	0.00T internal ref (°C)	31.81T ext. ref 1 (°C)	4.51T ext. ref 2 (°C)	26.72length (m)	temperature (°C)	Stokes	anti-Stokes-747.200	316.388	-0.075	0.144
-746.185	-152.462	-0.275	0.020
-745.171	-46.893	-0.187	0.092
-744.156	-200.000	-0.068	0.304
-743.142	-31.714	0.244	0.138
-742.127	196.642	0.152	0.234
-741.112	104.565	0.304	0.361
-740.098	-24.352	-0.329	-0.198
-739.083	-78.235	-0.183	-0.063
-738.069	-46.582	-0.058	-0.029
-737.054	339.840	0.115	-0.226
-736.039	-93.203	-0.283	-0.079
-735.025	-10.205	-0.208	0.140
-734.010	2.605	-0.251	-0.184
-732.996	-200.000	0.068	-0.332
-731.981	-72.335	0.222	0.083
-730.966	76.433	-0.337	0.360
-729.952	-117.088	-0.220	-0.041
-728.937	-105.011	0.308	-0.071
-727.923	-36.917	-0.221	-0.120
-726.908	-122.983	-0.280	0.046
-725.894	91.156	0.150	-0.170
-724.879	-200.000	-0.003	0.169
-723.864	97.167	0.170	0.197
-722.850	800.000	-0.021	0.061
-721.835	55.430	0.109	-0.107
-720.821	112.456	0.151	0.185
-719.806	18.038	-0.104	0.083
-718.791	-200.000	0.085	-0.426
-717.777	-200.000	-0.037	-0.378
-716.762	-200.000	-0.030	0.261
-715.748	-1.203	0.111	0.079
-714.733	52.722	0.176	0.169
-713.718	178.916	-0.083	-0.122
-712.704	13.716	0.023	-0.018
-711.689	-55.278	0.160	-0.072
-710.675	1.762	-0.082	0.060
-709.660	-106.337	-0.140	-0.032
-708.645	-68.546	-0.210	-0.082
-707.631	-115.897	0.369	-0.070
-706.616	591.531	-0.073	-0.181
-705.602	-200.000	0.030	0.484
-704.587	167.688	-0.147	-0.210
-703.572	-200.000	-0.009	-0.134
-702.558	800.000	-0.050	0.161
-701.543	-200.000	0.065	0.309
-700.529	-200.000	-0.030	0.287
-699.514	100.915	-0.115	0.134
-698.499	-200.000	0.040	0.269
-697.485	-139.232	0.387	0.042
-696.470	800.000	0.010	-0.030
-695.456	800.000	-0.069	-0.226
-694.441	102.592	0.096	0.113
-693.426	-200.000	-0.003	-0.202
-692.412	126.590	-0.037	0.048
-691.397	20.063	0.122	-0.099
-690.383	-81.415	-0.334	0.111
-689.368	-200.000	-0.047	-0.320
-688.354	-183.253	-0.152	0.003
-687.339	105.926	-0.202	-0.241
-686.324	67.961	-0.294	-0.303
-685.310	302.018	0.048	-0.090
-684.295	204.918	-0.046	0.073
-683.281	-200.000	-0.051	-0.388
-682.266	800.000	0.035	-0.157
-681.251	-26.091	0.108	-0.064
-680.237	-13.327	-0.224	-0.146
-679.222	277.548	-0.032	-0.058
-678.208	-200.000	0.021	0.393
-677.193	-2.549	-0.287	0.203
-676.178	800.000	-0.066	-0.224
-675.164	60.636	-0.276	0.276
-674.149	-200.000	0.024	-0.430
-673.135	-200.000	-0.003	-0.445
-672.120	-200.000	-0.005	0.131
-671.105	-85.104	0.110	-0.035
-670.091	-200.000	0.033	0.184
-669.076	458.647	-0.151	-0.338
-668.062	-78.384	-0.050	0.017
-667.047	-39.714	0.134	0.070
-666.032	5.604	-0.181	0.135
-665.018	800.000	0.071	-0.197
-664.003	-26.207	-0.182	0.108
-662.989	-200.000	-0.021	-0.274
-661.974	15.425	-0.152	-0.120
-660.959	44.097	0.194	0.180
-659.945	147.850	-0.079	-0.107
-658.930	-14.132	-0.139	0.090
-657.916	-97.747	0.325	0.085
-656.901	339.579	0.053	-0.105
-655.886	396.126	0.110	-0.232
-654.872	-25.048	0.194	-0.116
-653.857	-42.578	-0.241	0.124
-652.843	-48.382	-0.178	-0.087
-651.828	-200.000	0.017	-0.137
-650.814	-61.130	-0.310	0.132
-649.799	-51.772	-0.201	0.094
-648.784	-200.000	0.071	-0.376
-647.770	275.953	-0.030	-0.054
-646.755	800.000	0.043	0.183
-645.741	-70.575	0.083	-0.032
-644.726	800.000	0.059	-0.167
-643.711	44.129	-0.176	0.163
-642.697	800.000	0.028	-0.123
-641.682	636.923	0.077	-0.196
-640.668	109.531	0.026	0.031
-639.653	-91.493	-0.118	-0.034
-638.638	-99.720	-0.179	0.045
-637.624	-58.587	-0.253	0.110
-636.609	160.431	-0.207	-0.290
-635.595	171.410	0.028	0.040
-634.580	-66.194	-0.145	0.058
-633.565	-25.172	0.410	0.245
-632.551	379.410	-0.129	-0.265
-631.536	-114.856	0.501	0.096
-630.522	-49.387	-0.129	0.062
-629.507	287.424	0.074	0.135
-628.492	245.941	-0.022	0.038
-627.478	59.658	-0.128	-0.127
-626.463	-165.122	-0.215	-0.010
-625.449	5.328	-0.150	-0.112
-624.434	-200.000	0.084	-0.376
-623.419	195.443	0.177	-0.270
-622.405	43.383	-0.092	0.085
-621.390	-200.000	-0.001	-0.085
-620.376	37.489	0.172	-0.153
-619.361	-145.734	0.087	-0.008
-618.346	5.225	0.116	0.086
-617.332	360.347	0.081	-0.162
-616.317	345.713	-0.169	-0.334
-615.303	251.667	-0.123	-0.210
-614.288	-61.619	0.183	-0.077
-613.273	800.000	-0.159	0.464
-612.259	-200.000	-0.077	-0.420
-611.244	800.000	-0.124	-0.375
-610.230	44.074	0.149	-0.138
-609.215	-62.039	-0.211	-0.089
-608.201	228.924	0.055	0.091
-607.186	-108.996	-0.101	-0.022
-606.171	338.546	-0.228	-0.446
-605.157	615.461	-0.020	-0.051
-604.142	-200.000	-0.003	0.281
-603.128	70.338	-0.305	-0.317
-602.113	-89.656	-0.314	0.093
-601.098	800.000	0.087	0.310
-600.084	29.744	-0.109	0.094
-599.069	-58.316	-0.086	-0.038
-598.055	-113.876	-0.107	-0.021
-597.040	202.711	-0.198	-0.307
-596.025	-46.589	-0.117	-0.058
-595.011	56.935	-0.336	0.329
-593.996	-117.823	0.416	0.075
-592.982	800.000	0.060	-0.191
-591.967	-200.000	-0.024	0.445
-590.952	-99.306	-0.284	-0.072
-589.938	30.455	-0.175	-0.151
-588.923	137.280	0.073	0.095
-587.909	2.703	-0.186	0.136
-586.894	-187.477	-0.274	-0.004
-585.879	-200.000	0.027	-0.278
-584.865	-200.000	-0.021	-0.211
-583.850	-200.000	-0.033	0.246
-582.836	-200.000	-0.394	0.002
-581.821	800.000	0.033	0.105
-580.806	-142.560	-0.071	0.007
-579.792	-191.897	-0.052	0.001
-578.777	-25.739	0.296	0.175
-577.763	800.000	0.052	-0.200
-576.748	-129.961	0.414	-0.057
-575.733	-85.022	0.264	-0.083
-574.719	335.085	0.094	0.183
-573.704	-55.880	-0.087	0.039
-572.690	-90.379	-0.269	-0.078
-571.675	-91.019	0.295	-0.085
-570.661	-200.000	0.081	-0.389
-569.646	-32.666	-0.213	-0.119
-568.631	800.000	-0.115	-0.483
-567.617	-7.543	0.240	-0.163
-566.602	-57.698	0.089	0.039
-565.588	45.732	-0.181	-0.168
-564.573	658.311	0.061	0.157
-563.558	40.561	-0.259	0.234
-562.544	-134.838	0.106	0.013
-561.529	800.000	-0.021	0.067
-560.515	561.376	0.240	-0.583
-559.500	-139.847	-0.082	0.009
-558.485	800.000	-0.038	0.158
-557.471	229.802	-0.116	0.189
-556.456	-123.901	0.250	-0.040
-555.442	800.000	0.038	-0.117
-554.427	-11.422	-0.121	0.080
-553.412	412.442	0.142	-0.303
-552.398	-87.943	0.212	-0.064
-551.383	-13.133	-0.141	0.092
-550.369	-74.365	0.046	-0.017
-549.354	-26.159	-0.160	0.094
-548.339	800.000	-0.101	-0.301
-547.325	552.254	0.074	0.178
-546.310	-190.762	-0.039	-0.000
-545.296	-117.542	0.259	-0.047
-544.281	76.949	-0.257	-0.274
-543.266	73.515	0.157	0.165
-542.252	-200.000	0.070	0.405
-541.237	-19.383	0.205	0.128
-540.223	25.402	-0.312	0.260
-539.208	47.115	-0.107	-0.100
-538.193	800.000	-0.032	0.090
-537.179	-200.000	-0.032	0.209
-536.164	-200.000	0.016	-0.213
-535.150	-145.940	-0.046	0.004
-534.135	800.000	-0.092	-0.326
-533.121	-55.391	-0.245	0.110
-532.106	331.373	0.200	-0.387
-531.091	415.164	0.149	0.319
-530.077	-135.422	-0.121	0.014
-529.062	93.395	-0.075	0.085
-528.048	-15.894	-0.234	0.149
-527.033	92.546	0.290	0.328
-526.018	79.383	0.096	0.103
-525.004	10.746	0.210	0.160
-523.989	231.043	-0.098	0.160
-522.975	-25.784	0.057	-0.034
-521.960	129.512	-0.099	-0.127
-520.945	270.176	-0.112	-0.198
-519.931	-200.000	-0.039	0.279
-518.916	-70.982	-0.311	-0.117
-517.902	565.264	-0.046	-0.113
-516.887	648.618	-0.068	0.175
-515.872	-147.810	0.145	-0.012
-514.858	115.636	-0.173	-0.212
-513.843	-120.982	-0.342	0.058
-512.829	-116.049	0.224	0.042
-511.814	-137.179	0.229	0.026
-510.799	-200.000	0.081	-0.397
-509.785	-119.027	0.123	0.022
-508.770	-129.803	-0.257	-0.035
-507.756	-138.535	0.228	-0.025
-506.741	-35.139	-0.124	0.068
-505.726	748.259	-0.124	-0.334
-504.712	-200.000	-0.015	-0.384
-503.697	114.349	-0.055	-0.067
-502.683	-200.000	0.040	0.377
-501.668	800.000	-0.044	0.180
-500.653	-39.600	0.270	0.141
-499.639	310.446	-0.091	0.171
-498.624	351.968	0.187	0.371
-497.610	41.880	-0.134	0.121
-496.595	749.030	0.087	-0.235
-495.581	244.408	0.137	0.230
-494.566	296.678	0.061	0.111
-493.551	75.419	-0.177	0.187
-492.537	800.000	0.013	-0.045
-491.522	-200.000	-0.032	-0.278
-490.508	181.758	-0.077	-0.114
-489.493	175.199	-0.050	-0.073
-488.478	16.576	-0.448	0.354
-487.464	-3.898	0.184	-0.128
-486.449	-119.076	-0.250	-0.044
-485.435	-27.130	0.287	0.168
-484.420	328.110	-0.102	-0.197
-483.405	80.144	0.073	0.079
-482.391	-200.000	-0.032	-0.162
-481.376	-76.413	-0.448	-0.158
-480.362	-126.980	-0.315	0.046
-479.347	-119.147	0.356	0.062
-478.332	-144.209	-0.052	-0.005
-477.318	-200.000	-0.022	0.120
-476.303	-200.000	-0.028	0.223
-475.289	39.160	-0.291	-0.260
-474.274	502.456	0.086	-0.198
-473.259	-144.972	0.224	-0.020
-472.245	51.272	0.082	0.077
-471.230	-60.212	-0.239	-0.102
-470.216	-82.928	-0.157	-0.051
-469.201	122.679	-0.227	0.284
-468.186	166.004	0.077	-0.109
-467.172	-1.139	-0.177	-0.125
-466.157	800.000	0.047	-0.174
-465.143	191.599	-0.171	-0.257
-464.128	-200.000	-0.005	-0.190
-463.113	85.137	-0.262	-0.288
-462.099	-120.445	0.131	0.022
-461.084	-200.000	-0.044	-0.356
-460.070	800.000	-0.018	-0.064
-459.055	474.568	0.141	-0.319
-458.040	36.963	-0.171	0.151
-457.026	-200.000	0.035	0.207
-456.011	-127.691	-0.212	0.031
-454.997	-32.079	-0.072	-0.040
-453.982	-101.365	-0.026	-0.006
-452.968	-187.734	0.115	0.002
-451.953	-101.317	0.385	0.094
-450.938	348.118	0.119	0.235
-449.924	796.874	0.129	-0.355
-448.909	297.353	-0.132	-0.243
-447.895	-175.280	-0.137	0.004
-446.880	-200.000	0.030	0.404
-445.865	-200.000	0.002	0.112
-444.851	506.758	0.130	0.301
-443.836	731.850	0.034	-0.092
-442.822	800.000	-0.068	-0.275
-441.807	196.384	-0.090	0.138
-440.792	101.703	0.106	-0.124
-439.778	800.000	-0.089	0.308
-438.763	-155.496	0.325	0.021
-437.749	-64.535	0.147	0.060
-436.734	-12.424	-0.194	-0.127
-435.719	-29.217	-0.293	-0.168
-434.705	93.740	0.172	-0.194
-433.690	-98.176	0.278	-0.071
-432.676	1.837	-0.150	0.108
-431.661	-200.000	0.007	0.397
-430.646	-4.772	0.262	0.180
-429.632	-200.000	0.019	0.240
-428.617	155.501	0.119	-0.164
-427.603	-35.000	0.272	-0.148
-426.588	-56.179	0.119	0.053
-425.573	-133.287	-0.121	-0.015
-424.559	50.737	0.124	-0.117
-423.544	-35.776	0.078	-0.042
-422.530	-200.000	0.040	0.220
-421.515	-89.636	0.285	0.083
-420.500	77.885	-0.190	-0.202
-419.486	800.000	0.015	0.066
-418.471	203.007	-0.060	-0.092
-417.457	161.045	0.096	0.133
-416.442	-26.309	0.061	-0.035
-415.428	-166.852	-0.150	-0.006
-414.413	-86.510	0.135	0.041
-413.398	8.652	-0.256	-0.192
-412.384	-200.000	0.011	0.245
-411.369	-200.000	-0.036	-0.175
-410.355	-26.021	-0.199	0.117
-409.340	85.173	-0.089	-0.098
-408.325	137.489	-0.342	-0.446
-407.311	-200.000	0.040	-0.652
-406.296	800.000	-0.015	0.056
-405.282	59.464	0.104	0.103
-404.267	120.869	-0.299	0.371
-403.252	101.569	-0.066	0.077
-402.238	1.614	0.252	0.181
-401.223	35.803	-0.139	-0.122
-400.209	-47.753	0.279	0.135
-399.194	-200.000	-0.093	-0.421
-398.179	-42.355	0.138	0.070
-397.165	-100.935	0.267	0.065
-396.150	-116.606	-0.067	0.012
-395.136	-79.460	0.323	-0.109
-394.121	800.000	-0.062	0.196
-393.106	-200.000	0.024	-0.197
-392.092	-110.302	-0.027	0.006
-391.077	199.319	-0.126	0.193
-390.063	-200.000	0.059	-0.288
-389.048	-48.999	-0.300	-0.143
-388.033	38.635	-0.212	0.188
-387.019	-200.000	0.039	0.308
-386.004	774.680	-0.104	0.283
-384.990	-200.000	0.014	0.064
-383.975	-200.000	-0.025	0.138
-382.960	53.980	-0.163	0.157
-381.946	437.887	0.041	0.089
-380.931	-97.280	-0.207	0.054
-379.917	-53.450	0.049	-0.023
-378.902	-126.229	-0.248	-0.037
-377.888	-66.290	-0.183	-0.072
-376.873	232.439	0.085	-0.139
-375.858	-37.218	-0.043	0.023
-374.844	-200.000	-0.027	0.343
-373.829	800.000	-0.030	0.113
-372.815	-33.378	0.311	-0.171
-371.800	-114.111	-0.221	0.043
-370.785	-151.466	-0.250	0.018
-369.771	-58.003	0.262	-0.114
-368.756	-200.000	0.030	-0.270
-367.742	189.066	-0.056	0.083
-366.727	759.430	-0.135	0.365
-365.712	109.287	-0.120	0.143
-364.698	-200.000	0.003	0.113
-363.683	101.423	-0.073	0.085
-362.669	-114.305	0.152	-0.029
-361.654	-33.307	0.108	0.060
-360.639	800.000	0.027	0.079
-359.625	-200.000	0.017	0.392
-358.610	71.570	0.270	0.279
-357.596	-9.550	-0.257	0.171
-356.581	426.559	0.045	0.098
-355.566	273.671	-0.076	0.134
-354.552	-150.202	-0.151	0.012
-353.537	279.277	-0.136	-0.241
-352.523	-200.000	-0.016	0.294
-351.508	-200.000	-0.007	-0.030
-350.493	387.249	-0.138	-0.284
-349.479	-198.759	-0.371	-0.002
-348.464	-200.000	0.028	-0.335
-347.450	102.873	0.007	-0.008
-346.435	281.195	-0.171	0.305
-345.420	-79.919	0.277	0.092
-344.406	-18.792	-0.145	-0.090
-343.391	800.000	-0.052	0.173
-342.377	-59.745	0.409	-0.174
-341.362	263.538	-0.028	-0.048
-340.348	-200.000	0.022	0.124
-339.333	-200.000	0.039	0.199
-338.318	255.590	0.199	0.340
-337.304	-96.500	0.198	-0.052
-336.289	-90.850	-0.319	0.091
-335.275	-95.769	0.091	-0.024
-334.260	35.783	-0.284	0.248
-333.245	-5.701	0.318	-0.217
-332.231	-200.000	-0.010	-0.060
-331.216	-200.000	-0.047	-0.265
-330.202	-100.381	-0.128	0.032
-329.187	-161.611	-0.184	0.009
-328.172	-58.477	0.169	-0.073
-327.158	-55.718	0.249	0.111
-326.143	-70.051	0.141	-0.053
-325.129	-50.359	-0.184	0.086
-324.114	-200.000	-0.039	0.218
-323.099	49.136	0.074	-0.069
-322.085	-200.000	-0.010	-0.159
-321.070	679.292	-0.104	-0.270
-320.056	-40.730	-0.380	0.196
-319.041	110.372	-0.177	0.211
-318.026	86.109	0.092	-0.100
-317.012	-184.816	0.026	-0.000
-315.997	8.735	-0.165	0.123
-314.983	-13.170	-0.270	-0.174
-313.968	96.336	-0.055	-0.063
-312.953	441.958	-0.195	-0.423
-311.939	101.892	0.132	-0.153
-310.924	-200.000	-0.017	-0.088
-309.910	64.710	0.263	-0.264
-308.895	-150.827	0.243	0.018
-307.880	-173.368	0.362	-0.011
-306.866	-200.000	-0.043	-0.315
-305.851	-106.126	-0.279	0.062
-304.837	35.089	0.121	-0.105
-303.822	-200.000	0.050	-0.282
-302.807	-121.437	0.139	0.023
-301.793	-46.045	0.217	0.106
-300.778	-41.608	-0.165	-0.084
-299.764	-137.465	-0.239	-0.027
-298.749	152.028	0.200	0.271
-297.735	88.538	-0.136	-0.150
-296.720	-200.000	0.044	0.218
-295.705	-119.609	0.312	-0.054
-294.691	292.475	0.055	-0.100
-293.676	-200.000	0.008	0.045
-292.662	359.782	0.108	-0.214
-291.647	246.254	0.118	0.197
-290.632	1.646	0.025	-0.018
-289.618	5.215	0.288	-0.211
-288.603	372.090	0.058	-0.116
-287.589	385.025	0.056	0.116
-286.574	35.487	0.241	0.210
-285.559	-83.215	-0.114	-0.036
-284.545	-144.962	0.035	0.003
-283.530	173.634	-0.032	0.046
-282.516	-200.000	-0.044	-0.203
-281.501	91.895	-0.218	-0.243
-280.486	68.195	0.073	-0.074
-279.472	-41.504	-0.134	0.069
-278.457	800.000	-0.085	0.263
-277.443	51.260	0.133	0.125
-276.428	265.902	-0.052	-0.091
-275.413	-197.250	0.320	-0.002
-274.399	64.096	0.141	0.140
-273.384	510.900	-0.148	-0.343
-272.370	425.915	-0.074	0.158
-271.355	-130.785	0.233	0.031
-270.340	800.000	-0.110	-0.424
-269.326	232.638	0.150	-0.244
-268.311	169.499	0.103	-0.146
-267.297	-92.212	-0.205	-0.057
-266.282	235.723	0.167	0.273
-265.267	-75.042	0.110	-0.039
-264.253	-200.000	0.335	0.000
-263.238	562.684	0.110	-0.263
-262.224	-140.072	0.334	0.035
-261.209	129.461	0.090	0.113
-260.195	31.339	0.208	0.177
-259.180	-200.000	-0.081	0.538
-258.165	230.708	0.149	-0.241
-257.151	-99.192	0.157	-0.039
-256.136	-200.000	0.001	-0.194
-255.122	-45.700	0.040	-0.019
-254.107	-200.000	0.048	0.366
-253.092	-27.393	-0.068	0.039
-252.078	-200.000	0.016	0.283
-251.063	-53.454	-0.175	-0.079
-250.049	800.000	-0.037	-0.153
-249.034	-124.198	-0.228	0.035
-248.019	23.307	-0.145	0.118
-247.005	-124.071	0.297	-0.046
-245.990	-200.000	0.035	-0.342
-244.976	166.871	-0.281	0.395
-243.961	553.495	0.165	0.394
-242.946	33.154	-0.102	0.087
-241.932	-1.729	-0.122	0.085
-240.917	162.892	0.144	0.200
-239.903	-200.000	0.021	0.148
-238.888	210.316	0.161	-0.251
-237.873	-200.000	0.003	0.038
-236.859	-200.000	-0.016	-0.143
-235.844	-53.618	-0.188	-0.085
-234.830	50.439	-0.068	-0.064
-233.815	264.782	0.157	0.271
-232.800	477.455	0.168	0.378
-231.786	-23.292	-0.089	0.053
-230.771	151.691	0.154	-0.208
-229.757	139.586	-0.173	-0.226
-228.742	-200.000	-0.008	-0.131
-227.727	-21.416	0.017	0.011
-226.713	-100.373	0.240	0.059
-225.698	800.000	-0.035	-0.111
-224.684	-167.147	0.145	0.006
-223.669	-96.756	0.302	0.079
-222.655	-60.031	-0.395	0.167
-221.640	70.860	0.221	-0.227
-220.625	656.932	-0.032	-0.083
-219.611	-168.538	0.252	0.010
-218.596	-200.000	-0.009	-0.064
-217.582	-98.039	0.048	-0.012
-216.567	-151.692	-0.233	-0.017
-215.552	636.160	0.123	0.310
-214.538	129.062	0.121	0.153
-213.523	-80.664	-0.197	-0.065
-212.509	-57.723	-0.061	0.026
-211.494	-98.423	0.309	-0.078
-210.479	-144.371	-0.182	-0.017
-209.465	327.632	-0.072	0.137
-208.450	9.755	-0.158	0.118
-207.436	-177.884	0.370	0.009
-206.421	800.000	-0.055	-0.212
-205.406	-182.146	0.230	-0.004
-204.392	-169.406	0.117	-0.004
-203.377	-200.000	-0.015	0.318
-202.363	-146.370	0.465	0.040
-201.348	33.886	0.105	0.091
-200.333	-200.000	-0.045	0.260
-199.319	15.402	0.209	0.162
-198.304	630.826	-0.065	0.163
-197.290	278.007	0.026	0.046
-196.275	27.058	0.037	0.031
-195.260	140.885	-0.116	0.151
-194.246	-18.366	0.071	0.044
-193.231	-200.000	0.041	-0.227
-192.217	158.898	0.169	0.232
-191.202	631.305	-0.041	0.104
-190.187	800.000	-0.052	-0.168
-189.173	-128.266	-0.094	0.013
-188.158	172.638	-0.112	0.159
-187.144	188.046	0.092	0.136
-186.129	217.607	-0.082	0.130
-185.114	-200.000	-0.034	0.296
-184.100	800.000	0.068	-0.207
-183.085	800.000	-0.098	-0.278
-182.071	-47.312	-0.030	-0.014
-181.056	-81.304	0.174	-0.057
-180.042	-81.972	-0.151	-0.049
-179.027	-59.784	0.252	-0.107
-178.012	800.000	-0.043	0.178
-176.998	-104.998	0.082	0.019
-175.983	-200.000	-0.008	0.277
-174.969	45.018	-0.229	0.208
-173.954	154.515	0.154	-0.209
-172.939	-162.057	0.457	0.023
-171.925	-200.000	0.000	0.123
-170.910	-1.831	0.303	0.211
-169.896	-142.826	0.333	-0.032
-168.881	-200.000	0.034	0.152
-167.866	180.812	-0.158	-0.230
-166.852	230.359	-0.041	-0.066
-165.837	-200.000	0.059	0.261
-164.823	-97.409	-0.439	0.113
-163.808	510.675	0.107	0.245
-162.793	-21.959	-0.228	-0.137
-161.779	132.253	0.109	0.139
-160.764	-59.148	-0.276	0.118
-159.750	-200.000	-0.020	0.374
-158.735	102.752	0.069	-0.080
-157.720	-4.225	0.163	0.112
-156.706	-46.782	-0.142	0.069
-155.691	-101.259	0.145	-0.035
-154.677	-130.874	-0.338	-0.045
-153.662	800.000	0.063	-0.239
-152.647	-200.000	0.014	-0.066
-151.633	137.551	0.422	-0.546
-150.618	800.000	-0.047	0.164
-149.604	93.058	0.206	-0.230
-148.589	381.619	-0.098	-0.198
-147.574	286.345	-0.074	-0.132
-146.560	-95.165	0.070	-0.019
-145.545	384.642	0.128	0.260
-144.531	-167.388	-0.141	-0.006
-143.516	-45.153	0.292	0.143
-142.502	698.509	0.054	-0.140
-141.487	-49.888	-0.465	0.218
-140.472	379.063	0.107	-0.217
-139.458	800.000	-0.038	-0.112
-138.443	800.000	-0.033	0.138
-137.429	-96.743	-0.195	-0.051
-136.414	-200.000	-0.000	0.043
-135.399	-99.925	-0.053	0.013
-134.385	-38.185	-0.077	0.040
-133.370	386.098	-0.009	-0.018
-132.356	-35.151	0.179	0.096
-131.341	-200.000	0.003	-0.105
-130.326	-79.090	-0.266	-0.089
-129.312	-80.486	0.227	-0.075
-128.297	308.190	0.080	-0.147
-127.283	374.491	0.061	0.123
-126.268	-106.881	0.165	-0.036
-125.253	800.000	0.206	-0.597
-124.239	-146.427	0.248	-0.021
-123.224	800.000	-0.023	-0.063
-122.210	-150.978	-0.145	-0.011
