DTS Sentinel unit serial number:	SN413079Multiplexer serial number:	ORYXHardware model number:	OX4-SRSoftware version number:	ORYX F/W v4.00 Oryx Data Collector v3.7.2.0data status	okinstallation	princeton_trtdifferential loss correction	single-endedforward channel	channel 1reverse channel	N/Adate	2019/09/10time	22:28:11forward acquisition time	60.00reverse acquisition time	0.00gamma	496.2192k internal	0.2332k external	0.2332temperature offset calibration	0.9934default loss term (dB/km)	0.3790temperature slope calibration	1.0000multiplexer offset coefficient	1.0000multiplexer slope coefficient	1.0000fibre end	0.00T internal ref (°C)	30.37T ext. ref 1 (°C)	-0.29T ext. ref 2 (°C)	23.67length (m)	temperature (°C)	Stokes	anti-Stokes-747.200	-155.911	-0.351	-0.022
-746.185	-170.968	-0.432	0.015
-745.171	265.475	0.151	0.264
-744.156	170.992	-0.073	0.106
-743.142	-200.000	-0.002	-0.202
-742.127	-200.000	0.006	0.097
-741.112	65.108	0.205	-0.209
-740.098	-132.413	-0.154	0.020
-739.083	-156.902	0.105	0.006
-738.069	75.886	-0.163	0.174
-737.054	-41.059	0.138	0.072
-736.039	-196.550	0.134	-0.001
-735.025	-37.292	-0.171	-0.092
-734.010	-106.924	-0.328	0.073
-732.996	800.000	-0.064	-0.240
-731.981	-89.457	0.096	-0.028
-730.966	379.485	-0.140	-0.288
-729.952	-200.000	0.022	-0.198
-728.937	-52.731	0.129	-0.060
-727.923	656.273	-0.071	-0.184
-726.908	-158.125	0.122	-0.007
-725.894	141.537	0.172	-0.230
-724.879	-66.246	0.215	0.086
-723.864	-172.781	-0.384	-0.012
-722.850	229.481	0.044	-0.071
-721.835	52.705	0.110	-0.106
-720.821	800.000	0.072	-0.212
-719.806	-200.000	0.062	0.337
-718.791	212.320	-0.083	-0.132
-717.777	429.990	-0.034	-0.075
-716.762	-200.000	0.043	-0.228
-715.748	-112.209	0.258	0.052
-714.733	149.054	-0.056	-0.075
-713.718	-48.653	-0.302	-0.146
-712.704	-47.324	-0.401	0.196
-711.689	49.302	0.360	0.340
-710.675	-76.274	-0.113	0.040
-709.660	58.228	-0.137	0.135
-708.645	461.353	0.111	-0.249
-707.631	196.711	0.323	0.495
-706.616	-56.045	0.140	-0.063
-705.602	-200.000	-0.004	0.088
-704.587	289.157	-0.055	-0.101
-703.572	650.859	0.147	0.377
-702.558	800.000	0.060	0.236
-701.543	-61.674	-0.195	0.082
-700.529	-53.127	0.146	0.067
-699.514	-200.000	-0.004	0.097
-698.499	-45.722	-0.266	0.132
-697.485	52.894	-0.184	-0.177
-696.470	800.000	-0.116	0.351
-695.456	608.721	-0.077	-0.194
-694.441	-99.451	0.498	-0.126
-693.426	800.000	-0.047	0.159
-692.412	800.000	0.081	-0.341
-691.397	-200.000	-0.064	-0.291
-690.383	-156.312	0.297	0.019
-689.368	-200.000	-0.002	-0.198
-688.354	-19.102	-0.313	0.195
-687.339	-114.293	0.251	-0.049
-686.324	389.832	0.047	0.097
-685.310	435.599	-0.088	-0.193
-684.295	-113.872	-0.089	-0.017
-683.281	-4.021	0.149	-0.104
-682.266	-200.000	0.015	0.158
-681.251	-200.000	0.018	0.094
-680.237	-8.842	0.153	0.103
-679.222	-124.203	0.419	0.066
-678.208	224.221	-0.024	0.039
-677.193	196.233	-0.132	0.201
-676.178	197.801	0.087	-0.134
-675.164	-200.000	-0.022	0.213
-674.149	263.130	0.064	0.112
-673.135	729.399	0.044	0.119
-672.120	-91.193	0.206	0.059
-671.105	800.000	-0.040	-0.117
-670.091	635.295	-0.101	-0.257
-669.076	10.404	-0.280	-0.214
-668.062	-96.136	0.009	0.002
-667.047	-6.293	0.213	0.146
-666.032	800.000	-0.083	-0.319
-665.018	229.519	0.064	-0.106
-664.003	800.000	0.029	-0.104
-662.989	300.033	0.172	-0.317
-661.974	111.353	-0.122	-0.147
-660.959	-179.810	-0.173	-0.004
-659.945	-70.648	-0.109	0.041
-658.930	239.066	-0.055	-0.091
-657.916	800.000	-0.078	0.264
-656.901	-133.508	0.066	-0.008
-655.886	-49.299	0.356	-0.170
-654.872	73.422	-0.250	-0.262
-653.857	-132.798	0.202	0.026
-652.843	-102.516	0.137	0.033
-651.828	-89.330	0.365	-0.108
-650.814	14.633	-0.209	0.164
-649.799	323.416	-0.034	-0.066
-648.784	-33.571	-0.119	0.066
-647.770	123.818	0.054	0.068
-646.755	-39.562	-0.144	-0.076
-645.741	-31.791	0.236	0.133
-644.726	-200.000	-0.007	-0.360
-643.711	47.866	0.196	0.184
-642.697	57.054	0.143	-0.140
-641.682	142.147	-0.140	0.186
-640.668	-177.708	0.373	0.009
-639.653	-50.475	-0.105	0.050
-638.638	-109.273	0.261	0.055
-637.624	-200.000	-0.008	-0.068
-636.609	18.872	0.233	-0.187
-635.595	-1.218	0.238	-0.168
-634.580	240.980	-0.153	-0.256
-633.565	-200.000	-0.004	-0.113
-632.551	-105.474	-0.231	-0.053
-631.536	49.351	-0.218	-0.205
-630.522	54.295	0.188	-0.181
-629.507	-191.114	0.534	-0.006
-628.492	-63.396	-0.258	0.106
-627.478	658.948	-0.095	0.244
-626.463	45.469	-0.259	-0.240
-625.449	-76.077	-0.388	0.137
-624.434	800.000	-0.056	0.223
-623.419	800.000	-0.080	-0.298
-622.405	-5.610	-0.032	0.022
-621.390	-48.870	0.279	-0.134
-620.376	162.376	-0.062	0.088
-619.361	800.000	-0.028	-0.097
-618.346	149.453	0.098	-0.132
-617.332	-41.496	0.036	-0.018
-616.317	217.951	-0.063	0.101
-615.303	800.000	0.047	-0.158
-614.288	-200.000	-0.048	0.234
-613.273	-76.648	0.028	0.010
-612.259	246.385	-0.065	0.110
-611.244	164.046	-0.147	-0.208
-610.230	800.000	-0.060	-0.213
-609.215	33.204	0.176	0.153
-608.201	6.806	0.061	0.046
-607.186	-200.000	0.019	0.383
-606.171	56.144	-0.051	-0.049
-605.157	-9.300	-0.076	-0.051
-604.142	800.000	0.023	-0.095
-603.128	800.000	-0.126	-0.353
-602.113	220.708	0.226	-0.363
-601.098	36.007	-0.096	0.084
-600.084	100.713	-0.268	0.312
-599.069	-200.000	0.062	0.323
-598.055	-200.000	0.087	0.512
-597.040	41.341	-0.318	-0.288
-596.025	800.000	-0.089	0.319
-595.011	-200.000	0.072	0.340
-593.996	-114.226	-0.337	0.065
-592.982	-79.860	0.148	0.050
-591.967	-200.000	0.040	0.312
-590.952	109.724	-0.241	0.289
-589.938	16.856	0.015	-0.012
-588.923	122.032	-0.074	-0.093
-587.909	-144.464	0.080	0.007
-586.894	-92.064	-0.218	0.062
-585.879	800.000	-0.094	-0.303
-584.865	-120.136	0.215	0.037
-583.850	750.875	-0.071	0.192
-582.836	139.652	0.102	-0.135
-581.821	321.723	-0.054	-0.103
-580.806	352.711	-0.156	-0.310
-579.792	-75.985	-0.107	0.038
-578.777	429.306	0.027	0.058
-577.763	-200.000	-0.020	-0.209
-576.748	-200.000	-0.060	-0.261
-575.733	198.338	-0.079	-0.121
-574.719	82.809	-0.139	0.151
-573.704	76.507	0.124	0.131
-572.690	-107.223	0.159	0.035
-571.675	-200.000	0.034	0.356
-570.661	-7.267	0.248	0.168
-569.646	-22.854	-0.261	0.158
-568.631	-11.348	-0.204	-0.134
-567.617	768.973	-0.126	0.342
-566.602	-19.247	-0.238	-0.147
-565.588	800.000	-0.066	-0.230
-564.573	37.485	-0.125	-0.111
-563.558	-117.957	-0.550	-0.098
-562.544	-200.000	-0.002	-0.108
-561.529	427.349	0.089	-0.193
-560.515	-121.693	0.047	0.008
-559.500	800.000	0.074	-0.251
-558.485	65.827	-0.118	0.119
-557.471	-87.367	0.125	-0.038
-556.456	-200.000	-0.008	-0.454
-555.442	-36.044	0.131	-0.071
-554.427	-58.089	-0.277	-0.121
-553.412	800.000	-0.055	0.227
-552.398	800.000	-0.116	-0.326
-551.383	-200.000	-0.020	-0.495
-550.369	360.341	0.108	0.216
-549.354	800.000	-0.049	-0.175
-548.339	-1.320	0.146	0.103
-547.325	-1.426	0.153	0.108
-546.310	-59.357	-0.136	0.058
-545.296	-200.000	-0.027	0.265
-544.281	-200.000	-0.043	0.307
-543.266	99.855	0.138	-0.160
-542.252	-200.000	-0.032	0.183
-541.237	200.499	0.103	-0.159
-540.223	-67.967	-0.231	-0.090
-539.208	68.723	-0.160	-0.164
-538.193	-21.658	-0.220	0.134
-537.179	800.000	-0.004	0.016
-536.164	101.479	0.196	0.227
-535.150	-19.710	-0.405	0.250
-534.135	539.423	-0.049	-0.117
-533.121	-59.175	0.263	-0.113
-532.106	-200.000	-0.015	0.151
-531.091	103.554	-0.202	-0.237
-530.077	205.111	-0.225	0.349
-529.062	88.467	0.119	0.132
-528.048	800.000	-0.040	-0.137
-527.033	-200.000	-0.011	0.329
-526.018	-24.617	0.222	0.132
-525.004	-73.991	-0.397	0.144
-523.989	139.672	0.079	-0.104
-522.975	165.437	0.158	0.223
-521.960	-98.933	0.261	0.066
-520.945	87.681	0.126	0.139
-519.931	363.919	0.209	-0.418
-518.916	-146.402	0.254	-0.022
-517.902	-200.000	0.030	-0.159
-516.887	-133.077	-0.345	-0.044
-515.872	800.000	0.097	-0.292
-514.858	126.976	-0.272	-0.343
-513.843	-126.616	-0.320	-0.047
-512.829	48.908	-0.018	0.017
-511.814	-73.355	0.161	-0.059
-510.799	-64.309	-0.329	0.134
-509.785	138.606	0.123	-0.160
-508.770	410.096	-0.121	0.256
-507.756	-58.247	-0.140	0.061
-506.741	800.000	-0.038	-0.124
-505.726	-93.665	-0.354	0.098
-504.712	-19.229	-0.261	0.161
-503.697	179.385	0.163	0.237
-502.683	66.732	0.049	0.049
-501.668	-42.362	0.319	-0.162
-500.653	347.823	-0.114	-0.223
-499.639	-200.000	0.056	0.315
-498.624	485.606	-0.069	-0.156
-497.610	45.841	-0.085	0.079
-496.595	-119.082	0.173	-0.030
-495.581	-83.573	0.050	0.016
-494.566	-200.000	-0.025	0.162
-493.551	741.681	-0.045	0.120
-492.537	27.427	-0.157	-0.132
-491.522	-200.000	0.022	0.177
-490.508	800.000	0.040	-0.112
-489.493	-194.010	-0.364	-0.003
-488.478	-102.525	-0.155	-0.037
-487.464	-36.077	-0.120	0.065
-486.449	-22.275	0.153	0.092
-485.435	51.958	-0.191	0.181
-484.420	-22.635	-0.144	-0.086
-483.405	244.868	0.094	-0.157
-482.391	338.727	0.163	0.316
-481.376	-102.766	-0.055	-0.013
-480.362	-1.282	-0.161	0.113
-479.347	111.901	-0.158	-0.190
-478.332	302.437	-0.078	-0.143
-477.318	756.045	0.096	-0.259
-476.303	-100.293	-0.269	0.067
-475.289	-200.000	-0.126	0.000
-474.274	-200.000	-0.067	-0.398
-473.259	-63.299	0.343	0.141
-472.245	189.136	0.066	0.098
-471.230	-43.072	-0.152	-0.077
-470.216	800.000	0.066	0.224
-469.201	-46.506	-0.272	-0.133
-468.186	-31.296	0.213	0.119
-467.172	562.740	0.044	-0.105
-466.157	-200.000	-0.031	-0.173
-465.143	659.567	0.048	-0.122
-464.128	800.000	-0.033	0.109
-463.113	-200.000	0.041	0.212
-462.099	-107.053	-0.232	0.051
-461.084	-88.243	0.202	0.060
-460.070	-115.883	-0.139	-0.026
-459.055	-48.958	0.247	0.118
-458.040	16.339	0.138	-0.108
-457.026	-108.850	0.171	-0.036
-456.011	403.518	0.041	-0.085
-454.997	-51.984	0.146	-0.067
-453.982	226.810	0.218	-0.352
-452.968	43.353	0.124	-0.112
-451.953	-9.003	0.083	-0.055
-450.938	-106.773	0.208	0.046
-449.924	226.118	-0.081	-0.131
-448.909	181.912	-0.027	-0.040
-447.895	8.679	0.203	-0.152
-446.880	45.928	-0.166	0.152
-445.865	-200.000	-0.007	-0.203
-444.851	-200.000	-0.026	0.233
-443.836	8.373	-0.274	-0.205
-442.822	800.000	0.100	-0.288
-441.807	800.000	0.062	0.254
-440.792	-65.795	-0.199	-0.079
-439.778	800.000	-0.068	0.247
-438.763	248.181	0.116	0.195
-437.749	-200.000	-0.033	-0.279
-436.734	-123.415	0.429	-0.068
-435.719	103.961	-0.144	0.168
-434.705	-163.655	0.227	0.011
-433.690	-145.376	0.268	0.024
-432.676	-142.941	-0.387	-0.037
-431.661	32.786	0.260	-0.224
-430.646	-200.000	-0.024	0.149
-429.632	-110.141	0.193	-0.040
-428.617	-183.474	0.235	-0.004
-427.603	126.633	0.243	-0.306
-426.588	800.000	0.021	0.077
-425.573	-96.015	-0.406	0.107
-424.559	365.756	0.277	-0.555
-423.544	-59.045	-0.161	-0.069
-422.530	-95.359	0.143	0.038
-421.515	-51.682	0.284	-0.132
-420.500	-200.000	0.062	0.429
-419.486	275.937	0.157	0.276
-418.471	30.299	0.257	0.218
-417.457	-94.594	0.202	-0.055
-416.442	-86.853	-0.202	-0.061
-415.428	-40.383	0.018	-0.010
-414.413	-200.000	-0.055	0.305
-413.398	-72.259	0.133	0.049
-412.384	-15.408	0.143	-0.091
-411.369	-200.000	-0.019	-0.261
-410.355	-48.288	0.207	-0.099
-409.340	-79.419	0.257	0.086
-408.325	-200.000	-0.013	-0.205
-407.311	800.000	-0.108	-0.433
-406.296	800.000	-0.117	-0.352
-405.282	-23.657	0.432	0.257
-404.267	95.296	0.321	-0.363
-403.252	-200.000	-0.023	-0.201
-402.238	57.655	0.131	-0.127
-401.223	-145.850	-0.350	-0.031
-400.209	-16.411	0.100	-0.063
-399.194	32.959	0.031	0.027
-398.179	-109.917	-0.206	0.043
-397.165	-88.807	-0.177	-0.052
-396.150	-200.000	-0.016	-0.089
-395.136	800.000	-0.037	0.105
-394.121	-9.099	0.129	-0.085
-393.106	800.000	-0.131	-0.479
-392.092	-90.809	-0.060	-0.017
-391.077	-91.698	-0.189	-0.053
-390.063	-200.000	-0.057	-0.000
-389.048	47.388	0.089	0.083
-388.033	-85.004	-0.161	0.050
-387.019	-49.511	0.188	-0.089
-386.004	-58.982	0.151	0.065
-384.990	-147.612	0.278	-0.023
-383.975	800.000	0.085	-0.276
-382.960	-73.664	0.204	0.074
-381.946	-59.620	-0.119	0.051
-380.931	496.359	-0.045	-0.102
-379.917	230.411	0.186	0.301
-378.902	-200.000	0.007	0.327
-377.888	-129.250	-0.116	0.016
-376.873	-72.018	0.113	0.042
-375.858	-52.477	-0.277	-0.127
-374.844	-88.262	0.180	0.053
-373.829	-127.593	0.204	0.029
-372.815	800.000	0.085	-0.316
-371.800	166.052	-0.254	0.357
-370.785	26.320	-0.088	0.073
-369.771	-83.985	-0.259	0.082
-368.756	32.948	0.276	0.237
-367.742	800.000	0.066	-0.224
-366.727	681.375	-0.102	-0.263
-365.712	-36.601	-0.120	-0.064
-364.698	-133.462	0.258	0.032
-363.683	800.000	0.026	0.079
-362.669	78.647	0.079	0.083
-361.654	800.000	0.081	0.289
-360.639	800.000	-0.026	0.102
-359.625	-200.000	-0.023	-0.323
-358.610	-55.430	0.144	0.064
-357.596	23.788	-0.066	-0.054
-356.581	-57.297	-0.164	-0.071
-355.566	-59.016	-0.156	0.067
-354.552	-50.505	0.261	0.122
-353.537	-200.000	-0.029	-0.198
-352.523	102.115	-0.111	0.128
-351.508	-200.000	0.023	-0.243
-350.493	-195.902	-0.208	0.001
-349.479	268.076	-0.045	0.079
-348.464	-200.000	-0.012	0.130
-347.450	440.401	-0.140	-0.302
-346.435	800.000	0.024	0.100
-345.420	-133.333	-0.063	0.008
-344.406	-200.000	-0.009	0.180
-343.391	800.000	-0.092	-0.311
-342.377	-46.453	0.054	-0.026
-341.362	-93.492	-0.126	-0.035
-340.348	259.043	0.178	-0.304
-339.333	-71.761	-0.108	0.040
-338.318	301.330	-0.042	0.076
-337.304	-105.672	-0.178	-0.040
-336.289	45.662	0.102	0.093
-335.275	56.265	-0.117	0.113
-334.260	-24.188	0.129	0.076
-333.245	339.270	-0.105	0.203
-332.231	-28.036	-0.284	-0.163
-331.216	9.400	0.347	0.260
-330.202	429.519	-0.088	0.188
-329.187	800.000	0.010	-0.033
-328.172	800.000	-0.023	-0.085
-327.158	-200.000	-0.023	-0.207
-326.143	53.961	-0.128	-0.121
-325.129	800.000	-0.040	0.169
-324.114	277.593	-0.089	-0.157
-323.099	139.334	0.143	0.186
-322.085	55.459	-0.092	0.088
-321.070	442.201	0.068	0.147
-320.056	153.484	-0.123	-0.166
-319.041	-200.000	0.012	0.188
-318.026	-45.842	0.036	0.017
-317.012	37.713	0.212	0.186
-315.997	800.000	0.038	-0.118
-314.983	-74.441	0.258	-0.092
-313.968	14.905	-0.456	-0.353
-312.953	-41.663	-0.124	0.063
-311.939	-159.851	0.207	0.011
-310.924	86.566	-0.182	-0.198
-309.910	-200.000	0.045	0.522
-308.895	325.301	0.097	-0.184
-307.880	665.446	-0.061	0.155
-306.866	-126.078	-0.135	0.020
-305.851	-40.258	0.286	0.147
-304.837	164.579	0.082	-0.114
-303.822	-97.336	0.229	0.059
-302.807	-67.787	0.048	0.019
-301.793	201.441	0.113	0.172
-300.778	215.664	-0.104	0.163
-299.764	-60.584	0.214	0.090
-298.749	-200.000	-0.014	0.215
-297.735	-54.284	0.170	-0.076
-296.720	800.000	-0.061	-0.202
-295.705	203.894	0.155	-0.238
-294.691	-63.269	-0.229	0.093
-293.676	800.000	0.042	-0.127
-292.662	-153.728	-0.044	-0.003
-291.647	-200.000	-0.014	-0.205
-290.632	-200.000	-0.063	-0.325
-289.618	-28.952	0.348	0.198
-288.603	-78.890	-0.131	-0.044
-287.589	-68.507	0.206	0.079
-286.574	168.290	0.199	0.280
-285.559	-110.462	0.161	-0.033
-284.545	1.587	-0.128	-0.091
-283.530	-144.788	0.096	0.009
-282.516	219.996	-0.050	0.079
-281.501	-200.000	-0.002	-0.068
-280.486	-200.000	0.029	-0.145
-279.472	-22.311	-0.277	0.166
-278.457	243.210	0.096	0.158
-277.443	38.352	0.124	-0.109
-276.428	138.426	-0.018	-0.024
-275.413	167.221	0.120	-0.169
-274.399	-72.228	-0.380	0.139
-273.384	13.523	0.335	0.257
-272.370	800.000	-0.006	0.021
-271.355	79.472	-0.060	0.064
-270.340	-126.197	-0.089	-0.013
-269.326	-167.024	0.088	0.004
-268.311	-155.003	-0.091	0.006
-267.297	-63.423	0.112	-0.046
-266.282	149.858	-0.071	0.096
-265.267	112.039	0.104	0.124
-264.253	56.591	0.327	0.314
-263.238	-200.000	0.121	0.001
-262.224	288.752	-0.090	-0.160
-261.209	-200.000	-0.035	0.189
-260.195	-117.156	0.560	0.101
-259.180	81.860	-0.153	-0.164
-258.165	49.761	0.462	0.430
-257.151	573.540	0.058	0.139
-256.136	-157.833	-0.303	-0.018
-255.122	238.369	-0.210	0.345
-254.107	-61.578	-0.051	-0.021
-253.092	-200.000	0.007	0.102
-252.078	-200.000	-0.018	-0.474
-251.063	800.000	0.048	-0.167
-250.049	-200.000	0.018	-0.183
-249.034	-17.131	0.075	-0.047
-248.019	800.000	-0.013	-0.051
-247.005	-67.134	0.307	-0.119
-245.990	341.576	0.013	-0.025
-244.976	-200.000	-0.020	-0.215
-243.961	73.794	0.236	0.244
-242.946	179.320	0.039	-0.056
-241.932	-116.099	-0.048	-0.009
-240.917	-200.000	-0.013	-0.074
-239.903	-136.644	-0.294	0.034
-238.888	105.836	0.114	0.133
-237.873	-103.696	-0.207	0.048
-236.859	-200.000	0.009	-0.306
-235.844	-200.000	0.006	0.135
-234.830	-115.616	0.218	-0.040
-233.815	-8.321	-0.038	0.025
-232.800	155.211	0.138	0.188
-231.786	46.154	-0.081	0.074
-230.771	-118.074	-0.186	0.033
-229.757	-6.163	-0.240	0.162
-228.742	-127.049	0.246	-0.036
-227.727	-104.185	-0.116	-0.026
-226.713	-200.000	0.018	0.276
-225.698	-200.000	0.031	0.331
-224.684	-155.969	0.083	-0.005
-223.669	-162.715	0.224	0.011
-222.655	-200.000	0.012	0.132
-221.640	-200.000	0.006	-0.319
-220.625	52.009	0.064	0.060
-219.611	-200.000	-0.031	-0.401
-218.596	389.724	0.060	0.123
-217.582	247.206	-0.092	-0.153
-216.567	-164.098	0.485	0.022
-215.552	-103.961	0.170	0.039
-214.538	800.000	0.071	0.215
-213.523	443.872	-0.145	-0.313
-212.509	-71.186	-0.065	-0.024
-211.494	800.000	0.012	0.044
-210.479	33.849	-0.152	0.131
-209.465	800.000	0.193	0.574
-208.450	-200.000	0.047	0.494
-207.436	420.524	0.059	0.125
-206.421	-200.000	0.018	0.327
-205.406	-121.696	-0.234	-0.038
-204.392	120.825	0.151	0.185
-203.377	-200.000	0.029	-0.237
-202.363	800.000	0.080	-0.237
-201.348	695.312	0.032	-0.082
-200.333	63.487	-0.216	0.214
-199.319	-122.451	-0.115	-0.018
-198.304	73.573	-0.138	-0.142
-197.290	-7.810	-0.242	-0.161
-196.275	-62.601	0.065	-0.027
-195.260	-200.000	0.009	0.140
-194.246	411.757	-0.079	0.165
-193.231	67.285	-0.264	0.265
-192.217	-16.429	-0.240	-0.150
-191.202	291.314	-0.103	0.185
-190.187	-10.781	-0.127	-0.082
-189.173	800.000	0.053	-0.207
-188.158	34.554	-0.193	0.166
-187.144	-200.000	0.061	0.272
-186.129	-61.001	-0.246	0.102
-185.114	-200.000	-0.005	0.095
-184.100	80.986	-0.203	-0.216
-183.085	48.708	0.120	0.111
-182.071	800.000	0.044	-0.183
-181.056	112.715	0.288	-0.343
-180.042	307.445	-0.043	0.079
-179.027	-200.000	0.029	-0.196
-178.012	196.928	-0.226	-0.339
-176.998	-80.608	0.406	-0.133
-175.983	-48.955	-0.381	-0.180
-174.969	-200.000	0.006	-0.094
-173.954	-200.000	-0.027	0.213
-172.939	800.000	0.085	0.319
-171.925	-200.000	0.010	0.231
-170.910	-200.000	-0.020	-0.159
-169.896	47.070	-0.163	-0.149
-168.881	132.223	0.026	0.033
-167.866	-200.000	0.010	-0.172
-166.852	-154.300	-0.204	-0.014
-165.837	-200.000	0.015	-0.126
-164.823	289.846	-0.178	0.318
-163.808	233.942	0.027	0.043
-162.793	800.000	-0.007	-0.023
-161.779	-200.000	-0.062	-0.338
-160.764	-37.703	0.280	0.146
-159.750	-149.963	-0.138	-0.011
-158.735	-98.562	0.090	0.023
-157.720	148.729	-0.192	0.255
-156.706	4.692	0.246	-0.178
-155.691	800.000	0.025	0.107
-154.677	44.076	0.148	0.134
-153.662	387.185	0.035	0.071
-152.647	67.056	-0.032	-0.033
-151.633	63.057	-0.106	0.104
-150.618	92.718	-0.025	-0.028
-149.604	-200.000	0.002	0.128
-148.589	79.536	-0.004	-0.004
-147.574	-200.000	0.018	-0.222
-146.560	800.000	0.052	-0.182
-145.545	800.000	-0.037	0.152
-144.531	-48.464	0.281	-0.133
-143.516	68.551	-0.062	-0.062
-142.502	-200.000	0.005	-0.219
-141.487	-200.000	-0.382	0.001
-140.472	119.230	0.211	-0.257
-139.458	408.567	-0.058	0.122
-138.443	-200.000	0.034	0.153
-137.429	-14.385	0.172	0.109
-136.414	-200.000	-0.024	-0.629
-135.399	23.241	0.316	0.255
-134.385	800.000	0.057	0.190
-133.370	-1.866	0.128	0.088
-132.356	39.536	-0.099	0.088
-131.341	173.375	-0.145	0.206
-130.326	-200.000	-0.102	-0.479
-129.312	-87.836	-0.459	0.136
-128.297	-19.055	-0.215	0.131
-127.283	-172.803	0.306	-0.009
-126.268	-112.631	-0.274	0.054
-125.253	-48.253	0.185	0.088
-124.239	-200.000	-0.029	0.228
-123.224	231.425	-0.066	-0.107
-122.210	796.935	-0.055	-0.149
