DTS Sentinel unit serial number:	SN413079Multiplexer serial number:	ORYXHardware model number:	OX4-SRSoftware version number:	ORYX F/W v4.00 Oryx Data Collector v3.7.2.0data status	okinstallation	princeton_trtdifferential loss correction	single-endedforward channel	channel 1reverse channel	N/Adate	2019/09/17time	08:38:35forward acquisition time	60.00reverse acquisition time	0.00gamma	496.2192k internal	0.2328k external	0.2328temperature offset calibration	0.9967default loss term (dB/km)	0.3790temperature slope calibration	1.0000multiplexer offset coefficient	1.0000multiplexer slope coefficient	1.0000fibre end	0.00T internal ref (°C)	27.67T ext. ref 1 (°C)	0.13T ext. ref 2 (°C)	23.23length (m)	temperature (°C)	Stokes	anti-Stokes-747.200	-16.532	-0.057	-0.036
-746.185	64.063	-0.096	0.097
-745.171	620.848	0.076	-0.192
-744.156	521.249	-0.046	0.109
-743.142	-12.167	-0.091	-0.060
-742.127	-200.000	0.011	0.360
-741.112	-63.556	-0.140	0.058
-740.098	-200.000	0.042	0.319
-739.083	295.589	0.073	0.135
-738.069	340.205	-0.209	0.411
-737.054	10.171	-0.143	0.110
-736.039	110.438	-0.210	-0.254
-735.025	57.571	0.251	0.247
-734.010	-200.000	0.029	-0.188
-732.996	204.766	-0.249	-0.390
-731.981	-90.925	0.140	-0.041
-730.966	-138.622	-0.127	0.014
-729.952	-123.634	-0.317	-0.051
-728.937	800.000	-0.023	0.092
-727.923	-85.448	-0.283	-0.089
-726.908	364.096	-0.177	0.358
-725.894	86.689	0.200	-0.222
-724.879	-106.069	-0.194	-0.044
-723.864	-200.000	-0.050	-0.273
-722.850	-200.000	0.012	-0.300
-721.835	800.000	0.044	-0.149
-720.821	390.479	-0.029	0.061
-719.806	-200.000	0.004	0.073
-718.791	-105.227	0.181	-0.042
-717.777	31.966	-0.248	-0.216
-716.762	-137.251	-0.307	-0.035
-715.748	386.710	-0.185	-0.385
-714.733	26.374	-0.120	0.101
-713.718	511.861	-0.102	-0.240
-712.704	-117.974	-0.208	0.038
-711.689	538.254	0.027	0.065
-710.675	-200.000	-0.030	0.211
-709.660	349.233	-0.146	-0.291
-708.645	32.047	0.106	-0.092
-707.631	91.854	-0.108	0.122
-706.616	-133.407	-0.170	-0.021
-705.602	-200.000	-0.005	-0.141
-704.587	-45.984	0.235	0.117
-703.572	54.228	0.057	0.055
-702.558	-94.456	0.115	0.031
-701.543	-124.866	0.187	-0.029
-700.529	86.782	0.186	-0.207
-699.514	34.665	0.057	-0.050
-698.499	142.445	0.082	-0.109
-697.485	-6.877	0.147	0.100
-696.470	-106.108	-0.133	0.030
-695.456	344.079	0.163	-0.321
-694.441	-200.000	-0.008	0.207
-693.426	120.512	0.102	0.128
-692.412	64.305	0.173	0.175
-691.397	-200.000	-0.037	-0.297
-690.383	34.553	-0.128	0.112
-689.368	-93.677	-0.175	0.049
-688.354	-58.746	0.164	0.072
-687.339	-68.804	-0.247	0.096
-686.324	-200.000	-0.007	-0.064
-685.310	-155.272	0.025	-0.002
-684.295	800.000	-0.035	0.130
-683.281	340.472	-0.083	0.163
-682.266	34.739	-0.255	0.224
-681.251	800.000	0.016	0.069
-680.237	42.500	-0.062	-0.057
-679.222	-76.560	-0.238	-0.084
-678.208	47.006	0.268	-0.250
-677.193	800.000	-0.038	0.158
-676.178	90.653	0.128	-0.144
-675.164	-105.468	-0.192	-0.044
-674.149	243.099	-0.148	-0.249
-673.135	-188.840	-0.255	-0.003
-672.120	-110.137	0.120	0.025
-671.105	-134.914	-0.165	0.020
-670.091	74.595	0.083	0.088
-669.076	-166.372	-0.309	0.013
-668.062	-81.900	-0.253	-0.083
-667.047	-122.045	-0.379	0.063
-666.032	-100.430	0.519	-0.129
-665.018	369.587	-0.052	0.106
-664.003	-35.269	-0.126	0.069
-662.989	-51.421	-0.086	0.040
-661.974	9.753	-0.135	-0.102
-660.959	-15.074	-0.195	0.125
-659.945	-9.144	-0.394	0.265
-658.930	800.000	0.031	0.099
-657.916	-200.000	-0.017	0.493
-656.901	-56.277	0.114	-0.051
-655.886	-200.000	-0.016	-0.394
-654.872	-110.314	-0.293	-0.061
-653.857	-200.000	-0.040	0.190
-652.843	414.362	-0.009	0.018
-651.828	99.192	-0.108	-0.125
-650.814	-153.615	-0.326	-0.023
-649.799	148.035	-0.034	-0.045
-648.784	-132.155	-0.219	-0.028
-647.770	249.615	0.224	-0.382
-646.755	190.857	0.113	-0.171
-645.741	-66.198	-0.309	-0.124
-644.726	23.017	-0.130	0.107
-643.711	-137.214	0.151	0.017
-642.697	800.000	0.082	-0.289
-641.682	73.630	0.022	-0.023
-640.668	-94.506	-0.257	0.070
-639.653	-200.000	-0.010	0.179
-638.638	800.000	0.122	-0.503
-637.624	800.000	0.038	-0.165
-636.609	-106.519	0.191	-0.043
-635.595	-19.154	0.212	-0.132
-634.580	-200.000	-0.039	-0.262
-633.565	418.396	0.125	-0.268
-632.551	94.741	0.059	0.067
-631.536	-200.000	0.010	-0.260
-630.522	312.314	0.111	0.209
-629.507	-51.000	0.452	0.213
-628.492	-200.000	0.065	0.354
-627.478	65.013	-0.089	-0.090
-626.463	-200.000	0.007	-0.205
-625.449	-69.414	0.025	-0.010
-624.434	-192.049	0.308	-0.003
-623.419	-53.746	-0.272	0.125
-622.405	-51.987	0.504	-0.235
-621.390	800.000	0.052	-0.201
-620.376	31.098	-0.143	0.123
-619.361	-74.517	-0.220	-0.079
-618.346	56.104	-0.291	-0.284
-617.332	253.204	-0.101	0.173
-616.317	-200.000	-0.001	-0.378
-615.303	-145.122	-0.182	-0.017
-614.288	-94.079	-0.167	0.046
-613.273	-154.674	0.198	0.013
-612.259	-49.298	-0.056	0.027
-611.244	-137.614	-0.268	0.030
-610.230	-125.483	-0.409	-0.062
-609.215	800.000	0.031	-0.113
-608.201	310.670	-0.094	0.177
-607.186	130.103	0.156	0.200
-606.171	-200.000	-0.017	-0.218
-605.157	147.670	0.292	0.395
-604.142	-200.000	0.028	0.159
-603.128	427.134	0.133	-0.288
-602.113	-25.692	0.465	-0.275
-601.098	22.031	0.221	0.181
-600.084	-200.000	0.003	-0.169
-599.069	-63.277	0.298	0.123
-598.055	-112.298	-0.137	0.028
-597.040	51.640	-0.449	-0.428
-596.025	208.737	-0.095	0.149
-595.011	-200.000	-0.049	0.326
-593.996	81.685	0.181	0.196
-592.982	800.000	-0.040	0.170
-591.967	-200.000	-0.045	0.301
-590.952	-94.388	0.035	0.010
-589.938	800.000	0.024	-0.094
-588.923	192.049	-0.163	-0.247
-587.909	800.000	-0.103	-0.353
-586.894	-77.943	0.034	0.012
-585.879	-104.525	-0.035	-0.008
-584.865	-49.278	0.181	0.087
-583.850	-82.808	0.170	0.055
-582.836	-200.000	-0.048	0.234
-581.821	23.718	0.114	0.094
-580.806	-56.324	-0.198	-0.088
-579.792	-137.729	-0.296	-0.033
-578.777	82.243	-0.114	-0.124
-577.763	-180.523	-0.165	-0.003
-576.748	70.601	0.119	-0.123
-575.733	4.613	0.183	-0.135
-574.719	-118.611	-0.248	-0.044
-573.704	-200.000	0.019	0.259
-572.690	-89.349	0.080	-0.024
-571.675	235.355	0.189	-0.313
-570.661	-57.576	0.154	0.068
-569.646	800.000	-0.134	0.515
-568.631	47.780	0.087	-0.081
-567.617	324.808	-0.076	0.146
-566.602	-200.000	-0.090	-0.409
-565.588	-147.423	-0.291	0.025
-564.573	-114.011	0.182	-0.035
-563.558	-46.308	-0.121	0.059
-562.544	800.000	-0.027	-0.118
-561.529	-67.472	0.176	-0.069
-560.515	78.412	-0.126	0.134
-559.500	-47.227	0.298	0.146
-558.485	272.013	-0.085	-0.150
-557.471	-160.622	0.161	0.009
-556.456	-123.475	-0.158	-0.025
-555.442	295.365	-0.052	-0.095
-554.427	-175.438	-0.276	-0.008
-553.412	-39.951	0.051	-0.027
-552.398	102.205	0.195	0.227
-551.383	-127.135	0.143	0.021
-550.369	-200.000	-0.060	-0.284
-549.354	154.663	0.144	0.198
-548.339	-46.572	-0.090	0.044
-547.325	381.667	-0.058	-0.119
-546.310	-23.377	0.175	-0.105
-545.296	25.271	0.380	-0.315
-544.281	-127.668	0.068	0.010
-543.266	138.073	-0.098	-0.129
-542.252	-149.953	-0.321	-0.025
-541.237	-200.000	-0.026	0.361
-540.223	-96.481	0.225	0.059
-539.208	-200.000	-0.014	-0.084
-538.193	381.735	0.041	0.084
-537.179	-200.000	-0.006	-0.133
-536.164	142.102	-0.198	-0.263
-535.150	-92.270	0.169	-0.048
-534.135	-94.122	0.206	-0.057
-533.121	-143.911	-0.217	-0.020
-532.106	265.367	-0.115	0.200
-531.091	88.472	-0.160	-0.178
-530.077	-200.000	-0.102	-0.508
-529.062	392.313	0.167	-0.346
-528.048	-200.000	-0.011	-0.256
-527.033	-200.000	0.011	-0.117
-526.018	-200.000	0.003	0.157
-525.004	-75.995	0.259	0.091
-523.989	60.271	-0.355	0.351
-522.975	82.637	0.163	-0.177
-521.960	-200.000	-0.007	-0.093
-520.945	10.735	0.170	-0.129
-519.931	65.594	-0.157	0.158
-518.916	498.538	-0.161	0.371
-517.902	291.669	-0.108	-0.196
-516.887	-138.318	-0.122	0.013
-515.872	-6.630	0.336	-0.229
-514.858	163.900	0.112	0.158
-513.843	-83.152	0.269	-0.086
-512.829	-200.000	-0.018	0.112
-511.814	411.060	-0.104	-0.220
-510.799	-200.000	-0.026	-0.314
-509.785	171.640	-0.160	0.229
-508.770	8.777	0.118	0.089
-507.756	319.259	0.096	0.182
-506.741	623.529	-0.063	-0.158
-505.726	-176.564	0.070	0.002
-504.712	-135.761	0.301	0.036
-503.697	156.696	-0.040	-0.056
-502.683	-200.000	0.000	-0.028
-501.668	328.175	-0.076	-0.146
-500.653	465.980	0.045	-0.101
-499.639	-35.838	-0.136	0.074
-498.624	64.581	0.047	-0.047
-497.610	-110.499	0.377	0.078
-496.595	-75.083	0.214	0.076
-495.581	-200.000	-0.010	0.240
-494.566	50.146	-0.239	-0.225
-493.551	61.235	0.197	-0.196
-492.537	196.131	-0.142	-0.216
-491.522	-42.504	0.039	-0.020
-490.508	-19.058	-0.154	-0.096
-489.493	182.340	0.209	0.308
-488.478	248.760	-0.099	0.168
-487.464	8.973	0.457	0.344
-486.449	239.199	-0.111	-0.184
-485.435	-133.857	0.135	0.017
-484.420	-200.000	-0.018	0.327
-483.405	39.098	-0.247	0.220
-482.391	659.436	-0.080	-0.204
-481.376	247.976	-0.058	0.097
-480.362	345.990	0.053	-0.104
-479.347	74.375	-0.146	0.153
-478.332	800.000	-0.096	0.285
-477.318	111.719	0.083	0.100
-476.303	-74.247	0.225	0.081
-475.289	15.142	0.225	0.176
-474.274	477.580	0.053	-0.120
-473.259	-87.016	-0.085	0.026
-472.245	-53.248	-0.213	-0.097
-471.230	-97.962	0.265	0.068
-470.216	386.014	-0.090	-0.185
-469.201	-9.173	0.119	-0.079
-468.186	-200.000	0.011	-0.207
-467.172	533.245	-0.138	-0.325
-466.157	-63.535	-0.260	0.106
-465.143	-129.516	-0.384	-0.053
-464.128	-35.175	0.268	-0.146
-463.113	268.612	0.012	-0.021
-462.099	268.874	-0.047	0.082
-461.084	-200.000	-0.005	-0.022
-460.070	-92.690	-0.162	0.045
-459.055	167.116	-0.010	0.014
-458.040	521.490	0.212	-0.497
-457.026	-134.333	-0.233	-0.028
-456.011	-79.830	0.055	-0.019
-454.997	-81.309	0.186	-0.061
-453.982	800.000	0.077	0.214
-452.968	-66.277	0.329	0.131
-451.953	11.958	0.217	-0.166
-450.938	-200.000	-0.001	0.252
-449.924	87.087	0.274	0.302
-448.909	-170.424	0.150	0.005
-447.895	43.991	-0.106	0.097
-446.880	800.000	-0.091	-0.363
-445.865	-200.000	-0.042	0.303
-444.851	-200.000	-0.008	0.218
-443.836	-116.832	-0.208	-0.038
-442.822	-138.404	-0.150	-0.016
-441.807	-150.634	0.086	0.007
-440.792	-184.992	0.049	0.001
-439.778	-113.392	-0.292	0.057
-438.763	337.023	-0.052	-0.100
-437.749	-107.465	-0.201	-0.044
-436.734	220.750	-0.049	0.079
-435.719	124.632	-0.115	0.144
-434.705	91.911	0.120	-0.135
-433.690	33.279	-0.452	0.391
-432.676	209.405	-0.125	-0.195
-431.661	-139.840	0.077	-0.008
-430.646	126.589	0.110	0.139
-429.632	-172.019	-0.092	0.003
-428.617	526.868	0.017	-0.041
-427.603	-128.781	-0.086	-0.012
-426.588	800.000	-0.059	0.242
-425.573	611.154	-0.062	-0.154
-424.559	800.000	-0.058	0.247
-423.544	305.271	0.127	-0.235
-422.530	-86.843	-0.154	-0.047
-421.515	-110.524	-0.158	-0.033
-420.500	384.679	-0.177	0.362
-419.486	-85.924	-0.289	0.089
-418.471	55.990	0.354	-0.341
-417.457	11.576	-0.135	0.103
-416.442	800.000	0.099	-0.359
-415.428	108.805	0.264	-0.314
-414.413	-9.544	-0.097	-0.064
-413.398	-69.438	-0.161	0.061
-412.384	120.930	-0.248	0.306
-411.369	377.063	-0.194	0.395
-410.355	-200.000	-0.016	0.222
-409.340	-9.126	0.196	-0.131
-408.325	-77.408	0.047	-0.016
-407.311	496.388	0.099	-0.227
-406.296	-61.216	0.008	0.003
-405.282	-200.000	-0.008	0.281
-404.267	398.983	0.153	-0.320
-403.252	-10.710	-0.160	-0.105
-402.238	768.844	0.126	0.340
-401.223	99.910	0.082	-0.094
-400.209	80.207	0.205	-0.220
-399.194	244.161	-0.129	-0.216
-398.179	55.282	-0.231	0.222
-397.165	800.000	0.039	-0.120
-396.150	189.093	-0.073	-0.108
-395.136	367.883	0.134	0.270
-394.121	-83.406	0.211	0.067
-393.106	-28.274	-0.147	0.084
-392.092	-29.691	0.119	0.068
-391.077	157.159	0.259	-0.356
-390.063	60.474	0.096	-0.095
-389.048	441.433	0.037	0.081
-388.033	-152.401	0.282	0.020
-387.019	-22.593	0.322	0.193
-386.004	800.000	-0.015	-0.061
-384.990	-67.481	-0.102	0.040
-383.975	-200.000	0.021	-0.099
-382.960	454.390	0.121	0.266
-381.946	78.368	-0.224	0.237
-380.931	-92.353	-0.178	-0.050
-379.917	800.000	-0.081	0.285
-378.902	-200.000	0.012	-0.177
-377.888	-200.000	0.062	0.348
-376.873	211.160	-0.081	0.126
-375.858	-59.733	0.195	-0.083
-374.844	209.248	0.070	0.109
-373.829	-3.550	-0.213	-0.147
-372.815	56.163	-0.117	0.113
-371.800	-41.257	0.355	0.182
-370.785	-62.911	-0.098	0.040
-369.771	-65.990	0.220	-0.087
-368.756	-53.492	-0.111	-0.050
-367.742	-200.000	0.045	-0.218
-366.727	-35.139	-0.134	0.072
-365.712	640.716	-0.141	0.355
-364.698	-64.902	0.204	0.082
-363.683	-200.000	0.030	-0.134
-362.669	179.230	-0.279	-0.405
-361.654	162.181	-0.219	-0.304
-360.639	180.456	0.179	0.261
-359.625	33.201	0.161	0.139
-358.610	-200.000	0.042	0.253
-357.596	23.273	0.051	-0.042
-356.581	238.443	-0.187	0.308
-355.566	76.621	-0.178	0.188
-354.552	175.856	-0.076	0.109
-353.537	52.018	0.060	0.057
-352.523	93.410	0.164	0.184
-351.508	-86.047	0.135	0.041
-350.493	192.103	-0.357	-0.534
-349.479	-94.134	-0.314	0.085
-348.464	-124.219	-0.101	0.016
-347.450	-117.179	-0.066	0.012
-346.435	-18.767	-0.183	0.113
-345.420	-55.804	-0.051	-0.023
-344.406	-23.990	0.144	0.086
-343.391	-43.117	-0.158	-0.079
-342.377	800.000	0.104	0.416
-341.362	43.567	-0.164	0.149
-340.348	-200.000	-0.048	-0.224
-339.333	7.889	-0.081	-0.060
-338.318	-124.276	-0.146	-0.023
-337.304	800.000	-0.091	-0.264
-336.289	156.964	0.155	-0.212
-335.275	358.805	0.249	-0.493
-334.260	82.495	0.137	0.148
-333.245	77.659	-0.172	-0.181
-332.231	213.180	-0.220	-0.345
-331.216	108.677	-0.055	0.065
-330.202	-200.000	0.001	0.088
-329.187	57.933	0.108	-0.105
-328.172	-169.132	0.218	-0.008
-327.158	-163.189	-0.175	0.008
-326.143	-200.000	0.028	0.151
-325.129	-111.978	-0.322	0.064
-324.114	305.005	-0.051	-0.095
-323.099	-76.257	0.506	-0.177
-322.085	-200.000	-0.042	0.223
-321.070	800.000	-0.093	0.290
-320.056	-200.000	0.007	0.066
-319.041	-17.403	-0.234	-0.146
-318.026	-41.328	0.222	-0.113
-317.012	37.347	-0.120	0.106
-315.997	-200.000	-0.035	0.265
-314.983	800.000	0.128	-0.374
-313.968	-200.000	0.028	-0.321
-312.953	99.526	-0.208	-0.239
-311.939	33.404	0.159	0.137
-310.924	61.103	-0.172	0.169
-309.910	125.126	0.051	0.064
-308.895	-31.016	0.287	0.160
-307.880	-200.000	0.021	0.152
-306.866	-200.000	-0.003	0.301
-305.851	800.000	0.165	-0.453
-304.837	-200.000	-0.008	0.384
-303.822	577.882	-0.033	0.079
-302.807	-43.529	0.158	0.079
-301.793	-200.000	-0.016	0.165
-300.778	371.956	-0.100	0.201
-299.764	-108.963	-0.143	-0.030
-298.749	-200.000	-0.039	-0.212
-297.735	-182.951	-0.118	-0.002
-296.720	-111.047	-0.145	0.030
-295.705	-200.000	0.037	-0.220
-294.691	4.895	-0.246	-0.179
-293.676	56.704	0.124	0.119
-292.662	280.281	-0.076	0.134
-291.647	-78.595	-0.474	-0.160
-290.632	-5.689	-0.007	0.005
-289.618	138.967	0.182	-0.237
-288.603	-163.469	-0.116	-0.005
-287.589	59.632	0.127	0.124
-286.574	55.440	0.153	-0.147
-285.559	185.787	-0.164	-0.241
-284.545	-145.498	-0.287	0.026
-283.530	8.075	0.183	0.136
-282.516	642.193	0.089	0.224
-281.501	1.780	0.336	0.240
-280.486	-200.000	0.014	0.345
-279.472	256.082	-0.103	0.174
-278.457	-21.974	-0.063	-0.038
-277.443	-66.760	-0.254	0.100
-276.428	-200.000	-0.074	-0.352
-275.413	-66.090	0.383	0.151
-274.399	-35.558	0.434	-0.233
-273.384	620.213	-0.047	-0.116
-272.370	-200.000	0.024	-0.298
-271.355	-63.028	-0.248	-0.101
-270.340	-200.000	-0.051	-0.234
-269.326	-200.000	-0.001	-0.224
-268.311	-62.878	0.322	-0.132
-267.297	-200.000	0.023	0.310
-266.282	-200.000	-0.027	-0.442
-265.267	381.976	0.050	0.102
-264.253	54.360	-0.136	0.130
-263.238	-84.071	0.240	0.075
-262.224	-190.380	0.153	0.002
-261.209	10.935	-0.110	-0.083
-260.195	212.896	-0.062	0.096
-259.180	-72.420	0.167	0.061
-258.165	-200.000	-0.027	-0.236
-257.151	-175.186	-0.179	-0.005
-256.136	800.000	0.071	0.266
-255.122	-174.887	0.112	0.003
-254.107	-14.428	0.054	0.034
-253.092	-54.608	-0.125	0.056
-252.078	-200.000	-0.024	0.234
-251.063	160.329	-0.078	-0.107
-250.049	-12.512	0.039	0.025
-249.034	-101.502	0.278	0.067
-248.019	800.000	-0.107	0.366
-247.005	-75.799	0.309	0.108
-245.990	-125.991	-0.081	0.012
-244.976	-117.576	0.128	0.023
-243.961	-133.184	0.189	-0.024
-242.946	-200.000	0.044	-0.214
-241.932	88.496	-0.218	0.240
-240.917	-87.045	-0.287	0.086
-239.903	-200.000	0.036	-0.359
-238.888	12.650	0.179	0.136
-237.873	-172.332	0.208	0.007
-236.859	408.749	0.120	0.252
-235.844	-200.000	0.027	-0.287
-234.830	-18.101	-0.265	-0.164
-233.815	-75.165	0.143	0.051
-232.800	-17.579	-0.151	0.094
-231.786	40.450	0.255	0.227
-230.771	-67.648	0.378	-0.146
-229.757	-200.000	-0.023	-0.205
-228.742	-105.028	0.470	-0.106
-227.727	-112.403	0.186	0.037
-226.713	800.000	-0.128	-0.393
-225.698	648.652	-0.050	-0.127
-224.684	-116.018	0.212	-0.039
-223.669	30.031	-0.267	0.224
-222.655	-43.596	-0.236	-0.117
-221.640	800.000	-0.084	0.288
-220.625	800.000	-0.028	-0.086
-219.611	108.199	-0.158	0.186
-218.596	419.263	-0.088	0.186
-217.582	523.664	-0.045	0.104
-216.567	70.080	-0.164	-0.167
-215.552	19.140	-0.189	0.150
-214.538	-200.000	-0.016	0.272
-213.523	-108.653	0.244	-0.052
-212.509	-51.237	-0.299	0.138
-211.494	-200.000	-0.003	0.179
-210.479	328.443	-0.143	0.272
-209.465	22.445	0.172	-0.139
-208.450	43.114	-0.207	-0.187
-207.436	-200.000	-0.018	-0.498
-206.421	-200.000	0.006	-0.073
-205.406	116.576	-0.231	-0.279
-204.392	21.057	-0.085	-0.068
-203.377	-200.000	-0.007	0.146
-202.363	476.920	-0.129	0.288
-201.348	-134.079	-0.303	0.037
-200.333	-46.557	0.148	0.071
-199.319	202.776	0.125	-0.190
-198.304	800.000	-0.096	-0.323
-197.290	13.416	0.081	-0.062
-196.275	-3.830	-0.195	-0.133
-195.260	62.091	-0.134	0.132
-194.246	38.647	-0.124	-0.109
-193.231	-17.470	0.196	0.122
-192.217	63.442	-0.155	0.153
-191.202	23.289	0.124	0.100
-190.187	800.000	0.025	0.094
-189.173	-41.983	0.177	0.089
-188.158	291.821	-0.230	-0.412
-187.144	156.502	-0.048	0.065
-186.129	423.479	0.137	-0.290
-185.114	800.000	-0.083	-0.343
-184.100	-200.000	0.016	0.179
-183.085	-82.044	-0.097	-0.031
-182.071	268.988	-0.195	0.338
-181.056	-147.967	-0.041	-0.003
-180.042	75.864	0.460	0.479
-179.027	-118.011	-0.320	0.056
-178.012	-127.237	-0.281	0.040
-176.998	-164.509	-0.086	-0.004
-175.983	101.741	0.049	0.056
-174.969	98.663	0.149	0.170
-173.954	503.172	0.154	0.351
-172.939	7.621	0.208	-0.154
-171.925	-200.000	-0.043	0.236
-170.910	338.113	-0.098	-0.189
-169.896	268.431	0.105	0.181
-168.881	-55.468	-0.121	0.053
-167.866	8.164	0.253	-0.187
-166.852	127.498	-0.197	0.247
-165.837	98.719	0.044	0.050
-164.823	-91.781	-0.170	0.047
-163.808	5.238	0.136	0.099
-162.793	-121.942	-0.316	-0.051
-161.779	800.000	-0.054	0.165
-160.764	33.991	-0.233	0.200
-159.750	480.754	-0.109	-0.243
-158.735	223.967	0.154	0.246
-157.720	-200.000	0.013	0.142
-156.706	-154.117	0.182	-0.012
-155.691	-200.000	0.006	-0.077
-154.677	44.908	0.102	0.092
-153.662	-55.158	0.200	-0.089
-152.647	-19.519	0.203	0.124
-151.633	-56.267	0.131	0.058
-150.618	-157.947	0.332	0.019
-149.604	-110.172	-0.062	-0.013
-148.589	-23.301	0.250	0.148
-147.574	-12.976	0.080	0.051
-146.560	-200.000	0.025	-0.250
-145.545	117.167	0.302	-0.365
-144.531	-126.516	-0.269	-0.039
-143.516	-200.000	0.015	-0.276
-142.502	-62.484	0.138	0.056
-141.487	574.145	0.068	-0.162
-140.472	-131.633	-0.190	0.025
-139.458	36.829	-0.172	-0.150
-138.443	800.000	0.095	-0.272
-137.429	239.788	0.082	-0.135
-136.414	800.000	-0.034	-0.139
-135.399	692.246	0.142	0.367
-134.385	-200.000	0.032	0.235
-133.370	227.084	0.114	-0.182
-132.356	-200.000	-0.023	0.187
-131.341	-107.459	-0.223	-0.048
-130.326	797.814	-0.067	-0.181
-129.312	209.488	0.077	0.119
-128.297	449.740	-0.094	-0.205
-127.283	-200.000	0.023	-0.194
-126.268	800.000	-0.082	0.225
-125.253	-200.000	-0.039	0.312
-124.239	181.573	0.274	0.396
-123.224	-152.234	0.227	0.016
-122.210	-5.549	-0.158	0.106
-121.195	204.563	-0.048	-0.073
