DTS Sentinel unit serial number:	SN413079Multiplexer serial number:	ORYXHardware model number:	OX4-SRSoftware version number:	ORYX F/W v4.00 Oryx Data Collector v3.7.2.0data status	okinstallation	princeton_trtdifferential loss correction	single-endedforward channel	channel 1reverse channel	N/Adate	2019/09/19time	01:02:35forward acquisition time	60.00reverse acquisition time	0.00gamma	496.2192k internal	0.2344k external	0.2344temperature offset calibration	1.0017default loss term (dB/km)	0.3790temperature slope calibration	1.0000multiplexer offset coefficient	1.0000multiplexer slope coefficient	1.0000fibre end	0.00T internal ref (°C)	21.92T ext. ref 1 (°C)	0.73T ext. ref 2 (°C)	15.32length (m)	temperature (°C)	Stokes	anti-Stokes-747.200	-42.007	-0.218	-0.112
-746.185	-0.256	-0.205	0.146
-745.171	-200.000	0.023	0.178
-744.156	708.569	-0.106	0.281
-743.142	-52.433	-0.236	0.109
-742.127	420.044	-0.220	0.472
-741.112	133.009	-0.046	-0.060
-740.098	800.000	-0.065	0.280
-739.083	-9.497	0.228	0.152
-738.069	-16.299	-0.218	0.139
-737.054	800.000	0.052	-0.184
-736.039	135.786	-0.215	0.280
-735.025	800.000	0.126	0.365
-734.010	800.000	0.098	-0.305
-732.996	-100.315	-0.686	-0.170
-731.981	-200.000	0.031	0.229
-730.966	-25.352	-0.123	0.073
-729.952	20.263	-0.120	-0.097
-728.937	-118.565	-0.131	-0.023
-727.923	82.939	0.078	-0.085
-726.908	-200.000	-0.024	0.186
-725.894	181.856	-0.075	-0.111
-724.879	800.000	-0.018	-0.071
-723.864	-140.180	-0.204	-0.021
-722.850	-41.139	-0.240	0.124
-721.835	-200.000	-0.006	-0.078
-720.821	736.014	-0.103	-0.275
-719.806	-200.000	-0.020	0.382
-718.791	203.644	0.147	0.227
-717.777	-120.687	-0.309	-0.052
-716.762	-49.706	-0.132	0.063
-715.748	334.179	-0.071	-0.137
-714.733	-111.401	-0.121	0.025
-713.718	-120.689	-0.194	0.033
-712.704	161.818	0.085	0.119
-711.689	800.000	0.073	-0.220
-710.675	351.099	0.086	0.169
-709.660	800.000	-0.066	-0.227
-708.645	-74.805	-0.173	0.062
-707.631	7.112	-0.212	-0.158
-706.616	-87.854	-0.169	-0.051
-705.602	-200.000	0.038	0.250
-704.587	-54.247	-0.217	-0.099
-703.572	-135.300	-0.165	-0.020
-702.558	-28.337	0.248	0.143
-701.543	-200.000	0.011	0.147
-700.529	-70.344	-0.180	-0.068
-699.514	318.737	-0.170	-0.321
-698.499	-72.483	0.062	0.023
-697.485	145.246	-0.158	0.211
-696.470	-103.701	0.062	0.015
-695.456	-103.996	0.365	0.085
-694.441	-64.590	-0.437	0.177
-693.426	456.895	0.095	-0.211
-692.412	-200.000	0.051	-0.386
-691.397	-37.142	-0.089	0.048
-690.383	447.996	-0.052	0.115
-689.368	-200.000	-0.034	-0.414
-688.354	-88.504	-0.143	0.043
-687.339	-0.344	0.264	0.187
-686.324	-85.690	-0.357	0.111
-685.310	-112.845	-0.166	0.033
-684.295	-82.795	0.329	-0.106
-683.281	-129.016	-0.256	0.036
-682.266	204.365	-0.143	0.221
-681.251	-160.089	0.336	0.018
-680.237	190.961	-0.086	-0.130
-679.222	-112.877	0.246	-0.049
-678.208	-51.390	-0.308	0.144
-677.193	-24.974	-0.036	0.021
-676.178	-179.208	0.216	-0.005
-675.164	107.730	-0.072	-0.085
-674.149	-200.000	0.039	-0.271
-673.135	-151.034	-0.071	0.005
-672.120	-169.034	0.085	-0.003
-671.105	-80.767	0.187	0.062
-670.091	19.067	0.244	-0.195
-669.076	-68.117	-0.421	0.164
-668.062	-73.908	-0.279	-0.101
-667.047	28.576	-0.150	0.127
-666.032	-119.353	-0.144	-0.025
-665.018	14.327	0.160	-0.124
-664.003	-139.119	-0.399	0.043
-662.989	553.032	-0.079	-0.190
-661.974	-165.465	-0.132	0.006
-660.959	-64.952	-0.101	-0.041
-659.945	-200.000	-0.014	0.198
-658.930	800.000	-0.098	0.315
-657.916	45.975	0.421	-0.389
-656.901	-80.928	-0.121	-0.040
-655.886	32.767	-0.121	-0.104
-654.872	762.408	0.077	-0.209
-653.857	-7.388	-0.266	0.179
-652.843	800.000	-0.057	-0.184
-651.828	800.000	0.045	0.162
-650.814	-2.174	0.202	0.142
-649.799	-0.434	0.284	0.201
-648.784	353.793	0.176	-0.349
-647.770	-200.000	-0.017	-0.129
-646.755	-76.262	0.224	-0.079
-645.741	96.261	0.054	-0.062
-644.726	488.875	0.135	-0.307
-643.711	759.345	-0.108	-0.292
-642.697	800.000	0.116	-0.421
-641.682	-35.078	0.272	-0.148
-640.668	800.000	-0.116	-0.333
-639.653	-17.927	0.169	-0.106
-638.638	541.861	-0.069	-0.163
-637.624	-112.397	-0.377	-0.075
-636.609	541.796	-0.124	0.295
-635.595	800.000	-0.112	-0.479
-634.580	-53.675	-0.336	-0.153
-633.565	800.000	0.078	0.297
-632.551	6.299	-0.391	0.289
-631.536	-200.000	0.044	0.408
-630.522	174.054	0.097	-0.140
-629.507	121.534	-0.191	-0.238
-628.492	669.119	0.093	0.239
-627.478	-94.480	-0.285	0.077
-626.463	-111.287	0.042	0.009
-625.449	-39.703	0.117	0.061
-624.434	800.000	0.044	-0.168
-623.419	-200.000	0.126	0.571
-622.405	-23.591	-0.216	0.129
-621.390	147.247	-0.044	-0.059
-620.376	45.388	-0.127	0.117
-619.361	391.643	0.063	0.131
-618.346	-105.240	0.159	0.036
-617.332	800.000	0.048	-0.154
-616.317	267.304	-0.132	0.229
-615.303	800.000	-0.078	0.255
-614.288	618.200	0.086	-0.215
-613.273	527.389	0.108	-0.254
-612.259	-12.579	0.264	-0.172
-611.244	-200.000	0.019	-0.294
-610.230	74.991	-0.151	0.158
-609.215	-200.000	-0.067	-0.338
-608.201	134.432	0.152	0.196
-607.186	-200.000	0.009	-0.247
-606.171	-95.622	-0.175	-0.047
-605.157	-74.316	-0.111	0.040
-604.142	224.224	-0.080	0.128
-603.128	-69.195	-0.165	0.063
-602.113	-76.562	-0.100	-0.035
-601.098	800.000	0.063	0.186
-600.084	470.361	-0.111	-0.249
-599.069	151.365	0.120	-0.163
-598.055	114.560	0.142	0.173
-597.040	-43.955	-0.178	-0.089
-596.025	-49.297	0.166	-0.079
-595.011	185.474	-0.113	-0.167
-593.996	417.241	0.192	-0.408
-592.982	506.376	-0.110	-0.254
-591.967	-100.496	0.319	0.079
-590.952	222.889	-0.097	0.155
-589.938	339.646	-0.108	-0.210
-588.923	-71.250	0.183	0.068
-587.909	-124.975	-0.237	-0.036
-586.894	224.747	0.057	0.092
-585.879	-81.878	-0.171	0.056
-584.865	66.117	-0.225	-0.228
-583.850	-85.970	-0.132	0.041
-582.836	800.000	0.124	0.359
-581.821	-200.000	-0.027	-0.216
-580.806	620.308	-0.040	-0.101
-579.792	800.000	0.038	0.164
-578.777	-106.352	-0.091	0.020
-577.763	169.360	-0.365	-0.519
-576.748	121.139	-0.239	-0.296
-575.733	-162.985	0.416	0.020
-574.719	-34.020	-0.158	-0.086
-573.704	295.438	0.191	-0.347
-572.690	-200.000	0.096	0.000
-571.675	-200.000	-0.012	0.076
-570.661	800.000	0.047	0.205
-569.646	-22.002	-0.082	-0.049
-568.631	745.106	0.072	-0.192
-567.617	-200.000	-0.007	0.039
-566.602	-21.341	0.107	-0.065
-565.588	-200.000	-0.028	0.369
-564.573	205.196	0.039	0.061
-563.558	617.967	0.051	-0.128
-562.544	103.986	0.144	-0.168
-561.529	-77.381	-0.352	-0.121
-560.515	-200.000	-0.036	-0.220
-559.500	246.771	-0.132	-0.222
-558.485	-125.179	0.153	0.023
-557.471	-200.000	-0.048	-0.249
-556.456	23.013	0.238	0.194
-555.442	238.641	-0.054	0.089
-554.427	800.000	-0.099	0.321
-553.412	-63.101	-0.248	0.102
-552.398	800.000	0.075	-0.243
-551.383	51.245	-0.281	0.265
-550.369	35.147	0.177	0.154
-549.354	800.000	0.029	0.082
-548.339	-200.000	0.033	0.155
-547.325	405.852	-0.104	0.217
-546.310	5.146	-0.245	0.179
-545.296	-49.123	-0.067	-0.032
-544.281	800.000	0.096	0.319
-543.266	-98.513	-0.106	0.027
-542.252	70.529	0.052	0.054
-541.237	800.000	0.087	-0.254
-540.223	487.308	-0.107	0.242
-539.208	-36.029	-0.143	0.077
-538.193	-63.407	-0.069	0.028
-537.179	-122.045	-0.324	0.053
-536.164	800.000	0.099	-0.341
-535.150	-142.133	0.395	-0.039
-534.135	-106.745	-0.303	-0.067
-533.121	-99.663	0.310	-0.077
-532.106	63.772	0.043	-0.043
-531.091	-122.144	0.338	-0.055
-530.077	-200.000	0.014	-0.091
-529.062	56.060	0.149	-0.143
-528.048	146.684	-0.072	0.097
-527.033	-45.808	-0.226	-0.111
-526.018	23.938	-0.120	0.098
-525.004	-31.408	-0.187	0.104
-523.989	-200.000	-0.008	0.183
-522.975	-59.778	-0.206	-0.088
-521.960	-39.291	-0.236	0.123
-520.945	46.810	0.146	-0.135
-519.931	91.608	-0.141	0.158
-518.916	-57.059	0.454	0.199
-517.902	246.923	0.166	-0.277
-516.887	-200.000	0.011	-0.306
-515.872	-200.000	-0.005	-0.104
-514.858	150.344	0.043	0.058
-513.843	382.598	0.144	-0.293
-512.829	-200.000	-0.012	-0.094
-511.814	326.260	-0.194	-0.368
-510.799	-200.000	-0.022	0.231
-509.785	40.699	-0.157	0.141
-508.770	-200.000	-0.037	-0.301
-507.756	26.901	0.047	0.039
-506.741	11.227	-0.058	0.044
-505.726	-147.841	-0.295	0.024
-504.712	62.620	-0.156	0.155
-503.697	283.550	-0.106	-0.188
-502.683	117.769	-0.118	-0.144
-501.668	-77.772	0.195	-0.067
-500.653	-200.000	-0.015	0.177
-499.639	271.388	0.115	0.200
-498.624	8.434	-0.171	0.128
-497.610	-35.055	0.267	0.144
-496.595	143.677	0.017	0.023
-495.581	-34.007	0.224	-0.122
-494.566	-26.698	0.192	0.111
-493.551	56.403	-0.473	0.456
-492.537	-126.009	-0.230	0.034
-491.522	-27.920	0.347	0.199
-490.508	253.223	0.213	0.361
-489.493	110.398	0.118	0.140
-488.478	-166.376	0.149	0.006
-487.464	-200.000	0.013	0.351
-486.449	800.000	0.088	0.285
-485.435	-29.338	0.306	0.174
-484.420	800.000	-0.103	0.364
-483.405	-200.000	-0.020	0.245
-482.391	-200.000	0.016	0.201
-481.376	-35.760	-0.097	-0.052
-480.362	115.851	0.113	0.137
-479.347	14.779	-0.326	-0.252
-478.332	67.402	-0.173	0.175
-477.318	1.449	-0.373	0.266
-476.303	-200.000	0.051	0.301
-475.289	-51.876	-0.044	-0.020
-474.274	-200.000	-0.052	-0.270
-473.259	300.397	-0.157	-0.287
-472.245	-39.329	-0.123	0.064
-471.230	496.577	-0.130	-0.296
-470.216	68.630	0.152	-0.155
-469.201	-109.945	-0.213	0.044
-468.186	-200.000	-0.009	0.257
-467.172	-200.000	0.054	-0.243
-466.157	-87.001	-0.264	0.080
-465.143	-108.268	-0.143	-0.031
-464.128	-36.224	-0.142	0.076
-463.113	-29.367	-0.157	0.089
-462.099	-177.589	0.155	-0.004
-461.084	147.913	-0.222	-0.296
-460.070	-200.000	-0.056	0.287
-459.055	62.975	-0.238	-0.236
-458.040	-35.971	-0.275	0.147
-457.026	-2.200	-0.046	-0.032
-456.011	125.474	0.049	0.061
-454.997	149.025	-0.080	0.107
-453.982	-10.442	0.115	-0.075
-452.968	800.000	-0.078	-0.231
-451.953	-200.000	-0.010	0.097
-450.938	-200.000	0.009	-0.043
-449.924	-41.630	0.349	-0.177
-448.909	213.871	0.136	0.213
-447.895	206.382	0.156	0.241
-446.880	86.715	0.156	-0.170
-445.865	-200.000	0.020	-0.335
-444.851	758.258	-0.040	-0.107
-443.836	-76.601	-0.099	-0.034
-442.822	-122.611	-0.299	0.048
-441.807	-68.605	-0.326	0.125
-440.792	-200.000	0.080	-0.348
-439.778	33.194	0.094	0.081
-438.763	250.850	-0.161	0.270
-437.749	800.000	0.033	0.126
-436.734	-200.000	0.024	-0.141
-435.719	-20.332	0.240	0.146
-434.705	105.289	-0.099	-0.115
-433.690	191.278	0.028	-0.042
-432.676	39.244	0.153	-0.136
-431.661	117.286	0.121	0.147
-430.646	80.291	-0.210	-0.223
-429.632	-46.122	-0.310	-0.151
-428.617	-49.675	-0.163	-0.077
-427.603	72.333	-0.188	-0.194
-426.588	135.732	-0.142	-0.182
-425.573	-152.802	0.180	0.013
-424.559	800.000	0.051	0.197
-423.544	235.055	-0.216	0.352
-422.530	236.553	0.167	0.273
-421.515	-11.493	0.141	0.092
-420.500	-139.260	-0.101	-0.011
-419.486	171.059	0.128	0.182
-418.471	-149.590	-0.129	0.010
-417.457	626.233	0.051	-0.127
-416.442	-200.000	-0.034	0.224
-415.428	52.615	0.087	-0.082
-414.413	278.057	0.017	-0.029
-413.398	-65.948	0.141	-0.056
-412.384	800.000	-0.057	0.237
-411.369	151.312	-0.013	0.018
-410.355	-64.457	-0.135	-0.054
-409.340	-124.835	0.216	-0.033
-408.325	-200.000	0.009	0.182
-407.311	-45.392	-0.159	-0.078
-406.296	63.674	0.107	-0.106
-405.282	-152.110	-0.229	0.016
-404.267	-103.407	0.062	-0.014
-403.252	460.505	-0.010	0.022
-402.238	261.637	0.112	-0.192
-401.223	123.321	-0.153	0.189
-400.209	800.000	0.041	-0.163
-399.194	331.394	0.088	-0.167
-398.179	238.881	-0.204	0.336
-397.165	640.764	0.058	-0.146
-396.150	-48.537	-0.349	0.166
-395.136	800.000	-0.039	0.163
-394.121	38.895	-0.189	0.167
-393.106	-200.000	-0.011	0.078
-392.092	-58.243	-0.168	-0.072
-391.077	-57.377	-0.233	-0.101
-390.063	-26.127	-0.241	0.140
-389.048	-84.879	-0.226	-0.070
-388.033	-41.420	-0.190	-0.096
-387.019	68.068	0.150	-0.152
-386.004	716.388	0.170	-0.446
-384.990	-101.234	-0.367	0.089
-383.975	800.000	0.034	0.095
-382.960	-67.243	-0.331	0.129
-381.946	-89.338	0.115	-0.033
-380.931	-71.604	-0.263	0.097
-379.917	800.000	0.105	-0.322
-378.902	-200.000	0.052	0.246
-377.888	355.635	-0.094	0.185
-376.873	-200.000	-0.002	-0.200
-375.858	-129.210	0.281	-0.039
-374.844	-200.000	0.026	-0.308
-373.829	-9.586	0.124	0.082
-372.815	-96.007	0.303	0.080
-371.800	-200.000	0.021	-0.282
-370.785	561.077	-0.134	-0.320
-369.771	12.525	-0.341	-0.260
-368.756	-86.851	-0.251	0.076
-367.742	345.118	-0.066	0.128
-366.727	-1.855	-0.141	-0.098
-365.712	482.211	0.094	0.211
-364.698	8.258	0.166	0.123
-363.683	800.000	0.077	-0.240
-362.669	523.531	-0.132	-0.307
-361.654	93.476	0.159	-0.177
-360.639	116.777	-0.139	-0.169
-359.625	37.873	-0.049	0.043
-358.610	-40.161	0.234	-0.120
-357.596	58.501	0.167	0.162
-356.581	-75.691	-0.346	-0.121
-355.566	800.000	0.063	-0.231
-354.552	-148.762	-0.142	-0.011
-353.537	-200.000	0.015	0.144
-352.523	1.805	-0.119	0.084
-351.508	80.597	-0.157	0.167
-350.493	-92.694	0.103	0.028
-349.479	39.339	-0.258	-0.228
-348.464	438.604	0.085	-0.183
-347.450	463.072	-0.181	0.399
-346.435	-1.530	0.147	-0.102
-345.420	-200.000	0.004	0.069
-344.406	24.120	0.278	0.226
-343.391	11.998	0.093	0.071
-342.377	800.000	0.040	0.144
-341.362	-120.095	0.178	0.030
-340.348	-34.490	0.162	-0.087
-339.333	-19.935	-0.013	0.008
-338.318	-200.000	0.002	0.092
-337.304	-74.303	-0.373	0.133
-336.289	155.299	0.044	-0.060
-335.275	-25.520	-0.177	0.103
-334.260	-68.287	-0.293	0.112
-333.245	324.949	0.043	0.080
-332.231	800.000	0.095	-0.287
-331.216	-12.078	0.211	-0.136
-330.202	749.078	0.014	0.037
-329.187	175.954	0.319	0.455
-328.172	220.182	-0.212	-0.335
-327.158	8.695	-0.161	-0.119
-326.143	65.044	-0.149	0.149
-325.129	651.897	-0.177	-0.448
-324.114	452.744	0.126	0.275
-323.099	187.016	-0.037	0.054
-322.085	70.972	0.091	-0.093
-321.070	-191.360	-0.218	0.002
-320.056	-61.891	0.221	0.091
-319.041	-105.429	-0.158	-0.035
-318.026	-177.956	0.277	0.007
-317.012	-200.000	-0.001	0.076
-315.997	191.854	0.037	0.055
-314.983	-200.000	-0.012	-0.079
-313.968	57.592	0.307	-0.296
-312.953	-75.874	0.100	-0.035
-311.939	703.238	-0.109	-0.283
-310.924	10.839	0.364	-0.274
-309.910	278.246	0.055	0.096
-308.895	18.843	0.246	0.194
-307.880	704.677	0.107	-0.278
-306.866	-200.000	-0.021	-0.180
-305.851	9.930	-0.086	0.065
-304.837	-200.000	-0.034	0.149
-303.822	800.000	-0.109	-0.305
-302.807	-189.057	-0.369	-0.004
-301.793	124.904	0.170	-0.211
-300.778	-59.410	0.250	0.106
-299.764	247.050	-0.055	0.092
-298.749	136.198	-0.091	-0.116
-297.735	-200.000	0.011	0.289
-296.720	189.036	-0.147	-0.217
-295.705	800.000	-0.058	-0.163
-294.691	-91.222	0.259	0.073
-293.676	-200.000	-0.005	-0.124
-292.662	-88.029	0.362	-0.107
-291.647	-200.000	-0.005	0.223
-290.632	-127.603	0.144	-0.021
-289.618	287.086	0.134	0.238
-288.603	304.697	-0.225	0.412
-287.589	-48.568	0.184	0.087
-286.574	34.487	0.165	-0.141
-285.559	-118.456	-0.316	0.055
-284.545	-77.614	0.255	-0.087
-283.530	668.633	0.082	-0.209
-282.516	634.930	0.036	-0.091
-281.501	31.412	0.282	-0.238
-280.486	499.575	0.140	0.317
-279.472	800.000	0.099	0.299
-278.457	84.274	0.122	-0.131
-277.443	800.000	0.133	0.376
-276.428	-13.120	0.275	0.176
-275.413	-200.000	0.020	0.141
-274.399	96.983	0.335	0.377
-273.384	-151.379	0.148	0.011
-272.370	290.237	-0.094	0.169
-271.355	76.518	0.142	0.148
-270.340	-59.292	0.146	0.062
-269.326	-76.374	-0.225	-0.078
-268.311	-72.605	-0.266	-0.097
-267.297	529.502	0.109	-0.253
-266.282	-94.242	-0.083	0.022
-265.267	800.000	0.006	-0.016
-264.253	136.823	-0.057	-0.074
-263.238	210.387	-0.159	0.244
-262.224	391.047	0.212	0.432
-261.209	-200.000	-0.022	-0.177
-260.195	72.347	0.263	0.269
-259.180	93.536	0.130	-0.145
-258.165	-200.000	-0.059	-0.287
-257.151	-73.080	-0.070	0.025
-256.136	394.176	-0.067	-0.138
-255.122	-116.339	-0.374	0.068
-254.107	-200.000	-0.004	0.214
-253.092	-4.866	-0.183	0.124
-252.078	800.000	-0.036	-0.111
-251.063	133.083	0.310	-0.393
-250.049	-86.828	0.352	0.105
-249.034	800.000	-0.113	0.384
-248.019	800.000	0.092	0.341
-247.005	-137.698	-0.228	-0.025
-245.990	-152.323	0.223	-0.016
-244.976	800.000	-0.104	-0.333
-243.961	-84.411	-0.223	-0.069
-242.946	-200.000	0.034	0.291
-241.932	200.203	0.073	-0.110
-240.917	-127.699	0.221	0.031
-239.903	-119.731	0.128	-0.022
-238.888	-167.575	-0.280	0.011
-237.873	-166.660	0.203	0.008
-236.859	-32.183	0.105	-0.058
-235.844	-200.000	-0.085	0.373
-234.830	554.924	0.074	0.176
-233.815	63.653	0.138	-0.136
-232.800	68.031	0.049	-0.049
-231.786	-200.000	0.004	0.097
-230.771	-76.214	-0.034	-0.012
-229.757	-64.863	0.327	-0.130
-228.742	169.967	-0.131	-0.184
-227.727	-190.528	0.369	-0.004
-226.713	160.413	0.082	-0.112
-225.698	36.710	0.113	-0.098
-224.684	-200.000	0.049	0.227
-223.669	-7.531	-0.280	0.186
-222.655	800.000	-0.043	-0.135
-221.640	800.000	0.112	-0.322
-220.625	-96.059	0.038	-0.010
-219.611	-58.124	-0.209	0.090
-218.596	-15.135	0.065	-0.041
-217.582	475.873	-0.037	0.083
-216.567	-200.000	-0.030	0.240
-215.552	-116.838	-0.182	0.033
-214.538	68.452	-0.170	0.170
-213.523	257.252	0.159	-0.268
-212.509	54.576	0.206	0.194
-211.494	-200.000	-0.031	-0.209
-210.479	100.958	0.059	0.068
-209.465	97.784	0.167	0.188
-208.450	-200.000	-0.001	0.014
-207.436	36.816	-0.209	-0.181
-206.421	262.274	-0.268	-0.455
-205.406	166.069	0.160	-0.221
-204.392	29.012	-0.123	-0.102
-203.377	-134.867	0.385	0.046
-202.363	9.444	0.313	-0.232
-201.348	-105.652	0.284	-0.063
-200.333	-47.811	0.172	-0.082
-199.319	-115.163	0.236	0.044
-198.304	-200.000	0.071	0.547
-197.290	0.255	-0.118	0.083
-196.275	-200.000	0.049	-0.270
-195.260	-200.000	-0.044	0.220
-194.246	-54.940	-0.073	-0.032
-193.231	-45.583	0.229	-0.111
-192.217	689.231	-0.064	0.164
-191.202	-200.000	-0.070	-0.376
-190.187	-189.456	0.309	0.004
-189.173	-200.000	0.079	0.454
-188.158	90.164	0.025	0.027
-187.144	-120.162	-0.189	0.032
-186.129	253.457	0.146	0.245
-185.114	-1.538	0.143	-0.099
-184.100	354.303	-0.156	-0.303
-183.085	50.110	-0.154	0.142
-182.071	-112.088	0.078	-0.015
-181.056	176.502	0.166	0.236
-180.042	-115.375	0.333	0.061
-179.027	-46.629	0.187	0.090
-178.012	-184.514	-0.198	-0.003
-176.998	-200.000	0.015	0.281
-175.983	-200.000	0.038	0.227
-174.969	36.732	0.212	-0.183
-173.954	-200.000	0.013	-0.153
-172.939	800.000	0.027	-0.092
-171.925	-38.193	0.277	0.144
-170.910	-86.696	0.096	0.029
-169.896	-149.604	-0.244	0.019
-168.881	-136.745	0.077	-0.009
-167.866	-200.000	-0.001	0.076
-166.852	750.392	0.164	-0.434
-165.837	-36.938	0.095	0.050
-164.823	-148.237	-0.156	0.013
-163.808	-49.334	0.114	-0.053
-162.793	800.000	0.084	0.277
-161.779	65.508	0.141	0.139
-160.764	-54.897	0.269	0.119
-159.750	33.052	-0.102	-0.087
-158.735	-116.398	-0.498	0.090
-157.720	-112.213	0.089	0.017
-156.706	4.583	-0.305	-0.219
-155.691	-200.000	-0.034	-0.195
-154.677	-52.540	-0.206	-0.093
-153.662	13.016	0.329	0.249
-152.647	83.515	-0.029	0.031
-151.633	800.000	0.039	0.152
-150.618	379.186	-0.169	0.338
-149.604	-31.326	0.117	-0.064
-148.589	-200.000	-0.038	-0.415
-147.574	-41.090	0.070	0.035
-146.560	-8.699	0.175	0.115
-145.545	-72.943	-0.363	0.130
-144.531	-200.000	-0.039	0.258
-143.516	-80.782	-0.293	0.095
-142.502	109.024	0.057	0.066
-141.487	-74.494	-0.269	0.095
-140.472	35.980	0.085	-0.073
-139.458	-200.000	-0.028	0.167
-138.443	-29.519	-0.265	-0.148
-137.429	-72.547	-0.130	-0.047
-136.414	107.089	-0.203	-0.236
-135.399	-200.000	0.015	-0.125
-134.385	-117.926	-0.170	0.030
-133.370	100.360	-0.220	-0.250
-132.356	-62.049	-0.297	-0.121
-131.341	359.643	0.081	-0.158
-130.326	-42.743	0.285	0.141
-129.312	-1.909	0.134	0.092
-128.297	-200.000	0.002	-0.378
-127.283	-168.338	-0.317	-0.012
-126.268	83.166	-0.163	-0.173
-125.253	576.057	-0.098	-0.234
-124.239	-200.000	0.002	0.040
-123.224	-137.270	0.198	0.022
-122.210	7.283	-0.027	0.020
-121.195	154.268	-0.112	0.150
