DTS Sentinel unit serial number:	SN413079Multiplexer serial number:	ORYXHardware model number:	OX4-SRSoftware version number:	ORYX F/W v4.00 Oryx Data Collector v3.7.2.0data status	okinstallation	princeton_trtdifferential loss correction	single-endedforward channel	channel 1reverse channel	N/Adate	2019/09/15time	13:46:35forward acquisition time	60.00reverse acquisition time	0.00gamma	496.2192k internal	0.2293k external	0.2293temperature offset calibration	0.9972default loss term (dB/km)	0.3790temperature slope calibration	1.0000multiplexer offset coefficient	1.0000multiplexer slope coefficient	1.0000fibre end	0.00T internal ref (°C)	38.03T ext. ref 1 (°C)	4.91T ext. ref 2 (°C)	35.20length (m)	temperature (°C)	Stokes	anti-Stokes-747.200	47.009	-0.108	-0.103
-746.185	284.171	0.034	0.063
-745.171	-64.115	-0.141	0.059
-744.156	-67.918	0.310	-0.124
-743.142	800.000	-0.057	-0.230
-742.127	66.428	-0.138	0.143
-741.112	-169.253	0.111	-0.004
-740.098	82.951	-0.317	0.353
-739.083	-41.160	-0.330	-0.174
-738.069	800.000	0.013	0.051
-737.054	-61.983	-0.064	-0.028
-736.039	200.169	-0.085	0.134
-735.025	-122.146	-0.247	-0.041
-734.010	26.005	0.054	0.046
-732.996	-47.178	-0.463	-0.231
-731.981	18.299	0.096	-0.079
-730.966	-121.920	0.063	-0.011
-729.952	-176.514	-0.050	-0.001
-728.937	-96.853	-0.179	0.048
-727.923	-136.509	0.096	0.011
-726.908	284.023	-0.139	0.256
-725.894	73.037	-0.067	0.071
-724.879	-39.551	-0.356	-0.191
-723.864	800.000	0.068	-0.217
-722.850	102.915	0.191	0.229
-721.835	-99.929	-0.293	0.075
-720.821	-85.353	0.310	0.099
-719.806	27.316	0.367	-0.315
-718.791	-153.612	-0.153	0.011
-717.777	331.755	-0.130	-0.256
-716.762	522.724	0.128	-0.307
-715.748	-58.936	-0.188	-0.083
-714.733	-76.194	0.132	-0.048
-713.718	-50.302	0.224	-0.108
-712.704	-1.067	-0.107	-0.077
-711.689	-97.549	-0.148	0.039
-710.675	239.075	0.093	-0.158
-709.660	-82.979	0.268	-0.088
-708.645	251.356	0.093	-0.161
-707.631	-31.069	-0.066	-0.038
-706.616	91.484	-0.127	0.145
-705.602	723.524	0.101	-0.274
-704.587	445.233	-0.053	-0.119
-703.572	93.334	-0.273	-0.316
-702.558	-200.000	-0.051	-0.411
-701.543	-61.832	-0.117	-0.050
-700.529	-200.000	0.006	0.106
-699.514	43.405	-0.174	0.163
-698.499	22.213	0.053	0.044
-697.485	688.367	-0.061	0.163
-696.470	-99.831	-0.161	-0.041
-695.456	207.276	0.040	-0.064
-694.441	-200.000	0.014	0.298
-693.426	-40.882	-0.125	-0.066
-692.412	-157.543	0.152	0.009
-691.397	-200.000	-0.018	-0.119
-690.383	-185.562	0.252	-0.004
-689.368	46.800	0.269	-0.255
-688.354	92.837	0.216	-0.249
-687.339	228.135	0.082	-0.136
-686.324	800.000	-0.086	0.335
-685.310	-19.536	0.235	-0.149
-684.295	275.210	0.118	-0.213
-683.281	-174.069	0.352	-0.011
-682.266	123.043	-0.175	0.224
-681.251	296.048	-0.123	0.230
-680.237	288.104	-0.109	-0.201
-679.222	800.000	0.030	0.089
-678.208	-114.824	-0.240	-0.047
-677.193	36.877	-0.108	0.098
-676.178	-200.000	-0.027	-0.207
-675.164	-36.889	0.257	-0.141
-674.149	51.852	0.042	-0.041
-673.135	-21.164	-0.246	0.154
-672.120	-200.000	-0.018	0.175
-671.105	136.328	0.155	-0.206
-670.091	-200.000	-0.096	-0.431
-669.076	-200.000	-0.025	-0.176
-668.062	800.000	-0.090	-0.265
-667.047	800.000	0.024	-0.105
-666.032	-98.892	0.226	-0.059
-665.018	-64.319	0.345	-0.143
-664.003	-55.089	0.076	-0.035
-662.989	80.731	-0.172	-0.190
-661.974	-66.696	-0.578	-0.234
-660.959	707.281	0.106	-0.287
-659.945	-4.882	-0.187	-0.132
-658.930	-117.927	0.098	-0.018
-657.916	29.125	-0.148	-0.128
-656.901	-90.258	0.100	0.030
-655.886	-20.704	-0.234	-0.146
-654.872	11.836	-0.323	-0.253
-653.857	90.413	0.199	-0.227
-652.843	-147.635	-0.492	-0.042
-651.828	-5.494	0.240	0.168
-650.814	2.091	0.273	0.201
-649.799	-200.000	0.025	0.349
-648.784	-200.000	0.010	-0.047
-647.770	71.781	0.152	0.161
-646.755	-85.641	0.155	-0.049
-645.741	356.534	0.112	-0.228
-644.726	-92.913	0.231	-0.066
-643.711	-90.611	0.115	-0.034
-642.697	-27.644	-0.033	0.020
-641.682	39.979	0.267	0.244
-640.668	-76.802	-0.326	-0.116
-639.653	189.032	-0.243	-0.371
-638.638	62.614	-0.230	-0.234
-637.624	-200.000	-0.045	-0.214
-636.609	70.654	-0.120	-0.126
-635.595	-181.004	-0.360	0.007
-634.580	-170.369	0.158	0.006
-633.565	800.000	-0.061	-0.203
-632.551	82.332	0.091	0.100
-631.536	12.310	-0.171	-0.134
-630.522	116.708	0.133	-0.166
-629.507	-159.587	-0.138	0.008
-628.492	-200.000	0.050	-0.367
-627.478	-34.184	-0.271	0.151
-626.463	-15.148	-0.213	-0.139
-625.449	-52.727	0.376	-0.176
-624.434	800.000	0.015	-0.065
-623.419	-92.056	0.278	-0.080
-622.405	92.694	-0.268	0.308
-621.390	126.677	0.074	0.095
-620.376	3.195	0.140	0.104
-619.361	-40.754	-0.154	0.081
-618.346	576.627	-0.101	-0.252
-617.332	-14.702	0.082	-0.054
-616.317	800.000	0.058	-0.168
-615.303	155.780	0.031	0.043
-614.288	-175.461	0.386	0.011
-613.273	-66.709	0.117	0.047
-612.259	-200.000	-0.062	-0.340
-611.244	800.000	-0.081	-0.286
-610.230	-200.000	0.004	0.257
-609.215	-155.741	-0.482	-0.031
-608.201	800.000	0.037	-0.107
-607.186	-200.000	-0.025	-0.285
-606.171	-200.000	0.018	-0.255
-605.157	-99.167	-0.388	0.100
-604.142	10.381	-0.216	0.167
-603.128	55.930	-0.071	-0.070
-602.113	-200.000	-0.012	0.300
-601.098	48.582	0.349	-0.333
-600.084	707.396	0.032	-0.086
-599.069	-200.000	0.024	0.150
-598.055	180.155	0.131	-0.196
-597.040	39.944	0.048	-0.044
-596.025	418.257	-0.091	-0.199
-595.011	800.000	-0.052	-0.199
-593.996	86.512	-0.169	0.190
-592.982	-171.299	-0.119	-0.004
-591.967	610.089	0.110	-0.280
-590.952	742.283	-0.152	-0.415
-589.938	-127.416	-0.303	0.045
-588.923	149.602	-0.151	-0.208
-587.909	-194.695	0.092	-0.001
-586.894	800.000	0.089	0.293
-585.879	-49.183	0.122	-0.059
-584.865	620.123	-0.097	-0.249
-583.850	18.787	-0.119	-0.097
-582.836	800.000	-0.048	-0.149
-581.821	-140.843	-0.142	-0.015
-580.806	-119.031	-0.255	-0.045
-579.792	83.176	0.142	-0.157
-578.777	-200.000	0.006	-0.121
-577.763	-9.833	0.272	0.184
-576.748	-41.819	0.240	-0.125
-575.733	97.804	-0.184	-0.215
-574.719	-31.888	-0.133	0.076
-573.704	-131.197	-0.122	-0.016
-572.690	-200.000	-0.013	-0.071
-571.675	2.994	0.231	-0.171
-570.661	-0.313	-0.143	-0.103
-569.646	-6.137	0.248	-0.172
-568.631	299.380	-0.185	0.347
-567.617	-200.000	-0.077	-0.587
-566.602	34.365	-0.184	-0.163
-565.588	157.216	0.132	-0.185
-564.573	800.000	0.058	0.211
-563.558	-74.737	0.072	0.026
-562.544	-146.787	0.122	-0.011
-561.529	-200.000	0.002	-0.101
-560.515	-159.186	0.168	0.010
-559.500	-200.000	0.008	0.154
-558.485	-55.895	0.133	0.060
-557.471	-200.000	-0.099	-0.550
-556.456	-200.000	0.055	-0.464
-555.442	-41.426	-0.388	-0.203
-554.427	-200.000	-0.007	0.049
-553.412	-99.030	0.219	-0.056
-552.398	68.239	0.141	0.147
-551.383	-193.143	-0.314	0.003
-550.369	400.893	0.086	0.183
-549.354	116.860	0.133	-0.166
-548.339	27.284	-0.133	-0.113
-547.325	-66.363	-0.230	0.093
-546.310	-60.102	0.307	0.133
-545.296	-165.211	0.357	-0.016
-544.281	-62.838	0.050	0.021
-543.266	-200.000	0.026	0.262
-542.252	617.969	0.131	0.333
-541.237	-25.859	-0.075	-0.045
-540.223	-88.325	0.112	0.034
-539.208	78.893	-0.161	-0.175
-538.193	114.692	-0.185	0.229
-537.179	-124.221	-0.517	-0.082
-536.164	-53.045	-0.301	0.140
-535.150	25.147	0.141	-0.119
-534.135	238.606	-0.054	-0.092
-533.121	-58.709	-0.271	-0.119
-532.106	800.000	-0.014	-0.046
-531.091	800.000	0.040	0.117
-530.077	-98.427	-0.464	-0.120
-529.062	244.301	0.167	-0.284
-528.048	800.000	0.079	0.280
-527.033	-98.354	-0.139	-0.036
-526.018	133.185	0.095	-0.124
-525.004	-63.979	-0.172	-0.071
-523.989	163.617	0.191	0.272
-522.975	232.852	-0.276	0.460
-521.960	-98.233	0.180	-0.047
-520.945	-76.865	-0.255	0.090
-519.931	-49.077	-0.293	-0.142
-518.916	314.982	0.091	0.174
-517.902	398.902	-0.085	0.180
-516.887	-17.547	0.177	0.113
-515.872	-79.617	0.200	0.068
-514.858	-17.730	0.389	0.248
-513.843	678.579	0.107	-0.281
-512.829	84.764	-0.147	0.164
-511.814	-200.000	-0.004	0.132
-510.799	367.632	-0.079	0.162
-509.785	275.308	-0.112	0.201
-508.770	-130.032	-0.384	0.053
-507.756	127.228	-0.049	0.064
-506.741	800.000	-0.019	0.075
-505.726	-17.656	0.205	-0.130
-504.712	-200.000	0.046	-0.241
-503.697	11.447	-0.103	0.080
-502.683	-200.000	-0.037	0.257
-501.668	-144.229	-0.223	-0.021
-500.653	236.711	0.093	0.157
-499.639	800.000	0.121	0.428
-498.624	-104.339	0.111	-0.026
-497.610	-200.000	0.025	0.218
-496.595	-62.719	0.089	-0.037
-495.581	130.081	0.215	0.279
-494.566	-116.952	-0.387	0.072
-493.551	-200.000	-0.011	-0.128
-492.537	-200.000	0.030	0.276
-491.522	800.000	-0.064	-0.200
-490.508	21.515	-0.153	-0.126
-489.493	-200.000	0.075	0.375
-488.478	-34.836	-0.204	-0.113
-487.464	-61.379	0.386	-0.165
-486.449	-200.000	-0.041	0.248
-485.435	-200.000	0.056	0.258
-484.420	445.021	0.137	-0.304
-483.405	-105.072	-0.075	0.017
-482.391	372.457	-0.071	-0.146
-481.376	-45.560	0.145	0.073
-480.362	31.501	0.121	0.105
-479.347	-40.232	-0.052	0.027
-478.332	-200.000	-0.025	0.120
-477.318	-77.653	0.393	-0.138
-476.303	-200.000	-0.006	0.267
-475.289	-87.693	-0.147	0.045
-474.274	116.072	-0.003	0.004
-473.259	496.097	-0.078	-0.181
-472.245	800.000	0.025	-0.104
-471.230	-100.870	0.303	0.075
-470.216	110.374	-0.180	0.219
-469.201	-83.402	0.209	0.068
-468.186	-111.469	-0.167	0.034
-467.172	-72.628	0.208	-0.078
-466.157	32.717	0.316	0.277
-465.143	-200.000	0.036	-0.392
-464.128	-200.000	0.032	-0.179
-463.113	137.498	-0.251	-0.332
-462.099	-10.421	0.264	0.177
-461.084	-81.526	-0.229	-0.076
-460.070	4.066	0.063	-0.047
-459.055	81.219	-0.198	-0.216
-458.040	744.985	0.033	-0.090
-457.026	800.000	0.027	0.115
-456.011	777.009	0.124	0.343
-454.997	161.744	0.024	-0.034
-453.982	139.372	-0.123	-0.163
-452.968	-55.406	0.261	-0.118
-451.953	-8.082	0.024	-0.016
-450.938	331.322	0.097	0.188
-449.924	53.163	-0.215	-0.208
-448.909	-200.000	0.001	-0.055
-447.895	-67.872	0.219	-0.087
-446.880	44.691	0.070	0.065
-445.865	193.283	-0.209	0.319
-444.851	-7.417	0.224	-0.154
-443.836	-50.232	-0.187	-0.089
-442.822	40.622	0.138	-0.125
-441.807	237.690	-0.246	-0.412
-440.792	-200.000	0.004	-0.130
-439.778	-84.495	0.379	-0.121
-438.763	-54.545	0.072	0.033
-437.749	50.695	0.130	0.125
-436.734	-70.747	-0.342	-0.130
-435.719	-200.000	-0.014	0.147
-434.705	-144.016	0.190	0.018
-433.690	45.619	0.157	-0.146
-432.676	100.153	-0.211	0.248
-431.661	-49.085	0.253	-0.122
-430.646	-200.000	-0.103	0.480
-429.632	160.400	-0.162	-0.229
-428.617	385.200	0.102	0.212
-427.603	97.424	-0.094	0.109
-426.588	251.934	-0.138	0.238
-425.573	-176.962	0.501	-0.013
-424.559	-200.000	0.032	0.204
-423.544	-200.000	-0.023	0.396
-422.530	-11.699	-0.175	-0.116
-421.515	6.826	-0.145	-0.109
-420.500	48.433	0.124	0.117
-419.486	-10.451	-0.147	-0.098
-418.471	-200.000	-0.017	-0.109
-417.457	-107.171	0.189	0.042
-416.442	102.860	-0.201	0.238
-415.428	-45.246	0.106	0.053
-414.413	-120.904	-0.350	-0.060
-413.398	-17.261	0.270	-0.172
-412.384	-14.513	0.161	0.104
-411.369	-200.000	0.056	0.490
-410.355	1.910	-0.082	-0.059
-409.340	-37.710	0.376	0.202
-408.325	-99.250	-0.108	-0.028
-407.311	-22.817	-0.183	-0.112
-406.296	266.338	0.099	0.174
-405.282	381.363	0.182	0.378
-404.267	249.815	-0.201	-0.343
-403.252	800.000	0.197	-0.686
-402.238	-20.969	0.078	-0.048
-401.223	-200.000	0.018	0.211
-400.209	-179.370	-0.062	-0.001
-399.194	18.700	0.028	-0.023
-398.179	-162.241	-0.229	0.012
-397.165	-102.653	-0.375	-0.090
-396.150	20.195	0.123	0.100
-395.136	128.844	0.207	0.267
-394.121	-200.000	-0.007	0.049
-393.106	800.000	0.047	-0.159
-392.092	-92.152	0.261	-0.074
-391.077	-200.000	0.003	-0.102
-390.063	-65.576	-0.215	-0.087
-389.048	-200.000	0.034	-0.246
-388.033	800.000	0.127	-0.381
-387.019	262.752	0.161	-0.282
-386.004	458.503	0.108	-0.242
-384.990	-51.538	0.184	-0.087
-383.975	-200.000	-0.010	-0.222
-382.960	-200.000	-0.025	0.122
-381.946	529.447	-0.128	0.304
-380.931	275.829	0.145	-0.259
-379.917	-200.000	0.043	0.237
-378.902	-200.000	-0.046	0.213
-377.888	307.631	-0.049	-0.093
-376.873	-118.186	-0.246	0.044
-375.858	800.000	-0.011	-0.036
-374.844	-111.528	0.110	-0.023
-373.829	522.820	0.074	-0.176
-372.815	21.971	0.317	-0.260
-371.800	46.314	0.113	0.106
-370.785	-200.000	0.100	-0.000
-369.771	-122.412	0.233	-0.038
-368.756	-78.866	0.257	-0.088
-367.742	-9.409	0.153	0.103
-366.727	-105.865	0.213	-0.048
-365.712	-107.066	-0.193	-0.043
-364.698	179.239	0.164	0.241
-363.683	800.000	0.090	-0.252
-362.669	229.975	0.062	-0.102
-361.654	6.058	-0.277	-0.207
-360.639	-200.000	-0.026	0.336
-359.625	69.494	-0.247	-0.256
-358.610	-60.835	-0.100	-0.042
-357.596	-160.980	0.263	0.014
-356.581	552.945	0.040	0.096
-355.566	800.000	-0.038	0.161
-354.552	344.405	0.082	-0.161
-353.537	-200.000	0.032	-0.197
-352.523	162.883	-0.216	0.305
-351.508	473.314	-0.088	-0.199
-350.493	161.891	0.126	0.178
-349.479	209.594	0.058	-0.092
-348.464	28.865	-0.099	-0.084
-347.450	-96.137	0.125	0.034
-346.435	800.000	-0.055	0.233
-345.420	-86.376	0.163	-0.050
-344.406	800.000	0.070	0.239
-343.391	179.024	-0.184	-0.270
-342.377	-200.000	0.023	0.215
-341.362	-139.076	-0.182	0.020
-340.348	153.374	-0.074	-0.102
-339.333	-200.000	0.014	0.238
-338.318	434.069	-0.171	0.375
-337.304	-173.057	-0.257	0.008
-336.289	-44.325	-0.207	-0.105
-335.275	235.245	-0.183	0.304
-334.260	-131.526	-0.289	-0.038
-333.245	30.065	0.242	0.208
-332.231	-46.391	-0.192	0.095
-331.216	82.134	0.347	-0.379
-330.202	62.555	0.077	-0.078
-329.187	150.951	-0.312	-0.427
-328.172	-63.291	0.130	-0.054
-327.158	-200.000	-0.021	-0.099
-326.143	-63.750	0.230	-0.095
-325.129	24.745	0.303	0.252
-324.114	81.472	0.183	-0.200
-323.099	-43.383	0.094	-0.048
-322.085	-139.844	0.295	-0.031
-321.070	800.000	-0.047	-0.150
-320.056	-52.265	-0.352	-0.164
-319.041	-64.369	-0.153	0.062
-318.026	79.064	-0.099	0.107
-317.012	-200.000	-0.022	0.165
-315.997	12.932	0.208	-0.162
-314.983	53.315	-0.219	0.212
-313.968	-39.999	0.402	-0.211
-312.953	800.000	-0.040	-0.127
-311.939	97.388	0.080	0.092
-310.924	-161.065	-0.345	-0.018
-309.910	800.000	-0.047	0.183
-308.895	-154.085	-0.292	-0.020
-307.880	429.136	-0.037	0.081
-306.866	98.188	-0.019	0.022
-305.851	-200.000	0.084	0.376
-304.837	-98.191	0.269	0.069
-303.822	82.979	-0.015	-0.017
-302.807	-200.000	0.039	0.196
-301.793	-200.000	0.031	-0.156
-300.778	148.983	0.120	0.164
-299.764	684.435	-0.009	-0.025
-298.749	800.000	0.025	0.081
-297.735	-19.177	-0.467	0.291
-296.720	19.412	0.084	-0.068
-295.705	-74.103	-0.075	0.027
-294.691	-97.506	-0.156	0.041
-293.676	42.331	0.282	0.258
-292.662	7.276	-0.298	0.224
-291.647	-162.959	-0.113	0.006
-290.632	148.734	0.157	0.213
-289.618	-46.848	-0.215	-0.106
-288.603	-200.000	0.031	0.463
-287.589	-17.204	-0.252	0.160
-286.574	414.968	0.096	0.206
-285.559	-92.913	-0.116	0.033
-284.545	482.791	0.120	0.274
-283.530	-134.558	0.291	0.036
-282.516	-200.000	-0.029	-0.269
-281.501	-0.352	0.150	0.107
-280.486	-200.000	0.067	0.408
-279.472	281.581	0.045	-0.081
-278.457	221.041	-0.132	0.213
-277.443	-47.405	0.155	0.076
-276.428	-200.000	-0.010	-0.101
-275.413	150.693	-0.075	0.103
-274.399	-13.282	-0.252	0.164
-273.384	-143.396	-0.321	0.031
-272.370	-200.000	0.007	-0.214
-271.355	-200.000	-0.015	0.184
-270.340	121.314	-0.091	0.114
-269.326	-98.766	-0.081	-0.021
-268.311	-92.083	0.170	-0.048
-267.297	-114.595	-0.156	-0.030
-266.282	171.691	0.040	0.058
-265.267	105.516	-0.254	-0.302
-264.253	-19.126	0.147	0.092
-263.238	-152.709	0.289	-0.021
-262.224	800.000	-0.127	-0.414
-261.209	347.593	-0.037	-0.074
-260.195	-7.227	0.077	-0.053
-259.180	-24.519	0.179	0.107
-258.165	395.096	-0.082	0.172
-257.151	70.079	-0.077	-0.079
-256.136	113.835	-0.059	0.073
-255.122	-37.703	-0.247	0.132
-254.107	-132.828	0.216	0.028
-253.092	-13.430	-0.226	0.147
-252.078	-114.917	0.047	0.009
-251.063	-130.073	-0.047	0.006
-250.049	11.207	0.065	0.050
-249.034	-12.573	-0.307	0.201
-248.019	123.437	-0.089	-0.112
-247.005	710.454	0.128	-0.341
-245.990	-31.723	0.345	0.194
-244.976	800.000	0.027	0.115
-243.961	-94.530	-0.345	0.094
-242.946	-55.927	0.360	-0.161
-241.932	-200.000	-0.070	-0.343
-240.917	-200.000	0.012	0.223
-239.903	-200.000	-0.014	0.136
-238.888	-122.720	-0.336	-0.054
-237.873	800.000	-0.076	-0.321
-236.859	-52.486	-0.282	-0.131
-235.844	800.000	-0.059	-0.229
-234.830	-17.865	-0.238	0.150
-233.815	-105.195	0.332	0.076
-232.800	-82.317	0.162	-0.053
-231.786	-60.706	0.252	-0.107
-230.771	-50.059	0.116	0.055
-229.757	800.000	0.076	-0.274
-228.742	-200.000	-0.037	-0.207
-227.727	302.773	0.031	-0.057
-226.713	226.619	-0.137	0.224
-225.698	443.185	-0.023	-0.050
-224.684	-2.958	-0.264	0.185
-223.669	-132.486	0.133	0.017
-222.655	215.098	-0.109	0.174
-221.640	-13.631	-0.200	-0.130
-220.625	800.000	-0.012	-0.047
-219.611	259.821	0.038	-0.066
-218.596	290.601	-0.079	-0.143
-217.582	-116.959	-0.064	0.012
-216.567	-95.677	-0.122	-0.033
-215.552	198.678	0.208	0.319
-214.538	-200.000	-0.047	0.367
-213.523	-200.000	-0.047	0.578
-212.509	800.000	-0.060	-0.193
-211.494	70.080	0.172	-0.178
-210.479	-161.055	0.274	-0.014
-209.465	-88.767	-0.180	-0.054
-208.450	800.000	0.086	0.298
-207.436	74.211	0.142	-0.149
-206.421	-7.867	-0.051	0.034
-205.406	800.000	-0.085	0.310
-204.392	800.000	-0.054	0.161
-203.377	-59.049	-0.052	0.022
-202.363	-35.858	0.272	-0.148
-201.348	-44.708	-0.253	-0.126
-200.333	-67.373	0.167	-0.066
-199.319	-32.015	0.324	-0.181
-198.304	170.240	0.013	-0.018
-197.290	800.000	0.017	0.063
-196.275	-200.000	-0.041	-0.284
-195.260	-155.008	-0.188	-0.012
-194.246	611.708	0.106	0.264
-193.231	-200.000	0.032	0.245
-192.217	-200.000	-0.030	0.171
-191.202	552.917	-0.070	0.168
-190.187	-87.504	0.288	-0.087
-189.173	207.131	-0.062	0.096
-188.158	7.710	0.201	0.151
-187.144	-114.060	0.087	-0.017
-186.129	14.474	-0.299	0.234
-185.114	-80.980	0.016	-0.005
-184.100	-200.000	0.014	-0.149
-183.085	-200.000	-0.088	0.385
-182.071	533.337	-0.085	0.201
-181.056	-200.000	0.021	-0.114
-180.042	-156.878	-0.106	0.007
-179.027	-70.687	-0.187	-0.071
-178.012	85.701	-0.163	0.179
-176.998	-101.091	-0.454	-0.111
-175.983	572.428	0.031	-0.076
-174.969	221.434	-0.057	-0.091
-173.954	-88.722	0.201	0.060
-172.939	-52.290	0.288	0.133
-171.925	-152.878	-0.155	0.011
-170.910	-125.793	0.436	0.066
-169.896	431.681	-0.092	0.200
-168.881	79.052	0.253	-0.271
-167.866	800.000	0.051	-0.143
-166.852	-130.294	0.185	0.025
-165.837	800.000	-0.009	-0.030
-164.823	-99.631	-0.097	-0.024
-163.808	-63.039	0.233	0.096
-162.793	-149.425	0.285	0.023
-161.779	-91.392	0.299	-0.085
-160.764	-1.168	-0.352	-0.249
-159.750	-60.634	-0.285	-0.121
-158.735	61.489	0.198	-0.197
-157.720	-55.709	0.149	-0.067
-156.706	-3.494	0.249	0.173
-155.691	-200.000	0.052	-0.272
-154.677	107.971	-0.087	0.104
-153.662	-30.879	0.124	0.070
-152.647	11.405	-0.195	-0.149
-151.633	557.485	-0.019	0.046
-150.618	-200.000	0.002	0.030
-149.604	240.544	0.138	0.231
-148.589	599.731	-0.167	0.413
-147.574	49.258	-0.104	0.098
-146.560	13.993	0.291	-0.226
-145.545	-98.991	0.185	0.047
-144.531	2.309	-0.182	-0.132
-143.516	655.089	-0.082	-0.210
-142.502	-179.232	0.176	-0.004
-141.487	-79.630	0.184	-0.062
-140.472	-106.098	-0.134	-0.030
-139.458	-84.621	-0.370	-0.117
-138.443	-70.631	0.429	-0.162
-137.429	800.000	-0.092	-0.395
-136.414	-200.000	-0.005	0.238
-135.399	84.087	0.065	0.071
-134.385	68.232	0.161	0.165
-133.370	-200.000	0.000	0.100
-132.356	-51.632	0.414	-0.193
-131.341	-22.834	-0.203	-0.122
-130.326	-200.000	0.032	0.166
-129.312	-139.865	-0.194	-0.020
-128.297	-117.983	0.068	-0.012
-127.283	800.000	-0.068	-0.198
-126.268	315.492	0.037	-0.069
-125.253	544.420	-0.056	-0.133
-124.239	-129.863	-0.349	0.048
-123.224	800.000	0.024	0.074
-122.210	800.000	0.045	-0.169
-121.195	-84.440	0.203	-0.064
