DTS Sentinel unit serial number:	SN413079Multiplexer serial number:	ORYXHardware model number:	OX4-SRSoftware version number:	ORYX F/W v4.00 Oryx Data Collector v3.7.2.0data status	okinstallation	princeton_trtdifferential loss correction	single-endedforward channel	channel 1reverse channel	N/Adate	2019/09/13time	02:22:35forward acquisition time	60.00reverse acquisition time	0.00gamma	496.2192k internal	0.2331k external	0.2331temperature offset calibration	1.0157default loss term (dB/km)	0.3790temperature slope calibration	1.0000multiplexer offset coefficient	1.0000multiplexer slope coefficient	1.0000fibre end	0.00T internal ref (°C)	27.50T ext. ref 1 (°C)	3.94T ext. ref 2 (°C)	22.28length (m)	temperature (°C)	Stokes	anti-Stokes-747.200	800.000	-0.067	0.220
-746.185	150.032	-0.145	0.198
-745.171	-79.229	0.367	-0.125
-744.156	-125.255	-0.192	0.030
-743.142	-200.000	-0.017	-0.126
-742.127	547.074	-0.184	0.443
-741.112	202.703	-0.020	0.031
-740.098	-200.000	-0.005	-0.368
-739.083	-167.240	0.173	0.007
-738.069	-21.024	-0.388	0.239
-737.054	-95.208	0.150	-0.041
-736.039	596.625	-0.090	-0.225
-735.025	-127.398	-0.210	0.031
-734.010	-53.525	0.216	0.099
-732.996	224.622	0.075	0.122
-731.981	-62.837	-0.172	-0.072
-730.966	800.000	-0.060	-0.252
-729.952	128.375	-0.116	-0.149
-728.937	58.317	0.163	-0.161
-727.923	103.555	-0.119	0.140
-726.908	126.438	0.227	-0.289
-725.894	18.111	-0.270	-0.217
-724.879	153.562	0.085	-0.116
-723.864	168.191	0.200	-0.287
-722.850	283.162	-0.231	0.417
-721.835	-200.000	0.009	0.202
-720.821	-116.742	-0.334	-0.062
-719.806	-65.480	-0.137	-0.055
-718.791	-60.463	-0.122	-0.052
-717.777	-27.264	-0.065	-0.038
-716.762	800.000	-0.111	0.344
-715.748	-200.000	0.016	-0.217
-714.733	-144.072	0.146	0.014
-713.718	800.000	-0.053	-0.182
-712.704	-200.000	0.016	0.099
-711.689	-200.000	0.017	0.130
-710.675	87.022	0.211	-0.234
-709.660	134.243	-0.117	0.153
-708.645	-200.000	0.042	0.340
-707.631	-86.581	-0.268	0.083
-706.616	-97.613	0.185	0.048
-705.602	224.404	0.152	0.246
-704.587	-200.000	-0.046	0.291
-703.572	65.312	0.115	-0.117
-702.558	516.531	-0.042	-0.098
-701.543	648.873	-0.098	-0.253
-700.529	501.224	-0.205	0.476
-699.514	782.538	-0.134	-0.369
-698.499	69.028	-0.202	-0.209
-697.485	355.379	-0.152	0.304
-696.470	-61.592	-0.325	0.137
-695.456	475.197	0.028	-0.064
-694.441	-37.876	0.090	0.048
-693.426	71.961	-0.114	-0.119
-692.412	189.359	-0.038	0.057
-691.397	-200.000	0.052	-0.248
-690.383	17.628	-0.108	-0.086
-689.368	86.608	-0.013	0.014
-688.354	223.229	-0.135	0.219
-687.339	371.474	0.087	0.178
-686.324	-19.223	-0.132	0.082
-685.310	-200.000	-0.020	0.098
-684.295	-156.163	0.255	-0.016
-683.281	261.273	-0.061	-0.106
-682.266	-143.641	0.289	0.028
-681.251	-200.000	0.063	-0.367
-680.237	84.514	0.141	0.155
-679.222	558.042	0.033	-0.080
-678.208	-82.909	0.205	-0.067
-677.193	415.693	0.104	-0.223
-676.178	557.824	-0.080	0.193
-675.164	-114.240	-0.100	-0.019
-674.149	-28.007	-0.132	0.077
-673.135	-200.000	-0.057	-0.348
-672.120	-195.282	-0.031	-0.000
-671.105	-15.585	-0.146	0.093
-670.091	248.603	0.100	-0.170
-669.076	306.757	-0.163	-0.304
-668.062	-157.587	-0.226	0.014
-667.047	-52.532	-0.294	-0.136
-666.032	120.795	-0.140	0.174
-665.018	-81.092	0.225	0.075
-664.003	-57.110	-0.055	0.024
-662.989	-200.000	-0.039	-0.238
-661.974	-200.000	0.012	-0.191
-660.959	-94.895	0.198	-0.054
-659.945	-136.207	0.147	0.017
-658.930	-200.000	-0.002	0.165
-657.916	-152.661	0.169	-0.012
-656.901	162.852	0.183	-0.257
-655.886	142.415	-0.106	-0.141
-654.872	101.894	0.041	0.047
-653.857	109.031	0.109	-0.131
-652.843	-121.568	-0.121	-0.020
-651.828	-200.000	-0.064	-0.391
-650.814	-47.475	0.168	0.082
-649.799	-24.104	0.119	0.071
-648.784	160.418	-0.259	0.363
-647.770	-92.916	-0.124	0.035
-646.755	-119.242	-0.177	0.031
-645.741	-200.000	-0.018	0.204
-644.726	658.404	-0.025	-0.063
-643.711	9.319	0.434	0.329
-642.697	-200.000	-0.309	-0.001
-641.682	149.946	0.065	-0.089
-640.668	-101.081	0.098	0.024
-639.653	-4.803	0.085	0.059
-638.638	-200.000	-0.002	-0.145
-637.624	256.588	0.084	0.144
-636.609	-200.000	0.057	0.271
-635.595	-200.000	0.006	0.214
-634.580	115.651	0.135	-0.166
-633.565	46.427	0.221	-0.205
-632.551	431.216	-0.157	0.341
-631.536	-55.974	0.112	-0.050
-630.522	130.591	0.100	0.128
-629.507	107.998	-0.090	-0.107
-628.492	-58.269	-0.325	0.142
-627.478	800.000	-0.077	0.260
-626.463	-117.667	0.173	0.031
-625.449	87.936	0.106	-0.118
-624.434	157.580	-0.211	0.292
-623.419	530.979	0.079	0.186
-622.405	765.981	0.026	-0.070
-621.390	114.653	-0.141	0.172
-620.376	-15.824	0.192	0.122
-619.361	131.751	-0.159	-0.204
-618.346	-200.000	0.002	-0.122
-617.332	504.575	0.048	-0.111
-616.317	378.594	0.040	0.081
-615.303	-200.000	-0.013	0.280
-614.288	55.299	0.148	0.143
-613.273	-200.000	-0.036	0.374
-612.259	230.827	-0.261	-0.427
-611.244	-140.683	-0.080	-0.008
-610.230	43.608	-0.130	-0.119
-609.215	-130.628	-0.361	-0.049
-608.201	800.000	0.050	-0.184
-607.186	731.619	-0.076	-0.202
-606.171	187.792	0.140	-0.210
-605.157	157.369	-0.222	-0.307
-604.142	800.000	-0.091	-0.260
-603.128	224.067	0.091	-0.147
-602.113	-142.484	0.169	0.017
-601.098	-24.075	0.233	-0.140
-600.084	-200.000	0.041	-0.327
-599.069	-40.708	-0.286	-0.148
-598.055	-200.000	-0.009	-0.199
-597.040	90.310	-0.054	-0.060
-596.025	41.366	-0.145	-0.131
-595.011	-42.044	-0.175	-0.090
-593.996	497.129	0.088	-0.202
-592.982	66.548	-0.190	-0.193
-591.967	800.000	0.086	0.261
-590.952	-44.993	-0.172	0.086
-589.938	-200.000	0.031	0.233
-588.923	-34.158	0.102	-0.056
-587.909	351.731	-0.111	-0.220
-586.894	61.246	-0.235	-0.233
-585.879	800.000	-0.067	0.241
-584.865	115.650	-0.075	-0.092
-583.850	800.000	0.048	-0.184
-582.836	111.537	-0.091	-0.109
-581.821	-38.502	0.126	-0.066
-580.806	598.025	-0.018	0.045
-579.792	62.204	-0.109	0.108
-578.777	88.590	0.123	-0.136
-577.763	-186.440	-0.342	-0.005
-576.748	75.238	-0.194	-0.205
-575.733	-111.561	0.083	-0.017
-574.719	800.000	-0.101	-0.385
-573.704	-200.000	-0.002	-0.223
-572.690	-200.000	0.047	0.239
-571.675	109.417	0.022	-0.027
-570.661	-85.885	0.214	-0.066
-569.646	-6.655	0.280	0.191
-568.631	-57.697	0.202	-0.088
-567.617	-200.000	0.022	0.150
-566.602	800.000	-0.076	-0.225
-565.588	-159.390	-0.154	0.009
-564.573	-67.651	0.330	0.129
-563.558	45.008	0.122	-0.112
-562.544	800.000	-0.083	0.280
-561.529	116.783	-0.054	0.066
-560.515	127.883	-0.051	0.064
-559.500	424.063	0.156	-0.335
-558.485	-63.780	-0.238	-0.097
-557.471	0.883	0.237	0.170
-556.456	-200.000	0.007	-0.086
-555.442	-13.620	0.209	-0.135
-554.427	800.000	-0.103	0.446
-553.412	800.000	-0.101	-0.415
-552.398	-200.000	0.052	-0.322
-551.383	68.683	0.301	0.308
-550.369	-4.628	0.137	-0.095
-549.354	-104.193	0.204	0.047
-548.339	800.000	0.075	0.267
-547.325	-1.127	-0.313	0.221
-546.310	-200.000	-0.003	0.236
-545.296	-200.000	0.001	-0.545
-544.281	-39.256	-0.227	-0.119
-543.266	-80.315	0.313	-0.104
-542.252	-107.491	-0.270	-0.059
-541.237	720.525	-0.077	-0.203
-540.223	-98.233	-0.278	-0.071
-539.208	-28.827	-0.108	-0.062
-538.193	-200.000	0.064	0.388
-537.179	-200.000	-0.005	-0.029
-536.164	-99.082	0.447	0.113
-535.150	800.000	-0.041	-0.171
-534.135	-49.037	-0.138	-0.066
-533.121	89.335	0.110	-0.123
-532.106	1.052	-0.293	0.209
-531.091	-200.000	-0.047	-0.240
-530.077	800.000	-0.083	-0.289
-529.062	-75.777	-0.047	-0.017
-528.048	35.890	-0.109	-0.096
-527.033	-200.000	-0.027	0.326
-526.018	-118.928	0.073	-0.013
-525.004	-46.392	0.062	-0.031
-523.989	-87.898	-0.439	0.132
-522.975	421.029	0.158	-0.338
-521.960	-163.520	0.353	-0.017
-520.945	-50.403	0.044	-0.021
-519.931	-200.000	0.002	0.411
-518.916	569.827	-0.092	0.223
-517.902	-135.014	0.100	0.012
-516.887	-200.000	0.048	-0.336
-515.872	-200.000	0.009	0.233
-514.858	-66.831	0.279	0.110
-513.843	-36.537	-0.264	0.142
-512.829	-0.154	0.099	0.070
-511.814	13.577	-0.106	-0.082
-510.799	600.745	0.101	-0.250
-509.785	-200.000	0.005	-0.427
-508.770	81.670	-0.293	0.317
-507.756	236.285	0.074	0.123
-506.741	-95.084	-0.074	-0.020
-505.726	-200.000	0.029	-0.141
-504.712	524.467	-0.067	-0.156
-503.697	-17.331	0.047	0.030
-502.683	7.339	-0.134	0.100
-501.668	-23.659	-0.071	-0.043
-500.653	65.160	-0.144	0.145
-499.639	59.571	-0.165	-0.162
-498.624	-98.364	-0.243	-0.062
-497.610	44.433	0.236	0.216
-496.595	12.780	0.067	-0.051
-495.581	23.962	0.038	-0.032
-494.566	16.417	-0.137	-0.108
-493.551	-200.000	-0.028	0.294
-492.537	-56.898	0.250	0.110
-491.522	27.654	-0.086	-0.073
-490.508	782.610	-0.017	0.048
-489.493	421.413	0.136	0.290
-488.478	-191.244	0.174	0.002
-487.464	51.656	-0.133	0.126
-486.449	-200.000	0.098	0.000
-485.435	-200.000	-0.005	0.095
-484.420	-23.001	0.096	0.057
-483.405	-200.000	0.004	0.083
-482.391	-27.480	0.033	0.019
-481.376	332.159	-0.220	0.423
-480.362	647.448	0.097	0.246
-479.347	-110.495	-0.212	0.044
-478.332	800.000	-0.102	0.322
-477.318	-108.837	0.111	0.024
-476.303	-0.148	0.173	0.123
-475.289	83.252	0.181	0.196
-474.274	800.000	-0.033	0.108
-473.259	37.565	0.126	-0.112
-472.245	234.374	-0.076	-0.124
-471.230	-95.113	-0.238	0.064
-470.216	-200.000	-0.019	0.129
-469.201	-200.000	0.006	0.239
-468.186	-20.374	-0.162	0.099
-467.172	-200.000	-0.005	-0.198
-466.157	800.000	0.117	-0.374
-465.143	79.014	0.043	-0.045
-464.128	-200.000	0.008	0.231
-463.113	800.000	-0.095	0.391
-462.099	-200.000	-0.040	0.341
-461.084	181.699	0.289	-0.424
-460.070	182.565	0.120	-0.177
-459.055	800.000	0.121	-0.420
-458.040	-17.273	-0.119	0.075
-457.026	243.695	0.135	-0.226
-456.011	433.822	-0.033	0.071
-454.997	-200.000	-0.028	-0.184
-453.982	-200.000	-0.022	0.414
-452.968	117.101	0.133	0.162
-451.953	-39.161	0.335	-0.175
-450.938	-58.818	0.301	0.129
-449.924	182.240	-0.118	-0.173
-448.909	268.969	-0.096	0.168
-447.895	374.707	-0.195	-0.395
-446.880	509.979	-0.069	-0.159
-445.865	-83.552	0.283	0.090
-444.851	785.994	0.091	0.249
-443.836	-200.000	0.003	0.044
-442.822	800.000	-0.039	-0.119
-441.807	88.921	0.237	-0.262
-440.792	-200.000	0.017	0.167
-439.778	800.000	-0.109	0.313
-438.763	182.294	0.114	-0.167
-437.749	-200.000	0.032	0.208
-436.734	84.466	0.098	-0.106
-435.719	188.665	-0.121	0.180
-434.705	-32.430	0.172	-0.096
-433.690	-91.876	0.122	0.034
-432.676	85.471	-0.044	-0.048
-431.661	-200.000	0.014	-0.091
-430.646	-126.765	-0.453	0.067
-429.632	41.580	0.065	0.058
-428.617	-200.000	0.017	0.130
-427.603	391.402	-0.090	-0.185
-426.588	-23.603	-0.350	0.209
-425.573	-124.377	0.190	-0.029
-424.559	-200.000	-0.045	-0.226
-423.544	-141.794	0.468	0.047
-422.530	205.362	0.085	0.131
-421.515	10.738	-0.157	0.119
-420.500	-146.291	-0.273	0.024
-419.486	-33.325	0.028	-0.015
-418.471	-56.049	-0.160	0.071
-417.457	-12.705	-0.223	-0.144
-416.442	158.865	0.112	0.155
-415.428	36.578	0.095	-0.083
-414.413	123.682	-0.249	0.311
-413.398	553.610	0.127	0.304
-412.384	31.322	0.097	-0.083
-411.369	800.000	-0.048	-0.149
-410.355	-123.746	-0.314	0.049
-409.340	-49.168	0.377	0.179
-408.325	800.000	0.091	-0.333
-407.311	-98.803	-0.514	-0.130
-406.296	7.760	0.119	-0.088
-405.282	-80.592	-0.148	0.049
-404.267	-163.140	-0.185	-0.009
-403.252	-47.545	-0.070	-0.034
-402.238	77.275	0.169	0.179
-401.223	-96.993	-0.205	0.053
-400.209	-33.332	-0.147	-0.081
-399.194	118.290	-0.208	0.255
-398.179	21.418	-0.171	-0.138
-397.165	-150.720	0.291	-0.022
-396.150	205.568	0.153	-0.236
-395.136	800.000	-0.037	0.135
-394.121	800.000	-0.042	0.127
-393.106	-81.141	0.203	-0.067
-392.092	-200.000	0.042	0.208
-391.077	-200.000	0.021	0.317
-390.063	-166.167	0.288	-0.012
-389.048	800.000	0.042	0.141
-388.033	-59.176	0.075	-0.032
-387.019	800.000	-0.091	0.310
-386.004	800.000	0.121	-0.377
-384.990	-100.224	0.129	0.032
-383.975	-71.707	0.216	-0.080
-382.960	291.062	-0.103	0.187
-381.946	219.777	0.246	0.390
-380.931	348.161	-0.058	0.114
-379.917	-142.021	0.098	-0.010
-378.902	43.748	0.167	-0.152
-377.888	-200.000	0.016	-0.175
-376.873	196.034	-0.024	0.036
-375.858	-200.000	-0.022	0.217
-374.844	-28.375	0.382	0.218
-373.829	-166.582	0.117	-0.005
-372.815	-200.000	-0.345	-0.001
-371.800	83.421	-0.035	-0.038
-370.785	319.396	0.111	0.208
-369.771	152.154	-0.165	-0.223
-368.756	-200.000	-0.017	-0.230
-367.742	413.002	-0.112	-0.236
-366.727	-200.000	0.009	0.133
-365.712	-200.000	0.036	-0.415
-364.698	-200.000	-0.001	0.117
-363.683	800.000	0.075	0.313
-362.669	-86.917	0.219	0.066
-361.654	-97.535	-0.185	0.048
-360.639	217.492	0.128	-0.202
-359.625	800.000	-0.042	0.130
-358.610	-78.957	0.132	-0.044
-357.596	-68.292	0.293	-0.113
-356.581	-200.000	-0.163	0.000
-355.566	40.598	0.364	0.325
-354.552	32.932	-0.315	-0.271
-353.537	-200.000	0.007	-0.185
-352.523	-174.674	-0.195	-0.005
-351.508	11.105	0.131	0.099
-350.493	-200.000	-0.012	0.100
-349.479	466.022	-0.146	0.324
-348.464	337.138	-0.046	-0.089
-347.450	317.325	-0.038	0.071
-346.435	-200.000	-0.009	-0.295
-345.420	-140.825	-0.345	0.035
-344.406	-200.000	0.035	-0.390
-343.391	-70.545	-0.162	-0.061
-342.377	-128.096	0.087	-0.012
-341.362	-200.000	0.032	-0.158
-340.348	192.724	0.079	-0.118
-339.333	194.259	0.019	-0.028
-338.318	-200.000	-0.030	-0.260
-337.304	-130.144	0.345	-0.047
-336.289	800.000	0.103	0.322
-335.275	-140.102	0.127	0.013
-334.260	-200.000	0.003	0.434
-333.245	223.910	0.088	0.140
-332.231	-78.578	-0.391	-0.132
-331.216	800.000	-0.114	-0.420
-330.202	-200.000	0.032	-0.204
-329.187	416.094	-0.132	-0.279
-328.172	-65.182	-0.134	-0.054
-327.158	307.726	0.130	0.240
-326.143	-200.000	0.011	-0.123
-325.129	-200.000	-0.003	0.201
-324.114	-92.043	0.334	0.094
-323.099	-71.418	0.293	-0.109
-322.085	-150.404	0.288	0.022
-321.070	-119.953	-0.213	-0.036
-320.056	-72.817	-0.158	0.058
-319.041	-170.847	0.365	0.012
-318.026	28.211	-0.228	-0.191
-317.012	-94.336	-0.069	-0.019
-315.997	-200.000	0.050	0.273
-314.983	800.000	-0.072	0.307
-313.968	161.832	-0.100	-0.138
-312.953	-47.712	-0.249	0.120
-311.939	121.980	0.035	0.043
-310.924	483.419	-0.026	0.058
-309.910	91.871	0.098	-0.109
-308.895	96.368	-0.257	-0.290
-307.880	-200.000	-0.002	0.470
-306.866	800.000	0.039	-0.134
-305.851	-200.000	-0.023	-0.141
-304.837	-79.846	-0.143	-0.048
-303.822	800.000	0.082	-0.242
-302.807	-124.724	0.024	0.004
-301.793	800.000	-0.058	-0.167
-300.778	151.672	-0.103	-0.139
-299.764	-111.215	0.241	-0.049
-298.749	-128.841	-0.214	0.030
-297.735	-46.908	0.252	0.122
-296.720	92.514	0.162	0.180
-295.705	800.000	-0.048	-0.204
-294.691	211.553	0.221	-0.344
-293.676	494.100	0.044	-0.099
-292.662	743.911	0.117	-0.311
-291.647	-200.000	0.029	-0.184
-290.632	421.673	0.051	0.107
-289.618	800.000	-0.031	-0.122
-288.603	-200.000	0.011	0.089
-287.589	-200.000	-0.026	0.149
-286.574	-23.532	0.151	-0.090
-285.559	-200.000	-0.006	-0.187
-284.545	-61.534	0.413	0.171
-283.530	800.000	-0.062	0.241
-282.516	800.000	-0.042	0.178
-281.501	353.958	0.128	0.250
-280.486	-26.937	0.226	-0.130
-279.472	234.649	0.044	0.072
-278.457	244.016	0.198	-0.328
-277.443	-200.000	0.025	-0.207
-276.428	-200.000	-0.007	-0.201
-275.413	53.563	-0.133	0.126
-274.399	272.052	0.110	0.193
-273.384	-46.024	-0.318	-0.155
-272.370	-21.527	-0.067	-0.040
-271.355	-106.495	-0.172	-0.038
-270.340	79.784	-0.059	-0.062
-269.326	106.338	0.133	0.155
-268.311	-58.366	-0.064	0.027
-267.297	143.649	0.038	-0.050
-266.282	-13.348	0.144	0.092
-265.267	-54.920	-0.238	0.106
-264.253	-153.295	-0.191	-0.013
-263.238	-200.000	-0.002	-0.216
-262.224	-0.670	-0.021	0.015
-261.209	414.154	0.120	-0.251
-260.195	574.468	0.122	-0.294
-259.180	800.000	-0.040	0.134
-258.165	800.000	0.120	-0.368
-257.151	-200.000	-0.041	-0.179
-256.136	-145.220	0.059	-0.005
-255.122	100.650	-0.265	-0.304
-254.107	219.025	0.010	0.017
-253.092	464.307	-0.066	0.145
-252.078	-136.561	-0.171	-0.020
-251.063	498.457	0.074	-0.169
-250.049	89.933	-0.144	0.159
-249.034	-200.000	0.017	0.189
-248.019	40.393	-0.059	0.052
-247.005	-200.000	-0.003	0.350
-245.990	800.000	-0.046	-0.137
-244.976	579.492	-0.026	0.063
-243.961	-34.066	-0.227	0.123
-242.946	-126.838	-0.061	-0.009
-241.932	144.712	0.026	-0.034
-240.917	-200.000	-0.012	0.189
-239.903	800.000	-0.109	-0.367
-238.888	307.096	0.026	0.049
-237.873	-103.612	0.197	0.046
-236.859	-180.726	0.125	0.003
-235.844	-81.028	-0.271	-0.089
-234.830	-189.158	0.203	-0.002
-233.815	143.837	-0.182	0.239
-232.800	-46.790	0.101	0.049
-231.786	699.204	-0.064	-0.165
-230.771	800.000	0.015	0.059
-229.757	-100.346	0.253	-0.062
-228.742	65.397	0.312	-0.311
-227.727	-200.000	0.072	0.370
-226.713	-200.000	0.035	0.218
-225.698	-0.197	0.117	-0.082
-224.684	269.230	0.128	0.221
-223.669	-24.106	-0.170	0.100
-222.655	31.718	-0.141	0.119
-221.640	115.378	-0.212	-0.255
-220.625	-96.934	0.302	-0.078
-219.611	522.326	-0.028	-0.064
-218.596	42.683	-0.020	0.018
-217.582	80.881	0.070	-0.074
-216.567	-65.310	0.223	0.089
-215.552	46.472	-0.156	0.143
-214.538	362.059	0.111	-0.220
-213.523	-120.928	0.119	0.020
-212.509	-6.906	0.079	0.053
-211.494	259.276	0.028	0.048
-210.479	32.248	-0.104	-0.088
-209.465	458.695	0.112	-0.246
-208.450	-86.656	-0.216	0.065
-207.436	-83.547	0.187	0.059
-206.421	372.050	0.036	-0.073
-205.406	36.481	-0.159	-0.138
-204.392	111.546	0.297	0.353
-203.377	74.420	-0.188	0.194
-202.363	419.849	-0.189	0.398
-201.348	335.056	-0.097	0.185
-200.333	-79.418	0.171	-0.057
-199.319	-65.887	-0.130	0.051
-198.304	-200.000	0.043	-0.231
-197.290	-200.000	0.000	0.006
-196.275	113.505	-0.078	-0.094
-195.260	475.921	0.112	-0.248
-194.246	800.000	0.099	0.281
-193.231	-40.502	0.426	0.218
-192.217	-144.428	0.201	0.018
-191.202	-200.000	0.019	-0.234
-190.187	201.132	-0.199	-0.302
-189.173	-200.000	0.109	0.543
-188.158	-2.334	0.159	0.110
-187.144	43.501	-0.159	-0.143
-186.129	-99.510	0.019	-0.005
-185.114	-200.000	-0.033	0.343
-184.100	-169.826	-0.301	0.011
-183.085	51.213	0.224	0.209
-182.071	229.713	-0.254	-0.409
-181.056	0.481	0.272	-0.191
-180.042	-57.878	0.189	-0.081
-179.027	-3.657	-0.236	0.162
-178.012	375.774	-0.054	-0.109
-176.998	-94.145	0.092	-0.025
-175.983	232.578	-0.064	0.103
-174.969	-200.000	-0.022	0.094
-173.954	-78.876	-0.164	-0.055
-172.939	-97.808	0.304	-0.077
-171.925	253.296	-0.422	0.709
-170.910	221.273	-0.159	-0.252
-169.896	3.708	-0.200	-0.144
-168.881	-49.639	0.305	-0.143
-167.866	8.474	-0.293	-0.217
-166.852	-200.000	-0.303	0.001
-165.837	264.651	-0.077	-0.132
-164.823	221.659	-0.074	0.116
-163.808	-153.396	0.180	-0.012
-162.793	10.044	-0.122	0.091
-161.779	50.288	-0.249	-0.232
-160.764	-29.148	0.150	-0.085
-159.750	800.000	0.075	-0.204
-158.735	157.878	-0.080	-0.109
-157.720	163.925	-0.353	0.489
-156.706	-70.782	0.265	-0.098
-155.691	-20.971	-0.213	0.129
-154.677	144.580	0.041	0.053
-153.662	79.337	-0.061	-0.065
-152.647	-200.000	0.003	0.092
-151.633	800.000	-0.088	-0.299
-150.618	-200.000	0.013	0.167
-149.604	-25.033	-0.263	-0.153
-148.589	-7.287	0.313	0.209
-147.574	-131.048	-0.027	0.004
-146.560	-107.856	0.249	0.053
-145.545	8.652	-0.339	0.251
-144.531	-78.381	0.167	0.056
-143.516	665.309	0.123	0.313
-142.502	-25.220	-0.138	-0.080
-141.487	-115.794	0.382	0.070
-140.472	-103.666	0.083	0.019
-139.458	219.263	0.186	0.292
-138.443	88.408	0.139	0.152
-137.429	531.498	0.103	0.240
-136.414	-200.000	0.022	-0.221
-135.399	-200.000	0.055	0.322
-134.385	-200.000	0.006	-0.103
-133.370	800.000	0.124	0.360
-132.356	443.654	0.126	0.271
-131.341	138.960	-0.074	-0.095
-130.326	102.862	-0.089	-0.102
-129.312	-37.552	0.113	0.059
-128.297	-85.145	-0.259	0.080
-127.283	51.944	0.114	0.106
-126.268	537.461	0.013	0.029
-125.253	20.958	0.187	-0.149
-124.239	114.636	0.092	-0.110
-123.224	10.292	-0.215	0.161
-122.210	-200.000	0.153	-0.695
-121.195	346.457	0.096	0.185
