DTS Sentinel unit serial number:	SN413079Multiplexer serial number:	ORYXHardware model number:	OX4-SRSoftware version number:	ORYX F/W v4.00 Oryx Data Collector v3.7.2.0data status	okinstallation	princeton_trtdifferential loss correction	single-endedforward channel	channel 1reverse channel	N/Adate	2019/09/17time	08:42:35forward acquisition time	60.00reverse acquisition time	0.00gamma	496.2192k internal	0.2328k external	0.2328temperature offset calibration	0.9965default loss term (dB/km)	0.3790temperature slope calibration	1.0000multiplexer offset coefficient	1.0000multiplexer slope coefficient	1.0000fibre end	0.00T internal ref (°C)	27.75T ext. ref 1 (°C)	0.13T ext. ref 2 (°C)	23.30length (m)	temperature (°C)	Stokes	anti-Stokes-747.200	658.868	0.097	0.252
-746.185	54.702	0.205	0.199
-745.171	155.573	-0.208	-0.288
-744.156	-200.000	0.021	0.168
-743.142	-98.209	0.318	-0.082
-742.127	17.177	0.349	0.279
-741.112	44.155	0.205	0.190
-740.098	-61.619	-0.213	0.090
-739.083	-73.343	0.161	-0.059
-738.069	-135.177	-0.332	-0.040
-737.054	-19.752	0.073	-0.045
-736.039	-113.172	-0.510	0.101
-735.025	456.479	0.149	-0.334
-734.010	372.181	-0.149	-0.305
-732.996	224.759	-0.045	0.074
-731.981	-132.161	0.112	0.015
-730.966	-93.229	-0.431	0.121
-729.952	-112.812	0.139	-0.028
-728.937	-72.862	-0.258	-0.095
-727.923	800.000	0.050	0.178
-726.908	-121.965	-0.547	-0.091
-725.894	498.071	-0.165	0.383
-724.879	-200.000	-0.013	-0.514
-723.864	75.204	0.270	-0.287
-722.850	-63.732	0.192	0.079
-721.835	-152.875	-0.111	-0.008
-720.821	202.838	-0.219	-0.340
-719.806	-200.000	0.083	-0.472
-718.791	84.820	0.149	-0.164
-717.777	-200.000	0.001	-0.017
-716.762	-200.000	0.014	-0.318
-715.748	-164.082	0.247	0.012
-714.733	12.774	0.059	-0.046
-713.718	-112.510	-0.088	0.018
-712.704	8.692	-0.035	0.026
-711.689	-39.024	0.093	0.049
-710.675	665.765	0.120	-0.313
-709.660	161.791	-0.110	0.156
-708.645	-161.404	0.240	-0.012
-707.631	800.000	0.089	0.313
-706.616	-46.215	0.240	0.119
-705.602	-152.615	-0.063	0.005
-704.587	-200.000	-0.030	0.158
-703.572	146.651	-0.114	0.155
-702.558	-115.952	0.315	-0.059
-701.543	58.797	-0.233	-0.230
-700.529	317.808	-0.132	-0.252
-699.514	-112.124	0.148	-0.030
-698.499	-125.746	0.170	-0.026
-697.485	-200.000	0.131	0.661
-696.470	-72.562	-0.198	-0.074
-695.456	800.000	0.028	0.114
-694.441	186.584	0.091	-0.136
-693.426	589.393	0.117	0.289
-692.412	16.821	0.079	-0.063
-691.397	728.318	-0.064	-0.172
-690.383	18.549	0.234	-0.188
-689.368	-159.554	-0.049	0.003
-688.354	-200.000	-0.037	0.526
-687.339	114.074	0.179	0.218
-686.324	-21.198	0.049	0.030
-685.310	68.017	-0.059	0.061
-684.295	-134.895	0.093	0.011
-683.281	42.970	0.347	0.318
-682.266	-16.683	0.121	0.077
-681.251	723.162	-0.094	-0.251
-680.237	-52.755	0.103	0.048
-679.222	800.000	0.073	-0.234
-678.208	73.071	-0.101	-0.106
-677.193	-200.000	-0.039	-0.435
-676.178	462.211	0.038	0.086
-675.164	-10.936	0.054	0.036
-674.149	53.760	-0.066	-0.064
-673.135	92.486	-0.128	-0.145
-672.120	30.712	-0.157	-0.135
-671.105	-123.185	0.144	-0.023
-670.091	-200.000	0.007	-0.036
-669.076	256.645	0.125	-0.216
-668.062	101.187	-0.077	0.090
-667.047	56.596	-0.090	-0.088
-666.032	-19.509	0.214	-0.133
-665.018	-200.000	0.003	0.100
-664.003	0.269	-0.190	-0.136
-662.989	-43.024	-0.311	0.158
-661.974	-77.976	-0.159	0.055
-660.959	64.395	-0.277	-0.281
-659.945	7.779	0.244	0.184
-658.930	173.662	0.324	-0.470
-657.916	124.950	0.147	-0.186
-656.901	-12.045	0.098	0.064
-655.886	-200.000	0.001	0.050
-654.872	-30.252	0.085	-0.049
-653.857	-158.250	0.175	0.010
-652.843	-111.934	0.166	0.034
-651.828	-200.000	0.025	0.477
-650.814	91.898	-0.344	-0.389
-649.799	277.591	-0.150	0.269
-648.784	-9.708	0.083	0.055
-647.770	631.402	0.092	0.235
-646.755	-22.292	-0.132	-0.080
-645.741	63.612	0.214	0.215
-644.726	-200.000	0.039	-0.354
-643.711	54.930	0.037	-0.036
-642.697	-98.047	0.402	-0.104
-641.682	-200.000	0.017	-0.247
-640.668	652.300	-0.067	0.172
-639.653	101.931	-0.188	-0.221
-638.638	-99.528	0.519	-0.131
-637.624	-14.228	-0.309	-0.200
-636.609	-200.000	0.025	-0.240
-635.595	59.713	0.315	-0.312
-634.580	12.671	0.092	0.071
-633.565	518.904	-0.157	0.370
-632.551	208.562	0.238	0.374
-631.536	116.865	-0.189	-0.232
-630.522	76.589	-0.103	-0.110
-629.507	-200.000	-0.031	0.277
-628.492	244.748	0.165	-0.278
-627.478	-200.000	0.025	0.146
-626.463	55.154	-0.164	0.159
-625.449	287.474	0.038	-0.068
-624.434	5.048	-0.143	-0.106
-623.419	-29.910	0.206	-0.118
-622.405	-76.758	-0.114	-0.040
-621.390	-200.000	0.030	0.354
-620.376	182.309	-0.083	0.122
-619.361	-21.531	-0.079	-0.048
-618.346	251.228	0.120	-0.204
-617.332	-90.228	-0.221	-0.064
-616.317	-176.788	0.044	0.001
-615.303	355.763	0.045	-0.091
-614.288	0.863	-0.443	0.318
-613.273	-119.521	-0.196	0.034
-612.259	208.940	-0.158	0.248
-611.244	-92.527	0.063	0.018
-610.230	125.591	0.134	0.170
-609.215	800.000	0.048	-0.178
-608.201	358.163	-0.133	0.267
-607.186	76.207	0.173	0.184
-606.171	-43.056	0.224	-0.114
-605.157	-26.815	-0.159	-0.093
-604.142	-56.979	-0.112	0.050
-603.128	-89.756	-0.348	-0.102
-602.113	58.071	0.157	0.154
-601.098	656.399	-0.124	-0.319
-600.084	242.646	0.161	-0.270
-599.069	-200.000	-0.028	0.281
-598.055	800.000	0.038	-0.128
-597.040	51.831	0.130	-0.124
-596.025	-200.000	-0.080	0.354
-595.011	22.055	-0.192	-0.157
-593.996	-119.340	0.121	0.021
-592.982	299.669	-0.152	-0.281
-591.967	635.509	0.143	-0.364
-590.952	-50.384	0.162	-0.077
-589.938	41.435	-0.077	0.070
-588.923	-163.280	-0.300	0.014
-587.909	142.637	0.156	-0.208
-586.894	187.371	-0.169	-0.253
-585.879	800.000	0.092	-0.275
-584.865	800.000	0.083	0.292
-583.850	32.139	-0.114	-0.099
-582.836	-116.957	0.208	0.038
-581.821	-56.365	-0.213	-0.095
-580.806	183.553	0.234	0.347
-579.792	542.267	-0.065	0.155
-578.777	279.448	0.086	0.154
-577.763	190.472	0.168	-0.253
-576.748	64.825	-0.121	-0.122
-575.733	-24.134	0.155	0.092
-574.719	197.535	0.141	-0.215
-573.704	-200.000	-0.003	-0.084
-572.690	-110.182	-0.211	0.044
-571.675	605.075	-0.100	-0.249
-570.661	-94.519	0.287	-0.078
-569.646	800.000	-0.034	-0.143
-568.631	480.746	0.095	-0.216
-567.617	272.091	-0.101	-0.178
-566.602	28.956	-0.016	-0.014
-565.588	-108.382	-0.265	-0.057
-564.573	-87.412	0.159	-0.048
-563.558	800.000	-0.025	-0.095
-562.544	-34.787	-0.213	0.117
-561.529	8.938	-0.115	-0.087
-560.515	-146.951	-0.268	0.023
-559.500	301.780	-0.250	-0.463
-558.485	-200.000	-0.008	0.303
-557.471	51.536	-0.156	-0.148
-556.456	63.489	0.131	0.131
-555.442	-200.000	-0.027	-0.148
-554.427	800.000	0.066	0.226
-553.412	175.333	0.194	0.282
-552.398	157.696	0.115	-0.159
-551.383	147.750	-0.234	0.316
-550.369	125.187	0.131	-0.165
-549.354	-50.049	-0.043	0.020
-548.339	-73.176	-0.059	0.022
-547.325	-10.683	0.061	0.040
-546.310	98.072	0.085	0.098
-545.296	7.138	0.034	0.025
-544.281	41.241	0.066	0.060
-543.266	95.523	0.206	-0.234
-542.252	62.385	-0.232	0.232
-541.237	-34.169	0.264	0.145
-540.223	-15.445	-0.103	-0.065
-539.208	88.745	-0.050	-0.055
-538.193	-109.322	-0.376	0.080
-537.179	-97.241	-0.310	-0.081
-536.164	105.228	0.089	-0.105
-535.150	27.975	-0.227	-0.191
-534.135	11.765	0.198	0.152
-533.121	-200.000	-0.018	-0.237
-532.106	29.033	0.067	-0.057
-531.091	-200.000	-0.012	-0.350
-530.077	-52.868	-0.137	0.063
-529.062	-200.000	-0.019	-0.089
-528.048	475.925	-0.097	-0.220
-527.033	21.173	-0.209	-0.169
-526.018	441.160	-0.079	-0.173
-525.004	25.290	0.236	0.196
-523.989	-200.000	-0.022	0.730
-522.975	2.781	0.228	0.166
-521.960	-56.408	0.236	-0.105
-520.945	-200.000	-0.049	0.243
-519.931	-200.000	-0.007	0.043
-518.916	-187.389	0.193	-0.003
-517.902	-121.160	-0.162	0.027
-516.887	1.806	0.210	-0.151
-515.872	510.986	-0.083	-0.194
-514.858	490.079	-0.100	-0.229
-513.843	29.248	0.037	-0.031
-512.829	-89.314	0.126	-0.037
-511.814	-200.000	-0.008	-0.396
-510.799	-92.790	-0.145	0.041
-509.785	-200.000	0.002	0.031
-508.770	518.522	-0.165	0.385
-507.756	-154.274	0.503	-0.034
-506.741	-54.875	0.142	0.064
-505.726	-200.000	0.027	0.204
-504.712	-124.352	-0.166	0.026
-503.697	800.000	0.082	0.235
-502.683	9.423	-0.405	0.306
-501.668	-149.327	0.323	0.026
-500.653	-146.746	-0.223	-0.019
-499.639	-66.351	0.180	-0.071
-498.624	-75.295	0.079	-0.028
-497.610	13.395	-0.180	0.140
-496.595	-97.659	-0.122	-0.032
-495.581	-116.865	-0.430	-0.079
-494.566	-200.000	-0.059	0.322
-493.551	-70.158	-0.112	0.043
-492.537	236.033	-0.119	0.197
-491.522	211.431	-0.052	0.082
-490.508	-200.000	0.022	0.421
-489.493	-200.000	0.004	0.406
-488.478	800.000	-0.027	0.100
-487.464	-200.000	-0.016	-0.271
-486.449	-158.045	0.181	-0.011
-485.435	-200.000	-0.025	-0.160
-484.420	-135.155	-0.226	0.027
-483.405	-34.288	0.383	-0.210
-482.391	-13.660	-0.328	0.212
-481.376	544.981	-0.134	0.320
-480.362	109.209	0.249	0.297
-479.347	177.938	0.226	0.329
-478.332	254.090	0.164	0.280
-477.318	-200.000	-0.009	-0.283
-476.303	530.772	0.062	0.147
-475.289	356.328	-0.065	-0.128
-474.274	-77.494	0.120	-0.041
-473.259	-34.668	0.296	0.162
-472.245	-69.551	-0.353	0.135
-471.230	800.000	-0.123	-0.366
-470.216	20.217	-0.208	-0.168
-469.201	-163.728	0.111	-0.005
-468.186	321.896	0.096	0.182
-467.172	-16.493	-0.228	0.144
-466.157	705.207	-0.127	0.335
-465.143	67.950	0.086	0.087
-464.128	-144.096	-0.118	-0.011
-463.113	-94.592	-0.109	0.030
-462.099	106.448	-0.184	-0.218
-461.084	800.000	-0.088	-0.321
-460.070	-200.000	0.004	-0.229
-459.055	-106.296	0.277	-0.062
-458.040	189.886	-0.134	-0.200
-457.026	800.000	-0.063	-0.272
-456.011	121.270	0.122	-0.152
-454.997	-37.785	0.379	-0.201
-453.982	421.343	-0.072	-0.154
-452.968	-8.803	0.300	-0.201
-451.953	-117.054	0.174	0.032
-450.938	579.640	0.081	-0.198
-449.924	800.000	0.035	-0.115
-448.909	-92.959	0.262	-0.073
-447.895	501.397	0.145	0.333
-446.880	-200.000	0.006	-0.053
-445.865	-127.824	-0.152	-0.022
-444.851	-16.715	0.070	-0.044
-443.836	-29.783	-0.219	0.124
-442.822	-200.000	0.024	0.169
-441.807	122.691	0.337	0.420
-440.792	-47.542	0.291	0.141
-439.778	464.480	0.125	-0.278
-438.763	-3.356	0.423	-0.294
-437.749	-107.947	-0.217	-0.047
-436.734	-87.391	-0.248	-0.075
-435.719	77.873	0.166	-0.176
-434.705	324.443	-0.095	0.181
-433.690	11.170	0.124	-0.094
-432.676	7.891	-0.296	-0.221
-431.661	-140.583	0.359	-0.037
-430.646	-200.000	-0.007	-0.073
-429.632	169.543	0.048	-0.069
-428.617	800.000	0.051	0.143
-427.603	433.159	0.125	-0.269
-426.588	585.516	-0.037	0.090
-425.573	-200.000	0.008	-0.127
-424.559	-83.273	-0.366	-0.117
-423.544	-93.806	0.185	0.051
-422.530	-64.029	-0.266	-0.108
-421.515	-16.631	-0.090	0.057
-420.500	800.000	-0.262	-0.743
-419.486	-84.777	-0.019	-0.006
-418.471	-101.306	-0.028	0.007
-417.457	-134.845	-0.268	0.032
-416.442	800.000	0.077	0.269
-415.428	147.903	0.131	0.176
-414.413	-132.162	-0.524	0.068
-413.398	183.235	0.112	0.164
-412.384	215.000	-0.142	0.224
-411.369	-200.000	-0.008	0.104
-410.355	263.220	-0.126	-0.217
-409.340	800.000	0.107	-0.367
-408.325	65.006	0.140	0.140
-407.311	629.650	0.021	-0.052
-406.296	-142.980	0.143	0.014
-405.282	800.000	0.031	-0.114
-404.267	-200.000	0.027	0.219
-403.252	-13.827	0.361	-0.232
-402.238	-20.216	0.090	0.055
-401.223	-85.795	-0.206	0.064
-400.209	195.443	-0.213	0.321
-399.194	264.339	-0.132	0.228
-398.179	253.534	-0.025	-0.042
-397.165	-149.386	0.376	-0.030
-396.150	85.930	0.127	-0.139
-395.136	-200.000	0.002	-0.034
-394.121	-119.703	-0.221	0.038
-393.106	-200.000	0.042	-0.198
-392.092	-33.301	-0.103	-0.057
-391.077	187.545	0.155	0.230
-390.063	800.000	0.126	0.445
-389.048	-68.859	-0.231	-0.089
-388.033	-93.471	-0.269	-0.074
-387.019	-83.587	-0.173	0.055
-386.004	501.411	0.200	-0.459
-384.990	800.000	0.025	0.088
-383.975	177.030	-0.104	-0.150
-382.960	-146.399	0.427	-0.037
-381.946	-128.197	-0.291	0.041
-380.931	-44.795	-0.290	-0.144
-379.917	352.343	-0.105	0.208
-378.902	-113.388	-0.272	0.053
-377.888	-88.276	0.279	0.083
-376.873	13.745	-0.320	-0.247
-375.858	110.295	-0.171	-0.204
-374.844	147.978	0.228	-0.306
-373.829	-140.917	0.208	-0.021
-372.815	139.169	-0.053	0.069
-371.800	-49.749	-0.299	-0.141
-370.785	65.854	-0.094	-0.095
-369.771	302.971	-0.198	-0.365
-368.756	650.510	0.136	0.345
-367.742	646.618	0.088	-0.224
-366.727	-79.929	-0.355	-0.119
-365.712	114.182	-0.118	-0.143
-364.698	82.509	0.136	-0.147
-363.683	-94.454	-0.030	-0.008
-362.669	30.301	-0.128	-0.108
-361.654	164.525	-0.035	-0.049
-360.639	118.397	-0.158	-0.194
-359.625	800.000	0.105	0.340
-358.610	21.001	-0.279	-0.225
-357.596	181.525	-0.156	0.228
-356.581	391.186	0.089	-0.184
-355.566	-200.000	-0.007	0.155
-354.552	347.148	-0.119	-0.233
-353.537	800.000	0.003	0.008
-352.523	371.960	-0.111	0.224
-351.508	311.625	0.121	-0.226
-350.493	52.168	0.037	0.035
-349.479	-200.000	0.024	0.251
-348.464	-111.282	-0.078	-0.016
-347.450	-67.676	0.211	0.082
-346.435	481.917	-0.089	0.201
-345.420	-200.000	0.010	0.074
-344.406	-168.386	-0.442	-0.017
-343.391	123.224	0.027	-0.034
-342.377	748.963	-0.062	-0.166
-341.362	800.000	0.129	0.388
-340.348	128.851	0.271	0.343
-339.333	-200.000	0.027	0.192
-338.318	-79.070	0.388	-0.131
-337.304	-78.808	-0.047	0.016
-336.289	16.208	-0.201	0.158
-335.275	-200.000	-0.036	0.200
-334.260	-131.858	0.145	0.019
-333.245	-164.658	0.192	0.009
-332.231	276.535	0.124	0.218
-331.216	311.619	0.126	0.235
-330.202	800.000	0.057	-0.177
-329.187	-120.642	0.280	-0.047
-328.172	156.338	-0.129	-0.176
-327.158	292.114	-0.246	-0.445
-326.143	-146.450	-0.251	-0.022
-325.129	267.037	0.107	0.186
-324.114	800.000	0.104	-0.306
-323.099	706.640	-0.043	-0.112
-322.085	-98.069	0.183	-0.047
-321.070	307.338	-0.043	0.079
-320.056	148.634	0.181	0.242
-319.041	-5.673	-0.172	0.117
-318.026	167.073	-0.096	0.135
-317.012	0.031	-0.123	-0.087
-315.997	-200.000	0.014	0.087
-314.983	-200.000	-0.013	0.325
-313.968	-200.000	-0.059	0.268
-312.953	-12.948	0.223	0.144
-311.939	605.502	-0.095	-0.235
-310.924	800.000	0.112	-0.428
-309.910	-53.816	0.082	-0.037
-308.895	800.000	0.042	-0.166
-307.880	80.600	0.216	-0.231
-306.866	661.338	-0.139	-0.356
-305.851	273.257	-0.019	-0.034
-304.837	-22.988	-0.224	0.133
-303.822	-24.965	-0.069	0.041
-302.807	2.428	0.335	-0.240
-301.793	291.212	-0.075	0.134
-300.778	-200.000	0.035	0.224
-299.764	-38.125	0.310	0.163
-298.749	-132.455	-0.170	-0.022
-297.735	-52.679	0.195	-0.089
-296.720	324.226	-0.049	0.092
-295.705	69.627	0.034	0.035
-294.691	-128.258	0.289	-0.041
-293.676	-166.432	-0.217	0.009
-292.662	800.000	0.079	-0.245
-291.647	-24.281	-0.173	-0.102
-290.632	59.024	0.232	0.226
-289.618	0.111	0.288	-0.203
-288.603	-200.000	0.040	-0.250
-287.589	-90.017	0.035	0.010
-286.574	450.316	0.123	-0.268
-285.559	-200.000	0.041	0.223
-284.545	16.224	-0.158	0.123
-283.530	77.332	-0.142	-0.149
-282.516	-63.719	0.208	0.084
-281.501	469.972	-0.045	0.101
-280.486	-200.000	-0.024	0.137
-279.472	-200.000	0.007	0.086
-278.457	-114.384	0.362	0.069
-277.443	-200.000	-0.021	0.111
-276.428	240.631	0.157	-0.259
-275.413	-43.990	-0.200	-0.100
-274.399	733.681	-0.025	-0.067
-273.384	128.310	-0.288	-0.363
-272.370	27.187	0.220	0.183
-271.355	-200.000	0.078	0.352
-270.340	-191.086	-0.174	-0.002
-269.326	-186.445	-0.131	0.002
-268.311	-71.789	0.484	0.179
-267.297	-146.273	0.228	-0.020
-266.282	-177.682	0.223	0.005
-265.267	-10.533	-0.114	-0.075
-264.253	-21.177	-0.327	0.198
-263.238	-27.709	-0.452	0.259
-262.224	-200.000	-0.039	0.173
-261.209	92.397	0.147	-0.163
-260.195	-200.000	-0.004	-0.195
-259.180	121.369	-0.053	0.066
-258.165	800.000	-0.069	0.223
-257.151	57.631	-0.309	0.299
-256.136	134.144	0.130	-0.166
-255.122	-133.804	-0.245	-0.030
-254.107	800.000	0.105	0.346
-253.092	-200.000	-0.030	-0.341
-252.078	-9.006	0.252	0.167
-251.063	-1.233	0.263	0.184
-250.049	-200.000	-0.023	0.103
-249.034	-136.913	0.185	-0.021
-248.019	-35.366	0.239	-0.128
-247.005	-175.769	-0.081	-0.002
-245.990	-200.000	-0.024	-0.216
-244.976	-200.000	-0.004	0.252
-243.961	73.016	-0.193	0.200
-242.946	-107.922	-0.181	0.039
-241.932	-115.290	0.296	-0.055
-240.917	-102.938	-0.283	-0.066
-239.903	-102.657	0.181	-0.043
-238.888	411.474	-0.028	-0.059
-237.873	250.321	0.089	0.149
-236.859	560.998	0.030	-0.071
-235.844	-200.000	0.004	-0.092
-234.830	-200.000	0.011	0.396
-233.815	-200.000	0.013	-0.120
-232.800	-45.730	0.216	0.105
-231.786	-52.730	0.444	0.203
-230.771	-200.000	-0.010	-0.360
-229.757	-73.477	-0.179	0.065
-228.742	-200.000	-0.005	0.177
-227.727	134.865	0.090	-0.116
-226.713	424.214	-0.095	-0.201
-225.698	577.780	-0.107	-0.258
-224.684	-200.000	0.008	0.133
-223.669	83.856	0.024	0.026
-222.655	154.913	-0.136	0.185
-221.640	-130.504	-0.218	-0.029
-220.625	-1.264	0.121	-0.085
-219.611	-172.901	-0.121	-0.004
-218.596	154.578	-0.162	-0.219
-217.582	800.000	0.055	-0.159
-216.567	155.084	-0.150	-0.204
-215.552	135.718	-0.201	-0.259
-214.538	800.000	-0.048	0.168
-213.523	-200.000	0.012	-0.271
-212.509	197.446	-0.051	-0.077
-211.494	-188.661	-0.195	0.002
-210.479	-200.000	-0.027	0.137
-209.465	137.807	-0.265	-0.343
-208.450	-10.758	0.209	-0.136
-207.436	-43.526	-0.140	0.070
-206.421	-71.645	0.257	-0.095
-205.406	3.112	-0.153	0.110
-204.392	19.614	0.233	0.185
-203.377	-200.000	0.025	-0.413
-202.363	21.272	-0.227	-0.182
-201.348	-200.000	0.003	0.012
-200.333	190.702	0.228	0.338
-199.319	-85.612	-0.259	0.079
-198.304	210.793	0.167	-0.258
-197.290	734.859	0.094	0.249
-196.275	-176.265	0.245	0.006
-195.260	-23.018	-0.012	-0.007
-194.246	24.083	0.279	0.227
-193.231	-78.468	-0.325	0.110
-192.217	230.349	0.137	0.222
-191.202	3.119	0.331	0.238
-190.187	-200.000	-0.021	0.156
-189.173	76.826	0.093	0.098
-188.158	334.836	-0.086	0.163
-187.144	-200.000	0.005	-0.410
-186.129	-200.000	0.067	-0.402
-185.114	-58.879	-0.223	-0.095
-184.100	281.245	0.129	0.227
-183.085	54.409	-0.166	0.158
-182.071	-3.419	0.105	0.072
-181.056	271.524	0.112	0.194
-180.042	98.066	0.124	-0.141
-179.027	174.249	-0.202	0.287
-178.012	187.820	0.068	0.100
-176.998	-81.961	-0.248	-0.080
-175.983	-50.732	0.088	0.041
-174.969	800.000	-0.095	0.274
-173.954	-84.679	-0.135	0.042
-172.939	800.000	-0.131	-0.492
-171.925	-63.672	0.472	0.191
-170.910	-47.954	0.133	0.063
-169.896	-193.505	-0.322	-0.003
-168.881	144.675	-0.296	0.390
-167.866	516.404	0.139	0.319
-166.852	59.103	0.154	-0.150
-165.837	800.000	0.069	0.214
-164.823	-128.507	0.193	0.027
-163.808	-200.000	-0.003	0.292
-162.793	-2.348	0.297	0.205
-161.779	-14.824	-0.133	-0.084
-160.764	-18.947	-0.231	0.141
-159.750	-86.642	-0.114	-0.034
-158.735	90.895	0.083	-0.092
-157.720	123.655	0.128	-0.158
-156.706	-86.890	-0.250	-0.075
-155.691	-70.048	0.140	0.052
-154.677	100.939	-0.219	0.251
-153.662	-194.835	0.185	0.001
-152.647	7.019	0.189	0.139
-151.633	457.576	0.072	-0.157
-150.618	93.260	0.187	0.208
-149.604	-200.000	0.001	0.319
-148.589	-117.242	-0.064	0.011
-147.574	-200.000	0.045	0.222
-146.560	266.143	-0.099	-0.171
-145.545	-81.187	-0.047	-0.015
-144.531	12.104	0.399	-0.302
-143.516	8.870	-0.163	0.121
-142.502	-161.324	0.259	-0.013
-141.487	363.942	0.111	-0.220
-140.472	264.886	0.241	-0.414
-139.458	49.513	-0.080	0.074
-138.443	800.000	0.040	0.129
-137.429	487.458	0.092	0.207
-136.414	800.000	-0.038	0.160
-135.399	48.653	0.072	0.066
-134.385	29.760	0.209	-0.175
-133.370	283.660	0.055	0.098
-132.356	479.585	-0.020	-0.045
-131.341	736.950	-0.066	-0.174
-130.326	-162.648	0.190	0.009
-129.312	588.232	0.112	0.271
-128.297	-200.000	0.008	-0.304
-127.283	-200.000	0.007	0.108
-126.268	-200.000	-0.011	0.159
-125.253	192.990	0.187	0.278
-124.239	265.209	0.085	-0.147
-123.224	2.849	0.114	0.081
-122.210	139.736	0.103	0.134
-121.195	800.000	0.032	0.137
-120.180	800.000	0.040	-0.167
