DTS Sentinel unit serial number:	SN413079Multiplexer serial number:	ORYXHardware model number:	OX4-SRSoftware version number:	ORYX F/W v4.00 Oryx Data Collector v3.7.2.0data status	okinstallation	princeton_trtdifferential loss correction	single-endedforward channel	channel 1reverse channel	N/Adate	2019/09/19time	12:34:35forward acquisition time	60.00reverse acquisition time	0.00gamma	496.2192k internal	0.2331k external	0.2331temperature offset calibration	1.0014default loss term (dB/km)	0.3790temperature slope calibration	1.0000multiplexer offset coefficient	1.0000multiplexer slope coefficient	1.0000fibre end	0.00T internal ref (°C)	27.25T ext. ref 1 (°C)	0.88T ext. ref 2 (°C)	24.95length (m)	temperature (°C)	Stokes	anti-Stokes-747.200	-66.446	-0.036	0.015
-746.185	231.289	-0.181	0.298
-745.171	52.251	-0.036	0.034
-744.156	-143.102	-0.150	-0.015
-743.142	-175.294	0.229	0.006
-742.127	-157.775	-0.162	-0.010
-741.112	-142.114	0.110	-0.011
-740.098	-56.933	-0.256	0.114
-739.083	-9.885	-0.170	0.114
-738.069	800.000	-0.023	0.098
-737.054	25.943	-0.138	-0.116
-736.039	-10.787	0.090	0.060
-735.025	120.421	-0.026	-0.033
-734.010	366.173	0.016	-0.032
-732.996	-200.000	0.011	0.105
-731.981	28.289	-0.215	0.182
-730.966	-158.791	-0.314	0.018
-729.952	800.000	0.082	-0.274
-728.937	501.707	0.039	0.090
-727.923	436.449	-0.225	-0.493
-726.908	261.416	-0.021	0.036
-725.894	-200.000	0.018	-0.319
-724.879	-200.000	0.029	-0.158
-723.864	800.000	0.022	0.071
-722.850	-78.539	-0.170	0.058
-721.835	126.899	-0.065	-0.083
-720.821	590.718	-0.136	-0.337
-719.806	-43.349	0.057	0.029
-718.791	-51.565	0.350	0.164
-717.777	-57.112	0.304	-0.135
-716.762	-118.179	0.444	-0.080
-715.748	390.829	0.088	-0.184
-714.733	184.709	0.145	0.216
-713.718	80.900	-0.250	0.271
-712.704	800.000	-0.055	-0.237
-711.689	-126.119	-0.349	-0.053
-710.675	800.000	-0.037	-0.117
-709.660	-21.692	0.235	-0.144
-708.645	8.280	0.206	-0.156
-707.631	-200.000	0.021	0.436
-706.616	-200.000	0.019	0.175
-705.602	800.000	0.050	0.180
-704.587	-136.790	-0.343	0.040
-703.572	161.117	-0.133	0.187
-702.558	46.950	0.192	0.179
-701.543	-136.194	-0.139	0.016
-700.529	800.000	0.011	-0.043
-699.514	-71.789	-0.304	-0.114
-698.499	-1.702	0.198	-0.140
-697.485	-84.704	0.436	0.138
-696.470	270.960	-0.020	-0.036
-695.456	545.817	-0.072	0.173
-694.441	-52.961	0.320	-0.148
-693.426	174.112	-0.083	-0.121
-692.412	-200.000	-0.023	-0.119
-691.397	-73.932	-0.136	0.049
-690.383	-41.463	0.102	-0.053
-689.368	800.000	-0.032	-0.096
-688.354	308.085	0.131	0.245
-687.339	210.101	-0.244	0.384
-686.324	-164.807	-0.081	0.004
-685.310	-104.086	-0.373	-0.087
-684.295	49.799	0.242	-0.229
-683.281	-200.000	0.032	-0.155
-682.266	-200.000	0.019	0.210
-681.251	60.028	-0.103	-0.102
-680.237	153.176	-0.116	0.159
-679.222	238.230	-0.083	0.138
-678.208	-115.675	0.200	0.038
-677.193	-78.130	-0.178	-0.061
-676.178	-43.814	0.226	-0.114
-675.164	404.549	-0.107	0.225
-674.149	-60.214	-0.488	-0.208
-673.135	800.000	0.072	-0.227
-672.120	301.436	-0.330	-0.611
-671.105	172.268	-0.144	-0.207
-670.091	29.161	0.321	-0.273
-669.076	49.246	-0.015	-0.014
-668.062	-200.000	-0.043	-0.315
-667.047	431.386	0.209	-0.454
-666.032	-127.162	-0.226	0.033
-665.018	294.934	0.185	-0.339
-664.003	126.858	-0.174	-0.221
-662.989	-200.000	-0.047	-0.217
-661.974	-116.261	-0.160	-0.030
-660.959	69.603	0.153	-0.158
-659.945	202.378	-0.372	-0.575
-658.930	43.973	-0.173	0.159
-657.916	-13.509	0.075	0.049
-656.901	800.000	-0.086	-0.248
-655.886	-51.441	-0.303	-0.142
-654.872	800.000	0.048	0.146
-653.857	46.415	0.062	-0.058
-652.843	-102.172	-0.248	-0.060
-651.828	511.187	-0.108	0.251
-650.814	800.000	0.101	-0.437
-649.799	-30.897	0.249	-0.141
-648.784	-148.450	-0.414	0.034
-647.770	-36.978	0.293	-0.157
-646.755	-200.000	-0.013	-0.290
-645.741	270.818	0.253	-0.447
-644.726	-200.000	-0.018	-0.185
-643.711	-70.152	-0.367	-0.140
-642.697	26.490	-0.313	-0.262
-641.682	-200.000	-0.003	-0.048
-640.668	131.490	-0.070	0.090
-639.653	30.782	-0.389	-0.334
-638.638	32.732	0.118	-0.103
-637.624	137.178	-0.185	-0.243
-636.609	-200.000	-0.009	-0.156
-635.595	2.664	-0.083	-0.060
-634.580	612.146	0.124	-0.311
-633.565	492.843	0.131	-0.301
-632.551	636.968	0.063	0.159
-631.536	195.919	0.024	-0.036
-630.522	-200.000	-0.014	0.124
-629.507	-67.304	0.138	0.054
-628.492	-109.944	0.158	0.033
-627.478	237.289	0.071	0.117
-626.463	-92.340	-0.193	0.054
-625.449	-200.000	0.061	-0.325
-624.434	-122.398	0.357	0.058
-623.419	-15.583	0.067	-0.043
-622.405	-77.900	-0.319	-0.110
-621.390	800.000	-0.055	-0.211
-620.376	-45.313	-0.309	-0.153
-619.361	-127.775	0.254	-0.037
-618.346	800.000	0.073	0.307
-617.332	122.531	-0.029	-0.036
-616.317	-161.899	0.281	0.014
-615.303	-23.384	-0.188	0.113
-614.288	-82.394	0.124	0.040
-613.273	-48.098	-0.213	-0.103
-612.259	371.929	0.146	-0.297
-611.244	-76.267	0.284	0.100
-610.230	522.277	0.111	0.261
-609.215	-100.197	-0.020	0.005
-608.201	341.212	-0.112	-0.219
-607.186	-43.274	-0.291	-0.147
-606.171	-147.837	-0.401	0.034
-605.157	217.263	-0.089	-0.143
-604.142	39.315	0.153	-0.137
-603.128	-3.267	-0.238	0.166
-602.113	-200.000	-0.007	-0.129
-601.098	-200.000	0.008	-0.242
-600.084	44.101	0.052	-0.048
-599.069	-28.882	-0.191	-0.110
-598.055	-93.398	-0.189	-0.052
-597.040	396.773	-0.129	0.269
-596.025	368.664	-0.102	0.206
-595.011	-200.000	0.017	-0.357
-593.996	-164.176	-0.191	-0.009
-592.982	-200.000	0.055	-0.302
-591.967	190.325	-0.089	0.133
-590.952	728.553	0.022	-0.060
-589.938	-200.000	-0.033	0.245
-588.923	49.691	-0.175	-0.165
-587.909	-3.529	0.153	-0.106
-586.894	-64.106	-0.226	0.092
-585.879	-68.200	-0.091	0.035
-584.865	390.539	0.076	0.159
-583.850	-24.208	-0.179	-0.107
-582.836	-74.996	-0.287	0.103
-581.821	157.328	-0.115	-0.159
-580.806	32.952	0.212	0.183
-579.792	285.974	0.026	-0.046
-578.777	800.000	0.035	-0.108
-577.763	275.611	0.078	0.138
-576.748	363.327	0.058	0.117
-575.733	800.000	-0.085	-0.236
-574.719	58.975	-0.053	-0.052
-573.704	-163.514	0.378	0.018
-572.690	-19.058	0.154	-0.096
-571.675	-200.000	-0.076	0.363
-570.661	800.000	0.061	0.238
-569.646	-198.167	-0.070	0.000
-568.631	280.183	0.129	0.230
-567.617	-57.378	-0.210	0.092
-566.602	-72.016	0.216	-0.080
-565.588	-87.001	-0.404	-0.123
-564.573	-50.776	0.311	0.146
-563.558	192.060	0.133	-0.201
-562.544	800.000	0.106	0.337
-561.529	-41.849	0.165	-0.085
-560.515	-200.000	0.033	-0.316
-559.500	-51.171	-0.106	-0.050
-558.485	-200.000	0.008	-0.404
-557.471	-64.823	-0.169	-0.068
-556.456	-200.000	0.032	-0.366
-555.442	34.169	0.092	-0.080
-554.427	-200.000	-0.005	0.118
-553.412	-11.419	-0.242	-0.159
-552.398	-200.000	0.034	-0.186
-551.383	138.274	-0.131	-0.172
-550.369	800.000	-0.074	0.279
-549.354	277.064	-0.068	-0.121
-548.339	380.624	0.050	0.103
-547.325	-120.779	0.152	-0.026
-546.310	-151.554	-0.244	-0.018
-545.296	-133.105	-0.491	0.062
-544.281	302.339	0.081	0.150
-543.266	4.238	-0.124	-0.090
-542.252	25.445	-0.357	-0.296
-541.237	-200.000	-0.025	0.127
-540.223	-88.261	-0.144	0.043
-539.208	-200.000	-0.036	0.186
-538.193	800.000	0.068	-0.292
-537.179	4.512	-0.094	-0.069
-536.164	-200.000	-0.013	-0.184
-535.150	176.066	0.006	-0.008
-534.135	-200.000	-0.002	-0.085
-533.121	-86.319	0.192	0.059
-532.106	45.803	-0.189	-0.174
-531.091	437.555	-0.116	0.253
-530.077	48.106	0.053	0.050
-529.062	593.754	-0.122	-0.301
-528.048	-70.829	0.298	0.112
-527.033	-145.717	0.232	-0.021
-526.018	143.285	-0.122	-0.162
-525.004	65.387	0.279	0.282
-523.989	800.000	0.050	0.206
-522.975	58.253	0.171	0.167
-521.960	-117.818	-0.259	-0.046
-520.945	247.741	0.104	0.176
-519.931	615.794	-0.117	0.292
-518.916	-70.394	-0.210	-0.079
-517.902	-102.543	0.049	-0.012
-516.887	28.850	0.137	0.115
-515.872	-200.000	-0.010	-0.077
-514.858	-123.923	-0.142	0.022
-513.843	20.294	0.114	0.092
-512.829	72.294	0.167	0.173
-511.814	800.000	0.072	0.287
-510.799	-18.299	-0.086	0.054
-509.785	110.108	-0.055	0.066
-508.770	-93.455	0.474	-0.131
-507.756	800.000	0.072	-0.283
-506.741	-141.740	-0.288	-0.029
-505.726	-200.000	0.013	0.066
-504.712	-14.800	-0.019	0.012
-503.697	-200.000	-0.010	-0.085
-502.683	800.000	0.042	-0.178
-501.668	800.000	0.065	-0.181
-500.653	171.571	0.225	-0.322
-499.639	-129.502	-0.297	0.041
-498.624	111.092	0.261	-0.313
-497.610	800.000	-0.133	0.436
-496.595	-106.412	0.162	0.036
-495.581	-144.013	0.060	0.006
-494.566	15.275	-0.280	-0.219
-493.551	-200.000	-0.005	-0.100
-492.537	83.822	0.139	0.151
-491.522	128.641	-0.149	0.189
-490.508	26.849	-0.239	0.199
-489.493	-200.000	0.021	-0.199
-488.478	-200.000	0.003	0.212
-487.464	-200.000	0.028	0.260
-486.449	800.000	-0.059	-0.195
-485.435	-116.993	0.285	0.052
-484.420	-100.658	0.461	-0.113
-483.405	592.871	0.071	-0.175
-482.391	800.000	-0.021	0.084
-481.376	-13.182	0.079	0.051
-480.362	223.115	0.157	-0.252
-479.347	12.033	0.201	-0.154
-478.332	-111.992	-0.117	0.023
-477.318	-91.237	0.255	-0.073
-476.303	9.501	0.379	0.286
-475.289	45.085	-0.158	0.145
-474.274	800.000	0.066	-0.203
-473.259	-54.019	0.089	-0.040
-472.245	192.976	-0.146	-0.220
-471.230	800.000	0.102	0.328
-470.216	-200.000	0.004	-0.223
-469.201	-200.000	0.012	-0.055
-468.186	35.373	0.022	0.019
-467.172	99.938	-0.148	-0.171
-466.157	-63.532	-0.141	0.058
-465.143	303.361	0.078	0.143
-464.128	-91.724	-0.105	0.030
-463.113	136.863	0.096	0.125
-462.099	800.000	0.048	0.186
-461.084	-200.000	-0.032	-0.252
-460.070	13.652	0.291	0.225
-459.055	800.000	0.082	0.292
-458.040	800.000	0.083	0.347
-457.026	28.207	-0.200	-0.168
-456.011	306.112	0.089	0.165
-454.997	13.289	-0.154	-0.119
-453.982	-200.000	0.073	0.374
-452.968	-86.050	0.230	-0.071
-451.953	-64.918	-0.094	0.038
-450.938	800.000	-0.042	0.144
-449.924	-125.848	0.126	0.019
-448.909	-200.000	-0.029	-0.226
-447.895	347.030	-0.096	0.187
-446.880	800.000	0.069	0.279
-445.865	-94.734	0.096	0.026
-444.851	-31.592	-0.185	0.103
-443.836	-200.000	-0.082	-0.497
-442.822	281.418	-0.080	-0.143
-441.807	-130.140	-0.145	0.020
-440.792	-200.000	0.015	-0.244
-439.778	-123.779	0.328	-0.052
-438.763	21.457	-0.151	-0.122
-437.749	334.002	-0.134	-0.258
-436.734	-31.279	-0.211	-0.118
-435.719	29.901	-0.095	-0.080
-434.705	-121.548	-0.129	-0.021
-433.690	30.798	0.130	-0.110
-432.676	-200.000	-0.012	0.286
-431.661	-93.180	0.291	0.080
-430.646	-200.000	-0.047	-0.475
-429.632	738.696	0.096	-0.256
-428.617	-37.345	0.134	0.071
-427.603	-122.904	-0.284	-0.046
-426.588	681.205	-0.156	0.403
-425.573	701.695	0.122	-0.319
-424.559	-71.579	0.161	-0.060
-423.544	527.811	-0.077	-0.181
-422.530	-99.079	0.135	0.034
-421.515	11.970	0.047	-0.036
-420.500	-200.000	0.068	0.411
-419.486	-158.300	0.227	-0.013
-418.471	161.522	-0.209	0.291
-417.457	226.217	-0.083	-0.134
-416.442	211.579	-0.179	-0.279
-415.428	24.334	-0.198	0.163
-414.413	-2.650	0.160	-0.111
-413.398	105.974	-0.253	0.297
-412.384	800.000	-0.019	0.065
-411.369	-110.386	-0.432	0.089
-410.355	623.592	0.158	0.396
-409.340	264.108	0.197	0.341
-408.325	-121.423	0.173	0.029
-407.311	114.038	-0.150	-0.182
-406.296	800.000	-0.012	0.038
-405.282	-156.400	-0.246	0.015
-404.267	200.551	-0.091	0.139
-403.252	-78.359	0.264	-0.090
-402.238	644.877	0.086	-0.219
-401.223	-177.218	0.255	-0.006
-400.209	113.983	0.039	0.047
-399.194	-94.656	-0.157	0.042
-398.179	-128.154	0.178	-0.025
-397.165	7.747	-0.338	0.252
-396.150	86.519	0.232	-0.254
-395.136	-155.981	0.333	-0.021
-394.121	-28.216	-0.388	0.223
-393.106	83.521	-0.071	0.076
-392.092	-102.306	0.204	0.049
-391.077	-200.000	0.006	-0.111
-390.063	55.458	0.227	-0.218
-389.048	46.232	-0.054	0.049
-388.033	-18.782	-0.242	-0.149
-387.019	800.000	0.102	-0.304
-386.004	800.000	-0.111	-0.381
-384.990	521.772	-0.176	0.410
-383.975	-200.000	0.010	-0.307
-382.960	-200.000	0.066	-0.467
-381.946	104.773	-0.094	-0.110
-380.931	774.004	0.082	-0.222
-379.917	45.767	0.201	0.184
-378.902	476.988	-0.064	-0.143
-377.888	-200.000	0.015	0.304
-376.873	5.468	-0.252	-0.184
-375.858	130.673	-0.009	-0.012
-374.844	39.676	0.161	0.143
-373.829	-43.428	0.181	0.091
-372.815	-28.294	0.045	0.026
-371.800	-31.045	-0.240	-0.134
-370.785	-108.658	-0.222	-0.047
-369.771	-200.000	-0.004	-0.194
-368.756	-200.000	-0.009	0.084
-367.742	616.168	0.115	-0.287
-366.727	-121.950	0.083	0.013
-365.712	-94.489	-0.131	0.035
-364.698	-108.961	-0.465	-0.098
-363.683	141.482	0.195	-0.256
-362.669	402.899	-0.109	-0.228
-361.654	800.000	0.066	-0.263
-360.639	-200.000	-0.027	-0.334
-359.625	262.468	0.190	0.327
-358.610	800.000	-0.029	-0.122
-357.596	38.541	-0.420	-0.371
-356.581	-200.000	0.011	0.475
-355.566	-200.000	-0.023	0.439
-354.552	201.478	0.250	0.382
-353.537	-50.356	-0.381	0.178
-352.523	-115.244	0.374	-0.070
-351.508	574.636	-0.049	0.119
-350.493	260.683	-0.151	0.259
-349.479	-33.035	0.266	0.146
-348.464	21.335	0.042	0.034
-347.450	-124.291	0.249	-0.039
-346.435	6.494	-0.288	-0.212
-345.420	800.000	-0.100	0.282
-344.406	19.078	0.142	-0.113
-343.391	15.234	0.258	-0.200
-342.377	800.000	0.033	0.140
-341.362	-122.960	-0.131	0.021
-340.348	-112.725	0.339	-0.067
-339.333	800.000	-0.080	0.273
-338.318	800.000	-0.084	-0.296
-337.304	34.574	0.046	-0.039
-336.289	-72.651	0.280	-0.102
-335.275	-33.541	-0.324	0.177
-334.260	63.806	0.041	0.041
-333.245	-141.367	-0.273	-0.027
-332.231	-100.285	-0.600	-0.147
-331.216	-200.000	-0.011	0.053
-330.202	-200.000	0.085	-0.384
-329.187	152.198	-0.109	0.147
-328.172	-61.374	0.293	-0.122
-327.158	800.000	-0.070	0.203
-326.143	-200.000	-0.006	0.094
-325.129	522.059	-0.135	-0.314
-324.114	800.000	-0.011	-0.045
-323.099	-87.250	-0.230	0.069
-322.085	-136.817	-0.205	-0.023
-321.070	-1.179	0.156	-0.109
-320.056	11.188	-0.197	-0.150
-319.041	-99.656	0.260	0.065
-318.026	361.973	-0.065	-0.129
-317.012	-172.311	0.091	-0.003
-315.997	30.018	0.194	-0.164
-314.983	177.869	0.060	-0.087
-313.968	195.419	0.106	0.160
-312.953	38.277	-0.188	0.166
-311.939	345.783	0.052	0.102
-310.924	172.365	-0.074	0.106
-309.910	-200.000	0.008	-0.059
-308.895	800.000	0.063	0.183
-307.880	145.329	0.051	0.067
-306.866	55.746	-0.107	0.102
-305.851	-50.618	-0.121	0.057
-304.837	-127.640	0.148	0.021
-303.822	-200.000	0.005	0.154
-302.807	93.765	0.137	0.153
-301.793	-65.180	-0.156	0.062
-300.778	73.875	0.179	-0.186
-299.764	619.304	0.045	0.113
-298.749	-177.905	0.165	-0.004
-297.735	-200.000	0.007	-0.073
-296.720	123.408	-0.157	-0.194
-295.705	-6.035	0.201	0.136
-294.691	10.894	0.140	-0.106
-293.676	376.015	-0.070	0.141
-292.662	68.586	0.176	-0.179
-291.647	140.766	-0.142	-0.185
-290.632	628.896	0.038	-0.095
-289.618	-200.000	-0.272	0.001
-288.603	800.000	0.079	0.339
-287.589	21.050	0.126	-0.101
-286.574	-64.985	-0.267	-0.107
-285.559	128.310	0.087	0.110
-284.545	682.300	-0.025	-0.065
-283.530	4.202	-0.107	0.077
-282.516	-200.000	0.003	0.534
-281.501	-90.172	-0.086	0.025
-280.486	-75.267	0.080	0.028
-279.472	-166.815	0.176	-0.007
-278.457	69.832	-0.121	0.123
-277.443	-117.111	-0.307	-0.055
-276.428	-86.092	-0.293	0.089
-275.413	61.147	-0.364	0.357
-274.399	-200.000	-0.050	-0.239
-273.384	-20.647	0.115	0.069
-272.370	-65.754	-0.143	0.057
-271.355	518.898	-0.091	0.211
-270.340	-82.945	0.110	-0.035
-269.326	-62.348	-0.224	0.092
-268.311	-196.198	0.245	-0.002
-267.297	12.898	0.215	-0.164
-266.282	286.702	-0.047	0.083
-265.267	800.000	-0.102	0.357
-264.253	-200.000	0.054	-0.233
-263.238	-34.676	-0.114	0.062
-262.224	34.094	-0.163	0.140
-261.209	-128.145	0.458	0.065
-260.195	-66.429	-0.159	-0.062
-259.180	-174.380	-0.335	-0.010
-258.165	105.081	0.050	0.058
-257.151	-95.178	-0.232	0.062
-256.136	421.688	-0.062	0.131
-255.122	-141.949	-0.202	-0.020
-254.107	207.192	0.058	-0.089
-253.092	-84.189	0.347	-0.108
-252.078	-31.007	0.071	0.040
-251.063	-103.555	-0.233	-0.054
-250.049	-81.387	0.101	0.033
-249.034	484.337	-0.046	0.104
-248.019	-25.727	-0.159	0.093
-247.005	-200.000	-0.012	0.235
-245.990	-174.455	-0.280	-0.008
-244.976	-200.000	-0.037	0.190
-243.961	-72.404	-0.135	-0.049
-242.946	-10.232	0.238	-0.156
-241.932	-165.745	0.172	-0.007
-240.917	51.668	-0.189	-0.178
-239.903	150.112	0.099	-0.132
-238.888	-68.144	0.136	0.052
-237.873	53.803	0.157	-0.149
-236.859	-200.000	0.013	0.293
-235.844	-50.231	0.243	-0.113
-234.830	232.921	-0.076	-0.123
-233.815	-119.250	-0.421	0.072
-232.800	-162.953	0.122	-0.006
-231.786	-200.000	-0.020	0.340
-230.771	-200.000	-0.048	0.355
-229.757	230.521	0.118	0.191
-228.742	296.099	0.088	0.160
-227.727	-200.000	-0.011	0.066
-226.713	800.000	0.082	0.266
-225.698	-200.000	0.044	-0.229
-224.684	141.677	0.226	-0.295
-223.669	73.817	0.225	0.233
-222.655	-89.414	0.101	0.029
-221.640	-56.493	0.318	0.139
-220.625	44.602	-0.068	0.062
-219.611	-23.352	-0.118	0.070
-218.596	-200.000	0.017	0.168
-217.582	40.963	0.085	0.076
-216.567	33.169	-0.072	0.061
-215.552	267.371	-0.119	0.206
-214.538	45.523	0.343	0.312
-213.523	-41.920	-0.294	0.149
-212.509	-0.897	0.188	-0.131
-211.494	-28.418	0.191	-0.109
-210.479	-200.000	-0.039	0.211
-209.465	-58.136	0.207	-0.089
-208.450	171.984	0.104	-0.147
-207.436	88.403	-0.082	0.090
-206.421	208.582	0.175	0.270
-205.406	-145.324	-0.327	0.029
-204.392	18.077	-0.086	0.068
-203.377	219.039	0.102	0.161
-202.363	-101.622	0.083	0.020
-201.348	100.218	-0.243	-0.277
-200.333	699.792	-0.058	-0.151
-199.319	257.492	0.059	-0.100
-198.304	190.811	0.181	0.267
-197.290	-94.172	0.124	0.034
-196.275	-75.124	0.397	0.140
-195.260	166.194	0.199	-0.278
-194.246	-135.735	0.310	-0.036
-193.231	-57.239	0.310	-0.134
-192.217	-200.000	0.048	-0.217
-191.202	-200.000	0.040	0.252
-190.187	382.017	-0.107	-0.215
-189.173	800.000	-0.007	0.021
-188.158	-0.082	-0.084	-0.059
-187.144	65.737	0.146	-0.146
-186.129	102.049	0.113	0.130
-185.114	132.430	-0.088	-0.112
-184.100	-159.120	0.474	-0.026
-183.085	-200.000	-0.032	-0.168
-182.071	-189.284	0.208	-0.002
-181.056	-200.000	0.020	0.332
-180.042	-200.000	0.020	-0.296
-179.027	800.000	-0.034	-0.117
-178.012	-200.000	0.015	0.084
-176.998	-51.051	0.449	0.207
-175.983	13.152	-0.183	-0.140
-174.969	-4.651	0.093	-0.063
-173.954	800.000	0.076	0.217
-172.939	800.000	0.053	0.163
-171.925	-200.000	-0.007	0.094
-170.910	-85.044	0.221	-0.068
-169.896	20.914	-0.045	0.036
-168.881	-65.603	0.021	0.008
-167.866	471.612	0.092	-0.204
-166.852	-7.914	-0.236	0.157
-165.837	-200.000	-0.019	0.173
-164.823	800.000	0.040	0.158
-163.808	-200.000	0.044	0.204
-162.793	120.227	-0.169	0.206
-161.779	-101.038	-0.420	-0.101
-160.764	357.115	-0.092	0.180
-159.750	800.000	-0.037	0.143
-158.735	-200.000	-0.108	0.547
-157.720	235.293	0.074	0.121
-156.706	-200.000	0.030	-0.243
-155.691	-200.000	0.049	-0.261
-154.677	-200.000	0.022	0.130
-153.662	-200.000	-0.025	0.258
-152.647	-24.188	-0.125	0.074
-151.633	-200.000	0.005	-0.206
-150.618	-200.000	-0.011	0.146
-149.604	-101.985	-0.189	0.045
-148.589	-200.000	0.010	-0.262
-147.574	152.542	0.118	-0.158
-146.560	-17.577	-0.371	0.229
-145.545	-146.951	-0.205	-0.017
-144.531	-60.135	0.170	-0.071
-143.516	-5.696	0.068	-0.046
-142.502	-134.447	-0.091	0.011
-141.487	599.874	0.030	0.072
-140.472	130.696	0.273	0.345
-139.458	-19.771	-0.163	0.099
-138.443	124.289	-0.184	0.227
-137.429	-52.386	-0.404	0.184
-136.414	-103.529	0.198	-0.046
-135.399	80.028	0.061	-0.064
-134.385	350.195	0.195	-0.378
-133.370	-137.159	-0.337	-0.038
-132.356	-200.000	0.039	-0.412
-131.341	-21.506	0.203	0.122
-130.326	-107.094	0.365	0.079
-129.312	155.143	0.147	-0.199
-128.297	-200.000	-0.010	0.549
-127.283	-141.856	0.136	0.013
-126.268	-100.975	0.279	0.067
-125.253	36.744	0.123	-0.107
-124.239	-165.078	-0.156	0.007
-123.224	800.000	0.063	-0.196
-122.210	800.000	0.048	-0.150
-121.195	-20.490	0.063	-0.038
