DTS Sentinel unit serial number:	SN413079Multiplexer serial number:	ORYXHardware model number:	OX4-SRSoftware version number:	ORYX F/W v4.00 Oryx Data Collector v3.7.2.0data status	okinstallation	princeton_trtdifferential loss correction	single-endedforward channel	channel 1reverse channel	N/Adate	2019/09/12time	01:04:11forward acquisition time	60.00reverse acquisition time	0.00gamma	496.2192k internal	0.2320k external	0.2320temperature offset calibration	1.0079default loss term (dB/km)	0.3790temperature slope calibration	1.0000multiplexer offset coefficient	1.0000multiplexer slope coefficient	1.0000fibre end	0.00T internal ref (°C)	33.12T ext. ref 1 (°C)	2.07T ext. ref 2 (°C)	27.06length (m)	temperature (°C)	Stokes	anti-Stokes-747.200	168.835	-0.115	-0.165
-746.185	-136.275	-0.068	0.008
-745.171	-200.000	0.041	0.473
-744.156	800.000	-0.057	0.216
-743.142	702.579	-0.116	0.310
-742.127	-107.245	0.282	-0.063
-741.112	-200.000	-0.007	0.251
-740.098	-104.095	-0.205	-0.048
-739.083	149.701	-0.246	-0.338
-738.069	318.869	-0.051	-0.097
-737.054	223.253	-0.122	-0.198
-736.039	476.704	0.201	-0.459
-735.025	25.619	0.065	0.055
-734.010	126.243	-0.282	-0.360
-732.996	-50.671	-0.207	0.099
-731.981	80.844	0.051	0.056
-730.966	-200.000	0.009	-0.134
-729.952	-147.238	0.240	-0.021
-728.937	-200.000	-0.059	-0.336
-727.923	-47.058	0.071	-0.035
-726.908	-39.186	-0.273	-0.145
-725.894	-97.330	-0.117	0.031
-724.879	-69.735	0.266	-0.103
-723.864	457.250	-0.083	-0.187
-722.850	-200.000	-0.030	-0.178
-721.835	-33.860	0.101	0.056
-720.821	-136.824	-0.361	0.042
-719.806	-54.700	-0.344	0.157
-718.791	-42.635	-0.219	0.113
-717.777	306.775	0.069	-0.130
-716.762	-4.258	0.324	-0.227
-715.748	-77.773	-0.066	-0.023
-714.733	-139.230	0.164	0.018
-713.718	529.037	-0.082	0.196
-712.704	-80.538	0.150	0.050
-711.689	389.335	0.036	0.076
-710.675	192.528	0.090	0.138
-709.660	-200.000	-0.003	-0.617
-708.645	422.649	0.172	-0.372
-707.631	330.602	0.041	-0.080
-706.616	204.875	-0.012	-0.019
-705.602	446.022	0.066	0.147
-704.587	127.375	0.141	-0.181
-703.572	-174.260	0.330	-0.010
-702.558	-79.247	-0.308	-0.105
-701.543	800.000	-0.049	-0.150
-700.529	-200.000	-0.193	-0.001
-699.514	-82.658	0.220	-0.072
-698.499	-88.190	0.055	-0.017
-697.485	-7.793	0.348	0.238
-696.470	-200.000	-0.034	-0.150
-695.456	627.289	0.145	-0.369
-694.441	459.425	0.101	-0.226
-693.426	800.000	-0.038	0.134
-692.412	-200.000	-0.004	0.095
-691.397	39.900	-0.105	0.095
-690.383	109.795	-0.119	-0.144
-689.368	-101.724	0.222	-0.054
-688.354	800.000	0.066	0.248
-687.339	-156.495	-0.206	-0.013
-686.324	800.000	-0.028	0.108
-685.310	-110.763	0.145	-0.030
-684.295	-89.655	0.118	-0.035
-683.281	-108.565	-0.018	0.004
-682.266	42.973	0.198	0.182
-681.251	92.083	0.178	0.202
-680.237	-200.000	0.001	-0.455
-679.222	47.638	0.135	-0.127
-678.208	754.964	-0.016	0.044
-677.193	41.111	-0.173	-0.158
-676.178	-144.534	-0.152	-0.014
-675.164	203.369	-0.087	0.136
-674.149	30.425	-0.065	-0.056
-673.135	348.084	0.090	-0.179
-672.120	-200.000	-0.058	-0.482
-671.105	53.272	-0.156	0.151
-670.091	127.061	-0.032	0.041
-669.076	-170.860	0.214	0.007
-668.062	79.442	0.324	-0.350
-667.047	74.806	-0.074	-0.079
-666.032	800.000	0.037	0.121
-665.018	430.356	0.069	-0.151
-664.003	168.539	-0.317	-0.455
-662.989	-128.679	0.501	-0.071
-661.974	-39.927	-0.140	-0.073
-660.959	198.886	0.141	-0.218
-659.945	-69.316	0.265	-0.103
-658.930	-17.553	-0.175	0.111
-657.916	-200.000	0.088	-0.481
-656.901	-3.714	-0.231	-0.162
-655.886	-89.745	0.193	-0.057
-654.872	-200.000	0.003	-0.421
-653.857	-156.186	0.126	-0.008
-652.843	202.187	-0.058	0.090
-651.828	-51.066	-0.157	-0.074
-650.814	-2.955	0.087	-0.061
-649.799	-77.903	-0.047	0.016
-648.784	313.292	0.117	0.222
-647.770	108.944	0.128	0.154
-646.755	-44.326	0.404	0.204
-645.741	38.036	-0.102	-0.092
-644.726	100.040	-0.115	0.135
-643.711	2.146	-0.167	-0.122
-642.697	-58.069	0.152	-0.067
-641.682	-71.252	0.074	0.028
-640.668	55.567	0.148	-0.145
-639.653	-86.745	0.074	-0.023
-638.638	-156.366	0.311	-0.020
-637.624	737.836	0.062	0.168
-636.609	-5.045	-0.196	-0.136
-635.595	15.700	-0.281	-0.223
-634.580	-200.000	0.013	-0.275
-633.565	250.426	-0.075	0.129
-632.551	-60.213	-0.333	0.143
-631.536	153.828	0.078	0.108
-630.522	224.876	0.106	0.172
-629.507	-53.028	0.109	-0.050
-628.492	-25.338	-0.112	-0.067
-627.478	800.000	-0.084	-0.333
-626.463	-127.534	0.095	0.014
-625.449	-56.926	-0.120	0.053
-624.434	-105.522	-0.074	0.017
-623.419	152.228	0.036	-0.049
-622.405	800.000	0.017	0.067
-621.390	-106.844	0.257	0.057
-620.376	800.000	-0.030	-0.083
-619.361	1.237	0.238	0.172
-618.346	-18.580	-0.104	-0.065
-617.332	235.307	0.107	-0.178
-616.317	-200.000	0.037	0.182
-615.303	-33.588	-0.274	-0.152
-614.288	-124.975	-0.121	-0.019
-613.273	-200.000	0.034	0.367
-612.259	-97.149	-0.284	-0.075
-611.244	-200.000	0.048	-0.493
-610.230	-60.860	0.208	0.088
-609.215	29.747	0.032	0.027
-608.201	219.273	-0.218	-0.351
-607.186	-200.000	0.152	-0.000
-606.171	51.083	-0.118	0.112
-605.157	677.413	0.111	0.290
-604.142	-200.000	-0.050	-0.269
-603.128	-200.000	0.005	0.178
-602.113	-79.591	0.289	-0.098
-601.098	61.095	-0.207	0.206
-600.084	-200.000	-0.020	0.264
-599.069	-200.000	-0.075	-0.342
-598.055	661.534	0.031	0.079
-597.040	125.333	-0.078	-0.099
-596.025	596.488	-0.057	-0.143
-595.011	314.550	0.142	0.268
-593.996	11.172	-0.099	-0.076
-592.982	-41.857	-0.159	-0.082
-591.967	800.000	0.066	-0.243
-590.952	284.106	0.174	-0.315
-589.938	-1.021	0.233	-0.166
-588.923	-4.916	-0.458	0.317
-587.909	153.746	0.066	-0.091
-586.894	-177.012	0.113	0.003
-585.879	225.517	-0.088	-0.143
-584.865	-57.116	-0.024	-0.011
-583.850	-90.466	-0.161	0.047
-582.836	6.125	-0.080	-0.060
-581.821	-200.000	0.029	-0.269
-580.806	390.877	0.079	0.165
-579.792	-36.995	0.163	-0.088
-578.777	12.559	-0.269	0.209
-577.763	545.337	-0.190	0.455
-576.748	-6.307	-0.128	0.088
-575.733	-200.000	0.040	-0.229
-574.719	-37.512	0.041	0.022
-573.704	-57.512	0.154	-0.068
-572.690	-119.930	-0.167	0.029
-571.675	64.078	0.216	-0.219
-570.661	345.748	0.088	0.174
-569.646	56.254	0.237	-0.231
-568.631	-2.056	0.091	-0.064
-567.617	-32.068	-0.110	0.062
-566.602	800.000	-0.044	0.182
-565.588	-157.293	0.230	-0.014
-564.573	-129.889	-0.090	0.012
-563.558	145.566	0.050	0.067
-562.544	-112.547	-0.158	-0.032
-561.529	-200.000	0.014	0.243
-560.515	-200.000	-0.030	0.212
-559.500	-116.513	0.164	-0.030
-558.485	-200.000	-0.046	0.592
-557.471	-49.454	-0.193	0.092
-556.456	425.091	0.073	-0.158
-555.442	138.860	0.101	0.133
-554.427	-97.687	-0.312	-0.081
-553.412	-200.000	-0.020	-0.132
-552.398	1.427	0.057	-0.041
-551.383	125.167	0.082	0.104
-550.369	-102.128	0.043	0.010
-549.354	262.943	-0.047	0.081
-548.339	-199.676	0.166	-0.001
-547.325	138.782	-0.107	-0.141
-546.310	173.063	0.087	0.125
-545.296	-156.770	-0.051	-0.003
-544.281	-60.220	0.139	-0.059
-543.266	52.094	0.125	0.119
-542.252	-154.818	0.252	-0.017
-541.237	800.000	0.048	0.144
-540.223	-106.379	-0.410	-0.092
-539.208	-87.424	0.254	0.077
-538.193	800.000	-0.049	-0.173
-537.179	-49.344	0.189	0.090
-536.164	-54.560	-0.090	-0.041
-535.150	-200.000	-0.017	-0.089
-534.135	137.786	0.144	0.189
-533.121	-200.000	0.002	-0.386
-532.106	-200.000	0.036	-0.189
-531.091	356.530	-0.081	0.162
-530.077	687.353	-0.091	0.239
-529.062	-200.000	-0.012	0.091
-528.048	-102.139	0.150	0.036
-527.033	800.000	0.066	0.205
-526.018	800.000	-0.008	-0.026
-525.004	800.000	-0.058	0.200
-523.989	-49.927	-0.134	0.064
-522.975	-175.277	-0.505	0.014
-521.960	126.063	-0.097	-0.123
-520.945	770.741	-0.056	-0.152
-519.931	-57.010	-0.081	0.036
-518.916	800.000	-0.020	-0.086
-517.902	800.000	-0.071	0.220
-516.887	800.000	-0.066	-0.238
-515.872	51.188	-0.278	-0.264
-514.858	128.887	-0.103	0.132
-513.843	-140.619	-0.276	0.029
-512.829	69.292	-0.042	-0.043
-511.814	329.254	0.033	0.064
-510.799	-200.000	-0.046	-0.222
-509.785	116.489	0.145	-0.179
-508.770	-83.211	-0.352	-0.113
-507.756	-195.973	-0.099	-0.001
-506.741	-176.884	0.363	0.009
-505.726	-200.000	0.045	0.309
-504.712	800.000	-0.071	0.227
-503.697	246.590	0.129	-0.218
-502.683	149.607	-0.070	0.096
-501.668	97.854	-0.159	0.183
-500.653	-200.000	-0.004	0.320
-499.639	34.206	-0.070	-0.061
-498.624	453.640	-0.163	-0.362
-497.610	800.000	0.146	-0.475
-496.595	-32.935	-0.111	-0.062
-495.581	391.238	-0.095	0.197
-494.566	14.157	-0.083	0.065
-493.551	-26.057	-0.089	-0.053
-492.537	45.266	0.169	0.156
-491.522	-101.744	-0.259	-0.063
-490.508	-200.000	0.053	-0.333
-489.493	222.857	-0.156	-0.252
-488.478	-157.416	-0.257	-0.015
-487.464	-44.947	0.129	0.064
-486.449	78.548	-0.185	0.198
-485.435	-122.542	0.106	0.017
-484.420	-200.000	0.037	-0.221
-483.405	584.779	-0.152	-0.373
-482.391	223.497	0.076	-0.122
-481.376	345.141	0.060	-0.118
-480.362	-149.687	-0.437	0.034
-479.347	532.747	0.100	-0.236
-478.332	800.000	0.067	0.196
-477.318	-157.380	0.295	-0.018
-476.303	55.977	-0.264	0.256
-475.289	-200.000	-0.026	-0.155
-474.274	-136.543	0.255	0.030
-473.259	28.346	0.086	0.073
-472.245	-200.000	0.002	0.180
-471.230	-200.000	-0.041	0.222
-470.216	-200.000	0.055	-0.281
-469.201	90.119	-0.234	-0.261
-468.186	253.179	-0.105	-0.180
-467.172	-200.000	-0.016	-0.217
-466.157	571.489	-0.047	-0.115
-465.143	53.610	-0.331	0.318
-464.128	69.902	0.080	0.083
-463.113	473.375	0.163	0.368
-462.099	9.230	-0.184	-0.139
-461.084	-200.000	0.048	-0.255
-460.070	800.000	0.092	0.342
-459.055	62.683	-0.098	0.098
-458.040	-69.462	0.238	-0.091
-457.026	-166.492	-0.166	-0.007
-456.011	-200.000	-0.018	-0.085
-454.997	113.309	0.069	-0.084
-453.982	800.000	-0.076	0.232
-452.968	-9.909	0.282	-0.187
-451.953	-200.000	0.023	-0.202
-450.938	704.253	-0.075	0.198
-449.924	516.243	-0.096	0.225
-448.909	-60.752	0.298	0.126
-447.895	210.168	-0.061	0.096
-446.880	56.720	-0.166	0.162
-445.865	-120.821	-0.221	0.037
-444.851	-25.170	-0.061	-0.036
-443.836	47.097	0.316	-0.293
-442.822	800.000	0.103	0.306
-441.807	180.744	-0.211	-0.310
-440.792	-98.930	-0.155	-0.039
-439.778	774.546	-0.074	0.201
-438.763	-151.168	-0.189	0.014
-437.749	51.204	0.165	-0.157
-436.734	-173.649	0.240	0.007
-435.719	800.000	-0.018	-0.057
-434.705	135.562	-0.148	0.193
-433.690	-50.608	0.176	0.083
-432.676	-200.000	0.026	-0.158
-431.661	-110.824	-0.157	-0.032
-430.646	-103.881	0.214	0.050
-429.632	-200.000	-0.005	-0.046
-428.617	-35.071	-0.154	0.084
-427.603	477.951	-0.124	-0.281
-426.588	301.114	0.231	0.427
-425.573	-200.000	0.016	0.331
-424.559	509.064	-0.055	0.127
-423.544	800.000	-0.057	-0.184
-422.530	-56.934	-0.206	0.091
-421.515	-9.410	0.036	-0.024
-420.500	800.000	0.051	0.154
-419.486	-69.748	-0.176	0.067
-418.471	380.430	-0.041	-0.084
-417.457	800.000	-0.041	-0.164
-416.442	-22.813	0.113	-0.068
-415.428	-200.000	0.001	-0.211
-414.413	-79.880	-0.244	0.082
-413.398	-105.339	0.230	0.052
-412.384	-97.661	-0.139	0.036
-411.369	-74.725	-0.167	-0.060
-410.355	24.703	-0.126	0.104
-409.340	-200.000	0.010	-0.137
-408.325	181.759	-0.143	-0.211
-407.311	44.008	0.413	0.378
-406.296	392.012	0.026	0.053
-405.282	-108.074	-0.216	-0.047
-404.267	243.327	0.172	-0.287
-403.252	800.000	-0.036	0.146
-402.238	19.681	0.220	-0.177
-401.223	-92.023	0.353	-0.100
-400.209	800.000	0.032	0.097
-399.194	-109.203	-0.170	-0.036
-398.179	-135.377	0.238	0.028
-397.165	-45.597	-0.450	-0.222
-396.150	-66.576	-0.103	-0.041
-395.136	-78.334	-0.319	-0.109
-394.121	482.685	-0.069	0.156
-393.106	800.000	-0.037	0.156
-392.092	-81.960	-0.203	0.066
-391.077	111.928	0.213	0.256
-390.063	-200.000	0.026	-0.202
-389.048	-50.113	-0.103	-0.048
-388.033	800.000	-0.116	-0.382
-387.019	12.906	0.145	-0.112
-386.004	2.171	-0.268	0.193
-384.990	-67.915	-0.118	-0.046
-383.975	363.240	-0.260	-0.521
-382.960	-200.000	0.068	0.379
-381.946	-200.000	-0.022	0.146
-380.931	224.015	0.219	0.352
-379.917	-68.204	0.181	-0.070
-378.902	-116.367	-0.257	-0.047
-377.888	114.113	0.128	-0.156
-376.873	-39.546	-0.100	-0.052
-375.858	676.643	-0.098	0.253
-374.844	-200.000	-0.045	0.401
-373.829	-186.690	0.341	0.005
-372.815	-169.928	0.162	0.006
-371.800	193.304	0.062	-0.094
-370.785	3.458	0.258	0.187
-369.771	262.594	-0.160	-0.276
-368.756	800.000	-0.061	-0.184
-367.742	-101.073	-0.278	-0.068
-366.727	148.790	0.122	0.165
-365.712	-200.000	-0.000	0.132
-364.698	-41.707	-0.139	-0.071
-363.683	91.119	-0.462	-0.517
-362.669	-32.476	-0.132	-0.074
-361.654	519.731	-0.068	0.159
-360.639	-67.548	-0.578	0.226
-359.625	41.973	0.179	0.161
-358.610	800.000	0.054	-0.187
-357.596	92.860	-0.123	-0.138
-356.581	194.786	-0.126	0.191
-355.566	232.786	-0.081	-0.133
-354.552	-200.000	-0.019	-0.091
-353.537	-200.000	0.001	0.027
-352.523	329.864	0.191	0.366
-351.508	800.000	-0.031	-0.096
-350.493	-200.000	0.003	-0.179
-349.479	47.558	0.111	0.104
-348.464	223.321	-0.042	0.067
-347.450	99.371	0.290	-0.334
-346.435	-59.587	0.242	0.103
-345.420	404.776	0.052	0.110
-344.406	-87.720	0.229	0.069
-343.391	-86.262	0.312	0.096
-342.377	-200.000	0.007	0.268
-341.362	800.000	0.145	-0.521
-340.348	2.897	-0.345	0.249
-339.333	800.000	0.067	-0.224
-338.318	-0.306	0.174	-0.123
-337.304	387.435	-0.070	-0.144
-336.289	18.023	0.109	0.087
-335.275	-5.548	-0.156	-0.106
-334.260	490.564	0.122	-0.278
-333.245	781.414	-0.068	-0.186
-332.231	-200.000	-0.021	-0.174
-331.216	56.069	0.192	-0.185
-330.202	800.000	-0.073	-0.304
-329.187	-155.882	0.221	0.014
-328.172	72.817	0.199	0.207
-327.158	-200.000	0.037	-0.233
-326.143	71.401	-0.107	0.110
-325.129	-130.694	0.235	-0.031
-324.114	37.437	0.143	0.127
-323.099	-106.873	-0.149	-0.033
-322.085	-200.000	0.002	-0.069
-321.070	800.000	0.031	-0.115
-320.056	62.817	-0.046	0.045
-319.041	97.837	-0.148	-0.169
-318.026	-200.000	0.025	-0.359
-317.012	163.836	-0.030	-0.042
-315.997	106.599	0.250	-0.295
-314.983	244.954	-0.084	0.140
-313.968	-108.420	0.299	0.064
-312.953	-200.000	0.007	-0.217
-311.939	343.893	0.081	0.158
-310.924	-98.578	-0.167	-0.042
-309.910	-11.907	0.165	-0.108
-308.895	441.045	0.041	0.090
-307.880	-21.574	0.071	0.043
-306.866	-200.000	0.021	-0.130
-305.851	-200.000	-0.020	-0.122
-304.837	-128.968	-0.339	0.047
-303.822	-61.060	0.050	0.021
-302.807	161.120	-0.185	0.258
-301.793	-126.461	-0.129	-0.019
-300.778	205.675	-0.238	0.368
-299.764	-96.177	0.344	0.091
-298.749	-200.000	-0.010	0.125
-297.735	-11.482	-0.387	0.253
-296.720	12.337	-0.194	0.149
-295.705	-196.170	-0.513	0.004
-294.691	33.306	0.162	0.140
-293.676	-200.000	-0.039	-0.186
-292.662	-5.651	0.345	0.235
-291.647	-200.000	-0.027	0.127
-290.632	-154.326	-0.280	0.019
-289.618	690.124	0.077	-0.199
-288.603	-155.047	0.351	0.023
-287.589	-19.983	0.182	-0.112
-286.574	-200.000	-0.002	0.206
-285.559	-127.921	-0.371	0.053
-284.545	74.182	0.204	-0.212
-283.530	78.728	0.198	0.210
-282.516	100.720	-0.136	0.157
-281.501	-200.000	0.296	0.001
-280.486	-23.362	0.214	0.127
-279.472	88.637	0.090	0.100
-278.457	121.555	0.219	-0.271
-277.443	383.549	0.216	-0.441
-276.428	112.283	0.177	-0.213
-275.413	92.061	0.256	-0.286
-274.399	203.232	0.106	0.162
-273.384	-158.464	0.036	-0.002
-272.370	41.332	0.165	0.148
-271.355	800.000	-0.051	-0.150
-270.340	-52.575	-0.255	0.117
-269.326	174.888	-0.232	0.333
-268.311	170.889	0.099	0.141
-267.297	-74.883	-0.050	-0.018
-266.282	-165.724	0.217	-0.009
-265.267	50.523	0.276	-0.259
-264.253	800.000	0.063	0.200
-263.238	89.003	-0.246	-0.272
-262.224	615.731	-0.114	-0.283
-261.209	451.603	0.111	0.242
-260.195	800.000	0.155	0.434
-259.180	-68.454	0.484	-0.186
-258.165	-119.594	-0.104	0.018
-257.151	594.366	-0.071	0.174
-256.136	800.000	-0.003	0.015
-255.122	71.719	-0.184	-0.190
-254.107	-30.812	0.266	-0.149
-253.092	98.434	-0.316	0.361
-252.078	-116.761	0.077	0.014
-251.063	345.356	0.074	0.143
-250.049	90.338	0.141	0.157
-249.034	-101.174	-0.212	0.052
-248.019	-16.235	-0.183	0.115
-247.005	-29.229	0.182	0.103
-245.990	68.117	0.140	0.142
-244.976	-200.000	0.004	-0.082
-243.961	-19.338	0.241	0.148
-242.946	-98.953	-0.350	0.088
-241.932	213.898	0.068	0.107
-240.917	-80.892	0.236	0.078
-239.903	-23.794	0.121	-0.072
-238.888	-86.497	-0.065	-0.020
-237.873	110.905	0.206	-0.245
-236.859	186.781	-0.167	-0.247
-235.844	-32.676	0.144	-0.080
-234.830	-59.704	0.127	-0.054
-233.815	79.331	-0.139	0.148
-232.800	231.228	-0.112	0.181
-231.786	-61.439	-0.353	0.147
-230.771	-45.900	-0.277	-0.135
-229.757	-84.740	0.134	0.042
-228.742	322.570	0.096	0.182
-227.727	87.267	0.072	0.079
-226.713	-36.045	-0.073	-0.039
-225.698	33.175	0.142	-0.122
-224.684	199.174	-0.098	0.149
-223.669	45.312	-0.136	-0.124
-222.655	-22.234	0.110	0.066
-221.640	-78.175	0.117	-0.040
-220.625	322.105	-0.125	-0.236
-219.611	142.932	0.171	0.226
-218.596	800.000	0.013	-0.047
-217.582	-200.000	-0.028	0.131
-216.567	483.821	-0.221	0.499
-215.552	-114.353	-0.218	0.042
-214.538	800.000	-0.103	0.366
-213.523	400.283	0.118	0.246
-212.509	-102.719	0.150	-0.035
-211.494	135.512	-0.196	-0.253
-210.479	81.382	0.237	-0.253
-209.465	-103.693	-0.123	0.029
-208.450	41.125	-0.101	-0.090
-207.436	146.493	0.075	-0.100
-206.421	22.688	0.106	0.086
-205.406	800.000	-0.042	-0.175
-204.392	-29.657	0.185	-0.104
-203.377	55.967	0.283	-0.272
-202.363	-53.525	-0.107	0.048
-201.348	252.578	0.070	-0.118
-200.333	7.326	-0.034	0.025
-199.319	-200.000	0.026	-0.143
-198.304	-158.360	0.160	0.009
-197.290	800.000	0.026	-0.089
-196.275	141.870	-0.205	0.269
-195.260	800.000	0.079	-0.230
-194.246	-68.137	-0.162	-0.063
-193.231	-200.000	0.047	0.252
-192.217	-114.018	0.306	0.059
-191.202	189.172	-0.099	-0.147
-190.187	-64.946	0.173	0.069
-189.173	71.306	0.235	0.242
-188.158	-131.966	0.448	-0.058
-187.144	-18.241	0.145	-0.090
-186.129	-99.750	-0.296	0.073
-185.114	105.647	-0.060	-0.070
-184.100	72.717	0.210	0.217
-183.085	-200.000	-0.000	-0.153
-182.071	-132.129	-0.329	0.042
-181.056	133.587	-0.076	-0.097
-180.042	-200.000	0.009	-0.123
-179.027	-40.690	-0.182	-0.093
-178.012	320.942	-0.149	-0.281
-176.998	82.675	0.164	0.176
-175.983	-135.074	0.177	-0.021
-174.969	343.488	-0.057	-0.111
-173.954	-101.295	0.406	-0.098
-172.939	-39.820	-0.157	-0.081
-171.925	-29.387	-0.306	0.173
-170.910	26.943	0.287	0.238
-169.896	-76.608	-0.121	0.042
-168.881	-30.647	0.142	0.080
-167.866	-200.000	-0.010	-0.369
-166.852	-108.073	0.082	-0.018
-165.837	700.806	0.031	0.080
-164.823	-121.434	0.037	0.006
-163.808	-200.000	0.000	0.184
-162.793	-200.000	0.102	0.484
-161.779	348.101	0.172	-0.335
-160.764	-180.720	0.241	-0.005
-159.750	-75.539	-0.233	0.082
-158.735	-37.947	-0.404	-0.212
-157.720	800.000	-0.063	0.185
-156.706	-200.000	-0.020	-0.253
-155.691	82.681	0.057	0.061
-154.677	249.486	0.180	0.302
-153.662	-83.152	0.161	-0.051
-152.647	78.543	-0.259	0.274
-151.633	99.328	0.153	-0.175
-150.618	-200.000	0.003	-0.122
-149.604	-150.017	0.243	0.019
-148.589	401.897	-0.064	0.133
-147.574	90.502	0.078	-0.086
-146.560	208.700	-0.030	0.047
-145.545	402.019	0.142	0.295
-144.531	-175.835	-0.260	0.007
-143.516	800.000	0.037	-0.108
-142.502	800.000	-0.045	0.186
-141.487	-118.878	-0.212	0.037
-140.472	800.000	0.045	-0.141
-139.458	-95.725	-0.352	-0.093
-138.443	800.000	0.026	0.079
-137.429	-80.976	0.408	-0.133
-136.414	-33.931	-0.282	0.154
-135.399	5.206	-0.227	0.165
-134.385	800.000	0.045	0.141
-133.370	19.927	-0.305	0.243
-132.356	-200.000	-0.010	-0.317
-131.341	-200.000	-0.013	0.182
-130.326	-200.000	-0.017	-0.286
-129.312	-200.000	0.024	0.127
-128.297	72.171	-0.082	-0.084
-127.283	-67.484	-0.107	-0.041
-126.268	-136.302	-0.298	0.034
-125.253	-39.086	-0.079	0.041
-124.239	49.406	-0.133	0.124
-123.224	-40.029	-0.055	-0.028
-122.210	-87.423	0.143	0.043
-121.195	800.000	0.103	0.286
