DTS Sentinel unit serial number:	SN413079Multiplexer serial number:	ORYXHardware model number:	OX4-SRSoftware version number:	ORYX F/W v4.00 Oryx Data Collector v3.7.2.0data status	okinstallation	princeton_trtdifferential loss correction	single-endedforward channel	channel 1reverse channel	N/Adate	2019/09/14time	03:34:35forward acquisition time	60.00reverse acquisition time	0.00gamma	496.2192k internal	0.2335k external	0.2335temperature offset calibration	1.0078default loss term (dB/km)	0.3790temperature slope calibration	1.0000multiplexer offset coefficient	1.0000multiplexer slope coefficient	1.0000fibre end	0.00T internal ref (°C)	26.62T ext. ref 1 (°C)	3.27T ext. ref 2 (°C)	21.57length (m)	temperature (°C)	Stokes	anti-Stokes-747.200	-83.538	-0.058	-0.019
-746.185	160.933	-0.065	-0.092
-745.171	-25.400	-0.091	-0.054
-744.156	-77.873	-0.361	0.125
-743.142	776.531	0.044	-0.121
-742.127	-160.164	-0.104	0.006
-741.112	320.080	0.099	0.188
-740.098	-200.000	-0.122	0.572
-739.083	54.062	0.146	0.142
-738.069	-200.000	-0.006	-0.052
-737.054	-94.468	0.422	-0.116
-736.039	-32.703	-0.201	0.112
-735.025	800.000	0.082	0.259
-734.010	154.280	-0.075	0.103
-732.996	-200.000	0.057	-0.385
-731.981	-117.883	-0.344	-0.062
-730.966	-200.000	0.008	-0.090
-729.952	800.000	0.049	-0.214
-728.937	-9.196	0.226	0.152
-727.923	800.000	-0.086	0.323
-726.908	495.975	-0.068	0.158
-725.894	800.000	-0.066	-0.228
-724.879	-200.000	-0.010	-0.383
-723.864	125.210	-0.062	0.078
-722.850	158.612	-0.120	0.167
-721.835	-200.000	-0.018	0.112
-720.821	-200.000	0.001	-0.071
-719.806	-107.261	-0.251	-0.056
-718.791	223.931	-0.129	-0.209
-717.777	76.303	-0.185	-0.197
-716.762	-124.748	-0.228	-0.035
-715.748	5.482	-0.318	0.236
-714.733	-98.983	-0.249	0.063
-713.718	-86.029	-0.299	0.093
-712.704	800.000	-0.033	-0.132
-711.689	-28.843	0.078	0.045
-710.675	-41.884	-0.128	-0.066
-709.660	-8.454	-0.071	-0.048
-708.645	800.000	0.061	-0.186
-707.631	-82.057	-0.041	-0.013
-706.616	-79.116	0.113	0.039
-705.602	-100.231	0.172	0.043
-704.587	-37.050	0.122	-0.066
-703.572	-59.908	-0.125	-0.054
-702.558	-50.906	0.417	0.196
-701.543	162.860	0.098	-0.138
-700.529	161.287	-0.155	0.217
-699.514	-130.431	-0.035	0.005
-698.499	800.000	0.068	0.289
-697.485	-61.632	-0.387	-0.163
-696.470	-59.029	0.246	-0.107
-695.456	0.307	-0.164	0.117
-694.441	21.226	0.268	-0.218
-693.426	-200.000	-0.007	-0.067
-692.412	-200.000	-0.007	0.079
-691.397	101.921	-0.333	-0.390
-690.383	-134.708	0.265	0.032
-689.368	177.188	-0.092	0.134
-688.354	800.000	-0.072	-0.259
-687.339	-200.000	-0.007	-0.317
-686.324	205.506	-0.094	-0.146
-685.310	44.217	0.335	-0.308
-684.295	-76.189	-0.142	-0.050
-683.281	427.218	0.072	-0.156
-682.266	-35.166	0.174	0.095
-681.251	758.856	0.072	-0.197
-680.237	-134.954	-0.236	0.029
-679.222	97.797	-0.184	-0.212
-678.208	106.879	-0.173	0.206
-677.193	-112.369	-0.105	0.021
-676.178	-61.023	-0.235	-0.099
-675.164	107.556	0.265	-0.315
-674.149	32.491	0.187	-0.162
-673.135	28.286	-0.249	0.211
-672.120	171.176	0.186	0.268
-671.105	4.326	-0.241	0.177
-670.091	603.205	-0.109	-0.271
-669.076	222.813	-0.212	0.342
-668.062	-200.000	-0.010	0.105
-667.047	512.745	0.015	0.036
-666.032	-200.000	-0.029	-0.294
-665.018	17.278	0.151	-0.120
-664.003	265.051	-0.162	0.283
-662.989	-11.279	-0.214	-0.141
-661.974	39.820	0.046	0.042
-660.959	291.120	0.079	0.145
-659.945	-102.660	-0.123	-0.029
-658.930	99.758	0.138	-0.160
-657.916	-200.000	0.001	0.072
-656.901	-39.279	0.143	-0.075
-655.886	2.255	-0.063	-0.046
-654.872	184.293	-0.129	-0.191
-653.857	-57.050	0.249	0.110
-652.843	-119.673	0.050	-0.009
-651.828	-190.965	-0.189	-0.002
-650.814	46.665	-0.178	-0.165
-649.799	-1.615	0.157	-0.111
-648.784	3.979	-0.224	-0.164
-647.770	800.000	-0.049	0.179
-646.755	57.506	-0.197	-0.193
-645.741	526.269	0.135	-0.318
-644.726	138.843	0.120	-0.157
-643.711	-147.125	0.266	-0.023
-642.697	-118.509	0.022	0.004
-641.682	23.451	-0.202	0.166
-640.668	698.499	0.037	-0.098
-639.653	42.268	0.158	0.144
-638.638	-192.360	-0.170	-0.002
-637.624	251.753	-0.022	-0.038
-636.609	27.453	0.260	-0.219
-635.595	-28.635	0.178	0.102
-634.580	72.745	-0.160	-0.167
-633.565	70.476	-0.029	0.030
-632.551	-130.123	0.218	0.030
-631.536	-48.711	-0.082	0.039
-630.522	-7.999	0.161	-0.108
-629.507	-108.035	-0.111	0.024
-628.492	47.823	-0.009	0.008
-627.478	-9.124	0.055	-0.037
-626.463	12.624	-0.219	0.169
-625.449	800.000	0.010	-0.035
-624.434	38.489	-0.012	0.011
-623.419	129.843	0.129	0.165
-622.405	69.353	-0.177	-0.183
-621.390	-34.971	-0.040	0.022
-620.376	52.575	0.106	-0.101
-619.361	-63.589	0.081	-0.033
-618.346	800.000	0.150	0.444
-617.332	20.288	-0.337	-0.272
-616.317	-43.070	-0.276	-0.140
-615.303	-200.000	-0.007	-0.155
-614.288	-103.947	0.411	0.096
-613.273	-200.000	0.028	-0.138
-612.259	-107.445	0.198	-0.043
-611.244	-59.313	-0.008	-0.003
-610.230	-128.171	-0.263	0.038
-609.215	-172.161	-0.151	0.005
-608.201	393.693	0.034	0.070
-607.186	36.379	0.160	0.141
-606.171	-32.350	0.166	-0.092
-605.157	-200.000	-0.002	0.201
-604.142	-155.564	-0.206	0.013
-603.128	-62.329	-0.365	-0.152
-602.113	193.663	-0.073	0.110
-601.098	220.020	0.108	0.172
-600.084	-111.319	0.120	-0.024
-599.069	-69.042	-0.184	0.071
-598.055	-200.000	-0.030	-0.163
-597.040	78.991	-0.291	-0.311
-596.025	-200.000	0.055	-0.363
-595.011	120.859	-0.121	-0.150
-593.996	19.924	-0.091	0.074
-592.982	-106.969	0.226	0.050
-591.967	800.000	-0.044	0.191
-590.952	-22.112	0.210	-0.127
-589.938	-200.000	0.074	-0.429
-588.923	-73.011	-0.579	0.212
-587.909	-199.277	0.118	0.001
-586.894	800.000	0.048	-0.207
-585.879	-169.309	0.096	-0.004
-584.865	-87.225	0.249	-0.076
-583.850	-129.270	0.258	-0.036
-582.836	-200.000	0.052	-0.291
-581.821	-84.378	-0.086	-0.027
-580.806	-200.000	-0.049	-0.290
-579.792	183.773	0.087	0.128
-578.777	800.000	-0.038	-0.136
-577.763	3.018	0.056	0.040
-576.748	-51.194	0.123	0.058
-575.733	-200.000	-0.044	0.410
-574.719	403.302	0.056	-0.119
-573.704	-187.228	-0.166	0.002
-572.690	-200.000	-0.005	-0.062
-571.675	728.805	-0.096	0.257
-570.661	-36.965	-0.007	0.004
-569.646	75.644	-0.151	0.159
-568.631	204.196	-0.119	-0.184
-567.617	-200.000	-0.010	-0.315
-566.602	156.939	0.218	0.300
-565.588	-28.381	-0.250	0.144
-564.573	161.084	0.107	-0.149
-563.558	44.694	-0.061	0.056
-562.544	71.094	-0.197	-0.204
-561.529	-65.895	0.303	-0.121
-560.515	157.894	0.156	0.216
-559.500	800.000	0.012	-0.048
-558.485	206.675	0.156	0.242
-557.471	38.088	-0.153	-0.136
-556.456	-200.000	0.024	-0.396
-555.442	400.071	0.077	0.161
-554.427	-14.448	-0.169	0.109
-553.412	-20.523	0.414	-0.254
-552.398	338.819	-0.054	0.105
-551.383	148.048	0.124	-0.167
-550.369	800.000	-0.106	0.440
-549.354	-139.833	-0.057	-0.006
-548.339	800.000	-0.162	-0.662
-547.325	-28.394	-0.205	-0.118
-546.310	-60.290	0.072	0.030
-545.296	305.454	0.052	-0.095
-544.281	65.394	0.164	0.165
-543.266	-200.000	0.002	-0.229
-542.252	800.000	0.019	-0.083
-541.237	300.251	-0.057	-0.105
-540.223	195.056	-0.192	0.290
-539.208	-64.634	-0.150	-0.061
-538.193	37.137	-0.176	0.155
-537.179	-91.194	-0.213	0.061
-536.164	-200.000	0.038	-0.201
-535.150	-200.000	0.042	0.244
-534.135	250.354	0.107	0.181
-533.121	-53.953	-0.272	-0.123
-532.106	-102.764	0.187	-0.044
-531.091	-41.248	-0.062	-0.032
-530.077	97.381	-0.081	0.093
-529.062	-112.299	-0.181	-0.036
-528.048	44.997	0.110	-0.101
-527.033	21.868	0.113	0.092
-526.018	800.000	0.046	-0.158
-525.004	-200.000	-0.011	0.320
-523.989	-143.417	0.154	0.015
-522.975	-73.656	-0.053	0.019
-521.960	-105.030	0.129	0.030
-520.945	-67.575	0.237	-0.093
-519.931	-162.761	0.240	0.012
-518.916	-70.037	-0.160	0.061
-517.902	76.646	-0.200	0.211
-516.887	800.000	-0.037	-0.126
-515.872	207.166	0.093	0.144
-514.858	-40.223	-0.240	0.125
-513.843	800.000	0.095	-0.299
-512.829	800.000	-0.108	0.330
-511.814	-76.248	-0.208	0.073
-510.799	160.216	-0.204	0.283
-509.785	-37.779	0.053	0.028
-508.770	-26.494	-0.277	0.162
-507.756	-200.000	-0.013	0.145
-506.741	800.000	0.093	-0.311
-505.726	5.907	-0.140	-0.103
-504.712	723.827	0.038	-0.102
-503.697	-18.927	-0.295	0.183
-502.683	800.000	0.007	0.030
-501.668	-166.914	-0.443	0.018
-500.653	-142.210	-0.199	-0.020
-499.639	-200.000	0.009	0.136
-498.624	224.831	-0.016	0.025
-497.610	800.000	0.041	0.132
-496.595	149.995	0.198	0.267
-495.581	-100.191	-0.236	0.058
-494.566	-200.000	0.020	0.112
-493.551	668.381	-0.177	-0.457
-492.537	-29.473	-0.311	-0.177
-491.522	-200.000	-0.014	0.253
-490.508	-200.000	-0.068	0.438
-489.493	161.551	0.076	0.105
-488.478	124.986	0.074	-0.093
-487.464	-200.000	0.011	-0.105
-486.449	30.451	-0.147	0.125
-485.435	289.757	0.140	-0.253
-484.420	-90.021	-0.108	0.031
-483.405	-200.000	0.010	0.149
-482.391	-83.917	0.266	0.084
-481.376	18.575	0.158	0.125
-480.362	-66.982	-0.338	-0.133
-479.347	794.876	0.065	-0.179
-478.332	20.494	0.229	-0.184
-477.318	-40.579	0.161	-0.083
-476.303	-119.946	0.145	0.025
-475.289	-128.345	-0.237	-0.034
-474.274	-130.593	-0.128	0.017
-473.259	-200.000	0.017	-0.131
-472.245	800.000	0.085	-0.277
-471.230	194.321	0.119	0.180
-470.216	-47.910	0.085	0.041
-469.201	-9.614	-0.293	0.194
-468.186	114.785	-0.135	0.163
-467.172	-44.247	0.292	-0.146
-466.157	-9.882	0.318	-0.211
-465.143	-200.000	-0.041	0.224
-464.128	506.363	-0.042	0.098
-463.113	-200.000	0.060	0.279
-462.099	800.000	-0.012	-0.041
-461.084	-59.687	0.125	0.053
-460.070	-92.239	-0.168	-0.047
-459.055	-200.000	0.019	0.149
-458.040	-134.519	0.168	0.020
-457.026	290.793	0.078	-0.141
-456.011	-119.511	0.071	-0.012
-454.997	222.354	-0.153	0.245
-453.982	-60.054	0.363	0.154
-452.968	114.322	-0.152	0.183
-451.953	-132.773	-0.458	0.058
-450.938	-30.733	0.362	0.203
-449.924	305.026	-0.151	-0.278
-448.909	-96.397	-0.241	-0.063
-447.895	800.000	-0.111	-0.333
-446.880	-200.000	0.012	-0.096
-445.865	800.000	-0.137	0.451
-444.851	46.596	0.202	0.186
-443.836	450.718	0.138	0.302
-442.822	37.441	0.026	-0.023
-441.807	-200.000	-0.036	0.334
-440.792	18.790	0.239	0.190
-439.778	-121.238	0.172	-0.028
-438.763	-173.558	0.415	-0.012
-437.749	-200.000	0.058	-0.253
-436.734	-147.766	-0.478	-0.040
-435.719	-54.377	0.147	0.066
-434.705	-14.010	-0.233	-0.149
-433.690	-200.000	0.021	0.168
-432.676	85.019	0.209	-0.227
-431.661	-31.236	-0.093	-0.052
-430.646	-200.000	0.012	0.157
-429.632	322.383	-0.078	0.148
-428.617	-120.177	0.114	-0.019
-427.603	16.841	-0.176	0.138
-426.588	-200.000	0.000	-0.127
-425.573	-200.000	0.007	-0.096
-424.559	-200.000	-0.044	-0.223
-423.544	-65.630	-0.288	-0.114
-422.530	-200.000	0.007	-0.061
-421.515	-139.105	-0.155	-0.017
-420.500	-12.249	-0.036	-0.023
-419.486	-200.000	0.022	-0.340
-418.471	-56.775	0.039	-0.017
-417.457	-146.673	0.187	0.016
-416.442	-165.756	0.084	-0.004
-415.428	400.759	0.135	-0.281
-414.413	800.000	-0.020	0.069
-413.398	-174.691	0.165	0.005
-412.384	222.097	-0.234	0.374
-411.369	69.176	-0.043	-0.043
-410.355	-91.393	-0.295	-0.084
-409.340	-200.000	-0.164	0.001
-408.325	85.316	-0.133	-0.145
-407.311	26.499	0.062	-0.051
-406.296	-123.882	0.179	-0.028
-405.282	317.129	0.095	-0.177
-404.267	-193.683	0.146	-0.001
-403.252	525.689	-0.035	-0.083
-402.238	-200.000	0.052	0.374
-401.223	-200.000	-0.007	-0.041
-400.209	48.349	-0.094	-0.087
-399.194	-104.876	-0.436	-0.099
-398.179	-89.699	-0.189	-0.055
-397.165	109.978	-0.055	0.065
-396.150	-97.863	-0.161	-0.041
-395.136	466.998	-0.055	-0.123
-394.121	74.837	0.057	0.059
-393.106	800.000	0.054	-0.210
-392.092	800.000	-0.027	0.084
-391.077	-178.062	0.125	-0.003
-390.063	-200.000	0.016	0.085
-389.048	-104.723	-0.175	0.040
-388.033	-91.461	-0.266	0.075
-387.019	-152.255	0.486	0.035
-386.004	-163.227	-0.052	0.002
-384.990	-167.186	0.325	-0.013
-383.975	-200.000	-0.077	-0.377
-382.960	-200.000	-0.106	-0.460
-381.946	509.700	0.123	0.284
-380.931	-113.587	0.093	-0.018
-379.917	-124.669	0.113	0.017
-378.902	235.692	0.142	0.233
-377.888	-149.740	-0.396	0.031
-376.873	-94.610	-0.182	-0.049
-375.858	-94.938	-0.219	-0.059
-374.844	120.286	0.319	-0.392
-373.829	68.464	0.060	-0.061
-372.815	800.000	-0.110	0.314
-371.800	250.511	-0.089	0.149
-370.785	800.000	0.046	-0.131
-369.771	55.379	0.111	0.107
-368.756	800.000	-0.030	0.089
-367.742	-57.639	0.456	0.198
-366.727	38.223	0.281	-0.247
-365.712	-144.387	-0.378	-0.035
-364.698	-113.370	-0.476	-0.093
-363.683	-36.070	0.301	-0.161
-362.669	169.637	0.183	-0.259
-361.654	15.529	0.095	0.074
-360.639	-200.000	-0.012	0.110
-359.625	800.000	-0.016	0.062
-358.610	-200.000	-0.019	0.183
-357.596	800.000	-0.036	-0.115
-356.581	-200.000	-0.030	-0.142
-355.566	13.838	0.281	0.216
-354.552	-128.237	-0.295	-0.042
-353.537	369.944	0.187	0.375
-352.523	89.587	-0.026	0.029
-351.508	87.578	-0.111	-0.122
-350.493	119.015	0.090	-0.111
-349.479	-9.596	-0.027	-0.018
-348.464	-87.831	-0.266	0.079
-347.450	-200.000	0.010	-0.088
-346.435	-200.000	0.011	0.105
-345.420	-135.917	-0.397	0.046
-344.406	-181.168	0.399	-0.008
-343.391	-83.205	-0.382	0.121
-342.377	-56.929	-0.383	0.167
-341.362	-200.000	-0.026	-0.224
-340.348	80.003	-0.197	-0.209
-339.333	800.000	-0.069	-0.230
-338.318	67.195	0.087	-0.088
-337.304	704.459	0.075	0.195
-336.289	68.009	-0.152	0.154
-335.275	68.611	0.281	-0.285
-334.260	54.822	0.168	0.160
-333.245	800.000	0.025	0.098
-332.231	25.133	-0.137	0.112
-331.216	-33.470	-0.084	0.046
-330.202	-200.000	-0.042	-0.280
-329.187	26.315	0.105	-0.087
-328.172	-24.706	0.165	-0.097
-327.158	-86.889	0.127	-0.038
-326.143	800.000	-0.059	0.208
-325.129	181.711	0.077	-0.112
-324.114	-200.000	-0.040	0.191
-323.099	-34.045	0.181	0.098
-322.085	800.000	0.064	0.261
-321.070	-105.458	0.324	-0.073
-320.056	-200.000	-0.006	-0.423
-319.041	-200.000	0.008	-0.116
-318.026	-167.926	0.292	0.011
-317.012	-200.000	0.004	0.203
-315.997	-111.411	0.370	0.074
-314.983	24.173	0.112	0.092
-313.968	27.809	0.087	0.073
-312.953	572.067	-0.049	0.117
-311.939	-200.000	-0.001	-0.066
-310.924	-200.000	-0.000	-0.045
-309.910	-163.481	0.392	-0.018
-308.895	-23.710	0.168	0.099
-307.880	800.000	0.084	-0.252
-306.866	-164.869	-0.226	-0.010
-305.851	-118.499	0.150	-0.026
-304.837	120.870	0.194	-0.238
-303.822	-200.000	0.024	-0.595
-302.807	-33.699	-0.134	0.073
-301.793	384.215	-0.037	-0.076
-300.778	-4.124	0.255	0.174
-299.764	299.512	0.062	-0.113
-298.749	-164.047	-0.138	0.006
-297.735	64.516	-0.120	0.120
-296.720	-93.433	-0.204	-0.056
-295.705	-183.924	0.320	-0.005
-294.691	-200.000	-0.022	-0.166
-293.676	76.931	-0.253	0.265
-292.662	-66.730	-0.239	0.093
-291.647	-83.154	0.158	-0.050
-290.632	-97.986	-0.201	-0.051
-289.618	-200.000	0.034	0.315
-288.603	-91.681	0.097	0.027
-287.589	800.000	-0.109	0.330
-286.574	-58.019	0.478	0.206
-285.559	223.910	-0.100	-0.160
-284.545	-97.487	-0.276	-0.071
-283.530	69.604	0.125	-0.127
-282.516	-200.000	0.009	-0.354
-281.501	-33.191	0.117	0.064
-280.486	-69.996	0.046	-0.017
-279.472	417.722	0.179	0.378
-278.457	-184.678	-0.166	0.003
-277.443	-200.000	0.078	0.642
-276.428	-133.608	-0.157	-0.019
-275.413	-6.801	0.163	0.109
-274.399	498.988	0.048	0.108
-273.384	800.000	0.055	0.195
-272.370	-14.826	0.108	0.068
-271.355	183.087	-0.088	-0.129
-270.340	-200.000	-0.018	0.161
-269.326	-46.158	-0.198	-0.096
-268.311	255.389	-0.135	-0.228
-267.297	460.626	-0.198	-0.436
-266.282	800.000	-0.057	0.194
-265.267	-82.611	0.173	0.055
-264.253	34.683	0.082	-0.070
-263.238	184.643	0.236	0.344
-262.224	122.504	-0.189	-0.233
-261.209	562.073	-0.076	0.180
-260.195	-200.000	0.004	0.034
-259.180	-77.266	-0.329	-0.113
-258.165	142.122	-0.061	0.079
-257.151	55.943	0.278	0.265
-256.136	13.705	0.106	0.081
-255.122	-200.000	-0.018	0.112
-254.107	125.601	-0.148	0.184
-253.092	-74.419	-0.115	0.041
-252.078	-42.619	0.093	0.047
-251.063	697.539	0.089	-0.231
-250.049	-108.072	0.089	0.019
-249.034	-200.000	-0.021	0.246
-248.019	197.494	0.083	0.125
-247.005	357.945	0.209	0.411
-245.990	104.963	0.105	0.122
-244.976	520.167	0.105	-0.243
-243.961	-42.883	0.095	-0.048
-242.946	-200.000	-0.009	-0.057
-241.932	187.307	0.104	-0.153
-240.917	168.480	-0.168	0.236
-239.903	-58.677	-0.031	-0.013
-238.888	216.796	-0.135	-0.212
-237.873	3.220	-0.095	-0.068
-236.859	399.459	-0.058	0.120
-235.844	317.599	-0.072	-0.134
-234.830	-181.064	-0.586	-0.012
-233.815	138.991	0.029	-0.037
-232.800	208.987	0.103	-0.158
-231.786	-75.697	0.191	0.067
-230.771	86.374	-0.185	0.200
-229.757	95.820	-0.040	0.045
-228.742	171.934	0.126	0.178
-227.727	-200.000	-0.023	0.465
-226.713	-131.567	-0.117	-0.015
-225.698	-200.000	-0.024	-0.438
-224.684	-200.000	-0.014	-0.071
-223.669	202.509	-0.056	-0.085
-222.655	-44.727	-0.479	0.235
-221.640	-200.000	0.001	-0.074
-220.625	-69.561	-0.222	0.084
-219.611	225.017	-0.153	-0.244
-218.596	-200.000	-0.025	-0.227
-217.582	-21.443	0.356	-0.214
-216.567	343.625	-0.030	-0.058
-215.552	-200.000	-0.019	0.140
-214.538	800.000	-0.059	-0.164
-213.523	-164.749	0.138	-0.006
-212.509	331.293	0.111	0.210
-211.494	142.521	0.143	0.186
-210.479	85.912	0.276	0.299
-209.465	-200.000	0.038	0.000
-208.450	207.154	-0.133	-0.203
-207.436	-200.000	-0.005	0.146
-206.421	-141.775	-0.203	-0.020
-205.406	-200.000	-0.040	0.270
-204.392	-112.307	0.132	0.026
-203.377	-74.870	0.065	-0.023
-202.363	800.000	0.119	-0.377
-201.348	203.937	0.342	-0.522
-200.333	-200.000	0.028	-0.443
-199.319	370.638	-0.133	-0.265
-198.304	-100.194	0.227	0.055
-197.290	109.431	-0.184	0.217
-196.275	-97.838	0.142	0.036
-195.260	-200.000	0.055	0.290
-194.246	-122.684	-0.085	-0.013
-193.231	87.268	0.122	0.132
-192.217	-200.000	0.035	0.000
-191.202	-57.414	0.356	-0.154
-190.187	18.254	-0.288	-0.226
-189.173	-31.117	0.134	-0.074
-188.158	-67.311	0.255	0.099
-187.144	-200.000	0.019	0.083
-186.129	-74.144	0.243	0.086
-185.114	487.155	-0.064	-0.144
-184.100	-61.627	-0.293	-0.121
-183.085	-200.000	0.025	-0.395
-182.071	-66.353	0.351	-0.137
-181.056	-121.568	0.132	0.021
-180.042	142.081	-0.166	-0.217
-179.027	-19.590	-0.262	-0.159
-178.012	-12.936	0.180	0.115
-176.998	142.966	0.129	0.169
-175.983	150.315	0.141	-0.188
-174.969	23.984	-0.221	-0.179
-173.954	-200.000	-0.087	0.394
-172.939	-200.000	0.012	0.071
-171.925	17.657	0.415	0.324
-170.910	-200.000	-0.003	-0.334
-169.896	-200.000	-0.042	0.227
-168.881	-99.624	0.316	-0.078
-167.866	-3.504	0.262	0.179
-166.852	80.948	-0.353	-0.374
-165.837	365.330	-0.167	0.329
-164.823	-200.000	0.010	0.473
-163.808	-142.157	0.161	-0.016
-162.793	91.434	-0.090	-0.099
-161.779	-49.101	-0.132	-0.062
-160.764	-18.500	-0.113	-0.070
-159.750	-0.959	0.064	0.045
-158.735	585.300	-0.096	0.231
-157.720	65.287	-0.200	-0.198
-156.706	181.416	-0.100	0.145
-155.691	-42.346	0.095	0.048
-154.677	-56.512	-0.144	-0.063
-153.662	-2.877	0.120	0.082
-152.647	-55.541	0.106	0.047
-151.633	-50.483	0.007	-0.003
-150.618	87.402	-0.132	0.144
-149.604	-33.672	-0.118	0.064
-148.589	-12.769	0.382	-0.244
-147.574	-8.730	-0.296	-0.195
-146.560	-109.827	0.232	-0.048
-145.545	-200.000	0.021	-0.277
-144.531	-200.000	0.010	-0.106
-143.516	-125.117	0.178	0.027
-142.502	-165.495	0.221	0.009
-141.487	-138.205	0.183	0.020
-140.472	65.416	-0.278	0.276
-139.458	76.169	-0.092	0.096
-138.443	-111.638	0.255	-0.051
-137.429	-36.273	-0.144	-0.076
-136.414	-89.094	-0.345	0.100
-135.399	540.584	0.135	-0.316
-134.385	21.914	0.283	-0.227
-133.370	-200.000	0.009	-0.233
-132.356	208.598	0.033	-0.050
-131.341	438.946	0.076	-0.162
-130.326	-200.000	0.013	-0.146
-129.312	30.689	-0.096	0.081
-128.297	-41.035	0.192	-0.097
-127.283	-116.529	0.334	0.060
-126.268	-200.000	-0.001	-0.099
-125.253	800.000	0.099	-0.364
-124.239	-89.638	-0.116	-0.033
-123.224	-82.040	0.286	-0.092
-122.210	800.000	0.192	0.639
