DTS Sentinel unit serial number:	SN413079Multiplexer serial number:	ORYXHardware model number:	OX4-SRSoftware version number:	ORYX F/W v4.00 Oryx Data Collector v3.7.2.0data status	okinstallation	princeton_trtdifferential loss correction	single-endedforward channel	channel 1reverse channel	N/Adate	2019/09/14time	16:42:35forward acquisition time	60.00reverse acquisition time	0.00gamma	496.2192k internal	0.2295k external	0.2295temperature offset calibration	1.0057default loss term (dB/km)	0.3790temperature slope calibration	1.0000multiplexer offset coefficient	1.0000multiplexer slope coefficient	1.0000fibre end	0.00T internal ref (°C)	38.00T ext. ref 1 (°C)	5.01T ext. ref 2 (°C)	33.71length (m)	temperature (°C)	Stokes	anti-Stokes-747.200	-133.187	-0.104	-0.013
-746.185	-145.153	0.150	0.014
-745.171	-200.000	-0.006	-0.035
-744.156	-2.717	-0.222	0.158
-743.142	738.096	0.111	0.305
-742.127	8.324	0.202	-0.155
-741.112	269.415	-0.112	-0.201
-740.098	-83.158	0.120	-0.039
-739.083	-200.000	-0.000	-0.154
-738.069	177.850	-0.068	-0.102
-737.054	277.658	0.123	0.224
-736.039	268.693	-0.059	0.107
-735.025	70.904	0.145	0.154
-734.010	94.068	0.182	-0.211
-732.996	-58.353	-0.159	-0.071
-731.981	-33.788	0.070	-0.039
-730.966	800.000	0.051	-0.146
-729.952	-18.845	-0.262	0.167
-728.937	-200.000	-0.015	-0.212
-727.923	-114.027	-0.318	-0.063
-726.908	-97.365	-0.309	-0.082
-725.894	-46.482	-0.043	-0.022
-724.879	-200.000	0.036	-0.198
-723.864	800.000	0.084	-0.257
-722.850	-200.000	0.020	-0.278
-721.835	-88.257	0.371	-0.113
-720.821	787.370	0.156	0.437
-719.806	13.270	-0.405	-0.321
-718.791	-63.898	-0.548	-0.229
-717.777	800.000	0.042	-0.159
-716.762	182.837	-0.071	-0.106
-715.748	-155.612	-0.096	0.006
-714.733	-112.043	0.481	-0.099
-713.718	-200.000	0.080	-0.420
-712.704	-200.000	0.057	-0.257
-711.689	-90.943	-0.226	-0.066
-710.675	-200.000	-0.008	0.054
-709.660	-200.000	0.021	-0.137
-708.645	-170.640	-0.343	0.012
-707.631	134.927	-0.134	0.178
-706.616	-46.262	0.115	-0.058
-705.602	23.422	-0.153	0.128
-704.587	-200.000	-0.028	0.302
-703.572	800.000	0.080	-0.269
-702.558	-52.338	0.130	-0.061
-701.543	-139.279	0.126	0.014
-700.529	354.821	-0.094	0.190
-699.514	-129.627	0.183	-0.026
-698.499	276.945	-0.048	0.086
-697.485	249.641	0.169	-0.293
-696.470	800.000	0.031	-0.126
-695.456	187.978	-0.162	0.246
-694.441	677.545	0.066	-0.175
-693.426	-200.000	0.015	-0.288
-692.412	119.759	-0.235	-0.298
-691.397	90.126	-0.164	-0.187
-690.383	-21.221	0.235	-0.146
-689.368	27.024	-0.420	-0.360
-688.354	568.793	0.077	-0.191
-687.339	800.000	0.066	-0.287
-686.324	-200.000	-0.030	-0.135
-685.310	-50.335	-0.018	0.009
-684.295	154.228	-0.103	-0.144
-683.281	24.198	-0.180	0.151
-682.266	254.120	-0.223	0.389
-681.251	-200.000	0.016	-0.234
-680.237	-56.003	-0.122	0.055
-679.222	-95.286	-0.202	-0.055
-678.208	800.000	-0.063	-0.213
-677.193	-167.835	0.235	-0.009
-676.178	-153.393	-0.198	-0.014
-675.164	-200.000	-0.054	0.243
-674.149	-110.900	0.239	0.050
-673.135	-97.304	-0.041	0.011
-672.120	-19.474	-0.190	0.120
-671.105	190.667	-0.071	0.109
-670.091	535.154	-0.021	-0.051
-669.076	138.932	-0.070	0.094
-668.062	800.000	0.036	0.108
-667.047	-111.556	-0.203	0.042
-666.032	-200.000	-0.006	0.174
-665.018	800.000	-0.113	-0.341
-664.003	-16.391	0.169	-0.109
-662.989	-200.000	-0.020	-0.144
-661.974	-122.102	-0.174	0.029
-660.959	-148.030	-0.372	-0.031
-659.945	-82.339	0.299	-0.099
-658.930	159.831	-0.181	0.258
-657.916	27.972	0.059	-0.051
-656.901	-200.000	0.034	0.213
-655.886	207.461	0.117	0.186
-654.872	-200.000	0.106	-0.519
-653.857	-48.364	0.491	0.241
-652.843	73.981	0.138	-0.147
-651.828	-130.718	0.297	-0.041
-650.814	30.667	-0.142	-0.124
-649.799	-94.251	0.030	0.008
-648.784	-150.034	-0.338	-0.027
-647.770	-191.451	-0.048	-0.000
-646.755	-200.000	0.098	0.471
-645.741	102.615	0.145	-0.173
-644.726	-200.000	0.020	0.124
-643.711	49.052	-0.305	-0.292
-642.697	800.000	0.035	0.108
-641.682	290.508	-0.073	-0.135
-640.668	800.000	-0.027	-0.115
-639.653	-40.334	0.170	-0.090
-638.638	138.686	-0.161	-0.216
-637.624	-200.000	-0.004	-0.202
-636.609	639.197	0.103	-0.266
-635.595	37.284	0.332	-0.300
-634.580	21.320	-0.092	-0.076
-633.565	-92.175	-0.262	0.075
-632.551	-200.000	0.026	0.150
-631.536	428.549	-0.116	-0.255
-630.522	-200.000	-0.085	-0.395
-629.507	-200.000	0.013	0.238
-628.492	196.716	-0.230	-0.357
-627.478	800.000	0.101	-0.343
-626.463	-200.000	0.034	0.194
-625.449	-42.839	0.167	-0.086
-624.434	423.356	0.139	-0.305
-623.419	-79.945	-0.031	-0.011
-622.405	-142.379	-0.264	0.027
-621.390	-200.000	-0.028	-0.346
-620.376	-1.560	-0.119	0.086
-619.361	111.362	0.141	0.173
-618.346	-43.497	0.094	-0.049
-617.332	-176.075	0.129	-0.003
-616.317	134.334	-0.136	-0.179
-615.303	31.070	0.050	-0.044
-614.288	149.964	0.082	0.113
-613.273	-128.181	-0.052	0.008
-612.259	800.000	-0.009	-0.037
-611.244	129.541	-0.092	0.119
-610.230	-133.385	0.269	-0.034
-609.215	764.793	-0.160	-0.442
-608.201	-200.000	0.002	-0.199
-607.186	800.000	-0.047	-0.181
-606.171	24.187	0.171	-0.143
-605.157	-200.000	-0.010	-0.113
-604.142	128.769	0.294	-0.381
-603.128	-43.592	-0.245	0.126
-602.113	800.000	-0.079	-0.278
-601.098	157.710	-0.399	-0.562
-600.084	800.000	0.004	0.012
-599.069	-116.668	0.252	0.047
-598.055	341.116	-0.044	0.087
-597.040	160.954	0.066	0.094
-596.025	336.269	-0.144	0.284
-595.011	800.000	0.063	-0.229
-593.996	102.845	0.178	0.212
-592.982	-67.961	0.048	0.019
-591.967	-147.637	-0.199	0.017
-590.952	-35.444	-0.271	-0.150
-589.938	-15.088	0.128	-0.083
-588.923	-200.000	-0.000	0.058
-587.909	325.273	-0.154	-0.299
-586.894	232.100	0.125	-0.209
-585.879	-104.698	-0.188	-0.044
-584.865	76.884	0.180	0.194
-583.850	-19.111	-0.201	-0.127
-582.836	-200.000	0.040	-0.198
-581.821	-200.000	-0.011	-0.147
-580.806	-39.888	-0.196	-0.104
-579.792	578.688	-0.056	0.139
-578.777	-200.000	-0.018	0.081
-577.763	-200.000	0.017	0.245
-576.748	316.849	0.065	0.124
-575.733	-25.209	0.217	-0.131
-574.719	-122.425	-0.110	0.018
-573.704	111.967	0.178	-0.219
-572.690	-132.549	0.247	0.032
-571.675	10.268	-0.217	0.168
-570.661	295.172	0.252	0.468
-569.646	57.339	0.227	0.225
-568.631	-182.231	0.295	0.006
-567.617	-14.528	-0.102	-0.067
-566.602	624.652	-0.056	-0.142
-565.588	379.388	-0.084	-0.175
-564.573	-28.023	0.326	-0.192
-563.558	212.078	0.212	-0.338
-562.544	31.868	-0.163	-0.143
-561.529	-145.416	-0.334	0.031
-560.515	10.389	-0.291	-0.225
-559.500	-51.887	0.285	-0.135
-558.485	800.000	0.070	0.257
-557.471	-103.071	-0.165	0.040
-556.456	225.200	0.029	-0.048
-555.442	-116.863	-0.313	0.058
-554.427	63.864	-0.038	0.039
-553.412	118.028	0.122	-0.152
-552.398	-200.000	0.028	0.313
-551.383	-109.035	-0.246	0.053
-550.369	331.563	0.133	-0.260
-549.354	-80.306	-0.232	-0.079
-548.339	-141.413	-0.317	0.033
-547.325	-200.000	-0.073	0.423
-546.310	-17.643	0.195	-0.124
-545.296	-200.000	0.028	-0.312
-544.281	173.274	0.083	-0.121
-543.266	-41.780	-0.158	0.082
-542.252	690.640	-0.101	0.267
-541.237	-200.000	-0.019	0.126
-540.223	-58.522	-0.439	-0.193
-539.208	800.000	0.066	0.203
-538.193	800.000	-0.039	-0.122
-537.179	-200.000	-0.017	0.179
-536.164	-200.000	0.007	0.157
-535.150	-42.451	-0.269	-0.139
-534.135	-145.067	-0.204	0.019
-533.121	-200.000	0.027	-0.157
-532.106	154.654	-0.106	-0.148
-531.091	-76.724	0.296	-0.105
-530.077	-35.791	0.121	-0.067
-529.062	272.415	0.108	-0.194
-528.048	-72.863	0.105	0.039
-527.033	117.598	0.078	-0.097
-526.018	40.252	0.219	-0.200
-525.004	348.488	-0.033	0.065
-523.989	-4.541	0.320	0.224
-522.975	-37.648	0.268	-0.145
-521.960	-200.000	0.004	-0.256
-520.945	-14.905	-0.131	-0.085
-519.931	-200.000	0.004	0.232
-518.916	-102.347	-0.442	0.107
-517.902	-76.647	-0.185	0.066
-516.887	-195.137	-0.050	-0.000
-515.872	-26.633	0.247	0.147
-514.858	223.042	0.117	-0.190
-513.843	800.000	0.054	0.167
-512.829	225.512	-0.159	-0.261
-511.814	99.496	0.050	-0.059
-510.799	-200.000	-0.012	-0.067
-509.785	-60.022	0.053	-0.023
-508.770	130.282	0.134	-0.174
-507.756	57.104	0.221	-0.218
-506.741	-76.075	0.219	0.079
-505.726	800.000	-0.023	0.076
-504.712	-21.643	0.171	0.105
-503.697	0.878	-0.127	-0.092
-502.683	53.721	0.195	0.190
-501.668	-153.879	-0.203	0.014
-500.653	119.926	0.114	0.143
-499.639	-80.685	-0.220	0.074
-498.624	282.451	0.098	0.178
-497.610	800.000	-0.057	-0.193
-496.595	-159.772	-0.244	-0.014
-495.581	800.000	0.046	0.160
-494.566	120.992	-0.213	0.268
-493.551	176.213	0.125	0.184
-492.537	-41.917	-0.148	0.077
-491.522	-200.000	0.070	0.388
-490.508	-31.558	-0.208	-0.119
-489.493	-84.309	-0.140	0.045
-488.478	-110.794	-0.129	0.027
-487.464	414.845	-0.079	0.169
-486.449	-200.000	0.020	0.310
-485.435	-40.051	-0.285	-0.150
-484.420	800.000	-0.068	-0.260
-483.405	-9.757	-0.094	-0.063
-482.391	-102.243	-0.228	-0.055
-481.376	-37.434	0.184	-0.099
-480.362	25.629	0.124	-0.104
-479.347	222.241	0.087	-0.141
-478.332	-200.000	0.004	-0.035
-477.318	-73.041	-0.216	0.080
-476.303	-200.000	0.024	-0.228
-475.289	-174.227	-0.474	0.014
-474.274	-44.518	-0.274	-0.139
-473.259	641.592	-0.081	0.208
-472.245	-22.955	0.069	0.042
-471.230	141.258	0.151	0.202
-470.216	765.738	0.116	-0.318
-469.201	-200.000	-0.002	0.047
-468.186	126.067	-0.137	-0.175
-467.172	157.422	-0.161	-0.225
-466.157	152.103	-0.153	0.211
-465.143	50.994	0.047	-0.045
-464.128	9.636	-0.029	0.022
-463.113	32.791	0.077	0.067
-462.099	456.417	-0.058	0.131
-461.084	317.397	0.044	0.085
-460.070	136.685	0.200	0.263
-459.055	229.702	-0.162	-0.267
-458.040	-102.692	-0.214	0.052
-457.026	55.239	0.196	0.192
-456.011	-108.070	-0.174	-0.038
-454.997	-117.700	-0.108	0.020
-453.982	-56.583	0.194	0.087
-452.968	-27.383	0.089	0.053
-451.953	-197.804	-0.233	-0.001
-450.938	800.000	0.039	-0.117
-449.924	-59.636	0.331	0.144
-448.909	338.463	0.116	-0.228
-447.895	-200.000	0.049	-0.232
-446.880	-200.000	-0.011	0.080
-445.865	658.796	-0.130	0.337
-444.851	93.279	0.076	0.087
-443.836	-121.485	-0.059	-0.010
-442.822	346.954	0.108	0.216
-441.807	360.531	-0.108	0.218
-440.792	-14.280	-0.175	0.114
-439.778	131.476	-0.167	0.217
-438.763	205.719	0.129	0.202
-437.749	-200.000	0.013	0.184
-436.734	800.000	-0.016	-0.056
-435.719	-52.286	0.164	-0.077
-434.705	-200.000	0.014	-0.369
-433.690	-105.158	-0.198	0.046
-432.676	-34.966	-0.208	-0.115
-431.661	800.000	0.081	0.252
-430.646	-115.454	0.317	-0.060
-429.632	-157.810	0.411	-0.025
-428.617	-8.556	-0.123	0.083
-427.603	-200.000	0.025	0.155
-426.588	278.765	-0.199	-0.358
-425.573	141.641	0.023	-0.031
-424.559	-200.000	-0.021	0.402
-423.544	-140.525	-0.276	-0.029
-422.530	-200.000	0.003	0.215
-421.515	800.000	0.052	-0.180
-420.500	-145.296	0.170	-0.016
-419.486	45.360	-0.177	0.165
-418.471	129.125	-0.128	0.165
-417.457	-77.198	0.313	0.110
-416.442	188.646	-0.109	-0.164
-415.428	800.000	0.074	0.209
-414.413	-108.464	0.335	0.073
-413.398	-200.000	0.023	0.138
-412.384	222.050	0.103	0.167
-411.369	-200.000	-0.013	-0.093
-410.355	-82.449	0.154	0.050
-409.340	31.013	0.182	-0.157
-408.325	-187.653	0.171	-0.002
-407.311	-200.000	-0.017	-0.079
-406.296	142.868	-0.168	0.225
-405.282	261.441	0.133	-0.233
-404.267	-200.000	0.026	0.115
-403.252	21.056	0.225	0.184
-402.238	-0.969	-0.110	-0.078
-401.223	-82.721	0.100	-0.033
-400.209	-200.000	-0.044	0.220
-399.194	800.000	0.089	0.341
-398.179	-200.000	0.010	0.102
-397.165	40.889	-0.122	0.111
-396.150	237.378	-0.179	0.300
-395.136	584.408	-0.085	0.210
-394.121	112.096	-0.220	0.268
-393.106	-107.594	-0.128	0.028
-392.092	721.653	-0.055	0.147
-391.077	-82.296	-0.102	-0.033
-390.063	-162.282	0.029	0.001
-389.048	268.977	0.123	-0.217
-388.033	-200.000	-0.013	0.124
-387.019	-200.000	-0.040	0.363
-386.004	198.930	-0.036	0.056
-384.990	527.980	0.079	-0.188
-383.975	-200.000	0.011	-0.208
-382.960	288.649	0.072	0.131
-381.946	800.000	0.003	0.012
-380.931	14.989	0.224	0.176
-379.917	-61.420	0.108	-0.046
-378.902	145.381	-0.019	0.025
-377.888	67.090	-0.223	-0.229
-376.873	-200.000	0.026	-0.193
-375.858	29.138	0.274	0.234
-374.844	800.000	-0.095	-0.383
-373.829	284.060	-0.134	0.243
-372.815	-200.000	0.024	0.207
-371.800	-196.762	0.208	-0.001
-370.785	71.737	-0.088	0.093
-369.771	-72.659	-0.345	0.128
-368.756	57.010	-0.122	-0.120
-367.742	-200.000	-0.004	-0.100
-366.727	58.805	0.197	0.195
-365.712	99.090	-0.201	-0.234
-364.698	-37.500	0.166	-0.089
-363.683	260.469	-0.074	-0.129
-362.669	86.853	0.101	-0.112
-361.654	-200.000	-0.053	-0.335
-360.639	-163.636	-0.161	0.008
-359.625	-185.467	0.258	0.004
-358.610	-89.773	0.170	0.050
-357.596	429.141	0.014	0.031
-356.581	-161.275	0.234	0.012
-355.566	-200.000	0.032	0.206
-354.552	119.889	0.172	0.214
-353.537	-34.329	0.109	0.060
-352.523	10.080	-0.060	-0.046
-351.508	21.939	-0.266	0.219
-350.493	-200.000	0.006	0.156
-349.479	0.080	-0.177	0.127
-348.464	-146.194	0.254	0.023
-347.450	486.577	0.048	-0.110
-346.435	800.000	0.024	-0.094
-345.420	7.032	-0.296	-0.222
-344.406	122.302	-0.085	0.107
-343.391	800.000	-0.056	-0.237
-342.377	-200.000	-0.003	-0.027
-341.362	-31.415	0.065	-0.037
-340.348	586.241	0.134	0.332
-339.333	210.411	0.223	0.353
-338.318	-154.005	0.053	-0.004
-337.304	40.799	0.087	-0.079
-336.289	-75.628	0.336	-0.120
-335.275	-200.000	-0.019	0.337
-334.260	109.318	-0.143	-0.173
-333.245	47.242	0.245	-0.229
-332.231	149.471	-0.032	0.044
-331.216	278.894	-0.202	-0.362
-330.202	-200.000	-0.017	-0.335
-329.187	-116.846	-0.106	0.020
-328.172	-143.728	-0.302	-0.029
-327.158	-57.135	0.357	0.158
-326.143	82.931	-0.132	0.144
-325.129	7.671	0.182	-0.137
-324.114	172.059	0.124	-0.180
-323.099	-196.297	-0.251	0.002
-322.085	42.695	0.112	0.102
-321.070	-167.991	-0.131	0.005
-320.056	-100.394	0.094	0.023
-319.041	-22.996	0.363	-0.220
-318.026	-85.570	-0.290	-0.091
-317.012	-76.166	-0.066	0.023
-315.997	-200.000	0.024	0.281
-314.983	286.612	0.123	0.224
-313.968	6.026	-0.139	-0.104
-312.953	-137.977	0.210	0.024
-311.939	-94.304	0.299	0.082
-310.924	-121.141	0.216	-0.036
-309.910	27.321	-0.125	-0.106
-308.895	-30.081	-0.128	0.073
-307.880	-169.628	-0.165	0.006
-306.866	193.424	-0.084	-0.127
-305.851	-170.593	-0.228	0.008
-304.837	0.374	0.277	0.199
-303.822	79.124	0.093	-0.100
-302.807	-200.000	0.049	-0.221
-301.793	60.797	-0.192	-0.192
-300.778	280.124	-0.187	-0.337
-299.764	110.365	-0.045	-0.055
-298.749	169.082	0.117	0.168
-297.735	76.242	0.235	-0.250
-296.720	-45.787	-0.414	0.205
-295.705	-20.764	0.106	0.065
-294.691	640.352	-0.119	0.305
-293.676	-200.000	-0.002	-0.097
-292.662	-200.000	-0.082	-0.372
-291.647	-141.422	-0.262	0.027
-290.632	-144.746	0.194	0.018
-289.618	784.617	0.122	-0.337
-288.603	365.164	-0.172	-0.348
-287.589	-152.109	0.496	0.036
-286.574	-15.831	-0.212	0.135
-285.559	187.812	0.183	0.275
-284.545	-200.000	-0.008	0.119
-283.530	-96.471	-0.202	-0.054
-282.516	105.530	-0.112	0.132
-281.501	5.256	0.222	-0.164
-280.486	-200.000	0.005	0.152
-279.472	144.793	-0.041	0.055
-278.457	-130.308	0.139	0.019
-277.443	800.000	-0.055	-0.216
-276.428	78.221	0.154	-0.165
-275.413	99.317	0.351	-0.408
-274.399	-200.000	0.005	-0.061
-273.384	57.953	-0.117	-0.115
-272.370	-117.798	0.290	-0.052
-271.355	192.272	-0.287	0.435
-270.340	-6.000	0.127	-0.087
-269.326	13.362	-0.228	-0.178
-268.311	15.378	0.172	0.135
-267.297	-200.000	-0.076	0.466
-266.282	800.000	0.044	-0.169
-265.267	181.976	0.181	0.268
-264.253	-42.444	0.397	-0.203
-263.238	-200.000	0.049	0.269
-262.224	240.504	-0.139	-0.233
-261.209	-16.642	0.440	-0.279
-260.195	-22.337	0.186	0.113
-259.180	153.898	-0.269	-0.370
-258.165	-39.781	-0.132	-0.069
-257.151	-64.573	0.118	-0.048
-256.136	69.844	0.207	-0.215
-255.122	-147.091	-0.086	0.007
-254.107	-108.775	0.129	0.028
-253.092	182.391	-0.107	0.159
-252.078	98.245	0.122	0.141
-251.063	-28.541	0.145	0.084
-250.049	24.994	-0.180	0.150
-249.034	800.000	-0.040	0.111
-248.019	-84.631	0.147	-0.046
-247.005	-200.000	0.007	-0.050
-245.990	373.503	0.116	0.237
-244.976	130.250	0.183	0.235
-243.961	141.110	-0.130	0.173
-242.946	204.942	0.215	0.335
-241.932	800.000	0.076	0.224
-240.917	97.054	-0.107	-0.124
-239.903	-18.915	-0.081	-0.051
-238.888	-83.660	-0.369	0.118
-237.873	272.737	0.083	0.147
-236.859	-147.494	0.076	-0.006
-235.844	-4.060	-0.126	0.087
-234.830	103.446	0.061	-0.071
-233.815	-110.664	-0.265	0.055
-232.800	-122.284	-0.201	-0.033
-231.786	-33.422	0.102	0.056
-230.771	-200.000	-0.022	-0.127
-229.757	800.000	-0.030	0.098
-228.742	148.024	0.089	0.120
-227.727	-200.000	-0.013	0.130
-226.713	800.000	-0.045	0.172
-225.698	-20.091	-0.404	0.249
-224.684	-0.429	0.419	-0.298
-223.669	-95.371	-0.161	-0.043
-222.655	287.015	0.023	-0.041
-221.640	-190.177	-0.277	0.003
-220.625	-147.578	-0.438	-0.037
-219.611	-67.260	0.144	0.057
-218.596	54.713	-0.267	0.258
-217.582	-59.886	-0.101	0.043
-216.567	-145.216	0.230	0.021
-215.552	94.014	-0.055	0.062
-214.538	92.483	-0.075	-0.085
-213.523	-37.291	-0.137	-0.073
-212.509	-149.524	0.185	-0.015
-211.494	7.978	0.270	-0.203
-210.479	-200.000	0.013	0.125
-209.465	-200.000	0.096	0.504
-208.450	-200.000	0.018	0.195
-207.436	-135.843	0.185	-0.022
-206.421	800.000	0.076	0.278
-205.406	-83.068	0.069	0.022
-204.392	-200.000	-0.023	-0.202
-203.377	-172.454	0.100	-0.003
-202.363	-44.822	-0.206	0.103
-201.348	-55.351	0.167	-0.075
-200.333	83.504	-0.128	-0.140
-199.319	-37.016	-0.256	-0.137
-198.304	258.053	0.060	-0.103
-197.290	323.960	0.100	-0.191
-196.275	230.250	0.070	0.115
-195.260	12.345	-0.172	-0.133
-194.246	-200.000	-0.012	0.196
-193.231	214.020	-0.176	0.278
-192.217	-200.000	0.022	-0.169
-191.202	800.000	0.037	-0.154
-190.187	-159.082	0.319	0.018
-189.173	786.357	0.043	0.119
-188.158	-160.827	0.251	0.013
-187.144	-200.000	-0.004	-0.114
-186.129	-68.963	0.156	-0.060
-185.114	-156.611	0.148	0.009
-184.100	-6.926	-0.219	-0.149
-183.085	30.882	0.114	0.098
-182.071	55.723	0.218	-0.211
-181.056	188.544	0.156	-0.234
-180.042	662.935	0.063	0.164
-179.027	-14.671	-0.165	-0.106
-178.012	-30.187	0.124	-0.071
-176.998	86.606	-0.092	-0.101
-175.983	28.920	-0.190	0.161
-174.969	-200.000	-0.041	0.280
-173.954	176.487	-0.131	-0.190
-172.939	-123.106	0.299	0.048
-171.925	108.141	-0.146	0.174
-170.910	-160.239	0.112	0.006
-169.896	-40.451	-0.134	-0.070
-168.881	187.576	-0.041	0.060
-167.866	58.566	-0.117	-0.115
-166.852	-200.000	-0.064	-0.378
-165.837	33.857	-0.305	-0.265
-164.823	-200.000	-0.011	0.081
-163.808	800.000	0.023	0.092
-162.793	-102.524	-0.276	0.066
-161.779	432.677	-0.075	0.163
-160.764	-134.452	0.096	-0.012
-159.750	-80.910	-0.141	-0.047
-158.735	58.912	-0.067	0.066
-157.720	-72.216	0.159	-0.059
-156.706	-200.000	-0.037	0.290
-155.691	-200.000	0.035	0.289
-154.677	274.527	-0.141	0.250
-153.662	-131.417	0.529	0.070
-152.647	596.016	0.043	-0.105
-151.633	-200.000	-0.012	0.166
-150.618	165.188	-0.134	-0.189
-149.604	142.658	0.141	-0.187
-148.589	122.873	0.186	0.233
-147.574	-200.000	-0.019	0.168
-146.560	403.679	-0.102	-0.214
-145.545	145.011	0.164	-0.219
-144.531	404.327	0.131	-0.276
-143.516	-200.000	-0.009	-0.058
-142.502	800.000	-0.116	0.393
-141.487	-200.000	0.036	0.183
-140.472	62.694	0.068	0.068
-139.458	-48.171	0.383	-0.185
-138.443	12.604	0.373	0.288
-137.429	37.466	-0.092	-0.081
-136.414	-200.000	-0.032	-0.187
-135.399	164.989	0.263	0.370
-134.385	148.490	-0.231	-0.311
-133.370	2.416	0.291	-0.210
-132.356	-200.000	0.025	0.212
-131.341	-92.603	-0.167	-0.047
-130.326	-200.000	-0.035	0.178
-129.312	-119.080	0.339	-0.059
-128.297	-78.204	0.121	0.041
-127.283	91.031	0.030	0.033
-126.268	74.542	0.217	0.228
-125.253	800.000	0.044	-0.175
-124.239	35.704	0.073	0.064
-123.224	-41.607	-0.155	-0.080
-122.210	239.453	-0.066	-0.109
