DTS Sentinel unit serial number:	SN413079Multiplexer serial number:	ORYXHardware model number:	OX4-SRSoftware version number:	ORYX F/W v4.00 Oryx Data Collector v3.7.2.0data status	okinstallation	princeton_trtdifferential loss correction	single-endedforward channel	channel 1reverse channel	N/Adate	2019/09/13time	22:46:35forward acquisition time	60.00reverse acquisition time	0.00gamma	496.2192k internal	0.2333k external	0.2333temperature offset calibration	1.0088default loss term (dB/km)	0.3790temperature slope calibration	1.0000multiplexer offset coefficient	1.0000multiplexer slope coefficient	1.0000fibre end	0.00T internal ref (°C)	27.56T ext. ref 1 (°C)	3.22T ext. ref 2 (°C)	21.62length (m)	temperature (°C)	Stokes	anti-Stokes-747.200	-200.000	-0.016	-0.413
-746.185	89.420	-0.182	0.203
-745.171	800.000	0.116	-0.366
-744.156	-200.000	0.046	0.392
-743.142	63.905	0.106	0.107
-742.127	-200.000	-0.079	0.428
-741.112	-52.604	0.311	0.145
-740.098	-200.000	0.002	0.031
-739.083	-118.807	0.150	0.027
-738.069	-150.992	-0.267	0.020
-737.054	106.178	0.218	-0.259
-736.039	89.768	-0.044	-0.049
-735.025	128.139	0.137	-0.175
-734.010	21.750	-0.076	0.062
-732.996	-200.000	-0.050	-0.288
-731.981	-200.000	0.012	-0.195
-730.966	800.000	-0.032	-0.105
-729.952	-65.383	-0.131	-0.053
-728.937	-55.633	0.426	-0.192
-727.923	-121.989	-0.237	0.039
-726.908	482.009	-0.081	0.185
-725.894	-125.763	-0.304	0.046
-724.879	-148.694	-0.159	0.013
-723.864	-118.615	-0.255	0.045
-722.850	800.000	0.028	0.086
-721.835	473.136	0.107	-0.243
-720.821	-200.000	0.035	-0.203
-719.806	488.240	-0.124	0.285
-718.791	-109.414	0.043	0.009
-717.777	-40.012	0.185	0.097
-716.762	-200.000	0.004	0.061
-715.748	-200.000	0.009	-0.050
-714.733	-101.929	0.083	-0.020
-713.718	-46.579	0.066	0.033
-712.704	-8.426	-0.129	0.087
-711.689	-45.496	-0.066	-0.033
-710.675	192.793	-0.199	-0.302
-709.660	-5.210	0.102	0.071
-708.645	-7.716	0.025	0.017
-707.631	483.642	-0.021	-0.048
-706.616	800.000	-0.093	-0.351
-705.602	68.878	0.157	0.162
-704.587	-200.000	-0.010	-0.456
-703.572	-14.849	0.044	0.028
-702.558	-128.969	-0.253	0.036
-701.543	368.751	0.119	0.242
-700.529	55.044	-0.071	-0.069
-699.514	800.000	0.049	-0.152
-698.499	23.400	-0.059	-0.049
-697.485	62.782	0.037	-0.038
-696.470	-200.000	-0.008	-0.105
-695.456	-200.000	-0.092	0.502
-694.441	-200.000	0.032	-0.146
-693.426	197.455	-0.058	-0.089
-692.412	-49.471	0.330	0.158
-691.397	133.726	0.232	0.301
-690.383	-33.061	0.062	0.035
-689.368	19.175	-0.387	-0.311
-688.354	116.956	0.067	-0.083
-687.339	-122.956	-0.186	-0.030
-686.324	-200.000	-0.096	0.444
-685.310	-200.000	0.000	0.016
-684.295	53.447	-0.153	0.147
-683.281	-169.807	-0.229	-0.008
-682.266	40.888	0.309	0.280
-681.251	-119.358	-0.332	-0.058
-680.237	-156.002	-0.251	0.016
-679.222	-96.273	0.237	-0.063
-678.208	191.398	-0.073	-0.111
-677.193	800.000	0.031	0.132
-676.178	-130.829	0.196	-0.026
-675.164	-117.151	-0.089	0.016
-674.149	-84.306	-0.112	-0.035
-673.135	-112.417	0.096	0.019
-672.120	35.190	-0.176	-0.154
-671.105	-55.184	0.207	0.093
-670.091	424.423	-0.032	0.069
-669.076	163.130	-0.158	-0.223
-668.062	-128.627	-0.046	-0.007
-667.047	-200.000	0.039	0.292
-666.032	-94.632	-0.484	-0.132
-665.018	-52.921	-0.090	0.041
-664.003	10.484	-0.073	0.056
-662.989	608.194	0.096	-0.240
-661.974	-89.395	0.287	0.085
-660.959	131.101	-0.181	0.233
-659.945	98.423	0.023	-0.027
-658.930	343.109	0.181	-0.356
-657.916	16.946	-0.248	0.197
-656.901	-200.000	-0.040	-0.299
-655.886	140.487	-0.328	0.434
-654.872	44.532	0.255	-0.234
-653.857	800.000	-0.091	-0.298
-652.843	258.818	0.318	-0.549
-651.828	-70.629	-0.060	-0.023
-650.814	-46.564	-0.183	0.090
-649.799	-65.020	0.077	-0.031
-648.784	-105.868	0.075	-0.017
-647.770	47.469	-0.198	-0.185
-646.755	43.581	0.119	0.109
-645.741	13.972	-0.088	-0.069
-644.726	-18.710	-0.029	-0.018
-643.711	162.902	-0.162	-0.227
-642.697	-78.270	-0.159	0.055
-641.682	-24.870	0.173	-0.103
-640.668	128.701	-0.235	0.300
-639.653	-177.670	0.187	0.005
-638.638	-200.000	0.020	-0.192
-637.624	-47.131	0.246	0.120
-636.609	307.169	-0.050	0.093
-635.595	123.545	-0.297	0.372
-634.580	-90.325	0.441	0.128
-633.565	-20.889	0.242	0.149
-632.551	-95.991	-0.088	-0.023
-631.536	79.601	0.278	-0.299
-630.522	731.668	0.074	-0.198
-629.507	-138.948	-0.203	-0.022
-628.492	-200.000	-0.113	-0.510
-627.478	-39.418	-0.249	0.131
-626.463	-111.088	0.259	0.053
-625.449	-200.000	0.001	-0.159
-624.434	-41.923	-0.304	0.156
-623.419	-200.000	0.020	0.146
-622.405	-39.212	0.109	-0.057
-621.390	75.219	0.144	0.152
-620.376	26.320	-0.076	0.064
-619.361	264.685	0.157	0.274
-618.346	-137.219	0.230	-0.026
-617.332	-97.090	0.011	0.003
-616.317	173.412	0.170	0.246
-615.303	800.000	-0.099	0.294
-614.288	126.652	0.121	-0.154
-613.273	184.756	0.174	0.257
-612.259	-67.387	-0.356	-0.140
-611.244	498.274	0.096	-0.221
-610.230	-200.000	-0.027	-0.210
-609.215	-147.904	-0.124	-0.010
-608.201	800.000	-0.101	-0.281
-607.186	-50.795	0.367	-0.173
-606.171	-71.447	-0.418	0.156
-605.157	-122.582	-0.154	0.025
-604.142	-50.461	0.112	-0.053
-603.128	-23.304	0.139	-0.084
-602.113	352.251	-0.034	-0.067
-601.098	338.102	0.069	0.134
-600.084	-200.000	0.006	0.179
-599.069	-66.346	0.287	-0.114
-598.055	159.124	0.089	-0.123
-597.040	-78.780	-0.253	-0.086
-596.025	-55.276	-0.217	0.097
-595.011	-122.381	-0.406	-0.066
-593.996	-169.208	0.227	-0.008
-592.982	800.000	-0.037	0.131
-591.967	273.509	0.054	0.095
-590.952	6.776	-0.173	0.129
-589.938	118.247	0.137	-0.168
-588.923	800.000	-0.038	0.155
-587.909	-200.000	0.000	0.108
-586.894	-22.801	0.156	0.094
-585.879	198.901	-0.161	0.246
-584.865	-56.948	-0.125	-0.055
-583.850	400.867	0.039	0.081
-582.836	800.000	0.095	-0.319
-581.821	800.000	-0.080	0.314
-580.806	149.583	0.168	-0.227
-579.792	-145.701	-0.225	0.020
-578.777	-200.000	-0.013	-0.325
-577.763	-21.424	-0.141	-0.086
-576.748	150.976	-0.071	0.097
-575.733	-200.000	-0.022	-0.314
-574.719	75.850	0.179	-0.189
-573.704	-2.118	-0.118	-0.083
-572.690	-76.164	0.241	0.085
-571.675	19.902	0.438	-0.353
-570.661	403.498	-0.055	0.116
-569.646	-200.000	-0.009	-0.173
-568.631	15.870	0.093	0.073
-567.617	736.285	-0.072	-0.192
-566.602	192.225	-0.153	-0.230
-565.588	-43.779	-0.232	-0.117
-564.573	-200.000	0.072	-0.342
-563.558	-150.206	-0.168	-0.013
-562.544	-58.570	0.329	0.143
-561.529	745.779	-0.167	0.450
-560.515	-200.000	-0.007	0.213
-559.500	18.986	0.144	0.115
-558.485	800.000	-0.028	0.087
-557.471	-122.119	-0.286	-0.047
-556.456	-200.000	-0.008	-0.105
-555.442	-161.142	0.141	0.007
-554.427	-200.000	-0.065	-0.318
-553.412	-169.875	0.206	-0.007
-552.398	-200.000	-0.008	0.130
-551.383	470.404	-0.045	-0.101
-550.369	800.000	0.014	0.049
-549.354	462.176	0.186	-0.414
-548.339	-200.000	-0.071	0.000
-547.325	-200.000	-0.005	-0.189
-546.310	-14.907	0.091	-0.058
-545.296	5.050	0.080	-0.059
-544.281	535.135	-0.049	-0.117
-543.266	-200.000	0.022	-0.371
-542.252	-110.243	0.301	0.062
-541.237	213.875	0.068	-0.107
-540.223	-112.618	0.158	-0.031
-539.208	-58.218	0.217	0.094
-538.193	74.686	-0.032	0.034
-537.179	-132.129	-0.185	0.024
-536.164	-159.118	0.387	0.022
-535.150	-134.140	0.272	0.033
-534.135	-5.337	0.078	-0.054
-533.121	-200.000	-0.002	-0.019
-532.106	-45.142	0.117	0.058
-531.091	208.785	0.149	-0.233
-530.077	-200.000	-0.005	0.143
-529.062	225.086	0.105	0.170
-528.048	-98.850	0.401	-0.102
-527.033	-66.594	-0.177	-0.070
-526.018	-130.863	0.230	0.031
-525.004	800.000	-0.107	-0.305
-523.989	-28.674	0.058	-0.033
-522.975	-200.000	-0.003	-0.057
-521.960	69.400	0.044	0.045
-520.945	-141.325	-0.210	0.021
-519.931	523.575	0.084	0.198
-518.916	55.965	-0.142	-0.138
-517.902	16.930	0.169	0.133
-516.887	-200.000	0.052	0.337
-515.872	-53.700	-0.131	-0.060
-514.858	187.577	-0.071	0.106
-513.843	-200.000	0.072	0.383
-512.829	538.343	0.111	0.263
-511.814	-94.196	-0.363	0.099
-510.799	-175.671	0.351	-0.009
-509.785	28.904	0.249	-0.210
-508.770	800.000	-0.029	0.092
-507.756	-200.000	-0.030	0.254
-506.741	-200.000	-0.041	0.181
-505.726	-76.185	-0.137	0.048
-504.712	123.687	-0.162	-0.203
-503.697	57.857	0.238	-0.232
-502.683	-109.138	-0.518	0.110
-501.668	-99.343	-0.079	-0.020
-500.653	-200.000	-0.069	0.380
-499.639	-88.338	-0.081	0.024
-498.624	-76.732	0.262	-0.091
-497.610	-81.245	0.074	-0.024
-496.595	-85.946	-0.061	0.019
-495.581	-200.000	-0.151	-0.000
-494.566	341.528	-0.083	-0.162
-493.551	32.348	-0.313	0.269
-492.537	-96.178	-0.204	0.054
-491.522	-75.150	0.224	-0.080
-490.508	-109.754	-0.174	-0.036
-489.493	-200.000	-0.036	0.423
-488.478	-58.189	0.198	-0.086
-487.464	800.000	-0.108	0.354
-486.449	-101.463	-0.231	0.056
-485.435	127.486	0.052	0.066
-484.420	-104.505	0.238	-0.055
-483.405	-98.275	0.175	0.045
-482.391	-56.895	0.172	-0.076
-481.376	-200.000	-0.014	-0.271
-480.362	-65.333	0.133	0.053
-479.347	-200.000	-0.218	0.001
-478.332	-16.435	-0.098	0.062
-477.318	-119.903	0.145	0.025
-476.303	-5.822	-0.136	-0.093
-475.289	-61.194	0.210	-0.088
-474.274	313.365	-0.111	0.207
-473.259	800.000	0.101	0.407
-472.245	100.142	0.223	0.257
-471.230	-200.000	-0.047	0.319
-470.216	121.125	0.170	-0.211
-469.201	-59.274	0.101	-0.043
-468.186	-200.000	0.014	0.270
-467.172	-200.000	-0.048	-0.259
-466.157	800.000	0.055	-0.230
-465.143	800.000	-0.027	0.112
-464.128	165.589	-0.213	-0.299
-463.113	233.325	0.053	-0.086
-462.099	278.735	-0.175	-0.311
-461.084	-200.000	0.032	0.291
-460.070	-31.863	0.117	0.065
-459.055	46.982	-0.281	-0.260
-458.040	800.000	0.175	-0.487
-457.026	-81.476	0.257	-0.084
-456.011	78.116	0.137	-0.145
-454.997	-108.646	0.268	0.057
-453.982	-52.440	0.194	0.089
-452.968	662.730	-0.095	0.242
-451.953	13.646	-0.157	-0.122
-450.938	32.241	0.053	-0.045
-449.924	351.879	-0.154	0.303
-448.909	-44.908	-0.065	-0.032
-447.895	-63.682	-0.163	0.067
-446.880	-61.717	-0.165	-0.069
-445.865	597.193	-0.037	0.092
-444.851	-8.477	0.163	0.109
-443.836	-31.259	0.086	0.048
-442.822	-200.000	-0.008	-0.203
-441.807	331.354	-0.085	-0.163
-440.792	-29.605	0.235	-0.133
-439.778	119.049	-0.052	0.064
-438.763	43.727	-0.213	0.194
-437.749	156.554	0.284	0.389
-436.734	122.153	-0.232	0.288
-435.719	-200.000	0.004	0.021
-434.705	72.271	0.105	0.109
-433.690	207.771	0.091	-0.141
-432.676	-24.449	0.135	-0.080
-431.661	604.697	-0.107	0.264
-430.646	-200.000	0.016	0.319
-429.632	-200.000	0.016	0.138
-428.617	-19.274	-0.214	0.132
-427.603	-57.483	-0.063	0.028
-426.588	-125.477	-0.213	-0.032
-425.573	20.941	-0.270	-0.217
-424.559	-77.682	0.078	-0.027
-423.544	40.046	-0.311	-0.277
-422.530	37.889	0.142	-0.126
-421.515	-62.726	0.320	0.132
-420.500	-200.000	-0.032	-0.198
-419.486	66.231	0.070	0.071
-418.471	-115.593	-0.185	-0.035
-417.457	79.664	0.206	-0.219
-416.442	433.931	0.049	-0.105
-415.428	800.000	0.107	-0.451
-414.413	-114.862	0.322	-0.061
-413.398	800.000	0.013	0.055
-412.384	-15.514	0.213	-0.135
-411.369	330.800	-0.178	0.340
-410.355	84.862	-0.158	0.171
-409.340	-140.219	-0.043	0.005
-408.325	274.721	-0.110	0.194
-407.311	-200.000	-0.004	0.028
-406.296	-27.615	0.037	0.021
-405.282	122.365	0.176	0.219
-404.267	45.606	0.191	0.175
-403.252	800.000	0.034	0.126
-402.238	343.047	-0.092	0.178
-401.223	800.000	-0.066	-0.250
-400.209	113.014	-0.172	0.207
-399.194	800.000	0.033	-0.116
-398.179	111.760	-0.359	-0.430
-397.165	-110.245	-0.182	-0.038
-396.150	-60.689	0.140	-0.059
-395.136	-63.853	-0.178	-0.072
-394.121	-104.519	0.131	0.030
-393.106	-83.253	-0.158	0.050
-392.092	800.000	0.084	0.240
-391.077	27.690	0.211	0.176
-390.063	-53.838	0.294	-0.133
-389.048	800.000	0.031	0.085
-388.033	383.067	0.134	0.273
-387.019	101.263	0.210	0.243
-386.004	123.150	-0.085	-0.105
-384.990	-86.890	0.373	0.113
-383.975	-47.057	-0.029	-0.014
-382.960	71.919	0.085	0.088
-381.946	-154.987	-0.241	0.016
-380.931	-34.632	-0.227	0.123
-379.917	141.815	-0.248	-0.326
-378.902	350.138	-0.077	-0.150
-377.888	12.202	-0.315	0.241
-376.873	-50.648	-0.151	-0.070
-375.858	-200.000	-0.017	-0.075
-374.844	-9.084	0.259	-0.172
-373.829	-200.000	0.015	0.308
-372.815	-34.129	0.202	0.110
-371.800	8.135	-0.118	0.088
-370.785	154.784	-0.128	-0.175
-369.771	-2.471	0.139	-0.096
-368.756	-112.387	0.272	0.054
-367.742	109.623	0.216	0.257
-366.727	-100.830	-0.280	-0.068
-365.712	800.000	0.094	0.267
-364.698	-75.812	0.042	-0.015
-363.683	8.370	-0.173	-0.129
-362.669	-166.666	-0.323	0.013
-361.654	87.937	-0.075	0.083
-360.639	-200.000	0.069	0.330
-359.625	-95.371	0.347	0.092
-358.610	200.071	-0.067	0.102
-357.596	-101.781	-0.115	-0.028
-356.581	-200.000	0.013	0.215
-355.566	20.896	-0.176	0.141
-354.552	207.658	0.289	0.446
-353.537	-34.075	-0.286	0.156
-352.523	-200.000	0.002	0.203
-351.508	-58.766	-0.223	-0.096
-350.493	106.128	-0.084	0.099
-349.479	-200.000	0.004	0.375
-348.464	250.587	0.074	-0.125
-347.450	-200.000	-0.040	-0.291
-346.435	148.906	0.204	-0.273
-345.420	-200.000	-0.016	-0.175
-344.406	-109.365	-0.048	0.010
-343.391	-39.522	0.382	0.198
-342.377	-149.806	0.016	-0.001
-341.362	800.000	0.136	0.422
-340.348	-93.897	-0.015	0.004
-339.333	414.703	0.045	-0.094
-338.318	-101.326	-0.182	0.044
-337.304	14.787	-0.299	0.231
-336.289	368.967	-0.142	-0.285
-335.275	-200.000	-0.053	-0.336
-334.260	-176.880	-0.122	-0.003
-333.245	-200.000	0.014	-0.094
-332.231	800.000	0.079	0.267
-331.216	-78.351	-0.124	-0.042
-330.202	153.551	-0.076	-0.103
-329.187	13.465	0.054	-0.041
-328.172	-176.324	-0.106	0.003
-327.158	287.918	-0.074	0.133
-326.143	800.000	0.098	0.329
-325.129	701.392	0.090	0.235
-324.114	-119.084	-0.363	0.063
-323.099	42.615	-0.182	0.164
-322.085	23.104	-0.187	-0.152
-321.070	-12.186	-0.253	0.164
-320.056	280.131	-0.140	-0.247
-319.041	-200.000	-0.016	-0.366
-318.026	-20.990	0.201	0.122
-317.012	110.001	0.192	0.227
-315.997	-200.000	-0.039	0.388
-314.983	-58.907	-0.308	0.132
-313.968	163.446	-0.138	0.192
-312.953	581.035	0.154	-0.373
-311.939	681.211	-0.050	-0.127
-310.924	117.166	-0.123	-0.149
-309.910	-99.110	0.113	-0.028
-308.895	27.611	0.440	-0.366
-307.880	149.474	-0.147	0.197
-306.866	800.000	-0.063	0.224
-305.851	-62.153	0.348	0.144
-304.837	-200.000	-0.008	-0.265
-303.822	39.173	-0.252	0.223
-302.807	257.721	-0.131	-0.223
-301.793	641.236	-0.130	0.328
-300.778	220.753	-0.247	-0.391
-299.764	-48.040	-0.392	-0.187
-298.749	-112.655	0.408	-0.080
-297.735	800.000	0.089	-0.364
-296.720	-200.000	0.027	-0.148
-295.705	-57.657	0.305	0.132
-294.691	-200.000	-0.067	-0.314
-293.676	-112.888	0.123	-0.024
-292.662	-67.269	-0.223	-0.087
-291.647	-158.180	0.140	0.008
-290.632	40.238	-0.156	-0.139
-289.618	-25.915	-0.166	-0.097
-288.603	-145.265	-0.147	-0.013
-287.589	-20.714	0.172	0.104
-286.574	-73.611	-0.322	0.116
-285.559	27.253	0.363	0.301
-284.545	614.276	0.046	-0.114
-283.530	71.052	0.119	0.122
-282.516	-115.515	-0.374	0.069
-281.501	59.681	-0.039	-0.038
-280.486	21.671	-0.010	0.008
-279.472	93.141	0.119	0.132
-278.457	-28.753	-0.239	0.136
-277.443	800.000	0.044	-0.155
-276.428	161.115	-0.191	0.264
-275.413	-19.532	-0.041	-0.025
-274.399	-22.754	-0.162	-0.097
-273.384	-104.975	-0.311	-0.070
-272.370	173.278	-0.110	0.156
-271.355	-200.000	-0.003	-0.065
-270.340	-200.000	0.036	-0.351
-269.326	-124.146	-0.176	-0.027
-268.311	12.016	0.411	-0.312
-267.297	77.812	0.143	0.151
-266.282	-6.352	-0.276	-0.186
-265.267	35.666	0.159	-0.137
-264.253	-200.000	0.045	-0.242
-263.238	720.109	-0.060	-0.157
-262.224	743.705	-0.042	0.111
-261.209	-77.650	0.148	0.051
-260.195	-200.000	-0.041	-0.247
-259.180	-109.404	-0.117	-0.024
-258.165	-30.408	0.279	0.156
-257.151	-171.496	0.083	0.003
-256.136	29.078	0.061	0.051
-255.122	-90.381	-0.108	0.031
-254.107	-61.155	-0.192	0.080
-253.092	800.000	0.034	0.144
-252.078	-94.926	-0.157	0.042
-251.063	-30.255	0.098	0.055
-250.049	-66.259	-0.530	-0.208
-249.034	-200.000	-0.021	0.324
-248.019	90.383	-0.181	-0.200
-247.005	-82.621	-0.101	0.032
-245.990	-200.000	0.000	-0.084
-244.976	3.396	-0.262	0.188
-243.961	43.662	0.130	-0.117
-242.946	-163.928	-0.060	-0.003
-241.932	-98.085	0.103	0.026
-240.917	-47.803	-0.135	0.064
-239.903	-200.000	-0.011	0.243
-238.888	-84.651	-0.312	-0.097
-237.873	-36.242	-0.211	0.112
-236.859	-138.657	0.187	-0.020
-235.844	-160.592	0.264	-0.014
-234.830	569.750	0.033	-0.079
-233.815	-200.000	0.002	0.039
-232.800	-89.157	0.442	-0.129
-231.786	-67.511	0.309	-0.120
-230.771	2.515	0.102	-0.073
-229.757	-200.000	-0.035	-0.199
-228.742	-200.000	0.029	-0.158
-227.727	627.622	-0.119	-0.295
-226.713	47.348	-0.222	-0.204
-225.698	693.229	0.073	0.189
-224.684	-144.634	-0.362	0.033
-223.669	66.287	0.087	-0.087
-222.655	800.000	0.039	0.130
-221.640	509.705	-0.030	0.068
-220.625	750.934	0.157	0.418
-219.611	-113.752	-0.272	-0.052
-218.596	12.449	0.145	0.110
-217.582	383.765	0.229	0.465
-216.567	418.991	-0.174	0.367
-215.552	-62.115	0.149	0.061
-214.538	28.073	0.220	-0.182
-213.523	-170.386	0.135	-0.005
-212.509	-47.146	-0.229	-0.110
-211.494	62.266	-0.123	0.121
-210.479	-131.969	0.270	-0.035
-209.465	-153.181	-0.253	0.017
-208.450	-123.602	0.195	0.031
-207.436	-148.094	0.132	-0.011
-206.421	-40.264	0.155	-0.079
-205.406	-200.000	-0.004	-0.233
-204.392	-7.871	-0.078	0.052
-203.377	164.887	-0.175	0.243
-202.363	-107.212	0.379	0.082
-201.348	3.734	-0.174	-0.125
-200.333	31.907	-0.098	-0.083
-199.319	-200.000	0.015	0.151
-198.304	178.653	-0.091	0.131
-197.290	35.701	0.139	-0.120
-196.275	-200.000	0.013	-0.081
-195.260	273.718	0.116	-0.202
-194.246	-170.566	-0.128	-0.004
-193.231	-200.000	-0.001	0.253
-192.217	133.647	-0.041	-0.052
-191.202	529.577	0.090	-0.209
-190.187	390.362	-0.032	-0.066
-189.173	625.060	-0.094	-0.234
-188.158	-36.309	-0.168	-0.089
-187.144	249.064	0.112	-0.187
-186.129	53.158	0.256	-0.241
-185.114	-61.999	-0.235	0.097
-184.100	800.000	-0.014	-0.049
-183.085	800.000	0.003	0.010
-182.071	-59.496	-0.212	0.090
-181.056	-48.747	0.209	-0.098
-180.042	-200.000	-0.031	-0.188
-179.027	81.743	0.114	-0.121
-178.012	-26.298	0.094	-0.054
-176.998	62.919	-0.090	-0.089
-175.983	396.689	0.070	-0.143
-174.969	-200.000	0.012	0.066
-173.954	-60.009	0.248	-0.104
-172.939	-10.885	0.228	0.148
-171.925	800.000	-0.070	0.272
-170.910	131.095	-0.078	0.098
-169.896	296.727	0.041	0.075
-168.881	-4.412	0.183	-0.124
-167.866	-200.000	0.008	0.139
-166.852	184.370	-0.091	-0.133
-165.837	-200.000	0.058	-0.291
-164.823	800.000	-0.063	0.182
-163.808	-49.299	-0.184	-0.086
-162.793	800.000	0.007	0.023
-161.779	745.448	0.073	-0.193
-160.764	-41.232	-0.379	-0.192
-159.750	173.453	0.073	-0.103
-158.735	413.340	-0.080	-0.167
-157.720	-100.454	-0.065	0.016
-156.706	-42.219	0.236	-0.118
-155.691	-18.895	0.083	-0.051
-154.677	788.911	0.071	-0.191
-153.662	101.167	0.113	-0.129
-152.647	-152.710	-0.163	0.011
-151.633	50.820	0.167	-0.155
-150.618	-73.084	0.264	0.095
-149.604	-37.664	-0.146	-0.076
-148.589	-79.093	0.149	-0.050
-147.574	713.511	0.185	-0.482
-146.560	292.226	0.172	-0.307
-145.545	-107.014	-0.074	0.016
-144.531	-103.927	0.418	0.096
-143.516	-59.407	0.323	0.137
-142.502	238.192	0.118	0.192
-141.487	-200.000	0.000	-0.201
-140.472	-200.000	0.277	-0.001
-139.458	-16.096	-0.376	0.235
-138.443	-16.765	0.161	0.100
-137.429	-43.814	0.036	0.018
-136.414	436.523	0.090	0.192
-135.399	570.148	-0.088	-0.211
-134.385	433.157	-0.094	-0.200
-133.370	-138.518	-0.294	0.032
-132.356	-28.383	0.350	-0.198
-131.341	-26.864	0.298	0.171
-130.326	-200.000	-0.019	0.346
-129.312	-4.718	-0.129	0.088
-128.297	50.470	0.326	-0.302
-127.283	800.000	0.045	-0.174
-126.268	40.542	-0.062	0.055
-125.253	593.850	-0.100	0.241
-124.239	-129.439	-0.209	0.028
-123.224	-200.000	0.002	-0.088
-122.210	326.669	0.173	-0.325
-121.195	-93.847	-0.457	0.123
