DTS Sentinel unit serial number:	SN413079Multiplexer serial number:	ORYXHardware model number:	OX4-SRSoftware version number:	ORYX F/W v4.00 Oryx Data Collector v3.7.2.0data status	okinstallation	princeton_trtdifferential loss correction	single-endedforward channel	channel 1reverse channel	N/Adate	2019/09/11time	21:56:11forward acquisition time	60.00reverse acquisition time	0.00gamma	496.2192k internal	0.2312k external	0.2312temperature offset calibration	1.0056default loss term (dB/km)	0.3790temperature slope calibration	1.0000multiplexer offset coefficient	1.0000multiplexer slope coefficient	1.0000fibre end	0.00T internal ref (°C)	35.59T ext. ref 1 (°C)	1.79T ext. ref 2 (°C)	29.61length (m)	temperature (°C)	Stokes	anti-Stokes-747.200	128.119	-0.099	0.128
-746.185	327.615	-0.194	0.377
-745.171	-69.082	-0.260	0.102
-744.156	510.527	0.092	0.217
-743.142	5.099	-0.139	-0.104
-742.127	118.304	-0.261	0.326
-741.112	-200.000	-0.026	0.258
-740.098	800.000	0.099	0.310
-739.083	800.000	0.037	-0.106
-738.069	-200.000	-0.080	0.000
-737.054	800.000	0.020	-0.086
-736.039	206.098	-0.205	0.323
-735.025	-200.000	-0.033	0.443
-734.010	-190.315	-0.203	-0.002
-732.996	-200.000	0.054	-0.404
-731.981	-200.000	0.030	-0.251
-730.966	-200.000	0.016	0.221
-729.952	216.201	-0.255	0.410
-728.937	183.516	0.136	0.204
-727.923	-95.560	-0.287	-0.078
-726.908	-130.736	-0.169	-0.023
-725.894	-104.369	-0.229	0.054
-724.879	800.000	0.073	-0.293
-723.864	-59.757	-0.219	-0.095
-722.850	-200.000	0.006	-0.586
-721.835	-102.319	-0.274	-0.067
-720.821	-64.875	-0.259	-0.106
-719.806	-110.038	-0.489	0.104
-718.791	-102.496	-0.312	-0.076
-717.777	37.739	-0.410	-0.369
-716.762	-200.000	-0.012	0.419
-715.748	-135.092	-0.247	0.030
-714.733	800.000	0.070	0.225
-713.718	-200.000	0.028	0.246
-712.704	751.095	0.027	-0.073
-711.689	-96.219	0.156	-0.042
-710.675	-131.606	0.243	0.032
-709.660	37.632	0.164	-0.147
-708.645	340.060	0.136	-0.268
-707.631	-26.865	-0.208	0.123
-706.616	-59.902	0.243	0.105
-705.602	-15.072	0.134	0.087
-704.587	-69.473	-0.253	-0.098
-703.572	-88.861	-0.472	-0.142
-702.558	-143.840	-0.335	-0.032
-701.543	380.571	0.125	-0.259
-700.529	800.000	-0.060	-0.195
-699.514	-73.810	-0.254	0.093
-698.499	112.379	-0.119	-0.146
-697.485	-37.053	-0.229	0.124
-696.470	616.539	-0.040	-0.102
-695.456	321.593	-0.035	-0.068
-694.441	-64.923	-0.196	0.080
-693.426	-200.000	0.050	-0.555
-692.412	-200.000	-0.000	-0.144
-691.397	-80.266	0.058	0.020
-690.383	188.287	0.258	-0.390
-689.368	158.892	0.190	-0.267
-688.354	210.273	0.101	0.161
-687.339	-93.433	-0.265	0.074
-686.324	40.125	-0.165	-0.150
-685.310	800.000	-0.029	0.085
-684.295	-56.474	-0.041	0.018
-683.281	-135.256	0.050	0.006
-682.266	800.000	-0.071	-0.285
-681.251	-154.139	0.026	-0.002
-680.237	-169.007	0.102	0.004
-679.222	-157.269	0.033	0.002
-678.208	302.815	0.112	-0.210
-677.193	-56.066	-0.259	0.117
-676.178	348.233	0.162	0.324
-675.164	-45.605	-0.449	0.225
-674.149	396.627	-0.147	-0.312
-673.135	287.505	0.020	-0.037
-672.120	-195.302	0.060	0.000
-671.105	65.485	-0.229	0.235
-670.091	800.000	-0.025	-0.075
-669.076	-52.564	0.083	0.039
-668.062	-143.701	0.237	0.023
-667.047	-37.869	-0.160	0.086
-666.032	-200.000	0.015	0.451
-665.018	-147.826	-0.381	0.032
-664.003	229.120	-0.048	-0.079
-662.989	800.000	-0.032	0.133
-661.974	739.313	0.091	-0.247
-660.959	134.705	-0.083	-0.109
-659.945	-3.852	-0.082	-0.058
-658.930	-136.130	-0.260	-0.031
-657.916	-57.779	-0.295	0.131
-656.901	-42.032	-0.154	-0.080
-655.886	15.769	-0.429	0.342
-654.872	-137.368	0.357	-0.041
-653.857	123.082	0.231	0.292
-652.843	-55.416	-0.170	-0.077
-651.828	327.088	-0.051	-0.099
-650.814	-200.000	0.008	0.301
-649.799	-1.642	-0.311	-0.221
-648.784	-39.407	-0.080	-0.043
-647.770	-200.000	-0.007	0.081
-646.755	-200.000	-0.009	-0.041
-645.741	-16.125	0.156	0.100
-644.726	-134.562	0.130	-0.016
-643.711	-190.192	-0.266	0.003
-642.697	-39.757	-0.312	-0.165
-641.682	-74.266	0.211	0.077
-640.668	-200.000	-0.017	-0.107
-639.653	800.000	0.067	-0.235
-638.638	244.020	0.136	0.231
-637.624	70.379	-0.299	0.312
-636.609	667.304	-0.080	-0.210
-635.595	65.828	-0.332	-0.340
-634.580	800.000	-0.044	0.158
-633.565	-121.581	0.247	-0.041
-632.551	-9.756	-0.057	-0.038
-631.536	800.000	0.032	0.141
-630.522	-103.094	-0.165	-0.039
-629.507	-89.469	0.214	-0.063
-628.492	800.000	0.053	0.148
-627.478	-5.562	-0.455	-0.315
-626.463	384.943	0.125	-0.261
-625.449	274.901	-0.124	0.221
-624.434	-57.362	0.112	0.050
-623.419	85.074	-0.115	-0.127
-622.405	683.419	0.084	-0.222
-621.390	-115.208	-0.152	-0.029
-620.376	-182.007	-0.359	-0.007
-619.361	-167.630	-0.078	0.003
-618.346	-91.388	-0.136	-0.039
-617.332	301.626	-0.115	-0.215
-616.317	213.102	0.250	0.399
-615.303	-98.116	-0.114	0.030
-614.288	-21.968	-0.198	0.122
-613.273	-200.000	0.006	0.071
-612.259	-200.000	-0.003	0.033
-611.244	-20.513	-0.344	-0.213
-610.230	-60.433	0.307	-0.132
-609.215	800.000	-0.085	-0.242
-608.201	288.004	-0.203	-0.371
-607.186	207.728	-0.115	-0.182
-606.171	6.370	-0.020	0.015
-605.157	142.887	0.191	0.256
-604.142	-58.206	0.121	-0.053
-603.128	-47.963	-0.088	0.043
-602.113	63.369	-0.055	-0.055
-601.098	-92.028	-0.078	-0.022
-600.084	-200.000	0.009	0.407
-599.069	-113.314	0.116	-0.023
-598.055	-108.651	0.263	0.057
-597.040	759.584	0.155	-0.424
-596.025	-11.018	0.231	-0.154
-595.011	28.103	0.352	0.300
-593.996	4.123	0.242	-0.179
-592.982	-88.756	0.210	0.063
-591.967	-65.251	-0.164	0.067
-590.952	-73.540	0.283	0.104
-589.938	249.695	0.138	0.235
-588.923	116.914	0.210	-0.260
-587.909	800.000	-0.099	0.328
-586.894	538.870	-0.070	-0.168
-585.879	-123.229	-0.266	0.043
-584.865	116.458	0.284	-0.351
-583.850	-200.000	-0.028	-0.264
-582.836	36.894	0.190	0.169
-581.821	432.288	0.037	0.081
-580.806	-12.784	-0.053	-0.035
-579.792	-100.701	-0.484	0.120
-578.777	313.324	0.113	-0.214
-577.763	-200.000	-0.019	-0.102
-576.748	68.573	-0.312	0.322
-575.733	-200.000	-0.003	0.203
-574.719	549.942	-0.124	-0.299
-573.704	125.315	-0.161	-0.205
-572.690	56.237	-0.051	0.049
-571.675	800.000	-0.097	0.331
-570.661	800.000	0.083	0.316
-569.646	66.621	-0.125	0.128
-568.631	-113.323	-0.146	0.029
-567.617	167.510	0.083	-0.118
-566.602	-56.434	0.255	0.114
-565.588	506.049	-0.037	0.086
-564.573	-123.940	0.082	0.013
-563.558	-200.000	-0.004	-0.285
-562.544	-116.593	-0.111	0.020
-561.529	75.667	0.217	0.231
-560.515	-115.051	0.172	0.033
-559.500	-90.797	0.115	0.033
-558.485	-74.719	-0.134	-0.049
-557.471	-119.932	0.033	0.006
-556.456	-54.927	0.199	-0.090
-555.442	-200.000	-0.021	0.213
-554.427	26.399	0.072	-0.061
-553.412	-109.497	-0.617	-0.131
-552.398	-16.855	-0.204	-0.130
-551.383	-69.978	-0.288	-0.111
-550.369	-200.000	0.008	0.049
-549.354	781.644	-0.047	0.129
-548.339	28.541	-0.102	-0.087
-547.325	-106.904	-0.074	0.016
-546.310	611.148	0.049	-0.123
-545.296	271.123	-0.086	0.153
-544.281	-86.431	0.162	-0.050
-543.266	-134.106	0.345	-0.043
-542.252	349.637	-0.167	0.333
-541.237	-143.763	-0.469	0.045
-540.223	-45.190	-0.430	-0.215
-539.208	-200.000	0.008	-0.162
-538.193	-71.376	-0.348	0.131
-537.179	-125.166	0.094	0.015
-536.164	186.507	0.048	0.072
-535.150	90.115	-0.174	-0.196
-534.135	-153.059	-0.124	-0.009
-533.121	37.233	0.274	0.244
-532.106	-179.343	-0.141	0.003
-531.091	-200.000	-0.022	0.368
-530.077	-200.000	0.007	0.177
-529.062	800.000	0.042	0.161
-528.048	800.000	-0.125	0.359
-527.033	-85.426	-0.133	0.042
-526.018	-78.695	0.190	-0.065
-525.004	-23.226	-0.242	0.146
-523.989	18.579	-0.054	-0.044
-522.975	-200.000	-0.015	-0.248
-521.960	-35.372	0.297	0.163
-520.945	-118.807	0.077	-0.014
-519.931	800.000	-0.151	-0.454
-518.916	-200.000	0.002	0.035
-517.902	-67.549	-0.285	0.113
-516.887	11.737	0.141	-0.109
-515.872	-26.861	-0.119	-0.070
-514.858	-88.751	-0.128	0.038
-513.843	-200.000	0.001	-0.393
-512.829	800.000	0.128	0.451
-511.814	351.252	-0.123	0.244
-510.799	800.000	0.057	-0.217
-509.785	-200.000	0.043	0.215
-508.770	800.000	0.038	0.106
-507.756	-98.251	-0.405	0.105
-506.741	-200.000	-0.048	0.219
-505.726	112.001	-0.247	0.300
-504.712	-142.488	0.142	-0.014
-503.697	96.499	0.198	-0.227
-502.683	690.769	0.055	0.144
-501.668	133.301	-0.083	-0.108
-500.653	-116.321	0.185	-0.034
-499.639	-72.058	0.161	-0.060
-498.624	800.000	-0.041	0.128
-497.610	800.000	0.115	-0.467
-496.595	422.193	0.195	-0.421
-495.581	-66.822	0.155	-0.062
-494.566	-66.607	0.024	0.009
-493.551	71.854	0.074	0.077
-492.537	800.000	-0.034	0.120
-491.522	44.996	0.266	-0.246
-490.508	383.646	0.109	0.225
-489.493	-38.123	0.105	0.056
-488.478	-108.218	-0.214	0.046
-487.464	116.847	-0.206	-0.254
-486.449	46.401	0.205	-0.191
-485.435	-1.677	0.081	-0.057
-484.420	305.358	-0.028	-0.053
-483.405	81.936	0.210	0.229
-482.391	-165.823	0.023	0.001
-481.376	800.000	-0.051	0.171
-480.362	476.424	0.139	-0.315
-479.347	219.721	-0.096	0.155
-478.332	-125.639	-0.328	-0.050
-477.318	800.000	0.077	0.328
-476.303	130.108	0.234	0.301
-475.289	-200.000	0.019	0.151
-474.274	12.626	0.196	-0.152
-473.259	-200.000	-0.345	0.000
-472.245	-188.795	-0.022	0.000
-471.230	-90.663	-0.089	0.026
-470.216	35.908	0.106	-0.094
-469.201	-39.676	-0.275	-0.144
-468.186	-200.000	0.017	0.099
-467.172	-107.900	0.240	-0.052
-466.157	-200.000	-0.019	-0.296
-465.143	-73.145	0.023	0.009
-464.128	39.521	0.070	0.063
-463.113	28.439	-0.253	0.214
-462.099	-33.478	-0.201	0.111
-461.084	-61.198	0.230	-0.097
-460.070	-76.130	-0.355	0.126
-459.055	426.969	0.085	-0.183
-458.040	-51.189	-0.149	0.070
-457.026	-108.527	-0.123	0.026
-456.011	-88.684	0.111	-0.033
-454.997	-40.136	0.139	0.073
-453.982	-84.980	-0.122	-0.038
-452.968	-53.300	0.074	0.034
-451.953	-200.000	0.026	0.120
-450.938	-91.812	0.403	-0.115
-449.924	112.469	-0.039	-0.048
-448.909	800.000	0.044	0.147
-447.895	-65.340	-0.164	-0.066
-446.880	800.000	0.043	0.179
-445.865	-200.000	-0.022	-0.174
-444.851	195.448	-0.104	0.159
-443.836	800.000	-0.089	0.385
-442.822	53.269	0.022	-0.021
-441.807	-200.000	-0.003	-0.066
-440.792	800.000	-0.120	-0.359
-439.778	-111.649	-0.053	0.011
-438.763	-138.074	-0.301	0.034
-437.749	520.097	0.114	-0.267
-436.734	800.000	0.069	0.267
-435.719	-114.880	0.271	0.052
-434.705	59.581	-0.388	0.384
-433.690	800.000	-0.047	0.159
-432.676	-177.604	0.146	0.004
-431.661	-9.769	0.097	-0.065
-430.646	-24.423	-0.213	-0.127
-429.632	461.093	-0.129	-0.287
-428.617	145.077	0.056	0.074
-427.603	-200.000	0.018	0.158
-426.588	220.388	-0.121	-0.194
-425.573	-200.000	0.020	0.240
-424.559	-154.570	-0.231	-0.015
-423.544	800.000	-0.073	0.261
-422.530	717.459	0.173	0.459
-421.515	-43.508	0.159	0.081
-420.500	-67.758	0.135	-0.053
-419.486	-15.272	0.320	-0.205
-418.471	-200.000	0.047	0.324
-417.457	14.540	-0.095	0.075
-416.442	-61.110	-0.129	-0.054
-415.428	-200.000	0.002	-0.242
-414.413	166.335	-0.066	0.093
-413.398	37.126	0.114	0.101
-412.384	-46.482	-0.228	0.112
-411.369	-139.720	-0.187	0.020
-410.355	-69.386	0.261	0.100
-409.340	8.877	-0.302	0.228
-408.325	-130.781	0.190	0.026
-407.311	11.426	-0.330	0.253
-406.296	-88.971	0.157	-0.047
-405.282	-200.000	0.042	-0.305
-404.267	-109.082	0.180	0.038
-403.252	242.428	0.151	0.253
-402.238	88.018	0.208	0.231
-401.223	-78.622	0.265	0.091
-400.209	-31.799	-0.379	-0.213
-399.194	800.000	0.123	-0.406
-398.179	-61.812	-0.175	0.074
-397.165	-200.000	0.033	0.189
-396.150	-146.654	0.158	0.014
-395.136	800.000	-0.065	0.242
-394.121	-36.313	-0.422	0.228
-393.106	734.974	-0.057	-0.154
-392.092	319.586	0.020	0.037
-391.077	-116.096	0.222	0.041
-390.063	-122.543	0.333	0.054
-389.048	800.000	0.029	-0.109
-388.033	-101.623	0.251	-0.061
-387.019	366.956	-0.086	0.173
-386.004	-121.339	0.231	0.038
-384.990	-5.036	-0.069	-0.048
-383.975	-106.988	0.366	0.081
-382.960	8.824	0.245	0.185
-381.946	-200.000	0.047	-0.315
-380.931	-200.000	-0.072	-0.411
-379.917	513.901	0.039	0.090
-378.902	79.521	-0.289	-0.310
-377.888	301.001	0.118	0.219
-376.873	106.027	-0.111	-0.131
-375.858	4.254	-0.223	0.163
-374.844	58.083	0.024	0.024
-373.829	-180.795	0.197	0.004
-372.815	-38.455	-0.187	0.099
-371.800	800.000	0.062	0.250
-370.785	-128.979	0.413	0.058
-369.771	214.165	-0.036	0.058
-368.756	528.837	0.068	-0.160
-367.742	-73.133	0.218	0.080
-366.727	-200.000	-0.006	-0.242
-365.712	-45.118	-0.159	-0.079
-364.698	71.746	0.225	-0.234
-363.683	-87.565	-0.104	-0.031
-362.669	370.585	0.014	0.029
-361.654	278.314	0.278	0.495
-360.639	800.000	-0.048	0.138
-359.625	335.462	-0.041	0.080
-358.610	15.250	-0.099	0.077
-357.596	-119.115	-0.144	-0.025
-356.581	-200.000	-0.036	0.165
-355.566	-39.994	-0.125	-0.065
-354.552	800.000	0.021	0.063
-353.537	56.894	-0.152	0.148
-352.523	327.961	0.097	-0.187
-351.508	-47.585	0.189	-0.091
-350.493	-200.000	-0.026	0.273
-349.479	291.748	-0.248	0.451
-348.464	386.717	0.131	-0.270
-347.450	-54.852	-0.341	-0.154
-346.435	-173.748	-0.069	0.002
-345.420	-60.071	-0.221	0.094
-344.406	-16.499	0.185	-0.117
-343.391	373.568	0.124	-0.251
-342.377	-57.730	-0.263	0.115
-341.362	125.206	-0.069	0.087
-340.348	75.350	0.423	0.446
-339.333	-131.607	-0.362	0.048
-338.318	268.389	0.125	0.219
-337.304	48.056	0.104	-0.097
-336.289	-148.761	-0.484	0.039
-335.275	800.000	0.080	0.265
-334.260	17.120	0.052	0.041
-333.245	-97.595	0.276	-0.071
-332.231	-123.614	-0.333	0.053
-331.216	640.295	0.050	0.126
-330.202	-157.930	0.088	0.005
-329.187	-182.794	-0.206	-0.004
-328.172	136.963	0.099	0.129
-327.158	-200.000	0.006	-0.032
-326.143	-10.702	0.135	-0.089
-325.129	-114.230	0.451	-0.087
-324.114	-114.868	-0.185	0.035
-323.099	142.574	-0.206	0.273
-322.085	37.354	0.056	-0.050
-321.070	-200.000	0.011	-0.257
-320.056	-200.000	0.074	-0.334
-319.041	38.014	0.160	0.142
-318.026	531.590	-0.038	0.090
-317.012	-1.069	-0.398	-0.281
-315.997	800.000	0.113	0.318
-314.983	-147.072	-0.238	0.020
-313.968	38.980	-0.301	-0.268
-312.953	-83.123	-0.049	0.016
-311.939	-174.226	0.191	-0.006
-310.924	162.447	0.149	0.209
-309.910	-86.086	0.231	-0.071
-308.895	-67.814	0.158	-0.062
-307.880	-162.504	0.314	-0.015
-306.866	-27.573	-0.272	0.158
-305.851	172.291	-0.183	0.263
-304.837	-79.730	0.444	0.149
-303.822	25.175	-0.193	0.160
-302.807	-200.000	-0.064	-0.294
-301.793	-80.374	-0.200	-0.067
-300.778	-118.155	0.307	0.055
-299.764	122.214	-0.206	0.257
-298.749	-116.404	-0.193	-0.036
-297.735	430.425	0.138	-0.298
-296.720	-69.657	-0.223	0.085
-295.705	-97.120	0.374	0.097
-294.691	-200.000	0.012	0.214
-293.676	19.460	0.253	0.203
-292.662	139.751	0.032	-0.042
-291.647	-101.091	-0.272	0.066
-290.632	230.557	0.147	-0.240
-289.618	-176.013	0.181	-0.005
-288.603	262.640	-0.072	-0.125
-287.589	50.443	0.069	-0.065
-286.574	-26.847	0.282	-0.164
-285.559	-200.000	0.009	0.211
-284.545	-61.172	-0.068	-0.029
-283.530	-83.393	-0.319	0.102
-282.516	-200.000	-0.018	0.133
-281.501	-200.000	0.025	-0.122
-280.486	800.000	0.105	0.307
-279.472	800.000	0.025	-0.105
-278.457	-106.341	-0.225	0.050
-277.443	375.813	0.021	0.043
-276.428	105.359	-0.151	-0.178
-275.413	260.358	-0.107	0.184
-274.399	32.278	-0.108	0.093
-273.384	13.411	-0.143	-0.110
-272.370	800.000	0.022	-0.089
-271.355	206.150	-0.110	-0.171
-270.340	350.207	0.031	0.060
-269.326	-200.000	-0.002	0.101
-268.311	-62.591	0.226	0.093
-267.297	225.558	-0.102	0.164
-266.282	284.540	0.072	-0.129
-265.267	-200.000	0.033	0.218
-264.253	707.664	0.075	0.198
-263.238	584.144	-0.047	-0.116
-262.224	-3.786	-0.096	0.066
-261.209	327.558	0.174	-0.333
-260.195	800.000	0.045	-0.129
-259.180	119.030	0.149	0.184
-258.165	96.126	0.148	-0.168
-257.151	-176.591	0.411	0.011
-256.136	-15.042	-0.316	-0.202
-255.122	-200.000	0.049	-0.262
-254.107	-14.262	-0.323	-0.207
-253.092	-66.111	0.251	0.100
-252.078	-43.320	-0.171	-0.086
-251.063	564.073	-0.044	-0.106
-250.049	168.039	0.111	-0.157
-249.034	-16.856	-0.398	-0.250
-248.019	-118.224	0.173	0.031
-247.005	75.285	0.126	-0.133
-245.990	-114.825	-0.198	0.038
-244.976	97.391	-0.116	0.132
-243.961	-200.000	-0.004	0.154
-242.946	-82.933	-0.198	0.064
-241.932	-60.377	0.195	-0.083
-240.917	-199.475	0.338	0.002
-239.903	268.415	0.139	-0.242
-238.888	-136.726	0.283	0.032
-237.873	-121.864	-0.216	-0.035
-236.859	-200.000	-0.012	-0.328
-235.844	-63.548	0.369	0.151
-234.830	115.340	-0.137	0.167
-233.815	155.435	0.250	-0.342
-232.800	-44.656	-0.299	-0.148
-231.786	-152.264	0.240	-0.017
-230.771	66.772	-0.061	0.061
-229.757	-122.878	0.325	-0.052
-228.742	449.634	-0.027	-0.058
-227.727	-95.582	-0.374	0.100
-226.713	445.623	0.059	-0.128
-225.698	330.544	0.106	-0.202
-224.684	61.960	-0.211	0.209
-223.669	-78.384	0.422	-0.144
-222.655	-31.471	-0.195	-0.109
-221.640	12.557	-0.175	0.134
-220.625	-200.000	-0.064	-0.296
-219.611	183.387	0.126	0.186
-218.596	-113.278	-0.044	-0.009
-217.582	-200.000	-0.034	-0.166
-216.567	-139.517	-0.114	0.012
-215.552	-200.000	-0.007	-0.099
-214.538	-200.000	-0.050	-0.301
-213.523	-108.832	0.297	-0.063
-212.509	539.349	-0.054	0.127
-211.494	-94.157	0.241	-0.066
-210.479	-69.581	0.368	-0.140
-209.465	-73.357	-0.271	-0.098
-208.450	-200.000	-0.090	-0.414
-207.436	-27.522	0.193	-0.112
-206.421	-118.371	0.252	0.044
-205.406	-112.192	0.163	-0.033
-204.392	-19.798	0.362	-0.222
-203.377	-45.541	-0.341	0.168
-202.363	-200.000	-0.004	0.245
-201.348	595.354	0.156	0.384
-200.333	800.000	0.139	0.382
-199.319	195.155	0.069	-0.104
-198.304	-200.000	0.032	-0.207
-197.290	-52.953	-0.460	-0.210
-196.275	164.319	0.168	-0.236
-195.260	-104.337	0.267	-0.061
-194.246	-17.963	0.222	0.138
-193.231	-200.000	-0.082	-0.492
-192.217	-200.000	0.066	-0.536
-191.202	-24.416	0.199	-0.117
-190.187	146.795	-0.093	-0.124
-189.173	79.002	0.095	0.101
-188.158	-65.922	0.057	-0.022
-187.144	-53.894	0.073	0.033
-186.129	-200.000	-0.011	-0.208
-185.114	-200.000	-0.042	-0.237
-184.100	-35.473	-0.092	0.050
-183.085	704.618	-0.142	-0.372
-182.071	35.168	-0.242	0.210
-181.056	-200.000	-0.015	-0.070
-180.042	24.501	-0.235	-0.193
-179.027	329.280	-0.064	0.121
-178.012	255.581	0.218	-0.371
-176.998	111.722	0.269	0.322
-175.983	-122.612	-0.080	-0.013
-174.969	11.857	0.072	0.055
-173.954	23.709	0.176	0.144
-172.939	-91.791	-0.184	0.052
-171.925	-200.000	0.003	0.171
-170.910	-180.367	0.208	-0.004
-169.896	-200.000	0.072	0.528
-168.881	800.000	-0.014	0.043
-167.866	-124.692	-0.186	0.029
-166.852	9.539	0.079	-0.059
-165.837	63.999	-0.324	-0.324
-164.823	-82.663	0.117	0.037
-163.808	-7.075	-0.030	-0.020
-162.793	-200.000	0.017	-0.117
-161.779	-165.258	0.251	0.011
-160.764	396.167	-0.171	0.353
-159.750	-154.333	0.146	0.010
-158.735	-200.000	-0.018	-0.263
-157.720	23.858	0.197	-0.161
-156.706	-50.841	-0.154	-0.072
-155.691	92.904	-0.113	-0.127
-154.677	401.593	0.039	0.081
-153.662	-200.000	0.037	0.290
-152.647	-200.000	-0.033	-0.178
-151.633	800.000	0.091	-0.292
-150.618	-57.652	-0.145	-0.063
-149.604	-200.000	-0.032	-0.531
-148.589	21.721	-0.046	-0.037
-147.574	-200.000	0.024	0.129
-146.560	-200.000	0.013	-0.124
-145.545	159.158	-0.156	0.215
-144.531	-119.412	-0.266	0.046
-143.516	-124.021	-0.288	0.045
-142.502	-200.000	-0.034	-0.439
-141.487	-114.883	-0.127	-0.024
-140.472	-200.000	0.015	-0.261
-139.458	-200.000	-0.049	0.470
-138.443	-93.283	0.246	0.068
-137.429	-200.000	0.008	-0.084
-136.414	-200.000	-0.040	-0.210
-135.399	800.000	-0.084	-0.230
-134.385	-74.581	-0.122	-0.044
-133.370	-43.626	0.096	0.048
-132.356	27.213	-0.103	-0.085
-131.341	163.880	0.183	-0.256
-130.326	-200.000	-0.018	-0.411
-129.312	-175.844	0.074	-0.002
-128.297	-34.896	0.293	0.158
-127.283	45.052	-0.115	-0.105
-126.268	-52.412	0.053	0.024
-125.253	83.081	-0.059	0.064
-124.239	190.788	-0.065	-0.097
-123.224	-1.714	-0.339	0.236
-122.210	325.999	0.124	0.235
