DTS Sentinel unit serial number:	SN413079Multiplexer serial number:	ORYXHardware model number:	OX4-SRSoftware version number:	ORYX F/W v4.00 Oryx Data Collector v3.7.2.0data status	okinstallation	princeton_trtdifferential loss correction	single-endedforward channel	channel 1reverse channel	N/Adate	2019/09/14time	22:54:35forward acquisition time	60.00reverse acquisition time	0.00gamma	496.2192k internal	0.2319k external	0.2319temperature offset calibration	1.0003default loss term (dB/km)	0.3790temperature slope calibration	1.0000multiplexer offset coefficient	1.0000multiplexer slope coefficient	1.0000fibre end	0.00T internal ref (°C)	32.45T ext. ref 1 (°C)	4.67T ext. ref 2 (°C)	27.49length (m)	temperature (°C)	Stokes	anti-Stokes-747.200	53.511	-0.168	-0.163
-746.185	-84.057	0.017	-0.006
-745.171	47.942	-0.169	-0.160
-744.156	-154.163	-0.143	-0.010
-743.142	278.554	-0.054	0.098
-742.127	-14.307	-0.171	0.112
-741.112	-56.845	0.195	-0.087
-740.098	-200.000	0.036	0.175
-739.083	-109.255	-0.198	0.043
-738.069	515.714	0.127	0.299
-737.054	-200.000	0.020	0.092
-736.039	282.230	0.149	0.270
-735.025	-43.275	-0.118	0.060
-734.010	-7.012	-0.214	0.147
-732.996	800.000	0.156	-0.582
-731.981	51.686	0.301	-0.289
-730.966	-139.419	-0.546	0.059
-729.952	182.128	-0.094	-0.139
-728.937	-200.000	-0.004	-0.121
-727.923	232.312	-0.138	0.230
-726.908	-120.054	-0.068	0.012
-725.894	243.867	-0.137	-0.233
-724.879	62.597	-0.239	-0.242
-723.864	-200.000	-0.009	0.222
-722.850	-62.523	0.146	-0.061
-721.835	535.374	-0.061	0.146
-720.821	-107.674	-0.098	-0.022
-719.806	-35.923	-0.032	-0.018
-718.791	59.521	-0.181	-0.181
-717.777	800.000	-0.065	0.257
-716.762	41.828	-0.284	0.260
-715.748	-200.000	-0.337	0.000
-714.733	114.805	-0.179	0.221
-713.718	-83.640	0.047	0.015
-712.704	13.497	-0.334	-0.262
-711.689	-73.250	0.256	0.095
-710.675	-200.000	0.051	-0.426
-709.660	-22.565	0.255	-0.156
-708.645	-12.291	-0.166	0.110
-707.631	800.000	0.059	0.255
-706.616	-63.819	-0.471	-0.195
-705.602	-200.000	0.018	0.115
-704.587	-30.462	-0.209	-0.120
-703.572	-107.251	0.289	-0.064
-702.558	20.212	-0.025	-0.021
-701.543	157.963	-0.096	0.134
-700.529	-29.117	0.190	-0.110
-699.514	120.936	0.076	0.096
-698.499	76.693	0.306	-0.327
-697.485	226.579	0.093	-0.152
-696.470	-14.420	0.252	-0.164
-695.456	-100.847	-0.125	0.031
-694.441	150.279	0.030	0.042
-693.426	150.636	0.065	0.089
-692.412	16.606	0.116	0.093
-691.397	800.000	-0.025	-0.075
-690.383	61.292	-0.136	0.136
-689.368	187.494	-0.069	-0.105
-688.354	354.356	0.121	0.242
-687.339	-87.522	-0.367	-0.112
-686.324	-200.000	0.013	-0.147
-685.310	229.677	-0.178	-0.293
-684.295	213.109	-0.021	-0.034
-683.281	800.000	0.114	0.431
-682.266	-200.000	-0.041	0.263
-681.251	-127.149	0.207	0.031
-680.237	-96.418	-0.233	-0.062
-679.222	-200.000	0.005	0.153
-678.208	-200.000	0.024	-0.225
-677.193	520.676	-0.058	0.138
-676.178	49.959	0.133	0.127
-675.164	800.000	0.076	-0.274
-674.149	-170.021	-0.044	0.002
-673.135	576.893	-0.058	-0.143
-672.120	421.331	-0.122	-0.263
-671.105	-200.000	-0.005	0.416
-670.091	330.173	0.028	-0.054
-669.076	-200.000	0.012	-0.193
-668.062	80.381	-0.053	0.058
-667.047	-25.759	0.365	0.217
-666.032	36.307	-0.199	-0.177
-665.018	-42.500	-0.268	-0.138
-664.003	89.118	-0.034	0.038
-662.989	-13.694	-0.131	-0.085
-661.974	77.910	-0.097	0.104
-660.959	-70.730	0.185	0.070
-659.945	800.000	-0.084	-0.332
-658.930	-14.702	0.124	0.080
-657.916	-105.254	-0.221	-0.051
-656.901	194.584	-0.022	0.033
-655.886	-156.537	-0.213	0.013
-654.872	800.000	0.082	0.309
-653.857	205.701	-0.061	0.095
-652.843	75.101	0.134	-0.142
-651.828	-137.088	-0.112	0.013
-650.814	-107.048	0.255	0.057
-649.799	197.484	0.068	-0.105
-648.784	-200.000	-0.012	-0.195
-647.770	-74.209	0.065	-0.024
-646.755	-180.230	0.188	-0.004
-645.741	-200.000	0.030	0.159
-644.726	216.927	-0.103	-0.165
-643.711	-164.028	0.261	-0.012
-642.697	100.288	0.132	-0.154
-641.682	-139.639	0.193	-0.021
-640.668	-90.897	-0.174	-0.050
-639.653	183.121	-0.032	0.048
-638.638	153.154	0.024	0.033
-637.624	32.016	0.215	-0.187
-636.609	-182.110	-0.194	-0.004
-635.595	-60.201	0.130	0.056
-634.580	-200.000	0.021	-0.219
-633.565	-86.792	-0.493	0.152
-632.551	117.576	0.120	0.148
-631.536	116.794	-0.159	0.197
-630.522	93.455	0.200	-0.228
-629.507	-134.404	0.091	0.011
-628.492	650.007	0.062	-0.159
-627.478	258.375	0.055	0.096
-626.463	-126.713	-0.327	-0.049
-625.449	135.270	0.210	-0.275
-624.434	-200.000	-0.043	-0.195
-623.419	800.000	0.117	-0.379
-622.405	-138.511	0.329	-0.036
-621.390	64.915	0.105	0.107
-620.376	800.000	0.086	-0.318
-619.361	603.892	-0.128	-0.320
-618.346	-39.271	-0.272	-0.144
-617.332	800.000	-0.093	-0.350
-616.317	-200.000	-0.012	-0.271
-615.303	-72.830	-0.300	-0.111
-614.288	166.066	0.219	0.312
-613.273	800.000	-0.033	0.092
-612.259	-101.817	-0.316	-0.077
-611.244	-200.000	0.030	-0.288
-610.230	-200.000	0.031	-0.286
-609.215	289.113	0.043	-0.078
-608.201	150.326	0.067	-0.091
-607.186	-200.000	0.058	-0.262
-606.171	-101.181	-0.191	-0.047
-605.157	800.000	0.094	0.272
-604.142	-93.994	0.141	-0.039
-603.128	333.033	-0.102	-0.198
-602.113	-145.460	-0.313	-0.028
-601.098	17.541	-0.072	0.058
-600.084	800.000	0.065	-0.183
-599.069	-200.000	0.032	0.167
-598.055	-94.332	0.292	-0.080
-597.040	-168.358	-0.141	0.005
-596.025	-200.000	0.011	-0.055
-595.011	-200.000	-0.021	-0.105
-593.996	-23.980	0.150	-0.090
-592.982	-200.000	0.010	0.377
-591.967	334.953	0.035	0.068
-590.952	28.464	0.091	0.077
-589.938	183.123	-0.062	0.091
-588.923	-100.742	0.194	-0.048
-587.909	-163.394	-0.183	0.009
-586.894	-103.135	0.257	-0.061
-585.879	-120.022	-0.301	0.052
-584.865	-114.579	-0.330	-0.064
-583.850	-200.000	-0.003	-0.099
-582.836	175.060	0.085	0.124
-581.821	-200.000	0.011	-0.104
-580.806	63.801	-0.188	-0.189
-579.792	800.000	-0.033	-0.106
-578.777	361.593	-0.094	-0.190
-577.763	49.828	0.087	-0.083
-576.748	-199.272	0.130	0.001
-575.733	800.000	-0.111	0.348
-574.719	-200.000	0.011	-0.260
-573.704	267.873	-0.043	-0.076
-572.690	800.000	-0.021	-0.062
-571.675	-60.957	0.209	-0.089
-570.661	-73.139	-0.357	-0.131
-569.646	-134.020	0.268	0.033
-568.631	-154.879	0.320	0.021
-567.617	169.053	-0.111	-0.159
-566.602	39.863	0.128	-0.116
-565.588	66.878	-0.075	-0.077
-564.573	585.049	-0.136	-0.337
-563.558	-96.059	0.176	0.047
-562.544	-7.516	-0.289	-0.196
-561.529	220.394	-0.031	-0.050
-560.515	-133.630	-0.049	0.006
-559.500	-200.000	-0.008	0.244
-558.485	263.309	-0.092	-0.160
-557.471	-200.000	0.022	-0.158
-556.456	566.627	0.051	-0.125
-555.442	577.347	-0.074	-0.181
-554.427	292.083	-0.114	-0.208
-553.412	167.018	-0.156	-0.223
-552.398	198.265	0.097	-0.150
-551.383	65.296	-0.141	-0.143
-550.369	-200.000	-0.043	0.000
-549.354	237.961	0.119	0.198
-548.339	-200.000	0.016	-0.171
-547.325	-118.812	-0.149	-0.026
-546.310	-161.087	0.236	-0.012
-545.296	100.467	-0.055	0.064
-544.281	581.025	0.089	-0.218
-543.266	-150.653	-0.179	0.014
-542.252	800.000	0.114	0.342
-541.237	-185.245	-0.183	0.003
-540.223	-87.983	-0.243	-0.073
-539.208	-194.735	-0.242	-0.002
-538.193	-200.000	-0.013	0.164
-537.179	-200.000	-0.029	0.171
-536.164	101.161	0.297	0.347
-535.150	94.715	0.127	0.145
-534.135	-200.000	-0.022	0.125
-533.121	116.110	-0.178	0.219
-532.106	-200.000	0.040	-0.189
-531.091	-200.000	-0.028	0.186
-530.077	169.440	-0.117	0.167
-529.062	-42.150	0.121	-0.062
-528.048	-200.000	0.031	-0.364
-527.033	-183.983	0.222	0.004
-526.018	-60.239	-0.270	-0.115
-525.004	-46.724	-0.298	0.146
-523.989	-165.685	0.132	0.006
-522.975	645.006	0.008	-0.020
-521.960	171.979	-0.086	0.124
-520.945	167.663	-0.079	0.113
-519.931	-66.450	-0.215	0.086
-518.916	176.041	-0.083	0.120
-517.902	-200.000	0.069	0.330
-516.887	385.798	0.058	0.120
-515.872	800.000	0.036	-0.125
-514.858	30.115	-0.126	-0.108
-513.843	-85.875	0.108	-0.034
-512.829	800.000	0.116	-0.442
-511.814	411.113	0.159	0.338
-510.799	-98.605	0.067	-0.017
-509.785	-151.781	-0.274	0.020
-508.770	257.385	0.233	-0.401
-507.756	-41.598	0.077	-0.039
-506.741	800.000	0.036	0.130
-505.726	-68.957	0.113	-0.044
-504.712	-47.445	-0.353	-0.172
-503.697	229.496	-0.162	0.265
-502.683	-200.000	-0.005	0.476
-501.668	13.696	-0.183	-0.142
-500.653	356.150	0.112	-0.224
-499.639	165.446	0.145	0.206
-498.624	277.299	-0.054	-0.097
-497.610	63.669	0.055	-0.056
-496.595	-63.871	0.129	-0.053
-495.581	114.491	0.109	-0.133
-494.566	-74.921	-0.069	-0.025
-493.551	-89.649	0.088	-0.026
-492.537	-153.592	0.219	0.015
-491.522	-146.578	0.027	0.002
-490.508	-59.752	0.145	-0.062
-489.493	-145.662	-0.169	0.015
-488.478	-200.000	-0.017	0.175
-487.464	800.000	-0.050	0.209
-486.449	660.522	-0.058	-0.148
-485.435	528.451	0.080	-0.190
-484.420	-44.149	0.170	0.086
-483.405	-77.268	0.188	-0.065
-482.391	409.828	0.102	-0.217
-481.376	93.490	-0.110	0.125
-480.362	22.861	-0.214	-0.176
-479.347	-51.906	-0.176	-0.082
-478.332	484.900	0.099	-0.226
-477.318	-200.000	0.029	-0.628
-476.303	-110.758	-0.467	-0.097
-475.289	5.080	0.260	-0.192
-474.274	-200.000	-0.040	0.244
-473.259	-200.000	-0.029	0.135
-472.245	800.000	-0.100	-0.357
-471.230	-200.000	-0.001	0.045
-470.216	-87.319	0.311	0.094
-469.201	-100.629	-0.216	0.053
-468.186	-105.255	0.306	-0.070
-467.172	408.497	0.163	0.345
-466.157	800.000	-0.066	0.209
-465.143	-121.520	-0.465	-0.077
-464.128	-200.000	-0.154	0.000
-463.113	-200.000	-0.046	-0.382
-462.099	-200.000	-0.061	-0.439
-461.084	-78.693	0.161	0.055
-460.070	223.199	0.084	0.136
-459.055	-125.832	0.131	-0.020
-458.040	1.277	0.226	-0.163
-457.026	-20.338	0.223	0.137
-456.011	-97.866	0.233	-0.060
-454.997	80.855	-0.072	-0.078
-453.982	-123.334	-0.206	0.033
-452.968	-200.000	-0.029	-0.190
-451.953	-109.298	0.233	-0.049
-450.938	-75.310	0.404	0.144
-449.924	-53.826	0.230	0.105
-448.909	-46.443	-0.222	-0.109
-447.895	29.035	0.244	0.207
-446.880	-200.000	-0.006	0.275
-445.865	800.000	-0.048	-0.175
-444.851	-200.000	-0.084	-0.419
-443.836	-79.712	-0.058	-0.020
-442.822	183.767	0.096	-0.141
-441.807	-200.000	0.034	0.167
-440.792	-164.795	-0.411	-0.018
-439.778	-113.470	0.203	0.040
-438.763	-200.000	0.053	-0.265
-437.749	-13.344	0.144	0.093
-436.734	-82.319	-0.108	0.035
-435.719	800.000	-0.058	-0.191
-434.705	96.296	0.121	-0.138
-433.690	800.000	0.049	0.193
-432.676	501.556	0.086	-0.197
-431.661	13.269	-0.215	-0.166
-430.646	-131.539	0.132	-0.017
-429.632	67.808	0.177	0.181
-428.617	-60.240	0.254	-0.108
-427.603	-35.692	-0.140	-0.076
-426.588	-108.657	-0.198	-0.043
-425.573	354.651	0.095	0.189
-424.559	70.336	0.186	-0.191
-423.544	800.000	0.101	0.408
-422.530	172.963	0.141	-0.203
-421.515	94.255	0.164	-0.186
-420.500	-200.000	0.054	0.302
-419.486	139.583	0.047	-0.061
-418.471	-200.000	-0.032	-0.205
-417.457	800.000	-0.068	0.269
-416.442	448.292	0.028	-0.061
-415.428	-200.000	0.003	0.282
-414.413	83.756	0.050	-0.055
-413.398	-200.000	-0.043	0.471
-412.384	800.000	0.097	0.306
-411.369	169.855	0.100	0.142
-410.355	110.378	0.139	-0.166
-409.340	65.098	-0.161	-0.162
-408.325	561.138	0.109	-0.264
-407.311	642.938	0.101	0.258
-406.296	171.300	-0.034	0.049
-405.282	-88.520	-0.104	-0.031
-404.267	1.389	-0.027	0.020
-403.252	800.000	-0.065	-0.200
-402.238	34.541	-0.096	-0.083
-401.223	222.448	0.122	0.196
-400.209	-200.000	-0.007	0.264
-399.194	165.041	-0.071	-0.101
-398.179	-6.145	-0.040	0.027
-397.165	800.000	0.168	0.487
-396.150	-40.022	-0.098	-0.051
-395.136	-76.656	0.278	-0.097
-394.121	581.668	0.127	0.310
-393.106	-28.549	0.108	0.062
-392.092	-124.172	-0.374	-0.058
-391.077	-200.000	-0.047	-0.318
-390.063	-200.000	-0.015	0.189
-389.048	-200.000	-0.008	-0.035
-388.033	223.359	-0.062	-0.100
-387.019	-60.875	0.289	-0.122
-386.004	-200.000	0.060	0.400
-384.990	-21.507	0.136	-0.083
-383.975	195.169	-0.147	-0.222
-382.960	255.717	-0.074	-0.127
-381.946	-200.000	0.021	0.249
-380.931	-200.000	0.007	-0.115
-379.917	800.000	-0.025	-0.076
-378.902	-1.417	-0.147	0.104
-377.888	-200.000	0.002	0.087
-376.873	-159.105	0.233	0.013
-375.858	-31.867	-0.181	0.101
-374.844	-109.859	0.072	-0.015
-373.829	-57.085	0.288	0.126
-372.815	-27.315	0.205	-0.119
-371.800	128.485	-0.238	0.302
-370.785	800.000	0.098	0.354
-369.771	193.357	0.042	-0.064
-368.756	29.186	-0.255	0.216
-367.742	16.127	0.406	0.319
-366.727	-200.000	-0.009	0.152
-365.712	129.163	-0.103	0.131
-364.698	-200.000	-0.011	0.131
-363.683	-200.000	-0.012	-0.273
-362.669	800.000	0.079	-0.318
-361.654	95.868	-0.186	0.212
-360.639	16.173	-0.027	-0.022
-359.625	278.384	0.138	-0.244
-358.610	67.647	0.195	0.199
-357.596	-185.544	-0.445	-0.007
-356.581	573.582	0.198	0.481
-355.566	27.507	0.319	-0.267
-354.552	75.029	0.192	-0.202
-353.537	575.134	-0.108	-0.261
-352.523	-0.943	0.245	0.173
-351.508	-200.000	0.015	0.141
-350.493	-200.000	0.026	-0.146
-349.479	252.134	0.025	-0.043
-348.464	244.451	0.154	-0.258
-347.450	-3.488	0.107	0.074
-346.435	187.432	-0.081	0.121
-345.420	359.810	-0.079	0.158
-344.406	29.127	0.079	-0.067
-343.391	622.310	-0.186	-0.467
-342.377	800.000	0.095	-0.292
-341.362	378.608	0.140	0.286
-340.348	-56.378	-0.043	-0.019
-339.333	-5.045	-0.268	0.184
-338.318	-146.070	-0.425	0.037
-337.304	574.516	0.168	-0.407
-336.289	800.000	-0.020	0.068
-335.275	-132.596	0.480	0.061
-334.260	-200.000	0.016	0.145
-333.245	-42.672	0.311	0.158
-332.231	-91.730	0.285	0.081
-331.216	-172.316	-0.277	-0.009
-330.202	-200.000	-0.009	0.144
-329.187	313.591	0.174	0.326
-328.172	-27.227	-0.141	0.082
-327.158	196.640	0.061	-0.092
-326.143	620.710	-0.132	0.331
-325.129	-99.653	-0.463	0.116
-324.114	800.000	0.016	0.062
-323.099	-103.855	0.284	-0.066
-322.085	0.820	0.095	-0.068
-321.070	-18.655	-0.203	0.126
-320.056	-200.000	0.089	-0.504
-319.041	743.278	-0.075	0.199
-318.026	23.119	-0.210	-0.172
-317.012	800.000	-0.094	-0.317
-315.997	-170.533	-0.082	0.003
-314.983	433.280	0.037	-0.079
-313.968	-131.035	-0.249	0.033
-312.953	-34.480	0.055	0.030
-311.939	800.000	0.080	0.250
-310.924	-8.239	0.295	-0.198
-309.910	-108.499	-0.320	0.068
-308.895	-175.092	-0.423	0.012
-307.880	800.000	0.066	-0.191
-306.866	-0.751	-0.302	0.213
-305.851	385.473	0.090	0.184
-304.837	-200.000	-0.076	0.447
-303.822	-148.798	-0.243	-0.020
-302.807	-48.922	0.023	-0.011
-301.793	-30.866	-0.279	0.157
-300.778	-101.600	-0.149	0.036
-299.764	99.175	0.121	0.139
-298.749	-13.575	-0.086	0.056
-297.735	-200.000	-0.015	0.184
-296.720	205.638	-0.158	0.245
-295.705	-158.575	0.208	0.012
-294.691	-105.757	-0.224	-0.050
-293.676	474.288	-0.116	0.260
-292.662	-52.463	-0.040	0.018
-291.647	38.847	-0.314	0.279
-290.632	800.000	0.067	0.205
-289.618	9.401	-0.132	0.099
-288.603	-200.000	0.052	0.273
-287.589	-89.683	-0.203	0.059
-286.574	25.120	0.125	0.103
-285.559	110.822	-0.178	-0.213
-284.545	-60.236	0.070	0.030
-283.530	-14.760	-0.210	-0.134
-282.516	639.693	0.122	0.307
-281.501	-200.000	-0.007	-0.115
-280.486	-6.541	-0.080	-0.054
-279.472	-200.000	0.008	0.074
-278.457	-164.255	-0.131	-0.006
-277.443	-200.000	-0.033	-0.335
-276.428	150.788	-0.189	0.255
-275.413	-200.000	0.005	-0.232
-274.399	173.775	-0.162	-0.232
-273.384	-85.712	-0.242	0.075
-272.370	-200.000	0.001	0.217
-271.355	36.419	0.152	-0.133
-270.340	71.454	0.061	0.062
-269.326	-22.395	-0.272	-0.164
-268.311	-34.292	-0.271	0.147
-267.297	32.273	0.168	-0.144
-266.282	-200.000	-0.004	0.125
-265.267	-200.000	-0.007	-0.161
-264.253	368.512	0.072	0.144
-263.238	800.000	-0.069	0.200
-262.224	-121.855	-0.057	0.009
-261.209	800.000	0.072	-0.288
-260.195	800.000	-0.093	-0.263
-259.180	127.577	0.182	-0.229
-258.165	-76.579	-0.396	0.138
-257.151	-172.269	0.233	-0.007
-256.136	-44.677	0.062	0.031
-255.122	70.546	0.161	0.165
-254.107	-5.904	0.252	-0.171
-253.092	-19.997	-0.116	0.071
-252.078	9.204	-0.126	-0.095
-251.063	800.000	-0.072	0.245
-250.049	-50.552	-0.250	0.117
-249.034	800.000	0.065	-0.248
-248.019	-200.000	-0.010	0.219
-247.005	-115.597	-0.177	-0.033
-245.990	-144.844	-0.359	0.033
-244.976	-122.505	0.200	0.032
-243.961	-64.682	0.119	-0.048
-242.946	192.437	-0.236	0.353
-241.932	659.547	0.114	0.290
-240.917	-107.846	0.252	0.054
-239.903	236.002	0.063	-0.104
-238.888	-200.000	-0.100	-0.447
-237.873	-18.385	-0.068	-0.042
-236.859	268.960	-0.059	0.103
-235.844	3.198	0.121	0.087
-234.830	608.716	-0.128	0.318
-233.815	800.000	0.025	-0.096
-232.800	-151.244	-0.168	-0.012
-231.786	-44.751	-0.228	-0.113
-230.771	-200.000	0.005	-0.039
-229.757	687.686	-0.124	-0.322
-228.742	-88.251	-0.224	-0.067
-227.727	-7.457	0.295	0.198
-226.713	201.828	-0.070	0.107
-225.698	-127.328	0.283	-0.041
-224.684	219.324	-0.248	0.393
-223.669	51.333	-0.056	0.053
-222.655	41.195	-0.263	-0.235
-221.640	-200.000	-0.004	0.384
-220.625	-6.788	0.171	0.115
-219.611	202.600	0.106	0.163
-218.596	410.499	0.137	-0.289
-217.582	18.050	-0.207	0.164
-216.567	-200.000	0.003	0.111
-215.552	29.614	0.119	-0.100
-214.538	-22.725	0.368	-0.220
-213.523	-80.429	-0.053	0.017
-212.509	454.212	0.188	0.412
-211.494	-112.803	0.152	-0.030
-210.479	-200.000	0.051	0.337
-209.465	330.193	0.159	0.303
-208.450	43.059	-0.314	0.284
-207.436	219.418	-0.035	0.055
-206.421	129.248	0.127	0.160
-205.406	23.997	0.279	-0.228
-204.392	-7.896	0.096	0.064
-203.377	-171.175	-0.230	0.008
-202.363	800.000	0.087	0.245
-201.348	-200.000	-0.054	0.309
-200.333	37.843	0.018	-0.016
-199.319	-54.694	0.199	-0.089
-198.304	-160.670	0.380	-0.020
-197.290	-42.775	0.436	-0.219
-196.275	-54.143	0.351	-0.158
-195.260	-2.639	0.053	-0.036
-194.246	-99.179	-0.048	0.012
-193.231	85.429	0.090	0.098
-192.217	96.509	0.198	-0.224
-191.202	-200.000	-0.014	-0.267
-190.187	800.000	-0.062	0.206
-189.173	58.053	0.128	0.124
-188.158	-103.509	-0.145	0.034
-187.144	7.284	0.281	-0.208
-186.129	26.667	0.048	0.040
-185.114	800.000	-0.082	0.269
-184.100	-98.122	0.155	0.039
-183.085	-49.319	-0.181	-0.085
-182.071	-76.854	-0.094	0.033
-181.056	68.505	-0.240	-0.243
-180.042	-200.000	0.005	0.140
-179.027	131.480	0.135	-0.171
-178.012	54.799	-0.131	0.126
-176.998	56.307	-0.181	0.174
-175.983	4.157	0.177	0.128
-174.969	392.042	0.028	0.057
-173.954	-113.114	-0.203	0.040
-172.939	-200.000	0.004	0.354
-171.925	-200.000	-0.009	-0.123
-170.910	-200.000	-0.001	-0.439
-169.896	130.538	-0.177	0.224
-168.881	-77.258	-0.111	0.038
-167.866	89.160	-0.080	0.088
-166.852	116.777	0.041	0.049
-165.837	-198.612	-0.155	-0.001
-164.823	49.362	0.110	-0.102
-163.808	-38.811	-0.119	0.062
-162.793	-122.906	0.078	0.012
-161.779	800.000	-0.117	-0.400
-160.764	-50.428	0.019	-0.009
-159.750	2.559	-0.335	-0.240
-158.735	-81.083	-0.189	-0.062
-157.720	-86.102	-0.102	-0.031
-156.706	703.864	-0.091	0.238
-155.691	-200.000	0.080	0.363
-154.677	-14.986	0.149	0.094
-153.662	123.066	0.042	0.051
-152.647	-59.046	0.529	0.226
-151.633	-200.000	0.031	-0.296
-150.618	-200.000	0.083	-0.496
-149.604	800.000	-0.056	-0.194
-148.589	320.919	0.137	0.257
-147.574	-11.857	0.192	0.125
-146.560	800.000	-0.056	0.239
-145.545	38.946	0.297	0.263
-144.531	800.000	0.090	-0.256
-143.516	-56.252	-0.214	-0.094
-142.502	-200.000	0.014	-0.072
-141.487	-126.087	-0.520	0.077
-140.472	-200.000	0.002	-0.338
-139.458	-200.000	-0.026	0.230
-138.443	205.145	-0.151	0.232
-137.429	-95.173	-0.243	-0.065
-136.414	-200.000	0.017	0.205
-135.399	-82.072	0.133	-0.043
-134.385	-119.577	0.280	-0.048
-133.370	-165.261	-0.187	-0.008
-132.356	800.000	-0.022	-0.062
-131.341	-136.068	-0.418	0.048
-130.326	-200.000	-0.011	-0.194
-129.312	678.375	-0.075	0.192
-128.297	-36.452	0.284	0.151
-127.283	-49.001	0.137	0.065
-126.268	-200.000	0.067	-0.385
-125.253	289.010	0.178	-0.319
-124.239	-107.390	0.293	0.064
-123.224	119.634	-0.068	-0.083
-122.210	9.738	-0.268	-0.201
