DTS Sentinel unit serial number:	SN413079Multiplexer serial number:	ORYXHardware model number:	OX4-SRSoftware version number:	ORYX F/W v4.00 Oryx Data Collector v3.7.2.0data status	okinstallation	princeton_trtdifferential loss correction	single-endedforward channel	channel 1reverse channel	N/Adate	2019/09/14time	16:10:35forward acquisition time	60.00reverse acquisition time	0.00gamma	496.2192k internal	0.2296k external	0.2296temperature offset calibration	1.0063default loss term (dB/km)	0.3790temperature slope calibration	1.0000multiplexer offset coefficient	1.0000multiplexer slope coefficient	1.0000fibre end	0.00T internal ref (°C)	38.36T ext. ref 1 (°C)	5.09T ext. ref 2 (°C)	32.94length (m)	temperature (°C)	Stokes	anti-Stokes-747.200	-181.730	-0.231	-0.005
-746.185	125.314	-0.317	0.408
-745.171	800.000	0.052	-0.158
-744.156	95.528	-0.226	0.263
-743.142	-156.706	0.244	-0.015
-742.127	800.000	-0.068	0.280
-741.112	267.451	-0.104	0.186
-740.098	-108.166	-0.301	-0.067
-739.083	-200.000	-0.009	0.332
-738.069	1.996	-0.114	0.084
-737.054	55.009	0.126	0.125
-736.039	-200.000	-0.032	-0.385
-735.025	-129.042	0.356	-0.051
-734.010	-89.120	-0.241	-0.073
-732.996	-56.514	-0.388	-0.176
-731.981	-42.285	0.287	-0.150
-730.966	90.396	0.074	0.085
-729.952	12.997	-0.257	-0.203
-728.937	-83.222	0.178	0.059
-727.923	403.963	0.126	-0.270
-726.908	-200.000	-0.014	-0.307
-725.894	-200.000	-0.042	-0.280
-724.879	466.149	-0.064	0.146
-723.864	440.843	0.018	0.039
-722.850	262.724	0.114	-0.202
-721.835	-107.930	-0.099	0.022
-720.821	235.591	-0.100	-0.168
-719.806	675.769	-0.067	-0.177
-718.791	-200.000	-0.032	-0.178
-717.777	-200.000	-0.045	-0.229
-716.762	800.000	0.057	-0.171
-715.748	-46.812	0.285	-0.143
-714.733	351.019	0.086	-0.174
-713.718	-140.311	0.170	-0.018
-712.704	-81.519	-0.267	-0.090
-711.689	241.612	0.069	-0.119
-710.675	-101.162	0.416	0.104
-709.660	-200.000	-0.003	0.177
-708.645	-92.223	0.334	0.096
-707.631	83.017	-0.144	-0.159
-706.616	-82.960	-0.224	0.074
-705.602	259.145	0.026	0.046
-704.587	-5.899	0.149	-0.104
-703.572	-162.510	0.341	0.017
-702.558	-19.337	0.195	0.123
-701.543	-200.000	0.014	-0.085
-700.529	-59.758	0.360	-0.157
-699.514	-200.000	0.041	0.218
-698.499	800.000	0.043	0.164
-697.485	-200.000	-0.053	-0.299
-696.470	-200.000	0.015	-0.212
-695.456	-55.412	-0.251	0.115
-694.441	800.000	0.041	0.115
-693.426	62.961	0.016	-0.016
-692.412	-171.291	0.214	0.007
-691.397	226.479	0.100	-0.166
-690.383	325.937	0.119	-0.231
-689.368	189.474	0.139	-0.212
-688.354	445.278	-0.058	0.130
-687.339	196.209	0.081	0.126
-686.324	769.417	0.044	0.122
-685.310	-200.000	0.029	0.132
-684.295	800.000	-0.065	-0.241
-683.281	-9.619	-0.231	0.157
-682.266	-26.769	0.141	-0.084
-681.251	-71.176	0.029	-0.011
-680.237	257.087	0.095	0.166
-679.222	165.357	0.241	-0.347
-678.208	-200.000	0.013	-0.162
-677.193	-200.000	-0.068	0.368
-676.178	-120.402	0.252	0.044
-675.164	1.103	0.122	0.089
-674.149	561.900	-0.117	-0.287
-673.135	216.201	0.098	-0.158
-672.120	-45.936	0.262	-0.132
-671.105	88.362	0.138	0.157
-670.091	10.139	0.155	0.120
-669.076	800.000	-0.032	0.114
-668.062	-200.000	0.007	-0.052
-667.047	-200.000	0.026	-0.369
-666.032	800.000	-0.024	0.076
-665.018	145.008	0.088	0.120
-664.003	88.689	0.142	-0.161
-662.989	-37.594	-0.179	-0.097
-661.974	-104.374	-0.192	-0.045
-660.959	-200.000	-0.000	-0.294
-659.945	86.109	0.120	-0.134
-658.930	-200.000	-0.056	0.262
-657.916	800.000	0.043	0.140
-656.901	800.000	0.055	-0.190
-655.886	42.691	-0.240	-0.223
-654.872	-200.000	0.030	-0.224
-653.857	800.000	0.081	0.241
-652.843	-200.000	-0.028	-0.282
-651.828	156.239	0.036	-0.051
-650.814	-200.000	0.033	0.188
-649.799	108.697	0.068	-0.083
-648.784	-61.356	-0.275	0.118
-647.770	-92.747	0.108	-0.031
-646.755	421.184	-0.062	0.136
-645.741	4.667	0.127	-0.095
-644.726	-200.000	-0.026	-0.156
-643.711	193.607	0.095	-0.146
-642.697	-200.000	0.036	0.249
-641.682	133.348	0.150	-0.197
-640.668	466.117	0.072	-0.164
-639.653	-138.615	0.322	-0.036
-638.638	190.191	-0.175	-0.267
-637.624	371.481	0.178	0.368
-636.609	128.338	-0.154	0.199
-635.595	98.527	-0.189	0.221
-634.580	-200.000	0.241	0.001
-633.565	169.388	0.091	0.133
-632.551	-138.230	-0.288	0.032
-631.536	155.240	-0.088	0.124
-630.522	-157.497	0.019	0.001
-629.507	800.000	-0.035	0.146
-628.492	427.288	0.072	-0.157
-627.478	233.896	0.046	-0.076
-626.463	-200.000	-0.005	-0.164
-625.449	424.927	0.067	0.148
-624.434	-200.000	-0.046	-0.354
-623.419	-8.002	0.097	-0.067
-622.405	800.000	0.067	0.246
-621.390	166.851	0.060	-0.087
-620.376	60.509	0.152	-0.153
-619.361	-110.583	0.112	-0.024
-618.346	51.027	0.111	-0.107
-617.332	0.152	-0.177	-0.129
-616.317	-119.453	-0.094	0.017
-615.303	142.204	-0.268	-0.362
-614.288	536.616	-0.125	0.301
-613.273	-42.493	0.506	0.262
-612.259	800.000	-0.082	-0.352
-611.244	800.000	0.078	0.255
-610.230	-15.753	-0.157	0.102
-609.215	20.154	-0.253	-0.207
-608.201	-200.000	0.008	0.116
-607.186	-200.000	0.029	-0.338
-606.171	-200.000	-0.100	0.000
-605.157	125.354	-0.162	-0.208
-604.142	-200.000	-0.012	-0.239
-603.128	-200.000	0.060	-0.365
-602.113	-113.372	0.194	-0.039
-601.098	-65.831	0.476	-0.194
-600.084	280.121	-0.140	-0.254
-599.069	-51.103	0.137	-0.065
-598.055	-73.809	-0.214	0.079
-597.040	-162.754	0.270	0.013
-596.025	-74.064	-0.229	-0.084
-595.011	42.365	0.062	-0.057
-593.996	18.008	-0.113	0.092
-592.982	-152.267	-0.067	0.005
-591.967	-100.081	0.178	0.045
-590.952	-149.018	0.157	0.013
-589.938	-200.000	0.011	0.265
-588.923	-200.000	0.049	0.284
-587.909	-105.725	-0.094	0.021
-586.894	-47.264	0.102	-0.051
-585.879	178.172	0.135	-0.200
-584.865	-44.105	-0.138	0.071
-583.850	0.274	-0.335	-0.242
-582.836	-158.102	0.096	0.006
-581.821	-185.038	-0.180	-0.003
-580.806	60.714	0.226	0.227
-579.792	-200.000	0.059	0.286
-578.777	-58.770	-0.195	0.086
-577.763	181.809	-0.111	-0.166
-576.748	574.903	0.042	0.104
-575.733	250.859	0.098	0.169
-574.719	-17.653	-0.263	-0.168
-573.704	355.639	0.140	-0.283
-572.690	73.629	-0.118	-0.125
-571.675	-59.821	0.207	-0.090
-570.661	-200.000	0.001	0.068
-569.646	-141.157	-0.087	0.009
-568.631	-200.000	-0.001	-0.058
-567.617	-200.000	0.021	0.176
-566.602	148.597	0.260	0.356
-565.588	13.882	-0.091	0.072
-564.573	800.000	-0.049	0.159
-563.558	27.138	0.061	0.052
-562.544	-18.101	0.278	0.177
-561.529	-200.000	-0.039	0.236
-560.515	-54.698	0.170	0.078
-559.500	78.617	0.233	0.252
-558.485	49.275	-0.137	-0.131
-557.471	177.739	-0.056	-0.083
-556.456	-19.423	-0.060	0.037
-555.442	0.804	-0.207	0.151
-554.427	-95.199	-0.250	-0.068
-553.412	-3.520	-0.147	-0.103
-552.398	-39.016	-0.215	-0.115
-551.383	-31.428	-0.053	-0.030
-550.369	800.000	-0.015	0.045
-549.354	172.668	0.042	-0.061
-548.339	105.313	-0.111	0.133
-547.325	-200.000	0.007	-0.076
-546.310	-51.173	-0.250	0.119
-545.296	-9.119	-0.268	-0.182
-544.281	-200.000	0.006	-0.163
-543.266	-200.000	-0.023	-0.281
-542.252	81.075	0.034	0.037
-541.237	800.000	-0.033	-0.121
-540.223	-186.726	0.368	0.005
-539.208	800.000	-0.057	0.223
-538.193	-74.420	0.100	0.037
-537.179	-3.361	-0.367	0.259
-536.164	800.000	0.029	0.111
-535.150	-200.000	-0.011	-0.191
-534.135	-200.000	0.031	-0.187
-533.121	-12.637	0.167	0.110
-532.106	11.104	-0.185	-0.143
-531.091	64.587	0.070	-0.071
-530.077	-120.752	0.091	0.016
-529.062	-2.115	-0.242	-0.172
-528.048	-19.711	0.201	-0.126
-527.033	-0.165	-0.142	0.102
-526.018	-98.245	0.069	0.018
-525.004	-11.679	0.084	0.056
-523.989	252.075	0.081	-0.140
-522.975	369.704	-0.101	0.207
-521.960	800.000	-0.060	-0.169
-520.945	98.797	-0.036	-0.043
-519.931	55.493	-0.145	0.142
-518.916	42.243	-0.088	0.081
-517.902	-200.000	-0.031	0.203
-516.887	7.589	-0.115	0.087
-515.872	-197.660	-0.135	-0.001
-514.858	-99.837	0.197	0.050
-513.843	60.387	0.045	0.045
-512.829	-40.827	-0.109	0.057
-511.814	21.499	-0.057	0.047
-510.799	91.513	-0.153	-0.174
-509.785	800.000	0.078	0.270
-508.770	237.859	-0.058	0.097
-507.756	-200.000	0.011	-0.081
-506.741	-20.078	0.201	0.126
-505.726	-200.000	-0.009	-0.356
-504.712	-200.000	-0.031	-0.215
-503.697	800.000	0.077	0.223
-502.683	-116.417	0.111	-0.021
-501.668	-4.152	-0.249	-0.175
-500.653	-59.175	0.096	-0.042
-499.639	-164.130	-0.442	0.021
-498.624	568.586	0.082	-0.202
-497.610	8.981	-0.114	0.087
-496.595	-200.000	0.042	-0.321
-495.581	-139.254	-0.548	0.060
-494.566	-114.017	0.442	0.087
-493.551	4.913	-0.089	0.066
-492.537	332.909	-0.047	0.091
-491.522	-200.000	-0.031	0.250
-490.508	-93.136	-0.131	-0.037
-489.493	-70.093	-0.343	0.132
-488.478	146.523	0.172	0.234
-487.464	-106.906	-0.184	0.041
-486.449	132.978	0.176	-0.230
-485.435	800.000	-0.038	-0.159
-484.420	-200.000	-0.080	0.358
-483.405	15.220	-0.009	-0.007
-482.391	-75.662	0.086	-0.031
-481.376	116.196	-0.109	0.135
-480.362	-131.274	-0.143	-0.019
-479.347	-109.486	-0.405	-0.087
-478.332	53.885	0.130	-0.127
-477.318	-14.747	-0.079	0.051
-476.303	38.318	0.153	0.138
-475.289	102.036	0.067	0.079
-474.274	164.657	-0.084	0.120
-473.259	-122.295	0.221	0.036
-472.245	12.800	0.077	-0.060
-471.230	-200.000	-0.007	-0.210
-470.216	-200.000	0.058	-0.318
-469.201	249.086	-0.246	0.422
-468.186	-52.520	-0.184	-0.086
-467.172	612.473	0.082	0.209
-466.157	45.233	-0.031	0.029
-465.143	-162.768	0.419	-0.021
-464.128	800.000	-0.038	0.110
-463.113	-200.000	0.044	-0.385
-462.099	-44.902	-0.031	0.016
-461.084	800.000	0.084	0.272
-460.070	-151.520	0.235	0.018
-459.055	-42.496	-0.226	-0.117
-458.040	68.462	-0.184	-0.190
-457.026	-200.000	0.009	0.165
-456.011	183.056	0.183	0.273
-454.997	562.625	-0.088	0.214
-453.982	800.000	0.056	-0.231
-452.968	77.349	-0.295	-0.317
-451.953	-176.235	-0.221	-0.006
-450.938	-127.833	-0.189	0.028
-449.924	-97.114	-0.074	-0.020
-448.909	-57.002	-0.273	0.121
-447.895	-50.951	-0.041	-0.020
-446.880	275.775	-0.068	-0.122
-445.865	800.000	0.049	0.210
-444.851	78.153	-0.127	-0.137
-443.836	-161.249	0.155	0.008
-442.822	-194.145	0.311	0.003
-441.807	-200.000	-0.038	-0.286
-440.792	-200.000	-0.009	-0.195
-439.778	-135.634	-0.295	-0.035
-438.763	584.268	-0.098	0.243
-437.749	-200.000	0.017	-0.189
-436.734	-200.000	0.057	-0.383
-435.719	800.000	-0.031	0.094
-434.705	84.341	0.224	-0.248
-433.690	-179.173	0.103	0.002
-432.676	145.706	-0.154	-0.209
-431.661	-73.967	-0.290	0.106
-430.646	800.000	0.044	0.164
-429.632	-130.993	-0.226	-0.030
-428.617	432.868	-0.140	-0.306
-427.603	-200.000	0.001	-0.415
-426.588	800.000	-0.019	0.065
-425.573	61.042	-0.119	-0.119
-424.559	260.913	0.088	0.153
-423.544	566.775	-0.096	-0.235
-422.530	55.806	0.023	0.022
-421.515	800.000	0.065	0.250
-420.500	415.124	0.068	0.147
-419.486	13.139	-0.232	0.181
-418.471	-200.000	-0.000	0.044
-417.457	-191.856	-0.131	0.001
-416.442	-77.722	0.265	0.092
-415.428	4.987	0.178	0.132
-414.413	-79.074	0.258	-0.089
-413.398	71.798	-0.225	0.236
-412.384	30.468	-0.284	-0.245
-411.369	52.877	-0.034	0.033
-410.355	29.882	0.110	-0.094
-409.340	213.024	0.147	0.234
-408.325	-28.097	-0.114	0.067
-407.311	41.498	0.190	0.173
-406.296	76.357	-0.254	0.272
-405.282	-200.000	0.043	-0.231
-404.267	-200.000	0.007	-0.237
-403.252	75.747	0.189	0.202
-402.238	224.409	-0.131	-0.213
-401.223	-101.829	-0.280	-0.068
-400.209	721.994	0.078	-0.209
-399.194	800.000	0.046	-0.201
-398.179	-200.000	0.004	-0.136
-397.165	-49.985	0.222	0.106
-396.150	39.474	0.115	0.104
-395.136	111.863	0.157	0.191
-394.121	394.416	-0.097	0.204
-393.106	-57.393	-0.294	-0.130
-392.092	-92.363	-0.145	-0.041
-391.077	70.862	-0.093	-0.097
-390.063	64.420	-0.158	-0.160
-389.048	-154.350	0.393	-0.027
-388.033	-61.661	0.138	-0.058
-387.019	-93.265	0.218	-0.061
-386.004	800.000	0.069	-0.276
-384.990	-200.000	-0.001	-0.017
-383.975	-97.074	-0.044	-0.012
-382.960	-119.416	-0.148	-0.026
-381.946	-129.718	0.210	0.029
-380.931	-200.000	0.031	0.243
-379.917	800.000	0.023	0.097
-378.902	800.000	0.058	-0.226
-377.888	309.576	-0.136	0.255
-376.873	-129.991	-0.225	0.031
-375.858	198.221	0.134	-0.206
-374.844	143.622	0.179	-0.241
-373.829	-200.000	0.061	0.285
-372.815	115.964	0.076	-0.094
-371.800	-121.200	-0.178	0.030
-370.785	13.130	-0.053	0.041
-369.771	-143.803	0.210	-0.020
-368.756	-65.144	0.148	0.060
-367.742	-200.000	0.015	-0.084
-366.727	32.844	0.040	-0.035
-365.712	-154.498	0.067	0.005
-364.698	96.632	-0.088	0.102
-363.683	-200.000	0.025	0.180
-362.669	-95.046	0.194	0.053
-361.654	800.000	0.090	-0.284
-360.639	-200.000	0.032	-0.338
-359.625	-2.275	-0.181	0.128
-358.610	800.000	0.038	0.114
-357.596	800.000	-0.102	0.326
-356.581	11.575	-0.181	-0.139
-355.566	-52.812	0.388	0.180
-354.552	-9.744	-0.428	0.287
-353.537	-156.719	0.350	0.022
-352.523	-108.440	0.364	-0.079
-351.508	-200.000	0.008	-0.086
-350.493	73.558	0.356	-0.376
-349.479	100.196	-0.156	-0.182
-348.464	-8.367	0.201	0.136
-347.450	191.139	-0.104	0.158
-346.435	206.189	-0.218	0.341
-345.420	126.629	0.119	0.152
-344.406	232.517	-0.032	0.053
-343.391	800.000	-0.042	0.143
-342.377	-135.327	-0.090	0.011
-341.362	496.055	0.043	-0.100
-340.348	-39.872	0.190	-0.100
-339.333	-44.465	0.138	0.070
-338.318	-200.000	-0.017	0.125
-337.304	-200.000	0.038	-0.170
-336.289	800.000	0.083	-0.268
-335.275	-146.547	-0.154	-0.013
-334.260	71.669	0.083	-0.087
-333.245	-91.854	-0.125	0.036
-332.231	539.638	-0.017	0.042
-331.216	69.879	-0.266	-0.276
-330.202	-200.000	-0.014	0.130
-329.187	-194.053	0.119	-0.001
-328.172	87.943	-0.229	0.255
-327.158	8.297	-0.037	-0.028
-326.143	-179.935	0.189	-0.004
-325.129	104.185	-0.114	0.135
-324.114	0.371	0.202	0.145
-323.099	-144.176	-0.017	-0.002
-322.085	-85.845	-0.302	0.094
-321.070	301.847	0.103	-0.192
-320.056	169.594	0.095	0.136
-319.041	3.884	-0.170	0.125
-318.026	201.127	0.255	0.394
-317.012	-96.324	0.382	0.102
-315.997	483.011	-0.171	0.390
-314.983	-105.636	0.195	0.044
-313.968	-24.350	0.133	0.080
-312.953	-19.820	-0.292	0.182
-311.939	225.587	0.076	-0.123
-310.924	800.000	0.050	0.147
-309.910	-58.346	0.131	0.057
-308.895	188.222	0.163	-0.245
-307.880	515.236	0.090	0.211
-306.866	27.308	-0.419	0.353
-305.851	47.493	0.115	0.108
-304.837	687.209	0.055	-0.145
-303.822	92.998	0.067	0.076
-302.807	-200.000	0.001	0.118
-301.793	-118.247	-0.084	0.015
-300.778	56.196	-0.349	0.340
-299.764	-48.391	-0.111	-0.054
-298.749	304.393	-0.138	-0.257
-297.735	-66.997	-0.384	-0.152
-296.720	-62.314	-0.104	-0.044
-295.705	-200.000	-0.028	0.286
-294.691	-4.825	-0.312	-0.216
-293.676	-8.906	-0.346	-0.233
-292.662	-100.720	-0.203	-0.050
-291.647	-200.000	0.006	-0.190
-290.632	-78.684	0.334	-0.114
-289.618	77.739	0.069	-0.074
-288.603	-187.035	-0.018	-0.000
-287.589	215.058	-0.265	0.422
-286.574	-200.000	0.047	0.233
-285.559	35.324	0.204	0.179
-284.545	165.410	0.046	-0.065
-283.530	-159.957	0.261	-0.014
-282.516	23.593	-0.113	-0.093
-281.501	-14.452	0.143	-0.093
-280.486	143.988	-0.149	0.200
-279.472	-200.000	0.007	0.106
-278.457	50.097	0.239	-0.226
-277.443	-87.020	-0.333	0.102
-276.428	800.000	0.079	0.227
-275.413	57.673	-0.134	0.131
-274.399	-1.741	-0.164	0.116
-273.384	40.440	-0.320	-0.289
-272.370	-200.000	-0.067	-0.383
-271.355	-52.729	-0.094	-0.044
-270.340	-102.218	-0.138	0.033
-269.326	-200.000	0.110	-0.491
-268.311	-35.504	-0.115	-0.062
-267.297	25.464	-0.083	0.070
-266.282	-184.174	0.104	-0.002
-265.267	-98.425	-0.038	0.010
-264.253	-200.000	-0.017	0.230
-263.238	800.000	-0.082	-0.354
-262.224	800.000	0.033	0.092
-261.209	93.267	0.080	0.091
-260.195	75.424	-0.018	0.019
-259.180	-112.746	0.389	-0.078
-258.165	-44.443	-0.057	0.029
-257.151	-134.876	0.230	-0.028
-256.136	-200.000	0.030	-0.177
-255.122	-5.614	0.532	0.366
-254.107	-95.701	0.179	-0.048
-253.092	-68.240	0.279	0.109
-252.078	88.671	0.058	0.065
-251.063	-72.829	0.485	0.179
-250.049	-154.008	0.203	0.014
-249.034	-95.771	-0.103	-0.028
-248.019	240.853	-0.045	-0.076
-247.005	402.334	0.032	-0.068
-245.990	688.143	-0.076	0.199
-244.976	83.405	-0.216	0.236
-243.961	77.915	0.231	-0.246
-242.946	-154.446	0.359	-0.024
-241.932	522.940	-0.093	-0.218
-240.917	800.000	0.017	-0.071
-239.903	87.044	0.179	0.198
-238.888	88.909	-0.056	-0.063
-237.873	79.211	-0.140	-0.150
-236.859	-162.341	-0.364	-0.018
-235.844	265.689	0.123	-0.215
-234.830	255.222	-0.129	0.222
-233.815	475.407	0.137	0.309
-232.800	-80.101	-0.164	-0.055
-231.786	-66.809	-0.140	0.055
-230.771	-166.525	0.315	0.013
-229.757	110.188	0.260	-0.313
-228.742	-200.000	0.062	-0.550
-227.727	-65.864	-0.244	0.098
-226.713	-90.688	0.306	0.088
-225.698	-106.013	0.417	-0.094
-224.684	-97.351	-0.303	-0.079
-223.669	-165.961	0.213	0.009
-222.655	-200.000	0.006	0.039
-221.640	-52.221	-0.131	-0.061
-220.625	-200.000	-0.374	0.000
-219.611	-129.163	-0.205	0.029
-218.596	-66.487	-0.344	0.137
-217.582	-200.000	0.022	0.118
-216.567	-74.247	0.180	-0.065
-215.552	-200.000	0.013	0.084
-214.538	93.121	-0.299	-0.338
-213.523	800.000	0.030	-0.103
-212.509	800.000	-0.052	0.149
-211.494	-55.632	-0.225	0.101
-210.479	-200.000	0.013	0.439
-209.465	-112.805	-0.117	0.023
-208.450	-124.629	0.276	0.043
-207.436	800.000	0.079	0.240
-206.421	41.177	0.274	-0.248
-205.406	-131.325	-0.150	-0.020
-204.392	-200.000	0.023	-0.165
-203.377	210.964	-0.222	-0.350
-202.363	-50.807	0.303	-0.143
-201.348	138.021	0.102	0.134
-200.333	415.887	0.148	0.315
-199.319	-144.073	-0.115	0.011
-198.304	-200.000	-0.002	0.159
-197.290	-38.054	-0.044	0.023
-196.275	-200.000	0.012	0.132
-195.260	738.345	-0.016	0.042
-194.246	261.400	0.127	0.220
-193.231	-83.468	0.271	0.087
-192.217	-86.678	-0.177	-0.054
-191.202	298.742	-0.027	0.050
-190.187	-114.272	-0.209	-0.040
-189.173	-200.000	-0.012	-0.160
-188.158	-80.696	0.252	-0.084
-187.144	-178.282	-0.238	-0.006
-186.129	132.129	-0.044	-0.057
-185.114	800.000	-0.056	0.209
-184.100	168.464	-0.196	0.279
-183.085	129.758	0.058	0.074
-182.071	41.681	-0.105	-0.095
-181.056	-200.000	-0.062	0.339
-180.042	-159.408	0.207	0.012
-179.027	523.004	-0.052	0.122
-178.012	800.000	-0.032	0.124
-176.998	242.019	0.125	0.208
-175.983	-200.000	0.015	-0.115
-174.969	46.210	0.077	0.071
-173.954	-47.697	-0.336	-0.163
-172.939	-84.901	0.110	0.034
-171.925	492.585	-0.070	-0.161
-170.910	212.499	0.280	-0.441
-169.896	-127.193	0.451	0.066
-168.881	-146.572	0.337	0.029
-167.866	55.278	-0.288	-0.278
-166.852	-200.000	0.072	-0.317
-165.837	289.315	0.097	0.175
-164.823	-114.715	-0.375	-0.072
-163.808	66.882	0.123	-0.125
-162.793	-133.306	0.132	-0.017
-161.779	253.944	-0.035	-0.059
-160.764	-72.608	0.187	0.069
-159.750	-51.719	0.474	0.221
-158.735	-130.682	0.129	0.017
-157.720	-35.971	-0.134	0.073
-156.706	32.115	-0.071	0.061
-155.691	288.478	-0.145	-0.263
-154.677	800.000	0.111	-0.392
-153.662	-4.072	0.406	-0.281
-152.647	-157.954	0.225	0.013
-151.633	800.000	0.042	-0.135
-150.618	-68.582	0.170	0.066
-149.604	-90.697	0.365	0.105
-148.589	-148.187	-0.080	-0.007
-147.574	-102.378	-0.210	-0.050
-146.560	68.396	-0.214	-0.219
-145.545	136.524	-0.110	0.144
-144.531	57.687	0.101	0.098
-143.516	-114.618	0.160	-0.031
-142.502	259.658	0.195	-0.336
-141.487	-58.444	-0.048	-0.021
-140.472	-178.865	-0.310	0.007
-139.458	181.933	0.190	0.279
-138.443	800.000	0.093	-0.262
-137.429	-125.858	-0.161	-0.024
-136.414	229.531	-0.068	-0.112
-135.399	544.344	0.106	0.252
-134.385	-135.251	-0.212	-0.025
-133.370	-0.625	-0.151	0.107
-132.356	800.000	0.061	0.257
-131.341	-107.798	0.360	0.078
-130.326	12.760	0.165	0.127
-129.312	37.867	0.216	0.192
-128.297	-119.407	0.124	0.022
-127.283	-200.000	0.006	-0.044
-126.268	-94.133	0.152	0.042
-125.253	800.000	-0.032	0.097
-124.239	-76.870	-0.220	0.077
-123.224	-200.000	-0.011	-0.075
-122.210	-200.000	0.023	0.243
-121.195	431.504	-0.008	-0.017
-120.180	789.677	-0.071	-0.194
