DTS Sentinel unit serial number:	SN413079Multiplexer serial number:	ORYXHardware model number:	OX4-SRSoftware version number:	ORYX F/W v4.00 Oryx Data Collector v3.7.2.0data status	okinstallation	princeton_trtdifferential loss correction	single-endedforward channel	channel 1reverse channel	N/Adate	2019/09/18time	06:14:35forward acquisition time	60.00reverse acquisition time	0.00gamma	496.2192k internal	0.2339k external	0.2339temperature offset calibration	0.9976default loss term (dB/km)	0.3790temperature slope calibration	1.0000multiplexer offset coefficient	1.0000multiplexer slope coefficient	1.0000fibre end	0.00T internal ref (°C)	23.22T ext. ref 1 (°C)	0.17T ext. ref 2 (°C)	17.75length (m)	temperature (°C)	Stokes	anti-Stokes-747.200	-108.531	0.056	-0.012
-746.185	277.696	0.216	-0.386
-745.171	-200.000	0.011	0.154
-744.156	-175.824	-0.463	0.012
-743.142	-200.000	0.006	-0.075
-742.127	9.608	-0.241	0.183
-741.112	187.644	-0.140	0.210
-740.098	26.440	-0.171	0.143
-739.083	-141.043	0.143	-0.015
-738.069	-54.411	-0.098	-0.045
-737.054	303.056	0.047	-0.087
-736.039	110.037	0.226	0.272
-735.025	-39.800	0.227	0.119
-734.010	-200.000	-0.021	-0.105
-732.996	800.000	-0.124	-0.459
-731.981	-112.286	0.037	0.008
-730.966	-28.386	-0.184	0.106
-729.952	-15.185	-0.298	-0.191
-728.937	-74.580	0.134	-0.049
-727.923	187.788	0.151	0.226
-726.908	143.705	-0.148	-0.197
-725.894	132.285	0.147	-0.190
-724.879	-200.000	-0.010	-0.325
-723.864	800.000	0.069	0.199
-722.850	-77.760	0.284	-0.098
-721.835	219.321	0.239	0.382
-720.821	-200.000	-0.041	-0.204
-719.806	800.000	-0.045	-0.154
-718.791	-21.183	-0.350	-0.214
-717.777	-117.357	0.195	0.035
-716.762	800.000	-0.068	-0.259
-715.748	767.310	-0.059	0.161
-714.733	-200.000	-0.025	-0.361
-713.718	6.028	0.321	0.238
-712.704	-6.451	-0.115	0.078
-711.689	152.958	0.151	-0.206
-710.675	800.000	0.048	-0.185
-709.660	-108.608	0.024	0.005
-708.645	-56.838	0.105	-0.046
-707.631	800.000	0.066	0.233
-706.616	-37.504	0.164	-0.088
-705.602	-200.000	0.023	0.106
-704.587	364.283	0.162	-0.326
-703.572	-122.148	-0.159	-0.026
-702.558	-47.367	-0.033	-0.016
-701.543	-71.346	-0.131	-0.049
-700.529	-106.698	-0.123	0.027
-699.514	67.352	0.146	-0.149
-698.499	224.352	-0.150	-0.243
-697.485	-1.269	0.045	0.032
-696.470	-85.128	-0.226	0.071
-695.456	-200.000	-0.025	0.181
-694.441	430.238	0.128	-0.278
-693.426	182.617	0.163	0.241
-692.412	800.000	-0.127	-0.388
-691.397	-200.000	0.039	-0.236
-690.383	-26.324	0.214	0.126
-689.368	-110.869	-0.211	-0.043
-688.354	-76.940	-0.159	0.055
-687.339	-18.856	-0.350	-0.218
-686.324	-130.742	-0.249	0.034
-685.310	-200.000	0.027	0.252
-684.295	-142.611	-0.127	-0.012
-683.281	215.982	0.093	-0.148
-682.266	371.882	-0.132	-0.267
-681.251	348.087	-0.128	-0.253
-680.237	11.310	0.166	-0.127
-679.222	73.730	0.154	-0.161
-678.208	34.173	0.176	0.154
-677.193	496.736	-0.049	-0.112
-676.178	-200.000	0.044	0.242
-675.164	-14.217	-0.214	-0.138
-674.149	115.769	-0.125	-0.153
-673.135	-200.000	-0.038	0.181
-672.120	84.968	0.199	0.218
-671.105	-46.648	0.137	-0.067
-670.091	672.936	-0.034	-0.087
-669.076	-16.636	0.439	0.278
-668.062	304.907	-0.104	-0.193
-667.047	-158.022	0.190	-0.011
-666.032	430.259	-0.140	-0.303
-665.018	781.899	0.070	0.191
-664.003	239.283	0.060	-0.099
-662.989	-107.006	0.221	0.049
-661.974	-97.364	-0.245	0.064
-660.959	-104.607	0.254	-0.059
-659.945	5.923	-0.404	-0.299
-658.930	487.179	0.007	0.016
-657.916	24.417	0.316	-0.261
-656.901	360.623	0.092	-0.183
-655.886	-111.631	-0.119	-0.024
-654.872	-55.982	0.096	-0.043
-653.857	-200.000	0.059	0.300
-652.843	800.000	0.018	0.076
-651.828	95.998	0.148	0.168
-650.814	-135.935	-0.271	-0.032
-649.799	-156.405	-0.185	-0.012
-648.784	229.778	0.023	-0.038
-647.770	-200.000	0.056	-0.332
-646.755	217.883	-0.241	-0.384
-645.741	311.341	-0.011	-0.021
-644.726	800.000	-0.033	-0.108
-643.711	-3.179	0.142	0.099
-642.697	-181.753	0.113	0.002
-641.682	-17.625	0.164	0.103
-640.668	-2.042	-0.216	-0.152
-639.653	47.495	-0.086	-0.080
-638.638	-3.349	-0.146	-0.102
-637.624	-86.730	-0.163	0.050
-636.609	-62.395	-0.069	-0.029
-635.595	193.059	0.195	-0.294
-634.580	-135.058	-0.068	-0.008
-633.565	-107.249	0.057	-0.012
-632.551	74.198	-0.140	-0.146
-631.536	800.000	0.107	-0.323
-630.522	-93.183	0.226	-0.063
-629.507	-192.966	-0.264	0.002
-628.492	638.778	0.011	-0.027
-627.478	-200.000	0.052	-0.367
-626.463	-60.834	-0.174	0.073
-625.449	-90.257	0.182	-0.053
-624.434	220.643	-0.127	-0.204
-623.419	168.673	-0.155	0.221
-622.405	110.048	-0.143	0.171
-621.390	60.598	0.082	-0.081
-620.376	-71.209	-0.229	-0.086
-619.361	-63.578	0.364	-0.149
-618.346	-84.025	0.291	-0.092
-617.332	-1.456	-0.306	0.215
-616.317	-160.846	0.136	-0.007
-615.303	-1.674	-0.135	0.095
-614.288	589.655	-0.054	-0.132
-613.273	-60.972	-0.114	0.048
-612.259	-200.000	-0.021	0.128
-611.244	-120.156	0.305	0.052
-610.230	209.147	-0.226	0.354
-609.215	16.464	-0.289	-0.227
-608.201	-200.000	-0.030	-0.206
-607.186	120.198	0.028	-0.035
-606.171	289.555	-0.043	-0.078
-605.157	-65.879	0.211	-0.084
-604.142	-142.462	0.187	0.018
-603.128	-0.893	-0.198	0.140
-602.113	-99.795	-0.415	0.104
-601.098	120.827	0.086	0.107
-600.084	-61.106	-0.081	0.034
-599.069	800.000	0.044	-0.172
-598.055	-200.000	-0.019	-0.450
-597.040	-200.000	0.025	-0.221
-596.025	774.177	0.037	-0.101
-595.011	-25.893	-0.331	-0.194
-593.996	-136.429	-0.046	0.005
-592.982	-27.773	-0.108	-0.062
-591.967	-87.485	0.264	0.080
-590.952	5.820	-0.164	-0.121
-589.938	-160.682	-0.281	-0.015
-588.923	-200.000	-0.010	0.288
-587.909	31.275	-0.269	0.231
-586.894	102.291	-0.137	0.160
-585.879	114.521	0.173	-0.210
-584.865	-64.704	-0.186	-0.075
-583.850	-200.000	0.028	0.151
-582.836	-200.000	-0.038	0.220
-581.821	-113.761	-0.333	-0.065
-580.806	800.000	-0.078	-0.226
-579.792	-16.678	0.149	-0.094
-578.777	622.987	0.141	0.353
-577.763	434.478	-0.133	-0.287
-576.748	-200.000	0.005	0.184
-575.733	7.426	0.041	0.031
-574.719	-200.000	0.060	0.301
-573.704	800.000	0.052	0.210
-572.690	800.000	-0.069	-0.259
-571.675	-200.000	0.055	-0.462
-570.661	20.792	0.149	-0.120
-569.646	800.000	-0.024	0.088
-568.631	43.438	-0.130	0.119
-567.617	-200.000	-0.031	0.181
-566.602	52.703	-0.150	-0.142
-565.588	21.560	0.314	-0.255
-564.573	-200.000	-0.021	0.257
-563.558	42.100	0.080	0.072
-562.544	800.000	0.026	0.112
-561.529	257.404	-0.147	-0.251
-560.515	-200.000	0.002	0.116
-559.500	800.000	-0.066	-0.279
-558.485	-101.256	0.286	-0.069
-557.471	105.177	-0.125	0.147
-556.456	-31.622	0.276	0.154
-555.442	157.423	-0.158	0.218
-554.427	-6.036	0.013	-0.009
-553.412	-22.919	0.061	0.037
-552.398	-73.993	-0.324	0.117
-551.383	-44.391	0.217	0.108
-550.369	-21.529	0.312	-0.189
-549.354	-200.000	-0.020	-0.095
-548.339	276.027	0.196	0.346
-547.325	-200.000	-0.002	0.027
-546.310	9.041	-0.048	0.036
-545.296	-200.000	-0.022	0.189
-544.281	-200.000	-0.018	-0.218
-543.266	35.256	0.082	-0.072
-542.252	-141.366	0.245	-0.025
-541.237	20.394	-0.039	0.031
-540.223	-15.556	0.118	0.075
-539.208	-200.000	0.027	-0.181
-538.193	800.000	-0.040	0.150
-537.179	-109.418	0.106	0.022
-536.164	-200.000	-0.330	-0.001
-535.150	-72.490	0.198	0.073
-534.135	-200.000	-0.004	-0.329
-533.121	-78.111	-0.201	0.069
-532.106	-200.000	-0.089	0.458
-531.091	800.000	0.051	0.179
-530.077	272.505	-0.101	0.178
-529.062	-37.214	-0.298	-0.158
-528.048	-200.000	-0.022	-0.126
-527.033	261.948	-0.060	0.104
-526.018	-200.000	0.037	-0.184
-525.004	-200.000	-0.022	0.314
-523.989	-200.000	-0.003	-0.077
-522.975	-29.940	0.140	0.079
-521.960	325.321	0.079	-0.150
-520.945	-151.580	-0.085	-0.006
-519.931	9.753	-0.132	0.099
-518.916	-81.695	-0.184	-0.060
-517.902	240.429	0.049	0.081
-516.887	335.455	-0.110	-0.213
-515.872	-68.163	0.349	-0.135
-514.858	282.147	-0.107	-0.191
-513.843	-45.409	0.013	0.006
-512.829	238.049	-0.037	0.061
-511.814	-200.000	0.026	-0.420
-510.799	800.000	-0.030	-0.120
-509.785	-122.697	-0.170	-0.027
-508.770	800.000	0.030	0.094
-507.756	18.275	0.134	0.107
-506.741	-31.538	0.513	-0.287
-505.726	268.528	0.012	-0.020
-504.712	-200.000	-0.027	0.183
-503.697	-153.909	-0.153	0.010
-502.683	-200.000	-0.080	-0.552
-501.668	-30.984	-0.226	-0.127
-500.653	-172.028	-0.183	0.006
-499.639	322.698	-0.074	0.140
-498.624	225.135	-0.145	-0.233
-497.610	800.000	0.052	-0.143
-496.595	800.000	0.061	-0.172
-495.581	6.174	-0.132	-0.097
-494.566	-118.426	-0.163	-0.029
-493.551	800.000	0.125	0.358
-492.537	-64.011	-0.257	0.104
-491.522	-33.599	-0.125	-0.069
-490.508	-100.630	0.255	0.063
-489.493	22.183	-0.084	-0.068
-488.478	556.205	0.052	-0.125
-487.464	-14.593	-0.379	0.242
-486.449	196.346	0.177	-0.268
-485.435	800.000	-0.060	0.185
-484.420	187.455	-0.238	-0.352
-483.405	-59.798	0.174	0.074
-482.391	800.000	-0.049	0.143
-481.376	-20.005	0.179	-0.110
-480.362	245.020	-0.084	0.140
-479.347	-28.425	-0.182	-0.104
-478.332	-74.513	0.189	-0.068
-477.318	399.488	-0.141	-0.293
-476.303	36.062	-0.239	-0.209
-475.289	-89.423	-0.073	0.021
-474.274	-46.288	-0.107	0.052
-473.259	-17.326	0.091	-0.057
-472.245	10.310	0.066	0.050
-471.230	-200.000	0.022	-0.374
-470.216	-200.000	-0.018	-0.283
-469.201	421.177	-0.052	-0.110
-468.186	7.782	-0.241	0.179
-467.172	-200.000	-0.038	0.389
-466.157	-39.165	0.146	0.076
-465.143	110.416	-0.024	-0.029
-464.128	-65.818	0.154	0.061
-463.113	530.400	-0.080	-0.188
-462.099	-75.995	0.139	0.049
-461.084	-200.000	-0.024	-0.168
-460.070	-19.911	-0.048	0.029
-459.055	-90.059	0.092	0.027
-458.040	-13.990	0.050	0.032
-457.026	253.548	0.040	0.068
-456.011	-121.866	-0.301	-0.049
-454.997	-64.309	0.263	-0.106
-453.982	-1.430	-0.219	0.153
-452.968	-79.983	-0.189	0.063
-451.953	-22.115	0.029	0.017
-450.938	-64.456	0.278	-0.112
-449.924	-111.447	-0.165	0.033
-448.909	-200.000	-0.062	-0.278
-447.895	67.322	0.094	-0.095
-446.880	135.956	0.151	-0.195
-445.865	-200.000	-0.031	-0.223
-444.851	-64.490	0.281	0.113
-443.836	35.055	-0.080	0.069
-442.822	800.000	-0.095	0.335
-441.807	-200.000	0.044	0.272
-440.792	80.667	-0.258	0.275
-439.778	288.797	-0.095	-0.171
-438.763	-26.101	0.206	-0.120
-437.749	-8.980	0.498	-0.331
-436.734	1.467	-0.455	-0.324
-435.719	-93.617	0.193	0.053
-434.705	54.577	-0.164	-0.157
-433.690	-200.000	-0.009	0.152
-432.676	-73.335	0.080	0.029
-431.661	247.747	0.051	0.086
-430.646	188.630	0.044	0.066
-429.632	108.235	0.182	0.215
-428.617	268.087	-0.197	-0.343
-427.603	22.480	0.123	-0.100
-426.588	-59.504	-0.167	-0.071
-425.573	-200.000	0.022	0.247
-424.559	-200.000	0.008	0.176
-423.544	334.599	0.186	-0.357
-422.530	-45.631	-0.169	0.083
-421.515	83.337	0.356	0.384
-420.500	-200.000	0.032	-0.211
-419.486	220.373	0.242	-0.384
-418.471	-200.000	0.198	-0.001
-417.457	-162.996	0.079	0.004
-416.442	-152.753	0.261	0.018
-415.428	-95.468	-0.217	0.058
-414.413	2.334	0.079	0.056
-413.398	4.442	0.355	-0.258
-412.384	39.729	0.118	0.105
-411.369	196.951	0.173	0.260
-410.355	36.432	-0.140	-0.122
-409.340	530.619	0.175	-0.409
-408.325	-200.000	-0.026	0.251
-407.311	433.758	0.083	-0.179
-406.296	390.698	0.054	-0.111
-405.282	44.271	-0.215	0.195
-404.267	255.473	0.121	0.206
-403.252	21.876	0.168	-0.135
-402.238	515.792	0.128	0.297
-401.223	286.252	0.127	0.227
-400.209	-164.947	-0.181	0.008
-399.194	267.773	0.127	-0.221
-398.179	276.299	0.023	0.040
-397.165	76.651	0.212	0.223
-396.150	-9.715	0.177	-0.117
-395.136	270.751	0.072	-0.126
-394.121	-200.000	0.011	-0.127
-393.106	-188.627	0.235	-0.003
-392.092	800.000	-0.043	-0.154
-391.077	-16.443	0.211	0.132
-390.063	800.000	-0.100	0.284
-389.048	105.900	0.210	0.245
-388.033	284.763	0.099	-0.176
-387.019	-195.010	-0.144	-0.001
-386.004	458.914	-0.079	0.174
-384.990	-30.650	0.134	0.075
-383.975	109.664	0.115	0.136
-382.960	-138.209	-0.126	-0.014
-381.946	-200.000	-0.048	-0.222
-380.931	-200.000	-0.016	-0.105
-379.917	800.000	0.087	0.337
-378.902	-200.000	-0.045	-0.227
-377.888	112.094	-0.119	-0.142
-376.873	30.084	0.120	-0.101
-375.858	224.753	-0.141	-0.226
-374.844	-122.945	0.235	0.037
-373.829	-200.000	-0.018	-0.297
-372.815	-138.465	-0.384	0.042
-371.800	117.547	-0.214	0.260
-370.785	-9.886	0.257	0.169
-369.771	98.339	0.100	0.114
-368.756	800.000	-0.114	0.334
-367.742	295.185	0.117	-0.212
-366.727	-34.092	0.076	-0.041
-365.712	514.408	0.141	0.324
-364.698	-21.732	-0.098	0.059
-363.683	-109.545	-0.032	0.007
-362.669	110.810	-0.154	-0.183
-361.654	9.977	0.049	-0.037
-360.639	800.000	0.139	-0.382
-359.625	-96.270	-0.249	-0.065
-358.610	622.598	0.092	0.228
-357.596	800.000	0.043	0.170
-356.581	775.861	-0.024	0.066
-355.566	4.630	-0.310	0.225
-354.552	283.429	-0.166	0.295
-353.537	-200.000	0.045	-0.465
-352.523	413.049	0.056	-0.118
-351.508	231.652	-0.154	-0.249
-350.493	197.244	0.173	0.261
-349.479	-136.252	-0.266	0.031
-348.464	267.694	0.102	-0.177
-347.450	-114.713	0.230	-0.043
-346.435	68.006	-0.008	-0.008
-345.420	-72.201	0.064	0.024
-344.406	-87.333	-0.303	0.091
-343.391	-105.271	0.337	-0.076
-342.377	234.649	-0.123	-0.199
-341.362	148.007	-0.079	0.106
-340.348	-44.051	0.069	0.034
-339.333	-48.406	0.272	-0.130
-338.318	-200.000	-0.036	0.161
-337.304	-40.441	0.214	0.110
-336.289	12.411	-0.310	-0.236
-335.275	-147.056	0.177	0.015
-334.260	800.000	-0.050	-0.165
-333.245	-200.000	-0.016	0.258
-332.231	318.812	-0.246	0.460
-331.216	800.000	0.096	0.340
-330.202	82.956	0.106	0.114
-329.187	-10.446	-0.261	0.170
-328.172	173.936	0.088	0.126
-327.158	-113.796	0.161	0.031
-326.143	647.849	0.049	-0.123
-325.129	371.525	0.116	-0.233
-324.114	1.056	-0.278	-0.197
-323.099	110.319	0.183	-0.216
-322.085	-89.961	-0.257	-0.074
-321.070	-95.987	-0.266	0.070
-320.056	654.813	-0.176	0.447
-319.041	384.471	0.081	-0.165
-318.026	-200.000	-0.069	0.352
-317.012	30.174	0.181	0.152
-315.997	164.755	-0.149	0.207
-314.983	385.875	0.104	-0.212
-313.968	800.000	-0.021	-0.078
-312.953	-200.000	0.018	-0.087
-311.939	-200.000	-0.013	0.139
-310.924	35.374	-0.132	-0.114
-309.910	-79.123	-0.177	0.059
-308.895	800.000	-0.033	0.112
-307.880	-95.287	-0.233	-0.062
-306.866	32.487	0.199	0.170
-305.851	656.476	-0.113	-0.286
-304.837	62.242	0.048	0.047
-303.822	-125.546	0.152	0.023
-302.807	-110.731	0.049	0.010
-301.793	-200.000	0.014	0.120
-300.778	-69.351	0.213	-0.081
-299.764	-109.956	-0.035	0.007
-298.749	204.661	-0.129	-0.198
-297.735	86.880	0.218	0.237
-296.720	132.396	-0.092	-0.117
-295.705	-200.000	0.004	-0.191
-294.691	-200.000	-0.016	0.176
-293.676	-95.068	0.194	-0.052
-292.662	125.233	-0.042	-0.053
-291.647	413.941	-0.207	-0.434
-290.632	-105.770	-0.213	-0.047
-289.618	-39.199	0.154	-0.080
-288.603	562.337	-0.075	0.178
-287.589	-22.083	0.234	0.140
-286.574	47.440	-0.201	0.184
-285.559	267.379	0.126	-0.216
-284.545	40.680	-0.133	0.118
-283.530	-32.577	-0.104	-0.057
-282.516	360.586	0.083	-0.163
-281.501	-200.000	-0.032	-0.320
-280.486	445.726	0.034	-0.074
-279.472	-132.220	-0.335	0.043
-278.457	-150.252	0.183	-0.014
-277.443	-36.338	0.107	-0.057
-276.428	-200.000	0.021	-0.162
-275.413	-113.869	-0.225	0.043
-274.399	-69.411	0.223	0.084
-273.384	-200.000	0.025	0.227
-272.370	-160.772	-0.125	0.007
-271.355	-14.092	-0.083	-0.053
-270.340	349.627	-0.031	-0.060
-269.326	-169.841	-0.334	0.012
-268.311	793.461	0.068	-0.183
-267.297	800.000	-0.051	0.143
-266.282	-139.832	-0.326	-0.034
-265.267	48.060	0.322	0.296
-264.253	-200.000	-0.000	0.195
-263.238	-105.739	-0.126	-0.028
-262.224	-200.000	-0.005	0.295
-261.209	22.454	0.289	0.233
-260.195	-21.417	0.126	-0.076
-259.180	800.000	-0.073	0.209
-258.165	260.710	0.142	0.241
-257.151	598.819	-0.249	-0.607
-256.136	427.498	-0.061	0.129
-255.122	60.520	-0.266	0.259
-254.107	-200.000	0.048	0.470
-253.092	-95.851	-0.115	-0.030
-252.078	371.340	0.088	0.175
-251.063	-69.342	0.245	-0.093
-250.049	-200.000	-0.003	0.149
-249.034	-200.000	0.037	0.229
-248.019	-200.000	0.014	-0.195
-247.005	-200.000	0.011	-0.096
-245.990	-48.431	-0.154	0.073
-244.976	-87.676	0.431	0.128
-243.961	800.000	0.025	0.069
-242.946	-200.000	-0.017	-0.189
-241.932	447.201	-0.256	-0.555
-240.917	2.832	-0.107	-0.076
-239.903	-148.122	0.200	0.016
-238.888	475.752	-0.088	0.196
-237.873	-200.000	-0.002	0.311
-236.859	151.224	-0.129	-0.172
-235.844	800.000	-0.134	-0.411
-234.830	-200.000	0.013	0.142
-233.815	-173.812	-0.249	-0.007
-232.800	-9.088	0.374	-0.246
-231.786	-33.644	-0.039	0.021
-230.771	-75.223	-0.286	0.100
-229.757	-200.000	0.012	0.281
-228.742	4.015	0.111	-0.080
-227.727	713.749	-0.060	0.158
-226.713	303.790	0.083	-0.152
-225.698	258.923	-0.082	0.139
-224.684	77.317	0.433	0.453
-223.669	-51.109	-0.151	0.069
-222.655	-99.617	-0.381	0.094
-221.640	743.834	-0.023	-0.061
-220.625	-200.000	-0.034	0.210
-219.611	-200.000	-0.037	-0.181
-218.596	800.000	0.054	0.179
-217.582	-200.000	-0.043	-0.277
-216.567	-119.089	-0.347	0.060
-215.552	-175.640	0.475	0.013
-214.538	38.500	-0.285	0.250
-213.523	-200.000	0.044	-0.260
-212.509	-200.000	0.006	-0.060
-211.494	-200.000	-0.040	0.236
-210.479	27.517	0.226	-0.187
-209.465	-200.000	0.064	0.340
-208.450	-200.000	-0.026	0.133
-207.436	-200.000	0.021	-0.210
-206.421	166.904	-0.191	0.266
-205.406	800.000	-0.033	-0.143
-204.392	202.730	-0.149	0.226
-203.377	81.289	-0.118	0.125
-202.363	800.000	0.138	0.438
-201.348	-128.239	0.504	0.071
-200.333	446.440	0.095	-0.206
-199.319	-61.922	-0.308	0.127
-198.304	-147.160	0.534	0.045
-197.290	84.484	-0.209	0.225
-196.275	507.350	0.064	-0.146
-195.260	-34.929	0.307	-0.165
-194.246	-60.509	0.299	-0.125
-193.231	800.000	-0.096	0.385
-192.217	9.046	0.131	0.097
-191.202	29.017	0.121	0.101
-190.187	-108.933	0.452	0.095
-189.173	357.697	-0.143	-0.280
-188.158	-23.481	0.289	0.170
-187.144	-200.000	-0.021	-0.347
-186.129	-70.531	-0.486	-0.180
-185.114	330.010	0.111	0.209
-184.100	800.000	-0.111	0.321
-183.085	-116.249	-0.072	0.013
-182.071	122.095	-0.202	0.247
-181.056	-148.767	0.220	-0.018
-180.042	-187.370	0.352	-0.005
-179.027	-68.616	0.039	0.015
-178.012	-28.491	0.125	0.071
-176.998	46.475	-0.075	0.069
-175.983	-11.005	-0.134	-0.087
-174.969	-200.000	-0.014	0.247
-173.954	-48.655	0.421	-0.199
-172.939	-40.085	0.246	0.126
-171.925	-33.341	-0.383	-0.208
-170.910	-180.940	0.060	0.001
-169.896	800.000	0.031	-0.110
-168.881	145.061	0.098	0.128
-167.866	-116.531	0.152	0.028
-166.852	178.331	-0.176	0.252
-165.837	203.449	-0.103	0.156
-164.823	-200.000	-0.044	-0.265
-163.808	432.434	-0.111	0.236
-162.793	-200.000	0.005	-0.211
-161.779	179.019	-0.212	0.303
-160.764	86.070	-0.096	-0.104
-159.750	-65.909	0.368	-0.144
-158.735	-129.686	-0.074	0.010
-157.720	-112.628	0.236	-0.046
-156.706	-200.000	-0.000	-0.199
-155.691	555.505	-0.062	-0.146
-154.677	-200.000	-0.005	0.065
-153.662	-200.000	0.037	0.252
-152.647	-159.215	0.288	-0.016
-151.633	-200.000	-0.001	0.150
-150.618	157.220	0.106	0.144
-149.604	-138.166	0.043	-0.005
-148.589	45.098	0.031	0.028
-147.574	127.157	-0.171	-0.212
-146.560	-76.108	0.089	0.031
-145.545	-1.710	0.221	-0.152
-144.531	613.789	0.046	-0.113
-143.516	-200.000	0.042	0.317
-142.502	-200.000	0.022	-0.503
-141.487	-200.000	-0.045	0.284
-140.472	-23.844	0.139	0.081
-139.458	12.679	-0.409	-0.309
-138.443	10.320	-0.191	-0.142
-137.429	72.439	0.117	0.120
-136.414	177.426	-0.104	0.149
-135.399	80.949	-0.262	0.277
-134.385	11.830	0.057	0.043
-133.370	800.000	0.008	0.024
-132.356	-200.000	-0.020	0.119
-131.341	800.000	-0.035	-0.140
-130.326	-81.672	-0.209	0.067
-129.312	144.122	0.088	0.116
-128.297	11.759	-0.131	0.099
-127.283	287.845	-0.106	0.188
-126.268	-200.000	0.061	0.308
-125.253	-129.012	0.107	-0.015
-124.239	159.046	-0.126	-0.171
-123.224	-85.350	0.182	-0.056
-122.210	-200.000	-0.022	0.286
-121.195	800.000	0.051	0.197
