DTS Sentinel unit serial number:	SN413079Multiplexer serial number:	ORYXHardware model number:	OX4-SRSoftware version number:	ORYX F/W v4.00 Oryx Data Collector v3.7.2.0data status	okinstallation	princeton_trtdifferential loss correction	single-endedforward channel	channel 1reverse channel	N/Adate	2019/09/16time	16:14:35forward acquisition time	60.00reverse acquisition time	0.00gamma	496.2192k internal	0.2293k external	0.2293temperature offset calibration	0.9956default loss term (dB/km)	0.3790temperature slope calibration	1.0000multiplexer offset coefficient	1.0000multiplexer slope coefficient	1.0000fibre end	0.00T internal ref (°C)	40.64T ext. ref 1 (°C)	14.99T ext. ref 2 (°C)	34.80length (m)	temperature (°C)	Stokes	anti-Stokes-747.200	201.489	0.229	0.361
-746.185	-200.000	-0.004	0.103
-745.171	59.667	0.101	0.102
-744.156	46.548	0.356	0.338
-743.142	110.137	0.158	0.194
-742.127	223.945	-0.177	0.292
-741.112	-92.037	-0.239	0.069
-740.098	-200.000	-0.006	0.304
-739.083	-138.002	0.154	0.018
-738.069	-200.000	-0.076	0.451
-737.054	49.441	0.118	-0.113
-736.039	-127.533	-0.530	0.079
-735.025	800.000	-0.101	0.411
-734.010	-75.089	0.030	-0.011
-732.996	-27.947	-0.414	0.245
-731.981	-70.745	-0.532	-0.206
-730.966	-27.398	0.363	-0.216
-729.952	-88.632	0.050	-0.015
-728.937	-96.620	0.187	-0.050
-727.923	800.000	-0.095	-0.302
-726.908	-35.806	-0.114	-0.063
-725.894	2.984	-0.262	-0.195
-724.879	75.163	0.113	-0.122
-723.864	-77.691	-0.112	0.040
-722.850	12.324	-0.099	0.078
-721.835	-30.187	-0.325	0.189
-720.821	-200.000	-0.011	0.072
-719.806	-140.493	0.278	-0.030
-718.791	218.893	-0.074	-0.120
-717.777	800.000	-0.042	-0.155
-716.762	-89.661	-0.018	0.005
-715.748	-186.826	-0.107	-0.002
-714.733	179.837	-0.065	-0.097
-713.718	47.518	-0.432	0.412
-712.704	-200.000	0.100	0.000
-711.689	143.779	0.070	0.095
-710.675	-69.671	0.198	-0.077
-709.660	-200.000	0.004	0.068
-708.645	-200.000	0.061	0.380
-707.631	-5.290	0.034	0.024
-706.616	-200.000	-0.055	-0.269
-705.602	197.676	0.162	-0.253
-704.587	-58.751	-0.221	-0.098
-703.572	-24.954	-0.137	0.083
-702.558	800.000	0.075	0.245
-701.543	-196.461	-0.316	0.002
-700.529	-34.607	0.178	0.099
-699.514	362.269	0.097	-0.198
-698.499	29.691	-0.169	-0.147
-697.485	800.000	-0.017	-0.051
-696.470	-200.000	0.003	-0.405
-695.456	332.478	0.163	-0.321
-694.441	-200.000	0.008	-0.261
-693.426	23.902	0.170	0.143
-692.412	633.593	0.036	0.093
-691.397	-200.000	0.027	0.246
-690.383	-200.000	0.020	-0.114
-689.368	800.000	-0.044	0.144
-688.354	-161.835	0.269	0.014
-687.339	80.142	-0.064	-0.070
-686.324	800.000	-0.004	0.013
-685.310	45.218	-0.262	-0.247
-684.295	216.633	-0.167	-0.271
-683.281	800.000	-0.047	-0.171
-682.266	-200.000	-0.046	0.291
-681.251	-200.000	0.018	-0.173
-680.237	300.858	-0.083	-0.156
-679.222	-70.488	-0.300	-0.116
-678.208	2.488	0.184	0.136
-677.193	136.413	0.097	-0.129
-676.178	-64.177	0.369	0.154
-675.164	524.591	-0.115	-0.277
-674.149	-200.000	-0.016	-0.074
-673.135	225.377	-0.024	0.040
-672.120	26.306	-0.068	0.058
-671.105	-59.801	0.246	-0.107
-670.091	62.986	-0.122	-0.124
-669.076	-135.233	0.220	-0.027
-668.062	47.097	0.245	-0.232
-667.047	124.429	0.077	-0.098
-666.032	-102.334	0.164	0.040
-665.018	225.611	-0.181	-0.300
-664.003	-43.365	0.110	-0.057
-662.989	37.343	0.091	-0.082
-661.974	800.000	-0.084	-0.255
-660.959	189.952	0.140	0.215
-659.945	-84.864	0.260	0.083
-658.930	390.932	-0.086	0.182
-657.916	-49.629	0.053	0.026
-656.901	-31.865	-0.132	0.076
-655.886	800.000	-0.071	0.227
-654.872	-183.852	-0.200	-0.003
-653.857	286.036	-0.137	-0.253
-652.843	-108.104	-0.162	0.036
-651.828	111.489	-0.280	-0.344
-650.814	-200.000	-0.035	-0.260
-649.799	800.000	0.033	-0.129
-648.784	-86.643	0.098	0.031
-647.770	-61.844	-0.262	0.112
-646.755	-200.000	-0.008	0.078
-645.741	427.073	-0.147	0.322
-644.726	800.000	0.068	-0.200
-643.711	98.013	0.155	-0.181
-642.697	17.921	0.120	0.097
-641.682	220.243	0.159	0.259
-640.668	-76.743	0.220	-0.078
-639.653	-11.641	-0.149	0.100
-638.638	342.984	0.069	0.137
-637.624	143.018	0.031	0.042
-636.609	-200.000	-0.067	-0.311
-635.595	221.975	0.045	-0.074
-634.580	-148.886	-0.135	0.011
-633.565	116.253	-0.148	-0.185
-632.551	317.684	0.066	0.126
-631.536	775.833	-0.012	0.034
-630.522	-23.645	-0.198	0.121
-629.507	191.231	-0.163	-0.250
-628.492	-200.000	-0.001	-0.278
-627.478	-111.573	0.133	-0.027
-626.463	-141.339	-0.123	0.013
-625.449	-170.766	0.228	-0.008
-624.434	90.865	-0.094	0.107
-623.419	42.543	-0.298	0.276
-622.405	579.622	-0.113	-0.281
-621.390	-135.685	-0.173	-0.021
-620.376	800.000	-0.062	-0.177
-619.361	-122.928	-0.102	0.017
-618.346	51.971	-0.068	-0.065
-617.332	394.378	-0.223	0.473
-616.317	-200.000	-0.011	-0.105
-615.303	216.444	0.092	-0.148
-614.288	800.000	-0.010	0.039
-613.273	-200.000	0.006	-0.204
-612.259	-59.894	0.138	-0.060
-611.244	800.000	0.038	-0.138
-610.230	81.783	-0.053	-0.058
-609.215	27.270	0.082	-0.070
-608.201	-43.663	-0.206	0.106
-607.186	-200.000	0.020	0.150
-606.171	-4.708	-0.054	0.038
-605.157	-45.921	-0.408	0.205
-604.142	-200.000	-0.006	0.046
-603.128	-25.029	0.289	-0.174
-602.113	103.781	-0.097	0.116
-601.098	56.147	0.144	-0.142
-600.084	81.430	0.210	-0.231
-599.069	10.031	-0.142	-0.110
-598.055	279.080	-0.109	0.199
-597.040	127.546	-0.125	-0.162
-596.025	-200.000	-0.014	0.235
-595.011	-44.673	0.284	0.144
-593.996	-200.000	0.066	0.368
-592.982	-84.922	0.205	0.065
-591.967	309.029	0.067	0.128
-590.952	21.448	0.261	-0.216
-589.938	-0.110	0.224	-0.163
-588.923	-52.055	-0.095	-0.045
-587.909	55.627	-0.107	-0.106
-586.894	-200.000	0.034	0.226
-585.879	-200.000	0.005	-0.103
-584.865	-177.060	0.262	-0.007
-583.850	109.100	-0.031	0.038
-582.836	-200.000	-0.016	0.098
-581.821	-7.893	-0.139	-0.095
-580.806	199.081	-0.090	-0.140
-579.792	-143.705	0.235	0.023
-578.777	800.000	-0.125	-0.535
-577.763	24.878	0.079	-0.067
-576.748	-200.000	-0.050	-0.337
-575.733	-62.920	0.224	0.094
-574.719	157.468	0.108	-0.153
-573.704	-71.816	0.220	0.084
-572.690	183.934	-0.136	0.204
-571.675	165.661	-0.126	-0.182
-570.661	143.687	-0.110	-0.150
-569.646	800.000	0.061	0.175
-568.631	572.994	0.030	-0.074
-567.617	41.026	0.023	-0.021
-566.602	-62.651	0.010	-0.004
-565.588	-77.893	-0.273	-0.096
-564.573	800.000	0.121	0.465
-563.558	-200.000	0.051	0.353
-562.544	-200.000	0.020	0.118
-561.529	34.992	0.081	-0.072
-560.515	243.828	-0.065	-0.111
-559.500	800.000	0.038	0.136
-558.485	8.171	-0.162	-0.123
-557.471	-200.000	0.015	0.129
-556.456	86.112	0.147	-0.165
-555.442	-80.267	-0.118	0.040
-554.427	800.000	0.085	-0.268
-553.412	255.172	-0.091	0.158
-552.398	-66.257	-0.179	-0.072
-551.383	156.260	-0.079	-0.110
-550.369	-112.873	-0.102	-0.021
-549.354	290.944	0.158	-0.291
-548.339	794.418	-0.047	0.132
-547.325	-32.280	0.342	-0.194
-546.310	36.296	-0.343	-0.307
-545.296	800.000	-0.050	-0.221
-544.281	197.932	-0.141	0.219
-543.266	800.000	-0.092	0.273
-542.252	213.529	-0.194	-0.311
-541.237	132.422	-0.097	-0.127
-540.223	572.735	-0.025	0.061
-539.208	-77.522	0.250	0.088
-538.193	800.000	-0.115	0.332
-537.179	-91.630	-0.180	-0.052
-536.164	313.302	-0.037	0.070
-535.150	256.933	-0.236	-0.411
-534.135	-115.854	-0.155	0.029
-533.121	200.679	0.117	-0.182
-532.106	-100.601	-0.372	-0.093
-531.091	-99.193	0.336	-0.086
-530.077	-200.000	-0.069	-0.335
-529.062	-41.550	0.132	-0.069
-528.048	-126.484	0.249	-0.038
-527.033	31.930	-0.102	-0.089
-526.018	-200.000	-0.008	0.054
-525.004	114.075	-0.124	0.153
-523.989	472.423	-0.062	-0.141
-522.975	800.000	-0.081	-0.245
-521.960	-200.000	0.007	0.105
-520.945	218.266	-0.246	0.399
-519.931	800.000	-0.080	-0.242
-518.916	-43.657	0.357	-0.182
-517.902	122.086	-0.119	-0.151
-516.887	478.864	0.109	0.251
-515.872	38.210	0.250	-0.226
-514.858	-80.305	-0.102	-0.035
-513.843	10.295	0.159	0.123
-512.829	-200.000	0.063	-0.319
-511.814	59.832	-0.082	-0.082
-510.799	-147.505	-0.224	-0.019
-509.785	76.888	-0.141	0.152
-508.770	158.352	0.111	-0.157
-507.756	-200.000	-0.021	-0.238
-506.741	83.695	0.089	-0.098
-505.726	-200.000	-0.072	0.384
-504.712	-92.684	0.159	0.045
-503.697	-200.000	-0.023	-0.435
-502.683	-9.345	0.153	-0.103
-501.668	800.000	0.006	0.028
-500.653	-37.855	-0.265	-0.143
-499.639	3.266	0.318	0.235
-498.624	-104.730	0.301	0.070
-497.610	-182.340	0.189	-0.004
-496.595	251.241	0.133	0.229
-495.581	-57.031	-0.524	0.234
-494.566	-50.762	-0.353	-0.168
-493.551	-200.000	0.008	-0.218
-492.537	-20.473	0.086	-0.054
-491.522	59.864	0.113	-0.113
-490.508	-116.287	0.255	-0.048
-489.493	-118.274	-0.072	-0.013
-488.478	-41.909	-0.188	-0.097
-487.464	-72.980	0.179	0.067
-486.449	-29.361	0.201	-0.117
-485.435	0.120	0.170	0.122
-484.420	-200.000	0.070	-0.340
-483.405	328.755	0.092	-0.178
-482.391	-103.770	0.215	0.051
-481.376	-200.000	0.004	0.046
-480.362	-77.098	-0.191	0.067
-479.347	-102.450	-0.180	-0.044
-478.332	-88.854	0.024	0.007
-477.318	800.000	0.036	0.134
-476.303	475.451	-0.145	0.331
-475.289	9.824	0.133	0.103
-474.274	6.188	-0.222	0.167
-473.259	800.000	-0.113	0.327
-472.245	-2.029	-0.216	-0.154
-471.230	-82.663	-0.279	0.091
-470.216	800.000	0.080	-0.239
-469.201	234.654	0.113	0.188
-468.186	-200.000	0.049	0.333
-467.172	265.631	0.081	-0.143
-466.157	-123.028	-0.227	0.037
-465.143	243.383	-0.051	-0.086
-464.128	-200.000	0.001	0.039
-463.113	-6.230	-0.170	0.118
-462.099	-157.091	-0.252	0.016
-461.084	-120.903	0.263	-0.045
-460.070	-200.000	0.000	-0.106
-459.055	-89.505	0.199	-0.059
-458.040	-61.725	-0.294	-0.125
-457.026	-75.044	0.425	0.154
-456.011	-200.000	0.012	0.119
-454.997	-200.000	0.018	-0.107
-453.982	-0.920	0.150	0.108
-452.968	97.683	-0.179	-0.208
-451.953	-200.000	0.046	-0.280
-450.938	-34.309	-0.076	-0.042
-449.924	800.000	-0.035	-0.153
-448.909	93.347	-0.107	0.122
-447.895	-91.864	0.230	0.066
-446.880	260.583	0.146	0.256
-445.865	-200.000	0.069	0.333
-444.851	-30.372	0.145	-0.083
-443.836	-106.501	0.410	0.093
-442.822	-200.000	0.028	-0.159
-441.807	-200.000	-0.023	0.310
-440.792	-142.433	0.069	-0.007
-439.778	-99.119	0.113	-0.029
-438.763	111.927	0.328	-0.401
-437.749	800.000	-0.024	0.070
-436.734	133.980	0.199	-0.261
-435.719	-93.337	-0.265	0.074
-434.705	-84.465	0.133	-0.043
-433.690	33.880	-0.120	0.106
-432.676	81.225	0.105	-0.115
-431.661	800.000	0.043	0.121
-430.646	-200.000	0.073	0.367
-429.632	69.047	-0.074	-0.076
-428.617	-112.220	0.323	0.066
-427.603	-200.000	-0.014	0.175
-426.588	-48.082	0.113	-0.055
-425.573	800.000	-0.049	0.201
-424.559	-108.076	-0.165	0.036
-423.544	-123.738	-0.191	-0.031
-422.530	83.795	0.073	-0.080
-421.515	-54.484	-0.264	-0.121
-420.500	-49.263	-0.188	0.091
-419.486	800.000	0.052	0.182
-418.471	289.233	-0.037	-0.068
-417.457	106.975	0.287	0.345
-416.442	-127.493	-0.121	0.018
-415.428	-96.485	-0.426	0.114
-414.413	-200.000	0.044	-0.352
-413.398	-17.121	-0.224	-0.142
-412.384	-10.251	-0.098	-0.066
-411.369	191.488	-0.121	0.184
-410.355	76.680	0.034	-0.036
-409.340	102.410	0.046	-0.055
-408.325	614.371	0.069	-0.175
-407.311	22.870	0.101	-0.084
-406.296	-200.000	-0.006	-0.092
-405.282	-65.412	-0.128	0.052
-404.267	-135.917	0.216	0.026
-403.252	-200.000	-0.002	0.039
-402.238	-58.712	0.127	0.056
-401.223	-37.793	-0.228	0.123
-400.209	-200.000	0.041	-0.280
-399.194	275.441	-0.083	-0.148
-398.179	-174.607	0.196	0.006
-397.165	-200.000	0.020	-0.464
-396.150	800.000	-0.157	0.472
-395.136	203.337	0.043	-0.068
-394.121	104.590	0.134	-0.159
-393.106	389.805	0.065	-0.136
-392.092	800.000	0.044	0.124
-391.077	18.883	-0.116	-0.094
-390.063	141.619	0.040	0.054
-389.048	-54.954	0.251	-0.114
-388.033	18.794	-0.179	0.145
-387.019	109.558	-0.067	0.081
-386.004	-200.000	-0.048	0.319
-384.990	-200.000	0.002	-0.048
-383.975	187.905	0.098	-0.147
-382.960	216.767	-0.092	-0.148
-381.946	15.298	0.252	0.199
-380.931	-29.146	0.154	0.089
-379.917	800.000	0.066	0.219
-378.902	-200.000	-0.036	0.469
-377.888	63.021	0.244	0.247
-376.873	-61.522	-0.216	0.092
-375.858	137.898	-0.115	-0.152
-374.844	-63.013	-0.242	0.101
-373.829	-10.885	-0.197	-0.131
-372.815	-38.012	0.030	0.016
-371.800	546.906	0.064	-0.154
-370.785	-4.167	-0.178	0.124
-369.771	26.990	-0.103	0.087
-368.756	-112.997	-0.373	0.074
-367.742	188.609	-0.069	-0.105
-366.727	-89.553	0.126	0.037
-365.712	-83.171	-0.301	-0.097
-364.698	-16.318	-0.154	-0.098
-363.683	-200.000	0.049	-0.239
-362.669	180.325	0.050	0.074
-361.654	-200.000	0.051	-0.313
-360.639	-200.000	0.015	-0.154
-359.625	123.271	0.177	-0.224
-358.610	-100.791	0.219	-0.054
-357.596	800.000	-0.079	0.287
-356.581	-200.000	0.116	-0.608
-355.566	296.833	-0.108	-0.199
-354.552	101.219	0.108	0.127
-353.537	151.161	0.173	0.237
-352.523	120.137	0.239	0.299
-351.508	-99.587	-0.016	-0.004
-350.493	-3.897	0.177	-0.124
-349.479	-200.000	-0.024	0.155
-348.464	800.000	-0.067	0.186
-347.450	800.000	-0.042	-0.180
-346.435	222.605	0.050	0.080
-345.420	140.513	-0.107	0.143
-344.406	-200.000	0.047	0.208
-343.391	-27.228	-0.297	-0.174
-342.377	-154.107	0.253	-0.017
-341.362	83.687	0.085	0.093
-340.348	25.513	-0.111	-0.093
-339.333	-75.406	-0.158	-0.057
-338.318	-31.847	0.109	-0.061
-337.304	-200.000	0.009	0.203
-336.289	-200.000	-0.027	0.159
-335.275	-86.955	-0.247	0.076
-334.260	-25.863	-0.242	-0.143
-333.245	-200.000	0.278	-0.001
-332.231	-131.070	0.111	-0.015
-331.216	33.252	0.108	-0.094
-330.202	-200.000	-0.015	-0.139
-329.187	611.504	0.089	-0.223
-328.172	-176.234	-0.319	0.008
-327.158	800.000	0.082	0.299
-326.143	-123.672	-0.150	0.024
-325.129	24.856	-0.223	0.186
-324.114	-121.968	-0.126	0.021
-323.099	167.907	0.126	-0.180
-322.085	-45.099	0.079	-0.039
-321.070	-24.951	0.077	-0.046
-320.056	5.375	0.190	-0.141
-319.041	-1.727	0.121	0.086
-318.026	339.596	-0.054	-0.106
-317.012	-200.000	0.006	-0.366
-315.997	107.532	-0.046	-0.055
-314.983	800.000	0.047	-0.191
-313.968	337.323	0.116	-0.226
-312.953	154.056	-0.080	0.110
-311.939	122.202	0.065	-0.082
-310.924	93.396	-0.011	-0.013
-309.910	-83.079	0.182	0.059
-308.895	-102.044	0.304	0.074
-307.880	-125.846	-0.502	0.076
-306.866	-200.000	-0.001	0.065
-305.851	353.417	-0.054	0.107
-304.837	-14.845	-0.158	-0.102
-303.822	-62.940	-0.094	-0.039
-302.807	256.332	-0.020	-0.034
-301.793	280.901	0.121	0.218
-300.778	-200.000	0.060	0.462
-299.764	-133.995	0.416	-0.052
-298.749	800.000	-0.058	0.253
-297.735	253.014	0.062	0.107
-296.720	-200.000	0.022	0.119
-295.705	-139.388	0.120	-0.013
-294.691	89.435	-0.100	0.112
-293.676	-200.000	0.007	-0.129
-292.662	176.417	-0.325	0.474
-291.647	168.139	-0.195	0.278
-290.632	-84.815	0.169	0.053
-289.618	800.000	0.017	-0.051
-288.603	-200.000	-0.036	0.488
-287.589	139.107	-0.130	0.172
-286.574	800.000	-0.055	0.211
-285.559	-4.393	-0.360	-0.250
-284.545	-200.000	0.063	-0.369
-283.530	9.200	0.016	-0.013
-282.516	145.268	-0.135	0.182
-281.501	6.508	-0.158	0.118
-280.486	418.547	-0.063	-0.136
-279.472	279.354	-0.059	-0.105
-278.457	196.171	0.152	-0.232
-277.443	78.639	-0.161	0.173
-276.428	-76.843	0.145	-0.051
-275.413	800.000	-0.102	0.312
-274.399	-17.199	-0.162	-0.102
-273.384	287.510	-0.123	0.224
-272.370	187.730	-0.044	-0.066
-271.355	19.712	-0.082	0.066
-270.340	-81.583	0.269	-0.089
-269.326	-200.000	-0.127	0.000
-268.311	313.299	-0.105	-0.197
-267.297	-138.295	0.442	0.049
-266.282	-200.000	0.011	-0.105
-265.267	425.143	0.035	0.075
-264.253	-200.000	0.018	-0.239
-263.238	228.652	-0.162	-0.266
-262.224	56.038	-0.153	-0.149
-261.209	118.753	0.215	-0.266
-260.195	-31.989	0.309	-0.174
-259.180	425.875	0.140	-0.302
-258.165	-200.000	0.017	-0.450
-257.151	124.478	-0.054	0.068
-256.136	800.000	-0.027	0.080
-255.122	-14.706	-0.180	-0.116
-254.107	-69.174	0.058	0.022
-253.092	96.478	-0.096	0.111
-252.078	6.472	0.172	-0.128
-251.063	-163.147	-0.349	0.017
-250.049	-197.384	-0.187	-0.001
-249.034	102.236	-0.090	0.106
-248.019	-86.222	0.271	-0.084
-247.005	143.113	0.082	0.109
-245.990	238.831	0.218	0.364
-244.976	18.065	0.194	0.155
-243.961	341.339	-0.010	0.020
-242.946	12.188	0.097	0.075
-241.932	-200.000	-0.069	0.358
-240.917	800.000	0.032	0.110
-239.903	44.882	0.112	-0.103
-238.888	329.898	-0.056	0.109
-237.873	97.262	-0.109	-0.126
-236.859	158.825	0.167	0.232
-235.844	-34.794	-0.379	-0.208
-234.830	354.846	-0.100	-0.199
-233.815	800.000	-0.068	0.190
-232.800	-155.286	0.109	0.007
-231.786	20.221	-0.221	0.179
-230.771	633.655	-0.130	-0.331
-229.757	800.000	0.031	-0.128
-228.742	384.488	0.123	0.255
-227.727	-200.000	0.049	0.317
-226.713	482.552	0.069	0.157
-225.698	55.423	-0.096	0.093
-224.684	-28.399	0.156	0.090
-223.669	-127.568	-0.162	-0.024
-222.655	130.226	0.217	0.278
-221.640	800.000	-0.146	0.458
-220.625	-127.377	-0.143	0.021
-219.611	-164.716	-0.190	-0.009
-218.596	-200.000	-0.014	-0.166
-217.582	678.842	0.078	-0.202
-216.567	-200.000	0.026	0.246
-215.552	-104.922	-0.178	0.041
-214.538	18.120	0.020	-0.016
-213.523	189.964	0.042	0.063
-212.509	188.449	-0.091	-0.137
-211.494	-200.000	0.017	0.216
-210.479	-34.659	-0.296	-0.163
-209.465	-116.320	0.453	-0.084
-208.450	-200.000	0.017	-0.203
-207.436	-109.308	0.560	-0.119
-206.421	-200.000	-0.046	0.287
-205.406	800.000	0.030	0.093
-204.392	-200.000	-0.014	0.076
-203.377	-138.619	0.445	0.049
-202.363	102.572	0.108	-0.127
-201.348	214.239	-0.171	0.271
-200.333	4.846	0.243	-0.179
-199.319	-200.000	-0.143	-0.000
-198.304	54.016	-0.055	-0.053
-197.290	-38.575	-0.161	-0.085
-196.275	-200.000	0.021	-0.139
-195.260	20.708	0.173	0.140
-194.246	-200.000	0.007	-0.107
-193.231	266.643	0.159	-0.279
-192.217	-200.000	0.043	-0.219
-191.202	20.735	-0.234	0.190
-190.187	-200.000	0.012	-0.169
-189.173	-191.404	-0.204	-0.002
-188.158	-85.689	0.166	0.052
-187.144	164.070	-0.124	0.174
-186.129	-128.745	0.279	-0.039
-185.114	607.217	-0.115	0.287
-184.100	139.990	0.133	-0.176
-183.085	-24.062	-0.165	0.099
-182.071	800.000	-0.032	-0.136
-181.056	271.141	0.081	0.142
-180.042	-78.057	0.312	0.107
-179.027	0.384	-0.181	-0.130
-178.012	-99.866	0.352	-0.088
-176.998	-103.367	0.271	0.064
-175.983	-200.000	0.044	0.539
-174.969	-122.223	-0.283	0.046
-173.954	800.000	0.049	-0.136
-172.939	-200.000	0.021	0.288
-171.925	-43.546	0.307	-0.155
-170.910	285.043	0.151	0.272
-169.896	93.796	0.142	-0.161
-168.881	678.020	0.060	-0.157
-167.866	-33.235	0.135	-0.075
-166.852	494.140	-0.071	0.164
-165.837	-12.453	-0.081	0.053
-164.823	-144.739	-0.208	-0.019
-163.808	-125.582	0.272	0.041
-162.793	-83.228	-0.125	0.040
-161.779	789.898	-0.044	0.122
-160.764	800.000	-0.052	0.202
-159.750	74.532	-0.180	0.190
-158.735	4.089	-0.119	0.087
-157.720	-29.246	0.088	-0.050
-156.706	63.474	0.104	-0.105
-155.691	-103.763	-0.265	0.062
-154.677	-200.000	0.025	-0.150
-153.662	652.505	0.032	0.081
-152.647	-200.000	0.093	-0.438
-151.633	-62.330	-0.376	-0.156
-150.618	-200.000	0.007	-0.077
-149.604	-34.721	0.203	0.111
-148.589	800.000	-0.024	0.075
-147.574	-7.236	0.141	0.096
-146.560	-64.690	-0.256	0.104
-145.545	-200.000	0.094	0.418
-144.531	187.011	-0.123	-0.184
-143.516	-27.976	-0.340	-0.197
-142.502	-60.609	-0.139	0.059
-141.487	-59.131	-0.297	0.128
-140.472	74.017	-0.244	0.256
-139.458	16.317	-0.108	0.085
-138.443	-18.640	-0.150	-0.093
-137.429	-130.266	0.248	-0.034
-136.414	-105.372	-0.296	0.067
-135.399	-39.126	0.034	-0.018
-134.385	3.365	-0.202	-0.147
-133.370	-91.432	0.181	0.052
-132.356	800.000	0.063	-0.217
-131.341	145.965	-0.106	-0.142
-130.326	342.965	-0.040	-0.078
-129.312	-110.605	0.150	0.031
-128.297	-200.000	0.340	-0.000
-127.283	317.719	-0.077	0.146
-126.268	-120.462	0.309	-0.053
-125.253	-200.000	0.007	0.030
-124.239	-200.000	-0.009	0.044
-123.224	-169.638	-0.316	-0.011
-122.210	97.153	0.048	0.055
-121.195	82.258	-0.165	-0.178
