DTS Sentinel unit serial number:	SN413079Multiplexer serial number:	ORYXHardware model number:	OX4-SRSoftware version number:	ORYX F/W v4.00 Oryx Data Collector v3.7.2.0data status	okinstallation	princeton_trtdifferential loss correction	single-endedforward channel	channel 1reverse channel	N/Adate	2019/09/16time	22:46:35forward acquisition time	60.00reverse acquisition time	0.00gamma	496.2192k internal	0.2325k external	0.2325temperature offset calibration	0.9956default loss term (dB/km)	0.3790temperature slope calibration	1.0000multiplexer offset coefficient	1.0000multiplexer slope coefficient	1.0000fibre end	0.00T internal ref (°C)	30.56T ext. ref 1 (°C)	0.08T ext. ref 2 (°C)	24.17length (m)	temperature (°C)	Stokes	anti-Stokes-747.200	189.905	0.059	-0.089
-746.185	317.680	-0.113	0.216
-745.171	303.155	-0.083	0.154
-744.156	686.977	-0.091	-0.239
-743.142	191.063	0.095	0.144
-742.127	-42.014	-0.148	-0.076
-741.112	800.000	0.073	-0.287
-740.098	30.167	-0.156	0.135
-739.083	50.557	0.207	-0.197
-738.069	-200.000	0.023	0.157
-737.054	-200.000	-0.030	-0.232
-736.039	-200.000	-0.022	0.217
-735.025	713.157	0.043	0.115
-734.010	-200.000	-0.011	0.154
-732.996	75.285	-0.094	-0.100
-731.981	500.292	-0.080	0.185
-730.966	-38.239	0.163	0.087
-729.952	-181.992	-0.247	-0.005
-728.937	-200.000	-0.026	0.206
-727.923	800.000	0.070	-0.212
-726.908	-182.283	-0.408	-0.008
-725.894	-200.000	0.228	0.001
-724.879	112.941	0.070	0.085
-723.864	-24.241	-0.206	-0.124
-722.850	-40.010	0.172	0.091
-721.835	-200.000	-0.044	-0.337
-720.821	293.118	-0.026	-0.049
-719.806	-35.533	-0.215	0.117
-718.791	-200.000	-0.001	-0.077
-717.777	-157.008	-0.127	-0.008
-716.762	221.687	0.261	-0.422
-715.748	614.284	0.031	0.077
-714.733	-76.816	0.228	0.081
-713.718	57.597	0.152	0.150
-712.704	-200.000	0.022	0.283
-711.689	-200.000	0.088	-0.525
-710.675	-26.256	0.223	-0.132
-709.660	-114.388	-0.299	-0.058
-708.645	-200.000	-0.038	0.247
-707.631	-131.977	0.077	-0.010
-706.616	-200.000	0.034	-0.173
-705.602	291.590	-0.106	0.195
-704.587	308.538	0.118	0.222
-703.572	-15.776	-0.130	0.083
-702.558	-112.206	-0.215	0.043
-701.543	-200.000	-0.015	0.110
-700.529	407.075	-0.120	0.254
-699.514	220.335	-0.073	-0.118
-698.499	-127.083	-0.173	-0.026
-697.485	559.333	-0.041	0.100
-696.470	-200.000	-0.011	0.106
-695.456	-40.425	0.354	0.185
-694.441	-148.317	0.252	0.021
-693.426	800.000	-0.081	0.231
-692.412	-200.000	0.021	0.208
-691.397	-39.998	-0.112	-0.059
-690.383	-58.254	-0.039	0.017
-689.368	168.033	-0.014	-0.021
-688.354	173.959	-0.111	0.161
-687.339	-91.363	-0.247	-0.071
-686.324	19.665	0.216	0.175
-685.310	-165.068	0.152	-0.007
-684.295	174.136	-0.200	-0.291
-683.281	9.787	-0.149	-0.114
-682.266	800.000	-0.024	-0.077
-681.251	-51.723	-0.214	0.101
-680.237	185.764	0.230	0.345
-679.222	-71.663	0.176	0.066
-678.208	800.000	-0.121	0.449
-677.193	800.000	0.020	0.058
-676.178	-168.027	0.342	-0.013
-675.164	197.641	0.220	-0.338
-674.149	800.000	0.114	-0.366
-673.135	-149.060	-0.182	0.015
-672.120	-83.910	-0.090	0.029
-671.105	-35.229	-0.153	-0.084
-670.091	64.190	-0.238	0.241
-669.076	-139.821	-0.226	0.024
-668.062	4.706	-0.236	0.174
-667.047	81.013	0.204	0.221
-666.032	800.000	0.091	0.335
-665.018	-46.776	0.223	0.110
-664.003	-200.000	-0.009	-0.189
-662.989	17.525	-0.311	0.249
-661.974	19.901	-0.192	-0.155
-660.959	-136.316	0.088	-0.010
-659.945	184.060	0.077	0.115
-658.930	-200.000	0.015	0.165
-657.916	-17.202	-0.232	0.147
-656.901	146.190	0.009	0.012
-655.886	-6.132	-0.093	-0.064
-654.872	-105.480	-0.341	0.078
-653.857	501.686	-0.095	0.222
-652.843	-127.790	0.248	-0.036
-651.828	-200.000	0.037	0.231
-650.814	-22.520	-0.233	-0.142
-649.799	-200.000	-0.001	-0.216
-648.784	32.950	0.144	0.125
-647.770	786.015	0.042	-0.117
-646.755	-184.299	0.223	-0.004
-645.741	15.637	-0.174	0.137
-644.726	347.214	-0.103	-0.204
-643.711	165.221	0.175	-0.248
-642.697	-96.004	0.261	-0.070
-641.682	556.555	0.031	0.075
-640.668	-81.250	0.403	0.134
-639.653	-200.000	-0.006	0.450
-638.638	-133.877	0.139	0.017
-637.624	-200.000	0.050	-0.426
-636.609	-200.000	-0.010	-0.299
-635.595	44.245	-0.114	0.105
-634.580	-24.011	-0.230	0.138
-633.565	-167.555	-0.272	0.011
-632.551	-67.236	0.451	0.178
-631.536	-135.703	0.152	-0.018
-630.522	-3.669	-0.107	0.075
-629.507	-200.000	0.009	0.053
-628.492	-189.981	-0.265	0.003
-627.478	149.494	-0.110	-0.149
-626.463	-40.847	-0.176	-0.091
-625.449	800.000	-0.069	-0.270
-624.434	-61.502	-0.107	-0.045
-623.419	127.576	-0.122	0.156
-622.405	-58.213	0.176	0.077
-621.390	134.394	-0.139	0.181
-620.376	800.000	-0.068	0.201
-619.361	261.127	-0.066	0.114
-618.346	83.828	-0.126	-0.138
-617.332	-200.000	-0.005	-0.120
-616.317	114.834	0.087	-0.106
-615.303	-182.615	0.304	-0.006
-614.288	32.978	0.192	-0.167
-613.273	-200.000	-0.070	-0.455
-612.259	533.811	0.109	-0.260
-611.244	800.000	0.028	0.105
-610.230	554.251	-0.061	-0.148
-609.215	-162.963	0.550	0.027
-608.201	-73.364	0.489	-0.179
-607.186	-200.000	-0.033	-0.211
-606.171	37.437	-0.104	0.093
-605.157	268.053	0.069	-0.121
-604.142	200.272	-0.133	0.205
-603.128	208.343	0.137	-0.215
-602.113	-67.519	-0.143	0.056
-601.098	-127.917	-0.148	0.021
-600.084	-200.000	-0.027	0.191
-599.069	360.819	0.101	-0.202
-598.055	-57.143	-0.053	0.023
-597.040	-112.739	-0.314	0.063
-596.025	1.382	0.036	-0.026
-595.011	88.583	0.227	-0.253
-593.996	-172.727	0.150	-0.005
-592.982	-20.102	-0.138	0.085
-591.967	-98.266	-0.088	-0.023
-590.952	-31.078	0.349	0.198
-589.938	800.000	0.088	-0.260
-588.923	-200.000	-0.031	-0.144
-587.909	199.367	0.172	0.264
-586.894	800.000	0.098	-0.431
-585.879	-116.757	0.287	-0.053
-584.865	409.090	0.018	0.037
-583.850	-11.402	0.099	-0.065
-582.836	800.000	-0.155	-0.563
-581.821	268.215	-0.098	-0.172
-580.806	-59.982	0.179	0.077
-579.792	-93.154	0.221	0.062
-578.777	-43.605	0.158	-0.080
-577.763	84.636	-0.165	-0.181
-576.748	358.698	0.033	0.066
-575.733	3.980	-0.081	0.059
-574.719	-200.000	0.005	0.259
-573.704	-200.000	-0.016	0.201
-572.690	-140.679	0.362	-0.037
-571.675	-200.000	0.017	-0.157
-570.661	-56.496	0.068	0.030
-569.646	-20.560	0.056	0.034
-568.631	119.664	-0.091	0.113
-567.617	-67.384	0.315	0.124
-566.602	800.000	-0.039	0.119
-565.588	-66.521	-0.135	0.054
-564.573	800.000	0.073	-0.213
-563.558	-58.607	-0.343	0.149
-562.544	157.642	-0.056	0.077
-561.529	253.271	-0.095	-0.162
-560.515	7.891	-0.179	-0.135
-559.500	310.205	-0.124	0.232
-558.485	8.850	-0.196	-0.148
-557.471	7.595	-0.086	0.065
-556.456	-200.000	-0.004	-0.082
-555.442	20.980	0.144	-0.117
-554.427	126.755	-0.027	-0.034
-553.412	-148.381	-0.302	0.025
-552.398	-106.130	-0.408	-0.092
-551.383	-33.693	-0.337	-0.186
-550.369	235.535	0.097	0.161
-549.354	16.416	-0.129	-0.102
-548.339	156.364	0.049	-0.067
-547.325	11.984	0.174	0.134
-546.310	-200.000	-0.004	0.142
-545.296	245.163	-0.072	-0.121
-544.281	95.906	-0.171	0.196
-543.266	800.000	-0.104	0.310
-542.252	-24.336	0.171	-0.102
-541.237	-97.948	-0.066	-0.017
-540.223	-200.000	-0.043	-0.235
-539.208	-98.883	0.152	-0.039
-538.193	-72.654	-0.158	0.058
-537.179	-36.544	0.099	-0.053
-536.164	-13.649	-0.161	0.105
-535.150	-200.000	-0.012	0.078
-534.135	4.515	0.336	0.246
-533.121	6.965	-0.153	0.114
-532.106	167.803	0.224	-0.318
-531.091	155.671	0.102	-0.140
-530.077	53.131	-0.144	0.138
-529.062	214.415	0.178	-0.281
-528.048	6.084	0.201	0.149
-527.033	800.000	0.136	0.413
-526.018	800.000	0.063	0.187
-525.004	-200.000	-0.019	-0.189
-523.989	165.939	-0.183	-0.259
-522.975	-66.022	0.173	-0.069
-521.960	-200.000	-0.049	0.317
-520.945	105.953	0.081	0.095
-519.931	800.000	0.035	0.128
-518.916	-200.000	0.012	-0.390
-517.902	278.749	-0.107	0.190
-516.887	294.333	0.066	-0.121
-515.872	-31.776	-0.351	-0.197
-514.858	-109.254	-0.140	-0.030
-513.843	59.042	0.123	-0.121
-512.829	134.892	0.052	0.067
-511.814	-92.709	-0.170	0.048
-510.799	-116.758	-0.256	-0.047
-509.785	800.000	-0.033	-0.131
-508.770	106.852	-0.239	-0.284
-507.756	-87.418	-0.084	0.025
-506.741	-114.360	-0.156	-0.030
-505.726	-120.172	0.121	0.021
-504.712	40.628	0.088	-0.079
-503.697	53.860	0.144	-0.138
-502.683	70.376	0.116	0.119
-501.668	800.000	-0.019	-0.055
-500.653	344.155	-0.061	-0.120
-499.639	-130.969	-0.235	0.031
-498.624	472.501	-0.115	0.260
-497.610	-200.000	-0.006	0.109
-496.595	-167.393	-0.234	0.009
-495.581	-17.289	-0.370	0.233
-494.566	-97.267	-0.314	0.082
-493.551	334.732	-0.108	0.208
-492.537	194.283	-0.122	-0.185
-491.522	-200.000	-0.011	-0.158
-490.508	800.000	-0.037	0.106
-489.493	-97.377	0.106	0.028
-488.478	800.000	0.062	-0.247
-487.464	54.557	-0.331	0.319
-486.449	176.504	0.205	-0.297
-485.435	16.607	0.176	0.139
-484.420	800.000	0.066	-0.279
-483.405	-159.272	-0.396	-0.022
-482.391	-107.648	-0.162	-0.035
-481.376	57.329	0.193	0.188
-480.362	86.946	-0.100	0.110
-479.347	535.326	-0.091	-0.215
-478.332	-116.495	0.323	0.060
-477.318	-109.193	0.116	0.025
-476.303	-200.000	0.002	-0.020
-475.289	461.825	0.105	-0.234
-474.274	298.094	-0.053	-0.097
-473.259	-22.291	0.291	-0.176
-472.245	700.640	0.046	0.121
-471.230	-119.111	-0.073	-0.013
-470.216	-97.812	0.109	-0.028
-469.201	-200.000	-0.029	0.255
-468.186	800.000	-0.161	0.470
-467.172	362.041	-0.186	0.372
-466.157	800.000	-0.006	-0.017
-465.143	800.000	0.095	-0.279
-464.128	107.187	0.158	0.187
-463.113	180.355	-0.052	-0.077
-462.099	-200.000	0.031	-0.248
-461.084	37.389	-0.168	0.149
-460.070	157.631	-0.083	0.114
-459.055	-200.000	0.015	-0.214
-458.040	59.553	-0.096	0.095
-457.026	-125.662	-0.147	-0.022
-456.011	42.840	0.176	-0.160
-454.997	-200.000	0.016	0.120
-453.982	110.947	0.182	-0.219
-452.968	800.000	0.046	-0.160
-451.953	208.140	-0.202	0.315
-450.938	-104.511	-0.141	-0.032
-449.924	19.628	-0.028	0.023
-448.909	-200.000	-0.038	0.242
-447.895	-200.000	-0.027	-0.522
-446.880	407.993	-0.173	-0.365
-445.865	24.913	0.023	0.019
-444.851	-107.440	0.229	-0.050
-443.836	-25.446	-0.242	-0.142
-442.822	-79.250	0.361	-0.122
-441.807	-20.919	0.188	0.115
-440.792	-200.000	-0.016	-0.204
-439.778	-34.846	-0.102	-0.055
-438.763	-154.689	0.192	0.013
-437.749	800.000	0.119	0.380
-436.734	185.121	0.032	0.047
-435.719	137.355	-0.059	0.077
-434.705	-12.474	-0.136	0.088
-433.690	-68.237	-0.153	-0.060
-432.676	116.294	-0.282	-0.345
-431.661	800.000	0.057	-0.166
-430.646	480.287	0.125	0.283
-429.632	-29.373	-0.183	-0.105
-428.617	-200.000	-0.004	-0.034
-427.603	57.659	-0.061	0.059
-426.588	793.372	-0.035	0.096
-425.573	-200.000	0.052	0.244
-424.559	-200.000	-0.073	0.000
-423.544	-38.976	-0.172	-0.090
-422.530	800.000	-0.024	-0.087
-421.515	61.424	-0.168	0.166
-420.500	-153.129	0.269	0.019
-419.486	-200.000	-0.041	-0.313
-418.471	-200.000	0.027	0.160
-417.457	800.000	-0.088	-0.335
-416.442	392.913	0.073	0.152
-415.428	-31.083	0.230	0.129
-414.413	214.314	-0.019	0.030
-413.398	-200.000	-0.006	0.158
-412.384	-200.000	0.029	-0.164
-411.369	-72.403	-0.089	-0.033
-410.355	259.491	0.083	-0.143
-409.340	-200.000	0.015	-0.115
-408.325	-85.620	-0.290	0.090
-407.311	-94.271	-0.168	0.046
-406.296	-200.000	0.030	0.148
-405.282	-22.114	-0.096	-0.058
-404.267	354.740	0.148	-0.292
-403.252	-162.356	0.075	0.004
-402.238	447.773	0.112	-0.245
-401.223	-200.000	0.074	0.357
-400.209	16.947	-0.182	-0.143
-399.194	67.968	-0.227	-0.231
-398.179	-200.000	-0.004	0.061
-397.165	-170.980	0.176	0.006
-396.150	-96.897	-0.279	-0.073
-395.136	-200.000	0.009	-0.107
-394.121	-77.857	-0.089	-0.031
-393.106	49.541	-0.069	0.065
-392.092	-108.634	0.232	0.050
-391.077	-200.000	0.006	0.321
-390.063	-60.617	-0.467	0.197
-389.048	152.900	0.129	0.175
-388.033	-145.892	-0.355	0.031
-387.019	-9.411	-0.440	0.293
-386.004	-200.000	0.057	0.380
-384.990	23.818	-0.050	0.041
-383.975	-137.585	0.275	0.031
-382.960	14.128	0.411	0.319
-381.946	-133.492	-0.162	0.020
-380.931	-96.493	-0.165	-0.043
-379.917	6.384	0.504	0.372
-378.902	-60.792	-0.170	0.072
-377.888	800.000	-0.064	0.195
-376.873	4.383	-0.236	-0.172
-375.858	-82.859	0.382	0.123
-374.844	-13.514	0.146	0.094
-373.829	-200.000	0.001	-0.088
-372.815	-181.572	0.437	-0.008
-371.800	-71.203	-0.221	0.082
-370.785	-200.000	-0.037	0.252
-369.771	165.089	0.048	0.067
-368.756	-101.413	0.275	-0.067
-367.742	-200.000	0.031	0.309
-366.727	245.762	-0.035	-0.059
-365.712	1.489	-0.300	0.214
-364.698	77.201	-0.225	-0.238
-363.683	190.316	0.116	-0.174
-362.669	676.453	-0.109	-0.281
-361.654	-200.000	0.034	0.181
-360.639	234.850	0.099	0.163
-359.625	-17.412	0.156	-0.098
-358.610	-26.972	0.169	-0.098
-357.596	-200.000	-0.045	0.354
-356.581	-120.301	-0.225	0.038
-355.566	-71.358	-0.133	0.050
-354.552	-84.303	0.307	-0.096
-353.537	-77.559	0.043	-0.015
-352.523	392.309	-0.117	0.242
-351.508	-147.086	0.123	0.010
-350.493	-9.752	-0.250	0.165
-349.479	-38.393	0.181	0.095
-348.464	-200.000	0.033	0.336
-347.450	8.297	-0.173	0.129
-346.435	196.807	-0.039	0.059
-345.420	-200.000	0.088	0.401
-344.406	-56.039	-0.206	-0.091
-343.391	-37.209	-0.180	0.095
-342.377	-42.828	-0.371	0.187
-341.362	-60.249	-0.076	-0.032
-340.348	29.565	-0.272	-0.230
-339.333	148.077	0.290	0.389
-338.318	-153.696	-0.273	-0.019
-337.304	185.943	0.106	-0.157
-336.289	-129.548	-0.321	-0.044
-335.275	20.672	-0.358	-0.288
-334.260	-28.421	-0.143	-0.082
-333.245	-87.609	0.230	-0.069
-332.231	-20.228	0.155	-0.095
-331.216	-86.041	0.094	0.029
-330.202	800.000	0.100	0.374
-329.187	-52.055	0.067	0.031
-328.172	-8.276	-0.141	0.094
-327.158	269.728	-0.109	0.190
-326.143	30.945	0.316	0.268
-325.129	116.663	-0.084	0.102
-324.114	-145.066	0.246	-0.022
-323.099	618.065	-0.101	-0.252
-322.085	-93.916	0.201	-0.055
-321.070	19.809	-0.034	-0.027
-320.056	-74.774	-0.417	-0.149
-319.041	15.270	0.114	0.089
-318.026	-150.398	-0.288	-0.022
-317.012	-74.891	0.095	0.034
-315.997	-80.179	-0.243	0.081
-314.983	-137.803	-0.222	0.025
-313.968	-85.206	0.440	-0.137
-312.953	-31.126	-0.085	-0.047
-311.939	-143.324	-0.097	0.009
-310.924	137.620	0.167	-0.217
-309.910	204.103	0.156	-0.239
-308.895	-200.000	-0.083	-0.436
-307.880	-123.910	-0.059	0.009
-306.866	313.973	0.077	-0.144
-305.851	800.000	0.039	0.160
-304.837	210.144	0.195	0.304
-303.822	800.000	0.015	0.064
-302.807	390.582	0.007	0.014
-301.793	682.664	-0.104	0.269
-300.778	39.468	-0.094	-0.084
-299.764	247.869	-0.154	0.258
-298.749	800.000	0.063	-0.234
-297.735	-154.969	0.130	0.008
-296.720	-43.150	-0.089	0.045
-295.705	25.387	-0.066	-0.054
-294.691	800.000	0.166	-0.600
-293.676	-200.000	-0.052	0.336
-292.662	-50.858	-0.315	-0.147
-291.647	-130.353	-0.197	-0.027
-290.632	-200.000	-0.031	0.314
-289.618	67.561	0.225	0.228
-288.603	29.952	0.219	-0.185
-287.589	92.328	-0.247	-0.276
-286.574	-200.000	0.001	-0.244
-285.559	-200.000	-0.050	-0.223
-284.545	-65.979	-0.121	0.048
-283.530	334.974	0.033	0.063
-282.516	40.457	-0.030	0.027
-281.501	34.625	-0.252	-0.219
-280.486	353.575	-0.040	0.078
-279.472	46.963	-0.048	0.044
-278.457	463.783	-0.153	-0.340
-277.443	43.436	0.323	-0.293
-276.428	60.201	0.253	-0.248
-275.413	118.224	0.230	0.281
-274.399	-200.000	-0.030	-0.201
-273.384	800.000	0.049	-0.184
-272.370	-169.565	0.496	0.018
-271.355	800.000	-0.074	-0.205
-270.340	283.311	-0.071	0.127
-269.326	698.013	-0.027	-0.070
-268.311	800.000	0.046	0.178
-267.297	-184.454	0.075	0.001
-266.282	96.030	0.169	0.191
-265.267	-14.365	0.285	-0.182
-264.253	38.775	-0.129	-0.114
-263.238	-94.668	0.139	-0.038
-262.224	-101.958	-0.239	0.057
-261.209	44.860	0.193	0.176
-260.195	16.681	-0.123	0.096
-259.180	-68.083	-0.167	0.064
-258.165	-41.058	-0.233	0.119
-257.151	21.137	0.212	0.170
-256.136	-200.000	-0.018	0.097
-255.122	779.021	0.032	0.088
-254.107	-75.743	0.309	-0.109
-253.092	-200.000	-0.002	0.027
-252.078	753.718	0.088	0.236
-251.063	800.000	0.099	-0.287
-250.049	-113.327	-0.061	-0.012
-249.034	-149.626	-0.190	-0.015
-248.019	13.541	0.033	0.025
-247.005	-26.356	0.054	0.032
-245.990	-200.000	-0.029	0.187
-244.976	457.687	-0.135	0.297
-243.961	150.844	-0.109	-0.147
-242.946	-116.055	0.173	-0.032
-241.932	42.001	0.166	0.149
-240.917	-200.000	-0.019	-0.122
-239.903	800.000	-0.062	-0.197
-238.888	-200.000	0.028	-0.298
-237.873	223.423	0.203	-0.324
-236.859	468.762	0.006	0.014
-235.844	464.972	0.059	-0.131
-234.830	-131.129	-0.267	-0.035
-233.815	-18.185	0.207	-0.128
-232.800	-48.482	-0.146	-0.069
-231.786	-200.000	-0.021	0.105
-230.771	-27.045	0.399	-0.230
-229.757	-200.000	-0.007	-0.146
-228.742	-153.579	-0.096	0.007
-227.727	21.478	0.275	0.221
-226.713	8.381	-0.077	-0.058
-225.698	254.940	-0.114	-0.194
-224.684	-138.848	0.105	0.011
-223.669	-72.320	0.120	-0.044
-222.655	800.000	0.043	0.131
-221.640	-97.445	-0.187	-0.048
-220.625	-26.049	0.262	-0.152
-219.611	-88.480	-0.113	0.033
-218.596	800.000	0.056	0.154
-217.582	6.247	-0.156	-0.115
-216.567	-200.000	-0.015	-0.324
-215.552	-22.164	0.162	0.097
-214.538	23.235	0.180	-0.146
-213.523	-200.000	-0.000	0.131
-212.509	-200.000	-0.070	0.336
-211.494	-200.000	0.042	0.303
-210.479	-62.354	-0.192	-0.079
-209.465	-128.128	-0.087	0.012
-208.450	-116.218	0.313	0.057
-207.436	481.385	0.071	0.160
-206.421	-111.596	-0.144	0.029
-205.406	800.000	-0.041	-0.112
-204.392	94.275	0.238	0.267
-203.377	52.418	0.113	-0.106
-202.363	-137.816	0.252	-0.028
-201.348	-200.000	-0.021	-0.216
-200.333	-200.000	0.042	-0.275
-199.319	-152.498	-0.217	-0.015
-198.304	0.570	0.070	-0.049
-197.290	242.990	-0.080	0.132
-196.275	256.873	0.045	0.076
-195.260	356.412	0.180	0.355
-194.246	-190.444	0.238	0.003
-193.231	-200.000	-0.004	-0.154
-192.217	678.906	0.066	0.168
-191.202	46.664	-0.208	0.191
-190.187	54.388	0.222	0.211
-189.173	-30.504	0.049	-0.027
-188.158	361.550	0.102	-0.202
-187.144	299.657	0.104	0.189
-186.129	-186.971	-0.107	-0.001
-185.114	-75.951	-0.166	-0.058
-184.100	-63.386	0.280	0.114
-183.085	131.794	0.161	0.204
-182.071	-157.260	-0.244	0.015
-181.056	-39.482	-0.076	0.040
-180.042	-179.790	-0.173	-0.004
-179.027	272.282	0.231	0.403
-178.012	441.797	-0.117	0.252
-176.998	-82.861	-0.226	0.072
-175.983	-200.000	0.027	0.297
-174.969	800.000	0.087	-0.293
-173.954	1.390	-0.284	0.201
-172.939	-8.384	0.149	-0.099
-171.925	19.530	0.158	0.126
-170.910	122.910	-0.148	-0.183
-169.896	-146.460	-0.252	-0.022
-168.881	-200.000	-0.061	0.288
-167.866	703.008	-0.017	0.043
-166.852	-36.723	-0.176	-0.093
-165.837	-188.803	0.088	0.001
-164.823	99.562	0.093	-0.106
-163.808	179.504	-0.011	0.016
-162.793	43.183	0.090	0.081
-161.779	39.050	-0.050	-0.044
-160.764	188.606	-0.128	-0.189
-159.750	285.135	0.132	-0.235
-158.735	-200.000	-0.006	0.112
-157.720	-89.815	-0.084	0.024
-156.706	-200.000	0.007	0.070
-155.691	111.711	0.225	-0.268
-154.677	-3.365	-0.134	0.092
-153.662	120.851	0.135	-0.166
-152.647	-144.982	0.458	0.041
-151.633	-200.000	-0.000	-0.055
-150.618	-200.000	0.036	-0.197
-149.604	-76.097	-0.143	-0.050
-148.589	-55.344	0.204	-0.090
-147.574	800.000	0.091	-0.271
-146.560	121.718	-0.075	0.092
-145.545	-139.498	0.232	-0.024
-144.531	283.681	0.073	0.129
-143.516	82.522	0.382	0.409
-142.502	-3.266	0.132	0.090
-141.487	323.359	-0.173	0.324
-140.472	388.371	-0.050	-0.102
-139.458	-200.000	-0.011	-0.171
-138.443	-7.665	0.214	0.143
-137.429	141.718	-0.021	0.028
-136.414	232.804	-0.190	-0.307
-135.399	-78.447	0.199	0.067
-134.385	-115.030	0.254	0.048
-133.370	-132.365	-0.320	0.041
-132.356	18.452	-0.176	0.138
-131.341	800.000	-0.011	0.039
-130.326	-107.296	0.195	0.042
-129.312	166.493	-0.172	-0.240
-128.297	-120.584	-0.056	0.009
-127.283	-200.000	-0.055	0.310
-126.268	-75.784	0.148	-0.052
-125.253	47.525	-0.177	0.163
-124.239	168.272	0.260	0.364
-123.224	-200.000	0.017	0.244
-122.210	124.261	-0.141	-0.174
-121.195	-54.739	-0.209	0.093
