DTS Sentinel unit serial number:	SN413079Multiplexer serial number:	ORYXHardware model number:	OX4-SRSoftware version number:	ORYX F/W v4.00 Oryx Data Collector v3.7.2.0data status	okinstallation	princeton_trtdifferential loss correction	single-endedforward channel	channel 1reverse channel	N/Adate	2019/09/18time	22:06:35forward acquisition time	60.00reverse acquisition time	0.00gamma	496.2192k internal	0.2341k external	0.2341temperature offset calibration	1.0019default loss term (dB/km)	0.3790temperature slope calibration	1.0000multiplexer offset coefficient	1.0000multiplexer slope coefficient	1.0000fibre end	0.00T internal ref (°C)	24.50T ext. ref 1 (°C)	0.81T ext. ref 2 (°C)	18.35length (m)	temperature (°C)	Stokes	anti-Stokes-747.200	-1.054	0.261	0.185
-746.185	113.979	-0.149	-0.182
-745.171	-63.477	0.104	0.043
-744.156	-114.387	-0.414	0.080
-743.142	-132.475	-0.062	0.008
-742.127	309.320	-0.207	0.387
-741.112	8.203	0.062	0.046
-740.098	-69.978	-0.219	-0.083
-739.083	180.368	0.169	0.249
-738.069	-90.898	0.285	-0.082
-737.054	-65.727	-0.283	-0.114
-736.039	-60.752	-0.379	0.161
-735.025	159.548	0.108	0.150
-734.010	180.816	-0.018	0.027
-732.996	-29.645	-0.255	-0.146
-731.981	-122.054	0.053	-0.009
-730.966	480.888	0.040	0.090
-729.952	-42.567	-0.189	-0.097
-728.937	621.487	-0.018	0.044
-727.923	180.065	-0.221	0.325
-726.908	73.725	0.140	-0.147
-725.894	800.000	-0.042	-0.132
-724.879	-97.084	-0.332	-0.087
-723.864	-200.000	0.056	0.250
-722.850	109.565	-0.158	-0.190
-721.835	-47.142	-0.316	0.154
-720.821	-38.504	-0.212	0.112
-719.806	-18.399	-0.189	0.119
-718.791	-129.586	-0.369	-0.051
-717.777	-200.000	-0.001	0.046
-716.762	-200.000	-0.005	0.023
-715.748	44.227	0.043	-0.039
-714.733	-13.928	0.195	-0.126
-713.718	-83.011	-0.072	0.023
-712.704	325.066	-0.020	-0.039
-711.689	259.871	0.092	0.159
-710.675	-143.787	0.131	-0.012
-709.660	143.003	-0.042	-0.056
-708.645	190.281	0.116	0.174
-707.631	-36.286	0.285	0.154
-706.616	-101.383	-0.133	-0.032
-705.602	236.061	-0.074	-0.123
-704.587	321.219	-0.130	-0.247
-703.572	-147.397	-0.319	0.027
-702.558	-108.724	-0.062	0.013
-701.543	51.552	-0.096	0.091
-700.529	76.878	-0.151	0.160
-699.514	800.000	0.033	-0.129
-698.499	-190.296	0.112	-0.001
-697.485	800.000	0.091	-0.327
-696.470	-143.280	0.277	-0.027
-695.456	550.086	0.035	-0.084
-694.441	-32.474	-0.140	0.078
-693.426	-160.611	-0.220	-0.012
-692.412	653.339	-0.164	0.422
-691.397	54.805	-0.340	0.328
-690.383	-200.000	0.042	-0.351
-689.368	-200.000	0.029	-0.151
-688.354	-38.190	0.434	-0.230
-687.339	207.842	-0.089	0.139
-686.324	-25.558	-0.080	-0.047
-685.310	635.794	0.028	-0.070
-684.295	-114.530	0.297	-0.057
-683.281	166.373	-0.202	-0.286
-682.266	112.630	-0.174	0.210
-681.251	250.964	0.065	0.111
-680.237	-45.500	-0.240	-0.119
-679.222	43.916	0.181	0.165
-678.208	-73.566	0.152	0.055
-677.193	-139.287	-0.163	0.018
-676.178	747.751	-0.140	-0.378
-675.164	-114.235	-0.197	-0.038
-674.149	-47.641	0.224	0.109
-673.135	-19.057	-0.372	-0.231
-672.120	-18.150	0.050	-0.031
-671.105	457.765	-0.060	0.134
-670.091	-86.283	-0.181	-0.056
-669.076	800.000	-0.101	-0.368
-668.062	391.015	-0.096	-0.200
-667.047	-85.009	-0.203	0.064
-666.032	759.565	-0.115	-0.310
-665.018	124.608	-0.145	-0.183
-664.003	-3.003	0.317	0.221
-662.989	141.469	0.082	-0.109
-661.974	6.877	0.168	0.125
-660.959	-174.589	0.229	-0.007
-659.945	164.789	-0.178	0.250
-658.930	-95.624	-0.312	0.083
-657.916	-113.622	-0.354	-0.069
-656.901	666.582	-0.140	-0.362
-655.886	-16.490	-0.190	0.120
-654.872	314.615	0.266	-0.501
-653.857	800.000	-0.084	0.275
-652.843	59.812	-0.176	0.173
-651.828	483.117	-0.013	-0.030
-650.814	21.706	-0.222	0.181
-649.799	57.047	0.063	-0.062
-648.784	-100.792	-0.242	-0.059
-647.770	277.737	0.089	-0.157
-646.755	62.485	-0.222	-0.222
-645.741	262.409	-0.112	0.193
-644.726	-11.899	-0.167	0.109
-643.711	705.839	0.047	-0.125
-642.697	-113.448	0.168	-0.033
-641.682	19.381	-0.280	0.225
-640.668	106.074	0.121	0.143
-639.653	15.827	-0.047	-0.037
-638.638	-35.870	-0.294	0.159
-637.624	-2.204	0.232	0.163
-636.609	800.000	0.061	-0.189
-635.595	800.000	-0.072	0.299
-634.580	371.285	0.176	0.357
-633.565	-61.137	0.212	-0.089
-632.551	-26.899	0.105	0.061
-631.536	-103.288	-0.294	0.069
-630.522	-68.334	-0.148	0.057
-629.507	-92.599	-0.385	-0.108
-628.492	-58.354	0.245	0.106
-627.478	548.952	0.058	0.138
-626.463	-69.844	-0.347	-0.132
-625.449	-21.984	-0.133	-0.081
-624.434	8.458	0.136	-0.102
-623.419	358.986	-0.127	0.253
-622.405	95.895	-0.259	-0.296
-621.390	52.903	0.129	0.123
-620.376	172.022	0.297	-0.425
-619.361	-200.000	0.018	0.160
-618.346	-12.148	0.292	0.191
-617.332	-41.434	-0.050	-0.026
-616.317	-158.898	-0.136	-0.008
-615.303	542.694	0.183	-0.436
-614.288	-4.902	0.182	0.125
-613.273	41.940	0.161	-0.145
-612.259	17.450	-0.190	-0.150
-611.244	-96.612	0.262	0.069
-610.230	305.842	0.064	0.118
-609.215	-200.000	-0.011	-0.120
-608.201	800.000	0.075	0.295
-607.186	340.107	0.073	0.143
-606.171	-200.000	-0.033	0.157
-605.157	-108.672	-0.095	0.020
-604.142	-54.695	0.205	-0.092
-603.128	-118.615	-0.252	-0.044
-602.113	208.588	-0.271	-0.422
-601.098	321.954	-0.150	-0.284
-600.084	-125.134	-0.280	0.043
-599.069	0.163	-0.165	-0.117
-598.055	-110.239	-0.208	0.043
-597.040	175.429	0.171	-0.247
-596.025	610.989	0.156	-0.387
-595.011	-47.692	-0.089	0.043
-593.996	-48.825	0.042	-0.020
-592.982	424.641	-0.138	-0.297
-591.967	-21.873	-0.018	-0.011
-590.952	-139.300	0.249	0.027
-589.938	800.000	-0.081	0.337
-588.923	-133.974	0.103	-0.013
-587.909	21.852	0.201	0.163
-586.894	800.000	0.020	-0.083
-585.879	377.170	0.133	0.271
-584.865	407.033	0.074	0.155
-583.850	-89.981	-0.279	0.081
-582.836	-200.000	-0.020	-0.141
-581.821	-118.230	-0.410	-0.073
-580.806	-200.000	0.009	0.091
-579.792	624.528	0.052	0.132
-578.777	-149.748	-0.128	-0.010
-577.763	50.867	-0.104	0.098
-576.748	577.734	0.100	0.242
-575.733	-114.611	-0.286	-0.054
-574.719	149.720	-0.125	-0.169
-573.704	452.748	0.042	-0.093
-572.690	-200.000	0.044	0.288
-571.675	800.000	0.052	0.149
-570.661	321.771	0.088	-0.167
-569.646	156.676	-0.055	-0.075
-568.631	701.985	-0.159	0.417
-567.617	800.000	-0.051	-0.172
-566.602	-127.760	0.294	-0.042
-565.588	216.913	0.170	0.269
-564.573	247.034	0.202	-0.339
-563.558	-39.359	-0.182	-0.095
-562.544	800.000	0.143	0.398
-561.529	89.523	-0.096	-0.107
-560.515	800.000	-0.122	0.436
-559.500	186.384	-0.106	-0.157
-558.485	-200.000	0.023	-0.152
-557.471	-200.000	-0.001	0.144
-556.456	-40.611	-0.282	0.145
-555.442	-200.000	-0.017	0.290
-554.427	79.789	-0.334	0.357
-553.412	-91.134	0.314	-0.090
-552.398	67.539	-0.077	0.078
-551.383	-63.486	0.107	0.044
-550.369	580.329	0.106	0.258
-549.354	473.048	-0.050	-0.111
-548.339	-111.857	-0.241	0.049
-547.325	67.444	-0.207	-0.210
-546.310	170.684	0.064	0.091
-545.296	-200.000	0.001	-0.354
-544.281	-200.000	-0.012	-0.140
-543.266	692.987	-0.115	-0.299
-542.252	-79.259	0.399	-0.135
-541.237	-106.552	0.032	-0.007
-540.223	-184.662	0.174	0.003
-539.208	-200.000	0.013	0.063
-538.193	30.595	0.127	-0.108
-537.179	-87.250	-0.237	0.072
-536.164	800.000	-0.035	-0.139
-535.150	-106.649	0.436	0.096
-534.135	-19.994	-0.075	0.046
-533.121	-54.004	-0.284	0.129
-532.106	-90.577	0.257	-0.074
-531.091	-126.932	0.342	0.050
-530.077	-81.684	-0.189	0.062
-529.062	47.881	0.102	0.095
-528.048	295.326	0.217	0.395
-527.033	47.164	-0.223	0.206
-526.018	-25.965	-0.150	-0.088
-525.004	800.000	0.043	-0.174
-523.989	-66.871	-0.168	-0.066
-522.975	-60.427	0.183	0.077
-521.960	-200.000	-0.048	0.229
-520.945	-12.243	0.114	0.074
-519.931	5.365	-0.195	0.143
-518.916	-200.000	0.056	0.353
-517.902	-74.138	-0.449	-0.162
-516.887	14.755	0.397	0.308
-515.872	234.898	0.160	0.262
-514.858	-200.000	0.005	0.129
-513.843	723.310	0.102	-0.269
-512.829	44.613	-0.230	-0.210
-511.814	343.922	-0.076	-0.147
-510.799	-139.106	0.332	-0.036
-509.785	-200.000	-0.007	0.096
-508.770	-110.377	0.076	-0.016
-507.756	-200.000	-0.005	0.128
-506.741	800.000	-0.012	0.040
-505.726	-95.206	0.149	0.040
-504.712	3.666	0.163	0.118
-503.697	-200.000	0.023	-0.119
-502.683	800.000	-0.092	-0.358
-501.668	-200.000	0.039	-0.382
-500.653	-129.020	-0.361	-0.050
-499.639	108.606	0.026	-0.031
-498.624	-47.903	0.295	0.142
-497.610	343.282	0.105	0.205
-496.595	5.921	0.085	0.063
-495.581	-153.036	0.270	-0.019
-494.566	241.202	-0.129	0.214
-493.551	102.194	-0.267	0.309
-492.537	-73.455	-0.089	0.032
-491.522	-200.000	-0.028	-0.430
-490.508	244.073	0.185	0.308
-489.493	212.942	0.091	-0.143
-488.478	-50.434	-0.187	0.088
-487.464	68.125	0.157	-0.160
-486.449	-133.780	0.485	0.060
-485.435	31.169	-0.251	0.214
-484.420	-74.052	-0.266	-0.096
-483.405	452.922	-0.104	0.229
-482.391	800.000	0.035	-0.143
-481.376	-62.183	0.304	-0.126
-480.362	102.872	0.106	0.124
-479.347	-84.067	-0.207	0.065
-478.332	77.149	-0.012	0.013
-477.318	344.158	-0.133	-0.258
-476.303	-109.053	-0.066	-0.014
-475.289	-129.021	0.235	0.033
-474.274	-200.000	-0.056	-0.264
-473.259	-112.308	0.118	-0.024
-472.245	347.893	0.155	0.303
-471.230	-92.106	-0.233	-0.065
-470.216	-200.000	0.028	-0.139
-469.201	159.051	0.082	-0.113
-468.186	800.000	0.063	-0.190
-467.172	18.610	-0.162	-0.128
-466.157	-122.269	-0.189	0.031
-465.143	800.000	0.029	-0.118
-464.128	-127.310	-0.081	0.012
-463.113	800.000	0.022	0.071
-462.099	362.730	0.040	0.080
-461.084	62.133	-0.116	0.114
-460.070	-64.320	-0.054	-0.022
-459.055	176.677	0.121	-0.175
-458.040	-186.152	-0.081	-0.001
-457.026	-6.630	-0.035	-0.024
-456.011	229.546	-0.142	-0.229
-454.997	-4.106	-0.321	-0.221
-453.982	30.700	0.349	-0.296
-452.968	-200.000	-0.008	0.156
-451.953	-147.852	-0.260	-0.022
-450.938	-200.000	-0.039	-0.280
-449.924	-37.814	0.183	0.096
-448.909	113.321	-0.228	0.275
-447.895	153.790	-0.202	-0.275
-446.880	3.102	-0.204	0.147
-445.865	-108.441	0.056	-0.012
-444.851	-200.000	0.007	0.085
-443.836	223.986	0.148	0.237
-442.822	-15.077	-0.078	0.050
-441.807	-53.630	0.329	-0.149
-440.792	-93.610	-0.167	-0.046
-439.778	40.354	-0.165	-0.147
-438.763	45.538	-0.112	-0.102
-437.749	140.631	-0.167	0.219
-436.734	-194.642	0.290	-0.002
-435.719	800.000	0.073	0.225
-434.705	48.474	0.247	0.230
-433.690	-156.076	0.494	0.031
-432.676	-1.408	-0.291	-0.204
-431.661	-128.548	-0.223	-0.031
-430.646	467.891	-0.089	0.197
-429.632	131.496	-0.102	-0.130
-428.617	-54.392	-0.209	0.094
-427.603	78.623	-0.085	-0.090
-426.588	-26.688	0.043	-0.025
-425.573	-140.410	0.071	0.007
-424.559	-91.436	0.068	0.019
-423.544	-200.000	0.005	-0.051
-422.530	-133.569	-0.116	0.014
-421.515	-91.965	-0.202	-0.057
-420.500	168.725	0.144	-0.203
-419.486	-144.094	0.118	-0.011
-418.471	-132.471	-0.104	-0.013
-417.457	-147.183	0.051	0.004
-416.442	13.230	0.182	0.140
-415.428	160.918	0.159	0.219
-414.413	-112.007	0.443	-0.088
-413.398	-200.000	-0.039	-0.347
-412.384	-35.181	-0.207	-0.111
-411.369	-45.348	0.132	0.065
-410.355	30.927	-0.137	0.116
-409.340	-147.160	0.329	-0.028
-408.325	738.776	0.061	-0.162
-407.311	269.849	-0.134	0.234
-406.296	74.605	-0.089	0.093
-405.282	-200.000	-0.055	-0.302
-404.267	800.000	-0.068	0.249
-403.252	-200.000	0.006	-0.313
-402.238	263.706	0.014	0.024
-401.223	-49.654	0.194	0.091
-400.209	-81.269	-0.197	-0.064
-399.194	780.103	-0.047	0.128
-398.179	198.994	0.076	0.115
-397.165	-139.129	-0.333	-0.036
-396.150	-0.603	-0.226	0.159
-395.136	-96.562	0.068	0.018
-394.121	105.182	0.145	0.169
-393.106	-11.782	-0.399	-0.259
-392.092	-93.962	-0.071	-0.019
-391.077	-200.000	0.015	0.297
-390.063	500.102	-0.019	0.043
-389.048	230.076	-0.149	0.241
-388.033	287.117	-0.048	-0.087
-387.019	33.129	0.144	-0.123
-386.004	800.000	-0.149	-0.441
-384.990	-200.000	-0.021	0.150
-383.975	90.438	-0.142	-0.157
-382.960	-117.433	-0.159	0.029
-381.946	-93.061	0.294	-0.081
-380.931	-11.138	-0.360	-0.234
-379.917	-79.668	0.187	-0.062
-378.902	800.000	-0.149	0.542
-377.888	794.745	0.125	-0.341
-376.873	-200.000	-0.002	0.045
-375.858	-47.507	-0.093	0.045
-374.844	235.079	-0.189	-0.308
-373.829	176.116	-0.018	0.026
-372.815	-147.759	-0.144	0.012
-371.800	-134.554	-0.087	0.011
-370.785	-32.210	0.285	-0.158
-369.771	800.000	0.060	0.195
-368.756	128.819	-0.208	-0.262
-367.742	800.000	0.058	-0.178
-366.727	464.429	0.022	-0.049
-365.712	-200.000	0.025	0.126
-364.698	44.303	0.039	0.035
-363.683	-89.855	-0.221	0.064
-362.669	645.657	-0.079	-0.198
-361.654	36.751	-0.217	0.190
-360.639	-200.000	0.008	0.200
-359.625	82.437	0.146	0.156
-358.610	282.248	-0.010	0.018
-357.596	-163.976	0.285	-0.013
-356.581	-89.441	0.480	0.139
-355.566	-200.000	0.033	0.166
-354.552	72.199	0.184	0.189
-353.537	-200.000	-0.012	0.183
-352.523	-54.032	-0.140	-0.063
-351.508	-37.745	0.093	0.049
-350.493	171.054	0.229	0.324
-349.479	56.292	-0.061	0.058
-348.464	69.338	-0.136	-0.139
-347.450	-184.989	-0.351	0.005
-346.435	800.000	0.051	0.170
-345.420	800.000	0.025	0.084
-344.406	-172.939	0.296	-0.009
-343.391	360.306	-0.134	0.265
-342.377	-200.000	-0.005	0.037
-341.362	-71.059	0.256	0.095
-340.348	299.225	0.089	-0.161
-339.333	623.990	-0.076	-0.190
-338.318	172.595	0.162	0.230
-337.304	800.000	-0.088	-0.352
-336.289	-189.008	-0.237	-0.003
-335.275	-136.163	0.071	-0.008
-334.260	-200.000	0.041	0.259
-333.245	11.778	0.244	-0.185
-332.231	-127.347	0.146	0.021
-331.216	-194.446	-0.202	0.002
-330.202	-41.844	0.150	-0.076
-329.187	-160.298	0.182	-0.010
-328.172	155.365	0.145	0.196
-327.158	-17.905	0.186	0.115
-326.143	186.510	-0.234	-0.344
-325.129	-134.327	-0.022	0.003
-324.114	-42.870	-0.040	0.020
-323.099	-79.127	-0.076	-0.026
-322.085	800.000	-0.061	0.173
-321.070	250.047	0.089	0.149
-320.056	800.000	-0.066	-0.195
-319.041	64.577	0.150	-0.149
-318.026	-4.012	0.237	-0.162
-317.012	168.799	-0.118	0.166
-315.997	210.350	0.261	-0.403
-314.983	59.447	0.178	-0.173
-313.968	-44.190	-0.274	0.135
-312.953	256.655	0.029	-0.050
-311.939	133.890	-0.299	0.382
-310.924	-132.401	0.243	-0.031
-309.910	360.251	0.111	0.220
-308.895	365.798	0.177	-0.351
-307.880	-8.177	0.062	-0.041
-306.866	566.103	0.044	-0.105
-305.851	5.422	0.089	-0.065
-304.837	17.276	-0.148	0.116
-303.822	135.264	-0.274	0.351
-302.807	-91.017	-0.192	0.054
-301.793	-200.000	-0.012	0.235
-300.778	-109.988	-0.183	0.038
-299.764	18.178	-0.343	-0.270
-298.749	-35.639	0.254	-0.136
-297.735	-169.995	0.384	-0.014
-296.720	178.763	-0.104	0.150
-295.705	448.812	-0.050	0.109
-294.691	-200.000	-0.003	0.197
-293.676	-200.000	0.010	-0.044
-292.662	670.059	-0.128	0.327
-291.647	800.000	-0.070	-0.220
-290.632	572.139	0.099	0.237
-289.618	-119.419	-0.185	0.032
-288.603	-68.334	0.217	0.083
-287.589	-99.471	-0.082	-0.020
-286.574	800.000	0.047	0.156
-285.559	800.000	0.050	0.187
-284.545	-57.065	-0.312	-0.135
-283.530	-88.138	0.047	0.014
-282.516	189.454	-0.073	-0.108
-281.501	-74.515	0.190	0.067
-280.486	-129.523	-0.220	-0.030
-279.472	-200.000	0.051	0.236
-278.457	231.298	0.075	0.121
-277.443	61.146	-0.162	0.158
-276.428	116.344	0.176	-0.212
-275.413	93.891	0.236	0.263
-274.399	-170.241	0.087	-0.003
-273.384	800.000	-0.057	-0.173
-272.370	800.000	-0.047	-0.197
-271.355	-81.117	-0.134	0.044
-270.340	133.716	0.197	-0.251
-269.326	0.259	0.402	-0.282
-268.311	-107.888	0.323	-0.069
-267.297	216.338	-0.140	0.219
-266.282	-42.174	-0.177	-0.089
-265.267	-54.644	0.047	0.021
-264.253	-140.069	-0.306	-0.032
-263.238	198.910	-0.035	0.053
-262.224	-200.000	0.124	-0.000
-261.209	-109.348	-0.477	-0.099
-260.195	-200.000	0.009	-0.166
-259.180	164.570	-0.130	-0.181
-258.165	-49.830	0.207	-0.097
-257.151	-77.583	0.084	-0.029
-256.136	161.154	0.050	0.068
-255.122	201.433	0.077	-0.117
-254.107	334.525	0.056	0.107
-253.092	-200.000	-0.007	-0.270
-252.078	61.191	-0.217	-0.212
-251.063	666.165	-0.034	-0.087
-250.049	-75.875	0.221	-0.077
-249.034	-61.067	-0.299	-0.124
-248.019	85.232	0.131	0.141
-247.005	438.310	0.098	-0.210
-245.990	800.000	0.046	-0.189
-244.976	-41.823	-0.218	-0.110
-243.961	363.200	-0.092	-0.183
-242.946	-83.855	-0.168	-0.053
-241.932	36.153	0.083	0.072
-240.917	-200.000	0.009	0.133
-239.903	-200.000	-0.039	0.192
-238.888	67.184	0.133	0.133
-237.873	50.487	-0.171	-0.159
-236.859	-155.054	0.304	-0.020
-235.844	-200.000	0.017	0.134
-234.830	800.000	0.071	0.206
-233.815	-97.252	0.237	0.061
-232.800	-200.000	0.012	-0.141
-231.786	106.349	0.167	-0.194
-230.771	800.000	-0.073	-0.245
-229.757	-97.280	0.291	0.075
-228.742	-200.000	0.027	0.286
-227.727	111.224	-0.200	0.237
-226.713	800.000	-0.088	-0.336
-225.698	77.175	0.200	0.209
-224.684	-200.000	0.006	-0.216
-223.669	71.341	-0.103	0.105
-222.655	52.183	0.127	-0.118
-221.640	-31.640	-0.098	0.054
-220.625	800.000	0.057	-0.219
-219.611	185.791	0.139	0.203
-218.596	512.282	-0.085	-0.195
-217.582	800.000	-0.038	0.110
-216.567	-35.895	0.262	-0.139
-215.552	-200.000	-0.001	0.167
-214.538	-66.698	0.062	0.024
-213.523	1.725	-0.225	-0.159
-212.509	-70.558	0.267	-0.099
-211.494	-200.000	0.019	-0.300
-210.479	-102.646	-0.237	0.055
-209.465	-200.000	-0.013	0.130
-208.450	4.957	-0.148	0.107
-207.436	22.778	-0.114	0.092
-206.421	-132.607	0.083	0.010
-205.406	413.369	-0.081	0.169
-204.392	760.353	-0.101	-0.268
-203.377	515.460	-0.123	-0.281
-202.363	-32.315	-0.059	-0.033
-201.348	-162.801	-0.312	0.015
-200.333	-200.000	0.010	-0.518
-199.319	202.194	0.153	-0.231
-198.304	15.825	-0.215	0.166
-197.290	-8.899	-0.351	0.231
-196.275	-200.000	-0.006	-0.237
-195.260	-200.000	-0.006	-0.053
-194.246	800.000	0.085	0.283
-193.231	-200.000	-0.042	-0.303
-192.217	133.802	0.175	-0.223
-191.202	-129.045	-0.126	-0.017
-190.187	109.429	0.267	0.314
-189.173	-200.000	-0.001	-0.106
-188.158	369.834	0.157	0.313
-187.144	-200.000	0.016	0.150
-186.129	46.370	0.174	0.158
-185.114	141.422	-0.027	0.034
-184.100	800.000	-0.081	0.260
-183.085	-200.000	-0.004	-0.098
-182.071	-200.000	0.040	-0.172
-181.056	-193.967	0.141	0.001
-180.042	-38.929	-0.083	-0.043
-179.027	-86.055	0.599	0.181
-178.012	-150.685	0.149	-0.011
-176.998	87.679	0.109	-0.118
-175.983	-77.140	-0.174	-0.060
-174.969	167.124	0.155	-0.215
-173.954	-50.222	-0.040	0.019
-172.939	-152.103	-0.199	-0.014
-171.925	-200.000	0.022	-0.353
-170.910	-154.320	0.151	-0.010
-169.896	-51.692	-0.141	-0.064
-168.881	-120.419	0.296	-0.049
-167.866	-108.498	0.227	0.048
-166.852	687.994	0.055	-0.141
-165.837	379.598	0.107	0.214
-164.823	-2.382	-0.073	-0.050
-163.808	212.647	-0.123	-0.190
-162.793	800.000	-0.058	-0.200
-161.779	787.871	-0.225	0.604
-160.764	-61.627	0.285	-0.117
-159.750	-86.493	-0.134	0.040
-158.735	-42.659	-0.156	0.078
-157.720	-26.003	0.066	-0.038
-156.706	-200.000	-0.047	-0.254
-155.691	-11.514	0.087	-0.056
-154.677	-10.999	-0.125	0.081
-153.662	-200.000	0.005	0.059
-152.647	484.087	0.109	0.243
-151.633	31.951	0.064	-0.054
-150.618	-101.103	0.064	-0.015
-149.604	445.144	0.078	-0.168
-148.589	447.717	0.096	-0.206
-147.574	800.000	0.078	-0.317
-146.560	321.253	0.048	-0.089
-145.545	218.487	-0.131	0.204
-144.531	800.000	-0.103	-0.338
-143.516	-110.550	-0.303	0.061
-142.502	800.000	-0.157	0.441
-141.487	-200.000	0.006	0.166
-140.472	211.331	-0.146	-0.225
-139.458	-129.476	0.379	-0.051
-138.443	-134.757	-0.215	0.026
-137.429	109.822	0.118	-0.139
-136.414	800.000	-0.036	-0.149
-135.399	-94.981	-0.547	0.145
-134.385	-16.138	0.181	-0.112
-133.370	36.949	-0.089	-0.077
-132.356	-200.000	-0.106	-0.510
-131.341	-200.000	0.002	0.142
-130.326	-24.683	0.242	-0.141
-129.312	-9.887	-0.208	-0.135
-128.297	800.000	-0.089	0.253
-127.283	-1.273	-0.221	0.153
-126.268	-109.132	-0.308	-0.064
-125.253	96.523	0.067	0.075
-124.239	-200.000	-0.080	0.367
-123.224	510.711	0.173	0.395
-122.210	-156.467	0.557	0.034
-121.195	-15.123	0.262	0.164
