DTS Sentinel unit serial number:	SN413079Multiplexer serial number:	ORYXHardware model number:	OX4-SRSoftware version number:	ORYX F/W v4.00 Oryx Data Collector v3.7.2.0data status	okinstallation	princeton_trtdifferential loss correction	single-endedforward channel	channel 1reverse channel	N/Adate	2019/09/14time	05:18:35forward acquisition time	60.00reverse acquisition time	0.00gamma	496.2192k internal	0.2334k external	0.2334temperature offset calibration	1.0079default loss term (dB/km)	0.3790temperature slope calibration	1.0000multiplexer offset coefficient	1.0000multiplexer slope coefficient	1.0000fibre end	0.00T internal ref (°C)	26.94T ext. ref 1 (°C)	3.38T ext. ref 2 (°C)	21.94length (m)	temperature (°C)	Stokes	anti-Stokes-747.200	-113.040	-0.221	0.044
-746.185	800.000	0.062	0.191
-745.171	97.074	0.058	0.066
-744.156	-59.107	-0.244	0.106
-743.142	800.000	-0.053	0.156
-742.127	176.733	-0.163	0.239
-741.112	1.072	-0.025	-0.018
-740.098	316.219	-0.171	0.325
-739.083	-200.000	-0.013	-0.089
-738.069	-40.332	0.094	-0.049
-737.054	-200.000	-0.030	0.322
-736.039	5.306	0.215	0.160
-735.025	-200.000	-0.031	0.160
-734.010	-200.000	-0.002	-0.105
-732.996	800.000	0.070	0.282
-731.981	-200.000	-0.029	0.157
-730.966	-33.937	-0.197	-0.109
-729.952	-38.981	0.328	-0.173
-728.937	-67.391	-0.161	0.064
-727.923	-85.070	-0.223	0.070
-726.908	-200.000	0.023	0.224
-725.894	51.831	0.188	0.180
-724.879	-88.709	-0.319	-0.095
-723.864	-143.227	0.188	0.018
-722.850	-1.589	0.100	-0.070
-721.835	86.452	-0.109	0.121
-720.821	53.689	-0.046	0.044
-719.806	-120.294	-0.287	-0.049
-718.791	-93.186	0.094	-0.026
-717.777	-104.273	-0.089	-0.021
-716.762	-200.000	-0.045	-0.268
-715.748	-37.843	0.346	-0.185
-714.733	-42.397	-0.153	-0.078
-713.718	-200.000	0.004	-0.281
-712.704	207.075	-0.191	0.299
-711.689	251.446	-0.159	-0.271
-710.675	800.000	0.167	0.524
-709.660	0.941	-0.022	0.016
-708.645	71.706	0.199	-0.208
-707.631	-68.188	-0.211	-0.082
-706.616	-86.044	0.122	0.038
-705.602	-87.446	-0.243	0.074
-704.587	-30.401	0.016	0.009
-703.572	-97.238	-0.101	-0.026
-702.558	-124.654	0.093	0.014
-701.543	-200.000	0.017	-0.324
-700.529	557.612	0.182	-0.441
-699.514	-7.998	-0.143	-0.097
-698.499	340.784	-0.091	-0.178
-697.485	-87.878	0.205	0.062
-696.470	-48.360	0.050	-0.024
-695.456	-94.786	-0.323	0.088
-694.441	70.962	0.201	0.209
-693.426	267.584	0.069	0.122
-692.412	6.760	-0.136	0.102
-691.397	-29.417	0.202	-0.116
-690.383	-200.000	0.017	0.232
-689.368	79.984	-0.140	0.151
-688.354	702.911	-0.083	0.220
-687.339	-21.535	0.132	0.081
-686.324	152.615	-0.116	-0.158
-685.310	-64.666	-0.116	-0.047
-684.295	22.768	0.283	-0.233
-683.281	-97.109	-0.194	0.051
-682.266	-62.650	-0.184	-0.077
-681.251	-200.000	0.034	-0.451
-680.237	634.910	-0.077	0.197
-679.222	-0.135	-0.109	0.078
-678.208	39.622	-0.074	-0.067
-677.193	329.342	0.239	-0.461
-676.178	14.569	-0.051	-0.040
-675.164	67.392	-0.114	0.116
-674.149	54.376	0.097	0.094
-673.135	145.643	0.098	-0.132
-672.120	13.443	-0.507	-0.394
-671.105	-117.984	-0.139	-0.025
-670.091	-66.421	0.113	0.045
-669.076	-200.000	-0.024	0.166
-668.062	-130.657	0.251	0.034
-667.047	-70.098	0.062	0.024
-666.032	-200.000	-0.006	0.069
-665.018	251.807	-0.151	-0.257
-664.003	179.296	-0.138	-0.202
-662.989	392.757	-0.067	-0.140
-661.974	316.492	0.132	-0.250
-660.959	29.882	-0.229	0.195
-659.945	-75.487	-0.206	0.074
-658.930	560.484	-0.196	-0.474
-657.916	76.867	0.046	0.048
-656.901	531.003	0.108	-0.257
-655.886	-2.598	-0.544	0.382
-654.872	-169.003	-0.299	-0.011
-653.857	800.000	-0.080	0.334
-652.843	-59.610	-0.174	-0.075
-651.828	-200.000	-0.029	0.134
-650.814	-146.194	0.090	0.008
-649.799	44.127	-0.036	-0.033
-648.784	96.982	-0.130	-0.149
-647.770	-57.455	0.180	-0.079
-646.755	98.997	-0.058	0.067
-645.741	67.446	0.148	-0.151
-644.726	800.000	-0.056	0.156
-643.711	-153.599	0.131	-0.009
-642.697	279.930	0.047	0.084
-641.682	39.680	-0.378	-0.339
-640.668	-80.571	0.606	-0.202
-639.653	-200.000	0.033	0.289
-638.638	34.377	-0.135	0.118
-637.624	-147.396	0.260	-0.022
-636.609	-33.621	-0.345	-0.190
-635.595	284.970	0.028	0.050
-634.580	8.789	0.156	0.118
-633.565	-200.000	-0.026	0.116
-632.551	-200.000	0.021	-0.172
-631.536	-63.472	-0.082	0.034
-630.522	-129.245	-0.107	-0.015
-629.507	412.298	0.114	0.242
-628.492	-200.000	-0.011	-0.093
-627.478	-133.931	-0.171	0.021
-626.463	-124.730	-0.088	0.014
-625.449	342.620	0.219	0.429
-624.434	215.085	0.159	-0.253
-623.419	783.615	0.156	0.429
-622.405	-162.689	-0.186	0.009
-621.390	-52.234	0.062	0.029
-620.376	-59.550	0.356	0.153
-619.361	69.574	-0.149	-0.153
-618.346	-200.000	0.009	0.434
-617.332	-200.000	0.046	-0.276
-616.317	532.928	-0.144	-0.341
-615.303	451.915	-0.114	-0.251
-614.288	418.635	-0.130	0.279
-613.273	-123.578	-0.156	-0.025
-612.259	260.722	-0.056	0.097
-611.244	-84.327	-0.211	0.067
-610.230	-96.714	-0.077	-0.020
-609.215	138.724	0.202	-0.266
-608.201	144.426	0.043	-0.057
-607.186	-43.789	-0.234	0.118
-606.171	-76.473	-0.182	0.064
-605.157	-56.924	-0.221	-0.098
-604.142	72.824	0.190	0.198
-603.128	16.650	0.190	-0.150
-602.113	-98.584	0.202	0.052
-601.098	-31.334	-0.087	-0.049
-600.084	-147.930	-0.282	-0.024
-599.069	34.018	0.149	0.129
-598.055	16.186	-0.097	0.076
-597.040	-200.000	0.034	-0.172
-596.025	-200.000	-0.006	-0.051
-595.011	-81.390	0.258	0.085
-593.996	-22.472	0.175	-0.106
-592.982	-31.655	0.391	-0.220
-591.967	-112.425	-0.166	0.033
-590.952	69.081	-0.107	-0.110
-589.938	800.000	0.096	0.378
-588.923	27.795	-0.060	-0.050
-587.909	55.256	0.148	-0.143
-586.894	-63.490	0.139	-0.057
-585.879	49.845	-0.080	0.075
-584.865	-28.522	-0.413	0.238
-583.850	-200.000	0.021	-0.238
-582.836	800.000	0.049	0.191
-581.821	-200.000	-0.001	0.209
-580.806	-105.732	0.532	-0.120
-579.792	57.348	0.172	-0.167
-578.777	-60.880	-0.283	0.120
-577.763	-70.696	-0.342	0.129
-576.748	-16.915	-0.096	0.060
-575.733	800.000	-0.098	-0.388
-574.719	-28.996	0.235	-0.135
-573.704	-200.000	-0.004	0.085
-572.690	-58.501	-0.215	0.093
-571.675	-170.786	-0.162	0.006
-570.661	-5.919	-0.089	-0.061
-569.646	-125.207	0.361	0.055
-568.631	225.823	-0.100	0.162
-567.617	22.525	-0.198	0.162
-566.602	24.789	-0.274	0.227
-565.588	524.062	0.126	0.297
-564.573	-119.050	0.145	0.025
-563.558	800.000	-0.030	-0.092
-562.544	290.180	0.146	-0.265
-561.529	-200.000	-0.064	-0.335
-560.515	-200.000	0.004	-0.237
-559.500	573.519	-0.082	-0.201
-558.485	-200.000	0.006	-0.349
-557.471	388.041	0.106	-0.218
-556.456	-23.145	0.253	0.152
-555.442	800.000	0.096	0.293
-554.427	134.801	0.100	0.129
-553.412	-84.688	0.159	-0.050
-552.398	166.721	-0.085	0.120
-551.383	-140.322	0.529	0.055
-550.369	-200.000	-0.002	-0.217
-549.354	-78.485	0.270	-0.092
-548.339	54.422	0.219	0.210
-547.325	100.932	0.051	-0.059
-546.310	-79.477	0.190	-0.064
-545.296	-200.000	0.027	-0.263
-544.281	-200.000	-0.004	-0.262
-543.266	-200.000	0.017	0.292
-542.252	69.848	-0.133	-0.137
-541.237	138.919	-0.034	-0.044
-540.223	-9.193	0.052	0.035
-539.208	-29.499	0.333	0.190
-538.193	-31.210	-0.326	0.183
-537.179	-200.000	-0.275	0.001
-536.164	800.000	0.040	0.135
-535.150	-2.320	-0.127	-0.089
-534.135	499.069	-0.083	0.190
-533.121	800.000	-0.078	-0.253
-532.106	253.593	-0.196	0.335
-531.091	-200.000	-0.003	-0.166
-530.077	-171.631	-0.186	0.006
-529.062	-200.000	-0.034	0.150
-528.048	449.321	-0.197	-0.432
-527.033	-133.534	0.314	-0.039
-526.018	74.653	0.371	0.389
-525.004	126.524	-0.020	-0.025
-523.989	13.887	-0.176	-0.136
-522.975	13.613	0.198	-0.153
-521.960	-52.865	-0.239	0.110
-520.945	96.535	-0.118	0.134
-519.931	13.245	0.091	-0.070
-518.916	203.121	-0.040	-0.062
-517.902	214.476	-0.109	-0.172
-516.887	-200.000	0.067	0.320
-515.872	115.416	-0.046	0.056
-514.858	-200.000	-0.001	0.106
-513.843	800.000	-0.022	0.070
-512.829	791.928	0.038	0.103
-511.814	-200.000	0.000	0.144
-510.799	244.899	-0.168	-0.282
-509.785	3.305	-0.090	0.065
-508.770	63.127	-0.019	0.019
-507.756	-200.000	-0.014	0.567
-506.741	-140.714	0.339	0.035
-505.726	-13.614	0.257	-0.166
-504.712	-10.912	-0.155	-0.102
-503.697	136.433	-0.191	0.248
-502.683	-17.319	-0.109	-0.068
-501.668	-184.496	-0.323	0.005
-500.653	-60.021	-0.087	-0.037
-499.639	-157.205	-0.228	-0.014
-498.624	-200.000	-0.013	-0.068
-497.610	-53.223	0.274	-0.125
-496.595	800.000	0.021	0.067
-495.581	-100.190	-0.054	0.013
-494.566	241.220	0.225	-0.373
-493.551	-92.810	-0.171	-0.048
-492.537	-0.071	-0.024	-0.017
-491.522	-131.004	0.194	-0.026
-490.508	-28.781	0.055	-0.032
-489.493	-200.000	0.045	-0.199
-488.478	12.623	-0.432	0.332
-487.464	800.000	0.092	0.267
-486.449	-200.000	-0.019	-0.345
-485.435	-32.067	0.068	-0.038
-484.420	613.539	-0.130	0.324
-483.405	122.116	0.114	-0.142
-482.391	-200.000	0.027	0.191
-481.376	43.839	-0.206	0.187
-480.362	-29.189	0.154	-0.088
-479.347	-74.748	0.194	-0.069
-478.332	659.980	0.092	-0.235
-477.318	-124.288	-0.048	-0.007
-476.303	-94.597	0.183	-0.049
-475.289	-12.611	-0.294	-0.190
-474.274	-178.696	-0.244	0.006
-473.259	-153.253	-0.262	-0.018
-472.245	303.450	0.134	0.248
-471.230	144.091	0.069	0.092
-470.216	-200.000	0.045	0.250
-469.201	191.628	0.072	0.108
-468.186	-161.426	0.319	-0.016
-467.172	161.573	-0.025	0.035
-466.157	-139.391	0.104	0.011
-465.143	-200.000	0.025	0.192
-464.128	334.789	0.088	-0.170
-463.113	800.000	-0.125	-0.394
-462.099	144.324	-0.212	-0.282
-461.084	17.257	-0.089	-0.070
-460.070	82.324	0.102	0.110
-459.055	544.683	0.071	-0.170
-458.040	800.000	-0.104	0.360
-457.026	-31.318	0.481	0.269
-456.011	137.700	-0.083	-0.109
-454.997	800.000	0.129	0.456
-453.982	-9.891	-0.055	-0.036
-452.968	117.267	0.184	0.224
-451.953	578.915	0.112	-0.273
-450.938	372.602	-0.178	-0.359
-449.924	198.771	0.046	-0.070
-448.909	88.482	-0.083	-0.092
-447.895	50.166	0.252	0.236
-446.880	39.445	0.202	-0.180
-445.865	-17.681	0.112	-0.070
-444.851	40.206	0.095	-0.085
-443.836	-37.518	0.185	-0.098
-442.822	-78.398	0.066	-0.023
-441.807	191.317	-0.121	-0.181
-440.792	-44.596	-0.223	-0.111
-439.778	-200.000	-0.026	-0.392
-438.763	506.478	-0.119	0.273
-437.749	-38.919	-0.388	-0.203
-436.734	171.693	-0.153	-0.218
-435.719	-200.000	0.083	0.381
-434.705	800.000	-0.042	0.162
-433.690	800.000	0.052	0.218
-432.676	-200.000	-0.013	-0.137
-431.661	-149.751	0.182	-0.014
-430.646	-59.157	-0.199	0.085
-429.632	488.560	0.069	0.157
-428.617	223.213	-0.219	0.351
-427.603	-200.000	0.035	0.257
-426.588	262.647	-0.120	-0.207
-425.573	164.909	0.165	0.231
-424.559	164.770	-0.031	0.044
-423.544	800.000	-0.057	-0.186
-422.530	31.153	-0.230	0.196
-421.515	-48.907	-0.134	-0.064
-420.500	120.864	-0.042	0.052
-419.486	195.598	-0.098	-0.148
-418.471	-78.448	0.264	0.090
-417.457	76.285	0.253	-0.266
-416.442	-200.000	0.021	0.334
-415.428	261.323	-0.073	0.126
-414.413	-65.832	0.064	0.026
-413.398	-45.029	-0.263	-0.130
-412.384	800.000	-0.053	-0.182
-411.369	264.250	-0.023	-0.039
-410.355	-200.000	-0.040	-0.268
-409.340	-53.777	-0.139	0.063
-408.325	39.735	-0.237	-0.211
-407.311	130.303	-0.197	0.251
-406.296	-121.058	-0.157	-0.026
-405.282	-58.549	0.176	-0.076
-404.267	-55.391	0.434	-0.193
-403.252	250.770	0.153	-0.259
-402.238	800.000	0.024	-0.091
-401.223	-200.000	0.049	0.293
-400.209	-76.102	0.134	0.047
-399.194	266.179	0.066	-0.115
-398.179	800.000	0.092	-0.305
-397.165	-153.219	0.226	-0.016
-396.150	-46.709	-0.102	-0.049
-395.136	141.876	0.161	0.212
-394.121	195.668	0.141	-0.212
-393.106	73.129	0.309	-0.320
-392.092	-72.495	0.188	0.069
-391.077	-40.275	-0.250	-0.129
-390.063	160.671	0.402	0.556
-389.048	-167.617	-0.205	0.008
-388.033	-87.055	-0.135	-0.041
-387.019	-21.392	0.073	0.044
-386.004	245.510	0.103	-0.172
-384.990	-80.891	-0.296	-0.097
-383.975	112.706	-0.208	-0.249
-382.960	800.000	-0.027	0.075
-381.946	-66.142	0.093	-0.037
-380.931	-200.000	0.007	0.221
-379.917	472.825	-0.202	0.452
-378.902	-200.000	-0.033	0.217
-377.888	92.690	-0.195	-0.218
-376.873	443.249	-0.121	-0.262
-375.858	83.465	-0.114	-0.123
-374.844	800.000	0.020	0.085
-373.829	-36.205	0.296	0.158
-372.815	501.235	-0.060	-0.137
-371.800	-200.000	-0.011	-0.105
-370.785	-200.000	-0.066	-0.288
-369.771	-59.702	0.246	0.104
-368.756	-51.372	-0.137	0.063
-367.742	-135.271	-0.046	0.006
-366.727	98.097	0.155	0.176
-365.712	-98.851	-0.091	0.023
-364.698	-35.225	-0.239	-0.129
-363.683	68.563	0.208	-0.211
-362.669	-26.344	0.257	0.149
-361.654	-137.105	-0.155	0.018
-360.639	66.530	-0.232	-0.234
-359.625	-17.154	0.245	-0.153
-358.610	1.291	-0.320	0.228
-357.596	800.000	0.046	0.127
-356.581	800.000	0.011	-0.038
-355.566	156.586	0.239	0.327
-354.552	-200.000	0.032	0.256
-353.537	241.718	-0.149	-0.247
-352.523	121.840	-0.165	-0.204
-351.508	-172.141	0.140	0.004
-350.493	-41.753	-0.195	0.099
-349.479	22.379	-0.120	-0.097
-348.464	212.575	0.056	0.087
-347.450	-200.000	-0.025	0.141
-346.435	800.000	0.053	-0.175
-345.420	470.252	0.026	0.057
-344.406	-65.987	-0.249	-0.098
-343.391	87.640	-0.212	0.232
-342.377	800.000	0.188	-0.523
-341.362	152.985	-0.013	0.018
-340.348	-200.000	0.006	-0.135
-339.333	800.000	-0.016	-0.057
-338.318	89.368	0.286	0.315
-337.304	-65.116	0.181	-0.072
-336.289	-9.399	-0.309	0.204
-335.275	388.480	-0.021	0.042
-334.260	417.137	0.129	0.273
-333.245	10.017	-0.060	-0.045
-332.231	-143.492	-0.279	0.026
-331.216	-132.148	-0.253	0.033
-330.202	-100.760	-0.461	-0.112
-329.187	-1.512	-0.334	-0.233
-328.172	-22.193	0.122	-0.073
-327.158	-185.669	0.320	0.005
-326.143	-110.869	-0.357	0.073
-325.129	-112.944	0.282	-0.055
-324.114	800.000	0.057	-0.155
-323.099	800.000	-0.058	0.179
-322.085	214.091	-0.082	-0.129
-321.070	41.458	0.199	-0.178
-320.056	-72.786	-0.088	-0.032
-319.041	-43.591	-0.289	-0.144
-318.026	800.000	0.089	0.366
-317.012	558.608	0.119	0.284
-315.997	-200.000	-0.003	-0.168
-314.983	286.708	-0.116	0.208
-313.968	-157.968	-0.289	0.017
-312.953	-27.738	-0.476	-0.273
-311.939	-135.351	-0.057	0.007
-310.924	-200.000	0.011	-0.486
-309.910	81.523	-0.284	-0.303
-308.895	-112.544	0.336	0.066
-307.880	162.301	0.074	0.103
-306.866	-82.023	-0.230	-0.074
-305.851	-200.000	0.115	-0.000
-304.837	117.330	0.162	-0.197
-303.822	-97.804	0.173	0.044
-302.807	280.155	0.062	-0.109
-301.793	192.995	0.072	-0.108
-300.778	800.000	0.085	-0.233
-299.764	-112.644	-0.332	0.065
-298.749	-200.000	-0.016	-0.174
-297.735	800.000	0.104	0.336
-296.720	58.954	0.160	-0.156
-295.705	-103.516	-0.363	0.084
-294.691	-85.851	0.129	0.039
-293.676	800.000	0.063	-0.249
-292.662	-57.468	-0.299	-0.130
-291.647	519.471	-0.106	-0.246
-290.632	-200.000	-0.037	-0.237
-289.618	-92.343	-0.162	-0.045
-288.603	-200.000	0.010	-0.067
-287.589	62.997	0.115	0.114
-286.574	-119.266	-0.073	0.012
-285.559	-200.000	-0.023	0.126
-284.545	-54.244	0.106	-0.048
-283.530	-44.200	0.410	0.203
-282.516	-45.409	-0.035	0.017
-281.501	53.409	0.152	0.144
-280.486	672.469	-0.071	0.182
-279.472	-27.554	-0.216	0.124
-278.457	213.633	0.166	0.258
-277.443	36.382	-0.146	0.127
-276.428	-200.000	-0.043	-0.185
-275.413	-7.141	-0.068	-0.045
-274.399	-200.000	0.013	0.097
-273.384	-138.672	-0.319	0.034
-272.370	-116.702	0.308	-0.056
-271.355	50.108	-0.272	-0.253
-270.340	800.000	0.057	-0.236
-269.326	-49.459	-0.267	-0.126
-268.311	-200.000	0.004	0.022
-267.297	800.000	0.036	0.148
-266.282	-9.076	0.162	-0.107
-265.267	-150.465	0.265	0.020
-264.253	98.133	0.256	-0.290
-263.238	-53.567	0.277	-0.125
-262.224	-200.000	0.005	0.364
-261.209	-200.000	0.045	-0.221
-260.195	-45.158	-0.319	-0.157
-259.180	372.963	0.202	0.405
-258.165	800.000	-0.034	0.133
-257.151	-200.000	-0.039	0.478
-256.136	-149.501	0.314	0.025
-255.122	48.217	-0.342	-0.315
-254.107	69.121	0.145	0.147
-253.092	-52.391	0.288	-0.132
-252.078	380.458	0.112	0.226
-251.063	-62.534	0.323	-0.132
-250.049	-200.000	-0.021	-0.091
-249.034	-111.273	-0.295	0.059
-248.019	182.722	-0.037	0.054
-247.005	-200.000	-0.003	0.129
-245.990	800.000	0.081	-0.275
-244.976	800.000	0.036	-0.116
-243.961	-138.558	-0.188	-0.020
-242.946	800.000	-0.036	-0.129
-241.932	-44.612	-0.096	-0.047
-240.917	-200.000	0.023	0.407
-239.903	38.147	-0.011	-0.010
-238.888	30.902	-0.315	-0.266
-237.873	-122.722	-0.451	0.072
-236.859	-95.630	0.088	-0.023
-235.844	-68.287	-0.038	0.015
-234.830	-155.346	0.194	0.012
-233.815	-99.228	0.143	0.035
-232.800	100.748	0.078	0.089
-231.786	-8.070	-0.445	0.295
-230.771	-134.317	0.241	0.029
-229.757	518.818	0.131	0.302
-228.742	164.373	0.248	0.344
-227.727	103.523	-0.142	-0.164
-226.713	49.619	-0.216	-0.201
-225.698	203.986	0.018	0.028
-224.684	-26.585	0.177	0.102
-223.669	-200.000	-0.046	0.245
-222.655	-51.224	0.313	0.144
-221.640	350.605	-0.027	0.052
-220.625	-154.006	0.439	0.029
-219.611	-134.006	-0.212	0.026
-218.596	154.773	-0.061	-0.082
-217.582	-95.366	-0.118	-0.031
-216.567	78.479	-0.190	-0.200
-215.552	15.480	-0.059	0.046
-214.538	-150.567	-0.285	-0.021
-213.523	-7.517	0.090	0.060
-212.509	-200.000	0.055	0.259
-211.494	-131.506	-0.146	0.019
-210.479	-200.000	0.008	0.236
-209.465	-82.902	0.150	0.048
-208.450	-125.033	0.199	0.030
-207.436	375.920	-0.084	0.169
-206.421	78.781	0.297	-0.313
-205.406	32.246	-0.050	-0.042
-204.392	50.551	0.165	0.154
-203.377	238.560	0.216	0.353
-202.363	-22.639	-0.080	-0.048
-201.348	-83.932	-0.078	0.024
-200.333	-96.360	0.123	0.032
-199.319	-77.155	0.351	-0.120
-198.304	338.018	-0.073	-0.139
-197.290	735.700	-0.021	-0.056
-196.275	-5.740	0.086	0.058
-195.260	298.773	0.101	0.183
-194.246	728.744	0.061	-0.159
-193.231	-1.937	0.103	0.071
-192.217	-169.759	-0.224	0.008
-191.202	-4.042	-0.162	0.111
-190.187	221.365	0.175	0.276
-189.173	166.456	0.064	0.089
-188.158	800.000	-0.047	-0.168
-187.144	-161.112	-0.130	0.007
-186.129	800.000	0.122	-0.336
-185.114	-200.000	0.006	-0.132
-184.100	-113.531	-0.118	-0.023
-183.085	141.724	0.098	0.128
-182.071	680.412	0.129	-0.331
-181.056	800.000	0.031	-0.130
-180.042	-74.783	0.300	0.106
-179.027	152.567	-0.072	-0.097
-178.012	-200.000	-0.028	0.125
-176.998	-87.284	-0.121	0.036
-175.983	-121.127	-0.146	-0.024
-174.969	131.316	-0.144	-0.181
-173.954	-11.621	0.124	0.080
-172.939	83.041	-0.118	-0.127
-171.925	-81.038	-0.158	0.051
-170.910	800.000	-0.025	-0.083
-169.896	129.589	0.129	0.162
-168.881	178.099	0.191	-0.274
-167.866	-125.439	-0.480	0.072
-166.852	800.000	0.081	-0.261
-165.837	418.071	0.167	0.350
-164.823	-12.320	0.206	0.132
-163.808	671.059	0.095	0.242
-162.793	-111.230	0.410	0.082
-161.779	-200.000	0.012	-0.054
-160.764	-36.432	-0.358	0.190
-159.750	-200.000	-0.023	-0.302
-158.735	111.858	-0.133	0.158
-157.720	88.804	0.095	-0.103
-156.706	-200.000	-0.036	-0.238
-155.691	132.611	-0.189	-0.240
-154.677	-120.678	0.313	0.052
-153.662	800.000	-0.074	0.210
-152.647	-200.000	-0.012	0.306
-151.633	-108.927	-0.180	-0.038
-150.618	10.132	-0.018	-0.014
-149.604	-200.000	0.051	0.344
-148.589	505.222	0.031	0.070
-147.574	-57.143	-0.121	0.052
-146.560	425.328	-0.035	-0.074
-145.545	-159.840	0.111	-0.006
-144.531	105.924	-0.118	0.137
-143.516	800.000	-0.141	-0.482
-142.502	124.809	0.194	0.239
-141.487	-200.000	0.061	0.446
-140.472	-65.773	-0.127	0.050
-139.458	-53.588	-0.240	-0.108
-138.443	-93.802	-0.105	-0.028
-137.429	101.246	-0.283	-0.324
-136.414	-62.503	-0.080	0.033
-135.399	-53.109	0.156	0.071
-134.385	328.800	-0.089	0.168
-133.370	748.525	-0.170	0.450
-132.356	-133.805	-0.025	0.003
-131.341	-112.334	-0.371	0.073
-130.326	800.000	-0.035	-0.100
-129.312	-121.882	0.167	0.027
-128.297	22.700	0.258	0.207
-127.283	130.912	0.140	-0.177
-126.268	-200.000	-0.013	0.317
-125.253	-144.730	-0.234	-0.021
-124.239	2.550	-0.270	-0.192
-123.224	-134.353	0.199	-0.024
-122.210	-200.000	0.019	0.246
-121.195	-200.000	-0.055	0.268
