DTS Sentinel unit serial number:	SN413079Multiplexer serial number:	ORYXHardware model number:	OX4-SRSoftware version number:	ORYX F/W v4.00 Oryx Data Collector v3.7.2.0data status	okinstallation	princeton_trtdifferential loss correction	single-endedforward channel	channel 1reverse channel	N/Adate	2019/09/12time	19:48:34forward acquisition time	15.00reverse acquisition time	0.00gamma	496.2192k internal	0.2322k external	0.2322temperature offset calibration	1.0147default loss term (dB/km)	0.3790temperature slope calibration	1.0000multiplexer offset coefficient	1.0000multiplexer slope coefficient	1.0000fibre end	0.00T internal ref (°C)	31.94T ext. ref 1 (°C)	3.43T ext. ref 2 (°C)	26.60length (m)	temperature (°C)	Stokes	anti-Stokes-747.200	-149.921	-0.758	-0.060
-746.185	800.000	-0.287	1.079
-745.171	26.534	0.316	-0.267
-744.156	30.743	-0.690	0.597
-743.142	-200.000	0.025	-0.230
-742.127	187.280	-0.160	-0.242
-741.112	800.000	-0.105	-0.328
-740.098	800.000	-0.114	0.469
-739.083	-200.000	0.083	-0.559
-738.069	800.000	0.256	0.994
-737.054	59.105	-0.272	-0.271
-736.039	-44.619	-0.603	-0.304
-735.025	-109.818	-0.734	-0.156
-734.010	-141.810	-0.714	-0.072
-732.996	101.576	-0.457	-0.538
-731.981	473.719	-0.123	-0.280
-730.966	800.000	0.117	-0.378
-729.952	88.088	-0.332	0.372
-728.937	-108.151	-0.280	0.061
-727.923	-15.247	0.309	0.200
-726.908	-95.036	-0.757	-0.207
-725.894	-113.188	-0.650	-0.129
-724.879	-139.782	-0.881	-0.094
-723.864	481.624	-0.198	-0.455
-722.850	-108.799	-0.315	-0.068
-721.835	77.713	-0.445	-0.478
-720.821	-87.922	1.060	0.322
-719.806	-59.557	0.460	0.199
-718.791	-43.190	-0.802	0.410
-717.777	139.115	-0.875	1.161
-716.762	456.342	-0.319	0.714
-715.748	-200.000	-0.191	1.089
-714.733	-200.000	0.020	0.928
-713.718	800.000	0.171	-0.509
-712.704	139.560	0.710	-0.943
-711.689	-200.000	0.045	-0.474
-710.675	-135.907	-0.452	0.054
-709.660	-200.000	-0.205	-1.051
-708.645	-118.409	0.634	-0.114
-707.631	47.289	-0.131	-0.123
-706.616	-200.000	-0.035	-0.235
-705.602	-44.901	-0.641	0.322
-704.587	-200.000	-0.094	-1.407
-703.572	800.000	-0.061	-0.244
-702.558	179.646	0.242	0.357
-701.543	724.736	0.473	1.272
-700.529	489.298	0.263	0.606
-699.514	-200.000	-0.061	-0.389
-698.499	-200.000	-0.015	0.088
-697.485	27.414	0.364	0.308
-696.470	-149.979	-0.131	-0.010
-695.456	33.168	0.092	-0.081
-694.441	800.000	-0.129	-0.528
-693.426	-44.233	-0.340	0.172
-692.412	-200.000	0.004	-0.179
-691.397	-152.891	1.032	0.074
-690.383	-28.575	-0.363	0.211
-689.368	118.095	0.998	1.239
-688.354	571.976	-0.141	-0.347
-687.339	800.000	0.248	-0.815
-686.324	800.000	0.214	-0.775
-685.310	235.117	0.166	0.277
-684.295	-167.017	0.390	0.016
-683.281	-200.000	0.135	0.952
-682.266	-128.970	-0.577	0.082
-681.251	134.986	0.201	-0.263
-680.237	-200.000	-0.014	0.449
-679.222	160.956	0.120	0.169
-678.208	-167.596	0.475	-0.019
-677.193	172.712	0.147	-0.213
-676.178	-66.590	0.888	-0.355
-675.164	-72.281	0.852	-0.318
-674.149	-105.688	-0.582	-0.133
-673.135	81.217	-0.088	-0.096
-672.120	-105.711	-0.769	0.175
-671.105	46.394	0.541	0.505
-670.091	-52.515	0.318	-0.148
-669.076	689.315	-0.223	0.588
-668.062	800.000	-0.254	-0.883
-667.047	214.098	0.483	-0.769
-666.032	-68.195	0.620	-0.243
-665.018	-200.000	0.049	0.281
-664.003	-15.856	0.293	0.188
-662.989	91.715	-0.474	0.537
-661.974	372.367	-0.116	0.238
-660.959	800.000	-0.102	0.407
-659.945	231.588	-0.242	-0.399
-658.930	-200.000	0.051	0.544
-657.916	-103.870	1.092	-0.257
-656.901	-184.043	0.285	-0.005
-655.886	109.750	-0.140	-0.169
-654.872	333.324	0.353	0.686
-653.857	14.401	-0.202	-0.159
-652.843	14.108	0.346	0.271
-651.828	37.365	-0.185	-0.165
-650.814	-69.596	-0.338	0.130
-649.799	800.000	0.177	-0.622
-648.784	80.774	0.915	-0.993
-647.770	166.723	-0.249	0.355
-646.755	135.833	0.585	-0.767
-645.741	-66.215	0.558	-0.224
-644.726	-127.282	-0.470	-0.069
-643.711	-102.523	-0.428	-0.103
-642.697	77.200	0.220	-0.235
-641.682	399.925	-0.350	-0.738
-640.668	182.845	0.414	-0.615
-639.653	796.496	0.113	0.314
-638.638	327.156	-0.191	0.367
-637.624	164.976	-0.275	0.391
-636.609	-125.056	0.576	0.089
-635.595	-176.927	0.645	0.016
-634.580	41.429	0.346	-0.315
-633.565	236.467	-0.180	0.300
-632.551	-34.330	-0.320	0.177
-631.536	90.417	-0.226	0.254
-630.522	-200.000	-0.054	-0.816
-629.507	800.000	-0.213	-0.933
-628.492	-160.956	-0.817	0.043
-627.478	-5.548	-0.605	-0.417
-626.463	-200.000	-0.180	0.855
-625.449	174.460	0.184	-0.268
-624.434	126.640	0.346	-0.441
-623.419	-110.917	-0.537	-0.111
-622.405	-48.814	-0.251	-0.121
-621.390	-63.794	-0.302	-0.124
-620.376	-113.103	0.993	-0.197
-619.361	-135.949	-0.852	0.101
-618.346	35.020	0.286	0.251
-617.332	758.771	-0.288	-0.784
-616.317	34.135	-0.600	-0.525
-615.303	-200.000	0.033	0.326
-614.288	-78.456	0.416	0.143
-613.273	-131.856	1.250	0.164
-612.259	-98.188	0.256	0.066
-611.244	52.160	-0.543	0.520
-610.230	145.089	0.373	0.502
-609.215	259.674	0.176	-0.306
-608.201	-136.793	0.826	0.096
-607.186	800.000	-0.151	0.575
-606.171	-200.000	-0.107	0.626
-605.157	-200.000	0.129	-0.703
-604.142	-105.504	-0.620	0.141
-603.128	109.047	0.232	-0.279
-602.113	-49.704	-0.403	0.193
-601.098	29.589	-0.119	0.102
-600.084	-200.000	0.013	0.489
-599.069	51.629	0.477	-0.455
-598.055	70.914	-0.226	0.235
-597.040	-147.763	0.241	-0.020
-596.025	-200.000	0.060	-0.620
-595.011	-166.505	-0.198	-0.008
-593.996	-200.000	0.019	-0.120
-592.982	80.232	-0.203	0.220
-591.967	-145.732	-0.657	-0.059
-590.952	800.000	-0.101	0.318
-589.938	-180.322	0.631	0.013
-588.923	212.730	-0.421	-0.667
-587.909	224.631	0.271	-0.440
-586.894	-129.150	-0.263	0.037
-585.879	-81.107	0.680	0.226
-584.865	463.732	0.281	-0.631
-583.850	119.534	-0.069	0.086
-582.836	-85.049	0.978	-0.308
-581.821	-47.493	0.525	0.256
-580.806	344.241	0.439	0.864
-579.792	108.563	0.696	0.835
-578.777	652.107	0.142	-0.366
-577.763	24.379	0.341	0.283
-576.748	45.231	0.430	-0.398
-575.733	800.000	-0.067	0.219
-574.719	800.000	0.124	0.431
-573.704	-38.136	0.533	-0.284
-572.690	-60.725	0.143	-0.061
-571.675	-60.157	0.415	-0.177
-570.661	-200.000	-0.024	0.462
-569.646	75.699	-0.204	0.217
-568.631	-200.000	-0.081	0.559
-567.617	89.588	-0.327	-0.366
-566.602	-200.000	-0.028	-0.540
-565.588	800.000	0.182	0.506
-564.573	-200.000	-0.072	1.044
-563.558	-200.000	-0.000	-0.593
-562.544	158.718	-0.243	0.339
-561.529	47.843	-0.344	0.322
-560.515	-106.415	0.368	-0.082
-559.500	158.038	0.164	-0.227
-558.485	81.268	-0.263	0.285
-557.471	22.827	-0.308	0.253
-556.456	-74.421	0.569	0.206
-555.442	-94.081	-0.262	0.072
-554.427	74.907	0.345	0.364
-553.412	-77.926	-0.413	-0.143
-552.398	-137.870	0.349	0.039
-551.383	510.490	0.236	-0.551
-550.369	-200.000	-0.022	0.198
-549.354	-129.648	0.822	-0.114
-548.339	51.026	-0.267	0.253
-547.325	330.108	0.405	-0.782
-546.310	-14.182	-0.242	-0.156
-545.296	-80.804	-0.794	0.264
-544.281	-129.359	0.429	-0.060
-543.266	-54.900	0.457	0.207
-542.252	19.290	-0.428	0.345
-541.237	-37.774	-0.706	-0.376
-540.223	-6.441	-1.041	-0.711
-539.208	-200.000	0.019	0.293
-538.193	173.682	-0.073	0.105
-537.179	-126.475	0.523	-0.078
-536.164	800.000	0.081	-0.230
-535.150	43.751	-0.483	-0.443
-534.135	-33.793	-0.494	0.273
-533.121	110.755	-0.179	0.216
-532.106	169.404	-0.408	0.583
-531.091	-99.372	-0.406	-0.103
-530.077	-83.576	-0.491	0.157
-529.062	-104.693	0.411	-0.095
-528.048	-111.258	-0.570	0.117
-527.033	-64.151	-0.536	-0.219
-526.018	-147.845	0.670	-0.056
-525.004	378.675	0.175	0.359
-523.989	-1.749	0.270	-0.190
-522.975	44.859	-0.736	-0.678
-521.960	-42.181	0.879	0.450
-520.945	534.331	-0.239	-0.566
-519.931	4.174	0.499	0.366
-518.916	-52.997	0.687	-0.316
-517.902	-94.691	0.366	0.099
-516.887	-8.835	-0.679	0.456
-515.872	-45.250	-0.607	-0.302
-514.858	132.096	0.171	-0.221
-513.843	-80.707	-0.796	0.265
-512.829	-140.448	-0.413	0.043
-511.814	66.160	0.312	0.317
-510.799	800.000	-0.081	-0.337
-509.785	-14.203	-0.445	0.287
-508.770	133.410	-0.460	-0.596
-507.756	-37.236	0.317	0.170
-506.741	86.230	0.510	0.562
-505.726	-67.104	0.429	0.169
-504.712	800.000	0.237	0.904
-503.697	-148.326	-0.174	-0.014
-502.683	145.226	0.227	0.304
-501.668	22.328	-0.421	0.344
-500.653	-92.950	-0.292	0.082
-499.639	32.569	0.532	-0.460
-498.624	73.941	0.143	0.150
-497.610	223.264	0.414	-0.668
-496.595	-200.000	-0.008	0.475
-495.581	-137.303	-0.104	0.012
-494.566	-15.629	0.179	-0.114
-493.551	-145.373	0.603	-0.054
-492.537	30.764	-0.875	0.750
-491.522	521.862	-0.246	0.577
-490.508	28.445	0.222	0.187
-489.493	47.473	0.063	0.059
-488.478	-94.223	-0.675	0.185
-487.464	87.456	0.236	-0.261
-486.449	86.310	-0.538	-0.593
-485.435	-200.000	0.084	0.636
-484.420	-137.078	-0.228	-0.026
-483.405	41.076	-0.574	0.519
-482.391	0.313	-0.368	-0.262
-481.376	-113.668	0.375	0.073
-480.362	-123.607	-0.466	0.074
-479.347	25.215	-0.132	-0.110
-478.332	155.141	0.157	-0.216
-477.318	-79.126	-0.328	-0.111
-476.303	-174.622	0.284	0.008
-475.289	39.615	-0.323	0.289
-474.274	555.945	-0.068	0.165
-473.259	-77.771	-0.255	-0.088
-472.245	89.822	-0.129	0.144
-471.230	-168.506	0.760	-0.029
-470.216	-113.314	0.168	-0.033
-469.201	301.104	-0.042	-0.078
-468.186	-22.740	0.245	0.148
-467.172	-68.789	0.343	-0.133
-466.157	-59.965	0.393	0.168
-465.143	800.000	0.134	0.554
-464.128	-0.141	-1.048	-0.745
-463.113	-127.203	0.584	-0.085
-462.099	-200.000	-0.032	-0.790
-461.084	-179.153	-0.979	-0.022
-460.070	-89.387	0.790	-0.232
-459.055	-123.190	0.391	-0.063
-458.040	650.444	-0.017	0.044
-457.026	-42.949	-0.176	-0.089
-456.011	-58.794	0.794	0.343
-454.997	-200.000	-0.186	-1.122
-453.982	-200.000	-0.132	0.827
-452.968	-4.031	0.671	-0.464
-451.953	224.381	0.180	0.290
-450.938	33.803	-0.386	0.336
-449.924	-153.405	0.609	0.042
-448.909	36.251	-0.537	-0.473
-447.895	44.559	-0.566	-0.520
-446.880	-112.003	0.617	-0.124
-445.865	-100.313	0.338	0.084
-444.851	-20.023	-0.641	0.395
-443.836	188.109	-0.260	0.388
-442.822	-200.000	0.068	0.849
-441.807	300.498	0.187	0.345
-440.792	53.569	0.447	-0.428
-439.778	-180.912	-0.190	0.004
-438.763	253.653	0.518	0.884
-437.749	-59.644	1.138	-0.487
-436.734	-156.468	-0.766	0.048
-435.719	-200.000	0.080	-0.754
-434.705	-142.350	-0.123	0.012
-433.690	-25.808	0.434	0.255
-432.676	310.541	-0.265	-0.496
-431.661	97.761	0.195	0.223
-430.646	-50.581	-0.189	-0.089
-429.632	-25.547	-1.263	0.744
-428.617	-120.853	-0.812	0.137
-427.603	-86.357	0.276	-0.085
-426.588	-89.123	0.348	-0.103
-425.573	-34.196	0.597	-0.327
-424.559	-200.000	0.011	-0.088
-423.544	701.105	-0.065	-0.170
-422.530	-44.610	0.568	0.283
-421.515	534.292	-0.150	-0.355
-420.500	37.873	-0.311	-0.276
-419.486	-87.563	-0.398	-0.120
-418.471	104.561	0.448	0.527
-417.457	126.645	-0.382	0.483
-416.442	99.427	0.360	0.415
-415.428	-25.783	-0.233	0.137
-414.413	527.791	0.467	1.099
-413.398	298.783	-0.107	0.197
-412.384	-56.334	0.559	-0.248
-411.369	9.308	0.164	0.124
-410.355	-38.997	0.384	0.202
-409.340	-30.393	0.676	0.383
-408.325	-67.803	0.516	-0.201
-407.311	155.398	-0.572	-0.786
-406.296	-141.799	0.150	0.015
-405.282	800.000	-0.113	0.386
-404.267	800.000	0.063	0.250
-403.252	-154.984	0.629	-0.041
-402.238	315.173	0.232	0.435
-401.223	800.000	-0.118	-0.393
-400.209	-200.000	0.201	-1.126
-399.194	-200.000	0.068	-0.779
-398.179	-99.317	0.751	-0.189
-397.165	-77.401	0.115	-0.040
-396.150	262.978	-0.202	0.350
-395.136	30.884	0.554	0.473
-394.121	-50.904	-0.333	0.156
-393.106	245.537	-0.148	0.249
-392.092	800.000	-0.117	-0.475
-391.077	245.700	-0.458	-0.768
-390.063	125.474	0.129	0.162
-389.048	26.827	-0.765	-0.639
-388.033	41.565	-0.372	0.335
-387.019	217.687	-0.466	-0.740
-386.004	-116.706	0.269	-0.049
-384.990	45.947	-0.575	-0.530
-383.975	-35.271	0.097	-0.053
-382.960	90.456	-0.339	0.378
-381.946	24.194	0.230	-0.189
-380.931	52.946	0.970	-0.924
-379.917	164.936	-0.297	-0.418
-378.902	129.145	-0.182	-0.232
-377.888	-39.228	-0.448	0.234
-376.873	-138.887	0.096	0.010
-375.858	-200.000	-0.023	-0.374
-374.844	77.107	-0.018	-0.019
-373.829	16.054	-0.175	0.137
-372.815	101.385	0.168	-0.195
-371.800	-200.000	-0.006	0.422
-370.785	319.229	0.194	0.366
-369.771	-200.000	-0.053	-0.260
-368.756	800.000	-0.131	-0.535
-367.742	-200.000	0.081	0.434
-366.727	-200.000	-0.040	0.179
-365.712	-44.828	-0.148	0.073
-364.698	326.125	0.169	-0.322
-363.683	371.138	0.095	0.193
-362.669	-200.000	-0.104	-0.642
-361.654	-44.018	-0.274	0.137
-360.639	-200.000	-0.008	-0.322
-359.625	-10.728	-0.349	-0.230
-358.610	60.404	0.821	-0.808
-357.596	109.415	0.097	0.115
-356.581	97.902	-0.347	-0.398
-355.566	-118.743	-0.307	-0.054
-354.552	-86.273	-0.859	-0.263
-353.537	-157.987	0.254	0.015
-352.523	62.701	-0.532	-0.529
-351.508	14.831	0.520	0.404
-350.493	-109.792	-0.275	0.057
-349.479	373.468	-0.213	0.431
-348.464	-17.982	0.457	0.285
-347.450	800.000	0.206	-0.589
-346.435	-43.371	0.107	-0.054
-345.420	-147.856	-0.280	0.023
-344.406	64.306	-0.191	0.191
-343.391	-101.542	-0.179	0.043
-342.377	800.000	-0.139	0.534
-341.362	-147.561	-0.384	0.032
-340.348	-135.634	0.386	-0.046
-339.333	306.137	0.408	-0.754
-338.318	-200.000	-0.108	0.499
-337.304	59.567	-0.624	-0.612
-336.289	503.947	0.168	0.386
-335.275	-123.193	0.703	-0.112
-334.260	126.484	-0.433	-0.545
-333.245	-200.000	0.086	-0.593
-332.231	-68.445	0.710	-0.274
-331.216	-200.000	0.042	0.255
-330.202	-139.679	-0.427	0.045
-329.187	420.580	0.136	0.291
-328.172	202.078	-0.137	-0.211
-327.158	226.601	0.156	0.252
-326.143	-28.614	0.532	0.305
-325.129	68.785	0.672	-0.686
-324.114	800.000	0.482	1.518
-323.099	649.004	-0.091	0.232
-322.085	-200.000	0.062	-0.570
-321.070	5.210	0.599	-0.438
-320.056	-131.965	-0.483	0.063
-319.041	800.000	-0.452	1.326
-318.026	634.750	0.147	0.371
-317.012	119.614	-0.429	-0.528
-315.997	630.301	0.133	-0.334
-314.983	-76.440	0.220	0.077
-313.968	387.869	0.466	0.958
-312.953	456.100	-0.390	0.860
-311.939	800.000	-0.131	0.403
-310.924	-13.770	0.426	-0.274
-309.910	-66.289	0.121	0.048
-308.895	-75.317	0.383	0.136
-307.880	336.306	0.226	-0.435
-306.866	433.524	-0.159	0.343
-305.851	800.000	0.118	0.355
-304.837	-87.145	0.572	-0.173
-303.822	-200.000	0.145	-0.712
-302.807	-8.768	-0.445	-0.296
-301.793	800.000	-0.234	0.780
-300.778	278.592	0.226	-0.400
-299.764	573.747	0.061	0.148
-298.749	14.129	0.667	0.516
-297.735	-200.000	0.173	0.854
-296.720	383.172	-0.101	-0.207
-295.705	800.000	-0.254	0.750
-294.691	-200.000	-0.002	0.134
-293.676	-88.560	-0.419	0.124
-292.662	800.000	0.015	-0.062
-291.647	130.380	0.403	0.512
-290.632	304.642	-0.224	0.413
-289.618	-15.001	-0.313	-0.199
-288.603	-104.809	-1.233	0.281
-287.589	-121.452	-0.324	-0.054
-286.574	-17.034	-0.555	0.348
-285.559	-72.132	-0.387	-0.142
-284.545	-200.000	-0.160	-0.941
-283.530	-200.000	-0.066	0.409
-282.516	3.749	0.295	0.214
-281.501	-200.000	0.007	-0.145
-280.486	435.607	0.359	-0.775
-279.472	463.140	0.568	1.259
-278.457	182.205	-0.473	0.692
-277.443	-89.257	0.401	-0.117
-276.428	444.858	-0.264	-0.575
-275.413	-93.562	0.284	0.078
-274.399	197.360	-0.468	-0.708
-273.384	82.652	-0.413	-0.445
-272.370	800.000	0.211	0.610
-271.355	-200.000	0.104	0.605
-270.340	800.000	-0.200	0.763
-269.326	-200.000	0.025	1.002
-268.311	723.882	0.083	0.218
-267.297	-200.000	0.085	0.610
-266.282	-182.137	0.765	0.014
-265.267	507.149	-0.101	-0.233
-264.253	180.737	-0.196	0.285
-263.238	-51.270	-0.125	0.058
-262.224	-81.553	0.445	0.145
-261.209	-10.011	-0.629	0.414
-260.195	61.887	0.327	-0.323
-259.180	-172.716	-0.224	0.007
-258.165	-52.549	0.414	0.189
-257.151	-200.000	0.003	-0.555
-256.136	43.080	-0.336	-0.304
-255.122	800.000	0.026	0.078
-254.107	-0.657	-0.387	0.272
-253.092	800.000	0.171	0.561
-252.078	236.749	-0.091	0.150
-251.063	-173.065	0.276	0.008
-250.049	172.757	0.263	-0.376
-249.034	243.087	0.063	0.104
-248.019	800.000	-0.189	0.720
-247.005	-104.231	-0.174	0.040
-245.990	-7.167	-0.108	0.073
-244.976	-65.553	-0.699	0.278
-243.961	263.591	-0.308	0.531
-242.946	-200.000	-0.060	-0.503
-241.932	185.141	-0.148	0.217
-240.917	-110.287	0.336	-0.069
-239.903	-154.767	0.775	-0.051
-238.888	248.110	0.596	-0.998
-237.873	99.055	0.371	0.425
-236.859	230.851	0.314	0.510
-235.844	40.836	0.276	-0.246
-234.830	261.724	-0.359	0.617
-233.815	84.462	0.303	-0.328
-232.800	-90.330	0.499	-0.143
-231.786	-200.000	0.080	-0.355
-230.771	800.000	-0.158	0.621
-229.757	-94.769	-0.858	-0.230
-228.742	-200.000	0.013	-0.269
-227.727	-200.000	-0.008	0.492
-226.713	139.521	0.120	-0.156
-225.698	800.000	0.229	-0.693
-224.684	151.901	-0.431	-0.582
-223.669	-200.000	0.218	-1.182
-222.655	-200.000	0.256	-1.229
-221.640	-47.129	0.249	0.120
-220.625	800.000	-0.079	0.254
-219.611	-200.000	-0.004	-0.428
-218.596	-200.000	0.127	-0.881
-217.582	-76.255	0.149	-0.052
-216.567	-68.175	-0.463	-0.178
-215.552	24.041	0.418	-0.342
-214.538	-21.425	-0.688	-0.416
-213.523	17.730	-0.433	-0.341
-212.509	-200.000	-0.039	0.771
-211.494	24.608	0.789	-0.646
-210.479	-4.166	-0.390	-0.267
-209.465	243.003	-0.139	0.230
-208.450	468.168	-0.260	0.578
-207.436	-200.000	0.082	0.362
-206.421	269.218	0.113	0.196
-205.406	87.617	-0.334	0.366
-204.392	204.167	-0.338	-0.518
-203.377	509.699	-0.281	0.646
-202.363	18.286	0.852	-0.673
-201.348	-200.000	-0.035	-0.240
-200.333	-96.763	-0.313	0.081
-199.319	-116.411	-0.331	0.060
-198.304	135.967	0.213	0.274
-197.290	800.000	0.231	-0.765
-196.275	-180.154	-0.198	-0.004
-195.260	296.962	-0.143	-0.259
-194.246	171.739	-0.422	0.600
-193.231	800.000	-0.191	0.788
-192.217	-114.883	0.399	-0.075
-191.202	-42.224	-0.522	-0.264
-190.187	-200.000	-0.021	-0.648
-189.173	-28.448	-0.226	-0.129
-188.158	30.844	0.222	0.188
-187.144	41.467	0.661	0.591
-186.129	243.150	0.137	-0.227
-185.114	-200.000	0.004	-0.846
-184.100	-50.329	-0.456	0.213
-183.085	79.887	-0.060	-0.063
-182.071	800.000	-0.079	-0.341
-181.056	-33.309	-0.726	-0.397
-180.042	-138.680	0.260	-0.028
-179.027	-93.347	-0.243	0.066
-178.012	132.188	0.351	-0.446
-176.998	-200.000	-0.274	0.001
-175.983	-200.000	0.034	0.935
-174.969	-200.000	0.054	0.266
-173.954	-200.000	-0.059	0.560
-172.939	125.148	-0.581	-0.724
-171.925	-141.540	0.190	0.019
-170.910	800.000	0.055	0.171
-169.896	181.045	0.274	-0.397
-168.881	-86.418	-0.137	0.042
-167.866	-3.035	-0.271	0.187
-166.852	-15.871	-0.911	-0.573
-165.837	-38.693	-0.358	0.187
-164.823	-100.902	-0.273	-0.066
-163.808	-181.567	-0.790	0.015
-162.793	37.990	-0.562	-0.493
-161.779	48.857	0.330	0.306
-160.764	43.160	-0.044	-0.040
-159.750	110.148	0.141	-0.167
-158.735	-200.000	-0.099	0.646
-157.720	-200.000	0.194	1.261
-156.706	89.096	0.461	-0.507
-155.691	156.758	-0.125	0.170
-154.677	-104.508	0.427	0.097
-153.662	194.336	-0.163	0.244
-152.647	-200.000	-0.139	-0.682
-151.633	-12.217	-0.800	-0.517
-150.618	-21.507	0.441	0.265
-149.604	18.899	0.158	0.125
-148.589	-104.981	0.861	-0.195
-147.574	-134.422	0.260	0.031
-146.560	-130.867	0.483	0.064
-145.545	226.824	0.042	-0.067
-144.531	375.152	0.109	-0.220
-143.516	424.446	-0.144	-0.305
-142.502	40.782	-0.348	0.310
-141.487	9.449	-0.417	0.312
-140.472	-200.000	-0.013	0.369
-139.458	-143.265	-0.256	0.024
-138.443	-121.933	-0.686	-0.111
-137.429	-103.616	0.559	-0.129
-136.414	800.000	0.029	-0.091
-135.399	-200.000	0.002	-0.177
-134.385	250.597	-0.188	0.314
-133.370	-32.697	-0.142	-0.078
-132.356	-200.000	0.059	-0.444
-131.341	-13.772	0.302	0.192
-130.326	583.048	0.276	0.669
-129.312	31.012	0.308	0.260
-128.297	107.182	-0.485	-0.569
-127.283	-125.360	-0.433	-0.065
-126.268	-141.127	-0.185	-0.019
-125.253	-67.959	0.306	0.118
-124.239	-43.851	-0.208	-0.103
-123.224	68.488	0.667	-0.674
-122.210	298.692	0.184	-0.334
-121.195	148.906	-0.170	0.227
