DTS Sentinel unit serial number:	SN413079Multiplexer serial number:	ORYXHardware model number:	OX4-SRSoftware version number:	ORYX F/W v4.00 Oryx Data Collector v3.7.2.0data status	okinstallation	princeton_trtdifferential loss correction	single-endedforward channel	channel 1reverse channel	N/Adate	2019/09/13time	00:26:35forward acquisition time	60.00reverse acquisition time	0.00gamma	496.2192k internal	0.2328k external	0.2328temperature offset calibration	1.0143default loss term (dB/km)	0.3790temperature slope calibration	1.0000multiplexer offset coefficient	1.0000multiplexer slope coefficient	1.0000fibre end	0.00T internal ref (°C)	28.41T ext. ref 1 (°C)	3.70T ext. ref 2 (°C)	22.99length (m)	temperature (°C)	Stokes	anti-Stokes-747.200	-200.000	-0.080	-0.373
-746.185	-23.297	-0.175	0.106
-745.171	602.290	-0.079	0.197
-744.156	-18.263	-0.242	0.152
-743.142	-92.188	0.248	0.071
-742.127	188.155	-0.081	-0.122
-741.112	-23.157	-0.246	-0.149
-740.098	32.572	0.111	-0.097
-739.083	800.000	-0.053	-0.176
-738.069	800.000	0.109	0.325
-737.054	183.545	0.051	0.076
-736.039	-178.148	-0.397	-0.009
-735.025	-200.000	-0.054	0.320
-734.010	115.931	-0.154	0.190
-732.996	-83.663	-0.407	-0.131
-731.981	140.254	-0.078	0.103
-730.966	-2.091	-0.274	0.194
-729.952	65.832	-0.156	-0.159
-728.937	800.000	0.035	-0.130
-727.923	191.313	0.102	-0.154
-726.908	-63.436	-0.310	-0.128
-725.894	800.000	-0.131	-0.388
-724.879	-200.000	0.015	0.095
-723.864	800.000	-0.067	-0.282
-722.850	-22.682	-0.284	-0.173
-721.835	710.422	0.042	-0.111
-720.821	308.932	0.043	-0.082
-719.806	-56.350	-0.093	0.041
-718.791	-110.230	0.185	-0.039
-717.777	-96.870	0.393	-0.104
-716.762	-200.000	0.000	-0.308
-715.748	-76.284	-0.112	-0.040
-714.733	800.000	-0.105	-0.412
-713.718	-200.000	0.005	-0.394
-712.704	-95.990	-0.294	-0.079
-711.689	-67.084	-0.351	-0.139
-710.675	-200.000	0.025	0.160
-709.660	-183.585	0.340	-0.006
-708.645	-10.103	0.101	-0.067
-707.631	-200.000	-0.015	-0.201
-706.616	-200.000	0.561	0.001
-705.602	-70.368	-0.330	0.126
-704.587	307.189	0.029	0.054
-703.572	-34.745	-0.336	0.185
-702.558	768.700	-0.090	-0.245
-701.543	57.162	0.230	0.226
-700.529	-128.703	0.061	-0.009
-699.514	-93.881	0.087	-0.024
-698.499	800.000	-0.051	-0.148
-697.485	-200.000	0.021	0.231
-696.470	-200.000	-0.005	0.318
-695.456	-128.575	-0.259	0.037
-694.441	19.810	-0.088	-0.072
-693.426	146.749	0.067	0.090
-692.412	80.743	-0.108	0.117
-691.397	62.333	-0.108	0.108
-690.383	-152.825	-0.390	-0.028
-689.368	4.367	-0.088	-0.065
-688.354	767.793	0.075	0.204
-687.339	-200.000	0.052	0.309
-686.324	129.732	-0.082	0.106
-685.310	800.000	0.183	0.510
-684.295	-153.719	-0.183	-0.013
-683.281	306.967	-0.098	-0.183
-682.266	-80.945	-0.166	-0.055
-681.251	-28.493	-0.125	0.073
-680.237	-5.526	0.023	-0.016
-679.222	-82.974	-0.064	-0.021
-678.208	83.088	0.143	0.156
-677.193	80.978	-0.211	-0.228
-676.178	43.769	-0.248	0.229
-675.164	144.123	0.200	0.268
-674.149	-200.000	0.004	-0.130
-673.135	-64.649	0.071	-0.029
-672.120	-123.871	0.136	-0.022
-671.105	-153.144	-0.081	0.006
-670.091	107.645	0.107	-0.128
-669.076	117.440	-0.222	-0.274
-668.062	-55.317	-0.126	0.057
-667.047	-154.336	-0.234	-0.016
-666.032	44.519	-0.150	0.139
-665.018	730.605	-0.080	0.216
-664.003	69.473	-0.251	-0.260
-662.989	-168.899	-0.349	-0.013
-661.974	-200.000	-0.015	0.156
-660.959	-101.532	-0.128	0.031
-659.945	-68.729	0.012	-0.005
-658.930	800.000	-0.053	0.184
-657.916	157.151	0.181	-0.252
-656.901	435.901	0.152	0.332
-655.886	408.098	-0.106	-0.225
-654.872	335.903	-0.131	-0.255
-653.857	276.998	0.129	0.230
-652.843	-106.697	0.368	0.082
-651.828	-178.387	0.415	-0.010
-650.814	-200.000	-0.013	0.138
-649.799	202.261	-0.104	-0.161
-648.784	-95.679	0.408	-0.110
-647.770	800.000	0.069	-0.282
-646.755	95.171	-0.159	0.182
-645.741	-50.134	0.043	0.020
-644.726	-200.000	-0.035	-0.288
-643.711	-99.085	0.152	0.039
-642.697	13.156	0.109	0.084
-641.682	-200.000	-0.007	-0.087
-640.668	-99.930	0.157	-0.039
-639.653	-55.529	-0.299	-0.135
-638.638	-200.000	0.117	-0.561
-637.624	48.437	-0.240	-0.225
-636.609	-12.392	-0.067	0.044
-635.595	-200.000	0.003	0.186
-634.580	145.388	-0.128	0.171
-633.565	800.000	0.123	0.417
-632.551	143.693	-0.169	0.226
-631.536	800.000	-0.065	0.225
-630.522	1.243	0.054	-0.039
-629.507	-200.000	0.001	0.306
-628.492	-200.000	0.014	-0.275
-627.478	-200.000	0.000	0.438
-626.463	489.932	-0.130	-0.297
-625.449	201.960	0.103	-0.160
-624.434	86.520	0.013	-0.014
-623.419	-200.000	0.000	0.056
-622.405	-92.736	-0.044	0.012
-621.390	800.000	-0.031	-0.104
-620.376	-151.533	-0.049	-0.004
-619.361	184.339	0.153	0.227
-618.346	-122.550	0.220	0.036
-617.332	-200.000	-0.049	-0.244
-616.317	16.386	-0.381	0.301
-615.303	670.385	0.043	0.113
-614.288	26.843	-0.170	-0.143
-613.273	-89.170	-0.299	0.089
-612.259	-185.104	-0.204	-0.003
-611.244	161.720	0.148	0.207
-610.230	575.322	-0.078	0.190
-609.215	-200.000	-0.012	0.192
-608.201	-30.715	-0.284	-0.161
-607.186	-200.000	0.054	0.251
-606.171	265.758	0.120	0.209
-605.157	138.332	0.207	-0.273
-604.142	-200.000	0.019	-0.128
-603.128	405.367	0.064	-0.136
-602.113	-67.313	0.239	0.094
-601.098	378.726	-0.162	-0.332
-600.084	470.896	0.115	0.260
-599.069	150.174	-0.072	0.098
-598.055	375.470	0.134	0.274
-597.040	368.815	0.146	-0.296
-596.025	-72.997	-0.058	0.021
-595.011	-200.000	0.003	-0.207
-593.996	-57.378	-0.099	-0.043
-592.982	-14.798	-0.115	0.074
-591.967	-200.000	-0.019	0.160
-590.952	-84.126	-0.373	0.119
-589.938	-8.082	-0.222	-0.150
-588.923	739.975	0.082	0.221
-587.909	-137.910	0.307	0.034
-586.894	-157.963	0.127	-0.007
-585.879	188.862	0.088	-0.132
-584.865	87.662	-0.077	-0.086
-583.850	-200.000	-0.031	-0.185
-582.836	-183.471	-0.131	-0.002
-581.821	-20.955	-0.106	0.065
-580.806	-200.000	0.003	-0.125
-579.792	281.440	0.114	-0.205
-578.777	302.646	-0.088	-0.164
-577.763	-57.037	0.139	-0.061
-576.748	-200.000	0.027	0.245
-575.733	372.801	0.102	0.207
-574.719	-200.000	0.004	0.099
-573.704	-176.029	0.149	-0.004
-572.690	80.017	-0.051	-0.054
-571.675	-17.870	-0.240	0.150
-570.661	-121.328	-0.220	-0.037
-569.646	800.000	-0.037	-0.132
-568.631	-104.953	0.331	0.076
-567.617	-200.000	0.063	-0.302
-566.602	-147.225	0.352	0.030
-565.588	-53.026	0.284	-0.131
-564.573	-200.000	-0.005	-0.227
-563.558	-109.536	-0.123	0.026
-562.544	-6.754	0.237	0.161
-561.529	203.310	0.154	-0.238
-560.515	-94.776	0.394	-0.107
-559.500	635.931	-0.131	-0.334
-558.485	-147.384	-0.242	-0.021
-557.471	278.204	-0.109	-0.194
-556.456	800.000	0.127	-0.354
-555.442	261.137	0.047	-0.082
-554.427	-200.000	0.011	-0.148
-553.412	576.502	0.024	0.059
-552.398	49.180	-0.086	0.081
-551.383	503.927	-0.061	0.142
-550.369	-57.997	0.179	-0.078
-549.354	404.653	-0.142	0.299
-548.339	41.872	0.226	0.205
-547.325	800.000	-0.074	0.280
-546.310	105.150	-0.239	0.283
-545.296	-22.913	-0.216	0.130
-544.281	-77.021	-0.078	0.027
-543.266	31.736	0.152	-0.131
-542.252	-141.971	0.227	-0.023
-541.237	-200.000	-0.050	-0.259
-540.223	800.000	0.090	-0.368
-539.208	-64.636	0.321	-0.130
-538.193	206.633	-0.102	-0.159
-537.179	-200.000	-0.028	-0.176
-536.164	37.333	-0.409	-0.362
-535.150	-85.656	0.274	-0.085
-534.135	111.822	0.159	-0.192
-533.121	-66.729	-0.280	-0.111
-532.106	-8.753	-0.343	0.230
-531.091	198.470	0.174	-0.266
-530.077	118.169	-0.060	0.074
-529.062	-35.419	-0.267	-0.145
-528.048	31.077	0.140	0.120
-527.033	800.000	-0.055	0.205
-526.018	27.516	-0.248	0.209
-525.004	-91.484	-0.346	-0.099
-523.989	324.305	-0.139	0.265
-522.975	-11.024	0.170	0.112
-521.960	251.217	-0.014	-0.023
-520.945	399.883	0.083	-0.175
-519.931	-200.000	0.044	0.255
-518.916	204.302	-0.222	-0.343
-517.902	10.870	-0.063	0.048
-516.887	164.984	-0.203	-0.286
-515.872	-183.811	0.354	-0.006
-514.858	-30.486	0.292	-0.166
-513.843	-32.133	-0.137	0.077
-512.829	6.837	0.145	-0.108
-511.814	-200.000	-0.008	-0.105
-510.799	674.073	-0.079	0.205
-509.785	-153.992	-0.339	-0.023
-508.770	-147.383	-0.136	-0.012
-507.756	462.954	-0.031	-0.070
-506.741	-130.830	0.065	-0.009
-505.726	-105.838	0.453	0.102
-504.712	-18.013	0.017	-0.011
-503.697	320.785	-0.008	-0.015
-502.683	96.033	0.077	-0.088
-501.668	-200.000	0.001	0.047
-500.653	-26.056	-0.165	-0.097
-499.639	-200.000	0.042	-0.227
-498.624	480.439	0.091	-0.206
-497.610	191.546	-0.143	0.214
-496.595	-117.510	-0.038	-0.007
-495.581	84.406	0.172	0.188
-494.566	-50.200	-0.381	-0.180
-493.551	-70.709	0.188	0.071
-492.537	-54.107	0.142	0.065
-491.522	800.000	0.121	-0.346
-490.508	-200.000	0.029	-0.258
-489.493	-102.226	0.112	0.027
-488.478	-108.786	-0.151	0.032
-487.464	45.849	-0.317	-0.293
-486.449	-138.212	0.157	0.017
-485.435	-115.935	-0.298	0.055
-484.420	42.795	0.174	0.158
-483.405	142.873	-0.226	-0.299
-482.391	300.105	-0.118	0.217
-481.376	-200.000	0.053	-0.260
-480.362	-32.895	0.147	-0.081
-479.347	290.075	0.123	-0.223
-478.332	54.922	-0.196	-0.189
-477.318	-47.545	-0.124	0.060
-476.303	-17.920	0.108	-0.067
-475.289	800.000	-0.048	-0.200
-474.274	508.082	-0.145	0.335
-473.259	-147.168	-0.314	0.027
-472.245	234.567	-0.043	0.070
-471.230	800.000	0.083	-0.233
-470.216	800.000	-0.125	0.472
-469.201	314.508	0.027	-0.050
-468.186	0.792	-0.088	0.063
-467.172	-59.501	-0.398	0.170
-466.157	-32.394	-0.197	-0.109
-465.143	142.226	-0.186	0.246
-464.128	-122.059	-0.253	0.041
-463.113	429.235	0.110	0.237
-462.099	74.516	-0.068	-0.071
-461.084	-69.086	0.179	-0.069
-460.070	308.495	0.025	0.046
-459.055	149.108	-0.041	-0.055
-458.040	-117.474	-0.516	0.093
-457.026	101.427	0.076	0.088
-456.011	-200.000	0.009	0.522
-454.997	-36.341	0.074	0.040
-453.982	102.068	-0.131	-0.152
-452.968	743.874	0.024	0.064
-451.953	104.697	-0.099	-0.116
-450.938	-200.000	0.002	-0.043
-449.924	-200.000	0.229	0.001
-448.909	164.552	0.122	-0.171
-447.895	-94.195	0.169	0.046
-446.880	185.028	-0.188	-0.278
-445.865	196.695	0.107	0.162
-444.851	-108.174	0.210	-0.045
-443.836	-76.110	-0.056	0.020
-442.822	-200.000	0.046	0.292
-441.807	271.308	0.023	-0.040
-440.792	-38.994	-0.121	-0.063
-439.778	136.310	-0.121	0.158
-438.763	-132.534	-0.144	0.018
-437.749	-70.667	0.216	-0.081
-436.734	-149.620	-0.088	0.007
-435.719	-140.649	0.240	-0.025
-434.705	-59.956	0.109	0.046
-433.690	552.912	0.088	-0.211
-432.676	-200.000	0.005	-0.047
-431.661	-200.000	0.065	-0.463
-430.646	800.000	-0.092	0.256
-429.632	76.928	0.170	0.180
-428.617	538.821	-0.081	0.193
-427.603	-62.948	0.199	-0.082
-426.588	-200.000	0.002	0.228
-425.573	-200.000	-0.606	0.001
-424.559	256.246	0.103	0.177
-423.544	-200.000	0.053	-0.273
-422.530	63.901	0.057	0.057
-421.515	-33.857	0.432	-0.237
-420.500	-66.833	0.176	-0.069
-419.486	-53.704	0.307	0.139
-418.471	-200.000	0.037	0.485
-417.457	-200.000	-0.006	0.233
-416.442	327.633	-0.004	-0.008
-415.428	800.000	0.077	-0.235
-414.413	111.278	-0.105	0.126
-413.398	-88.013	0.367	0.110
-412.384	-27.625	0.092	0.053
-411.369	-89.598	0.159	0.046
-410.355	800.000	-0.073	0.215
-409.340	-123.479	-0.077	-0.012
-408.325	401.268	-0.050	-0.104
-407.311	249.078	0.053	0.088
-406.296	-31.157	-0.062	0.035
-405.282	800.000	0.054	-0.152
-404.267	-109.985	0.047	0.010
-403.252	-200.000	-0.002	-0.012
-402.238	-130.670	-0.126	0.017
-401.223	118.374	-0.208	-0.255
-400.209	-200.000	-0.004	0.110
-399.194	-200.000	0.024	0.200
-398.179	210.494	0.249	-0.389
-397.165	-86.487	-0.355	-0.108
-396.150	1.142	0.080	0.057
-395.136	-200.000	0.003	-0.323
-394.121	239.129	0.033	0.054
-393.106	33.535	-0.094	0.081
-392.092	224.431	-0.047	0.075
-391.077	800.000	0.013	-0.038
-390.063	-60.596	-0.188	0.079
-389.048	-54.709	-0.252	0.113
-388.033	-127.359	0.399	0.058
-387.019	800.000	-0.041	0.141
-386.004	-139.767	0.177	0.019
-384.990	-68.554	-0.219	0.084
-383.975	-80.309	0.394	0.131
-382.960	-151.841	-0.107	-0.008
-381.946	-78.496	0.270	-0.092
-380.931	338.354	0.159	-0.308
-379.917	800.000	0.153	-0.541
-378.902	-200.000	0.002	0.218
-377.888	449.554	0.016	-0.034
-376.873	-81.090	-0.024	0.008
-375.858	149.074	-0.064	-0.085
-374.844	309.383	0.111	-0.206
-373.829	-23.030	-0.172	-0.103
-372.815	20.781	-0.023	-0.018
-371.800	800.000	-0.030	-0.111
-370.785	-166.047	0.220	-0.009
-369.771	-66.429	0.402	0.159
-368.756	314.094	-0.110	0.205
-367.742	25.475	0.183	-0.151
-366.727	353.286	0.132	0.260
-365.712	682.228	0.082	0.213
-364.698	6.517	-0.262	0.193
-363.683	-38.668	0.138	0.072
-362.669	14.312	-0.118	-0.091
-361.654	800.000	-0.067	0.266
-360.639	-108.220	0.361	-0.077
-359.625	-200.000	0.001	0.009
-358.610	51.647	0.151	0.142
-357.596	-134.212	-0.040	0.005
-356.581	-200.000	-0.019	-0.086
-355.566	14.996	0.264	-0.205
-354.552	800.000	0.116	0.334
-353.537	-18.245	-0.102	-0.063
-352.523	-111.619	0.028	-0.006
-351.508	-18.878	0.242	0.149
-350.493	800.000	-0.201	0.557
-349.479	800.000	-0.041	-0.111
-348.464	800.000	0.108	-0.341
-347.450	-200.000	-0.019	0.166
-346.435	303.408	-0.093	-0.170
-345.420	-96.871	0.379	0.099
-344.406	619.513	0.066	0.166
-343.391	-200.000	0.025	0.217
-342.377	-21.599	-0.225	0.136
-341.362	-200.000	0.006	-0.098
-340.348	-101.399	0.241	0.058
-339.333	-161.445	0.060	0.003
-338.318	-103.965	-0.310	0.072
-337.304	-81.964	-0.106	-0.034
-336.289	-112.688	-0.209	0.041
-335.275	-73.507	-0.310	-0.112
-334.260	57.863	0.260	-0.253
-333.245	16.379	0.449	-0.351
-332.231	-75.160	-0.065	0.023
-331.216	-59.303	-0.157	0.067
-330.202	-119.589	0.350	-0.060
-329.187	800.000	0.053	-0.226
-328.172	-200.000	-0.030	0.211
-327.158	-173.961	-0.373	-0.011
-326.143	-34.999	0.143	0.077
-325.129	-153.089	0.522	0.036
-324.114	543.761	0.110	0.260
-323.099	-145.155	-0.174	-0.016
-322.085	-6.848	0.128	0.087
-321.070	161.884	-0.093	0.129
-320.056	-200.000	0.045	0.289
-319.041	392.992	0.088	0.181
-318.026	295.589	0.120	-0.217
-317.012	-152.411	0.142	-0.010
-315.997	415.873	-0.046	-0.098
-314.983	58.940	-0.178	0.174
-313.968	-62.001	-0.044	-0.018
-312.953	203.953	0.073	-0.112
-311.939	800.000	0.066	0.248
-310.924	4.432	-0.051	-0.037
-309.910	-200.000	0.027	-0.119
-308.895	-200.000	-0.091	-0.414
-307.880	239.698	0.107	-0.177
-306.866	-200.000	-0.002	0.193
-305.851	-89.405	-0.284	-0.083
-304.837	62.970	0.324	-0.321
-303.822	800.000	-0.054	-0.184
-302.807	-39.952	0.273	0.141
-301.793	800.000	0.037	-0.145
-300.778	-200.000	-0.006	0.127
-299.764	-39.489	0.203	-0.105
-298.749	203.540	0.043	-0.067
-297.735	-22.600	0.238	0.143
-296.720	-200.000	-0.039	-0.228
-295.705	-200.000	0.051	0.320
-294.691	99.218	-0.131	0.150
-293.676	165.266	0.088	0.124
-292.662	568.520	0.080	-0.192
-291.647	-150.009	0.132	0.010
-290.632	117.824	0.171	-0.208
-289.618	-114.033	-0.175	0.034
-288.603	221.108	0.023	0.037
-287.589	-127.711	-0.177	0.025
-286.574	-200.000	0.057	-0.295
-285.559	-200.000	-0.115	0.591
-284.545	-120.352	-0.071	-0.012
-283.530	800.000	-0.095	-0.315
-282.516	-112.838	-0.389	-0.076
-281.501	102.336	0.206	0.238
-280.486	-200.000	0.053	0.234
-279.472	119.935	-0.260	0.319
-278.457	98.818	-0.168	0.191
-277.443	42.787	0.307	-0.277
-276.428	101.111	0.159	-0.183
-275.413	-11.796	-0.201	-0.130
-274.399	-113.170	-0.458	0.089
-273.384	-60.879	-0.314	0.132
-272.370	250.704	-0.038	0.064
-271.355	73.250	0.061	-0.063
-270.340	198.630	-0.082	-0.124
-269.326	-69.053	-0.094	0.036
-268.311	54.603	-0.050	0.048
-267.297	-58.650	0.130	0.056
-266.282	800.000	-0.023	-0.097
-265.267	-16.298	-0.157	-0.099
-264.253	-172.092	-0.285	-0.009
-263.238	37.849	0.068	-0.060
-262.224	-56.630	-0.115	-0.050
-261.209	169.816	-0.159	-0.225
-260.195	-61.895	0.341	-0.141
-259.180	99.659	-0.073	-0.083
-258.165	91.412	-0.046	-0.051
-257.151	-176.483	0.247	0.006
-256.136	13.103	0.153	0.117
-255.122	800.000	-0.020	-0.080
-254.107	-123.920	0.152	-0.024
-253.092	281.500	-0.100	-0.177
-252.078	-55.098	-0.350	-0.156
-251.063	368.804	0.053	-0.105
-250.049	7.473	0.111	0.082
-249.034	-200.000	0.031	0.143
-248.019	-102.827	-0.297	-0.070
-247.005	800.000	-0.014	-0.040
-245.990	422.252	0.093	0.196
-244.976	-146.406	0.175	-0.015
-243.961	-200.000	0.005	-0.278
-242.946	-97.058	-0.152	0.039
-241.932	-34.907	-0.053	-0.029
-240.917	177.293	-0.017	0.024
-239.903	263.220	-0.051	0.087
-238.888	26.064	-0.201	0.165
-237.873	-200.000	-0.046	-0.232
-236.859	-200.000	0.043	0.266
-235.844	-27.568	0.243	-0.140
-234.830	-93.607	0.053	0.014
-233.815	-136.541	0.272	0.031
-232.800	46.367	0.273	0.250
-231.786	-200.000	0.002	0.097
-230.771	-149.719	-0.246	0.019
-229.757	-164.434	0.301	-0.014
-228.742	-200.000	-0.008	0.062
-227.727	-152.179	-0.140	-0.010
-226.713	670.508	-0.019	0.049
-225.698	-151.446	-0.404	0.030
-224.684	-184.992	0.168	-0.003
-223.669	800.000	-0.075	-0.284
-222.655	-149.258	-0.061	0.005
-221.640	-200.000	-0.002	0.374
-220.625	-136.411	-0.197	-0.023
-219.611	319.118	0.066	-0.123
-218.596	160.477	-0.179	-0.247
-217.582	-200.000	-0.002	0.030
-216.567	304.213	0.106	-0.194
-215.552	7.402	-0.145	0.107
-214.538	-125.789	0.314	0.047
-213.523	-139.049	0.230	-0.025
-212.509	-27.711	-0.165	-0.095
-211.494	-90.440	-0.136	0.039
-210.479	-200.000	0.007	0.102
-209.465	-44.436	0.221	0.109
-208.450	-6.829	0.263	0.176
-207.436	-200.000	0.000	0.116
-206.421	-74.144	-0.365	0.130
-205.406	-47.316	-0.344	0.165
-204.392	-87.560	0.151	-0.045
-203.377	-72.035	-0.157	-0.058
-202.363	120.027	-0.100	-0.122
-201.348	70.754	-0.107	0.110
-200.333	66.281	-0.075	-0.075
-199.319	43.650	0.199	0.180
-198.304	-89.049	0.457	0.133
-197.290	-200.000	-0.046	-0.258
-196.275	-200.000	0.037	-0.294
-195.260	-22.126	0.195	-0.117
-194.246	60.993	-0.022	0.022
-193.231	-108.650	0.248	-0.052
-192.217	223.357	0.110	0.174
-191.202	-200.000	0.076	0.402
-190.187	-25.031	-0.027	0.016
-189.173	-26.046	-0.120	0.069
-188.158	191.622	0.189	0.281
-187.144	66.421	-0.172	0.172
-186.129	-36.755	0.122	0.065
-185.114	-200.000	0.002	0.062
-184.100	-200.000	-0.015	0.097
-183.085	-200.000	-0.043	-0.453
-182.071	-45.303	0.129	0.063
-181.056	-89.819	-0.065	0.019
-180.042	-78.307	-0.150	-0.051
-179.027	-70.637	-0.257	0.096
-178.012	11.388	-0.259	0.196
-176.998	376.569	-0.147	0.295
-175.983	-100.661	-0.184	0.045
-174.969	800.000	0.036	0.131
-173.954	800.000	-0.052	0.196
-172.939	20.286	-0.094	0.075
-171.925	-17.228	0.074	-0.046
-170.910	159.434	0.080	-0.109
-169.896	487.402	-0.144	0.323
-168.881	-90.065	-0.089	0.026
-167.866	400.939	0.241	0.498
-166.852	28.295	-0.185	-0.154
-165.837	235.699	-0.230	-0.375
-164.823	83.894	0.138	-0.148
-163.808	-60.857	0.167	0.069
-162.793	-200.000	0.009	-0.141
-161.779	800.000	0.042	0.115
-160.764	-200.000	0.041	0.181
-159.750	-124.206	0.044	-0.007
-158.735	-136.678	-0.188	0.021
-157.720	342.868	-0.111	-0.214
-156.706	6.863	-0.123	-0.090
-155.691	18.379	0.425	-0.334
-154.677	219.129	0.051	-0.080
-153.662	135.133	-0.272	-0.348
-152.647	-129.362	-0.374	0.051
-151.633	-200.000	0.022	0.335
-150.618	-106.482	0.240	-0.053
-149.604	-200.000	-0.013	0.156
-148.589	-76.473	-0.248	0.086
-147.574	308.130	0.037	0.068
-146.560	54.635	-0.451	-0.428
-145.545	6.399	0.061	0.045
-144.531	-170.002	-0.371	0.013
-143.516	8.127	0.114	-0.084
-142.502	800.000	-0.119	0.390
-141.487	-200.000	0.068	0.471
-140.472	-125.428	-0.119	0.018
-139.458	-126.368	0.141	0.021
-138.443	-119.008	-0.378	0.065
-137.429	10.817	-0.251	0.189
-136.414	-99.796	0.069	0.017
-135.399	-39.497	-0.131	-0.068
-134.385	13.886	0.167	-0.128
-133.370	340.924	0.027	-0.052
-132.356	648.097	-0.054	0.136
-131.341	-164.211	0.162	-0.007
-130.326	800.000	0.063	0.186
-129.312	33.768	-0.366	-0.313
-128.297	-30.322	0.196	-0.109
-127.283	-200.000	-0.000	0.006
-126.268	-30.119	-0.269	-0.151
-125.253	-124.424	0.197	0.030
-124.239	-200.000	0.025	0.146
-123.224	-140.485	-0.178	0.018
-122.210	778.549	0.074	0.199
