DTS Sentinel unit serial number:	SN413079Multiplexer serial number:	ORYXHardware model number:	OX4-SRSoftware version number:	ORYX F/W v4.00 Oryx Data Collector v3.7.2.0data status	okinstallation	princeton_trtdifferential loss correction	single-endedforward channel	channel 1reverse channel	N/Adate	2019/09/13time	02:10:35forward acquisition time	60.00reverse acquisition time	0.00gamma	496.2192k internal	0.2331k external	0.2331temperature offset calibration	1.0154default loss term (dB/km)	0.3790temperature slope calibration	1.0000multiplexer offset coefficient	1.0000multiplexer slope coefficient	1.0000fibre end	0.00T internal ref (°C)	27.56T ext. ref 1 (°C)	3.88T ext. ref 2 (°C)	22.30length (m)	temperature (°C)	Stokes	anti-Stokes-747.200	89.644	0.046	0.052
-746.185	108.363	-0.072	-0.086
-745.171	103.256	0.113	-0.134
-744.156	155.517	-0.053	-0.074
-743.142	82.149	0.186	0.203
-742.127	-200.000	0.001	0.216
-741.112	120.627	-0.093	0.116
-740.098	-166.930	0.113	-0.005
-739.083	-200.000	0.001	-0.030
-738.069	283.670	0.101	0.182
-737.054	-63.782	-0.136	0.056
-736.039	-15.550	-0.268	-0.172
-735.025	-200.000	-0.003	0.088
-734.010	-160.859	-0.278	-0.015
-732.996	151.175	0.071	-0.097
-731.981	-143.759	-0.127	0.012
-730.966	-200.000	-0.016	0.073
-729.952	800.000	-0.027	-0.109
-728.937	8.220	-0.096	0.072
-727.923	43.370	-0.212	-0.195
-726.908	-200.000	-0.002	-0.179
-725.894	33.334	-0.067	0.059
-724.879	-3.782	0.123	0.086
-723.864	29.385	0.120	-0.102
-722.850	40.662	0.159	-0.144
-721.835	105.378	-0.177	0.210
-720.821	-200.000	-0.020	-0.178
-719.806	60.067	0.077	0.077
-718.791	800.000	0.073	0.270
-717.777	296.086	-0.119	-0.219
-716.762	-200.000	0.009	0.166
-715.748	-13.377	-0.177	0.116
-714.733	749.556	-0.054	-0.145
-713.718	-93.235	-0.256	-0.072
-712.704	-111.910	0.096	-0.019
-711.689	800.000	-0.031	0.127
-710.675	-200.000	0.056	0.397
-709.660	-3.466	-0.191	-0.134
-708.645	800.000	-0.028	0.079
-707.631	-98.932	0.087	-0.022
-706.616	-56.959	0.307	-0.136
-705.602	283.304	-0.128	-0.231
-704.587	685.071	0.098	0.257
-703.572	7.913	-0.224	0.169
-702.558	485.675	-0.012	0.027
-701.543	-200.000	0.038	0.238
-700.529	-73.922	0.156	0.057
-699.514	800.000	0.082	0.255
-698.499	-32.012	-0.271	0.152
-697.485	233.513	-0.076	-0.126
-696.470	130.899	0.041	0.052
-695.456	-200.000	0.015	-0.114
-694.441	356.550	-0.136	0.271
-693.426	-58.647	-0.404	-0.176
-692.412	-200.000	0.054	-0.377
-691.397	-161.535	-0.117	0.006
-690.383	800.000	0.120	-0.341
-689.368	-99.007	-0.361	-0.092
-688.354	-11.560	0.092	-0.061
-687.339	91.843	-0.357	-0.403
-686.324	714.617	0.080	0.212
-685.310	221.651	0.101	0.163
-684.295	84.193	0.060	-0.066
-683.281	-153.899	-0.220	0.015
-682.266	70.199	-0.128	-0.132
-681.251	255.076	0.103	-0.176
-680.237	-113.225	0.244	0.048
-679.222	-184.669	-0.272	0.004
-678.208	410.224	0.026	0.055
-677.193	800.000	0.039	0.165
-676.178	-66.960	-0.233	0.092
-675.164	-5.930	0.160	-0.110
-674.149	126.501	0.105	-0.134
-673.135	-43.666	0.201	0.102
-672.120	-109.819	-0.095	0.020
-671.105	-200.000	0.054	-0.298
-670.091	800.000	-0.026	-0.095
-669.076	274.804	0.117	-0.208
-668.062	-103.952	-0.051	0.012
-667.047	55.803	-0.293	-0.285
-666.032	258.921	0.132	-0.229
-665.018	-200.000	-0.003	0.130
-664.003	-21.015	0.148	-0.091
-662.989	-19.406	0.095	0.059
-661.974	-103.985	0.268	0.063
-660.959	239.858	-0.072	-0.121
-659.945	-97.937	-0.131	0.034
-658.930	61.832	-0.138	0.138
-657.916	-143.915	0.367	-0.035
-656.901	-76.959	-0.320	-0.112
-655.886	49.503	0.076	0.072
-654.872	220.368	0.050	-0.080
-653.857	-100.927	0.030	0.007
-652.843	800.000	0.034	-0.115
-651.828	124.229	0.172	0.216
-650.814	-135.892	-0.372	-0.044
-649.799	316.992	0.073	-0.138
-648.784	345.536	-0.124	-0.245
-647.770	-64.866	-0.224	-0.091
-646.755	800.000	0.027	0.093
-645.741	800.000	-0.067	-0.204
-644.726	-200.000	0.060	0.415
-643.711	-88.839	-0.135	-0.040
-642.697	-46.694	-0.216	0.106
-641.682	-200.000	0.016	0.117
-640.668	-131.626	0.172	-0.023
-639.653	-102.446	-0.097	-0.023
-638.638	37.343	0.055	-0.049
-637.624	-70.633	0.255	-0.097
-636.609	-16.161	0.242	-0.154
-635.595	-24.770	-0.259	0.154
-634.580	114.267	-0.014	0.017
-633.565	440.801	-0.123	-0.270
-632.551	724.908	-0.091	-0.243
-631.536	367.645	-0.116	-0.235
-630.522	577.960	0.066	-0.162
-629.507	-152.021	-0.369	-0.027
-628.492	174.500	0.063	-0.091
-627.478	-84.156	0.150	-0.048
-626.463	398.462	0.176	-0.369
-625.449	290.242	-0.117	-0.212
-624.434	86.437	-0.136	0.150
-623.419	660.035	0.147	0.378
-622.405	110.426	0.116	-0.140
-621.390	-59.368	0.046	0.020
-620.376	47.136	-0.080	0.075
-619.361	-46.577	-0.038	-0.019
-618.346	800.000	-0.048	-0.203
-617.332	112.757	-0.260	-0.316
-616.317	43.522	-0.139	-0.127
-615.303	800.000	-0.045	-0.157
-614.288	800.000	0.037	0.138
-613.273	-200.000	0.010	0.161
-612.259	56.996	0.125	0.122
-611.244	230.994	-0.161	-0.265
-610.230	-55.037	-0.159	0.072
-609.215	-200.000	-0.006	-0.241
-608.201	800.000	-0.066	0.198
-607.186	50.614	0.125	-0.118
-606.171	53.829	0.241	-0.232
-605.157	232.594	-0.109	-0.180
-604.142	-34.808	0.178	-0.097
-603.128	-45.858	-0.094	0.046
-602.113	-73.696	0.285	0.104
-601.098	-13.640	0.075	0.049
-600.084	514.354	-0.122	0.285
-599.069	423.545	-0.047	0.100
-598.055	-147.056	-0.287	-0.025
-597.040	-10.372	-0.043	-0.028
-596.025	6.009	-0.202	-0.150
-595.011	-200.000	-0.027	-0.132
-593.996	800.000	-0.079	0.284
-592.982	228.059	-0.057	0.094
-591.967	-200.000	0.054	-0.308
-590.952	-83.724	-0.141	0.045
-589.938	-139.358	-0.143	-0.015
-588.923	-200.000	0.006	0.036
-587.909	433.343	0.068	0.148
-586.894	-75.366	0.238	0.085
-585.879	-23.953	-0.061	-0.036
-584.865	455.022	-0.087	0.193
-583.850	-114.559	0.320	-0.061
-582.836	-134.239	-0.272	0.033
-581.821	800.000	-0.041	0.177
-580.806	-119.702	-0.168	0.029
-579.792	-43.694	0.151	-0.076
-578.777	-22.819	-0.334	0.202
-577.763	-161.689	0.449	-0.023
-576.748	800.000	0.161	0.525
-575.733	70.617	-0.070	0.073
-574.719	-45.204	-0.081	-0.040
-573.704	162.279	0.099	0.139
-572.690	640.948	-0.029	0.074
-571.675	-78.333	-0.169	-0.058
-570.661	-37.397	0.289	0.154
-569.646	-76.857	0.294	0.103
-568.631	317.958	0.103	0.194
-567.617	-109.020	-0.222	0.047
-566.602	-5.512	0.108	-0.074
-565.588	-42.910	-0.374	-0.190
-564.573	70.113	0.090	0.093
-563.558	-25.911	0.339	0.200
-562.544	-104.765	0.188	0.043
-561.529	-93.887	0.115	0.032
-560.515	38.167	-0.063	-0.056
-559.500	476.094	0.025	0.057
-558.485	133.148	-0.262	-0.338
-557.471	116.431	0.128	-0.157
-556.456	152.536	0.101	0.137
-555.442	-133.634	0.293	0.037
-554.427	-120.957	0.222	0.037
-553.412	346.464	0.051	-0.101
-552.398	-65.724	-0.483	-0.193
-551.383	-76.595	-0.222	-0.078
-550.369	211.664	0.087	-0.137
-549.354	126.949	-0.189	-0.239
-548.339	236.831	0.108	0.178
-547.325	206.249	0.188	0.292
-546.310	39.155	0.206	0.184
-545.296	800.000	-0.072	0.219
-544.281	220.836	0.214	0.343
-543.266	800.000	0.034	-0.107
-542.252	-171.936	0.202	0.007
-541.237	-5.501	-0.070	0.048
-540.223	-200.000	0.027	-0.251
-539.208	-200.000	-0.047	-0.459
-538.193	594.408	0.035	0.088
-537.179	-200.000	-0.015	0.147
-536.164	12.085	-0.176	0.135
-535.150	676.096	0.074	-0.192
-534.135	800.000	0.091	-0.276
-533.121	-94.844	-0.207	-0.056
-532.106	110.209	0.263	-0.315
-531.091	-200.000	-0.039	0.237
-530.077	-92.341	-0.236	-0.066
-529.062	-113.463	-0.357	0.070
-528.048	-200.000	-0.018	-0.190
-527.033	-21.438	0.212	-0.129
-526.018	-32.131	-0.165	0.092
-525.004	800.000	0.049	0.193
-523.989	800.000	0.012	-0.054
-522.975	-79.501	0.125	-0.042
-521.960	54.080	-0.166	-0.159
-520.945	11.645	0.067	0.051
-519.931	-33.152	0.449	0.248
-518.916	300.631	0.055	0.101
-517.902	-200.000	-0.363	0.001
-516.887	-57.855	0.248	0.108
-515.872	-188.552	-0.303	0.004
-514.858	-83.078	-0.113	0.036
-513.843	-143.934	0.510	-0.048
-512.829	800.000	-0.090	0.287
-511.814	255.405	0.102	-0.175
-510.799	-148.580	-0.174	-0.014
-509.785	-108.477	0.189	0.041
-508.770	-200.000	-0.003	-0.124
-507.756	-200.000	-0.041	-0.320
-506.741	322.438	-0.122	0.232
-505.726	-131.374	0.039	-0.005
-504.712	-200.000	0.021	0.127
-503.697	-200.000	-0.016	0.109
-502.683	208.131	-0.096	0.150
-501.668	800.000	0.104	0.372
-500.653	-200.000	0.005	-0.154
-499.639	800.000	-0.096	-0.334
-498.624	70.890	-0.129	-0.133
-497.610	800.000	-0.089	-0.262
-496.595	-65.343	-0.118	0.047
-495.581	290.720	0.067	0.121
-494.566	-156.593	-0.080	-0.005
-493.551	-127.749	0.100	-0.014
-492.537	55.294	-0.052	0.050
-491.522	-131.120	-0.356	-0.047
-490.508	-79.750	0.123	-0.041
-489.493	391.737	-0.139	-0.288
-488.478	-120.343	-0.249	0.042
-487.464	-200.000	0.016	-0.093
-486.449	108.195	0.023	-0.028
-485.435	8.324	0.214	-0.160
-484.420	793.748	0.092	0.252
-483.405	270.505	-0.116	-0.204
-482.391	105.102	-0.089	-0.105
-481.376	800.000	-0.038	0.135
-480.362	26.763	-0.043	0.036
-479.347	-7.202	0.056	-0.038
-478.332	-5.557	0.334	-0.228
-477.318	800.000	0.092	0.318
-476.303	-77.172	0.162	-0.056
-475.289	-67.129	0.248	0.097
-474.274	-130.534	-0.122	-0.016
-473.259	-193.023	0.112	-0.001
-472.245	-200.000	-0.294	-0.000
-471.230	-6.117	-0.170	-0.116
-470.216	185.191	0.038	-0.056
-469.201	-200.000	-0.002	0.092
-468.186	-120.555	-0.166	-0.028
-467.172	-162.800	-0.042	-0.002
-466.157	-42.269	0.194	0.099
-465.143	44.079	0.297	0.271
-464.128	-191.694	0.278	-0.003
-463.113	480.922	-0.062	0.140
-462.099	-91.838	-0.101	-0.029
-461.084	-67.915	0.230	-0.089
-460.070	315.042	0.119	-0.222
-459.055	-200.000	0.007	0.104
-458.040	-69.415	0.257	0.098
-457.026	253.428	-0.080	0.136
-456.011	344.536	0.101	0.196
-454.997	0.492	0.077	0.055
-453.982	34.871	-0.313	0.273
-452.968	69.980	-0.213	0.219
-451.953	-38.667	0.074	0.039
-450.938	-143.520	0.268	0.025
-449.924	47.707	-0.165	0.154
-448.909	63.575	-0.296	0.296
-447.895	53.534	0.333	0.318
-446.880	248.588	0.138	0.233
-445.865	-200.000	-0.001	0.177
-444.851	148.412	0.033	0.044
-443.836	-200.000	0.014	-0.300
-442.822	-142.335	0.217	-0.021
-441.807	-64.569	0.041	0.016
-440.792	-200.000	0.004	-0.116
-439.778	-54.261	0.271	-0.122
-438.763	-16.547	0.065	0.041
-437.749	166.282	-0.160	0.225
-436.734	369.567	0.062	-0.125
-435.719	148.607	-0.080	-0.107
-434.705	268.744	-0.124	-0.216
-433.690	-133.116	0.396	0.050
-432.676	244.440	0.035	0.058
-431.661	7.506	0.166	0.124
-430.646	-200.000	-0.043	0.206
-429.632	111.434	-0.174	-0.209
-428.617	-132.655	-0.343	0.044
-427.603	76.472	-0.148	0.155
-426.588	137.085	-0.189	0.246
-425.573	-146.292	0.425	-0.037
-424.559	800.000	0.129	0.362
-423.544	30.437	0.166	-0.141
-422.530	750.567	0.040	-0.108
-421.515	-200.000	-0.050	0.323
-420.500	28.386	0.151	0.127
-419.486	122.803	-0.179	0.222
-418.471	-200.000	-0.017	-0.280
-417.457	-17.076	0.312	-0.196
-416.442	716.395	0.092	-0.243
-415.428	-114.718	0.118	0.022
-414.413	2.614	-0.071	0.051
-413.398	47.339	-0.276	0.256
-412.384	-173.510	0.291	-0.009
-411.369	518.167	-0.140	0.326
-410.355	-188.794	-0.089	0.001
-409.340	-9.603	-0.204	-0.135
-408.325	-171.506	0.102	-0.003
-407.311	515.632	0.018	0.041
-406.296	800.000	-0.049	-0.194
-405.282	-2.623	0.424	-0.294
-404.267	-60.301	0.112	-0.047
-403.252	-73.097	0.348	-0.127
-402.238	176.100	0.171	0.246
-401.223	-111.573	-0.303	-0.061
-400.209	800.000	-0.020	-0.058
-399.194	45.127	0.226	0.207
-398.179	20.578	-0.061	-0.049
-397.165	400.389	-0.027	0.056
-396.150	800.000	-0.127	-0.478
-395.136	-39.799	-0.188	-0.098
-394.121	-185.098	-0.246	-0.004
-393.106	-200.000	0.009	-0.130
-392.092	123.383	0.219	-0.272
-391.077	-200.000	0.033	-0.154
-390.063	-58.211	-0.318	-0.138
-389.048	800.000	-0.072	0.247
-388.033	-200.000	0.003	-0.426
-387.019	-99.137	0.327	-0.082
-386.004	-42.069	0.127	0.065
-384.990	23.342	-0.339	-0.276
-383.975	5.763	0.203	0.149
-382.960	-61.376	-0.230	0.096
-381.946	-200.000	-0.042	0.266
-380.931	274.436	-0.084	0.148
-379.917	-8.218	-0.177	0.118
-378.902	800.000	0.020	-0.069
-377.888	800.000	-0.111	-0.365
-376.873	63.423	0.071	-0.070
-375.858	-200.000	-0.046	0.230
-374.844	683.811	0.063	0.162
-373.829	257.710	-0.089	-0.152
-372.815	-200.000	-0.000	0.427
-371.800	-10.585	-0.282	0.185
-370.785	-200.000	0.009	0.211
-369.771	91.396	-0.353	-0.394
-368.756	-144.503	-0.313	-0.029
-367.742	800.000	0.072	0.201
-366.727	143.278	0.244	-0.323
-365.712	205.867	0.095	-0.147
-364.698	171.150	-0.135	0.192
-363.683	800.000	-0.033	0.139
-362.669	-47.466	-0.282	-0.136
-361.654	92.981	-0.131	0.147
-360.639	-200.000	-0.022	-0.204
-359.625	-18.450	0.329	-0.204
-358.610	-126.470	-0.149	0.022
-357.596	-200.000	0.027	-0.120
-356.581	-11.450	-0.349	-0.228
-355.566	-48.980	-0.525	-0.249
-354.552	800.000	-0.051	-0.207
-353.537	93.446	0.085	0.096
-352.523	88.961	0.053	-0.058
-351.508	-52.025	0.298	-0.137
-350.493	21.486	-0.142	0.114
-349.479	-200.000	0.012	0.228
-348.464	-30.387	-0.229	0.129
-347.450	459.312	-0.078	0.173
-346.435	-200.000	0.014	-0.100
-345.420	-112.700	-0.225	0.044
-344.406	226.755	0.057	-0.092
-343.391	-200.000	-0.014	-0.116
-342.377	76.782	0.167	-0.175
-341.362	154.549	0.072	-0.098
-340.348	60.797	-0.258	0.253
-339.333	-2.680	0.213	-0.148
-338.318	-91.611	-0.131	-0.037
-337.304	416.828	-0.089	0.188
-336.289	-151.627	-0.386	-0.028
-335.275	120.657	0.358	0.441
-334.260	-86.533	0.247	-0.075
-333.245	499.600	0.037	0.085
-332.231	-200.000	0.005	-0.184
-331.216	-200.000	0.008	-0.086
-330.202	-146.114	0.346	-0.030
-329.187	758.545	0.033	-0.090
-328.172	66.070	-0.254	-0.255
-327.158	743.589	0.106	-0.282
-326.143	-73.005	0.279	0.102
-325.129	-77.999	-0.088	0.030
-324.114	556.412	-0.087	-0.209
-323.099	-50.178	-0.089	-0.042
-322.085	698.620	0.051	-0.133
-321.070	-86.113	0.192	0.059
-320.056	64.532	-0.188	-0.188
-319.041	137.448	-0.378	-0.489
-318.026	735.487	0.099	-0.262
-317.012	-191.841	0.142	0.001
-315.997	-152.863	0.111	-0.008
-314.983	226.839	0.056	0.089
-313.968	40.881	0.317	-0.283
-312.953	-74.782	0.186	-0.066
-311.939	800.000	0.060	0.205
-310.924	-159.383	0.214	-0.012
-309.910	-182.032	0.115	0.002
-308.895	800.000	0.136	0.547
-307.880	-150.735	0.163	-0.012
-306.866	223.650	0.045	-0.073
-305.851	-157.930	-0.205	0.012
-304.837	251.807	0.104	0.176
-303.822	51.185	0.073	-0.069
-302.807	-72.094	0.072	0.027
-301.793	219.010	-0.087	0.137
-300.778	52.287	-0.171	-0.161
-299.764	2.526	0.239	0.171
-298.749	-112.557	0.230	0.045
-297.735	-200.000	0.020	-0.184
-296.720	-177.620	0.354	0.009
-295.705	800.000	0.034	0.097
-294.691	68.997	-0.252	0.256
-293.676	169.533	-0.179	0.252
-292.662	-74.500	-0.064	0.023
-291.647	-200.000	0.003	-0.173
-290.632	32.807	-0.104	0.089
-289.618	48.255	-0.077	0.071
-288.603	-52.167	0.267	-0.122
-287.589	0.280	0.192	0.136
-286.574	418.087	-0.173	0.365
-285.559	38.727	0.182	-0.161
-284.545	29.207	0.048	0.040
-283.530	-103.528	-0.112	-0.026
-282.516	211.572	-0.176	0.274
-281.501	190.050	-0.099	-0.147
-280.486	-200.000	0.009	-0.430
-279.472	71.568	0.149	-0.153
-278.457	-31.243	-0.245	0.137
-277.443	135.106	-0.022	0.028
-276.428	-2.317	-0.154	0.106
-275.413	800.000	0.120	0.495
-274.399	138.333	-0.079	0.102
-273.384	800.000	0.076	-0.230
-272.370	800.000	0.030	-0.093
-271.355	160.011	-0.149	-0.206
-270.340	-200.000	0.028	0.171
-269.326	-88.515	-0.190	0.056
-268.311	-11.558	0.195	-0.127
-267.297	-182.325	-0.190	-0.003
-266.282	-89.558	0.126	-0.036
-265.267	313.787	-0.093	0.173
-264.253	-168.526	-0.040	0.002
-263.238	198.220	0.034	0.052
-262.224	-80.332	-0.224	-0.074
-261.209	242.202	0.015	-0.025
-260.195	90.008	0.134	-0.148
-259.180	-14.057	-0.295	-0.188
-258.165	175.442	0.228	-0.327
-257.151	-65.703	-0.280	0.111
-256.136	-200.000	-0.015	-0.347
-255.122	-87.182	0.233	0.070
-254.107	299.750	-0.104	-0.189
-253.092	203.987	0.135	0.206
-252.078	95.206	0.186	-0.210
-251.063	-184.953	0.319	0.005
-250.049	-148.739	-0.288	-0.023
-249.034	-118.331	-0.129	-0.023
-248.019	-35.128	-0.125	-0.067
-247.005	-7.106	-0.064	0.043
-245.990	-8.508	0.158	-0.105
-244.976	30.941	0.151	0.128
-243.961	-32.692	0.017	0.010
-242.946	-200.000	-0.070	0.392
-241.932	-138.919	0.260	-0.028
-240.917	-65.793	-0.124	0.049
-239.903	-30.815	0.071	0.040
-238.888	-54.446	0.251	0.112
-237.873	800.000	-0.015	-0.055
-236.859	-20.789	-0.176	-0.107
-235.844	-86.004	-0.192	-0.058
-234.830	-94.827	-0.257	0.069
-233.815	-63.178	0.114	0.046
-232.800	-200.000	0.012	-0.356
-231.786	38.164	0.116	0.102
-230.771	-55.134	0.146	0.065
-229.757	55.800	-0.307	0.294
-228.742	263.874	0.091	-0.156
-227.727	75.049	-0.258	0.268
-226.713	29.970	0.091	0.076
-225.698	28.348	-0.215	-0.179
-224.684	-97.326	0.156	0.040
-223.669	103.233	0.193	0.223
-222.655	-58.793	-0.245	-0.104
-221.640	-200.000	0.030	0.207
-220.625	-187.482	0.119	0.002
-219.611	-54.566	-0.169	0.075
-218.596	175.385	-0.098	0.140
-217.582	196.535	-0.141	0.212
-216.567	6.409	-0.099	0.072
-215.552	-4.861	-0.089	-0.061
-214.538	-59.234	-0.103	0.044
-213.523	-200.000	0.015	-0.185
-212.509	101.628	0.219	-0.251
-211.494	-161.679	0.370	-0.019
-210.479	137.725	-0.225	0.291
-209.465	230.259	-0.089	-0.144
-208.450	-200.000	-0.008	-0.133
-207.436	-22.945	-0.163	0.097
-206.421	113.609	-0.091	-0.108
-205.406	144.337	-0.163	-0.214
-204.392	-121.993	-0.224	0.036
-203.377	-167.276	-0.260	-0.010
-202.363	-104.098	0.138	0.032
-201.348	307.037	-0.065	-0.120
-200.333	322.666	-0.069	-0.129
-199.319	-200.000	-0.008	0.079
-198.304	-200.000	-0.024	0.220
-197.290	188.996	-0.171	-0.253
-196.275	-101.114	0.075	0.018
-195.260	-41.541	0.321	0.163
-194.246	67.847	-0.231	-0.233
-193.231	-21.618	-0.089	0.053
-192.217	-88.033	-0.219	-0.065
-191.202	800.000	0.008	0.032
-190.187	134.577	-0.106	0.136
-189.173	-8.074	0.278	0.184
-188.158	129.812	-0.010	-0.013
-187.144	123.733	-0.149	0.184
-186.129	800.000	0.099	0.293
-185.114	-75.611	0.208	0.073
-184.100	-12.245	-0.221	-0.143
-183.085	308.268	-0.159	0.291
-182.071	226.107	0.059	0.094
-181.056	-136.573	0.253	0.029
-180.042	429.504	-0.029	0.061
-179.027	-21.015	0.112	0.067
-178.012	-155.473	0.400	0.025
-176.998	-10.718	-0.263	0.171
-175.983	-64.772	-0.435	0.173
-174.969	7.267	0.200	0.147
-173.954	380.606	0.102	-0.205
-172.939	-185.555	0.037	-0.001
-171.925	39.183	-0.264	0.233
-170.910	46.723	-0.042	-0.038
-169.896	87.021	-0.208	-0.226
-168.881	800.000	0.046	-0.138
-167.866	800.000	0.038	-0.149
-166.852	292.382	0.072	0.130
-165.837	-51.022	-0.127	-0.059
-164.823	126.176	0.066	0.083
-163.808	-75.242	0.156	-0.055
-162.793	510.704	0.111	0.254
-161.779	32.494	0.060	0.051
-160.764	-191.781	-0.158	0.002
-159.750	-126.500	0.170	0.025
-158.735	345.942	0.135	-0.262
-157.720	-42.572	0.306	-0.153
-156.706	103.177	0.066	0.076
-155.691	464.366	-0.075	-0.166
-154.677	-81.727	0.231	0.074
-153.662	211.764	0.171	-0.265
-152.647	-84.664	0.091	0.028
-151.633	61.565	0.071	-0.069
-150.618	-22.976	-0.270	-0.160
-149.604	28.284	-0.058	-0.049
-148.589	-200.000	-0.184	-0.001
-147.574	-9.305	0.178	-0.117
-146.560	351.472	0.121	-0.235
-145.545	-200.000	0.024	-0.289
-144.531	-200.000	-0.039	0.254
-143.516	57.092	-0.365	0.350
-142.502	21.622	-0.296	0.237
-141.487	-153.575	0.486	0.033
-140.472	-3.302	-0.150	0.103
-139.458	10.149	0.273	0.204
-138.443	-5.256	0.181	0.122
-137.429	84.450	-0.168	-0.181
-136.414	106.070	-0.159	-0.185
-135.399	-42.677	0.161	-0.080
-134.385	50.173	0.188	-0.175
-133.370	617.657	0.056	-0.137
-132.356	-121.865	0.169	-0.027
-131.341	-32.199	0.328	0.180
-130.326	230.544	0.118	0.189
-129.312	277.133	-0.008	0.014
-128.297	46.510	0.262	-0.239
-127.283	41.384	-0.134	-0.120
-126.268	105.628	0.176	-0.205
-125.253	800.000	0.013	-0.045
-124.239	116.004	-0.202	0.243
-123.224	-99.603	0.077	-0.019
-122.210	138.756	-0.170	-0.219
-121.195	-93.337	-0.229	0.062
-120.180	-9.079	-0.188	-0.124
