DTS Sentinel unit serial number:	SN413079Multiplexer serial number:	ORYXHardware model number:	OX4-SRSoftware version number:	ORYX F/W v4.00 Oryx Data Collector v3.7.2.0data status	okinstallation	princeton_trtdifferential loss correction	single-endedforward channel	channel 1reverse channel	N/Adate	2019/09/17time	07:34:35forward acquisition time	60.00reverse acquisition time	0.00gamma	496.2192k internal	0.2332k external	0.2332temperature offset calibration	0.9967default loss term (dB/km)	0.3790temperature slope calibration	1.0000multiplexer offset coefficient	1.0000multiplexer slope coefficient	1.0000fibre end	0.00T internal ref (°C)	27.19T ext. ref 1 (°C)	0.12T ext. ref 2 (°C)	21.81length (m)	temperature (°C)	Stokes	anti-Stokes-747.200	-121.783	0.084	-0.014
-746.185	800.000	-0.043	0.151
-745.171	800.000	-0.119	-0.368
-744.156	800.000	0.072	0.306
-743.142	-83.178	0.170	0.055
-742.127	-95.623	-0.401	0.108
-741.112	800.000	0.125	-0.458
-740.098	-46.767	-0.112	-0.055
-739.083	800.000	0.010	-0.036
-738.069	-200.000	-0.004	0.094
-737.054	-55.222	0.345	-0.156
-736.039	45.832	-0.181	-0.168
-735.025	6.035	0.194	0.145
-734.010	638.337	-0.043	-0.109
-732.996	30.606	-0.354	-0.305
-731.981	57.697	-0.214	-0.210
-730.966	17.876	-0.082	-0.065
-729.952	800.000	-0.041	-0.152
-728.937	800.000	0.092	-0.378
-727.923	-51.252	-0.139	-0.065
-726.908	-10.220	0.411	-0.274
-725.894	800.000	0.020	-0.079
-724.879	-200.000	-0.009	-0.101
-723.864	800.000	0.096	0.373
-722.850	-178.676	-0.038	0.001
-721.835	800.000	0.033	-0.115
-720.821	502.459	-0.202	-0.468
-719.806	-200.000	0.024	0.210
-718.791	54.426	-0.209	0.202
-717.777	24.617	0.232	0.193
-716.762	-200.000	-0.020	-0.222
-715.748	141.232	-0.194	-0.258
-714.733	-200.000	-0.014	-0.089
-713.718	190.836	0.064	0.097
-712.704	115.154	0.119	0.146
-711.689	-103.937	0.201	-0.047
-710.675	69.876	-0.182	0.188
-709.660	1.557	-0.023	0.016
-708.645	-200.000	-0.006	0.054
-707.631	800.000	0.184	-0.564
-706.616	-110.745	-0.179	-0.037
-705.602	-98.908	-0.120	0.031
-704.587	-109.510	-0.323	-0.069
-703.572	187.354	-0.113	-0.169
-702.558	-200.000	-0.050	0.282
-701.543	800.000	-0.077	0.254
-700.529	-135.585	-0.320	0.038
-699.514	-200.000	-0.072	0.359
-698.499	96.560	0.129	0.149
-697.485	-89.968	-0.265	-0.078
-696.470	-92.533	-0.260	0.073
-695.456	-101.101	-0.168	0.041
-694.441	-60.448	0.137	-0.059
-693.426	800.000	0.097	-0.300
-692.412	10.427	0.092	-0.071
-691.397	227.395	0.038	-0.062
-690.383	66.905	0.197	-0.202
-689.368	800.000	-0.149	-0.412
-688.354	800.000	0.022	-0.074
-687.339	-200.000	0.019	-0.230
-686.324	66.431	0.153	-0.156
-685.310	800.000	-0.065	-0.253
-684.295	-157.605	-0.310	-0.019
-683.281	-200.000	0.021	0.287
-682.266	-74.049	0.197	0.072
-681.251	-200.000	0.027	-0.425
-680.237	192.638	-0.041	-0.062
-679.222	-153.787	-0.146	0.010
-678.208	800.000	-0.067	-0.200
-677.193	138.667	0.069	-0.091
-676.178	-200.000	-0.022	0.426
-675.164	-121.564	0.188	0.031
-674.149	-28.867	-0.150	0.087
-673.135	-200.000	-0.042	-0.467
-672.120	-90.491	-0.223	0.065
-671.105	-136.272	0.200	-0.023
-670.091	-123.005	-0.155	0.025
-669.076	800.000	-0.117	0.504
-668.062	-200.000	-0.031	-0.164
-667.047	-59.755	0.199	-0.086
-666.032	631.711	-0.012	-0.030
-665.018	-48.847	-0.253	-0.121
-664.003	204.382	0.016	0.024
-662.989	-57.500	-0.335	0.148
-661.974	-83.616	0.093	-0.030
-660.959	-5.689	0.405	-0.279
-659.945	367.971	-0.130	-0.263
-658.930	333.136	0.035	0.067
-657.916	7.435	0.048	-0.036
-656.901	-200.000	0.030	0.345
-655.886	-123.346	0.262	0.042
-654.872	-200.000	-0.000	-0.144
-653.857	-196.564	0.444	-0.003
-652.843	-52.632	-0.131	0.061
-651.828	800.000	0.076	-0.284
-650.814	30.706	-0.088	-0.075
-649.799	-66.060	0.162	-0.065
-648.784	331.437	0.096	-0.186
-647.770	-41.483	-0.226	-0.116
-646.755	169.452	-0.103	0.147
-645.741	731.554	0.020	0.054
-644.726	-200.000	-0.057	0.575
-643.711	-71.672	0.083	-0.031
-642.697	-200.000	0.027	-0.207
-641.682	-91.152	-0.281	-0.081
-640.668	142.942	0.210	-0.279
-639.653	47.884	-0.090	0.084
-638.638	800.000	0.101	-0.406
-637.624	-86.471	0.073	0.022
-636.609	-31.449	0.146	0.082
-635.595	34.978	0.156	-0.137
-634.580	-95.791	-0.224	-0.060
-633.565	-6.898	0.322	-0.219
-632.551	21.720	0.230	-0.187
-631.536	105.325	-0.172	-0.203
-630.522	-200.000	-0.006	0.045
-629.507	-200.000	0.037	-0.326
-628.492	-121.391	0.198	-0.033
-627.478	-200.000	-0.009	0.128
-626.463	171.587	0.096	0.138
-625.449	-80.641	-0.155	-0.052
-624.434	65.077	-0.075	-0.076
-623.419	-52.271	-0.083	-0.039
-622.405	-161.888	0.268	0.014
-621.390	-200.000	0.062	-0.288
-620.376	127.070	-0.098	0.124
-619.361	98.079	-0.109	-0.125
-618.346	-53.162	-0.197	-0.090
-617.332	8.397	0.149	0.112
-616.317	-61.438	0.187	0.079
-615.303	-135.232	0.194	-0.023
-614.288	800.000	0.069	0.198
-613.273	-20.827	-0.275	0.168
-612.259	318.996	-0.209	0.396
-611.244	-200.000	0.022	0.273
-610.230	-80.282	-0.032	-0.011
-609.215	33.959	0.199	0.174
-608.201	-113.542	-0.296	-0.058
-607.186	554.650	-0.040	0.095
-606.171	10.572	-0.066	0.051
-605.157	22.835	-0.262	-0.215
-604.142	19.485	-0.100	0.081
-603.128	-64.324	-0.372	0.152
-602.113	-32.459	-0.091	0.051
-601.098	9.026	0.206	-0.156
-600.084	-45.560	-0.201	-0.100
-599.069	-8.232	0.049	0.033
-598.055	145.413	0.035	-0.047
-597.040	-200.000	0.046	0.217
-596.025	37.259	-0.125	0.111
-595.011	79.561	0.115	-0.123
-593.996	-23.909	0.175	0.105
-592.982	-62.246	-0.221	-0.092
-591.967	165.529	0.113	-0.159
-590.952	236.163	-0.087	0.144
-589.938	-124.521	0.146	-0.023
-588.923	800.000	0.093	0.306
-587.909	-200.000	-0.029	-0.222
-586.894	-190.633	-0.151	0.002
-585.879	384.408	0.076	-0.156
-584.865	-130.807	-0.291	0.039
-583.850	-59.427	0.279	0.120
-582.836	-190.076	-0.162	-0.002
-581.821	76.901	-0.080	0.085
-580.806	-58.778	-0.165	0.072
-579.792	131.854	-0.205	0.264
-578.777	-31.453	-0.128	0.072
-577.763	79.521	-0.097	0.104
-576.748	-200.000	0.118	-0.604
-575.733	-93.934	-0.151	0.042
-574.719	11.192	0.039	-0.030
-573.704	112.371	-0.056	0.068
-572.690	142.762	0.012	-0.015
-571.675	6.761	-0.171	-0.127
-570.661	-142.075	0.232	-0.023
-569.646	-200.000	-0.001	0.069
-568.631	800.000	-0.115	-0.325
-567.617	-62.220	0.241	0.101
-566.602	-7.004	0.348	0.236
-565.588	338.357	0.108	0.211
-564.573	91.743	-0.259	0.291
-563.558	-123.240	-0.119	-0.019
-562.544	-14.203	0.108	0.070
-561.529	-110.019	0.398	0.083
-560.515	213.645	-0.222	-0.350
-559.500	-44.082	0.169	0.085
-558.485	-200.000	0.053	0.291
-557.471	-162.250	0.198	-0.010
-556.456	174.808	-0.037	0.053
-555.442	-200.000	0.058	-0.265
-554.427	-176.262	0.046	-0.001
-553.412	123.599	-0.252	-0.316
-552.398	14.049	0.299	0.232
-551.383	-92.917	-0.168	-0.047
-550.369	800.000	0.098	0.273
-549.354	240.119	-0.087	-0.144
-548.339	-1.920	0.345	-0.242
-547.325	10.110	-0.092	0.070
-546.310	-200.000	0.035	0.276
-545.296	-200.000	0.015	-0.083
-544.281	228.247	-0.079	0.129
-543.266	-51.500	-0.335	-0.156
-542.252	-189.336	0.163	0.002
-541.237	14.504	0.267	-0.208
-540.223	250.380	0.057	0.097
-539.208	236.012	-0.120	-0.199
-538.193	13.257	0.066	0.051
-537.179	5.645	0.151	-0.111
-536.164	320.213	-0.137	-0.259
-535.150	800.000	0.025	0.072
-534.135	-80.915	-0.120	0.040
-533.121	-116.217	0.262	-0.049
-532.106	800.000	-0.038	-0.133
-531.091	-200.000	0.005	0.266
-530.077	-200.000	0.010	0.049
-529.062	9.609	-0.263	0.199
-528.048	-200.000	0.041	-0.306
-527.033	208.226	-0.106	-0.165
-526.018	-200.000	0.035	0.396
-525.004	140.438	-0.038	-0.049
-523.989	-123.021	-0.238	-0.038
-522.975	-24.750	0.310	0.184
-521.960	800.000	0.025	0.102
-520.945	-200.000	-0.047	0.254
-519.931	57.294	-0.077	0.075
-518.916	-200.000	-0.018	-0.160
-517.902	161.368	0.130	0.181
-516.887	-45.177	0.241	0.119
-515.872	210.460	-0.183	0.286
-514.858	189.371	-0.008	-0.011
-513.843	-75.017	0.404	-0.144
-512.829	-52.490	0.292	0.135
-511.814	166.136	0.068	-0.096
-510.799	-38.682	-0.117	-0.062
-509.785	-200.000	-0.012	0.114
-508.770	-12.039	-0.168	0.110
-507.756	-45.707	-0.144	0.071
-506.741	459.617	-0.049	-0.108
-505.726	-92.037	-0.430	-0.121
-504.712	-84.739	-0.149	-0.047
-503.697	-110.135	-0.272	0.057
-502.683	219.114	0.131	0.209
-501.668	-200.000	0.005	0.069
-500.653	800.000	-0.109	-0.450
-499.639	-200.000	0.040	-0.352
-498.624	-60.780	0.229	0.097
-497.610	472.919	-0.058	-0.131
-496.595	-84.106	-0.120	-0.038
-495.581	-109.481	-0.085	-0.018
-494.566	-52.431	0.136	-0.063
-493.551	346.916	0.083	0.164
-492.537	-70.707	0.450	-0.169
-491.522	-73.224	0.279	0.102
-490.508	-43.575	-0.068	-0.034
-489.493	-91.519	-0.276	-0.078
-488.478	112.755	0.115	0.139
-487.464	-150.669	0.272	-0.021
-486.449	13.576	0.052	-0.040
-485.435	191.229	0.218	-0.326
-484.420	800.000	0.028	-0.082
-483.405	232.869	0.009	0.015
-482.391	452.770	-0.121	-0.267
-481.376	-200.000	0.050	-0.370
-480.362	-57.362	-0.229	-0.100
-479.347	800.000	-0.031	0.107
-478.332	-82.653	-0.309	0.100
-477.318	-200.000	-0.041	-0.198
-476.303	-200.000	0.021	-0.170
-475.289	115.353	-0.191	-0.233
-474.274	172.108	-0.060	-0.086
-473.259	-160.534	0.324	0.017
-472.245	71.358	0.063	0.065
-471.230	182.466	-0.276	0.405
-470.216	-22.450	0.207	-0.125
-469.201	506.352	0.087	0.200
-468.186	162.636	0.157	-0.219
-467.172	62.865	-0.134	0.133
-466.157	155.583	-0.087	0.120
-465.143	52.845	0.253	0.241
-464.128	112.342	-0.069	-0.083
-463.113	-200.000	-0.052	0.232
-462.099	34.609	-0.206	-0.179
-461.084	-111.064	0.043	0.009
-460.070	21.482	0.164	-0.133
-459.055	296.783	0.084	-0.153
-458.040	42.852	-0.224	-0.203
-457.026	-200.000	-0.039	-0.228
-456.011	-75.859	0.399	-0.141
-454.997	800.000	0.084	-0.291
-453.982	24.240	-0.303	0.249
-452.968	-200.000	0.044	-0.192
-451.953	800.000	-0.147	0.404
-450.938	-37.549	-0.059	0.031
-449.924	800.000	-0.081	-0.280
-448.909	-36.985	0.307	0.164
-447.895	-200.000	-0.043	0.197
-446.880	38.238	-0.191	-0.169
-445.865	-89.608	-0.253	-0.074
-444.851	-56.160	-0.227	-0.100
-443.836	676.761	0.072	0.186
-442.822	34.591	-0.271	0.236
-441.807	448.717	0.035	0.076
-440.792	149.128	0.067	0.090
-439.778	-200.000	-0.076	-0.390
-438.763	28.893	0.239	-0.201
-437.749	-125.045	0.199	-0.030
-436.734	367.692	-0.199	0.400
-435.719	17.745	-0.176	0.139
-434.705	120.886	-0.284	0.351
-433.690	-59.919	0.349	0.148
-432.676	-98.021	0.214	-0.055
-431.661	800.000	0.051	0.154
-430.646	688.558	0.069	-0.179
-429.632	324.212	-0.102	-0.194
-428.617	-200.000	-0.052	-0.249
-427.603	27.694	0.214	0.179
-426.588	-94.462	0.036	-0.010
-425.573	7.126	-0.158	0.117
-424.559	223.424	-0.065	-0.105
-423.544	-16.498	-0.135	-0.085
-422.530	302.536	-0.030	-0.056
-421.515	-200.000	-0.009	0.066
-420.500	110.644	0.139	-0.166
-419.486	-200.000	-0.022	0.278
-418.471	-6.750	0.172	-0.117
-417.457	-200.000	0.003	-0.273
-416.442	366.937	0.141	-0.282
-415.428	-65.269	-0.157	0.063
-414.413	51.221	0.024	-0.023
-413.398	41.487	0.081	-0.073
-412.384	-60.073	0.037	0.016
-411.369	798.106	-0.058	-0.158
-410.355	90.146	-0.073	0.081
-409.340	-15.404	-0.196	0.125
-408.325	-164.658	-0.093	-0.004
-407.311	248.384	0.018	-0.030
-406.296	-200.000	0.016	0.126
-405.282	104.066	0.043	-0.051
-404.267	800.000	0.107	-0.304
-403.252	800.000	0.054	-0.181
-402.238	314.825	0.259	-0.484
-401.223	-188.245	0.136	0.002
-400.209	-30.645	-0.242	0.136
-399.194	-200.000	0.052	0.244
-398.179	-69.493	-0.115	0.044
-397.165	-200.000	0.066	-0.541
-396.150	-72.448	0.134	-0.049
-395.136	-178.293	0.610	-0.014
-394.121	274.118	0.053	0.093
-393.106	32.459	0.428	-0.367
-392.092	137.189	-0.236	-0.306
-391.077	-88.316	-0.058	-0.017
-390.063	518.209	-0.088	0.204
-389.048	800.000	0.034	0.098
-388.033	-200.000	0.052	-0.262
-387.019	-130.111	0.232	0.031
-386.004	-200.000	0.020	-0.093
-384.990	-83.920	-0.202	0.064
-383.975	-85.730	-0.180	0.056
-382.960	153.439	-0.117	-0.158
-381.946	15.521	0.237	-0.185
-380.931	81.094	-0.040	-0.043
-379.917	-7.527	-0.115	-0.077
-378.902	507.585	-0.084	0.193
-377.888	-88.378	-0.106	-0.031
-376.873	418.256	0.038	0.080
-375.858	177.738	-0.145	0.209
-374.844	70.595	-0.248	0.254
-373.829	-47.617	-0.141	-0.068
-372.815	-200.000	-0.048	0.375
-371.800	309.018	-0.210	-0.388
-370.785	383.857	-0.074	0.151
-369.771	-85.179	0.110	0.034
-368.756	201.018	-0.098	0.150
-367.742	-200.000	0.036	0.340
-366.727	-22.891	-0.154	-0.092
-365.712	179.687	0.147	0.214
-364.698	59.903	-0.098	0.096
-363.683	230.921	-0.099	-0.160
-362.669	-27.606	0.157	0.090
-361.654	-38.732	-0.200	-0.104
-360.639	91.222	-0.211	0.235
-359.625	800.000	-0.103	0.294
-358.610	-200.000	-0.042	-0.215
-357.596	800.000	-0.032	0.121
-356.581	597.633	-0.114	-0.279
-355.566	258.686	0.192	-0.327
-354.552	-25.328	0.311	-0.182
-353.537	-116.917	0.218	-0.040
-352.523	-200.000	0.021	-0.124
-351.508	46.687	-0.070	0.064
-350.493	230.938	-0.030	-0.049
-349.479	35.679	-0.213	-0.185
-348.464	203.977	0.112	-0.172
-347.450	-200.000	0.009	-0.062
-346.435	800.000	0.092	0.340
-345.420	446.217	0.087	-0.190
-344.406	260.886	0.137	-0.234
-343.391	800.000	-0.017	-0.072
-342.377	-200.000	0.040	0.229
-341.362	-20.570	-0.123	-0.075
-340.348	-200.000	-0.001	0.094
-339.333	-138.394	0.185	0.020
-338.318	-92.984	0.255	0.070
-337.304	308.086	0.197	-0.363
-336.289	86.300	-0.083	-0.091
-335.275	-142.481	0.201	0.020
-334.260	-200.000	-0.004	-0.280
-333.245	303.202	0.078	0.143
-332.231	-52.564	0.310	-0.142
-331.216	-200.000	0.031	-0.271
-330.202	-117.808	-0.074	-0.013
-329.187	-48.266	-0.286	0.137
-328.172	-92.002	-0.152	0.043
-327.158	-50.316	0.217	-0.102
-326.143	344.761	-0.126	-0.244
-325.129	3.386	0.168	-0.121
-324.114	-128.142	-0.291	0.041
-323.099	-200.000	0.002	-0.047
-322.085	485.698	-0.006	0.013
-321.070	-92.476	-0.450	0.125
-320.056	-200.000	-0.006	0.240
-319.041	268.657	-0.041	0.071
-318.026	-200.000	-0.029	-0.313
-317.012	10.761	-0.013	-0.010
-315.997	-76.851	0.370	0.128
-314.983	36.805	0.027	0.023
-313.968	20.804	0.355	-0.284
-312.953	307.191	-0.091	0.168
-311.939	187.015	-0.065	0.096
-310.924	21.959	0.068	-0.055
-309.910	-104.787	-0.249	0.057
-308.895	22.341	-0.069	-0.056
-307.880	-87.429	-0.166	-0.050
-306.866	-128.376	-0.105	-0.015
-305.851	-70.933	-0.325	0.121
-304.837	100.277	0.259	0.297
-303.822	-200.000	0.008	0.151
-302.807	13.611	-0.202	-0.155
-301.793	-87.495	-0.129	-0.039
-300.778	149.318	-0.175	0.234
-299.764	85.869	0.149	-0.162
-298.749	800.000	0.038	-0.158
-297.735	800.000	-0.018	-0.067
-296.720	76.061	0.127	0.133
-295.705	-171.243	0.279	0.009
-294.691	117.886	-0.152	-0.185
-293.676	341.514	0.108	-0.209
-292.662	-21.055	-0.035	-0.021
-291.647	60.296	-0.268	0.262
-290.632	-200.000	0.009	0.222
-289.618	-6.709	0.130	-0.087
-288.603	-133.187	0.728	-0.091
-287.589	-40.952	-0.233	-0.119
-286.574	-200.000	-0.001	-0.043
-285.559	-200.000	0.007	-0.074
-284.545	-90.596	0.379	0.108
-283.530	-136.328	-0.172	0.020
-282.516	-70.670	-0.087	0.032
-281.501	-29.640	-0.239	-0.135
-280.486	-45.817	0.193	-0.094
-279.472	-80.026	-0.165	-0.055
-278.457	-105.028	0.179	-0.041
-277.443	153.254	0.282	-0.381
-276.428	-52.349	0.224	0.103
-275.413	217.758	0.259	-0.407
-274.399	-84.468	-0.107	0.033
-273.384	-14.611	0.284	0.181
-272.370	800.000	-0.021	0.064
-271.355	-200.000	0.022	0.135
-270.340	-200.000	0.056	0.493
-269.326	228.100	-0.104	0.168
-268.311	-200.000	0.021	0.347
-267.297	-200.000	0.011	0.195
-266.282	-164.787	0.053	0.002
-265.267	-107.161	0.135	0.029
-264.253	800.000	0.068	0.250
-263.238	166.404	0.111	0.155
-262.224	800.000	-0.100	-0.354
-261.209	800.000	-0.085	0.310
-260.195	15.891	0.367	0.285
-259.180	-93.599	-0.214	-0.058
-258.165	-200.000	0.010	0.278
-257.151	22.369	-0.069	0.056
-256.136	-200.000	0.029	-0.134
-255.122	133.891	-0.324	0.414
-254.107	-200.000	-0.083	0.364
-253.092	-8.865	0.250	0.165
-252.078	22.944	0.240	0.194
-251.063	-195.178	0.250	0.002
-250.049	-200.000	-0.045	-0.213
-249.034	-200.000	-0.011	0.107
-248.019	-138.612	-0.183	0.020
-247.005	444.328	0.027	-0.057
-245.990	61.884	-0.232	-0.228
-244.976	-0.343	-0.418	-0.293
-243.961	205.531	-0.126	0.193
-242.946	-138.595	-0.183	0.020
-241.932	288.628	0.067	0.120
-240.917	57.678	-0.134	-0.129
-239.903	-100.006	0.169	-0.041
-238.888	16.329	-0.219	-0.170
-237.873	800.000	-0.089	0.348
-236.859	-84.873	-0.116	-0.036
-235.844	560.939	0.107	0.255
-234.830	77.206	-0.286	0.300
-233.815	-63.632	0.297	-0.120
-232.800	-41.971	-0.198	0.100
-231.786	-2.226	-0.038	0.026
-230.771	-48.024	0.203	-0.097
-229.757	-89.228	0.204	0.059
-228.742	-175.304	-0.282	-0.008
-227.727	-118.371	-0.273	-0.048
-226.713	800.000	-0.046	0.141
-225.698	-18.924	0.260	-0.159
-224.684	-200.000	-0.011	-0.117
-223.669	-200.000	0.059	-0.276
-222.655	239.000	0.014	0.023
-221.640	73.480	-0.169	0.174
-220.625	37.647	0.303	0.265
-219.611	-72.828	-0.246	-0.089
-218.596	45.909	-0.030	0.028
-217.582	800.000	0.038	-0.142
-216.567	-77.288	0.157	-0.054
-215.552	49.644	-0.078	0.072
-214.538	-154.373	0.093	0.006
-213.523	-200.000	-0.022	-0.264
-212.509	-46.231	-0.099	0.048
-211.494	-200.000	-0.007	0.078
-210.479	-69.550	0.272	-0.103
-209.465	322.159	0.098	-0.183
-208.450	800.000	-0.062	0.187
-207.436	-42.513	-0.403	0.202
-206.421	800.000	-0.051	0.187
-205.406	-133.970	0.355	0.043
-204.392	-99.748	-0.111	-0.027
-203.377	107.053	0.084	-0.098
-202.363	-68.621	-0.227	-0.086
-201.348	8.775	0.038	-0.028
-200.333	313.767	-0.135	-0.250
-199.319	800.000	0.077	0.227
-198.304	-200.000	0.015	-0.173
-197.290	-130.348	-0.240	-0.032
-196.275	-57.831	-0.194	-0.084
-195.260	101.887	0.204	0.234
-194.246	-81.486	-0.372	-0.120
-193.231	356.735	-0.049	0.095
-192.217	-98.229	-0.048	0.012
-191.202	-200.000	0.038	-0.215
-190.187	-200.000	-0.020	-0.197
-189.173	-68.272	-0.148	0.057
-188.158	326.262	0.110	0.208
-187.144	-200.000	0.047	0.286
-186.129	62.947	0.212	0.209
-185.114	-200.000	0.068	-0.443
-184.100	-67.012	0.148	-0.058
-183.085	-96.613	-0.300	0.078
-182.071	-118.396	0.137	-0.024
-181.056	-200.000	0.005	0.197
-180.042	292.316	0.142	0.255
-179.027	197.436	-0.121	-0.182
-178.012	-17.874	0.356	0.220
-176.998	-45.122	-0.352	0.172
-175.983	-164.629	0.152	-0.007
-174.969	-147.773	0.382	0.031
-173.954	56.815	0.128	-0.123
-172.939	-98.157	-0.087	-0.022
-171.925	485.136	0.065	-0.146
-170.910	-173.921	0.132	0.004
-169.896	-200.000	0.016	0.283
-168.881	-109.082	-0.505	0.106
-167.866	-32.877	-0.122	-0.067
-166.852	-7.148	-0.357	-0.238
-165.837	-200.000	-0.017	0.167
-164.823	-50.009	0.223	-0.104
-163.808	-10.256	-0.248	0.162
-162.793	-62.454	-0.233	-0.095
-161.779	-200.000	0.015	-0.267
-160.764	230.706	0.051	0.083
-159.750	225.245	-0.208	0.331
-158.735	45.549	-0.200	0.182
-157.720	201.208	-0.152	0.230
-156.706	800.000	0.045	0.181
-155.691	-106.385	0.224	0.049
-154.677	-115.903	0.207	-0.038
-153.662	-65.215	0.301	0.119
-152.647	0.198	0.202	0.142
-151.633	16.151	-0.050	0.039
-150.618	-200.000	0.010	-0.363
-149.604	-47.918	-0.111	0.053
-148.589	74.841	-0.207	-0.214
-147.574	262.802	0.103	0.176
-146.560	104.942	-0.336	-0.389
-145.545	115.824	0.015	-0.018
-144.531	-200.000	0.050	-0.231
-143.516	84.660	-0.221	-0.238
-142.502	800.000	0.025	-0.074
-141.487	181.220	-0.084	0.121
-140.472	-200.000	0.060	-0.301
-139.458	-83.439	-0.358	0.113
-138.443	-47.090	-0.244	0.117
-137.429	-155.459	0.366	-0.023
-136.414	-106.700	-0.169	0.037
-135.399	82.201	-0.093	-0.099
-134.385	-84.684	0.262	0.081
-133.370	127.297	0.156	0.195
-132.356	169.667	-0.174	0.244
-131.341	800.000	-0.027	-0.100
-130.326	518.913	-0.135	0.311
-129.312	340.669	0.060	-0.116
-128.297	-200.000	-0.062	-0.285
-127.283	244.554	0.173	0.286
-126.268	-140.381	0.194	0.020
-125.253	-99.459	0.364	-0.090
-124.239	-200.000	0.003	-0.024
-123.224	800.000	0.011	-0.046
-122.210	800.000	0.051	-0.196
-121.195	68.132	-0.086	-0.086
