DTS Sentinel unit serial number:	SN413079Multiplexer serial number:	ORYXHardware model number:	OX4-SRSoftware version number:	ORYX F/W v4.00 Oryx Data Collector v3.7.2.0data status	okinstallation	princeton_trtdifferential loss correction	single-endedforward channel	channel 1reverse channel	N/Adate	2019/09/11time	20:00:11forward acquisition time	60.00reverse acquisition time	0.00gamma	496.2192k internal	0.2301k external	0.2301temperature offset calibration	1.0036default loss term (dB/km)	0.3790temperature slope calibration	1.0000multiplexer offset coefficient	1.0000multiplexer slope coefficient	1.0000fibre end	0.00T internal ref (°C)	38.81T ext. ref 1 (°C)	1.39T ext. ref 2 (°C)	31.98length (m)	temperature (°C)	Stokes	anti-Stokes-747.200	-140.931	-0.145	0.015
-746.185	-84.365	0.232	0.075
-745.171	-99.192	-0.521	-0.134
-744.156	3.246	-0.162	0.120
-743.142	-200.000	-0.276	0.000
-742.127	800.000	-0.059	0.215
-741.112	38.346	-0.106	-0.097
-740.098	-200.000	-0.095	0.508
-739.083	-164.582	-0.165	0.008
-738.069	-77.589	-0.149	-0.052
-737.054	480.956	0.085	-0.196
-736.039	213.956	-0.141	0.227
-735.025	75.102	0.195	0.210
-734.010	-146.535	-0.115	-0.010
-732.996	-127.251	-0.435	-0.065
-731.981	687.665	0.056	-0.149
-730.966	-29.970	-0.282	-0.164
-729.952	23.174	0.105	-0.088
-728.937	109.961	0.173	0.212
-727.923	150.846	-0.093	-0.128
-726.908	459.005	-0.133	-0.301
-725.894	-200.000	0.017	-0.261
-724.879	-200.000	0.048	-0.273
-723.864	67.603	-0.164	0.170
-722.850	-106.339	0.099	-0.023
-721.835	123.023	0.205	0.262
-720.821	-200.000	-0.051	0.275
-719.806	105.829	0.272	-0.328
-718.791	-200.000	0.042	-0.371
-717.777	-200.000	0.061	-0.295
-716.762	74.775	0.130	-0.139
-715.748	5.329	-0.177	-0.133
-714.733	3.491	0.096	-0.071
-713.718	218.856	0.030	-0.049
-712.704	-118.124	-0.341	-0.062
-711.689	340.966	-0.148	-0.294
-710.675	38.766	0.320	0.291
-709.660	112.794	0.055	-0.068
-708.645	800.000	-0.018	-0.073
-707.631	-200.000	0.068	-0.320
-706.616	-200.000	0.050	0.258
-705.602	66.980	0.193	-0.200
-704.587	33.168	-0.264	0.233
-703.572	266.722	0.132	0.234
-702.558	247.560	0.062	0.107
-701.543	-35.729	-0.151	-0.083
-700.529	86.106	0.083	-0.093
-699.514	-200.000	0.070	-0.348
-698.499	-160.189	-0.203	0.011
-697.485	25.900	0.107	-0.090
-696.470	110.768	0.131	0.161
-695.456	312.422	0.088	-0.169
-694.441	800.000	0.096	0.389
-693.426	-146.089	-0.221	0.020
-692.412	-200.000	-0.006	0.097
-691.397	146.471	0.291	-0.398
-690.383	-19.389	0.126	0.079
-689.368	-71.062	-0.191	0.073
-688.354	800.000	-0.039	0.118
-687.339	-31.902	0.168	-0.096
-686.324	311.532	-0.106	-0.203
-685.310	-29.920	0.050	-0.029
-684.295	-3.991	0.039	0.028
-683.281	558.059	-0.054	-0.132
-682.266	-35.304	0.059	0.032
-681.251	-99.682	-0.157	0.040
-680.237	-200.000	-0.024	-0.193
-679.222	800.000	-0.063	-0.257
-678.208	-200.000	0.017	-0.182
-677.193	-98.683	-0.174	0.045
-676.178	-21.182	0.208	-0.130
-675.164	800.000	-0.069	-0.228
-674.149	-79.238	0.210	-0.072
-673.135	800.000	-0.051	-0.190
-672.120	-16.937	-0.140	-0.090
-671.105	21.568	0.233	-0.192
-670.091	-50.959	0.391	0.187
-669.076	-86.130	0.115	0.036
-668.062	-200.000	-0.101	0.586
-667.047	-200.000	0.025	0.414
-666.032	800.000	0.103	-0.410
-665.018	-200.000	0.022	0.173
-664.003	43.795	0.117	-0.109
-662.989	-200.000	0.012	-0.160
-661.974	-200.000	-0.024	0.164
-660.959	-64.354	0.004	-0.002
-659.945	-200.000	-0.049	-0.444
-658.930	800.000	0.049	-0.145
-657.916	-37.347	-0.251	-0.136
-656.901	-200.000	-0.009	-0.290
-655.886	800.000	0.093	-0.329
-654.872	-200.000	-0.006	-0.139
-653.857	-101.801	0.260	0.064
-652.843	-10.911	-0.180	-0.121
-651.828	456.397	-0.136	-0.306
-650.814	800.000	-0.068	-0.251
-649.799	651.233	0.099	-0.258
-648.784	-128.012	0.262	-0.038
-647.770	288.236	-0.167	0.308
-646.755	268.353	0.302	0.538
-645.741	-122.349	-0.187	-0.031
-644.726	-200.000	-0.005	0.032
-643.711	-200.000	-0.004	0.107
-642.697	-200.000	0.028	0.163
-641.682	17.537	0.063	0.051
-640.668	800.000	0.053	-0.150
-639.653	-123.200	0.163	0.026
-638.638	-12.095	-0.250	0.166
-637.624	-32.946	0.014	0.008
-636.609	157.051	-0.082	0.115
-635.595	39.271	0.349	-0.318
-634.580	-170.056	0.220	-0.008
-633.565	2.133	-0.177	0.130
-632.551	82.134	0.048	0.052
-631.536	-200.000	0.036	0.252
-630.522	709.103	0.083	0.222
-629.507	-69.241	-0.391	0.153
-628.492	-93.385	0.228	0.064
-627.478	108.981	-0.105	-0.127
-626.463	-168.548	0.439	-0.017
-625.449	424.696	0.147	-0.322
-624.434	-200.000	-0.056	-0.255
-623.419	363.328	-0.131	0.266
-622.405	-68.286	0.088	-0.035
-621.390	-73.389	0.210	0.078
-620.376	-200.000	-0.042	-0.437
-619.361	75.756	-0.170	0.182
-618.346	53.177	-0.238	-0.231
-617.332	96.002	-0.138	-0.160
-616.317	181.021	-0.155	-0.232
-615.303	-43.539	-0.173	0.089
-614.288	27.409	0.273	0.233
-613.273	134.909	0.031	-0.041
-612.259	-200.000	0.003	0.148
-611.244	-200.000	0.013	0.164
-610.230	369.007	-0.142	-0.292
-609.215	-200.000	-0.025	0.113
-608.201	478.011	0.004	-0.010
-607.186	800.000	0.062	-0.199
-606.171	-142.192	-0.262	-0.026
-605.157	-107.184	-0.229	-0.051
-604.142	27.002	-0.169	-0.144
-603.128	800.000	-0.037	0.146
-602.113	128.185	-0.135	-0.175
-601.098	26.111	-0.148	0.125
-600.084	-200.000	-0.023	-0.442
-599.069	283.813	-0.158	-0.288
-598.055	-52.432	-0.093	-0.044
-597.040	-123.799	-0.207	-0.033
-596.025	-46.399	-0.130	0.064
-595.011	800.000	-0.062	-0.185
-593.996	17.497	0.152	-0.123
-592.982	-200.000	0.014	0.097
-591.967	511.698	0.094	0.223
-590.952	51.959	-0.030	0.029
-589.938	-200.000	0.003	-0.272
-588.923	366.425	0.073	-0.149
-587.909	-200.000	-0.115	-0.532
-586.894	3.789	0.181	-0.134
-585.879	-200.000	0.007	0.043
-584.865	800.000	-0.041	0.170
-583.850	-159.979	0.170	-0.009
-582.836	-91.732	0.026	-0.007
-581.821	616.894	0.141	0.358
-580.806	-9.549	-0.191	0.129
-579.792	-200.000	-0.022	0.123
-578.777	-135.518	-0.170	0.021
-577.763	-134.856	0.373	-0.046
-576.748	57.855	-0.087	0.086
-575.733	-9.127	-0.285	0.193
-574.719	-34.507	-0.068	-0.038
-573.704	-195.776	-0.050	-0.000
-572.690	3.721	-0.229	0.169
-571.675	462.634	0.064	-0.144
-570.661	22.049	0.167	0.138
-569.646	-13.469	-0.344	0.226
-568.631	-56.979	-0.422	0.188
-567.617	800.000	0.037	-0.108
-566.602	-177.938	0.401	0.010
-565.588	-127.373	0.123	-0.018
-564.573	-200.000	-0.002	-0.171
-563.558	93.236	-0.244	-0.280
-562.544	430.615	-0.234	-0.512
-561.529	-12.918	-0.238	-0.157
-560.515	156.994	-0.246	0.345
-559.500	225.197	0.090	0.147
-558.485	135.109	0.039	0.052
-557.471	196.646	-0.059	0.092
-556.456	800.000	-0.045	0.151
-555.442	-129.968	-0.338	0.047
-554.427	596.339	0.095	0.239
-553.412	24.580	0.131	-0.110
-552.398	-20.564	0.264	-0.164
-551.383	-200.000	0.084	0.448
-550.369	17.639	-0.110	0.088
-549.354	261.093	-0.026	0.046
-548.339	51.689	-0.062	-0.060
-547.325	411.368	-0.103	-0.220
-546.310	249.725	0.118	0.203
-545.296	301.244	0.090	-0.169
-544.281	165.443	0.052	-0.075
-543.266	-150.527	-0.112	0.009
-542.252	293.281	0.073	0.135
-541.237	-192.947	-0.252	-0.002
-540.223	-144.045	0.063	0.006
-539.208	228.996	0.088	-0.145
-538.193	-81.314	-0.293	0.098
-537.179	-162.288	0.172	0.009
-536.164	118.175	-0.138	-0.173
-535.150	432.836	-0.051	-0.112
-534.135	-121.418	0.312	0.053
-533.121	-200.000	0.008	0.280
-532.106	-52.398	0.042	-0.020
-531.091	-170.061	0.110	0.004
-530.077	54.108	0.055	0.054
-529.062	-141.509	0.253	-0.026
-528.048	68.049	0.273	0.282
-527.033	199.347	0.193	0.298
-526.018	800.000	-0.134	0.483
-525.004	-5.172	-0.192	-0.133
-523.989	-83.157	-0.364	-0.118
-522.975	96.561	-0.057	0.066
-521.960	26.198	-0.193	-0.163
-520.945	127.953	-0.147	0.188
-519.931	75.124	0.114	-0.121
-518.916	5.270	-0.178	-0.133
-517.902	-200.000	0.017	0.113
-516.887	800.000	-0.125	0.447
-515.872	-200.000	-0.053	0.348
-514.858	111.499	-0.206	0.251
-513.843	99.917	-0.039	0.046
-512.829	-145.983	0.231	-0.021
-511.814	-67.854	0.330	-0.130
-510.799	88.122	0.109	-0.123
-509.785	654.935	-0.250	0.649
-508.770	-200.000	0.023	-0.325
-507.756	-48.154	0.244	-0.119
-506.741	-104.575	-0.170	-0.040
-505.726	-136.929	0.203	-0.024
-504.712	-200.000	-0.002	0.130
-503.697	-200.000	-0.036	0.371
-502.683	-200.000	-0.023	-0.233
-501.668	627.634	0.023	-0.058
-500.653	167.576	0.064	-0.092
-499.639	-200.000	0.013	-0.142
-498.624	55.103	-0.425	0.415
-497.610	-54.234	-0.346	0.159
-496.595	167.133	-0.110	-0.157
-495.581	-69.264	-0.160	-0.062
-494.566	-125.770	-0.118	-0.018
-493.551	42.692	-0.410	-0.377
-492.537	17.908	-0.118	0.095
-491.522	156.908	-0.087	-0.122
-490.508	-149.605	-0.260	-0.021
-489.493	17.291	0.200	0.160
-488.478	328.614	0.146	0.284
-487.464	-109.796	-0.096	0.020
-486.449	-9.247	-0.221	-0.149
-485.435	-145.774	-0.212	-0.019
-484.420	-200.000	0.017	-0.126
-483.405	-44.673	-0.055	-0.028
-482.391	-40.849	-0.237	-0.124
-481.376	102.601	0.114	0.135
-480.362	-118.421	0.301	0.054
-479.347	-127.144	-0.114	-0.017
-478.332	-39.729	-0.229	0.121
-477.318	-200.000	-0.012	0.178
-476.303	-92.780	-0.246	-0.069
-475.289	-200.000	0.099	-0.526
-474.274	46.624	0.166	-0.155
-473.259	322.031	0.122	-0.234
-472.245	-185.703	-0.221	0.003
-471.230	-103.426	-0.267	-0.063
-470.216	-187.517	0.446	-0.006
-469.201	-46.625	0.160	-0.079
-468.186	-51.961	0.070	-0.033
-467.172	86.735	0.217	-0.241
-466.157	-22.824	0.264	0.161
-465.143	-127.367	-0.300	-0.044
-464.128	18.904	0.206	0.167
-463.113	97.340	0.089	0.103
-462.099	-200.000	0.008	-0.146
-461.084	-18.030	0.271	0.171
-460.070	-28.744	0.174	-0.101
-459.055	-200.000	0.012	-0.054
-458.040	-56.822	-0.067	-0.030
-457.026	782.446	0.047	-0.130
-456.011	-20.970	0.467	0.289
-454.997	227.854	0.153	-0.252
-453.982	31.267	0.084	-0.072
-452.968	53.178	0.358	0.345
-451.953	-3.385	0.190	0.133
-450.938	-42.437	0.248	0.128
-449.924	60.320	0.038	0.038
-448.909	-200.000	0.018	0.251
-447.895	-200.000	-0.018	-0.181
-446.880	-30.631	-0.021	0.012
-445.865	-100.386	0.204	0.051
-444.851	256.613	-0.081	-0.140
-443.836	75.232	-0.473	-0.503
-442.822	-200.000	-0.018	-0.137
-441.807	-200.000	-0.036	-0.411
-440.792	-24.198	0.264	-0.159
-439.778	-200.000	-0.007	0.239
-438.763	-117.783	-0.252	-0.046
-437.749	169.027	-0.081	-0.116
-436.734	-90.289	-0.156	-0.046
-435.719	13.764	-0.207	0.162
-434.705	10.331	-0.284	-0.217
-433.690	60.632	-0.100	-0.100
-432.676	-19.436	0.237	-0.148
-431.661	21.482	-0.077	-0.063
-430.646	346.308	-0.087	-0.172
-429.632	335.360	-0.141	-0.275
-428.617	-31.506	-0.318	-0.180
-427.603	-200.000	0.013	-0.170
-426.588	520.370	0.059	-0.140
-425.573	58.240	0.250	0.246
-424.559	79.222	0.055	-0.059
-423.544	169.376	0.187	-0.268
-422.530	-200.000	-0.026	0.145
-421.515	-68.423	0.031	0.012
-420.500	106.432	-0.065	-0.078
-419.486	169.269	-0.300	0.432
-418.471	130.658	0.116	-0.150
-417.457	226.690	0.134	-0.218
-416.442	3.344	-0.236	0.173
-415.428	-100.112	0.169	0.042
-414.413	-17.860	-0.403	-0.254
-413.398	-124.260	0.087	-0.014
-412.384	-142.744	-0.092	-0.009
-411.369	689.380	0.114	-0.301
-410.355	-60.461	0.416	0.178
-409.340	515.738	0.153	0.359
-408.325	330.427	0.032	-0.062
-407.311	-107.429	-0.176	-0.039
-406.296	499.039	-0.052	0.120
-405.282	-0.338	0.092	0.066
-404.267	45.762	0.072	-0.067
-403.252	236.748	0.037	0.061
-402.238	160.830	0.192	0.270
-401.223	-200.000	0.013	-0.191
-400.209	157.307	0.089	0.123
-399.194	2.425	-0.014	-0.010
-398.179	-72.909	0.390	0.144
-397.165	100.242	-0.239	0.279
-396.150	-39.396	-0.170	0.090
-395.136	-200.000	-0.044	0.348
-394.121	-113.904	-0.115	0.022
-393.106	-149.077	0.067	-0.005
-392.092	-5.300	0.063	-0.043
-391.077	37.893	0.219	0.196
-390.063	-99.182	0.358	-0.091
-389.048	-200.000	-0.040	-0.192
-388.033	-46.865	-0.177	0.087
-387.019	56.975	-0.136	-0.133
-386.004	-25.268	0.305	0.182
-384.990	-200.000	0.035	-0.179
-383.975	384.543	0.154	0.319
-382.960	24.517	0.159	-0.133
-381.946	77.916	0.154	-0.165
-380.931	-23.834	0.226	-0.136
-379.917	344.681	0.128	-0.252
-378.902	800.000	-0.045	0.158
-377.888	800.000	-0.005	-0.019
-376.873	-11.718	-0.097	-0.064
-375.858	441.815	0.128	0.281
-374.844	-200.000	0.060	0.320
-373.829	198.580	0.087	-0.135
-372.815	-200.000	0.072	0.346
-371.800	460.641	0.094	0.210
-370.785	65.661	-0.139	-0.141
-369.771	23.639	-0.299	0.247
-368.756	-109.289	0.075	-0.016
-367.742	800.000	-0.052	-0.179
-366.727	42.819	0.110	0.101
-365.712	143.574	-0.167	-0.223
-364.698	363.905	-0.245	-0.494
-363.683	-200.000	-0.029	-0.261
-362.669	419.008	-0.133	-0.287
-361.654	46.094	0.181	0.168
-360.639	800.000	0.060	-0.230
-359.625	392.835	0.224	0.467
-358.610	508.647	0.128	-0.300
-357.596	-200.000	0.030	-0.216
-356.581	800.000	0.032	0.091
-355.566	800.000	-0.105	-0.361
-354.552	-200.000	0.002	0.149
-353.537	207.984	-0.068	0.107
-352.523	-77.081	-0.199	0.070
-351.508	-159.655	-0.020	0.001
-350.493	-55.467	0.063	-0.028
-349.479	178.922	0.074	-0.109
-348.464	293.710	-0.086	0.158
-347.450	-52.415	-0.176	-0.082
-346.435	-81.118	-0.267	-0.089
-345.420	173.753	0.273	-0.395
-344.406	-200.000	0.018	0.246
-343.391	-20.681	0.266	0.164
-342.377	69.888	-0.147	0.152
-341.362	138.484	-0.158	0.208
-340.348	-109.729	-0.207	-0.044
-339.333	-55.529	0.267	-0.120
-338.318	800.000	-0.061	0.247
-337.304	142.147	-0.068	0.091
-336.289	800.000	0.069	0.274
-335.275	-34.465	0.198	-0.109
-334.260	-184.221	-0.129	-0.002
-333.245	46.983	0.246	-0.229
-332.231	-150.085	-0.066	-0.005
-331.216	800.000	-0.082	-0.298
-330.202	124.371	0.057	0.073
-329.187	409.334	-0.169	0.358
-328.172	800.000	0.072	0.276
-327.158	-200.000	-0.007	-0.271
-326.143	-6.022	-0.113	-0.078
-325.129	-159.366	-0.108	-0.006
-324.114	-200.000	-0.006	-0.545
-323.099	-200.000	-0.041	-0.242
-322.085	-200.000	0.015	0.468
-321.070	-124.590	0.117	0.018
-320.056	165.107	0.285	0.404
-319.041	800.000	-0.055	0.214
-318.026	-28.534	0.259	0.150
-317.012	-20.543	-0.180	0.111
-315.997	-200.000	0.057	0.366
-314.983	178.134	-0.096	-0.141
-313.968	-137.570	0.245	0.028
-312.953	59.608	-0.236	-0.233
-311.939	800.000	-0.071	0.212
-310.924	792.256	-0.094	-0.259
-309.910	-62.710	0.273	0.114
-308.895	556.238	-0.094	0.226
-307.880	68.349	-0.207	0.213
-306.866	-200.000	0.002	-0.305
-305.851	-175.220	0.244	-0.007
-304.837	-65.995	0.188	0.075
-303.822	-159.881	-0.285	-0.016
-302.807	264.933	0.143	-0.250
-301.793	58.159	-0.184	-0.180
-300.778	161.880	0.059	-0.083
-299.764	-200.000	-0.008	0.290
-298.749	-200.000	0.043	0.268
-297.735	-200.000	0.003	-0.022
-296.720	-200.000	-0.092	-0.510
-295.705	800.000	0.054	-0.175
-294.691	-148.323	-0.321	0.026
-293.676	-200.000	-0.011	-0.075
-292.662	-200.000	-0.040	-0.252
-291.647	459.130	-0.062	-0.137
-290.632	177.558	0.101	0.147
-289.618	800.000	-0.126	-0.440
-288.603	-34.256	-0.390	-0.214
-287.589	800.000	0.014	0.054
-286.574	181.095	-0.118	0.174
-285.559	-44.515	-0.185	-0.093
-284.545	-33.169	0.150	-0.083
-283.530	800.000	-0.093	0.277
-282.516	-200.000	-0.044	0.290
-281.501	-66.961	0.273	-0.108
-280.486	-200.000	-0.048	-0.246
-279.472	71.419	0.284	0.295
-278.457	-11.775	-0.223	0.147
-277.443	-73.848	0.076	-0.028
-276.428	-200.000	0.066	0.377
-275.413	-200.000	-0.037	-0.227
-274.399	-48.577	0.418	0.201
-273.384	41.604	-0.205	0.186
-272.370	74.654	-0.157	-0.166
-271.355	-200.000	-0.001	-0.142
-270.340	-200.000	0.035	0.161
-269.326	105.276	-0.156	0.184
-268.311	744.551	-0.049	0.133
-267.297	612.273	-0.083	-0.208
-266.282	-200.000	-0.031	0.204
-265.267	-39.593	-0.048	0.025
-264.253	169.751	-0.077	-0.111
-263.238	-200.000	-0.023	0.394
-262.224	-58.723	-0.135	-0.058
-261.209	-17.240	-0.069	-0.043
-260.195	-200.000	0.035	-0.174
-259.180	-200.000	-0.003	-0.047
-258.165	631.333	0.102	0.259
-257.151	-174.593	-0.284	0.008
-256.136	800.000	-0.026	0.082
-255.122	485.378	0.018	-0.040
-254.107	78.048	-0.225	-0.240
-253.092	-200.000	-0.005	0.205
-252.078	-39.670	0.166	-0.087
-251.063	-17.835	0.105	0.066
-250.049	-9.781	-0.066	0.044
-249.034	372.654	0.111	0.225
-248.019	590.423	-0.046	-0.114
-247.005	70.147	-0.241	-0.249
-245.990	65.065	0.089	-0.090
-244.976	-200.000	0.017	0.116
-243.961	361.057	0.182	0.364
-242.946	-55.290	-0.169	-0.076
-241.932	-173.895	0.365	-0.011
-240.917	-200.000	0.007	-0.233
-239.903	-159.594	-0.444	-0.025
-238.888	124.203	0.052	0.065
-237.873	14.831	0.365	0.285
-236.859	-175.882	0.248	0.007
-235.844	-156.817	0.388	-0.024
-234.830	-44.467	-0.114	-0.057
-233.815	-5.658	0.142	-0.097
-232.800	-23.334	0.091	-0.055
-231.786	729.404	-0.077	0.205
-230.771	12.987	0.281	0.217
-229.757	192.030	0.097	0.147
-228.742	-200.000	-0.007	0.185
-227.727	668.335	-0.152	-0.392
-226.713	-200.000	0.004	-0.242
-225.698	-134.597	-0.284	0.035
-224.684	5.464	0.227	0.167
-223.669	-159.172	-0.267	0.015
-222.655	35.657	-0.235	-0.206
-221.640	-200.000	0.008	-0.212
-220.625	-73.041	-0.113	0.041
-219.611	-48.306	-0.217	0.105
-218.596	792.109	0.084	-0.231
-217.582	141.767	0.147	-0.194
-216.567	-6.871	0.097	-0.066
-215.552	718.252	-0.028	0.074
-214.538	-173.377	-0.022	-0.001
-213.523	-18.474	-0.034	-0.021
-212.509	12.086	0.074	0.057
-211.494	-70.472	0.213	-0.081
-210.479	-180.287	-0.308	-0.006
-209.465	-200.000	0.024	-0.127
-208.450	800.000	0.012	0.047
-207.436	-76.688	0.182	0.064
-206.421	-62.777	0.406	-0.168
-205.406	-200.000	-0.052	0.411
-204.392	-200.000	0.008	0.123
-203.377	243.479	0.144	-0.242
-202.363	-97.885	-0.129	-0.033
-201.348	-15.137	-0.027	-0.017
-200.333	-200.000	-0.014	-0.288
-199.319	103.555	-0.118	-0.138
-198.304	39.082	-0.097	0.086
-197.290	-137.309	0.392	-0.044
-196.275	26.460	0.060	0.050
-195.260	-200.000	-0.001	0.203
-194.246	800.000	0.132	-0.499
-193.231	-200.000	-0.011	0.238
-192.217	76.341	-0.119	0.126
-191.202	-68.747	0.175	0.067
-190.187	96.288	-0.038	0.043
-189.173	283.521	0.124	-0.223
-188.158	200.076	-0.032	-0.049
-187.144	67.210	-0.036	-0.037
-186.129	-200.000	-0.045	-0.243
-185.114	-42.550	-0.092	0.047
-184.100	141.098	0.107	0.141
-183.085	-49.263	0.286	0.136
-182.071	92.189	0.053	-0.060
-181.056	-181.988	0.280	-0.005
-180.042	800.000	-0.080	-0.346
-179.027	78.597	-0.121	0.129
-178.012	800.000	0.063	0.259
-176.998	-50.852	-0.117	-0.055
-175.983	171.464	0.168	0.241
-174.969	-3.643	0.135	0.093
-173.954	-46.328	-0.185	0.090
-172.939	800.000	-0.060	-0.212
-171.925	26.718	0.392	-0.327
-170.910	-200.000	-0.017	-0.141
-169.896	800.000	0.054	0.157
-168.881	79.782	0.116	-0.124
-167.866	88.634	0.070	0.078
-166.852	-157.964	0.194	-0.011
-165.837	537.966	0.060	0.141
-164.823	-35.894	0.038	0.020
-163.808	-41.868	0.120	0.062
-162.793	-200.000	-0.195	0.000
-161.779	188.032	-0.090	-0.134
-160.764	62.798	0.139	-0.139
-159.750	9.209	0.081	-0.061
-158.735	-110.881	-0.335	0.069
-157.720	800.000	-0.071	-0.240
-156.706	-14.274	0.202	0.130
-155.691	-96.020	0.201	0.053
-154.677	-149.388	0.027	0.002
-153.662	-200.000	-0.037	0.166
-152.647	11.885	-0.085	-0.065
-151.633	-64.787	-0.225	-0.091
-150.618	-0.473	-0.247	0.174
-149.604	198.911	0.114	0.174
-148.589	192.061	-0.043	0.064
-147.574	-200.000	0.015	0.103
-146.560	739.484	0.117	0.313
-145.545	385.886	0.022	0.044
-144.531	87.940	-0.118	-0.131
-143.516	-30.769	0.089	-0.050
-142.502	-200.000	0.128	0.593
-141.487	-40.119	0.254	-0.132
-140.472	-81.249	-0.218	-0.072
-139.458	20.818	0.165	-0.133
-138.443	3.176	-0.299	-0.217
-137.429	-43.795	0.374	0.187
-136.414	214.033	-0.080	0.126
-135.399	-76.007	0.107	0.038
-134.385	-44.579	0.060	0.030
-133.370	-16.220	-0.101	-0.064
-132.356	800.000	0.028	-0.083
-131.341	-136.267	0.019	0.002
-130.326	-66.162	-0.085	0.034
-129.312	95.415	-0.081	-0.092
-128.297	281.495	0.091	0.163
-127.283	15.443	-0.132	0.104
-126.268	42.444	-0.164	-0.148
-125.253	-35.212	0.049	0.027
-124.239	-49.644	-0.400	0.190
-123.224	-200.000	-0.021	0.289
-122.210	-200.000	-0.022	0.279
-121.195	637.400	-0.100	-0.254
