DTS Sentinel unit serial number:	SN413079Multiplexer serial number:	ORYXHardware model number:	OX4-SRSoftware version number:	ORYX F/W v4.00 Oryx Data Collector v3.7.2.0data status	okinstallation	princeton_trtdifferential loss correction	single-endedforward channel	channel 1reverse channel	N/Adate	2019/09/16time	12:34:35forward acquisition time	60.00reverse acquisition time	0.00gamma	496.2192k internal	0.2294k external	0.2294temperature offset calibration	0.9954default loss term (dB/km)	0.3790temperature slope calibration	1.0000multiplexer offset coefficient	1.0000multiplexer slope coefficient	1.0000fibre end	0.00T internal ref (°C)	39.77T ext. ref 1 (°C)	13.40T ext. ref 2 (°C)	37.47length (m)	temperature (°C)	Stokes	anti-Stokes-747.200	3.581	0.241	0.180
-746.185	-132.904	0.205	-0.027
-745.171	-62.882	-0.216	-0.091
-744.156	-41.427	0.473	0.249
-743.142	-167.833	-0.351	0.014
-742.127	-200.000	-0.036	0.264
-741.112	-171.991	0.151	-0.005
-740.098	-32.663	0.324	0.184
-739.083	66.959	0.233	0.242
-738.069	98.024	0.112	0.132
-737.054	-200.000	-0.021	-0.114
-736.039	-200.000	0.056	-0.307
-735.025	-53.347	0.071	-0.033
-734.010	-176.157	-0.337	-0.009
-732.996	-4.629	-0.335	-0.236
-731.981	29.885	0.291	0.253
-730.966	-200.000	-0.011	0.119
-729.952	32.717	0.343	0.303
-728.937	-200.000	0.035	-0.221
-727.923	-122.950	-0.126	-0.021
-726.908	-134.799	0.455	0.056
-725.894	-123.739	-0.192	0.031
-724.879	-200.000	-0.006	0.059
-723.864	109.888	-0.022	0.027
-722.850	312.259	-0.058	-0.111
-721.835	-110.866	-0.244	0.051
-720.821	800.000	0.045	-0.158
-719.806	-119.644	0.166	-0.029
-718.791	15.656	0.091	0.073
-717.777	442.023	0.118	0.264
-716.762	800.000	-0.046	0.166
-715.748	-162.414	0.158	0.008
-714.733	-200.000	0.017	-0.082
-713.718	-200.000	0.025	-0.406
-712.704	202.799	0.130	0.205
-711.689	-44.441	0.120	0.061
-710.675	-58.239	-0.103	-0.046
-709.660	-25.642	0.206	0.124
-708.645	800.000	-0.031	-0.120
-707.631	-42.481	0.072	0.038
-706.616	-118.223	-0.276	-0.050
-705.602	26.195	0.114	-0.097
-704.587	-19.506	0.260	-0.164
-703.572	800.000	0.075	-0.309
-702.558	-17.615	-0.130	0.083
-701.543	-200.000	0.006	-0.180
-700.529	-200.000	-0.051	0.284
-699.514	800.000	0.053	0.184
-698.499	-80.624	-0.152	-0.052
-697.485	-7.347	0.152	-0.105
-696.470	-108.874	0.203	-0.044
-695.456	-200.000	-0.038	0.187
-694.441	223.719	-0.038	0.062
-693.426	-200.000	-0.037	-0.215
-692.412	-118.485	-0.311	-0.056
-691.397	-53.600	0.142	-0.066
-690.383	-71.686	0.307	-0.117
-689.368	-75.644	-0.231	-0.084
-688.354	800.000	0.082	0.323
-687.339	52.024	0.227	0.221
-686.324	178.984	0.269	0.402
-685.310	-200.000	0.047	-0.272
-684.295	309.972	-0.124	0.237
-683.281	-200.000	-0.008	0.117
-682.266	-33.266	-0.177	-0.100
-681.251	-200.000	0.016	-0.073
-680.237	-200.000	-0.002	-0.208
-679.222	-54.365	-0.087	0.040
-678.208	-155.121	0.481	0.032
-677.193	800.000	-0.046	-0.192
-676.178	-200.000	-0.019	-0.174
-675.164	-20.287	0.304	0.191
-674.149	-97.806	-0.115	-0.030
-673.135	123.479	0.125	0.160
-672.120	-200.000	0.029	-0.153
-671.105	-91.584	-0.073	0.021
-670.091	-66.514	0.351	-0.142
-669.076	51.582	-0.249	0.242
-668.062	800.000	0.099	-0.321
-667.047	545.863	0.114	-0.277
-666.032	-196.657	-0.203	0.001
-665.018	32.232	0.086	-0.076
-664.003	800.000	0.094	-0.289
-662.989	267.553	0.152	0.271
-661.974	-94.668	0.622	0.172
-660.959	-102.515	0.267	0.065
-659.945	167.550	0.161	0.233
-658.930	-1.154	-0.142	-0.102
-657.916	-200.000	0.014	0.075
-656.901	41.118	0.182	-0.167
-655.886	-77.693	0.176	-0.062
-654.872	-0.569	0.139	0.101
-653.857	216.898	-0.121	-0.196
-652.843	-73.992	0.232	-0.086
-651.828	168.044	0.093	0.135
-650.814	-98.570	-0.128	-0.033
-649.799	550.119	0.049	0.120
-648.784	800.000	0.007	0.028
-647.770	-2.004	0.245	-0.175
-646.755	-194.447	0.164	0.001
-645.741	161.600	0.095	-0.135
-644.726	-138.622	0.196	-0.022
-643.711	-74.550	0.219	0.080
-642.697	638.437	-0.075	-0.195
-641.682	184.452	-0.216	-0.326
-640.668	695.964	-0.033	-0.088
-639.653	-3.365	-0.143	-0.101
-638.638	-106.573	-0.069	0.016
-637.624	125.976	0.135	0.174
-636.609	-98.379	0.301	-0.078
-635.595	6.396	0.098	-0.074
-634.580	-200.000	-0.066	-0.366
-633.565	302.445	0.117	0.221
-632.551	-32.033	-0.280	0.160
-631.536	207.206	-0.154	0.244
-630.522	-200.000	0.021	0.128
-629.507	-6.202	-0.147	-0.102
-628.492	135.427	0.219	-0.289
-627.478	-53.611	-0.160	0.074
-626.463	220.687	-0.139	-0.227
-625.449	800.000	0.103	-0.313
-624.434	35.245	-0.154	-0.137
-623.419	-200.000	-0.039	0.265
-622.405	-51.441	-0.200	-0.095
-621.390	-16.893	-0.292	-0.188
-620.376	-68.902	0.127	-0.050
-619.361	-144.850	0.192	0.018
-618.346	-99.463	0.170	0.044
-617.332	398.924	0.145	-0.309
-616.317	-200.000	0.023	0.260
-615.303	-78.867	-0.360	-0.125
-614.288	-31.484	-0.067	0.038
-613.273	791.519	-0.113	-0.315
-612.259	150.823	-0.087	-0.120
-611.244	800.000	-0.057	0.193
-610.230	-200.000	-0.023	0.407
-609.215	97.437	-0.135	-0.158
-608.201	800.000	-0.034	0.113
-607.186	724.461	0.015	0.040
-606.171	234.168	0.086	-0.144
-605.157	-1.881	-0.153	0.109
-604.142	523.011	0.093	-0.223
-603.128	-21.840	0.192	0.119
-602.113	800.000	-0.064	-0.219
-601.098	-111.409	-0.157	-0.032
-600.084	-50.375	-0.214	-0.103
-599.069	-200.000	0.020	-0.148
-598.055	139.814	0.228	0.306
-597.040	-200.000	0.019	0.090
-596.025	-37.683	-0.269	0.146
-595.011	344.795	0.094	0.188
-593.996	34.900	0.286	-0.255
-592.982	-121.196	-0.257	-0.044
-591.967	-169.210	0.308	0.012
-590.952	-33.043	0.066	-0.037
-589.938	37.664	0.169	0.152
-588.923	-200.000	0.013	0.118
-587.909	-200.000	0.077	-0.364
-586.894	8.535	-0.340	-0.260
-585.879	-86.390	-0.250	0.078
-584.865	-2.532	-0.204	-0.145
-583.850	-125.602	-0.431	-0.067
-582.836	-200.000	0.000	0.065
-581.821	-133.901	0.141	-0.018
-580.806	402.594	-0.105	0.225
-579.792	88.054	-0.110	-0.124
-578.777	-166.630	0.145	0.006
-577.763	-27.087	0.186	-0.110
-576.748	800.000	-0.092	-0.263
-575.733	47.891	0.136	0.129
-574.719	-102.980	-0.273	0.066
-573.704	-8.159	0.198	0.135
-572.690	-51.273	-0.208	0.099
-571.675	-11.747	-0.224	-0.150
-570.661	-200.000	-0.005	0.086
-569.646	-152.979	-0.054	-0.004
-568.631	800.000	-0.057	-0.186
-567.617	-88.369	-0.203	0.062
-566.602	109.362	-0.169	-0.206
-565.588	-23.577	-0.282	0.172
-564.573	415.170	-0.014	0.031
-563.558	-28.652	-0.362	-0.212
-562.544	81.028	-0.226	0.248
-561.529	-200.000	-0.025	0.164
-560.515	8.563	-0.172	-0.132
-559.500	20.754	-0.062	-0.051
-558.485	77.826	0.174	0.188
-557.471	9.137	-0.140	0.107
-556.456	800.000	-0.030	-0.129
-555.442	2.039	-0.189	-0.138
-554.427	104.893	0.095	0.113
-553.412	-17.753	-0.137	0.087
-552.398	-102.689	-0.070	0.017
-551.383	-200.000	0.020	-0.296
-550.369	-155.205	-0.039	0.003
-549.354	-163.958	0.167	0.008
-548.339	386.278	0.082	-0.172
-547.325	-33.762	0.041	0.023
-546.310	482.826	-0.158	0.365
-545.296	-160.523	0.279	0.015
-544.281	-102.052	-0.402	0.098
-543.266	171.389	-0.164	-0.239
-542.252	800.000	-0.033	-0.112
-541.237	-167.896	0.283	-0.011
-540.223	-41.231	0.176	-0.092
-539.208	-200.000	-0.034	-0.424
-538.193	346.378	0.058	0.116
-537.179	636.741	0.082	0.210
-536.164	-200.000	0.015	0.293
-535.150	478.757	0.073	-0.167
-534.135	-95.271	0.157	0.043
-533.121	-131.405	-0.135	-0.018
-532.106	-165.322	-0.275	-0.012
-531.091	800.000	-0.051	0.147
-530.077	88.385	-0.024	-0.027
-529.062	-95.721	-0.443	0.120
-528.048	188.027	-0.148	-0.225
-527.033	800.000	0.017	-0.066
-526.018	471.892	0.101	-0.230
-525.004	-200.000	-0.006	0.199
-523.989	-162.898	0.145	0.007
-522.975	-1.193	-0.206	0.147
-521.960	800.000	-0.128	0.366
-520.945	-72.349	0.253	0.095
-519.931	-94.260	0.138	-0.038
-518.916	-160.354	-0.329	0.018
-517.902	-120.311	0.371	0.064
-516.887	252.123	-0.177	-0.305
-515.872	22.816	0.111	0.093
-514.858	215.237	-0.124	0.199
-513.843	32.369	0.084	0.073
-512.829	364.187	-0.098	0.201
-511.814	-200.000	-0.013	0.103
-510.799	104.134	0.122	-0.146
-509.785	43.905	-0.086	-0.080
-508.770	204.541	0.164	0.258
-507.756	-160.942	0.314	-0.017
-506.741	-200.000	0.013	-0.106
-505.726	800.000	0.035	0.111
-504.712	-146.856	0.189	0.016
-503.697	-200.000	0.040	0.215
-502.683	-105.835	0.266	-0.061
-501.668	195.902	0.092	0.142
-500.653	-71.724	0.130	-0.049
-499.639	129.086	0.082	0.105
-498.624	-55.523	0.121	-0.055
-497.610	333.148	0.148	-0.290
-496.595	278.985	0.167	-0.302
-495.581	254.974	0.139	-0.241
-494.566	-189.444	-0.339	0.004
-493.551	93.405	0.056	-0.064
-492.537	-200.000	0.016	0.149
-491.522	-27.928	0.480	0.282
-490.508	93.373	-0.269	-0.309
-489.493	80.320	0.046	0.050
-488.478	-23.572	0.196	-0.119
-487.464	79.810	0.122	0.132
-486.449	280.663	-0.225	-0.408
-485.435	-200.000	0.085	-0.500
-484.420	116.847	-0.417	-0.518
-483.405	113.166	-0.026	-0.032
-482.391	191.716	0.195	-0.298
-481.376	-200.000	0.005	-0.213
-480.362	-200.000	0.005	-0.122
-479.347	521.072	0.056	-0.132
-478.332	68.835	-0.206	-0.214
-477.318	465.230	0.035	0.080
-476.303	-200.000	-0.009	0.142
-475.289	469.141	0.079	0.179
-474.274	285.329	-0.208	0.379
-473.259	130.581	0.177	0.230
-472.245	-104.351	0.483	0.113
-471.230	-49.255	0.323	-0.156
-470.216	283.359	0.172	-0.312
-469.201	39.282	-0.216	-0.196
-468.186	-111.714	0.167	0.034
-467.172	595.996	-0.049	-0.122
-466.157	26.452	-0.118	-0.100
-465.143	-200.000	-0.034	0.274
-464.128	-200.000	0.006	-0.137
-463.113	281.560	0.020	-0.036
-462.099	192.925	0.196	0.299
-461.084	-80.295	-0.245	0.083
-460.070	-14.066	0.226	0.148
-459.055	-200.000	-0.013	-0.162
-458.040	-200.000	0.009	0.151
-457.026	-143.153	-0.433	0.042
-456.011	-200.000	-0.003	-0.058
-454.997	-73.319	-0.279	0.103
-453.982	36.314	0.209	0.186
-452.968	-64.208	0.122	0.050
-451.953	-116.831	0.165	-0.031
-450.938	-200.000	0.029	-0.319
-449.924	101.705	-0.231	0.272
-448.909	-123.619	-0.190	0.030
-447.895	-45.645	-0.211	-0.105
-446.880	11.970	0.124	-0.096
-445.865	753.899	-0.057	0.156
-444.851	12.228	-0.108	0.084
-443.836	-65.939	-0.332	0.134
-442.822	-71.506	-0.148	-0.056
-441.807	-78.116	0.165	0.057
-440.792	-131.711	0.416	-0.055
-439.778	-58.311	-0.161	-0.071
-438.763	-57.510	-0.090	-0.040
-437.749	800.000	0.085	-0.288
-436.734	-200.000	0.046	0.260
-435.719	800.000	-0.052	-0.148
-434.705	-200.000	0.003	0.349
-433.690	-77.669	-0.204	0.071
-432.676	-173.387	-0.157	0.005
-431.661	-200.000	0.037	-0.196
-430.646	22.533	-0.332	0.275
-429.632	-93.736	0.218	-0.061
-428.617	800.000	0.042	0.184
-427.603	-200.000	-0.076	0.527
-426.588	371.670	0.028	-0.058
-425.573	-43.971	-0.089	-0.045
-424.559	-43.022	-0.226	-0.116
-423.544	151.470	-0.099	-0.136
-422.530	440.822	0.118	-0.261
-421.515	-200.000	0.034	0.352
-420.500	-200.000	0.049	-0.247
-419.486	-122.426	0.190	-0.031
-418.471	-56.071	0.161	0.072
-417.457	377.568	-0.073	0.151
-416.442	301.094	-0.107	-0.199
-415.428	-41.932	-0.069	-0.036
-414.413	12.729	-0.054	-0.042
-413.398	-41.787	0.216	0.112
-412.384	-169.196	-0.192	0.007
-411.369	778.593	-0.127	0.351
-410.355	267.050	-0.089	-0.157
-409.340	-58.784	-0.158	0.069
-408.325	-118.303	-0.415	-0.074
-407.311	374.844	-0.208	-0.428
-406.296	-104.831	-0.305	0.071
-405.282	631.880	0.133	-0.339
-404.267	646.691	-0.128	-0.329
-403.252	133.414	-0.109	0.142
-402.238	202.426	0.070	0.109
-401.223	800.000	0.075	-0.264
-400.209	-129.674	0.168	0.023
-399.194	-200.000	-0.007	-0.189
-398.179	-74.814	-0.254	-0.092
-397.165	404.922	0.090	-0.192
-396.150	482.743	0.028	0.065
-395.136	-147.111	-0.095	-0.008
-394.121	169.132	0.143	0.206
-393.106	-62.746	0.416	0.174
-392.092	483.408	-0.049	0.112
-391.077	-200.000	0.010	0.299
-390.063	-69.674	0.088	0.034
-389.048	-135.587	-0.285	-0.034
-388.033	800.000	-0.109	-0.454
-387.019	-91.613	0.040	-0.011
-386.004	64.476	0.219	0.223
-384.990	-200.000	-0.025	0.356
-383.975	-59.850	0.053	-0.023
-382.960	3.096	-0.084	-0.061
-381.946	-141.090	-0.152	0.016
-380.931	80.586	0.131	0.142
-379.917	-40.846	-0.045	0.024
-378.902	-40.300	-0.343	-0.180
-377.888	632.230	0.106	0.270
-376.873	61.847	0.069	-0.070
-375.858	800.000	-0.055	-0.217
-374.844	-90.075	0.165	0.048
-373.829	551.287	0.110	-0.267
-372.815	167.699	-0.094	-0.135
-371.800	520.653	0.046	-0.109
-370.785	-200.000	0.055	0.628
-369.771	737.160	-0.060	-0.162
-368.756	-200.000	-0.012	-0.199
-367.742	-31.397	-0.197	-0.111
-366.727	367.956	-0.022	-0.044
-365.712	-157.425	-0.057	0.003
-364.698	800.000	-0.044	-0.194
-363.683	-44.563	-0.210	-0.106
-362.669	523.067	0.080	0.190
-361.654	-200.000	-0.013	-0.072
-360.639	50.278	0.108	0.102
-359.625	447.251	-0.133	-0.295
-358.610	38.062	-0.021	0.019
-357.596	-74.928	-0.078	0.028
-356.581	-97.753	0.108	-0.028
-355.566	-113.859	-0.288	0.056
-354.552	308.092	-0.147	-0.276
-353.537	763.380	0.114	-0.311
-352.523	612.531	-0.094	0.236
-351.508	753.427	-0.066	-0.180
-350.493	800.000	-0.042	-0.120
-349.479	-191.656	0.183	0.002
-348.464	-200.000	0.009	0.240
-347.450	37.270	0.106	-0.094
-346.435	800.000	-0.060	0.194
-345.420	-200.000	0.033	-0.254
-344.406	-200.000	0.058	-0.280
-343.391	-136.910	-0.319	0.037
-342.377	800.000	0.020	-0.073
-341.362	-117.894	0.333	-0.060
-340.348	-116.734	-0.133	-0.024
-339.333	-200.000	-0.029	0.444
-338.318	-146.945	0.246	0.021
-337.304	-55.278	0.358	0.162
-336.289	800.000	-0.106	0.327
-335.275	-200.000	-0.017	-0.106
-334.260	-200.000	-0.005	0.075
-333.245	-134.842	-0.041	-0.005
-332.231	-200.000	-0.015	-0.082
-331.216	-110.218	0.116	-0.024
-330.202	24.716	0.125	-0.104
-329.187	-200.000	0.002	-0.246
-328.172	205.981	0.067	-0.105
-327.158	9.865	0.330	-0.252
-326.143	163.981	-0.184	-0.261
-325.129	-143.373	-0.054	-0.005
-324.114	36.909	0.102	0.091
-323.099	-200.000	-0.005	-0.190
-322.085	305.842	0.187	0.349
-321.070	243.402	-0.191	0.322
-320.056	-200.000	-0.026	-0.172
-319.041	-200.000	-0.493	0.000
-318.026	-200.000	0.059	0.511
-317.012	9.713	0.286	0.218
-315.997	324.767	-0.037	0.072
-314.983	-200.000	0.005	-0.108
-313.968	-75.603	0.091	0.032
-312.953	795.960	0.062	0.170
-311.939	-65.087	0.335	0.136
-310.924	-200.000	-0.003	-0.084
-309.910	12.398	-0.140	0.108
-308.895	-105.830	0.092	0.021
-307.880	-69.954	0.252	-0.096
-306.866	692.423	-0.092	0.241
-305.851	-78.832	0.293	0.100
-304.837	-200.000	0.013	-0.162
-303.822	-200.000	0.065	0.332
-302.807	-138.191	-0.478	-0.053
-301.793	258.376	0.151	-0.261
-300.778	-51.607	-0.230	0.108
-299.764	-200.000	-0.043	-0.201
-298.749	800.000	0.108	0.312
-297.735	800.000	0.041	0.125
-296.720	49.430	0.413	-0.391
-295.705	-3.611	-0.067	0.047
-294.691	-14.722	-0.242	0.156
-293.676	48.644	-0.025	-0.024
-292.662	-14.461	0.219	0.142
-291.647	-75.662	0.226	0.081
-290.632	14.146	-0.144	-0.112
-289.618	-87.318	-0.254	0.077
-288.603	-200.000	0.006	0.224
-287.589	47.048	0.165	-0.154
-286.574	-45.256	-0.161	0.081
-285.559	35.088	-0.097	-0.086
-284.545	-15.686	0.232	-0.149
-283.530	-200.000	0.043	-0.210
-282.516	21.430	-0.095	0.077
-281.501	800.000	0.062	-0.233
-280.486	-114.659	-0.238	0.046
-279.472	-200.000	-0.009	-0.098
-278.457	-148.635	0.349	0.029
-277.443	9.652	-0.165	0.126
-276.428	800.000	-0.057	0.196
-275.413	-34.519	-0.283	0.156
-274.399	-200.000	0.014	0.108
-273.384	30.819	0.198	-0.170
-272.370	-6.376	-0.166	-0.114
-271.355	800.000	-0.074	-0.283
-270.340	-200.000	0.009	0.216
-269.326	-31.697	0.177	-0.100
-268.311	800.000	0.083	0.313
-267.297	-200.000	0.046	-0.278
-266.282	-64.291	0.351	-0.144
-265.267	-160.234	0.295	0.016
-264.253	46.752	0.142	-0.132
-263.238	-95.477	0.154	-0.041
-262.224	131.229	0.149	0.193
-261.209	-200.000	-0.009	0.088
-260.195	-34.077	0.224	0.124
-259.180	29.340	-0.143	-0.122
-258.165	-163.518	0.133	-0.006
-257.151	-6.432	-0.124	0.085
-256.136	162.079	0.167	0.234
-255.122	24.919	0.222	-0.185
-254.107	-200.000	0.009	0.108
-253.092	5.186	-0.199	-0.147
-252.078	-132.797	0.205	-0.026
-251.063	-142.208	-0.106	0.011
-250.049	504.327	0.043	0.100
-249.034	-53.503	-0.092	0.042
-248.019	-200.000	0.011	0.238
-247.005	-45.194	-0.252	-0.125
-245.990	-163.117	0.119	-0.006
-244.976	728.176	0.085	-0.228
-243.961	82.898	0.156	-0.171
-242.946	205.267	-0.094	0.147
-241.932	191.618	-0.110	-0.167
-240.917	26.913	-0.275	0.231
-239.903	477.504	-0.195	0.442
-238.888	-200.000	0.009	0.166
-237.873	800.000	-0.116	0.356
-236.859	89.764	-0.034	0.038
-235.844	800.000	-0.048	-0.152
-234.830	475.480	-0.053	-0.119
-233.815	264.077	-0.039	-0.069
-232.800	-71.527	-0.341	0.128
-231.786	-5.265	0.167	0.115
-230.771	800.000	0.073	-0.212
-229.757	-111.452	0.269	-0.055
-228.742	800.000	0.019	-0.068
-227.727	299.068	0.061	0.113
-226.713	28.583	0.229	0.194
-225.698	141.948	0.024	-0.032
-224.684	-11.435	-0.052	-0.034
-223.669	230.807	0.141	0.231
-222.655	-141.131	-0.102	-0.010
-221.640	62.155	0.071	0.071
-220.625	-200.000	-0.014	-0.063
-219.611	-49.830	0.166	-0.079
-218.596	-124.767	0.221	0.034
-217.582	-200.000	-0.047	-0.506
-216.567	-144.779	-0.052	-0.005
-215.552	105.456	-0.092	-0.109
-214.538	221.733	-0.191	0.307
-213.523	-140.692	0.068	0.007
-212.509	22.328	0.279	0.228
-211.494	-180.613	-0.168	0.003
-210.479	46.332	-0.091	-0.084
-209.465	-176.532	-0.067	-0.002
-208.450	-32.979	0.447	-0.249
-207.436	71.548	0.078	-0.082
-206.421	261.415	0.309	0.536
-205.406	170.071	-0.113	0.161
-204.392	-105.986	-0.256	-0.058
-203.377	-67.698	0.314	-0.123
-202.363	33.082	0.138	0.120
-201.348	-23.393	0.114	0.069
-200.333	-200.000	0.012	0.200
-199.319	-109.337	-0.035	-0.007
-198.304	-200.000	0.032	-0.286
-197.290	535.656	0.050	0.119
-196.275	436.065	-0.073	-0.160
-195.260	106.412	0.210	-0.250
-194.246	-136.762	0.267	-0.031
-193.231	192.609	-0.154	0.233
-192.217	318.291	-0.166	0.314
-191.202	-42.541	0.258	0.131
-190.187	-200.000	-0.070	0.342
-189.173	-16.916	-0.143	-0.090
-188.158	165.995	0.091	-0.128
-187.144	-35.412	0.337	0.183
-186.129	-42.105	0.138	0.071
-185.114	13.913	-0.372	0.290
-184.100	104.786	0.056	0.066
-183.085	-200.000	-0.064	-0.408
-182.071	-97.036	-0.094	-0.025
-181.056	-24.414	0.102	0.061
-180.042	-74.844	0.189	-0.068
-179.027	-111.250	0.153	0.031
-178.012	66.029	-0.317	0.321
-176.998	800.000	-0.089	0.353
-175.983	216.051	0.040	0.063
-174.969	800.000	-0.020	-0.080
-173.954	-200.000	-0.043	0.254
-172.939	89.139	0.028	0.032
-171.925	52.968	0.079	-0.076
-170.910	185.061	-0.225	-0.334
-169.896	-0.519	-0.153	0.109
-168.881	-106.291	-0.101	0.023
-167.866	25.434	-0.099	0.083
-166.852	-104.738	0.161	0.037
-165.837	-19.450	0.172	0.107
-164.823	-132.582	0.211	-0.027
-163.808	-103.527	0.076	0.018
-162.793	-78.188	0.355	-0.122
-161.779	185.559	-0.099	-0.147
-160.764	800.000	-0.059	-0.219
-159.750	-122.496	0.239	-0.039
-158.735	-37.917	-0.132	0.070
-157.720	-24.408	-0.381	-0.227
-156.706	240.418	-0.142	0.236
-155.691	144.084	0.048	-0.064
-154.677	-10.072	0.395	-0.262
-153.662	800.000	0.098	0.345
-152.647	8.197	-0.236	0.177
-151.633	-200.000	0.045	0.443
-150.618	-33.247	0.302	-0.167
-149.604	-200.000	-0.043	-0.226
-148.589	-31.860	0.349	0.195
-147.574	-200.000	-0.036	-0.289
-146.560	-162.354	0.349	-0.017
-145.545	114.256	0.054	0.065
-144.531	-62.863	0.224	0.092
-143.516	123.131	-0.246	0.308
-142.502	-195.458	-0.046	0.000
-141.487	344.803	0.120	-0.236
-140.472	-200.000	-0.064	0.292
-139.458	372.591	-0.114	0.231
-138.443	-200.000	0.028	-0.126
-137.429	32.015	0.157	-0.135
-136.414	800.000	0.120	-0.346
-135.399	-200.000	0.047	0.208
-134.385	121.146	0.129	-0.160
-133.370	-14.277	0.223	-0.144
-132.356	-164.914	0.084	0.004
-131.341	52.514	-0.091	-0.087
-130.326	800.000	-0.028	-0.104
-129.312	0.322	-0.233	0.166
-128.297	-200.000	-0.086	0.520
-127.283	-200.000	0.018	0.137
-126.268	57.949	0.226	-0.221
-125.253	-110.213	-0.244	-0.051
-124.239	-70.484	-0.150	-0.057
-123.224	248.882	0.172	0.291
-122.210	-152.844	0.108	0.008
-121.195	-200.000	-0.017	0.207
