DTS Sentinel unit serial number:	SN413079Multiplexer serial number:	ORYXHardware model number:	OX4-SRSoftware version number:	ORYX F/W v4.00 Oryx Data Collector v3.7.2.0data status	okinstallation	princeton_trtdifferential loss correction	single-endedforward channel	channel 1reverse channel	N/Adate	2019/09/14time	00:10:35forward acquisition time	60.00reverse acquisition time	0.00gamma	496.2192k internal	0.2337k external	0.2337temperature offset calibration	1.0079default loss term (dB/km)	0.3790temperature slope calibration	1.0000multiplexer offset coefficient	1.0000multiplexer slope coefficient	1.0000fibre end	0.00T internal ref (°C)	26.50T ext. ref 1 (°C)	3.17T ext. ref 2 (°C)	21.46length (m)	temperature (°C)	Stokes	anti-Stokes-747.200	-41.923	0.286	-0.147
-746.185	293.501	-0.048	0.087
-745.171	133.695	-0.131	0.170
-744.156	179.011	-0.088	0.128
-743.142	800.000	-0.040	-0.121
-742.127	-138.574	0.320	0.035
-741.112	-106.599	-0.055	-0.012
-740.098	-100.539	-0.206	-0.051
-739.083	-100.314	0.150	-0.037
-738.069	25.087	0.031	-0.026
-737.054	17.248	-0.178	0.142
-736.039	71.191	-0.335	0.348
-735.025	-26.913	0.290	-0.170
-734.010	-200.000	-0.046	-0.225
-732.996	-108.660	-0.301	-0.065
-731.981	-49.158	0.099	0.048
-730.966	-101.589	-0.104	-0.025
-729.952	443.728	-0.080	-0.176
-728.937	94.179	-0.090	0.103
-727.923	214.609	0.013	0.021
-726.908	-200.000	0.006	0.043
-725.894	-148.642	0.141	-0.011
-724.879	15.822	0.173	-0.136
-723.864	-200.000	-0.000	-0.096
-722.850	-175.905	0.337	0.009
-721.835	15.032	-0.245	-0.193
-720.821	82.463	-0.266	0.290
-719.806	-34.823	-0.103	-0.056
-718.791	78.611	-0.069	0.074
-717.777	-101.220	0.206	0.051
-716.762	13.562	0.314	-0.245
-715.748	115.397	-0.310	0.379
-714.733	-200.000	0.033	-0.147
-713.718	32.581	-0.099	0.086
-712.704	51.480	-0.182	-0.174
-711.689	1.291	-0.054	-0.039
-710.675	800.000	0.098	-0.273
-709.660	-200.000	-0.039	-0.440
-708.645	246.204	-0.133	-0.225
-707.631	658.950	0.108	-0.277
-706.616	50.725	-0.124	0.118
-705.602	-15.783	-0.192	0.123
-704.587	-184.986	0.143	-0.002
-703.572	6.516	-0.184	0.137
-702.558	-112.966	-0.468	-0.093
-701.543	-40.915	0.189	0.098
-700.529	-35.588	-0.210	-0.114
-699.514	-99.564	0.208	-0.052
-698.499	-198.715	0.233	0.001
-697.485	142.465	0.022	-0.029
-696.470	-141.063	-0.088	0.009
-695.456	-200.000	-0.036	-0.403
-694.441	-200.000	-0.019	0.173
-693.426	28.270	-0.165	0.140
-692.412	24.124	-0.096	0.079
-691.397	-200.000	0.062	-0.362
-690.383	-196.183	-0.272	0.002
-689.368	53.780	-0.337	0.324
-688.354	-183.037	0.277	-0.005
-687.339	75.974	0.210	-0.222
-686.324	-32.283	-0.063	-0.035
-685.310	800.000	0.107	-0.315
-684.295	-126.429	0.326	-0.049
-683.281	18.420	-0.227	-0.181
-682.266	-23.854	0.208	0.125
-681.251	278.494	0.044	-0.078
-680.237	-179.091	0.111	0.002
-679.222	-136.504	-0.071	0.008
-678.208	10.913	0.080	-0.061
-677.193	-72.996	-0.209	0.077
-676.178	-139.363	0.263	0.028
-675.164	134.688	0.148	0.193
-674.149	-76.751	0.136	0.048
-673.135	-79.014	-0.460	0.157
-672.120	195.225	-0.257	-0.391
-671.105	800.000	0.074	0.267
-670.091	478.627	0.100	-0.227
-669.076	-90.584	-0.339	-0.098
-668.062	-76.438	-0.128	-0.045
-667.047	800.000	0.071	-0.205
-666.032	800.000	-0.089	-0.284
-665.018	-29.794	-0.257	0.146
-664.003	-133.472	0.244	-0.031
-662.989	-200.000	-0.020	0.190
-661.974	27.945	-0.384	0.324
-660.959	-155.959	0.125	-0.008
-659.945	-19.175	0.119	0.074
-658.930	107.970	-0.113	0.135
-657.916	190.170	0.253	0.380
-656.901	641.321	-0.014	0.035
-655.886	13.434	0.121	-0.094
-654.872	800.000	0.106	0.357
-653.857	-200.000	-0.003	-0.147
-652.843	670.684	0.061	-0.159
-651.828	-30.616	0.437	0.248
-650.814	2.838	-0.192	-0.139
-649.799	172.000	0.191	-0.274
-648.784	-200.000	0.019	0.231
-647.770	15.202	0.147	-0.116
-646.755	-200.000	-0.044	-0.243
-645.741	-99.029	0.141	-0.036
-644.726	177.220	-0.202	-0.295
-643.711	659.805	0.150	-0.387
-642.697	136.959	-0.306	-0.400
-641.682	-200.000	0.014	0.064
-640.668	0.543	0.062	0.044
-639.653	764.981	0.159	-0.433
-638.638	-83.461	-0.324	0.104
-637.624	-95.047	-0.164	0.044
-636.609	8.929	-0.353	-0.267
-635.595	167.795	0.158	-0.225
-634.580	-138.914	0.382	0.041
-633.565	198.097	0.025	-0.039
-632.551	345.939	-0.231	0.455
-631.536	395.068	-0.071	0.147
-630.522	57.809	0.093	-0.091
-629.507	-23.507	0.122	0.073
-628.492	-95.613	-0.076	-0.020
-627.478	477.408	0.071	0.162
-626.463	-179.970	-0.199	0.004
-625.449	800.000	-0.122	0.376
-624.434	47.430	0.071	0.066
-623.419	102.275	-0.172	0.201
-622.405	800.000	-0.123	-0.485
-621.390	44.972	-0.245	-0.226
-620.376	46.134	-0.142	-0.131
-619.361	268.478	0.053	0.093
-618.346	-167.456	0.142	-0.006
-617.332	-131.460	0.388	-0.051
-616.317	800.000	-0.028	0.123
-615.303	-200.000	-0.228	-0.001
-614.288	-105.469	0.111	0.025
-613.273	-173.622	-0.349	-0.010
-612.259	-143.771	0.195	-0.018
-611.244	-200.000	0.030	-0.203
-610.230	125.538	-0.122	-0.154
-609.215	94.025	-0.083	0.094
-608.201	-200.000	0.024	0.227
-607.186	800.000	-0.057	-0.182
-606.171	66.725	-0.192	-0.195
-605.157	138.007	-0.236	-0.309
-604.142	-200.000	-0.009	0.383
-603.128	800.000	0.044	0.176
-602.113	673.796	-0.081	0.209
-601.098	11.394	0.098	0.075
-600.084	-200.000	-0.018	0.135
-599.069	274.900	-0.130	0.229
-598.055	438.329	0.028	0.060
-597.040	85.472	-0.110	0.121
-596.025	142.978	-0.030	0.040
-595.011	-200.000	-0.015	0.432
-593.996	94.537	-0.061	0.069
-592.982	278.263	0.136	-0.241
-591.967	-155.415	-0.128	0.008
-590.952	304.942	0.157	-0.291
-589.938	-200.000	-0.015	0.286
-588.923	-109.680	-0.160	0.034
-587.909	-104.347	-0.127	0.029
-586.894	-182.805	-0.311	0.006
-585.879	-75.750	0.100	-0.036
-584.865	296.699	-0.102	0.187
-583.850	574.428	-0.058	0.140
-582.836	60.923	0.142	0.141
-581.821	64.323	-0.153	-0.154
-580.806	7.055	0.095	-0.071
-579.792	-38.649	0.082	-0.043
-578.777	25.467	-0.239	0.198
-577.763	10.155	-0.164	-0.124
-576.748	-13.817	-0.063	0.040
-575.733	41.033	-0.093	-0.084
-574.719	800.000	-0.067	-0.270
-573.704	10.815	-0.256	0.195
-572.690	-131.493	0.137	-0.018
-571.675	116.748	0.094	0.115
-570.661	709.699	0.163	-0.429
-569.646	300.197	-0.085	-0.155
-568.631	-120.196	0.246	0.042
-567.617	201.659	-0.139	-0.213
-566.602	124.224	0.211	-0.265
-565.588	-200.000	-0.030	-0.145
-564.573	332.595	-0.150	-0.289
-563.558	-72.178	0.114	-0.042
-562.544	48.557	-0.180	-0.168
-561.529	-93.045	-0.167	-0.046
-560.515	-200.000	0.040	-0.261
-559.500	315.494	-0.095	0.178
-558.485	-118.084	0.166	0.029
-557.471	-175.517	-0.347	-0.009
-556.456	800.000	-0.099	-0.337
-555.442	171.331	-0.105	-0.150
-554.427	-200.000	-0.014	-0.132
-553.412	800.000	0.016	0.047
-552.398	-200.000	0.011	-0.139
-551.383	33.981	0.103	-0.090
-550.369	-44.922	-0.201	0.100
-549.354	184.675	0.131	0.193
-548.339	-7.717	0.222	0.149
-547.325	-141.776	-0.280	-0.028
-546.310	-73.660	0.352	0.128
-545.296	62.583	-0.068	0.068
-544.281	9.179	-0.312	-0.235
-543.266	-93.905	-0.324	0.089
-542.252	-64.353	0.165	0.067
-541.237	800.000	-0.088	0.354
-540.223	45.440	-0.232	-0.213
-539.208	-5.113	0.325	0.223
-538.193	-136.183	-0.505	-0.059
-537.179	-124.588	0.096	-0.015
-536.164	75.552	0.057	-0.060
-535.150	-140.138	0.485	0.051
-534.135	18.498	-0.010	-0.008
-533.121	-200.000	-0.047	0.296
-532.106	-110.163	-0.205	0.043
-531.091	518.262	0.054	-0.126
-530.077	800.000	-0.038	0.150
-529.062	-200.000	-0.039	-0.281
-528.048	-200.000	-0.032	-0.204
-527.033	133.521	-0.079	0.102
-526.018	-200.000	0.090	0.475
-525.004	-200.000	-0.050	-0.357
-523.989	-138.727	-0.318	0.035
-522.975	463.388	-0.136	0.303
-521.960	70.880	-0.091	-0.094
-520.945	214.519	-0.179	0.283
-519.931	263.784	0.105	-0.182
-518.916	-62.447	-0.120	-0.050
-517.902	-115.474	-0.086	0.016
-516.887	227.405	0.176	0.285
-515.872	-33.408	-0.118	0.065
-514.858	-200.000	0.036	0.207
-513.843	-200.000	-0.071	0.496
-512.829	-200.000	0.012	0.353
-511.814	186.394	-0.068	-0.100
-510.799	199.704	-0.031	-0.047
-509.785	7.897	0.025	-0.018
-508.770	-200.000	-0.016	-0.132
-507.756	800.000	-0.064	0.247
-506.741	36.490	-0.066	0.058
-505.726	-74.337	-0.297	-0.107
-504.712	-2.124	-0.129	-0.090
-503.697	-112.778	0.051	-0.010
-502.683	-57.758	-0.184	-0.080
-501.668	800.000	-0.107	0.426
-500.653	-37.151	0.115	0.061
-499.639	99.022	0.140	0.161
-498.624	-200.000	-0.025	-0.219
-497.610	-122.240	0.262	0.043
-496.595	-180.353	-0.276	0.006
-495.581	119.408	-0.144	0.177
-494.566	148.344	0.276	0.371
-493.551	-76.750	0.434	-0.151
-492.537	16.014	-0.062	-0.049
-491.522	61.528	-0.128	0.127
-490.508	800.000	0.086	0.291
-489.493	242.837	0.047	0.078
-488.478	32.310	-0.146	-0.125
-487.464	-84.737	0.424	0.132
-486.449	51.289	0.184	-0.173
-485.435	221.497	0.035	-0.056
-484.420	-156.226	0.098	-0.006
-483.405	18.103	-0.129	0.102
-482.391	54.210	-0.208	-0.199
-481.376	800.000	-0.065	0.240
-480.362	20.736	-0.224	0.180
-479.347	134.383	0.282	-0.364
-478.332	-200.000	0.032	0.172
-477.318	-200.000	0.012	-0.121
-476.303	634.249	0.107	-0.270
-475.289	60.574	0.120	0.118
-474.274	144.158	-0.042	0.056
-473.259	-11.679	-0.116	0.076
-472.245	75.196	0.170	0.178
-471.230	-200.000	0.036	-0.241
-470.216	-200.000	0.009	-0.155
-469.201	-200.000	-0.012	-0.051
-468.186	800.000	-0.057	-0.204
-467.172	52.006	-0.122	0.116
-466.157	-200.000	-0.013	0.157
-465.143	-97.738	-0.198	-0.051
-464.128	-61.774	0.211	-0.088
-463.113	-200.000	-0.047	-0.425
-462.099	104.465	0.162	-0.190
-461.084	-12.856	-0.258	-0.167
-460.070	16.641	-0.124	-0.097
-459.055	-27.752	-0.325	0.187
-458.040	137.999	0.160	-0.208
-457.026	-105.947	0.368	-0.082
-456.011	-67.833	-0.226	0.088
-454.997	48.761	0.221	0.206
-453.982	800.000	-0.103	-0.355
-452.968	-89.266	-0.259	0.076
-451.953	-86.980	-0.325	-0.098
-450.938	-84.117	-0.208	0.066
-449.924	27.501	0.353	0.294
-448.909	-200.000	0.013	0.167
-447.895	-137.135	0.197	0.022
-446.880	-200.000	-0.003	0.045
-445.865	499.573	0.074	0.170
-444.851	185.590	-0.175	0.259
-443.836	-200.000	0.011	-0.146
-442.822	-28.356	-0.323	-0.185
-441.807	-200.000	0.026	0.300
-440.792	-104.443	0.466	-0.107
-439.778	349.773	-0.166	-0.325
-438.763	-102.507	0.337	0.080
-437.749	-82.528	-0.283	0.091
-436.734	-200.000	0.000	0.052
-435.719	800.000	0.091	-0.271
-434.705	-200.000	0.007	-0.056
-433.690	25.518	0.137	-0.113
-432.676	50.032	-0.217	0.203
-431.661	361.659	0.147	-0.293
-430.646	-200.000	-0.026	-0.196
-429.632	-13.523	-0.052	0.034
-428.617	347.279	0.072	-0.141
-427.603	-64.161	-0.249	-0.101
-426.588	418.075	-0.289	-0.613
-425.573	512.543	0.086	-0.199
-424.559	-118.312	-0.349	0.062
-423.544	-200.000	-0.005	0.137
-422.530	-200.000	-0.023	0.236
-421.515	-200.000	-0.235	0.000
-420.500	-200.000	0.045	-0.452
-419.486	-27.885	0.065	0.037
-418.471	-200.000	0.022	-0.101
-417.457	-117.885	-0.305	-0.054
-416.442	-60.969	-0.423	0.177
-415.428	156.023	-0.132	0.180
-414.413	282.257	0.105	0.186
-413.398	-71.662	0.174	0.064
-412.384	-116.835	0.267	0.048
-411.369	-30.369	0.265	0.149
-410.355	-181.707	0.126	-0.002
-409.340	343.904	-0.087	0.169
-408.325	86.423	-0.286	-0.313
-407.311	-23.232	0.206	-0.123
-406.296	-133.931	-0.164	0.020
-405.282	-200.000	0.051	-0.233
-404.267	-175.593	-0.187	0.005
-403.252	60.706	-0.286	0.281
-402.238	218.652	-0.191	-0.302
-401.223	800.000	0.111	0.304
-400.209	-47.118	-0.158	0.076
-399.194	529.779	-0.089	-0.208
-398.179	800.000	0.030	0.109
-397.165	127.810	0.175	-0.221
-396.150	366.447	0.058	-0.117
-395.136	5.863	-0.133	-0.097
-394.121	-96.880	-0.126	0.033
-393.106	202.558	0.066	-0.101
-392.092	-141.625	-0.277	-0.028
-391.077	76.502	0.196	0.205
-390.063	-72.192	0.124	0.045
-389.048	-39.725	0.136	-0.070
-388.033	-84.794	0.435	-0.135
-387.019	220.114	0.198	-0.315
-386.004	383.649	0.024	-0.048
-384.990	-47.502	0.202	-0.097
-383.975	-130.007	-0.293	-0.040
-382.960	-200.000	-0.028	-0.272
-381.946	204.436	-0.022	0.034
-380.931	-45.240	-0.057	0.028
-379.917	-5.721	-0.255	-0.173
-378.902	14.876	0.257	-0.199
-377.888	-49.343	-0.134	-0.063
-376.873	-141.324	0.209	-0.021
-375.858	-179.788	-0.217	-0.005
-374.844	-105.183	-0.256	-0.058
-373.829	-200.000	0.028	0.420
-372.815	-71.513	0.367	0.136
-371.800	-42.565	0.147	-0.074
-370.785	119.727	0.101	0.123
-369.771	-97.850	-0.406	0.104
-368.756	40.812	0.168	0.150
-367.742	-23.397	-0.298	0.177
-366.727	-200.000	-0.034	-0.149
-365.712	-155.183	0.184	-0.012
-364.698	248.506	-0.191	0.320
-363.683	-42.189	0.065	0.033
-362.669	-63.357	-0.256	-0.104
-361.654	-200.000	0.092	0.000
-360.639	-98.426	0.470	-0.119
-359.625	95.546	0.171	-0.193
-358.610	800.000	0.046	0.193
-357.596	-121.402	0.175	0.029
-356.581	-22.168	0.006	0.004
-355.566	59.883	0.153	-0.150
-354.552	-200.000	-0.026	0.179
-353.537	189.468	-0.127	-0.188
-352.523	-146.461	-0.381	-0.033
-351.508	526.552	0.100	-0.232
-350.493	-200.000	-0.074	-0.383
-349.479	-200.000	0.057	0.454
-348.464	800.000	-0.115	-0.355
-347.450	-154.012	0.046	0.003
-346.435	-200.000	0.017	0.123
-345.420	800.000	-0.027	-0.101
-344.406	31.100	0.039	-0.033
-343.391	5.670	-0.014	0.010
-342.377	800.000	0.078	-0.222
-341.362	-61.780	-0.121	0.050
-340.348	-200.000	0.217	0.001
-339.333	-12.239	-0.322	-0.208
-338.318	800.000	-0.140	0.495
-337.304	7.483	0.207	0.153
-336.289	-122.599	-0.098	-0.016
-335.275	800.000	-0.139	-0.400
-334.260	-200.000	-0.001	0.031
-333.245	227.068	0.142	0.227
-332.231	-200.000	0.011	0.059
-331.216	-106.400	0.232	0.051
-330.202	-65.423	-0.044	-0.017
-329.187	-200.000	0.044	0.357
-328.172	-13.606	-0.269	-0.172
-327.158	-7.241	-0.084	-0.056
-326.143	-15.353	-0.430	-0.272
-325.129	800.000	0.058	-0.217
-324.114	127.624	-0.142	-0.178
-323.099	-200.000	0.006	-0.060
-322.085	800.000	-0.059	-0.201
-321.070	-10.656	0.073	-0.047
-320.056	-0.187	0.184	0.129
-319.041	-68.122	-0.108	0.042
-318.026	82.968	-0.056	-0.060
-317.012	-200.000	0.027	0.209
-315.997	695.897	-0.150	0.390
-314.983	-200.000	-0.060	0.316
-313.968	-100.794	-0.124	0.030
-312.953	-136.362	0.114	-0.013
-311.939	-200.000	-0.041	0.203
-310.924	800.000	-0.132	0.491
-309.910	-36.591	0.118	0.062
-308.895	158.097	-0.282	-0.386
-307.880	310.058	0.030	-0.056
-306.866	208.594	0.132	0.204
-305.851	27.251	0.368	0.305
-304.837	-61.597	0.299	-0.124
-303.822	43.808	-0.194	-0.175
-302.807	-60.930	0.294	0.123
-301.793	800.000	-0.020	-0.061
-300.778	137.488	-0.107	0.138
-299.764	-43.624	-0.260	0.129
-298.749	-65.052	0.343	-0.137
-297.735	414.262	0.047	-0.099
-296.720	-148.079	-0.147	-0.012
-295.705	189.338	0.038	-0.057
-294.691	-200.000	-0.001	0.232
-293.676	2.234	0.276	-0.197
-292.662	427.473	0.082	-0.175
-291.647	-36.566	-0.127	-0.067
-290.632	-79.457	-0.161	-0.054
-289.618	-61.193	0.072	-0.030
-288.603	236.400	0.232	0.379
-287.589	-151.708	0.215	-0.016
-286.574	416.004	-0.143	0.300
-285.559	-118.130	0.193	0.034
-284.545	-2.594	-0.186	0.128
-283.530	15.670	0.221	0.171
-282.516	439.900	-0.017	-0.036
-281.501	86.413	0.083	0.090
-280.486	124.950	0.242	0.300
-279.472	37.843	0.124	0.109
-278.457	-143.045	-0.050	-0.005
-277.443	-81.693	0.168	0.054
-276.428	800.000	-0.028	-0.107
-275.413	-200.000	0.001	-0.100
-274.399	128.058	0.078	0.098
-273.384	-37.924	-0.131	-0.069
-272.370	-168.942	-0.182	-0.007
-271.355	440.487	-0.085	-0.182
-270.340	-104.081	-0.203	-0.046
-269.326	-200.000	-0.077	0.486
-268.311	800.000	0.054	0.233
-267.297	2.248	-0.200	0.142
-266.282	-117.700	0.235	-0.042
-265.267	-105.749	0.238	-0.053
-264.253	-104.815	0.151	0.034
-263.238	9.062	-0.027	-0.020
-262.224	-44.293	0.025	0.012
-261.209	23.454	0.060	-0.049
-260.195	706.210	-0.063	-0.164
-259.180	-53.268	0.198	-0.090
-258.165	-79.066	-0.223	-0.075
-257.151	-200.000	0.016	0.324
-256.136	206.661	0.134	-0.205
-255.122	-91.051	0.409	-0.116
-254.107	39.514	-0.040	0.035
-253.092	16.393	0.292	0.227
-252.078	-121.266	-0.405	-0.067
-251.063	70.342	-0.184	-0.187
-250.049	52.486	0.175	0.165
-249.034	89.222	0.135	-0.148
-248.019	-68.692	0.262	-0.100
-247.005	-136.295	-0.395	-0.045
-245.990	76.575	0.163	0.170
-244.976	682.364	0.063	0.162
-243.961	-1.950	0.247	-0.171
-242.946	621.014	0.144	-0.357
-241.932	-66.832	-0.224	0.087
-240.917	-39.927	0.264	0.135
-239.903	-89.515	0.245	-0.071
-238.888	-26.867	0.130	-0.075
-237.873	-67.615	0.269	-0.104
-236.859	190.692	0.185	-0.274
-235.844	205.467	0.058	0.088
-234.830	-148.253	-0.107	-0.009
-233.815	-200.000	0.029	0.137
-232.800	-0.476	0.320	0.223
-231.786	327.992	0.091	0.172
-230.771	-200.000	-0.114	0.492
-229.757	-45.943	0.189	-0.092
-228.742	-118.623	-0.338	0.059
-227.727	-21.906	0.283	-0.169
-226.713	-83.797	0.155	0.048
-225.698	3.513	0.197	0.141
-224.684	135.913	-0.123	-0.158
-223.669	197.352	0.096	-0.143
-222.655	-47.058	-0.543	-0.261
-221.640	341.304	0.148	-0.285
-220.625	-200.000	-0.010	-0.177
-219.611	-22.807	-0.196	0.116
-218.596	-19.612	-0.290	-0.176
-217.582	14.705	0.177	-0.136
-216.567	-78.718	0.451	-0.151
-215.552	13.815	0.088	0.067
-214.538	-123.326	0.289	0.045
-213.523	577.954	0.094	-0.227
-212.509	-177.724	0.077	-0.002
-211.494	-200.000	-0.027	-0.120
-210.479	-28.501	0.271	-0.153
-209.465	48.774	-0.006	-0.006
-208.450	737.501	-0.018	0.049
-207.436	112.940	0.292	0.348
-206.421	-58.175	-0.197	0.084
-205.406	-5.926	0.017	0.012
-204.392	-143.650	0.239	-0.022
-203.377	-136.552	0.128	-0.015
-202.363	-25.865	-0.279	-0.162
-201.348	800.000	0.053	-0.216
-200.333	-200.000	0.016	-0.328
-199.319	-25.112	0.494	-0.288
-198.304	195.781	-0.083	-0.124
-197.290	414.734	-0.056	0.117
-196.275	5.436	0.112	0.081
-195.260	-200.000	-0.006	0.458
-194.246	357.209	0.274	0.538
-193.231	-151.997	-0.205	0.015
-192.217	11.152	0.304	-0.228
-191.202	-59.169	0.038	-0.016
-190.187	16.825	0.076	-0.059
-189.173	-200.000	0.207	0.000
-188.158	-2.245	0.230	0.159
-187.144	-74.050	-0.070	0.025
-186.129	-151.372	-0.147	0.011
-185.114	30.811	0.151	0.127
-184.100	-200.000	0.007	-0.045
-183.085	800.000	0.059	0.180
-182.071	-50.609	0.016	0.008
-181.056	-200.000	0.005	0.138
-180.042	-200.000	0.005	0.309
-179.027	55.696	-0.170	0.162
-178.012	-166.067	0.510	0.021
-176.998	-37.553	0.110	-0.057
-175.983	268.634	0.024	0.040
-174.969	380.842	-0.118	-0.238
-173.954	-200.000	0.014	0.090
-172.939	155.299	-0.176	0.238
-171.925	491.902	0.049	0.110
-170.910	-85.813	0.132	0.040
-169.896	-103.681	0.223	-0.051
-168.881	-160.206	-0.336	-0.018
-167.866	380.475	-0.130	0.261
-166.852	152.368	0.104	0.139
-165.837	800.000	-0.035	0.129
-164.823	800.000	-0.021	0.064
-163.808	-54.138	0.165	-0.074
-162.793	-200.000	-0.019	-0.472
-161.779	-124.803	-0.135	0.020
-160.764	48.606	-0.154	-0.141
-159.750	271.117	-0.128	0.221
-158.735	155.174	0.162	0.219
-157.720	800.000	-0.075	-0.311
-156.706	-53.455	0.304	0.137
-155.691	438.859	-0.032	0.068
-154.677	-200.000	-0.020	0.108
-153.662	65.648	-0.122	-0.121
-152.647	-117.632	-0.210	0.037
-151.633	-98.397	0.153	0.039
-150.618	126.833	0.175	0.217
-149.604	-38.531	0.189	0.098
-148.589	-66.298	-0.329	-0.128
-147.574	77.154	-0.104	-0.109
-146.560	122.075	0.119	-0.145
-145.545	-187.169	0.104	-0.001
-144.531	-102.776	-0.201	0.047
-143.516	-88.420	-0.129	0.038
-142.502	-138.182	-0.262	0.028
-141.487	162.564	0.122	0.168
-140.472	229.355	-0.057	0.092
-139.458	-66.803	-0.326	-0.127
-138.443	-114.503	-0.299	0.056
-137.429	-139.991	0.081	0.008
-136.414	-80.144	-0.072	0.024
-135.399	-200.000	-0.060	-0.258
-134.385	7.573	0.102	-0.075
-133.370	-64.440	0.151	-0.060
-132.356	-200.000	0.018	0.209
-131.341	31.465	0.398	0.335
-130.326	10.879	-0.123	0.092
-129.312	66.681	0.151	-0.151
-128.297	23.407	-0.235	0.189
-127.283	-54.736	0.127	-0.056
-126.268	-61.505	0.203	-0.083
-125.253	-200.000	0.020	-0.098
-124.239	63.642	-0.038	-0.037
-123.224	800.000	-0.087	-0.284
-122.210	-31.877	0.071	0.039
-121.195	-131.325	0.351	0.046
