DTS Sentinel unit serial number:	SN413079Multiplexer serial number:	ORYXHardware model number:	OX4-SRSoftware version number:	ORYX F/W v4.00 Oryx Data Collector v3.7.2.0data status	okinstallation	princeton_trtdifferential loss correction	single-endedforward channel	channel 1reverse channel	N/Adate	2019/09/13time	19:10:35forward acquisition time	60.00reverse acquisition time	0.00gamma	496.2192k internal	0.2325k external	0.2325temperature offset calibration	1.0118default loss term (dB/km)	0.3790temperature slope calibration	1.0000multiplexer offset coefficient	1.0000multiplexer slope coefficient	1.0000fibre end	0.00T internal ref (°C)	31.50T ext. ref 1 (°C)	3.84T ext. ref 2 (°C)	24.85length (m)	temperature (°C)	Stokes	anti-Stokes-747.200	42.297	0.083	-0.076
-746.185	203.757	-0.108	0.170
-745.171	108.902	-0.044	0.053
-744.156	80.544	0.242	0.264
-743.142	-84.220	0.250	0.080
-742.127	620.055	-0.134	0.341
-741.112	-27.933	-0.162	0.095
-740.098	-93.563	-0.148	-0.041
-739.083	-200.000	0.039	-0.177
-738.069	215.373	-0.201	0.321
-737.054	-55.064	0.262	0.119
-736.039	-23.925	-0.255	-0.154
-735.025	-21.326	0.333	-0.205
-734.010	1.490	-0.097	-0.070
-732.996	38.350	-0.125	-0.113
-731.981	442.111	0.088	0.194
-730.966	189.559	-0.090	-0.135
-729.952	-172.508	-0.338	-0.011
-728.937	686.815	0.032	-0.085
-727.923	45.595	-0.116	-0.108
-726.908	-77.604	0.246	-0.086
-725.894	-93.761	-0.200	-0.056
-724.879	25.931	-0.071	0.059
-723.864	-200.000	0.045	0.274
-722.850	-171.483	-0.195	-0.007
-721.835	134.050	-0.194	-0.253
-720.821	-45.708	-0.390	-0.194
-719.806	-86.215	0.149	0.046
-718.791	36.160	-0.173	0.154
-717.777	-4.332	-0.233	-0.163
-716.762	-200.000	0.004	-0.054
-715.748	-54.375	0.139	0.064
-714.733	147.646	-0.022	-0.030
-713.718	-50.759	-0.189	0.090
-712.704	12.641	0.250	-0.195
-711.689	-77.630	0.153	-0.053
-710.675	-127.790	-0.162	-0.024
-709.660	161.351	-0.147	-0.207
-708.645	103.756	0.136	0.160
-707.631	171.689	0.112	0.163
-706.616	590.101	-0.102	-0.253
-705.602	25.743	-0.247	0.207
-704.587	-37.537	0.260	0.139
-703.572	800.000	0.071	0.207
-702.558	248.119	-0.121	-0.206
-701.543	-41.552	0.130	-0.067
-700.529	-200.000	-0.025	-0.347
-699.514	-86.165	0.085	0.026
-698.499	714.430	0.172	-0.459
-697.485	722.807	-0.104	-0.279
-696.470	800.000	-0.062	-0.262
-695.456	-27.613	-0.122	-0.071
-694.441	169.772	0.191	0.275
-693.426	800.000	0.079	-0.251
-692.412	231.147	0.161	0.265
-691.397	780.605	0.095	0.261
-690.383	450.118	0.084	0.186
-689.368	543.680	0.014	-0.033
-688.354	-162.457	-0.321	-0.016
-687.339	800.000	-0.045	0.155
-686.324	-200.000	0.038	0.361
-685.310	800.000	-0.020	-0.061
-684.295	196.007	0.235	0.360
-683.281	-200.000	-0.025	0.248
-682.266	-172.286	0.240	-0.008
-681.251	146.930	0.145	0.196
-680.237	-121.999	0.193	0.032
-679.222	329.276	-0.126	0.245
-678.208	135.697	-0.112	-0.146
-677.193	6.888	-0.226	-0.169
-676.178	78.209	0.157	-0.169
-675.164	-108.441	0.176	-0.038
-674.149	800.000	-0.042	0.148
-673.135	-169.439	0.215	0.008
-672.120	800.000	-0.085	0.275
-671.105	324.429	-0.044	0.084
-670.091	113.267	-0.092	-0.113
-669.076	27.961	-0.117	-0.099
-668.062	-200.000	0.013	-0.233
-667.047	-200.000	-0.051	0.318
-666.032	17.869	0.095	0.076
-665.018	54.489	0.432	-0.419
-664.003	151.733	-0.120	-0.164
-662.989	-58.502	-0.095	0.041
-661.974	109.868	-0.183	-0.221
-660.959	-200.000	-0.001	0.074
-659.945	74.168	0.063	0.066
-658.930	800.000	0.120	-0.461
-657.916	57.636	-0.165	0.162
-656.901	-149.998	-0.283	-0.022
-655.886	63.086	-0.269	-0.271
-654.872	69.167	-0.242	-0.250
-653.857	-200.000	-0.094	0.418
-652.843	-115.653	-0.117	0.022
-651.828	680.060	0.052	-0.136
-650.814	-200.000	0.025	-0.371
-649.799	-200.000	0.034	-0.401
-648.784	-96.533	0.298	0.079
-647.770	-109.983	-0.109	0.023
-646.755	119.222	-0.100	-0.124
-645.741	-17.132	-0.151	-0.096
-644.726	800.000	0.070	-0.280
-643.711	-28.028	0.230	0.134
-642.697	800.000	0.053	0.177
-641.682	-8.260	-0.043	0.029
-640.668	-99.027	-0.168	-0.043
-639.653	-69.669	0.320	0.123
-638.638	-200.000	-0.020	0.223
-637.624	-9.878	-0.161	0.107
-636.609	-46.230	0.216	0.107
-635.595	-200.000	0.018	-0.339
-634.580	-31.824	0.128	-0.072
-633.565	-68.481	-0.230	-0.090
-632.551	235.745	0.191	-0.318
-631.536	-200.000	-0.015	-0.225
-630.522	577.799	-0.072	-0.176
-629.507	-200.000	-0.026	0.324
-628.492	119.170	0.280	0.348
-627.478	170.200	-0.258	-0.371
-626.463	-200.000	0.005	0.234
-625.449	-200.000	-0.025	-0.172
-624.434	83.646	0.238	-0.261
-623.419	21.048	-0.231	-0.188
-622.405	275.682	0.073	-0.131
-621.390	-135.792	0.235	-0.028
-620.376	-98.222	0.165	0.042
-619.361	-200.000	-0.064	-0.329
-618.346	-90.291	0.192	0.056
-617.332	-95.955	0.050	0.014
-616.317	170.297	-0.132	0.189
-615.303	-200.000	-0.013	0.162
-614.288	800.000	0.127	0.435
-613.273	264.559	0.102	0.179
-612.259	-126.904	0.316	-0.047
-611.244	-181.686	0.023	0.000
-610.230	-100.929	0.262	-0.065
-609.215	82.192	-0.032	-0.035
-608.201	800.000	-0.103	-0.289
-607.186	147.196	0.192	0.260
-606.171	-8.398	0.085	0.057
-605.157	-184.347	-0.135	0.002
-604.142	-85.577	0.445	0.139
-603.128	-200.000	-0.033	0.298
-602.113	-200.000	0.001	0.090
-601.098	489.281	-0.131	0.300
-600.084	800.000	0.038	0.139
-599.069	-200.000	-0.003	0.027
-598.055	-110.328	0.340	-0.071
-597.040	-100.302	-0.030	-0.007
-596.025	545.992	0.091	0.217
-595.011	-200.000	0.038	-0.452
-593.996	-102.691	-0.128	-0.031
-592.982	800.000	0.012	-0.040
-591.967	-55.625	0.219	0.098
-590.952	-140.798	0.382	-0.039
-589.938	358.485	0.068	0.136
-588.923	-45.355	-0.117	-0.058
-587.909	27.399	0.121	-0.102
-586.894	-115.619	0.082	0.015
-585.879	795.382	0.086	0.238
-584.865	417.812	-0.064	-0.137
-583.850	773.980	-0.112	-0.305
-582.836	82.372	-0.204	0.222
-581.821	800.000	0.066	0.251
-580.806	403.222	0.060	-0.127
-579.792	293.629	0.096	-0.176
-578.777	-49.838	0.197	-0.094
-577.763	-93.841	-0.481	0.133
-576.748	-200.000	-0.056	-0.252
-575.733	-37.239	0.123	-0.066
-574.719	41.024	-0.181	-0.164
-573.704	133.033	-0.096	-0.125
-572.690	11.534	-0.093	-0.072
-571.675	47.009	0.368	-0.343
-570.661	136.416	-0.132	0.173
-569.646	-16.394	0.129	0.082
-568.631	44.408	0.138	0.127
-567.617	26.533	-0.278	0.233
-566.602	106.462	0.253	0.300
-565.588	81.061	-0.349	-0.378
-564.573	-180.728	-0.239	0.005
-563.558	800.000	-0.056	-0.179
-562.544	17.912	-0.079	0.063
-561.529	81.880	-0.085	-0.092
-560.515	800.000	-0.054	-0.189
-559.500	73.419	-0.246	-0.258
-558.485	-91.468	-0.141	-0.040
-557.471	62.279	0.156	-0.156
-556.456	35.030	-0.098	-0.086
-555.442	-200.000	-0.014	0.171
-554.427	-56.540	0.104	-0.046
-553.412	97.041	-0.089	-0.103
-552.398	800.000	-0.088	0.342
-551.383	-200.000	0.003	0.182
-550.369	-200.000	0.001	0.238
-549.354	-98.594	-0.050	-0.013
-548.339	246.126	-0.178	-0.301
-547.325	25.995	0.126	-0.105
-546.310	268.550	-0.161	-0.282
-545.296	-155.310	-0.267	0.017
-544.281	58.267	-0.095	-0.093
-543.266	127.063	-0.105	-0.134
-542.252	-200.000	0.004	0.081
-541.237	245.314	0.105	-0.177
-540.223	-146.794	-0.290	0.025
-539.208	-69.770	0.371	0.142
-538.193	-168.745	0.102	0.004
-537.179	60.043	-0.178	0.176
-536.164	-143.132	-0.097	-0.009
-535.150	-84.241	0.082	0.026
-534.135	-200.000	-0.012	-0.103
-533.121	80.950	-0.142	-0.153
-532.106	-11.307	0.141	0.093
-531.091	-54.400	-0.218	-0.099
-530.077	-200.000	0.040	-0.260
-529.062	800.000	0.104	0.355
-528.048	395.451	-0.067	0.140
-527.033	-54.628	0.223	0.101
-526.018	112.912	-0.101	0.123
-525.004	-138.164	-0.290	-0.032
-523.989	95.007	-0.215	-0.245
-522.975	-72.709	-0.094	-0.035
-521.960	49.251	-0.194	-0.183
-520.945	-66.236	0.132	0.053
-519.931	-64.163	-0.331	0.135
-518.916	225.385	0.149	0.241
-517.902	-200.000	0.042	-0.280
-516.887	119.894	-0.086	-0.106
-515.872	-132.069	0.226	0.029
-514.858	-200.000	-0.028	-0.241
-513.843	423.366	0.076	0.163
-512.829	2.032	0.140	-0.101
-511.814	57.498	0.008	0.008
-510.799	119.262	-0.145	0.179
-509.785	-75.944	0.262	0.093
-508.770	-200.000	0.046	-0.339
-507.756	-200.000	0.002	-0.176
-506.741	-80.626	0.253	-0.084
-505.726	-200.000	-0.026	0.300
-504.712	800.000	-0.091	0.287
-503.697	-163.503	-0.222	-0.011
-502.683	187.659	0.085	0.127
-501.668	-70.693	-0.163	0.062
-500.653	-126.814	0.083	0.012
-499.639	-200.000	-0.050	0.284
-498.624	-1.709	-0.317	-0.223
-497.610	-113.084	0.111	0.022
-496.595	52.242	0.206	-0.196
-495.581	21.417	-0.232	0.189
-494.566	370.232	-0.026	-0.053
-493.551	-200.000	-0.002	-0.123
-492.537	-84.762	-0.298	0.094
-491.522	648.854	0.015	-0.039
-490.508	590.481	-0.066	-0.162
-489.493	-200.000	0.027	-0.265
-488.478	-31.291	0.225	0.126
-487.464	800.000	0.049	0.211
-486.449	427.681	-0.021	-0.046
-485.435	-200.000	0.058	0.322
-484.420	65.076	-0.152	-0.154
-483.405	800.000	0.053	-0.226
-482.391	-200.000	-0.009	-0.064
-481.376	-10.936	-0.178	-0.117
-480.362	785.906	0.055	0.152
-479.347	-128.534	-0.416	0.059
-478.332	138.442	0.066	-0.086
-477.318	-72.736	-0.221	0.081
-476.303	760.623	-0.127	0.345
-475.289	35.391	-0.179	-0.157
-474.274	-200.000	-0.005	-0.046
-473.259	800.000	-0.109	0.304
-472.245	-133.081	-0.170	-0.021
-471.230	398.937	-0.078	-0.162
-470.216	125.171	0.073	0.091
-469.201	-200.000	0.062	-0.317
-468.186	47.953	0.129	0.121
-467.172	-136.672	0.117	0.014
-466.157	-71.349	0.176	-0.066
-465.143	379.440	0.164	0.336
-464.128	416.300	-0.050	-0.106
-463.113	-86.831	0.157	-0.048
-462.099	144.960	-0.091	-0.121
-461.084	-200.000	0.034	0.158
-460.070	68.678	-0.210	0.216
-459.055	800.000	0.089	0.266
-458.040	800.000	0.120	0.366
-457.026	-200.000	0.018	0.086
-456.011	-117.420	-0.308	-0.056
-454.997	277.976	-0.138	0.245
-453.982	4.370	0.308	-0.225
-452.968	617.624	-0.039	-0.098
-451.953	-200.000	-0.056	-0.555
-450.938	14.381	0.359	0.279
-449.924	-151.077	0.236	0.018
-448.909	14.629	-0.138	0.107
-447.895	-30.214	0.081	0.046
-446.880	-200.000	-0.012	-0.054
-445.865	800.000	-0.021	0.089
-444.851	57.217	-0.054	-0.052
-443.836	-104.682	-0.409	0.094
-442.822	144.972	0.107	-0.142
-441.807	-200.000	0.026	-0.354
-440.792	591.339	0.089	-0.219
-439.778	800.000	-0.044	-0.143
-438.763	111.574	0.093	0.112
-437.749	-102.285	-0.239	-0.057
-436.734	36.292	-0.161	0.142
-435.719	-115.810	0.186	0.035
-434.705	-177.031	0.261	-0.007
-433.690	699.558	-0.037	0.096
-432.676	-157.405	0.287	0.017
-431.661	432.728	-0.040	0.087
-430.646	86.434	0.268	0.295
-429.632	114.260	-0.121	-0.147
-428.617	532.452	0.050	0.118
-427.603	134.781	0.078	-0.101
-426.588	-59.541	0.394	0.169
-425.573	23.342	-0.391	0.320
-424.559	-126.454	0.081	0.012
-423.544	-46.113	-0.168	-0.082
-422.530	665.413	-0.092	-0.237
-421.515	51.883	0.233	0.221
-420.500	-99.049	0.129	0.033
-419.486	507.431	0.092	-0.213
-418.471	143.974	0.086	0.114
-417.457	-99.034	-0.287	-0.073
-416.442	57.006	0.192	-0.186
-415.428	91.848	-0.152	0.171
-414.413	-16.852	-0.181	-0.114
-413.398	181.967	0.086	0.126
-412.384	-59.792	-0.356	0.152
-411.369	-200.000	-0.023	0.159
-410.355	-200.000	-0.016	-0.154
-409.340	-102.749	0.238	0.056
-408.325	-43.632	0.024	0.012
-407.311	68.232	-0.197	-0.201
-406.296	-6.629	0.232	0.157
-405.282	-8.121	-0.190	0.127
-404.267	253.497	-0.081	-0.137
-403.252	128.152	0.156	-0.198
-402.238	-65.288	0.148	-0.059
-401.223	108.214	-0.162	0.193
-400.209	-59.333	0.104	0.045
-399.194	-200.000	0.015	0.229
-398.179	800.000	-0.077	-0.280
-397.165	-30.220	0.127	-0.072
-396.150	33.846	0.120	0.104
-395.136	308.087	0.012	0.022
-394.121	106.782	0.155	-0.183
-393.106	-94.727	0.096	0.026
-392.092	-124.870	-0.167	0.026
-391.077	41.482	0.040	0.036
-390.063	-200.000	0.019	0.132
-389.048	-51.363	0.162	0.075
-388.033	2.927	0.115	0.083
-387.019	-200.000	-0.017	0.140
-386.004	0.536	-0.172	-0.122
-384.990	366.454	-0.071	-0.143
-383.975	11.123	-0.107	-0.082
-382.960	-200.000	-0.032	0.350
-381.946	-77.779	0.107	-0.037
-380.931	-200.000	-0.011	0.080
-379.917	-23.287	0.259	-0.155
-378.902	113.240	0.137	-0.165
-377.888	800.000	-0.082	-0.302
-376.873	-71.533	0.168	-0.063
-375.858	-117.499	-0.151	-0.027
-374.844	180.645	0.129	-0.188
-373.829	703.771	0.109	0.285
-372.815	-128.423	-0.433	-0.061
-371.800	-73.894	0.358	-0.129
-370.785	-200.000	0.001	0.134
-369.771	-106.103	0.252	0.056
-368.756	72.885	-0.168	-0.174
-367.742	-126.312	0.587	-0.087
-366.727	-95.919	-0.400	-0.106
-365.712	-200.000	-0.012	-0.276
-364.698	57.762	-0.159	-0.155
-363.683	-53.073	-0.284	0.130
-362.669	-200.000	-0.016	-0.133
-361.654	800.000	-0.047	-0.129
-360.639	49.345	0.247	-0.231
-359.625	-70.684	0.245	0.092
-358.610	-136.687	-0.299	0.034
-357.596	-200.000	-0.033	-0.177
-356.581	-78.307	-0.339	0.116
-355.566	453.010	0.148	0.325
-354.552	54.488	0.239	-0.229
-353.537	-83.865	-0.255	0.081
-352.523	800.000	0.061	-0.230
-351.508	-3.370	0.137	-0.095
-350.493	-49.489	0.116	-0.055
-349.479	61.083	-0.063	-0.062
-348.464	154.411	0.047	0.065
-347.450	800.000	-0.109	0.368
-346.435	240.306	-0.266	0.440
-345.420	131.767	-0.219	0.280
-344.406	23.471	-0.217	0.177
-343.391	425.618	0.050	0.108
-342.377	-143.167	0.167	-0.016
-341.362	-200.000	0.036	-0.293
-340.348	800.000	0.073	-0.252
-339.333	-39.085	-0.117	-0.061
-338.318	-200.000	0.028	0.263
-337.304	287.690	0.286	0.513
-336.289	-200.000	-0.027	-0.289
-335.275	-99.488	-0.208	-0.052
-334.260	327.855	-0.046	0.087
-333.245	49.206	-0.171	-0.160
-332.231	496.790	-0.058	-0.133
-331.216	-133.282	0.272	0.034
-330.202	-200.000	0.020	-0.208
-329.187	-10.564	0.217	-0.143
-328.172	-170.831	-0.212	-0.007
-327.158	-55.059	-0.127	0.057
-326.143	-161.936	0.165	-0.008
-325.129	-200.000	-0.064	0.352
-324.114	-52.875	0.054	-0.025
-323.099	800.000	0.077	0.303
-322.085	-200.000	-0.013	-0.209
-321.070	-106.269	0.196	0.044
-320.056	51.961	-0.111	0.105
-319.041	0.350	-0.122	0.087
-318.026	-200.000	0.005	-0.100
-317.012	-108.239	-0.380	-0.081
-315.997	-75.824	0.041	-0.015
-314.983	-158.475	-0.153	0.009
-313.968	-200.000	0.003	0.268
-312.953	-95.961	-0.303	0.080
-311.939	418.853	-0.152	-0.323
-310.924	-200.000	0.067	-0.413
-309.910	-195.363	0.196	-0.001
-308.895	-136.371	-0.297	-0.034
-307.880	-31.642	0.484	-0.269
-306.866	800.000	0.026	-0.108
-305.851	-200.000	-0.030	-0.291
-304.837	-130.497	-0.699	-0.094
-303.822	129.385	-0.105	-0.134
-302.807	-124.385	0.234	-0.036
-301.793	146.738	0.079	0.105
-300.778	154.266	0.057	0.078
-299.764	409.828	0.077	0.162
-298.749	800.000	-0.107	0.317
-297.735	-14.337	-0.172	-0.110
-296.720	-200.000	-0.042	-0.283
-295.705	-51.582	-0.193	-0.089
-294.691	271.193	-0.076	-0.133
-293.676	596.049	-0.152	-0.372
-292.662	800.000	0.055	0.209
-291.647	-80.579	0.138	-0.046
-290.632	-104.487	0.207	-0.047
-289.618	30.047	-0.104	0.088
-288.603	145.087	0.228	-0.302
-287.589	116.381	-0.042	0.051
-286.574	49.125	0.100	0.093
-285.559	-131.012	-0.045	-0.006
-284.545	127.833	0.092	-0.116
-283.530	-200.000	-0.020	-0.287
-282.516	62.527	0.157	-0.155
-281.501	-200.000	0.031	0.163
-280.486	368.160	0.170	-0.340
-279.472	22.443	0.174	-0.141
-278.457	575.488	0.063	0.153
-277.443	25.213	0.228	0.187
-276.428	278.689	-0.067	-0.118
-275.413	-146.622	-0.211	0.018
-274.399	-116.674	0.147	-0.027
-273.384	612.676	0.060	-0.148
-272.370	-200.000	-0.063	-0.304
-271.355	-51.056	0.123	0.057
-270.340	-76.527	0.256	0.089
-269.326	120.484	0.131	-0.162
-268.311	-179.160	-0.215	-0.005
-267.297	-130.245	-0.350	-0.047
-266.282	171.599	-0.193	-0.275
-265.267	-196.301	-0.268	0.002
-264.253	-169.497	0.180	-0.007
-263.238	-8.726	-0.359	0.239
-262.224	800.000	-0.120	0.373
-261.209	358.826	0.042	-0.082
-260.195	250.589	0.040	0.067
-259.180	83.296	0.085	-0.092
-258.165	-81.812	-0.109	-0.035
-257.151	144.251	-0.098	0.130
-256.136	75.395	0.288	-0.300
-255.122	-8.191	0.214	0.142
-254.107	380.132	-0.093	-0.189
-253.092	-200.000	0.004	-0.269
-252.078	247.802	-0.146	-0.244
-251.063	-59.721	-0.288	-0.122
-250.049	-51.718	0.294	0.135
-249.034	-17.943	-0.085	0.053
-248.019	-181.300	-0.266	0.005
-247.005	-181.878	0.230	0.004
-245.990	-26.137	0.233	-0.136
-244.976	-20.895	-0.248	0.150
-243.961	-149.330	-0.695	0.055
-242.946	149.969	-0.035	0.047
-241.932	-48.720	0.147	0.070
-240.917	429.233	0.020	0.042
-239.903	-48.606	0.086	0.041
-238.888	-98.129	0.297	-0.075
-237.873	164.639	-0.139	0.194
-236.859	228.128	0.081	0.130
-235.844	-200.000	0.027	-0.379
-234.830	105.608	-0.239	0.280
-233.815	-14.577	-0.209	0.133
-232.800	137.056	-0.200	0.259
-231.786	800.000	0.024	-0.075
-230.771	-82.276	-0.218	-0.070
-229.757	-101.823	0.182	0.043
-228.742	-145.447	-0.100	-0.009
-227.727	800.000	-0.107	0.407
-226.713	-101.276	0.328	-0.079
-225.698	17.511	0.189	0.149
-224.684	-69.112	-0.280	0.106
-223.669	-200.000	0.064	-0.337
-222.655	-200.000	0.008	0.404
-221.640	7.797	-0.040	0.030
-220.625	-99.222	0.159	0.040
-219.611	-200.000	0.036	0.224
-218.596	10.122	0.215	-0.162
-217.582	-78.024	0.278	0.095
-216.567	231.739	-0.075	0.121
-215.552	-88.505	0.207	-0.061
-214.538	40.786	0.168	0.149
-213.523	101.519	0.138	-0.160
-212.509	324.107	-0.182	-0.343
-211.494	-200.000	-0.052	-0.286
-210.479	135.301	0.173	0.222
-209.465	-200.000	0.011	0.080
-208.450	-61.352	-0.555	-0.231
-207.436	342.720	0.035	0.068
-206.421	-200.000	-0.011	0.306
-205.406	-169.037	0.125	0.005
-204.392	38.977	0.184	-0.163
-203.377	78.637	-0.085	-0.090
-202.363	-97.038	0.263	0.068
-201.348	100.900	0.300	-0.345
-200.333	25.365	-0.206	0.169
-199.319	-200.000	-0.038	0.464
-198.304	-200.000	-0.008	-0.107
-197.290	12.785	-0.194	0.148
-196.275	-17.674	0.059	-0.037
-195.260	-200.000	-0.051	0.335
-194.246	-118.197	0.103	0.018
-193.231	6.167	0.098	-0.072
-192.217	34.408	-0.126	0.108
-191.202	300.550	0.092	0.168
-190.187	-144.105	-0.099	-0.009
-189.173	-97.664	-0.439	-0.112
-188.158	611.985	0.041	0.101
-187.144	-200.000	-0.003	0.018
-186.129	-69.583	0.132	-0.050
-185.114	800.000	-0.046	0.139
-184.100	-200.000	0.036	-0.208
-183.085	-200.000	0.021	-0.192
-182.071	-200.000	-0.115	0.514
-181.056	229.785	0.049	0.079
-180.042	-104.911	0.165	0.037
-179.027	213.593	0.085	0.133
-178.012	-76.785	0.162	0.056
-176.998	-20.264	-0.258	0.157
-175.983	-88.523	0.478	0.141
-174.969	269.507	0.150	0.261
-173.954	-97.370	0.325	0.084
-172.939	-96.266	0.230	-0.060
-171.925	-119.748	-0.149	0.025
-170.910	-24.802	-0.256	-0.150
-169.896	-200.000	0.023	0.456
-168.881	181.206	0.061	0.089
-167.866	231.087	0.019	-0.030
-166.852	374.305	0.159	0.320
-165.837	-21.803	-0.207	-0.124
-164.823	-200.000	0.044	0.249
-163.808	45.090	0.164	0.149
-162.793	-113.602	-0.162	0.031
-161.779	-135.030	0.060	0.007
-160.764	-200.000	-0.003	-0.164
-159.750	91.756	-0.321	-0.356
-158.735	-42.632	0.168	0.085
-157.720	667.386	0.030	0.078
-156.706	39.093	-0.222	-0.196
-155.691	-50.041	-0.288	0.135
-154.677	-12.717	0.223	-0.143
-153.662	-200.000	-0.031	0.265
-152.647	-145.387	-0.065	-0.006
-151.633	578.674	0.012	0.030
-150.618	-67.345	0.095	0.037
-149.604	-145.934	-0.208	0.018
-148.589	-200.000	0.010	-0.245
-147.574	150.737	-0.171	-0.228
-146.560	-47.182	0.306	0.147
-145.545	-72.081	0.080	0.029
-144.531	532.251	0.125	0.292
-143.516	800.000	0.048	-0.173
-142.502	-44.331	0.183	0.090
-141.487	148.164	0.200	0.266
-140.472	28.701	-0.030	-0.025
-139.458	247.059	0.228	-0.379
-138.443	32.939	-0.234	0.200
-137.429	53.235	0.139	0.132
-136.414	-51.423	-0.150	0.069
-135.399	416.159	0.026	0.054
-134.385	800.000	-0.038	0.130
-133.370	103.202	-0.086	0.100
-132.356	-78.451	-0.297	0.100
-131.341	-200.000	0.018	0.202
-130.326	-200.000	-0.016	-0.120
-129.312	17.354	-0.322	-0.252
-128.297	-28.692	0.243	0.138
-127.283	342.220	0.056	0.107
-126.268	82.439	-0.074	0.079
-125.253	724.331	0.040	0.104
-124.239	152.645	-0.285	0.384
-123.224	800.000	0.131	0.418
-122.210	114.689	-0.209	0.251
-121.195	136.419	-0.199	0.255
-120.180	218.207	0.107	0.168
