DTS Sentinel unit serial number:	SN413079Multiplexer serial number:	ORYXHardware model number:	OX4-SRSoftware version number:	ORYX F/W v4.00 Oryx Data Collector v3.7.2.0data status	okinstallation	princeton_trtdifferential loss correction	single-endedforward channel	channel 1reverse channel	N/Adate	2019/09/14time	11:42:35forward acquisition time	60.00reverse acquisition time	0.00gamma	496.2192k internal	0.2297k external	0.2297temperature offset calibration	1.0093default loss term (dB/km)	0.3790temperature slope calibration	1.0000multiplexer offset coefficient	1.0000multiplexer slope coefficient	1.0000fibre end	0.00T internal ref (°C)	36.94T ext. ref 1 (°C)	4.59T ext. ref 2 (°C)	33.57length (m)	temperature (°C)	Stokes	anti-Stokes-747.200	317.937	0.088	0.170
-746.185	800.000	0.158	0.558
-745.171	717.261	0.058	-0.157
-744.156	-200.000	0.041	0.294
-743.142	28.208	-0.357	0.308
-742.127	-24.897	-0.343	0.208
-741.112	670.154	-0.133	0.352
-740.098	800.000	-0.092	0.259
-739.083	-200.000	0.008	-0.221
-738.069	275.075	0.137	0.247
-737.054	-200.000	0.073	0.418
-736.039	-200.000	-0.003	0.114
-735.025	-200.000	-0.010	0.321
-734.010	-158.642	0.180	-0.011
-732.996	-147.541	-0.434	-0.037
-731.981	-129.853	-0.289	-0.041
-730.966	119.800	-0.047	-0.059
-729.952	12.602	0.104	-0.082
-728.937	220.691	0.095	0.155
-727.923	-82.885	-0.228	-0.075
-726.908	-200.000	0.046	-0.279
-725.894	-74.542	0.119	0.044
-724.879	800.000	0.100	-0.416
-723.864	-106.661	0.371	0.084
-722.850	135.964	-0.196	0.260
-721.835	416.436	-0.117	-0.254
-720.821	-120.482	0.439	-0.076
-719.806	59.741	0.115	0.116
-718.791	-149.774	-0.311	-0.025
-717.777	-51.068	0.172	0.082
-716.762	135.164	0.282	-0.375
-715.748	-149.849	0.217	0.017
-714.733	-200.000	-0.001	-0.100
-713.718	-138.683	-0.198	-0.022
-712.704	-129.106	-0.115	-0.016
-711.689	-18.410	-0.283	-0.180
-710.675	238.257	0.175	-0.296
-709.660	23.595	0.072	-0.061
-708.645	180.706	0.003	0.005
-707.631	-129.672	-0.186	0.026
-706.616	235.263	0.035	0.060
-705.602	17.421	-0.269	-0.218
-704.587	210.406	0.096	-0.154
-703.572	106.880	-0.131	0.159
-702.558	-25.778	-0.028	0.017
-701.543	504.175	-0.107	0.253
-700.529	97.796	-0.084	0.099
-699.514	-200.000	0.014	-0.064
-698.499	74.685	-0.104	0.111
-697.485	-200.000	0.061	0.369
-696.470	800.000	0.093	-0.266
-695.456	-21.621	0.181	0.112
-694.441	-35.899	0.090	-0.050
-693.426	-112.541	0.163	0.033
-692.412	-110.424	0.042	-0.009
-691.397	-159.948	0.146	0.008
-690.383	-108.099	-0.138	-0.030
-689.368	275.290	0.155	-0.281
-688.354	-200.000	-0.019	-0.205
-687.339	-200.000	0.042	0.190
-686.324	-86.631	0.115	-0.036
-685.310	-200.000	0.005	-0.180
-684.295	88.678	-0.099	-0.112
-683.281	800.000	-0.002	0.006
-682.266	800.000	0.069	-0.228
-681.251	81.401	-0.151	-0.167
-680.237	-165.903	-0.169	-0.007
-679.222	-200.000	0.019	0.143
-678.208	130.131	-0.110	0.143
-677.193	-67.701	0.206	0.082
-676.178	-200.000	-0.136	-0.001
-675.164	-200.000	-0.003	-0.214
-674.149	32.605	-0.156	-0.137
-673.135	-104.328	0.234	0.055
-672.120	115.097	-0.136	-0.170
-671.105	-200.000	-0.011	-0.241
-670.091	72.683	0.076	0.081
-669.076	800.000	-0.070	-0.238
-668.062	-73.276	-0.209	-0.078
-667.047	50.826	0.161	-0.155
-666.032	-22.429	0.186	-0.115
-665.018	-200.000	0.007	-0.126
-664.003	-106.887	-0.255	-0.058
-662.989	-51.986	-0.202	0.095
-661.974	128.529	0.071	0.092
-660.959	-166.283	-0.397	0.017
-659.945	129.503	0.175	0.227
-658.930	-34.140	-0.172	-0.096
-657.916	32.107	-0.087	-0.076
-656.901	-136.612	0.300	-0.035
-655.886	800.000	0.049	0.141
-654.872	-200.000	-0.024	-0.465
-653.857	800.000	0.066	-0.253
-652.843	-95.007	0.202	-0.055
-651.828	211.497	0.083	0.133
-650.814	-34.920	0.169	0.094
-649.799	1.725	0.079	0.058
-648.784	800.000	-0.051	0.197
-647.770	-109.371	-0.225	0.049
-646.755	-120.103	-0.249	0.043
-645.741	-200.000	0.055	-0.322
-644.726	-70.248	0.013	0.005
-643.711	289.489	0.061	-0.113
-642.697	-51.049	-0.264	0.126
-641.682	-99.346	-0.329	-0.084
-640.668	-200.000	0.003	0.026
-639.653	-200.000	0.031	-0.202
-638.638	37.180	-0.203	-0.183
-637.624	-92.008	0.434	0.125
-636.609	-122.028	0.344	0.058
-635.595	12.563	0.275	-0.216
-634.580	-200.000	-0.011	0.166
-633.565	-188.353	0.326	0.004
-632.551	370.975	0.188	0.387
-631.536	-116.015	-0.081	-0.015
-630.522	1.867	-0.249	-0.183
-629.507	-200.000	0.005	0.088
-628.492	-2.746	0.277	-0.197
-627.478	-62.770	-0.086	0.036
-626.463	301.006	0.083	0.156
-625.449	461.460	-0.014	-0.032
-624.434	-93.727	0.295	-0.083
-623.419	419.926	-0.130	0.284
-622.405	-52.834	0.191	-0.089
-621.390	191.389	-0.113	0.173
-620.376	14.350	-0.033	-0.026
-619.361	-139.246	-0.293	0.032
-618.346	160.149	-0.149	0.211
-617.332	-159.483	-0.336	0.019
-616.317	800.000	0.039	0.134
-615.303	-200.000	0.014	-0.170
-614.288	-200.000	0.083	-0.370
-613.273	99.285	0.160	-0.188
-612.259	-200.000	-0.016	-0.303
-611.244	-200.000	0.010	-0.283
-610.230	198.330	-0.058	-0.090
-609.215	73.694	-0.194	-0.206
-608.201	228.293	0.169	-0.279
-607.186	-200.000	-0.008	0.038
-606.171	304.165	-0.135	-0.255
-605.157	28.126	0.232	-0.199
-604.142	76.085	-0.201	-0.216
-603.128	-71.591	-0.172	-0.065
-602.113	-200.000	-0.074	0.469
-601.098	800.000	-0.073	-0.267
-600.084	17.493	0.115	-0.093
-599.069	238.854	-0.107	0.181
-598.055	32.576	-0.114	0.100
-597.040	-11.202	-0.128	0.086
-596.025	-200.000	0.000	-0.064
-595.011	116.166	-0.150	-0.187
-593.996	800.000	0.031	-0.108
-592.982	201.847	0.041	0.064
-591.967	244.273	-0.070	-0.119
-590.952	438.775	-0.060	0.134
-589.938	-200.000	0.001	0.271
-588.923	67.911	-0.261	-0.271
-587.909	-78.216	-0.303	0.106
-586.894	181.418	0.127	-0.190
-585.879	331.523	0.027	-0.054
-584.865	117.819	0.121	-0.151
-583.850	-169.800	0.320	0.012
-582.836	141.478	-0.115	-0.155
-581.821	-23.088	-0.239	-0.146
-580.806	61.465	0.116	0.117
-579.792	106.216	0.093	0.112
-578.777	-200.000	-0.013	-0.114
-577.763	-164.941	-0.114	0.005
-576.748	494.608	0.074	0.171
-575.733	-13.236	-0.202	0.133
-574.719	-69.166	-0.310	-0.121
-573.704	-60.593	-0.243	-0.105
-572.690	-16.734	0.202	0.130
-571.675	-56.233	0.159	-0.072
-570.661	-43.560	0.123	-0.063
-569.646	800.000	-0.039	0.117
-568.631	-40.471	-0.221	0.116
-567.617	-176.263	-0.212	0.006
-566.602	800.000	-0.026	0.111
-565.588	42.148	0.131	0.120
-564.573	-3.548	0.065	0.046
-563.558	800.000	-0.035	-0.140
-562.544	84.051	0.159	0.176
-561.529	-47.602	-0.114	0.056
-560.515	204.556	-0.135	0.213
-559.500	-200.000	-0.025	0.119
-558.485	-59.528	-0.048	-0.021
-557.471	800.000	0.086	-0.372
-556.456	1.819	0.090	-0.066
-555.442	-200.000	0.006	-0.114
-554.427	178.806	0.078	0.116
-553.412	285.052	0.119	0.217
-552.398	-71.289	0.411	-0.156
-551.383	-141.619	-0.202	-0.021
-550.369	-93.738	-0.121	0.034
-549.354	51.926	0.048	-0.047
-548.339	343.723	-0.132	-0.262
-547.325	695.400	-0.064	-0.171
-546.310	-12.807	0.141	0.093
-545.296	15.887	-0.063	0.050
-544.281	66.912	-0.073	0.076
-543.266	160.162	0.121	0.171
-542.252	-160.714	0.184	-0.010
-541.237	163.434	-0.161	0.229
-540.223	800.000	0.023	0.077
-539.208	279.905	-0.166	-0.300
-538.193	-30.982	-0.131	-0.075
-537.179	-29.914	0.145	-0.084
-536.164	89.349	-0.059	-0.067
-535.150	-181.559	0.210	0.004
-534.135	363.484	0.150	0.306
-533.121	-200.000	-0.024	-0.193
-532.106	800.000	-0.029	0.104
-531.091	146.709	0.080	-0.109
-530.077	800.000	0.050	0.183
-529.062	-158.393	0.096	-0.006
-528.048	-10.134	-0.212	0.143
-527.033	491.464	0.077	0.179
-526.018	134.059	0.115	-0.151
-525.004	-3.382	-0.024	-0.017
-523.989	-200.000	-0.022	0.257
-522.975	32.702	0.066	0.058
-521.960	-169.311	0.251	0.009
-520.945	-200.000	0.027	0.185
-519.931	-36.201	0.397	0.217
-518.916	-143.635	-0.281	0.027
-517.902	-200.000	-0.001	0.211
-516.887	-41.324	-0.059	0.031
-515.872	-94.300	-0.293	0.081
-514.858	-8.962	0.149	-0.101
-513.843	800.000	0.065	-0.259
-512.829	-147.899	0.531	0.045
-511.814	206.521	0.027	0.043
-510.799	31.256	-0.038	0.033
-509.785	-69.311	-0.049	0.019
-508.770	9.112	-0.201	-0.153
-507.756	-185.701	0.057	-0.001
-506.741	-54.645	-0.113	0.052
-505.726	79.363	0.154	0.167
-504.712	22.680	0.153	0.127
-503.697	554.185	-0.156	-0.381
-502.683	91.380	0.311	-0.354
-501.668	147.126	0.045	-0.061
-500.653	800.000	0.064	0.282
-499.639	-37.224	0.202	-0.109
-498.624	382.843	0.061	-0.127
-497.610	268.918	0.096	-0.170
-496.595	-200.000	-0.036	-0.221
-495.581	-104.486	-0.224	-0.052
-494.566	109.954	-0.073	-0.089
-493.551	-57.237	-0.350	-0.156
-492.537	351.765	-0.221	-0.442
-491.522	-2.737	0.327	0.231
-490.508	-190.886	-0.336	-0.004
-489.493	800.000	0.038	-0.115
-488.478	120.428	-0.067	0.085
-487.464	-161.042	-0.250	0.013
-486.449	-35.591	0.141	0.077
-485.435	162.046	-0.161	-0.228
-484.420	-34.943	0.365	0.201
-483.405	-200.000	-0.025	-0.219
-482.391	75.772	0.233	-0.249
-481.376	-41.119	-0.309	-0.161
-480.362	200.103	-0.089	0.139
-479.347	-182.628	-0.484	0.009
-478.332	-200.000	0.003	-0.035
-477.318	11.964	-0.301	0.234
-476.303	-200.000	-0.005	-0.249
-475.289	-22.818	0.070	-0.043
-474.274	-200.000	0.009	-0.142
-473.259	800.000	-0.125	-0.378
-472.245	21.511	-0.117	-0.096
-471.230	-147.937	0.127	-0.011
-470.216	-200.000	0.180	0.000
-469.201	-200.000	0.029	0.183
-468.186	785.156	-0.048	0.132
-467.172	46.822	0.191	0.180
-466.157	33.291	-0.149	0.131
-465.143	37.954	0.249	-0.224
-464.128	-200.000	-0.018	-0.092
-463.113	-34.285	-0.398	0.220
-462.099	-200.000	0.001	-0.274
-461.084	-56.482	-0.337	-0.151
-460.070	21.796	0.248	-0.204
-459.055	-33.018	0.344	0.193
-458.040	800.000	0.038	-0.129
-457.026	132.562	0.149	-0.194
-456.011	800.000	-0.040	-0.135
-454.997	84.242	0.073	0.081
-453.982	-93.116	-0.138	-0.039
-452.968	470.426	0.066	-0.150
-451.953	48.389	-0.031	-0.030
-450.938	-112.998	-0.245	-0.049
-449.924	-101.194	0.172	-0.043
-448.909	174.672	-0.039	0.056
-447.895	666.236	-0.102	0.267
-446.880	800.000	-0.082	0.292
-445.865	-70.847	0.299	-0.114
-444.851	-46.374	-0.381	-0.189
-443.836	93.830	0.032	-0.036
-442.822	-131.376	0.269	-0.036
-441.807	-200.000	-0.005	-0.272
-440.792	-41.734	-0.143	0.074
-439.778	70.914	-0.119	-0.124
-438.763	-131.977	-0.143	-0.019
-437.749	249.298	0.139	-0.238
-436.734	-13.244	0.236	-0.155
-435.719	-200.000	-0.033	-0.189
-434.705	-163.694	-0.263	0.012
-433.690	198.366	-0.077	-0.119
-432.676	25.798	0.166	-0.139
-431.661	-200.000	0.032	0.176
-430.646	38.489	-0.047	0.043
-429.632	800.000	-0.079	0.220
-428.617	82.435	0.261	-0.285
-427.603	-200.000	0.004	0.332
-426.588	334.677	0.050	0.097
-425.573	694.348	0.048	-0.126
-424.559	-200.000	0.006	0.143
-423.544	64.704	-0.241	-0.245
-422.530	38.177	0.290	-0.261
-421.515	274.339	-0.138	0.247
-420.500	657.654	-0.035	0.091
-419.486	-200.000	0.014	-0.196
-418.471	-79.497	-0.042	-0.014
-417.457	21.244	0.177	-0.145
-416.442	-200.000	0.007	0.030
-415.428	-132.378	0.123	0.016
-414.413	-138.326	0.289	-0.032
-413.398	-122.048	-0.326	-0.054
-412.384	22.800	0.024	0.020
-411.369	-39.607	-0.119	-0.063
-410.355	-41.797	0.144	0.074
-409.340	167.058	-0.165	0.237
-408.325	-200.000	-0.067	-0.418
-407.311	630.201	0.044	0.112
-406.296	-200.000	-0.046	0.210
-405.282	346.434	-0.080	0.158
-404.267	41.070	-0.272	-0.248
-403.252	-200.000	0.026	-0.243
-402.238	150.758	0.105	-0.143
-401.223	-49.316	0.241	-0.116
-400.209	432.643	-0.036	0.078
-399.194	800.000	0.105	-0.337
-398.179	-9.281	-0.213	0.143
-397.165	643.404	0.143	0.367
-396.150	327.489	-0.050	-0.096
-395.136	347.679	0.069	0.138
-394.121	157.887	0.211	0.294
-393.106	58.162	0.134	0.132
-392.092	-66.049	-0.076	0.030
-391.077	-191.297	-0.304	-0.003
-390.063	800.000	-0.045	0.194
-389.048	658.394	-0.134	0.348
-388.033	-200.000	-0.026	0.116
-387.019	-95.473	0.262	-0.071
-386.004	-75.671	-0.155	-0.055
-384.990	92.836	-0.146	-0.166
-383.975	37.176	-0.136	0.121
-382.960	-99.633	0.131	-0.033
-381.946	-15.996	-0.204	0.131
-380.931	-38.788	-0.359	-0.191
-379.917	-71.698	-0.488	-0.183
-378.902	800.000	0.051	-0.213
-377.888	-145.055	-0.235	0.022
-376.873	800.000	-0.063	-0.185
-375.858	128.596	-0.037	0.047
-374.844	127.398	0.081	0.104
-373.829	86.654	-0.068	-0.075
-372.815	-88.694	-0.154	0.046
-371.800	-200.000	0.020	-0.272
-370.785	619.413	0.100	-0.252
-369.771	-97.224	-0.411	-0.108
-368.756	-200.000	-0.046	0.317
-367.742	-200.000	0.013	0.263
-366.727	-26.334	0.269	-0.159
-365.712	338.718	-0.034	0.067
-364.698	800.000	-0.012	-0.043
-363.683	537.801	0.046	-0.110
-362.669	348.440	0.017	-0.034
-361.654	86.286	0.266	-0.295
-360.639	533.155	-0.123	0.293
-359.625	-95.186	-0.166	0.045
-358.610	556.102	0.031	0.076
-357.596	-122.708	-0.312	-0.051
-356.581	573.676	-0.077	0.188
-355.566	21.904	-0.060	-0.049
-354.552	800.000	-0.083	0.237
-353.537	-53.793	0.160	0.073
-352.523	273.410	0.071	0.127
-351.508	-200.000	0.076	-0.362
-350.493	-168.570	0.291	-0.011
-349.479	-175.462	0.162	-0.004
-348.464	51.881	-0.169	-0.162
-347.450	800.000	0.009	-0.033
-346.435	-200.000	0.064	0.383
-345.420	-200.000	0.054	0.283
-344.406	124.451	0.102	-0.129
-343.391	201.716	0.106	0.164
-342.377	-137.775	-0.189	0.021
-341.362	35.618	-0.192	-0.170
-340.348	25.897	0.048	0.040
-339.333	-105.599	0.310	-0.071
-338.318	647.262	-0.084	0.217
-337.304	344.964	-0.083	-0.163
-336.289	-200.000	-0.021	-0.332
-335.275	38.104	-0.211	-0.189
-334.260	-154.298	0.195	0.013
-333.245	144.905	-0.166	-0.223
-332.231	356.157	0.009	0.018
-331.216	26.503	0.139	0.117
-330.202	-49.869	-0.076	-0.036
-329.187	-125.244	-0.237	-0.036
-328.172	68.397	-0.101	0.104
-327.158	-100.130	-0.294	0.073
-326.143	800.000	-0.090	-0.307
-325.129	343.935	-0.026	0.052
-324.114	800.000	0.088	0.307
-323.099	-200.000	0.014	0.195
-322.085	40.677	-0.223	0.202
-321.070	-200.000	0.049	0.236
-320.056	157.682	0.018	0.025
-319.041	-116.142	0.253	-0.047
-318.026	-200.000	0.064	0.315
-317.012	-124.634	0.300	0.047
-315.997	-94.880	-0.289	0.079
-314.983	409.797	-0.013	-0.028
-313.968	-110.137	0.163	0.034
-312.953	-139.022	0.278	-0.030
-311.939	-137.799	0.128	-0.014
-310.924	-174.383	0.276	-0.008
-309.910	50.796	-0.318	0.302
-308.895	-36.672	0.151	-0.082
-307.880	151.094	0.104	0.143
-306.866	800.000	0.069	-0.191
-305.851	16.370	-0.073	-0.058
-304.837	-28.465	0.241	0.139
-303.822	-29.719	-0.144	0.082
-302.807	800.000	0.016	-0.060
-301.793	197.950	0.068	0.105
-300.778	-125.454	0.087	0.013
-299.764	-58.023	-0.298	0.131
-298.749	80.265	-0.357	0.385
-297.735	-129.653	-0.269	-0.037
-296.720	-200.000	0.031	-0.216
-295.705	-11.174	0.237	0.157
-294.691	-200.000	0.060	-0.279
-293.676	726.985	0.147	0.395
-292.662	385.797	-0.039	0.081
-291.647	291.699	0.171	-0.312
-290.632	-183.180	-0.135	0.002
-289.618	414.010	-0.151	0.322
-288.603	-200.000	-0.018	0.253
-287.589	-128.245	0.010	0.001
-286.574	-79.584	-0.272	0.092
-285.559	413.188	0.119	-0.254
-284.545	-86.216	0.455	0.141
-283.530	53.111	0.061	-0.059
-282.516	-30.523	0.106	0.061
-281.501	113.525	-0.140	0.170
-280.486	-200.000	-0.018	-0.158
-279.472	-200.000	0.002	-0.185
-278.457	-109.059	0.370	0.079
-277.443	66.125	-0.202	-0.205
-276.428	535.173	0.103	-0.244
-275.413	-185.312	0.258	0.004
-274.399	-200.000	0.006	-0.413
-273.384	-65.693	-0.177	-0.071
-272.370	-90.159	0.353	0.103
-271.355	80.628	0.058	-0.063
-270.340	-132.357	0.158	-0.020
-269.326	800.000	-0.093	0.358
-268.311	-77.040	-0.183	0.064
-267.297	-200.000	-0.052	-0.397
-266.282	-200.000	0.026	0.180
-265.267	441.726	0.093	-0.205
-264.253	98.500	-0.091	-0.105
-263.238	248.322	0.020	-0.035
-262.224	337.525	0.167	0.325
-261.209	-200.000	-0.018	0.109
-260.195	800.000	-0.067	-0.194
-259.180	97.517	0.127	0.146
-258.165	45.843	0.148	-0.137
-257.151	-67.910	-0.123	-0.048
-256.136	-200.000	0.044	0.205
-255.122	-125.828	-0.234	0.035
-254.107	0.164	0.212	0.152
-253.092	46.250	0.188	0.174
-252.078	-141.079	0.264	0.027
-251.063	34.120	0.195	0.170
-250.049	-34.561	0.160	0.088
-249.034	407.980	-0.034	-0.071
-248.019	-94.116	-0.142	0.039
-247.005	448.002	0.124	-0.274
-245.990	-200.000	0.010	0.340
-244.976	-184.173	0.133	0.002
-243.961	665.979	-0.063	-0.164
-242.946	416.226	0.017	-0.035
-241.932	6.060	-0.119	0.088
-240.917	-200.000	0.014	-0.156
-239.903	-92.721	0.298	-0.083
-238.888	-134.932	0.327	0.040
-237.873	649.265	-0.072	0.184
-236.859	17.357	-0.243	-0.193
-235.844	800.000	0.066	0.215
-234.830	-103.336	-0.080	0.019
-233.815	-200.000	0.005	0.250
-232.800	105.778	-0.093	-0.110
-231.786	23.510	-0.148	0.122
-230.771	800.000	-0.024	-0.089
-229.757	77.396	-0.146	0.155
-228.742	346.990	-0.117	-0.230
-227.727	64.738	0.140	0.141
-226.713	-117.756	-0.055	-0.010
-225.698	-200.000	-0.011	0.214
-224.684	359.949	-0.092	0.185
-223.669	141.732	-0.050	-0.066
-222.655	-1.853	0.410	0.289
-221.640	10.988	-0.288	0.220
-220.625	299.594	0.123	0.227
-219.611	-37.765	0.224	0.119
-218.596	800.000	0.017	0.070
-217.582	51.579	-0.146	0.139
-216.567	-200.000	0.034	0.252
-215.552	340.915	0.132	-0.257
-214.538	47.832	0.199	-0.186
-213.523	-78.648	0.352	-0.120
-212.509	-34.546	-0.052	-0.028
-211.494	193.208	-0.060	-0.090
-210.479	26.707	-0.301	0.252
-209.465	149.564	0.187	-0.254
-208.450	-200.000	0.001	0.384
-207.436	-13.593	0.176	-0.114
-206.421	495.795	-0.089	0.204
-205.406	-200.000	-0.022	0.310
-204.392	-200.000	0.071	0.345
-203.377	-40.244	0.270	0.141
-202.363	-127.331	0.087	0.013
-201.348	-109.407	0.199	0.042
-200.333	-200.000	0.029	0.272
-199.319	72.788	-0.090	-0.094
-198.304	-200.000	-0.030	-0.369
-197.290	-104.091	-0.079	-0.018
-196.275	-120.765	0.221	-0.037
-195.260	397.865	-0.048	0.101
-194.246	-92.126	-0.156	0.044
-193.231	34.121	-0.093	-0.081
-192.217	-161.068	-0.071	0.004
-191.202	52.677	0.108	0.103
-190.187	-83.524	-0.152	-0.049
-189.173	-114.086	0.250	0.048
-188.158	56.202	0.149	-0.144
-187.144	-63.408	-0.052	0.021
-186.129	50.733	0.100	-0.095
-185.114	96.951	-0.142	0.163
-184.100	-31.521	0.315	-0.177
-183.085	-89.913	-0.187	-0.055
-182.071	90.302	0.184	0.206
-181.056	-122.792	0.075	0.012
-180.042	150.296	0.134	0.182
-179.027	-178.925	-0.132	0.003
-178.012	735.289	-0.064	-0.170
-176.998	85.067	-0.006	-0.006
-175.983	-200.000	0.018	-0.218
-174.969	-10.696	-0.161	0.106
-173.954	-21.584	-0.160	0.098
-172.939	-200.000	0.003	-0.287
-171.925	-124.694	-0.327	-0.051
-170.910	-131.800	-0.291	-0.038
-169.896	-108.424	0.400	-0.086
-168.881	-37.535	0.119	0.064
-167.866	206.566	-0.181	-0.282
-166.852	-82.848	-0.223	-0.072
-165.837	60.565	-0.310	0.307
-164.823	455.486	-0.042	0.093
-163.808	-75.760	0.234	-0.083
-162.793	-19.410	0.237	-0.147
-161.779	-160.942	-0.279	0.015
-160.764	-1.632	0.153	0.108
-159.750	-69.935	0.236	-0.090
-158.735	-8.110	-0.148	0.099
-157.720	-121.629	0.101	-0.017
-156.706	303.199	-0.060	0.111
-155.691	-200.000	-0.042	0.236
-154.677	-53.242	0.158	0.072
-153.662	-72.031	-0.152	-0.056
-152.647	800.000	-0.034	0.100
-151.633	-27.249	0.133	0.077
-150.618	-123.743	-0.153	0.024
-149.604	20.392	0.039	-0.032
-148.589	-123.637	0.285	0.045
-147.574	-200.000	0.001	0.255
-146.560	155.771	-0.310	0.426
-145.545	-68.360	-0.172	-0.067
-144.531	76.457	0.189	-0.200
-143.516	-77.956	0.119	-0.041
-142.502	-41.338	-0.148	0.076
-141.487	-37.039	0.158	0.085
-140.472	44.942	0.225	0.207
-139.458	-200.000	-0.025	0.170
-138.443	6.124	0.200	-0.148
-137.429	800.000	-0.072	-0.306
-136.414	134.429	0.051	0.066
-135.399	-30.888	0.263	0.148
-134.385	-200.000	-0.084	0.447
-133.370	383.707	0.121	-0.248
-132.356	146.896	0.157	0.210
-131.341	48.693	0.090	-0.084
-130.326	800.000	-0.056	-0.177
-129.312	41.908	0.251	-0.227
-128.297	19.966	-0.303	-0.243
-127.283	-130.257	-0.091	-0.012
-126.268	-63.068	-0.105	0.043
-125.253	3.836	-0.103	-0.075
-124.239	184.490	0.111	0.164
-123.224	800.000	0.026	-0.101
-122.210	-200.000	0.014	-0.229
-121.195	100.405	0.040	-0.047
