DTS Sentinel unit serial number:	SN413079Multiplexer serial number:	ORYXHardware model number:	OX4-SRSoftware version number:	ORYX F/W v4.00 Oryx Data Collector v3.7.2.0data status	okinstallation	princeton_trtdifferential loss correction	single-endedforward channel	channel 1reverse channel	N/Adate	2019/09/13time	09:34:35forward acquisition time	60.00reverse acquisition time	0.00gamma	496.2192k internal	0.2325k external	0.2325temperature offset calibration	1.0158default loss term (dB/km)	0.3790temperature slope calibration	1.0000multiplexer offset coefficient	1.0000multiplexer slope coefficient	1.0000fibre end	0.00T internal ref (°C)	29.56T ext. ref 1 (°C)	4.41T ext. ref 2 (°C)	25.77length (m)	temperature (°C)	Stokes	anti-Stokes-747.200	-9.730	0.218	-0.147
-746.185	36.136	0.300	0.266
-745.171	-62.898	-0.150	0.063
-744.156	231.962	-0.203	0.337
-743.142	-145.921	0.174	-0.016
-742.127	699.347	0.147	0.391
-741.112	-200.000	0.003	-0.133
-740.098	-10.888	-0.211	0.140
-739.083	2.222	0.326	0.238
-738.069	-82.369	0.082	0.027
-737.054	-55.681	-0.386	0.174
-736.039	-98.852	-0.203	-0.052
-735.025	-99.253	0.165	-0.042
-734.010	-86.545	-0.252	0.078
-732.996	-200.000	-0.028	-0.221
-731.981	200.429	0.080	0.124
-730.966	800.000	-0.090	-0.350
-729.952	-100.826	-0.175	-0.043
-728.937	-200.000	-0.026	-0.116
-727.923	281.121	-0.061	-0.110
-726.908	167.606	-0.176	-0.252
-725.894	800.000	-0.138	-0.517
-724.879	4.336	-0.115	0.085
-723.864	-184.642	-0.254	-0.004
-722.850	-200.000	-0.214	0.001
-721.835	-61.927	-0.241	-0.101
-720.821	800.000	-0.089	-0.310
-719.806	-175.505	-0.250	0.007
-718.791	519.581	0.163	-0.385
-717.777	1.929	-0.168	0.122
-716.762	-200.000	0.005	-0.039
-715.748	220.285	-0.084	0.135
-714.733	95.093	-0.023	-0.026
-713.718	-200.000	0.000	-0.082
-712.704	-36.688	-0.201	-0.109
-711.689	73.534	0.098	0.104
-710.675	-101.565	-0.177	-0.043
-709.660	-30.415	-0.134	-0.077
-708.645	447.325	0.144	0.319
-707.631	59.198	-0.101	0.100
-706.616	29.648	0.336	0.288
-705.602	-114.869	-0.386	0.074
-704.587	-33.410	-0.174	-0.097
-703.572	5.755	0.234	0.175
-702.558	-150.933	0.315	0.024
-701.543	303.704	-0.047	0.088
-700.529	-200.000	0.000	-0.082
-699.514	250.152	-0.017	-0.028
-698.499	406.900	-0.194	-0.414
-697.485	33.113	-0.219	-0.191
-696.470	-200.000	-0.027	-0.412
-695.456	-51.940	0.077	-0.036
-694.441	-200.000	0.105	-0.513
-693.426	-133.582	0.279	0.035
-692.412	-151.391	-0.279	0.021
-691.397	-200.000	-0.015	-0.104
-690.383	-200.000	-0.035	-0.242
-689.368	207.304	-0.198	-0.310
-688.354	487.634	0.085	-0.196
-687.339	-200.000	0.003	-0.130
-686.324	-200.000	-0.014	0.182
-685.310	717.590	0.021	0.057
-684.295	185.693	0.065	-0.097
-683.281	-41.144	0.268	0.139
-682.266	41.577	-0.035	0.032
-681.251	373.430	-0.140	0.288
-680.237	213.584	-0.058	0.092
-679.222	-200.000	-0.016	0.134
-678.208	-12.202	0.327	-0.216
-677.193	-200.000	-0.036	-0.230
-676.178	800.000	-0.101	-0.376
-675.164	18.851	-0.096	0.077
-674.149	-77.287	-0.236	0.082
-673.135	90.775	-0.077	0.087
-672.120	-200.000	0.030	-0.307
-671.105	-179.251	0.101	0.002
-670.091	-74.178	-0.109	0.040
-669.076	-13.093	0.176	-0.115
-668.062	-46.455	-0.247	0.122
-667.047	723.318	0.087	-0.234
-666.032	122.304	-0.127	-0.159
-665.018	-200.000	0.021	-0.185
-664.003	-95.604	-0.194	0.052
-662.989	262.688	0.287	-0.501
-661.974	1.110	0.178	-0.129
-660.959	-195.618	0.106	0.001
-659.945	25.288	-0.094	0.078
-658.930	496.535	0.053	-0.124
-657.916	-200.000	-0.013	-0.313
-656.901	61.448	-0.183	-0.183
-655.886	-100.933	0.062	0.015
-654.872	93.738	-0.204	-0.233
-653.857	116.643	0.258	0.318
-652.843	-40.353	-0.087	0.046
-651.828	300.764	-0.058	-0.108
-650.814	-200.000	-0.016	-0.084
-649.799	-75.940	-0.116	-0.041
-648.784	-126.891	0.069	0.010
-647.770	68.281	0.029	-0.030
-646.755	43.237	-0.180	-0.166
-645.741	-200.000	-0.119	-0.538
-644.726	97.151	0.068	0.079
-643.711	310.037	-0.155	-0.292
-642.697	144.191	0.166	0.223
-641.682	-32.267	0.111	-0.062
-640.668	49.538	0.263	0.249
-639.653	-80.141	0.307	0.104
-638.638	455.925	-0.097	0.216
-637.624	-127.794	-0.339	-0.049
-636.609	-56.514	0.481	-0.214
-635.595	76.242	0.231	-0.246
-634.580	-130.931	-0.321	0.043
-633.565	-18.825	-0.301	0.188
-632.551	171.359	0.089	-0.128
-631.536	-188.454	0.156	-0.002
-630.522	210.793	-0.097	0.152
-629.507	186.977	0.088	0.132
-628.492	258.896	-0.176	0.304
-627.478	28.891	0.113	-0.096
-626.463	-29.445	0.327	-0.188
-625.449	170.877	-0.080	-0.115
-624.434	33.160	-0.060	-0.052
-623.419	800.000	0.044	0.156
-622.405	-114.810	0.091	-0.017
-621.390	-57.053	-0.056	-0.025
-620.376	-23.155	0.311	-0.188
-619.361	800.000	0.037	-0.104
-618.346	-56.017	-0.146	0.065
-617.332	13.445	0.201	-0.156
-616.317	528.135	-0.052	0.122
-615.303	-100.834	-0.240	-0.059
-614.288	177.403	0.160	0.234
-613.273	216.346	-0.064	0.102
-612.259	-192.487	-0.155	-0.001
-611.244	192.655	-0.107	-0.162
-610.230	-200.000	-0.045	-0.261
-609.215	-200.000	0.004	-0.053
-608.201	800.000	0.018	-0.060
-607.186	-79.369	-0.528	-0.179
-606.171	477.529	0.090	0.204
-605.157	193.215	-0.082	0.124
-604.142	346.032	-0.080	-0.157
-603.128	60.182	-0.326	-0.324
-602.113	-109.108	-0.171	-0.037
-601.098	-59.730	-0.153	-0.066
-600.084	-106.661	0.084	0.019
-599.069	365.906	-0.022	0.044
-598.055	6.995	0.081	0.061
-597.040	45.366	-0.261	-0.242
-596.025	800.000	0.077	-0.253
-595.011	-200.000	0.019	-0.138
-593.996	13.037	-0.124	0.096
-592.982	116.254	-0.090	0.111
-591.967	-23.284	-0.108	-0.065
-590.952	146.987	0.085	0.115
-589.938	800.000	-0.088	-0.297
-588.923	-83.250	-0.188	-0.061
-587.909	-200.000	-0.005	0.364
-586.894	5.275	0.041	0.030
-585.879	-36.123	0.283	0.153
-584.865	-174.214	-0.350	0.010
-583.850	-46.042	0.169	0.084
-582.836	-46.738	-0.247	0.121
-581.821	38.424	-0.053	0.048
-580.806	800.000	-0.046	-0.193
-579.792	680.872	-0.125	-0.325
-578.777	-19.264	0.109	-0.068
-577.763	-200.000	0.003	0.110
-576.748	136.398	-0.229	-0.299
-575.733	-26.564	-0.504	-0.296
-574.719	-142.917	-0.185	-0.018
-573.704	800.000	0.041	0.167
-572.690	122.553	-0.125	0.157
-571.675	292.443	0.081	0.148
-570.661	492.758	0.053	0.123
-569.646	-45.847	-0.191	-0.095
-568.631	131.314	-0.194	-0.249
-567.617	-200.000	0.039	-0.218
-566.602	90.873	0.194	0.218
-565.588	-149.262	0.295	0.024
-564.573	58.605	-0.107	-0.105
-563.558	106.918	-0.067	-0.079
-562.544	24.923	-0.068	0.057
-561.529	800.000	-0.094	-0.309
-560.515	-200.000	0.024	-0.222
-559.500	-64.773	-0.252	0.102
-558.485	-123.417	0.114	0.018
-557.471	-200.000	-0.040	0.221
-556.456	39.643	0.085	0.077
-555.442	800.000	0.033	-0.115
-554.427	14.701	-0.144	0.113
-553.412	-10.280	0.136	-0.090
-552.398	7.613	-0.075	0.056
-551.383	-6.407	0.057	0.039
-550.369	451.337	0.076	-0.168
-549.354	-200.000	0.038	0.166
-548.339	11.988	-0.127	-0.098
-547.325	-60.987	-0.099	-0.042
-546.310	-2.386	-0.355	-0.249
-545.296	800.000	0.038	-0.137
-544.281	-99.781	0.073	-0.018
-543.266	201.639	-0.180	-0.278
-542.252	18.369	-0.124	-0.099
-541.237	84.880	0.210	-0.230
-540.223	71.710	0.302	0.314
-539.208	-200.000	0.000	0.037
-538.193	66.693	-0.043	-0.044
-537.179	307.817	0.103	-0.192
-536.164	203.204	0.169	-0.261
-535.150	-55.935	-0.261	-0.117
-534.135	5.502	0.225	0.167
-533.121	-132.273	-0.076	-0.010
-532.106	-28.675	-0.163	-0.094
-531.091	24.625	0.147	-0.122
-530.077	131.487	-0.291	-0.374
-529.062	-180.667	0.291	0.006
-528.048	9.579	-0.426	0.323
-527.033	150.165	0.106	-0.144
-526.018	199.773	0.221	-0.339
-525.004	-113.448	0.246	0.048
-523.989	-75.655	-0.242	0.086
-522.975	88.780	-0.307	0.342
-521.960	429.161	-0.117	0.253
-520.945	99.100	-0.161	0.187
-519.931	5.268	-0.128	0.094
-518.916	-157.388	-0.242	0.015
-517.902	-122.051	0.506	-0.083
-516.887	41.446	0.146	0.132
-515.872	-200.000	0.012	0.210
-514.858	-200.000	0.002	0.011
-513.843	50.159	0.083	-0.078
-512.829	365.407	-0.138	-0.278
-511.814	-49.207	-0.136	-0.065
-510.799	-183.825	-0.199	-0.003
-509.785	54.907	-0.140	-0.135
-508.770	232.681	0.070	0.114
-507.756	800.000	-0.062	0.215
-506.741	-200.000	0.023	0.434
-505.726	21.648	-0.287	-0.233
-504.712	-119.450	0.112	-0.019
-503.697	-58.823	0.287	0.124
-502.683	274.679	0.127	-0.225
-501.668	-79.441	0.139	-0.047
-500.653	800.000	-0.044	-0.137
-499.639	-49.804	-0.210	0.100
-498.624	-21.779	-0.130	0.079
-497.610	332.853	0.030	0.057
-496.595	-200.000	-0.341	-0.001
-495.581	127.245	0.280	-0.356
-494.566	-49.204	-0.325	-0.155
-493.551	60.188	0.165	-0.163
-492.537	-37.425	-0.128	0.068
-491.522	-80.545	0.266	0.089
-490.508	800.000	0.127	0.366
-489.493	-200.000	0.019	-0.218
-488.478	-109.303	-0.257	0.054
-487.464	-139.250	-0.020	-0.002
-486.449	249.495	-0.047	0.080
-485.435	-89.971	-0.240	0.070
-484.420	-147.663	0.079	-0.007
-483.405	590.319	-0.048	-0.118
-482.391	-72.956	0.380	-0.139
-481.376	57.534	-0.065	-0.064
-480.362	-77.310	-0.308	0.107
-479.347	-91.712	0.067	-0.019
-478.332	224.897	-0.012	-0.020
-477.318	-105.805	0.372	0.084
-476.303	460.432	-0.099	-0.220
-475.289	-27.350	0.344	-0.200
-474.274	189.338	0.272	-0.407
-473.259	-31.741	0.339	-0.190
-472.245	-62.346	-0.095	0.039
-471.230	-106.494	-0.235	0.052
-470.216	800.000	0.073	-0.239
-469.201	-50.167	0.411	-0.194
-468.186	171.480	-0.057	-0.081
-467.172	-84.831	-0.109	0.034
-466.157	-200.000	0.003	-0.238
-465.143	162.177	0.157	0.219
-464.128	-81.795	-0.030	0.010
-463.113	-200.000	0.011	0.114
-462.099	219.332	0.143	0.229
-461.084	-51.288	0.391	-0.183
-460.070	108.725	-0.256	-0.305
-459.055	50.189	-0.165	0.155
-458.040	-134.339	0.366	0.045
-457.026	520.362	-0.057	-0.134
-456.011	432.930	-0.013	0.027
-454.997	-6.796	-0.145	0.098
-453.982	-200.000	0.049	-0.506
-452.968	-29.973	0.220	-0.125
-451.953	-165.851	-0.302	0.013
-450.938	48.727	-0.082	-0.077
-449.924	11.922	-0.313	-0.240
-448.909	-29.190	-0.382	0.219
-447.895	539.387	-0.087	0.208
-446.880	-82.545	-0.406	0.131
-445.865	-11.099	-0.152	-0.100
-444.851	-53.880	0.161	0.073
-443.836	576.865	-0.077	0.187
-442.822	231.005	-0.162	-0.264
-441.807	-72.487	0.119	-0.044
-440.792	18.998	0.057	0.045
-439.778	-122.144	0.367	0.060
-438.763	43.016	-0.233	0.212
-437.749	16.799	0.137	-0.108
-436.734	-100.080	0.260	0.065
-435.719	21.037	0.207	0.167
-434.705	12.038	-0.221	-0.170
-433.690	-51.429	0.264	0.123
-432.676	253.258	0.122	-0.208
-431.661	-200.000	-0.044	0.326
-430.646	-200.000	-0.275	0.001
-429.632	-200.000	-0.050	-0.356
-428.617	215.416	-0.034	0.054
-427.603	-84.264	0.163	-0.052
-426.588	-23.986	0.142	0.085
-425.573	366.505	0.111	-0.223
-424.559	-200.000	-0.002	0.088
-423.544	-200.000	-0.026	-0.347
-422.530	800.000	0.015	0.043
-421.515	-16.263	0.126	-0.080
-420.500	-79.080	-0.214	0.072
-419.486	-128.443	-0.303	0.043
-418.471	-148.329	0.406	-0.033
-417.457	-200.000	-0.011	0.136
-416.442	-116.491	0.283	-0.052
-415.428	264.056	-0.191	-0.331
-414.413	-32.190	-0.218	-0.121
-413.398	187.833	-0.200	0.298
-412.384	-143.153	-0.407	-0.039
-411.369	-151.098	-0.236	0.018
-410.355	392.264	0.091	0.188
-409.340	114.030	0.077	-0.094
-408.325	-13.866	-0.184	-0.118
-407.311	190.665	0.129	0.192
-406.296	-84.555	0.191	0.060
-405.282	194.368	0.069	0.104
-404.267	10.096	0.392	0.297
-403.252	49.144	0.149	-0.140
-402.238	76.287	0.118	0.125
-401.223	-110.248	0.033	-0.007
-400.209	-200.000	-0.000	0.182
-399.194	800.000	-0.103	0.334
-398.179	-200.000	0.001	0.176
-397.165	-133.126	0.399	0.050
-396.150	-200.000	0.015	0.162
-395.136	-46.305	0.210	0.103
-394.121	715.663	-0.081	0.214
-393.106	-136.156	0.385	-0.045
-392.092	-120.989	-0.228	-0.038
-391.077	98.161	-0.193	-0.221
-390.063	96.591	-0.066	0.075
-389.048	-200.000	0.029	0.239
-388.033	-200.000	-0.017	0.105
-387.019	165.752	0.038	0.053
-386.004	390.984	0.209	-0.432
-384.990	11.240	0.276	0.210
-383.975	372.813	-0.062	0.125
-382.960	-82.091	-0.229	0.075
-381.946	-89.249	-0.311	0.091
-380.931	-52.108	0.404	0.187
-379.917	-158.174	0.323	0.019
-378.902	-136.245	-0.050	0.006
-377.888	-200.000	-0.010	-0.301
-376.873	108.519	-0.039	0.047
-375.858	644.319	0.069	0.175
-374.844	800.000	-0.051	0.167
-373.829	800.000	0.104	0.336
-372.815	34.182	-0.104	0.090
-371.800	-200.000	-0.004	0.087
-370.785	-200.000	-0.019	0.271
-369.771	800.000	-0.068	0.250
-368.756	65.926	0.110	-0.111
-367.742	-63.364	-0.152	-0.062
-366.727	74.641	-0.117	-0.122
-365.712	-136.599	0.212	0.024
-364.698	-159.288	-0.228	-0.013
-363.683	675.405	-0.026	-0.067
-362.669	90.266	0.058	0.064
-361.654	-57.397	-0.117	0.051
-360.639	-200.000	-0.057	-0.344
-359.625	-200.000	-0.014	-0.090
-358.610	-200.000	0.028	-0.168
-357.596	70.473	0.080	-0.082
-356.581	800.000	0.049	0.191
-355.566	-44.720	0.243	0.120
-354.552	652.510	0.010	0.024
-353.537	800.000	0.042	0.148
-352.523	800.000	-0.096	0.398
-351.508	-72.599	-0.371	0.136
-350.493	726.118	-0.018	-0.048
-349.479	-63.197	-0.353	0.145
-348.464	-200.000	-0.018	-0.134
-347.450	-14.627	-0.173	-0.111
-346.435	-81.872	0.274	0.089
-345.420	-49.669	-0.334	0.158
-344.406	800.000	0.030	-0.108
-343.391	800.000	-0.012	0.046
-342.377	-200.000	-0.014	-0.233
-341.362	84.808	-0.139	-0.151
-340.348	597.190	-0.018	0.044
-339.333	77.623	0.185	-0.195
-338.318	-200.000	-0.026	0.204
-337.304	-170.621	0.182	-0.006
-336.289	-200.000	0.021	-0.119
-335.275	311.453	-0.126	-0.235
-334.260	-12.624	-0.033	0.021
-333.245	-200.000	0.032	-0.194
-332.231	-31.024	0.123	0.069
-331.216	-110.569	-0.071	0.015
-330.202	-200.000	-0.028	-0.120
-329.187	-13.808	0.056	-0.036
-328.172	800.000	-0.059	-0.219
-327.158	-200.000	-0.064	-0.299
-326.143	800.000	-0.081	0.238
-325.129	162.570	0.128	0.179
-324.114	10.374	0.157	0.119
-323.099	-20.141	-0.141	-0.086
-322.085	276.042	0.096	0.170
-321.070	800.000	-0.029	-0.098
-320.056	-200.000	-0.039	0.346
-319.041	-33.727	0.127	-0.069
-318.026	-200.000	-0.026	0.242
-317.012	-97.282	0.263	-0.068
-315.997	201.284	-0.167	0.254
-314.983	6.180	0.071	-0.053
-313.968	147.643	-0.201	0.269
-312.953	-10.205	0.263	0.173
-311.939	-200.000	-0.001	-0.065
-310.924	-200.000	-0.015	0.195
-309.910	387.831	-0.079	-0.162
-308.895	453.781	0.171	0.375
-307.880	79.755	-0.310	0.330
-306.866	800.000	0.052	-0.190
-305.851	55.921	-0.082	-0.079
-304.837	-132.387	0.343	0.044
-303.822	253.156	-0.087	-0.148
-302.807	488.040	0.100	0.228
-301.793	174.396	-0.023	-0.032
-300.778	16.874	0.192	-0.151
-299.764	121.301	-0.127	-0.157
-298.749	800.000	-0.043	0.147
-297.735	-38.148	0.086	0.045
-296.720	666.968	-0.057	-0.146
-295.705	139.519	-0.181	-0.237
-294.691	-200.000	-0.002	-0.211
-293.676	235.732	-0.116	-0.189
-292.662	-200.000	0.050	-0.220
-291.647	-74.268	-0.174	0.062
-290.632	800.000	-0.075	0.285
-289.618	-24.784	0.304	0.179
-288.603	-155.281	0.237	0.015
-287.589	361.702	-0.078	-0.155
-286.574	-145.592	-0.037	-0.003
-285.559	404.116	-0.076	0.160
-284.545	113.477	-0.134	-0.161
-283.530	368.694	0.027	-0.055
-282.516	0.500	0.230	-0.163
-281.501	-200.000	0.069	0.403
-280.486	110.072	-0.121	0.143
-279.472	14.059	0.094	0.072
-278.457	126.015	-0.163	0.205
-277.443	-76.253	-0.233	0.081
-276.428	186.356	0.243	0.359
-275.413	-200.000	0.013	0.191
-274.399	-56.212	0.144	0.063
-273.384	73.135	0.130	-0.134
-272.370	-105.583	-0.270	0.061
-271.355	317.235	-0.110	-0.207
-270.340	106.843	0.131	0.154
-269.326	800.000	0.040	-0.138
-268.311	-149.073	0.069	-0.006
-267.297	-154.886	0.053	0.003
-266.282	-128.780	-0.357	-0.050
-265.267	165.105	0.051	0.071
-264.253	800.000	0.161	0.447
-263.238	167.681	-0.187	0.264
-262.224	156.623	0.208	0.284
-261.209	-200.000	0.050	0.249
-260.195	-139.303	-0.158	-0.017
-259.180	-34.507	0.157	-0.085
-258.165	800.000	0.061	-0.249
-257.151	-26.278	0.147	-0.085
-256.136	-78.702	-0.143	0.048
-255.122	176.845	-0.143	0.206
-254.107	-146.992	-0.327	-0.028
-253.092	249.650	0.239	-0.401
-252.078	492.178	0.035	-0.080
-251.063	-200.000	0.004	0.176
-250.049	198.471	-0.199	-0.302
-249.034	-71.271	0.123	0.046
-248.019	52.184	-0.084	0.079
-247.005	-34.514	-0.255	0.138
-245.990	-154.374	0.152	-0.010
-244.976	548.444	0.037	0.087
-243.961	-104.189	0.149	-0.034
-242.946	241.792	0.084	-0.139
-241.932	471.796	0.158	0.352
-240.917	800.000	0.094	-0.353
-239.903	14.068	0.226	0.174
-238.888	28.662	-0.127	0.107
-237.873	40.421	0.151	0.135
-236.859	-97.636	-0.161	0.041
-235.844	-200.000	0.018	-0.156
-234.830	-200.000	0.042	0.278
-233.815	-116.636	-0.205	0.037
-232.800	-91.518	-0.245	0.069
-231.786	119.830	-0.200	-0.246
-230.771	-200.000	-0.025	0.122
-229.757	-100.010	0.305	0.075
-228.742	250.633	0.125	-0.211
-227.727	253.319	-0.115	-0.194
-226.713	-69.243	0.077	0.029
-225.698	-41.181	0.198	0.101
-224.684	74.031	0.033	-0.034
-223.669	316.436	0.163	-0.304
-222.655	249.002	0.190	0.318
-221.640	42.723	-0.103	0.093
-220.625	-200.000	-0.004	0.158
-219.611	261.254	0.183	0.313
-218.596	-73.408	-0.441	-0.159
-217.582	790.487	0.054	0.148
-216.567	-200.000	0.056	0.311
-215.552	-200.000	-0.050	0.229
-214.538	-200.000	0.001	-0.098
-213.523	-200.000	0.015	0.096
-212.509	-1.943	0.212	-0.147
-211.494	794.834	-0.117	-0.319
-210.479	258.730	0.111	0.190
-209.465	-63.694	0.316	-0.128
-208.450	800.000	0.106	-0.357
-207.436	402.095	-0.019	-0.039
-206.421	68.966	0.295	-0.299
-205.406	-200.000	-0.034	-0.148
-204.392	-89.616	-0.240	0.070
-203.377	425.692	0.102	0.217
-202.363	-144.506	-0.342	-0.031
-201.348	28.945	-0.309	-0.259
-200.333	106.330	-0.241	0.282
-199.319	456.701	0.052	0.115
-198.304	-15.088	-0.179	0.113
-197.290	359.485	-0.107	0.212
-196.275	13.883	-0.137	-0.105
-195.260	68.355	-0.123	0.124
-194.246	40.489	0.056	-0.050
-193.231	-128.255	-0.261	0.037
-192.217	-82.458	0.177	-0.057
-191.202	-200.000	0.124	0.554
-190.187	102.977	-0.088	-0.102
-189.173	-13.126	0.416	0.267
-188.158	634.644	-0.073	-0.183
-187.144	-8.091	0.164	-0.109
-186.129	24.275	0.212	-0.173
-185.114	-98.347	0.568	-0.144
-184.100	41.106	-0.180	-0.160
-183.085	-150.049	-0.159	-0.012
-182.071	-147.257	0.099	0.008
-181.056	-111.948	0.084	-0.017
-180.042	-200.000	0.002	0.364
-179.027	82.602	-0.156	0.168
-178.012	-200.000	0.056	-0.331
-176.998	800.000	0.030	0.122
-175.983	-200.000	0.077	-0.610
-174.969	800.000	-0.034	0.107
-173.954	-75.527	0.061	-0.021
-172.939	131.493	0.201	0.255
-171.925	-200.000	0.000	-0.063
-170.910	114.239	0.113	-0.135
-169.896	-102.310	0.263	0.062
-168.881	-32.859	-0.093	-0.051
-167.866	396.323	-0.105	-0.216
-166.852	-136.641	0.130	-0.015
-165.837	692.642	0.082	-0.212
-164.823	161.578	0.078	-0.108
-163.808	-20.631	0.162	0.098
-162.793	-12.367	-0.176	0.113
-161.779	288.170	0.089	0.159
-160.764	-91.958	0.274	0.077
-159.750	-191.993	-0.136	-0.001
-158.735	66.720	0.103	0.103
-157.720	-56.482	-0.151	0.066
-156.706	-200.000	-0.036	-0.331
-155.691	-200.000	-0.008	0.131
-154.677	-101.904	-0.127	-0.030
-153.662	61.435	0.208	0.204
-152.647	-47.546	0.321	-0.154
-151.633	-80.616	0.286	-0.094
-150.618	-200.000	0.035	0.156
-149.604	101.323	-0.178	0.204
-148.589	-121.128	0.302	0.050
-147.574	-112.290	0.251	0.050
-146.560	195.166	0.223	0.333
-145.545	-200.000	-0.004	0.154
-144.531	800.000	-0.100	0.313
-143.516	6.723	-0.132	0.097
-142.502	352.253	0.084	-0.164
-141.487	34.598	-0.057	-0.050
-140.472	800.000	-0.023	-0.066
-139.458	-200.000	-0.082	-0.451
-138.443	-23.485	0.119	-0.070
-137.429	644.262	-0.103	-0.259
-136.414	235.608	-0.115	-0.187
-135.399	-200.000	-0.007	0.165
-134.385	58.797	0.129	0.125
-133.370	-173.060	0.118	0.004
-132.356	648.509	0.148	-0.373
-131.341	760.943	-0.075	-0.202
-130.326	5.690	0.100	0.073
-129.312	26.634	0.468	0.386
-128.297	243.917	0.197	-0.326
-127.283	112.599	0.110	0.131
-126.268	-102.487	0.104	0.024
-125.253	464.310	0.099	-0.218
-124.239	-21.524	-0.040	0.024
-123.224	282.682	0.215	0.381
-122.210	-200.000	0.018	-0.355
-121.195	-200.000	-0.048	-0.345
