DTS Sentinel unit serial number:	SN413079Multiplexer serial number:	ORYXHardware model number:	OX4-SRSoftware version number:	ORYX F/W v4.00 Oryx Data Collector v3.7.2.0data status	okinstallation	princeton_trtdifferential loss correction	single-endedforward channel	channel 1reverse channel	N/Adate	2019/09/12time	18:50:34forward acquisition time	15.00reverse acquisition time	0.00gamma	496.2192k internal	0.2319k external	0.2319temperature offset calibration	1.0095default loss term (dB/km)	0.3790temperature slope calibration	1.0000multiplexer offset coefficient	1.0000multiplexer slope coefficient	1.0000fibre end	0.00T internal ref (°C)	32.94T ext. ref 1 (°C)	2.98T ext. ref 2 (°C)	27.42length (m)	temperature (°C)	Stokes	anti-Stokes-747.200	-70.473	-0.218	-0.083
-746.185	26.325	-0.505	0.427
-745.171	-200.000	0.041	0.345
-744.156	111.546	-0.312	-0.381
-743.142	-89.377	-0.703	0.209
-742.127	-137.828	0.762	0.086
-741.112	-200.000	0.166	-1.103
-740.098	-52.548	-0.518	0.242
-739.083	-35.384	-0.361	-0.198
-738.069	94.246	-0.294	0.338
-737.054	128.332	-0.238	0.307
-736.039	264.831	0.184	-0.325
-735.025	558.881	0.086	-0.210
-734.010	-200.000	0.017	-0.677
-732.996	689.839	-0.157	-0.416
-731.981	-200.000	-0.167	-1.675
-730.966	-200.000	0.085	-0.656
-729.952	53.047	0.251	-0.243
-728.937	-156.534	-0.506	-0.032
-727.923	-200.000	0.068	-0.538
-726.908	104.432	-0.493	-0.586
-725.894	287.513	0.334	0.611
-724.879	190.578	0.210	0.319
-723.864	105.011	0.255	0.304
-722.850	-110.239	-0.652	-0.137
-721.835	800.000	0.089	-0.346
-720.821	216.077	0.198	-0.318
-719.806	-200.000	0.028	0.363
-718.791	-200.000	-0.013	0.141
-717.777	-200.000	0.127	-0.606
-716.762	-70.866	-0.338	-0.129
-715.748	-6.546	-0.848	-0.583
-714.733	722.572	0.181	-0.486
-713.718	-191.450	-0.099	0.001
-712.704	-200.000	0.031	-0.438
-711.689	-200.000	0.023	-1.414
-710.675	256.139	-0.577	1.000
-709.660	195.720	0.351	0.540
-708.645	-100.072	-0.143	0.036
-707.631	469.229	-0.468	1.061
-706.616	-31.081	0.824	-0.469
-705.602	280.391	0.236	0.426
-704.587	306.179	0.112	-0.210
-703.572	11.002	0.102	-0.079
-702.558	563.523	-0.017	0.042
-701.543	56.034	-0.101	-0.099
-700.529	800.000	-0.281	-1.000
-699.514	207.750	0.135	0.213
-698.499	-67.272	-0.345	-0.137
-697.485	-57.714	0.257	0.114
-696.470	756.105	0.253	-0.692
-695.456	142.967	0.245	0.329
-694.441	-69.771	0.324	-0.125
-693.426	-79.320	1.120	-0.383
-692.412	-200.000	0.060	-0.741
-691.397	-2.737	1.168	0.824
-690.383	800.000	0.053	0.221
-689.368	62.593	-0.176	-0.178
-688.354	-112.761	-0.746	0.149
-687.339	800.000	0.102	0.433
-686.324	421.071	-0.201	-0.435
-685.310	265.495	0.447	0.786
-684.295	294.421	-0.349	-0.644
-683.281	-200.000	0.138	-0.679
-682.266	-200.000	-0.667	-0.002
-681.251	247.927	0.191	-0.326
-680.237	707.727	-0.179	0.476
-679.222	92.976	-0.424	0.483
-678.208	-200.000	-0.072	0.630
-677.193	-156.212	0.290	0.018
-676.178	280.293	0.288	-0.520
-675.164	-40.333	0.196	-0.103
-674.149	48.602	0.064	0.061
-673.135	-56.026	-0.820	0.369
-672.120	800.000	0.149	-0.586
-671.105	-17.540	0.351	-0.223
-670.091	-68.203	-0.152	0.060
-669.076	-120.443	-1.199	0.206
-668.062	62.514	-0.802	-0.808
-667.047	800.000	-0.226	-0.688
-666.032	-102.055	0.372	-0.091
-665.018	-200.000	-0.182	-1.185
-664.003	800.000	0.280	-0.933
-662.989	-46.128	0.110	0.055
-661.974	800.000	-0.112	-0.350
-660.959	-129.689	-1.178	-0.164
-659.945	-200.000	0.001	0.050
-658.930	-124.838	0.248	0.039
-657.916	150.853	-0.398	-0.546
-656.901	-107.703	0.401	0.088
-655.886	800.000	0.151	0.662
-654.872	-92.209	0.595	-0.169
-653.857	-132.391	0.840	-0.109
-652.843	-65.800	-0.382	0.154
-651.828	441.745	0.233	-0.513
-650.814	-80.497	-0.327	-0.110
-649.799	-88.369	-0.081	0.024
-648.784	20.376	0.256	0.208
-647.770	-200.000	-0.316	-1.413
-646.755	-104.657	0.698	-0.162
-645.741	240.912	0.325	0.547
-644.726	800.000	0.090	0.293
-643.711	-200.000	-0.090	-0.513
-642.697	-16.307	-0.187	0.119
-641.682	-200.000	0.012	0.651
-640.668	-43.689	-0.524	-0.266
-639.653	800.000	-0.160	-0.573
-638.638	800.000	0.222	-0.747
-637.624	-101.974	-0.590	0.143
-636.609	8.275	-0.471	-0.356
-635.595	-76.182	-0.131	0.046
-634.580	800.000	-0.089	-0.362
-633.565	-117.559	-1.037	0.189
-632.551	-2.586	-0.423	0.298
-631.536	-84.285	-0.756	-0.241
-630.522	-200.000	-0.035	-0.210
-629.507	-59.834	0.377	-0.163
-628.492	-200.000	-0.113	0.531
-627.478	800.000	0.175	0.541
-626.463	315.757	-0.320	-0.607
-625.449	63.553	-0.228	-0.230
-624.434	-127.335	-0.298	0.044
-623.419	265.076	0.561	-0.984
-622.405	568.047	-0.269	-0.657
-621.390	-200.000	0.085	0.785
-620.376	91.916	-0.307	0.347
-619.361	-200.000	0.046	0.261
-618.346	-200.000	-0.028	-0.162
-617.332	-145.550	0.327	-0.030
-616.317	-200.000	0.020	0.983
-615.303	302.249	0.179	0.334
-614.288	42.946	-0.286	0.262
-613.273	188.646	-0.217	-0.326
-612.259	224.531	-0.216	0.352
-611.244	800.000	0.221	0.802
-610.230	-132.143	-0.440	-0.057
-609.215	223.142	-0.184	-0.298
-608.201	-69.367	0.250	0.096
-607.186	186.324	-0.139	-0.209
-606.171	-200.000	-0.008	0.434
-605.157	-25.930	-0.713	-0.422
-604.142	-139.446	-0.270	0.029
-603.128	440.086	-0.170	0.373
-602.113	417.781	-0.353	-0.759
-601.098	467.763	-0.115	-0.260
-600.084	-85.874	0.286	0.089
-599.069	-149.362	0.475	-0.038
-598.055	-108.574	-0.676	0.146
-597.040	-89.449	-0.418	-0.124
-596.025	-116.683	0.122	-0.023
-595.011	201.262	-0.583	-0.903
-593.996	-200.000	-0.081	0.522
-592.982	246.668	0.373	-0.633
-591.967	800.000	0.249	-0.715
-590.952	-76.642	0.443	0.156
-589.938	169.367	0.047	-0.068
-588.923	103.054	0.306	-0.361
-587.909	1.694	0.409	0.296
-586.894	-145.757	-0.427	0.038
-585.879	664.528	-0.204	0.530
-584.865	-15.774	0.213	0.137
-583.850	48.097	-0.349	0.328
-582.836	-94.525	0.274	0.075
-581.821	286.942	0.247	-0.449
-580.806	111.381	0.394	0.477
-579.792	-64.533	0.100	-0.041
-578.777	-200.000	0.002	-0.040
-577.763	214.037	0.212	-0.337
-576.748	-60.296	0.303	0.130
-575.733	557.174	0.271	-0.657
-574.719	-200.000	-0.115	0.563
-573.704	226.877	0.152	0.248
-572.690	-70.377	-0.713	-0.272
-571.675	213.076	-0.118	0.187
-570.661	-200.000	0.002	-0.495
-569.646	-163.443	1.047	-0.050
-568.631	76.467	-0.360	-0.383
-567.617	-91.118	-0.133	0.038
-566.602	-100.201	0.534	-0.133
-565.588	266.705	-0.290	-0.508
-564.573	-109.996	1.024	0.215
-563.558	336.200	-0.243	-0.473
-562.544	-162.267	0.966	0.048
-561.529	28.798	-0.153	-0.131
-560.515	-200.000	-0.137	-0.758
-559.500	-162.044	0.610	0.031
-558.485	314.363	0.406	0.768
-557.471	398.447	-0.244	0.512
-556.456	-200.000	0.136	-0.882
-555.442	-138.601	-0.760	-0.084
-554.427	28.047	0.634	0.537
-553.412	-200.000	-0.119	0.896
-552.398	256.472	0.139	-0.240
-551.383	800.000	0.150	0.497
-550.369	800.000	-0.109	-0.401
-549.354	-200.000	-0.157	-0.697
-548.339	-53.237	0.441	0.203
-547.325	800.000	-0.047	-0.172
-546.310	800.000	0.194	-0.701
-545.296	-125.796	0.713	-0.108
-544.281	-88.300	-0.280	-0.084
-543.266	-200.000	-0.028	-0.383
-542.252	-122.255	-0.053	0.009
-541.237	230.980	-0.202	0.332
-540.223	51.003	-0.451	0.429
-539.208	-200.000	0.029	-0.242
-538.193	288.812	-0.479	0.872
-537.179	-31.224	-0.262	0.148
-536.164	-200.000	0.002	-0.525
-535.150	-76.165	-0.838	-0.297
-534.135	-200.000	0.067	-0.526
-533.121	-43.342	-0.336	0.171
-532.106	-200.000	0.053	-0.413
-531.091	604.106	-0.152	-0.381
-530.077	-126.759	0.404	-0.060
-529.062	228.437	0.257	0.420
-528.048	516.220	-0.188	-0.440
-527.033	122.793	-0.109	-0.136
-526.018	-105.079	-0.804	0.185
-525.004	800.000	0.256	-0.906
-523.989	-12.644	0.485	0.317
-522.975	251.106	-0.335	-0.571
-521.960	-84.907	0.521	0.164
-520.945	-26.952	-0.303	0.177
-519.931	-200.000	0.049	0.696
-518.916	-6.480	-0.671	-0.459
-517.902	560.186	-0.048	-0.117
-516.887	-100.348	0.247	0.062
-515.872	-77.999	-0.563	-0.194
-514.858	-200.000	0.017	-0.728
-513.843	76.950	-0.283	0.301
-512.829	-166.012	0.222	-0.009
-511.814	205.592	-0.248	-0.387
-510.799	-31.110	0.787	0.445
-509.785	-200.000	-0.077	-0.362
-508.770	-200.000	-0.018	-0.275
-507.756	800.000	-0.082	0.245
-506.741	286.954	0.253	-0.458
-505.726	600.458	-0.205	0.510
-504.712	216.031	0.570	0.907
-503.697	-179.794	0.526	-0.011
-502.683	26.844	-0.392	-0.329
-501.668	-150.356	0.477	0.037
-500.653	-27.178	0.218	-0.128
-499.639	-120.045	-0.636	0.109
-498.624	-138.769	0.745	-0.081
-497.610	-89.604	-0.387	0.114
-496.595	-71.479	-0.711	0.266
-495.581	-176.130	1.023	-0.027
-494.566	-104.925	0.939	0.216
-493.551	800.000	0.214	0.649
-492.537	323.628	0.204	-0.389
-491.522	-200.000	-0.059	-0.268
-490.508	20.821	0.127	0.103
-489.493	259.254	-0.274	0.474
-488.478	11.896	0.368	-0.283
-487.464	-200.000	-0.042	0.392
-486.449	130.119	-0.333	-0.427
-485.435	-200.000	0.119	1.052
-484.420	269.682	0.406	0.714
-483.405	-200.000	-0.035	0.743
-482.391	207.743	0.253	0.396
-481.376	-130.036	-0.647	0.089
-480.362	-19.503	0.280	-0.174
-479.347	-138.589	-0.480	-0.053
-478.332	504.884	0.270	0.626
-477.318	243.954	-0.356	0.599
-476.303	10.180	-0.271	0.206
-475.289	-29.562	-0.255	0.146
-474.274	322.468	0.689	1.313
-473.259	278.636	-0.390	-0.696
-472.245	-138.571	-0.519	-0.057
-471.230	-200.000	-0.117	0.772
-470.216	188.373	-0.288	0.431
-469.201	-104.735	-0.398	-0.092
-468.186	796.312	0.068	0.188
-467.172	-62.503	-0.465	-0.193
-466.157	386.115	0.344	-0.711
-465.143	38.477	0.323	0.288
-464.128	-173.814	0.407	0.012
-463.113	274.901	0.545	0.967
-462.099	-55.187	0.289	-0.130
-461.084	-200.000	-0.063	0.287
-460.070	-200.000	0.124	0.705
-459.055	682.393	-0.331	-0.864
-458.040	-22.853	0.320	-0.193
-457.026	141.816	0.071	-0.094
-456.011	-200.000	-0.007	0.106
-454.997	-83.655	0.401	-0.128
-453.982	-14.206	-0.237	-0.153
-452.968	10.748	0.394	0.300
-451.953	-50.228	-0.319	-0.151
-450.938	-200.000	0.065	0.481
-449.924	-135.960	0.155	-0.018
-448.909	55.957	0.317	-0.308
-447.895	-159.153	-0.608	-0.034
-446.880	42.607	0.290	0.264
-445.865	-143.019	0.217	-0.021
-444.851	-43.188	0.321	0.162
-443.836	-195.426	0.649	-0.005
-442.822	-101.909	0.634	0.153
-441.807	-200.000	0.073	0.361
-440.792	-200.000	-0.054	1.024
-439.778	-127.415	0.298	0.043
-438.763	640.889	-0.169	-0.431
-437.749	-200.000	0.923	-0.002
-436.734	800.000	-0.252	-0.729
-435.719	-60.201	0.526	-0.224
-434.705	800.000	0.163	0.599
-433.690	176.630	-0.198	0.287
-432.676	34.243	-0.741	0.646
-431.661	800.000	-0.126	-0.372
-430.646	800.000	0.208	-0.704
-429.632	-200.000	-0.102	-0.537
-428.617	11.705	0.196	0.150
-427.603	350.676	-0.312	0.616
-426.588	-2.465	0.275	0.192
-425.573	75.019	0.590	0.621
-424.559	385.047	0.327	-0.673
-423.544	-6.524	-0.724	0.493
-422.530	745.931	-0.169	-0.455
-421.515	-80.217	1.058	0.354
-420.500	697.030	0.258	0.678
-419.486	800.000	0.342	1.422
-418.471	-17.642	1.026	-0.644
-417.457	-103.846	0.175	-0.041
-416.442	-170.990	0.810	-0.028
-415.428	571.236	-0.431	1.049
-414.413	146.979	-0.590	0.793
-413.398	14.935	-0.429	-0.335
-412.384	25.115	-0.552	-0.457
-411.369	800.000	-0.068	0.298
-410.355	-59.399	0.520	0.223
-409.340	-17.386	-0.474	0.298
-408.325	-200.000	0.006	-0.561
-407.311	800.000	-0.112	-0.325
-406.296	-27.993	-0.521	0.301
-405.282	76.189	-0.047	0.050
-404.267	-100.785	0.477	0.117
-403.252	-99.793	-0.219	-0.055
-402.238	-147.630	0.887	0.074
-401.223	107.243	0.178	-0.211
-400.209	-200.000	0.007	-0.225
-399.194	-200.000	0.019	-0.248
-398.179	-200.000	-0.111	-0.495
-397.165	-200.000	-0.083	0.375
-396.150	153.890	0.501	0.686
-395.136	-174.851	0.569	0.016
-394.121	-77.214	-0.383	0.133
-393.106	-145.318	0.828	-0.075
-392.092	-124.848	0.568	0.088
-391.077	-200.000	-0.090	-0.466
-390.063	-200.000	0.011	-0.270
-389.048	-66.350	-0.972	0.385
-388.033	164.181	-0.399	-0.561
-387.019	106.191	-0.329	-0.389
-386.004	-95.801	-0.689	-0.183
-384.990	-200.000	-0.002	0.899
-383.975	800.000	0.053	0.178
-382.960	-200.000	0.057	-0.394
-381.946	-114.939	-0.196	-0.037
-380.931	-200.000	0.007	-0.804
-379.917	-53.301	0.899	-0.411
-378.902	494.001	0.302	0.691
-377.888	800.000	-0.066	-0.272
-376.873	8.576	-0.164	-0.123
-375.858	45.059	-0.144	0.132
-374.844	-71.501	-0.686	-0.256
-373.829	84.062	-0.331	0.360
-372.815	-99.867	-0.563	-0.140
-371.800	-170.367	0.318	-0.011
-370.785	648.765	-0.071	-0.181
-369.771	-150.086	-0.521	0.040
-368.756	292.560	0.294	0.534
-367.742	-198.210	-1.257	0.007
-366.727	-123.643	-0.395	-0.062
-365.712	38.697	-0.349	0.311
-364.698	-139.648	0.532	-0.057
-363.683	351.186	0.287	0.566
-362.669	-59.971	0.710	0.302
-361.654	-95.473	0.502	-0.134
-360.639	-200.000	0.019	-0.092
-359.625	-98.185	0.342	-0.088
-358.610	50.951	0.160	0.151
-357.596	-172.152	0.231	0.007
-356.581	-45.900	0.598	-0.294
-355.566	74.449	-0.129	-0.135
-354.552	-25.720	0.433	-0.255
-353.537	-12.738	0.641	-0.416
-352.523	800.000	-0.327	-1.260
-351.508	-200.000	-0.022	0.789
-350.493	-200.000	0.011	0.204
-349.479	798.575	0.121	-0.332
-348.464	-200.000	-0.054	0.252
-347.450	334.915	-0.310	-0.598
-346.435	169.207	-0.538	0.764
-345.420	-109.744	-0.576	-0.121
-344.406	-24.974	-0.271	-0.160
-343.391	-64.615	0.642	0.259
-342.377	-83.300	0.456	0.146
-341.362	800.000	-0.134	-0.448
-340.348	276.561	-0.442	0.782
-339.333	-200.000	-0.025	-1.176
-338.318	270.212	-0.137	-0.240
-337.304	70.759	-0.184	0.190
-336.289	-200.000	0.093	-0.531
-335.275	148.396	-0.396	-0.532
-334.260	570.556	-0.158	-0.384
-333.245	-12.687	-0.506	-0.328
-332.231	-72.765	0.335	-0.123
-331.216	516.783	0.039	0.090
-330.202	84.218	-0.295	-0.321
-329.187	-72.423	0.435	-0.160
-328.172	-114.598	1.041	-0.198
-327.158	-24.771	-0.416	-0.246
-326.143	48.025	-0.251	0.233
-325.129	-43.693	-0.221	-0.111
-324.114	183.691	0.163	-0.240
-323.099	-200.000	0.079	0.383
-322.085	-200.000	0.095	0.688
-321.070	800.000	0.081	0.274
-320.056	483.055	0.090	-0.203
-319.041	659.051	0.252	0.645
-318.026	355.946	0.372	-0.738
-317.012	11.617	-0.574	-0.438
-315.997	134.917	-0.182	0.235
-314.983	161.380	-0.433	0.602
-313.968	-113.470	0.324	-0.063
-312.953	-99.570	-0.690	-0.173
-311.939	367.245	-0.081	0.164
-310.924	19.101	0.521	-0.416
-309.910	-40.813	-0.621	0.320
-308.895	-200.000	0.004	0.134
-307.880	-200.000	-0.068	0.781
-306.866	-200.000	0.136	-1.294
-305.851	-118.242	-0.104	-0.018
-304.837	-200.000	-0.017	-0.120
-303.822	800.000	0.240	-0.723
-302.807	-96.100	-0.288	-0.076
-301.793	542.949	-0.317	-0.753
-300.778	308.726	-0.275	0.511
-299.764	248.449	0.148	-0.248
-298.749	0.113	-0.245	0.174
-297.735	-163.063	-0.784	0.038
-296.720	800.000	-0.303	-0.862
-295.705	-88.856	0.408	-0.120
-294.691	-97.215	0.106	0.028
-293.676	-99.596	-0.277	0.069
-292.662	45.223	0.167	-0.153
-291.647	800.000	-0.220	0.780
-290.632	-67.187	0.880	-0.345
-289.618	-74.780	-0.546	0.195
-288.603	800.000	0.078	-0.308
-287.589	198.297	0.609	0.925
-286.574	119.313	0.394	0.484
-285.559	800.000	-0.167	0.671
-284.545	230.707	0.220	0.357
-283.530	-112.332	0.208	-0.041
-282.516	5.666	0.219	0.161
-281.501	-130.220	-0.382	-0.052
-280.486	-200.000	-0.101	0.468
-279.472	-200.000	0.004	-0.171
-278.457	337.174	-0.063	-0.122
-277.443	299.660	-0.396	-0.724
-276.428	-33.202	-0.504	-0.277
-275.413	83.195	-0.255	-0.275
-274.399	97.764	-0.109	0.124
-273.384	156.962	-0.291	0.400
-272.370	-35.621	0.217	0.117
-271.355	-68.620	0.514	-0.198
-270.340	154.161	0.278	0.378
-269.326	-200.000	-0.015	0.556
-268.311	-52.349	-0.788	-0.362
-267.297	-57.604	-0.497	-0.216
-266.282	-200.000	0.093	-0.468
-265.267	102.061	0.157	-0.182
-264.253	298.883	-0.133	-0.242
-263.238	48.868	0.456	-0.425
-262.224	-117.646	0.396	-0.071
-261.209	-100.800	-0.312	-0.076
-260.195	64.144	-0.227	-0.226
-259.180	-108.398	-0.404	0.086
-258.165	59.926	-0.699	0.685
-257.151	-200.000	0.057	-0.476
-256.136	-151.887	-0.336	-0.024
-255.122	686.060	-0.306	-0.793
-254.107	28.512	0.307	-0.257
-253.092	198.090	0.429	-0.651
-252.078	800.000	0.082	0.250
-251.063	-106.558	-0.762	-0.168
-250.049	800.000	0.115	-0.363
-249.034	800.000	-0.105	-0.317
-248.019	-56.922	-0.507	-0.222
-247.005	-177.420	0.646	-0.016
-245.990	55.800	0.962	0.925
-244.976	-100.561	-0.508	0.125
-243.961	471.648	0.141	-0.315
-242.946	-88.120	-0.517	0.154
-241.932	-129.444	-0.535	0.074
-240.917	-200.000	0.008	-0.471
-239.903	-200.000	-0.060	0.408
-238.888	-200.000	-0.027	-0.303
-237.873	-30.932	-0.199	0.112
-236.859	415.872	-0.213	-0.451
-235.844	-200.000	0.069	0.491
-234.830	89.927	-0.143	0.158
-233.815	-70.284	-0.204	-0.077
-232.800	-14.393	0.572	0.365
-231.786	63.538	-0.105	0.104
-230.771	120.179	0.103	-0.127
-229.757	91.229	0.452	-0.503
-228.742	379.422	0.569	-1.155
-227.727	-138.459	-0.075	0.008
-226.713	167.356	0.169	0.238
-225.698	209.910	-0.292	-0.455
-224.684	-142.389	1.198	0.117
-223.669	60.902	-0.594	-0.584
-222.655	-200.000	-0.158	-0.799
-221.640	40.378	-0.403	0.359
-220.625	154.700	0.384	-0.523
-219.611	-200.000	-0.084	-0.435
-218.596	-143.568	-0.506	-0.048
-217.582	23.822	-0.277	-0.226
-216.567	800.000	-0.068	0.265
-215.552	-200.000	0.126	-0.579
-214.538	-64.723	-0.623	-0.250
-213.523	35.745	-0.606	0.527
-212.509	-200.000	0.043	0.194
-211.494	-200.000	0.014	1.042
-210.479	-9.904	-0.812	0.535
-209.465	-200.000	-0.045	-0.257
-208.450	-1.905	0.488	0.340
-207.436	49.635	0.663	0.619
-206.421	136.947	0.389	-0.504
-205.406	-167.696	0.548	0.021
-204.392	-75.750	-0.573	-0.201
-203.377	180.457	-0.312	0.453
-202.363	78.614	0.048	0.051
-201.348	374.535	0.213	-0.429
-200.333	478.606	-0.211	-0.472
-199.319	-81.677	-0.553	-0.180
-198.304	-102.585	-1.140	-0.270
-197.290	-67.647	0.559	-0.217
-196.275	-200.000	0.019	0.295
-195.260	-79.050	-0.155	0.052
-194.246	70.713	-0.441	-0.451
-193.231	800.000	0.384	1.074
-192.217	443.373	0.044	-0.094
-191.202	-33.466	-0.039	-0.021
-190.187	302.029	0.816	1.494
-189.173	-200.000	0.036	0.886
-188.158	800.000	-0.208	0.762
-187.144	800.000	-0.162	-0.579
-186.129	612.985	0.405	1.004
-185.114	-19.052	0.156	0.096
-184.100	126.485	0.388	-0.486
-183.085	-200.000	-0.034	-0.367
-182.071	-112.242	0.738	-0.147
-181.056	-148.928	0.290	-0.023
-180.042	61.823	-0.718	0.707
-179.027	-200.000	-0.073	-0.341
-178.012	-137.197	-0.434	-0.049
-176.998	162.470	-0.346	0.480
-175.983	-13.050	-0.228	0.147
-174.969	800.000	-0.133	0.448
-173.954	-200.000	0.074	0.750
-172.939	28.980	0.275	0.231
-171.925	-71.340	0.572	-0.212
-170.910	33.977	0.204	-0.176
-169.896	-62.261	0.501	-0.206
-168.881	147.986	-0.393	-0.524
-167.866	-181.651	-0.806	-0.015
-166.852	-72.652	0.423	0.154
-165.837	-53.395	0.498	0.226
-164.823	618.713	-0.254	0.632
-163.808	-42.811	-0.377	0.190
-162.793	213.167	0.144	0.225
-161.779	-84.166	0.588	0.184
-160.764	-200.000	-0.096	-0.777
-159.750	155.544	0.256	-0.348
-158.735	240.550	0.159	0.263
-157.720	-63.434	0.370	-0.150
-156.706	9.338	0.522	0.390
-155.691	63.238	-0.146	0.145
-154.677	-101.244	0.249	-0.060
-153.662	-200.000	-0.009	-0.619
-152.647	169.196	0.388	-0.548
-151.633	-85.261	-0.470	0.145
-150.618	-176.814	0.238	0.006
-149.604	20.526	0.245	0.196
-148.589	-17.051	0.356	-0.222
-147.574	800.000	-0.100	0.351
-146.560	487.710	-0.414	0.935
-145.545	54.014	0.257	-0.244
-144.531	105.266	0.098	0.115
-143.516	72.830	0.372	-0.383
-142.502	-23.900	0.489	-0.289
-141.487	-200.000	-0.189	-1.104
-140.472	-200.000	0.067	-0.924
-139.458	-62.613	0.870	-0.357
-138.443	-115.448	-0.323	0.060
-137.429	123.649	-0.672	0.833
-136.414	62.712	0.149	0.147
-135.399	-93.885	-0.488	0.132
-134.385	620.095	0.153	0.379
-133.370	536.247	0.303	0.709
-132.356	-26.443	0.881	0.510
-131.341	-105.554	-0.524	-0.117
-130.326	-142.283	-0.401	-0.039
-129.312	-200.000	-0.031	-0.391
-128.297	657.718	-0.268	0.681
-127.283	182.660	-0.430	0.626
-126.268	258.502	-0.183	0.311
-125.253	499.578	-0.299	-0.681
-124.239	-102.906	-0.534	-0.125
-123.224	-200.000	-0.094	-0.599
