DTS Sentinel unit serial number:	SN413079Multiplexer serial number:	ORYXHardware model number:	OX4-SRSoftware version number:	ORYX F/W v4.00 Oryx Data Collector v3.7.2.0data status	okinstallation	princeton_trtdifferential loss correction	single-endedforward channel	channel 1reverse channel	N/Adate	2019/09/14time	06:46:35forward acquisition time	60.00reverse acquisition time	0.00gamma	496.2192k internal	0.2336k external	0.2336temperature offset calibration	1.0079default loss term (dB/km)	0.3790temperature slope calibration	1.0000multiplexer offset coefficient	1.0000multiplexer slope coefficient	1.0000fibre end	0.00T internal ref (°C)	26.27T ext. ref 1 (°C)	3.42T ext. ref 2 (°C)	20.66length (m)	temperature (°C)	Stokes	anti-Stokes-747.200	-95.299	0.217	0.059
-746.185	-33.307	-0.274	-0.152
-745.171	276.772	0.142	0.253
-744.156	-9.752	-0.219	-0.146
-743.142	-74.315	0.285	0.103
-742.127	583.839	-0.123	0.304
-741.112	-200.000	-0.006	0.141
-740.098	800.000	0.127	0.487
-739.083	-200.000	-0.359	0.000
-738.069	-189.074	-0.248	0.003
-737.054	-103.357	0.276	-0.065
-736.039	-87.172	-0.326	0.099
-735.025	-200.000	0.038	0.229
-734.010	-33.363	0.111	-0.062
-732.996	44.488	0.135	0.125
-731.981	-200.000	-0.020	0.128
-730.966	322.715	0.084	0.160
-729.952	-69.863	-0.084	0.032
-728.937	126.644	-0.085	0.108
-727.923	-147.738	0.124	0.010
-726.908	128.949	-0.027	-0.035
-725.894	414.025	0.062	-0.133
-724.879	340.966	0.109	-0.213
-723.864	327.499	-0.178	0.342
-722.850	800.000	-0.013	-0.053
-721.835	-200.000	0.042	-0.241
-720.821	72.539	-0.064	-0.067
-719.806	76.657	0.206	0.220
-718.791	-78.422	-0.190	-0.065
-717.777	39.013	0.111	-0.099
-716.762	800.000	0.100	0.364
-715.748	113.438	-0.141	-0.172
-714.733	243.197	-0.220	0.370
-713.718	18.492	0.279	0.224
-712.704	-35.196	0.194	0.106
-711.689	-200.000	0.043	-0.312
-710.675	119.636	-0.063	-0.078
-709.660	-60.629	0.137	-0.058
-708.645	178.991	0.034	-0.050
-707.631	214.571	-0.173	-0.275
-706.616	-200.000	-0.023	-0.289
-705.602	4.919	-0.055	0.040
-704.587	229.298	0.158	0.258
-703.572	115.769	-0.167	-0.205
-702.558	17.682	-0.050	-0.040
-701.543	2.608	-0.278	-0.202
-700.529	11.322	0.142	0.109
-699.514	-52.705	-0.029	0.014
-698.499	-200.000	-0.002	0.056
-697.485	800.000	0.090	-0.291
-696.470	-1.393	0.161	-0.114
-695.456	185.213	-0.263	-0.391
-694.441	-95.763	0.106	-0.028
-693.426	73.438	0.127	-0.133
-692.412	-200.000	-0.043	-0.237
-691.397	31.892	-0.147	0.127
-690.383	-9.347	0.104	0.070
-689.368	639.141	0.113	-0.287
-688.354	199.394	-0.133	0.205
-687.339	-84.763	0.126	-0.040
-686.324	349.201	-0.009	0.018
-685.310	800.000	0.017	0.054
-684.295	-47.026	-0.044	0.021
-683.281	511.706	-0.175	-0.407
-682.266	-200.000	-0.023	0.214
-681.251	469.818	0.030	0.066
-680.237	289.385	-0.118	0.215
-679.222	250.057	-0.093	-0.158
-678.208	-158.906	-0.361	-0.021
-677.193	800.000	-0.096	0.405
-676.178	-200.000	0.009	0.164
-675.164	-64.029	-0.214	-0.088
-674.149	267.012	0.175	-0.306
-673.135	184.602	0.056	0.083
-672.120	-67.784	0.354	0.139
-671.105	548.041	-0.024	-0.058
-670.091	-200.000	-0.012	0.117
-669.076	47.531	0.255	-0.238
-668.062	-52.501	0.081	0.037
-667.047	469.756	0.067	0.151
-666.032	28.176	-0.097	0.082
-665.018	-0.907	0.182	-0.129
-664.003	259.076	-0.086	-0.149
-662.989	-27.576	-0.291	0.169
-661.974	185.189	0.049	0.073
-660.959	-103.236	-0.127	0.030
-659.945	-162.198	0.224	-0.011
-658.930	-200.000	0.048	0.241
-657.916	800.000	0.052	0.216
-656.901	-52.952	-0.090	-0.042
-655.886	18.860	-0.094	-0.075
-654.872	-31.766	-0.267	0.150
-653.857	-126.478	-0.351	0.052
-652.843	40.040	0.151	0.136
-651.828	-200.000	0.024	0.306
-650.814	-200.000	-0.036	0.377
-649.799	269.258	0.026	0.045
-648.784	-81.565	0.119	0.039
-647.770	-200.000	0.037	0.224
-646.755	238.151	0.060	0.099
-645.741	100.605	0.168	0.195
-644.726	59.739	-0.045	-0.045
-643.711	-99.656	-0.301	-0.076
-642.697	61.820	0.121	-0.121
-641.682	68.821	-0.194	0.200
-640.668	416.489	0.065	-0.139
-639.653	198.515	0.134	-0.205
-638.638	-200.000	-0.006	-0.094
-637.624	1.083	0.266	0.191
-636.609	-200.000	0.035	-0.330
-635.595	-200.000	-0.096	-0.440
-634.580	-181.461	-0.296	-0.006
-633.565	144.785	-0.115	-0.153
-632.551	-106.298	-0.141	-0.031
-631.536	-33.476	-0.220	-0.121
-630.522	-37.954	0.307	-0.163
-629.507	-82.744	0.168	0.054
-628.492	409.356	0.077	-0.163
-627.478	-137.297	-0.096	0.011
-626.463	-135.327	-0.215	-0.026
-625.449	-200.000	0.010	0.098
-624.434	-200.000	0.008	-0.040
-623.419	-54.301	-0.215	-0.097
-622.405	-93.671	0.107	0.029
-621.390	-57.701	-0.118	0.052
-620.376	101.918	-0.124	0.145
-619.361	-63.498	-0.204	0.084
-618.346	-153.151	0.102	0.007
-617.332	309.355	0.091	-0.171
-616.317	16.635	-0.183	0.144
-615.303	129.901	-0.218	-0.279
-614.288	168.986	0.082	-0.117
-613.273	-20.991	0.208	0.127
-612.259	151.396	-0.136	-0.184
-611.244	-13.258	-0.187	-0.121
-610.230	114.482	0.189	-0.230
-609.215	55.528	0.063	-0.061
-608.201	-38.435	-0.026	-0.014
-607.186	-91.880	0.144	0.041
-606.171	293.897	-0.125	-0.227
-605.157	-145.932	0.261	-0.023
-604.142	123.866	0.122	-0.152
-603.128	28.605	0.054	0.045
-602.113	-151.873	0.406	0.030
-601.098	215.313	-0.155	-0.246
-600.084	-65.803	0.177	-0.071
-599.069	-200.000	-0.043	0.329
-598.055	-77.574	0.504	-0.175
-597.040	-200.000	0.025	-0.118
-596.025	327.286	-0.191	0.366
-595.011	-200.000	0.027	-0.216
-593.996	-18.868	-0.031	-0.019
-592.982	-36.501	0.288	0.155
-591.967	-200.000	0.000	-0.043
-590.952	-200.000	-0.028	0.402
-589.938	-36.994	-0.128	0.069
-588.923	-152.791	-0.185	0.013
-587.909	800.000	-0.052	-0.182
-586.894	-156.318	-0.141	0.009
-585.879	286.347	-0.057	0.103
-584.865	212.959	0.089	0.140
-583.850	180.938	0.124	0.182
-582.836	45.185	-0.322	0.296
-581.821	195.083	0.237	-0.358
-580.806	91.369	-0.291	-0.326
-579.792	33.798	-0.010	-0.009
-578.777	235.055	-0.178	-0.293
-577.763	-75.398	0.036	0.013
-576.748	-200.000	0.012	0.238
-575.733	97.632	0.035	-0.041
-574.719	-98.359	-0.116	-0.030
-573.704	-173.661	0.283	-0.008
-572.690	-117.822	-0.170	-0.030
-571.675	35.789	-0.247	0.216
-570.661	800.000	-0.046	-0.163
-569.646	800.000	-0.141	0.458
-568.631	252.679	0.125	-0.213
-567.617	-200.000	0.017	-0.181
-566.602	-23.075	0.081	-0.049
-565.588	-89.009	-0.190	0.056
-564.573	360.035	-0.043	0.086
-563.558	-129.260	0.157	-0.022
-562.544	86.059	0.093	0.102
-561.529	536.131	0.105	0.249
-560.515	800.000	0.065	0.205
-559.500	-5.167	-0.138	-0.095
-558.485	11.760	-0.123	0.094
-557.471	-35.954	0.142	0.077
-556.456	292.035	0.034	0.062
-555.442	-55.553	-0.112	0.050
-554.427	-142.947	0.090	0.009
-553.412	-127.974	-0.275	0.039
-552.398	800.000	-0.057	0.176
-551.383	800.000	0.016	-0.064
-550.369	116.561	0.141	0.172
-549.354	111.907	0.278	-0.334
-548.339	-200.000	-0.002	0.223
-547.325	-33.859	-0.258	0.142
-546.310	-32.715	0.120	0.066
-545.296	71.395	-0.140	0.145
-544.281	-2.839	0.106	0.074
-543.266	668.001	-0.013	0.034
-542.252	-53.695	-0.172	-0.078
-541.237	-130.400	0.225	0.030
-540.223	191.696	-0.237	-0.356
-539.208	199.495	-0.233	-0.356
-538.193	103.522	0.134	0.157
-537.179	-72.084	-0.132	0.049
-536.164	125.730	0.049	0.062
-535.150	-200.000	-0.041	0.384
-534.135	111.974	-0.018	-0.022
-533.121	-200.000	0.023	0.269
-532.106	-88.055	0.062	0.018
-531.091	-129.000	0.113	-0.016
-530.077	-200.000	0.021	-0.423
-529.062	-106.134	0.052	-0.012
-528.048	223.852	0.120	-0.194
-527.033	296.985	-0.138	0.252
-526.018	-113.419	0.081	0.016
-525.004	73.835	-0.044	-0.046
-523.989	93.493	0.215	0.242
-522.975	8.191	0.099	-0.074
-521.960	20.888	-0.185	0.149
-520.945	192.559	-0.039	0.058
-519.931	-70.986	0.237	-0.089
-518.916	10.587	-0.159	-0.120
-517.902	335.694	-0.099	-0.190
-516.887	102.167	0.092	-0.107
-515.872	-113.738	0.078	0.015
-514.858	800.000	0.087	0.362
-513.843	-200.000	0.007	0.273
-512.829	304.359	0.066	-0.122
-511.814	-200.000	0.070	-0.407
-510.799	-65.425	-0.219	0.088
-509.785	28.551	-0.125	-0.105
-508.770	-151.054	-0.121	-0.009
-507.756	35.371	-0.212	0.185
-506.741	142.373	0.141	-0.186
-505.726	-200.000	-0.058	-0.270
-504.712	148.443	0.097	-0.130
-503.697	-19.759	-0.155	-0.095
-502.683	-152.628	-0.259	-0.018
-501.668	16.321	0.270	-0.212
-500.653	-49.513	0.159	-0.076
-499.639	-158.103	-0.312	0.018
-498.624	-98.195	0.366	-0.094
-497.610	-126.089	-0.464	-0.069
-496.595	91.298	-0.089	0.100
-495.581	-130.720	0.039	0.005
-494.566	-133.132	-0.134	0.017
-493.551	66.190	0.204	-0.206
-492.537	493.147	-0.101	0.230
-491.522	-129.348	-0.272	0.038
-490.508	800.000	0.041	0.142
-489.493	-8.713	0.061	0.040
-488.478	213.765	-0.193	-0.303
-487.464	-200.000	-0.083	0.381
-486.449	173.056	0.154	0.220
-485.435	31.018	0.096	0.082
-484.420	800.000	-0.041	0.145
-483.405	-59.245	-0.235	0.100
-482.391	800.000	-0.040	-0.149
-481.376	-14.047	-0.392	0.251
-480.362	-45.225	-0.117	-0.058
-479.347	-122.861	-0.321	0.051
-478.332	800.000	-0.053	0.180
-477.318	147.543	-0.142	-0.190
-476.303	-200.000	-0.028	0.382
-475.289	800.000	-0.099	0.298
-474.274	-60.408	0.115	0.049
-473.259	144.286	-0.123	0.163
-472.245	517.141	-0.051	-0.120
-471.230	-200.000	-0.042	-0.205
-470.216	101.991	-0.101	0.117
-469.201	503.116	-0.160	-0.368
-468.186	24.238	-0.116	0.095
-467.172	375.436	-0.105	-0.212
-466.157	-37.046	-0.371	0.198
-465.143	-44.707	0.133	0.066
-464.128	128.150	-0.021	0.026
-463.113	701.195	0.076	0.200
-462.099	50.622	0.165	-0.155
-461.084	35.610	-0.067	-0.059
-460.070	2.054	0.126	0.090
-459.055	-100.730	0.257	0.063
-458.040	-131.565	-0.121	-0.016
-457.026	-200.000	-0.021	-0.323
-456.011	-51.506	0.345	0.160
-454.997	-200.000	-0.007	0.240
-453.982	800.000	-0.087	0.367
-452.968	-31.728	0.235	-0.131
-451.953	800.000	0.054	-0.210
-450.938	-128.469	-0.096	0.014
-449.924	194.479	-0.108	0.163
-448.909	-68.285	0.241	-0.093
-447.895	80.263	0.135	-0.144
-446.880	-111.099	-0.232	-0.047
-445.865	-3.946	-0.131	0.090
-444.851	226.390	-0.204	-0.329
-443.836	118.122	0.071	0.087
-442.822	21.722	-0.202	-0.163
-441.807	3.822	0.179	-0.129
-440.792	-200.000	-0.024	0.202
-439.778	5.894	-0.261	-0.192
-438.763	740.859	-0.115	-0.305
-437.749	-176.634	0.088	0.002
-436.734	182.319	0.200	0.292
-435.719	104.885	0.088	-0.103
-434.705	10.472	-0.182	-0.138
-433.690	-70.239	0.130	-0.049
-432.676	-49.599	-0.105	0.050
-431.661	-113.583	-0.272	-0.053
-430.646	-87.488	-0.073	0.022
-429.632	716.374	-0.060	-0.159
-428.617	16.116	-0.305	-0.239
-427.603	-93.521	0.217	-0.060
-426.588	-200.000	0.014	-0.176
-425.573	-102.584	0.380	-0.090
-424.559	-79.203	0.162	0.055
-423.544	52.602	0.191	-0.181
-422.530	-200.000	-0.037	0.178
-421.515	758.424	0.054	0.145
-420.500	-28.759	0.256	0.146
-419.486	-200.000	0.012	-0.224
-418.471	-91.614	0.104	0.029
-417.457	161.665	-0.372	0.517
-416.442	-116.833	-0.176	-0.032
-415.428	800.000	0.119	0.382
-414.413	-200.000	0.004	0.134
-413.398	-73.462	-0.187	-0.068
-412.384	-34.537	-0.131	-0.071
-411.369	342.456	0.162	0.314
-410.355	800.000	-0.047	0.131
-409.340	-200.000	-0.000	-0.231
-408.325	716.383	-0.066	-0.173
-407.311	149.816	-0.072	0.097
-406.296	800.000	-0.065	0.214
-405.282	-200.000	0.027	0.269
-404.267	-200.000	0.030	0.271
-403.252	-122.224	0.311	0.050
-402.238	92.124	0.211	-0.236
-401.223	414.268	0.135	0.284
-400.209	-145.854	0.080	-0.007
-399.194	6.352	0.204	-0.150
-398.179	-200.000	-0.032	0.189
-397.165	103.173	-0.122	-0.141
-396.150	-153.708	0.136	-0.009
-395.136	32.303	0.252	-0.215
-394.121	800.000	-0.080	-0.324
-393.106	-2.827	0.249	-0.173
-392.092	800.000	-0.051	-0.150
-391.077	800.000	0.115	-0.430
-390.063	-200.000	0.016	-0.103
-389.048	552.929	0.044	-0.105
-388.033	-91.019	-0.077	0.022
-387.019	-200.000	0.020	-0.211
-386.004	96.110	0.168	0.190
-384.990	465.626	0.077	-0.170
-383.975	21.693	-0.077	0.062
-382.960	121.694	0.394	0.486
-381.946	-19.047	-0.326	-0.201
-380.931	800.000	0.031	0.086
-379.917	-1.107	0.149	-0.105
-378.902	559.701	-0.055	-0.132
-377.888	-158.905	0.507	-0.029
-376.873	-110.567	-0.218	0.045
-375.858	-77.133	-0.269	-0.093
-374.844	16.714	0.278	0.218
-373.829	-97.125	-0.045	0.012
-372.815	-112.091	-0.201	-0.040
-371.800	-96.302	0.121	0.032
-370.785	146.183	0.041	-0.054
-369.771	31.382	0.158	-0.135
-368.756	-5.912	-0.181	-0.123
-367.742	104.257	-0.088	-0.102
-366.727	-200.000	0.035	-0.208
-365.712	-200.000	-0.025	0.268
-364.698	800.000	0.040	0.113
-363.683	318.506	0.062	0.116
-362.669	106.854	-0.059	-0.069
-361.654	-101.063	-0.041	0.010
-360.639	163.330	-0.151	-0.210
-359.625	-73.308	-0.158	-0.057
-358.610	-200.000	0.006	0.248
-357.596	-163.067	-0.045	-0.002
-356.581	-160.847	-0.301	0.016
-355.566	83.158	0.095	-0.102
-354.552	-22.925	0.396	0.236
-353.537	-60.482	0.336	-0.141
-352.523	335.174	-0.149	0.285
-351.508	800.000	-0.079	-0.307
-350.493	-200.000	-0.062	0.355
-349.479	291.280	0.047	0.084
-348.464	800.000	0.149	0.407
-347.450	-133.706	0.199	0.025
-346.435	63.012	-0.102	-0.101
-345.420	50.487	0.226	-0.211
-344.406	-93.066	0.354	0.098
-343.391	-81.615	0.160	0.052
-342.377	268.901	-0.095	-0.165
-341.362	-121.472	0.336	-0.055
-340.348	-200.000	0.054	-0.299
-339.333	-23.762	0.222	0.131
-338.318	-22.522	0.171	0.102
-337.304	-80.891	-0.195	-0.064
-336.289	-117.942	-0.547	0.097
-335.275	-200.000	-0.054	-0.271
-334.260	-200.000	0.037	-0.169
-333.245	-200.000	-0.043	0.437
-332.231	-200.000	-0.009	0.106
-331.216	80.374	-0.168	0.179
-330.202	117.442	0.101	0.123
-329.187	-135.435	0.082	-0.010
-328.172	800.000	-0.077	-0.291
-327.158	336.477	-0.219	-0.420
-326.143	-31.961	-0.167	0.092
-325.129	800.000	-0.015	0.045
-324.114	68.724	-0.293	-0.297
-323.099	86.049	0.151	-0.165
-322.085	-81.392	-0.156	-0.051
-321.070	-97.004	0.262	-0.068
-320.056	-112.435	0.280	0.055
-319.041	-200.000	-0.005	-0.179
-318.026	-83.918	0.034	0.011
-317.012	133.076	0.223	0.284
-315.997	-200.000	-0.012	0.105
-314.983	795.392	0.039	-0.105
-313.968	-200.000	0.036	-0.157
-312.953	-200.000	0.008	0.139
-311.939	422.931	-0.054	-0.115
-310.924	-182.592	0.218	-0.004
-309.910	84.113	0.047	0.051
-308.895	169.398	-0.071	0.100
-307.880	-200.000	-0.020	0.339
-306.866	-55.962	-0.214	0.094
-305.851	-200.000	-0.011	0.268
-304.837	-200.000	-0.054	0.373
-303.822	83.073	-0.251	-0.270
-302.807	-45.249	0.124	-0.061
-301.793	16.646	0.291	-0.227
-300.778	-56.046	0.229	0.101
-299.764	-45.021	-0.190	0.093
-298.749	-168.867	-0.114	0.004
-297.735	595.349	-0.103	-0.250
-296.720	-33.833	0.198	-0.108
-295.705	12.622	-0.228	0.173
-294.691	-70.860	-0.176	0.065
-293.676	-162.287	-0.217	0.011
-292.662	147.215	0.153	0.203
-291.647	-200.000	0.014	-0.166
-290.632	800.000	-0.084	-0.244
-289.618	-129.813	0.202	-0.027
-288.603	-25.312	-0.181	0.105
-287.589	40.460	0.048	-0.043
-286.574	208.021	0.113	0.175
-285.559	223.087	0.123	0.196
-284.545	408.807	-0.144	-0.300
-283.530	125.894	-0.128	-0.159
-282.516	-66.226	-0.185	0.073
-281.501	41.820	0.057	0.051
-280.486	-103.985	0.326	0.075
-279.472	175.024	0.294	-0.420
-278.457	-79.819	0.064	-0.021
-277.443	30.997	0.206	-0.174
-276.428	336.287	-0.080	0.152
-275.413	29.084	-0.349	0.292
-274.399	-140.826	-0.268	-0.027
-273.384	404.944	-0.170	0.354
-272.370	-7.616	0.171	0.114
-271.355	661.074	0.060	0.152
-270.340	-42.974	-0.313	0.156
-269.326	121.754	-0.124	-0.153
-268.311	28.410	-0.115	-0.095
-267.297	-93.441	0.189	0.052
-266.282	-95.675	-0.268	-0.071
-265.267	507.007	-0.042	-0.096
-264.253	-112.709	0.087	-0.017
-263.238	-200.000	-0.035	0.209
-262.224	-200.000	0.055	-0.407
-261.209	-51.951	0.057	-0.026
-260.195	56.226	-0.055	-0.053
-259.180	-53.841	0.240	0.108
-258.165	800.000	-0.117	0.331
-257.151	-100.263	0.205	-0.050
-256.136	-66.480	0.257	-0.101
-255.122	182.844	-0.115	0.167
-254.107	38.736	0.268	-0.236
-253.092	-43.414	-0.289	0.144
-252.078	-192.903	0.108	0.001
-251.063	253.705	-0.092	0.155
-250.049	225.502	-0.169	0.269
-249.034	-167.223	-0.395	0.016
-248.019	71.941	0.267	0.273
-247.005	-200.000	0.018	0.101
-245.990	7.872	0.306	-0.226
-244.976	-200.000	-0.085	-0.405
-243.961	236.569	0.066	0.108
-242.946	-200.000	-0.017	0.167
-241.932	136.144	-0.040	-0.051
-240.917	77.543	0.111	0.117
-239.903	62.160	0.141	0.138
-238.888	14.963	-0.181	0.140
-237.873	-8.498	0.082	-0.054
-236.859	-9.148	-0.209	-0.138
-235.844	175.398	-0.120	-0.171
-234.830	322.022	0.087	0.163
-233.815	173.852	0.147	0.209
-232.800	354.235	-0.056	0.109
-231.786	-140.612	0.281	-0.029
-230.771	800.000	0.061	-0.209
-229.757	-200.000	0.010	-0.075
-228.742	-200.000	0.026	-0.180
-227.727	207.154	-0.096	0.148
-226.713	78.217	0.032	-0.034
-225.698	-140.172	0.038	-0.004
-224.684	-9.596	0.185	0.121
-223.669	102.021	-0.071	-0.082
-222.655	-54.994	0.142	-0.063
-221.640	-64.026	-0.390	0.157
-220.625	-124.110	0.255	0.039
-219.611	181.924	0.082	0.118
-218.596	-123.779	-0.107	-0.017
-217.582	0.209	0.047	0.033
-216.567	800.000	0.123	-0.415
-215.552	311.132	0.102	-0.188
-214.538	-30.174	-0.141	0.079
-213.523	-200.000	0.031	0.187
-212.509	21.761	-0.111	0.089
-211.494	268.803	0.120	-0.207
-210.479	-200.000	0.004	0.142
-209.465	30.011	-0.286	-0.240
-208.450	1.912	0.077	0.054
-207.436	92.486	0.170	0.189
-206.421	550.015	0.053	-0.126
-205.406	-156.360	-0.240	0.015
-204.392	-200.000	0.026	-0.139
-203.377	104.243	0.297	-0.343
-202.363	-22.665	-0.341	-0.202
-201.348	181.037	-0.101	0.145
-200.333	-95.913	0.272	-0.071
-199.319	-164.365	-0.252	0.011
-198.304	84.781	-0.126	0.136
-197.290	-17.571	0.119	0.074
-196.275	-63.882	0.045	0.018
-195.260	-200.000	0.016	-0.077
-194.246	-43.079	-0.122	-0.061
-193.231	800.000	-0.028	0.088
-192.217	-52.841	-0.117	0.053
-191.202	74.523	-0.036	0.037
-190.187	318.422	-0.110	-0.204
-189.173	135.953	-0.060	0.077
-188.158	697.494	-0.037	0.095
-187.144	6.912	0.354	0.259
-186.129	800.000	-0.126	-0.389
-185.114	31.715	-0.111	0.094
-184.100	19.700	-0.276	-0.219
-183.085	180.809	0.159	-0.229
-182.071	-166.283	-0.169	0.007
-181.056	-200.000	0.018	-0.226
-180.042	31.831	-0.087	-0.073
-179.027	-200.000	-0.021	0.182
-178.012	242.499	0.101	-0.166
-176.998	150.057	0.275	0.367
-175.983	800.000	0.072	-0.300
-174.969	10.092	0.154	0.115
-173.954	-128.810	-0.139	-0.019
-172.939	-30.875	0.245	0.136
-171.925	317.263	-0.096	0.178
-170.910	-99.991	0.085	0.021
-169.896	-112.907	-0.185	0.036
-168.881	144.479	-0.038	0.050
-167.866	-200.000	-0.014	-0.167
-166.852	-200.000	-0.036	-0.266
-165.837	-200.000	-0.004	0.060
-164.823	-0.129	-0.295	-0.206
-163.808	47.853	0.365	0.334
-162.793	-19.026	0.252	0.154
-161.779	-60.607	0.125	-0.052
-160.764	-97.005	0.086	-0.022
-159.750	-200.000	-0.001	0.164
-158.735	320.548	0.089	-0.166
-157.720	154.377	-0.026	-0.035
-156.706	-200.000	-0.021	0.253
-155.691	85.436	0.059	-0.064
-154.677	-16.228	0.268	-0.167
-153.662	-11.809	0.105	-0.067
-152.647	-200.000	-0.088	0.449
-151.633	124.096	-0.063	0.077
-150.618	332.768	0.097	0.184
-149.604	712.845	0.040	0.103
-148.589	464.383	-0.186	-0.407
-147.574	-68.987	-0.249	-0.094
-146.560	-200.000	0.024	-0.301
-145.545	-25.345	-0.213	-0.123
-144.531	319.703	0.099	-0.184
-143.516	-143.096	-0.473	-0.045
-142.502	18.619	0.110	-0.086
-141.487	70.025	-0.162	0.164
-140.472	66.997	0.162	0.161
-139.458	-4.215	0.213	-0.145
-138.443	610.153	0.022	-0.054
-137.429	-200.000	-0.020	-0.112
-136.414	-200.000	-0.031	-0.163
-135.399	2.650	0.247	0.176
-134.385	-200.000	0.013	0.066
-133.370	-148.016	0.299	-0.024
-132.356	88.013	-0.094	-0.102
-131.341	800.000	-0.042	0.115
-130.326	800.000	0.013	0.043
-129.312	-99.665	-0.024	0.006
-128.297	201.541	0.017	0.026
-127.283	-200.000	0.002	-0.169
-126.268	542.279	-0.078	-0.182
-125.253	80.152	0.194	0.205
-124.239	41.432	-0.055	-0.049
-123.224	-200.000	0.030	0.210
-122.210	36.546	0.033	-0.029
-121.195	371.024	-0.138	0.274
-120.180	-200.000	0.002	-0.207
