DTS Sentinel unit serial number:	SN413079Multiplexer serial number:	ORYXHardware model number:	OX4-SRSoftware version number:	ORYX F/W v4.00 Oryx Data Collector v3.7.2.0data status	okinstallation	princeton_trtdifferential loss correction	single-endedforward channel	channel 1reverse channel	N/Adate	2019/09/12time	19:02:34forward acquisition time	15.00reverse acquisition time	0.00gamma	496.2192k internal	0.2320k external	0.2320temperature offset calibration	1.0106default loss term (dB/km)	0.3790temperature slope calibration	1.0000multiplexer offset coefficient	1.0000multiplexer slope coefficient	1.0000fibre end	0.00T internal ref (°C)	32.75T ext. ref 1 (°C)	3.03T ext. ref 2 (°C)	27.27length (m)	temperature (°C)	Stokes	anti-Stokes-747.200	80.153	-0.526	-0.572
-746.185	2.847	-0.310	0.228
-745.171	196.581	0.263	-0.405
-744.156	88.858	-0.265	-0.298
-743.142	-200.000	0.008	-0.153
-742.127	-145.139	0.138	-0.013
-741.112	-59.930	-0.805	0.348
-740.098	-200.000	-0.029	-0.352
-739.083	-200.000	-0.235	0.001
-738.069	-74.934	-0.214	0.078
-737.054	149.555	-0.872	-1.194
-736.039	186.894	-0.384	0.579
-735.025	-87.762	0.888	0.271
-734.010	45.269	-0.635	-0.592
-732.996	467.527	-0.117	-0.266
-731.981	-102.238	-0.446	0.108
-730.966	-162.323	0.373	-0.019
-729.952	-200.000	0.024	-0.405
-728.937	65.442	-0.818	0.836
-727.923	-50.093	0.135	0.065
-726.908	-48.174	-0.620	-0.303
-725.894	-200.000	-0.017	0.714
-724.879	-200.000	0.035	0.304
-723.864	-81.055	0.179	0.060
-722.850	142.437	0.435	0.584
-721.835	800.000	0.317	0.980
-720.821	-74.394	-0.581	0.212
-719.806	-93.110	1.019	0.286
-718.791	-3.607	-0.667	0.468
-717.777	-88.890	0.124	-0.037
-716.762	102.412	-0.407	0.481
-715.748	235.147	-0.387	-0.645
-714.733	123.828	-0.065	-0.083
-713.718	715.376	0.137	0.368
-712.704	146.690	-0.459	-0.623
-711.689	60.610	0.031	-0.031
-710.675	89.528	0.509	-0.573
-709.660	-81.051	-0.313	-0.105
-708.645	-7.441	-0.299	-0.205
-707.631	23.731	0.265	0.220
-706.616	-92.123	0.901	-0.257
-705.602	-76.880	-0.633	-0.223
-704.587	-200.000	-0.040	0.405
-703.572	11.286	-0.284	-0.220
-702.558	-58.508	-0.537	-0.235
-701.543	359.697	0.266	0.538
-700.529	-200.000	-0.138	1.305
-699.514	-123.374	-0.308	-0.050
-698.499	677.755	-0.245	-0.642
-697.485	-166.669	0.929	0.039
-696.470	321.666	-0.060	-0.116
-695.456	-200.000	-0.133	-0.940
-694.441	-191.625	0.117	0.001
-693.426	250.345	-0.255	-0.437
-692.412	755.255	-0.218	-0.596
-691.397	-122.732	-0.089	0.015
-690.383	-49.801	-0.216	-0.104
-689.368	-200.000	0.033	-0.365
-688.354	-98.820	0.374	-0.096
-687.339	-130.195	-0.232	-0.032
-686.324	-116.678	-0.236	0.044
-685.310	-29.373	0.939	0.542
-684.295	234.255	-0.340	0.565
-683.281	697.303	-0.342	0.906
-682.266	-28.502	-0.265	0.154
-681.251	-2.990	-0.320	-0.225
-680.237	-70.908	-0.744	-0.283
-679.222	2.939	0.344	0.252
-678.208	25.224	-0.482	0.404
-677.193	449.513	0.037	0.083
-676.178	-15.984	-0.350	0.225
-675.164	-109.421	-0.172	0.037
-674.149	222.563	0.397	-0.645
-673.135	247.716	0.483	0.822
-672.120	34.799	0.593	-0.523
-671.105	25.603	0.222	0.187
-670.091	-101.018	0.553	0.137
-669.076	635.039	-0.196	0.502
-668.062	-22.859	-0.754	-0.459
-667.047	199.321	-0.258	0.399
-666.032	113.775	0.219	-0.268
-665.018	214.980	-0.386	0.617
-664.003	412.066	-0.206	0.440
-662.989	-122.650	-0.512	-0.084
-661.974	82.189	-0.285	0.312
-660.959	-59.814	-0.936	0.404
-659.945	-190.538	-0.466	-0.005
-658.930	-164.490	0.816	0.037
-657.916	-114.947	0.699	-0.134
-656.901	-200.000	-0.064	0.535
-655.886	296.216	-0.364	-0.673
-654.872	-200.000	-0.051	0.695
-653.857	-162.932	-0.553	0.027
-652.843	83.645	-0.186	0.204
-651.828	-58.174	0.240	-0.105
-650.814	-32.669	0.758	0.425
-649.799	-40.911	-0.312	-0.162
-648.784	-200.000	-0.035	0.272
-647.770	18.202	-0.597	0.480
-646.755	800.000	-0.343	1.027
-645.741	-200.000	0.081	-0.000
-644.726	193.229	-0.470	0.715
-643.711	442.701	0.369	0.814
-642.697	-200.000	-0.044	-0.432
-641.682	-110.754	0.152	0.032
-640.668	234.523	-0.470	0.781
-639.653	800.000	0.107	-0.332
-638.638	29.348	-0.194	0.166
-637.624	316.366	-0.223	0.425
-636.609	800.000	0.066	-0.227
-635.595	67.590	-0.340	-0.349
-634.580	-15.625	0.448	-0.288
-633.565	-52.680	-0.568	-0.264
-632.551	-80.361	-0.759	0.255
-631.536	2.812	0.229	0.167
-630.522	-200.000	-0.138	0.841
-629.507	512.327	-0.180	0.421
-628.492	-200.000	0.049	-0.393
-627.478	80.822	-0.358	0.388
-626.463	-65.847	-0.640	-0.258
-625.449	328.601	-0.384	0.743
-624.434	-166.859	-0.611	0.025
-623.419	-110.246	0.366	-0.077
-622.405	155.931	0.682	-0.946
-621.390	162.145	0.089	0.126
-620.376	-159.013	0.504	0.029
-619.361	-84.947	0.534	0.168
-618.346	-11.684	-0.991	-0.655
-617.332	28.832	0.705	0.601
-616.317	114.155	0.135	-0.166
-615.303	800.000	-0.190	-0.589
-614.288	21.422	0.513	0.420
-613.273	-101.795	0.605	-0.147
-612.259	-18.222	-0.228	0.143
-611.244	-167.920	0.417	-0.016
-610.230	27.300	0.381	0.322
-609.215	-200.000	0.116	-0.678
-608.201	800.000	-0.240	-0.690
-607.186	800.000	-0.246	-0.930
-606.171	138.467	-0.206	0.272
-605.157	-200.000	0.086	-0.640
-604.142	797.818	0.245	-0.679
-603.128	-41.444	-0.479	0.248
-602.113	-200.000	-0.030	-0.502
-601.098	-97.648	-0.551	0.144
-600.084	31.169	-0.381	0.328
-599.069	-171.919	0.223	-0.007
-598.055	-110.907	0.832	-0.172
-597.040	56.589	0.321	0.314
-596.025	-200.000	0.080	0.570
-595.011	-191.312	0.496	0.005
-593.996	800.000	-0.305	-1.148
-592.982	74.062	0.160	-0.169
-591.967	124.369	-0.553	0.699
-590.952	244.314	0.139	-0.235
-589.938	-128.596	0.986	-0.140
-588.923	90.829	0.364	-0.410
-587.909	800.000	0.096	0.390
-586.894	-42.437	-1.382	0.708
-585.879	-78.816	0.471	0.161
-584.865	800.000	0.197	0.576
-583.850	800.000	-0.251	-0.783
-582.836	-140.723	0.366	0.038
-581.821	173.462	-0.658	0.954
-580.806	44.040	1.153	-1.062
-579.792	-97.483	-0.255	0.067
-578.777	225.145	-0.088	-0.143
-577.763	-140.972	-0.395	0.041
-576.748	-200.000	-0.118	0.535
-575.733	-200.000	-0.050	0.927
-574.719	108.562	0.248	0.298
-573.704	-62.173	-0.609	0.255
-572.690	-200.000	0.015	-0.167
-571.675	79.804	0.689	0.743
-570.661	-200.000	0.089	-0.752
-569.646	-46.117	0.257	-0.127
-568.631	-121.037	0.772	0.130
-567.617	-200.000	0.036	0.190
-566.602	-36.094	0.750	0.407
-565.588	-85.934	0.757	-0.235
-564.573	251.379	0.244	-0.416
-563.558	90.179	-0.260	0.291
-562.544	800.000	-0.126	0.504
-561.529	-30.161	0.551	-0.314
-560.515	800.000	0.180	0.716
-559.500	-135.348	-0.638	0.077
-558.485	30.848	0.169	-0.146
-557.471	-118.573	0.976	-0.173
-556.456	409.238	0.280	0.596
-555.442	-158.858	0.158	-0.009
-554.427	-113.708	0.392	-0.077
-553.412	-83.589	1.376	-0.442
-552.398	192.113	0.551	-0.834
-551.383	135.536	-0.281	-0.367
-550.369	-121.504	-0.375	-0.063
-549.354	-200.000	0.134	0.661
-548.339	800.000	0.192	0.818
-547.325	58.039	0.193	-0.190
-546.310	-66.291	-0.360	0.144
-545.296	-74.346	0.428	-0.155
-544.281	-19.991	-0.268	0.166
-543.266	-17.247	0.310	-0.196
-542.252	207.862	-0.381	-0.598
-541.237	-34.579	-0.769	0.422
-540.223	168.636	0.217	0.310
-539.208	80.373	0.048	-0.051
-538.193	-200.000	-0.004	-0.882
-537.179	139.886	-0.584	-0.772
-536.164	232.842	0.293	0.483
-535.150	-73.726	-0.350	0.128
-534.135	164.878	-0.103	-0.146
-533.121	-89.239	0.674	0.199
-532.106	800.000	0.118	0.485
-531.091	-88.994	-0.400	0.119
-530.077	-80.714	-0.867	0.289
-529.062	1.919	-0.024	0.017
-528.048	48.700	-0.437	0.411
-527.033	-39.544	0.420	0.220
-526.018	-104.740	0.390	0.090
-525.004	-200.000	0.047	-0.263
-523.989	-200.000	-0.057	-0.312
-522.975	65.156	-0.682	-0.691
-521.960	-200.000	0.030	-0.302
-520.945	134.724	-0.350	-0.455
-519.931	93.038	-0.220	-0.249
-518.916	-200.000	-0.060	-0.809
-517.902	560.570	0.092	0.224
-516.887	-200.000	0.024	0.247
-515.872	62.882	0.307	0.308
-514.858	-102.387	0.185	0.044
-513.843	-161.001	0.368	-0.019
-512.829	-125.712	0.178	-0.027
-511.814	800.000	-0.143	-0.623
-510.799	-12.246	0.983	-0.645
-509.785	800.000	-0.067	0.216
-508.770	-22.754	0.712	0.431
-507.756	81.984	0.455	0.494
-506.741	-83.029	0.649	0.210
-505.726	800.000	0.147	0.409
-504.712	172.146	0.213	0.307
-503.697	-85.453	-0.060	0.019
-502.683	800.000	-0.255	-0.928
-501.668	100.568	-0.264	-0.307
-500.653	-4.153	0.067	-0.046
-499.639	312.922	-0.171	0.322
-498.624	97.246	0.209	-0.240
-497.610	-56.411	0.053	0.023
-496.595	-77.699	0.235	0.081
-495.581	800.000	0.206	0.615
-494.566	800.000	-0.079	-0.263
-493.551	39.343	0.435	-0.390
-492.537	221.988	-0.209	0.337
-491.522	356.728	0.508	1.014
-490.508	-143.361	0.432	0.041
-489.493	-6.372	0.379	-0.259
-488.478	58.410	0.340	0.334
-487.464	800.000	-0.209	0.582
-486.449	-18.395	-0.045	0.028
-485.435	-200.000	0.097	-0.610
-484.420	-176.216	0.683	0.018
-483.405	275.318	-0.018	-0.032
-482.391	800.000	-0.068	0.224
-481.376	800.000	0.291	-0.975
-480.362	67.894	0.273	0.279
-479.347	15.077	0.173	0.136
-478.332	-162.572	-0.262	0.013
-477.318	800.000	0.013	-0.054
-476.303	800.000	-0.126	0.454
-475.289	-200.000	0.062	0.322
-474.274	-200.000	0.029	0.950
-473.259	-0.618	0.376	-0.267
-472.245	800.000	-0.059	-0.213
-471.230	-97.333	0.547	0.143
-470.216	492.371	0.073	-0.167
-469.201	-99.279	-0.864	0.218
-468.186	-128.540	-0.675	-0.096
-467.172	-200.000	-0.055	0.569
-466.157	8.524	0.343	-0.258
-465.143	69.310	-0.233	0.240
-464.128	-97.975	-0.482	0.124
-463.113	-34.861	-0.230	-0.125
-462.099	303.974	-0.475	-0.881
-461.084	237.668	0.206	-0.341
-460.070	-68.851	-0.367	0.142
-459.055	-53.937	-0.966	0.440
-458.040	48.395	-0.153	0.143
-457.026	-66.845	0.167	-0.066
-456.011	-115.366	-0.443	0.084
-454.997	-90.215	-0.786	0.229
-453.982	-151.920	0.065	0.005
-452.968	56.846	0.481	0.469
-451.953	100.621	-0.372	0.432
-450.938	55.777	-0.296	-0.287
-449.924	800.000	0.167	0.577
-448.909	-200.000	0.068	1.063
-447.895	-169.545	-0.541	0.020
-446.880	27.731	-0.242	-0.204
-445.865	-65.804	0.705	0.282
-444.851	252.747	-0.126	0.216
-443.836	-95.116	0.651	-0.176
-442.822	800.000	-0.192	-0.625
-441.807	48.462	0.366	-0.342
-440.792	-88.927	-0.718	0.213
-439.778	-116.055	0.687	-0.128
-438.763	-9.891	-0.446	-0.296
-437.749	218.120	0.075	-0.119
-436.734	12.782	-0.752	-0.580
-435.719	22.676	0.379	0.310
-434.705	-200.000	-0.208	-1.105
-433.690	-200.000	-0.108	-0.518
-432.676	-29.714	-0.283	-0.162
-431.661	-200.000	-0.028	-0.235
-430.646	25.049	0.795	-0.659
-429.632	-92.337	-0.112	0.032
-428.617	-17.677	0.159	-0.100
-427.603	74.531	-0.251	-0.264
-426.588	452.997	-0.214	0.474
-425.573	-76.476	-0.304	-0.107
-424.559	-1.902	-0.590	-0.414
-423.544	-128.983	0.810	0.113
-422.530	-50.598	-0.387	0.182
-421.515	99.550	-0.159	-0.184
-420.500	73.614	0.229	0.239
-419.486	-52.081	-0.680	0.315
-418.471	170.232	-0.216	0.308
-417.457	-200.000	0.079	-0.356
-416.442	704.481	0.365	0.961
-415.428	-200.000	-0.088	0.903
-414.413	800.000	-0.261	-0.866
-413.398	-154.942	-0.298	0.020
-412.384	-36.338	-0.599	-0.322
-411.369	-139.994	0.053	-0.006
-410.355	206.481	-0.168	0.260
-409.340	-20.025	0.323	-0.199
-408.325	-200.000	-0.019	-0.240
-407.311	427.004	-0.197	-0.423
-406.296	-56.885	-1.259	-0.555
-405.282	-81.757	0.908	0.297
-404.267	767.144	-0.194	0.527
-403.252	-200.000	-0.037	0.939
-402.238	800.000	0.024	0.086
-401.223	-17.744	-0.616	-0.386
-400.209	-200.000	-0.035	0.393
-399.194	31.305	0.217	-0.186
-398.179	-115.551	-0.163	-0.030
-397.165	-137.330	-0.477	0.054
-396.150	-108.604	-0.150	-0.032
-395.136	-200.000	-0.059	0.310
-394.121	339.923	0.332	-0.646
-393.106	265.700	-0.267	-0.464
-392.092	-200.000	-0.095	-0.705
-391.077	-138.064	-0.423	0.047
-390.063	62.893	-0.782	0.780
-389.048	-63.814	-0.201	0.082
-388.033	-200.000	-0.049	-0.346
-387.019	-68.512	0.343	-0.133
-386.004	800.000	-0.176	-0.489
-384.990	-185.258	0.728	0.011
-383.975	-200.000	-0.045	-0.230
-382.960	-38.853	1.005	0.528
-381.946	34.897	0.706	0.616
-380.931	17.150	-0.635	-0.502
-379.917	110.931	0.409	0.491
-378.902	-9.678	-0.174	-0.116
-377.888	-173.049	-0.608	0.019
-376.873	-37.336	0.138	0.073
-375.858	-114.838	0.816	-0.155
-374.844	-200.000	0.006	0.169
-373.829	-200.000	0.048	-0.314
-372.815	-200.000	0.042	-0.452
-371.800	-102.006	0.173	-0.042
-370.785	-58.055	-0.408	0.177
-369.771	-200.000	-0.001	1.167
-368.756	-167.440	0.606	-0.024
-367.742	336.423	-0.219	0.425
-366.727	29.821	0.241	0.205
-365.712	-44.672	0.697	-0.347
-364.698	77.068	-0.516	0.546
-363.683	3.394	0.520	-0.377
-362.669	-194.357	-0.656	-0.005
-361.654	206.137	0.176	0.273
-360.639	737.771	-0.157	0.419
-359.625	63.131	0.647	0.646
-358.610	-60.574	-0.688	0.291
-357.596	-115.108	0.670	-0.127
-356.581	276.983	0.129	0.229
-355.566	186.969	0.067	0.099
-354.552	-200.000	-0.068	-0.780
-353.537	116.807	0.270	-0.330
-352.523	74.292	0.349	-0.365
-351.508	-103.426	-0.785	-0.184
-350.493	-106.917	0.303	-0.067
-349.479	68.883	0.405	-0.414
-348.464	-200.000	0.032	-0.243
-347.450	-189.323	0.813	-0.010
-346.435	657.025	-0.322	-0.825
-345.420	23.203	-0.365	0.298
-344.406	15.642	0.274	0.215
-343.391	15.704	0.197	-0.154
-342.377	245.278	-0.199	-0.333
-341.362	164.813	-0.269	-0.378
-340.348	-200.000	0.004	-0.414
-339.333	-200.000	-0.033	0.692
-338.318	-200.000	-0.010	0.077
-337.304	800.000	-0.215	-0.643
-336.289	687.156	-0.338	-0.880
-335.275	-200.000	-0.215	0.980
-334.260	42.396	-0.059	-0.054
-333.245	-33.273	-0.088	-0.048
-332.231	560.931	0.009	0.022
-331.216	-112.485	-0.583	-0.116
-330.202	-200.000	0.005	0.657
-329.187	-31.997	0.166	0.093
-328.172	-184.593	0.307	-0.005
-327.158	138.933	0.151	0.197
-326.143	800.000	0.207	-0.864
-325.129	-29.217	0.525	-0.299
-324.114	558.216	-0.218	0.523
-323.099	-63.168	-0.659	-0.270
-322.085	800.000	-0.165	-0.629
-321.070	-41.123	-0.672	0.345
-320.056	800.000	0.143	0.405
-319.041	-139.832	0.692	0.073
-318.026	-86.705	-0.743	0.226
-317.012	212.826	0.366	0.575
-315.997	-49.472	-0.663	-0.314
-314.983	-28.534	0.433	-0.248
-313.968	-200.000	0.157	-0.967
-312.953	-88.635	-0.343	0.102
-311.939	-125.693	0.339	-0.051
-310.924	-83.003	0.517	-0.166
-309.910	-61.200	-0.853	-0.357
-308.895	77.922	0.373	-0.395
-307.880	-200.000	0.049	0.359
-306.866	-200.000	-0.040	0.628
-305.851	258.696	-0.222	-0.380
-304.837	26.705	0.361	-0.300
-303.822	-158.417	-0.458	0.026
-302.807	-106.271	-0.807	0.180
-301.793	363.975	-0.176	0.352
-300.778	-200.000	0.123	-1.025
-299.764	11.677	0.482	0.367
-298.749	-200.000	-0.073	0.571
-297.735	520.110	-0.445	-1.037
-296.720	606.136	-0.362	-0.896
-295.705	-63.490	0.247	-0.101
-294.691	127.472	0.361	0.455
-293.676	-83.374	0.274	-0.087
-292.662	-47.016	-0.284	-0.138
-291.647	800.000	-0.107	0.303
-290.632	-88.552	-0.516	-0.153
-289.618	206.585	0.408	0.631
-288.603	-94.912	-0.481	-0.129
-287.589	-45.787	-0.100	-0.049
-286.574	36.043	0.269	0.235
-285.559	800.000	-0.127	0.440
-284.545	-200.000	0.005	-0.143
-283.530	-200.000	-0.027	0.610
-282.516	177.022	0.235	0.340
-281.501	-32.775	-0.570	0.315
-280.486	-29.861	0.439	0.249
-279.472	-200.000	0.018	0.347
-278.457	-14.171	0.421	-0.269
-277.443	-114.907	0.486	0.092
-276.428	-69.818	0.374	0.142
-275.413	-71.788	0.729	0.270
-274.399	-200.000	0.149	-1.022
-273.384	800.000	-0.025	0.075
-272.370	-79.539	-0.363	0.122
-271.355	-102.412	1.402	0.334
-270.340	128.213	-0.520	0.657
-269.326	495.004	0.252	-0.574
-268.311	-200.000	-0.036	-0.293
-267.297	800.000	-0.400	1.373
-266.282	161.702	-0.299	0.415
-265.267	-39.877	-0.393	0.204
-264.253	42.130	0.216	0.195
-263.238	34.244	-0.338	-0.293
-262.224	-83.359	-0.801	0.255
-261.209	800.000	0.059	0.194
-260.195	424.250	-0.224	0.479
-259.180	800.000	0.069	-0.221
-258.165	343.644	0.351	-0.683
-257.151	-39.335	-0.572	-0.298
-256.136	71.341	0.296	0.304
-255.122	-200.000	-0.026	-0.944
-254.107	-164.011	-0.754	-0.035
-253.092	-79.870	0.541	0.180
-252.078	562.234	-0.315	-0.755
-251.063	800.000	0.238	-0.827
-250.049	152.906	0.068	0.092
-249.034	24.514	-0.365	-0.300
-248.019	-44.593	0.236	-0.117
-247.005	76.286	0.340	0.358
-245.990	363.312	0.292	-0.582
-244.976	678.761	-0.184	0.474
-243.961	-200.000	0.027	-0.181
-242.946	-127.761	-0.813	-0.116
-241.932	49.427	0.356	-0.332
-240.917	215.391	0.415	0.653
-239.903	-200.000	-0.029	-1.029
-238.888	-118.601	-0.950	-0.166
-237.873	455.606	0.433	0.951
-236.859	-80.404	0.233	0.077
-235.844	106.340	-0.210	0.246
-234.830	-49.417	0.572	0.270
-233.815	-47.678	-0.949	0.457
-232.800	-50.243	-0.219	-0.103
-231.786	725.386	0.415	1.097
-230.771	208.287	0.435	0.675
-229.757	-200.000	-0.098	-0.714
-228.742	-200.000	-0.098	-0.801
-227.727	-200.000	0.123	-0.839
-226.713	-63.035	-0.956	-0.391
-225.698	-6.194	-0.251	-0.170
-224.684	111.810	-0.397	0.476
-223.669	800.000	0.076	-0.218
-222.655	-200.000	0.160	-0.751
-221.640	149.808	0.673	0.903
-220.625	1.892	0.786	0.562
-219.611	-135.386	-0.931	0.110
-218.596	229.523	0.338	-0.547
-217.582	-200.000	-0.083	-0.530
-216.567	21.002	0.259	-0.208
-215.552	-5.602	0.539	-0.366
-214.538	168.945	0.346	0.489
-213.523	42.594	0.217	-0.196
-212.509	-25.579	0.305	-0.178
-211.494	54.499	0.295	0.282
-210.479	-26.802	0.272	-0.158
-209.465	121.442	-0.177	0.218
-208.450	-61.178	-0.380	-0.159
-207.436	-173.758	-0.328	0.010
-206.421	172.074	0.342	-0.487
-205.406	261.589	-0.216	-0.371
-204.392	-94.244	-0.553	0.150
-203.377	162.102	-0.276	-0.383
-202.363	53.749	-0.166	0.157
-201.348	-87.207	0.680	-0.205
-200.333	-75.414	-0.954	-0.336
-199.319	730.802	0.213	0.565
-198.304	-104.817	-0.026	0.006
-197.290	-76.690	0.808	-0.280
-196.275	800.000	-0.204	0.674
-195.260	-133.859	-0.766	0.094
-194.246	800.000	-0.105	0.322
-193.231	169.575	0.104	-0.147
-192.217	800.000	-0.087	0.313
-191.202	-80.379	-0.411	-0.136
-190.187	-116.253	0.367	-0.067
-189.173	-162.841	-0.427	0.021
-188.158	-127.945	0.522	-0.074
-187.144	-200.000	-0.096	-0.467
-186.129	-200.000	-0.066	-0.346
-185.114	800.000	-0.152	0.475
-184.100	207.293	0.075	-0.116
-183.085	-200.000	0.008	0.469
-182.071	109.343	-0.595	0.704
-181.056	224.707	0.372	-0.595
-180.042	143.692	0.705	-0.930
-179.027	-200.000	0.130	0.745
-178.012	748.939	-0.165	0.440
-176.998	-59.860	0.525	0.222
-175.983	82.214	0.207	0.222
-174.969	32.100	-0.964	-0.822
-173.954	800.000	0.110	-0.393
-172.939	-20.327	-0.387	0.235
-171.925	416.237	-0.446	-0.940
-170.910	254.674	0.223	-0.378
-169.896	-200.000	-0.038	0.337
-168.881	206.367	-0.279	0.429
-167.866	-15.233	0.323	-0.204
-166.852	331.308	0.225	-0.429
-165.837	-118.980	0.385	0.067
-164.823	-87.140	-0.638	-0.192
-163.808	34.483	0.168	0.145
-162.793	-129.983	-0.065	-0.009
-161.779	-200.000	0.023	0.449
-160.764	161.472	0.626	0.866
-159.750	-200.000	-0.040	0.301
-158.735	-200.000	0.147	-0.780
-157.720	144.813	-0.368	0.487
-156.706	-12.763	-0.835	-0.538
-155.691	-100.434	-0.245	-0.060
-154.677	-93.587	0.355	-0.097
-153.662	534.669	-0.274	-0.642
-152.647	-6.922	0.297	-0.199
-151.633	61.868	-0.244	0.240
-150.618	42.513	0.102	0.092
-149.604	-200.000	-0.029	0.449
-148.589	-23.504	0.373	0.221
-147.574	101.182	0.202	-0.232
-146.560	28.467	-0.706	-0.590
-145.545	251.534	0.433	-0.728
-144.531	-40.019	0.689	0.355
-143.516	-152.828	0.978	-0.069
-142.502	-31.635	0.649	0.360
-141.487	76.070	-0.336	0.351
-140.472	85.635	0.316	-0.343
-139.458	800.000	0.044	0.144
-138.443	167.881	0.152	0.213
-137.429	-45.058	0.171	0.084
-136.414	800.000	-0.139	-0.424
-135.399	426.035	0.679	1.444
-134.385	132.901	-1.062	1.354
-133.370	114.327	-0.508	0.610
-132.356	-137.866	0.595	0.066
-131.341	-169.124	-0.720	0.026
-130.326	210.616	-0.575	-0.892
-129.312	-200.000	-0.008	-0.562
-128.297	-15.213	-1.157	-0.731
-127.283	-19.823	-0.212	0.129
-126.268	47.819	0.535	-0.493
-125.253	-42.347	0.753	-0.379
-124.239	-200.000	-0.046	-0.336
-123.224	-68.111	-0.610	0.235
-122.210	-34.829	-0.293	-0.158
-121.195	224.215	0.181	0.288
