DTS Sentinel unit serial number:	SN413079Multiplexer serial number:	ORYXHardware model number:	OX4-SRSoftware version number:	ORYX F/W v4.00 Oryx Data Collector v3.7.2.0data status	okinstallation	princeton_trtdifferential loss correction	single-endedforward channel	channel 1reverse channel	N/Adate	2019/09/16time	04:34:35forward acquisition time	60.00reverse acquisition time	0.00gamma	496.2192k internal	0.2333k external	0.2333temperature offset calibration	0.9983default loss term (dB/km)	0.3790temperature slope calibration	1.0000multiplexer offset coefficient	1.0000multiplexer slope coefficient	1.0000fibre end	0.00T internal ref (°C)	27.25T ext. ref 1 (°C)	10.87T ext. ref 2 (°C)	21.36length (m)	temperature (°C)	Stokes	anti-Stokes-747.200	-200.000	0.045	0.279
-746.185	-200.000	-0.067	0.304
-745.171	23.343	0.265	-0.219
-744.156	-200.000	-0.013	0.518
-743.142	800.000	-0.064	0.274
-742.127	-175.999	-0.250	0.007
-741.112	3.987	-0.117	0.086
-740.098	45.262	-0.258	0.239
-739.083	369.743	-0.048	-0.098
-738.069	-152.289	-0.117	-0.008
-737.054	-57.696	0.187	-0.082
-736.039	-97.181	-0.398	-0.104
-735.025	260.899	0.130	0.226
-734.010	224.906	-0.243	-0.396
-732.996	800.000	0.053	-0.175
-731.981	58.918	0.009	-0.009
-730.966	-200.000	0.009	-0.266
-729.952	-32.862	-0.128	-0.072
-728.937	800.000	0.054	-0.208
-727.923	-61.367	0.265	-0.112
-726.908	324.521	-0.097	-0.185
-725.894	200.303	0.159	-0.245
-724.879	465.560	-0.099	-0.223
-723.864	-21.817	-0.187	-0.114
-722.850	341.116	-0.053	0.104
-721.835	-59.459	-0.286	-0.123
-720.821	-3.491	-0.294	0.206
-719.806	227.620	0.159	0.260
-718.791	800.000	-0.011	-0.031
-717.777	-155.992	-0.107	-0.007
-716.762	61.199	-0.097	0.097
-715.748	321.397	-0.187	0.356
-714.733	-200.000	0.006	-0.198
-713.718	185.011	-0.281	-0.419
-712.704	18.108	0.115	-0.092
-711.689	-89.394	0.079	0.023
-710.675	-126.407	0.231	-0.034
-709.660	-8.438	0.112	0.076
-708.645	84.535	-0.085	0.093
-707.631	-200.000	-0.016	0.124
-706.616	-43.202	-0.019	-0.009
-705.602	-29.215	0.102	0.059
-704.587	645.361	-0.132	-0.338
-703.572	-56.974	0.159	0.070
-702.558	185.343	-0.211	-0.314
-701.543	800.000	-0.120	-0.389
-700.529	800.000	-0.065	-0.187
-699.514	-117.529	0.304	0.055
-698.499	-154.076	-0.304	-0.021
-697.485	342.592	0.053	-0.103
-696.470	-180.847	-0.171	-0.003
-695.456	-6.203	0.360	-0.247
-694.441	26.155	-0.162	0.136
-693.426	-83.857	0.049	-0.016
-692.412	261.584	0.225	0.391
-691.397	23.781	0.246	0.203
-690.383	-123.316	0.124	-0.020
-689.368	105.472	0.048	0.057
-688.354	310.478	-0.075	0.141
-687.339	-117.041	0.123	0.023
-686.324	58.287	0.134	-0.132
-685.310	42.957	0.189	-0.173
-684.295	22.115	0.244	-0.200
-683.281	-78.186	-0.367	-0.127
-682.266	168.039	-0.149	-0.213
-681.251	-200.000	0.009	0.126
-680.237	-71.799	0.334	0.125
-679.222	-136.325	0.237	-0.028
-678.208	103.804	-0.105	0.124
-677.193	-141.713	-0.287	0.029
-676.178	-74.747	0.120	0.043
-675.164	-177.872	0.148	0.004
-674.149	-65.569	0.159	-0.064
-673.135	393.751	-0.124	0.258
-672.120	554.825	0.070	0.168
-671.105	-65.157	-0.165	0.067
-670.091	364.723	0.043	0.086
-669.076	762.885	0.086	-0.235
-668.062	-148.552	-0.144	-0.012
-667.047	437.189	-0.117	-0.255
-666.032	514.158	0.066	0.154
-665.018	565.232	-0.115	0.278
-664.003	-200.000	-0.042	-0.355
-662.989	-149.254	-0.226	0.018
-661.974	746.918	0.089	-0.239
-660.959	-181.871	-0.379	0.007
-659.945	-42.132	-0.312	0.160
-658.930	125.014	-0.140	-0.177
-657.916	36.766	-0.243	0.215
-656.901	42.675	0.219	0.200
-655.886	-173.638	0.052	-0.002
-654.872	644.827	0.085	0.217
-653.857	-17.507	-0.120	-0.076
-652.843	-200.000	-0.072	-0.355
-651.828	-200.000	0.017	0.144
-650.814	-200.000	-0.018	-0.119
-649.799	-200.000	0.025	-0.112
-648.784	-65.874	-0.232	0.093
-647.770	350.144	-0.009	0.019
-646.755	800.000	-0.110	-0.408
-645.741	341.885	-0.117	-0.229
-644.726	800.000	-0.037	0.122
-643.711	-24.618	0.179	0.107
-642.697	-105.154	0.044	0.010
-641.682	-94.181	0.174	0.048
-640.668	13.427	-0.130	0.101
-639.653	284.724	-0.043	-0.078
-638.638	800.000	0.071	0.253
-637.624	-119.084	-0.192	-0.034
-636.609	460.924	-0.107	-0.238
-635.595	-102.154	-0.234	-0.056
-634.580	57.205	0.140	-0.137
-633.565	-194.964	0.048	0.000
-632.551	800.000	0.065	-0.271
-631.536	-200.000	-0.021	-0.398
-630.522	-43.269	0.246	0.125
-629.507	31.991	0.217	-0.187
-628.492	-59.682	0.233	-0.100
-627.478	-124.785	0.158	-0.024
-626.463	52.390	-0.283	0.270
-625.449	168.126	0.156	-0.222
-624.434	41.995	0.291	0.264
-623.419	36.452	0.035	-0.031
-622.405	784.136	-0.026	-0.072
-621.390	-200.000	-0.097	-0.427
-620.376	-12.850	0.102	0.067
-619.361	-117.686	-0.044	0.008
-618.346	227.256	0.148	-0.241
-617.332	305.424	0.079	-0.147
-616.317	447.535	0.058	-0.128
-615.303	-68.297	0.330	-0.128
-614.288	-115.130	-0.126	0.024
-613.273	-200.000	-0.013	-0.238
-612.259	-43.043	-0.413	-0.209
-611.244	238.288	-0.196	-0.326
-610.230	145.512	0.166	-0.222
-609.215	434.772	0.128	-0.279
-608.201	-160.747	-0.221	0.012
-607.186	40.448	-0.371	-0.334
-606.171	-17.715	-0.085	-0.053
-605.157	-116.071	0.177	0.033
-604.142	-200.000	0.057	-0.292
-603.128	56.363	-0.124	-0.121
-602.113	-200.000	0.004	-0.119
-601.098	234.367	-0.054	-0.088
-600.084	800.000	-0.069	0.202
-599.069	-200.000	0.024	0.302
-598.055	11.465	0.127	-0.097
-597.040	229.648	-0.142	-0.233
-596.025	292.756	-0.107	-0.195
-595.011	-47.056	0.087	0.043
-593.996	539.781	0.059	-0.140
-592.982	29.001	0.091	-0.077
-591.967	301.451	-0.053	-0.097
-590.952	800.000	-0.059	-0.214
-589.938	50.163	-0.244	0.230
-588.923	-35.693	-0.128	0.069
-587.909	341.001	0.048	-0.094
-586.894	800.000	-0.138	0.572
-585.879	-200.000	0.007	-0.113
-584.865	-131.761	-0.236	0.031
-583.850	-200.000	0.038	0.188
-582.836	800.000	0.059	-0.183
-581.821	201.695	0.088	0.136
-580.806	-95.124	0.262	0.071
-579.792	-84.606	0.229	0.072
-578.777	800.000	0.035	0.114
-577.763	162.181	0.096	0.134
-576.748	-4.307	-0.160	0.111
-575.733	-31.716	-0.434	0.243
-574.719	800.000	-0.096	-0.270
-573.704	-104.502	-0.041	-0.009
-572.690	800.000	-0.041	-0.130
-571.675	669.236	0.132	-0.340
-570.661	-200.000	-0.012	0.187
-569.646	187.872	-0.076	-0.113
-568.631	35.531	-0.170	0.149
-567.617	261.749	0.069	0.119
-566.602	767.029	0.113	0.307
-565.588	-200.000	0.023	0.170
-564.573	473.599	-0.028	-0.062
-563.558	800.000	0.028	-0.104
-562.544	566.275	0.055	-0.134
-561.529	171.415	-0.222	0.319
-560.515	29.922	0.193	0.164
-559.500	-200.000	0.007	0.062
-558.485	-129.683	0.247	-0.034
-557.471	-37.712	0.146	0.077
-556.456	-104.825	0.285	-0.065
-555.442	-200.000	0.006	-0.072
-554.427	503.590	-0.103	-0.238
-553.412	-173.554	-0.128	0.004
-552.398	-60.021	0.119	-0.051
-551.383	-87.631	-0.126	-0.038
-550.369	521.071	-0.132	0.308
-549.354	-200.000	-0.016	-0.193
-548.339	704.252	0.123	-0.325
-547.325	620.032	-0.048	0.121
-546.310	89.532	-0.170	0.189
-545.296	-200.000	0.048	-0.279
-544.281	-200.000	0.003	-0.304
-543.266	218.204	0.079	-0.126
-542.252	192.616	-0.095	-0.143
-541.237	-77.980	0.322	0.111
-540.223	-61.569	0.081	-0.034
-539.208	-200.000	-0.019	-0.188
-538.193	248.399	-0.111	-0.187
-537.179	12.883	-0.104	-0.081
-536.164	-25.007	-0.358	-0.212
-535.150	800.000	0.031	0.091
-534.135	-54.717	0.167	0.075
-533.121	20.681	-0.179	-0.144
-532.106	-5.196	0.222	-0.152
-531.091	800.000	0.056	-0.229
-530.077	800.000	-0.047	0.158
-529.062	492.605	0.081	0.184
-528.048	-38.019	0.173	0.092
-527.033	-115.829	0.165	0.031
-526.018	61.694	-0.068	-0.068
-525.004	261.169	0.208	-0.358
-523.989	800.000	0.037	-0.156
-522.975	-81.950	0.202	0.066
-521.960	-200.000	-0.004	0.094
-520.945	33.749	-0.085	-0.074
-519.931	-64.236	-0.142	0.058
-518.916	-154.715	-0.101	-0.007
-517.902	-200.000	0.010	-0.229
-516.887	-121.960	0.457	0.075
-515.872	18.861	0.184	-0.147
-514.858	-8.636	0.136	-0.091
-513.843	268.967	-0.151	0.264
-512.829	800.000	0.015	-0.059
-511.814	236.659	0.115	-0.189
-510.799	-12.937	-0.099	-0.064
-509.785	119.102	0.125	-0.154
-508.770	83.885	-0.154	-0.167
-507.756	-40.067	0.206	-0.107
-506.741	53.992	0.221	0.212
-505.726	6.097	-0.143	-0.106
-504.712	-200.000	0.022	0.098
-503.697	-200.000	0.034	0.284
-502.683	326.918	0.117	-0.223
-501.668	-31.051	0.196	0.110
-500.653	10.260	0.130	0.098
-499.639	354.271	0.055	-0.109
-498.624	120.321	0.107	-0.132
-497.610	-200.000	-0.012	-0.068
-496.595	-164.306	-0.246	0.011
-495.581	-200.000	0.062	0.283
-494.566	30.217	0.191	0.162
-493.551	73.365	-0.256	0.267
-492.537	800.000	0.026	0.089
-491.522	59.447	0.125	0.122
-490.508	309.995	-0.056	0.104
-489.493	-1.363	0.074	0.052
-488.478	-101.462	0.181	0.044
-487.464	139.004	-0.217	0.285
-486.449	118.784	0.126	0.155
-485.435	64.318	-0.210	-0.210
-484.420	50.245	-0.351	-0.330
-483.405	-44.205	0.120	-0.060
-482.391	-32.298	0.189	0.105
-481.376	-167.935	-0.051	0.002
-480.362	520.437	-0.081	-0.188
-479.347	-77.399	0.210	-0.072
-478.332	-90.433	-0.069	-0.020
-477.318	-5.233	-0.058	-0.040
-476.303	46.186	0.133	0.122
-475.289	-46.999	0.127	-0.062
-474.274	-58.955	-0.106	0.046
-473.259	200.190	-0.035	0.053
-472.245	-62.281	0.427	0.177
-471.230	-151.643	-0.393	0.029
-470.216	128.166	-0.142	-0.179
-469.201	7.720	-0.220	-0.164
-468.186	576.552	0.010	0.024
-467.172	-74.009	-0.309	-0.112
-466.157	-140.990	0.295	0.030
-465.143	-200.000	-0.060	0.272
-464.128	-200.000	0.031	0.140
-463.113	-200.000	-0.008	-0.066
-462.099	-200.000	0.004	0.034
-461.084	-71.700	0.141	0.052
-460.070	-200.000	0.027	0.245
-459.055	800.000	-0.058	-0.207
-458.040	-200.000	0.006	0.064
-457.026	183.628	-0.062	-0.091
-456.011	-158.729	-0.325	0.019
-454.997	75.444	0.307	0.322
-453.982	50.057	-0.121	-0.113
-452.968	-134.165	-0.343	-0.042
-451.953	124.122	0.013	0.016
-450.938	-5.845	0.178	-0.121
-449.924	140.963	0.101	-0.133
-448.909	126.628	0.130	-0.163
-447.895	110.509	-0.194	-0.232
-446.880	-69.044	-0.388	0.149
-445.865	39.602	0.301	0.268
-444.851	-200.000	-0.031	-0.169
-443.836	561.825	0.070	-0.168
-442.822	800.000	-0.082	0.295
-441.807	11.785	0.164	0.125
-440.792	800.000	0.043	0.143
-439.778	-74.939	-0.100	-0.035
-438.763	1.823	0.314	0.225
-437.749	1.836	0.190	-0.136
-436.734	-110.790	0.226	-0.046
-435.719	-35.162	-0.070	0.038
-434.705	179.701	-0.112	0.163
-433.690	-72.362	-0.023	-0.008
-432.676	49.017	0.154	0.144
-431.661	-200.000	0.018	-0.203
-430.646	103.126	-0.144	0.168
-429.632	-143.339	-0.173	0.016
-428.617	-119.688	0.171	-0.029
-427.603	800.000	0.057	0.183
-426.588	131.297	-0.257	0.328
-425.573	12.367	-0.183	0.140
-424.559	18.528	0.277	-0.220
-423.544	52.076	-0.196	-0.186
-422.530	-89.938	-0.133	0.038
-421.515	-88.935	-0.230	-0.068
-420.500	2.843	-0.205	0.148
-419.486	-121.577	0.195	0.032
-418.471	2.660	-0.189	0.136
-417.457	289.228	0.055	0.098
-416.442	-200.000	0.047	0.362
-415.428	217.569	0.030	-0.048
-414.413	-200.000	-0.001	-0.104
-413.398	800.000	-0.038	0.140
-412.384	800.000	-0.034	-0.125
-411.369	-126.913	0.198	0.029
-410.355	309.661	0.134	-0.249
-409.340	343.540	0.094	0.182
-408.325	-117.655	-0.110	-0.020
-407.311	478.228	-0.095	0.214
-406.296	129.979	0.323	0.410
-405.282	-159.910	-0.191	-0.010
-404.267	-200.000	0.026	0.396
-403.252	250.756	-0.073	-0.123
-402.238	-49.869	0.283	-0.133
-401.223	-76.209	-0.315	-0.110
-400.209	281.576	0.086	-0.152
-399.194	62.334	-0.159	-0.157
-398.179	-194.427	-0.308	-0.002
-397.165	-165.738	-0.384	0.016
-396.150	304.213	0.203	0.374
-395.136	800.000	-0.040	-0.169
-394.121	-52.360	0.179	-0.082
-393.106	-200.000	-0.014	-0.077
-392.092	-62.536	-0.202	-0.083
-391.077	139.444	0.426	-0.557
-390.063	272.082	-0.052	-0.090
-389.048	-142.629	-0.251	0.024
-388.033	-200.000	-0.034	-0.176
-387.019	-89.580	-0.149	0.043
-386.004	-200.000	-0.013	0.190
-384.990	-200.000	-0.020	-0.117
-383.975	396.071	0.172	0.357
-382.960	-79.612	0.203	0.068
-381.946	-200.000	-0.006	-0.044
-380.931	175.293	-0.071	0.102
-379.917	127.368	0.046	-0.057
-378.902	-200.000	-0.011	-0.435
-377.888	800.000	0.012	0.047
-376.873	-58.631	-0.241	-0.104
-375.858	-52.694	-0.071	-0.033
-374.844	-68.097	-0.105	0.041
-373.829	-200.000	0.026	-0.146
-372.815	52.966	-0.182	0.172
-371.800	133.579	-0.108	0.139
-370.785	-85.605	0.489	-0.151
-369.771	-35.301	0.117	-0.063
-368.756	-80.729	-0.208	0.069
-367.742	-200.000	0.029	0.179
-366.727	92.792	0.153	-0.171
-365.712	-28.485	0.140	0.080
-364.698	-173.071	-0.097	0.003
-363.683	-150.553	0.431	0.033
-362.669	-127.739	0.064	0.009
-361.654	129.854	0.022	-0.028
-360.639	179.325	-0.193	0.280
-359.625	-93.356	-0.219	0.060
-358.610	800.000	0.121	-0.345
-357.596	-104.351	-0.139	0.032
-356.581	-200.000	-0.074	0.339
-355.566	247.347	0.199	-0.333
-354.552	-200.000	-0.002	0.323
-353.537	-200.000	-0.003	0.241
-352.523	479.292	-0.108	0.242
-351.508	-200.000	0.019	0.346
-350.493	-50.735	0.116	0.054
-349.479	339.014	-0.084	0.163
-348.464	-142.449	0.262	-0.026
-347.450	138.208	-0.131	-0.170
-346.435	-23.235	-0.443	-0.264
-345.420	-31.092	0.190	-0.106
-344.406	569.410	0.062	0.148
-343.391	200.768	0.104	0.159
-342.377	-200.000	-0.053	-0.250
-341.362	19.566	-0.157	-0.125
-340.348	46.997	-0.073	-0.067
-339.333	14.477	0.196	0.152
-338.318	800.000	0.044	0.185
-337.304	76.113	0.198	-0.207
-336.289	-45.328	0.016	0.008
-335.275	-110.031	0.213	0.044
-334.260	800.000	-0.026	-0.105
-333.245	77.150	0.159	-0.167
-332.231	800.000	-0.120	0.454
-331.216	270.101	-0.095	0.165
-330.202	-200.000	-0.007	0.088
-329.187	-120.114	-0.156	-0.026
-328.172	240.761	-0.168	-0.277
-327.158	556.560	-0.116	-0.276
-326.143	452.010	-0.045	-0.098
-325.129	-121.475	0.115	0.019
-324.114	544.124	0.123	0.291
-323.099	-200.000	-0.014	-0.338
-322.085	283.040	-0.065	-0.116
-321.070	-142.131	0.132	-0.013
-320.056	-74.801	0.300	-0.107
-319.041	-129.242	-0.208	-0.029
-318.026	-8.034	-0.138	0.092
-317.012	319.983	0.036	0.067
-315.997	-122.199	-0.520	-0.084
-314.983	800.000	0.071	-0.292
-313.968	-101.720	0.139	-0.033
-312.953	106.461	0.100	-0.117
-311.939	337.534	0.108	-0.208
-310.924	75.137	-0.185	0.192
-309.910	536.921	0.102	0.241
-308.895	-114.972	-0.207	0.039
-307.880	-14.737	-0.107	0.068
-306.866	-9.285	0.202	-0.133
-305.851	98.313	0.247	-0.281
-304.837	-60.046	0.130	0.055
-303.822	-89.891	-0.156	0.045
-302.807	-70.168	-0.082	-0.031
-301.793	214.404	0.136	-0.213
-300.778	189.127	0.088	-0.131
-299.764	-200.000	0.029	0.130
-298.749	-10.100	-0.246	0.161
-297.735	164.273	-0.110	-0.153
-296.720	800.000	0.052	-0.213
-295.705	-22.501	-0.309	0.185
-294.691	-66.347	0.029	-0.011
-293.676	302.264	0.116	0.212
-292.662	-137.556	-0.030	0.003
-291.647	20.610	0.152	-0.122
-290.632	-42.552	-0.159	0.080
-289.618	105.367	0.319	0.373
-288.603	-129.820	0.151	-0.021
-287.589	-200.000	0.022	-0.174
-286.574	-12.083	-0.131	-0.085
-285.559	68.819	-0.166	-0.168
-284.545	-76.287	0.197	0.068
-283.530	12.865	-0.157	0.120
-282.516	-118.090	-0.194	0.034
-281.501	168.794	0.048	-0.067
-280.486	198.662	0.195	0.294
-279.472	-93.397	0.187	0.051
-278.457	118.360	0.203	-0.247
-277.443	577.269	-0.059	0.142
-276.428	-38.146	-0.138	0.072
-275.413	-94.001	0.115	-0.031
-274.399	-154.163	-0.345	0.023
-273.384	-40.062	-0.190	0.098
-272.370	-25.504	-0.220	0.128
-271.355	180.663	0.175	-0.253
-270.340	-74.952	0.407	0.144
-269.326	-200.000	-0.060	0.308
-268.311	-80.278	-0.190	0.063
-267.297	-200.000	-0.041	0.357
-266.282	29.159	0.187	0.157
-265.267	-121.515	0.223	-0.037
-264.253	245.743	0.107	0.177
-263.238	170.492	0.193	0.273
-262.224	73.135	-0.166	0.172
-261.209	-149.426	0.042	0.003
-260.195	75.337	-0.071	-0.074
-259.180	-105.460	0.303	-0.068
-258.165	-95.644	-0.158	0.042
-257.151	-140.991	-0.131	-0.013
-256.136	135.516	-0.269	0.345
-255.122	-200.000	0.036	0.199
-254.107	-200.000	-0.024	0.225
-253.092	230.071	-0.197	0.317
-252.078	-72.124	0.348	0.128
-251.063	653.354	0.044	0.112
-250.049	230.266	0.098	0.157
-249.034	336.098	-0.153	0.293
-248.019	-48.633	-0.217	-0.103
-247.005	194.407	0.177	-0.265
-245.990	8.547	-0.095	-0.071
-244.976	-53.154	0.323	0.146
-243.961	800.000	0.026	0.099
-242.946	800.000	0.017	-0.074
-241.932	629.785	0.093	-0.233
-240.917	97.779	0.310	0.352
-239.903	181.930	0.152	0.221
-238.888	376.693	0.096	-0.193
-237.873	161.470	0.134	-0.184
-236.859	-200.000	0.022	-0.138
-235.844	-200.000	-0.010	0.109
-234.830	800.000	-0.031	0.103
-233.815	100.213	-0.153	-0.175
-232.800	-81.161	0.252	-0.082
-231.786	-75.346	0.241	0.085
-230.771	156.122	-0.215	-0.292
-229.757	-200.000	-0.017	0.257
-228.742	36.403	0.087	-0.076
-227.727	-132.037	-0.278	0.036
-226.713	-97.024	-0.267	-0.069
-225.698	-58.562	-0.323	0.138
-224.684	-200.000	-0.020	0.094
-223.669	-10.824	-0.232	-0.151
-222.655	-48.543	-0.280	-0.132
-221.640	-74.775	-0.066	-0.024
-220.625	-200.000	-0.026	-0.251
-219.611	800.000	-0.021	0.081
-218.596	405.411	-0.064	0.133
-217.582	-58.472	-0.064	-0.027
-216.567	480.876	0.113	-0.252
-215.552	-200.000	-0.008	0.038
-214.538	-111.919	-0.167	0.033
-213.523	691.280	-0.073	0.188
-212.509	564.244	-0.031	-0.073
-211.494	255.338	-0.017	-0.028
-210.479	479.531	-0.127	0.283
-209.465	-200.000	0.004	-0.036
-208.450	-200.000	-0.066	-0.317
-207.436	-85.348	-0.397	-0.122
-206.421	-200.000	-0.005	-0.092
-205.406	496.481	-0.073	-0.165
-204.392	5.027	0.148	0.107
-203.377	-200.000	0.043	0.287
-202.363	800.000	0.114	0.367
-201.348	240.448	-0.132	0.217
-200.333	56.845	-0.081	0.077
-199.319	-61.919	-0.139	0.057
-198.304	-81.034	-0.196	0.064
-197.290	-44.654	0.099	0.049
-196.275	800.000	-0.029	0.113
-195.260	-97.378	-0.190	-0.049
-194.246	800.000	-0.055	-0.175
-193.231	-115.773	0.157	0.029
-192.217	55.536	-0.181	0.172
-191.202	174.804	0.134	-0.190
-190.187	96.359	-0.171	0.192
-189.173	192.378	-0.117	0.174
-188.158	-13.129	-0.117	-0.075
-187.144	-14.205	0.142	-0.090
-186.129	-180.380	0.159	0.003
-185.114	121.747	-0.169	-0.207
-184.100	106.680	-0.212	0.248
-183.085	76.268	-0.094	0.098
-182.071	133.158	0.103	-0.131
-181.056	-200.000	0.015	-0.094
-180.042	99.207	0.176	-0.200
-179.027	-107.533	0.157	-0.034
-178.012	800.000	-0.022	-0.070
-176.998	144.157	0.132	-0.173
-175.983	-112.406	0.073	0.014
-174.969	-105.077	0.202	0.045
-173.954	-61.719	0.192	0.079
-172.939	800.000	0.034	0.097
-171.925	111.148	0.184	0.218
-170.910	159.236	0.105	-0.144
-169.896	-200.000	-0.005	-0.045
-168.881	300.861	0.068	0.123
-167.866	138.077	-0.126	0.163
-166.852	780.341	-0.020	-0.054
-165.837	2.136	0.145	0.103
-164.823	393.374	0.007	-0.015
-163.808	24.632	-0.257	0.209
-162.793	48.930	-0.047	0.043
-161.779	119.060	0.132	0.161
-160.764	436.221	0.059	0.125
-159.750	-117.218	-0.157	0.028
-158.735	800.000	-0.026	0.089
-157.720	204.167	0.204	-0.311
-156.706	-200.000	-0.029	-0.366
-155.691	-65.004	-0.098	-0.039
-154.677	110.130	-0.034	-0.040
-153.662	-40.622	-0.069	-0.035
-152.647	51.107	0.124	0.115
-151.633	-100.248	-0.073	0.018
-150.618	-155.844	0.120	0.007
-149.604	-118.269	0.209	0.036
-148.589	8.798	0.284	0.210
-147.574	-41.759	-0.363	0.183
-146.560	-200.000	-0.018	0.641
-145.545	126.604	0.107	0.133
-144.531	-200.000	-0.018	0.235
-143.516	296.449	0.035	-0.062
-142.502	466.150	0.098	0.216
-141.487	31.859	-0.135	-0.114
-140.472	800.000	-0.089	-0.248
-139.458	-200.000	0.004	0.084
-138.443	-200.000	-0.011	0.138
-137.429	800.000	-0.083	0.252
-136.414	-148.455	0.043	-0.003
-135.399	800.000	-0.057	-0.158
-134.385	-94.123	0.424	-0.114
-133.370	62.427	-0.187	0.183
-132.356	-96.648	0.094	-0.024
-131.341	505.228	-0.156	-0.354
-130.326	634.901	0.069	0.173
-129.312	-42.742	-0.208	-0.104
-128.297	-6.946	0.235	0.156
-127.283	-176.472	-0.193	-0.005
-126.268	69.477	-0.217	-0.219
-125.253	800.000	-0.058	-0.200
-124.239	707.953	-0.084	-0.217
-123.224	-200.000	0.010	0.175
-122.210	140.769	-0.222	-0.288
-121.195	479.424	-0.088	0.195
