DTS Sentinel unit serial number:	SN413079Multiplexer serial number:	ORYXHardware model number:	OX4-SRSoftware version number:	ORYX F/W v4.00 Oryx Data Collector v3.7.2.0data status	okinstallation	princeton_trtdifferential loss correction	single-endedforward channel	channel 1reverse channel	N/Adate	2019/09/18time	09:34:35forward acquisition time	60.00reverse acquisition time	0.00gamma	496.2192k internal	0.2334k external	0.2334temperature offset calibration	0.9969default loss term (dB/km)	0.3790temperature slope calibration	1.0000multiplexer offset coefficient	1.0000multiplexer slope coefficient	1.0000fibre end	0.00T internal ref (°C)	26.52T ext. ref 1 (°C)	0.26T ext. ref 2 (°C)	23.39length (m)	temperature (°C)	Stokes	anti-Stokes-747.200	-7.972	0.227	0.154
-746.185	96.578	-0.395	0.455
-745.171	339.238	0.122	-0.238
-744.156	361.535	0.055	0.111
-743.142	-136.392	-0.113	0.013
-742.127	-37.574	-0.202	0.108
-741.112	-94.799	-0.535	0.146
-740.098	-106.395	0.269	0.060
-739.083	14.025	-0.185	-0.145
-738.069	427.261	-0.100	0.217
-737.054	26.122	0.213	-0.179
-736.039	-200.000	-0.013	-0.217
-735.025	-130.951	0.153	0.021
-734.010	289.635	-0.048	0.088
-732.996	-183.658	0.213	0.004
-731.981	-11.324	-0.096	0.064
-730.966	141.846	-0.055	-0.073
-729.952	104.498	-0.226	0.267
-728.937	-70.626	0.241	0.092
-727.923	-57.868	-0.247	0.108
-726.908	-7.621	-0.298	0.202
-725.894	-16.937	0.065	-0.041
-724.879	800.000	-0.056	0.158
-723.864	-13.480	0.274	0.178
-722.850	35.910	-0.216	-0.190
-721.835	306.067	-0.162	-0.302
-720.821	-39.240	-0.119	0.063
-719.806	337.143	0.071	-0.138
-718.791	131.658	0.167	0.215
-717.777	-15.472	0.130	0.083
-716.762	800.000	0.106	-0.436
-715.748	42.131	-0.185	-0.169
-714.733	-116.227	-0.256	0.048
-713.718	-27.830	-0.107	-0.062
-712.704	26.896	0.153	-0.129
-711.689	171.562	0.081	-0.116
-710.675	-112.451	-0.209	-0.042
-709.660	-152.761	0.237	0.017
-708.645	-200.000	-0.062	-0.280
-707.631	-66.141	0.312	0.125
-706.616	-113.991	-0.470	-0.091
-705.602	-59.155	0.147	-0.064
-704.587	82.360	0.304	0.331
-703.572	-200.000	-0.001	-0.211
-702.558	-60.945	-0.257	0.109
-701.543	-200.000	0.024	0.525
-700.529	-95.438	-0.194	-0.052
-699.514	-2.118	0.099	-0.070
-698.499	-200.000	-0.044	-0.221
-697.485	67.514	-0.144	-0.148
-696.470	800.000	0.009	0.030
-695.456	-200.000	-0.017	0.076
-694.441	-108.429	0.151	0.033
-693.426	800.000	0.106	-0.358
-692.412	-200.000	-0.018	-0.378
-691.397	144.538	0.089	-0.120
-690.383	-51.470	-0.194	-0.091
-689.368	385.971	0.076	-0.157
-688.354	-200.000	0.007	-0.089
-687.339	222.962	-0.064	-0.104
-686.324	-83.027	-0.158	-0.051
-685.310	800.000	-0.146	0.480
-684.295	-104.555	0.121	-0.028
-683.281	665.408	-0.007	-0.018
-682.266	800.000	-0.087	-0.295
-681.251	-123.300	-0.152	0.024
-680.237	2.789	0.226	-0.165
-679.222	-200.000	0.015	-0.121
-678.208	-104.106	-0.070	-0.016
-677.193	104.571	-0.201	0.237
-676.178	158.651	0.238	0.331
-675.164	-200.000	-0.062	0.285
-674.149	-65.634	0.232	-0.093
-673.135	-200.000	-0.010	0.123
-672.120	-200.000	0.003	-0.140
-671.105	174.557	0.085	-0.124
-670.091	-122.124	-0.102	-0.017
-669.076	-103.816	0.130	0.031
-668.062	33.642	-0.172	-0.150
-667.047	570.162	-0.090	0.218
-666.032	800.000	0.042	0.134
-665.018	-200.000	-0.010	0.242
-664.003	253.835	0.226	-0.387
-662.989	374.888	0.096	-0.196
-661.974	-150.257	-0.052	-0.004
-660.959	2.728	-0.066	-0.048
-659.945	415.015	0.066	0.141
-658.930	72.414	0.243	-0.254
-657.916	107.436	-0.154	0.184
-656.901	-200.000	0.045	-0.284
-655.886	-76.652	0.222	-0.078
-654.872	-0.894	0.311	-0.221
-653.857	151.472	0.183	-0.250
-652.843	80.211	0.223	-0.240
-651.828	24.753	0.134	-0.112
-650.814	-62.425	-0.173	0.072
-649.799	763.813	-0.078	-0.213
-648.784	-107.500	-0.108	0.024
-647.770	-44.099	0.371	0.187
-646.755	-200.000	0.032	-0.165
-645.741	-200.000	0.049	0.224
-644.726	135.955	-0.097	0.126
-643.711	48.003	0.100	-0.093
-642.697	-200.000	-0.013	0.182
-641.682	-62.997	0.233	-0.096
-640.668	-200.000	-0.002	0.042
-639.653	800.000	-0.093	0.299
-638.638	-131.122	0.177	0.024
-637.624	-161.286	-0.331	0.017
-636.609	-124.486	-0.168	-0.026
-635.595	-42.952	0.194	0.099
-634.580	-79.923	-0.108	0.036
-633.565	-22.316	-0.132	-0.080
-632.551	800.000	-0.096	0.294
-631.536	800.000	-0.093	0.302
-630.522	164.834	0.145	-0.205
-629.507	-133.802	0.010	-0.001
-628.492	-200.000	0.011	0.111
-627.478	81.724	0.224	0.242
-626.463	800.000	0.126	0.462
-625.449	-57.558	0.449	0.197
-624.434	-7.649	0.210	-0.142
-623.419	418.226	0.133	-0.285
-622.405	-200.000	-0.045	-0.375
-621.390	189.993	-0.122	-0.183
-620.376	92.821	-0.095	0.107
-619.361	800.000	-0.100	-0.295
-618.346	86.738	0.116	0.128
-617.332	29.480	0.239	0.203
-616.317	-200.000	-0.058	-0.258
-615.303	-124.805	0.166	-0.026
-614.288	-200.000	0.027	0.209
-613.273	96.415	0.087	-0.100
-612.259	21.603	0.086	-0.070
-611.244	-200.000	0.063	-0.302
-610.230	-61.772	0.132	-0.055
-609.215	-99.975	-0.050	0.012
-608.201	-0.773	-0.045	0.032
-607.186	-200.000	0.032	-0.546
-606.171	33.482	-0.385	-0.334
-605.157	-200.000	0.010	-0.100
-604.142	-200.000	-0.081	0.526
-603.128	21.317	0.341	-0.277
-602.113	87.455	-0.169	-0.187
-601.098	800.000	-0.066	-0.206
-600.084	43.793	0.325	0.297
-599.069	-200.000	-0.105	0.529
-598.055	-196.605	0.090	-0.001
-597.040	-155.347	-0.467	-0.030
-596.025	-18.319	0.302	-0.189
-595.011	-175.943	0.130	-0.003
-593.996	-200.000	0.004	0.044
-592.982	199.590	0.111	0.170
-591.967	195.315	0.128	0.194
-590.952	-200.000	-0.010	0.185
-589.938	644.316	0.088	-0.224
-588.923	201.519	0.057	0.087
-587.909	-118.380	0.354	-0.063
-586.894	-200.000	0.026	0.140
-585.879	260.917	0.058	0.100
-584.865	66.828	0.208	-0.212
-583.850	21.861	-0.140	0.114
-582.836	-40.017	-0.075	-0.039
-581.821	-189.194	-0.312	0.004
-580.806	-200.000	-0.028	0.172
-579.792	19.934	-0.340	-0.273
-578.777	8.925	0.259	0.195
-577.763	-69.098	0.054	-0.021
-576.748	83.163	-0.122	0.132
-575.733	-109.959	-0.126	-0.026
-574.719	-125.607	0.188	0.028
-573.704	800.000	-0.082	-0.235
-572.690	-15.210	-0.289	0.185
-571.675	-189.445	0.166	-0.002
-570.661	194.508	-0.076	-0.114
-569.646	-136.752	0.095	0.011
-568.631	4.457	0.259	0.190
-567.617	-87.811	-0.354	0.106
-566.602	588.961	-0.031	-0.076
-565.588	-27.595	-0.317	-0.184
-564.573	-7.847	0.144	-0.097
-563.558	-20.936	-0.230	0.141
-562.544	321.884	0.077	0.147
-561.529	423.291	0.203	0.435
-560.515	800.000	0.036	-0.142
-559.500	-192.771	-0.245	-0.002
-558.485	38.729	0.256	0.228
-557.471	-200.000	-0.013	0.233
-556.456	-200.000	-0.028	-0.300
-555.442	-200.000	0.048	0.255
-554.427	-200.000	-0.020	0.228
-553.412	-27.613	0.171	0.099
-552.398	-200.000	0.017	-0.255
-551.383	-28.251	-0.198	0.114
-550.369	-125.214	-0.126	0.019
-549.354	-102.014	-0.052	-0.012
-548.339	7.662	0.064	0.048
-547.325	-200.000	0.003	-0.153
-546.310	26.804	-0.219	0.183
-545.296	-107.487	-0.278	-0.061
-544.281	-8.634	-0.086	-0.057
-543.266	800.000	-0.039	0.168
-542.252	88.166	0.087	-0.097
-541.237	49.060	-0.017	-0.016
-540.223	-59.913	0.255	0.109
-539.208	147.433	0.077	-0.103
-538.193	681.043	-0.072	-0.187
-537.179	13.999	0.092	-0.071
-536.164	655.179	-0.106	0.271
-535.150	95.935	-0.027	0.031
-534.135	-200.000	-0.014	-0.270
-533.121	-68.290	0.236	-0.091
-532.106	-8.233	-0.181	0.121
-531.091	-200.000	-0.236	-0.001
-530.077	-101.101	-0.313	-0.076
-529.062	-94.822	-0.199	0.054
-528.048	-200.000	0.014	0.488
-527.033	-80.995	-0.147	0.048
-526.018	-200.000	0.027	0.126
-525.004	75.148	0.327	-0.344
-523.989	156.622	0.071	0.098
-522.975	-76.816	0.169	-0.059
-521.960	-3.978	-0.051	0.035
-520.945	-200.000	-0.006	-0.315
-519.931	154.782	-0.207	-0.283
-518.916	-200.000	-0.001	0.389
-517.902	104.175	-0.121	-0.141
-516.887	133.298	-0.158	0.203
-515.872	-200.000	-0.011	-0.215
-514.858	-34.996	0.214	0.117
-513.843	57.285	-0.127	0.123
-512.829	336.268	-0.129	0.249
-511.814	-200.000	-0.024	0.000
-510.799	800.000	-0.024	0.098
-509.785	-62.099	-0.228	0.095
-508.770	142.626	-0.089	0.118
-507.756	401.976	0.087	-0.182
-506.741	-151.846	-0.315	-0.023
-505.726	53.632	0.231	0.221
-504.712	117.103	0.141	-0.173
-503.697	-40.595	-0.125	0.065
-502.683	29.699	-0.095	-0.080
-501.668	187.948	-0.121	-0.180
-500.653	75.998	-0.194	0.205
-499.639	-34.224	-0.146	-0.080
-498.624	277.187	0.082	0.145
-497.610	-107.756	0.121	-0.026
-496.595	87.202	0.086	0.095
-495.581	613.527	-0.124	0.309
-494.566	-49.232	-0.299	0.142
-493.551	-54.675	0.156	-0.070
-492.537	-114.928	0.146	0.028
-491.522	-16.248	-0.405	-0.256
-490.508	-200.000	-0.061	-0.463
-489.493	-144.860	-0.079	0.007
-488.478	-125.924	0.133	0.020
-487.464	84.683	0.149	0.163
-486.449	151.570	0.160	-0.217
-485.435	312.127	0.041	0.076
-484.420	800.000	0.044	-0.178
-483.405	-200.000	-0.046	-0.247
-482.391	-185.495	-0.226	-0.003
-481.376	-120.848	0.043	0.007
-480.362	-200.000	0.009	-0.177
-479.347	-200.000	0.026	0.317
-478.332	-94.792	0.068	0.018
-477.318	800.000	0.069	0.276
-476.303	112.382	0.240	0.289
-475.289	-176.820	-0.198	0.005
-474.274	800.000	-0.051	0.144
-473.259	-67.427	-0.330	-0.129
-472.245	-37.236	0.052	0.028
-471.230	-26.825	0.196	-0.114
-470.216	-200.000	-0.022	-0.166
-469.201	-25.327	0.198	0.117
-468.186	6.350	0.293	-0.217
-467.172	513.759	0.244	0.566
-466.157	17.770	0.242	-0.191
-465.143	18.500	-0.148	-0.118
-464.128	124.313	0.200	-0.250
-463.113	-88.724	-0.136	0.040
-462.099	-90.990	0.043	-0.012
-461.084	531.294	0.032	-0.075
-460.070	-200.000	-0.021	0.316
-459.055	-148.815	-0.178	0.014
-458.040	506.093	-0.024	-0.056
-457.026	-200.000	-0.010	-0.046
-456.011	800.000	0.049	-0.176
-454.997	-0.382	0.088	0.062
-453.982	-200.000	0.074	0.348
-452.968	-30.643	0.328	-0.185
-451.953	19.395	-0.234	-0.187
-450.938	208.689	-0.129	0.201
-449.924	-102.255	-0.238	0.057
-448.909	-200.000	0.000	0.122
-447.895	66.747	-0.356	-0.360
-446.880	57.783	0.292	-0.284
-445.865	-200.000	-0.009	-0.045
-444.851	38.652	0.138	0.123
-443.836	-145.043	-0.156	0.014
-442.822	-31.066	-0.243	-0.136
-441.807	301.259	-0.124	0.227
-440.792	-129.771	-0.176	-0.024
-439.778	-200.000	0.017	0.255
-438.763	-125.032	0.090	-0.014
-437.749	-200.000	-0.024	-0.132
-436.734	-8.558	0.221	-0.148
-435.719	-158.791	0.293	0.017
-434.705	-200.000	0.016	0.228
-433.690	-101.243	-0.374	-0.091
-432.676	628.142	-0.110	0.276
-431.661	-151.424	0.358	0.026
-430.646	54.386	-0.255	-0.244
-429.632	-117.777	0.248	0.044
-428.617	135.949	0.072	-0.093
-427.603	-120.166	0.230	-0.039
-426.588	766.975	0.105	0.284
-425.573	-196.438	0.375	-0.003
-424.559	76.484	0.097	0.102
-423.544	95.766	-0.124	0.141
-422.530	-70.758	-0.160	-0.060
-421.515	800.000	-0.066	-0.187
-420.500	-200.000	-0.031	0.148
-419.486	2.841	0.160	0.115
-418.471	15.628	-0.109	-0.085
-417.457	-26.307	0.031	0.018
-416.442	228.979	-0.118	0.192
-415.428	-5.773	-0.150	-0.102
-414.413	-200.000	-0.010	-0.180
-413.398	93.896	-0.167	-0.188
-412.384	674.757	-0.064	0.165
-411.369	278.851	0.171	0.303
-410.355	20.023	-0.362	0.290
-409.340	-4.318	0.250	0.172
-408.325	31.094	-0.190	-0.162
-407.311	-129.395	-0.181	0.025
-406.296	17.969	0.434	-0.343
-405.282	10.087	-0.227	-0.171
-404.267	-60.966	0.532	0.223
-403.252	140.640	0.069	-0.090
-402.238	277.507	-0.167	0.294
-401.223	358.570	-0.069	0.137
-400.209	30.233	-0.239	-0.202
-399.194	31.102	-0.105	0.089
-398.179	-62.046	-0.268	0.111
-397.165	321.318	-0.049	-0.092
-396.150	39.976	0.288	-0.257
-395.136	-200.000	-0.014	0.086
-394.121	-145.782	0.229	-0.020
-393.106	800.000	0.113	0.329
-392.092	-94.514	0.045	0.012
-391.077	155.303	0.137	-0.187
-390.063	31.192	0.109	-0.092
-389.048	-200.000	-0.002	-0.287
-388.033	91.548	0.203	-0.226
-387.019	-4.878	-0.106	0.072
-386.004	-200.000	-0.005	0.039
-384.990	-144.136	-0.182	0.017
-383.975	115.820	0.107	-0.129
-382.960	-12.731	-0.253	0.163
-381.946	699.731	-0.030	0.080
-380.931	-56.988	0.129	0.056
-379.917	60.617	-0.283	0.278
-378.902	613.551	-0.096	-0.239
-377.888	58.658	0.203	0.198
-376.873	-159.539	-0.283	-0.016
-375.858	301.105	0.024	0.044
-374.844	-200.000	-0.017	0.358
-373.829	800.000	0.077	0.275
-372.815	61.931	-0.166	-0.164
-371.800	68.871	-0.376	-0.382
-370.785	800.000	0.069	0.204
-369.771	-190.046	-0.111	-0.001
-368.756	-42.546	0.216	-0.109
-367.742	-70.711	-0.170	0.063
-366.727	-200.000	0.012	0.057
-365.712	-150.933	0.144	0.011
-364.698	231.258	-0.230	-0.374
-363.683	-57.193	-0.198	0.086
-362.669	-200.000	-0.030	0.186
-361.654	23.784	0.257	-0.210
-360.639	105.769	0.181	-0.212
-359.625	78.553	0.194	0.205
-358.610	800.000	-0.089	0.295
-357.596	137.020	-0.163	-0.211
-356.581	-126.330	-0.300	-0.044
-355.566	132.349	-0.080	-0.102
-354.552	395.958	0.035	0.073
-353.537	-200.000	0.022	0.122
-352.523	625.677	-0.104	0.260
-351.508	152.218	-0.100	0.136
-350.493	800.000	-0.063	-0.180
-349.479	-147.634	-0.213	-0.018
-348.464	-50.622	-0.288	0.134
-347.450	434.001	0.012	-0.026
-346.435	-190.226	0.327	-0.004
-345.420	146.288	0.079	0.105
-344.406	26.580	0.094	-0.078
-343.391	-11.134	0.423	-0.276
-342.377	800.000	-0.021	0.061
-341.362	-200.000	-0.032	-0.311
-340.348	158.117	-0.286	-0.392
-339.333	186.044	-0.087	-0.128
-338.318	-77.581	0.336	0.115
-337.304	90.579	0.181	0.200
-336.289	-38.052	-0.170	-0.090
-335.275	-167.361	-0.133	0.005
-334.260	800.000	0.074	0.289
-333.245	142.014	-0.230	-0.302
-332.231	45.761	0.195	-0.178
-331.216	-200.000	0.056	-0.262
-330.202	800.000	-0.067	0.185
-329.187	-87.952	-0.134	-0.040
-328.172	334.656	-0.180	-0.345
-327.158	162.845	0.136	0.188
-326.143	-200.000	-0.005	0.035
-325.129	-200.000	-0.003	0.272
-324.114	60.212	0.226	0.221
-323.099	-200.000	-0.415	0.001
-322.085	-127.903	-0.227	0.032
-321.070	435.571	-0.067	0.143
-320.056	-91.734	0.524	0.147
-319.041	496.838	0.078	-0.178
-318.026	800.000	0.072	-0.202
-317.012	282.249	0.120	0.213
-315.997	778.478	0.049	-0.133
-314.983	73.803	-0.161	0.167
-313.968	-159.258	-0.246	0.014
-312.953	246.319	0.147	-0.246
-311.939	-200.000	-0.018	-0.301
-310.924	-148.557	-0.183	-0.015
-309.910	-200.000	-0.000	-0.050
-308.895	243.908	-0.032	-0.054
-307.880	-120.807	0.273	0.046
-306.866	-200.000	0.018	-0.196
-305.851	34.920	0.188	-0.163
-304.837	-89.439	-0.186	0.054
-303.822	-16.188	-0.130	-0.082
-302.807	236.853	0.106	0.174
-301.793	-200.000	0.026	0.134
-300.778	-155.421	0.161	-0.010
-299.764	-5.935	-0.165	-0.111
-298.749	-200.000	-0.001	0.200
-297.735	91.897	0.184	0.205
-296.720	-71.373	-0.347	-0.128
-295.705	493.208	0.075	0.170
-294.691	-44.051	0.288	0.143
-293.676	415.272	0.093	0.196
-292.662	395.742	-0.226	-0.465
-291.647	100.849	0.136	-0.156
-290.632	4.279	-0.211	0.153
-289.618	-145.027	-0.155	-0.014
-288.603	192.561	0.185	0.276
-287.589	-23.515	0.172	0.102
-286.574	480.473	-0.140	-0.314
-285.559	125.846	-0.191	0.238
-284.545	800.000	-0.100	0.290
-283.530	-200.000	0.050	0.241
-282.516	-200.000	0.013	0.226
-281.501	-200.000	0.013	0.169
-280.486	-117.386	0.326	-0.058
-279.472	-200.000	0.047	-0.243
-278.457	-76.435	-0.369	0.128
-277.443	800.000	-0.113	0.330
-276.428	73.351	0.307	-0.318
-275.413	-147.835	-0.094	-0.008
-274.399	-121.699	-0.162	0.027
-273.384	-59.697	0.306	-0.129
-272.370	127.992	-0.387	0.485
-271.355	-200.000	0.039	0.276
-270.340	-200.000	0.002	-0.139
-269.326	-67.890	0.269	0.104
-268.311	-0.844	0.341	0.239
-267.297	-126.978	0.144	-0.021
-266.282	-200.000	0.051	-0.295
-265.267	-88.764	-0.222	0.065
-264.253	67.776	0.102	-0.103
-263.238	-200.000	-0.041	-0.471
-262.224	392.246	-0.087	-0.178
-261.209	6.745	0.197	-0.144
-260.195	-151.201	-0.263	0.019
-259.180	81.755	-0.120	0.128
-258.165	-130.169	-0.119	0.016
-257.151	316.265	0.195	0.363
-256.136	-4.290	0.066	0.045
-255.122	125.420	0.189	-0.236
-254.107	41.620	-0.250	0.223
-253.092	-60.263	0.191	0.080
-252.078	-110.911	-0.280	-0.057
-251.063	-153.609	-0.216	0.015
-250.049	52.661	-0.176	0.166
-249.034	-80.299	0.196	0.065
-248.019	-163.417	-0.005	0.000
-247.005	800.000	0.025	-0.091
-245.990	462.883	-0.108	0.237
-244.976	-179.239	0.095	-0.002
-243.961	201.008	-0.116	0.177
-242.946	-70.424	-0.234	-0.087
-241.932	80.227	-0.164	-0.174
-240.917	-200.000	-0.009	-0.174
-239.903	-57.152	0.047	0.021
-238.888	-1.586	0.268	-0.186
-237.873	81.516	-0.228	-0.243
-236.859	410.782	-0.088	-0.184
-235.844	101.446	-0.175	-0.201
-234.830	-200.000	-0.070	-0.605
-233.815	467.748	-0.173	-0.382
-232.800	-200.000	0.004	-0.159
-231.786	244.892	-0.107	0.177
-230.771	-152.812	-0.174	-0.012
-229.757	93.984	-0.097	-0.109
-228.742	154.389	0.095	0.128
-227.727	7.181	0.255	-0.188
-226.713	-200.000	-0.098	-0.551
-225.698	-60.402	0.238	-0.100
-224.684	-200.000	-0.004	-0.278
-223.669	150.554	-0.135	0.181
-222.655	80.285	0.135	0.143
-221.640	292.728	0.106	-0.190
-220.625	143.392	0.146	0.191
-219.611	-200.000	0.020	0.440
-218.596	294.456	0.034	0.061
-217.582	-200.000	0.323	-0.001
-216.567	-3.393	-0.234	0.160
-215.552	-161.965	0.286	0.014
-214.538	-11.853	0.185	-0.120
-213.523	800.000	-0.055	-0.208
-212.509	-32.925	-0.136	-0.075
-211.494	261.730	0.255	-0.434
-210.479	-200.000	0.016	0.088
-209.465	-89.170	0.336	-0.098
-208.450	-62.227	0.129	0.053
-207.436	43.074	-0.154	-0.139
-206.421	-200.000	0.062	-0.288
-205.406	-102.726	-0.387	-0.091
-204.392	193.901	0.052	-0.078
-203.377	35.824	-0.184	0.159
-202.363	-200.000	-0.001	-0.132
-201.348	544.543	-0.061	-0.143
-200.333	-104.691	-0.152	0.034
-199.319	183.783	0.378	-0.550
-198.304	800.000	-0.051	0.155
-197.290	-12.824	0.251	-0.161
-196.275	-200.000	-0.012	-0.188
-195.260	-105.914	-0.159	-0.035
-194.246	34.383	0.038	-0.033
-193.231	-121.316	-0.182	-0.030
-192.217	45.382	0.106	0.096
-191.202	-151.126	0.413	-0.030
-190.187	-66.753	-0.209	0.081
-189.173	-196.297	0.081	0.001
-188.158	-108.968	0.244	-0.051
-187.144	-124.147	0.102	0.016
-186.129	800.000	-0.015	0.055
-185.114	800.000	-0.063	-0.249
-184.100	183.952	0.082	-0.120
-183.085	-21.920	0.187	0.112
-182.071	101.750	0.196	0.225
-181.056	-200.000	0.001	-0.124
-180.042	-73.652	0.064	0.023
-179.027	-200.000	-0.009	0.401
-178.012	20.245	-0.056	0.045
-176.998	-63.671	0.145	-0.058
-175.983	41.073	-0.110	0.098
-174.969	-200.000	-0.002	0.106
-173.954	-106.280	-0.177	0.039
-172.939	-200.000	0.002	0.044
-171.925	-84.779	0.074	-0.023
-170.910	-125.584	-0.166	0.025
-169.896	42.727	-0.193	0.173
-168.881	50.612	0.183	-0.170
-167.866	-122.788	-0.172	0.027
-166.852	800.000	0.164	0.450
-165.837	53.728	0.199	0.188
-164.823	-200.000	0.027	-0.189
-163.808	-159.634	0.125	0.007
-162.793	12.041	-0.036	0.027
-161.779	-159.191	-0.190	0.011
-160.764	800.000	0.086	-0.265
-159.750	120.187	0.040	0.049
-158.735	-200.000	0.029	-0.203
-157.720	256.296	0.071	0.119
-156.706	20.511	0.020	-0.016
-155.691	-75.188	-0.098	-0.034
-154.677	-200.000	-0.021	0.303
-153.662	-200.000	-0.049	-0.229
-152.647	4.488	0.149	-0.107
-151.633	800.000	-0.176	-0.509
-150.618	-73.320	-0.096	-0.035
-149.604	13.878	0.259	0.198
-148.589	178.627	0.128	0.184
-147.574	800.000	0.022	-0.075
-146.560	313.724	-0.159	0.295
-145.545	-118.525	0.084	0.015
-144.531	-155.788	0.200	0.013
-143.516	597.998	0.120	-0.292
-142.502	-115.449	0.304	-0.056
-141.487	368.953	-0.071	-0.142
-140.472	46.530	0.130	-0.119
-139.458	-95.380	0.498	-0.131
-138.443	-161.255	-0.057	0.003
-137.429	-200.000	0.013	0.375
-136.414	-80.368	0.268	-0.088
-135.399	134.998	0.116	-0.148
-134.385	654.532	-0.009	-0.023
-133.370	164.560	0.073	-0.101
-132.356	-200.000	-0.056	0.293
-131.341	-16.865	0.206	0.128
-130.326	10.221	0.177	-0.132
-129.312	83.325	-0.133	-0.142
-128.297	-200.000	-0.010	0.250
-127.283	800.000	0.104	0.307
-126.268	-139.776	0.472	-0.049
-125.253	230.688	-0.120	-0.192
-124.239	800.000	0.066	-0.184
-123.224	800.000	0.049	0.165
-122.210	1.937	-0.076	-0.054
-121.195	-32.753	-0.032	0.017
