DTS Sentinel unit serial number:	SN413079Multiplexer serial number:	ORYXHardware model number:	OX4-SRSoftware version number:	ORYX F/W v4.00 Oryx Data Collector v3.7.2.0data status	okinstallation	princeton_trtdifferential loss correction	single-endedforward channel	channel 1reverse channel	N/Adate	2019/09/16time	12:38:35forward acquisition time	60.00reverse acquisition time	0.00gamma	496.2192k internal	0.2294k external	0.2294temperature offset calibration	0.9955default loss term (dB/km)	0.3790temperature slope calibration	1.0000multiplexer offset coefficient	1.0000multiplexer slope coefficient	1.0000fibre end	0.00T internal ref (°C)	39.91T ext. ref 1 (°C)	13.43T ext. ref 2 (°C)	37.89length (m)	temperature (°C)	Stokes	anti-Stokes-747.200	-180.758	-0.227	0.005
-746.185	176.636	0.254	0.377
-745.171	-6.902	-0.211	0.147
-744.156	800.000	-0.072	0.272
-743.142	800.000	-0.026	-0.081
-742.127	800.000	-0.032	0.128
-741.112	800.000	0.084	-0.277
-740.098	800.000	-0.101	0.310
-739.083	108.604	0.073	0.089
-738.069	186.127	-0.179	0.272
-737.054	423.274	0.104	0.230
-736.039	-14.655	-0.369	0.243
-735.025	-53.157	0.157	0.074
-734.010	-200.000	0.011	0.067
-732.996	-156.050	0.151	0.010
-731.981	410.907	-0.050	0.109
-730.966	800.000	-0.073	-0.244
-729.952	-200.000	0.004	0.191
-728.937	116.840	-0.194	-0.244
-727.923	93.411	-0.025	-0.029
-726.908	-58.499	-0.129	-0.057
-725.894	-200.000	-0.029	-0.314
-724.879	19.188	-0.358	-0.294
-723.864	800.000	0.035	-0.109
-722.850	800.000	-0.084	-0.263
-721.835	254.474	0.052	0.090
-720.821	-66.873	-0.209	-0.084
-719.806	-86.104	-0.388	-0.122
-718.791	-37.458	-0.346	-0.188
-717.777	-55.853	-0.231	0.105
-716.762	13.323	-0.129	0.102
-715.748	63.185	-0.143	0.146
-714.733	-56.577	0.029	0.013
-713.718	400.048	-0.210	-0.450
-712.704	454.302	0.137	-0.310
-711.689	-102.833	-0.080	0.020
-710.675	-200.000	0.018	-0.096
-709.660	-117.461	0.232	-0.043
-708.645	79.857	-0.136	0.149
-707.631	22.213	-0.208	0.173
-706.616	78.993	-0.187	-0.204
-705.602	-200.000	-0.023	-0.254
-704.587	-24.360	-0.257	-0.156
-703.572	211.825	0.052	0.083
-702.558	-200.000	0.015	0.169
-701.543	-29.966	-0.084	-0.049
-700.529	-112.628	-0.074	0.015
-699.514	-40.220	0.002	-0.001
-698.499	20.703	-0.221	-0.182
-697.485	-1.030	-0.284	-0.205
-696.470	699.266	-0.098	0.264
-695.456	177.927	-0.088	-0.131
-694.441	-122.759	-0.183	0.030
-693.426	-38.657	0.144	0.077
-692.412	535.387	-0.132	-0.320
-691.397	114.947	-0.161	-0.200
-690.383	75.707	-0.329	-0.355
-689.368	-180.389	0.170	0.004
-688.354	34.340	-0.125	0.111
-687.339	-36.744	-0.253	-0.139
-686.324	131.160	0.147	-0.192
-685.310	-71.676	-0.232	0.088
-684.295	266.556	-0.090	0.161
-683.281	721.118	-0.083	-0.226
-682.266	-148.151	-0.405	-0.034
-681.251	-200.000	0.054	0.322
-680.237	-200.000	-0.003	-0.067
-679.222	491.759	-0.081	0.189
-678.208	-74.713	-0.120	-0.044
-677.193	-200.000	-0.022	-0.111
-676.178	436.785	-0.061	-0.136
-675.164	800.000	0.022	-0.072
-674.149	33.651	0.101	-0.089
-673.135	190.397	0.193	0.296
-672.120	259.734	0.057	-0.100
-671.105	-174.449	0.135	-0.004
-670.091	173.449	0.135	0.198
-669.076	238.993	-0.069	0.117
-668.062	-166.337	-0.252	0.011
-667.047	-119.742	0.213	0.037
-666.032	-200.000	-0.035	-0.210
-665.018	-143.407	0.328	0.032
-664.003	153.586	-0.199	-0.278
-662.989	132.386	0.145	-0.191
-661.974	-200.000	-0.004	-0.027
-660.959	178.302	0.099	-0.147
-659.945	144.214	-0.063	0.085
-658.930	118.981	0.095	-0.120
-657.916	570.358	-0.092	-0.228
-656.901	-126.879	0.047	-0.007
-655.886	-104.280	-0.099	-0.023
-654.872	34.452	-0.159	0.142
-653.857	-1.133	0.227	0.163
-652.843	19.961	0.076	-0.062
-651.828	579.649	-0.107	-0.267
-650.814	-62.738	0.243	0.102
-649.799	-100.063	-0.183	0.046
-648.784	-28.519	-0.208	-0.122
-647.770	-200.000	-0.025	-0.293
-646.755	569.846	0.040	-0.098
-645.741	800.000	0.045	0.176
-644.726	56.580	-0.099	-0.098
-643.711	9.483	-0.132	-0.102
-642.697	-88.754	-0.229	-0.069
-641.682	-31.348	0.090	0.051
-640.668	-144.414	0.100	-0.009
-639.653	-96.668	-0.125	0.034
-638.638	-200.000	-0.036	0.231
-637.624	196.091	0.095	-0.147
-636.609	-44.616	-0.068	0.035
-635.595	-200.000	-0.041	0.269
-634.580	-75.090	-0.063	-0.023
-633.565	-200.000	0.015	0.088
-632.551	-103.572	0.390	0.093
-631.536	-59.708	-0.080	0.035
-630.522	13.682	0.197	-0.156
-629.507	-200.000	0.216	-0.001
-628.492	-200.000	0.013	-0.140
-627.478	-18.471	-0.260	-0.166
-626.463	-9.650	-0.188	0.128
-625.449	147.491	-0.111	-0.152
-624.434	159.143	-0.112	0.159
-623.419	121.744	-0.057	0.073
-622.405	-128.689	0.340	0.049
-621.390	-3.499	0.135	-0.096
-620.376	629.447	-0.168	-0.433
-619.361	-200.000	-0.016	0.149
-618.346	-125.900	0.192	-0.030
-617.332	-200.000	-0.021	-0.338
-616.317	-87.942	-0.149	0.046
-615.303	-142.861	-0.199	-0.020
-614.288	5.536	-0.120	0.090
-613.273	-82.573	-0.090	-0.030
-612.259	-122.662	-0.309	-0.051
-611.244	-200.000	-0.015	0.070
-610.230	-68.238	0.283	-0.112
-609.215	-48.347	0.188	0.092
-608.201	20.700	0.233	0.192
-607.186	-116.139	0.041	-0.008
-606.171	84.992	0.152	0.170
-605.157	-91.030	-0.133	-0.039
-604.142	-127.718	-0.268	0.039
-603.128	-60.963	-0.159	-0.069
-602.113	328.643	-0.101	-0.198
-601.098	48.302	0.137	0.130
-600.084	-200.000	0.012	0.318
-599.069	122.915	-0.130	0.165
-598.055	-67.401	0.310	-0.124
-597.040	5.378	-0.149	0.112
-596.025	204.781	-0.120	0.189
-595.011	26.114	-0.302	-0.256
-593.996	-199.496	0.150	0.001
-592.982	187.652	-0.131	0.199
-591.967	-35.160	0.224	-0.124
-590.952	7.361	-0.060	-0.045
-589.938	197.438	0.065	-0.100
-588.923	-200.000	0.052	-0.453
-587.909	-188.531	0.168	0.002
-586.894	-200.000	0.030	-0.205
-585.879	40.533	0.096	-0.088
-584.865	210.498	-0.006	-0.010
-583.850	-200.000	-0.002	-0.029
-582.836	-58.806	-0.191	0.084
-581.821	89.586	0.065	-0.073
-580.806	-107.792	-0.213	0.047
-579.792	800.000	-0.038	-0.151
-578.777	-110.865	-0.213	0.045
-577.763	61.710	0.114	0.116
-576.748	-145.493	-0.071	0.007
-575.733	200.444	0.133	0.207
-574.719	-200.000	0.014	0.073
-573.704	-23.082	0.043	0.026
-572.690	-200.000	-0.005	0.184
-571.675	-93.928	0.083	-0.023
-570.661	-3.425	-0.202	-0.143
-569.646	-200.000	-0.047	-0.357
-568.631	800.000	0.104	-0.307
-567.617	-148.711	-0.055	0.005
-566.602	-22.758	-0.268	-0.165
-565.588	78.278	-0.185	0.200
-564.573	-200.000	0.031	0.147
-563.558	184.567	-0.025	-0.037
-562.544	-2.913	-0.126	0.090
-561.529	148.023	0.081	-0.111
-560.515	8.875	0.174	-0.134
-559.500	326.821	0.029	0.056
-558.485	119.908	0.140	-0.176
-557.471	-12.676	-0.182	-0.120
-556.456	221.523	0.186	0.303
-555.442	-200.000	-0.011	0.094
-554.427	800.000	-0.052	-0.184
-553.412	581.625	-0.105	-0.261
-552.398	-95.351	0.113	-0.031
-551.383	377.979	0.044	0.092
-550.369	-200.000	0.069	-0.391
-549.354	401.112	-0.069	0.146
-548.339	-200.000	-0.063	-0.334
-547.325	-85.487	-0.150	0.047
-546.310	290.014	0.081	0.148
-545.296	-200.000	-0.038	-0.191
-544.281	539.015	-0.039	-0.095
-543.266	-21.419	0.110	-0.068
-542.252	305.159	0.065	0.123
-541.237	-68.195	-0.252	0.100
-540.223	-200.000	0.006	0.078
-539.208	-200.000	0.001	-0.068
-538.193	-45.997	0.147	0.074
-537.179	-200.000	-0.010	-0.055
-536.164	-62.881	0.361	0.152
-535.150	12.589	0.122	0.096
-534.135	307.078	0.088	0.167
-533.121	702.040	0.034	-0.091
-532.106	-108.560	0.041	-0.009
-531.091	-63.815	0.260	-0.108
-530.077	-111.343	0.025	0.005
-529.062	-33.507	-0.245	0.137
-528.048	-124.276	0.178	0.028
-527.033	-64.918	0.306	0.125
-526.018	800.000	-0.005	-0.017
-525.004	-165.088	-0.293	-0.013
-523.989	-74.927	-0.092	-0.033
-522.975	159.819	0.136	0.192
-521.960	-77.748	0.263	0.092
-520.945	800.000	-0.086	0.383
-519.931	800.000	-0.129	0.365
-518.916	-172.087	-0.174	0.006
-517.902	-83.587	0.133	0.043
-516.887	-200.000	0.056	0.345
-515.872	-46.595	0.187	-0.093
-514.858	-25.438	0.166	-0.099
-513.843	-96.523	-0.228	0.061
-512.829	-200.000	0.006	0.267
-511.814	-156.311	0.253	-0.016
-510.799	-200.000	-0.022	0.115
-509.785	-90.520	-0.124	-0.036
-508.770	-48.799	-0.136	-0.066
-507.756	187.029	-0.237	-0.358
-506.741	800.000	0.125	0.414
-505.726	409.129	0.028	-0.059
-504.712	800.000	0.054	0.216
-503.697	-200.000	-0.019	-0.319
-502.683	164.221	0.203	0.290
-501.668	800.000	0.075	-0.325
-500.653	-138.623	-0.368	-0.041
-499.639	-175.067	0.278	0.008
-498.624	-88.153	0.187	-0.057
-497.610	-13.803	0.126	-0.083
-496.595	800.000	0.047	0.193
-495.581	-200.000	0.009	0.090
-494.566	51.244	0.141	-0.135
-493.551	691.462	-0.148	-0.392
-492.537	-200.000	-0.015	0.122
-491.522	-200.000	-0.063	-0.357
-490.508	-81.051	0.289	-0.097
-489.493	98.323	0.105	0.122
-488.478	-126.514	0.156	0.024
-487.464	201.827	-0.082	0.128
-486.449	-154.490	-0.382	0.026
-485.435	-141.513	-0.182	-0.019
-484.420	800.000	0.052	-0.184
-483.405	-125.236	0.313	-0.048
-482.391	267.982	-0.035	0.061
-481.376	800.000	-0.043	-0.159
-480.362	-200.000	0.058	-0.362
-479.347	478.355	0.223	-0.511
-478.332	108.876	0.131	-0.159
-477.318	800.000	0.158	-0.453
-476.303	298.105	0.086	0.159
-475.289	-200.000	0.053	-0.334
-474.274	-200.000	0.001	-0.352
-473.259	792.058	-0.082	-0.229
-472.245	400.135	-0.062	0.133
-471.230	-200.000	0.013	0.219
-470.216	64.635	0.138	0.141
-469.201	-101.163	-0.077	-0.019
-468.186	-200.000	-0.020	-0.232
-467.172	137.067	0.184	-0.244
-466.157	-79.141	-0.276	-0.095
-465.143	-42.779	0.326	0.167
-464.128	-200.000	-0.018	0.110
-463.113	28.039	-0.053	-0.045
-462.099	-110.009	-0.344	-0.073
-461.084	800.000	-0.051	0.195
-460.070	-200.000	0.007	0.170
-459.055	301.651	-0.047	-0.088
-458.040	90.133	0.102	0.116
-457.026	-200.000	-0.046	0.396
-456.011	-25.412	0.327	0.196
-454.997	-84.260	-0.043	-0.014
-453.982	-116.645	0.110	0.020
-452.968	-200.000	0.081	0.391
-451.953	-200.000	0.013	-0.100
-450.938	30.066	-0.132	-0.114
-449.924	-200.000	0.046	0.285
-448.909	800.000	0.050	-0.195
-447.895	800.000	0.020	0.060
-446.880	-200.000	0.014	0.181
-445.865	49.952	0.333	0.317
-444.851	555.699	0.064	0.156
-443.836	135.599	0.154	-0.202
-442.822	-59.660	0.018	0.008
-441.807	81.810	0.232	0.253
-440.792	141.415	-0.168	-0.225
-439.778	800.000	-0.078	-0.333
-438.763	-200.000	0.011	-0.186
-437.749	74.367	-0.115	0.122
-436.734	441.734	0.129	0.285
-435.719	-31.319	-0.493	-0.280
-434.705	-58.007	0.179	0.079
-433.690	-72.098	0.230	-0.086
-432.676	-13.913	-0.040	-0.026
-431.661	202.432	-0.079	0.123
-430.646	800.000	0.062	0.263
-429.632	-105.657	-0.111	0.025
-428.617	48.124	-0.177	0.167
-427.603	169.719	0.106	-0.153
-426.588	-46.504	-0.106	0.052
-425.573	5.043	0.038	-0.028
-424.559	-200.000	0.014	-0.171
-423.544	-200.000	-0.041	0.357
-422.530	800.000	-0.058	0.243
-421.515	-67.872	0.110	0.043
-420.500	-139.919	-0.053	-0.006
-419.486	-3.961	0.156	0.109
-418.471	374.755	-0.052	0.108
-417.457	-200.000	0.004	0.159
-416.442	-130.959	0.150	-0.020
-415.428	800.000	-0.087	0.244
-414.413	213.577	0.236	0.377
-413.398	-140.950	-0.110	-0.011
-412.384	-114.889	-0.162	0.031
-411.369	-39.792	-0.358	-0.189
-410.355	634.340	-0.189	0.483
-409.340	-152.455	-0.323	-0.023
-408.325	-11.816	0.268	-0.177
-407.311	-156.092	-0.197	-0.013
-406.296	276.905	-0.039	-0.069
-405.282	-74.002	0.216	0.079
-404.267	122.744	-0.083	0.104
-403.252	-36.061	0.325	0.177
-402.238	-40.326	-0.074	-0.039
-401.223	469.720	-0.092	0.208
-400.209	350.213	0.084	-0.167
-399.194	203.019	-0.061	-0.095
-398.179	129.928	-0.142	0.183
-397.165	-152.754	-0.381	-0.027
-396.150	800.000	-0.027	0.077
-395.136	7.217	-0.353	0.266
-394.121	58.595	-0.311	0.308
-393.106	109.530	-0.035	0.043
-392.092	-200.000	0.003	-0.131
-391.077	32.060	-0.108	-0.094
-390.063	800.000	0.054	-0.168
-389.048	217.309	0.140	-0.225
-388.033	13.148	0.127	0.099
-387.019	756.444	-0.042	0.116
-386.004	-137.918	0.265	-0.030
-384.990	-11.188	-0.180	0.119
-383.975	111.772	0.065	0.080
-382.960	800.000	0.029	0.087
-381.946	-34.536	-0.173	-0.096
-380.931	-200.000	0.079	0.476
-379.917	-154.699	-0.105	-0.007
-378.902	97.068	0.112	-0.130
-377.888	-194.887	0.347	-0.003
-376.873	800.000	-0.050	-0.198
-375.858	174.708	-0.131	0.191
-374.844	-40.022	-0.206	0.108
-373.829	-82.134	0.190	-0.063
-372.815	800.000	-0.091	0.261
-371.800	20.728	0.147	0.120
-370.785	1.600	-0.212	0.154
-369.771	-127.376	-0.394	0.058
-368.756	257.734	0.197	-0.341
-367.742	237.335	-0.110	-0.183
-366.727	800.000	0.080	-0.273
-365.712	-200.000	0.048	-0.229
-364.698	-45.104	-0.319	-0.160
-363.683	-200.000	-0.022	0.136
-362.669	-72.627	0.194	0.072
-361.654	188.638	-0.140	-0.212
-360.639	-200.000	-0.012	-0.154
-359.625	-52.367	-0.107	-0.050
-358.610	285.715	-0.138	0.251
-357.596	-200.000	0.025	-0.237
-356.581	-200.000	-0.004	-0.228
-355.566	-46.294	-0.051	0.025
-354.552	63.877	-0.153	0.155
-353.537	-83.646	-0.139	0.045
-352.523	33.000	0.213	-0.186
-351.508	-200.000	-0.009	-0.128
-350.493	454.376	-0.184	-0.410
-349.479	-86.886	0.122	0.037
-348.464	-71.454	0.209	-0.079
-347.450	-55.033	0.129	-0.059
-346.435	-66.655	0.318	-0.127
-345.420	800.000	0.045	0.181
-344.406	-13.590	0.272	0.177
-343.391	800.000	0.062	-0.180
-342.377	126.869	-0.120	-0.153
-341.362	-46.309	0.314	0.155
-340.348	615.532	0.134	0.338
-339.333	132.475	0.109	0.142
-338.318	0.696	-0.168	-0.121
-337.304	33.214	0.236	0.206
-336.289	15.965	-0.112	-0.089
-335.275	-146.139	0.134	0.012
-334.260	-95.708	0.156	-0.042
-333.245	-200.000	-0.048	-0.338
-332.231	217.425	-0.147	-0.235
-331.216	-110.148	0.426	0.090
-330.202	251.287	0.162	0.277
-329.187	643.784	-0.027	0.070
-328.172	-17.412	-0.083	-0.053
-327.158	271.470	0.178	0.316
-326.143	66.449	0.144	0.147
-325.129	-35.938	-0.184	-0.100
-324.114	800.000	-0.013	0.049
-323.099	-23.679	-0.101	-0.061
-322.085	-50.941	-0.262	-0.124
-321.070	385.827	-0.126	0.261
-320.056	82.957	-0.113	0.124
-319.041	800.000	0.033	0.103
-318.026	-200.000	-0.103	-0.593
-317.012	-200.000	-0.049	-0.263
-315.997	-200.000	-0.034	0.346
-314.983	-200.000	-0.009	0.116
-313.968	217.691	-0.096	-0.154
-312.953	-200.000	-0.015	-0.173
-311.939	-155.910	0.403	-0.026
-310.924	-200.000	-0.021	0.128
-309.910	-200.000	0.064	-0.461
-308.895	57.581	0.059	-0.058
-307.880	-124.671	0.233	-0.036
-306.866	148.527	-0.171	0.232
-305.851	-108.137	-0.211	-0.046
-304.837	-200.000	-0.052	-0.358
-303.822	3.660	0.111	-0.082
-302.807	800.000	0.047	-0.185
-301.793	538.460	0.132	-0.315
-300.778	-69.657	-0.051	0.020
-299.764	-74.271	-0.221	-0.080
-298.749	5.018	-0.063	0.046
-297.735	-180.875	-0.185	0.004
-296.720	26.953	-0.172	-0.145
-295.705	-42.156	0.188	-0.096
-294.691	86.121	0.219	-0.243
-293.676	387.022	0.059	0.123
-292.662	103.615	-0.215	-0.254
-291.647	-88.590	-0.275	-0.082
-290.632	-40.721	-0.255	-0.133
-289.618	-178.317	0.040	0.001
-288.603	-131.046	0.055	-0.007
-287.589	137.330	0.223	-0.293
-286.574	-123.126	0.071	-0.011
-285.559	-200.000	0.006	0.060
-284.545	417.911	0.107	0.230
-283.530	368.971	-0.107	0.218
-282.516	172.527	-0.173	0.250
-281.501	92.276	-0.045	0.051
-280.486	78.301	0.078	-0.084
-279.472	456.851	-0.066	0.147
-278.457	26.997	-0.085	-0.072
-277.443	-91.880	0.173	-0.049
-276.428	-200.000	-0.010	0.139
-275.413	72.905	0.110	-0.116
-274.399	89.553	-0.146	-0.164
-273.384	97.404	-0.190	-0.218
-272.370	109.355	0.234	-0.282
-271.355	203.796	0.073	-0.113
-270.340	-200.000	-0.015	0.464
-269.326	114.148	0.191	0.233
-268.311	318.853	0.040	-0.076
-267.297	143.547	0.101	-0.135
-266.282	-84.292	-0.282	-0.089
-265.267	-200.000	0.001	0.299
-264.253	-200.000	-0.053	-0.338
-263.238	-14.199	-0.046	0.030
-262.224	-195.343	0.064	-0.000
-261.209	-185.723	0.329	0.005
-260.195	-200.000	0.015	0.288
-259.180	-70.955	0.131	-0.049
-258.165	800.000	0.113	0.355
-257.151	40.071	0.323	-0.291
-256.136	-86.253	-0.203	0.063
-255.122	130.693	-0.175	0.225
-254.107	-75.877	-0.082	0.029
-253.092	55.262	0.034	-0.033
-252.078	312.872	0.106	-0.200
-251.063	-105.923	0.409	0.092
-250.049	-200.000	-0.042	0.263
-249.034	-176.176	-0.154	0.004
-248.019	-155.375	-0.297	0.019
-247.005	319.281	-0.104	-0.197
-245.990	-200.000	-0.005	0.157
-244.976	18.915	-0.216	-0.173
-243.961	-200.000	0.020	0.089
-242.946	800.000	0.081	0.296
-241.932	56.331	0.384	-0.374
-240.917	-104.036	-0.376	-0.088
-239.903	800.000	-0.061	-0.266
-238.888	-43.844	0.100	0.050
-237.873	-200.000	0.027	0.150
-236.859	-200.000	-0.010	-0.067
-235.844	-200.000	0.004	-0.053
-234.830	-14.954	-0.255	0.164
-233.815	334.163	0.188	0.364
-232.800	-200.000	-0.063	-0.311
-231.786	-50.274	0.122	-0.058
-230.771	-20.676	-0.254	-0.156
-229.757	137.575	-0.039	0.052
-228.742	-74.966	0.114	-0.041
-227.727	-92.489	0.278	-0.078
-226.713	87.298	0.199	-0.221
-225.698	-200.000	-0.057	0.262
-224.684	634.352	0.067	-0.169
-223.669	-117.737	0.208	-0.037
-222.655	60.905	0.177	0.176
-221.640	-148.770	0.339	-0.028
-220.625	-97.059	-0.466	-0.122
-219.611	93.914	-0.111	0.127
-218.596	330.422	0.144	0.278
-217.582	-90.443	-0.375	0.109
-216.567	-177.363	0.110	0.003
-215.552	338.684	-0.072	0.140
-214.538	61.679	-0.324	0.323
-213.523	-200.000	0.057	-0.368
-212.509	234.351	0.166	-0.275
-211.494	-200.000	0.008	0.210
-210.479	800.000	-0.058	0.181
-209.465	-91.101	-0.108	-0.031
-208.450	-82.781	-0.132	-0.043
-207.436	-165.488	-0.156	0.007
-206.421	-154.926	0.221	0.015
-205.406	-104.908	0.277	0.064
-204.392	800.000	0.042	0.162
-203.377	-200.000	0.053	0.253
-202.363	214.209	-0.140	-0.221
-201.348	800.000	-0.021	0.069
-200.333	7.081	-0.248	0.185
-199.319	-200.000	-0.001	0.060
-198.304	356.541	0.014	0.029
-197.290	-23.815	0.253	-0.152
-196.275	800.000	-0.056	0.158
-195.260	-88.966	-0.230	0.068
-194.246	719.443	0.050	-0.132
-193.231	800.000	-0.047	-0.182
-192.217	-90.597	0.172	-0.050
-191.202	199.497	-0.032	0.049
-190.187	41.492	0.131	0.119
-189.173	-200.000	0.041	0.393
-188.158	-2.820	-0.190	-0.133
-187.144	-200.000	0.091	-0.409
-186.129	-8.875	-0.163	-0.109
-185.114	-92.428	-0.106	-0.030
-184.100	4.389	0.320	-0.235
-183.085	91.857	-0.273	0.307
-182.071	368.011	0.149	-0.302
-181.056	-7.763	-0.311	-0.210
-180.042	-200.000	-0.005	0.081
-179.027	36.153	0.204	0.180
-178.012	370.634	-0.179	-0.364
-176.998	19.941	0.292	0.236
-175.983	10.633	-0.093	0.071
-174.969	234.935	0.203	-0.335
-173.954	-132.654	-0.252	0.032
-172.939	204.216	-0.066	0.102
-171.925	-113.121	-0.121	-0.024
-170.910	738.851	0.089	0.239
-169.896	237.189	-0.051	0.085
-168.881	-200.000	-0.065	0.291
-167.866	37.975	-0.042	0.037
-166.852	-20.855	-0.162	-0.099
-165.837	45.517	0.136	0.125
-164.823	187.791	-0.216	0.323
-163.808	88.894	0.084	-0.093
-162.793	-53.209	0.232	0.106
-161.779	212.727	-0.082	0.129
-160.764	-168.915	-0.166	0.006
-159.750	-184.573	0.218	-0.004
-158.735	-101.867	0.212	-0.051
-157.720	-200.000	-0.023	-0.147
-156.706	22.406	0.086	-0.070
-155.691	141.407	0.132	0.175
-154.677	-148.913	-0.425	0.034
-153.662	-151.043	-0.409	0.031
-152.647	185.529	-0.028	0.041
-151.633	63.818	0.178	0.179
-150.618	-63.280	-0.198	0.082
-149.604	-1.591	0.155	-0.109
-148.589	-85.860	-0.156	-0.048
-147.574	-200.000	-0.023	0.187
-146.560	21.633	0.220	-0.179
-145.545	170.605	0.206	-0.295
-144.531	124.285	-0.031	0.039
-143.516	100.354	0.144	0.167
-142.502	144.535	0.118	-0.158
-141.487	648.401	0.099	0.253
-140.472	104.920	0.173	0.204
-139.458	-91.073	-0.132	-0.038
-138.443	88.484	-0.227	-0.252
-137.429	159.894	-0.033	-0.046
-136.414	70.590	-0.085	0.088
-135.399	-200.000	0.006	-0.035
-134.385	-200.000	0.043	-0.255
-133.370	-7.870	0.408	0.275
-132.356	-58.835	-0.408	-0.176
-131.341	198.699	0.194	-0.296
-130.326	-200.000	-0.003	-0.126
-129.312	-200.000	0.009	-0.191
-128.297	-56.825	0.342	-0.151
-127.283	800.000	0.113	0.343
-126.268	273.520	0.015	0.027
-125.253	-127.390	-0.323	0.047
-124.239	42.521	0.309	-0.281
-123.224	-80.741	0.262	-0.087
-122.210	721.677	-0.088	0.234
