DTS Sentinel unit serial number:	SN413079Multiplexer serial number:	ORYXHardware model number:	OX4-SRSoftware version number:	ORYX F/W v4.00 Oryx Data Collector v3.7.2.0data status	okinstallation	princeton_trtdifferential loss correction	single-endedforward channel	channel 1reverse channel	N/Adate	2019/09/19time	09:30:35forward acquisition time	60.00reverse acquisition time	0.00gamma	496.2192k internal	0.2341k external	0.2341temperature offset calibration	1.0003default loss term (dB/km)	0.3790temperature slope calibration	1.0000multiplexer offset coefficient	1.0000multiplexer slope coefficient	1.0000fibre end	0.00T internal ref (°C)	22.80T ext. ref 1 (°C)	0.62T ext. ref 2 (°C)	19.27length (m)	temperature (°C)	Stokes	anti-Stokes-747.200	153.374	-0.148	-0.204
-746.185	195.393	-0.118	-0.180
-745.171	-43.871	0.214	0.108
-744.156	800.000	-0.074	0.303
-743.142	76.787	0.175	-0.187
-742.127	329.924	-0.110	0.213
-741.112	800.000	0.070	-0.261
-740.098	-200.000	-0.047	0.447
-739.083	800.000	-0.060	0.220
-738.069	192.498	-0.116	-0.175
-737.054	-83.524	-0.339	-0.109
-736.039	-173.558	-0.078	-0.002
-735.025	-68.022	0.126	0.049
-734.010	-200.000	-0.038	0.267
-732.996	800.000	-0.111	-0.385
-731.981	-91.839	0.188	-0.053
-730.966	30.472	-0.124	-0.107
-729.952	76.764	-0.168	-0.179
-728.937	-200.000	0.026	-0.191
-727.923	-138.812	-0.331	0.036
-726.908	356.010	0.021	0.042
-725.894	-200.000	0.011	-0.163
-724.879	121.056	0.204	0.254
-723.864	800.000	0.051	-0.176
-722.850	-91.227	-0.219	0.063
-721.835	-117.025	0.199	0.036
-720.821	438.870	-0.023	-0.051
-719.806	46.096	0.299	-0.277
-718.791	-96.912	-0.374	-0.098
-717.777	-76.515	0.248	-0.087
-716.762	-92.695	0.274	0.077
-715.748	-7.554	0.214	0.145
-714.733	696.501	-0.033	0.087
-713.718	-108.730	-0.427	0.092
-712.704	-33.567	0.176	-0.097
-711.689	44.515	0.153	-0.140
-710.675	164.778	0.028	-0.040
-709.660	-70.253	0.039	0.015
-708.645	2.173	-0.256	-0.185
-707.631	289.306	0.116	0.210
-706.616	-200.000	0.016	0.169
-705.602	204.437	-0.121	-0.187
-704.587	-127.671	-0.273	0.039
-703.572	-135.863	0.094	0.011
-702.558	461.724	0.091	-0.203
-701.543	144.795	0.114	-0.153
-700.529	-16.651	0.087	0.055
-699.514	-200.000	0.028	0.307
-698.499	227.073	0.098	0.159
-697.485	-107.333	0.117	0.026
-696.470	25.068	0.111	0.093
-695.456	-18.494	-0.095	-0.060
-694.441	39.988	0.205	-0.184
-693.426	343.280	0.169	0.331
-692.412	193.425	-0.060	-0.091
-691.397	141.260	0.080	0.105
-690.383	-142.120	-0.372	0.037
-689.368	-184.059	0.189	0.003
-688.354	-102.598	-0.237	0.057
-687.339	800.000	0.125	-0.384
-686.324	69.165	0.296	-0.304
-685.310	-138.444	0.209	-0.023
-684.295	363.587	0.086	-0.174
-683.281	29.021	-0.212	-0.180
-682.266	108.376	0.008	0.010
-681.251	-71.449	-0.255	-0.095
-680.237	347.940	-0.175	-0.345
-679.222	-61.884	-0.191	-0.080
-678.208	139.287	0.045	-0.059
-677.193	-79.480	-0.101	0.034
-676.178	25.290	0.277	-0.230
-675.164	448.908	0.063	-0.139
-674.149	800.000	0.043	-0.145
-673.135	-4.761	-0.067	0.046
-672.120	800.000	0.166	-0.503
-671.105	742.023	0.042	-0.112
-670.091	-140.625	-0.461	-0.048
-669.076	800.000	0.040	0.133
-668.062	60.476	-0.317	0.314
-667.047	-72.922	-0.129	0.047
-666.032	800.000	-0.065	-0.200
-665.018	-7.054	-0.153	0.103
-664.003	-21.611	0.064	-0.039
-662.989	-200.000	0.034	-0.226
-661.974	145.304	0.068	0.090
-660.959	16.791	-0.148	-0.117
-659.945	800.000	0.028	-0.082
-658.930	69.319	-0.261	0.268
-657.916	-4.653	-0.249	-0.172
-656.901	800.000	-0.034	-0.114
-655.886	800.000	0.116	-0.434
-654.872	-125.509	-0.258	-0.039
-653.857	366.363	0.155	-0.312
-652.843	-200.000	0.016	0.222
-651.828	198.912	0.131	0.201
-650.814	-80.392	-0.281	-0.094
-649.799	338.447	-0.103	-0.200
-648.784	-75.524	0.063	-0.022
-647.770	726.604	0.042	0.113
-646.755	42.668	-0.089	0.081
-645.741	-84.539	0.162	0.051
-644.726	-43.363	0.243	0.122
-643.711	-7.262	0.114	-0.077
-642.697	-79.397	-0.408	0.138
-641.682	-200.000	-0.001	-0.105
-640.668	-153.008	0.277	0.020
-639.653	-121.236	0.343	-0.057
-638.638	-87.441	0.061	0.018
-637.624	-96.390	-0.338	-0.089
-636.609	-60.738	-0.134	-0.057
-635.595	-200.000	0.003	0.098
-634.580	800.000	0.085	0.288
-633.565	-200.000	0.007	0.185
-632.551	58.908	0.231	-0.227
-631.536	-169.590	0.242	-0.009
-630.522	478.223	0.063	-0.142
-629.507	800.000	0.032	0.112
-628.492	800.000	-0.021	-0.075
-627.478	232.816	0.065	0.107
-626.463	-172.300	-0.143	-0.005
-625.449	800.000	0.021	-0.061
-624.434	-200.000	-0.016	0.099
-623.419	105.470	-0.032	0.037
-622.405	-40.382	0.167	0.087
-621.390	368.713	0.074	-0.150
-620.376	323.607	-0.148	0.282
-619.361	27.365	0.074	-0.062
-618.346	800.000	0.032	0.094
-617.332	800.000	-0.068	-0.211
-616.317	-161.725	-0.186	-0.009
-615.303	-81.966	0.300	-0.098
-614.288	334.454	0.051	-0.098
-613.273	-140.232	0.258	-0.027
-612.259	-143.195	0.067	0.006
-611.244	198.756	-0.027	0.041
-610.230	2.263	-0.259	0.187
-609.215	112.722	0.104	0.125
-608.201	60.473	-0.319	-0.315
-607.186	-188.613	-0.448	-0.006
-606.171	58.191	0.119	-0.116
-605.157	-166.299	-0.197	0.008
-604.142	-200.000	-0.002	0.016
-603.128	-200.000	0.034	-0.313
-602.113	36.558	-0.058	-0.051
-601.098	-84.721	-0.224	0.070
-600.084	29.937	-0.137	-0.116
-599.069	211.297	-0.094	0.147
-598.055	71.056	-0.102	0.106
-597.040	-138.329	-0.203	-0.022
-596.025	800.000	0.068	0.214
-595.011	-16.763	-0.168	-0.106
-593.996	-41.677	-0.482	-0.246
-592.982	-113.685	-0.119	-0.023
-591.967	-105.517	-0.163	-0.037
-590.952	-200.000	-0.040	-0.198
-589.938	800.000	-0.071	0.242
-588.923	79.274	-0.345	0.368
-587.909	56.262	-0.217	0.210
-586.894	800.000	0.082	0.278
-585.879	-144.716	0.174	0.016
-584.865	-3.275	-0.066	-0.046
-583.850	216.912	0.120	-0.190
-582.836	-127.509	0.251	0.036
-581.821	-22.322	0.075	0.045
-580.806	-115.479	-0.040	-0.007
-579.792	-43.414	0.191	-0.096
-578.777	-200.000	0.024	-0.106
-577.763	-87.321	-0.292	0.088
-576.748	-200.000	-0.029	-0.176
-575.733	-200.000	0.045	-0.229
-574.719	800.000	0.063	0.237
-573.704	-61.665	-0.353	-0.148
-572.690	-57.448	0.316	0.138
-571.675	-200.000	-0.037	0.269
-570.661	486.085	-0.069	-0.157
-569.646	800.000	-0.053	0.230
-568.631	-95.033	-0.161	-0.043
-567.617	-200.000	0.051	0.470
-566.602	-33.963	-0.209	0.114
-565.588	-200.000	0.029	0.152
-564.573	-48.057	0.307	0.148
-563.558	685.784	-0.160	0.417
-562.544	-32.472	-0.385	-0.214
-561.529	148.785	0.205	-0.275
-560.515	800.000	0.083	-0.304
-559.500	800.000	-0.039	-0.116
-558.485	133.936	0.088	0.113
-557.471	275.284	-0.100	0.177
-556.456	-32.297	-0.190	-0.106
-555.442	34.042	-0.302	-0.262
-554.427	45.655	-0.091	-0.084
-553.412	800.000	-0.091	0.276
-552.398	98.966	-0.184	-0.212
-551.383	41.150	0.074	-0.067
-550.369	-200.000	0.029	-0.278
-549.354	30.137	-0.157	-0.133
-548.339	-200.000	0.038	0.180
-547.325	-200.000	-0.000	-0.022
-546.310	19.048	-0.134	-0.107
-545.296	-200.000	0.000	0.207
-544.281	800.000	-0.071	-0.285
-543.266	9.190	-0.027	0.020
-542.252	-156.185	-0.360	0.023
-541.237	147.770	-0.184	0.246
-540.223	800.000	-0.056	0.226
-539.208	-101.478	0.233	-0.056
-538.193	3.197	0.260	-0.188
-537.179	800.000	0.101	0.327
-536.164	-139.906	-0.303	-0.032
-535.150	786.930	0.006	0.017
-534.135	-47.657	0.167	-0.081
-533.121	-200.000	-0.037	0.259
-532.106	368.388	0.131	0.263
-531.091	-107.086	0.244	0.054
-530.077	-80.682	-0.357	-0.118
-529.062	-200.000	0.027	0.261
-528.048	-163.488	-0.139	-0.007
-527.033	233.534	0.208	-0.339
-526.018	332.237	0.066	-0.127
-525.004	-68.334	0.117	-0.045
-523.989	-127.881	-0.457	0.065
-522.975	30.287	-0.171	-0.145
-521.960	386.000	0.025	-0.052
-520.945	800.000	-0.062	0.269
-519.931	232.190	0.090	-0.147
-518.916	267.398	0.128	-0.222
-517.902	204.959	-0.044	0.068
-516.887	-135.014	0.269	-0.032
-515.872	-200.000	-0.030	0.145
-514.858	-33.838	0.024	-0.013
-513.843	21.046	0.093	-0.075
-512.829	-200.000	0.009	-0.274
-511.814	64.436	0.230	-0.230
-510.799	62.786	-0.098	0.098
-509.785	-147.569	-0.135	-0.011
-508.770	-116.462	0.083	-0.015
-507.756	-13.025	0.140	0.091
-506.741	53.046	0.067	-0.064
-505.726	50.697	0.230	-0.216
-504.712	530.131	-0.087	-0.203
-503.697	437.273	-0.124	-0.269
-502.683	429.918	-0.105	-0.226
-501.668	-200.000	-0.011	0.091
-500.653	10.885	-0.083	0.063
-499.639	-26.532	-0.341	0.198
-498.624	193.521	0.160	0.241
-497.610	-24.516	-0.113	0.067
-496.595	433.863	-0.111	-0.239
-495.581	-200.000	-0.041	0.360
-494.566	-67.775	0.329	0.128
-493.551	-200.000	-0.012	-0.110
-492.537	617.148	-0.053	0.132
-491.522	-132.902	-0.254	-0.032
-490.508	-200.000	-0.039	0.222
-489.493	46.392	0.198	0.182
-488.478	-70.682	-0.268	-0.100
-487.464	191.659	-0.034	0.050
-486.449	800.000	0.072	-0.247
-485.435	-117.594	0.155	-0.028
-484.420	-11.239	-0.206	-0.135
-483.405	-200.000	-0.004	0.341
-482.391	800.000	-0.041	0.153
-481.376	41.066	-0.172	0.155
-480.362	-34.439	-0.339	0.184
-479.347	800.000	-0.083	-0.245
-478.332	96.386	-0.165	0.187
-477.318	47.498	0.181	-0.168
-476.303	142.515	0.218	0.287
-475.289	-77.314	0.234	0.081
-474.274	-200.000	-0.001	-0.048
-473.259	-33.369	-0.364	0.200
-472.245	264.018	-0.053	0.091
-471.230	-125.376	-0.112	0.017
-470.216	-159.149	0.193	-0.011
-469.201	243.279	0.207	0.345
-468.186	800.000	-0.039	-0.124
-467.172	261.054	-0.099	0.170
-466.157	-143.859	0.187	-0.017
-465.143	58.741	0.088	0.086
-464.128	44.680	-0.245	-0.223
-463.113	-200.000	0.024	-0.152
-462.099	-98.500	0.418	-0.106
-461.084	800.000	0.109	0.341
-460.070	-200.000	0.022	0.298
-459.055	130.700	0.261	0.332
-458.040	-150.254	0.251	0.019
-457.026	-23.668	-0.116	0.069
-456.011	800.000	0.049	0.186
-454.997	800.000	0.017	0.072
-453.982	-18.586	0.172	-0.106
-452.968	-64.372	0.447	-0.180
-451.953	-45.262	0.228	0.112
-450.938	800.000	-0.067	-0.225
-449.924	-84.548	0.167	-0.052
-448.909	172.075	-0.070	0.099
-447.895	-52.950	0.181	0.083
-446.880	317.582	-0.094	-0.177
-445.865	476.421	0.129	0.288
-444.851	-200.000	0.036	-0.302
-443.836	800.000	0.064	-0.247
-442.822	800.000	0.026	-0.102
-441.807	-200.000	0.026	-0.695
-440.792	-175.073	-0.188	0.005
-439.778	-111.317	-0.161	-0.032
-438.763	-200.000	0.010	-0.141
-437.749	-85.729	0.193	0.059
-436.734	-125.487	-0.092	-0.014
-435.719	701.959	-0.100	-0.261
-434.705	-101.289	-0.081	-0.019
-433.690	800.000	0.031	0.122
-432.676	-90.469	-0.135	-0.039
-431.661	6.757	0.292	-0.215
-430.646	800.000	-0.072	0.205
-429.632	3.402	-0.306	-0.220
-428.617	-87.312	-0.189	-0.057
-427.603	14.369	-0.089	-0.068
-426.588	569.705	0.030	-0.072
-425.573	558.451	-0.035	-0.083
-424.559	-134.915	-0.015	0.002
-423.544	380.720	0.070	-0.142
-422.530	113.119	0.181	-0.217
-421.515	-48.988	-0.371	-0.176
-420.500	2.677	0.237	-0.170
-419.486	800.000	-0.101	-0.429
-418.471	-71.201	0.060	-0.022
-417.457	-51.854	0.173	-0.079
-416.442	-47.771	-0.254	0.122
-415.428	800.000	0.033	0.092
-414.413	-200.000	0.045	-0.367
-413.398	-150.863	0.293	-0.022
-412.384	-200.000	-0.063	0.343
-411.369	-200.000	-0.042	-0.364
-410.355	308.169	-0.073	0.134
-409.340	72.134	0.067	-0.069
-408.325	-97.576	-0.330	0.085
-407.311	-81.508	-0.400	-0.130
-406.296	-63.477	0.089	-0.036
-405.282	152.247	0.231	0.311
-404.267	60.410	0.270	0.265
-403.252	800.000	-0.065	0.201
-402.238	-116.987	0.467	-0.084
-401.223	800.000	-0.058	0.162
-400.209	-98.759	0.062	0.016
-399.194	-200.000	-0.080	-0.385
-398.179	800.000	0.080	0.251
-397.165	-71.028	-0.138	0.051
-396.150	183.147	-0.129	0.188
-395.136	800.000	0.051	0.169
-394.121	-97.529	-0.468	-0.120
-393.106	-25.901	0.143	-0.083
-392.092	468.797	0.078	0.174
-391.077	-111.289	-0.310	-0.063
-390.063	256.393	0.025	-0.042
-389.048	303.493	-0.050	-0.092
-388.033	135.878	-0.163	-0.210
-387.019	-24.916	-0.188	0.110
-386.004	148.669	-0.094	0.126
-384.990	-200.000	-0.016	-0.191
-383.975	-36.165	0.227	-0.121
-382.960	411.427	-0.115	0.240
-381.946	70.978	-0.057	0.059
-380.931	-200.000	0.013	0.078
-379.917	-110.960	0.220	0.045
-378.902	60.565	-0.021	-0.020
-377.888	567.901	-0.008	-0.019
-376.873	-26.781	-0.346	-0.200
-375.858	-66.577	0.187	-0.073
-374.844	-112.582	-0.437	0.086
-373.829	-166.025	0.325	-0.014
-372.815	-200.000	0.003	0.125
-371.800	113.813	-0.148	-0.178
-370.785	709.468	-0.106	-0.276
-369.771	-87.021	0.119	-0.036
-368.756	-98.635	-0.372	0.094
-367.742	-103.398	0.418	-0.097
-366.727	800.000	0.038	0.156
-365.712	-200.000	-0.041	-0.199
-364.698	21.715	0.405	0.325
-363.683	-86.262	0.416	-0.126
-362.669	800.000	-0.098	-0.296
-361.654	286.716	-0.166	-0.296
-360.639	-200.000	0.052	0.226
-359.625	-200.000	-0.018	0.154
-358.610	125.885	-0.126	0.157
-357.596	-26.924	0.131	-0.076
-356.581	219.321	0.110	0.173
-355.566	800.000	-0.012	0.052
-354.552	-21.279	0.115	-0.070
-353.537	-141.563	0.292	0.029
-352.523	45.224	-0.135	-0.123
-351.508	800.000	0.032	0.105
-350.493	544.448	0.145	-0.342
-349.479	-103.105	-0.290	-0.068
-348.464	17.610	0.183	0.143
-347.450	-37.211	0.121	0.064
-346.435	260.479	0.013	0.023
-345.420	-24.648	0.139	-0.081
-344.406	-88.304	0.453	-0.134
-343.391	16.360	-0.160	-0.125
-342.377	800.000	-0.159	0.557
-341.362	-123.820	0.058	0.009
-340.348	181.320	-0.208	-0.302
-339.333	254.087	0.131	0.220
-338.318	-135.884	0.203	-0.024
-337.304	550.713	0.114	0.271
-336.289	209.686	0.166	0.257
-335.275	-11.824	-0.273	0.176
-334.260	110.099	0.116	-0.137
-333.245	32.902	-0.151	-0.129
-332.231	194.168	-0.007	0.011
-331.216	-67.940	0.183	0.070
-330.202	-200.000	-0.009	0.255
-329.187	-16.496	0.331	-0.207
-328.172	-109.324	-0.086	0.018
-327.158	-134.519	0.057	-0.007
-326.143	111.652	0.213	-0.253
-325.129	88.196	0.039	0.042
-324.114	-156.654	-0.382	-0.023
-323.099	-120.599	0.205	-0.034
-322.085	-132.785	0.150	-0.019
-321.070	391.631	-0.116	-0.237
-320.056	-8.831	0.238	-0.157
-319.041	-200.000	-0.017	-0.186
-318.026	124.793	0.101	-0.126
-317.012	37.373	0.139	0.122
-315.997	-74.302	0.119	0.042
-314.983	-65.068	-0.228	-0.091
-313.968	-200.000	0.029	0.126
-312.953	-106.896	0.089	0.019
-311.939	265.579	-0.171	-0.294
-310.924	-200.000	0.044	-0.232
-309.910	178.085	0.189	-0.272
-308.895	1.944	-0.254	-0.180
-307.880	362.407	0.104	-0.205
-306.866	-200.000	0.066	0.373
-305.851	-85.608	-0.546	0.167
-304.837	739.085	0.121	0.319
-303.822	-190.101	0.186	-0.002
-302.807	392.823	0.069	-0.141
-301.793	-11.619	0.271	0.176
-300.778	-200.000	-0.032	0.280
-299.764	215.276	0.120	-0.187
-298.749	-200.000	0.002	-0.122
-297.735	-78.292	-0.263	0.089
-296.720	-109.186	-0.549	0.115
-295.705	189.436	0.038	0.056
-294.691	-79.582	0.390	-0.130
-293.676	7.372	-0.250	-0.184
-292.662	-63.201	0.218	-0.088
-291.647	82.262	0.107	0.115
-290.632	110.162	-0.129	0.153
-289.618	29.765	0.117	0.098
-288.603	-74.283	-0.205	-0.073
-287.589	148.815	-0.015	-0.020
-286.574	101.691	-0.105	0.120
-285.559	-133.521	0.230	-0.028
-284.545	-14.218	0.062	0.039
-283.530	186.125	-0.133	0.194
-282.516	-117.663	0.292	0.052
-281.501	-108.241	-0.125	0.027
-280.486	-200.000	-0.026	0.129
-279.472	-200.000	0.009	0.128
-278.457	106.002	-0.156	-0.181
-277.443	41.049	0.067	-0.060
-276.428	-200.000	-0.102	0.489
-275.413	-9.817	0.066	0.043
-274.399	92.723	0.216	-0.240
-273.384	-199.021	0.326	-0.002
-272.370	-200.000	-0.011	0.103
-271.355	-90.926	0.197	-0.056
-270.340	-200.000	-0.043	0.275
-269.326	115.221	-0.185	0.222
-268.311	-182.096	-0.167	0.003
-267.297	-105.128	0.013	0.003
-266.282	-200.000	-0.018	-0.167
-265.267	-68.211	0.241	-0.092
-264.253	169.647	-0.170	0.239
-263.238	-200.000	0.022	-0.102
-262.224	-200.000	-0.029	0.127
-261.209	-111.358	-0.134	0.027
-260.195	67.930	0.064	0.064
-259.180	331.092	0.057	0.108
-258.165	-123.454	0.155	0.024
-257.151	122.556	0.211	-0.260
-256.136	1.431	0.120	-0.085
-255.122	10.318	0.041	-0.031
-254.107	800.000	0.071	0.243
-253.092	-24.796	0.073	-0.043
-252.078	-147.027	0.067	-0.006
-251.063	72.690	0.141	-0.145
-250.049	-69.742	-0.114	-0.043
-249.034	-148.834	-0.223	0.018
-248.019	14.105	-0.109	0.083
-247.005	800.000	0.112	0.318
-245.990	13.016	-0.177	0.134
-244.976	-63.427	-0.152	-0.061
-243.961	-200.000	-0.034	-0.335
-242.946	-110.572	-0.093	-0.019
-241.932	18.631	-0.199	0.157
-240.917	-29.240	0.215	0.121
-239.903	-13.349	0.044	-0.028
-238.888	39.626	-0.101	-0.089
-237.873	186.236	-0.196	0.287
-236.859	53.010	-0.238	-0.224
-235.844	203.763	-0.056	0.085
-234.830	146.659	0.107	-0.142
-233.815	335.772	-0.156	-0.297
-232.800	209.952	0.094	0.145
-231.786	-200.000	0.339	0.002
-230.771	78.983	0.163	-0.171
-229.757	103.044	0.168	0.193
-228.742	-186.145	0.148	0.002
-227.727	27.332	0.100	-0.082
-226.713	-137.072	-0.381	-0.043
-225.698	301.876	0.139	0.253
-224.684	-179.757	0.355	-0.008
-223.669	-110.384	0.307	-0.063
-222.655	-78.290	-0.203	-0.068
-221.640	-108.775	0.229	-0.048
-220.625	-79.452	0.086	0.028
-219.611	-79.880	0.225	0.074
-218.596	239.214	-0.126	-0.206
-217.582	-106.838	-0.164	0.036
-216.567	-4.655	-0.225	0.152
-215.552	800.000	-0.047	0.162
-214.538	-114.994	-0.183	0.034
-213.523	-149.516	-0.274	-0.021
-212.509	-113.371	-0.114	-0.022
-211.494	-147.273	-0.250	-0.021
-210.479	-51.092	0.087	0.040
-209.465	107.981	-0.105	-0.122
-208.450	184.678	-0.039	-0.057
-207.436	31.797	0.300	-0.253
-206.421	800.000	-0.033	0.099
-205.406	43.484	-0.138	0.124
-204.392	51.462	0.090	0.084
-203.377	4.320	0.210	0.151
-202.363	-12.727	-0.083	0.053
-201.348	-83.481	0.309	-0.097
-200.333	-129.489	0.208	0.028
-199.319	-97.763	0.183	0.046
-198.304	-182.115	0.131	0.002
-197.290	-65.063	0.377	0.149
-196.275	300.426	0.079	-0.144
-195.260	800.000	-0.026	0.102
-194.246	-57.009	-0.362	0.157
-193.231	-81.410	-0.304	-0.098
-192.217	1.343	0.167	0.117
-191.202	800.000	-0.106	-0.293
-190.187	-136.341	-0.110	0.013
-189.173	-25.968	-0.177	-0.102
-188.158	236.876	0.230	-0.373
-187.144	-200.000	-0.046	-0.260
-186.129	-69.139	-0.144	0.054
-185.114	291.706	0.118	-0.210
-184.100	-200.000	0.014	0.113
-183.085	-68.336	0.121	-0.046
-182.071	214.098	-0.047	-0.072
-181.056	-23.192	-0.048	-0.028
-180.042	-200.000	0.024	0.168
-179.027	-0.055	-0.150	0.105
-178.012	800.000	0.032	-0.095
-176.998	197.924	-0.147	0.220
-175.983	-156.669	-0.097	-0.006
-174.969	-32.426	0.364	-0.199
-173.954	800.000	0.016	0.063
-172.939	346.932	-0.013	-0.025
-171.925	9.826	0.083	0.062
-170.910	5.431	0.249	0.180
-169.896	-200.000	-0.023	0.133
-168.881	-200.000	0.036	-0.187
-167.866	800.000	0.012	-0.047
-166.852	800.000	-0.081	0.251
-165.837	-111.001	0.273	0.055
-164.823	-118.886	-0.075	-0.013
-163.808	-200.000	0.018	-0.078
-162.793	18.152	-0.234	0.183
-161.779	39.665	0.284	0.249
-160.764	-200.000	0.007	-0.185
-159.750	-200.000	-0.006	-0.149
-158.735	622.845	-0.102	-0.252
-157.720	303.291	0.093	-0.168
-156.706	-200.000	0.002	0.077
-155.691	-162.697	-0.175	-0.008
-154.677	-19.170	-0.312	-0.190
-153.662	20.447	-0.086	-0.068
-152.647	-36.687	-0.070	-0.037
-151.633	-86.152	-0.123	0.037
-150.618	24.291	0.072	0.058
-149.604	25.354	-0.148	0.120
-148.589	-99.398	0.130	-0.032
-147.574	-200.000	-0.013	0.185
-146.560	270.471	0.089	-0.153
-145.545	-0.518	-0.047	-0.032
-144.531	-200.000	-0.001	0.101
-143.516	-86.544	-0.400	0.120
-142.502	-200.000	-0.016	0.124
-141.487	-60.373	0.130	-0.054
-140.472	-185.979	-0.228	-0.003
-139.458	604.671	0.159	-0.388
-138.443	309.803	-0.119	-0.219
-137.429	120.996	-0.126	-0.153
-136.414	455.480	0.049	0.107
-135.399	-43.722	-0.258	0.127
-134.385	377.223	-0.028	-0.055
-133.370	540.288	0.064	0.149
-132.356	-68.972	0.174	-0.066
-131.341	503.656	-0.063	-0.142
-130.326	290.446	-0.101	-0.179
-129.312	22.735	0.104	0.083
-128.297	45.012	-0.114	0.103
-127.283	306.329	-0.073	-0.132
-126.268	-200.000	-0.017	-0.243
-125.253	800.000	-0.087	0.264
-124.239	0.100	0.069	0.048
-123.224	-122.624	-0.330	-0.052
-122.210	-171.124	0.118	-0.004
-121.195	66.486	-0.163	0.162
