DTS Sentinel unit serial number:	SN413079Multiplexer serial number:	ORYXHardware model number:	OX4-SRSoftware version number:	ORYX F/W v4.00 Oryx Data Collector v3.7.2.0data status	okinstallation	princeton_trtdifferential loss correction	single-endedforward channel	channel 1reverse channel	N/Adate	2019/09/12time	04:32:11forward acquisition time	60.00reverse acquisition time	0.00gamma	496.2192k internal	0.2324k external	0.2324temperature offset calibration	1.0087default loss term (dB/km)	0.3790temperature slope calibration	1.0000multiplexer offset coefficient	1.0000multiplexer slope coefficient	1.0000fibre end	0.00T internal ref (°C)	31.61T ext. ref 1 (°C)	2.29T ext. ref 2 (°C)	26.62length (m)	temperature (°C)	Stokes	anti-Stokes-747.200	-60.128	0.026	0.011
-746.185	-200.000	0.038	0.533
-745.171	-38.883	-0.373	0.199
-744.156	32.414	-0.170	0.148
-743.142	-200.000	0.020	0.279
-742.127	1.438	-0.106	-0.077
-741.112	286.211	-0.100	-0.181
-740.098	79.960	-0.159	0.172
-739.083	-151.435	0.218	0.016
-738.069	-89.597	0.325	0.096
-737.054	-200.000	0.008	0.239
-736.039	139.137	-0.094	-0.125
-735.025	-7.464	-0.089	0.061
-734.010	-200.000	-0.020	-0.099
-732.996	-200.000	-0.015	0.121
-731.981	-200.000	-0.095	0.442
-730.966	82.183	-0.321	-0.351
-729.952	30.529	0.117	0.101
-728.937	324.292	-0.107	-0.205
-727.923	-200.000	-0.018	-0.149
-726.908	-200.000	-0.016	-0.149
-725.894	264.493	0.168	-0.294
-724.879	86.882	0.090	-0.100
-723.864	-114.818	-0.228	0.044
-722.850	-136.382	0.536	-0.063
-721.835	-200.000	-0.061	-0.325
-720.821	-200.000	-0.010	-0.087
-719.806	800.000	0.042	-0.134
-718.791	800.000	-0.033	0.134
-717.777	-135.972	-0.114	0.013
-716.762	-4.221	0.155	0.108
-715.748	-200.000	-0.020	0.149
-714.733	452.865	0.021	0.047
-713.718	800.000	-0.044	0.184
-712.704	800.000	-0.108	-0.402
-711.689	-200.000	-0.020	0.105
-710.675	-63.932	0.289	0.119
-709.660	79.210	-0.057	0.061
-708.645	-159.465	0.478	-0.027
-707.631	123.168	0.094	0.119
-706.616	299.186	0.188	-0.350
-705.602	453.212	-0.111	-0.247
-704.587	124.237	-0.070	0.089
-703.572	-144.094	-0.150	-0.014
-702.558	-138.207	-0.144	0.016
-701.543	-113.732	0.064	-0.012
-700.529	585.917	-0.161	-0.398
-699.514	-172.487	0.218	0.007
-698.499	406.619	-0.127	-0.270
-697.485	-148.795	-0.575	-0.047
-696.470	-59.376	-0.121	0.052
-695.456	-67.248	-0.147	0.058
-694.441	-69.786	-0.249	-0.096
-693.426	800.000	0.028	-0.108
-692.412	-200.000	0.006	-0.121
-691.397	-24.399	-0.178	-0.107
-690.383	28.411	0.303	0.258
-689.368	-106.562	-0.218	-0.049
-688.354	-200.000	0.029	-0.229
-687.339	-23.111	-0.138	0.084
-686.324	0.293	0.110	0.079
-685.310	314.316	-0.144	0.272
-684.295	-63.722	0.019	0.008
-683.281	-200.000	-0.010	0.118
-682.266	-72.623	0.113	0.042
-681.251	331.978	0.056	-0.108
-680.237	-68.299	-0.242	-0.095
-679.222	39.324	-0.095	0.086
-678.208	-4.631	0.040	0.028
-677.193	-65.769	0.110	0.044
-676.178	-4.890	-0.089	0.061
-675.164	60.990	-0.148	-0.148
-674.149	-3.121	-0.067	-0.047
-673.135	516.923	-0.134	0.317
-672.120	-112.655	-0.148	0.030
-671.105	-94.163	-0.173	0.048
-670.091	-145.065	0.214	0.020
-669.076	-62.157	-0.196	0.082
-668.062	-92.445	-0.012	-0.003
-667.047	-200.000	0.012	-0.136
-666.032	182.574	0.192	0.285
-665.018	507.247	-0.046	-0.106
-664.003	-192.109	-0.186	0.002
-662.989	-200.000	-0.020	0.364
-661.974	-170.955	-0.221	0.008
-660.959	146.198	0.019	-0.026
-659.945	-67.320	-0.218	0.086
-658.930	-62.443	0.158	-0.066
-657.916	274.515	-0.163	0.290
-656.901	800.000	0.043	0.155
-655.886	800.000	-0.049	-0.203
-654.872	-96.562	-0.097	0.026
-653.857	101.155	-0.303	-0.354
-652.843	-77.344	0.267	0.093
-651.828	194.058	0.195	0.298
-650.814	-200.000	0.074	0.355
-649.799	33.368	-0.067	-0.058
-648.784	-200.000	0.014	-0.307
-647.770	-123.753	0.080	-0.013
-646.755	141.670	0.208	-0.278
-645.741	-61.414	0.238	-0.101
-644.726	-126.816	0.149	-0.022
-643.711	-200.000	0.006	-0.146
-642.697	299.329	-0.155	-0.287
-641.682	-44.172	0.288	0.145
-640.668	-147.971	-0.220	0.018
-639.653	-54.223	0.076	-0.035
-638.638	476.593	0.030	-0.068
-637.624	-70.826	-0.325	-0.123
-636.609	-200.000	0.022	-0.391
-635.595	186.629	0.010	-0.014
-634.580	-200.000	0.024	0.284
-633.565	-200.000	-0.069	-0.335
-632.551	-12.149	0.201	-0.132
-631.536	-40.872	-0.343	0.178
-630.522	-200.000	0.044	0.223
-629.507	106.699	0.035	-0.041
-628.492	-58.161	0.513	-0.224
-627.478	800.000	0.085	-0.367
-626.463	-147.646	-0.338	-0.029
-625.449	-98.918	-0.135	-0.034
-624.434	-200.000	0.040	-0.375
-623.419	-74.369	-0.190	-0.069
-622.405	-121.211	-0.104	0.017
-621.390	-149.044	0.106	-0.009
-620.376	-35.393	0.130	0.071
-619.361	-157.183	0.297	0.018
-618.346	383.956	0.093	-0.192
-617.332	75.337	0.259	-0.274
-616.317	-200.000	-0.043	0.244
-615.303	-200.000	-0.014	0.333
-614.288	167.679	0.231	-0.329
-613.273	278.829	-0.269	0.482
-612.259	-9.297	-0.196	0.131
-611.244	-31.629	0.237	-0.134
-610.230	-200.000	-0.047	-0.319
-609.215	-200.000	0.003	0.160
-608.201	800.000	0.044	0.142
-607.186	-173.960	-0.461	-0.014
-606.171	-35.895	-0.220	0.120
-605.157	132.484	-0.086	-0.112
-604.142	-200.000	0.002	-0.156
-603.128	800.000	0.019	0.081
-602.113	243.270	-0.029	0.049
-601.098	400.554	-0.217	0.457
-600.084	-200.000	0.024	0.185
-599.069	-77.439	-0.127	-0.044
-598.055	82.857	0.098	0.107
-597.040	-28.877	0.122	0.070
-596.025	-71.276	-0.146	-0.055
-595.011	-65.647	-0.199	0.080
-593.996	-115.492	0.315	0.059
-592.982	-60.116	-0.231	-0.099
-591.967	-164.306	0.144	0.007
-590.952	-100.505	-0.090	-0.022
-589.938	92.166	0.259	0.292
-588.923	-200.000	0.035	-0.181
-587.909	19.711	-0.205	0.165
-586.894	-62.035	-0.135	0.057
-585.879	800.000	0.100	-0.281
-584.865	-58.575	-0.375	-0.163
-583.850	276.378	-0.055	0.098
-582.836	739.504	0.008	-0.021
-581.821	-72.922	-0.278	-0.102
-580.806	238.339	-0.159	0.265
-579.792	276.465	0.122	0.218
-578.777	-200.000	0.028	0.159
-577.763	-9.718	-0.326	0.218
-576.748	70.070	0.187	0.193
-575.733	-88.576	-0.064	-0.019
-574.719	36.211	0.111	-0.098
-573.704	-200.000	0.026	-0.143
-572.690	-161.790	0.201	-0.010
-571.675	-74.950	0.278	0.100
-570.661	330.151	-0.129	-0.249
-569.646	77.185	-0.078	0.083
-568.631	25.727	0.155	-0.129
-567.617	29.220	-0.062	0.053
-566.602	-200.000	0.023	-0.115
-565.588	79.980	0.245	0.264
-564.573	800.000	-0.095	0.333
-563.558	-88.318	-0.073	-0.022
-562.544	-67.487	0.225	-0.088
-561.529	-34.723	-0.137	-0.075
-560.515	32.067	0.141	0.122
-559.500	-200.000	-0.038	0.247
-558.485	-125.385	-0.304	-0.046
-557.471	-74.537	0.125	-0.045
-556.456	-23.956	-0.289	0.173
-555.442	-15.245	0.296	0.189
-554.427	-115.513	-0.260	-0.049
-553.412	-86.347	0.278	-0.086
-552.398	-138.387	0.266	0.029
-551.383	-200.000	-0.011	0.229
-550.369	-75.512	-0.406	-0.145
-549.354	186.471	-0.051	0.076
-548.339	-1.640	0.292	-0.206
-547.325	-200.000	0.009	-0.310
-546.310	-139.592	-0.178	0.019
-545.296	-36.187	-0.187	0.101
-544.281	84.230	0.058	-0.063
-543.266	-5.407	-0.281	-0.193
-542.252	344.477	-0.113	0.222
-541.237	359.551	0.067	0.134
-540.223	23.615	-0.214	0.177
-539.208	800.000	0.096	0.293
-538.193	103.253	-0.197	-0.231
-537.179	-200.000	-0.003	-0.085
-536.164	800.000	0.061	0.199
-535.150	205.973	0.142	-0.220
-534.135	49.185	0.233	0.220
-533.121	148.190	0.035	-0.048
-532.106	17.958	-0.201	0.160
-531.091	96.135	-0.125	-0.143
-530.077	-200.000	-0.021	0.168
-529.062	-74.892	-0.058	0.021
-528.048	17.055	-0.159	-0.126
-527.033	137.034	-0.128	0.167
-526.018	291.005	0.080	0.145
-525.004	800.000	0.078	-0.327
-523.989	-4.577	0.172	0.119
-522.975	-200.000	-0.041	0.235
-521.960	170.951	-0.256	0.367
-520.945	2.929	0.072	0.052
-519.931	161.868	-0.106	-0.148
-518.916	-26.386	-0.207	-0.121
-517.902	185.041	0.033	0.049
-516.887	98.879	0.145	0.167
-515.872	187.045	-0.200	-0.299
-514.858	-200.000	0.027	0.123
-513.843	-65.907	-0.073	0.029
-512.829	-200.000	-0.052	0.271
-511.814	-200.000	-0.022	-0.260
-510.799	163.994	-0.033	-0.047
-509.785	-107.365	-0.058	0.013
-508.770	-13.764	-0.138	0.089
-507.756	-44.216	-0.280	-0.140
-506.741	-110.684	0.239	-0.049
-505.726	-31.786	0.335	0.188
-504.712	120.514	-0.091	-0.113
-503.697	-26.988	-0.224	-0.130
-502.683	258.980	-0.164	-0.282
-501.668	-7.404	0.203	-0.137
-500.653	122.380	0.104	0.129
-499.639	-7.018	-0.427	-0.290
-498.624	42.650	-0.092	-0.084
-497.610	-200.000	0.003	-0.070
-496.595	3.205	0.127	0.093
-495.581	800.000	0.091	0.290
-494.566	389.607	-0.152	0.315
-493.551	50.625	0.058	-0.055
-492.537	129.405	0.123	-0.156
-491.522	-200.000	0.041	-0.206
-490.508	15.517	-0.098	0.077
-489.493	800.000	-0.038	0.144
-488.478	-26.315	0.188	0.110
-487.464	-91.314	-0.066	-0.019
-486.449	-77.245	0.081	0.028
-485.435	800.000	-0.069	0.225
-484.420	800.000	-0.048	0.140
-483.405	-200.000	-0.016	-0.181
-482.391	11.409	0.162	-0.124
-481.376	-90.358	0.031	-0.009
-480.362	-36.689	-0.148	0.079
-479.347	331.404	-0.044	0.084
-478.332	58.612	-0.266	0.261
-477.318	-53.999	0.096	-0.043
-476.303	-175.918	0.202	-0.005
-475.289	209.353	-0.080	-0.125
-474.274	146.256	-0.240	-0.322
-473.259	-200.000	-0.076	-0.434
-472.245	800.000	-0.030	0.132
-471.230	-39.625	0.321	0.168
-470.216	325.890	0.125	0.238
-469.201	165.385	0.196	-0.276
-468.186	679.590	-0.024	-0.063
-467.172	-200.000	0.000	0.352
-466.157	324.208	0.092	-0.176
-465.143	22.954	-0.241	0.197
-464.128	493.546	0.162	0.372
-463.113	-121.772	-0.135	-0.022
-462.099	74.542	0.257	0.269
-461.084	-77.564	0.128	-0.044
-460.070	-84.487	-0.228	-0.072
-459.055	-46.040	-0.284	0.140
-458.040	-200.000	0.067	0.307
-457.026	800.000	0.119	0.379
-456.011	248.248	-0.047	-0.079
-454.997	800.000	0.043	0.134
-453.982	-26.586	-0.308	0.180
-452.968	-14.055	0.207	-0.134
-451.953	149.264	-0.219	-0.296
-450.938	94.187	-0.026	0.029
-449.924	-59.320	0.160	-0.069
-448.909	167.451	-0.029	-0.041
-447.895	-122.776	-0.098	0.016
-446.880	-17.011	-0.322	0.203
-445.865	570.661	-0.125	-0.304
-444.851	114.973	-0.157	0.191
-443.836	153.669	-0.103	0.141
-442.822	134.746	-0.084	0.109
-441.807	-3.485	0.143	-0.099
-440.792	-200.000	0.063	-0.414
-439.778	404.071	0.067	0.141
-438.763	-22.997	-0.145	-0.087
-437.749	-200.000	-0.011	0.053
-436.734	348.668	-0.095	-0.187
-435.719	-200.000	0.041	-0.222
-434.705	-200.000	0.131	0.000
-433.690	663.446	0.090	-0.231
-432.676	84.802	-0.174	-0.190
-431.661	-200.000	0.075	-0.431
-430.646	-200.000	-0.071	0.343
-429.632	-200.000	-0.049	-0.274
-428.617	-138.763	-0.411	0.045
-427.603	-3.917	0.185	-0.128
-426.588	-115.496	0.085	0.016
-425.573	-200.000	-0.031	-0.163
-424.559	800.000	0.094	-0.389
-423.544	-200.000	0.031	-0.286
-422.530	740.212	-0.118	-0.317
-421.515	-144.638	0.507	0.047
-420.500	-88.117	0.083	0.025
-419.486	68.279	-0.153	0.156
-418.471	-200.000	0.012	0.104
-417.457	-53.261	-0.282	0.129
-416.442	35.948	0.084	0.074
-415.428	-40.963	-0.074	-0.038
-414.413	-137.259	0.119	0.014
-413.398	-163.540	-0.113	0.005
-412.384	83.333	-0.367	-0.399
-411.369	30.998	0.069	0.059
-410.355	-119.779	0.148	-0.025
-409.340	159.891	-0.155	-0.215
-408.325	185.567	-0.035	0.052
-407.311	800.000	0.051	-0.185
-406.296	116.680	-0.062	0.075
-405.282	498.309	-0.049	-0.112
-404.267	-12.836	0.205	-0.133
-403.252	27.790	0.149	-0.125
-402.238	800.000	-0.103	-0.313
-401.223	137.513	-0.110	-0.143
-400.209	-129.725	-0.270	0.037
-399.194	-60.006	0.078	-0.033
-398.179	800.000	-0.068	0.192
-397.165	235.739	0.076	0.125
-396.150	-35.869	0.076	-0.041
-395.136	-21.510	-0.276	0.168
-394.121	-200.000	0.021	-0.203
-393.106	166.591	-0.319	0.450
-392.092	-72.003	0.170	-0.063
-391.077	566.860	0.107	0.260
-390.063	135.296	-0.209	-0.271
-389.048	151.007	-0.062	-0.084
-388.033	800.000	-0.027	0.080
-387.019	-200.000	-0.008	0.074
-386.004	23.479	0.104	0.085
-384.990	487.613	0.050	0.115
-383.975	60.752	0.133	0.131
-382.960	-60.390	-0.133	0.056
-381.946	-98.063	-0.317	0.081
-380.931	-54.135	-0.187	0.084
-379.917	62.397	-0.254	0.252
-378.902	5.675	0.080	0.059
-377.888	8.229	0.110	-0.082
-376.873	-150.843	-0.170	-0.013
-375.858	800.000	-0.036	0.125
-374.844	800.000	-0.148	0.451
-373.829	-65.891	-0.373	-0.148
-372.815	-112.897	-0.052	-0.010
-371.800	239.210	0.128	-0.211
-370.785	800.000	0.058	-0.191
-369.771	800.000	-0.041	0.159
-368.756	-200.000	-0.072	-0.376
-367.742	-200.000	-0.033	-0.210
-366.727	759.520	0.131	-0.353
-365.712	129.996	0.238	-0.303
-364.698	6.039	-0.271	0.200
-363.683	-2.425	0.205	-0.143
-362.669	199.764	-0.071	-0.109
-361.654	404.448	-0.135	0.283
-360.639	-103.302	-0.119	-0.028
-359.625	-200.000	0.033	0.380
-358.610	-43.111	0.208	0.105
-357.596	-200.000	0.310	0.001
-356.581	103.891	0.100	0.116
-355.566	800.000	-0.111	-0.334
-354.552	133.514	0.225	-0.289
-353.537	-200.000	0.043	-0.201
-352.523	9.002	-0.143	-0.107
-351.508	800.000	-0.022	-0.078
-350.493	41.572	0.222	-0.200
-349.479	-127.409	-0.176	0.025
-348.464	-200.000	-0.042	0.266
-347.450	0.524	0.270	0.191
-346.435	-64.697	0.173	0.070
-345.420	-121.770	0.195	-0.032
-344.406	-182.466	0.042	-0.001
-343.391	-15.498	0.394	0.250
-342.377	-109.050	-0.043	0.009
-341.362	-144.867	0.209	0.019
-340.348	-116.777	-0.402	-0.073
-339.333	19.869	0.270	0.216
-338.318	42.648	0.151	0.136
-337.304	-200.000	0.025	-0.329
-336.289	135.880	-0.179	0.231
-335.275	94.489	0.205	0.232
-334.260	136.305	0.128	-0.166
-333.245	-115.452	0.119	-0.022
-332.231	-200.000	-0.024	0.370
-331.216	-200.000	-0.030	-0.309
-330.202	-118.790	-0.527	-0.092
-329.187	282.678	-0.094	0.167
-328.172	-31.865	0.053	-0.030
-327.158	17.579	-0.218	0.172
-326.143	-18.309	0.185	-0.115
-325.129	-90.869	-0.132	-0.038
-324.114	2.515	-0.196	0.141
-323.099	324.460	0.034	0.065
-322.085	-24.631	0.192	-0.113
-321.070	-30.061	-0.384	-0.217
-320.056	-121.793	0.253	0.042
-319.041	75.174	0.085	-0.089
-318.026	-200.000	-0.018	-0.086
-317.012	-200.000	-0.019	0.115
-315.997	-1.008	0.172	-0.121
-314.983	531.458	-0.121	0.283
-313.968	-70.993	-0.196	0.073
-312.953	482.304	0.013	0.030
-311.939	-136.354	-0.260	0.030
-310.924	-46.787	-0.207	-0.100
-309.910	454.845	-0.097	-0.214
-308.895	140.107	0.093	-0.122
-307.880	-95.394	0.568	0.151
-306.866	-3.699	0.082	-0.056
-305.851	-98.935	0.046	0.012
-304.837	-104.433	0.085	0.019
-303.822	800.000	0.011	-0.048
-302.807	-108.070	-0.283	-0.061
-301.793	747.458	0.063	0.168
-300.778	46.495	0.084	-0.077
-299.764	-200.000	-0.001	0.070
-298.749	-0.850	0.049	-0.034
-297.735	15.666	-0.322	0.251
-296.720	-132.903	0.277	0.035
-295.705	124.798	-0.142	-0.177
-294.691	561.720	0.080	0.193
-293.676	-116.981	0.060	0.011
-292.662	-58.467	0.309	-0.133
-291.647	112.633	-0.143	0.172
-290.632	1.813	0.236	0.169
-289.618	-139.789	-0.056	0.006
-288.603	-159.428	-0.113	0.006
-287.589	-152.113	-0.195	0.014
-286.574	51.278	0.295	-0.278
-285.559	800.000	-0.057	-0.187
-284.545	800.000	0.080	-0.346
-283.530	-35.640	0.236	-0.127
-282.516	800.000	0.042	0.167
-281.501	-43.106	-0.226	-0.113
-280.486	-42.136	-0.089	0.045
-279.472	179.586	-0.234	0.339
-278.457	-0.736	-0.300	-0.211
-277.443	239.018	-0.121	-0.200
-276.428	-18.276	-0.355	0.220
-275.413	-99.240	0.331	-0.083
-274.399	-200.000	-0.063	-0.297
-273.384	312.823	-0.138	-0.256
-272.370	304.983	0.143	0.264
-271.355	-28.694	0.066	-0.038
-270.340	-94.794	0.177	0.048
-269.326	-121.854	0.200	-0.033
-268.311	-143.192	0.176	-0.017
-267.297	-200.000	-0.044	0.306
-266.282	673.921	-0.043	0.110
-265.267	800.000	0.028	-0.092
-264.253	8.727	0.279	0.208
-263.238	-200.000	-0.003	-0.236
-262.224	611.245	-0.039	0.097
-261.209	800.000	-0.064	-0.278
-260.195	-200.000	0.049	-0.306
-259.180	187.062	0.121	0.179
-258.165	-173.008	0.499	-0.015
-257.151	19.628	0.075	0.060
-256.136	800.000	0.140	0.406
-255.122	250.812	0.130	-0.218
-254.107	-186.500	-0.253	0.004
-253.092	800.000	0.032	0.118
-252.078	-200.000	0.013	-0.093
-251.063	113.115	-0.245	0.295
-250.049	210.121	-0.190	-0.294
-249.034	800.000	0.095	0.338
-248.019	-200.000	-0.061	0.365
-247.005	117.472	-0.013	-0.016
-245.990	158.027	-0.138	-0.189
-244.976	800.000	-0.108	0.299
-243.961	800.000	-0.129	0.356
-242.946	-17.767	-0.342	0.212
-241.932	-152.231	0.340	-0.024
-240.917	-24.369	0.201	0.119
-239.903	-200.000	0.022	0.260
-238.888	-138.684	-0.237	0.026
-237.873	-200.000	0.039	0.379
-236.859	-4.485	0.210	0.144
-235.844	-200.000	0.349	0.001
-234.830	-143.188	-0.144	-0.014
-233.815	193.015	-0.025	0.037
-232.800	209.723	-0.182	0.283
-231.786	-88.717	-0.165	-0.049
-230.771	-4.935	0.273	-0.186
-229.757	141.188	-0.043	0.056
-228.742	-200.000	-0.036	-0.369
-227.727	-89.744	0.280	-0.081
-226.713	-115.427	0.321	0.060
-225.698	800.000	0.063	0.241
-224.684	800.000	-0.114	-0.402
-223.669	-132.649	0.159	-0.020
-222.655	-200.000	0.030	0.233
-221.640	61.048	0.179	-0.176
-220.625	-200.000	-0.068	0.300
-219.611	-47.697	-0.396	0.190
-218.596	-200.000	0.026	0.123
-217.582	-101.020	0.226	0.055
-216.567	-164.662	-0.014	-0.001
-215.552	-22.153	0.318	-0.191
-214.538	-200.000	0.019	-0.245
-213.523	-47.551	0.082	0.039
-212.509	-45.363	0.227	-0.111
-211.494	238.232	0.197	-0.324
-210.479	10.450	-0.380	0.286
-209.465	-200.000	0.003	-0.014
-208.450	33.505	-0.198	-0.170
-207.436	-7.816	0.297	0.198
-206.421	800.000	-0.041	-0.118
-205.406	97.320	0.132	0.150
-204.392	-200.000	-0.031	-0.224
-203.377	-74.040	0.287	-0.103
-202.363	268.084	-0.170	-0.293
-201.348	-44.845	-0.370	0.182
-200.333	58.239	0.260	0.252
-199.319	-134.582	-0.326	0.039
-198.304	-200.000	-0.002	0.049
-197.290	-200.000	0.004	-0.078
-196.275	800.000	-0.144	-0.461
-195.260	458.003	0.125	0.274
-194.246	-170.932	-0.076	-0.003
-193.231	-32.879	-0.286	0.157
-192.217	197.617	-0.175	0.264
-191.202	-200.000	-0.013	-0.159
-190.187	-66.958	-0.067	-0.026
-189.173	800.000	-0.038	-0.152
-188.158	267.679	0.151	0.262
-187.144	-23.387	-0.250	-0.148
-186.129	771.173	0.019	0.051
-185.114	50.499	0.315	0.294
-184.100	-1.644	0.347	0.242
-183.085	-126.432	0.146	0.022
-182.071	-200.000	-0.016	-0.088
-181.056	141.290	-0.148	-0.193
-180.042	29.248	-0.209	0.175
-179.027	800.000	-0.108	-0.378
-178.012	326.795	0.046	0.088
-176.998	-82.302	0.179	0.058
-175.983	231.131	0.065	-0.105
-174.969	-117.862	0.290	-0.051
-173.954	-94.289	0.345	0.093
-172.939	-200.000	0.043	-0.227
-171.925	-65.985	0.217	-0.086
-170.910	668.717	0.117	-0.299
-169.896	-81.867	0.126	-0.041
-168.881	33.123	-0.149	0.127
-167.866	112.498	0.264	-0.315
-166.852	1.895	0.158	0.113
-165.837	-50.690	0.135	0.063
-164.823	209.297	0.069	-0.107
-163.808	-160.597	-0.129	0.007
-162.793	-41.591	-0.055	0.028
-161.779	-23.103	0.042	-0.025
-160.764	-35.962	0.080	0.043
-159.750	-26.303	0.404	-0.234
-158.735	-100.883	0.057	-0.014
-157.720	227.020	0.075	-0.121
-156.706	-76.401	0.376	0.131
-155.691	664.431	0.105	0.267
-154.677	-200.000	0.011	0.074
-153.662	-153.010	-0.176	-0.012
-152.647	-152.716	0.063	-0.004
-151.633	115.005	-0.163	-0.197
-150.618	-50.526	0.187	0.087
-149.604	-154.159	0.122	0.008
-148.589	800.000	-0.059	-0.235
-147.574	93.062	0.051	0.056
-146.560	417.721	-0.117	0.247
-145.545	800.000	0.079	-0.259
-144.531	800.000	0.082	0.266
-143.516	80.263	0.064	-0.068
-142.502	-200.000	-0.031	0.329
-141.487	180.745	0.021	0.030
-140.472	42.044	-0.120	0.107
-139.458	196.953	0.054	0.081
-138.443	439.131	-0.085	-0.183
-137.429	-200.000	-0.047	0.251
-136.414	-174.546	-0.259	0.007
-135.399	-137.908	-0.118	0.013
-134.385	-0.264	0.268	0.188
-133.370	311.908	0.020	-0.037
-132.356	-158.337	-0.407	0.023
-131.341	729.468	0.202	0.533
-130.326	92.576	-0.131	-0.146
-129.312	82.827	-0.083	0.088
-128.297	-88.575	0.246	0.072
-127.283	152.860	0.034	0.046
-126.268	285.731	-0.063	-0.112
-125.253	-28.501	-0.226	-0.129
-124.239	-42.459	-0.041	0.020
-123.224	-200.000	-0.022	0.280
-122.210	102.619	0.366	0.422
-121.195	-37.432	0.286	-0.151
