DTS Sentinel unit serial number:	SN413079Multiplexer serial number:	ORYXHardware model number:	OX4-SRSoftware version number:	ORYX F/W v4.00 Oryx Data Collector v3.7.2.0data status	okinstallation	princeton_trtdifferential loss correction	single-endedforward channel	channel 1reverse channel	N/Adate	2019/09/16time	20:30:35forward acquisition time	60.00reverse acquisition time	0.00gamma	496.2192k internal	0.2323k external	0.2323temperature offset calibration	0.9949default loss term (dB/km)	0.3790temperature slope calibration	1.0000multiplexer offset coefficient	1.0000multiplexer slope coefficient	1.0000fibre end	0.00T internal ref (°C)	32.62T ext. ref 1 (°C)	0.07T ext. ref 2 (°C)	26.59length (m)	temperature (°C)	Stokes	anti-Stokes-747.200	-200.000	0.046	-0.243
-746.185	131.882	-0.192	0.250
-745.171	-99.648	-0.170	-0.043
-744.156	-25.948	0.263	-0.156
-743.142	104.286	-0.019	0.023
-742.127	-200.000	-0.060	0.379
-741.112	129.521	-0.301	0.389
-740.098	548.813	0.106	0.256
-739.083	-42.161	-0.347	0.179
-738.069	436.737	-0.017	-0.038
-737.054	800.000	-0.043	0.147
-736.039	-182.286	-0.292	0.005
-735.025	502.533	0.120	0.280
-734.010	-154.109	-0.258	0.018
-732.996	-149.097	-0.126	-0.010
-731.981	473.764	0.102	-0.232
-730.966	-93.970	-0.123	0.034
-729.952	-171.326	0.158	0.005
-728.937	361.803	0.122	0.246
-727.923	-200.000	0.009	-0.225
-726.908	44.372	-0.150	-0.139
-725.894	385.595	0.112	-0.233
-724.879	-200.000	-0.026	0.219
-723.864	-173.873	-0.319	-0.010
-722.850	800.000	0.040	-0.130
-721.835	215.929	0.067	-0.107
-720.821	-200.000	0.032	0.242
-719.806	89.519	-0.250	0.282
-718.791	800.000	0.062	-0.175
-717.777	261.972	-0.170	-0.297
-716.762	148.475	-0.170	0.232
-715.748	126.828	-0.259	0.332
-714.733	-8.376	0.105	0.071
-713.718	800.000	-0.165	0.472
-712.704	-46.936	0.041	0.020
-711.689	-135.415	0.078	-0.009
-710.675	-6.028	0.107	-0.074
-709.660	164.420	-0.091	-0.130
-708.645	-200.000	0.014	0.204
-707.631	-129.905	-0.238	-0.033
-706.616	-6.681	0.145	-0.099
-705.602	383.861	-0.069	-0.142
-704.587	-48.606	-0.429	-0.208
-703.572	-200.000	0.040	-0.178
-702.558	-84.296	0.179	0.057
-701.543	-81.824	0.237	0.078
-700.529	-200.000	-0.001	-0.427
-699.514	-164.942	-0.247	-0.011
-698.499	-132.510	0.149	-0.019
-697.485	-200.000	0.020	-0.162
-696.470	693.781	-0.097	0.257
-695.456	-131.068	-0.275	0.037
-694.441	800.000	-0.031	-0.125
-693.426	229.599	0.066	-0.109
-692.412	-28.609	-0.172	-0.100
-691.397	-113.630	-0.189	-0.037
-690.383	-107.434	0.405	-0.090
-689.368	-200.000	0.069	-0.397
-688.354	-81.143	0.215	0.072
-687.339	-68.252	0.108	0.042
-686.324	-200.000	0.021	-0.410
-685.310	-39.529	-0.231	-0.122
-684.295	-153.961	0.231	-0.016
-683.281	75.646	0.137	0.146
-682.266	7.127	0.187	0.140
-681.251	-66.215	0.312	0.125
-680.237	-64.725	-0.334	0.136
-679.222	-200.000	-0.037	-0.210
-678.208	-137.517	0.365	-0.042
-677.193	-200.000	-0.033	-0.209
-676.178	-104.401	-0.195	-0.045
-675.164	387.624	0.032	-0.067
-674.149	266.952	-0.065	-0.114
-673.135	-105.023	-0.407	-0.094
-672.120	20.273	-0.139	0.113
-671.105	165.069	0.080	-0.113
-670.091	772.809	-0.089	0.243
-669.076	800.000	0.065	0.250
-668.062	175.871	0.123	-0.180
-667.047	-200.000	0.051	-0.289
-666.032	-171.096	-0.449	0.015
-665.018	71.618	-0.073	0.076
-664.003	29.457	-0.278	0.238
-662.989	338.495	-0.137	0.268
-661.974	800.000	0.046	-0.167
-660.959	-52.254	0.244	0.114
-659.945	-200.000	0.039	0.175
-658.930	536.508	0.161	0.384
-657.916	-29.065	0.130	-0.075
-656.901	483.042	0.022	0.050
-655.886	-79.628	-0.074	0.025
-654.872	800.000	-0.030	0.097
-653.857	251.272	-0.124	0.212
-652.843	-80.770	0.324	-0.108
-651.828	-106.957	-0.167	-0.037
-650.814	289.855	-0.150	-0.275
-649.799	45.903	0.095	-0.088
-648.784	800.000	0.016	-0.067
-647.770	-59.180	-0.392	-0.170
-646.755	-89.382	-0.292	-0.087
-645.741	-117.760	-0.182	-0.033
-644.726	13.511	0.037	-0.029
-643.711	517.212	-0.096	0.225
-642.697	-54.148	0.142	-0.065
-641.682	25.105	0.099	-0.083
-640.668	9.366	-0.317	-0.241
-639.653	690.649	-0.103	0.271
-638.638	-150.072	0.176	0.014
-637.624	550.436	0.026	0.062
-636.609	-60.855	0.159	-0.068
-635.595	-106.217	0.083	0.019
-634.580	-96.516	-0.195	0.052
-633.565	36.730	0.104	-0.092
-632.551	45.360	0.084	0.077
-631.536	99.247	0.061	-0.071
-630.522	-32.886	0.174	0.097
-629.507	308.601	0.084	0.157
-628.492	199.790	0.143	-0.221
-627.478	328.394	-0.025	0.049
-626.463	-200.000	-0.024	0.109
-625.449	-200.000	0.003	0.019
-624.434	225.935	0.276	0.450
-623.419	4.510	0.302	0.223
-622.405	206.427	-0.093	-0.146
-621.390	800.000	0.033	-0.105
-620.376	318.347	-0.132	0.251
-619.361	-108.256	-0.271	0.059
-618.346	260.570	0.182	0.316
-617.332	-48.316	-0.130	-0.063
-616.317	800.000	0.073	0.260
-615.303	161.603	0.238	0.334
-614.288	323.381	-0.064	0.122
-613.273	-160.564	0.238	0.013
-612.259	-200.000	-0.026	0.269
-611.244	-200.000	0.014	-0.161
-610.230	-200.000	-0.014	0.096
-609.215	478.206	0.041	0.094
-608.201	-200.000	-0.026	-0.272
-607.186	-97.533	-0.146	-0.038
-606.171	65.973	-0.130	0.132
-605.157	-113.880	0.209	0.041
-604.142	-200.000	-0.034	0.271
-603.128	479.233	0.124	0.282
-602.113	-87.578	-0.189	0.057
-601.098	-121.552	0.335	-0.056
-600.084	576.340	0.045	0.110
-599.069	-86.401	-0.075	-0.023
-598.055	-15.037	-0.100	-0.064
-597.040	-200.000	-0.025	-0.181
-596.025	-152.092	-0.118	-0.009
-595.011	277.606	-0.058	0.103
-593.996	-200.000	-0.017	-0.215
-592.982	-127.531	0.370	-0.054
-591.967	27.723	-0.182	-0.154
-590.952	-21.612	-0.082	0.050
-589.938	-143.998	0.105	0.010
-588.923	273.331	-0.157	0.278
-587.909	-107.794	-0.112	-0.025
-586.894	357.876	0.043	0.086
-585.879	-70.023	-0.085	0.033
-584.865	525.348	0.129	-0.304
-583.850	140.602	-0.087	0.116
-582.836	800.000	-0.076	-0.268
-581.821	579.398	-0.118	0.290
-580.806	8.546	-0.263	-0.199
-579.792	-200.000	-0.016	-0.464
-578.777	450.866	0.147	-0.326
-577.763	20.553	-0.038	0.031
-576.748	800.000	-0.022	0.072
-575.733	218.831	-0.046	0.073
-574.719	169.052	0.158	-0.226
-573.704	800.000	0.078	-0.320
-572.690	800.000	0.094	-0.277
-571.675	-200.000	-0.036	0.192
-570.661	104.263	0.142	0.167
-569.646	-82.169	-0.174	-0.057
-568.631	594.467	-0.110	0.274
-567.617	449.311	0.118	-0.261
-566.602	-23.650	0.095	-0.057
-565.588	-27.944	-0.013	0.008
-564.573	800.000	-0.024	0.082
-563.558	-46.123	-0.283	-0.140
-562.544	800.000	0.043	0.181
-561.529	-70.214	-0.075	0.029
-560.515	113.429	0.118	-0.144
-559.500	-88.587	-0.316	0.094
-558.485	-166.681	-0.371	-0.015
-557.471	-7.052	-0.156	0.106
-556.456	118.426	0.024	-0.030
-555.442	203.543	0.163	-0.253
-554.427	-200.000	-0.028	-0.365
-553.412	-87.584	-0.127	-0.039
-552.398	113.507	-0.032	0.039
-551.383	800.000	0.041	-0.146
-550.369	127.371	-0.161	-0.205
-549.354	-79.629	0.076	0.026
-548.339	-95.158	-0.221	-0.060
-547.325	800.000	0.045	-0.143
-546.310	-66.937	0.060	-0.024
-545.296	25.431	0.164	0.137
-544.281	-164.988	0.093	0.004
-543.266	-134.590	-0.443	-0.054
-542.252	-3.991	-0.118	-0.082
-541.237	513.859	0.157	0.367
-540.223	-43.737	0.168	-0.085
-539.208	800.000	0.100	-0.334
-538.193	-10.632	-0.260	-0.172
-537.179	-150.641	0.210	-0.016
-536.164	-114.310	-0.121	-0.023
-535.150	332.239	0.088	-0.170
-534.135	106.139	0.084	0.100
-533.121	800.000	-0.169	-0.592
-532.106	364.392	0.049	0.098
-531.091	53.510	0.233	-0.223
-530.077	-151.686	0.219	-0.016
-529.062	-200.000	-0.040	-0.447
-528.048	37.107	0.026	0.023
-527.033	622.063	-0.043	-0.108
-526.018	800.000	-0.063	0.257
-525.004	133.624	-0.118	-0.153
-523.989	-130.109	-0.152	0.021
-522.975	-200.000	0.043	0.229
-521.960	-153.555	0.388	-0.027
-520.945	47.525	0.166	-0.155
-519.931	-55.440	-0.078	0.035
-518.916	295.808	-0.051	0.093
-517.902	409.630	0.117	0.248
-516.887	800.000	0.109	0.360
-515.872	600.497	0.144	-0.358
-514.858	164.410	0.079	-0.111
-513.843	59.807	0.174	0.172
-512.829	325.435	0.070	0.133
-511.814	-200.000	-0.004	0.128
-510.799	-52.661	0.253	0.117
-509.785	-96.383	0.099	0.026
-508.770	-200.000	-0.039	-0.192
-507.756	53.798	-0.363	0.348
-506.741	-131.620	0.307	0.040
-505.726	-120.858	-0.125	-0.021
-504.712	298.541	-0.065	-0.120
-503.697	800.000	-0.060	-0.239
-502.683	26.603	0.240	0.201
-501.668	-200.000	-0.003	0.131
-500.653	-180.008	-0.341	0.007
-499.639	-26.903	-0.303	-0.177
-498.624	72.703	-0.090	-0.094
-497.610	-110.585	0.354	0.073
-496.595	800.000	0.091	0.306
-495.581	-34.775	-0.019	-0.010
-494.566	238.656	-0.046	0.077
-493.551	-85.683	0.276	-0.086
-492.537	88.912	-0.067	-0.074
-491.522	679.681	0.138	-0.359
-490.508	16.662	-0.146	-0.115
-489.493	-200.000	0.011	0.322
-488.478	66.342	0.155	-0.157
-487.464	-42.079	0.237	0.121
-486.449	-24.391	-0.353	0.210
-485.435	208.032	0.135	0.211
-484.420	285.185	0.040	0.073
-483.405	800.000	-0.105	-0.403
-482.391	-73.666	-0.113	0.041
-481.376	-88.594	0.204	0.061
-480.362	-114.575	-0.157	-0.030
-479.347	-200.000	-0.383	-0.001
-478.332	-53.987	-0.029	0.013
-477.318	-144.376	-0.238	0.022
-476.303	-87.165	-0.155	-0.047
-475.289	-15.216	-0.339	0.217
-474.274	-200.000	0.011	0.268
-473.259	224.860	-0.084	-0.136
-472.245	-136.417	-0.175	-0.020
-471.230	-200.000	-0.009	-0.055
-470.216	100.411	-0.143	0.165
-469.201	655.743	0.037	-0.094
-468.186	467.505	0.041	-0.093
-467.172	800.000	-0.028	-0.113
-466.157	82.057	-0.243	-0.264
-465.143	-153.377	-0.116	0.008
-464.128	-200.000	0.021	-0.155
-463.113	800.000	0.115	-0.346
-462.099	-86.006	-0.448	0.138
-461.084	272.998	-0.147	-0.259
-460.070	172.679	-0.069	0.099
-459.055	-20.249	-0.290	-0.178
-458.040	-154.118	0.311	0.021
-457.026	604.613	-0.052	0.130
-456.011	-4.202	-0.108	-0.075
-454.997	116.658	0.153	-0.187
-453.982	274.621	-0.149	-0.264
-452.968	-71.325	0.280	-0.105
-451.953	192.384	-0.140	-0.210
-450.938	258.948	0.203	0.350
-449.924	-200.000	-0.025	0.122
-448.909	-200.000	-0.005	0.128
-447.895	-200.000	0.064	-0.318
-446.880	65.155	-0.084	0.085
-445.865	199.069	-0.043	-0.065
-444.851	74.621	-0.184	-0.193
-443.836	-141.434	0.204	-0.021
-442.822	26.522	-0.175	-0.147
-441.807	-8.465	0.226	-0.152
-440.792	59.205	0.154	-0.152
-439.778	85.489	-0.086	-0.094
-438.763	-30.766	-0.184	0.104
-437.749	43.592	0.106	-0.097
-436.734	160.464	-0.032	0.045
-435.719	-200.000	0.026	-0.162
-434.705	-55.760	-0.153	-0.068
-433.690	65.216	0.076	-0.077
-432.676	18.330	-0.177	0.141
-431.661	-200.000	-0.025	0.256
-430.646	-46.020	-0.243	0.120
-429.632	85.097	0.084	-0.092
-428.617	-5.590	0.070	-0.048
-427.603	578.203	-0.197	0.480
-426.588	-200.000	0.021	-0.173
-425.573	96.054	-0.277	0.315
-424.559	-136.263	-0.375	0.044
-423.544	-200.000	0.016	-0.260
-422.530	394.174	-0.138	0.287
-421.515	166.193	0.079	0.111
-420.500	-10.468	0.175	0.116
-419.486	290.017	-0.033	-0.059
-418.471	800.000	-0.086	-0.251
-417.457	-58.605	-0.150	0.065
-416.442	132.135	0.170	0.219
-415.428	-81.612	0.267	-0.087
-414.413	355.297	0.091	-0.181
-413.398	800.000	0.047	-0.173
-412.384	16.628	-0.222	0.175
-411.369	130.378	-0.115	-0.147
-410.355	-83.032	0.127	-0.041
-409.340	-9.201	0.085	0.057
-408.325	800.000	0.071	0.221
-407.311	-200.000	0.006	-0.208
-406.296	-200.000	-0.028	-0.304
-405.282	60.526	0.075	-0.074
-404.267	98.808	-0.086	-0.099
-403.252	-117.471	-0.347	0.063
-402.238	-200.000	-0.011	-0.134
-401.223	-80.006	-0.150	0.050
-400.209	60.525	0.204	-0.202
-399.194	-200.000	-0.012	-0.137
-398.179	-27.729	-0.153	-0.088
-397.165	446.737	-0.102	0.223
-396.150	718.737	-0.087	0.230
-395.136	-34.906	0.067	0.036
-394.121	58.315	-0.230	0.225
-393.106	-171.802	0.132	-0.004
-392.092	96.578	0.312	0.356
-391.077	-193.596	0.158	-0.001
-390.063	166.112	-0.042	0.059
-389.048	-179.799	-0.395	-0.008
-388.033	133.578	-0.062	0.080
-387.019	-90.268	0.203	-0.059
-386.004	92.353	-0.310	0.348
-384.990	-62.858	0.389	-0.160
-383.975	-200.000	0.011	-0.126
-382.960	-200.000	0.012	-0.167
-381.946	-140.395	-0.079	-0.008
-380.931	-200.000	0.036	-0.255
-379.917	-97.989	-0.342	-0.088
-378.902	-1.320	0.506	-0.355
-377.888	-128.993	-0.197	0.027
-376.873	-200.000	-0.003	0.054
-375.858	-200.000	0.076	-0.418
-374.844	361.348	-0.029	0.059
-373.829	14.070	0.127	-0.098
-372.815	-21.174	-0.063	0.038
-371.800	77.068	0.181	0.191
-370.785	699.433	0.062	0.163
-369.771	278.843	0.053	-0.094
-368.756	-97.525	0.249	0.064
-367.742	450.815	-0.056	0.123
-366.727	-95.792	-0.136	-0.036
-365.712	-179.875	-0.105	0.002
-364.698	373.953	-0.054	0.108
-363.683	750.090	-0.082	0.220
-362.669	-81.756	0.197	-0.064
-361.654	-77.529	0.224	-0.077
-360.639	-200.000	0.032	0.181
-359.625	-27.166	0.323	-0.188
-358.610	-117.279	-0.289	-0.052
-357.596	37.422	0.254	0.224
-356.581	149.044	0.244	0.329
-355.566	-200.000	-0.005	0.156
-354.552	-74.323	0.071	0.026
-353.537	233.556	0.143	0.234
-352.523	-82.688	0.142	0.046
-351.508	175.736	-0.153	0.220
-350.493	-7.121	-0.081	-0.055
-349.479	-200.000	0.045	0.257
-348.464	-156.337	0.112	-0.007
-347.450	-192.668	-0.161	-0.001
-346.435	341.568	0.029	0.057
-345.420	-200.000	-0.008	0.037
-344.406	103.616	-0.056	-0.065
-343.391	-113.192	-0.332	0.065
-342.377	372.287	0.151	0.306
-341.362	-101.834	0.127	-0.030
-340.348	-200.000	-0.104	0.506
-339.333	217.154	0.095	0.151
-338.318	180.652	-0.159	-0.232
-337.304	-66.184	-0.193	0.077
-336.289	22.268	-0.075	0.061
-335.275	54.823	0.095	-0.091
-334.260	-45.622	0.170	0.084
-333.245	107.485	-0.247	-0.293
-332.231	-167.431	0.365	0.015
-331.216	106.957	-0.257	-0.303
-330.202	-66.877	0.049	-0.019
-329.187	-190.294	0.246	0.003
-328.172	51.372	-0.188	-0.177
-327.158	623.541	0.124	-0.312
-326.143	79.006	-0.134	-0.143
-325.129	-200.000	0.035	-0.373
-324.114	-200.000	-0.023	-0.130
-323.099	666.500	0.184	0.471
-322.085	-111.108	0.337	0.069
-321.070	27.293	-0.177	-0.148
-320.056	422.507	0.026	-0.055
-319.041	52.465	0.109	-0.103
-318.026	-98.498	-0.199	0.051
-317.012	-151.746	0.158	-0.012
-315.997	800.000	0.086	-0.255
-314.983	-200.000	-0.001	-0.142
-313.968	-200.000	0.052	0.302
-312.953	800.000	-0.079	-0.326
-311.939	116.274	-0.107	0.130
-310.924	800.000	-0.045	-0.178
-309.910	330.910	-0.123	0.236
-308.895	-95.014	-0.219	0.059
-307.880	-106.125	0.441	0.098
-306.866	-200.000	0.037	-0.176
-305.851	-116.955	-0.196	-0.035
-304.837	-92.746	-0.260	0.072
-303.822	81.077	0.229	-0.245
-302.807	243.896	-0.164	0.273
-301.793	-105.722	0.138	0.031
-300.778	-200.000	0.020	0.107
-299.764	-200.000	-0.484	-0.001
-298.749	-59.033	-0.210	-0.090
-297.735	45.486	-0.137	0.126
-296.720	-200.000	0.035	0.294
-295.705	-119.125	-0.339	-0.059
-294.691	157.607	0.142	0.195
-293.676	169.872	-0.133	-0.189
-292.662	169.594	-0.155	0.220
-291.647	-19.314	0.083	-0.051
-290.632	189.028	0.167	0.248
-289.618	-116.933	-0.111	-0.020
-288.603	-181.957	0.212	-0.004
-287.589	524.459	0.083	-0.193
-286.574	424.404	0.054	0.116
-285.559	476.842	0.153	0.344
-284.545	-200.000	-0.033	-0.311
-283.530	-200.000	-0.018	0.130
-282.516	-69.386	0.240	-0.091
-281.501	171.966	0.028	-0.041
-280.486	146.610	-0.038	0.050
-279.472	109.266	0.054	-0.064
-278.457	-200.000	0.071	-0.000
-277.443	73.069	0.221	0.229
-276.428	161.752	0.066	0.091
-275.413	-109.242	0.179	0.038
-274.399	-50.367	0.258	0.121
-273.384	-26.308	0.111	-0.065
-272.370	-174.745	0.260	0.007
-271.355	800.000	-0.102	0.294
-270.340	268.299	-0.244	0.424
-269.326	430.000	-0.118	-0.253
-268.311	800.000	-0.071	-0.195
-267.297	274.573	-0.070	-0.122
-266.282	2.517	0.072	0.051
-265.267	-107.410	-0.107	0.023
-264.253	19.364	-0.139	0.111
-263.238	63.529	0.265	-0.264
-262.224	93.029	-0.124	-0.139
-261.209	-55.133	-0.499	0.223
-260.195	-200.000	-0.015	-0.225
-259.180	105.021	0.316	0.369
-258.165	131.129	-0.072	0.092
-257.151	-200.000	-0.010	-0.258
-256.136	800.000	-0.072	-0.217
-255.122	-126.601	-0.141	-0.021
-254.107	660.358	0.111	-0.283
-253.092	-93.644	0.156	0.043
-252.078	-15.785	0.128	-0.081
-251.063	-114.508	-0.103	-0.020
-250.049	-200.000	-0.077	0.424
-249.034	51.771	-0.187	0.176
-248.019	-200.000	-0.010	-0.195
-247.005	800.000	-0.020	0.084
-245.990	-200.000	0.047	-0.260
-244.976	153.800	0.041	-0.056
-243.961	-200.000	-0.016	-0.101
-242.946	-97.489	0.131	0.034
-241.932	551.785	-0.156	-0.371
-240.917	-101.084	0.052	-0.013
-239.903	128.949	0.101	-0.128
-238.888	210.743	0.140	0.217
-237.873	800.000	-0.065	-0.214
-236.859	-88.405	0.090	0.027
-235.844	148.169	0.030	-0.041
-234.830	-106.126	0.325	-0.072
-233.815	134.517	0.128	0.164
-232.800	23.111	0.229	0.186
-231.786	-200.000	0.027	0.250
-230.771	800.000	-0.081	0.290
-229.757	-63.759	-0.266	0.108
-228.742	-112.765	0.224	0.044
-227.727	-99.859	0.152	-0.038
-226.713	123.436	0.150	-0.186
-225.698	20.806	0.218	-0.175
-224.684	800.000	-0.039	-0.144
-223.669	106.859	0.269	-0.316
-222.655	55.506	-0.193	0.185
-221.640	28.740	0.194	0.163
-220.625	91.982	-0.133	-0.148
-219.611	413.790	0.086	0.181
-218.596	800.000	0.101	0.321
-217.582	-2.695	-0.078	-0.054
-216.567	-72.898	-0.189	0.069
-215.552	174.873	0.025	-0.036
-214.538	166.585	0.141	-0.198
-213.523	-121.574	0.325	-0.053
-212.509	800.000	0.039	-0.136
-211.494	-28.794	0.223	-0.127
-210.479	-200.000	0.051	-0.287
-209.465	531.530	-0.022	0.050
-208.450	800.000	0.024	0.092
-207.436	165.971	-0.051	0.071
-206.421	-53.462	0.197	0.089
-205.406	-200.000	0.002	-0.102
-204.392	800.000	0.096	-0.381
-203.377	190.702	0.049	0.074
-202.363	383.774	-0.072	-0.146
-201.348	-200.000	-0.032	0.162
-200.333	31.087	0.274	-0.232
-199.319	-138.162	0.112	-0.012
-198.304	166.561	0.227	0.318
-197.290	-8.048	-0.322	0.215
-196.275	-68.295	-0.216	-0.083
-195.260	217.261	-0.139	0.218
-194.246	-159.702	-0.324	-0.018
-193.231	103.753	0.072	-0.083
-192.217	323.502	0.092	0.174
-191.202	-69.196	0.059	0.023
-190.187	16.402	-0.252	-0.197
-189.173	613.763	-0.029	-0.072
-188.158	277.717	-0.183	0.322
-187.144	94.015	-0.027	-0.030
-186.129	564.399	0.054	-0.129
-185.114	-85.959	-0.343	0.105
-184.100	260.115	-0.072	-0.123
-183.085	800.000	0.084	-0.231
-182.071	144.259	0.075	0.099
-181.056	-65.768	-0.258	0.102
-180.042	79.340	-0.074	-0.079
-179.027	20.199	0.092	0.073
-178.012	541.027	0.020	0.046
-176.998	-53.293	0.180	0.082
-175.983	-200.000	0.044	-0.369
-174.969	-36.790	-0.145	0.077
-173.954	-26.279	0.119	0.069
-172.939	-200.000	-0.016	0.328
-171.925	-200.000	0.014	0.331
-170.910	485.541	-0.090	0.203
-169.896	-43.667	-0.322	-0.160
-168.881	-200.000	0.041	-0.221
-167.866	775.529	-0.030	-0.082
-166.852	-200.000	0.010	-0.211
-165.837	800.000	-0.098	0.352
-164.823	800.000	0.111	0.419
-163.808	-22.080	0.154	0.092
-162.793	202.643	-0.146	-0.222
-161.779	-106.167	0.163	0.036
-160.764	800.000	0.049	0.151
-159.750	-62.377	0.212	0.087
-158.735	-200.000	0.007	-0.034
-157.720	688.945	-0.070	-0.182
-156.706	100.815	0.082	-0.094
-155.691	-200.000	0.007	0.100
-154.677	45.883	0.070	-0.064
-153.662	9.585	0.219	0.164
-152.647	-35.686	0.257	0.137
-151.633	800.000	0.053	0.202
-150.618	-33.408	0.279	-0.152
-149.604	312.555	-0.189	0.350
-148.589	38.154	-0.189	0.166
-147.574	-134.196	0.055	-0.007
-146.560	-200.000	0.052	0.323
-145.545	452.124	0.063	0.137
-144.531	-130.395	0.242	-0.032
-143.516	-101.510	-0.316	-0.076
-142.502	425.489	-0.065	0.137
-141.487	-120.954	-0.207	0.034
-140.472	-1.482	-0.324	0.226
-139.458	14.360	0.122	-0.094
-138.443	175.489	-0.112	0.160
-137.429	270.671	-0.136	0.236
-136.414	144.960	-0.249	-0.329
-135.399	-108.562	-0.084	-0.018
-134.385	-200.000	-0.028	0.229
-133.370	770.770	0.180	-0.482
-132.356	-11.438	-0.139	-0.090
-131.341	-200.000	0.019	-0.220
-130.326	18.495	-0.024	0.019
-129.312	-58.381	0.319	-0.137
-128.297	79.095	0.093	0.098
-127.283	-76.394	0.250	0.087
-126.268	-17.035	-0.209	-0.130
-125.253	-100.036	0.165	0.041
-124.239	800.000	-0.047	-0.163
-123.224	-78.388	-0.228	0.077
-122.210	-40.742	0.299	-0.153
