DTS Sentinel unit serial number:	SN413079Multiplexer serial number:	ORYXHardware model number:	OX4-SRSoftware version number:	ORYX F/W v4.00 Oryx Data Collector v3.7.2.0data status	okinstallation	princeton_trtdifferential loss correction	single-endedforward channel	channel 1reverse channel	N/Adate	2019/09/13time	19:26:35forward acquisition time	60.00reverse acquisition time	0.00gamma	496.2192k internal	0.2327k external	0.2327temperature offset calibration	1.0098default loss term (dB/km)	0.3790temperature slope calibration	1.0000multiplexer offset coefficient	1.0000multiplexer slope coefficient	1.0000fibre end	0.00T internal ref (°C)	30.87T ext. ref 1 (°C)	3.50T ext. ref 2 (°C)	24.41length (m)	temperature (°C)	Stokes	anti-Stokes-747.200	-60.724	0.401	-0.171
-746.185	-42.497	-0.186	-0.096
-745.171	-82.459	0.248	-0.081
-744.156	-200.000	0.008	-0.118
-743.142	-91.176	-0.058	-0.017
-742.127	-97.513	-0.016	-0.004
-741.112	-9.485	0.153	-0.103
-740.098	-90.813	0.185	0.054
-739.083	93.211	0.139	-0.158
-738.069	-128.567	-0.587	-0.084
-737.054	89.971	0.145	0.164
-736.039	-124.421	-0.154	0.024
-735.025	39.976	-0.125	-0.113
-734.010	120.533	0.138	0.172
-732.996	800.000	0.002	0.009
-731.981	266.502	0.081	-0.142
-730.966	-81.622	-0.069	-0.023
-729.952	-83.644	0.155	0.050
-728.937	-200.000	0.052	-0.572
-727.923	800.000	0.043	-0.185
-726.908	-200.000	-0.001	0.222
-725.894	121.951	0.034	0.043
-724.879	-86.388	-0.110	-0.034
-723.864	43.958	0.107	-0.098
-722.850	-5.548	-0.106	0.073
-721.835	201.554	0.243	0.376
-720.821	149.915	-0.106	-0.145
-719.806	-200.000	0.058	0.301
-718.791	394.537	0.137	-0.287
-717.777	-200.000	-0.012	0.106
-716.762	43.175	-0.097	-0.089
-715.748	-200.000	0.020	0.176
-714.733	23.016	0.116	0.096
-713.718	93.145	-0.129	0.147
-712.704	201.652	-0.051	0.080
-711.689	-200.000	0.026	0.155
-710.675	-63.101	-0.432	0.180
-709.660	-200.000	-0.024	0.181
-708.645	92.867	-0.129	-0.147
-707.631	136.326	0.338	-0.444
-706.616	-166.195	0.092	0.004
-705.602	383.020	-0.187	-0.387
-704.587	-90.986	-0.167	-0.048
-703.572	-28.251	-0.157	-0.091
-702.558	487.037	0.037	-0.085
-701.543	-114.876	0.199	-0.038
-700.529	278.773	0.117	0.210
-699.514	18.805	-0.300	0.242
-698.499	-27.137	0.149	-0.088
-697.485	-64.341	0.413	0.169
-696.470	7.037	-0.048	0.036
-695.456	-200.000	-0.013	-0.203
-694.441	-60.921	-0.350	-0.149
-693.426	-200.000	0.072	-0.322
-692.412	800.000	-0.114	0.326
-691.397	157.341	-0.109	0.152
-690.383	99.298	-0.102	-0.119
-689.368	23.531	0.197	0.163
-688.354	800.000	-0.122	0.355
-687.339	-122.396	0.056	-0.009
-686.324	142.331	-0.048	0.064
-685.310	-99.436	-0.420	0.106
-684.295	-152.792	0.405	-0.029
-683.281	-46.257	-0.141	-0.070
-682.266	26.415	0.164	-0.138
-681.251	108.772	0.036	0.043
-680.237	30.492	-0.168	-0.144
-679.222	124.772	-0.090	0.114
-678.208	-29.402	-0.115	-0.066
-677.193	800.000	0.028	0.096
-676.178	-200.000	0.025	-0.206
-675.164	380.254	-0.142	-0.294
-674.149	-200.000	-0.046	-0.349
-673.135	-32.659	-0.301	-0.169
-672.120	800.000	-0.027	0.102
-671.105	-66.149	-0.136	0.055
-670.091	-69.539	-0.197	0.076
-669.076	-64.568	0.344	-0.140
-668.062	-150.155	-0.336	0.026
-667.047	8.549	0.062	-0.047
-666.032	-140.883	0.087	-0.009
-665.018	179.544	0.153	0.226
-664.003	-200.000	-0.067	0.419
-662.989	-89.856	0.097	0.029
-661.974	16.175	0.232	0.184
-660.959	-200.000	-0.004	-0.321
-659.945	42.489	0.131	-0.120
-658.930	-43.017	-0.153	-0.078
-657.916	800.000	0.026	-0.080
-656.901	44.645	0.174	0.161
-655.886	82.132	-0.115	0.125
-654.872	11.767	0.104	0.080
-653.857	-73.911	-0.111	0.041
-652.843	-200.000	-0.008	-0.313
-651.828	-43.448	0.266	0.135
-650.814	-200.000	-0.030	-0.172
-649.799	800.000	-0.021	-0.066
-648.784	800.000	-0.104	0.340
-647.770	-98.193	0.393	-0.102
-646.755	220.949	0.070	0.114
-645.741	-200.000	0.020	-0.246
-644.726	800.000	0.014	0.055
-643.711	65.495	0.098	-0.100
-642.697	83.329	0.090	-0.098
-641.682	-14.925	-0.181	0.116
-640.668	-29.274	-0.099	-0.057
-639.653	-2.689	0.104	0.073
-638.638	16.766	-0.247	0.196
-637.624	-52.232	0.200	0.093
-636.609	-200.000	-0.013	-0.086
-635.595	-87.360	-0.226	-0.069
-634.580	208.632	-0.212	-0.333
-633.565	-192.651	-0.155	-0.001
-632.551	765.191	0.088	-0.239
-631.536	256.625	0.120	-0.206
-630.522	-71.346	0.108	0.041
-629.507	-45.596	-0.397	-0.197
-628.492	385.392	-0.074	-0.154
-627.478	94.171	-0.144	0.164
-626.463	-200.000	-0.027	-0.120
-625.449	703.145	-0.116	-0.307
-624.434	800.000	0.077	0.270
-623.419	-64.872	0.055	-0.022
-622.405	35.572	-0.184	0.162
-621.390	85.458	-0.210	0.231
-620.376	360.227	-0.034	0.068
-619.361	728.929	0.087	-0.234
-618.346	-150.817	-0.157	0.012
-617.332	-200.000	-0.005	0.284
-616.317	211.999	-0.201	0.317
-615.303	-21.119	-0.246	-0.151
-614.288	-66.354	-0.180	0.072
-613.273	17.963	-0.329	-0.263
-612.259	424.054	-0.048	0.104
-611.244	176.345	-0.152	-0.221
-610.230	-200.000	-0.022	0.205
-609.215	800.000	0.069	0.291
-608.201	800.000	0.076	0.264
-607.186	-200.000	0.061	-0.278
-606.171	-163.795	0.099	0.005
-605.157	620.393	0.007	0.019
-604.142	-14.984	0.094	0.060
-603.128	245.272	-0.120	-0.203
-602.113	4.328	0.061	-0.044
-601.098	-184.353	0.123	-0.002
-600.084	-200.000	-0.008	-0.258
-599.069	-37.244	0.099	0.053
-598.055	34.315	0.206	0.181
-597.040	800.000	-0.009	-0.033
-596.025	-121.791	0.184	0.030
-595.011	-102.035	-0.155	-0.037
-593.996	243.305	-0.047	0.080
-592.982	-200.000	-0.038	-0.228
-591.967	203.881	0.091	-0.142
-590.952	150.502	0.123	-0.167
-589.938	-200.000	-0.022	0.294
-588.923	-84.985	-0.208	-0.065
-587.909	-1.859	-0.239	-0.169
-586.894	6.912	0.287	0.214
-585.879	800.000	-0.062	0.209
-584.865	800.000	-0.056	0.232
-583.850	-200.000	0.020	-0.327
-582.836	24.020	0.217	-0.180
-581.821	266.805	0.156	-0.274
-580.806	-148.861	-0.283	-0.023
-579.792	-200.000	0.020	-0.130
-578.777	-44.878	0.238	-0.119
-577.763	90.455	0.142	0.159
-576.748	-33.188	-0.393	0.218
-575.733	500.196	-0.193	0.445
-574.719	-97.424	0.132	0.034
-573.704	-15.717	-0.119	-0.076
-572.690	-200.000	-0.066	-0.329
-571.675	-26.658	-0.218	0.128
-570.661	-200.000	0.031	-0.206
-569.646	361.046	0.093	-0.187
-568.631	460.436	-0.079	-0.177
-567.617	-30.557	0.281	-0.160
-566.602	-200.000	-0.002	-0.073
-565.588	578.651	0.128	0.313
-564.573	-66.274	0.335	0.134
-563.558	800.000	-0.096	-0.272
-562.544	663.483	0.129	-0.332
-561.529	-200.000	-0.020	0.202
-560.515	455.194	-0.089	0.196
-559.500	800.000	0.026	-0.109
-558.485	-200.000	-0.049	-0.251
-557.471	-139.533	-0.213	0.023
-556.456	-200.000	0.041	0.381
-555.442	-109.225	0.443	-0.094
-554.427	180.713	0.221	-0.324
-553.412	65.576	0.110	-0.111
-552.398	-29.907	0.239	0.136
-551.383	-191.927	0.189	0.002
-550.369	-59.315	0.548	0.236
-549.354	129.225	-0.085	0.108
-548.339	-54.604	0.335	-0.152
-547.325	800.000	-0.125	-0.374
-546.310	-47.966	-0.077	0.037
-545.296	-51.640	0.175	-0.081
-544.281	-200.000	0.035	0.400
-543.266	-140.823	0.439	-0.045
-542.252	-43.576	0.136	-0.068
-541.237	-154.599	0.284	0.019
-540.223	-200.000	-0.042	-0.315
-539.208	-37.685	0.096	-0.051
-538.193	50.583	-0.076	-0.072
-537.179	43.295	-0.089	-0.081
-536.164	227.898	-0.082	0.133
-535.150	-41.209	-0.331	0.170
-534.135	-71.328	0.199	-0.075
-533.121	800.000	0.057	-0.211
-532.106	-200.000	0.002	-0.113
-531.091	-73.860	0.247	0.090
-530.077	194.037	-0.177	0.268
-529.062	114.602	0.230	-0.281
-528.048	-200.000	-0.010	0.069
-527.033	-200.000	0.018	-0.212
-526.018	227.290	0.134	0.218
-525.004	-21.449	-0.279	0.170
-523.989	-57.589	-0.192	-0.084
-522.975	233.017	-0.190	0.312
-521.960	-45.018	0.099	-0.049
-520.945	146.455	-0.050	-0.067
-519.931	-200.000	0.007	-0.131
-518.916	-111.378	-0.240	-0.049
-517.902	-129.848	0.085	0.012
-516.887	800.000	-0.016	-0.067
-515.872	800.000	-0.105	-0.359
-514.858	-9.452	-0.074	-0.050
-513.843	262.164	-0.072	0.125
-512.829	67.620	-0.181	0.185
-511.814	143.547	0.129	0.172
-510.799	237.886	-0.142	-0.235
-509.785	-138.847	0.076	-0.008
-508.770	530.397	0.127	0.299
-507.756	9.989	0.297	-0.225
-506.741	-37.256	-0.053	0.029
-505.726	184.722	-0.006	-0.009
-504.712	800.000	0.037	-0.119
-503.697	-44.726	-0.098	-0.049
-502.683	-200.000	0.069	0.404
-501.668	88.397	-0.087	-0.097
-500.653	260.089	0.055	-0.094
-499.639	-114.415	0.311	-0.060
-498.624	315.488	0.112	-0.211
-497.610	-200.000	-0.052	-0.265
-496.595	-100.663	-0.458	0.113
-495.581	800.000	-0.057	-0.244
-494.566	-169.466	-0.442	-0.016
-493.551	56.917	-0.098	0.096
-492.537	-49.946	0.414	0.196
-491.522	10.117	-0.218	-0.166
-490.508	-200.000	-0.018	-0.208
-489.493	191.818	0.168	-0.253
-488.478	-200.000	-0.052	-0.422
-487.464	-15.994	-0.273	0.174
-486.449	241.714	0.061	-0.102
-485.435	-43.184	-0.046	0.023
-484.420	-164.298	0.294	-0.013
-483.405	123.771	-0.039	0.049
-482.391	800.000	0.093	-0.319
-481.376	474.332	-0.142	-0.319
-480.362	-120.794	0.349	-0.059
-479.347	800.000	-0.024	0.078
-478.332	-80.575	0.236	0.079
-477.318	-54.472	0.087	-0.039
-476.303	-156.636	-0.215	0.013
-475.289	310.281	-0.124	0.231
-474.274	-200.000	-0.005	0.094
-473.259	-50.878	0.234	0.110
-472.245	800.000	-0.030	-0.094
-471.230	1.508	-0.186	0.133
-470.216	800.000	-0.046	-0.165
-469.201	-29.935	0.130	-0.074
-468.186	59.127	0.149	0.146
-467.172	-102.462	-0.201	0.048
-466.157	800.000	-0.024	-0.075
-465.143	-141.173	-0.143	0.015
-464.128	800.000	-0.028	0.114
-463.113	-25.572	0.309	0.182
-462.099	0.906	0.299	-0.213
-461.084	117.656	0.321	-0.394
-460.070	-36.764	-0.127	0.068
-459.055	-71.314	-0.159	0.059
-458.040	-29.750	0.027	0.015
-457.026	46.373	-0.218	0.202
-456.011	410.939	0.100	-0.211
-454.997	349.180	0.077	-0.152
-453.982	127.305	-0.092	0.116
-452.968	170.312	-0.082	0.117
-451.953	112.640	-0.178	-0.214
-450.938	-5.281	-0.357	0.244
-449.924	120.091	-0.049	-0.060
-448.909	-32.200	0.176	-0.098
-447.895	800.000	0.031	-0.131
-446.880	-200.000	0.019	-0.146
-445.865	54.793	-0.363	0.349
-444.851	1.269	-0.245	0.175
-443.836	29.934	0.089	0.076
-442.822	800.000	0.063	0.188
-441.807	86.380	0.302	0.332
-440.792	-107.331	0.450	-0.099
-439.778	-166.548	-0.137	0.006
-438.763	614.700	-0.023	-0.057
-437.749	-200.000	0.022	-0.123
-436.734	388.305	0.164	0.338
-435.719	-66.020	0.097	0.039
-434.705	685.262	0.021	0.054
-433.690	-145.737	-0.237	-0.021
-432.676	-48.927	-0.234	0.112
-431.661	85.845	-0.113	-0.123
-430.646	-200.000	-0.002	-0.118
-429.632	511.671	0.111	-0.258
-428.617	-96.570	0.260	0.068
-427.603	123.513	0.049	-0.061
-426.588	69.141	0.037	-0.038
-425.573	281.425	-0.127	0.227
-424.559	800.000	-0.070	0.216
-423.544	-142.998	0.122	0.012
-422.530	69.189	-0.040	-0.041
-421.515	-145.117	-0.326	-0.029
-420.500	-69.959	-0.121	0.046
-419.486	800.000	-0.010	-0.029
-418.471	-55.190	-0.313	-0.140
-417.457	-4.187	-0.263	-0.181
-416.442	-112.768	0.358	0.071
-415.428	-58.312	-0.269	-0.117
-414.413	-143.821	0.371	-0.035
-413.398	-116.239	0.263	0.049
-412.384	-200.000	0.013	-0.138
-411.369	1.159	-0.387	0.276
-410.355	-100.536	-0.009	0.002
-409.340	600.755	0.051	-0.125
-408.325	-29.088	0.111	-0.063
-407.311	-33.037	0.049	0.027
-406.296	305.093	0.028	0.053
-405.282	-173.172	0.055	0.002
-404.267	135.991	0.164	0.213
-403.252	109.924	0.123	0.147
-402.238	-189.078	0.121	-0.001
-401.223	-125.591	0.182	-0.027
-400.209	-48.702	0.158	-0.076
-399.194	-108.525	0.446	-0.095
-398.179	-24.720	-0.057	-0.034
-397.165	-142.070	0.107	0.011
-396.150	800.000	-0.086	-0.301
-395.136	303.887	0.091	-0.169
-394.121	720.525	-0.105	0.277
-393.106	800.000	0.048	0.159
-392.092	-200.000	0.139	0.001
-391.077	124.545	-0.200	0.251
-390.063	-111.630	0.048	0.010
-389.048	-111.237	0.119	-0.024
-388.033	-200.000	0.035	-0.333
-387.019	-200.000	0.012	-0.231
-386.004	800.000	0.061	0.221
-384.990	41.723	-0.111	0.100
-383.975	64.067	-0.115	0.115
-382.960	583.696	0.069	-0.168
-381.946	15.339	-0.124	-0.097
-380.931	800.000	-0.068	0.222
-379.917	-200.000	0.027	-0.121
-378.902	-147.998	0.077	-0.006
-377.888	-57.211	-0.381	-0.167
-376.873	34.506	0.101	-0.088
-375.858	9.807	0.238	0.179
-374.844	6.236	0.304	0.224
-373.829	-185.540	0.115	-0.002
-372.815	-61.453	0.464	-0.194
-371.800	-99.503	0.221	0.055
-370.785	-121.588	-0.105	0.017
-369.771	-98.973	-0.283	0.071
-368.756	-200.000	0.010	-0.187
-367.742	368.097	-0.164	0.330
-366.727	349.810	0.099	-0.195
-365.712	-71.573	-0.111	0.041
-364.698	696.802	-0.154	-0.403
-363.683	800.000	-0.086	-0.274
-362.669	-200.000	0.008	0.126
-361.654	-176.092	-0.406	-0.011
-360.639	124.736	0.307	0.384
-359.625	-64.520	-0.237	0.096
-358.610	323.409	-0.074	0.141
-357.596	-93.956	0.118	0.032
-356.581	-200.000	0.057	0.286
-355.566	-117.451	0.099	0.018
-354.552	612.648	0.126	-0.312
-353.537	14.710	-0.139	-0.108
-352.523	-46.868	-0.200	-0.097
-351.508	35.956	0.161	-0.141
-350.493	575.948	-0.093	-0.225
-349.479	-200.000	-0.040	-0.204
-348.464	-152.315	-0.181	0.013
-347.450	-131.124	-0.403	0.053
-346.435	292.620	-0.151	-0.273
-345.420	424.668	0.183	-0.390
-344.406	-63.253	-0.256	0.105
-343.391	130.520	-0.149	0.189
-342.377	446.598	-0.042	-0.091
-341.362	509.762	0.154	-0.355
-340.348	-5.090	-0.223	-0.152
-339.333	-200.000	0.097	0.471
-338.318	-126.757	-0.135	-0.020
-337.304	-140.786	0.207	-0.021
-336.289	-200.000	-0.012	0.371
-335.275	-117.471	0.291	0.052
-334.260	-23.664	0.264	0.157
-333.245	145.016	0.194	0.257
-332.231	156.625	-0.205	0.280
-331.216	518.858	0.083	-0.192
-330.202	-200.000	-0.018	-0.256
-329.187	0.484	-0.184	-0.131
-328.172	-96.392	0.053	-0.014
-327.158	-147.309	-0.251	-0.021
-326.143	-50.706	0.150	-0.070
-325.129	136.167	0.130	-0.168
-324.114	-200.000	0.006	0.355
-323.099	554.307	0.118	-0.282
-322.085	143.905	-0.150	0.199
-321.070	-13.509	-0.334	0.214
-320.056	-139.742	0.370	0.039
-319.041	-120.278	0.212	0.036
-318.026	-136.143	-0.210	-0.024
-317.012	-3.834	-0.127	-0.087
-315.997	-63.314	-0.053	-0.021
-314.983	-20.165	-0.037	0.023
-313.968	288.563	-0.146	-0.262
-312.953	44.297	0.117	-0.107
-311.939	-200.000	0.107	0.476
-310.924	-200.000	-0.040	0.198
-309.910	-16.319	0.267	0.168
-308.895	-134.005	-0.181	-0.022
-307.880	-11.289	-0.081	-0.053
-306.866	520.953	0.081	0.189
-305.851	-38.198	0.118	-0.062
-304.837	-200.000	-0.033	-0.258
-303.822	9.972	0.290	-0.218
-302.807	518.271	0.158	0.366
-301.793	-49.174	0.141	0.067
-300.778	-111.136	0.138	0.028
-299.764	-200.000	0.022	-0.225
-298.749	-200.000	-0.010	0.087
-297.735	175.211	0.121	0.174
-296.720	91.757	-0.152	0.169
-295.705	-200.000	0.014	0.294
-294.691	72.471	0.310	0.320
-293.676	-105.601	-0.360	-0.081
-292.662	-128.863	-0.274	0.038
-291.647	-43.473	0.370	-0.185
-290.632	-19.790	-0.123	0.075
-289.618	-200.000	0.005	0.109
-288.603	800.000	-0.020	0.081
-287.589	445.925	-0.108	-0.235
-286.574	-31.995	-0.255	-0.142
-285.559	-200.000	0.024	0.291
-284.545	6.267	-0.033	0.024
-283.530	-92.676	-0.276	0.077
-282.516	26.877	0.197	0.163
-281.501	558.522	-0.013	0.031
-280.486	82.890	0.118	0.127
-279.472	800.000	0.048	-0.156
-278.457	-114.483	-0.300	0.057
-277.443	-36.334	0.241	-0.129
-276.428	-136.277	0.046	-0.005
-275.413	46.073	-0.267	0.244
-274.399	292.764	0.152	0.275
-273.384	-200.000	-0.009	-0.107
-272.370	96.841	0.040	0.046
-271.355	-83.585	0.066	0.021
-270.340	-67.538	0.082	0.032
-269.326	-9.592	0.046	0.031
-268.311	-164.314	-0.303	-0.014
-267.297	-200.000	-0.002	0.097
-266.282	800.000	-0.075	-0.225
-265.267	36.229	0.290	-0.253
-264.253	-200.000	0.025	-0.363
-263.238	217.805	-0.101	-0.159
-262.224	576.381	-0.078	-0.189
-261.209	-138.482	0.103	0.011
-260.195	-72.317	0.436	-0.160
-259.180	-70.275	0.120	0.045
-258.165	557.124	-0.184	-0.438
-257.151	289.525	0.101	-0.181
-256.136	-130.884	0.198	-0.026
-255.122	800.000	-0.020	0.075
-254.107	-140.485	0.214	-0.022
-253.092	140.898	-0.149	-0.194
-252.078	-86.864	-0.152	0.046
-251.063	-7.698	-0.221	-0.147
-250.049	-200.000	-0.030	-0.187
-249.034	-200.000	-0.022	-0.178
-248.019	-47.416	-0.109	-0.052
-247.005	-103.614	-0.144	0.033
-245.990	-143.888	0.023	0.002
-244.976	-200.000	0.016	-0.351
-243.961	209.822	0.083	0.129
-242.946	-79.565	-0.328	0.109
-241.932	800.000	0.028	-0.091
-240.917	800.000	-0.103	0.408
-239.903	-179.474	-0.306	-0.007
-238.888	32.358	-0.206	-0.176
-237.873	-67.078	0.284	0.111
-236.859	-89.473	-0.472	-0.137
-235.844	800.000	-0.072	0.254
-234.830	88.519	0.188	0.207
-233.815	-101.828	0.263	-0.063
-232.800	20.899	0.205	0.165
-231.786	800.000	0.059	0.187
-230.771	193.897	-0.019	0.028
-229.757	666.875	0.084	0.215
-228.742	-200.000	-0.064	0.444
-227.727	-105.331	0.348	-0.078
-226.713	168.112	0.240	-0.337
-225.698	-110.397	-0.221	-0.045
-224.684	217.100	0.142	0.224
-223.669	-133.862	-0.310	-0.038
-222.655	60.284	-0.154	-0.151
-221.640	-200.000	-0.030	0.384
-220.625	637.591	0.003	-0.007
-219.611	-146.469	0.107	0.009
-218.596	-200.000	-0.066	0.303
-217.582	800.000	-0.083	0.330
-216.567	-105.054	0.069	-0.016
-215.552	76.841	-0.017	-0.017
-214.538	-2.743	0.121	0.084
-213.523	-111.894	0.275	-0.055
-212.509	-200.000	0.019	0.096
-211.494	-200.000	-0.005	-0.024
-210.479	179.005	0.070	-0.101
-209.465	60.290	-0.128	0.125
-208.450	-114.833	-0.280	0.053
-207.436	70.626	0.138	-0.141
-206.421	91.577	-0.195	-0.217
-205.406	800.000	-0.049	0.138
-204.392	242.152	0.134	0.222
-203.377	-185.276	-0.422	0.006
-202.363	-37.429	-0.227	0.120
-201.348	622.813	0.083	0.205
-200.333	-200.000	0.035	0.162
-199.319	-74.784	0.223	0.079
-198.304	-200.000	-0.007	0.060
-197.290	-3.105	-0.164	0.113
-196.275	-58.358	0.248	0.107
-195.260	-62.572	-0.168	0.069
-194.246	136.312	0.183	-0.235
-193.231	556.953	-0.167	0.397
-192.217	-200.000	0.031	0.417
-191.202	-2.551	-0.213	0.147
-190.187	-37.664	0.218	0.114
-189.173	-200.000	-0.003	0.410
-188.158	-200.000	0.004	0.085
-187.144	-59.549	-0.393	0.167
-186.129	459.690	-0.042	-0.092
-185.114	-200.000	-0.046	-0.313
-184.100	-200.000	-0.006	0.134
-183.085	138.185	-0.174	0.225
-182.071	16.129	-0.166	-0.129
-181.056	-200.000	0.003	-0.059
-180.042	-200.000	-0.020	-0.156
-179.027	-85.194	-0.072	0.022
-178.012	35.117	-0.125	0.108
-176.998	-200.000	-0.023	-0.378
-175.983	727.787	-0.088	-0.231
-174.969	-200.000	-0.011	0.085
-173.954	244.000	-0.051	0.084
-172.939	275.727	0.069	-0.120
-171.925	-200.000	0.069	-0.389
-170.910	112.640	0.255	-0.304
-169.896	-114.665	-0.061	0.011
-168.881	800.000	0.065	0.240
-167.866	42.458	-0.134	-0.120
-166.852	306.435	-0.102	0.187
-165.837	42.155	-0.160	0.143
-164.823	-140.867	0.201	0.020
-163.808	-172.152	-0.012	-0.000
-162.793	154.318	0.106	0.143
-161.779	159.639	-0.254	-0.349
-160.764	267.146	-0.047	0.082
-159.750	800.000	-0.072	0.213
-158.735	-89.818	0.195	-0.056
-157.720	-135.176	0.201	0.024
-156.706	800.000	0.040	0.149
-155.691	176.619	0.045	0.064
-154.677	-87.951	-0.433	0.128
-153.662	168.012	0.076	0.107
-152.647	22.783	0.228	-0.184
-151.633	720.077	0.077	-0.203
-150.618	-86.647	0.383	-0.116
-149.604	5.709	-0.134	-0.097
-148.589	44.519	-0.224	0.202
-147.574	319.736	-0.113	0.212
-146.560	73.548	-0.118	0.122
-145.545	181.407	0.114	-0.165
-144.531	103.984	-0.174	-0.201
-143.516	226.503	0.190	-0.304
-142.502	590.719	0.099	0.240
-141.487	550.336	0.077	0.183
-140.472	182.547	0.040	-0.058
-139.458	13.038	-0.055	-0.042
-138.443	-200.000	-0.018	-0.143
-137.429	773.565	-0.051	0.137
-136.414	-105.466	-0.203	0.045
-135.399	-147.247	-0.339	0.028
-134.385	-200.000	-0.028	0.208
-133.370	132.845	0.068	0.086
-132.356	800.000	0.065	0.233
-131.341	368.081	0.041	-0.081
-130.326	-200.000	0.005	-0.184
-129.312	-46.983	0.106	-0.051
-128.297	-90.591	-0.278	0.079
-127.283	46.599	0.083	0.076
-126.268	-71.162	0.130	0.048
-125.253	800.000	0.049	-0.191
-124.239	-200.000	-0.054	-0.281
-123.224	97.411	-0.239	-0.270
-122.210	-200.000	0.006	-0.092
-121.195	-114.363	0.280	0.053
