DTS Sentinel unit serial number:	SN413079Multiplexer serial number:	ORYXHardware model number:	OX4-SRSoftware version number:	ORYX F/W v4.00 Oryx Data Collector v3.7.2.0data status	okinstallation	princeton_trtdifferential loss correction	single-endedforward channel	channel 1reverse channel	N/Adate	2019/09/13time	05:38:35forward acquisition time	60.00reverse acquisition time	0.00gamma	496.2192k internal	0.2336k external	0.2336temperature offset calibration	1.0154default loss term (dB/km)	0.3790temperature slope calibration	1.0000multiplexer offset coefficient	1.0000multiplexer slope coefficient	1.0000fibre end	0.00T internal ref (°C)	26.25T ext. ref 1 (°C)	4.03T ext. ref 2 (°C)	20.86length (m)	temperature (°C)	Stokes	anti-Stokes-747.200	148.949	0.145	-0.198
-746.185	-198.431	-0.606	-0.003
-745.171	-59.546	-0.435	0.188
-744.156	23.440	0.229	0.189
-743.142	-7.722	0.104	-0.071
-742.127	-44.038	-0.418	0.211
-741.112	-147.337	-0.136	-0.012
-740.098	800.000	0.060	0.216
-739.083	-141.016	-0.293	-0.030
-738.069	-2.317	-0.085	-0.060
-737.054	-155.756	-0.287	-0.018
-736.039	-200.000	0.001	0.248
-735.025	260.311	-0.106	0.184
-734.010	-200.000	-0.027	-0.225
-732.996	48.025	-0.131	-0.123
-731.981	107.449	0.250	-0.299
-730.966	-30.061	-0.199	-0.113
-729.952	-172.545	-0.250	-0.008
-728.937	-150.030	-0.334	-0.026
-727.923	-200.000	0.014	-0.303
-726.908	102.779	-0.059	-0.069
-725.894	-122.741	-0.100	-0.016
-724.879	112.548	-0.207	-0.251
-723.864	192.287	0.109	-0.165
-722.850	-10.898	-0.243	-0.161
-721.835	800.000	-0.057	0.166
-720.821	103.010	-0.250	0.294
-719.806	-200.000	-0.023	0.126
-718.791	-105.570	0.209	0.047
-717.777	-200.000	0.022	0.104
-716.762	534.496	-0.079	-0.187
-715.748	-34.939	0.367	-0.201
-714.733	800.000	-0.072	0.295
-713.718	-72.706	-0.228	0.084
-712.704	-200.000	0.022	-0.335
-711.689	-19.257	0.028	-0.017
-710.675	192.977	-0.129	0.195
-709.660	-108.869	-0.174	0.037
-708.645	289.682	-0.142	-0.259
-707.631	-200.000	0.010	0.160
-706.616	-90.921	-0.197	-0.057
-705.602	467.064	-0.150	0.338
-704.587	-200.000	0.006	-0.140
-703.572	-200.000	0.018	-0.083
-702.558	29.036	0.221	-0.188
-701.543	169.970	-0.139	0.199
-700.529	504.519	-0.062	0.144
-699.514	-156.071	0.099	0.006
-698.499	167.502	0.198	-0.281
-697.485	133.959	-0.078	-0.101
-696.470	182.529	-0.093	-0.138
-695.456	-3.884	0.178	-0.123
-694.441	-200.000	-0.062	-0.273
-693.426	-61.558	-0.455	0.192
-692.412	-142.779	-0.117	0.011
-691.397	-79.057	-0.096	0.033
-690.383	7.474	-0.100	0.075
-689.368	800.000	-0.106	0.416
-688.354	800.000	-0.046	0.168
-687.339	-200.000	0.004	-0.052
-686.324	137.455	-0.183	-0.240
-685.310	199.769	0.082	-0.127
-684.295	337.924	0.100	-0.194
-683.281	800.000	-0.024	-0.077
-682.266	-200.000	-0.018	0.160
-681.251	16.824	-0.042	-0.033
-680.237	35.170	0.078	-0.069
-679.222	800.000	0.070	-0.221
-678.208	-124.123	0.469	0.074
-677.193	346.500	0.142	-0.279
-676.178	-96.723	-0.071	0.019
-675.164	-152.221	-0.110	0.008
-674.149	-93.984	-0.306	0.084
-673.135	-200.000	-0.048	-0.287
-672.120	-64.073	-0.256	0.105
-671.105	29.831	-0.071	0.060
-670.091	800.000	-0.086	0.308
-669.076	800.000	-0.051	-0.170
-668.062	-76.289	-0.274	-0.097
-667.047	456.634	0.019	0.043
-666.032	120.002	0.166	0.207
-665.018	-200.000	-0.012	-0.118
-664.003	659.098	-0.126	-0.325
-662.989	-200.000	0.001	0.027
-661.974	-200.000	-0.057	0.437
-660.959	-200.000	-0.000	-0.182
-659.945	-200.000	0.003	-0.079
-658.930	-200.000	-0.040	0.448
-657.916	-111.740	0.248	-0.050
-656.901	442.437	-0.098	-0.214
-655.886	269.684	0.088	0.156
-654.872	82.885	-0.135	0.147
-653.857	-200.000	0.039	-0.247
-652.843	-85.249	-0.042	0.013
-651.828	-99.289	0.269	0.068
-650.814	-18.579	-0.050	-0.032
-649.799	-200.000	0.002	-0.089
-648.784	686.448	0.067	-0.176
-647.770	259.653	-0.049	-0.084
-646.755	177.864	-0.071	0.103
-645.741	321.535	0.009	-0.018
-644.726	51.759	0.291	-0.277
-643.711	19.146	0.121	0.097
-642.697	-41.980	-0.280	0.143
-641.682	116.327	-0.123	0.151
-640.668	-82.190	0.333	0.109
-639.653	-52.139	0.142	-0.066
-638.638	28.356	-0.135	-0.114
-637.624	-200.000	0.000	-0.021
-636.609	800.000	-0.069	0.244
-635.595	-17.403	0.154	0.097
-634.580	11.046	0.204	-0.156
-633.565	-57.861	0.210	0.092
-632.551	-200.000	-0.034	0.253
-631.536	-200.000	0.040	0.229
-630.522	-61.213	0.079	0.033
-629.507	-139.578	-0.223	-0.024
-628.492	-200.000	0.012	0.242
-627.478	4.324	0.150	0.110
-626.463	479.633	0.112	-0.254
-625.449	-34.880	-0.155	-0.085
-624.434	184.436	-0.094	-0.139
-623.419	248.997	-0.177	-0.301
-622.405	-119.397	0.267	-0.046
-621.390	464.366	-0.080	-0.178
-620.376	-128.742	0.116	-0.016
-619.361	-1.531	0.031	-0.022
-618.346	-80.402	-0.307	0.102
-617.332	136.946	0.084	0.110
-616.317	5.770	0.186	-0.137
-615.303	73.827	0.141	-0.148
-614.288	800.000	0.061	0.219
-613.273	-200.000	-0.002	-0.188
-612.259	-200.000	-0.016	-0.169
-611.244	16.003	0.270	0.213
-610.230	-137.818	-0.185	-0.021
-609.215	-62.695	-0.189	-0.078
-608.201	-200.000	0.067	-0.422
-607.186	800.000	0.030	0.094
-606.171	800.000	0.073	-0.229
-605.157	-147.020	0.357	0.031
-604.142	-200.000	-0.026	0.146
-603.128	-96.730	0.298	-0.078
-602.113	-149.980	0.108	0.008
-601.098	155.076	0.076	-0.104
-600.084	103.969	0.233	-0.274
-599.069	84.127	0.102	-0.111
-598.055	87.143	-0.120	0.133
-597.040	-200.000	-0.028	-0.242
-596.025	190.335	0.155	-0.232
-595.011	-0.554	0.128	0.090
-593.996	-147.835	-0.131	0.011
-592.982	395.930	0.058	0.120
-591.967	-168.265	-0.067	0.003
-590.952	-48.733	-0.209	-0.100
-589.938	-95.585	-0.416	0.111
-588.923	340.956	0.154	-0.300
-587.909	564.614	0.098	-0.236
-586.894	-55.131	-0.140	-0.063
-585.879	496.625	0.040	0.091
-584.865	150.309	-0.180	-0.243
-583.850	11.102	0.092	0.070
-582.836	4.383	0.189	-0.138
-581.821	417.536	0.126	0.269
-580.806	-78.103	-0.136	-0.047
-579.792	-200.000	0.001	-0.170
-578.777	130.524	-0.092	-0.118
-577.763	-59.868	-0.204	0.087
-576.748	-119.213	0.310	-0.054
-575.733	-162.755	-0.187	-0.009
-574.719	-41.231	-0.319	-0.164
-573.704	-200.000	-0.026	-0.148
-572.690	18.279	-0.110	-0.088
-571.675	511.017	-0.062	0.144
-570.661	-200.000	-0.015	0.464
-569.646	-102.404	0.208	0.050
-568.631	-132.095	-0.301	-0.039
-567.617	-83.341	0.164	0.052
-566.602	800.000	-0.031	0.106
-565.588	474.752	-0.047	0.105
-564.573	-200.000	0.013	-0.101
-563.558	36.030	-0.174	-0.152
-562.544	-128.867	-0.199	-0.028
-561.529	-92.110	0.431	0.121
-560.515	-106.959	0.096	-0.021
-559.500	-200.000	0.061	-0.453
-558.485	-42.606	-0.190	-0.096
-557.471	86.624	-0.192	0.211
-556.456	-3.755	-0.426	-0.295
-555.442	-185.483	0.190	0.003
-554.427	-9.598	-0.115	-0.076
-553.412	-95.632	-0.085	-0.023
-552.398	-75.332	-0.196	-0.070
-551.383	145.675	0.074	-0.099
-550.369	-155.072	-0.127	0.008
-549.354	-200.000	-0.053	0.295
-548.339	-175.542	0.171	-0.005
-547.325	22.412	-0.314	-0.256
-546.310	-7.386	-0.141	0.095
-545.296	-174.834	0.304	-0.009
-544.281	17.732	-0.223	0.177
-543.266	102.575	-0.255	-0.298
-542.252	-200.000	0.007	-0.384
-541.237	151.141	-0.256	0.347
-540.223	316.103	-0.141	0.265
-539.208	-104.653	0.353	0.081
-538.193	800.000	-0.027	0.082
-537.179	-86.938	-0.163	-0.049
-536.164	0.182	0.153	-0.109
-535.150	335.493	0.030	0.058
-534.135	74.936	-0.074	-0.078
-533.121	-200.000	-0.020	0.107
-532.106	800.000	0.044	-0.176
-531.091	-11.755	0.290	-0.190
-530.077	-22.508	-0.407	0.245
-529.062	-72.428	-0.420	0.155
-528.048	-150.720	-0.122	-0.009
-527.033	222.631	-0.164	-0.263
-526.018	-109.950	0.096	0.020
-525.004	-200.000	0.004	-0.170
-523.989	-104.534	-0.191	-0.044
-522.975	-126.070	-0.276	0.041
-521.960	17.432	0.176	-0.139
-520.945	73.317	0.021	-0.021
-519.931	-54.638	-0.217	0.098
-518.916	567.558	0.080	0.192
-517.902	800.000	-0.055	-0.185
-516.887	313.679	-0.095	-0.177
-515.872	107.105	-0.149	-0.176
-514.858	171.234	-0.116	0.166
-513.843	-145.864	0.243	0.021
-512.829	385.985	0.041	0.085
-511.814	11.080	-0.206	-0.157
-510.799	-143.025	-0.320	-0.031
-509.785	-68.430	-0.271	-0.105
-508.770	-200.000	-0.018	0.198
-507.756	-65.358	-0.328	-0.131
-506.741	37.956	0.200	-0.177
-505.726	-138.942	-0.111	0.012
-504.712	-200.000	-0.014	0.281
-503.697	-200.000	-0.018	0.216
-502.683	-27.171	-0.179	0.104
-501.668	-129.967	0.245	0.033
-500.653	-36.024	0.016	0.009
-499.639	-14.984	0.157	-0.100
-498.624	-58.262	-0.151	0.065
-497.610	-195.475	-0.063	-0.000
-496.595	-71.874	-0.285	0.105
-495.581	74.365	0.163	-0.170
-494.566	-17.985	-0.289	0.180
-493.551	-55.346	0.211	0.094
-492.537	-118.351	-0.237	0.042
-491.522	-34.470	-0.289	0.158
-490.508	-126.732	0.181	-0.027
-489.493	13.009	0.227	0.175
-488.478	63.738	0.163	-0.163
-487.464	-200.000	0.021	0.331
-486.449	261.669	0.061	0.105
-485.435	-200.000	0.014	0.095
-484.420	-5.412	0.078	0.053
-483.405	-58.949	-0.042	0.018
-482.391	239.827	-0.118	0.196
-481.376	-200.000	0.004	0.162
-480.362	-152.488	0.240	-0.017
-479.347	-200.000	0.014	-0.174
-478.332	341.143	0.089	0.173
-477.318	432.849	-0.044	-0.095
-476.303	-106.877	0.056	0.012
-475.289	800.000	-0.030	0.102
-474.274	-70.439	-0.261	0.098
-473.259	-200.000	-0.002	0.010
-472.245	124.278	-0.144	0.180
-471.230	362.003	0.075	0.150
-470.216	-153.238	0.426	0.030
-469.201	-49.530	-0.361	0.171
-468.186	797.202	-0.083	-0.228
-467.172	-24.837	0.173	0.102
-466.157	658.028	-0.166	-0.425
-465.143	102.657	-0.130	-0.151
-464.128	-25.767	0.321	-0.188
-463.113	421.213	-0.135	-0.287
-462.099	-29.944	0.057	0.032
-461.084	-31.622	0.300	-0.167
-460.070	-37.134	-0.152	0.081
-459.055	260.233	-0.074	0.127
-458.040	-200.000	-0.011	0.169
-457.026	663.285	-0.059	-0.151
-456.011	-142.813	0.368	-0.036
-454.997	98.972	-0.231	0.265
-453.982	-200.000	0.055	-0.247
-452.968	-141.854	-0.336	-0.033
-451.953	-194.641	-0.218	0.002
-450.938	-200.000	0.038	0.304
-449.924	196.620	-0.218	-0.330
-448.909	498.241	-0.069	0.158
-447.895	-3.287	-0.281	-0.195
-446.880	-9.030	-0.125	0.083
-445.865	317.741	0.066	0.123
-444.851	-160.872	0.170	0.009
-443.836	304.391	0.103	0.190
-442.822	3.488	-0.464	0.336
-441.807	0.607	-0.156	-0.111
-440.792	-147.272	0.078	-0.007
-439.778	155.012	0.100	0.137
-438.763	60.483	0.073	-0.072
-437.749	70.867	0.399	0.410
-436.734	95.618	-0.205	-0.232
-435.719	395.918	0.056	-0.117
-434.705	84.856	-0.101	0.110
-433.690	-200.000	0.040	-0.229
-432.676	98.381	0.091	0.104
-431.661	-200.000	0.009	0.332
-430.646	536.053	0.056	-0.133
-429.632	-53.463	-0.409	-0.186
-428.617	-149.722	-0.220	0.017
-427.603	-200.000	-0.003	0.045
-426.588	-120.069	0.098	-0.017
-425.573	800.000	0.066	0.203
-424.559	-109.255	-0.337	-0.071
-423.544	-200.000	0.025	-0.225
-422.530	-200.000	0.009	0.272
-421.515	47.567	-0.069	-0.064
-420.500	-70.108	-0.183	-0.069
-419.486	-200.000	-0.003	0.091
-418.471	-200.000	0.001	0.082
-417.457	-161.994	-0.283	-0.014
-416.442	800.000	0.044	0.128
-415.428	-79.054	0.251	-0.084
-414.413	293.111	-0.162	-0.293
-413.398	96.841	0.245	-0.278
-412.384	-115.569	-0.404	0.075
-411.369	67.403	0.124	0.125
-410.355	-11.760	-0.229	-0.149
-409.340	-112.682	0.170	0.033
-408.325	-166.621	0.105	-0.004
-407.311	77.377	0.087	-0.091
-406.296	800.000	-0.049	0.178
-405.282	86.619	-0.211	-0.231
-404.267	-200.000	-0.030	0.204
-403.252	-200.000	0.003	0.185
-402.238	-68.678	-0.183	0.070
-401.223	-200.000	0.017	-0.292
-400.209	-131.410	0.212	0.028
-399.194	640.758	-0.034	-0.085
-398.179	-101.904	-0.242	0.058
-397.165	-200.000	0.005	0.078
-396.150	61.984	0.294	-0.290
-395.136	238.357	0.274	-0.451
-394.121	91.219	0.225	0.251
-393.106	-142.969	0.035	0.003
-392.092	-15.447	0.336	-0.213
-391.077	55.375	-0.060	0.057
-390.063	800.000	-0.090	0.337
-389.048	-112.532	-0.133	0.026
-388.033	45.938	0.190	0.174
-387.019	800.000	0.056	0.159
-386.004	42.591	0.133	-0.120
-384.990	-200.000	-0.009	0.200
-383.975	-109.230	0.040	0.008
-382.960	-115.035	-0.172	-0.032
-381.946	-109.995	-0.045	0.009
-380.931	-64.219	-0.479	-0.194
-379.917	602.785	-0.015	-0.038
-378.902	424.381	0.086	0.183
-377.888	63.313	-0.235	0.234
-376.873	-102.452	-0.299	-0.071
-375.858	800.000	0.058	-0.169
-374.844	-124.026	0.417	-0.065
-373.829	70.427	0.408	0.418
-372.815	26.691	-0.087	0.072
-371.800	-75.996	-0.095	0.033
-370.785	-200.000	0.033	0.232
-369.771	650.207	-0.042	-0.106
-368.756	-73.632	-0.252	0.091
-367.742	-37.985	0.382	-0.201
-366.727	-18.848	-0.081	-0.050
-365.712	88.511	-0.270	-0.297
-364.698	-175.772	0.310	-0.008
-363.683	98.201	0.078	-0.089
-362.669	78.103	-0.365	-0.386
-361.654	432.055	0.068	0.146
-360.639	-129.699	0.171	-0.023
-359.625	351.649	-0.207	-0.405
-358.610	46.195	0.422	-0.387
-357.596	-112.069	0.343	0.068
-356.581	-141.650	0.330	0.033
-355.566	342.791	-0.084	0.163
-354.552	-95.555	-0.281	0.075
-353.537	92.631	0.277	0.310
-352.523	-75.413	0.264	0.093
-351.508	-200.000	0.013	-0.175
-350.493	-83.558	0.295	0.093
-349.479	-114.216	0.276	0.053
-348.464	587.740	-0.063	0.154
-347.450	124.161	0.204	-0.253
-346.435	84.886	0.145	-0.157
-345.420	289.611	0.214	0.384
-344.406	45.062	0.125	0.114
-343.391	-157.950	0.284	0.017
-342.377	102.991	-0.214	0.248
-341.362	800.000	-0.030	-0.104
-340.348	-1.028	0.134	-0.094
-339.333	17.439	0.054	-0.043
-338.318	-104.990	-0.495	0.112
-337.304	-21.381	-0.179	0.108
-336.289	-159.928	-0.470	-0.025
-335.275	-200.000	-0.008	0.148
-334.260	679.453	0.118	0.304
-333.245	-68.618	-0.095	0.036
-332.231	-40.156	-0.043	-0.022
-331.216	800.000	-0.043	0.140
-330.202	-58.532	0.423	-0.182
-329.187	-167.874	0.240	0.009
-328.172	51.558	0.218	0.205
-327.158	74.580	-0.085	0.088
-326.143	70.220	-0.304	-0.311
-325.129	164.129	0.152	0.212
-324.114	535.591	-0.038	-0.090
-323.099	309.027	-0.195	-0.360
-322.085	-42.671	-0.098	-0.049
-321.070	-158.668	0.100	-0.006
-320.056	-38.659	-0.106	0.055
-319.041	776.135	-0.071	-0.191
-318.026	-21.835	0.116	0.070
-317.012	-26.748	-0.034	-0.020
-315.997	-200.000	-0.001	0.079
-314.983	-59.979	0.060	0.025
-313.968	380.973	0.012	-0.024
-312.953	162.815	0.128	-0.178
-311.939	130.995	0.087	-0.111
-310.924	-200.000	0.000	0.264
-309.910	-23.194	-0.277	0.165
-308.895	-76.102	0.241	0.084
-307.880	-84.871	-0.364	0.113
-306.866	-142.142	-0.188	0.018
-305.851	800.000	0.082	0.234
-304.837	67.599	-0.294	-0.296
-303.822	123.474	-0.196	0.243
-302.807	527.459	0.155	0.360
-301.793	-48.554	0.173	0.082
-300.778	-123.005	-0.234	0.037
-299.764	-26.633	0.314	0.181
-298.749	120.122	0.195	0.239
-297.735	62.117	0.050	-0.049
-296.720	800.000	-0.077	-0.230
-295.705	800.000	-0.091	-0.307
-294.691	-55.973	-0.130	0.057
-293.676	-7.021	0.146	-0.098
-292.662	-47.242	-0.180	0.086
-291.647	15.827	0.175	0.136
-290.632	-29.916	-0.132	-0.074
-289.618	311.494	0.068	0.126
-288.603	279.625	0.146	-0.257
-287.589	800.000	0.073	0.279
-286.574	186.749	0.143	-0.210
-285.559	-200.000	-0.014	-0.143
-284.545	350.454	0.064	0.125
-283.530	389.488	0.058	0.118
-282.516	-19.610	-0.099	-0.061
-281.501	257.410	0.162	-0.274
-280.486	63.414	-0.175	0.173
-279.472	-200.000	0.016	-0.069
-278.457	800.000	-0.074	-0.252
-277.443	76.573	-0.273	-0.286
-276.428	-200.000	0.026	-0.315
-275.413	-53.003	0.075	-0.034
-274.399	-101.440	-0.317	-0.076
-273.384	3.012	-0.114	-0.082
-272.370	90.924	0.201	0.223
-271.355	800.000	-0.072	0.229
-270.340	48.790	0.163	0.151
-269.326	-137.349	0.115	0.013
-268.311	-128.245	0.287	0.040
-267.297	-200.000	0.031	-0.160
-266.282	20.502	0.093	0.074
-265.267	253.622	-0.026	0.044
-264.253	41.023	-0.061	0.055
-263.238	-59.859	-0.212	-0.089
-262.224	88.055	-0.125	-0.137
-261.209	565.272	0.076	-0.182
-260.195	-200.000	0.006	-0.174
-259.180	-69.903	-0.306	-0.115
-258.165	29.021	0.376	-0.315
-257.151	-200.000	0.041	0.277
-256.136	152.387	0.074	-0.100
-255.122	202.492	-0.063	-0.096
-254.107	-200.000	-0.039	-0.371
-253.092	-19.344	0.214	-0.131
-252.078	800.000	0.029	-0.110
-251.063	395.927	0.101	0.207
-250.049	185.725	-0.264	0.387
-249.034	281.425	-0.183	0.322
-248.019	-15.976	0.071	-0.044
-247.005	-200.000	0.032	-0.195
-245.990	42.026	0.312	0.279
-244.976	-152.339	-0.321	0.023
-243.961	-63.432	0.168	-0.068
-242.946	-200.000	0.031	0.287
-241.932	-21.465	0.200	-0.120
-240.917	-151.413	-0.183	-0.013
-239.903	26.851	-0.154	0.127
-238.888	-200.000	-0.015	0.162
-237.873	-95.856	0.196	0.051
-236.859	241.402	0.059	-0.097
-235.844	744.455	-0.099	0.263
-234.830	51.493	0.067	0.063
-233.815	49.968	-0.395	-0.366
-232.800	800.000	-0.080	-0.263
-231.786	642.800	-0.045	0.113
-230.771	-88.504	-0.134	-0.039
-229.757	795.453	-0.011	0.031
-228.742	-32.807	0.156	-0.085
-227.727	31.698	0.204	0.173
-226.713	-200.000	0.008	-0.117
-225.698	11.235	0.055	0.041
-224.684	-54.814	-0.203	0.090
-223.669	73.246	-0.230	0.236
-222.655	275.799	0.039	-0.068
-221.640	117.203	-0.094	-0.114
-220.625	-93.760	0.165	0.045
-219.611	291.159	-0.049	0.088
-218.596	68.690	0.134	-0.136
-217.582	695.655	0.096	-0.247
-216.567	-74.520	0.210	0.074
-215.552	-101.536	-0.492	-0.118
-214.538	164.593	0.146	0.202
-213.523	90.887	-0.097	0.107
-212.509	69.739	-0.161	-0.163
-211.494	-67.437	0.313	0.121
-210.479	800.000	0.078	0.234
-209.465	148.189	0.199	-0.264
-208.450	-200.000	0.058	0.311
-207.436	-200.000	0.005	0.356
-206.421	-200.000	0.050	0.298
-205.406	-200.000	-0.013	-0.080
-204.392	-83.593	-0.248	-0.078
-203.377	-99.500	-0.450	-0.111
-202.363	-200.000	-0.048	0.314
-201.348	-121.134	0.330	0.054
-200.333	-83.513	0.138	0.044
-199.319	34.019	0.054	-0.046
-198.304	-123.100	0.349	0.055
-197.290	-200.000	0.011	-0.055
-196.275	800.000	-0.026	-0.101
-195.260	-69.813	0.143	0.054
-194.246	68.022	-0.432	-0.435
-193.231	-35.264	0.326	0.174
-192.217	-160.704	-0.257	-0.013
-191.202	-151.729	0.224	-0.016
-190.187	342.505	-0.033	-0.064
-189.173	210.182	-0.105	0.163
-188.158	168.342	0.136	0.190
-187.144	293.929	0.075	-0.135
-186.129	-147.640	-0.137	0.011
-185.114	800.000	0.025	0.089
-184.100	172.822	-0.022	-0.031
-183.085	-35.520	0.169	0.090
-182.071	102.472	0.108	-0.125
-181.056	-200.000	-0.020	-0.355
-180.042	35.716	0.249	-0.215
-179.027	800.000	0.030	-0.085
-178.012	-200.000	0.015	-0.148
-176.998	30.395	-0.062	0.052
-175.983	-155.590	-0.043	-0.003
-174.969	-29.276	0.285	-0.160
-173.954	-151.369	0.145	0.011
-172.939	-78.163	0.164	-0.055
-171.925	58.114	0.331	-0.318
-170.910	-78.003	0.397	0.134
-169.896	-96.835	-0.148	-0.038
-168.881	214.181	-0.127	0.198
-167.866	600.780	-0.083	-0.203
-166.852	88.725	-0.175	-0.191
-165.837	-12.356	-0.074	0.047
-164.823	522.719	0.113	0.260
-163.808	66.623	0.132	0.132
-162.793	-91.364	0.180	0.051
-161.779	-200.000	-0.015	0.273
-160.764	410.993	-0.070	-0.147
-159.750	36.318	-0.134	0.116
-158.735	-200.000	0.018	0.266
-157.720	-77.029	0.309	-0.106
-156.706	370.488	0.015	-0.030
-155.691	-200.000	0.025	0.307
-154.677	-86.687	0.457	0.137
-153.662	17.254	0.157	0.122
-152.647	800.000	-0.033	0.090
-151.633	-200.000	-0.002	-0.144
-150.618	151.696	0.218	0.292
-149.604	229.628	0.124	-0.199
-148.589	116.553	-0.315	0.379
-147.574	-200.000	-0.022	0.137
-146.560	-120.193	0.434	0.073
-145.545	-75.198	-0.219	-0.077
-144.531	800.000	0.069	0.255
-143.516	800.000	-0.095	-0.261
-142.502	104.230	0.258	-0.298
-141.487	-129.526	-0.224	-0.030
-140.472	524.066	-0.075	0.172
-139.458	-149.663	0.285	0.022
-138.443	-59.651	0.199	-0.084
-137.429	-105.686	-0.149	0.033
-136.414	364.661	0.127	0.251
-135.399	-34.195	0.211	-0.114
-134.385	433.853	0.134	0.286
-133.370	244.853	0.140	0.231
-132.356	-200.000	0.019	0.232
-131.341	-200.000	-0.065	-0.313
-130.326	-31.306	0.316	0.175
-129.312	283.251	0.094	-0.165
-128.297	371.204	-0.026	0.052
-127.283	-149.143	0.175	0.014
-126.268	675.486	-0.048	-0.123
-125.253	-132.580	0.263	0.033
-124.239	161.299	-0.215	0.295
-123.224	750.701	-0.035	-0.094
-122.210	-200.000	0.033	-0.154
-121.195	-200.000	-0.026	0.151
