DTS Sentinel unit serial number:	SN413079Multiplexer serial number:	ORYXHardware model number:	OX4-SRSoftware version number:	ORYX F/W v4.00 Oryx Data Collector v3.7.2.0data status	okinstallation	princeton_trtdifferential loss correction	single-endedforward channel	channel 1reverse channel	N/Adate	2019/09/14time	07:26:36forward acquisition time	60.00reverse acquisition time	0.00gamma	496.2192k internal	0.2336k external	0.2336temperature offset calibration	1.0077default loss term (dB/km)	0.3790temperature slope calibration	1.0000multiplexer offset coefficient	1.0000multiplexer slope coefficient	1.0000fibre end	0.00T internal ref (°C)	26.19T ext. ref 1 (°C)	3.44T ext. ref 2 (°C)	21.08length (m)	temperature (°C)	Stokes	anti-Stokes-747.200	800.000	-0.125	-0.351
-746.185	43.114	-0.238	0.218
-745.171	67.319	-0.110	-0.112
-744.156	-142.999	-0.298	0.029
-743.142	3.119	0.273	0.199
-742.127	-3.577	-0.221	0.154
-741.112	-200.000	-0.023	-0.123
-740.098	-184.546	-0.076	0.001
-739.083	188.520	0.127	0.191
-738.069	82.969	-0.178	0.194
-737.054	-95.657	0.287	0.077
-736.039	-149.041	-0.267	0.022
-735.025	-65.844	0.209	0.084
-734.010	-118.357	-0.381	0.068
-732.996	-106.313	0.382	-0.086
-731.981	-47.464	-0.089	-0.044
-730.966	-107.735	0.209	-0.046
-729.952	-28.427	-0.316	0.183
-728.937	800.000	0.022	-0.067
-727.923	132.733	-0.166	0.215
-726.908	800.000	-0.075	-0.232
-725.894	155.309	0.095	-0.132
-724.879	-93.816	-0.132	-0.036
-723.864	-200.000	-0.009	-0.084
-722.850	-200.000	-0.025	-0.144
-721.835	-89.152	-0.169	0.050
-720.821	30.333	0.058	-0.050
-719.806	-68.280	-0.106	0.041
-718.791	164.181	0.108	0.153
-717.777	155.144	-0.215	-0.296
-716.762	-200.000	0.006	0.125
-715.748	118.769	0.067	-0.083
-714.733	-200.000	-0.001	0.036
-713.718	-81.484	0.200	0.066
-712.704	-163.186	-0.168	-0.008
-711.689	-132.676	-0.122	-0.016
-710.675	-93.527	-0.423	-0.117
-709.660	-200.000	-0.034	-0.337
-708.645	-200.000	0.033	-0.232
-707.631	-53.683	-0.447	-0.205
-706.616	31.232	0.154	-0.132
-705.602	-121.769	0.217	-0.036
-704.587	-135.025	-0.272	-0.033
-703.572	252.119	0.055	-0.093
-702.558	23.102	-0.296	0.243
-701.543	-6.677	0.012	0.008
-700.529	77.719	-0.053	0.056
-699.514	-200.000	-0.015	0.071
-698.499	-200.000	0.028	0.274
-697.485	39.562	-0.130	0.117
-696.470	302.850	-0.084	0.155
-695.456	-200.000	-0.004	-0.185
-694.441	-10.926	0.123	0.081
-693.426	-96.057	-0.256	-0.068
-692.412	800.000	-0.006	-0.018
-691.397	-200.000	-0.021	-0.102
-690.383	-18.400	0.100	0.062
-689.368	-49.816	0.327	-0.156
-688.354	655.725	0.089	0.228
-687.339	-104.870	0.231	-0.053
-686.324	188.546	0.118	-0.177
-685.310	-200.000	-0.018	0.212
-684.295	-94.807	0.190	-0.052
-683.281	97.525	0.119	-0.137
-682.266	-3.099	-0.416	-0.290
-681.251	-70.297	0.151	-0.057
-680.237	0.413	0.225	-0.161
-679.222	-200.000	0.003	-0.243
-678.208	-84.200	-0.332	0.105
-677.193	569.467	0.115	-0.280
-676.178	-164.246	-0.375	0.017
-675.164	-31.665	-0.188	-0.106
-674.149	212.700	-0.190	-0.301
-673.135	-120.410	0.185	0.032
-672.120	-200.000	-0.011	0.240
-671.105	103.855	-0.160	0.188
-670.091	-154.567	-0.139	0.009
-669.076	789.362	0.031	0.087
-668.062	133.948	0.180	-0.233
-667.047	17.624	-0.190	-0.151
-666.032	800.000	-0.077	-0.284
-665.018	197.704	-0.101	-0.154
-664.003	-136.633	-0.231	-0.027
-662.989	-66.744	0.183	0.072
-661.974	-200.000	-0.008	0.247
-660.959	-200.000	0.008	0.138
-659.945	-200.000	-0.011	-0.090
-658.930	-40.964	-0.091	-0.047
-657.916	145.929	0.095	0.128
-656.901	-58.522	-0.066	-0.029
-655.886	406.710	0.077	0.164
-654.872	279.521	-0.113	-0.202
-653.857	-200.000	-0.037	-0.172
-652.843	-109.505	0.335	0.071
-651.828	800.000	-0.015	-0.044
-650.814	149.405	0.063	0.086
-649.799	81.747	0.062	0.067
-648.784	-75.324	-0.563	0.201
-647.770	-200.000	-0.034	-0.238
-646.755	167.632	0.045	-0.063
-645.741	800.000	-0.026	0.103
-644.726	-80.644	-0.089	-0.030
-643.711	709.029	0.114	0.301
-642.697	708.061	0.098	-0.259
-641.682	-74.475	0.134	0.048
-640.668	-119.631	0.034	0.006
-639.653	-91.615	-0.125	-0.036
-638.638	96.103	-0.165	-0.188
-637.624	-123.315	-0.312	0.050
-636.609	-58.950	-0.122	0.053
-635.595	-200.000	-0.015	-0.352
-634.580	-200.000	0.007	-0.240
-633.565	452.048	-0.045	0.100
-632.551	-96.766	0.190	0.050
-631.536	800.000	-0.052	0.190
-630.522	-79.273	0.180	-0.061
-629.507	-200.000	0.001	0.360
-628.492	343.894	-0.060	-0.118
-627.478	-89.789	0.115	-0.034
-626.463	-11.546	0.117	0.077
-625.449	-200.000	0.024	0.120
-624.434	6.833	-0.187	0.139
-623.419	-173.809	0.223	0.007
-622.405	800.000	-0.035	0.098
-621.390	-200.000	0.005	-0.210
-620.376	242.540	0.194	-0.325
-619.361	144.265	-0.118	-0.157
-618.346	-200.000	-0.111	-0.503
-617.332	-121.750	-0.302	0.050
-616.317	38.501	-0.075	-0.067
-615.303	800.000	0.079	0.220
-614.288	67.031	0.076	0.077
-613.273	178.516	0.064	0.093
-612.259	353.400	0.086	0.170
-611.244	800.000	-0.111	0.309
-610.230	-39.793	-0.251	0.131
-609.215	-200.000	0.097	0.431
-608.201	-10.191	-0.214	0.142
-607.186	-106.200	-0.407	0.091
-606.171	31.524	0.178	-0.153
-605.157	56.163	0.094	0.092
-604.142	800.000	-0.066	-0.201
-603.128	-200.000	0.004	-0.204
-602.113	45.767	0.311	0.287
-601.098	-70.422	-0.106	0.040
-600.084	161.979	-0.029	0.040
-599.069	731.358	-0.103	-0.276
-598.055	-13.883	-0.271	-0.175
-597.040	201.690	0.156	0.240
-596.025	-83.152	0.237	0.076
-595.011	800.000	0.005	0.019
-593.996	536.310	0.093	0.220
-592.982	-200.000	0.017	0.170
-591.967	-200.000	-0.018	0.241
-590.952	5.082	0.224	-0.164
-589.938	19.167	-0.255	0.204
-588.923	800.000	-0.082	0.230
-587.909	-63.525	-0.251	0.103
-586.894	253.210	0.032	0.055
-585.879	-200.000	0.033	-0.348
-584.865	-200.000	0.291	0.001
-583.850	-200.000	-0.012	-0.138
-582.836	250.068	-0.096	0.163
-581.821	-200.000	-0.011	-0.183
-580.806	100.921	0.073	-0.085
-579.792	-200.000	-0.024	-0.177
-578.777	800.000	-0.038	0.112
-577.763	-46.347	-0.042	-0.021
-576.748	-28.757	0.204	0.117
-575.733	200.542	-0.119	0.183
-574.719	800.000	-0.039	0.135
-573.704	284.084	0.091	-0.164
-572.690	-144.738	-0.260	0.024
-571.675	-121.851	-0.363	-0.060
-570.661	800.000	-0.036	-0.133
-569.646	697.211	0.057	-0.148
-568.631	-200.000	0.019	0.253
-567.617	800.000	-0.051	0.153
-566.602	5.602	-0.223	0.164
-565.588	210.339	-0.169	-0.265
-564.573	-104.237	0.461	-0.107
-563.558	-155.860	-0.443	-0.028
-562.544	-9.677	0.085	-0.056
-561.529	-65.226	0.129	-0.052
-560.515	-130.591	-0.187	-0.025
-559.500	800.000	-0.080	-0.281
-558.485	-43.356	0.025	-0.012
-557.471	241.146	0.104	0.174
-556.456	-72.749	-0.098	-0.036
-555.442	-29.699	0.198	-0.113
-554.427	741.803	-0.031	-0.084
-553.412	-129.866	-0.102	-0.014
-552.398	621.698	0.033	-0.084
-551.383	-200.000	-0.003	-0.108
-550.369	-128.323	-0.282	0.040
-549.354	-200.000	-0.057	0.280
-548.339	-75.058	-0.348	0.124
-547.325	-81.495	-0.363	0.119
-546.310	-74.411	0.271	-0.098
-545.296	-198.252	-0.172	-0.001
-544.281	-200.000	0.002	-0.124
-543.266	-200.000	-0.019	-0.089
-542.252	-71.117	0.227	-0.085
-541.237	87.736	0.070	0.078
-540.223	7.953	0.204	0.153
-539.208	-200.000	-0.032	-0.269
-538.193	-50.703	-0.382	-0.179
-537.179	-200.000	0.011	-0.204
-536.164	465.493	-0.085	0.190
-535.150	592.762	0.096	-0.237
-534.135	-200.000	-0.054	-0.281
-533.121	227.080	0.094	-0.151
-532.106	121.391	-0.079	0.098
-531.091	23.384	-0.252	-0.207
-530.077	-126.719	0.076	-0.011
-529.062	-189.263	0.110	-0.001
-528.048	800.000	-0.073	-0.213
-527.033	51.625	0.027	0.026
-526.018	-200.000	0.015	0.211
-525.004	-81.034	0.243	0.080
-523.989	53.391	0.121	-0.116
-522.975	-176.972	-0.185	0.005
-521.960	426.814	-0.093	-0.199
-520.945	66.126	-0.225	-0.227
-519.931	-55.599	-0.192	-0.086
-518.916	82.568	0.236	-0.255
-517.902	-15.488	-0.144	-0.092
-516.887	89.127	0.132	0.146
-515.872	5.050	0.116	-0.085
-514.858	14.883	-0.069	-0.053
-513.843	4.791	-0.143	0.104
-512.829	156.545	0.120	0.164
-511.814	64.314	0.127	0.128
-510.799	126.598	0.105	0.132
-509.785	-200.000	-0.069	-0.417
-508.770	149.287	-0.102	0.138
-507.756	-5.413	-0.206	-0.141
-506.741	59.728	0.199	-0.196
-505.726	-200.000	-0.017	-0.198
-504.712	-12.374	0.073	0.047
-503.697	68.739	-0.205	-0.209
-502.683	800.000	0.065	-0.272
-501.668	298.237	-0.102	0.186
-500.653	-63.770	-0.281	-0.115
-499.639	386.272	0.042	-0.086
-498.624	-189.960	0.593	-0.007
-497.610	-200.000	-0.028	-0.329
-496.595	-129.920	0.115	0.016
-495.581	161.929	0.046	0.065
-494.566	-200.000	0.051	-0.482
-493.551	117.642	-0.212	-0.260
-492.537	119.707	0.078	-0.096
-491.522	34.206	0.111	-0.096
-490.508	235.451	-0.107	0.176
-489.493	-200.000	0.065	-0.302
-488.478	-105.497	0.043	-0.010
-487.464	-37.066	0.248	-0.132
-486.449	29.233	0.172	0.145
-485.435	800.000	-0.086	0.243
-484.420	-200.000	-0.022	-0.100
-483.405	-200.000	0.017	-0.220
-482.391	9.786	-0.087	0.065
-481.376	85.099	0.156	-0.170
-480.362	-200.000	0.020	0.182
-479.347	268.299	-0.078	0.136
-478.332	-26.560	-0.252	0.147
-477.318	-65.992	-0.107	-0.042
-476.303	105.040	-0.280	-0.329
-475.289	-200.000	0.009	0.052
-474.274	-183.385	-0.289	-0.005
-473.259	258.437	0.173	-0.296
-472.245	701.866	-0.123	-0.323
-471.230	-105.346	0.337	0.076
-470.216	81.171	0.157	0.168
-469.201	-200.000	0.008	-0.236
-468.186	205.358	-0.053	0.082
-467.172	-7.239	0.190	0.128
-466.157	800.000	-0.016	0.050
-465.143	-137.358	0.202	-0.023
-464.128	68.124	-0.188	0.191
-463.113	800.000	0.060	0.258
-462.099	-200.000	0.011	0.190
-461.084	-0.690	-0.296	-0.209
-460.070	-200.000	-0.005	0.068
-459.055	-200.000	0.085	0.395
-458.040	47.926	0.156	0.144
-457.026	97.726	0.011	-0.013
-456.011	-11.097	0.135	-0.089
-454.997	-109.134	0.071	0.015
-453.982	-16.724	0.136	0.085
-452.968	-128.952	-0.077	0.011
-451.953	315.784	0.149	0.278
-450.938	52.261	-0.173	0.163
-449.924	-37.498	0.251	-0.133
-448.909	-34.984	-0.201	-0.109
-447.895	-81.759	-0.205	-0.067
-446.880	800.000	-0.032	0.109
-445.865	30.589	0.327	0.278
-444.851	-39.322	0.275	0.143
-443.836	800.000	-0.100	-0.369
-442.822	425.988	0.045	-0.097
-441.807	-10.776	0.170	0.112
-440.792	59.194	0.253	0.247
-439.778	-117.953	0.382	0.068
-438.763	-199.327	-0.071	-0.000
-437.749	434.924	-0.127	-0.274
-436.734	-97.053	0.346	0.090
-435.719	263.656	0.061	0.106
-434.705	283.958	0.133	0.236
-433.690	102.650	0.089	-0.104
-432.676	52.366	0.128	-0.121
-431.661	-89.438	0.242	0.071
-430.646	-114.084	-0.453	0.087
-429.632	800.000	-0.045	0.144
-428.617	181.964	-0.156	0.227
-427.603	-34.792	-0.298	-0.161
-426.588	-128.380	0.122	0.017
-425.573	-8.050	0.069	0.046
-424.559	-190.087	-0.248	-0.003
-423.544	-44.480	-0.048	-0.024
-422.530	-200.000	0.003	-0.129
-421.515	-200.000	-0.046	-0.260
-420.500	-80.769	-0.113	0.037
-419.486	-200.000	0.006	-0.125
-418.471	-100.041	0.088	0.022
-417.457	-33.991	0.199	-0.109
-416.442	-138.629	-0.032	-0.003
-415.428	-200.000	-0.050	0.230
-414.413	-132.804	0.357	0.045
-413.398	-37.755	-0.141	-0.074
-412.384	4.195	0.190	0.138
-411.369	-59.326	-0.051	0.022
-410.355	250.418	0.139	-0.234
-409.340	239.880	0.101	-0.167
-408.325	71.557	-0.107	0.110
-407.311	-87.545	0.117	0.035
-406.296	38.033	-0.139	-0.122
-405.282	-29.491	0.427	0.242
-404.267	-200.000	0.021	0.114
-403.252	-200.000	-0.017	-0.338
-402.238	-200.000	0.030	-0.138
-401.223	227.739	0.175	-0.283
-400.209	-105.293	-0.219	-0.049
-399.194	323.805	0.168	-0.317
-398.179	800.000	-0.068	0.240
-397.165	476.631	-0.069	-0.155
-396.150	-200.000	0.023	-0.125
-395.136	-13.988	-0.189	0.121
-394.121	-104.869	-0.289	-0.066
-393.106	44.038	0.072	0.066
-392.092	-62.654	-0.079	0.032
-391.077	48.172	0.187	0.173
-390.063	-127.234	0.304	-0.044
-389.048	-43.125	-0.181	-0.091
-388.033	-87.179	-0.513	-0.154
-387.019	493.683	0.045	0.102
-386.004	408.258	0.104	-0.217
-384.990	16.380	-0.096	-0.075
-383.975	-94.471	0.157	0.042
-382.960	-110.953	0.128	0.026
-381.946	175.837	-0.244	0.350
-380.931	800.000	0.086	0.247
-379.917	-65.269	-0.095	0.038
-378.902	398.715	-0.028	-0.059
-377.888	98.804	0.186	-0.213
-376.873	-37.128	-0.188	-0.099
-375.858	-200.000	-0.006	0.132
-374.844	68.003	0.066	-0.066
-373.829	-24.748	0.088	-0.052
-372.815	243.164	0.164	-0.272
-371.800	-5.097	-0.113	-0.077
-370.785	-64.541	-0.314	-0.126
-369.771	-200.000	-0.009	-0.226
-368.756	800.000	-0.035	0.130
-367.742	-1.627	0.160	-0.112
-366.727	800.000	-0.130	0.455
-365.712	-84.954	0.121	-0.038
-364.698	-200.000	0.058	0.367
-363.683	-200.000	-0.026	0.321
-362.669	-200.000	-0.022	0.104
-361.654	-136.002	-0.232	0.027
-360.639	-90.274	-0.234	0.067
-359.625	800.000	-0.111	0.403
-358.610	-200.000	0.018	0.160
-357.596	-160.493	0.161	0.009
-356.581	-200.000	-0.057	0.249
-355.566	230.025	-0.145	0.234
-354.552	-42.331	-0.161	0.081
-353.537	757.325	0.061	-0.164
-352.523	-91.285	-0.149	-0.042
-351.508	-200.000	0.008	-0.112
-350.493	-29.116	-0.187	0.106
-349.479	-154.441	-0.073	0.005
-348.464	800.000	0.081	-0.293
-347.450	612.191	-0.036	0.089
-346.435	-76.566	0.155	-0.054
-345.420	-109.686	0.131	-0.027
-344.406	550.593	0.007	0.016
-343.391	-162.348	-0.424	-0.021
-342.377	-200.000	-0.042	0.291
-341.362	93.739	0.029	0.033
-340.348	6.026	0.106	-0.077
-339.333	-200.000	-0.007	0.352
-338.318	-147.323	-0.218	0.018
-337.304	142.825	0.187	0.245
-336.289	222.233	-0.038	0.060
-335.275	-51.578	0.200	0.092
-334.260	-200.000	-0.008	0.209
-333.245	573.264	-0.087	-0.209
-332.231	-200.000	0.018	-0.086
-331.216	-7.207	-0.127	0.085
-330.202	139.594	0.153	0.199
-329.187	-12.294	-0.282	0.182
-328.172	-98.322	-0.518	-0.131
-327.158	176.198	-0.067	-0.097
-326.143	-200.000	-0.029	-0.210
-325.129	164.707	0.171	0.238
-324.114	348.438	0.208	-0.405
-323.099	-123.040	0.476	0.076
-322.085	-200.000	0.073	-0.354
-321.070	800.000	-0.120	-0.366
-320.056	-41.829	-0.197	-0.100
-319.041	-15.540	0.144	0.090
-318.026	-116.387	-0.274	-0.050
-317.012	-87.224	0.104	-0.031
-315.997	-92.804	0.362	-0.100
-314.983	202.931	-0.114	-0.175
-313.968	90.229	0.224	0.247
-312.953	26.639	-0.228	0.188
-311.939	-28.887	-0.114	0.065
-310.924	-117.154	-0.164	0.029
-309.910	627.161	0.106	0.264
-308.895	-155.898	0.353	-0.022
-307.880	-35.615	-0.233	0.125
-306.866	629.607	-0.081	-0.203
-305.851	-49.729	-0.083	-0.039
-304.837	66.063	0.077	-0.078
-303.822	2.073	-0.198	-0.141
-302.807	-72.211	-0.318	-0.116
-301.793	-72.029	-0.116	-0.042
-300.778	-52.207	0.238	-0.109
-299.764	248.642	-0.110	0.184
-298.749	-110.027	0.105	-0.022
-297.735	198.246	-0.111	0.168
-296.720	-61.061	0.259	0.108
-295.705	-166.522	0.035	-0.001
-294.691	-200.000	-0.059	0.277
-293.676	51.447	0.132	0.124
-292.662	-200.000	0.029	-0.304
-291.647	295.479	0.102	-0.185
-290.632	396.419	0.097	-0.199
-289.618	-176.799	0.271	-0.007
-288.603	-43.167	0.153	-0.076
-287.589	-64.797	-0.023	0.009
-286.574	-47.376	-0.094	-0.045
-285.559	-18.982	-0.283	0.174
-284.545	-89.374	-0.256	-0.074
-283.530	270.663	0.057	0.098
-282.516	-200.000	-0.041	-0.256
-281.501	800.000	0.051	0.181
-280.486	140.117	-0.109	0.141
-279.472	-51.620	0.014	0.006
-278.457	126.706	0.142	0.177
-277.443	94.131	-0.032	-0.036
-276.428	800.000	0.074	-0.203
-275.413	-200.000	-0.064	0.344
-274.399	147.648	0.135	0.179
-273.384	-78.390	0.376	0.127
-272.370	800.000	-0.037	-0.140
-271.355	97.344	0.126	0.143
-270.340	-91.643	0.162	-0.045
-269.326	-50.548	-0.353	0.164
-268.311	107.782	-0.130	-0.152
-267.297	-6.315	0.117	-0.079
-266.282	-115.308	-0.241	0.045
-265.267	299.566	-0.206	-0.373
-264.253	317.184	0.080	-0.149
-263.238	202.783	-0.198	-0.302
-262.224	721.159	0.051	-0.134
-261.209	-81.599	0.222	-0.072
-260.195	-128.323	0.086	0.012
-259.180	79.115	0.252	0.266
-258.165	-116.103	-0.409	0.075
-257.151	99.179	0.197	0.225
-256.136	214.695	0.131	0.205
-255.122	-123.312	0.156	-0.025
-254.107	-8.892	-0.169	-0.112
-253.092	104.162	0.062	0.072
-252.078	-36.597	0.178	-0.094
-251.063	34.370	0.097	0.083
-250.049	37.115	-0.089	-0.078
-249.034	-132.288	0.225	0.029
-248.019	-55.065	-0.120	0.053
-247.005	481.500	0.099	0.222
-245.990	93.352	0.118	-0.131
-244.976	122.757	-0.126	-0.156
-243.961	-76.036	-0.239	0.083
-242.946	-123.439	0.142	0.022
-241.932	-88.336	0.150	0.044
-240.917	237.635	-0.112	0.183
-239.903	552.733	0.148	-0.350
-238.888	561.004	0.038	0.089
-237.873	800.000	0.060	0.253
-236.859	123.111	-0.046	-0.056
-235.844	191.262	0.237	0.351
-234.830	-122.078	-0.088	0.014
-233.815	800.000	0.017	-0.071
-232.800	-97.908	0.316	0.080
-231.786	800.000	0.069	0.271
-230.771	106.562	0.132	-0.154
-229.757	259.589	0.183	-0.312
-228.742	-14.518	0.168	-0.106
-227.727	333.609	-0.079	0.150
-226.713	-174.276	-0.280	-0.008
-225.698	212.190	0.158	0.246
-224.684	235.422	-0.223	-0.362
-223.669	-181.145	0.080	0.002
-222.655	161.626	-0.149	-0.205
-221.640	155.300	0.072	-0.097
-220.625	-64.632	0.190	0.076
-219.611	24.578	0.117	0.095
-218.596	-53.398	-0.440	0.198
-217.582	-143.442	0.740	0.070
-216.567	297.730	0.175	-0.317
-215.552	-61.955	0.233	-0.096
-214.538	-173.411	0.101	0.003
-213.523	800.000	0.116	-0.483
-212.509	203.799	-0.088	0.133
-211.494	-200.000	-0.015	0.078
-210.479	38.263	0.208	0.182
-209.465	-138.729	-0.121	0.013
-208.450	386.030	0.125	0.254
-207.436	-29.628	-0.215	0.121
-206.421	-67.152	-0.320	0.124
-205.406	79.310	-0.069	-0.073
-204.392	41.110	0.143	-0.127
-203.377	42.052	-0.109	0.097
-202.363	-28.569	0.308	-0.174
-201.348	-156.161	0.325	0.020
-200.333	20.644	0.218	0.173
-199.319	106.792	0.061	0.071
-198.304	800.000	-0.050	-0.145
-197.290	800.000	0.062	-0.248
-196.275	40.407	0.153	-0.135
-195.260	-137.392	-0.406	0.045
-194.246	105.615	-0.155	0.180
-193.231	800.000	-0.083	-0.275
-192.217	-80.792	0.123	0.040
-191.202	-46.576	-0.256	-0.123
-190.187	537.789	-0.062	0.144
-189.173	143.953	-0.148	0.194
-188.158	69.303	0.165	0.167
-187.144	-190.753	-0.050	0.001
-186.129	-86.690	0.242	0.073
-185.114	55.333	0.165	0.157
-184.100	-80.725	0.051	-0.017
-183.085	98.600	0.118	-0.134
-182.071	-86.683	-0.316	0.095
-181.056	-200.000	0.012	0.334
-180.042	-53.294	-0.362	0.163
-179.027	-32.369	-0.191	0.105
-178.012	-74.618	0.062	-0.022
-176.998	-37.007	-0.165	-0.087
-175.983	-123.992	0.091	0.014
-174.969	-131.731	-0.252	-0.032
-173.954	800.000	-0.058	0.178
-172.939	-36.222	0.296	-0.157
-171.925	-107.396	0.384	-0.083
-170.910	180.871	0.201	-0.290
-169.896	-169.575	-0.094	-0.003
-168.881	0.610	-0.251	-0.176
-167.866	420.618	0.044	0.093
-166.852	473.084	-0.072	-0.160
-165.837	516.828	0.100	0.230
-164.823	-33.904	-0.160	0.087
-163.808	-114.222	-0.197	0.037
-162.793	553.679	0.130	0.308
-161.779	154.588	0.128	0.173
-160.764	0.763	-0.212	-0.149
-159.750	765.960	0.052	0.138
-158.735	-143.224	-0.215	0.020
-157.720	-90.507	0.181	-0.051
-156.706	-142.358	0.271	0.026
-155.691	-133.600	-0.102	-0.013
-154.677	309.467	0.051	0.094
-153.662	-200.000	-0.018	0.125
-152.647	-57.495	0.148	-0.064
-151.633	-126.729	-0.326	-0.047
-150.618	-200.000	0.002	-0.178
-149.604	108.674	-0.150	0.176
-148.589	-200.000	0.002	-0.105
-147.574	800.000	-0.060	0.218
-146.560	-33.006	-0.100	-0.054
-145.545	-200.000	-0.037	0.545
-144.531	-177.892	-0.161	0.004
-143.516	18.699	0.206	0.161
-142.502	196.551	0.196	0.293
-141.487	226.733	0.168	0.267
-140.472	-45.033	-0.183	-0.089
-139.458	-107.748	-0.050	-0.011
-138.443	800.000	0.090	-0.300
-137.429	-150.766	-0.130	0.010
-136.414	243.131	0.163	0.268
-135.399	800.000	0.080	0.271
-134.385	478.942	0.085	-0.188
-133.370	441.930	0.104	-0.223
-132.356	-200.000	0.024	0.175
-131.341	800.000	-0.047	0.173
-130.326	-200.000	0.077	-0.337
-129.312	395.250	0.045	-0.092
-128.297	-146.721	0.312	-0.026
-127.283	-200.000	-0.011	0.260
-126.268	-200.000	0.024	0.146
-125.253	-18.118	0.224	0.137
-124.239	-118.760	0.276	0.048
-123.224	-48.959	-0.135	-0.063
-122.210	-200.000	0.166	-0.001
-121.195	-15.779	-0.159	-0.100
