DTS Sentinel unit serial number:	SN413079Multiplexer serial number:	ORYXHardware model number:	OX4-SRSoftware version number:	ORYX F/W v4.00 Oryx Data Collector v3.7.2.0data status	okinstallation	princeton_trtdifferential loss correction	single-endedforward channel	channel 1reverse channel	N/Adate	2019/09/18time	07:34:35forward acquisition time	60.00reverse acquisition time	0.00gamma	496.2192k internal	0.2340k external	0.2340temperature offset calibration	0.9976default loss term (dB/km)	0.3790temperature slope calibration	1.0000multiplexer offset coefficient	1.0000multiplexer slope coefficient	1.0000fibre end	0.00T internal ref (°C)	23.19T ext. ref 1 (°C)	0.19T ext. ref 2 (°C)	17.73length (m)	temperature (°C)	Stokes	anti-Stokes-747.200	-46.108	0.268	0.133
-746.185	-119.250	0.083	0.015
-745.171	-54.762	0.385	0.174
-744.156	83.804	-0.273	0.298
-743.142	176.493	-0.206	-0.301
-742.127	314.476	-0.074	-0.139
-741.112	-20.074	-0.113	0.070
-740.098	800.000	0.095	-0.332
-739.083	800.000	-0.067	0.186
-738.069	-200.000	-0.011	-0.048
-737.054	107.064	0.253	-0.301
-736.039	-23.728	-0.091	0.055
-735.025	-30.572	0.257	0.146
-734.010	-200.000	0.028	-0.147
-732.996	538.733	0.033	0.080
-731.981	800.000	-0.067	-0.247
-730.966	-200.000	-0.003	-0.080
-729.952	405.150	0.051	-0.108
-728.937	514.982	-0.074	-0.174
-727.923	800.000	0.109	-0.309
-726.908	-84.034	-0.430	-0.137
-725.894	-200.000	0.078	-0.344
-724.879	-76.034	-0.186	-0.066
-723.864	200.141	0.014	-0.021
-722.850	-200.000	0.001	-0.262
-721.835	-174.343	0.481	0.014
-720.821	582.751	0.069	-0.171
-719.806	22.744	0.045	0.037
-718.791	800.000	-0.080	-0.311
-717.777	-200.000	-0.001	0.032
-716.762	172.773	-0.185	-0.267
-715.748	-142.818	-0.283	0.028
-714.733	-123.491	-0.249	-0.040
-713.718	463.163	0.052	0.116
-712.704	54.685	0.214	0.207
-711.689	108.917	0.130	-0.156
-710.675	447.873	0.112	0.246
-709.660	-57.110	0.017	-0.008
-708.645	-40.304	0.279	0.145
-707.631	-15.790	0.074	0.047
-706.616	338.245	-0.090	0.176
-705.602	-75.151	-0.431	-0.154
-704.587	296.401	-0.115	0.211
-703.572	188.119	-0.149	0.223
-702.558	-200.000	0.010	-0.170
-701.543	6.839	0.134	-0.100
-700.529	467.524	0.131	-0.294
-699.514	-95.082	-0.275	-0.074
-698.499	-15.511	-0.195	0.125
-697.485	39.113	-0.251	0.224
-696.470	-200.000	-0.013	-0.060
-695.456	172.786	-0.141	-0.204
-694.441	-53.701	-0.221	-0.101
-693.426	-200.000	0.005	-0.060
-692.412	800.000	-0.062	0.212
-691.397	-76.715	0.141	0.049
-690.383	-98.902	0.256	-0.065
-689.368	-91.543	-0.134	-0.038
-688.354	-200.000	0.030	0.326
-687.339	152.154	-0.062	0.085
-686.324	-183.095	0.256	-0.005
-685.310	61.122	0.009	0.009
-684.295	80.307	0.058	-0.062
-683.281	-7.196	-0.169	-0.115
-682.266	350.178	-0.145	0.287
-681.251	509.276	-0.151	-0.352
-680.237	53.183	0.191	-0.183
-679.222	-112.769	-0.281	0.056
-678.208	-200.000	0.035	0.226
-677.193	261.922	-0.169	-0.292
-676.178	363.956	-0.077	0.154
-675.164	800.000	-0.041	0.140
-674.149	-163.712	-0.424	0.020
-673.135	101.021	0.140	-0.163
-672.120	-148.839	-0.302	-0.024
-671.105	-34.840	-0.016	-0.009
-670.091	-77.036	0.223	-0.078
-669.076	251.542	0.071	-0.121
-668.062	59.978	-0.132	0.130
-667.047	800.000	0.074	-0.246
-666.032	-18.599	-0.338	-0.211
-665.018	459.836	-0.106	-0.237
-664.003	-200.000	0.018	-0.295
-662.989	93.210	0.145	-0.164
-661.974	-67.494	0.341	0.134
-660.959	-200.000	0.010	0.190
-659.945	35.050	0.174	0.152
-658.930	800.000	0.029	-0.091
-657.916	43.266	-0.193	-0.176
-656.901	-71.945	0.405	0.150
-655.886	64.155	-0.139	-0.140
-654.872	800.000	-0.125	-0.434
-653.857	-42.477	0.057	0.029
-652.843	-200.000	-0.031	-0.172
-651.828	800.000	-0.046	-0.152
-650.814	89.190	-0.263	0.293
-649.799	-200.000	-0.015	0.224
-648.784	-83.909	0.200	0.064
-647.770	332.478	0.200	-0.386
-646.755	6.556	-0.082	0.061
-645.741	-200.000	0.045	-0.432
-644.726	171.651	-0.128	-0.183
-643.711	30.542	-0.200	-0.171
-642.697	-92.104	0.045	0.013
-641.682	107.311	-0.177	-0.210
-640.668	-137.415	0.430	-0.049
-639.653	533.389	0.167	-0.396
-638.638	-170.603	0.286	0.010
-637.624	57.314	-0.299	0.292
-636.609	-131.613	0.275	-0.036
-635.595	-119.260	0.100	0.017
-634.580	99.465	0.146	0.169
-633.565	510.255	0.158	0.366
-632.551	35.154	-0.315	0.275
-631.536	-142.203	-0.099	-0.010
-630.522	80.561	0.350	-0.377
-629.507	-12.561	0.219	-0.143
-628.492	5.081	-0.093	0.068
-627.478	-19.938	-0.119	-0.073
-626.463	-34.047	-0.245	0.135
-625.449	49.806	-0.117	-0.110
-624.434	-50.868	-0.239	-0.112
-623.419	96.430	-0.138	-0.158
-622.405	-119.410	-0.091	-0.016
-621.390	-40.093	-0.146	0.076
-620.376	-200.000	-0.033	0.185
-619.361	-200.000	0.032	0.213
-618.346	-200.000	-0.014	-0.064
-617.332	-84.473	0.096	0.030
-616.317	-58.223	-0.193	0.084
-615.303	-200.000	0.015	-0.304
-614.288	60.131	0.226	-0.223
-613.273	-110.848	-0.090	-0.019
-612.259	-21.862	-0.207	-0.126
-611.244	-8.794	0.132	0.088
-610.230	-200.000	0.032	-0.234
-609.215	800.000	0.067	-0.241
-608.201	800.000	0.084	-0.265
-607.186	148.898	0.147	-0.198
-606.171	50.575	0.131	-0.124
-605.157	-108.257	-0.122	-0.026
-604.142	200.445	0.064	0.098
-603.128	800.000	-0.062	-0.216
-602.113	163.049	0.130	-0.182
-601.098	-125.498	0.190	-0.029
-600.084	800.000	-0.127	0.416
-599.069	100.527	-0.040	0.046
-598.055	-57.083	0.333	-0.146
-597.040	-182.415	-0.158	-0.003
-596.025	-74.758	-0.090	-0.032
-595.011	-200.000	-0.000	-0.019
-593.996	9.107	-0.334	0.251
-592.982	557.259	-0.048	-0.115
-591.967	169.425	0.047	-0.067
-590.952	168.846	0.084	-0.119
-589.938	-62.675	0.259	0.107
-588.923	-200.000	0.000	0.294
-587.909	800.000	-0.087	0.319
-586.894	-200.000	0.006	0.341
-585.879	123.040	-0.147	0.184
-584.865	-200.000	-0.017	0.301
-583.850	-86.325	-0.366	0.112
-582.836	-164.265	-0.163	0.007
-581.821	6.900	-0.027	0.020
-580.806	17.159	-0.173	0.137
-579.792	-32.338	0.183	-0.102
-578.777	501.111	-0.016	-0.036
-577.763	-200.000	-0.012	-0.291
-576.748	35.095	0.200	0.174
-575.733	603.837	-0.083	-0.205
-574.719	186.293	-0.041	-0.061
-573.704	-200.000	-0.016	-0.083
-572.690	-50.503	-0.051	0.024
-571.675	222.219	0.144	-0.231
-570.661	365.392	0.003	0.006
-569.646	-200.000	-0.032	-0.350
-568.631	363.734	-0.288	-0.577
-567.617	-7.458	-0.261	-0.176
-566.602	-174.226	0.397	0.011
-565.588	-70.715	-0.134	0.050
-564.573	-200.000	0.034	-0.279
-563.558	28.152	-0.189	0.159
-562.544	-200.000	0.037	0.347
-561.529	-200.000	-0.002	0.292
-560.515	-27.691	-0.282	-0.163
-559.500	-41.453	-0.184	0.094
-558.485	-89.213	0.425	-0.125
-557.471	193.522	-0.182	-0.274
-556.456	800.000	-0.052	0.189
-555.442	-200.000	0.004	-0.041
-554.427	42.094	-0.155	-0.140
-553.412	-60.263	0.327	-0.138
-552.398	-158.690	-0.131	0.007
-551.383	585.064	0.160	-0.390
-550.369	756.975	-0.149	-0.401
-549.354	-63.345	-0.110	-0.045
-548.339	-157.048	0.116	0.007
-547.325	800.000	0.031	0.090
-546.310	196.703	0.160	-0.243
-545.296	120.262	-0.198	-0.245
-544.281	318.698	0.040	-0.075
-543.266	-95.851	0.161	0.043
-542.252	-88.187	-0.242	-0.072
-541.237	-36.043	-0.280	-0.150
-540.223	31.540	0.072	-0.061
-539.208	312.686	0.077	0.145
-538.193	-92.551	0.168	-0.047
-537.179	-200.000	0.020	-0.152
-536.164	-200.000	-0.031	-0.248
-535.150	-77.240	0.234	-0.081
-534.135	-107.291	0.292	0.064
-533.121	448.134	-0.042	-0.092
-532.106	234.318	0.097	-0.159
-531.091	193.270	0.181	0.273
-530.077	-60.495	-0.115	0.049
-529.062	-17.925	0.175	-0.109
-528.048	180.653	-0.196	0.286
-527.033	-1.264	-0.351	0.247
-526.018	-200.000	-0.026	-0.157
-525.004	262.846	-0.164	0.282
-523.989	-200.000	-0.037	-0.260
-522.975	2.173	-0.260	-0.187
-521.960	800.000	0.095	-0.397
-520.945	-133.311	-0.202	-0.025
-519.931	-200.000	0.011	0.209
-518.916	3.961	-0.136	0.099
-517.902	-5.853	0.288	-0.196
-516.887	602.711	0.055	-0.135
-515.872	-72.503	-0.076	0.028
-514.858	-200.000	-0.021	0.116
-513.843	-29.832	-0.137	0.077
-512.829	800.000	-0.078	0.248
-511.814	78.238	0.073	0.077
-510.799	-91.725	-0.161	0.046
-509.785	800.000	-0.017	0.066
-508.770	-200.000	-0.010	0.065
-507.756	175.964	-0.021	0.030
-506.741	-38.420	0.178	0.093
-505.726	-110.611	-0.282	-0.058
-504.712	800.000	-0.109	-0.311
-503.697	323.351	0.102	-0.193
-502.683	-72.937	0.310	-0.113
-501.668	-200.000	-0.094	-0.458
-500.653	106.645	-0.061	0.072
-499.639	-200.000	-0.005	-0.103
-498.624	55.099	-0.068	-0.066
-497.610	-23.828	0.083	-0.049
-496.595	134.534	-0.135	-0.173
-495.581	-200.000	-0.026	-0.121
-494.566	-43.415	-0.359	0.180
-493.551	-200.000	0.012	0.194
-492.537	-113.759	0.173	0.034
-491.522	342.752	-0.038	0.073
-490.508	800.000	0.079	-0.338
-489.493	-101.030	-0.158	0.038
-488.478	2.152	0.202	0.145
-487.464	283.373	0.072	-0.129
-486.449	-116.345	-0.140	0.026
-485.435	-83.304	0.168	-0.053
-484.420	110.835	-0.098	0.118
-483.405	-200.000	0.038	-0.211
-482.391	800.000	0.153	0.453
-481.376	-27.977	0.152	-0.087
-480.362	-65.398	-0.199	-0.079
-479.347	375.040	0.075	-0.152
-478.332	-18.021	-0.167	0.104
-477.318	298.538	-0.157	-0.287
-476.303	59.234	-0.253	0.247
-475.289	-52.945	-0.087	0.040
-474.274	800.000	-0.014	-0.040
-473.259	10.237	0.276	0.208
-472.245	204.813	0.064	0.099
-471.230	749.308	0.054	-0.145
-470.216	69.831	-0.090	0.092
-469.201	-70.495	0.283	0.106
-468.186	152.117	0.080	-0.108
-467.172	-9.169	-0.178	-0.118
-466.157	-59.048	-0.238	0.102
-465.143	-200.000	0.032	0.223
-464.128	630.109	0.115	-0.289
-463.113	80.251	0.053	0.056
-462.099	-118.954	-0.138	0.024
-461.084	163.495	-0.042	0.058
-460.070	-36.063	-0.300	0.161
-459.055	800.000	0.070	-0.224
-458.040	-16.674	-0.260	-0.163
-457.026	-200.000	0.084	0.392
-456.011	71.776	-0.118	-0.122
-454.997	-171.965	0.118	-0.004
-453.982	44.264	0.088	0.080
-452.968	-200.000	0.042	0.342
-451.953	39.937	0.189	-0.169
-450.938	678.200	-0.043	-0.111
-449.924	-118.319	-0.056	0.010
-448.909	-200.000	0.038	0.195
-447.895	-200.000	-0.035	-0.233
-446.880	67.837	-0.112	0.113
-445.865	615.719	-0.077	0.192
-444.851	-100.744	-0.243	-0.059
-443.836	52.679	-0.195	-0.184
-442.822	282.908	0.067	0.119
-441.807	-42.260	-0.008	-0.004
-440.792	46.215	-0.087	0.080
-439.778	338.134	0.121	0.233
-438.763	-153.522	-0.398	-0.027
-437.749	-200.000	-0.071	-0.330
-436.734	-97.420	0.234	0.060
-435.719	161.758	0.112	0.156
-434.705	800.000	-0.050	-0.179
-433.690	-200.000	-0.042	-0.246
-432.676	800.000	-0.038	-0.139
-431.661	49.971	-0.231	0.216
-430.646	-115.396	0.112	-0.021
-429.632	-118.427	-0.231	0.041
-428.617	70.183	0.222	-0.227
-427.603	-111.945	0.366	0.073
-426.588	269.589	-0.104	-0.180
-425.573	148.634	0.128	-0.171
-424.559	-52.787	-0.207	-0.094
-423.544	-115.496	0.180	0.034
-422.530	-39.054	0.069	-0.036
-421.515	-200.000	0.018	0.385
-420.500	-200.000	0.003	-0.164
-419.486	255.886	0.092	0.157
-418.471	-21.573	0.401	0.242
-417.457	-69.520	-0.097	0.037
-416.442	-22.429	0.142	-0.085
-415.428	12.092	0.370	0.282
-414.413	488.338	0.077	0.174
-413.398	-28.542	0.243	-0.139
-412.384	311.309	-0.070	-0.130
-411.369	57.100	-0.064	0.062
-410.355	800.000	0.079	-0.294
-409.340	391.589	0.210	0.431
-408.325	-82.490	0.267	0.086
-407.311	484.697	-0.123	-0.277
-406.296	-122.418	-0.311	-0.050
-405.282	-76.599	0.081	-0.028
-404.267	80.648	0.203	0.216
-403.252	-126.523	-0.031	-0.004
-402.238	-200.000	0.045	0.213
-401.223	4.717	0.119	0.087
-400.209	-65.838	-0.427	0.169
-399.194	-200.000	-0.001	-0.332
-398.179	-55.630	0.230	0.102
-397.165	-27.012	-0.228	0.132
-396.150	-126.626	-0.201	0.029
-395.136	-109.495	-0.137	-0.029
-394.121	-51.409	0.100	0.046
-393.106	-13.580	-0.417	0.267
-392.092	800.000	0.040	0.160
-391.077	613.183	-0.039	0.096
-390.063	-180.677	0.246	-0.005
-389.048	253.710	0.131	0.222
-388.033	76.282	0.241	0.253
-387.019	-141.595	-0.434	-0.043
-386.004	-23.331	0.106	-0.063
-384.990	-200.000	-0.012	-0.098
-383.975	-70.073	-0.265	0.100
-382.960	2.881	0.331	0.237
-381.946	-55.324	-0.195	-0.087
-380.931	187.900	0.148	0.219
-379.917	-90.379	-0.171	-0.049
-378.902	-138.503	0.057	0.006
-377.888	-97.042	-0.284	-0.074
-376.873	-24.614	-0.072	0.042
-375.858	245.545	-0.129	0.214
-374.844	-21.317	-0.253	0.152
-373.829	-200.000	0.071	-0.371
-372.815	-189.884	0.143	0.002
-371.800	92.020	0.091	0.101
-370.785	688.423	-0.034	-0.087
-369.771	-40.822	0.227	0.116
-368.756	-164.073	-0.379	0.017
-367.742	84.213	0.065	-0.070
-366.727	-200.000	0.036	-0.261
-365.712	-200.000	0.001	-0.066
-364.698	681.374	-0.056	-0.143
-363.683	-62.193	-0.208	0.086
-362.669	-23.906	0.419	0.248
-361.654	-23.880	0.068	0.040
-360.639	15.445	-0.247	-0.192
-359.625	-8.324	-0.082	0.055
-358.610	-200.000	0.004	-0.090
-357.596	-114.809	0.120	0.023
-356.581	-11.834	0.105	-0.068
-355.566	23.238	0.046	-0.038
-354.552	222.302	0.071	0.114
-353.537	27.909	-0.257	-0.214
-352.523	-61.548	0.337	0.140
-351.508	-200.000	-0.006	0.064
-350.493	-25.230	-0.184	-0.108
-349.479	-170.211	0.113	-0.004
-348.464	-98.169	0.271	0.069
-347.450	422.075	0.009	-0.019
-346.435	201.672	0.172	-0.261
-345.420	-20.157	-0.176	0.107
-344.406	158.600	0.205	-0.281
-343.391	751.387	0.024	0.064
-342.377	11.096	0.128	-0.097
-341.362	-89.616	-0.247	0.071
-340.348	-48.645	0.294	0.139
-339.333	426.555	0.073	0.156
-338.318	-120.339	-0.112	0.019
-337.304	228.200	0.158	-0.253
-336.289	32.788	-0.074	0.064
-335.275	-36.463	-0.207	0.110
-334.260	-64.335	0.173	0.069
-333.245	29.847	0.242	0.204
-332.231	800.000	-0.095	0.294
-331.216	-200.000	-0.016	0.112
-330.202	271.635	0.017	-0.029
-329.187	-83.406	0.136	-0.043
-328.172	487.599	-0.110	-0.248
-327.158	-9.186	0.121	0.080
-326.143	-200.000	0.039	0.297
-325.129	-200.000	0.002	0.118
-324.114	-5.253	0.109	0.074
-323.099	-12.270	-0.258	0.166
-322.085	39.139	0.093	0.082
-321.070	-48.547	-0.158	0.075
-320.056	-164.804	0.329	-0.015
-319.041	-200.000	-0.024	-0.145
-318.026	43.214	0.156	0.140
-317.012	37.335	0.210	0.183
-315.997	-0.780	0.197	0.138
-314.983	-151.390	-0.044	-0.003
-313.968	47.051	0.097	-0.089
-312.953	-115.418	-0.232	0.043
-311.939	-4.096	-0.366	0.250
-310.924	800.000	0.063	-0.204
-309.910	-94.677	0.436	0.117
-308.895	534.433	-0.035	-0.082
-307.880	-79.880	-0.221	0.073
-306.866	-36.822	-0.145	-0.077
-305.851	-20.500	-0.112	0.068
-304.837	-43.863	-0.343	0.170
-303.822	202.030	0.235	0.358
-302.807	-200.000	-0.006	0.381
-301.793	140.704	-0.201	-0.262
-300.778	800.000	-0.081	-0.261
-299.764	-200.000	-0.080	0.387
-298.749	70.549	-0.256	0.261
-297.735	-84.301	0.116	0.036
-296.720	-200.000	0.034	-0.178
-295.705	393.295	0.110	0.226
-294.691	-8.718	0.092	-0.061
-293.676	195.625	0.065	-0.097
-292.662	297.712	-0.090	-0.163
-291.647	-110.156	0.222	0.046
-290.632	537.150	-0.119	-0.279
-289.618	-10.444	0.316	-0.206
-288.603	-129.597	0.207	0.028
-287.589	-146.800	-0.379	0.032
-286.574	-63.334	0.359	0.145
-285.559	-23.107	-0.014	-0.008
-284.545	239.954	0.086	-0.141
-283.530	-33.711	0.117	0.064
-282.516	415.849	0.047	-0.098
-281.501	14.306	0.237	-0.182
-280.486	-200.000	0.011	-0.220
-279.472	-18.635	0.106	0.065
-278.457	-7.005	0.506	0.339
-277.443	-19.117	-0.218	0.134
-276.428	-164.725	0.129	-0.006
-275.413	800.000	-0.020	-0.055
-274.399	-164.834	-0.096	-0.004
-273.384	-200.000	0.009	-0.465
-272.370	-200.000	-0.053	-0.398
-271.355	-21.512	-0.211	0.127
-270.340	26.303	0.065	0.054
-269.326	-200.000	-0.002	-0.136
-268.311	800.000	0.064	0.271
-267.297	365.259	-0.033	0.065
-266.282	627.509	-0.093	0.230
-265.267	-114.374	0.101	-0.019
-264.253	-178.538	0.166	0.004
-263.238	-105.920	0.436	-0.097
-262.224	800.000	-0.065	0.256
-261.209	-180.381	0.303	0.006
-260.195	283.168	0.002	0.004
-259.180	601.206	-0.127	-0.310
-258.165	-66.607	-0.224	0.087
-257.151	477.183	-0.056	-0.124
-256.136	13.407	0.149	0.113
-255.122	17.614	0.047	0.036
-254.107	257.404	0.186	-0.314
-253.092	-13.722	-0.356	-0.226
-252.078	-138.181	0.293	0.032
-251.063	414.537	-0.099	0.208
-250.049	521.583	-0.027	-0.062
-249.034	-135.581	-0.156	0.018
-248.019	506.981	0.106	-0.241
-247.005	421.975	0.157	-0.332
-245.990	83.965	-0.144	-0.154
-244.976	266.498	-0.140	-0.240
-243.961	-200.000	0.028	0.256
-242.946	-200.000	0.012	0.068
-241.932	-129.884	-0.253	0.034
-240.917	-1.180	-0.412	0.286
-239.903	55.417	-0.226	0.215
-238.888	98.566	0.201	-0.228
-237.873	490.951	0.215	0.484
-236.859	800.000	-0.053	-0.192
-235.844	5.095	0.094	0.068
-234.830	-81.792	0.385	-0.124
-233.815	-64.519	-0.140	0.056
-232.800	79.961	-0.210	0.222
-231.786	527.847	-0.211	0.488
-230.771	-10.555	-0.185	0.120
-229.757	386.347	-0.121	0.245
-228.742	-41.969	0.074	0.037
-227.727	212.942	-0.185	-0.288
-226.713	9.454	0.230	-0.171
-225.698	-200.000	0.001	-0.076
-224.684	772.818	-0.028	-0.076
-223.669	2.479	-0.124	0.089
-222.655	317.533	0.077	0.143
-221.640	-39.511	-0.416	0.214
-220.625	323.829	-0.156	-0.292
-219.611	-200.000	-0.006	0.043
-218.596	268.212	0.129	0.221
-217.582	-200.000	-0.010	-0.055
-216.567	-200.000	-0.052	0.288
-215.552	-200.000	-0.006	-0.239
-214.538	263.962	0.146	0.250
-213.523	-38.680	-0.360	0.187
-212.509	-60.693	0.177	0.074
-211.494	18.506	-0.169	-0.133
-210.479	-58.430	0.097	-0.041
-209.465	7.856	0.138	-0.102
-208.450	153.670	-0.174	0.234
-207.436	-6.844	0.289	0.193
-206.421	-167.164	-0.430	-0.017
-205.406	-108.708	0.189	0.040
-204.392	-200.000	0.024	0.151
-203.377	101.395	-0.166	-0.190
-202.363	-76.192	-0.126	-0.044
-201.348	-63.201	-0.242	0.098
-200.333	407.866	-0.070	-0.145
-199.319	-150.368	-0.129	0.010
-198.304	462.393	-0.132	-0.289
-197.290	-152.166	-0.310	0.022
-196.275	800.000	-0.059	-0.204
-195.260	749.076	0.061	0.162
-194.246	-200.000	-0.017	-0.100
-193.231	-29.878	0.194	-0.108
-192.217	-200.000	0.028	-0.181
-191.202	-92.394	0.257	0.071
-190.187	-90.811	0.304	-0.086
-189.173	-200.000	-0.031	0.173
-188.158	-200.000	0.006	0.428
-187.144	-200.000	-0.013	0.111
-186.129	155.156	-0.198	0.268
-185.114	-200.000	0.263	-0.000
-184.100	800.000	0.041	-0.166
-183.085	115.381	-0.213	-0.255
-182.071	-83.164	0.160	0.051
-181.056	-47.051	0.197	-0.094
-180.042	-118.282	0.398	0.069
-179.027	-174.348	0.527	0.015
-178.012	-66.978	-0.387	0.150
-176.998	800.000	-0.048	0.178
-175.983	-200.000	0.032	-0.256
-174.969	21.298	-0.162	-0.129
-173.954	-200.000	0.003	-0.112
-172.939	-170.587	-0.237	0.008
-171.925	35.274	0.097	-0.084
-170.910	785.247	-0.027	-0.074
-169.896	-94.160	0.064	-0.017
-168.881	224.629	0.295	0.468
-167.866	2.830	-0.060	0.043
-166.852	401.581	0.175	0.359
-165.837	-130.092	0.115	0.015
-164.823	-200.000	0.023	0.270
-163.808	800.000	-0.009	-0.029
-162.793	-43.502	0.100	0.049
-161.779	15.778	0.228	-0.175
-160.764	103.106	0.165	-0.189
-159.750	-23.528	-0.123	0.073
-158.735	-114.902	-0.281	-0.053
-157.720	240.308	0.043	-0.071
-156.706	229.299	-0.244	0.391
-155.691	-200.000	0.034	0.159
-154.677	345.700	0.141	0.272
-153.662	145.252	-0.166	-0.217
-152.647	287.026	0.177	-0.313
-151.633	-200.000	0.016	-0.315
-150.618	-200.000	0.047	0.231
-149.604	148.766	-0.068	-0.090
-148.589	-200.000	0.068	0.316
-147.574	-42.933	-0.090	-0.045
-146.560	539.582	-0.072	-0.168
-145.545	691.118	0.028	-0.072
-144.531	-67.047	-0.084	-0.033
-143.516	12.109	0.139	0.105
-142.502	453.471	-0.085	0.184
-141.487	776.618	0.089	-0.237
-140.472	69.164	0.059	0.059
-139.458	-47.896	0.145	0.069
-138.443	737.293	-0.094	0.247
-137.429	-200.000	0.020	0.177
-136.414	-76.369	0.143	0.049
-135.399	-96.734	-0.182	0.047
-134.385	13.951	-0.181	-0.138
-133.370	-200.000	-0.044	0.320
-132.356	15.672	0.226	-0.174
-131.341	179.572	-0.141	-0.202
-130.326	276.181	0.075	-0.131
-129.312	74.620	-0.217	-0.224
-128.297	800.000	-0.088	0.305
-127.283	800.000	-0.069	0.226
-126.268	-79.776	0.166	-0.055
-125.253	5.027	-0.085	-0.061
-124.239	-23.051	-0.130	0.076
-123.224	-116.559	0.271	0.049
-122.210	-62.667	0.135	-0.055
-121.195	8.974	-0.067	0.049
-120.180	26.258	0.267	-0.218
