DTS Sentinel unit serial number:	SN413079Multiplexer serial number:	ORYXHardware model number:	OX4-SRSoftware version number:	ORYX F/W v4.00 Oryx Data Collector v3.7.2.0data status	okinstallation	princeton_trtdifferential loss correction	single-endedforward channel	channel 1reverse channel	N/Adate	2019/09/12time	16:24:11forward acquisition time	60.00reverse acquisition time	0.00gamma	496.2192k internal	0.2303k external	0.2303temperature offset calibration	1.0085default loss term (dB/km)	0.3790temperature slope calibration	1.0000multiplexer offset coefficient	1.0000multiplexer slope coefficient	1.0000fibre end	0.00T internal ref (°C)	37.67T ext. ref 1 (°C)	2.52T ext. ref 2 (°C)	30.25length (m)	temperature (°C)	Stokes	anti-Stokes-747.200	-200.000	-0.011	0.220
-746.185	249.892	-0.066	0.114
-745.171	-200.000	0.000	0.201
-744.156	-129.103	-0.195	-0.028
-743.142	-134.330	0.424	0.053
-742.127	767.848	0.067	-0.186
-741.112	-47.051	-0.351	0.175
-740.098	69.158	-0.169	0.177
-739.083	-68.490	0.079	0.031
-738.069	-116.773	0.098	0.018
-737.054	25.741	0.198	-0.168
-736.039	-200.000	-0.019	0.287
-735.025	37.324	0.348	0.314
-734.010	-118.359	-0.253	0.046
-732.996	800.000	0.073	-0.240
-731.981	-23.372	-0.064	-0.039
-730.966	-37.018	0.199	-0.108
-729.952	-56.666	-0.063	-0.028
-728.937	123.144	0.162	-0.207
-727.923	-11.864	-0.114	0.076
-726.908	-78.828	-0.139	0.048
-725.894	27.633	-0.249	0.213
-724.879	800.000	-0.060	-0.268
-723.864	800.000	-0.040	0.147
-722.850	96.044	0.297	0.345
-721.835	-0.635	0.224	-0.162
-720.821	800.000	-0.047	-0.167
-719.806	-32.806	-0.263	-0.149
-718.791	229.507	0.073	0.122
-717.777	-155.279	-0.372	0.025
-716.762	-69.797	-0.121	-0.047
-715.748	614.107	0.057	0.145
-714.733	38.505	0.169	0.153
-713.718	-23.052	-0.107	0.066
-712.704	-69.315	0.114	-0.045
-711.689	92.282	0.214	0.245
-710.675	-200.000	-0.038	-0.394
-709.660	194.215	0.225	0.347
-708.645	-175.516	0.402	-0.011
-707.631	-87.027	-0.214	-0.066
-706.616	204.398	0.096	0.151
-705.602	-28.491	-0.370	-0.217
-704.587	71.766	0.127	0.135
-703.572	15.148	0.388	0.309
-702.558	-105.214	0.146	-0.034
-701.543	22.776	-0.144	-0.120
-700.529	800.000	0.065	-0.188
-699.514	-107.655	0.180	-0.040
-698.499	-93.633	-0.315	0.088
-697.485	86.013	0.174	-0.194
-696.470	34.867	-0.059	0.052
-695.456	173.963	-0.091	-0.134
-694.441	-200.000	0.012	0.099
-693.426	-200.000	-0.017	0.147
-692.412	121.510	-0.156	-0.197
-691.397	-14.984	-0.137	0.089
-690.383	795.830	0.145	0.405
-689.368	131.269	-0.082	0.107
-688.354	-7.067	-0.163	-0.113
-687.339	800.000	0.084	0.288
-686.324	-12.700	-0.197	-0.131
-685.310	-145.884	0.005	-0.000
-684.295	22.545	0.211	0.176
-683.281	-8.882	-0.205	0.140
-682.266	52.130	0.081	-0.078
-681.251	-33.926	0.227	0.127
-680.237	30.427	-0.224	-0.195
-679.222	-124.673	-0.410	0.065
-678.208	-13.488	-0.227	-0.150
-677.193	67.691	-0.020	-0.020
-676.178	449.619	-0.017	-0.037
-675.164	300.504	0.013	-0.024
-674.149	-162.411	0.145	0.007
-673.135	-166.438	0.331	0.014
-672.120	15.766	-0.408	-0.326
-671.105	800.000	-0.009	-0.029
-670.091	-200.000	0.001	0.245
-669.076	-200.000	-0.011	0.055
-668.062	-200.000	0.034	0.264
-667.047	-34.186	-0.245	-0.137
-666.032	112.926	-0.223	0.274
-665.018	-54.788	0.159	-0.073
-664.003	-200.000	-0.007	0.133
-662.989	-200.000	0.011	-0.065
-661.974	-107.950	-0.214	-0.047
-660.959	122.527	-0.010	-0.013
-659.945	3.558	0.155	0.115
-658.930	-200.000	0.031	0.342
-657.916	800.000	-0.120	0.343
-656.901	-200.000	-0.020	-0.150
-655.886	151.332	0.167	0.231
-654.872	-200.000	-0.082	-0.431
-653.857	-91.471	-0.385	-0.111
-652.843	-90.084	-0.444	-0.131
-651.828	463.997	-0.078	0.177
-650.814	284.216	-0.154	-0.281
-649.799	338.307	-0.172	0.340
-648.784	800.000	0.180	-0.561
-647.770	800.000	0.033	0.146
-646.755	-95.205	0.083	0.023
-645.741	-200.000	-0.009	0.038
-644.726	-48.083	0.261	0.128
-643.711	52.017	0.221	0.213
-642.697	-18.104	-0.196	-0.125
-641.682	-19.606	-0.282	-0.177
-640.668	126.925	-0.105	0.135
-639.653	112.510	-0.349	-0.429
-638.638	212.913	0.119	-0.191
-637.624	34.421	0.262	-0.232
-636.609	61.078	-0.207	0.208
-635.595	227.411	-0.078	0.128
-634.580	-37.896	-0.212	-0.115
-633.565	800.000	0.031	0.094
-632.551	669.841	-0.052	-0.136
-631.536	30.433	-0.140	-0.122
-630.522	-106.694	-0.348	-0.079
-629.507	-54.816	0.085	-0.039
-628.492	-32.311	0.034	-0.019
-627.478	800.000	0.055	0.164
-626.463	55.941	0.109	0.107
-625.449	14.427	-0.071	0.056
-624.434	-131.715	-0.295	0.039
-623.419	-34.539	-0.113	0.063
-622.405	-66.327	-0.273	0.110
-621.390	-115.897	-0.297	0.056
-620.376	-141.085	0.481	-0.050
-619.361	-176.962	-0.150	-0.004
-618.346	167.527	-0.060	-0.086
-617.332	-76.216	0.071	-0.025
-616.317	32.878	-0.103	0.091
-615.303	478.332	-0.042	-0.097
-614.288	-76.993	0.351	-0.124
-613.273	800.000	0.084	0.335
-612.259	-107.109	0.172	-0.038
-611.244	530.749	-0.092	-0.220
-610.230	-60.504	0.227	0.098
-609.215	800.000	0.068	-0.213
-608.201	-21.333	0.180	-0.111
-607.186	800.000	-0.062	0.264
-606.171	571.154	-0.024	-0.060
-605.157	800.000	0.041	0.116
-604.142	-200.000	0.034	0.329
-603.128	31.480	-0.117	0.102
-602.113	191.264	0.059	-0.089
-601.098	-78.488	0.232	0.080
-600.084	102.670	0.220	0.261
-599.069	-26.074	0.097	0.058
-598.055	-200.000	0.009	-0.255
-597.040	728.604	-0.049	-0.132
-596.025	185.466	-0.216	0.325
-595.011	-74.698	0.043	-0.016
-593.996	316.821	0.082	-0.156
-592.982	65.049	0.311	0.318
-591.967	0.421	-0.345	-0.250
-590.952	-200.000	0.052	0.274
-589.938	-200.000	0.011	-0.134
-588.923	-79.443	0.069	-0.024
-587.909	152.237	-0.074	-0.102
-586.894	60.745	-0.120	-0.121
-585.879	800.000	0.067	-0.262
-584.865	370.633	-0.091	-0.187
-583.850	-27.761	-0.208	-0.122
-582.836	421.673	-0.122	-0.265
-581.821	-131.153	-0.240	-0.032
-580.806	-28.227	-0.151	-0.088
-579.792	-62.694	0.236	0.099
-578.777	24.478	0.197	0.165
-577.763	800.000	0.088	-0.249
-576.748	178.409	-0.115	0.169
-575.733	-200.000	-0.018	0.126
-574.719	116.994	-0.109	0.136
-573.704	41.041	0.244	0.223
-572.690	800.000	0.045	-0.129
-571.675	97.612	-0.098	-0.114
-570.661	560.293	0.021	0.052
-569.646	-200.000	0.038	0.233
-568.631	613.638	0.006	-0.015
-567.617	-54.224	0.153	-0.070
-566.602	-38.911	-0.260	0.139
-565.588	541.324	-0.073	-0.177
-564.573	-200.000	0.026	0.281
-563.558	182.734	0.193	0.289
-562.544	-75.240	-0.125	0.045
-561.529	532.612	0.018	0.043
-560.515	-77.528	-0.078	0.027
-559.500	-145.857	0.093	-0.008
-558.485	-39.295	-0.189	-0.101
-557.471	-77.910	-0.323	0.113
-556.456	800.000	-0.025	-0.102
-555.442	-163.044	-0.467	0.023
-554.427	-81.036	0.343	-0.115
-553.412	-106.533	0.247	0.056
-552.398	800.000	-0.089	-0.254
-551.383	44.708	-0.255	-0.238
-550.369	28.506	0.176	-0.151
-549.354	-33.524	0.068	0.038
-548.339	-200.000	-0.018	-0.182
-547.325	129.548	0.099	0.127
-546.310	234.983	0.050	0.084
-545.296	88.341	-0.165	0.185
-544.281	505.493	-0.059	0.138
-543.266	-200.000	-0.071	-0.361
-542.252	-38.594	-0.113	-0.061
-541.237	-140.983	0.390	0.040
-540.223	800.000	0.046	-0.147
-539.208	-0.812	0.164	-0.118
-538.193	-200.000	0.036	-0.385
-537.179	328.305	-0.050	-0.096
-536.164	-134.993	-0.324	0.039
-535.150	-127.823	-0.122	0.018
-534.135	23.993	0.210	-0.175
-533.121	-139.858	0.061	0.007
-532.106	-58.088	0.156	0.069
-531.091	800.000	0.044	0.181
-530.077	-127.878	0.175	-0.025
-529.062	-1.393	0.139	-0.099
-528.048	-80.790	-0.199	-0.067
-527.033	20.334	0.048	0.039
-526.018	16.500	0.080	-0.064
-525.004	-200.000	0.037	-0.218
-523.989	33.862	-0.443	-0.389
-522.975	169.768	-0.197	-0.285
-521.960	-40.161	-0.314	-0.165
-520.945	-52.812	0.187	0.087
-519.931	-187.734	0.203	0.003
-518.916	-200.000	-0.057	0.446
-517.902	43.780	-0.129	0.119
-516.887	800.000	0.041	-0.149
-515.872	-75.029	0.309	-0.112
-514.858	164.830	0.109	-0.155
-513.843	355.589	0.134	0.268
-512.829	132.235	-0.102	0.133
-511.814	-80.955	0.107	-0.036
-510.799	-200.000	-0.017	-0.245
-509.785	14.323	0.178	0.140
-508.770	800.000	0.085	-0.297
-507.756	-196.269	-0.296	-0.002
-506.741	-87.616	-0.366	-0.111
-505.726	-200.000	0.152	0.000
-504.712	547.975	0.095	-0.229
-503.697	716.439	-0.065	-0.175
-502.683	247.727	0.256	0.436
-501.668	217.857	-0.104	-0.168
-500.653	239.932	0.070	-0.118
-499.639	-155.306	-0.362	0.024
-498.624	-200.000	-0.034	-0.159
-497.610	800.000	-0.053	-0.206
-496.595	800.000	0.052	-0.209
-495.581	76.433	-0.066	-0.071
-494.566	-65.903	-0.478	0.193
-493.551	255.005	0.011	0.019
-492.537	76.164	0.235	-0.251
-491.522	-200.000	0.016	0.099
-490.508	92.430	-0.127	-0.144
-489.493	-11.278	0.224	0.149
-488.478	-200.000	-0.052	0.346
-487.464	94.725	-0.273	-0.313
-486.449	-81.216	0.210	0.070
-485.435	800.000	-0.027	0.081
-484.420	416.496	-0.090	-0.194
-483.405	-200.000	-0.029	-0.286
-482.391	-200.000	0.005	-0.110
-481.376	800.000	0.037	0.121
-480.362	359.908	-0.092	0.186
-479.347	-200.000	-0.031	0.164
-478.332	-108.856	0.160	0.034
-477.318	-161.421	-0.099	-0.005
-476.303	800.000	0.066	0.188
-475.289	63.419	0.109	0.110
-474.274	21.272	0.126	-0.103
-473.259	174.547	0.038	0.056
-472.245	-43.979	-0.261	-0.132
-471.230	-133.823	0.137	-0.017
-470.216	515.185	-0.146	0.343
-469.201	19.411	0.160	0.129
-468.186	61.972	0.246	-0.247
-467.172	-131.922	-0.256	0.034
-466.157	-200.000	-0.007	0.124
-465.143	-22.308	0.203	0.124
-464.128	-87.274	0.127	0.039
-463.113	-20.579	0.125	0.077
-462.099	-132.783	-0.240	0.031
-461.084	-200.000	0.019	0.168
-460.070	-118.203	0.122	-0.022
-459.055	73.544	0.219	0.231
-458.040	7.010	0.027	0.021
-457.026	-153.325	0.155	0.011
-456.011	-94.378	-0.375	0.103
-454.997	-62.584	0.200	-0.084
-453.982	676.727	-0.101	-0.265
-452.968	148.627	0.227	-0.309
-451.953	-37.642	0.135	-0.072
-450.938	-200.000	0.065	0.300
-449.924	-135.966	-0.351	-0.042
-448.909	-55.188	-0.211	-0.096
-447.895	360.030	-0.057	0.114
-446.880	338.128	-0.220	0.432
-445.865	-60.265	0.104	0.045
-444.851	2.635	-0.121	-0.089
-443.836	-142.838	0.434	-0.042
-442.822	-118.813	-0.132	0.023
-441.807	-200.000	0.007	-0.063
-440.792	800.000	-0.087	-0.306
-439.778	-33.353	-0.135	-0.075
-438.763	575.980	-0.105	0.257
-437.749	-144.494	0.116	-0.011
-436.734	574.006	0.063	-0.155
-435.719	496.404	-0.162	-0.374
-434.705	-83.787	0.192	-0.062
-433.690	129.068	-0.212	0.273
-432.676	-77.028	0.073	0.026
-431.661	800.000	0.040	-0.129
-430.646	-116.905	0.234	0.043
-429.632	-200.000	0.002	-0.061
-428.617	-200.000	0.005	0.085
-427.603	-59.482	-0.028	-0.012
-426.588	462.685	-0.020	-0.046
-425.573	-199.006	-0.213	0.001
-424.559	800.000	0.084	0.309
-423.544	-200.000	-0.027	0.201
-422.530	434.617	-0.224	0.490
-421.515	-39.056	0.278	-0.147
-420.500	-200.000	0.024	0.167
-419.486	-200.000	-0.041	0.256
-418.471	-103.217	0.080	-0.019
-417.457	-98.754	-0.376	-0.096
-416.442	-200.000	-0.018	-0.082
-415.428	-13.518	0.228	0.149
-414.413	-200.000	-0.029	0.239
-413.398	78.632	0.107	-0.115
-412.384	-103.477	0.516	0.122
-411.369	800.000	-0.024	0.087
-410.355	314.147	0.185	-0.350
-409.340	-105.451	0.064	-0.015
-408.325	-172.101	0.275	0.009
-407.311	-49.652	0.108	-0.052
-406.296	166.737	-0.076	-0.108
-405.282	18.479	-0.109	-0.088
-404.267	-25.554	-0.084	0.050
-403.252	-45.501	0.409	0.204
-402.238	-23.152	-0.145	0.088
-401.223	800.000	0.138	0.483
-400.209	-155.036	-0.207	0.014
-399.194	-1.781	-0.115	0.081
-398.179	39.424	-0.293	-0.264
-397.165	-152.566	0.262	0.019
-396.150	-59.087	-0.035	-0.015
-395.136	-94.154	-0.197	0.054
-394.121	-168.935	0.350	-0.013
-393.106	-200.000	-0.028	0.158
-392.092	-102.967	-0.437	-0.104
-391.077	456.325	-0.070	0.155
-390.063	70.177	0.116	0.120
-389.048	800.000	-0.049	0.163
-388.033	-200.000	0.026	0.248
-387.019	452.091	-0.089	0.198
-386.004	-152.737	-0.104	0.007
-384.990	-125.338	0.124	0.019
-383.975	-110.957	-0.231	-0.048
-382.960	256.214	-0.097	0.167
-381.946	-81.293	0.308	0.102
-380.931	133.044	0.173	0.224
-379.917	-33.188	0.131	-0.073
-378.902	-200.000	-0.046	-0.273
-377.888	-92.017	0.172	0.049
-376.873	-37.427	-0.082	0.044
-375.858	348.591	0.068	0.134
-374.844	-30.151	-0.085	0.049
-373.829	259.845	0.108	-0.187
-372.815	67.948	0.209	0.215
-371.800	-24.902	0.233	-0.139
-370.785	-200.000	-0.027	0.236
-369.771	-200.000	0.012	0.107
-368.756	264.610	0.072	0.125
-367.742	105.502	-0.323	-0.383
-366.727	-200.000	-0.003	0.395
-365.712	175.623	0.131	-0.190
-364.698	310.606	-0.048	0.091
-363.683	95.344	-0.095	-0.108
-362.669	42.829	0.204	-0.187
-361.654	800.000	0.037	-0.120
-360.639	-56.175	0.283	-0.126
-359.625	3.283	-0.105	-0.076
-358.610	-200.000	-0.032	-0.385
-357.596	587.387	0.078	0.193
-356.581	281.350	0.138	-0.247
-355.566	343.112	-0.089	-0.175
-354.552	-143.426	0.240	0.023
-353.537	-87.809	0.256	-0.077
-352.523	-146.837	0.375	0.032
-351.508	800.000	-0.097	0.300
-350.493	-200.000	0.030	-0.249
-349.479	111.282	0.115	-0.139
-348.464	800.000	-0.131	0.477
-347.450	-200.000	0.040	0.371
-346.435	-200.000	-0.032	0.176
-345.420	800.000	-0.065	-0.191
-344.406	32.700	-0.092	-0.080
-343.391	-9.922	-0.211	0.141
-342.377	91.678	-0.100	-0.113
-341.362	-72.684	-0.509	-0.188
-340.348	-3.341	-0.097	0.068
-339.333	456.258	-0.094	-0.208
-338.318	-99.807	0.150	-0.038
-337.304	191.201	-0.121	0.183
-336.289	-200.000	-0.038	0.256
-335.275	-200.000	-0.048	0.255
-334.260	-52.543	0.158	0.073
-333.245	272.089	0.011	-0.019
-332.231	-38.143	-0.158	0.084
-331.216	-124.179	0.131	0.021
-330.202	494.262	0.061	-0.141
-329.187	-124.394	0.100	-0.016
-328.172	-110.812	0.295	0.061
-327.158	55.428	0.020	-0.020
-326.143	370.091	0.089	0.180
-325.129	-56.057	0.176	0.079
-324.114	440.132	0.113	-0.247
-323.099	-111.464	0.225	-0.046
-322.085	-200.000	0.021	0.299
-321.070	-200.000	-0.018	0.182
-320.056	-117.873	-0.195	-0.035
-319.041	-200.000	0.003	0.164
-318.026	-132.199	0.394	-0.051
-317.012	-200.000	0.061	-0.422
-315.997	6.518	-0.124	0.093
-314.983	335.189	-0.070	0.137
-313.968	-114.616	0.170	0.033
-312.953	-120.141	0.221	0.038
-311.939	-62.515	-0.428	0.178
-310.924	-200.000	-0.004	0.066
-309.910	-119.482	0.141	0.024
-308.895	-50.836	0.049	-0.023
-307.880	146.270	-0.051	-0.069
-306.866	-14.019	-0.391	-0.253
-305.851	99.757	0.078	-0.091
-304.837	-61.562	-0.158	0.066
-303.822	497.986	-0.034	-0.077
-302.807	-200.000	0.010	0.119
-301.793	176.408	-0.322	-0.469
-300.778	278.369	0.096	-0.170
-299.764	211.014	-0.195	0.307
-298.749	-90.252	-0.317	0.092
-297.735	-53.699	-0.398	-0.182
-296.720	-13.988	-0.070	0.045
-295.705	-72.831	-0.189	-0.069
-294.691	-1.382	0.059	-0.042
-293.676	-52.069	0.283	-0.132
-292.662	157.779	0.207	-0.286
-291.647	496.010	-0.100	-0.231
-290.632	107.930	0.147	0.175
-289.618	-65.649	0.260	0.104
-288.603	800.000	-0.073	0.219
-287.589	101.063	0.217	0.252
-286.574	155.239	-0.072	-0.099
-285.559	542.734	0.024	-0.058
-284.545	-200.000	-0.002	-0.069
-283.530	-131.030	-0.037	0.005
-282.516	800.000	0.009	-0.034
-281.501	15.208	-0.069	-0.054
-280.486	268.210	-0.066	-0.116
-279.472	800.000	-0.034	-0.133
-278.457	199.857	-0.056	0.086
-277.443	51.834	-0.084	0.080
-276.428	16.922	0.268	-0.213
-275.413	-200.000	0.018	0.270
-274.399	258.001	-0.126	-0.217
-273.384	-200.000	-0.027	-0.167
-272.370	41.101	0.197	-0.178
-271.355	-200.000	0.038	-0.258
-270.340	-112.807	0.331	-0.066
-269.326	-200.000	-0.016	-0.169
-268.311	312.975	-0.060	-0.113
-267.297	-200.000	-0.001	0.137
-266.282	-100.901	0.297	0.073
-265.267	-155.563	0.150	-0.010
-264.253	-8.139	-0.201	0.135
-263.238	-25.414	0.357	0.211
-262.224	-14.321	0.077	-0.050
-261.209	-155.189	-0.266	0.017
-260.195	567.666	-0.073	-0.176
-259.180	-115.852	0.199	0.037
-258.165	-29.308	0.175	-0.100
-257.151	81.017	0.073	0.079
-256.136	-200.000	-0.023	0.151
-255.122	22.943	-0.203	0.166
-254.107	41.116	-0.224	-0.203
-253.092	607.654	0.092	-0.228
-252.078	-167.339	0.243	-0.010
-251.063	-45.198	-0.037	-0.018
-250.049	-200.000	-0.029	-0.167
-249.034	-33.165	-0.335	0.186
-248.019	513.366	0.116	-0.271
-247.005	11.923	0.150	0.115
-245.990	80.178	-0.078	0.084
-244.976	290.676	-0.060	-0.109
-243.961	117.948	-0.163	-0.201
-242.946	-102.770	-0.340	0.081
-241.932	644.861	-0.110	0.280
-240.917	-159.398	-0.111	0.006
-239.903	800.000	-0.099	-0.313
-238.888	-200.000	0.022	0.193
-237.873	471.798	0.162	0.363
-236.859	-38.856	0.234	0.123
-235.844	-200.000	0.029	-0.203
-234.830	112.103	-0.041	-0.049
-233.815	-60.044	-0.280	0.119
-232.800	800.000	0.024	0.075
-231.786	-35.855	0.086	-0.046
-230.771	-60.138	-0.117	0.050
-229.757	-200.000	-0.008	-0.078
-228.742	169.623	0.177	-0.253
-227.727	128.161	-0.176	-0.223
-226.713	-200.000	0.030	-0.146
-225.698	-78.809	-0.307	-0.105
-224.684	-200.000	0.008	0.274
-223.669	-200.000	-0.011	-0.269
-222.655	800.000	-0.110	-0.381
-221.640	236.081	-0.073	-0.121
-220.625	-0.003	0.140	0.099
-219.611	-120.006	0.463	-0.079
-218.596	-63.388	-0.155	0.064
-217.582	119.770	-0.076	-0.094
-216.567	-134.042	-0.255	0.031
-215.552	69.161	0.022	-0.023
-214.538	800.000	0.064	0.260
-213.523	56.304	0.256	0.249
-212.509	-200.000	-0.081	-0.551
-211.494	311.058	0.208	-0.389
-210.479	19.244	0.092	0.074
-209.465	-200.000	0.007	-0.047
-208.450	-132.742	-0.219	-0.028
-207.436	-44.050	-0.094	0.047
-206.421	-200.000	-0.004	0.040
-205.406	-95.797	0.135	0.036
-204.392	-200.000	-0.002	-0.312
-203.377	60.624	0.235	0.232
-202.363	85.941	0.100	-0.109
-201.348	-46.597	0.102	-0.050
-200.333	800.000	-0.015	0.045
-199.319	-5.592	0.097	-0.066
-198.304	-97.295	0.226	-0.059
-197.290	-88.853	-0.260	0.077
-196.275	-200.000	-0.004	0.206
-195.260	-129.714	-0.224	0.031
-194.246	-140.590	-0.284	-0.029
-193.231	405.137	-0.107	0.224
-192.217	-137.257	-0.247	0.028
-191.202	370.834	-0.155	0.314
-190.187	-172.728	0.075	0.002
-189.173	-200.000	0.037	-0.201
-188.158	-200.000	0.021	0.286
-187.144	-32.178	0.353	0.197
-186.129	481.562	0.101	-0.228
-185.114	214.089	-0.069	-0.109
-184.100	-55.564	-0.191	0.085
-183.085	267.169	0.289	0.504
-182.071	-18.038	-0.159	0.099
-181.056	800.000	0.083	0.262
-180.042	-200.000	0.058	-0.377
-179.027	-200.000	0.027	0.143
-178.012	800.000	0.078	0.274
-176.998	-103.391	-0.108	-0.025
-175.983	-119.490	0.207	0.036
-174.969	-46.947	0.289	0.141
-173.954	-44.308	-0.244	-0.122
-172.939	51.280	-0.128	0.121
-171.925	-200.000	-0.004	-0.252
-170.910	394.316	-0.101	0.210
-169.896	277.033	-0.021	-0.038
-168.881	509.567	-0.113	-0.263
-167.866	-118.239	-0.256	0.045
-166.852	800.000	0.035	-0.108
-165.837	512.982	-0.048	0.112
-164.823	800.000	-0.109	0.457
-163.808	-200.000	-0.017	-0.176
-162.793	32.258	0.186	0.160
-161.779	800.000	0.058	-0.169
-160.764	-166.318	-0.506	0.021
-159.750	-67.375	-0.106	-0.042
-158.735	-49.120	-0.119	-0.057
-157.720	56.302	0.204	0.198
-156.706	-77.337	0.150	0.052
-155.691	316.619	0.052	0.098
-154.677	42.743	0.232	-0.210
-153.662	-200.000	-0.011	0.251
-152.647	-133.729	-0.167	0.021
-151.633	243.747	-0.097	-0.161
-150.618	-46.398	0.161	-0.079
-149.604	72.581	0.101	0.105
-148.589	-171.038	-0.137	0.005
-147.574	68.280	0.161	0.164
-146.560	71.464	-0.269	-0.277
-145.545	-200.000	0.066	-0.294
-144.531	572.547	0.155	0.376
-143.516	9.116	0.183	0.138
-142.502	-200.000	-0.070	0.000
-141.487	37.934	-0.104	-0.092
-140.472	353.229	-0.107	0.211
-139.458	29.315	0.244	0.206
-138.443	-158.103	-0.509	0.030
-137.429	-164.163	0.258	0.012
-136.414	-39.855	0.136	-0.071
-135.399	-59.896	-0.060	-0.026
-134.385	800.000	-0.109	-0.337
-133.370	-37.238	0.099	-0.053
-132.356	28.319	0.129	-0.109
-131.341	27.149	-0.144	0.120
-130.326	-200.000	0.015	-0.530
-129.312	-105.244	0.307	0.070
-128.297	-200.000	-0.003	-0.040
-127.283	43.302	0.270	0.245
-126.268	-105.447	0.202	0.046
-125.253	-101.135	0.087	0.021
-124.239	357.309	-0.171	0.339
-123.224	-48.710	0.281	-0.134
-122.210	-103.490	-0.136	-0.032
-121.195	72.498	0.176	-0.182
