DTS Sentinel unit serial number:	SN413079Multiplexer serial number:	ORYXHardware model number:	OX4-SRSoftware version number:	ORYX F/W v4.00 Oryx Data Collector v3.7.2.0data status	okinstallation	princeton_trtdifferential loss correction	single-endedforward channel	channel 1reverse channel	N/Adate	2019/09/15time	17:50:35forward acquisition time	60.00reverse acquisition time	0.00gamma	496.2192k internal	0.2291k external	0.2291temperature offset calibration	0.9933default loss term (dB/km)	0.3790temperature slope calibration	1.0000multiplexer offset coefficient	1.0000multiplexer slope coefficient	1.0000fibre end	0.00T internal ref (°C)	44.87T ext. ref 1 (°C)	6.36T ext. ref 2 (°C)	39.43length (m)	temperature (°C)	Stokes	anti-Stokes-747.200	-87.233	-0.359	0.112
-746.185	741.397	0.060	0.164
-745.171	-200.000	0.025	0.197
-744.156	800.000	-0.134	0.414
-743.142	251.754	0.156	0.272
-742.127	207.204	0.101	-0.161
-741.112	800.000	-0.050	-0.154
-740.098	150.997	0.121	-0.168
-739.083	800.000	0.059	0.169
-738.069	216.467	0.124	0.202
-737.054	-132.433	-0.110	-0.015
-736.039	173.626	-0.015	-0.022
-735.025	80.504	0.089	0.098
-734.010	800.000	-0.055	0.169
-732.996	12.586	-0.247	-0.195
-731.981	442.716	0.018	0.040
-730.966	50.699	0.145	-0.141
-729.952	155.159	0.213	-0.300
-728.937	800.000	-0.050	0.160
-727.923	-46.849	-0.238	-0.119
-726.908	121.231	-0.092	0.117
-725.894	-124.210	-0.080	0.013
-724.879	-200.000	-0.001	0.095
-723.864	-177.047	-0.360	0.009
-722.850	-104.036	-0.367	0.087
-721.835	-200.000	0.033	0.191
-720.821	388.796	-0.030	-0.063
-719.806	-135.296	-0.042	-0.005
-718.791	-116.579	-0.054	-0.010
-717.777	800.000	-0.007	0.022
-716.762	-100.189	-0.246	0.063
-715.748	75.709	-0.228	-0.247
-714.733	245.567	0.096	0.166
-713.718	800.000	0.068	0.196
-712.704	-138.008	-0.133	0.015
-711.689	68.605	-0.045	-0.047
-710.675	-111.673	0.171	-0.035
-709.660	-200.000	0.008	-0.385
-708.645	800.000	-0.052	-0.153
-707.631	-47.805	0.070	-0.035
-706.616	-176.394	0.172	-0.005
-705.602	638.120	0.037	0.095
-704.587	278.230	-0.067	0.122
-703.572	-33.464	-0.044	0.025
-702.558	800.000	-0.108	-0.476
-701.543	73.151	-0.174	-0.186
-700.529	241.447	-0.105	-0.179
-699.514	547.432	0.105	0.256
-698.499	755.474	-0.081	0.225
-697.485	115.364	-0.196	0.245
-696.470	-74.941	-0.258	0.095
-695.456	-56.706	-0.144	-0.065
-694.441	32.297	0.033	-0.029
-693.426	-68.133	0.349	0.139
-692.412	-53.797	-0.100	0.046
-691.397	54.984	-0.231	-0.228
-690.383	209.710	-0.090	-0.144
-689.368	-200.000	-0.020	0.105
-688.354	496.875	0.089	-0.209
-687.339	-89.926	0.109	-0.033
-686.324	-86.218	-0.176	0.055
-685.310	-200.000	-0.002	0.431
-684.295	800.000	-0.082	-0.235
-683.281	58.033	-0.375	-0.375
-682.266	-10.927	0.155	-0.104
-681.251	226.757	-0.112	0.186
-680.237	-200.000	-0.005	-0.064
-679.222	139.174	0.264	-0.355
-678.208	-200.000	0.067	-0.389
-677.193	-200.000	0.037	-0.189
-676.178	131.560	0.229	0.300
-675.164	-200.000	0.012	-0.204
-674.149	-92.326	-0.080	0.023
-673.135	-157.946	-0.167	-0.010
-672.120	-132.990	0.143	-0.019
-671.105	-62.868	0.188	0.080
-670.091	-70.048	-0.351	0.136
-669.076	-136.626	0.079	0.009
-668.062	138.311	-0.092	0.124
-667.047	-55.881	-0.229	0.105
-666.032	124.824	-0.183	0.235
-665.018	130.454	-0.128	-0.167
-664.003	536.844	-0.062	-0.151
-662.989	800.000	-0.078	-0.262
-661.974	-85.674	-0.476	0.151
-660.959	-92.457	0.021	-0.006
-659.945	615.531	-0.047	0.120
-658.930	-112.233	-0.102	-0.021
-657.916	800.000	-0.031	-0.135
-656.901	800.000	-0.132	-0.422
-655.886	-61.569	0.132	0.057
-654.872	800.000	0.076	0.227
-653.857	-148.617	-0.200	0.017
-652.843	-200.000	0.069	-0.000
-651.828	230.548	-0.166	0.277
-650.814	-28.842	-0.204	-0.120
-649.799	637.618	0.025	0.064
-648.784	86.588	0.065	0.074
-647.770	-200.000	-0.029	0.369
-646.755	-148.713	-0.324	0.027
-645.741	-126.036	-0.336	-0.052
-644.726	-14.059	-0.087	0.057
-643.711	54.601	-0.198	0.194
-642.697	278.931	0.077	0.141
-641.682	163.462	-0.062	0.089
-640.668	383.367	-0.029	0.060
-639.653	-200.000	-0.005	-0.079
-638.638	-200.000	-0.008	-0.065
-637.624	264.162	-0.020	-0.035
-636.609	-144.313	0.150	0.014
-635.595	800.000	-0.111	-0.359
-634.580	-99.041	0.239	-0.062
-633.565	-200.000	-0.070	-0.402
-632.551	85.832	0.238	-0.267
-631.536	-14.527	0.094	-0.061
-630.522	378.999	0.047	0.099
-629.507	-200.000	-0.024	0.157
-628.492	142.031	0.094	0.128
-627.478	4.681	-0.131	-0.098
-626.463	-54.233	0.179	0.083
-625.449	15.357	-0.386	-0.308
-624.434	179.755	0.045	-0.067
-623.419	-80.708	-0.142	0.048
-622.405	-106.137	-0.197	0.045
-621.390	800.000	-0.095	-0.321
-620.376	-2.542	0.116	-0.083
-619.361	528.917	0.054	0.130
-618.346	-200.000	-0.002	0.074
-617.332	117.100	-0.186	-0.233
-616.317	-200.000	0.029	0.524
-615.303	-60.131	0.456	0.198
-614.288	352.838	-0.113	-0.228
-613.273	3.995	-0.049	-0.036
-612.259	-200.000	0.014	-0.106
-611.244	800.000	0.085	0.336
-610.230	-200.000	-0.056	0.421
-609.215	10.796	-0.102	0.079
-608.201	454.046	0.102	-0.229
-607.186	-200.000	-0.027	0.303
-606.171	-200.000	-0.003	0.400
-605.157	-91.499	0.144	0.042
-604.142	336.578	0.017	-0.033
-603.128	-28.100	0.130	-0.077
-602.113	150.811	-0.103	0.143
-601.098	254.525	0.135	0.235
-600.084	-43.241	0.205	-0.106
-599.069	800.000	-0.021	-0.093
-598.055	-161.854	-0.124	0.006
-597.040	285.105	0.187	0.342
-596.025	-70.437	0.111	-0.043
-595.011	-70.011	-0.177	0.069
-593.996	-168.762	-0.028	-0.001
-592.982	-62.985	0.193	-0.081
-591.967	92.376	-0.061	-0.070
-590.952	800.000	0.072	-0.249
-589.938	6.518	-0.133	-0.101
-588.923	80.808	-0.198	0.217
-587.909	800.000	0.054	0.215
-586.894	-4.585	0.201	-0.141
-585.879	-145.223	-0.188	-0.017
-584.865	-200.000	-0.086	0.456
-583.850	-22.854	0.128	-0.079
-582.836	-200.000	-0.033	0.275
-581.821	-116.476	-0.088	0.017
-580.806	-73.154	-0.203	0.076
-579.792	800.000	0.011	-0.031
-578.777	-117.797	-0.092	0.017
-577.763	-200.000	0.049	0.354
-576.748	-200.000	-0.034	0.299
-575.733	-33.180	0.384	0.216
-574.719	54.437	-0.093	0.092
-573.704	-61.602	-0.259	-0.111
-572.690	-8.035	-0.099	-0.068
-571.675	-200.000	-0.007	0.141
-570.661	-200.000	0.084	-0.399
-569.646	-171.586	0.239	0.008
-568.631	-100.545	0.047	-0.012
-567.617	624.914	0.104	-0.266
-566.602	-30.420	-0.387	0.223
-565.588	417.632	0.132	0.288
-564.573	800.000	-0.085	0.286
-563.558	-24.164	0.208	-0.126
-562.544	800.000	-0.088	-0.294
-561.529	173.089	0.045	-0.066
-560.515	-200.000	-0.004	0.034
-559.500	-130.895	0.241	-0.033
-558.485	386.602	0.079	0.166
-557.471	-155.182	0.110	-0.007
-556.456	23.392	0.281	-0.235
-555.442	-140.957	-0.143	0.015
-554.427	-156.477	0.166	0.011
-553.412	99.630	0.057	0.067
-552.398	-64.125	0.011	-0.005
-551.383	671.376	-0.136	-0.359
-550.369	-134.198	0.064	-0.008
-549.354	778.102	-0.085	0.236
-548.339	-38.756	-0.080	0.043
-547.325	-125.793	-0.226	-0.035
-546.310	-200.000	0.001	-0.030
-545.296	800.000	0.031	0.137
-544.281	-65.335	0.245	-0.100
-543.266	800.000	0.033	0.121
-542.252	-177.600	0.296	0.007
-541.237	-188.973	0.070	-0.001
-540.223	-200.000	-0.041	0.182
-539.208	-114.356	-0.189	0.037
-538.193	-51.168	-0.122	0.058
-537.179	-78.698	-0.398	0.138
-536.164	35.906	0.071	0.063
-535.150	800.000	0.095	0.272
-534.135	197.604	0.170	-0.264
-533.121	-200.000	0.014	-0.192
-532.106	-159.385	0.311	0.018
-531.091	-22.372	0.206	-0.127
-530.077	-21.448	-0.173	0.107
-529.062	-200.000	-0.018	-0.100
-528.048	-28.780	-0.226	0.132
-527.033	-68.232	-0.191	0.076
-526.018	1.547	0.028	-0.020
-525.004	-52.747	-0.044	0.020
-523.989	-200.000	0.014	-0.350
-522.975	-113.118	-0.482	-0.096
-521.960	-66.673	-0.268	-0.108
-520.945	-71.690	-0.422	-0.160
-519.931	-200.000	-0.010	-0.243
-518.916	-170.109	0.312	-0.011
-517.902	-87.825	-0.313	-0.096
-516.887	-31.124	0.138	0.079
-515.872	110.893	0.213	-0.260
-514.858	-200.000	-0.002	-0.068
-513.843	-200.000	0.046	0.265
-512.829	-200.000	0.013	0.169
-511.814	528.705	-0.059	-0.141
-510.799	-93.183	0.157	-0.044
-509.785	-200.000	0.013	-0.289
-508.770	122.554	0.028	0.036
-507.756	265.976	0.147	0.260
-506.741	148.475	0.116	0.159
-505.726	161.861	-0.213	0.302
-504.712	-62.751	-0.239	-0.100
-503.697	-157.685	-0.117	0.007
-502.683	-41.358	-0.077	0.040
-501.668	-102.674	-0.308	0.074
-500.653	34.320	-0.106	-0.094
-499.639	-130.806	-0.351	-0.048
-498.624	-200.000	-0.014	-0.129
-497.610	-82.517	-0.112	-0.037
-496.595	-61.342	0.152	-0.065
-495.581	-62.886	0.163	0.068
-494.566	514.925	0.122	0.288
-493.551	778.619	0.159	-0.440
-492.537	800.000	0.056	0.197
-491.522	170.500	0.216	0.313
-490.508	-135.930	-0.169	-0.020
-489.493	800.000	0.116	0.353
-488.478	259.185	0.156	-0.273
-487.464	-19.287	0.157	0.099
-486.449	30.402	-0.046	0.040
-485.435	-14.023	0.256	0.168
-484.420	-58.991	0.149	0.065
-483.405	-200.000	0.023	0.338
-482.391	-200.000	-0.047	0.224
-481.376	-200.000	0.037	0.222
-480.362	-41.244	0.173	-0.090
-479.347	-200.000	-0.006	0.074
-478.332	131.176	0.198	-0.257
-477.318	104.764	-0.169	-0.201
-476.303	-28.480	0.184	0.107
-475.289	-32.473	-0.136	-0.077
-474.274	-26.699	-0.437	0.259
-473.259	-60.323	-0.118	-0.051
-472.245	800.000	0.064	-0.255
-471.230	800.000	0.111	-0.396
-470.216	478.826	-0.088	0.202
-469.201	-21.423	-0.144	0.089
-468.186	-29.392	-0.048	0.028
-467.172	775.631	0.087	-0.241
-466.157	249.728	0.092	0.158
-465.143	374.825	-0.201	0.414
-464.128	-45.262	-0.164	-0.082
-463.113	474.116	0.090	-0.206
-462.099	136.590	0.179	-0.237
-461.084	-200.000	0.019	-0.386
-460.070	151.316	-0.265	-0.365
-459.055	279.304	-0.039	-0.070
-458.040	800.000	-0.099	0.329
-457.026	-74.029	0.175	-0.064
-456.011	356.212	-0.108	-0.218
-454.997	26.454	0.288	-0.243
-453.982	-108.919	0.161	0.035
-452.968	47.892	0.214	0.203
-451.953	341.421	0.112	0.221
-450.938	800.000	0.035	0.145
-449.924	62.217	0.151	0.152
-448.909	29.583	-0.273	-0.235
-447.895	22.082	-0.186	0.154
-446.880	-93.502	-0.217	-0.061
-445.865	255.946	0.086	-0.150
-444.851	-86.836	0.152	0.047
-443.836	-200.000	0.017	-0.075
-442.822	-0.481	0.224	-0.161
-441.807	800.000	0.058	-0.164
-440.792	800.000	-0.099	0.304
-439.778	-133.860	0.345	-0.043
-438.763	-200.000	0.011	-0.068
-437.749	800.000	0.081	-0.256
-436.734	-95.224	0.179	0.049
-435.719	276.750	0.092	-0.166
-434.705	95.238	-0.201	-0.231
-433.690	800.000	-0.027	0.086
-432.676	18.904	-0.184	0.149
-431.661	-21.094	0.240	-0.149
-430.646	-101.469	0.298	-0.073
-429.632	126.367	-0.101	0.129
-428.617	-200.000	0.012	0.132
-427.603	-59.065	0.183	0.080
-426.588	766.478	-0.137	-0.377
-425.573	63.714	-0.124	-0.126
-424.559	-155.367	-0.084	-0.006
-423.544	800.000	-0.108	-0.322
-422.530	182.417	-0.074	0.110
-421.515	52.867	0.098	0.095
-420.500	-91.390	-0.093	0.027
-419.486	800.000	0.017	0.075
-418.471	-40.063	0.215	0.113
-417.457	-94.133	-0.102	-0.028
-416.442	800.000	-0.081	-0.298
-415.428	485.581	-0.094	-0.216
-414.413	-54.183	0.133	-0.061
-413.398	436.604	0.056	0.124
-412.384	-200.000	-0.014	-0.195
-411.369	-62.103	0.190	-0.080
-410.355	-79.171	0.110	0.038
-409.340	55.902	-0.126	-0.124
-408.325	-11.237	-0.101	-0.067
-407.311	-99.007	0.037	-0.010
-406.296	-93.462	-0.432	0.121
-405.282	-200.000	-0.009	0.048
-404.267	-200.000	-0.019	0.162
-403.252	-96.316	0.058	-0.015
-402.238	-47.504	0.385	-0.189
-401.223	-200.000	-0.006	-0.220
-400.209	52.036	0.273	0.262
-399.194	16.036	0.144	-0.115
-398.179	116.259	0.045	-0.056
-397.165	203.281	0.096	-0.151
-396.150	16.461	0.115	0.092
-395.136	48.529	-0.026	0.025
-394.121	106.072	-0.070	-0.083
-393.106	-97.788	-0.098	0.026
-392.092	-18.981	0.060	0.038
-391.077	-200.000	-0.010	0.159
-390.063	-175.456	0.177	0.005
-389.048	-187.835	-0.296	-0.004
-388.033	328.930	-0.050	0.097
-387.019	335.938	0.187	-0.367
-386.004	-119.863	0.057	0.010
-384.990	19.045	-0.211	-0.171
-383.975	-200.000	-0.017	-0.249
-382.960	196.164	-0.105	0.162
-381.946	18.857	-0.122	0.099
-380.931	-97.889	0.143	-0.037
-379.917	70.089	0.161	0.168
-378.902	110.157	-0.205	-0.248
-377.888	-15.251	0.233	0.150
-376.873	-38.659	-0.145	0.077
-375.858	-200.000	0.000	-0.044
-374.844	101.316	0.259	-0.304
-373.829	-124.608	-0.072	0.011
-372.815	41.505	0.192	-0.175
-371.800	22.671	0.138	-0.114
-370.785	221.013	-0.065	-0.105
-369.771	-114.793	-0.149	0.029
-368.756	95.604	-0.169	0.194
-367.742	-8.004	-0.268	0.182
-366.727	-86.659	-0.280	-0.087
-365.712	-11.573	0.223	0.148
-364.698	730.190	-0.142	0.382
-363.683	0.470	-0.377	-0.272
-362.669	-200.000	0.037	0.225
-361.654	800.000	0.080	-0.249
-360.639	-117.215	-0.182	0.033
-359.625	678.475	-0.054	0.142
-358.610	75.802	0.116	-0.124
-357.596	-116.956	0.332	0.061
-356.581	769.913	0.062	-0.170
-355.566	175.708	0.166	-0.243
-354.552	-200.000	0.010	0.171
-353.537	-57.513	-0.061	0.027
-352.523	-65.190	0.453	-0.184
-351.508	197.320	0.124	-0.191
-350.493	-200.000	-0.030	-0.140
-349.479	51.239	-0.216	-0.207
-348.464	-200.000	0.019	0.204
-347.450	267.415	-0.094	0.166
-346.435	765.514	0.114	0.314
-345.420	187.590	-0.126	0.189
-344.406	-90.114	-0.175	0.051
-343.391	-76.875	0.062	0.022
-342.377	84.146	-0.204	-0.225
-341.362	53.233	-0.096	0.092
-340.348	-200.000	-0.051	-0.251
-339.333	800.000	-0.055	-0.203
-338.318	-116.006	-0.119	-0.022
-337.304	-113.316	0.209	0.041
-336.289	468.899	-0.118	0.267
-335.275	122.732	-0.161	0.203
-334.260	-60.233	-0.157	-0.067
-333.245	50.886	0.090	-0.086
-332.231	800.000	-0.031	-0.129
-331.216	108.508	0.208	0.250
-330.202	193.972	0.122	-0.186
-329.187	288.220	0.066	0.121
-328.172	-81.819	-0.060	0.020
-327.158	-16.588	0.252	0.161
-326.143	-68.295	-0.347	-0.136
-325.129	84.925	0.139	0.153
-324.114	-131.429	-0.033	0.004
-323.099	56.409	-0.087	-0.085
-322.085	-170.665	0.250	0.009
-321.070	28.725	-0.081	-0.069
-320.056	-68.679	-0.296	0.115
-319.041	129.957	0.091	-0.117
-318.026	58.631	-0.192	-0.190
-317.012	139.547	-0.084	-0.112
-315.997	32.576	-0.203	0.177
-314.983	-200.000	-0.002	0.277
-313.968	-111.221	0.167	0.034
-312.953	-46.739	0.133	-0.066
-311.939	10.547	0.107	0.082
-310.924	-58.007	0.247	0.109
-309.910	151.303	-0.159	0.218
-308.895	-6.166	0.080	0.055
-307.880	29.879	0.158	0.136
-306.866	-42.011	0.319	0.165
-305.851	429.107	0.167	0.362
-304.837	39.825	-0.072	0.065
-303.822	-8.753	0.164	-0.111
-302.807	-4.356	-0.133	-0.093
-301.793	-100.532	0.270	0.067
-300.778	-62.684	-0.124	-0.052
-299.764	-90.387	-0.445	-0.130
-298.749	-144.571	0.073	0.007
-297.735	210.312	0.256	-0.405
-296.720	800.000	0.022	0.086
-295.705	-29.632	0.178	0.102
-294.691	62.917	-0.103	-0.103
-293.676	800.000	-0.041	-0.126
-292.662	206.216	-0.068	0.106
-291.647	800.000	-0.027	0.097
-290.632	-200.000	-0.028	-0.213
-289.618	38.736	-0.275	0.247
-288.603	469.807	-0.041	0.093
-287.589	-192.139	-0.049	0.000
-286.574	310.034	0.075	0.141
-285.559	-181.116	-0.139	-0.003
-284.545	800.000	-0.050	-0.168
-283.530	-200.000	0.006	-0.379
-282.516	800.000	-0.022	-0.074
-281.501	93.017	-0.324	0.368
-280.486	117.735	-0.194	-0.240
-279.472	-79.535	0.440	-0.150
-278.457	529.023	-0.141	-0.335
-277.443	-130.217	0.248	0.034
-276.428	375.176	-0.172	0.352
-275.413	800.000	0.048	-0.157
-274.399	91.720	-0.249	-0.282
-273.384	-200.000	-0.031	-0.469
-272.370	-200.000	-0.023	0.398
-271.355	-200.000	-0.059	0.392
-270.340	-95.748	-0.289	0.078
-269.326	20.285	0.181	0.147
-268.311	-200.000	-0.006	0.360
-267.297	800.000	-0.060	0.183
-266.282	101.299	-0.098	0.115
-265.267	91.166	-0.094	-0.106
-264.253	-10.545	0.152	0.101
-263.238	106.569	0.116	0.139
-262.224	-15.355	0.140	-0.090
-261.209	-200.000	-0.037	-0.182
-260.195	-112.568	0.250	0.050
-259.180	133.461	0.108	-0.140
-258.165	123.610	-0.077	-0.097
-257.151	-34.391	-0.085	-0.047
-256.136	-28.060	0.263	0.153
-255.122	-189.291	-0.334	0.004
-254.107	651.798	0.074	-0.190
-253.092	-200.000	-0.060	-0.283
-252.078	-40.083	-0.226	-0.118
-251.063	462.330	-0.088	0.198
-250.049	-200.000	0.085	0.437
-249.034	-200.000	-0.045	0.201
-248.019	-200.000	0.020	0.469
-247.005	2.039	0.067	0.049
-245.990	140.816	0.134	-0.178
-244.976	-69.061	-0.157	-0.061
-243.961	727.132	-0.084	-0.225
-242.946	144.641	-0.185	0.248
-241.932	-160.802	-0.384	-0.020
-240.917	123.630	-0.101	0.127
-239.903	174.301	-0.121	0.175
-238.888	107.304	-0.134	0.160
-237.873	-82.391	0.204	-0.066
-236.859	-200.000	0.006	0.205
-235.844	-200.000	0.030	-0.471
-234.830	-65.910	-0.222	-0.089
-233.815	800.000	0.113	-0.485
-232.800	-93.437	-0.164	-0.046
-231.786	-178.386	-0.167	-0.004
-230.771	256.639	-0.171	-0.295
-229.757	174.719	-0.166	-0.242
-228.742	-200.000	-0.006	-0.120
-227.727	-34.469	0.185	0.102
-226.713	500.429	-0.046	-0.108
-225.698	25.966	-0.064	-0.053
-224.684	800.000	0.080	0.289
-223.669	-55.414	0.226	-0.102
-222.655	-5.369	-0.198	-0.136
-221.640	132.935	0.123	-0.159
-220.625	573.105	-0.056	-0.136
-219.611	-156.581	-0.285	-0.018
-218.596	132.503	0.163	0.211
-217.582	63.182	0.074	0.075
-216.567	-147.142	-0.163	-0.014
-215.552	-2.585	-0.223	-0.157
-214.538	800.000	0.128	0.378
-213.523	-200.000	-0.052	0.287
-212.509	338.292	-0.038	0.075
-211.494	3.543	-0.260	0.190
-210.479	-161.296	0.415	-0.022
-209.465	-60.135	0.158	0.067
-208.450	800.000	0.014	0.057
-207.436	-94.865	-0.120	0.033
-206.421	-85.445	0.243	0.076
-205.406	350.661	0.053	-0.105
-204.392	160.150	0.269	-0.377
-203.377	-157.062	-0.143	0.009
-202.363	-47.459	-0.134	0.065
-201.348	-5.088	-0.321	0.222
-200.333	-90.709	0.160	-0.046
-199.319	36.502	-0.242	-0.214
-198.304	-148.130	0.293	0.024
-197.290	-200.000	-0.022	0.125
-196.275	-95.264	-0.110	-0.030
-195.260	202.316	-0.084	-0.130
-194.246	-200.000	0.033	-0.253
-193.231	-200.000	0.029	0.236
-192.217	-175.646	-0.226	0.006
-191.202	73.134	-0.191	-0.200
-190.187	-200.000	-0.042	-0.219
-189.173	800.000	-0.029	-0.096
-188.158	-17.107	0.230	0.145
-187.144	-74.806	0.143	-0.051
-186.129	-40.431	-0.280	0.145
-185.114	-66.234	0.219	0.087
-184.100	800.000	0.063	0.199
-183.085	800.000	0.082	0.341
-182.071	-107.166	-0.117	0.026
-181.056	800.000	-0.057	0.171
-180.042	-168.568	0.156	0.006
-179.027	-200.000	0.031	-0.255
-178.012	42.277	0.083	-0.075
-176.998	38.463	0.238	-0.212
-175.983	-42.342	0.327	0.167
-174.969	-65.689	0.398	0.160
-173.954	-200.000	-0.033	0.170
-172.939	30.481	-0.084	-0.072
-171.925	800.000	0.026	0.076
-170.910	155.026	0.159	0.219
-169.896	800.000	-0.041	-0.174
-168.881	-78.892	0.331	0.113
-167.866	25.739	0.138	0.115
-166.852	250.887	0.149	-0.253
-165.837	-141.698	0.118	0.012
-164.823	-200.000	-0.005	-0.075
-163.808	-6.695	0.134	-0.091
-162.793	140.322	-0.168	-0.222
-161.779	50.930	-0.389	-0.369
-160.764	35.106	-0.248	-0.218
-159.750	-200.000	0.040	0.188
-158.735	-55.646	0.255	-0.114
-157.720	33.535	0.038	-0.033
-156.706	195.917	0.043	0.066
-155.691	-1.862	0.209	-0.147
-154.677	8.794	0.175	0.132
-153.662	41.337	-0.332	-0.300
-152.647	-200.000	-0.046	-0.480
-151.633	-37.946	0.114	0.060
-150.618	-91.572	0.320	0.091
-149.604	-138.938	-0.236	-0.026
-148.589	773.124	0.038	0.105
-147.574	-200.000	-0.029	-0.188
-146.560	800.000	-0.130	0.372
-145.545	-126.747	0.178	0.026
-144.531	70.348	0.100	-0.103
-143.516	-200.000	0.014	0.086
-142.502	27.663	0.190	0.160
-141.487	738.475	0.050	-0.135
-140.472	129.678	0.225	0.288
-139.458	-133.053	0.271	-0.034
-138.443	18.084	0.108	0.086
-137.429	-200.000	0.058	-0.302
-136.414	-73.127	-0.139	-0.051
-135.399	50.994	0.073	-0.069
-134.385	182.445	-0.092	0.136
-133.370	-1.762	0.097	0.069
-132.356	11.443	0.233	0.179
-131.341	800.000	0.017	-0.057
-130.326	253.097	-0.102	-0.173
-129.312	-200.000	0.021	-0.329
-128.297	-81.579	-0.201	-0.066
-127.283	-165.885	0.169	-0.007
-126.268	800.000	0.053	-0.179
-125.253	-90.593	0.168	-0.048
-124.239	125.691	-0.254	-0.320
-123.224	282.641	0.102	-0.182
-122.210	-114.949	-0.185	-0.035
-121.195	-93.222	0.047	0.013
