DTS Sentinel unit serial number:	SN413079Multiplexer serial number:	ORYXHardware model number:	OX4-SRSoftware version number:	ORYX F/W v4.00 Oryx Data Collector v3.7.2.0data status	okinstallation	princeton_trtdifferential loss correction	single-endedforward channel	channel 1reverse channel	N/Adate	2019/09/17time	10:42:35forward acquisition time	60.00reverse acquisition time	0.00gamma	496.2192k internal	0.2322k external	0.2322temperature offset calibration	0.9962default loss term (dB/km)	0.3790temperature slope calibration	1.0000multiplexer offset coefficient	1.0000multiplexer slope coefficient	1.0000fibre end	0.00T internal ref (°C)	30.12T ext. ref 1 (°C)	0.17T ext. ref 2 (°C)	25.69length (m)	temperature (°C)	Stokes	anti-Stokes-747.200	7.329	0.237	-0.179
-746.185	800.000	-0.072	0.259
-745.171	-20.352	0.228	-0.141
-744.156	-200.000	0.037	0.327
-743.142	-121.315	-0.356	-0.060
-742.127	800.000	0.077	-0.276
-741.112	800.000	-0.041	0.177
-740.098	11.135	0.066	0.051
-739.083	302.698	0.163	0.305
-738.069	-146.681	-0.253	0.022
-737.054	-49.115	-0.485	-0.234
-736.039	-155.316	-0.449	-0.029
-735.025	-41.547	0.267	-0.139
-734.010	800.000	-0.065	-0.188
-732.996	-127.655	-0.512	-0.075
-731.981	-197.721	0.064	-0.000
-730.966	88.762	0.047	-0.052
-729.952	48.938	-0.101	-0.096
-728.937	40.726	0.166	0.152
-727.923	-200.000	0.007	0.245
-726.908	-118.487	0.153	0.027
-725.894	25.539	0.117	-0.098
-724.879	8.824	-0.097	0.074
-723.864	-200.000	0.029	0.181
-722.850	-134.019	0.242	-0.030
-721.835	-200.000	0.007	0.054
-720.821	-46.609	0.220	-0.109
-719.806	800.000	0.029	-0.121
-718.791	-53.321	-0.438	0.203
-717.777	-200.000	0.021	-0.636
-716.762	-57.923	-0.189	-0.083
-715.748	-154.708	-0.429	-0.029
-714.733	-118.170	0.135	0.024
-713.718	-110.117	0.380	0.080
-712.704	800.000	-0.211	-0.765
-711.689	248.953	0.086	-0.146
-710.675	-131.927	0.213	0.028
-709.660	328.615	0.074	0.144
-708.645	-26.147	0.171	0.102
-707.631	258.082	-0.082	-0.143
-706.616	-21.057	-0.045	0.028
-705.602	-37.524	0.115	0.062
-704.587	-155.439	-0.258	-0.017
-703.572	-148.279	0.174	0.014
-702.558	-52.255	0.143	-0.067
-701.543	-155.077	0.263	0.017
-700.529	-200.000	0.009	-0.399
-699.514	215.790	-0.102	-0.163
-698.499	800.000	-0.024	-0.084
-697.485	-200.000	-0.011	-0.143
-696.470	-115.057	0.317	0.061
-695.456	350.048	-0.043	0.085
-694.441	-200.000	0.050	0.309
-693.426	-200.000	-0.059	0.277
-692.412	124.825	-0.101	-0.128
-691.397	40.260	-0.263	0.238
-690.383	-129.790	-0.104	0.014
-689.368	3.488	-0.240	-0.176
-688.354	132.085	-0.239	-0.310
-687.339	-130.182	0.169	-0.023
-686.324	-200.000	-0.037	0.389
-685.310	800.000	-0.077	-0.293
-684.295	89.044	-0.065	-0.073
-683.281	-108.953	-0.435	0.094
-682.266	280.752	0.024	0.043
-681.251	800.000	-0.042	-0.121
-680.237	418.157	0.051	-0.110
-679.222	799.389	-0.077	-0.214
-678.208	-17.210	0.371	0.235
-677.193	3.815	-0.377	0.277
-676.178	-99.386	0.080	0.020
-675.164	75.613	0.183	-0.194
-674.149	138.407	0.056	-0.074
-673.135	4.259	-0.184	-0.136
-672.120	-160.227	-0.211	-0.012
-671.105	-30.105	-0.076	-0.044
-670.091	196.842	-0.174	-0.267
-669.076	123.813	-0.176	-0.222
-668.062	-200.000	0.024	-0.141
-667.047	18.768	0.123	-0.099
-666.032	-106.758	0.361	0.081
-665.018	-115.161	-0.188	-0.036
-664.003	-116.393	0.141	-0.026
-662.989	800.000	0.020	-0.065
-661.974	-200.000	0.009	0.183
-660.959	139.064	-0.245	-0.325
-659.945	-79.361	-0.079	-0.027
-658.930	-113.602	-0.264	-0.052
-657.916	518.476	-0.127	0.299
-656.901	-34.795	-0.208	0.114
-655.886	-155.439	-0.135	0.009
-654.872	405.969	-0.130	0.276
-653.857	-17.752	-0.163	0.103
-652.843	188.814	0.118	0.177
-651.828	668.706	0.036	-0.094
-650.814	-176.091	-0.300	-0.008
-649.799	-67.287	-0.280	0.111
-648.784	-24.292	-0.289	0.174
-647.770	359.124	-0.096	-0.192
-646.755	-59.513	-0.087	0.038
-645.741	-68.709	-0.184	0.072
-644.726	-82.172	0.045	-0.015
-643.711	166.433	0.317	-0.452
-642.697	-200.000	-0.004	0.047
-641.682	-200.000	0.025	0.225
-640.668	-64.288	-0.289	-0.118
-639.653	-161.024	0.232	-0.012
-638.638	-153.374	0.160	0.011
-637.624	19.006	-0.256	-0.207
-636.609	163.988	0.042	0.060
-635.595	25.559	-0.078	0.065
-634.580	-74.358	-0.230	-0.083
-633.565	98.686	0.132	-0.153
-632.551	800.000	-0.055	-0.191
-631.536	131.181	0.060	0.078
-630.522	-66.393	-0.469	0.187
-629.507	41.567	0.107	0.098
-628.492	-86.008	-0.311	-0.097
-627.478	-40.220	-0.283	0.148
-626.463	137.137	0.246	-0.323
-625.449	373.472	-0.303	-0.620
-624.434	-200.000	0.028	-0.214
-623.419	-60.419	-0.151	-0.065
-622.405	-146.548	-0.332	-0.029
-621.390	-200.000	-0.007	-0.209
-620.376	-200.000	0.064	0.317
-619.361	447.382	0.104	-0.230
-618.346	-200.000	-0.014	-0.272
-617.332	197.520	0.067	-0.103
-616.317	800.000	0.069	-0.237
-615.303	-39.602	0.282	-0.148
-614.288	-50.399	0.146	0.069
-613.273	-200.000	-0.041	0.436
-612.259	-200.000	0.033	0.158
-611.244	10.802	-0.081	0.062
-610.230	-200.000	-0.004	-0.242
-609.215	61.286	-0.381	0.381
-608.201	-46.241	-0.234	-0.116
-607.186	11.781	-0.203	0.157
-606.171	212.870	-0.134	0.212
-605.157	-156.800	-0.167	-0.010
-604.142	19.276	0.311	-0.251
-603.128	-200.000	-0.036	0.171
-602.113	687.948	0.124	0.324
-601.098	800.000	-0.043	0.154
-600.084	-69.104	0.239	0.092
-599.069	342.301	0.045	0.089
-598.055	-7.305	0.214	-0.145
-597.040	227.734	0.146	-0.238
-596.025	-41.045	0.144	-0.075
-595.011	-200.000	-0.021	0.369
-593.996	108.137	0.190	0.227
-592.982	100.135	-0.250	0.291
-591.967	-138.930	-0.403	0.044
-590.952	12.556	-0.132	0.102
-589.938	244.206	-0.079	0.132
-588.923	800.000	0.051	0.175
-587.909	800.000	-0.027	0.081
-586.894	-46.031	0.111	-0.055
-585.879	-47.977	0.315	0.153
-584.865	22.620	0.204	0.167
-583.850	137.698	0.074	-0.097
-582.836	-200.000	0.014	0.080
-581.821	-200.000	0.023	-0.234
-580.806	800.000	-0.100	-0.352
-579.792	151.888	0.094	0.129
-578.777	66.309	-0.109	0.111
-577.763	-0.033	-0.232	0.166
-576.748	574.828	-0.095	-0.233
-575.733	-200.000	0.028	-0.485
-574.719	-160.423	-0.310	-0.017
-573.704	214.177	-0.154	-0.245
-572.690	-66.167	-0.250	-0.100
-571.675	-200.000	0.004	-0.023
-570.661	800.000	0.094	0.284
-569.646	-149.852	-0.188	-0.015
-568.631	-47.497	0.099	-0.048
-567.617	-77.238	-0.318	0.111
-566.602	-121.264	0.251	-0.042
-565.588	-200.000	0.022	-0.246
-564.573	198.413	-0.162	0.248
-563.558	-153.724	0.225	0.015
-562.544	800.000	0.051	0.202
-561.529	-200.000	0.004	0.345
-560.515	-120.818	-0.351	-0.059
-559.500	465.645	0.164	-0.367
-558.485	-145.732	0.196	0.018
-557.471	329.539	0.064	-0.124
-556.456	475.795	-0.041	0.093
-555.442	-142.278	0.104	0.010
-554.427	-130.577	-0.085	-0.012
-553.412	358.635	-0.089	0.178
-552.398	-79.336	-0.127	0.043
-551.383	-28.382	0.169	-0.098
-550.369	800.000	-0.054	0.222
-549.354	800.000	-0.034	-0.135
-548.339	500.763	-0.150	0.347
-547.325	298.868	-0.093	-0.171
-546.310	145.660	0.173	0.232
-545.296	13.905	-0.026	-0.020
-544.281	58.695	-0.065	0.064
-543.266	800.000	0.056	0.180
-542.252	792.730	0.028	-0.078
-541.237	-113.344	-0.097	0.019
-540.223	578.210	0.033	-0.080
-539.208	800.000	0.023	-0.072
-538.193	4.646	-0.140	-0.103
-537.179	16.020	0.142	-0.112
-536.164	-123.574	0.170	-0.027
-535.150	-62.666	-0.180	0.075
-534.135	-38.402	-0.220	0.117
-533.121	-64.269	0.207	0.084
-532.106	-54.375	-0.181	0.082
-531.091	141.361	-0.041	-0.054
-530.077	30.722	-0.338	0.290
-529.062	-200.000	0.003	0.192
-528.048	346.827	0.164	0.323
-527.033	-200.000	-0.027	-0.148
-526.018	-131.595	0.155	0.020
-525.004	-200.000	-0.034	-0.273
-523.989	-200.000	-0.013	0.121
-522.975	-200.000	0.016	-0.114
-521.960	172.733	-0.163	-0.236
-520.945	138.181	0.086	-0.113
-519.931	-200.000	0.047	-0.260
-518.916	168.613	0.126	-0.179
-517.902	-62.545	0.222	0.092
-516.887	224.199	0.059	-0.096
-515.872	62.792	-0.440	-0.441
-514.858	800.000	0.111	-0.378
-513.843	605.587	-0.049	-0.121
-512.829	-67.655	-0.245	-0.096
-511.814	214.544	0.191	-0.303
-510.799	-200.000	-0.006	-0.116
-509.785	-4.313	-0.155	-0.107
-508.770	-200.000	-0.030	-0.403
-507.756	-200.000	0.001	-0.160
-506.741	65.682	-0.207	-0.210
-505.726	35.823	0.074	0.065
-504.712	156.418	-0.059	0.081
-503.697	116.092	0.170	0.208
-502.683	800.000	0.076	-0.314
-501.668	6.401	-0.144	0.107
-500.653	-105.876	-0.093	0.021
-499.639	592.369	-0.094	0.233
-498.624	577.954	0.089	0.217
-497.610	15.219	0.048	-0.038
-496.595	245.761	-0.010	0.018
-495.581	95.798	-0.227	-0.259
-494.566	628.597	0.062	-0.156
-493.551	-56.333	0.170	-0.076
-492.537	36.131	-0.406	-0.358
-491.522	304.043	0.161	0.299
-490.508	-88.262	0.171	-0.051
-489.493	80.000	0.261	0.281
-488.478	26.985	0.258	0.216
-487.464	-200.000	0.039	-0.355
-486.449	440.623	-0.046	0.101
-485.435	469.535	0.032	0.072
-484.420	-176.250	-0.042	0.001
-483.405	-122.585	0.446	0.072
-482.391	-24.909	0.173	0.103
-481.376	218.074	-0.089	0.142
-480.362	-80.181	0.316	0.106
-479.347	175.269	0.215	0.312
-478.332	-19.616	0.204	-0.126
-477.318	-200.000	0.034	-0.203
-476.303	-47.152	0.215	-0.105
-475.289	-200.000	-0.055	-0.338
-474.274	92.247	-0.186	0.209
-473.259	800.000	0.117	0.425
-472.245	-200.000	0.041	0.200
-471.230	-178.596	-0.127	-0.003
-470.216	-135.640	-0.324	0.038
-469.201	-57.786	0.423	-0.185
-468.186	-16.476	-0.112	0.071
-467.172	-200.000	-0.028	-0.198
-466.157	57.488	0.270	0.264
-465.143	63.693	-0.194	-0.195
-464.128	-108.815	0.204	-0.044
-463.113	800.000	-0.141	-0.397
-462.099	-200.000	0.075	0.421
-461.084	-158.061	0.125	-0.007
-460.070	800.000	-0.004	0.018
-459.055	77.047	-0.257	0.273
-458.040	-96.475	-0.313	-0.083
-457.026	639.847	0.064	0.162
-456.011	800.000	-0.101	-0.331
-454.997	-49.009	0.087	-0.042
-453.982	88.404	0.077	0.085
-452.968	226.991	-0.132	0.214
-451.953	800.000	0.036	0.136
-450.938	316.862	-0.219	-0.413
-449.924	522.373	-0.085	-0.200
-448.909	526.982	0.156	0.368
-447.895	800.000	-0.064	0.271
-446.880	-6.389	0.249	0.170
-445.865	34.789	-0.277	0.242
-444.851	47.564	-0.129	0.120
-443.836	141.089	-0.042	-0.056
-442.822	22.140	0.061	0.050
-441.807	-12.653	0.119	-0.078
-440.792	-200.000	-0.023	0.149
-439.778	-45.927	0.174	-0.086
-438.763	-67.066	-0.238	-0.094
-437.749	-40.558	-0.301	-0.156
-436.734	383.731	0.086	-0.177
-435.719	800.000	0.046	0.127
-434.705	800.000	-0.110	-0.319
-433.690	-200.000	0.004	-0.170
-432.676	-24.741	-0.205	-0.121
-431.661	433.173	-0.095	0.205
-430.646	-87.408	0.260	-0.079
-429.632	-200.000	-0.039	0.267
-428.617	-200.000	0.043	0.336
-427.603	800.000	0.075	-0.289
-426.588	10.804	0.229	0.175
-425.573	35.756	-0.153	-0.134
-424.559	-37.246	0.134	-0.071
-423.544	-142.238	0.085	-0.008
-422.530	-200.000	-0.004	-0.065
-421.515	401.882	0.122	0.256
-420.500	-200.000	0.012	-0.121
-419.486	-129.778	0.196	-0.027
-418.471	75.759	0.348	-0.367
-417.457	94.706	0.188	0.213
-416.442	-66.506	0.292	0.115
-415.428	-200.000	0.038	-0.321
-414.413	252.131	-0.176	0.299
-413.398	77.965	0.241	-0.256
-412.384	114.016	-0.232	-0.281
-411.369	-88.992	-0.356	-0.105
-410.355	70.979	0.047	0.048
-409.340	-21.381	0.132	0.080
-408.325	-123.706	0.135	0.021
-407.311	-186.671	0.215	0.003
-406.296	730.357	0.108	0.286
-405.282	-50.925	0.141	-0.066
-404.267	433.762	-0.155	0.336
-403.252	-200.000	-0.039	-0.355
-402.238	-200.000	-0.019	-0.245
-401.223	3.875	0.163	-0.119
-400.209	355.795	0.151	-0.300
-399.194	-76.658	-0.198	-0.069
-398.179	22.414	0.329	-0.268
-397.165	-200.000	0.002	-0.014
-396.150	-10.006	-0.108	0.071
-395.136	281.679	0.197	0.352
-394.121	-90.648	-0.060	0.017
-393.106	-15.435	0.211	0.134
-392.092	78.118	0.170	0.181
-391.077	28.801	-0.092	-0.078
-390.063	378.311	-0.118	0.240
-389.048	1.895	0.205	0.148
-388.033	-200.000	-0.053	-0.314
-387.019	681.395	0.117	0.303
-386.004	-41.629	-0.265	-0.136
-384.990	-60.196	0.036	-0.015
-383.975	-125.915	-0.305	-0.046
-382.960	-147.730	-0.237	0.020
-381.946	129.903	0.150	0.191
-380.931	92.602	-0.060	-0.068
-379.917	34.910	0.367	0.320
-378.902	209.658	-0.301	0.470
-377.888	-51.655	0.270	-0.125
-376.873	189.385	0.195	-0.290
-375.858	105.845	-0.166	-0.196
-374.844	97.191	-0.338	-0.386
-373.829	236.336	0.076	-0.125
-372.815	-52.627	-0.070	-0.032
-371.800	34.840	-0.184	-0.161
-370.785	800.000	0.063	0.223
-369.771	67.688	-0.054	0.055
-368.756	-200.000	-0.005	0.120
-367.742	21.216	0.207	-0.167
-366.727	-69.965	0.192	0.073
-365.712	800.000	-0.066	0.196
-364.698	330.984	-0.096	0.185
-363.683	-122.947	-0.371	0.059
-362.669	-30.960	0.379	0.213
-361.654	800.000	-0.058	-0.187
-360.639	-50.722	0.114	-0.053
-359.625	-76.632	0.403	-0.141
-358.610	-31.273	-0.115	0.064
-357.596	-85.882	-0.225	0.069
-356.581	134.927	-0.136	0.176
-355.566	540.732	-0.042	0.099
-354.552	549.853	0.042	-0.101
-353.537	516.486	-0.065	-0.150
-352.523	-5.001	-0.166	0.114
-351.508	85.383	0.162	0.176
-350.493	7.990	0.170	-0.126
-349.479	666.269	0.130	0.335
-348.464	177.150	-0.055	-0.079
-347.450	354.571	0.151	0.299
-346.435	-46.157	-0.262	0.128
-345.420	-109.465	-0.300	-0.063
-344.406	417.797	-0.146	-0.311
-343.391	42.828	0.121	-0.109
-342.377	162.548	-0.187	0.260
-341.362	-169.453	-0.255	-0.009
-340.348	-32.645	-0.332	0.184
-339.333	214.405	-0.100	0.157
-338.318	-103.070	-0.312	-0.074
-337.304	-200.000	-0.008	-0.082
-336.289	-200.000	-0.021	-0.172
-335.275	-195.294	0.226	0.002
-334.260	-200.000	-0.017	0.082
-333.245	86.794	0.239	-0.262
-332.231	376.320	0.010	0.019
-331.216	104.648	0.346	-0.405
-330.202	42.044	0.141	-0.127
-329.187	283.150	0.086	0.153
-328.172	14.744	-0.075	0.058
-327.158	-49.785	-0.199	0.094
-326.143	-170.354	0.478	0.017
-325.129	150.512	-0.144	0.194
-324.114	800.000	-0.057	-0.169
-323.099	-1.440	0.143	-0.100
-322.085	-200.000	0.030	0.193
-321.070	486.913	-0.196	-0.444
-320.056	-200.000	-0.001	-0.024
-319.041	255.129	0.075	-0.128
-318.026	247.920	-0.117	0.197
-317.012	54.795	-0.249	-0.238
-315.997	67.119	0.164	-0.166
-314.983	-17.398	-0.217	-0.136
-313.968	-176.281	-0.059	0.002
-312.953	800.000	-0.082	0.314
-311.939	173.052	-0.274	-0.392
-310.924	652.302	0.139	0.355
-309.910	-86.241	-0.367	-0.112
-308.895	-200.000	0.016	-0.299
-307.880	-87.786	0.288	0.086
-306.866	125.762	-0.038	-0.048
-305.851	440.445	-0.073	0.158
-304.837	46.801	0.176	0.162
-303.822	-200.000	0.020	-0.436
-302.807	-200.000	-0.033	-0.145
-301.793	303.571	-0.055	-0.101
-300.778	99.065	-0.288	-0.331
-299.764	-200.000	-0.065	0.350
-298.749	-81.031	0.232	-0.076
-297.735	88.981	0.111	0.123
-296.720	-14.709	0.335	-0.214
-295.705	800.000	0.047	0.159
-294.691	62.965	0.296	0.294
-293.676	-146.891	0.039	0.003
-292.662	-0.302	-0.174	-0.123
-291.647	320.882	0.254	0.479
-290.632	-37.378	-0.309	-0.164
-289.618	-2.578	0.166	0.116
-288.603	-39.691	0.122	-0.063
-287.589	-200.000	-0.026	-0.196
-286.574	30.831	-0.193	-0.164
-285.559	-200.000	-0.014	0.140
-284.545	-200.000	0.019	0.096
-283.530	-145.861	-0.230	-0.020
-282.516	-53.840	-0.138	0.062
-281.501	800.000	-0.155	-0.525
-280.486	45.985	0.265	-0.243
-279.472	-90.063	0.255	-0.074
-278.457	-68.795	-0.103	-0.039
-277.443	-200.000	0.000	-0.318
-276.428	800.000	0.030	-0.115
-275.413	-93.786	0.271	-0.074
-274.399	11.510	0.135	0.102
-273.384	-200.000	-0.049	-0.231
-272.370	-200.000	0.017	-0.128
-271.355	-200.000	-0.002	0.178
-270.340	142.157	0.130	-0.171
-269.326	93.859	-0.221	0.249
-268.311	-3.618	-0.205	0.141
-267.297	-98.086	-0.350	-0.089
-266.282	81.626	0.341	0.366
-265.267	-144.464	0.225	-0.021
-264.253	-60.921	0.387	0.162
-263.238	-130.426	0.141	-0.019
-262.224	45.880	-0.221	0.203
-261.209	561.800	-0.077	-0.184
-260.195	800.000	-0.072	-0.264
-259.180	-153.272	-0.481	0.033
-258.165	-200.000	0.026	0.212
-257.151	-155.550	0.252	0.016
-256.136	-168.734	-0.171	0.006
-255.122	-200.000	-0.021	-0.167
-254.107	-200.000	0.038	0.184
-253.092	-61.791	-0.072	-0.030
-252.078	-99.359	0.140	0.035
-251.063	-58.750	-0.165	0.071
-250.049	368.391	0.066	0.133
-249.034	-13.174	-0.283	0.182
-248.019	733.979	-0.092	-0.243
-247.005	-88.122	0.427	-0.127
-245.990	-40.081	0.102	-0.052
-244.976	800.000	-0.060	0.234
-243.961	198.047	-0.043	-0.064
-242.946	-73.230	0.339	0.123
-241.932	-5.356	0.170	-0.115
-240.917	140.879	-0.064	-0.083
-239.903	800.000	0.041	-0.147
-238.888	6.278	0.085	-0.063
-237.873	262.114	0.101	0.173
-236.859	146.997	0.325	0.433
-235.844	-200.000	0.073	0.000
-234.830	407.074	-0.061	-0.129
-233.815	-200.000	0.013	-0.328
-232.800	-56.967	0.244	-0.107
-231.786	92.631	-0.193	0.215
-230.771	51.763	-0.266	0.250
-229.757	-104.958	0.142	-0.032
-228.742	-57.691	-0.079	-0.034
-227.727	-200.000	0.033	0.156
-226.713	-78.728	0.068	0.023
-225.698	370.945	0.128	0.257
-224.684	7.250	0.259	0.192
-223.669	-118.332	-0.483	-0.085
-222.655	-20.821	-0.404	0.245
-221.640	-131.560	-0.279	0.036
-220.625	-200.000	0.001	-0.024
-219.611	-65.468	0.189	0.075
-218.596	800.000	-0.034	0.111
-217.582	3.026	0.056	0.040
-216.567	282.970	-0.088	0.156
-215.552	678.512	0.101	0.260
-214.538	-37.718	0.312	0.164
-213.523	-77.942	0.213	0.073
-212.509	-200.000	0.029	-0.158
-211.494	299.534	-0.169	-0.308
-210.479	-200.000	-0.017	-0.086
-209.465	800.000	0.089	-0.290
-208.450	205.827	-0.075	-0.115
-207.436	160.210	-0.162	0.224
-206.421	293.587	0.104	0.188
-205.406	60.068	-0.091	0.089
-204.392	189.682	0.062	-0.092
-203.377	-181.174	-0.231	-0.005
-202.363	-200.000	0.073	0.365
-201.348	-49.920	0.305	0.143
-200.333	-99.607	-0.235	-0.058
-199.319	82.003	0.028	-0.031
-198.304	437.535	0.142	0.306
-197.290	-200.000	-0.016	-0.337
-196.275	164.643	-0.084	0.117
-195.260	800.000	0.145	-0.453
-194.246	82.810	0.123	-0.132
-193.231	-108.550	0.236	0.050
-192.217	-200.000	0.016	0.118
-191.202	468.657	-0.090	0.199
-190.187	64.304	-0.312	-0.310
-189.173	800.000	0.069	-0.248
-188.158	-45.211	-0.146	0.072
-187.144	215.060	0.057	0.089
-186.129	380.327	-0.105	0.213
-185.114	800.000	-0.046	0.126
-184.100	22.414	0.142	-0.115
-183.085	-200.000	0.012	-0.067
-182.071	40.109	0.113	-0.100
-181.056	174.710	-0.152	-0.217
-180.042	791.841	0.032	-0.088
-179.027	149.777	0.134	0.179
-178.012	800.000	-0.072	0.286
-176.998	438.340	-0.067	0.145
-175.983	800.000	0.119	0.404
-174.969	-61.394	-0.429	-0.178
-173.954	-7.399	0.203	0.136
-172.939	462.841	0.039	0.085
-171.925	800.000	0.041	0.121
-170.910	9.996	0.134	-0.101
-169.896	694.078	0.010	0.025
-168.881	17.044	-0.117	-0.092
-167.866	-53.555	-0.101	-0.046
-166.852	78.962	0.208	0.220
-165.837	-200.000	-0.019	-0.372
-164.823	-173.187	0.224	-0.007
-163.808	16.256	0.291	-0.226
-162.793	-200.000	0.044	0.252
-161.779	800.000	-0.064	0.241
-160.764	520.376	-0.042	0.096
-159.750	800.000	-0.061	0.235
-158.735	337.580	0.050	-0.097
-157.720	-200.000	0.000	0.045
-156.706	-200.000	-0.007	0.176
-155.691	1.709	-0.081	0.057
-154.677	-200.000	-0.004	-0.114
-153.662	-200.000	-0.029	0.129
-152.647	171.740	-0.117	-0.166
-151.633	-124.441	0.245	-0.038
-150.618	38.043	0.179	0.157
-149.604	62.706	-0.033	0.032
-148.589	165.141	0.249	-0.347
-147.574	32.481	0.062	0.053
-146.560	-26.377	-0.174	0.100
-145.545	-33.091	0.149	0.082
-144.531	800.000	-0.093	-0.374
-143.516	28.382	-0.105	-0.088
-142.502	-124.419	-0.259	0.040
-141.487	-58.283	0.538	0.231
-140.472	112.973	0.134	0.161
-139.458	800.000	0.050	0.172
-138.443	-67.373	0.066	0.025
-137.429	96.224	0.100	0.113
-136.414	246.716	0.110	0.183
-135.399	-200.000	0.009	-0.107
-134.385	351.178	-0.086	0.168
-133.370	125.778	-0.096	0.120
-132.356	279.821	0.028	0.049
-131.341	800.000	0.028	-0.103
-130.326	-0.648	-0.059	0.041
-129.312	-200.000	0.028	0.247
-128.297	-200.000	-0.042	0.235
-127.283	-83.088	0.388	0.123
-126.268	-200.000	0.038	-0.325
-125.253	-106.107	-0.358	0.079
-124.239	-200.000	0.011	0.247
-123.224	800.000	0.070	0.222
-122.210	-93.253	0.101	-0.028
-121.195	800.000	0.021	0.079
-120.180	-27.128	0.367	0.211
