DTS Sentinel unit serial number:	SN413079Multiplexer serial number:	ORYXHardware model number:	OX4-SRSoftware version number:	ORYX F/W v4.00 Oryx Data Collector v3.7.2.0data status	okinstallation	princeton_trtdifferential loss correction	single-endedforward channel	channel 1reverse channel	N/Adate	2019/09/17time	20:38:35forward acquisition time	60.00reverse acquisition time	0.00gamma	496.2192k internal	0.2330k external	0.2330temperature offset calibration	0.9982default loss term (dB/km)	0.3790temperature slope calibration	1.0000multiplexer offset coefficient	1.0000multiplexer slope coefficient	1.0000fibre end	0.00T internal ref (°C)	30.02T ext. ref 1 (°C)	0.20T ext. ref 2 (°C)	20.88length (m)	temperature (°C)	Stokes	anti-Stokes-747.200	72.756	0.031	-0.032
-746.185	-104.273	-0.197	-0.046
-745.171	-163.801	-0.305	-0.014
-744.156	-200.000	-0.041	0.198
-743.142	-117.324	0.359	0.066
-742.127	-173.364	-0.307	-0.009
-741.112	-120.353	0.208	-0.036
-740.098	-200.000	-0.006	0.182
-739.083	642.715	-0.113	0.290
-738.069	467.545	0.032	0.072
-737.054	-200.000	-0.018	0.293
-736.039	-10.142	0.165	0.110
-735.025	621.881	0.134	0.340
-734.010	-200.000	-0.052	-0.284
-732.996	-105.115	0.104	-0.024
-731.981	-17.314	-0.102	0.065
-730.966	-200.000	-0.016	-0.160
-729.952	-200.000	-0.016	-0.112
-728.937	15.937	-0.329	-0.260
-727.923	800.000	-0.074	0.252
-726.908	6.276	-0.206	-0.154
-725.894	53.502	-0.189	-0.182
-724.879	198.706	-0.113	-0.174
-723.864	119.938	0.091	0.113
-722.850	517.097	-0.195	-0.460
-721.835	-163.991	0.136	0.006
-720.821	-200.000	0.033	-0.237
-719.806	29.046	-0.316	0.270
-718.791	145.972	-0.221	-0.298
-717.777	312.481	-0.103	-0.194
-716.762	-60.889	-0.375	-0.160
-715.748	3.638	0.204	0.150
-714.733	800.000	0.048	-0.160
-713.718	-200.000	-0.049	0.254
-712.704	4.169	-0.036	0.027
-711.689	184.065	-0.319	-0.475
-710.675	533.548	-0.094	0.224
-709.660	115.251	0.350	0.430
-708.645	25.421	-0.143	-0.119
-707.631	281.420	0.116	-0.210
-706.616	-53.387	0.193	-0.089
-705.602	-44.430	0.221	0.111
-704.587	159.192	0.090	0.126
-703.572	147.394	-0.010	0.014
-702.558	123.906	-0.212	-0.268
-701.543	-44.177	-0.064	-0.032
-700.529	115.241	0.138	-0.169
-699.514	-171.339	-0.239	-0.008
-698.499	800.000	0.100	0.330
-697.485	-200.000	-0.006	0.140
-696.470	602.621	0.120	0.301
-695.456	-36.707	0.157	0.085
-694.441	539.216	-0.093	-0.222
-693.426	-58.363	-0.261	0.114
-692.412	-200.000	-0.016	0.105
-691.397	800.000	-0.085	-0.354
-690.383	-80.866	-0.169	-0.056
-689.368	67.004	-0.046	0.047
-688.354	800.000	0.099	-0.322
-687.339	76.429	0.207	-0.220
-686.324	-200.000	0.001	-0.134
-685.310	-83.558	-0.054	0.017
-684.295	4.870	-0.154	-0.114
-683.281	-164.734	-0.383	0.017
-682.266	262.885	-0.143	-0.249
-681.251	-136.027	0.094	0.011
-680.237	137.476	0.109	0.143
-679.222	-137.782	0.093	0.011
-678.208	271.471	0.135	-0.239
-677.193	800.000	0.076	-0.230
-676.178	800.000	0.042	0.145
-675.164	-200.000	-0.028	0.355
-674.149	-200.000	-0.075	-0.400
-673.135	153.233	-0.298	0.410
-672.120	-27.446	-0.224	-0.131
-671.105	77.433	0.032	0.034
-670.091	355.029	0.072	-0.144
-669.076	-4.876	-0.099	0.069
-668.062	-200.000	-0.072	-0.444
-667.047	42.862	0.178	-0.163
-666.032	81.274	0.293	-0.318
-665.018	313.779	0.151	-0.285
-664.003	800.000	0.064	-0.180
-662.989	-87.916	0.140	-0.042
-661.974	-23.286	-0.106	0.064
-660.959	-200.000	0.019	-0.156
-659.945	-200.000	-0.006	-0.222
-658.930	-160.112	-0.267	0.015
-657.916	-200.000	0.032	0.151
-656.901	-147.280	0.260	-0.022
-655.886	-200.000	0.004	0.331
-654.872	-98.000	0.259	0.067
-653.857	8.705	0.220	-0.166
-652.843	284.845	-0.069	0.125
-651.828	-124.074	-0.174	-0.027
-650.814	-109.288	-0.366	0.078
-649.799	800.000	0.100	0.282
-648.784	-200.000	0.003	-0.132
-647.770	-200.000	-0.004	-0.047
-646.755	-173.520	0.083	0.003
-645.741	44.171	-0.165	-0.151
-644.726	-102.620	-0.264	0.063
-643.711	-49.232	-0.216	-0.104
-642.697	-200.000	-0.028	0.429
-641.682	-59.249	-0.102	0.044
-640.668	-200.000	0.036	0.226
-639.653	168.765	-0.273	-0.391
-638.638	-120.851	-0.165	-0.028
-637.624	-39.528	-0.149	0.078
-636.609	-69.286	-0.108	0.042
-635.595	-5.263	0.203	0.140
-634.580	34.577	-0.213	-0.187
-633.565	104.823	-0.172	-0.203
-632.551	402.366	-0.068	-0.143
-631.536	518.668	-0.134	0.314
-630.522	800.000	-0.051	0.157
-629.507	-200.000	0.016	-0.140
-628.492	149.167	0.175	-0.238
-627.478	-200.000	-0.013	-0.176
-626.463	13.537	-0.139	-0.108
-625.449	60.365	0.076	0.075
-624.434	-50.126	0.264	0.125
-623.419	-200.000	0.013	-0.072
-622.405	-11.282	0.128	0.084
-621.390	-20.638	0.163	0.100
-620.376	54.472	-0.303	0.293
-619.361	-35.768	0.195	-0.106
-618.346	662.591	0.123	-0.317
-617.332	181.785	-0.146	0.216
-616.317	162.647	-0.105	0.147
-615.303	-136.915	0.149	0.017
-614.288	-16.895	0.009	0.006
-613.273	800.000	-0.076	0.232
-612.259	-200.000	-0.019	0.102
-611.244	-76.629	0.139	-0.049
-610.230	125.565	-0.143	0.181
-609.215	302.832	0.020	-0.037
-608.201	-200.000	0.011	-0.150
-607.186	800.000	0.154	0.613
-606.171	124.993	-0.358	0.451
-605.157	92.730	-0.098	-0.111
-604.142	-200.000	-0.024	0.154
-603.128	323.183	0.141	-0.270
-602.113	-123.323	0.148	-0.024
-601.098	-200.000	-0.060	0.342
-600.084	743.378	0.103	0.278
-599.069	632.734	0.120	0.304
-598.055	53.445	0.120	0.116
-597.040	-14.974	0.143	-0.092
-596.025	429.818	-0.146	-0.315
-595.011	798.718	0.071	-0.197
-593.996	-200.000	0.040	-0.291
-592.982	800.000	-0.017	0.058
-591.967	-80.738	-0.283	0.094
-590.952	-121.651	0.264	0.044
-589.938	-200.000	0.061	-0.273
-588.923	237.641	-0.380	-0.630
-587.909	-200.000	0.033	-0.246
-586.894	-200.000	0.060	-0.365
-585.879	237.976	0.077	-0.128
-584.865	259.335	0.129	-0.222
-583.850	-122.650	0.310	-0.050
-582.836	800.000	-0.043	0.179
-581.821	61.261	0.333	0.331
-580.806	29.810	-0.309	0.263
-579.792	97.437	0.181	-0.208
-578.777	509.680	0.030	0.071
-577.763	-111.765	0.525	0.106
-576.748	800.000	-0.015	0.052
-575.733	-106.691	-0.298	0.066
-574.719	276.624	-0.128	-0.227
-573.704	-200.000	0.036	-0.287
-572.690	-77.246	-0.306	0.106
-571.675	-132.360	-0.260	-0.034
-570.661	800.000	0.098	-0.373
-569.646	69.423	-0.113	0.116
-568.631	116.769	-0.140	0.171
-567.617	384.418	-0.036	0.075
-566.602	-13.393	-0.127	-0.082
-565.588	-84.455	-0.221	-0.070
-564.573	-200.000	-0.057	-0.292
-563.558	22.200	-0.190	-0.155
-562.544	800.000	0.010	0.042
-561.529	-43.643	-0.020	0.010
-560.515	155.882	0.142	0.195
-559.500	-84.651	-0.185	0.058
-558.485	-69.258	-0.226	0.087
-557.471	-157.629	-0.333	0.020
-556.456	-23.749	-0.260	0.156
-555.442	-43.095	-0.121	-0.062
-554.427	-200.000	0.029	-0.209
-553.412	-26.169	0.150	0.088
-552.398	527.863	-0.060	-0.141
-551.383	-108.018	-0.347	-0.075
-550.369	192.289	-0.160	0.241
-549.354	-179.984	-0.208	0.004
-548.339	-28.434	0.161	0.093
-547.325	-112.325	0.106	-0.021
-546.310	335.050	0.071	-0.138
-545.296	156.618	0.052	-0.072
-544.281	693.463	-0.062	0.162
-543.266	-169.368	-0.153	0.006
-542.252	-200.000	0.048	0.282
-541.237	-133.785	0.107	0.013
-540.223	800.000	0.056	-0.166
-539.208	-82.881	-0.123	-0.040
-538.193	-171.793	0.263	-0.009
-537.179	-200.000	0.035	0.189
-536.164	-10.870	-0.193	0.127
-535.150	-200.000	-0.004	-0.229
-534.135	-104.259	0.091	-0.021
-533.121	-15.163	0.103	-0.066
-532.106	-200.000	-0.007	0.094
-531.091	14.357	-0.247	-0.192
-530.077	10.434	0.175	-0.133
-529.062	70.017	0.125	0.129
-528.048	-200.000	0.029	-0.194
-527.033	210.621	-0.071	0.111
-526.018	-100.851	0.198	0.049
-525.004	-90.576	-0.196	0.057
-523.989	800.000	0.119	0.349
-522.975	104.067	-0.391	0.459
-521.960	-143.439	-0.146	-0.014
-520.945	-200.000	0.003	-0.102
-519.931	-73.587	0.287	-0.104
-518.916	-20.706	-0.074	-0.045
-517.902	-77.173	-0.252	0.088
-516.887	502.803	-0.026	-0.059
-515.872	800.000	-0.114	-0.356
-514.858	-200.000	0.019	-0.431
-513.843	-200.000	0.006	-0.113
-512.829	-10.728	0.241	-0.159
-511.814	123.194	0.107	0.134
-510.799	-1.498	0.235	0.165
-509.785	-104.150	0.148	0.034
-508.770	-6.003	-0.125	-0.086
-507.756	30.138	-0.091	-0.077
-506.741	-200.000	0.054	0.245
-505.726	-94.056	0.421	-0.115
-504.712	394.030	-0.086	-0.179
-503.697	-43.942	-0.375	0.188
-502.683	-7.987	-0.329	-0.221
-501.668	-92.983	-0.159	0.044
-500.653	294.276	0.087	-0.158
-499.639	42.916	-0.122	0.111
-498.624	-88.785	-0.193	0.057
-497.610	545.073	0.053	0.125
-496.595	23.952	-0.156	0.128
-495.581	-152.583	0.116	-0.008
-494.566	-158.511	0.379	0.022
-493.551	800.000	-0.084	0.241
-492.537	-200.000	-0.019	0.154
-491.522	149.448	0.113	0.153
-490.508	-62.986	-0.015	0.006
-489.493	701.825	-0.044	-0.116
-488.478	-200.000	0.027	-0.142
-487.464	585.491	0.078	0.192
-486.449	-53.867	0.118	0.054
-485.435	-200.000	-0.007	0.091
-484.420	-200.000	0.024	-0.386
-483.405	-40.880	-0.062	-0.032
-482.391	-65.942	0.154	0.061
-481.376	800.000	-0.095	0.288
-480.362	-99.541	0.093	-0.023
-479.347	-17.704	0.243	0.152
-478.332	26.912	-0.102	0.085
-477.318	22.950	0.123	0.100
-476.303	-182.732	0.075	-0.001
-475.289	-77.313	-0.152	-0.053
-474.274	800.000	0.129	0.539
-473.259	752.526	0.041	0.110
-472.245	360.491	0.017	-0.034
-471.230	-139.599	-0.013	0.001
-470.216	-122.410	-0.021	-0.003
-469.201	800.000	-0.057	-0.164
-468.186	-200.000	-0.029	0.167
-467.172	15.687	-0.255	0.200
-466.157	-32.462	0.430	-0.239
-465.143	-200.000	0.077	0.351
-464.128	-200.000	0.003	0.189
-463.113	800.000	-0.088	-0.261
-462.099	-155.001	0.282	-0.018
-461.084	800.000	0.060	-0.244
-460.070	102.180	-0.161	0.187
-459.055	-6.517	0.419	-0.284
-458.040	644.388	0.070	0.178
-457.026	63.440	-0.177	0.176
-456.011	-200.000	-0.047	-0.463
-454.997	-112.179	0.336	-0.067
-453.982	108.102	0.121	-0.143
-452.968	-30.338	0.357	0.202
-451.953	89.155	0.100	0.111
-450.938	93.122	-0.228	0.257
-449.924	87.760	0.124	0.136
-448.909	-200.000	0.043	-0.233
-447.895	-144.940	0.229	-0.021
-446.880	-194.134	0.289	-0.002
-445.865	-200.000	-0.004	-0.244
-444.851	-200.000	0.001	0.033
-443.836	-127.599	0.092	0.013
-442.822	506.341	0.057	0.132
-441.807	-20.849	-0.208	0.127
-440.792	538.940	0.101	0.239
-439.778	491.363	-0.133	-0.302
-438.763	-53.748	-0.305	-0.139
-437.749	173.125	-0.215	-0.308
-436.734	533.692	0.057	-0.134
-435.719	-121.120	0.338	0.056
-434.705	609.509	-0.072	-0.180
-433.690	330.654	-0.160	0.306
-432.676	-67.754	-0.288	0.112
-431.661	800.000	0.079	0.237
-430.646	-68.082	0.268	-0.104
-429.632	-97.108	-0.399	0.104
-428.617	160.599	-0.064	-0.089
-427.603	9.696	-0.153	-0.115
-426.588	800.000	0.044	-0.136
-425.573	153.207	0.053	-0.072
-424.559	-127.441	-0.111	0.016
-423.544	-80.428	0.260	-0.086
-422.530	4.181	-0.084	-0.061
-421.515	-118.009	-0.121	0.022
-420.500	-200.000	-0.033	0.505
-419.486	90.066	0.113	-0.126
-418.471	659.338	0.093	0.237
-417.457	466.326	-0.033	-0.073
-416.442	254.556	-0.105	0.178
-415.428	696.293	-0.133	-0.347
-414.413	-2.418	0.234	-0.163
-413.398	-200.000	-0.007	-0.114
-412.384	102.349	-0.101	0.117
-411.369	800.000	0.007	0.022
-410.355	-44.432	0.211	-0.105
-409.340	-65.255	-0.233	-0.093
-408.325	-87.949	0.091	-0.027
-407.311	165.430	-0.213	0.299
-406.296	-200.000	-0.033	-0.363
-405.282	-20.051	-0.335	-0.206
-404.267	-28.176	0.213	-0.122
-403.252	-200.000	0.030	-0.156
-402.238	800.000	0.030	0.089
-401.223	14.319	0.158	-0.122
-400.209	-110.824	-0.321	0.066
-399.194	118.964	0.049	0.060
-398.179	-200.000	0.006	-0.081
-397.165	173.456	-0.078	0.112
-396.150	800.000	0.070	-0.221
-395.136	-200.000	-0.050	0.244
-394.121	-87.790	0.322	-0.096
-393.106	-173.572	0.255	-0.008
-392.092	-103.163	-0.540	0.127
-391.077	96.468	-0.153	-0.174
-390.063	-92.703	-0.224	-0.062
-389.048	-200.000	0.003	-0.036
-388.033	800.000	-0.076	0.291
-387.019	40.248	0.187	0.167
-386.004	-200.000	0.033	0.256
-384.990	-68.590	-0.163	0.063
-383.975	-200.000	-0.016	0.566
-382.960	-171.608	0.154	-0.005
-381.946	668.998	-0.106	-0.271
-380.931	-200.000	-0.017	0.239
-379.917	-58.633	0.206	0.089
-378.902	-17.541	0.345	-0.215
-377.888	-93.263	0.171	-0.047
-376.873	24.676	-0.141	-0.116
-375.858	342.037	0.114	0.222
-374.844	231.046	-0.093	-0.152
-373.829	177.922	0.128	-0.185
-372.815	800.000	-0.051	-0.169
-371.800	800.000	0.048	0.200
-370.785	176.907	-0.272	-0.393
-369.771	800.000	0.006	-0.027
-368.756	-30.960	-0.156	-0.087
-367.742	-94.913	0.234	0.063
-366.727	-100.694	0.137	-0.034
-365.712	-200.000	-0.006	-0.151
-364.698	76.978	0.168	0.177
-363.683	-31.398	0.334	0.186
-362.669	-136.047	0.315	0.037
-361.654	800.000	-0.019	-0.076
-360.639	800.000	-0.031	0.102
-359.625	-77.000	0.289	-0.100
-358.610	-32.976	-0.067	-0.037
-357.596	-154.575	-0.234	0.015
-356.581	-200.000	-0.007	0.165
-355.566	-17.337	-0.241	0.150
-354.552	-34.579	-0.259	0.140
-353.537	-14.998	-0.121	0.077
-352.523	-200.000	-0.062	-0.275
-351.508	-200.000	0.024	-0.328
-350.493	-103.013	0.040	0.009
-349.479	796.245	-0.084	0.231
-348.464	7.790	-0.062	0.046
-347.450	-166.566	0.212	-0.009
-346.435	122.837	0.212	0.263
-345.420	45.642	0.087	0.079
-344.406	745.324	-0.027	0.073
-343.391	-133.978	0.260	0.032
-342.377	30.464	0.035	0.029
-341.362	800.000	0.045	0.188
-340.348	-101.301	0.261	-0.063
-339.333	-158.345	0.026	0.002
-338.318	-138.145	0.091	-0.010
-337.304	-200.000	0.004	0.027
-336.289	470.779	0.015	-0.034
-335.275	-17.335	-0.134	-0.084
-334.260	-133.232	-0.215	-0.027
-333.245	800.000	-0.066	-0.266
-332.231	33.326	-0.019	0.016
-331.216	800.000	0.063	-0.175
-330.202	800.000	-0.043	-0.122
-329.187	-159.905	-0.361	-0.020
-328.172	152.925	-0.083	0.113
-327.158	-200.000	0.005	0.044
-326.143	751.896	0.047	-0.126
-325.129	-200.000	-0.010	0.354
-324.114	-200.000	0.044	0.224
-323.099	-200.000	-0.071	0.591
-322.085	-31.215	-0.241	0.134
-321.070	197.369	0.054	0.082
-320.056	339.693	0.154	0.297
-319.041	-200.000	-0.066	0.291
-318.026	369.872	-0.046	0.092
-317.012	-48.180	-0.082	0.039
-315.997	-24.915	0.117	-0.069
-314.983	402.439	-0.190	-0.395
-313.968	360.232	0.134	-0.266
-312.953	-123.613	-0.606	0.095
-311.939	-27.734	-0.072	0.041
-310.924	26.992	-0.323	0.268
-309.910	86.483	0.165	-0.181
-308.895	800.000	0.025	-0.091
-307.880	222.222	0.072	0.114
-306.866	-200.000	-0.026	-0.226
-305.851	183.924	0.189	-0.277
-304.837	-200.000	-0.003	0.048
-303.822	30.609	0.259	-0.220
-302.807	-64.109	-0.174	-0.070
-301.793	-200.000	0.018	-0.168
-300.778	-200.000	-0.019	0.499
-299.764	-200.000	0.030	0.440
-298.749	-39.283	0.298	0.155
-297.735	-41.087	-0.096	0.049
-296.720	304.457	-0.199	-0.365
-295.705	-200.000	0.005	0.207
-294.691	-48.753	0.244	-0.116
-293.676	-70.618	0.335	0.125
-292.662	-183.722	0.166	-0.003
-291.647	-200.000	0.048	0.258
-290.632	-145.809	0.160	-0.014
-289.618	-96.001	0.217	-0.057
-288.603	209.435	-0.055	-0.085
-287.589	-200.000	-0.027	0.133
-286.574	-72.124	0.317	0.116
-285.559	113.951	0.189	-0.227
-284.545	800.000	-0.071	0.213
-283.530	-199.837	0.324	0.002
-282.516	800.000	0.135	0.423
-281.501	29.308	-0.144	-0.121
-280.486	140.117	-0.250	-0.326
-279.472	-116.310	-0.294	0.054
-278.457	-88.581	0.343	-0.101
-277.443	-200.000	-0.001	0.169
-276.428	-53.123	0.117	-0.053
-275.413	175.866	-0.265	-0.380
-274.399	800.000	-0.038	0.123
-273.384	-200.000	-0.403	-0.001
-272.370	800.000	-0.042	0.152
-271.355	10.162	0.198	-0.149
-270.340	-19.282	0.228	-0.140
-269.326	408.160	-0.085	0.178
-268.311	-200.000	0.009	0.123
-267.297	-200.000	0.016	-0.119
-266.282	-200.000	-0.007	-0.222
-265.267	-200.000	0.069	-0.438
-264.253	-48.394	-0.086	-0.041
-263.238	-7.217	-0.095	-0.063
-262.224	241.569	-0.094	0.155
-261.209	336.066	-0.053	0.101
-260.195	-5.576	0.082	-0.056
-259.180	800.000	-0.036	-0.108
-258.165	-4.485	-0.349	-0.238
-257.151	83.659	-0.135	0.146
-256.136	265.143	0.201	0.346
-255.122	125.550	0.191	-0.238
-254.107	87.714	0.124	-0.136
-253.092	-113.107	0.317	0.062
-252.078	-116.129	0.276	-0.051
-251.063	195.642	0.117	-0.176
-250.049	38.903	-0.205	-0.181
-249.034	-77.867	-0.039	0.013
-248.019	89.774	-0.141	-0.155
-247.005	349.847	0.141	0.276
-245.990	9.510	0.084	-0.063
-244.976	800.000	0.058	0.214
-243.961	-3.864	0.208	0.143
-242.946	163.282	-0.042	-0.058
-241.932	800.000	-0.094	-0.313
-240.917	-200.000	-0.034	0.148
-239.903	79.833	-0.151	-0.160
-238.888	-200.000	-0.032	0.364
-237.873	-17.299	0.217	-0.135
-236.859	-21.412	0.244	-0.147
-235.844	-200.000	-0.034	-0.266
-234.830	-70.899	0.319	-0.119
-233.815	-200.000	-0.001	-0.064
-232.800	81.038	-0.031	-0.033
-231.786	-73.166	-0.197	0.071
-230.771	52.206	0.234	0.221
-229.757	80.274	-0.099	-0.105
-228.742	-132.671	-0.203	0.026
-227.727	-73.383	-0.167	-0.060
-226.713	130.306	-0.175	0.222
-225.698	-57.596	0.261	-0.113
-224.684	-100.130	0.167	0.041
-223.669	-117.119	0.246	0.044
-222.655	-119.358	0.211	0.036
-221.640	65.001	0.049	0.049
-220.625	158.790	0.096	0.131
-219.611	349.208	0.170	-0.332
-218.596	-152.938	0.300	0.021
-217.582	800.000	-0.030	0.083
-216.567	-200.000	-0.024	0.278
-215.552	800.000	0.040	0.122
-214.538	-64.909	-0.175	-0.070
-213.523	330.962	-0.065	-0.123
-212.509	-200.000	0.029	0.258
-211.494	-110.502	0.149	-0.030
-210.479	669.770	-0.040	-0.102
-209.465	-14.866	-0.166	0.105
-208.450	-47.685	-0.191	0.091
-207.436	-11.333	-0.185	-0.120
-206.421	-200.000	-0.095	0.615
-205.406	800.000	-0.073	0.228
-204.392	-82.274	-0.291	-0.093
-203.377	-200.000	-0.073	-0.345
-202.363	297.203	0.089	0.161
-201.348	-24.481	0.236	-0.138
-200.333	800.000	-0.020	0.082
-199.319	321.664	0.067	0.126
-198.304	160.671	-0.090	-0.124
-197.290	-200.000	-0.006	-0.215
-196.275	-90.194	-0.246	-0.071
-195.260	-200.000	-0.029	0.197
-194.246	-68.302	0.055	0.021
-193.231	307.957	-0.139	0.255
-192.217	-77.752	0.144	0.049
-191.202	800.000	-0.088	-0.284
-190.187	377.339	0.103	0.208
-189.173	-37.411	-0.129	-0.068
-188.158	-200.000	0.001	0.024
-187.144	-14.681	-0.336	0.212
-186.129	-8.452	0.253	-0.168
-185.114	293.429	0.080	0.145
-184.100	54.124	-0.154	-0.146
-183.085	53.295	-0.065	-0.062
-182.071	800.000	-0.056	-0.226
-181.056	647.012	-0.119	-0.300
-180.042	190.866	-0.162	-0.240
-179.027	800.000	0.150	-0.601
-178.012	432.648	0.049	0.105
-176.998	800.000	0.097	-0.315
-175.983	-200.000	0.008	-0.404
-174.969	-128.828	0.231	0.032
-173.954	-16.375	0.219	-0.137
-172.939	4.906	-0.070	0.051
-171.925	-105.338	-0.143	-0.032
-170.910	-105.563	0.282	-0.063
-169.896	-59.920	0.072	0.030
-168.881	800.000	-0.059	-0.163
-167.866	-200.000	0.036	-0.228
-166.852	431.794	-0.020	-0.042
-165.837	32.171	-0.121	-0.103
-164.823	141.569	0.091	0.119
-163.808	-200.000	0.035	-0.193
-162.793	241.723	0.129	-0.212
-161.779	78.437	-0.222	-0.233
-160.764	-30.671	-0.327	0.182
-159.750	-200.000	0.009	0.283
-158.735	-37.546	-0.053	0.028
-157.720	800.000	-0.090	0.360
-156.706	83.109	0.150	-0.161
-155.691	28.939	0.222	0.185
-154.677	-81.834	-0.391	-0.126
-153.662	119.738	-0.131	-0.160
-152.647	112.469	-0.158	-0.188
-151.633	-127.253	0.275	0.039
-150.618	154.906	-0.168	-0.228
-149.604	-59.344	0.091	-0.038
-148.589	500.044	-0.077	0.175
-147.574	-134.488	-0.113	0.014
-146.560	710.475	-0.112	-0.292
-145.545	5.641	0.250	-0.182
-144.531	-137.675	0.495	-0.055
-143.516	-22.015	-0.113	-0.068
-142.502	-6.449	-0.072	-0.048
-141.487	-94.459	-0.334	0.090
-140.472	800.000	-0.060	-0.246
-139.458	-81.477	-0.198	-0.064
-138.443	0.875	-0.183	-0.129
-137.429	800.000	-0.116	0.384
-136.414	-44.143	0.141	-0.069
-135.399	-94.878	0.356	-0.095
-134.385	-200.000	0.058	0.253
-133.370	-66.826	-0.309	0.120
-132.356	16.754	0.215	0.167
-131.341	800.000	0.110	-0.355
-130.326	124.556	0.209	-0.259
-129.312	800.000	0.077	-0.275
-128.297	428.508	0.108	-0.229
-127.283	263.821	0.160	-0.273
-126.268	-4.154	0.269	-0.183
-125.253	-165.745	-0.329	0.014
-124.239	-200.000	-0.010	0.098
-123.224	17.791	-0.088	0.069
-122.210	800.000	-0.093	0.300
