DTS Sentinel unit serial number:	SN413079Multiplexer serial number:	ORYXHardware model number:	OX4-SRSoftware version number:	ORYX F/W v4.00 Oryx Data Collector v3.7.2.0data status	okinstallation	princeton_trtdifferential loss correction	single-endedforward channel	channel 1reverse channel	N/Adate	2019/09/19time	05:42:35forward acquisition time	60.00reverse acquisition time	0.00gamma	496.2192k internal	0.2343k external	0.2343temperature offset calibration	1.0022default loss term (dB/km)	0.3790temperature slope calibration	1.0000multiplexer offset coefficient	1.0000multiplexer slope coefficient	1.0000fibre end	0.00T internal ref (°C)	19.30T ext. ref 1 (°C)	0.58T ext. ref 2 (°C)	12.78length (m)	temperature (°C)	Stokes	anti-Stokes-747.200	666.297	0.028	0.074
-746.185	-44.023	-0.233	0.117
-745.171	-84.341	-0.172	0.054
-744.156	-137.238	0.136	-0.015
-743.142	800.000	-0.117	0.490
-742.127	24.624	0.077	0.064
-741.112	800.000	0.082	-0.245
-740.098	52.648	0.145	0.138
-739.083	94.050	-0.105	0.119
-738.069	172.481	-0.125	-0.180
-737.054	-51.842	0.219	0.102
-736.039	-13.280	-0.240	-0.156
-735.025	-57.820	0.372	-0.163
-734.010	36.355	-0.051	0.045
-732.996	26.053	-0.195	0.163
-731.981	-97.214	0.388	0.101
-730.966	12.351	-0.231	0.178
-729.952	386.526	0.146	0.301
-728.937	800.000	0.040	-0.133
-727.923	5.551	0.233	-0.172
-726.908	-76.990	0.172	-0.060
-725.894	-116.206	-0.182	-0.034
-724.879	-15.457	-0.300	-0.192
-723.864	300.196	0.134	-0.247
-722.850	-132.991	-0.156	-0.020
-721.835	-22.619	-0.269	-0.162
-720.821	800.000	-0.070	-0.198
-719.806	231.983	-0.045	0.074
-718.791	87.688	0.134	-0.149
-717.777	-166.016	0.088	-0.004
-716.762	-200.000	0.001	0.134
-715.748	800.000	0.068	0.219
-714.733	-22.620	0.154	-0.093
-713.718	-83.113	0.078	-0.025
-712.704	500.917	0.012	-0.027
-711.689	390.964	0.077	0.160
-710.675	-60.014	-0.351	-0.150
-709.660	226.604	0.097	0.157
-708.645	-75.837	-0.216	0.077
-707.631	40.487	-0.101	0.091
-706.616	83.180	-0.024	0.027
-705.602	-129.184	0.421	0.059
-704.587	70.557	-0.256	-0.265
-703.572	-169.180	0.127	0.005
-702.558	742.646	-0.068	-0.183
-701.543	342.319	0.213	0.417
-700.529	-30.363	-0.159	0.090
-699.514	-200.000	-0.037	0.429
-698.499	-171.911	-0.258	0.008
-697.485	-59.018	-0.403	-0.174
-696.470	107.857	-0.219	-0.261
-695.456	433.289	-0.088	-0.191
-694.441	-181.787	0.244	0.005
-693.426	61.819	-0.165	-0.164
-692.412	-23.065	-0.318	-0.192
-691.397	-200.000	0.014	-0.083
-690.383	-200.000	-0.036	-0.221
-689.368	-74.630	-0.080	-0.029
-688.354	141.494	0.025	-0.033
-687.339	-8.223	0.054	0.036
-686.324	-81.510	-0.131	-0.043
-685.310	-137.561	0.048	0.005
-684.295	206.662	-0.216	-0.337
-683.281	-200.000	-0.020	0.297
-682.266	18.628	-0.332	0.265
-681.251	177.186	0.211	0.307
-680.237	3.628	-0.278	-0.203
-679.222	108.295	0.161	-0.192
-678.208	800.000	-0.089	-0.284
-677.193	435.579	0.010	0.021
-676.178	-42.485	-0.272	-0.139
-675.164	87.198	-0.010	0.011
-674.149	76.192	-0.202	-0.213
-673.135	286.058	0.125	0.226
-672.120	-31.047	-0.122	0.069
-671.105	98.479	-0.211	-0.243
-670.091	182.926	-0.137	0.203
-669.076	216.449	-0.065	0.103
-668.062	327.423	0.106	-0.203
-667.047	-200.000	0.022	-0.132
-666.032	138.921	-0.095	0.125
-665.018	66.147	-0.190	-0.192
-664.003	800.000	0.045	-0.169
-662.989	800.000	-0.051	-0.161
-661.974	-7.449	-0.164	0.111
-660.959	-49.795	0.309	0.147
-659.945	-56.019	0.043	0.019
-658.930	-200.000	-0.047	-0.246
-657.916	-154.042	0.294	-0.020
-656.901	342.323	-0.149	-0.291
-655.886	-49.709	0.084	-0.040
-654.872	753.393	-0.065	0.176
-653.857	-200.000	0.025	-0.304
-652.843	-83.016	-0.090	-0.029
-651.828	-200.000	0.032	-0.187
-650.814	113.488	-0.241	-0.292
-649.799	-95.904	0.082	-0.022
-648.784	-200.000	-0.008	-0.204
-647.770	75.491	-0.159	-0.167
-646.755	-200.000	-0.024	-0.120
-645.741	-121.627	-0.092	-0.015
-644.726	162.988	0.164	0.230
-643.711	-9.584	0.097	-0.065
-642.697	19.247	-0.078	0.063
-641.682	-95.118	0.311	0.084
-640.668	-16.003	-0.216	0.137
-639.653	-86.465	0.486	-0.149
-638.638	-200.000	-0.010	0.336
-637.624	-200.000	-0.051	-0.264
-636.609	-200.000	-0.012	-0.136
-635.595	-173.778	0.123	0.004
-634.580	-16.217	0.293	-0.185
-633.565	-127.879	-0.502	0.072
-632.551	800.000	0.090	-0.261
-631.536	-200.000	-0.003	-0.213
-630.522	-103.120	0.071	-0.017
-629.507	800.000	-0.064	0.194
-628.492	-200.000	-0.018	0.097
-627.478	-5.650	0.170	0.116
-626.463	-134.458	-0.402	0.049
-625.449	-29.621	0.200	0.114
-624.434	-81.585	-0.132	0.043
-623.419	-153.413	-0.201	0.014
-622.405	-153.763	0.266	-0.018
-621.390	450.108	0.095	0.209
-620.376	-200.000	-0.105	0.475
-619.361	-146.341	0.130	-0.011
-618.346	69.085	0.137	-0.140
-617.332	42.914	-0.038	0.035
-616.317	-200.000	0.002	-0.023
-615.303	-174.827	-0.273	0.008
-614.288	135.880	0.166	-0.216
-613.273	540.012	-0.056	0.132
-612.259	34.092	-0.060	0.052
-611.244	800.000	-0.028	0.093
-610.230	-99.546	0.508	0.127
-609.215	83.730	-0.195	0.212
-608.201	222.470	-0.078	0.126
-607.186	-45.091	0.313	-0.155
-606.171	277.296	-0.193	-0.343
-605.157	6.670	-0.120	-0.089
-604.142	-149.979	0.112	0.009
-603.128	443.887	0.123	0.268
-602.113	538.656	-0.042	-0.100
-601.098	-51.439	0.269	0.125
-600.084	501.703	-0.061	-0.139
-599.069	-12.889	-0.236	0.153
-598.055	568.954	0.019	0.047
-597.040	-99.040	-0.246	0.062
-596.025	195.320	0.171	-0.258
-595.011	-40.705	0.221	-0.114
-593.996	625.546	0.157	-0.393
-592.982	-186.252	0.046	-0.001
-591.967	-10.953	-0.059	0.039
-590.952	323.439	-0.021	0.040
-589.938	3.860	0.304	-0.221
-588.923	-30.026	-0.212	-0.120
-587.909	312.577	-0.026	-0.049
-586.894	-40.415	-0.175	0.090
-585.879	202.512	0.153	-0.234
-584.865	468.434	0.028	0.064
-583.850	-200.000	0.005	0.084
-582.836	-31.668	-0.555	-0.310
-581.821	-200.000	0.012	0.311
-580.806	-32.802	-0.087	0.048
-579.792	42.828	-0.238	-0.216
-578.777	-4.336	0.203	0.140
-577.763	-51.832	-0.345	-0.160
-576.748	-132.731	0.116	-0.015
-575.733	-60.215	0.149	0.063
-574.719	13.747	-0.302	0.234
-573.704	48.535	0.178	-0.166
-572.690	-200.000	0.058	-0.334
-571.675	32.303	0.261	-0.224
-570.661	93.984	-0.127	-0.143
-569.646	12.778	0.130	-0.100
-568.631	800.000	-0.073	-0.212
-567.617	-33.943	-0.272	-0.149
-566.602	-200.000	-0.032	-0.218
-565.588	-57.190	0.099	0.043
-564.573	800.000	-0.042	0.159
-563.558	210.374	0.157	-0.245
-562.544	-166.529	0.077	0.003
-561.529	-1.775	-0.026	0.018
-560.515	91.967	0.289	0.324
-559.500	-15.391	0.323	0.205
-558.485	-121.011	-0.220	0.037
-557.471	-92.833	-0.108	-0.030
-556.456	152.222	0.110	0.150
-555.442	-32.340	0.170	0.094
-554.427	307.689	-0.033	-0.061
-553.412	-200.000	-0.028	0.134
-552.398	-109.719	-0.238	0.050
-551.383	800.000	0.069	-0.263
-550.369	-178.271	0.105	-0.002
-549.354	-87.789	0.194	0.058
-548.339	800.000	-0.125	0.449
-547.325	119.887	-0.123	0.152
-546.310	800.000	-0.121	-0.430
-545.296	230.422	0.063	-0.102
-544.281	-51.156	0.163	0.076
-543.266	-137.195	0.135	0.015
-542.252	-110.524	-0.064	0.013
-541.237	123.128	-0.220	0.273
-540.223	405.988	0.040	0.083
-539.208	-200.000	0.007	0.062
-538.193	-60.239	-0.274	-0.116
-537.179	463.328	0.072	0.160
-536.164	-129.748	-0.223	-0.031
-535.150	-77.155	0.171	0.059
-534.135	-200.000	0.001	0.533
-533.121	-186.851	-0.168	0.002
-532.106	249.130	-0.080	-0.134
-531.091	-200.000	-0.006	-0.231
-530.077	-152.370	-0.246	0.018
-529.062	-105.187	-0.373	-0.085
-528.048	-47.675	-0.182	-0.088
-527.033	38.239	0.313	0.276
-526.018	455.049	-0.087	-0.191
-525.004	780.859	0.111	-0.302
-523.989	-200.000	-0.007	-0.262
-522.975	265.349	0.049	-0.084
-521.960	33.076	0.118	0.102
-520.945	800.000	0.047	-0.184
-519.931	-200.000	0.016	0.087
-518.916	-165.889	-0.128	0.005
-517.902	-129.741	0.397	-0.054
-516.887	-200.000	0.024	0.000
-515.872	-47.419	-0.089	0.043
-514.858	-200.000	-0.009	0.303
-513.843	-200.000	-0.033	0.157
-512.829	-200.000	0.004	0.076
-511.814	189.288	-0.100	-0.149
-510.799	409.867	0.078	-0.165
-509.785	127.799	-0.294	-0.371
-508.770	40.783	-0.288	-0.258
-507.756	37.905	0.276	0.244
-506.741	88.350	0.037	-0.040
-505.726	-97.268	-0.197	0.051
-504.712	2.488	0.182	0.131
-503.697	-34.690	0.196	0.107
-502.683	652.934	0.051	-0.129
-501.668	-199.436	-0.273	0.001
-500.653	548.816	-0.139	0.330
-499.639	-200.000	-0.044	0.289
-498.624	321.671	0.108	0.205
-497.610	235.075	-0.160	0.262
-496.595	-107.962	0.307	-0.066
-495.581	-132.039	0.068	-0.009
-494.566	433.888	0.056	-0.121
-493.551	-36.105	-0.174	0.093
-492.537	-96.883	0.198	0.052
-491.522	35.762	-0.279	-0.243
-490.508	386.664	0.075	-0.153
-489.493	-56.856	-0.200	0.088
-488.478	-193.984	-0.331	-0.003
-487.464	-200.000	0.097	-0.467
-486.449	64.340	0.074	-0.073
-485.435	502.228	0.103	0.237
-484.420	-160.811	0.243	0.013
-483.405	5.934	-0.367	-0.269
-482.391	-111.110	-0.359	0.073
-481.376	792.062	0.130	0.355
-480.362	79.389	-0.323	0.343
-479.347	-119.914	0.374	0.064
-478.332	-25.685	-0.118	0.069
-477.318	-200.000	0.005	-0.023
-476.303	-129.939	-0.269	-0.037
-475.289	369.430	0.101	-0.203
-474.274	-200.000	-0.076	-0.384
-473.259	228.068	0.121	-0.196
-472.245	800.000	0.064	-0.217
-471.230	-36.235	0.063	-0.033
-470.216	4.663	0.313	0.228
-469.201	35.702	-0.041	0.035
-468.186	-122.382	0.020	-0.003
-467.172	452.535	-0.057	0.124
-466.157	-83.144	-0.127	0.040
-465.143	528.458	0.145	-0.340
-464.128	800.000	-0.042	0.140
-463.113	800.000	0.057	-0.177
-462.099	1.673	0.182	-0.130
-461.084	-182.726	-0.161	-0.003
-460.070	-200.000	0.003	0.050
-459.055	-43.540	-0.270	-0.135
-458.040	800.000	-0.036	-0.121
-457.026	-200.000	0.026	0.155
-456.011	-126.655	0.256	0.038
-454.997	178.819	0.104	0.151
-453.982	800.000	0.109	-0.305
-452.968	-67.694	-0.123	-0.048
-451.953	264.577	-0.151	0.261
-450.938	-30.491	0.389	-0.218
-449.924	-59.111	0.434	0.185
-448.909	-55.755	0.184	0.081
-447.895	-200.000	0.046	0.345
-446.880	-160.424	0.317	-0.017
-445.865	-164.154	0.411	-0.019
-444.851	38.761	-0.082	0.073
-443.836	800.000	0.059	-0.217
-442.822	-98.959	-0.132	-0.033
-441.807	-135.459	0.115	-0.014
-440.792	170.050	0.077	-0.110
-439.778	-200.000	-0.042	-0.206
-438.763	-200.000	0.132	-0.001
-437.749	23.909	-0.172	-0.140
-436.734	333.004	-0.244	-0.467
-435.719	46.635	0.040	-0.037
-434.705	800.000	-0.102	-0.290
-433.690	37.053	-0.152	-0.133
-432.676	210.210	-0.211	-0.328
-431.661	-121.554	0.217	-0.036
-430.646	55.133	0.062	-0.059
-429.632	144.105	-0.059	0.078
-428.617	-1.686	0.161	0.112
-427.603	181.831	0.051	0.075
-426.588	-149.399	0.617	-0.048
-425.573	-200.000	-0.018	-0.141
-424.559	-130.055	0.130	-0.018
-423.544	338.036	0.055	-0.105
-422.530	488.585	0.250	-0.565
-421.515	800.000	-0.086	0.284
-420.500	-200.000	0.033	0.211
-419.486	-32.333	0.052	-0.029
-418.471	-200.000	-0.006	0.029
-417.457	-42.449	-0.148	-0.075
-416.442	-29.774	0.174	0.098
-415.428	8.559	0.082	-0.061
-414.413	41.246	-0.279	-0.250
-413.398	80.535	-0.018	0.019
-412.384	337.663	0.137	0.263
-411.369	687.979	-0.084	0.217
-410.355	-70.916	0.363	-0.135
-409.340	-99.739	-0.155	0.038
-408.325	-114.710	0.309	-0.058
-407.311	-200.000	-0.019	0.241
-406.296	2.010	-0.241	-0.172
-405.282	759.768	-0.080	-0.213
-404.267	-12.917	0.083	-0.053
-403.252	800.000	-0.074	-0.224
-402.238	-150.193	-0.218	0.017
-401.223	128.861	0.070	-0.088
-400.209	-200.000	0.022	-0.300
-399.194	-95.185	0.185	0.049
-398.179	273.317	-0.084	-0.146
-397.165	-200.000	0.275	-0.001
-396.150	-97.577	-0.117	-0.030
-395.136	-200.000	-0.005	0.062
-394.121	800.000	-0.039	-0.107
-393.106	-102.626	0.165	0.039
-392.092	-68.335	0.106	0.041
-391.077	800.000	-0.020	0.056
-390.063	187.302	-0.317	0.467
-389.048	152.116	-0.154	0.207
-388.033	-39.059	0.104	-0.054
-387.019	-130.623	-0.063	0.008
-386.004	-200.000	-0.075	-0.335
-384.990	580.973	0.146	-0.354
-383.975	187.275	-0.237	0.349
-382.960	71.871	-0.267	-0.274
-381.946	-85.339	0.100	-0.031
-380.931	-137.894	0.229	-0.025
-379.917	-157.666	0.226	0.013
-378.902	415.351	-0.122	0.258
-377.888	-54.281	0.166	-0.074
-376.873	23.061	-0.224	0.181
-375.858	800.000	0.138	0.397
-374.844	-150.601	-0.135	-0.010
-373.829	256.955	0.134	0.227
-372.815	440.344	0.027	0.057
-371.800	327.516	0.060	0.113
-370.785	281.051	-0.190	-0.336
-369.771	-200.000	0.027	-0.565
-368.756	-177.146	-0.112	0.003
-367.742	-200.000	0.017	0.199
-366.727	800.000	-0.020	0.075
-365.712	-148.156	-0.083	0.007
-364.698	-25.515	0.123	-0.072
-363.683	126.213	0.068	0.084
-362.669	701.710	-0.051	0.132
-361.654	-2.280	0.066	0.046
-360.639	25.037	-0.107	-0.088
-359.625	115.377	0.143	0.172
-358.610	-170.212	-0.155	-0.005
-357.596	800.000	0.042	0.175
-356.581	-72.512	0.188	0.069
-355.566	18.341	-0.237	0.187
-354.552	-86.572	0.075	-0.023
-353.537	171.215	-0.139	0.196
-352.523	41.394	0.177	0.158
-351.508	-155.824	0.039	-0.002
-350.493	-21.479	-0.058	-0.035
-349.479	137.093	0.174	0.224
-348.464	-125.251	-0.163	0.025
-347.450	-51.993	0.111	0.051
-346.435	-26.907	-0.118	-0.068
-345.420	-91.970	0.375	-0.105
-344.406	-115.724	-0.268	0.050
-343.391	-200.000	0.042	-0.236
-342.377	434.595	-0.070	0.151
-341.362	-101.623	0.231	0.055
-340.348	6.383	-0.139	-0.102
-339.333	-85.949	-0.105	0.032
-338.318	-91.679	0.197	0.055
-337.304	800.000	0.092	-0.253
-336.289	800.000	0.114	-0.334
-335.275	-200.000	-0.007	-0.112
-334.260	91.070	-0.256	-0.283
-333.245	-200.000	0.021	0.109
-332.231	-137.584	-0.519	-0.058
-331.216	-113.300	0.235	-0.045
-330.202	-200.000	0.001	-0.356
-329.187	-200.000	-0.021	0.115
-328.172	-45.089	0.228	0.112
-327.158	-65.555	-0.174	0.069
-326.143	308.648	0.112	-0.206
-325.129	168.235	-0.059	-0.082
-324.114	19.653	0.212	0.168
-323.099	-146.804	-0.261	-0.022
-322.085	-200.000	0.002	-0.077
-321.070	67.960	0.031	-0.032
-320.056	59.409	-0.105	0.102
-319.041	-76.974	-0.346	0.119
-318.026	-167.034	-0.076	0.003
-317.012	-89.920	0.167	-0.048
-315.997	-61.413	0.368	-0.153
-314.983	124.144	0.051	-0.063
-313.968	-141.627	-0.054	-0.005
-312.953	41.177	0.126	0.112
-311.939	-107.725	0.208	0.045
-310.924	55.862	-0.181	-0.173
-309.910	-54.575	-0.315	0.140
-308.895	-122.533	-0.181	-0.029
-307.880	-9.045	0.184	-0.121
-306.866	800.000	0.032	-0.135
-305.851	-168.306	-0.271	-0.010
-304.837	8.437	-0.080	-0.059
-303.822	-200.000	-0.034	0.174
-302.807	-159.143	0.555	-0.031
-301.793	278.978	0.159	0.280
-300.778	28.761	-0.051	0.043
-299.764	-128.936	-0.193	0.027
-298.749	-50.268	-0.158	-0.074
-297.735	485.523	-0.080	-0.179
-296.720	786.482	0.096	0.260
-295.705	-105.484	0.487	0.109
-294.691	220.754	-0.167	0.264
-293.676	-99.753	-0.248	0.061
-292.662	88.615	0.042	0.046
-291.647	-50.128	-0.120	0.056
-290.632	389.010	-0.082	0.168
-289.618	37.027	-0.088	0.077
-288.603	61.776	-0.105	-0.103
-287.589	-103.868	0.117	-0.027
-286.574	213.585	-0.079	0.123
-285.559	-200.000	-0.024	0.134
-284.545	168.360	0.105	-0.147
-283.530	-53.052	0.152	0.069
-282.516	-85.454	0.169	0.052
-281.501	800.000	-0.071	-0.207
-280.486	-200.000	0.040	-0.298
-279.472	-113.693	-0.254	0.049
-278.457	230.746	0.077	0.124
-277.443	-59.726	-0.245	-0.103
-276.428	61.200	-0.324	-0.317
-275.413	400.814	-0.199	-0.411
-274.399	595.052	0.092	0.224
-273.384	-76.953	-0.363	0.125
-272.370	800.000	0.069	0.218
-271.355	-200.000	0.017	0.270
-270.340	-200.000	-0.031	0.171
-269.326	220.741	0.076	0.120
-268.311	-97.986	-0.233	0.059
-267.297	16.465	0.211	-0.164
-266.282	800.000	-0.101	0.313
-265.267	-118.896	-0.031	-0.005
-264.253	-96.117	-0.128	0.033
-263.238	-49.454	-0.092	0.043
-262.224	-39.610	0.241	0.124
-261.209	343.267	0.112	0.215
-260.195	523.870	0.197	-0.455
-259.180	-73.924	-0.411	-0.147
-258.165	3.537	-0.139	-0.100
-257.151	-200.000	-0.013	0.140
-256.136	-200.000	0.012	-0.260
-255.122	7.208	0.119	0.087
-254.107	800.000	-0.071	0.214
-253.092	-9.139	-0.312	0.205
-252.078	81.828	0.051	0.054
-251.063	66.198	0.178	0.178
-250.049	-200.000	-0.049	-0.222
-249.034	82.094	-0.171	0.182
-248.019	-200.000	-0.011	0.148
-247.005	541.353	-0.100	-0.234
-245.990	140.862	-0.264	0.342
-244.976	-169.494	-0.084	-0.003
-243.961	-158.007	0.060	0.003
-242.946	235.424	-0.251	-0.407
-241.932	800.000	0.046	-0.146
-240.917	-118.786	0.255	-0.044
-239.903	-161.935	-0.217	0.011
-238.888	-200.000	0.019	0.258
-237.873	-123.037	0.080	-0.013
-236.859	205.792	-0.175	0.267
-235.844	53.679	-0.237	-0.224
-234.830	800.000	-0.030	-0.125
-233.815	186.781	-0.181	-0.265
-232.800	791.287	0.152	-0.410
-231.786	-125.222	0.115	0.017
-230.771	-93.733	-0.094	0.025
-229.757	-108.820	0.285	0.060
-228.742	253.198	-0.225	0.377
-227.727	-165.710	-0.292	-0.012
-226.713	-42.023	-0.085	0.043
-225.698	210.906	-0.084	0.130
-224.684	71.050	0.030	0.030
-223.669	-200.000	0.008	0.229
-222.655	-54.094	0.299	0.133
-221.640	403.036	-0.048	0.099
-220.625	-200.000	0.006	-0.033
-219.611	137.712	0.095	-0.122
-218.596	235.941	0.145	0.235
-217.582	-200.000	0.001	-0.225
-216.567	-200.000	-0.004	-0.246
-215.552	198.394	0.121	-0.182
-214.538	-58.389	-0.051	-0.022
-213.523	-200.000	-0.038	-0.217
-212.509	607.107	0.054	0.132
-211.494	-42.228	0.226	-0.113
-210.479	-200.000	-0.053	0.508
-209.465	-34.609	-0.138	-0.074
-208.450	800.000	0.059	0.178
-207.436	93.621	0.071	0.079
-206.421	-125.272	0.234	-0.035
-205.406	240.331	-0.234	-0.382
-204.392	800.000	-0.027	0.090
-203.377	-200.000	-0.040	0.292
-202.363	92.993	-0.262	-0.290
-201.348	28.612	-0.107	0.088
-200.333	16.800	-0.193	-0.150
-199.319	14.403	-0.053	0.041
-198.304	-133.012	-0.202	-0.025
-197.290	143.135	-0.394	-0.513
-196.275	351.217	-0.215	0.417
-195.260	-200.000	0.016	-0.227
-194.246	-97.654	0.440	-0.112
-193.231	-34.421	-0.104	0.056
-192.217	-175.236	0.189	-0.005
-191.202	168.938	0.125	0.175
-190.187	99.357	-0.011	0.013
-189.173	-120.284	0.312	0.052
-188.158	48.075	-0.076	-0.070
-187.144	-200.000	-0.037	0.191
-186.129	40.338	0.259	-0.228
-185.114	-69.898	-0.068	-0.025
-184.100	-24.627	-0.234	-0.136
-183.085	-154.598	0.329	0.021
-182.071	21.402	0.264	-0.210
-181.056	-186.986	0.312	-0.004
-180.042	-200.000	-0.084	0.542
-179.027	-200.000	0.045	0.324
-178.012	444.771	-0.061	0.131
-176.998	800.000	0.087	0.238
-175.983	-200.000	0.050	-0.330
-174.969	-118.933	0.121	0.021
-173.954	-200.000	0.041	0.220
-172.939	-8.718	-0.088	0.058
-171.925	800.000	-0.066	0.225
-170.910	232.050	-0.245	0.393
-169.896	16.574	0.090	-0.070
-168.881	-144.521	0.239	0.022
-167.866	-43.544	-0.191	0.095
-166.852	-96.653	0.257	-0.066
-165.837	-2.774	-0.103	0.070
-164.823	-94.413	0.174	-0.047
-163.808	-195.147	-0.148	-0.001
-162.793	162.686	0.112	0.154
-161.779	88.749	0.160	0.175
-160.764	314.115	0.096	0.177
-159.750	-109.207	-0.202	-0.042
-158.735	442.060	-0.139	-0.298
-157.720	-77.441	-0.214	0.073
-156.706	437.675	-0.102	0.218
-155.691	-118.394	0.134	0.023
-154.677	-12.139	-0.139	0.089
-153.662	728.019	0.063	0.164
-152.647	462.545	-0.015	-0.032
-151.633	-53.837	0.229	0.102
-150.618	-78.495	0.304	0.102
-149.604	800.000	0.130	-0.390
-148.589	189.017	0.004	0.005
-147.574	-47.196	-0.194	-0.093
-146.560	17.961	-0.133	-0.104
-145.545	-200.000	-0.026	-0.321
-144.531	-143.967	-0.165	-0.015
-143.516	-154.811	0.210	-0.014
-142.502	800.000	0.091	0.280
-141.487	-200.000	-0.008	0.177
-140.472	503.334	0.232	-0.525
-139.458	-200.000	0.032	-0.167
-138.443	67.371	0.211	0.211
-137.429	124.185	-0.087	0.107
-136.414	800.000	0.047	0.139
-135.399	-112.188	0.105	0.021
-134.385	-200.000	0.014	0.087
-133.370	241.962	0.326	-0.533
-132.356	281.826	-0.267	0.467
-131.341	-200.000	0.042	0.273
-130.326	800.000	-0.063	0.228
-129.312	-69.869	-0.218	-0.081
-128.297	-31.438	-0.024	0.013
-127.283	434.153	0.083	-0.176
-126.268	165.347	-0.070	-0.097
-125.253	800.000	-0.024	-0.079
-124.239	-200.000	0.260	-0.001
-123.224	-99.248	0.055	0.013
-122.210	-128.161	-0.365	0.051
-121.195	-105.781	0.179	0.039
