DTS Sentinel unit serial number:	SN413079Multiplexer serial number:	ORYXHardware model number:	OX4-SRSoftware version number:	ORYX F/W v4.00 Oryx Data Collector v3.7.2.0data status	okinstallation	princeton_trtdifferential loss correction	single-endedforward channel	channel 1reverse channel	N/Adate	2019/09/17time	07:06:35forward acquisition time	60.00reverse acquisition time	0.00gamma	496.2192k internal	0.2331k external	0.2331temperature offset calibration	0.9972default loss term (dB/km)	0.3790temperature slope calibration	1.0000multiplexer offset coefficient	1.0000multiplexer slope coefficient	1.0000fibre end	0.00T internal ref (°C)	27.42T ext. ref 1 (°C)	0.12T ext. ref 2 (°C)	21.16length (m)	temperature (°C)	Stokes	anti-Stokes-747.200	-131.772	-0.102	-0.013
-746.185	-200.000	-0.094	0.643
-745.171	-200.000	0.011	-0.167
-744.156	72.668	-0.101	-0.106
-743.142	108.342	-0.161	0.194
-742.127	-200.000	-0.034	-0.180
-741.112	81.293	-0.174	0.189
-740.098	-200.000	-0.047	0.446
-739.083	-141.713	0.202	-0.020
-738.069	605.139	0.045	-0.112
-737.054	800.000	0.069	-0.235
-736.039	29.449	-0.130	-0.111
-735.025	72.485	0.299	0.314
-734.010	435.046	-0.101	-0.220
-732.996	-115.142	-0.194	-0.037
-731.981	-200.000	-0.048	-0.264
-730.966	-15.188	-0.022	-0.014
-729.952	-58.864	0.430	0.187
-728.937	-200.000	0.018	0.332
-727.923	-113.972	0.346	-0.068
-726.908	-106.176	-0.295	0.067
-725.894	325.049	0.135	0.259
-724.879	-34.886	-0.272	0.149
-723.864	73.436	-0.175	0.184
-722.850	800.000	0.097	0.320
-721.835	-102.593	-0.220	0.053
-720.821	-57.808	-0.088	-0.039
-719.806	331.601	0.224	0.435
-718.791	-36.908	0.312	0.168
-717.777	-70.282	-0.058	-0.022
-716.762	137.638	0.160	0.210
-715.748	800.000	-0.088	-0.356
-714.733	800.000	-0.116	-0.440
-713.718	800.000	-0.087	-0.261
-712.704	185.220	0.178	-0.266
-711.689	45.854	-0.203	-0.188
-710.675	59.446	-0.206	-0.204
-709.660	-34.602	0.170	-0.094
-708.645	-59.973	0.219	0.094
-707.631	-200.000	-0.039	-0.354
-706.616	-8.717	-0.085	0.057
-705.602	-74.207	0.162	0.059
-704.587	-100.174	-0.282	0.070
-703.572	-36.130	0.136	-0.074
-702.558	-77.169	0.104	-0.037
-701.543	-200.000	0.023	-0.225
-700.529	470.670	0.131	0.296
-699.514	438.778	0.034	0.076
-698.499	54.172	-0.190	0.184
-697.485	-150.925	0.221	0.017
-696.470	-19.225	-0.223	-0.139
-695.456	73.400	0.153	-0.161
-694.441	-139.808	0.377	0.040
-693.426	-183.538	0.094	0.002
-692.412	-116.947	-0.244	-0.045
-691.397	-46.806	0.285	-0.140
-690.383	1.779	-0.129	0.093
-689.368	-200.000	-0.005	0.296
-688.354	800.000	-0.115	-0.438
-687.339	-200.000	0.001	0.024
-686.324	15.222	0.115	-0.090
-685.310	119.840	-0.052	-0.064
-684.295	800.000	0.068	-0.282
-683.281	16.566	0.143	-0.114
-682.266	800.000	-0.098	0.336
-681.251	-11.554	0.052	-0.035
-680.237	-139.232	-0.294	0.032
-679.222	-68.910	-0.100	0.039
-678.208	-92.782	-0.181	0.051
-677.193	-28.519	-0.283	0.164
-676.178	130.008	-0.063	0.081
-675.164	-81.332	0.355	-0.118
-674.149	-200.000	0.034	0.199
-673.135	-32.207	-0.212	0.119
-672.120	-108.339	0.158	0.034
-671.105	60.812	-0.088	-0.088
-670.091	284.322	0.055	0.098
-669.076	-180.787	-0.124	-0.003
-668.062	0.140	0.147	-0.105
-667.047	-166.002	0.118	0.005
-666.032	-129.667	-0.257	-0.036
-665.018	-200.000	-0.020	-0.405
-664.003	-200.000	-0.023	-0.148
-662.989	800.000	-0.129	-0.393
-661.974	-200.000	-0.014	-0.307
-660.959	-148.269	-0.088	0.007
-659.945	-75.777	-0.154	-0.055
-658.930	800.000	0.042	-0.185
-657.916	800.000	-0.055	-0.167
-656.901	-85.680	0.060	0.019
-655.886	481.627	-0.152	0.346
-654.872	-155.741	-0.243	-0.016
-653.857	-33.369	-0.374	0.208
-652.843	73.486	0.302	0.317
-651.828	-125.222	-0.146	-0.022
-650.814	105.585	-0.173	-0.205
-649.799	68.637	0.075	-0.077
-648.784	717.893	0.111	0.295
-647.770	337.511	-0.052	-0.101
-646.755	-200.000	0.001	-0.013
-645.741	72.188	0.126	-0.132
-644.726	17.306	0.062	0.049
-643.711	-200.000	-0.003	0.080
-642.697	-148.626	-0.173	-0.014
-641.682	-78.933	-0.516	-0.176
-640.668	-200.000	-0.012	0.166
-639.653	385.050	-0.085	-0.177
-638.638	3.847	-0.240	-0.175
-637.624	338.876	0.157	0.306
-636.609	-48.041	0.298	0.144
-635.595	-1.158	-0.110	0.078
-634.580	66.390	-0.170	0.173
-633.565	-200.000	0.045	0.267
-632.551	-187.523	0.311	0.004
-631.536	-93.590	-0.151	-0.042
-630.522	580.469	0.089	0.218
-629.507	800.000	0.039	-0.149
-628.492	-102.369	0.159	-0.038
-627.478	-43.410	-0.152	-0.077
-626.463	-114.083	0.428	0.083
-625.449	-49.687	-0.145	-0.069
-624.434	-114.067	0.127	-0.025
-623.419	639.167	-0.096	-0.245
-622.405	800.000	-0.073	0.269
-621.390	-173.513	0.345	0.010
-620.376	-91.408	-0.334	0.095
-619.361	-200.000	0.049	0.224
-618.346	800.000	-0.030	0.126
-617.332	-32.047	0.158	-0.088
-616.317	-149.783	0.291	-0.023
-615.303	800.000	-0.131	-0.475
-614.288	148.326	-0.175	-0.236
-613.273	-200.000	-0.026	0.217
-612.259	-131.564	-0.310	-0.041
-611.244	-185.645	0.208	0.003
-610.230	217.980	-0.110	-0.176
-609.215	-115.721	-0.256	-0.048
-608.201	-51.365	0.241	0.113
-607.186	-21.776	-0.141	-0.086
-606.171	134.318	-0.210	-0.273
-605.157	-146.536	0.101	0.009
-604.142	-37.554	-0.238	-0.127
-603.128	87.835	-0.291	-0.323
-602.113	327.131	0.068	0.131
-601.098	-0.082	0.202	0.144
-600.084	-200.000	-0.002	-0.081
-599.069	800.000	0.033	0.127
-598.055	-89.933	-0.278	0.081
-597.040	-82.099	-0.119	-0.039
-596.025	-48.677	-0.276	-0.133
-595.011	61.597	0.050	-0.050
-593.996	763.180	-0.047	-0.127
-592.982	-61.026	0.084	0.036
-591.967	-54.354	0.277	0.126
-590.952	21.484	-0.197	-0.160
-589.938	246.933	-0.087	0.147
-588.923	-11.916	-0.199	-0.130
-587.909	224.098	-0.025	0.041
-586.894	-116.450	0.118	0.022
-585.879	-84.697	-0.398	-0.125
-584.865	-35.176	0.339	-0.185
-583.850	108.520	-0.223	-0.267
-582.836	28.420	-0.170	0.143
-581.821	296.655	-0.217	-0.398
-580.806	-85.162	-0.310	0.097
-579.792	-110.133	0.235	0.049
-578.777	-15.024	-0.086	0.055
-577.763	-157.313	0.251	-0.015
-576.748	800.000	-0.002	0.007
-575.733	-90.938	0.146	0.042
-574.719	800.000	-0.046	0.129
-573.704	-103.308	-0.121	0.029
-572.690	-200.000	0.017	-0.267
-571.675	-27.200	0.237	0.138
-570.661	8.201	0.243	-0.182
-569.646	800.000	0.067	0.257
-568.631	-15.080	0.047	0.030
-567.617	-42.605	-0.349	-0.178
-566.602	-200.000	-0.015	-0.147
-565.588	117.688	-0.163	-0.201
-564.573	-200.000	0.066	-0.330
-563.558	395.444	0.124	0.258
-562.544	108.236	0.037	0.044
-561.529	800.000	0.025	0.093
-560.515	488.250	0.144	-0.328
-559.500	-86.183	-0.317	-0.098
-558.485	38.476	0.064	-0.057
-557.471	-200.000	0.043	-0.284
-556.456	-67.347	-0.145	-0.057
-555.442	-104.058	0.557	-0.130
-554.427	209.168	-0.113	0.176
-553.412	9.154	-0.254	0.192
-552.398	-200.000	-0.089	0.429
-551.383	77.659	0.086	-0.091
-550.369	270.692	-0.198	-0.348
-549.354	-200.000	-0.024	0.126
-548.339	-121.900	-0.114	0.019
-547.325	483.902	0.017	-0.040
-546.310	-125.329	0.098	-0.015
-545.296	-121.786	0.208	0.034
-544.281	100.743	-0.139	0.161
-543.266	800.000	-0.045	-0.127
-542.252	19.653	0.206	0.165
-541.237	-25.680	-0.182	0.108
-540.223	-50.125	-0.337	0.160
-539.208	82.017	-0.346	0.375
-538.193	800.000	-0.079	0.217
-537.179	-110.797	0.140	0.029
-536.164	71.752	0.255	0.265
-535.150	-128.326	-0.202	0.029
-534.135	20.274	-0.153	0.123
-533.121	-200.000	-0.005	-0.276
-532.106	18.315	0.229	-0.183
-531.091	691.236	-0.145	-0.379
-530.077	-95.239	-0.238	0.064
-529.062	223.918	0.105	0.169
-528.048	-200.000	-0.069	-0.313
-527.033	86.533	-0.146	-0.161
-526.018	-159.418	-0.125	-0.007
-525.004	-48.440	0.237	0.114
-523.989	-200.000	0.028	-0.419
-522.975	-35.509	-0.032	-0.018
-521.960	50.189	-0.228	0.215
-520.945	-200.000	0.008	0.071
-519.931	50.766	0.238	-0.225
-518.916	-200.000	0.021	-0.290
-517.902	781.489	-0.137	0.375
-516.887	-21.736	0.236	0.144
-515.872	107.105	-0.181	0.215
-514.858	-76.560	0.263	0.092
-513.843	129.528	0.058	0.074
-512.829	-200.000	-0.002	-0.044
-511.814	-163.547	0.125	-0.006
-510.799	-200.000	-0.013	-0.447
-509.785	-37.204	-0.121	0.065
-508.770	2.723	0.085	0.062
-507.756	160.408	0.105	0.146
-506.741	415.717	-0.117	0.248
-505.726	-153.038	0.246	0.017
-504.712	-200.000	0.009	0.248
-503.697	-109.950	0.492	-0.103
-502.683	72.991	0.153	-0.159
-501.668	-200.000	-0.082	0.499
-500.653	800.000	-0.123	0.452
-499.639	-154.004	0.278	-0.019
-498.624	800.000	0.031	-0.098
-497.610	121.127	0.051	0.063
-496.595	35.099	-0.113	-0.099
-495.581	-128.372	-0.235	0.033
-494.566	-67.584	-0.074	0.029
-493.551	-47.763	-0.304	-0.147
-492.537	345.802	0.135	0.264
-491.522	-69.401	-0.174	0.067
-490.508	19.418	-0.233	-0.186
-489.493	-200.000	0.023	0.189
-488.478	-200.000	0.021	0.108
-487.464	-119.163	0.103	0.018
-486.449	-52.487	0.096	-0.044
-485.435	392.620	-0.079	-0.164
-484.420	-198.368	0.313	-0.002
-483.405	-66.815	-0.344	0.136
-482.391	-40.448	-0.318	0.165
-481.376	-200.000	-0.025	-0.126
-480.362	-79.216	-0.069	-0.023
-479.347	800.000	0.103	0.295
-478.332	-25.665	-0.250	-0.147
-477.318	-74.317	-0.215	-0.077
-476.303	133.105	-0.151	-0.194
-475.289	47.619	0.292	-0.271
-474.274	-36.306	0.084	-0.045
-473.259	45.020	-0.055	-0.051
-472.245	800.000	-0.040	-0.135
-471.230	-124.948	-0.293	-0.045
-470.216	-78.174	0.115	-0.040
-469.201	800.000	0.007	0.024
-468.186	53.478	0.106	-0.101
-467.172	30.739	-0.203	0.173
-466.157	-200.000	0.001	0.227
-465.143	42.923	-0.183	-0.166
-464.128	-21.105	0.070	0.043
-463.113	-23.878	-0.237	-0.141
-462.099	24.986	0.090	0.075
-461.084	-84.875	-0.455	0.142
-460.070	514.237	0.076	0.177
-459.055	-55.256	-0.219	0.098
-458.040	5.325	0.291	-0.214
-457.026	742.329	-0.045	-0.119
-456.011	281.402	-0.135	-0.240
-454.997	-133.570	0.193	0.024
-453.982	-6.945	-0.081	-0.055
-452.968	800.000	0.121	0.359
-451.953	-25.393	-0.162	-0.095
-450.938	-140.157	0.258	-0.027
-449.924	54.207	0.042	-0.040
-448.909	-154.043	0.116	-0.008
-447.895	125.239	0.100	0.126
-446.880	372.851	-0.056	-0.114
-445.865	85.091	0.212	-0.231
-444.851	-119.658	0.220	0.038
-443.836	-163.665	0.215	0.010
-442.822	-114.146	0.314	0.060
-441.807	378.368	-0.129	-0.262
-440.792	-4.259	-0.426	0.293
-439.778	800.000	-0.075	0.209
-438.763	-200.000	-0.018	-0.085
-437.749	-26.304	-0.117	0.068
-436.734	445.176	0.108	-0.237
-435.719	-136.701	0.046	0.005
-434.705	-20.568	0.187	0.115
-433.690	-97.366	-0.074	0.019
-432.676	78.686	-0.035	-0.038
-431.661	-176.664	-0.222	-0.006
-430.646	-80.996	0.034	-0.011
-429.632	-70.942	0.024	-0.009
-428.617	549.123	0.105	0.251
-427.603	-34.207	-0.229	0.125
-426.588	-141.690	-0.099	-0.010
-425.573	-52.024	-0.358	0.165
-424.559	-7.799	0.151	0.101
-423.544	-112.757	-0.180	-0.036
-422.530	362.134	-0.118	-0.236
-421.515	29.475	-0.220	-0.186
-420.500	-200.000	0.020	0.111
-419.486	800.000	-0.124	-0.341
-418.471	-200.000	-0.009	0.097
-417.457	-200.000	0.032	-0.148
-416.442	800.000	0.071	-0.198
-415.428	134.981	-0.237	0.306
-414.413	-126.436	0.306	0.045
-413.398	93.168	-0.172	0.193
-412.384	233.869	-0.079	0.130
-411.369	-39.993	0.326	-0.169
-410.355	-200.000	0.019	0.266
-409.340	-200.000	0.001	0.028
-408.325	-50.360	-0.265	0.124
-407.311	-139.739	-0.273	-0.029
-406.296	107.448	-0.106	-0.125
-405.282	168.139	0.117	0.166
-404.267	-54.038	0.230	-0.104
-403.252	800.000	0.067	0.192
-402.238	-103.514	-0.130	0.030
-401.223	89.046	0.121	0.133
-400.209	800.000	-0.036	-0.122
-399.194	800.000	0.090	0.261
-398.179	-200.000	-0.039	-0.171
-397.165	134.838	0.045	-0.058
-396.150	128.864	0.187	0.237
-395.136	-74.917	0.299	0.106
-394.121	142.039	0.046	-0.061
-393.106	-40.504	0.231	-0.119
-392.092	-94.163	-0.203	-0.055
-391.077	-50.771	0.034	0.016
-390.063	-200.000	0.034	-0.320
-389.048	-200.000	0.041	-0.210
-388.033	9.006	0.307	0.230
-387.019	-140.189	0.297	-0.031
-386.004	494.317	-0.156	-0.354
-384.990	261.583	-0.054	0.093
-383.975	28.127	-0.211	-0.177
-382.960	263.832	0.107	0.185
-381.946	605.908	-0.051	-0.127
-380.931	-153.340	0.275	0.019
-379.917	296.294	-0.046	-0.084
-378.902	135.372	0.062	0.080
-377.888	-163.221	0.296	-0.014
-376.873	-200.000	-0.009	0.179
-375.858	44.680	-0.100	-0.091
-374.844	800.000	0.073	-0.202
-373.829	800.000	-0.083	-0.261
-372.815	-148.580	-0.200	0.016
-371.800	183.280	0.139	0.203
-370.785	800.000	0.081	-0.271
-369.771	-43.773	0.262	-0.131
-368.756	-200.000	0.001	0.194
-367.742	-200.000	-0.028	0.140
-366.727	-17.244	0.323	0.202
-365.712	-153.431	0.358	0.025
-364.698	-155.554	0.147	-0.009
-363.683	-54.414	0.293	0.132
-362.669	-95.413	-0.186	0.049
-361.654	-45.150	0.198	0.098
-360.639	800.000	-0.059	0.194
-359.625	-200.000	0.012	0.185
-358.610	95.907	-0.292	0.330
-357.596	559.557	-0.105	0.252
-356.581	210.623	0.054	0.084
-355.566	-200.000	0.096	-0.437
-354.552	7.806	-0.228	0.169
-353.537	149.832	0.078	-0.104
-352.523	-200.000	0.003	-0.335
-351.508	50.797	-0.149	0.140
-350.493	-77.304	0.056	0.019
-349.479	624.138	-0.070	-0.175
-348.464	84.825	0.275	-0.299
-347.450	-200.000	0.004	0.144
-346.435	-69.546	0.435	-0.165
-345.420	-4.061	-0.227	-0.156
-344.406	-51.656	0.135	-0.062
-343.391	-23.656	0.086	0.051
-342.377	261.817	0.094	0.161
-341.362	-135.618	-0.135	0.016
-340.348	-10.229	-0.183	-0.120
-339.333	-200.000	-0.020	-0.121
-338.318	-68.419	0.234	-0.090
-337.304	-94.669	0.285	0.077
-336.289	-36.443	0.022	0.012
-335.275	800.000	0.029	0.083
-334.260	-130.157	-0.242	0.033
-333.245	129.273	-0.272	0.344
-332.231	-200.000	-0.035	0.339
-331.216	-200.000	-0.019	-0.409
-330.202	-46.173	-0.220	0.107
-329.187	-56.835	0.194	0.085
-328.172	-110.748	0.206	-0.042
-327.158	48.450	0.377	0.349
-326.143	451.321	-0.126	0.276
-325.129	20.890	0.249	0.200
-324.114	191.058	-0.097	-0.145
-323.099	-25.625	0.271	0.158
-322.085	109.312	0.191	0.227
-321.070	-101.523	-0.205	0.049
-320.056	-102.047	-0.244	-0.058
-319.041	-200.000	-0.021	0.100
-318.026	-63.997	-0.224	-0.091
-317.012	64.588	-0.261	0.260
-315.997	237.657	-0.126	0.207
-314.983	-200.000	-0.009	-0.397
-313.968	-200.000	0.014	-0.079
-312.953	232.575	-0.075	-0.122
-311.939	539.299	0.034	-0.081
-310.924	284.416	-0.141	0.251
-309.910	38.382	-0.371	-0.327
-308.895	318.657	0.025	-0.046
-307.880	128.487	0.262	-0.330
-306.866	111.101	-0.152	-0.181
-305.851	209.543	0.103	0.160
-304.837	169.673	-0.257	-0.364
-303.822	2.006	0.252	-0.180
-302.807	335.737	0.079	0.152
-301.793	45.268	0.208	-0.190
-300.778	-200.000	-0.044	0.459
-299.764	112.853	-0.184	0.221
-298.749	-105.252	-0.210	0.047
-297.735	800.000	-0.017	-0.054
-296.720	-67.414	-0.205	0.080
-295.705	-99.591	-0.062	-0.015
-294.691	475.962	-0.074	-0.165
-293.676	-200.000	-0.006	-0.264
-292.662	-107.312	0.196	-0.043
-291.647	323.067	0.154	-0.290
-290.632	800.000	-0.058	-0.179
-289.618	-200.000	0.020	-0.285
-288.603	-44.270	-0.290	-0.144
-287.589	-200.000	-0.047	-0.408
-286.574	-4.962	0.083	0.056
-285.559	407.610	0.107	0.224
-284.545	39.870	-0.076	0.067
-283.530	-99.611	-0.303	-0.075
-282.516	-48.446	0.261	-0.124
-281.501	-200.000	0.010	-0.109
-280.486	-13.686	0.052	0.033
-279.472	357.357	-0.092	-0.181
-278.457	-182.947	-0.228	0.004
-277.443	365.061	-0.056	-0.111
-276.428	-73.936	0.104	-0.037
-275.413	-49.531	-0.456	-0.215
-274.399	-151.509	-0.087	-0.006
-273.384	-115.111	0.308	0.058
-272.370	-65.071	0.365	0.145
-271.355	800.000	-0.007	0.024
-270.340	-101.785	-0.290	0.069
-269.326	-51.248	0.197	0.091
-268.311	273.942	-0.071	0.124
-267.297	-64.976	0.334	0.133
-266.282	65.743	-0.066	0.066
-265.267	35.015	0.160	0.138
-264.253	518.150	0.082	0.189
-263.238	-30.031	-0.147	0.083
-262.224	340.262	-0.043	0.084
-261.209	-11.802	-0.189	-0.122
-260.195	172.027	-0.188	0.267
-259.180	0.516	-0.109	-0.077
-258.165	-142.758	0.034	0.003
-257.151	-105.896	-0.128	0.029
-256.136	60.015	-0.232	-0.226
-255.122	-101.845	0.289	-0.069
-254.107	34.414	0.114	0.098
-253.092	121.712	0.089	0.109
-252.078	-200.000	0.033	0.276
-251.063	422.917	-0.133	-0.282
-250.049	-149.704	0.069	-0.005
-249.034	68.248	0.091	0.092
-248.019	66.818	-0.245	-0.246
-247.005	259.935	-0.072	0.124
-245.990	111.054	-0.136	0.161
-244.976	-112.649	0.289	0.057
-243.961	-127.047	0.218	-0.032
-242.946	61.361	-0.258	-0.253
-241.932	-200.000	0.003	0.379
-240.917	74.542	0.235	0.244
-239.903	2.616	-0.077	-0.055
-238.888	-125.131	-0.287	-0.043
-237.873	59.936	0.106	0.104
-236.859	354.013	-0.077	0.151
-235.844	-42.043	-0.215	0.109
-234.830	153.970	-0.078	-0.105
-233.815	-132.487	0.210	-0.027
-232.800	-110.580	-0.215	0.044
-231.786	-200.000	-0.001	-0.221
-230.771	145.280	-0.086	-0.113
-229.757	770.498	0.065	0.174
-228.742	-133.091	0.207	0.026
-227.727	199.615	-0.166	0.252
-226.713	800.000	0.070	-0.192
-225.698	-167.739	0.332	0.013
-224.684	353.450	0.060	0.118
-223.669	-146.125	0.183	-0.016
-222.655	-112.511	-0.226	0.044
-221.640	535.240	0.050	0.117
-220.625	-51.385	0.147	-0.068
-219.611	216.275	0.116	-0.182
-218.596	484.491	-0.019	-0.043
-217.582	256.481	0.123	-0.208
-216.567	-9.791	0.491	0.322
-215.552	1.083	0.248	0.176
-214.538	14.592	0.346	0.266
-213.523	153.306	0.147	0.198
-212.509	-101.441	-0.135	0.033
-211.494	-133.290	-0.083	-0.010
-210.479	-200.000	0.043	0.266
-209.465	-200.000	-0.026	-0.436
-208.450	-184.019	-0.116	0.002
-207.436	586.056	-0.065	0.157
-206.421	800.000	0.061	-0.240
-205.406	353.300	-0.139	-0.273
-204.392	-14.667	0.212	0.134
-203.377	689.056	0.044	-0.113
-202.363	-121.822	0.284	0.046
-201.348	-82.534	0.473	-0.151
-200.333	633.995	-0.018	-0.046
-199.319	-200.000	0.015	-0.121
-198.304	-157.258	-0.254	-0.015
-197.290	54.412	-0.052	-0.049
-196.275	-80.337	0.059	-0.019
-195.260	-73.166	-0.350	0.126
-194.246	-200.000	-0.027	-0.235
-193.231	15.809	0.365	-0.283
-192.217	-200.000	-0.046	0.270
-191.202	-91.257	0.171	-0.048
-190.187	-145.719	0.142	0.012
-189.173	115.947	-0.085	-0.103
-188.158	110.193	0.077	-0.091
-187.144	-85.884	0.066	0.020
-186.129	-133.870	-0.215	-0.026
-185.114	117.523	0.043	-0.052
-184.100	-33.037	0.228	-0.124
-183.085	249.763	0.218	-0.364
-182.071	252.483	-0.026	0.044
-181.056	-108.362	-0.421	-0.089
-180.042	-68.377	0.155	-0.059
-179.027	800.000	-0.081	-0.262
-178.012	-200.000	-0.034	-0.307
-176.998	800.000	0.136	0.375
-175.983	-185.418	0.119	-0.002
-174.969	19.238	0.245	-0.194
-173.954	159.651	-0.178	-0.245
-172.939	214.083	0.225	-0.351
-171.925	240.362	-0.095	-0.155
-170.910	76.830	0.128	-0.134
-169.896	-88.079	-0.285	0.084
-168.881	363.825	0.067	-0.133
-167.866	-43.809	-0.311	0.154
-166.852	-94.514	0.235	0.063
-165.837	323.464	-0.194	0.364
-164.823	-200.000	-0.056	0.314
-163.808	-143.236	-0.108	0.010
-162.793	294.191	-0.075	0.135
-161.779	762.374	-0.059	0.158
-160.764	-200.000	-0.070	0.417
-159.750	-87.260	0.123	0.037
-158.735	233.612	-0.030	-0.049
-157.720	170.617	0.073	-0.102
-156.706	-200.000	0.073	-0.360
-155.691	-200.000	0.016	0.337
-154.677	145.305	0.114	0.150
-153.662	294.409	-0.011	-0.019
-152.647	-200.000	0.006	0.141
-151.633	113.217	0.185	0.220
-150.618	757.405	-0.037	0.100
-149.604	-76.205	-0.316	-0.110
-148.589	-0.296	0.339	0.237
-147.574	-200.000	-0.024	-0.278
-146.560	-77.665	-0.239	0.081
-145.545	261.814	0.038	-0.065
-144.531	-200.000	-0.080	0.354
-143.516	268.655	0.174	-0.300
-142.502	-31.006	0.078	-0.043
-141.487	-82.800	-0.180	-0.057
-140.472	-21.321	-0.198	0.119
-139.458	800.000	-0.054	0.173
-138.443	-139.644	0.136	-0.014
-137.429	-155.343	0.163	0.010
-136.414	91.908	-0.045	0.050
-135.399	382.425	0.014	-0.028
-134.385	-200.000	-0.080	-0.351
-133.370	116.763	0.020	0.024
-132.356	-166.182	0.204	0.008
-131.341	277.735	-0.127	0.222
-130.326	158.780	0.192	0.262
-129.312	800.000	-0.103	0.387
-128.297	-169.528	-0.252	-0.009
-127.283	-200.000	-0.010	-0.147
-126.268	-180.123	-0.080	0.002
-125.253	800.000	-0.077	-0.328
-124.239	-3.332	-0.242	-0.166
-123.224	-146.056	-0.199	-0.017
-122.210	70.621	0.236	0.240
