DTS Sentinel unit serial number:	SN413079Multiplexer serial number:	ORYXHardware model number:	OX4-SRSoftware version number:	ORYX F/W v4.00 Oryx Data Collector v3.7.2.0data status	okinstallation	princeton_trtdifferential loss correction	single-endedforward channel	channel 1reverse channel	N/Adate	2019/09/13time	05:50:35forward acquisition time	60.00reverse acquisition time	0.00gamma	496.2192k internal	0.2335k external	0.2335temperature offset calibration	1.0155default loss term (dB/km)	0.3790temperature slope calibration	1.0000multiplexer offset coefficient	1.0000multiplexer slope coefficient	1.0000fibre end	0.00T internal ref (°C)	26.19T ext. ref 1 (°C)	4.05T ext. ref 2 (°C)	20.96length (m)	temperature (°C)	Stokes	anti-Stokes-747.200	-64.205	0.257	0.105
-746.185	-45.212	0.122	0.061
-745.171	240.762	-0.196	0.328
-744.156	-129.265	-0.110	0.015
-743.142	-200.000	-0.058	0.368
-742.127	-200.000	0.020	0.569
-741.112	-200.000	-0.001	-0.232
-740.098	-178.983	-0.182	0.004
-739.083	-98.610	-0.451	0.115
-738.069	800.000	-0.107	0.414
-737.054	-200.000	0.032	-0.221
-736.039	536.012	-0.020	0.047
-735.025	-200.000	0.016	-0.095
-734.010	494.077	-0.055	-0.126
-732.996	71.904	0.201	-0.210
-731.981	210.859	0.036	-0.057
-730.966	-108.930	-0.112	0.024
-729.952	174.840	0.185	-0.269
-728.937	-138.774	0.121	0.013
-727.923	202.156	0.132	-0.204
-726.908	-36.025	-0.201	-0.109
-725.894	-200.000	0.043	-0.238
-724.879	-9.428	-0.138	0.093
-723.864	361.371	0.197	-0.397
-722.850	609.519	0.064	-0.160
-721.835	-0.606	0.087	-0.062
-720.821	20.961	-0.379	-0.308
-719.806	-113.482	-0.086	-0.017
-718.791	-97.461	0.108	0.028
-717.777	-112.835	-0.119	0.024
-716.762	-200.000	0.342	-0.002
-715.748	800.000	-0.032	-0.114
-714.733	-1.865	0.124	0.087
-713.718	89.813	-0.084	-0.094
-712.704	-81.869	-0.180	-0.059
-711.689	-200.000	0.067	-0.419
-710.675	249.975	0.083	0.142
-709.660	49.871	-0.313	-0.296
-708.645	122.829	0.011	-0.013
-707.631	-200.000	0.014	-0.185
-706.616	-200.000	0.047	-0.478
-705.602	51.939	-0.083	0.079
-704.587	274.780	0.056	0.099
-703.572	349.802	0.144	-0.285
-702.558	-200.000	0.031	0.198
-701.543	800.000	-0.095	-0.408
-700.529	-200.000	-0.017	-0.134
-699.514	63.949	-0.130	-0.131
-698.499	800.000	0.038	0.140
-697.485	-25.164	-0.198	0.118
-696.470	618.702	-0.120	0.301
-695.456	335.133	0.144	-0.279
-694.441	95.995	-0.192	-0.220
-693.426	800.000	0.067	-0.211
-692.412	-200.000	0.009	0.298
-691.397	-200.000	0.003	0.203
-690.383	-133.773	-0.061	0.008
-689.368	9.685	0.161	0.123
-688.354	48.933	0.273	0.257
-687.339	-47.153	0.214	0.105
-686.324	-1.004	0.220	-0.156
-685.310	45.830	-0.109	-0.101
-684.295	-34.637	0.296	-0.163
-683.281	-200.000	0.002	0.152
-682.266	142.082	0.224	0.298
-681.251	800.000	0.024	0.076
-680.237	800.000	-0.087	-0.260
-679.222	-36.837	-0.224	0.120
-678.208	-131.868	-0.204	0.027
-677.193	-4.116	0.111	-0.077
-676.178	-134.584	-0.352	0.043
-675.164	-34.592	-0.168	-0.092
-674.149	-103.564	0.271	0.064
-673.135	-61.857	0.350	0.147
-672.120	-26.826	-0.279	0.164
-671.105	15.073	-0.228	-0.179
-670.091	-36.001	0.128	0.069
-669.076	-42.678	-0.312	0.159
-668.062	-99.644	-0.444	0.111
-667.047	-200.000	0.038	0.188
-666.032	-81.181	-0.224	0.074
-665.018	8.345	0.112	-0.084
-664.003	-122.010	-0.371	-0.061
-662.989	800.000	-0.040	-0.160
-661.974	-111.201	0.043	0.009
-660.959	-200.000	0.028	-0.210
-659.945	-52.087	-0.297	-0.138
-658.930	-200.000	-0.027	-0.165
-657.916	452.555	0.063	-0.139
-656.901	-200.000	-0.069	-0.370
-655.886	-146.554	-0.196	-0.017
-654.872	-144.449	0.120	-0.011
-653.857	-89.437	0.220	-0.065
-652.843	-157.120	-0.222	-0.014
-651.828	-118.441	-0.310	0.055
-650.814	-27.232	-0.127	0.074
-649.799	68.447	-0.162	-0.167
-648.784	235.040	0.013	0.021
-647.770	53.308	-0.274	-0.263
-646.755	463.958	-0.161	-0.360
-645.741	-29.850	0.136	0.077
-644.726	-116.415	-0.293	-0.054
-643.711	179.953	-0.097	-0.142
-642.697	800.000	-0.031	-0.122
-641.682	406.473	-0.040	0.084
-640.668	2.652	-0.283	-0.206
-639.653	325.553	-0.100	-0.191
-638.638	498.307	-0.042	-0.097
-637.624	471.771	-0.080	-0.181
-636.609	-200.000	-0.044	0.270
-635.595	362.353	-0.104	0.208
-634.580	-200.000	-0.011	-0.069
-633.565	-111.733	0.285	0.058
-632.551	230.032	-0.041	0.066
-631.536	54.841	-0.271	0.261
-630.522	508.541	0.089	0.207
-629.507	800.000	-0.010	0.029
-628.492	-200.000	-0.002	0.167
-627.478	-138.355	-0.284	-0.031
-626.463	242.996	-0.102	-0.171
-625.449	477.893	0.021	-0.047
-624.434	-12.693	-0.246	0.160
-623.419	585.819	-0.128	-0.314
-622.405	238.173	0.095	0.157
-621.390	-200.000	-0.010	0.094
-620.376	-115.447	-0.464	-0.087
-619.361	-119.526	0.387	0.067
-618.346	789.469	0.054	-0.148
-617.332	-107.398	-0.189	-0.042
-616.317	-105.595	0.474	0.107
-615.303	96.609	-0.346	0.396
-614.288	355.356	0.064	-0.127
-613.273	364.660	0.099	-0.200
-612.259	142.827	-0.083	0.110
-611.244	-25.546	0.207	-0.122
-610.230	272.992	0.164	-0.289
-609.215	87.894	-0.251	-0.278
-608.201	63.956	-0.103	-0.103
-607.186	198.540	-0.047	-0.072
-606.171	26.986	-0.106	0.089
-605.157	44.240	-0.085	-0.078
-604.142	-200.000	-0.008	0.080
-603.128	395.411	0.058	0.121
-602.113	-91.684	-0.101	0.029
-601.098	-68.292	0.191	-0.074
-600.084	3.454	0.443	0.322
-599.069	-38.886	0.243	-0.128
-598.055	163.778	-0.136	-0.191
-597.040	-1.864	-0.049	-0.035
-596.025	-122.799	0.233	0.038
-595.011	800.000	0.080	-0.234
-593.996	-200.000	-0.057	0.344
-592.982	-83.594	0.408	-0.130
-591.967	25.547	0.158	0.131
-590.952	-200.000	-0.058	-0.305
-589.938	389.486	-0.130	-0.268
-588.923	-147.041	-0.293	-0.025
-587.909	-179.765	0.095	0.002
-586.894	-130.434	-0.380	0.051
-585.879	-32.835	0.155	-0.086
-584.865	88.320	0.013	-0.014
-583.850	-86.277	0.291	-0.089
-582.836	12.601	-0.221	0.170
-581.821	-200.000	-0.014	-0.319
-580.806	194.862	-0.145	0.219
-579.792	-26.230	-0.267	0.156
-578.777	25.126	0.071	-0.059
-577.763	-103.687	0.203	0.047
-576.748	-31.943	-0.084	0.047
-575.733	24.337	-0.112	-0.092
-574.719	-163.976	0.115	-0.005
-573.704	-49.680	0.260	-0.123
-572.690	8.694	0.183	-0.137
-571.675	800.000	-0.086	0.238
-570.661	128.083	-0.060	-0.077
-569.646	800.000	-0.019	-0.061
-568.631	-200.000	0.050	0.351
-567.617	540.237	0.053	0.127
-566.602	-200.000	0.039	0.225
-565.588	240.128	-0.153	0.254
-564.573	-200.000	-0.010	-0.192
-563.558	-105.084	-0.218	-0.050
-562.544	-29.150	0.025	0.015
-561.529	-20.581	-0.297	0.182
-560.515	-176.157	-0.267	0.007
-559.500	800.000	-0.093	0.257
-558.485	-134.077	0.158	-0.019
-557.471	94.382	-0.189	-0.214
-556.456	-174.680	0.115	-0.003
-555.442	-5.956	0.238	-0.162
-554.427	-200.000	0.014	0.166
-553.412	-56.128	0.072	0.032
-552.398	350.943	-0.114	-0.225
-551.383	-81.683	-0.309	-0.101
-550.369	-140.012	0.519	-0.055
-549.354	-78.203	-0.210	0.072
-548.339	117.263	-0.011	-0.014
-547.325	800.000	-0.098	0.355
-546.310	-156.915	0.469	0.029
-545.296	-92.248	0.251	-0.071
-544.281	-19.613	0.030	0.018
-543.266	-130.904	0.376	0.050
-542.252	34.924	-0.117	-0.102
-541.237	-138.859	-0.414	0.045
-540.223	-200.000	0.017	0.205
-539.208	447.043	-0.079	-0.173
-538.193	307.526	-0.185	-0.343
-537.179	800.000	-0.036	0.106
-536.164	-24.721	-0.182	0.108
-535.150	-81.140	0.447	0.147
-534.135	26.750	-0.312	0.260
-533.121	535.023	-0.141	-0.332
-532.106	304.496	-0.200	0.370
-531.091	-123.279	-0.177	0.028
-530.077	-51.205	0.158	-0.074
-529.062	-200.000	-0.015	-0.127
-528.048	73.464	0.158	0.165
-527.033	272.504	0.143	-0.251
-526.018	110.777	-0.090	0.107
-525.004	-59.205	-0.214	0.092
-523.989	800.000	0.045	-0.194
-522.975	-39.411	-0.155	-0.081
-521.960	-0.344	-0.156	-0.111
-520.945	800.000	0.032	-0.089
-519.931	96.372	0.027	-0.031
-518.916	-200.000	-0.005	-0.368
-517.902	-96.559	0.216	0.057
-516.887	388.097	0.069	-0.143
-515.872	800.000	-0.052	-0.205
-514.858	508.504	0.138	0.320
-513.843	-200.000	-0.025	0.257
-512.829	113.946	-0.244	0.295
-511.814	80.431	-0.148	0.159
-510.799	-15.915	0.113	-0.072
-509.785	-200.000	0.011	0.117
-508.770	800.000	0.053	-0.191
-507.756	435.561	0.177	-0.382
-506.741	379.209	-0.136	0.277
-505.726	282.229	0.062	-0.110
-504.712	484.286	-0.048	-0.110
-503.697	-23.124	-0.313	-0.187
-502.683	178.635	0.037	-0.053
-501.668	-200.000	0.043	-0.235
-500.653	800.000	-0.021	-0.063
-499.639	165.663	-0.065	0.091
-498.624	-137.065	-0.356	0.040
-497.610	-90.160	-0.354	-0.102
-496.595	326.213	0.180	0.343
-495.581	-118.201	-0.078	0.014
-494.566	7.612	-0.090	0.067
-493.551	-103.667	-0.306	0.071
-492.537	800.000	-0.151	-0.449
-491.522	-200.000	-0.009	0.173
-490.508	800.000	-0.043	0.161
-489.493	-200.000	-0.066	0.300
-488.478	-200.000	0.048	0.369
-487.464	130.401	0.102	0.130
-486.449	-161.305	0.241	0.012
-485.435	-3.181	-0.053	0.037
-484.420	-92.220	-0.151	0.042
-483.405	12.704	-0.270	-0.207
-482.391	-78.447	0.179	-0.061
-481.376	7.050	0.074	0.055
-480.362	196.130	0.148	0.223
-479.347	46.467	0.163	0.151
-478.332	26.484	0.048	0.040
-477.318	-200.000	-0.011	-0.106
-476.303	800.000	-0.021	-0.074
-475.289	162.031	0.119	0.166
-474.274	788.720	0.078	-0.213
-473.259	-200.000	-0.038	-0.292
-472.245	800.000	-0.092	-0.274
-471.230	-69.680	-0.367	-0.139
-470.216	-200.000	0.001	0.048
-469.201	-129.139	0.282	-0.039
-468.186	800.000	0.059	0.226
-467.172	-121.465	-0.091	-0.015
-466.157	45.535	-0.134	0.123
-465.143	28.248	-0.226	0.190
-464.128	-22.929	-0.109	0.065
-463.113	-165.259	0.274	-0.012
-462.099	-127.314	-0.179	-0.026
-461.084	-184.551	0.029	0.000
-460.070	-88.769	0.213	0.063
-459.055	0.355	0.145	0.103
-458.040	-200.000	-0.078	-0.460
-457.026	-107.260	-0.436	0.095
-456.011	95.627	0.129	-0.147
-454.997	119.808	0.032	-0.040
-453.982	-200.000	0.004	0.221
-452.968	-200.000	-0.045	-0.395
-451.953	-61.827	-0.132	-0.055
-450.938	25.154	-0.078	-0.065
-449.924	-200.000	0.038	0.383
-448.909	-22.209	0.448	0.270
-447.895	107.731	0.065	0.077
-446.880	151.208	0.058	0.079
-445.865	506.309	-0.149	0.344
-444.851	-11.199	-0.078	-0.051
-443.836	-88.114	0.497	-0.148
-442.822	467.363	0.085	0.190
-441.807	-2.295	-0.239	0.166
-440.792	6.078	0.045	0.033
-439.778	-21.042	0.093	0.056
-438.763	-94.877	0.127	-0.034
-437.749	-61.907	0.172	0.071
-436.734	-89.605	-0.012	0.003
-435.719	135.377	0.157	-0.202
-434.705	-31.078	0.212	-0.119
-433.690	296.684	-0.243	-0.442
-432.676	86.721	-0.046	-0.050
-431.661	239.714	0.082	-0.136
-430.646	-48.992	-0.054	0.026
-429.632	800.000	0.093	-0.277
-428.617	-74.027	-0.253	-0.091
-427.603	-119.505	-0.248	0.043
-426.588	775.392	-0.049	-0.133
-425.573	-106.942	-0.258	-0.057
-424.559	40.957	0.245	0.220
-423.544	-184.619	-0.137	0.002
-422.530	198.020	0.084	0.128
-421.515	800.000	-0.029	0.108
-420.500	71.921	-0.240	-0.248
-419.486	83.471	-0.049	0.053
-418.471	727.704	0.104	-0.275
-417.457	54.731	-0.182	0.175
-416.442	-83.447	-0.146	0.046
-415.428	325.353	-0.037	0.071
-414.413	-200.000	0.040	0.272
-413.398	-83.836	0.293	0.092
-412.384	-71.119	-0.364	0.136
-411.369	23.014	-0.211	-0.171
-410.355	274.060	0.012	-0.020
-409.340	-136.423	-0.047	-0.005
-408.325	176.623	-0.073	-0.105
-407.311	397.111	0.113	0.234
-406.296	-200.000	-0.048	-0.310
-405.282	113.854	-0.160	-0.193
-404.267	-200.000	-0.039	0.172
-403.252	-200.000	0.034	0.199
-402.238	38.806	-0.219	0.194
-401.223	-29.255	0.281	-0.159
-400.209	168.563	-0.118	-0.167
-399.194	335.084	0.109	0.210
-398.179	-4.683	0.270	0.185
-397.165	-200.000	0.025	-0.117
-396.150	-98.008	-0.288	-0.074
-395.136	800.000	-0.075	-0.240
-394.121	-200.000	0.059	-0.343
-393.106	-105.543	0.360	0.081
-392.092	-58.511	-0.131	0.056
-391.077	300.234	-0.061	-0.111
-390.063	-47.738	0.132	-0.063
-389.048	37.191	-0.149	0.131
-388.033	345.751	-0.083	0.162
-387.019	162.468	0.072	0.099
-386.004	261.602	0.223	0.382
-384.990	-40.284	-0.212	0.109
-383.975	18.383	-0.010	0.008
-382.960	86.852	0.216	-0.236
-381.946	-188.307	-0.022	-0.000
-380.931	-200.000	0.084	0.454
-379.917	-179.768	0.536	0.011
-378.902	-200.000	-0.010	0.084
-377.888	13.819	0.042	-0.033
-376.873	-200.000	-0.007	0.265
-375.858	-200.000	-0.037	-0.279
-374.844	25.242	-0.086	0.071
-373.829	193.995	0.261	-0.392
-372.815	178.686	0.063	0.092
-371.800	122.972	-0.098	0.121
-370.785	543.971	-0.093	0.221
-369.771	38.900	0.187	-0.165
-368.756	800.000	0.063	-0.240
-367.742	800.000	0.019	0.080
-366.727	99.036	-0.132	0.151
-365.712	-27.854	-0.433	0.248
-364.698	-26.614	-0.194	-0.112
-363.683	-200.000	0.003	0.331
-362.669	-53.560	-0.259	0.117
-361.654	222.203	0.210	-0.335
-360.639	703.739	0.049	0.128
-359.625	83.814	-0.164	-0.177
-358.610	-200.000	-0.043	-0.389
-357.596	212.902	-0.132	0.206
-356.581	-54.218	-0.045	0.020
-355.566	67.109	0.250	-0.252
-354.552	-43.129	0.356	-0.178
-353.537	-61.012	-0.120	-0.050
-352.523	-62.701	-0.199	0.082
-351.508	262.794	0.090	0.155
-350.493	-131.260	-0.390	-0.051
-349.479	-58.057	-0.206	0.089
-348.464	-157.929	0.641	-0.037
-347.450	-119.380	-0.114	0.020
-346.435	-86.051	0.298	0.091
-345.420	-112.579	-0.196	-0.039
-344.406	-200.000	-0.030	0.257
-343.391	-166.974	0.066	-0.003
-342.377	-200.000	-0.029	0.298
-341.362	-120.887	0.124	0.021
-340.348	-7.490	0.067	-0.045
-339.333	-9.643	0.141	0.093
-338.318	-85.646	-0.273	-0.084
-337.304	37.021	-0.293	-0.257
-336.289	110.018	0.038	-0.045
-335.275	800.000	0.033	0.128
-334.260	184.694	-0.043	0.063
-333.245	-39.613	-0.325	-0.168
-332.231	-126.740	0.258	0.038
-331.216	-124.391	0.121	-0.019
-330.202	-44.435	0.388	-0.192
-329.187	388.803	-0.118	-0.242
-328.172	406.250	-0.047	-0.098
-327.158	800.000	-0.040	0.170
-326.143	11.945	-0.163	0.124
-325.129	71.991	0.218	0.224
-324.114	82.431	-0.203	-0.218
-323.099	343.102	-0.087	0.168
-322.085	167.773	-0.167	0.235
-321.070	-200.000	-0.044	0.351
-320.056	-8.066	0.259	0.172
-319.041	-200.000	-0.290	0.001
-318.026	-133.070	-0.163	-0.020
-317.012	-23.580	-0.110	-0.065
-315.997	-71.768	0.421	-0.155
-314.983	665.517	-0.157	0.400
-313.968	-86.274	0.317	0.096
-312.953	239.868	0.096	0.158
-311.939	-200.000	-0.049	-0.237
-310.924	-122.544	0.296	-0.047
-309.910	672.542	0.130	0.333
-308.895	-100.735	-0.218	0.053
-307.880	-200.000	-0.066	0.309
-306.866	-200.000	0.007	0.230
-305.851	45.219	0.128	0.117
-304.837	-108.427	0.345	0.073
-303.822	48.099	0.294	-0.271
-302.807	-200.000	-0.016	-0.210
-301.793	113.194	0.103	-0.123
-300.778	-200.000	-0.015	-0.137
-299.764	-63.515	-0.357	-0.145
-298.749	-147.104	-0.070	-0.006
-297.735	83.971	-0.210	-0.226
-296.720	800.000	0.077	-0.216
-295.705	324.837	-0.027	-0.051
-294.691	-200.000	0.039	-0.386
-293.676	290.909	0.140	0.250
-292.662	-119.588	-0.085	0.015
-291.647	79.466	0.066	-0.070
-290.632	-129.017	0.396	0.055
-289.618	31.000	0.250	-0.212
-288.603	-142.810	0.150	-0.014
-287.589	-45.268	-0.136	0.066
-286.574	-4.891	0.294	0.200
-285.559	326.245	-0.060	0.114
-284.545	800.000	0.031	0.098
-283.530	-90.069	-0.087	-0.025
-282.516	184.927	0.061	-0.089
-281.501	-3.265	0.265	0.182
-280.486	-7.818	0.222	-0.148
-279.472	-155.697	0.127	-0.008
-278.457	-120.404	-0.297	-0.050
-277.443	-158.122	0.255	-0.015
-276.428	31.656	-0.205	0.174
-275.413	800.000	-0.058	0.242
-274.399	-200.000	0.011	-0.264
-273.384	168.047	0.093	-0.130
-272.370	-157.717	0.280	-0.016
-271.355	60.223	0.278	0.271
-270.340	272.485	-0.078	0.135
-269.326	55.898	0.188	0.180
-268.311	-95.335	0.151	0.040
-267.297	-200.000	-0.051	0.225
-266.282	-156.083	0.129	0.008
-265.267	-56.928	0.341	0.149
-264.253	-68.701	0.047	0.018
-263.238	53.870	-0.304	0.288
-262.224	-200.000	0.005	-0.207
-261.209	-101.488	-0.210	-0.050
-260.195	-88.986	-0.111	-0.032
-259.180	496.915	0.115	-0.262
-258.165	-94.567	0.302	-0.081
-257.151	-83.319	-0.150	0.047
-256.136	-200.000	-0.014	0.280
-255.122	-97.899	0.201	0.051
-254.107	-200.000	0.011	-0.099
-253.092	467.596	-0.017	-0.038
-252.078	800.000	0.004	0.012
-251.063	80.199	0.214	0.227
-250.049	-0.426	0.249	0.174
-249.034	34.179	-0.214	-0.184
-248.019	-111.117	-0.154	-0.031
-247.005	245.498	-0.173	0.287
-245.990	26.682	-0.300	0.248
-244.976	-200.000	-0.043	-0.313
-243.961	113.061	0.221	-0.264
-242.946	-152.879	-0.267	-0.019
-241.932	-104.782	0.337	0.076
-240.917	-109.752	0.104	0.022
-239.903	-89.109	-0.345	0.100
-238.888	210.570	0.106	-0.164
-237.873	89.938	0.264	-0.290
-236.859	28.172	-0.074	0.062
-235.844	95.415	0.157	0.176
-234.830	402.759	-0.055	-0.114
-233.815	-200.000	-0.021	-0.144
-232.800	354.432	0.106	-0.208
-231.786	-105.430	0.340	0.076
-230.771	-200.000	-0.001	-0.261
-229.757	26.461	0.058	0.047
-228.742	31.817	0.121	-0.102
-227.727	445.460	0.070	0.152
-226.713	-200.000	-0.050	0.258
-225.698	-151.010	-0.074	0.006
-224.684	-200.000	-0.037	-0.305
-223.669	9.031	0.158	-0.118
-222.655	141.188	-0.233	0.304
-221.640	-160.336	0.238	-0.013
-220.625	175.279	-0.280	0.400
-219.611	-11.149	0.149	-0.097
-218.596	311.599	-0.022	-0.040
-217.582	60.404	-0.099	0.096
-216.567	86.696	-0.105	0.114
-215.552	28.571	-0.116	-0.096
-214.538	106.936	0.103	-0.121
-213.523	-200.000	0.007	0.187
-212.509	-75.272	-0.213	-0.075
-211.494	-56.721	0.126	-0.055
-210.479	163.983	0.130	0.181
-209.465	-114.135	-0.186	-0.035
-208.450	-200.000	-0.029	0.195
-207.436	-52.224	0.191	-0.087
-206.421	-70.845	0.066	0.025
-205.406	18.453	-0.185	0.145
-204.392	-68.217	0.369	-0.141
-203.377	133.032	-0.124	-0.157
-202.363	800.000	-0.013	-0.047
-201.348	411.012	0.091	0.190
-200.333	-118.071	0.321	-0.056
-199.319	366.997	-0.039	-0.077
-198.304	-125.737	-0.189	-0.028
-197.290	143.103	-0.063	0.082
-196.275	800.000	0.098	-0.303
-195.260	800.000	0.141	-0.456
-194.246	-23.934	-0.113	-0.067
-193.231	85.382	0.171	-0.184
-192.217	-200.000	0.043	-0.264
-191.202	800.000	-0.161	0.472
-190.187	-85.121	-0.130	-0.040
-189.173	-200.000	0.004	0.153
-188.158	-70.058	-0.205	0.077
-187.144	-152.859	0.113	-0.008
-186.129	25.438	0.118	-0.096
-185.114	190.243	0.091	0.134
-184.100	-53.439	0.124	0.056
-183.085	-200.000	0.084	0.389
-182.071	391.724	0.143	-0.293
-181.056	330.569	0.018	0.034
-180.042	369.421	0.095	-0.188
-179.027	-105.212	0.054	-0.012
-178.012	800.000	0.125	-0.445
-176.998	28.619	-0.150	0.125
-175.983	-12.675	-0.147	-0.094
-174.969	-59.086	0.080	0.034
-173.954	-38.711	-0.195	-0.101
-172.939	-30.110	0.290	-0.162
-171.925	123.945	-0.093	-0.115
-170.910	-200.000	-0.078	0.363
-169.896	-107.866	0.107	0.023
-168.881	84.621	0.099	-0.107
-167.866	-27.162	-0.114	-0.065
-166.852	-200.000	-0.029	0.190
-165.837	583.532	0.080	0.193
-164.823	-200.000	-0.021	-0.290
-163.808	132.399	0.121	-0.153
-162.793	-62.627	-0.111	0.045
-161.779	-200.000	0.012	-0.085
-160.764	-200.000	-0.031	-0.221
-159.750	-200.000	0.013	0.064
-158.735	-65.430	-0.124	-0.049
-157.720	-152.212	0.370	-0.026
-156.706	-47.583	-0.126	-0.060
-155.691	-111.247	-0.387	0.078
-154.677	654.066	0.041	0.103
-153.662	-200.000	0.004	-0.240
-152.647	-65.470	0.040	0.016
-151.633	-40.652	-0.253	-0.129
-150.618	117.977	-0.060	-0.072
-149.604	-200.000	-0.022	-0.103
-148.589	-155.436	0.573	0.036
-147.574	-200.000	0.001	-0.157
-146.560	800.000	0.062	-0.249
-145.545	-200.000	0.065	0.340
-144.531	227.365	-0.107	0.171
-143.516	347.630	0.198	0.383
-142.502	-108.872	-0.178	-0.037
-141.487	800.000	-0.091	-0.304
-140.472	31.572	-0.071	0.060
-139.458	51.597	0.135	0.126
-138.443	620.295	0.052	-0.128
-137.429	-177.347	0.171	0.004
-136.414	393.793	0.045	0.092
-135.399	175.423	0.016	0.022
-134.385	189.180	-0.116	0.171
-133.370	-56.471	0.245	-0.106
-132.356	19.372	0.382	0.301
-131.341	-87.494	-0.118	0.035
-130.326	78.618	0.077	-0.081
-129.312	-200.000	-0.039	-0.278
-128.297	-61.160	0.046	-0.019
-127.283	-200.000	0.015	0.209
-126.268	-200.000	0.045	-0.223
-125.253	-145.547	0.164	-0.014
-124.239	800.000	0.051	0.192
-123.224	-200.000	-0.002	-0.018
-122.210	-32.099	-0.212	-0.116
