DTS Sentinel unit serial number:	SN413079Multiplexer serial number:	ORYXHardware model number:	OX4-SRSoftware version number:	ORYX F/W v4.00 Oryx Data Collector v3.7.2.0data status	okinstallation	princeton_trtdifferential loss correction	single-endedforward channel	channel 1reverse channel	N/Adate	2019/09/19time	08:26:35forward acquisition time	60.00reverse acquisition time	0.00gamma	496.2192k internal	0.2343k external	0.2343temperature offset calibration	1.0007default loss term (dB/km)	0.3790temperature slope calibration	1.0000multiplexer offset coefficient	1.0000multiplexer slope coefficient	1.0000fibre end	0.00T internal ref (°C)	20.56T ext. ref 1 (°C)	0.57T ext. ref 2 (°C)	16.26length (m)	temperature (°C)	Stokes	anti-Stokes-747.200	-6.577	0.087	-0.059
-746.185	-125.668	-0.140	-0.021
-745.171	-200.000	0.008	-0.172
-744.156	19.945	-0.073	-0.059
-743.142	229.561	-0.151	-0.246
-742.127	-59.139	-0.256	-0.111
-741.112	-200.000	-0.019	-0.292
-740.098	-42.805	0.019	-0.009
-739.083	-127.723	0.139	0.020
-738.069	-99.539	0.116	-0.029
-737.054	-110.261	-0.478	-0.100
-736.039	65.292	-0.177	-0.179
-735.025	-48.087	0.347	0.168
-734.010	-101.053	-0.252	-0.062
-732.996	-146.355	-0.646	-0.057
-731.981	-87.995	-0.419	-0.126
-730.966	33.848	-0.223	0.194
-729.952	117.839	-0.105	0.129
-728.937	204.949	-0.039	0.060
-727.923	422.817	-0.188	-0.403
-726.908	-106.919	-0.072	0.016
-725.894	-200.000	0.032	-0.158
-724.879	-200.000	-0.008	0.266
-723.864	-6.640	-0.196	-0.133
-722.850	-54.525	-0.162	0.073
-721.835	-19.454	0.092	0.057
-720.821	-47.108	-0.053	-0.026
-719.806	39.039	0.247	-0.221
-718.791	448.876	-0.078	0.171
-717.777	128.833	0.125	-0.159
-716.762	497.085	0.121	0.278
-715.748	104.999	-0.167	0.198
-714.733	-72.429	0.201	-0.074
-713.718	-117.189	-0.111	-0.020
-712.704	-61.374	-0.140	0.059
-711.689	344.553	0.120	-0.235
-710.675	162.152	0.051	-0.071
-709.660	18.831	-0.144	0.115
-708.645	-199.422	0.171	0.001
-707.631	-200.000	0.011	0.330
-706.616	283.407	-0.144	0.258
-705.602	-82.482	-0.159	0.052
-704.587	-126.888	-0.026	-0.004
-703.572	-200.000	-0.014	-0.095
-702.558	-80.093	0.097	0.032
-701.543	-200.000	0.000	-0.111
-700.529	56.355	0.164	0.159
-699.514	173.354	0.178	-0.256
-698.499	93.464	0.109	-0.123
-697.485	-136.451	-0.162	-0.019
-696.470	217.700	-0.041	-0.065
-695.456	-200.000	0.002	-0.024
-694.441	-142.603	-0.266	0.026
-693.426	-66.314	0.339	-0.135
-692.412	-56.422	-0.093	0.041
-691.397	17.968	0.055	-0.044
-690.383	181.914	-0.089	0.131
-689.368	-149.038	0.120	0.010
-688.354	102.013	-0.186	-0.217
-687.339	-75.710	-0.218	-0.077
-686.324	417.615	0.107	-0.229
-685.310	86.675	-0.139	-0.153
-684.295	800.000	0.085	-0.283
-683.281	779.210	-0.047	-0.128
-682.266	178.973	0.118	-0.172
-681.251	5.139	-0.156	0.115
-680.237	87.112	-0.087	0.096
-679.222	584.335	0.077	0.189
-678.208	-200.000	0.020	0.202
-677.193	-69.997	-0.191	-0.073
-676.178	278.712	0.085	0.151
-675.164	203.532	-0.053	-0.082
-674.149	-143.036	0.277	0.027
-673.135	24.944	-0.364	-0.301
-672.120	165.003	0.231	-0.325
-671.105	800.000	-0.089	0.278
-670.091	-200.000	-0.034	0.270
-669.076	18.815	0.114	-0.091
-668.062	-200.000	0.024	0.300
-667.047	-200.000	0.023	0.146
-666.032	-6.684	0.327	0.222
-665.018	79.019	-0.103	0.110
-664.003	800.000	-0.073	-0.204
-662.989	726.501	0.094	0.249
-661.974	-182.932	-0.241	-0.004
-660.959	137.519	0.482	-0.630
-659.945	728.627	0.103	-0.275
-658.930	-200.000	0.006	0.151
-657.916	-165.501	-0.321	0.014
-656.901	-170.248	0.228	0.008
-655.886	-200.000	0.001	0.194
-654.872	196.348	0.095	-0.144
-653.857	-31.741	0.062	0.034
-652.843	-98.082	0.095	0.024
-651.828	-106.055	0.232	-0.052
-650.814	532.774	-0.111	-0.263
-649.799	429.343	0.067	0.145
-648.784	-41.139	0.255	-0.131
-647.770	115.111	-0.282	-0.343
-646.755	-195.796	0.373	-0.003
-645.741	16.730	-0.247	-0.195
-644.726	-200.000	0.003	-0.333
-643.711	-146.454	-0.167	0.015
-642.697	131.887	0.147	0.189
-641.682	-200.000	-0.047	-0.219
-640.668	-200.000	0.040	-0.229
-639.653	-95.531	-0.110	-0.029
-638.638	168.314	0.165	0.234
-637.624	-19.932	-0.223	-0.137
-636.609	-177.176	-0.054	0.001
-635.595	800.000	-0.052	-0.181
-634.580	-38.305	-0.182	0.096
-633.565	45.167	-0.287	0.264
-632.551	-200.000	-0.043	-0.283
-631.536	800.000	-0.039	0.113
-630.522	-36.928	0.117	0.063
-629.507	-53.109	-0.042	0.019
-628.492	87.761	-0.014	0.015
-627.478	622.950	0.032	-0.080
-626.463	5.839	0.136	0.100
-625.449	-122.861	0.074	-0.012
-624.434	174.106	-0.100	0.144
-623.419	244.111	-0.189	-0.315
-622.405	-82.575	-0.480	-0.155
-621.390	-139.706	0.454	-0.048
-620.376	-200.000	-0.018	0.145
-619.361	-159.271	0.226	-0.013
-618.346	-56.973	0.158	0.070
-617.332	-200.000	0.020	0.296
-616.317	800.000	-0.128	-0.388
-615.303	-26.299	0.097	-0.057
-614.288	-137.554	0.194	-0.022
-613.273	800.000	-0.149	-0.412
-612.259	116.366	-0.090	0.110
-611.244	365.551	0.043	0.086
-610.230	-32.413	0.155	-0.086
-609.215	-8.799	-0.416	0.278
-608.201	-49.872	-0.179	-0.085
-607.186	145.709	-0.075	-0.100
-606.171	146.892	0.185	0.247
-605.157	46.105	-0.165	-0.152
-604.142	-173.987	-0.391	0.011
-603.128	-23.855	-0.127	-0.076
-602.113	145.232	-0.206	0.274
-601.098	511.566	0.025	-0.057
-600.084	-200.000	0.056	0.257
-599.069	-134.453	-0.062	0.008
-598.055	257.451	-0.083	-0.142
-597.040	137.033	0.125	-0.162
-596.025	357.814	0.161	-0.321
-595.011	85.672	0.116	-0.127
-593.996	-200.000	-0.021	-0.097
-592.982	-130.276	0.030	-0.004
-591.967	-99.733	0.095	0.024
-590.952	109.136	0.215	0.256
-589.938	43.408	0.182	-0.165
-588.923	-175.541	-0.165	0.004
-587.909	91.178	-0.069	-0.078
-586.894	4.438	-0.126	0.092
-585.879	402.571	0.151	0.316
-584.865	25.254	-0.341	0.281
-583.850	-156.865	-0.034	-0.002
-582.836	-200.000	0.078	-0.349
-581.821	-155.834	0.204	0.013
-580.806	-31.195	0.097	-0.055
-579.792	-89.742	0.264	0.077
-578.777	-130.885	0.453	-0.060
-577.763	-200.000	0.011	-0.059
-576.748	6.567	0.062	-0.046
-575.733	281.176	0.060	0.107
-574.719	78.599	0.165	-0.176
-573.704	42.372	0.457	0.413
-572.690	-200.000	0.013	-0.184
-571.675	-93.638	-0.089	0.024
-570.661	222.891	-0.166	0.266
-569.646	-200.000	-0.046	0.293
-568.631	212.177	-0.096	0.151
-567.617	81.480	0.091	-0.098
-566.602	-103.841	-0.206	-0.048
-565.588	20.285	-0.156	0.125
-564.573	-5.222	0.175	0.120
-563.558	-0.098	-0.163	0.116
-562.544	9.601	-0.280	0.211
-561.529	220.471	-0.243	0.388
-560.515	71.614	-0.152	-0.157
-559.500	48.378	-0.198	0.184
-558.485	32.035	-0.346	0.296
-557.471	-70.940	-0.159	0.060
-556.456	-63.303	-0.230	-0.094
-555.442	-66.065	0.118	-0.047
-554.427	170.943	0.098	-0.140
-553.412	-200.000	0.000	-0.108
-552.398	48.391	0.206	0.192
-551.383	-42.847	-0.055	-0.028
-550.369	-11.528	-0.317	-0.207
-549.354	-126.186	-0.151	0.022
-548.339	-200.000	0.023	0.169
-547.325	89.346	-0.109	0.120
-546.310	-200.000	0.014	-0.233
-545.296	-200.000	-0.025	0.331
-544.281	-160.746	0.327	0.017
-543.266	800.000	0.001	0.004
-542.252	-141.931	-0.392	-0.039
-541.237	60.603	-0.105	0.104
-540.223	-42.324	0.141	-0.071
-539.208	-81.236	0.244	0.080
-538.193	800.000	-0.070	-0.269
-537.179	-118.254	0.184	-0.033
-536.164	-200.000	-0.015	-0.104
-535.150	-99.772	0.167	-0.042
-534.135	48.787	-0.149	-0.139
-533.121	-107.285	-0.071	0.015
-532.106	17.657	-0.181	-0.143
-531.091	800.000	0.063	-0.256
-530.077	-123.661	0.401	0.063
-529.062	800.000	-0.058	0.175
-528.048	-81.978	0.205	0.067
-527.033	39.924	-0.124	-0.110
-526.018	-36.434	-0.204	-0.109
-525.004	-69.272	0.091	-0.035
-523.989	-59.327	-0.219	-0.093
-522.975	320.171	-0.162	0.305
-521.960	-90.135	-0.349	0.101
-520.945	700.694	-0.203	-0.530
-519.931	107.233	-0.213	0.251
-518.916	-58.158	0.252	-0.109
-517.902	-17.775	0.144	-0.090
-516.887	252.890	-0.185	-0.313
-515.872	-200.000	-0.004	-0.221
-514.858	-200.000	0.015	0.134
-513.843	42.815	-0.311	-0.281
-512.829	-169.328	0.106	-0.004
-511.814	77.833	0.226	-0.239
-510.799	105.141	-0.324	-0.379
-509.785	50.333	0.244	0.229
-508.770	209.482	-0.083	-0.128
-507.756	800.000	0.064	0.211
-506.741	-51.061	-0.207	-0.096
-505.726	-73.126	-0.175	-0.064
-504.712	-30.894	-0.282	-0.158
-503.697	237.667	-0.144	-0.238
-502.683	250.485	-0.075	-0.126
-501.668	800.000	0.045	0.189
-500.653	800.000	0.014	0.059
-499.639	-123.855	0.021	-0.003
-498.624	-154.033	-0.408	0.027
-497.610	-158.131	-0.133	-0.008
-496.595	191.099	0.056	0.084
-495.581	205.608	-0.095	0.146
-494.566	-58.001	0.226	0.098
-493.551	-59.825	-0.183	0.078
-492.537	-99.256	0.197	-0.049
-491.522	-110.541	0.195	0.040
-490.508	82.892	0.029	-0.031
-489.493	243.226	-0.151	0.252
-488.478	154.314	0.126	-0.171
-487.464	-163.658	0.162	0.008
-486.449	123.547	-0.052	0.064
-485.435	-15.445	0.200	0.127
-484.420	37.016	-0.257	0.226
-483.405	245.191	-0.045	0.075
-482.391	-200.000	-0.006	-0.356
-481.376	69.634	-0.272	-0.277
-480.362	-122.153	-0.222	-0.036
-479.347	-133.384	0.150	-0.019
-478.332	-92.175	-0.446	-0.125
-477.318	680.945	0.095	0.245
-476.303	164.464	-0.033	-0.046
-475.289	7.766	0.309	0.229
-474.274	206.583	-0.153	-0.237
-473.259	383.189	-0.194	0.396
-472.245	800.000	-0.032	-0.120
-471.230	390.000	0.096	0.198
-470.216	-191.641	-0.212	0.002
-469.201	-136.571	0.153	-0.018
-468.186	-129.783	0.127	0.017
-467.172	45.206	-0.122	0.112
-466.157	-200.000	0.009	-0.123
-465.143	-16.453	-0.224	0.141
-464.128	-100.051	0.231	0.057
-463.113	-200.000	0.053	-0.319
-462.099	-130.637	0.145	0.019
-461.084	-114.315	0.144	-0.027
-460.070	-97.475	-0.343	-0.088
-459.055	-80.155	0.255	-0.085
-458.040	800.000	-0.080	-0.251
-457.026	-83.614	0.163	-0.052
-456.011	-200.000	0.055	0.267
-454.997	-200.000	-0.031	0.151
-453.982	-116.881	-0.115	-0.021
-452.968	-68.233	-0.150	-0.058
-451.953	-200.000	0.040	-0.324
-450.938	39.301	-0.136	0.121
-449.924	-110.916	-0.147	0.030
-448.909	527.117	-0.160	-0.374
-447.895	-65.358	-0.222	-0.088
-446.880	-24.601	0.155	0.091
-445.865	-82.480	-0.264	0.085
-444.851	17.005	-0.230	0.180
-443.836	382.220	-0.055	-0.111
-442.822	-135.538	-0.202	-0.024
-441.807	-200.000	0.011	0.123
-440.792	-7.172	0.067	0.045
-439.778	-60.986	0.018	0.007
-438.763	47.162	-0.221	-0.203
-437.749	-125.718	0.260	-0.039
-436.734	-200.000	-0.010	-0.046
-435.719	299.165	-0.160	0.292
-434.705	64.796	-0.300	0.300
-433.690	-200.000	-0.022	0.274
-432.676	-8.005	0.150	0.100
-431.661	-99.649	0.216	0.054
-430.646	234.029	-0.034	-0.055
-429.632	-167.498	-0.293	-0.012
-428.617	800.000	0.061	0.238
-427.603	-45.851	-0.231	-0.113
-426.588	800.000	0.071	-0.251
-425.573	-78.236	-0.331	0.112
-424.559	224.999	-0.218	-0.350
-423.544	-10.781	-0.109	0.071
-422.530	365.057	0.050	-0.099
-421.515	-200.000	-0.006	-0.181
-420.500	-100.794	-0.206	0.050
-419.486	-121.592	-0.179	-0.029
-418.471	-61.296	0.204	-0.085
-417.457	-69.071	0.326	0.124
-416.442	59.644	-0.218	-0.213
-415.428	800.000	0.068	0.278
-414.413	-200.000	-0.061	0.338
-413.398	316.043	0.081	0.151
-412.384	228.597	0.173	0.278
-411.369	-55.254	-0.141	-0.063
-410.355	21.441	0.178	0.143
-409.340	-200.000	0.009	0.190
-408.325	529.340	-0.152	-0.354
-407.311	-107.930	0.138	-0.030
-406.296	-200.000	-0.053	-0.382
-405.282	-68.295	0.295	-0.113
-404.267	-200.000	0.009	-0.118
-403.252	223.088	-0.100	-0.160
-402.238	86.466	0.091	-0.099
-401.223	194.041	-0.130	-0.194
-400.209	-19.965	0.178	0.108
-399.194	0.039	0.264	-0.186
-398.179	-200.000	0.002	-0.044
-397.165	226.965	-0.078	-0.125
-396.150	185.355	-0.129	0.190
-395.136	199.808	0.095	0.143
-394.121	319.376	-0.050	0.094
-393.106	274.528	-0.073	-0.128
-392.092	-200.000	0.076	0.410
-391.077	678.658	-0.118	-0.302
-390.063	50.606	-0.293	0.274
-389.048	-85.688	0.255	-0.078
-388.033	150.606	-0.073	-0.098
-387.019	-109.847	-0.172	0.036
-386.004	-125.580	0.173	-0.026
-384.990	90.027	0.226	0.250
-383.975	-74.363	0.055	-0.019
-382.960	-200.000	0.026	0.237
-381.946	-200.000	-0.029	0.191
-380.931	133.917	0.031	0.040
-379.917	800.000	0.079	0.228
-378.902	-121.815	0.194	0.032
-377.888	-2.504	-0.202	-0.140
-376.873	45.581	0.247	-0.225
-375.858	146.038	0.079	-0.104
-374.844	-200.000	-0.007	0.167
-373.829	-200.000	0.008	0.328
-372.815	56.788	0.128	0.123
-371.800	232.645	-0.110	0.179
-370.785	-200.000	-0.038	0.266
-369.771	185.841	0.253	0.370
-368.756	-55.350	0.126	0.056
-367.742	800.000	-0.108	0.296
-366.727	-56.536	-0.237	-0.104
-365.712	169.593	0.132	-0.185
-364.698	-69.248	0.210	0.080
-363.683	35.411	-0.058	0.050
-362.669	-119.592	-0.317	0.054
-361.654	69.572	0.162	0.165
-360.639	203.758	0.196	-0.299
-359.625	107.764	-0.005	-0.005
-358.610	-167.582	-0.227	0.009
-357.596	-139.066	0.188	-0.020
-356.581	60.606	0.075	0.074
-355.566	315.411	-0.139	0.258
-354.552	-200.000	-0.017	-0.371
-353.537	-109.747	0.313	-0.065
-352.523	-17.939	-0.208	0.128
-351.508	-89.446	0.267	0.077
-350.493	-29.544	-0.324	-0.182
-349.479	-2.732	0.242	-0.167
-348.464	-132.464	-0.247	0.031
-347.450	-200.000	0.010	-0.188
-346.435	-197.614	0.246	0.001
-345.420	477.332	-0.052	-0.117
-344.406	103.720	-0.051	-0.059
-343.391	-70.796	0.092	0.034
-342.377	131.133	0.104	0.131
-341.362	-67.208	0.302	-0.117
-340.348	-42.804	-0.049	-0.025
-339.333	27.203	0.123	0.102
-338.318	137.573	-0.208	0.269
-337.304	-119.110	0.139	0.024
-336.289	39.005	-0.125	0.110
-335.275	169.387	-0.182	0.257
-334.260	253.289	0.158	-0.265
-333.245	335.104	0.008	-0.016
-332.231	-200.000	-0.007	-0.081
-331.216	-49.547	0.214	0.100
-330.202	-137.257	-0.510	-0.057
-329.187	-66.195	0.056	-0.022
-328.172	-41.834	0.259	-0.131
-327.158	-138.986	-0.317	-0.034
-326.143	-93.228	-0.277	0.076
-325.129	-118.262	0.375	0.066
-324.114	188.028	0.115	0.169
-323.099	-0.953	-0.195	-0.136
-322.085	-69.371	0.188	0.071
-321.070	-200.000	0.013	-0.063
-320.056	-136.828	0.182	-0.021
-319.041	118.612	-0.118	-0.143
-318.026	34.421	0.204	-0.175
-317.012	800.000	-0.048	-0.143
-315.997	214.309	-0.100	-0.155
-314.983	66.193	0.210	-0.210
-313.968	33.711	-0.170	-0.145
-312.953	-61.943	-0.115	-0.047
-311.939	-200.000	0.036	0.199
-310.924	-93.872	0.287	0.078
-309.910	-200.000	-0.025	0.146
-308.895	102.923	-0.126	0.145
-307.880	-155.351	0.323	0.021
-306.866	671.896	-0.031	-0.080
-305.851	-200.000	0.020	-0.095
-304.837	-200.000	-0.062	-0.360
-303.822	-175.302	-0.181	0.005
-302.807	-200.000	-0.066	0.404
-301.793	28.990	0.327	-0.273
-300.778	-16.548	-0.188	0.117
-299.764	107.759	0.292	0.342
-298.749	-68.496	-0.097	-0.037
-297.735	149.833	0.203	0.271
-296.720	-71.003	0.124	-0.046
-295.705	800.000	-0.037	0.117
-294.691	46.824	0.247	-0.226
-293.676	-200.000	-0.015	-0.268
-292.662	10.924	-0.165	-0.124
-291.647	-200.000	-0.030	0.415
-290.632	-200.000	0.035	0.163
-289.618	-5.158	-0.302	0.204
-288.603	-161.891	-0.203	-0.010
-287.589	-200.000	0.013	0.253
-286.574	-153.102	-0.316	0.022
-285.559	-77.499	0.333	0.113
-284.545	-200.000	0.037	0.204
-283.530	-194.360	0.151	0.001
-282.516	-193.501	0.280	0.002
-281.501	49.797	0.270	-0.250
-280.486	336.524	0.072	0.137
-279.472	77.228	-0.255	-0.266
-278.457	-111.790	0.382	-0.076
-277.443	-70.755	0.137	0.051
-276.428	35.901	0.129	-0.112
-275.413	-11.858	0.149	-0.096
-274.399	354.390	-0.230	0.449
-273.384	-24.132	0.223	-0.131
-272.370	-51.961	-0.222	0.101
-271.355	-60.544	0.401	-0.167
-270.340	-200.000	-0.003	0.234
-269.326	537.228	-0.083	0.193
-268.311	-140.192	0.246	-0.025
-267.297	-200.000	0.026	0.253
-266.282	-101.435	-0.466	0.112
-265.267	800.000	-0.026	-0.078
-264.253	800.000	-0.096	0.304
-263.238	-16.479	-0.239	0.149
-262.224	-22.334	0.299	-0.178
-261.209	93.750	-0.166	0.185
-260.195	176.478	0.146	0.208
-259.180	-200.000	0.021	0.284
-258.165	-71.339	0.086	0.032
-257.151	-200.000	0.216	0.001
-256.136	-17.563	-0.255	0.158
-255.122	-165.241	-0.532	0.023
-254.107	90.541	-0.208	-0.228
-253.092	291.761	0.189	-0.339
-252.078	-200.000	-0.054	0.402
-251.063	800.000	0.049	-0.173
-250.049	-141.803	-0.107	0.011
-249.034	-70.870	0.198	-0.073
-248.019	57.231	0.201	-0.193
-247.005	-200.000	-0.022	-0.324
-245.990	-123.322	-0.147	0.023
-244.976	800.000	0.089	0.265
-243.961	-101.727	-0.286	-0.068
-242.946	123.821	0.060	0.074
-241.932	-96.341	0.332	0.086
-240.917	285.127	-0.083	-0.147
-239.903	78.321	-0.079	0.082
-238.888	-86.346	0.237	-0.071
-237.873	388.305	0.166	-0.336
-236.859	800.000	0.035	0.145
-235.844	239.631	-0.109	0.178
-234.830	-142.242	0.063	-0.006
-233.815	144.647	0.142	-0.186
-232.800	-38.993	-0.214	0.110
-231.786	-77.900	0.172	-0.058
-230.771	-175.908	-0.267	-0.007
-229.757	-33.536	0.133	-0.072
-228.742	-99.640	-0.045	-0.011
-227.727	404.942	0.159	-0.328
-226.713	-79.416	0.379	-0.126
-225.698	-94.774	0.352	0.094
-224.684	-122.648	0.194	-0.031
-223.669	-64.472	-0.205	-0.082
-222.655	48.292	0.159	-0.146
-221.640	-120.674	-0.219	0.036
-220.625	-108.629	0.219	-0.046
-219.611	6.182	0.095	0.069
-218.596	129.712	-0.187	0.234
-217.582	-200.000	0.039	-0.198
-216.567	100.240	-0.113	-0.128
-215.552	-112.081	0.286	0.056
-214.538	-78.679	-0.314	-0.105
-213.523	23.418	-0.066	-0.053
-212.509	1.654	-0.211	-0.149
-211.494	-200.000	-0.021	-0.459
-210.479	-59.704	-0.129	0.054
-209.465	-38.999	0.242	0.125
-208.450	-123.575	0.112	0.017
-207.436	-200.000	0.021	-0.268
-206.421	338.060	0.079	0.151
-205.406	229.993	0.371	-0.594
-204.392	120.595	-0.130	0.158
-203.377	-127.485	0.267	-0.038
-202.363	39.727	0.058	-0.051
-201.348	279.896	-0.053	-0.092
-200.333	-200.000	0.003	0.033
-199.319	-137.750	0.271	-0.030
-198.304	-0.980	-0.111	-0.077
-197.290	-2.566	-0.084	-0.057
-196.275	-60.310	-0.021	-0.009
-195.260	-16.793	-0.172	-0.107
-194.246	-111.220	0.402	-0.081
-193.231	800.000	-0.108	0.369
-192.217	159.019	0.095	-0.130
-191.202	-45.889	-0.238	0.115
-190.187	116.379	0.168	-0.202
-189.173	210.796	-0.089	0.137
-188.158	800.000	0.104	-0.401
-187.144	-165.093	-0.205	-0.009
-186.129	-178.750	0.113	-0.003
-185.114	449.109	-0.113	0.244
-184.100	49.623	0.166	-0.154
-183.085	-42.390	0.161	0.080
-182.071	20.475	-0.153	-0.121
-181.056	-90.861	-0.224	-0.063
-180.042	-0.352	0.133	0.092
-179.027	-7.152	0.130	0.086
-178.012	-100.408	0.253	-0.061
-176.998	245.885	-0.022	-0.036
-175.983	92.849	0.122	-0.135
-174.969	-33.129	0.268	0.145
-173.954	459.506	0.097	0.210
-172.939	-164.006	0.366	-0.017
-171.925	-129.386	0.244	-0.033
-170.910	181.085	0.111	0.160
-169.896	18.786	-0.258	0.202
-168.881	800.000	-0.103	-0.309
-167.866	416.806	0.117	0.245
-166.852	-200.000	0.008	0.173
-165.837	-200.000	-0.021	0.125
-164.823	421.036	0.008	-0.016
-163.808	-139.155	-0.225	0.024
-162.793	-121.871	0.263	-0.042
-161.779	-200.000	0.002	0.143
-160.764	-46.269	0.272	0.131
-159.750	135.803	0.080	-0.102
-158.735	188.074	-0.201	-0.294
-157.720	9.851	-0.208	0.155
-156.706	5.389	0.176	0.127
-155.691	2.052	0.159	0.112
-154.677	-111.719	0.383	-0.076
-153.662	-105.254	-0.316	0.070
-152.647	140.378	-0.228	-0.295
-151.633	14.110	-0.037	-0.028
-150.618	-29.875	-0.215	0.120
-149.604	136.162	0.069	0.088
-148.589	-149.804	0.149	-0.011
-147.574	-128.066	-0.119	0.017
-146.560	26.927	-0.130	0.107
-145.545	-34.792	0.203	-0.109
-144.531	-20.289	-0.345	0.208
-143.516	33.359	0.137	0.117
-142.502	-75.277	0.405	-0.141
-141.487	401.544	0.071	-0.145
-140.472	-45.650	0.126	-0.061
-139.458	-77.130	-0.374	-0.128
-138.443	4.252	-0.238	-0.170
-137.429	233.376	-0.173	0.279
-136.414	-200.000	0.036	0.405
-135.399	800.000	-0.048	0.158
-134.385	-176.555	-0.419	0.011
-133.370	38.507	-0.264	0.230
-132.356	11.041	-0.034	-0.026
-131.341	-165.775	-0.292	-0.012
-130.326	800.000	0.131	0.522
-129.312	122.592	-0.149	0.183
-128.297	73.525	0.268	0.275
-127.283	290.558	-0.179	0.318
-126.268	-200.000	-0.017	0.161
-125.253	-57.982	0.156	0.066
-124.239	-91.964	0.218	0.060
-123.224	-40.866	-0.128	0.065
-122.210	800.000	0.091	-0.305
-121.195	534.807	0.137	0.317
