DTS Sentinel unit serial number:	SN413079Multiplexer serial number:	ORYXHardware model number:	OX4-SRSoftware version number:	ORYX F/W v4.00 Oryx Data Collector v3.7.2.0data status	okinstallation	princeton_trtdifferential loss correction	single-endedforward channel	channel 1reverse channel	N/Adate	2019/09/15time	00:54:35forward acquisition time	60.00reverse acquisition time	0.00gamma	496.2192k internal	0.2321k external	0.2321temperature offset calibration	0.9991default loss term (dB/km)	0.3790temperature slope calibration	1.0000multiplexer offset coefficient	1.0000multiplexer slope coefficient	1.0000fibre end	0.00T internal ref (°C)	32.05T ext. ref 1 (°C)	4.55T ext. ref 2 (°C)	26.92length (m)	temperature (°C)	Stokes	anti-Stokes-747.200	-60.003	-0.182	0.079
-746.185	435.607	-0.016	0.034
-745.171	-3.957	-0.176	0.123
-744.156	-110.599	0.141	0.030
-743.142	28.128	0.156	0.133
-742.127	-200.000	-0.035	0.188
-741.112	-200.000	-0.007	-0.179
-740.098	-200.000	0.011	0.149
-739.083	114.339	0.302	0.371
-738.069	-200.000	-0.022	0.153
-737.054	-120.008	0.069	-0.012
-736.039	-53.749	-0.209	-0.097
-735.025	-96.939	-0.068	-0.018
-734.010	-99.384	-0.238	-0.061
-732.996	-21.808	-0.216	-0.133
-731.981	-46.444	0.083	-0.041
-730.966	-107.199	0.104	-0.023
-729.952	39.370	-0.142	-0.129
-728.937	180.339	-0.122	-0.180
-727.923	13.495	-0.222	-0.174
-726.908	-200.000	-0.020	-0.224
-725.894	-193.860	-0.475	-0.004
-724.879	-200.000	-0.005	-0.028
-723.864	21.586	-0.112	-0.092
-722.850	-160.312	0.081	-0.004
-721.835	-74.300	-0.189	-0.069
-720.821	-148.882	-0.210	0.017
-719.806	67.280	-0.141	-0.145
-718.791	-200.000	0.012	-0.114
-717.777	-53.151	0.298	-0.138
-716.762	-6.570	0.250	-0.172
-715.748	6.250	-0.032	0.024
-714.733	-200.000	0.024	0.182
-713.718	13.301	-0.075	0.059
-712.704	-155.872	0.184	-0.012
-711.689	-92.641	-0.204	-0.058
-710.675	306.364	0.117	-0.220
-709.660	-21.022	-0.043	0.027
-708.645	35.949	-0.137	0.122
-707.631	107.587	-0.174	-0.209
-706.616	-200.000	0.040	-0.202
-705.602	-200.000	0.019	0.108
-704.587	240.649	0.161	0.271
-703.572	-58.366	-0.259	0.114
-702.558	324.332	-0.012	0.023
-701.543	50.857	0.334	0.320
-700.529	-97.118	-0.052	0.014
-699.514	800.000	-0.065	-0.187
-698.499	164.351	0.085	-0.121
-697.485	-68.862	0.257	0.100
-696.470	-200.000	0.003	0.254
-695.456	375.396	0.106	0.218
-694.441	800.000	0.081	-0.297
-693.426	671.475	0.090	-0.236
-692.412	4.062	-0.241	0.178
-691.397	-14.231	0.323	0.210
-690.383	131.591	0.139	-0.181
-689.368	-119.672	0.334	-0.058
-688.354	-3.154	0.144	-0.101
-687.339	412.466	-0.022	-0.047
-686.324	-101.564	0.288	-0.071
-685.310	319.700	0.059	-0.112
-684.295	-117.526	0.042	0.008
-683.281	292.992	0.223	-0.410
-682.266	2.368	-0.164	-0.120
-681.251	179.162	-0.219	-0.323
-680.237	-155.396	0.478	0.031
-679.222	-200.000	0.005	0.298
-678.208	24.946	0.132	0.110
-677.193	-21.727	-0.246	0.151
-676.178	86.025	0.147	0.163
-675.164	-44.387	0.171	0.086
-674.149	-157.070	-0.200	-0.012
-673.135	499.141	-0.053	-0.123
-672.120	-29.356	-0.087	-0.050
-671.105	-200.000	0.021	-0.304
-670.091	168.658	0.143	-0.205
-669.076	32.248	-0.090	-0.079
-668.062	-132.472	-0.263	0.034
-667.047	800.000	0.054	-0.229
-666.032	369.876	0.276	-0.563
-665.018	-102.718	-0.246	-0.059
-664.003	-25.948	0.105	-0.062
-662.989	800.000	-0.038	-0.146
-661.974	128.386	0.161	-0.206
-660.959	800.000	0.092	-0.285
-659.945	800.000	-0.036	-0.107
-658.930	141.130	-0.192	-0.255
-657.916	-110.607	0.063	0.013
-656.901	-200.000	0.004	0.281
-655.886	-105.278	0.123	0.028
-654.872	-200.000	-0.036	-0.225
-653.857	-53.666	0.123	0.057
-652.843	-71.047	-0.442	0.168
-651.828	184.114	0.050	-0.075
-650.814	-196.062	-0.145	0.001
-649.799	800.000	-0.128	-0.450
-648.784	645.059	-0.118	-0.302
-647.770	800.000	-0.106	-0.297
-646.755	375.200	0.093	-0.190
-645.741	151.523	0.237	-0.324
-644.726	-146.529	-0.232	-0.020
-643.711	86.760	0.130	0.145
-642.697	51.752	-0.228	0.218
-641.682	75.543	0.077	0.082
-640.668	-166.877	-0.175	0.007
-639.653	-188.983	0.248	0.003
-638.638	-48.449	-0.154	0.075
-637.624	51.657	0.135	-0.129
-636.609	-78.660	-0.062	0.021
-635.595	-106.325	-0.255	-0.057
-634.580	225.695	0.171	-0.279
-633.565	514.324	-0.119	0.280
-632.551	-28.549	-0.129	-0.075
-631.536	-200.000	0.056	-0.355
-630.522	192.699	0.130	0.198
-629.507	-0.448	-0.144	0.103
-628.492	-200.000	-0.022	-0.246
-627.478	1.945	0.117	-0.085
-626.463	-200.000	-0.049	0.221
-625.449	-200.000	0.014	0.157
-624.434	318.647	0.087	-0.166
-623.419	800.000	-0.015	0.055
-622.405	-90.925	0.076	-0.022
-621.390	171.610	0.138	0.199
-620.376	-200.000	-0.023	-0.263
-619.361	454.182	-0.087	-0.194
-618.346	-200.000	0.019	-0.222
-617.332	-200.000	0.050	0.225
-616.317	252.599	0.101	0.173
-615.303	67.872	-0.102	0.105
-614.288	89.043	-0.238	0.267
-613.273	-51.354	-0.347	-0.163
-612.259	-200.000	-0.054	0.263
-611.244	-95.078	-0.230	0.062
-610.230	-200.000	0.034	-0.177
-609.215	-200.000	0.003	-0.078
-608.201	-200.000	-0.068	0.456
-607.186	-200.000	-0.010	0.110
-606.171	177.224	-0.087	-0.127
-605.157	377.416	0.059	-0.121
-604.142	8.183	0.312	-0.236
-603.128	-200.000	0.023	0.395
-602.113	73.440	-0.120	0.127
-601.098	-39.365	-0.224	-0.118
-600.084	-187.647	-0.445	0.006
-599.069	800.000	-0.016	-0.062
-598.055	-132.192	-0.099	-0.013
-597.040	-200.000	-0.011	0.218
-596.025	-70.354	-0.056	0.021
-595.011	-1.204	-0.155	-0.110
-593.996	-23.209	-0.219	-0.132
-592.982	-138.468	0.065	-0.007
-591.967	188.148	-0.061	0.092
-590.952	-99.733	0.321	0.081
-589.938	-107.903	0.219	0.048
-588.923	-200.000	0.022	0.202
-587.909	66.114	-0.221	0.225
-586.894	-58.561	0.185	-0.081
-585.879	-81.608	0.210	0.069
-584.865	364.388	0.109	-0.221
-583.850	-111.501	0.195	-0.040
-582.836	353.731	0.090	-0.179
-581.821	800.000	0.114	-0.353
-580.806	256.510	-0.096	0.166
-579.792	407.938	-0.228	0.485
-578.777	137.217	-0.053	0.070
-577.763	85.396	-0.129	-0.143
-576.748	132.391	-0.041	0.053
-575.733	-200.000	0.012	-0.088
-574.719	800.000	-0.029	0.128
-573.704	-200.000	0.038	0.307
-572.690	3.697	0.109	0.080
-571.675	515.460	0.128	0.299
-570.661	-92.072	-0.247	0.070
-569.646	-200.000	0.013	-0.103
-568.631	35.106	0.093	0.082
-567.617	-200.000	0.032	-0.165
-566.602	8.407	-0.204	0.154
-565.588	776.229	-0.052	0.144
-564.573	4.313	0.447	-0.329
-563.558	401.901	0.139	-0.293
-562.544	-143.202	0.137	0.013
-561.529	158.476	0.003	0.004
-560.515	-200.000	-0.052	-0.307
-559.500	-200.000	0.023	-0.257
-558.485	800.000	-0.044	0.133
-557.471	-200.000	0.031	0.382
-556.456	-200.000	0.016	-0.340
-555.442	-129.658	-0.143	-0.020
-554.427	-200.000	0.003	-0.104
-553.412	-200.000	-0.020	0.173
-552.398	-81.231	-0.333	0.110
-551.383	115.595	0.039	0.048
-550.369	117.740	-0.151	-0.186
-549.354	77.648	0.192	0.205
-548.339	-101.370	0.371	-0.091
-547.325	-173.755	0.328	0.010
-546.310	59.874	0.202	-0.200
-545.296	193.160	0.014	0.021
-544.281	20.636	0.191	-0.155
-543.266	-200.000	-0.027	-0.176
-542.252	-200.000	0.014	-0.091
-541.237	94.405	-0.223	0.254
-540.223	240.849	0.190	0.318
-539.208	-200.000	0.018	0.322
-538.193	-129.430	-0.401	-0.056
-537.179	-41.286	-0.328	-0.170
-536.164	-60.922	-0.265	0.112
-535.150	-36.712	0.194	0.104
-534.135	128.830	-0.052	-0.067
-533.121	63.575	0.012	-0.012
-532.106	-79.430	0.218	0.074
-531.091	-133.531	0.014	0.002
-530.077	160.781	-0.072	-0.101
-529.062	-130.894	0.441	-0.059
-528.048	245.275	-0.242	-0.408
-527.033	-5.642	-0.122	-0.084
-526.018	-59.467	0.046	-0.020
-525.004	-200.000	-0.046	0.253
-523.989	800.000	0.062	-0.234
-522.975	60.456	-0.064	-0.063
-521.960	-172.533	0.062	0.002
-520.945	-200.000	0.000	0.274
-519.931	-100.973	0.364	0.090
-518.916	-114.096	0.089	0.017
-517.902	-36.220	0.259	-0.140
-516.887	-93.652	-0.219	0.061
-515.872	-88.533	0.138	-0.041
-514.858	383.354	-0.034	-0.071
-513.843	-93.456	-0.021	-0.006
-512.829	-200.000	-0.016	-0.218
-511.814	364.785	-0.069	-0.138
-510.799	-69.592	-0.304	-0.117
-509.785	85.440	0.153	0.168
-508.770	97.991	-0.232	0.267
-507.756	21.396	0.259	0.211
-506.741	-19.214	0.270	0.168
-505.726	-175.621	-0.059	-0.002
-504.712	800.000	0.096	-0.282
-503.697	83.267	0.073	-0.079
-502.683	28.047	0.334	0.282
-501.668	17.217	0.099	0.079
-500.653	-116.026	0.293	0.055
-499.639	-7.056	0.186	-0.127
-498.624	800.000	-0.101	-0.280
-497.610	-200.000	-0.015	-0.095
-496.595	304.859	-0.075	-0.139
-495.581	-181.307	0.280	0.006
-494.566	-148.653	0.412	-0.034
-493.551	-108.751	-0.192	-0.041
-492.537	77.488	0.250	0.267
-491.522	14.070	-0.109	0.085
-490.508	-38.048	-0.154	0.082
-489.493	-200.000	0.044	-0.324
-488.478	10.609	0.212	0.162
-487.464	27.186	-0.176	0.148
-486.449	-119.164	0.159	-0.028
-485.435	-200.000	-0.002	-0.023
-484.420	-141.027	-0.014	0.001
-483.405	-24.452	-0.238	0.142
-482.391	471.764	0.115	-0.260
-481.376	-56.229	-0.296	0.132
-480.362	-45.660	-0.290	0.144
-479.347	141.774	-0.167	0.221
-478.332	170.797	0.199	0.285
-477.318	-112.861	-0.406	-0.081
-476.303	-200.000	0.030	-0.244
-475.289	134.849	0.060	-0.078
-474.274	-98.085	-0.267	-0.069
-473.259	-67.649	0.223	-0.087
-472.245	-7.938	-0.254	0.171
-471.230	800.000	0.093	-0.280
-470.216	20.792	-0.125	-0.102
-469.201	-93.451	-0.347	0.096
-468.186	-200.000	0.011	-0.151
-467.172	-200.000	0.035	0.338
-466.157	800.000	-0.031	0.120
-465.143	800.000	-0.074	0.266
-464.128	350.231	0.134	-0.264
-463.113	800.000	0.029	0.113
-462.099	-91.896	-0.211	0.060
-461.084	-200.000	0.001	0.445
-460.070	187.322	0.081	-0.120
-459.055	-200.000	-0.018	-0.236
-458.040	-113.959	-0.153	0.030
-457.026	-200.000	0.080	-0.367
-456.011	330.426	-0.164	-0.315
-454.997	-105.280	0.159	-0.036
-453.982	325.338	-0.090	0.173
-452.968	-200.000	0.031	0.234
-451.953	-60.198	0.207	-0.088
-450.938	182.332	0.044	0.065
-449.924	320.550	-0.067	0.127
-448.909	41.654	0.144	0.131
-447.895	-200.000	-0.064	0.413
-446.880	34.747	-0.214	-0.187
-445.865	-76.390	-0.022	0.008
-444.851	-172.483	0.076	0.002
-443.836	226.689	0.080	-0.129
-442.822	-59.185	0.196	0.084
-441.807	800.000	-0.085	0.255
-440.792	-164.323	0.041	-0.002
-439.778	-78.006	0.177	0.061
-438.763	-200.000	-0.015	0.086
-437.749	731.709	0.040	-0.107
-436.734	-200.000	-0.026	0.266
-435.719	105.518	-0.111	0.131
-434.705	-200.000	0.017	0.181
-433.690	136.295	0.080	0.104
-432.676	-3.526	0.192	0.133
-431.661	800.000	0.104	-0.327
-430.646	-101.089	-0.019	-0.005
-429.632	234.442	0.128	0.211
-428.617	-200.000	-0.004	-0.088
-427.603	-200.000	-0.045	0.236
-426.588	584.338	0.069	-0.169
-425.573	4.147	0.540	-0.395
-424.559	-73.508	0.135	-0.049
-423.544	151.947	0.104	-0.142
-422.530	800.000	0.068	0.269
-421.515	800.000	0.061	-0.198
-420.500	55.580	-0.191	-0.185
-419.486	-6.546	0.345	-0.235
-418.471	-143.537	-0.199	0.019
-417.457	189.218	-0.103	0.154
-416.442	652.829	0.059	-0.151
-415.428	520.146	-0.233	-0.545
-414.413	87.828	-0.243	0.269
-413.398	-130.907	-0.480	0.064
-412.384	-12.864	-0.241	0.157
-411.369	167.957	-0.093	-0.132
-410.355	800.000	-0.036	0.113
-409.340	139.964	-0.122	-0.160
-408.325	-87.740	-0.266	0.080
-407.311	89.376	-0.055	0.061
-406.296	-46.354	-0.283	-0.139
-405.282	0.292	0.176	0.125
-404.267	-200.000	0.050	-0.322
-403.252	-19.726	-0.227	-0.140
-402.238	-66.620	-0.246	-0.097
-401.223	265.534	-0.056	0.097
-400.209	-0.871	-0.128	0.090
-399.194	153.711	-0.203	0.278
-398.179	27.346	0.165	0.139
-397.165	-151.408	0.188	0.014
-396.150	-123.423	-0.431	-0.069
-395.136	800.000	-0.073	0.234
-394.121	-125.408	0.197	0.030
-393.106	-87.675	-0.416	-0.125
-392.092	192.661	0.118	0.178
-391.077	-68.070	0.132	-0.051
-390.063	57.524	-0.252	-0.246
-389.048	261.822	0.150	0.259
-388.033	-195.634	-0.231	0.002
-387.019	-147.383	-0.322	-0.027
-386.004	-39.121	-0.304	0.160
-384.990	-122.581	-0.253	-0.041
-383.975	671.183	0.098	-0.253
-382.960	471.669	-0.041	-0.092
-381.946	-82.173	-0.132	-0.043
-380.931	-43.736	0.263	-0.132
-379.917	140.659	0.114	-0.150
-378.902	698.409	-0.079	0.206
-377.888	-50.579	0.226	-0.106
-376.873	146.788	-0.093	-0.125
-375.858	-200.000	0.064	0.318
-374.844	-162.618	-0.221	-0.011
-373.829	43.706	0.139	-0.127
-372.815	135.665	0.072	0.093
-371.800	-88.962	-0.493	-0.145
-370.785	22.300	-0.102	-0.083
-369.771	400.804	0.060	0.125
-368.756	-74.863	-0.257	-0.092
-367.742	-0.539	0.195	-0.138
-366.727	-200.000	-0.032	-0.546
-365.712	110.822	0.095	-0.114
-364.698	-128.324	0.181	0.026
-363.683	-123.460	0.024	0.004
-362.669	546.781	-0.026	-0.063
-361.654	-21.863	-0.135	-0.082
-360.639	-200.000	0.051	-0.369
-359.625	800.000	-0.043	-0.168
-358.610	161.076	0.055	-0.077
-357.596	14.244	0.060	-0.047
-356.581	-92.181	0.200	0.056
-355.566	-200.000	0.014	-0.146
-354.552	89.504	-0.111	-0.123
-353.537	-99.902	-0.226	0.056
-352.523	740.238	0.110	0.294
-351.508	402.488	-0.096	0.201
-350.493	452.961	0.212	-0.467
-349.479	234.613	0.096	0.157
-348.464	117.480	0.119	-0.145
-347.450	753.734	0.110	0.295
-346.435	85.659	-0.095	0.104
-345.420	37.782	-0.134	0.118
-344.406	25.727	-0.203	0.168
-343.391	-5.037	-0.089	-0.061
-342.377	196.841	-0.281	-0.427
-341.362	24.161	0.124	0.102
-340.348	476.203	0.022	-0.050
-339.333	147.161	-0.278	0.373
-338.318	-131.545	-0.227	-0.030
-337.304	19.839	-0.124	-0.099
-336.289	-200.000	-0.081	-0.406
-335.275	-71.171	-0.169	0.063
-334.260	271.348	0.037	-0.065
-333.245	68.729	-0.213	-0.217
-332.231	800.000	-0.024	-0.087
-331.216	-120.384	0.326	-0.055
-330.202	539.685	-0.064	-0.151
-329.187	195.894	-0.084	-0.127
-328.172	-200.000	-0.001	-0.174
-327.158	541.549	0.070	-0.165
-326.143	-200.000	0.033	-0.338
-325.129	-124.471	-0.382	-0.059
-324.114	-57.909	-0.146	0.063
-323.099	-200.000	0.031	0.456
-322.085	-200.000	0.021	-0.316
-321.070	-67.395	0.097	0.038
-320.056	-200.000	0.030	0.219
-319.041	-179.181	0.417	0.009
-318.026	-32.774	0.207	0.114
-317.012	503.748	0.054	0.124
-315.997	800.000	0.060	0.206
-314.983	9.037	0.179	0.135
-313.968	800.000	-0.056	-0.219
-312.953	141.490	-0.107	0.141
-311.939	-200.000	-0.046	0.352
-310.924	800.000	-0.084	-0.287
-309.910	-200.000	0.000	0.072
-308.895	579.907	0.056	-0.137
-307.880	-32.013	0.338	0.188
-306.866	-17.531	0.245	0.153
-305.851	456.938	-0.132	-0.290
-304.837	-61.507	-0.085	0.036
-303.822	-139.855	0.254	-0.027
-302.807	-104.985	0.302	-0.069
-301.793	206.635	0.240	-0.372
-300.778	-103.984	-0.415	-0.096
-299.764	-67.431	0.205	0.080
-298.749	1.850	0.157	0.113
-297.735	40.155	0.097	0.087
-296.720	308.159	-0.037	-0.068
-295.705	-200.000	-0.004	-0.189
-294.691	-66.682	0.039	0.015
-293.676	-50.716	-0.136	-0.063
-292.662	86.380	-0.083	-0.091
-291.647	-17.633	0.259	-0.162
-290.632	-71.897	0.403	0.149
-289.618	385.988	-0.162	-0.332
-288.603	-46.740	-0.242	-0.118
-287.589	83.093	-0.134	-0.145
-286.574	207.198	0.038	0.059
-285.559	456.692	0.191	0.422
-284.545	-59.854	-0.201	0.086
-283.530	-95.261	-0.396	0.106
-282.516	8.903	0.193	0.145
-281.501	800.000	0.037	-0.152
-280.486	-22.117	-0.399	0.240
-279.472	-19.252	0.365	0.225
-278.457	441.187	0.078	0.170
-277.443	-200.000	0.013	0.070
-276.428	-0.949	0.271	-0.191
-275.413	223.580	0.089	-0.142
-274.399	183.185	-0.110	-0.161
-273.384	202.526	0.061	-0.093
-272.370	-200.000	0.023	-0.150
-271.355	-101.433	0.094	0.023
-270.340	34.330	0.093	-0.080
-269.326	38.580	-0.028	-0.024
-268.311	65.343	0.207	-0.207
-267.297	-200.000	0.011	0.097
-266.282	29.605	0.108	0.091
-265.267	800.000	-0.083	0.259
-264.253	151.298	0.171	-0.231
-263.238	547.306	-0.081	0.191
-262.224	800.000	0.105	-0.342
-261.209	-61.451	0.246	0.103
-260.195	112.209	0.011	-0.014
-259.180	92.227	0.196	0.219
-258.165	70.771	0.192	0.198
-257.151	-7.008	0.095	-0.064
-256.136	-200.000	0.016	0.085
-255.122	96.833	-0.132	0.150
-254.107	-4.095	0.265	0.182
-253.092	-200.000	0.052	-0.322
-252.078	-23.383	-0.292	0.174
-251.063	-119.507	-0.297	-0.051
-250.049	-8.640	-0.156	0.104
-249.034	-121.131	-0.263	0.044
-248.019	-25.148	-0.197	0.116
-247.005	323.722	0.080	0.151
-245.990	-26.337	0.094	0.055
-244.976	116.210	-0.096	0.116
-243.961	-8.337	-0.203	-0.135
-242.946	251.486	0.077	-0.130
-241.932	-119.955	-0.157	-0.027
-240.917	-34.334	0.271	-0.147
-239.903	-119.144	0.475	-0.082
-238.888	-79.164	-0.128	-0.043
-237.873	25.977	-0.096	0.079
-236.859	543.166	0.118	0.279
-235.844	-200.000	0.001	-0.146
-234.830	74.933	-0.101	-0.105
-233.815	685.632	0.197	0.510
-232.800	800.000	-0.040	-0.143
-231.786	-40.996	0.171	-0.088
-230.771	-113.595	-0.270	-0.052
-229.757	-72.268	-0.653	0.240
-228.742	-200.000	0.007	-0.084
-227.727	-76.775	-0.068	-0.024
-226.713	137.203	0.027	-0.035
-225.698	-162.133	0.192	0.010
-224.684	229.928	-0.091	-0.147
-223.669	344.371	-0.243	0.472
-222.655	-79.521	-0.125	0.042
-221.640	-61.425	0.165	-0.069
-220.625	98.656	-0.073	0.084
-219.611	-15.158	0.370	-0.235
-218.596	800.000	0.079	0.219
-217.582	-190.863	0.189	0.002
-216.567	160.822	0.078	0.108
-215.552	747.193	-0.023	0.062
-214.538	-81.925	0.115	0.037
-213.523	-20.123	0.088	0.054
-212.509	-200.000	-0.007	-0.043
-211.494	10.887	0.089	0.067
-210.479	800.000	0.044	0.122
-209.465	-80.728	-0.335	0.110
-208.450	-40.270	-0.139	0.072
-207.436	138.591	-0.163	-0.212
-206.421	30.958	-0.091	-0.077
-205.406	-123.818	0.414	0.065
-204.392	132.239	0.090	-0.115
-203.377	-96.413	0.178	-0.047
-202.363	800.000	-0.069	0.238
-201.348	-200.000	0.074	-0.387
-200.333	-65.756	0.102	0.041
-199.319	37.978	0.241	-0.212
-198.304	274.744	0.232	0.407
-197.290	41.430	0.209	0.187
-196.275	536.455	0.045	-0.106
-195.260	357.887	0.057	0.113
-194.246	-114.661	-0.184	0.035
-193.231	378.142	-0.127	0.257
-192.217	-101.000	0.384	0.093
-191.202	800.000	-0.016	0.065
-190.187	238.624	-0.142	0.234
-189.173	91.084	-0.147	-0.164
-188.158	-179.160	0.202	-0.004
-187.144	-191.410	-0.049	0.000
-186.129	800.000	-0.051	-0.158
-185.114	-77.585	-0.067	-0.023
-184.100	-76.809	0.105	0.036
-183.085	721.653	0.058	0.152
-182.071	94.312	0.138	-0.155
-181.056	568.548	0.047	-0.112
-180.042	-83.726	-0.234	-0.074
-179.027	84.490	-0.172	0.186
-178.012	-160.705	0.296	0.016
-176.998	39.538	-0.098	-0.086
-175.983	-103.129	0.109	0.026
-174.969	-92.247	0.214	0.060
-173.954	136.202	-0.046	-0.059
-172.939	-200.000	0.022	0.351
-171.925	58.358	-0.256	0.248
-170.910	800.000	0.119	-0.437
-169.896	-200.000	0.014	0.117
-168.881	383.617	0.102	-0.208
-167.866	800.000	0.034	-0.106
-166.852	104.353	-0.040	-0.047
-165.837	601.451	0.122	0.300
-164.823	51.547	0.174	0.164
-163.808	250.561	-0.110	-0.185
-162.793	171.009	-0.062	-0.087
-161.779	-127.687	0.202	-0.029
-160.764	-178.601	-0.181	-0.004
-159.750	517.111	-0.132	0.305
-158.735	354.989	-0.073	-0.144
-157.720	103.886	0.196	0.227
-156.706	609.103	0.020	-0.049
-155.691	-200.000	0.039	-0.313
-154.677	28.700	-0.142	-0.119
-153.662	-200.000	0.027	0.449
-152.647	-110.435	-0.029	-0.006
-151.633	800.000	0.047	0.168
-150.618	163.979	-0.040	-0.055
-149.604	-63.689	0.361	-0.146
-148.589	-64.737	0.117	-0.047
-147.574	773.340	-0.158	0.424
-146.560	-37.037	0.128	-0.067
-145.545	425.554	-0.072	-0.152
-144.531	-59.574	0.193	0.082
-143.516	424.279	0.077	0.164
-142.502	-200.000	0.013	-0.238
-141.487	217.337	0.158	0.249
-140.472	-103.918	-0.256	0.059
-139.458	-185.489	-0.139	-0.002
-138.443	-135.507	-0.204	0.024
-137.429	800.000	-0.045	0.127
-136.414	-68.588	0.197	0.075
-135.399	-200.000	0.057	-0.297
-134.385	129.071	-0.130	0.163
-133.370	-70.261	-0.034	-0.013
-132.356	38.129	0.161	0.142
-131.341	375.426	0.105	0.212
-130.326	345.693	0.030	-0.058
-129.312	-200.000	-0.019	0.110
-128.297	-10.936	0.208	0.136
-127.283	-92.959	-0.312	-0.086
-126.268	-74.954	0.116	0.041
-125.253	800.000	-0.027	-0.076
-124.239	-153.690	-0.299	-0.020
-123.224	-200.000	-0.042	0.495
-122.210	-59.725	0.208	0.088
-121.195	87.083	-0.133	-0.145
