DTS Sentinel unit serial number:	SN413079Multiplexer serial number:	ORYXHardware model number:	OX4-SRSoftware version number:	ORYX F/W v4.00 Oryx Data Collector v3.7.2.0data status	okinstallation	princeton_trtdifferential loss correction	single-endedforward channel	channel 1reverse channel	N/Adate	2019/09/10time	23:52:11forward acquisition time	60.00reverse acquisition time	0.00gamma	496.2192k internal	0.2331k external	0.2331temperature offset calibration	0.9937default loss term (dB/km)	0.3790temperature slope calibration	1.0000multiplexer offset coefficient	1.0000multiplexer slope coefficient	1.0000fibre end	0.00T internal ref (°C)	29.50T ext. ref 1 (°C)	-0.30T ext. ref 2 (°C)	22.91length (m)	temperature (°C)	Stokes	anti-Stokes-747.200	116.412	0.082	-0.102
-746.185	-163.462	-0.338	0.016
-745.171	-78.356	0.105	-0.036
-744.156	633.648	0.079	0.202
-743.142	-93.986	0.186	-0.051
-742.127	-4.657	-0.189	0.132
-741.112	-30.683	-0.135	0.077
-740.098	556.764	0.132	0.319
-739.083	-200.000	-0.022	0.155
-738.069	298.180	-0.020	-0.037
-737.054	800.000	0.066	-0.284
-736.039	-124.101	-0.251	-0.040
-735.025	-200.000	0.004	0.138
-734.010	207.059	-0.126	0.198
-732.996	-42.508	0.100	0.051
-731.981	-98.593	-0.384	0.099
-730.966	-69.676	-0.266	0.102
-729.952	159.626	-0.349	0.488
-728.937	307.541	0.110	0.206
-727.923	5.289	-0.254	0.189
-726.908	108.061	-0.114	-0.137
-725.894	-108.034	-0.235	0.051
-724.879	77.257	0.036	0.039
-723.864	-200.000	0.018	-0.267
-722.850	-54.342	-0.180	-0.082
-721.835	800.000	0.023	-0.090
-720.821	-72.671	-0.163	-0.060
-719.806	-65.022	-0.281	0.114
-718.791	-149.317	-0.091	-0.007
-717.777	800.000	-0.047	-0.194
-716.762	48.046	0.326	-0.306
-715.748	42.675	-0.196	-0.179
-714.733	-68.605	0.312	-0.122
-713.718	149.524	-0.143	0.195
-712.704	-74.637	0.193	-0.070
-711.689	-145.737	0.136	0.012
-710.675	-7.066	-0.290	0.198
-709.660	-75.276	0.408	0.146
-708.645	-52.221	-0.229	-0.107
-707.631	-83.949	-0.290	-0.093
-706.616	397.812	-0.035	0.073
-705.602	800.000	-0.060	0.237
-704.587	79.106	-0.026	0.028
-703.572	10.799	0.087	-0.067
-702.558	66.162	-0.254	-0.259
-701.543	-84.418	0.055	-0.017
-700.529	-31.416	-0.186	-0.105
-699.514	-97.890	0.333	-0.086
-698.499	-87.043	-0.335	-0.102
-697.485	-77.577	0.311	0.108
-696.470	81.591	-0.043	-0.047
-695.456	-200.000	-0.026	0.267
-694.441	-200.000	-0.016	-0.227
-693.426	-27.033	0.098	-0.057
-692.412	203.264	0.200	0.310
-691.397	34.121	0.162	-0.142
-690.383	149.004	0.031	0.042
-689.368	-16.735	0.156	0.099
-688.354	800.000	0.105	-0.417
-687.339	26.954	0.136	0.114
-686.324	-11.269	-0.104	-0.069
-685.310	175.892	-0.085	-0.124
-684.295	800.000	0.097	-0.320
-683.281	74.774	0.005	0.005
-682.266	77.954	-0.207	0.222
-681.251	-66.485	0.125	-0.050
-680.237	105.923	0.194	0.231
-679.222	-72.224	0.187	0.070
-678.208	800.000	-0.177	0.496
-677.193	181.863	0.174	0.257
-676.178	-117.252	-0.392	0.071
-675.164	-5.354	-0.169	-0.116
-674.149	-72.084	-0.461	-0.172
-673.135	306.461	-0.137	-0.255
-672.120	222.022	0.090	-0.146
-671.105	-65.327	0.067	0.027
-670.091	798.912	0.090	0.249
-669.076	800.000	0.015	0.050
-668.062	0.770	-0.327	-0.235
-667.047	-108.479	0.192	-0.042
-666.032	-200.000	-0.083	-0.375
-665.018	-96.658	-0.042	-0.011
-664.003	-67.219	-0.225	-0.089
-662.989	-200.000	-0.047	-0.294
-661.974	-44.418	-0.263	0.132
-660.959	-200.000	-0.012	0.055
-659.945	564.748	-0.105	0.254
-658.930	10.434	-0.083	0.064
-657.916	408.058	-0.081	-0.172
-656.901	800.000	-0.061	0.193
-655.886	-76.566	0.101	0.036
-654.872	-107.178	0.371	-0.082
-653.857	-134.809	-0.315	-0.038
-652.843	194.498	0.137	0.209
-651.828	143.817	-0.285	0.380
-650.814	103.768	-0.117	0.138
-649.799	237.083	0.053	0.088
-648.784	-145.718	0.138	-0.012
-647.770	161.385	-0.162	-0.227
-646.755	-53.426	-0.235	0.108
-645.741	-142.279	0.111	-0.011
-644.726	-8.912	-0.065	-0.044
-643.711	-5.237	0.055	0.038
-642.697	-81.275	0.100	0.033
-641.682	24.012	-0.175	0.145
-640.668	327.728	-0.091	0.175
-639.653	-14.501	0.201	0.130
-638.638	-95.380	-0.058	0.016
-637.624	63.345	-0.123	-0.124
-636.609	340.472	-0.126	0.246
-635.595	315.390	0.115	-0.218
-634.580	24.340	0.337	0.279
-633.565	182.300	0.174	-0.256
-632.551	800.000	-0.042	-0.140
-631.536	452.456	0.075	-0.167
-630.522	205.570	0.047	-0.073
-629.507	319.883	0.031	0.058
-628.492	351.274	0.136	-0.270
-627.478	-66.082	0.186	-0.074
-626.463	-200.000	-0.043	0.411
-625.449	90.932	-0.233	0.262
-624.434	525.638	-0.077	0.181
-623.419	266.150	-0.080	0.140
-622.405	-27.080	0.345	-0.202
-621.390	73.129	0.144	-0.151
-620.376	91.658	0.103	-0.116
-619.361	-89.284	-0.343	-0.101
-618.346	-200.000	-0.130	-0.587
-617.332	191.839	0.395	0.597
-616.317	-48.875	-0.323	-0.155
-615.303	800.000	0.080	-0.231
-614.288	-120.496	-0.419	0.071
-613.273	190.622	-0.222	-0.334
-612.259	-48.317	0.293	-0.141
-611.244	531.357	-0.236	-0.559
-610.230	79.935	-0.122	-0.131
-609.215	-85.654	0.380	-0.118
-608.201	349.604	-0.047	0.094
-607.186	-142.601	-0.347	-0.034
-606.171	-119.025	-0.108	0.019
-605.157	3.555	-0.089	0.065
-604.142	-62.786	-0.378	-0.157
-603.128	-25.527	0.364	-0.215
-602.113	264.672	0.118	-0.205
-601.098	-33.277	-0.286	-0.158
-600.084	-87.514	0.211	-0.064
-599.069	-151.921	0.310	-0.023
-598.055	21.402	-0.152	0.124
-597.040	63.887	-0.373	0.375
-596.025	800.000	0.110	-0.351
-595.011	247.539	-0.060	-0.102
-593.996	-137.118	0.124	0.014
-592.982	54.278	-0.156	-0.150
-591.967	-200.000	0.050	-0.276
-590.952	-157.326	-0.157	-0.009
-589.938	13.635	0.170	0.132
-588.923	800.000	-0.106	0.348
-587.909	-57.272	-0.264	-0.116
-586.894	378.138	0.031	0.064
-585.879	433.074	0.053	0.114
-584.865	65.774	0.050	-0.051
-583.850	117.593	-0.164	-0.202
-582.836	-200.000	-0.033	-0.241
-581.821	-43.474	0.173	0.087
-580.806	-1.123	-0.173	-0.122
-579.792	470.619	0.081	0.182
-578.777	800.000	-0.019	0.074
-577.763	-111.782	0.240	0.049
-576.748	-22.747	-0.302	-0.183
-575.733	86.975	-0.157	-0.173
-574.719	-200.000	-0.011	-0.221
-573.704	57.725	-0.270	-0.264
-572.690	-54.217	-0.304	-0.138
-571.675	-123.001	-0.251	-0.040
-570.661	-58.362	0.200	-0.087
-569.646	564.477	-0.157	-0.381
-568.631	-125.617	-0.362	0.055
-567.617	-119.075	-0.166	-0.029
-566.602	120.689	-0.081	0.101
-565.588	800.000	-0.038	0.144
-564.573	756.958	0.058	0.156
-563.558	-119.853	0.153	0.026
-562.544	-200.000	-0.004	-0.060
-561.529	-132.177	0.361	-0.047
-560.515	-71.223	0.284	-0.107
-559.500	65.254	0.257	0.259
-558.485	264.187	-0.096	-0.167
-557.471	-60.996	0.145	-0.061
-556.456	53.248	0.261	-0.250
-555.442	-13.275	-0.143	-0.093
-554.427	258.633	-0.076	0.132
-553.412	-138.597	-0.325	0.036
-552.398	49.416	-0.110	0.103
-551.383	-200.000	0.013	-0.176
-550.369	-200.000	0.198	0.001
-549.354	39.722	-0.098	0.088
-548.339	800.000	-0.067	0.196
-547.325	-200.000	0.014	-0.150
-546.310	175.886	0.231	-0.334
-545.296	-200.000	-0.005	-0.050
-544.281	152.449	0.111	-0.151
-543.266	-66.049	-0.069	-0.028
-542.252	36.480	-0.136	-0.120
-541.237	-120.313	0.161	0.027
-540.223	-58.141	0.146	-0.064
-539.208	-158.198	-0.122	-0.007
-538.193	103.517	-0.075	0.088
-537.179	-155.772	0.307	0.020
-536.164	-200.000	0.036	0.182
-535.150	-200.000	-0.043	-0.369
-534.135	44.417	-0.235	-0.215
-533.121	800.000	-0.181	0.619
-532.106	597.061	0.075	-0.184
-531.091	798.176	-0.070	-0.193
-530.077	-142.608	0.237	0.023
-529.062	-99.933	-0.185	-0.046
-528.048	33.911	-0.190	0.165
-527.033	-58.945	0.134	0.058
-526.018	800.000	0.124	-0.352
-525.004	41.655	-0.040	0.036
-523.989	-39.871	-0.145	-0.075
-522.975	36.888	-0.249	-0.220
-521.960	68.205	0.239	0.245
-520.945	-15.374	0.149	0.095
-519.931	-96.158	-0.150	0.040
-518.916	292.586	-0.060	-0.109
-517.902	-112.180	0.311	0.062
-516.887	-106.024	-0.100	-0.022
-515.872	-181.849	-0.079	0.002
-514.858	-93.748	0.070	0.019
-513.843	-200.000	0.500	0.000
-512.829	-75.208	0.140	0.050
-511.814	415.389	-0.142	0.301
-510.799	-93.655	-0.039	0.011
-509.785	768.812	0.045	-0.121
-508.770	-32.317	0.182	0.101
-507.756	-200.000	-0.028	-0.185
-506.741	-89.328	-0.166	0.049
-505.726	-37.480	-0.433	0.230
-504.712	-71.113	0.190	-0.071
-503.697	-29.610	0.315	-0.179
-502.683	-75.612	-0.199	-0.071
-501.668	-154.057	-0.328	-0.022
-500.653	-200.000	-0.014	-0.119
-499.639	32.051	0.193	-0.166
-498.624	-200.000	-0.032	0.322
-497.610	800.000	0.167	0.581
-496.595	-200.000	0.031	-0.224
-495.581	-32.867	-0.048	0.026
-494.566	800.000	-0.075	0.310
-493.551	-200.000	-0.018	0.200
-492.537	-200.000	0.044	0.293
-491.522	89.993	-0.138	-0.153
-490.508	-200.000	-0.091	-0.403
-489.493	-200.000	-0.037	-0.227
-488.478	56.851	0.369	-0.358
-487.464	353.244	-0.047	0.093
-486.449	128.147	-0.098	-0.124
-485.435	-27.382	0.181	-0.105
-484.420	2.728	-0.236	0.170
-483.405	234.463	-0.166	0.273
-482.391	67.882	-0.082	0.084
-481.376	-200.000	0.048	0.391
-480.362	-68.943	-0.083	0.032
-479.347	216.623	0.036	-0.057
-478.332	-76.766	-0.284	0.099
-477.318	-36.034	0.106	-0.057
-476.303	-200.000	0.006	-0.279
-475.289	-200.000	0.028	0.501
-474.274	-107.441	0.227	0.050
-473.259	368.428	0.071	-0.143
-472.245	-90.239	-0.167	-0.048
-471.230	-83.899	-0.161	0.051
-470.216	165.834	-0.158	0.223
-469.201	-30.514	0.219	-0.123
-468.186	8.810	-0.204	0.153
-467.172	-200.000	0.017	-0.127
-466.157	45.808	0.318	0.293
-465.143	-200.000	0.050	0.277
-464.128	-200.000	0.056	0.453
-463.113	138.950	0.015	0.019
-462.099	-109.100	-0.165	0.035
-461.084	-29.624	-0.118	0.067
-460.070	-200.000	0.057	-0.307
-459.055	666.080	0.127	-0.326
-458.040	-5.893	-0.158	0.107
-457.026	145.298	0.205	0.273
-456.011	-94.443	-0.165	-0.045
-454.997	105.254	0.083	-0.097
-453.982	-151.675	0.089	-0.007
-452.968	34.642	0.208	0.181
-451.953	-87.385	0.229	-0.069
-450.938	61.104	0.294	0.290
-449.924	-200.000	-0.045	-0.283
-448.909	-80.188	-0.235	-0.078
-447.895	-200.000	0.003	0.281
-446.880	-112.921	0.380	-0.075
-445.865	-194.884	-0.117	0.001
-444.851	-31.027	0.080	0.045
-443.836	-103.056	0.125	0.029
-442.822	162.830	-0.123	0.172
-441.807	557.411	0.089	-0.213
-440.792	120.415	0.051	0.063
-439.778	-104.806	-0.187	-0.043
-438.763	66.658	0.101	0.102
-437.749	-148.208	0.239	-0.020
-436.734	800.000	0.089	-0.372
-435.719	45.227	-0.115	-0.106
-434.705	-4.995	0.135	-0.092
-433.690	71.299	-0.124	-0.128
-432.676	-200.000	0.006	-0.204
-431.661	-200.000	0.024	0.233
-430.646	107.623	-0.046	0.054
-429.632	-132.456	0.070	-0.009
-428.617	-14.659	0.232	0.148
-427.603	-200.000	-0.069	0.423
-426.588	-63.396	0.115	0.047
-425.573	-141.755	0.152	-0.015
-424.559	-200.000	0.012	-0.056
-423.544	209.347	0.113	-0.176
-422.530	795.217	0.078	0.214
-421.515	340.497	0.159	0.308
-420.500	106.140	0.130	-0.153
-419.486	800.000	0.076	-0.210
-418.471	119.281	-0.186	-0.229
-417.457	-149.688	-0.201	0.016
-416.442	-200.000	0.032	-0.316
-415.428	83.320	0.113	-0.123
-414.413	297.793	0.215	-0.392
-413.398	-200.000	-0.001	-0.296
-412.384	-200.000	-0.079	0.421
-411.369	-73.285	0.063	-0.023
-410.355	344.117	-0.175	0.341
-409.340	237.767	-0.028	-0.045
-408.325	352.211	0.045	-0.089
-407.311	50.395	0.190	-0.179
-406.296	2.790	-0.275	0.198
-405.282	-200.000	0.022	-0.098
-404.267	278.448	0.042	-0.075
-403.252	-84.357	0.135	-0.042
-402.238	-200.000	-0.026	-0.280
-401.223	800.000	0.025	0.101
-400.209	-200.000	-0.046	-0.390
-399.194	259.139	0.059	0.101
-398.179	-36.473	-0.239	-0.127
-397.165	-200.000	0.015	-0.087
-396.150	800.000	-0.002	-0.006
-395.136	51.643	0.160	0.151
-394.121	-161.673	-0.237	0.012
-393.106	800.000	-0.105	-0.425
-392.092	-3.467	0.290	-0.200
-391.077	800.000	0.086	0.297
-390.063	-27.498	-0.229	-0.132
-389.048	120.166	-0.103	0.127
-388.033	-96.640	0.302	0.079
-387.019	-200.000	0.009	-0.107
-386.004	-200.000	-0.035	-0.248
-384.990	-25.590	0.239	-0.140
-383.975	-143.887	0.165	0.015
-382.960	-200.000	0.023	0.355
-381.946	-200.000	-0.007	0.210
-380.931	-200.000	-0.005	0.060
-379.917	580.203	0.118	0.287
-378.902	148.436	-0.172	-0.231
-377.888	294.177	0.003	0.006
-376.873	-42.727	-0.282	-0.142
-375.858	-96.859	-0.220	0.057
-374.844	185.176	0.093	-0.137
-373.829	51.663	-0.188	-0.177
-372.815	552.393	-0.122	0.291
-371.800	-13.641	0.238	0.153
-370.785	-200.000	-0.048	0.325
-369.771	-200.000	0.019	0.256
-368.756	800.000	-0.048	0.138
-367.742	-200.000	0.007	0.229
-366.727	-70.093	0.435	-0.164
-365.712	258.570	-0.136	-0.233
-364.698	-5.996	-0.085	-0.057
-363.683	250.558	0.113	0.190
-362.669	153.395	0.239	0.325
-361.654	-36.175	-0.067	0.036
-360.639	354.787	-0.048	-0.095
-359.625	-200.000	0.055	0.326
-358.610	-190.715	-0.463	-0.005
-357.596	110.700	0.032	-0.038
-356.581	-88.876	0.151	-0.045
-355.566	-46.321	-0.279	-0.136
-354.552	-200.000	0.019	-0.111
-353.537	-71.367	-0.247	0.092
-352.523	-200.000	-0.076	0.371
-351.508	800.000	0.028	-0.082
-350.493	800.000	-0.051	0.183
-349.479	-200.000	-0.010	0.171
-348.464	325.574	0.012	0.023
-347.450	-91.327	0.178	0.050
-346.435	-146.783	-0.122	0.010
-345.420	-13.525	0.311	-0.200
-344.406	-81.066	-0.203	0.067
-343.391	215.402	-0.263	0.413
-342.377	111.660	0.125	-0.149
-341.362	29.601	-0.058	-0.049
-340.348	-18.119	0.138	-0.086
-339.333	5.972	0.039	-0.029
-338.318	-200.000	0.070	-0.502
-337.304	464.581	0.054	0.119
-336.289	-162.821	-0.135	-0.007
-335.275	-146.959	-0.183	-0.016
-334.260	-74.049	0.158	0.057
-333.245	194.665	-0.048	-0.072
-332.231	113.649	-0.119	-0.143
-331.216	5.848	-0.174	-0.127
-330.202	8.392	-0.027	0.020
-329.187	54.913	0.206	0.197
-328.172	800.000	0.124	0.342
-327.158	800.000	0.046	0.177
-326.143	-200.000	-0.013	0.107
-325.129	51.157	-0.094	0.088
-324.114	-60.785	0.019	-0.008
-323.099	77.939	-0.071	0.075
-322.085	323.633	-0.122	0.229
-321.070	-144.369	0.055	0.005
-320.056	-200.000	-0.039	0.301
-319.041	-200.000	0.009	0.104
-318.026	-200.000	0.057	0.262
-317.012	-149.716	-0.574	-0.045
-315.997	122.342	-0.205	0.253
-314.983	-96.634	-0.258	-0.067
-313.968	-70.446	0.137	0.051
-312.953	-54.918	-0.346	0.154
-311.939	-142.615	0.169	-0.016
-310.924	800.000	-0.040	-0.134
-309.910	0.025	0.371	0.261
-308.895	-200.000	-0.027	-0.180
-307.880	244.372	-0.085	-0.142
-306.866	155.112	0.084	-0.115
-305.851	-169.281	0.024	-0.001
-304.837	56.302	0.184	0.177
-303.822	-56.902	-0.205	0.090
-302.807	118.727	0.044	0.054
-301.793	51.570	-0.036	0.034
-300.778	15.465	0.043	-0.033
-299.764	-125.445	0.127	-0.019
-298.749	800.000	-0.062	0.233
-297.735	539.535	0.137	-0.323
-296.720	-49.120	-0.152	0.072
-295.705	-118.573	0.357	0.062
-294.691	316.896	-0.084	0.157
-293.676	-80.010	0.148	-0.049
-292.662	-53.355	-0.164	0.074
-291.647	-169.834	0.292	0.010
-290.632	-25.589	0.194	-0.113
-289.618	126.321	0.210	0.263
-288.603	637.312	0.041	-0.103
-287.589	-67.168	0.088	0.034
-286.574	253.375	0.082	0.139
-285.559	-200.000	0.033	-0.341
-284.545	439.075	0.076	-0.163
-283.530	-109.957	-0.260	0.054
-282.516	53.859	0.186	0.176
-281.501	-94.405	-0.260	-0.070
-280.486	27.632	0.333	0.277
-279.472	-14.854	-0.169	0.107
-278.457	-45.769	-0.083	-0.041
-277.443	106.323	0.172	0.201
-276.428	-81.966	0.220	0.071
-275.413	-124.260	-0.269	-0.042
-274.399	-77.810	0.410	-0.140
-273.384	297.804	-0.126	-0.228
-272.370	-200.000	0.030	0.198
-271.355	-12.468	0.049	0.032
-270.340	12.625	-0.229	-0.175
-269.326	192.267	-0.030	0.045
-268.311	297.402	0.199	0.361
-267.297	181.984	-0.305	-0.444
-266.282	-50.652	-0.250	-0.116
-265.267	205.935	-0.064	0.098
-264.253	59.080	-0.015	-0.015
-263.238	-7.290	-0.183	0.123
-262.224	-46.938	-0.136	-0.066
-261.209	207.656	-0.011	0.017
-260.195	-65.919	0.244	0.096
-259.180	800.000	0.045	0.128
-258.165	244.343	-0.091	0.152
-257.151	91.981	0.063	-0.071
-256.136	-86.624	-0.227	0.069
-255.122	98.595	-0.060	0.069
-254.107	-104.597	0.072	-0.016
-253.092	120.545	-0.179	0.219
-252.078	-175.023	-0.139	-0.004
-251.063	-120.874	-0.178	-0.030
-250.049	1.152	0.188	0.133
-249.034	15.147	0.049	-0.038
-248.019	58.777	0.371	-0.360
-247.005	-200.000	-0.083	0.364
-245.990	-18.310	-0.221	0.136
-244.976	-38.845	-0.149	0.077
-243.961	-51.303	-0.539	-0.249
-242.946	59.501	0.182	0.177
-241.932	-106.607	-0.047	0.010
-240.917	122.119	-0.113	-0.139
-239.903	-200.000	0.016	-0.224
-238.888	7.185	0.196	-0.144
-237.873	-200.000	0.074	0.444
-236.859	-200.000	0.021	0.161
-235.844	221.253	0.190	-0.301
-234.830	-200.000	-0.022	-0.129
-233.815	-57.396	-0.096	0.042
-232.800	-20.852	0.128	0.077
-231.786	23.017	0.080	0.065
-230.771	618.454	0.087	-0.215
-229.757	-3.609	0.237	0.162
-228.742	-74.983	0.058	-0.021
-227.727	-139.776	0.099	0.010
-226.713	-200.000	-0.020	-0.175
-225.698	-90.366	0.274	-0.079
-224.684	-125.677	-0.010	-0.001
-223.669	785.292	-0.068	-0.183
-222.655	-158.384	-0.417	-0.024
-221.640	359.343	-0.175	-0.345
-220.625	-35.452	0.100	0.053
-219.611	636.325	-0.057	0.144
-218.596	139.795	0.091	-0.118
-217.582	-162.713	0.138	-0.007
-216.567	-200.000	0.055	0.339
-215.552	-121.822	0.131	-0.021
-214.538	-59.810	0.291	-0.123
-213.523	-200.000	-0.004	-0.067
-212.509	-200.000	0.012	0.383
-211.494	-200.000	-0.070	0.367
-210.479	-49.857	-0.207	0.097
-209.465	210.050	-0.061	0.094
-208.450	239.743	0.034	-0.056
-207.436	-107.424	-0.387	-0.084
-206.421	-200.000	-0.002	-0.129
-205.406	-200.000	-0.010	-0.156
-204.392	-200.000	0.024	-0.107
-203.377	-17.317	0.374	0.232
-202.363	-200.000	-0.033	0.191
-201.348	800.000	0.115	0.360
-200.333	94.401	0.146	-0.163
-199.319	70.776	0.059	0.060
-198.304	-61.984	0.214	-0.088
-197.290	11.462	-0.071	0.053
-196.275	-200.000	0.042	-0.218
-195.260	-61.131	-0.305	-0.127
-194.246	39.783	0.026	-0.023
-193.231	-67.867	-0.207	-0.080
-192.217	135.987	0.142	-0.183
-191.202	54.295	-0.126	-0.119
-190.187	-164.277	0.134	-0.006
-189.173	215.010	0.142	0.222
-188.158	-200.000	-0.023	-0.113
-187.144	-112.556	-0.110	-0.022
-186.129	-200.000	0.029	-0.228
-185.114	165.396	-0.188	-0.262
-184.100	-200.000	-0.012	-0.289
-183.085	-200.000	0.050	-0.288
-182.071	33.054	0.151	-0.129
-181.056	-200.000	0.059	-0.297
-180.042	-3.881	0.430	0.293
-179.027	-52.622	-0.017	0.008
-178.012	-138.059	0.114	0.012
-176.998	800.000	-0.063	0.176
-175.983	-114.517	0.255	-0.048
-174.969	-63.331	0.200	-0.081
-173.954	-200.000	-0.025	-0.191
-172.939	152.908	-0.157	-0.212
-171.925	-200.000	0.006	0.258
-170.910	800.000	-0.051	0.169
-169.896	523.040	-0.069	-0.159
-168.881	528.102	0.121	0.280
-167.866	-21.437	-0.056	-0.034
-166.852	58.108	0.193	0.186
-165.837	-156.497	-0.269	0.016
-164.823	4.924	-0.242	0.175
-163.808	-137.942	-0.296	0.033
-162.793	-183.828	-0.079	-0.001
-161.779	526.111	0.184	0.427
-160.764	745.009	-0.137	-0.363
-159.750	12.883	0.154	0.117
-158.735	-105.011	0.193	0.044
-157.720	-34.705	0.154	-0.083
-156.706	333.095	0.125	-0.238
-155.691	800.000	0.007	-0.029
-154.677	-132.447	-0.165	-0.021
-153.662	99.089	-0.126	0.143
-152.647	-119.767	-0.088	-0.015
-151.633	-82.333	-0.475	0.152
-150.618	-85.019	0.212	-0.065
-149.604	263.656	0.195	0.334
-148.589	-200.000	0.062	0.346
-147.574	-200.000	0.013	-0.056
-146.560	287.348	-0.101	-0.180
-145.545	475.317	0.115	-0.255
-144.531	-42.308	0.171	-0.086
-143.516	257.841	0.108	0.182
-142.502	-23.928	-0.137	-0.081
-141.487	-131.549	-0.573	0.074
-140.472	-76.379	0.360	0.124
-139.458	-77.086	-0.054	-0.018
-138.443	800.000	-0.060	-0.166
-137.429	800.000	0.088	0.257
-136.414	800.000	0.018	0.054
-135.399	800.000	0.094	0.309
-134.385	68.778	0.249	-0.251
-133.370	63.040	-0.191	0.188
-132.356	-138.186	0.058	-0.006
-131.341	-8.661	-0.216	-0.142
-130.326	342.455	0.033	0.064
-129.312	-200.000	-0.002	0.033
-128.297	3.781	0.199	0.143
-127.283	-12.671	0.197	-0.126
-126.268	83.796	0.311	-0.333
-125.253	-89.372	0.203	0.059
-124.239	215.286	0.146	-0.228
-123.224	684.089	-0.131	-0.335
-122.210	-166.995	0.151	-0.006
-121.195	-149.985	0.223	-0.017
