DTS Sentinel unit serial number:	SN413079Multiplexer serial number:	ORYXHardware model number:	OX4-SRSoftware version number:	ORYX F/W v4.00 Oryx Data Collector v3.7.2.0data status	okinstallation	princeton_trtdifferential loss correction	single-endedforward channel	channel 1reverse channel	N/Adate	2019/09/12time	20:30:35forward acquisition time	60.00reverse acquisition time	0.00gamma	496.2192k internal	0.2324k external	0.2324temperature offset calibration	1.0148default loss term (dB/km)	0.3790temperature slope calibration	1.0000multiplexer offset coefficient	1.0000multiplexer slope coefficient	1.0000fibre end	0.00T internal ref (°C)	31.27T ext. ref 1 (°C)	3.57T ext. ref 2 (°C)	25.81length (m)	temperature (°C)	Stokes	anti-Stokes-747.200	-89.921	0.115	0.034
-746.185	800.000	0.156	0.677
-745.171	368.015	0.058	0.119
-744.156	-121.760	0.219	0.036
-743.142	-135.398	0.199	-0.024
-742.127	309.302	-0.162	0.305
-741.112	-200.000	0.033	-0.219
-740.098	-156.439	0.268	0.017
-739.083	162.386	-0.176	-0.249
-738.069	531.532	-0.080	0.192
-737.054	-102.819	-0.375	-0.090
-736.039	-34.834	-0.372	0.205
-735.025	200.602	0.036	-0.056
-734.010	-79.108	0.141	0.048
-732.996	-200.000	-0.038	-0.169
-731.981	-88.297	-0.249	0.075
-730.966	-159.418	0.249	0.014
-729.952	-20.782	0.166	-0.103
-728.937	344.606	0.069	0.136
-727.923	340.866	0.176	-0.348
-726.908	-104.723	0.116	0.027
-725.894	469.583	-0.172	-0.389
-724.879	84.908	-0.145	-0.160
-723.864	2.160	-0.287	-0.209
-722.850	-200.000	-0.010	-0.230
-721.835	341.784	-0.112	-0.222
-720.821	-92.447	0.218	-0.062
-719.806	-103.351	-0.111	-0.026
-718.791	-169.422	-0.054	0.002
-717.777	-199.579	-0.270	-0.001
-716.762	-200.000	-0.026	-0.136
-715.748	21.968	-0.384	-0.316
-714.733	-200.000	0.016	-0.412
-713.718	251.329	-0.082	-0.142
-712.704	-86.974	0.275	-0.084
-711.689	-152.715	-0.243	0.017
-710.675	-58.537	0.224	0.098
-709.660	72.301	0.114	0.120
-708.645	396.039	-0.034	0.072
-707.631	324.840	0.039	0.074
-706.616	47.790	0.260	0.245
-705.602	800.000	0.076	0.231
-704.587	-53.379	0.314	-0.145
-703.572	-20.088	-0.151	-0.094
-702.558	-23.127	0.225	-0.136
-701.543	-115.283	-0.347	0.066
-700.529	392.870	0.101	0.213
-699.514	100.271	-0.278	0.326
-698.499	711.762	0.028	0.073
-697.485	-200.000	0.011	-0.096
-696.470	-49.331	-0.077	-0.037
-695.456	-49.799	-0.469	-0.225
-694.441	-200.000	-0.046	-0.256
-693.426	627.441	-0.071	-0.181
-692.412	-69.677	-0.090	-0.035
-691.397	-200.000	-0.007	-0.385
-690.383	315.024	0.209	-0.396
-689.368	-0.871	-0.076	-0.054
-688.354	-3.260	0.080	-0.056
-687.339	18.042	-0.226	-0.182
-686.324	-27.454	-0.059	-0.035
-685.310	-200.000	0.014	0.137
-684.295	-128.484	-0.584	-0.083
-683.281	800.000	-0.080	-0.273
-682.266	-200.000	-0.039	0.228
-681.251	-131.335	0.199	-0.027
-680.237	718.848	-0.069	0.186
-679.222	-169.056	-0.354	-0.013
-678.208	-104.939	0.079	0.018
-677.193	-79.307	-0.238	0.081
-676.178	-200.000	-0.029	0.141
-675.164	-93.671	-0.191	-0.053
-674.149	-32.653	-0.341	0.191
-673.135	-200.000	-0.074	-0.376
-672.120	117.669	0.016	-0.019
-671.105	-200.000	-0.004	0.176
-670.091	37.200	0.196	0.175
-669.076	-200.000	0.002	0.369
-668.062	-200.000	-0.012	0.285
-667.047	43.104	0.143	0.131
-666.032	-40.197	-0.100	-0.052
-665.018	-20.605	0.042	-0.026
-664.003	-199.378	0.126	0.001
-662.989	11.117	0.300	0.231
-661.974	-200.000	0.000	0.339
-660.959	114.828	0.191	0.234
-659.945	-29.102	-0.087	0.050
-658.930	-76.845	-0.221	-0.078
-657.916	-5.366	0.212	0.147
-656.901	260.177	-0.028	-0.049
-655.886	800.000	0.025	-0.089
-654.872	-200.000	-0.012	0.110
-653.857	-60.687	-0.309	0.132
-652.843	-114.786	0.305	-0.059
-651.828	31.573	0.209	0.181
-650.814	68.670	-0.251	0.259
-649.799	46.676	-0.111	-0.103
-648.784	174.875	0.191	0.279
-647.770	495.813	-0.133	-0.307
-646.755	-21.990	-0.108	0.066
-645.741	-21.121	-0.309	-0.190
-644.726	-31.014	-0.207	-0.118
-643.711	-38.423	0.330	0.176
-642.697	171.691	-0.038	0.055
-641.682	3.997	0.096	-0.071
-640.668	-144.512	-0.042	-0.004
-639.653	-200.000	0.008	0.038
-638.638	60.005	-0.108	-0.107
-637.624	175.770	0.048	-0.071
-636.609	-23.104	0.107	-0.065
-635.595	94.460	-0.176	-0.202
-634.580	197.385	0.172	0.264
-633.565	-200.000	-0.016	0.077
-632.551	-4.602	0.076	0.053
-631.536	121.543	-0.086	0.108
-630.522	-15.811	0.210	-0.134
-629.507	-78.056	0.078	-0.027
-628.492	-67.481	-0.218	0.086
-627.478	-158.996	-0.215	0.012
-626.463	54.583	-0.113	0.109
-625.449	-112.385	0.031	0.006
-624.434	-200.000	-0.004	-0.125
-623.419	63.661	0.151	-0.152
-622.405	-200.000	-0.031	-0.216
-621.390	-63.145	0.325	0.135
-620.376	-128.439	-0.210	0.030
-619.361	-60.299	0.202	0.086
-618.346	-91.915	-0.226	0.064
-617.332	621.828	0.024	0.062
-616.317	-200.000	-0.017	-0.221
-615.303	-200.000	0.016	-0.152
-614.288	800.000	0.124	-0.519
-613.273	-187.986	0.040	-0.001
-612.259	31.262	-0.036	0.031
-611.244	688.361	0.091	-0.238
-610.230	-1.765	-0.138	0.097
-609.215	-91.008	-0.082	-0.024
-608.201	-46.984	0.046	-0.023
-607.186	800.000	-0.107	0.373
-606.171	745.055	-0.061	0.164
-605.157	-165.273	-0.106	0.005
-604.142	800.000	-0.046	-0.145
-603.128	-98.545	0.100	0.026
-602.113	231.996	0.032	0.052
-601.098	177.122	-0.119	0.175
-600.084	-200.000	-0.032	-0.181
-599.069	800.000	0.061	-0.261
-598.055	0.385	0.144	0.103
-597.040	587.531	-0.022	0.054
-596.025	70.478	-0.150	-0.156
-595.011	-88.556	-0.219	0.065
-593.996	-200.000	-0.011	0.113
-592.982	-197.958	0.261	-0.002
-591.967	747.497	-0.014	-0.038
-590.952	126.949	0.248	-0.315
-589.938	-200.000	0.050	-0.327
-588.923	-7.566	-0.193	0.131
-587.909	407.002	-0.054	0.113
-586.894	188.252	-0.068	0.102
-585.879	-82.326	-0.142	-0.046
-584.865	-200.000	0.055	0.294
-583.850	183.560	0.148	0.219
-582.836	-58.699	-0.144	0.063
-581.821	-35.935	-0.212	0.115
-580.806	-163.898	0.154	0.007
-579.792	217.441	-0.112	-0.179
-578.777	195.302	0.059	0.090
-577.763	-102.833	-0.322	0.077
-576.748	-200.000	-0.016	-0.355
-575.733	-200.000	0.013	0.074
-574.719	-66.891	0.190	0.075
-573.704	340.096	-0.109	-0.214
-572.690	-133.038	-0.134	-0.017
-571.675	63.047	0.026	0.026
-570.661	800.000	0.025	0.108
-569.646	-7.566	0.188	0.128
-568.631	500.832	-0.070	-0.162
-567.617	-32.384	-0.095	-0.053
-566.602	800.000	0.044	0.127
-565.588	268.868	-0.045	-0.079
-564.573	-49.790	0.400	-0.190
-563.558	178.040	-0.276	0.404
-562.544	395.352	0.189	0.396
-561.529	14.658	0.136	0.106
-560.515	-19.069	0.325	-0.202
-559.500	-63.371	0.204	-0.084
-558.485	-49.904	0.356	0.169
-557.471	253.962	0.015	0.025
-556.456	200.132	-0.055	-0.085
-555.442	670.786	0.082	-0.213
-554.427	-200.000	-0.003	-0.059
-553.412	292.821	0.209	0.382
-552.398	-200.000	0.007	-0.134
-551.383	-130.070	-0.160	-0.022
-550.369	800.000	-0.058	0.181
-549.354	294.311	-0.089	0.162
-548.339	-77.477	-0.048	0.017
-547.325	800.000	0.092	-0.292
-546.310	216.692	-0.069	-0.110
-545.296	53.100	0.143	-0.137
-544.281	-101.818	0.296	0.072
-543.266	235.547	0.181	0.300
-542.252	780.278	-0.117	0.321
-541.237	729.513	-0.187	-0.500
-540.223	-136.238	0.106	0.012
-539.208	475.439	0.033	-0.076
-538.193	81.953	-0.108	-0.117
-537.179	-64.028	-0.077	0.031
-536.164	11.368	0.100	0.077
-535.150	-141.988	-0.136	0.014
-534.135	161.712	-0.045	0.064
-533.121	90.755	0.143	-0.161
-532.106	220.760	0.040	0.065
-531.091	-22.712	-0.138	-0.083
-530.077	-74.415	-0.120	0.043
-529.062	-200.000	-0.025	-0.178
-528.048	-125.475	-0.418	0.064
-527.033	33.674	-0.150	-0.131
-526.018	-81.867	-0.054	-0.018
-525.004	32.598	-0.268	0.232
-523.989	-200.000	-0.005	0.409
-522.975	-133.487	-0.411	-0.052
-521.960	361.305	0.191	-0.383
-520.945	315.852	-0.116	0.219
-519.931	-200.000	0.061	0.421
-518.916	-200.000	0.020	0.208
-517.902	5.807	-0.192	-0.142
-516.887	800.000	0.071	-0.207
-515.872	-137.343	-0.299	0.034
-514.858	-57.745	0.148	-0.065
-513.843	-200.000	-0.024	-0.225
-512.829	140.028	0.227	-0.299
-511.814	-175.926	-0.159	0.004
-510.799	-175.030	-0.205	0.006
-509.785	-13.360	-0.146	-0.095
-508.770	172.827	0.309	-0.445
-507.756	-97.919	0.193	0.050
-506.741	44.386	-0.195	-0.179
-505.726	92.761	-0.109	-0.123
-504.712	-200.000	0.024	-0.220
-503.697	-200.000	0.003	-0.012
-502.683	379.841	-0.018	0.038
-501.668	111.016	-0.233	0.281
-500.653	10.953	0.280	0.214
-499.639	-156.229	0.025	-0.002
-498.624	89.527	0.108	0.120
-497.610	-131.316	-0.367	0.049
-496.595	269.587	0.133	0.234
-495.581	-11.914	-0.075	-0.049
-494.566	-89.249	0.126	-0.037
-493.551	800.000	-0.094	-0.284
-492.537	800.000	0.042	0.157
-491.522	380.184	-0.039	-0.081
-490.508	-12.229	0.145	-0.095
-489.493	-105.591	-0.319	-0.072
-488.478	-5.918	0.148	-0.101
-487.464	-200.000	-0.092	-0.422
-486.449	-65.667	0.121	-0.049
-485.435	307.439	0.076	0.142
-484.420	-131.217	0.430	0.057
-483.405	-200.000	-0.035	-0.239
-482.391	800.000	0.039	-0.129
-481.376	-76.673	-0.317	-0.111
-480.362	-167.186	0.423	-0.017
-479.347	-200.000	-0.058	0.366
-478.332	-99.430	-0.183	0.046
-477.318	-22.138	-0.081	0.049
-476.303	194.757	-0.124	0.187
-475.289	-200.000	-0.027	-0.261
-474.274	566.017	-0.050	0.122
-473.259	-196.175	-0.353	0.002
-472.245	10.536	0.227	0.173
-471.230	412.099	-0.119	-0.252
-470.216	-131.949	0.437	0.057
-469.201	-110.265	-0.170	-0.035
-468.186	176.094	-0.077	0.111
-467.172	-141.990	-0.259	0.026
-466.157	149.635	0.195	-0.264
-465.143	12.169	-0.105	-0.081
-464.128	-200.000	-0.006	-0.030
-463.113	-132.635	0.205	0.026
-462.099	-146.641	-0.195	0.017
-461.084	-200.000	0.007	-0.255
-460.070	800.000	0.142	-0.413
-459.055	610.943	0.062	-0.155
-458.040	-29.055	0.213	0.122
-457.026	164.553	-0.161	0.226
-456.011	70.024	0.117	0.120
-454.997	800.000	-0.068	0.225
-453.982	-143.882	0.515	-0.049
-452.968	-58.935	0.232	0.100
-451.953	800.000	0.049	-0.205
-450.938	-79.847	-0.289	-0.097
-449.924	481.525	0.133	0.301
-448.909	132.235	-0.105	-0.136
-447.895	-112.496	0.099	-0.020
-446.880	-200.000	0.082	0.375
-445.865	77.896	-0.152	0.162
-444.851	-110.064	-0.075	0.016
-443.836	6.748	-0.366	-0.272
-442.822	-164.463	-0.165	-0.008
-441.807	-95.965	-0.241	0.064
-440.792	-113.349	0.260	-0.051
-439.778	72.927	0.101	-0.105
-438.763	56.906	-0.171	-0.166
-437.749	800.000	0.075	0.216
-436.734	765.403	-0.009	0.024
-435.719	-95.529	0.191	-0.051
-434.705	-31.483	0.139	-0.078
-433.690	151.580	0.176	0.240
-432.676	-200.000	0.022	-0.095
-431.661	-200.000	-0.031	-0.186
-430.646	82.299	-0.165	0.178
-429.632	-162.223	0.139	0.007
-428.617	248.355	0.021	-0.036
-427.603	-90.307	-0.426	-0.123
-426.588	-82.345	0.021	0.007
-425.573	-71.056	-0.075	-0.028
-424.559	458.591	0.102	0.225
-423.544	-12.849	-0.091	0.059
-422.530	503.731	0.022	0.050
-421.515	-160.593	0.183	0.010
-420.500	137.616	0.035	-0.045
-419.486	-89.820	0.124	0.036
-418.471	250.915	-0.015	-0.025
-417.457	-200.000	-0.024	-0.259
-416.442	-111.424	0.356	0.072
-415.428	-78.561	-0.411	0.140
-414.413	-79.878	0.003	0.001
-413.398	121.486	0.112	-0.139
-412.384	244.873	0.139	0.233
-411.369	800.000	-0.023	0.089
-410.355	439.781	-0.036	0.079
-409.340	-122.969	0.167	0.027
-408.325	1.754	0.144	0.104
-407.311	108.571	0.083	0.098
-406.296	-138.946	-0.241	0.026
-405.282	167.020	-0.050	0.070
-404.267	-200.000	-0.038	-0.183
-403.252	-155.789	-0.281	0.018
-402.238	163.514	-0.186	-0.261
-401.223	-85.699	-0.266	0.082
-400.209	-200.000	-0.044	-0.400
-399.194	588.321	-0.116	0.286
-398.179	110.856	0.242	-0.290
-397.165	-150.994	-0.236	-0.018
-396.150	-99.702	0.153	-0.038
-395.136	-116.303	-0.203	0.038
-394.121	800.000	0.068	-0.256
-393.106	90.489	0.200	0.223
-392.092	800.000	-0.084	-0.338
-391.077	-200.000	-0.020	-0.124
-390.063	-200.000	-0.012	-0.093
-389.048	800.000	-0.075	0.312
-388.033	-111.858	0.150	0.030
-387.019	236.255	0.080	-0.131
-386.004	-200.000	-0.007	-0.165
-384.990	-33.396	-0.207	-0.114
-383.975	-200.000	-0.008	0.033
-382.960	492.004	0.115	-0.263
-381.946	51.733	-0.289	-0.273
-380.931	-200.000	-0.038	0.275
-379.917	190.348	-0.091	0.137
-378.902	412.344	0.148	-0.312
-377.888	9.381	-0.074	-0.056
-376.873	-15.095	-0.071	0.045
-375.858	571.413	-0.071	0.172
-374.844	4.895	0.077	-0.057
-373.829	-57.169	-0.170	-0.075
-372.815	-186.373	-0.399	-0.006
-371.800	283.867	-0.151	-0.270
-370.785	800.000	-0.120	-0.331
-369.771	800.000	0.084	-0.290
-368.756	-166.090	-0.269	0.011
-367.742	-176.831	0.150	-0.004
-366.727	191.438	0.172	-0.258
-365.712	-150.040	0.400	-0.031
-364.698	-200.000	-0.017	-0.094
-363.683	-200.000	0.029	0.170
-362.669	-36.610	0.066	-0.035
-361.654	-100.661	-0.135	-0.033
-360.639	110.892	0.212	-0.254
-359.625	132.609	0.134	0.172
-358.610	-71.933	0.232	0.086
-357.596	55.671	0.048	0.046
-356.581	-3.147	0.232	-0.161
-355.566	-200.000	-0.005	0.239
-354.552	-200.000	0.000	0.336
-353.537	138.193	0.187	0.244
-352.523	-200.000	-0.029	0.303
-351.508	-200.000	-0.005	0.073
-350.493	209.699	-0.189	0.294
-349.479	339.920	0.120	-0.232
-348.464	-49.470	0.065	-0.031
-347.450	-142.281	-0.140	-0.014
-346.435	-45.328	0.274	0.135
-345.420	27.472	-0.206	0.172
-344.406	-200.000	-0.015	0.279
-343.391	-87.113	0.190	0.058
-342.377	495.851	0.109	-0.249
-341.362	503.886	0.090	0.207
-340.348	-200.000	-0.037	0.184
-339.333	34.327	-0.104	-0.090
-338.318	184.475	0.044	-0.065
-337.304	-135.571	0.162	0.019
-336.289	277.642	0.123	-0.217
-335.275	-13.661	-0.095	-0.061
-334.260	-166.391	-0.230	-0.010
-333.245	800.000	0.064	0.176
-332.231	-51.832	0.124	-0.058
-331.216	-42.679	-0.248	-0.125
-330.202	-92.002	0.285	0.080
-329.187	-200.000	-0.024	-0.110
-328.172	-88.354	0.269	-0.080
-327.158	-200.000	-0.027	-0.211
-326.143	-76.071	-0.184	-0.064
-325.129	-200.000	-0.020	0.192
-324.114	33.429	0.289	0.249
-323.099	800.000	0.055	-0.194
-322.085	-103.189	0.202	0.047
-321.070	725.080	-0.027	-0.072
-320.056	800.000	0.085	0.319
-319.041	-200.000	0.066	0.442
-318.026	290.265	0.131	0.237
-317.012	50.946	-0.119	-0.112
-315.997	49.122	-0.203	0.189
-314.983	117.373	0.170	-0.208
-313.968	-200.000	-0.009	0.533
-312.953	-15.668	0.176	0.112
-311.939	-200.000	0.050	-0.227
-310.924	43.758	-0.119	0.108
-309.910	-131.377	0.342	0.045
-308.895	61.337	0.153	0.151
-307.880	103.864	0.161	-0.188
-306.866	-147.608	0.266	-0.022
-305.851	-98.714	-0.137	-0.035
-304.837	-200.000	-0.003	0.033
-303.822	12.730	0.315	-0.241
-302.807	-167.902	0.341	-0.013
-301.793	-200.000	-0.025	-0.186
-300.778	-91.874	-0.291	0.082
-299.764	197.078	-0.013	-0.019
-298.749	51.752	-0.175	0.166
-297.735	-67.207	-0.083	-0.032
-296.720	-16.340	0.286	0.180
-295.705	-31.890	-0.127	-0.071
-294.691	293.645	-0.068	0.122
-293.676	-200.000	-0.004	0.093
-292.662	-85.240	0.201	-0.062
-291.647	-104.314	-0.171	-0.039
-290.632	-200.000	0.017	0.245
-289.618	-200.000	0.047	0.353
-288.603	-200.000	-0.029	0.232
-287.589	90.531	0.231	-0.257
-286.574	13.316	-0.243	-0.187
-285.559	68.280	-0.116	0.118
-284.545	48.036	0.097	0.090
-283.530	170.226	0.074	-0.105
-282.516	-66.436	-0.142	0.056
-281.501	185.772	-0.170	0.250
-280.486	800.000	-0.095	-0.361
-279.472	-200.000	-0.031	-0.301
-278.457	800.000	0.024	0.099
-277.443	-5.856	0.268	-0.182
-276.428	-22.573	0.154	-0.092
-275.413	-80.690	-0.455	0.150
-274.399	-114.575	-0.247	-0.047
-273.384	-81.040	0.061	-0.020
-272.370	-178.229	0.456	0.011
-271.355	23.039	-0.061	0.050
-270.340	-200.000	-0.026	-0.268
-269.326	620.692	-0.028	0.071
-268.311	622.864	0.116	0.290
-267.297	-200.000	-0.006	0.263
-266.282	22.220	-0.131	0.106
-265.267	-200.000	-0.016	0.108
-264.253	-83.031	0.294	-0.094
-263.238	58.547	0.066	0.065
-262.224	-99.575	0.349	-0.087
-261.209	50.312	-0.181	0.169
-260.195	-153.192	0.162	0.011
-259.180	155.428	-0.169	-0.230
-258.165	261.359	0.126	0.216
-257.151	-200.000	0.152	0.000
-256.136	-58.409	-0.330	-0.142
-255.122	-200.000	0.060	-0.345
-254.107	-95.190	0.319	-0.085
-253.092	-20.282	0.193	-0.118
-252.078	800.000	-0.067	0.183
-251.063	-59.428	-0.326	-0.139
-250.049	77.534	-0.200	-0.211
-249.034	113.182	-0.058	-0.069
-248.019	-107.145	-0.236	0.051
-247.005	276.848	0.046	0.082
-245.990	-200.000	-0.032	-0.195
-244.976	-143.669	0.116	0.011
-243.961	-64.819	0.030	0.012
-242.946	24.671	-0.271	0.222
-241.932	-86.014	0.103	-0.031
-240.917	422.677	-0.149	0.317
-239.903	800.000	-0.027	0.083
-238.888	-88.825	-0.149	-0.044
-237.873	-200.000	-0.007	-0.284
-236.859	20.157	0.149	-0.119
-235.844	800.000	-0.072	0.247
-234.830	64.341	0.063	-0.062
-233.815	125.963	-0.076	0.095
-232.800	-46.569	-0.197	0.096
-231.786	-65.594	-0.077	-0.031
-230.771	37.130	-0.160	0.140
-229.757	-200.000	-0.048	0.376
-228.742	21.469	-0.084	0.068
-227.727	-28.814	-0.178	0.101
-226.713	17.982	-0.134	0.106
-225.698	156.053	0.135	-0.184
-224.684	800.000	-0.019	0.065
-223.669	68.182	-0.227	0.230
-222.655	-159.623	-0.110	0.006
-221.640	144.079	0.161	0.212
-220.625	339.038	-0.041	-0.078
-219.611	-147.836	-0.211	0.017
-218.596	71.313	0.202	-0.207
-217.582	8.955	-0.060	-0.045
-216.567	357.187	-0.111	0.220
-215.552	376.207	0.048	0.097
-214.538	800.000	-0.034	-0.143
-213.523	318.995	0.137	0.257
-212.509	-200.000	0.012	0.276
-211.494	-132.869	0.241	0.030
-210.479	533.470	-0.023	-0.054
-209.465	800.000	-0.042	-0.139
-208.450	339.723	0.185	0.357
-207.436	-200.000	-0.083	0.423
-206.421	-139.055	-0.370	0.040
-205.406	-41.614	0.331	-0.168
-204.392	-200.000	-0.011	-0.264
-203.377	-122.303	-0.264	0.043
-202.363	115.243	-0.152	-0.183
-201.348	-26.823	0.034	0.020
-200.333	27.539	-0.138	-0.115
-199.319	-200.000	0.031	-0.199
-198.304	384.738	-0.130	0.264
-197.290	-17.674	-0.220	0.137
-196.275	495.208	-0.101	0.230
-195.260	198.981	0.104	-0.157
-194.246	758.312	0.020	-0.054
-193.231	-90.208	0.256	-0.074
-192.217	-44.740	0.074	-0.037
-191.202	800.000	0.051	0.186
-190.187	600.231	-0.068	-0.166
-189.173	-180.920	0.220	-0.004
-188.158	38.682	-0.107	0.095
-187.144	800.000	0.099	0.422
-186.129	75.467	0.093	0.097
-185.114	-105.384	-0.119	-0.027
-184.100	380.374	0.046	0.094
-183.085	76.966	-0.157	-0.165
-182.071	-200.000	0.445	0.002
-181.056	-200.000	-0.031	0.202
-180.042	-25.229	-0.099	0.058
-179.027	-28.365	0.224	0.128
-178.012	-143.229	0.118	0.011
-176.998	-137.352	0.212	-0.024
-175.983	86.443	0.100	0.109
-174.969	800.000	-0.120	-0.342
-173.954	-20.238	-0.053	-0.032
-172.939	800.000	-0.013	0.042
-171.925	125.068	-0.308	0.383
-170.910	-200.000	-0.017	0.299
-169.896	-200.000	0.000	-0.005
-168.881	-138.864	0.323	-0.035
-167.866	92.107	-0.242	-0.269
-166.852	206.836	0.091	0.141
-165.837	44.712	0.159	-0.144
-164.823	641.794	-0.092	-0.230
-163.808	-126.274	0.121	-0.018
-162.793	18.762	-0.165	-0.130
-161.779	-82.715	-0.230	-0.073
-160.764	601.178	-0.066	-0.162
-159.750	61.937	0.263	-0.259
-158.735	800.000	-0.115	-0.368
-157.720	52.052	0.229	-0.215
-156.706	579.847	-0.049	0.119
-155.691	30.338	0.114	0.096
-154.677	-30.008	0.151	0.085
-153.662	-17.262	-0.205	-0.127
-152.647	-200.000	0.015	-0.077
-151.633	44.647	-0.188	-0.171
-150.618	800.000	0.083	-0.288
-149.604	362.923	0.126	0.249
-148.589	267.985	-0.084	-0.145
-147.574	0.979	-0.193	-0.137
-146.560	511.833	-0.061	-0.140
-145.545	-125.987	-0.252	-0.037
-144.531	-33.465	0.212	-0.116
-143.516	-43.029	0.139	0.070
-142.502	-200.000	0.003	0.221
-141.487	55.506	-0.048	-0.046
-140.472	-200.000	-0.068	-0.433
-139.458	-200.000	0.014	-0.081
-138.443	-200.000	-0.042	-0.194
-137.429	566.744	0.121	-0.290
-136.414	-200.000	0.034	-0.304
-135.399	33.792	0.190	-0.163
-134.385	262.731	-0.107	0.183
-133.370	-200.000	0.000	-0.207
-132.356	-98.166	0.302	-0.076
-131.341	413.441	0.054	0.113
-130.326	285.393	-0.026	-0.046
-129.312	-146.058	0.260	0.023
-128.297	800.000	-0.058	-0.209
-127.283	11.171	-0.043	0.033
-126.268	102.065	-0.153	-0.176
-125.253	-200.000	0.064	0.440
-124.239	-43.002	0.231	-0.116
-123.224	800.000	0.074	-0.227
-122.210	800.000	-0.034	-0.135
