DTS Sentinel unit serial number:	SN413079Multiplexer serial number:	ORYXHardware model number:	OX4-SRSoftware version number:	ORYX F/W v4.00 Oryx Data Collector v3.7.2.0data status	okinstallation	princeton_trtdifferential loss correction	single-endedforward channel	channel 1reverse channel	N/Adate	2019/09/14time	02:50:35forward acquisition time	60.00reverse acquisition time	0.00gamma	496.2192k internal	0.2336k external	0.2336temperature offset calibration	1.0075default loss term (dB/km)	0.3790temperature slope calibration	1.0000multiplexer offset coefficient	1.0000multiplexer slope coefficient	1.0000fibre end	0.00T internal ref (°C)	26.56T ext. ref 1 (°C)	3.24T ext. ref 2 (°C)	21.59length (m)	temperature (°C)	Stokes	anti-Stokes-747.200	37.580	0.268	0.239
-746.185	-200.000	0.012	0.078
-745.171	-60.579	0.304	0.130
-744.156	103.786	0.153	-0.181
-743.142	-200.000	0.000	-0.089
-742.127	-200.000	-0.017	0.214
-741.112	487.337	0.078	-0.178
-740.098	-22.203	0.063	0.039
-739.083	207.476	-0.136	0.213
-738.069	181.448	0.045	0.067
-737.054	-49.029	-0.354	0.170
-736.039	152.136	-0.208	0.285
-735.025	46.813	-0.298	0.278
-734.010	800.000	0.091	-0.304
-732.996	-74.638	-0.106	-0.038
-731.981	180.651	0.079	0.117
-730.966	800.000	0.047	0.142
-729.952	191.742	0.157	-0.238
-728.937	286.444	0.040	0.072
-727.923	-15.530	-0.158	-0.101
-726.908	-200.000	-0.307	-0.001
-725.894	-145.213	-0.253	-0.023
-724.879	-139.998	0.183	-0.019
-723.864	229.332	0.076	-0.125
-722.850	26.446	-0.121	-0.102
-721.835	-6.354	-0.137	-0.094
-720.821	-200.000	-0.054	0.348
-719.806	-161.490	0.120	0.006
-718.791	-200.000	0.013	0.242
-717.777	-144.188	0.324	0.030
-716.762	-38.667	-0.077	0.041
-715.748	-97.050	0.059	-0.016
-714.733	122.689	-0.261	-0.328
-713.718	-8.612	0.240	0.162
-712.704	-75.372	-0.287	-0.103
-711.689	800.000	-0.114	-0.462
-710.675	-70.869	-0.397	0.150
-709.660	-35.601	0.035	0.019
-708.645	-109.032	0.212	0.045
-707.631	635.522	0.060	0.154
-706.616	-67.088	-0.170	0.067
-705.602	144.693	-0.182	0.244
-704.587	800.000	0.109	0.332
-703.572	-157.212	-0.235	-0.014
-702.558	-70.149	-0.243	0.093
-701.543	-55.757	-0.177	0.080
-700.529	83.459	-0.099	-0.108
-699.514	-200.000	-0.002	0.137
-698.499	-200.000	-0.021	0.202
-697.485	-46.094	-0.167	0.082
-696.470	12.109	0.093	0.072
-695.456	30.134	-0.150	0.129
-694.441	-129.527	-0.348	-0.048
-693.426	800.000	-0.040	0.143
-692.412	-169.870	0.274	0.010
-691.397	153.802	-0.116	-0.160
-690.383	-73.981	-0.271	-0.099
-689.368	-35.219	0.314	-0.171
-688.354	390.281	0.175	-0.364
-687.339	33.221	0.250	-0.217
-686.324	-101.985	-0.334	-0.081
-685.310	488.098	-0.055	0.126
-684.295	-136.151	0.330	-0.039
-683.281	-169.033	-0.167	-0.006
-682.266	-188.076	0.339	0.004
-681.251	-123.129	-0.093	0.015
-680.237	92.353	-0.169	-0.191
-679.222	-200.000	0.043	-0.210
-678.208	-200.000	-0.050	-0.236
-677.193	-76.716	-0.210	0.074
-676.178	-101.319	-0.178	-0.043
-675.164	800.000	0.026	0.114
-674.149	51.220	0.161	0.153
-673.135	153.367	0.059	-0.081
-672.120	-52.420	0.056	-0.026
-671.105	-96.866	-0.143	0.038
-670.091	-8.204	0.219	-0.148
-669.076	198.789	0.069	0.106
-668.062	-26.516	-0.168	-0.098
-667.047	-67.648	-0.110	0.043
-666.032	91.882	-0.188	-0.212
-665.018	-200.000	0.025	0.317
-664.003	-158.671	-0.262	0.015
-662.989	475.539	0.053	-0.120
-661.974	28.796	-0.151	-0.128
-660.959	150.564	-0.089	0.121
-659.945	8.155	-0.396	-0.297
-658.930	-200.000	-0.037	0.239
-657.916	-200.000	-0.013	0.112
-656.901	-122.093	-0.255	-0.042
-655.886	800.000	0.052	0.195
-654.872	78.704	0.009	0.010
-653.857	314.051	0.171	-0.323
-652.843	-141.152	-0.249	-0.025
-651.828	427.975	-0.070	0.152
-650.814	-41.069	-0.195	0.101
-649.799	-135.809	0.080	0.009
-648.784	14.887	0.105	-0.082
-647.770	-60.621	0.373	-0.158
-646.755	94.179	-0.087	-0.099
-645.741	-102.349	-0.190	-0.046
-644.726	-168.585	0.028	-0.001
-643.711	-175.808	-0.185	0.005
-642.697	623.002	-0.099	-0.250
-641.682	178.537	0.038	0.056
-640.668	-122.242	-0.348	0.057
-639.653	-152.649	0.155	-0.011
-638.638	-35.263	0.027	0.015
-637.624	-42.213	-0.481	-0.246
-636.609	157.218	0.140	-0.193
-635.595	-40.042	0.174	-0.091
-634.580	201.611	-0.279	0.430
-633.565	618.491	0.047	-0.119
-632.551	-200.000	-0.028	-0.309
-631.536	-29.177	-0.151	0.086
-630.522	-43.574	-0.216	0.109
-629.507	-122.469	-0.279	0.045
-628.492	-152.981	0.367	-0.026
-627.478	-124.686	0.111	0.017
-626.463	-48.276	0.217	-0.105
-625.449	64.319	-0.299	-0.301
-624.434	-100.749	-0.122	0.030
-623.419	-104.342	-0.126	0.029
-622.405	-50.839	-0.289	-0.136
-621.390	-110.156	0.429	0.089
-620.376	-25.119	-0.106	-0.063
-619.361	-93.014	-0.271	0.076
-618.346	800.000	0.017	-0.062
-617.332	800.000	0.055	-0.233
-616.317	-97.229	0.332	0.086
-615.303	8.257	0.166	-0.124
-614.288	-37.936	0.168	0.089
-613.273	800.000	-0.015	0.049
-612.259	-131.432	-0.159	-0.021
-611.244	-71.285	0.380	0.143
-610.230	-51.943	0.157	0.073
-609.215	-200.000	-0.024	-0.165
-608.201	47.838	-0.102	-0.095
-607.186	176.330	0.108	0.157
-606.171	-84.331	-0.259	0.082
-605.157	636.312	-0.064	-0.161
-604.142	800.000	-0.066	-0.185
-603.128	-27.064	0.236	0.137
-602.113	119.260	0.104	-0.129
-601.098	-91.594	-0.242	-0.069
-600.084	44.808	-0.061	-0.056
-599.069	-121.536	-0.214	-0.036
-598.055	800.000	0.029	0.126
-597.040	403.772	0.108	-0.228
-596.025	422.518	0.108	-0.232
-595.011	-200.000	0.017	0.117
-593.996	738.984	-0.096	-0.258
-592.982	-200.000	-0.107	0.476
-591.967	-200.000	0.018	0.091
-590.952	-200.000	-0.017	-0.229
-589.938	226.652	-0.243	-0.394
-588.923	-5.149	-0.131	0.090
-587.909	-200.000	-0.033	0.270
-586.894	374.931	0.054	0.111
-585.879	398.776	0.035	-0.073
-584.865	-46.038	0.269	0.133
-583.850	-200.000	0.028	-0.205
-582.836	388.383	-0.087	-0.181
-581.821	800.000	-0.047	-0.200
-580.806	-116.224	0.226	0.042
-579.792	-80.918	0.183	0.061
-578.777	-50.986	-0.057	0.027
-577.763	800.000	0.051	-0.168
-576.748	-200.000	-0.038	-0.192
-575.733	-35.567	0.314	-0.170
-574.719	-38.389	-0.247	-0.130
-573.704	424.233	-0.112	0.240
-572.690	-200.000	0.041	0.313
-571.675	-38.358	0.258	-0.136
-570.661	602.499	-0.104	-0.258
-569.646	800.000	-0.116	0.323
-568.631	-50.266	0.197	0.093
-567.617	647.396	0.096	0.245
-566.602	83.718	0.296	-0.322
-565.588	800.000	0.084	-0.261
-564.573	-7.645	-0.223	0.151
-563.558	-20.146	-0.016	0.010
-562.544	-84.439	-0.199	-0.063
-561.529	240.077	0.100	-0.165
-560.515	188.681	-0.152	0.226
-559.500	438.656	0.053	0.115
-558.485	-101.773	0.115	-0.028
-557.471	-132.594	-0.150	-0.019
-556.456	-112.151	0.248	0.050
-555.442	620.843	-0.128	-0.321
-554.427	258.602	-0.353	0.607
-553.412	86.837	0.064	-0.071
-552.398	0.840	-0.328	-0.234
-551.383	-41.827	-0.278	0.142
-550.369	-84.986	-0.145	0.045
-549.354	72.514	-0.018	-0.019
-548.339	-200.000	0.090	0.395
-547.325	-200.000	-0.016	-0.079
-546.310	-200.000	-0.013	-0.263
-545.296	-11.590	0.163	-0.107
-544.281	-200.000	-0.044	-0.216
-543.266	5.876	-0.122	0.090
-542.252	359.342	0.298	-0.594
-541.237	-200.000	-0.038	-0.319
-540.223	-200.000	-0.004	-0.028
-539.208	-200.000	-0.003	-0.039
-538.193	105.661	-0.201	-0.236
-537.179	32.768	-0.124	0.107
-536.164	800.000	-0.079	-0.222
-535.150	-123.956	-0.339	-0.053
-534.135	209.034	-0.074	-0.115
-533.121	199.987	-0.053	-0.082
-532.106	-66.652	0.220	0.087
-531.091	86.168	0.053	-0.058
-530.077	17.888	0.149	-0.118
-529.062	-200.000	-0.073	0.415
-528.048	-200.000	0.008	-0.181
-527.033	169.974	0.230	0.328
-526.018	-200.000	-0.001	0.224
-525.004	-96.330	-0.005	0.001
-523.989	-33.228	0.328	0.181
-522.975	-200.000	0.016	0.160
-521.960	-131.610	-0.087	-0.011
-520.945	51.403	-0.156	-0.148
-519.931	-111.069	-0.224	0.046
-518.916	-71.214	0.172	-0.064
-517.902	-147.827	0.397	-0.033
-516.887	-200.000	-0.058	-0.275
-515.872	-102.368	0.116	-0.028
-514.858	800.000	0.044	-0.152
-513.843	298.842	-0.091	0.166
-512.829	32.726	0.115	0.099
-511.814	243.200	-0.166	-0.277
-510.799	-74.561	-0.338	-0.121
-509.785	31.307	-0.028	0.024
-508.770	-23.395	-0.133	0.080
-507.756	774.115	0.054	0.146
-506.741	-200.000	0.032	0.196
-505.726	-70.772	0.190	0.071
-504.712	-200.000	0.027	0.142
-503.697	-23.998	-0.082	-0.049
-502.683	800.000	-0.024	0.078
-501.668	-33.745	0.329	-0.180
-500.653	-87.780	-0.372	0.111
-499.639	-200.000	0.039	0.248
-498.624	39.321	0.207	-0.184
-497.610	-200.000	-0.051	0.318
-496.595	-151.578	-0.084	0.006
-495.581	-73.690	-0.151	0.055
-494.566	-109.142	0.099	-0.021
-493.551	-106.316	0.106	0.024
-492.537	-148.454	0.098	0.008
-491.522	45.842	-0.147	0.135
-490.508	263.864	0.199	-0.344
-489.493	-200.000	-0.056	0.307
-488.478	-200.000	-0.092	0.560
-487.464	83.700	-0.173	0.187
-486.449	-64.875	0.460	0.185
-485.435	16.825	-0.184	-0.145
-484.420	800.000	0.074	-0.236
-483.405	190.658	-0.057	0.085
-482.391	-104.751	0.469	-0.107
-481.376	-74.947	-0.293	-0.104
-480.362	-97.732	0.054	0.014
-479.347	-200.000	0.017	-0.332
-478.332	-130.169	-0.083	-0.011
-477.318	-176.900	0.092	-0.002
-476.303	-69.058	-0.305	0.117
-475.289	786.421	-0.076	0.208
-474.274	-200.000	-0.026	-0.299
-473.259	3.140	-0.202	0.146
-472.245	800.000	-0.156	0.440
-471.230	-200.000	-0.004	-0.096
-470.216	800.000	-0.036	-0.109
-469.201	145.842	0.217	0.289
-468.186	34.165	0.185	0.160
-467.172	-200.000	0.031	0.325
-466.157	-33.213	-0.172	-0.095
-465.143	31.477	-0.104	0.089
-464.128	-132.650	-0.247	-0.031
-463.113	-54.449	0.039	0.018
-462.099	-48.847	-0.248	0.118
-461.084	93.734	0.054	0.060
-460.070	-22.489	-0.096	-0.058
-459.055	-93.358	-0.152	-0.042
-458.040	0.005	0.274	0.194
-457.026	157.931	-0.133	0.184
-456.011	-92.926	0.225	-0.062
-454.997	-150.241	-0.075	-0.006
-453.982	17.470	-0.109	0.086
-452.968	-41.349	0.269	0.137
-451.953	-70.997	-0.267	-0.100
-450.938	-48.542	-0.119	-0.057
-449.924	-23.784	0.127	0.076
-448.909	-92.533	0.384	-0.107
-447.895	247.153	-0.012	-0.021
-446.880	55.745	-0.158	-0.152
-445.865	-27.536	-0.192	0.111
-444.851	800.000	0.029	-0.098
-443.836	-200.000	-0.007	0.303
-442.822	-101.608	-0.052	0.013
-441.807	9.266	0.264	-0.198
-440.792	-200.000	0.035	0.269
-439.778	504.288	0.062	0.142
-438.763	782.106	-0.013	-0.036
-437.749	-56.152	-0.291	-0.128
-436.734	-39.977	-0.131	-0.068
-435.719	120.022	-0.160	0.197
-434.705	-74.731	0.059	-0.021
-433.690	66.548	0.060	-0.061
-432.676	79.713	0.108	-0.115
-431.661	283.330	-0.110	0.196
-430.646	147.508	0.118	-0.157
-429.632	75.154	0.079	0.082
-428.617	-200.000	-0.015	0.309
-427.603	17.569	-0.120	-0.094
-426.588	-177.414	0.247	-0.006
-425.573	-200.000	-0.008	0.092
-424.559	-109.926	0.090	0.019
-423.544	-200.000	-0.053	-0.261
-422.530	-162.858	-0.161	0.008
-421.515	800.000	-0.079	0.308
-420.500	800.000	0.020	0.060
-419.486	76.234	-0.025	0.026
-418.471	27.120	0.257	0.214
-417.457	800.000	0.037	-0.114
-416.442	160.652	-0.130	0.179
-415.428	-118.609	0.280	0.049
-414.413	-28.003	0.150	-0.086
-413.398	-200.000	-0.306	-0.001
-412.384	488.987	0.062	-0.142
-411.369	-75.401	0.044	0.016
-410.355	-200.000	-0.023	0.181
-409.340	-84.642	0.208	0.065
-408.325	-92.113	0.231	0.065
-407.311	-144.898	0.490	-0.044
-406.296	800.000	-0.075	-0.276
-405.282	-127.581	0.083	0.012
-404.267	127.581	0.166	0.210
-403.252	419.603	0.059	-0.125
-402.238	-200.000	0.005	0.225
-401.223	-44.746	0.202	0.100
-400.209	-29.836	-0.157	0.089
-399.194	225.525	0.137	0.220
-398.179	-167.325	-0.120	0.005
-397.165	110.728	-0.229	0.273
-396.150	45.438	-0.162	0.149
-395.136	184.018	0.068	0.100
-394.121	341.993	-0.065	-0.126
-393.106	47.714	-0.056	-0.051
-392.092	391.525	0.125	0.258
-391.077	-98.106	0.153	-0.039
-390.063	-200.000	0.002	0.059
-389.048	-61.031	-0.348	-0.146
-388.033	-200.000	-0.093	-0.636
-387.019	800.000	-0.007	0.026
-386.004	-171.998	0.085	0.003
-384.990	6.939	0.173	0.128
-383.975	118.976	-0.255	-0.312
-382.960	690.778	-0.011	0.030
-381.946	411.075	0.087	0.184
-380.931	-200.000	-0.008	0.234
-379.917	-51.010	-0.321	-0.149
-378.902	-148.194	-0.085	0.007
-377.888	2.269	-0.216	-0.155
-376.873	-200.000	-0.017	0.391
-375.858	450.866	0.077	0.168
-374.844	161.538	-0.181	0.251
-373.829	-52.658	-0.213	-0.097
-372.815	104.094	-0.122	0.143
-371.800	-98.621	0.122	0.031
-370.785	-11.205	-0.288	0.188
-369.771	-200.000	0.031	0.239
-368.756	60.068	-0.104	-0.101
-367.742	-88.970	-0.198	-0.058
-366.727	-163.687	-0.364	-0.017
-365.712	112.667	-0.119	0.143
-364.698	28.909	0.043	-0.036
-363.683	98.629	-0.144	0.165
-362.669	277.839	0.039	0.069
-361.654	249.795	0.025	-0.042
-360.639	585.055	-0.043	0.104
-359.625	-71.159	0.563	-0.209
-358.610	-116.593	-0.521	0.095
-357.596	-16.274	0.387	-0.243
-356.581	800.000	0.067	-0.194
-355.566	-105.133	0.317	0.072
-354.552	-32.106	-0.151	0.084
-353.537	317.270	0.141	-0.264
-352.523	107.865	0.136	0.160
-351.508	-120.300	-0.167	0.028
-350.493	-61.438	0.157	-0.065
-349.479	-80.342	-0.071	-0.024
-348.464	-111.894	0.265	-0.053
-347.450	-18.017	0.109	-0.068
-346.435	141.729	0.153	0.201
-345.420	-82.150	0.218	-0.070
-344.406	-148.491	0.134	-0.011
-343.391	-5.315	-0.284	-0.193
-342.377	183.754	0.225	-0.329
-341.362	-108.381	0.282	-0.060
-340.348	22.968	0.306	0.248
-339.333	189.174	0.171	0.253
-338.318	-96.563	0.089	0.023
-337.304	111.797	-0.023	-0.027
-336.289	161.431	-0.221	-0.305
-335.275	63.731	0.214	-0.212
-334.260	800.000	-0.028	-0.102
-333.245	-61.996	-0.382	-0.158
-332.231	-138.070	-0.071	0.008
-331.216	-83.783	-0.250	-0.079
-330.202	-79.281	-0.032	0.011
-329.187	-200.000	0.022	0.157
-328.172	-200.000	-0.000	-0.070
-327.158	-117.909	-0.169	0.030
-326.143	351.011	0.087	0.170
-325.129	63.568	0.078	-0.077
-324.114	-68.576	0.250	0.096
-323.099	-92.583	0.152	-0.042
-322.085	143.781	0.198	0.261
-321.070	-200.000	0.012	0.130
-320.056	-50.537	0.257	-0.120
-319.041	-11.976	-0.170	-0.110
-318.026	50.288	0.285	-0.266
-317.012	-26.450	-0.195	-0.113
-315.997	-27.587	-0.138	-0.079
-314.983	98.338	-0.077	-0.088
-313.968	425.454	-0.131	0.278
-312.953	111.402	-0.154	0.183
-311.939	303.857	-0.158	-0.289
-310.924	-143.465	-0.184	-0.017
-309.910	-10.173	0.267	0.175
-308.895	2.048	-0.059	-0.042
-307.880	800.000	-0.002	0.005
-306.866	-155.330	-0.480	-0.031
-305.851	-145.854	-0.142	0.012
-304.837	-137.527	0.426	-0.047
-303.822	-138.223	0.140	-0.015
-302.807	-200.000	0.017	0.218
-301.793	-30.591	-0.112	-0.062
-300.778	207.247	-0.119	0.184
-299.764	16.652	0.122	-0.095
-298.749	28.899	-0.110	0.092
-297.735	-121.871	0.216	0.035
-296.720	97.940	-0.187	-0.212
-295.705	382.576	0.117	0.237
-294.691	-153.594	-0.239	-0.016
-293.676	202.230	0.049	0.075
-292.662	-200.000	-0.014	0.249
-291.647	800.000	-0.113	0.329
-290.632	-200.000	-0.003	-0.256
-289.618	-200.000	-0.006	-0.036
-288.603	-127.167	-0.312	0.045
-287.589	-200.000	-0.022	-0.113
-286.574	0.734	-0.200	-0.141
-285.559	439.748	0.083	0.179
-284.545	-55.691	-0.231	-0.102
-283.530	-27.753	0.133	0.076
-282.516	-133.580	0.110	-0.014
-281.501	688.173	-0.140	-0.360
-280.486	41.754	-0.125	0.112
-279.472	800.000	-0.043	-0.169
-278.457	61.658	0.261	-0.256
-277.443	800.000	-0.121	-0.382
-276.428	800.000	0.083	-0.341
-275.413	-162.243	-0.157	-0.008
-274.399	19.913	-0.106	-0.084
-273.384	-25.396	-0.296	0.173
-272.370	346.011	0.100	0.194
-271.355	-26.340	-0.251	0.145
-270.340	-12.043	0.038	0.024
-269.326	-87.872	-0.433	-0.129
-268.311	-200.000	-0.023	0.177
-267.297	-200.000	0.067	-0.433
-266.282	-200.000	0.017	-0.074
-265.267	30.930	-0.321	-0.271
-264.253	196.705	0.029	0.044
-263.238	31.550	0.208	0.176
-262.224	-200.000	0.005	0.172
-261.209	-112.126	-0.152	-0.030
-260.195	800.000	-0.064	0.252
-259.180	-200.000	0.024	-0.371
-258.165	-173.333	0.117	-0.004
-257.151	320.666	-0.175	-0.327
-256.136	206.965	-0.106	-0.162
-255.122	-86.114	-0.159	0.048
-254.107	-45.538	0.279	0.136
-253.092	-17.901	-0.230	-0.142
-252.078	16.992	0.021	0.017
-251.063	-200.000	0.008	0.201
-250.049	-11.020	-0.243	-0.158
-249.034	-19.086	0.405	0.248
-248.019	566.639	0.045	-0.108
-247.005	238.477	0.193	-0.315
-245.990	-68.295	0.158	0.060
-244.976	-8.884	-0.092	-0.061
-243.961	-99.471	0.060	-0.015
-242.946	-23.337	0.155	-0.092
-241.932	119.512	0.149	-0.181
-240.917	-166.186	-0.170	0.007
-239.903	-16.319	-0.119	-0.074
-238.888	-51.004	-0.030	-0.014
-237.873	-200.000	-0.030	0.258
-236.859	800.000	-0.060	0.237
-235.844	800.000	0.029	0.094
-234.830	154.273	0.110	-0.148
-233.815	37.629	0.090	0.079
-232.800	800.000	-0.030	-0.085
-231.786	10.625	0.295	-0.221
-230.771	-55.431	0.306	0.135
-229.757	603.534	-0.130	-0.319
-228.742	90.409	0.200	-0.220
-227.727	-95.667	0.057	0.015
-226.713	-200.000	-0.015	0.291
-225.698	223.839	-0.022	0.035
-224.684	-35.002	0.244	-0.131
-223.669	-200.000	0.174	0.000
-222.655	-97.221	0.147	-0.038
-221.640	800.000	0.099	0.300
-220.625	68.443	-0.229	0.231
-219.611	-64.302	0.332	0.133
-218.596	416.828	-0.123	-0.259
-217.582	-200.000	0.007	0.204
-216.567	33.970	0.115	-0.099
-215.552	-13.290	-0.271	0.173
-214.538	49.599	-0.056	0.052
-213.523	317.830	0.192	0.358
-212.509	-134.046	0.224	0.027
-211.494	800.000	0.083	-0.255
-210.479	800.000	-0.196	0.555
-209.465	-73.146	0.155	0.056
-208.450	800.000	-0.033	-0.107
-207.436	-4.271	-0.191	-0.130
-206.421	292.124	-0.155	0.278
-205.406	800.000	-0.027	-0.110
-204.392	800.000	-0.056	-0.173
-203.377	379.755	0.056	-0.114
-202.363	253.805	-0.096	0.161
-201.348	800.000	0.045	-0.183
-200.333	-4.542	0.179	0.122
-199.319	-7.017	0.213	-0.142
-198.304	-9.897	0.418	-0.274
-197.290	-39.247	-0.088	-0.045
-196.275	-53.928	0.261	-0.117
-195.260	137.209	0.090	-0.115
-194.246	38.065	-0.112	0.098
-193.231	-200.000	0.010	0.171
-192.217	9.414	-0.304	-0.226
-191.202	-97.467	-0.177	0.045
-190.187	-84.028	0.367	-0.115
-189.173	340.010	-0.066	0.126
-188.158	-200.000	-0.045	0.240
-187.144	36.942	-0.064	-0.056
-186.129	-200.000	0.005	0.182
-185.114	73.696	-0.088	-0.091
-184.100	108.206	-0.094	-0.110
-183.085	58.339	0.092	0.089
-182.071	800.000	0.037	-0.102
-181.056	241.816	-0.138	0.227
-180.042	28.905	-0.274	0.228
-179.027	-144.712	0.321	0.029
-178.012	-72.240	0.157	-0.057
-176.998	316.635	-0.150	0.278
-175.983	-121.107	0.259	-0.043
-174.969	-13.063	-0.206	0.132
-173.954	-200.000	-0.026	-0.193
-172.939	550.560	0.113	-0.267
-171.925	-200.000	0.018	-0.274
-170.910	452.842	0.091	-0.198
-169.896	294.148	-0.037	-0.066
-168.881	291.537	-0.232	-0.415
-167.866	-30.780	0.288	0.160
-166.852	-85.712	0.191	-0.058
-165.837	42.026	0.021	0.019
-164.823	58.251	0.299	0.288
-163.808	47.222	-0.188	0.172
-162.793	800.000	0.034	0.123
-161.779	60.258	0.065	0.063
-160.764	800.000	0.069	-0.194
-159.750	-50.040	-0.117	0.054
-158.735	570.292	-0.036	-0.085
-157.720	76.825	0.210	0.219
-156.706	140.860	0.122	0.158
-155.691	-73.788	-0.162	-0.058
-154.677	58.346	-0.117	0.113
-153.662	800.000	0.079	-0.324
-152.647	-61.511	0.193	0.080
-151.633	130.190	0.094	0.119
-150.618	-49.693	-0.239	0.111
-149.604	-200.000	-0.014	0.281
-148.589	698.527	-0.119	0.308
-147.574	-151.685	0.097	-0.007
-146.560	155.604	0.067	0.090
-145.545	-200.000	0.125	0.000
-144.531	268.360	0.175	-0.300
-143.516	383.791	0.091	-0.184
-142.502	14.511	0.161	0.123
-141.487	266.647	0.152	0.260
-140.472	578.519	0.080	0.193
-139.458	-49.360	-0.176	0.082
-138.443	-200.000	0.072	0.391
-137.429	16.621	-0.221	-0.172
-136.414	-65.832	0.214	-0.084
-135.399	112.824	0.058	0.069
-134.385	69.401	0.090	-0.090
-133.370	-21.707	0.316	0.189
-132.356	-200.000	-0.020	-0.172
-131.341	-142.530	0.174	0.017
-130.326	-200.000	-0.357	0.002
-129.312	-112.011	-0.442	0.087
-128.297	272.991	-0.038	-0.066
-127.283	800.000	0.079	-0.293
-126.268	3.728	-0.198	0.142
-125.253	247.703	0.185	-0.307
-124.239	-83.183	0.115	-0.036
-123.224	800.000	-0.091	0.313
-122.210	-76.232	0.283	0.098
-121.195	-200.000	0.021	-0.109
