DTS Sentinel unit serial number:	SN413079Multiplexer serial number:	ORYXHardware model number:	OX4-SRSoftware version number:	ORYX F/W v4.00 Oryx Data Collector v3.7.2.0data status	okinstallation	princeton_trtdifferential loss correction	single-endedforward channel	channel 1reverse channel	N/Adate	2019/09/14time	02:38:35forward acquisition time	60.00reverse acquisition time	0.00gamma	496.2192k internal	0.2336k external	0.2336temperature offset calibration	1.0069default loss term (dB/km)	0.3790temperature slope calibration	1.0000multiplexer offset coefficient	1.0000multiplexer slope coefficient	1.0000fibre end	0.00T internal ref (°C)	26.55T ext. ref 1 (°C)	3.22T ext. ref 2 (°C)	21.56length (m)	temperature (°C)	Stokes	anti-Stokes-747.200	690.152	-0.085	0.224
-746.185	-10.203	0.198	0.132
-745.171	-169.502	-0.261	0.010
-744.156	-130.111	-0.263	0.036
-743.142	800.000	-0.050	-0.174
-742.127	-200.000	0.031	0.355
-741.112	800.000	0.080	-0.233
-740.098	259.988	-0.062	-0.108
-739.083	-108.661	-0.360	0.078
-738.069	800.000	-0.107	0.312
-737.054	41.492	0.199	0.181
-736.039	-113.845	-0.627	-0.122
-735.025	-194.598	0.292	-0.002
-734.010	14.904	-0.129	-0.101
-732.996	12.081	-0.295	-0.228
-731.981	-66.465	-0.278	-0.111
-730.966	-81.165	0.320	0.106
-729.952	349.041	-0.154	-0.305
-728.937	483.277	0.057	-0.131
-727.923	-90.372	0.322	0.094
-726.908	-118.714	0.248	0.044
-725.894	800.000	0.032	-0.136
-724.879	58.156	-0.219	-0.215
-723.864	-186.782	0.198	0.003
-722.850	250.158	-0.155	-0.263
-721.835	2.005	-0.149	0.108
-720.821	489.848	0.042	-0.097
-719.806	-200.000	-0.027	0.433
-718.791	-2.655	-0.150	-0.105
-717.777	113.291	-0.115	0.139
-716.762	484.791	0.076	0.174
-715.748	-38.602	0.111	-0.059
-714.733	-200.000	0.014	-0.237
-713.718	33.577	0.102	0.089
-712.704	31.017	-0.029	-0.025
-711.689	-138.551	-0.337	-0.037
-710.675	-53.584	0.136	0.062
-709.660	371.874	-0.089	0.182
-708.645	-200.000	-0.027	0.299
-707.631	-200.000	0.015	-0.186
-706.616	87.876	0.073	-0.081
-705.602	-134.857	-0.294	-0.036
-704.587	-115.951	0.057	0.011
-703.572	-200.000	0.040	-0.248
-702.558	47.322	0.225	-0.210
-701.543	-200.000	-0.039	-0.357
-700.529	239.203	-0.142	0.237
-699.514	158.036	0.093	0.130
-698.499	114.057	-0.123	-0.150
-697.485	-89.108	-0.156	0.046
-696.470	-200.000	0.009	0.254
-695.456	192.097	-0.061	-0.092
-694.441	-200.000	-0.019	-0.376
-693.426	-8.351	-0.440	-0.297
-692.412	-200.000	-0.037	0.175
-691.397	-32.927	-0.351	-0.195
-690.383	800.000	-0.027	-0.089
-689.368	-200.000	-0.008	0.122
-688.354	767.330	0.109	-0.298
-687.339	-108.628	-0.156	0.034
-686.324	330.183	-0.071	0.137
-685.310	-119.273	-0.179	0.031
-684.295	-163.480	-0.157	0.007
-683.281	-200.000	0.025	0.502
-682.266	-173.535	-0.116	-0.004
-681.251	-200.000	-0.011	-0.176
-680.237	39.875	0.089	-0.080
-679.222	10.802	0.119	0.091
-678.208	-71.270	-0.414	-0.155
-677.193	40.644	0.115	0.104
-676.178	-199.830	-0.100	0.001
-675.164	275.606	-0.095	-0.168
-674.149	174.131	0.220	-0.318
-673.135	-200.000	-0.013	-0.098
-672.120	-200.000	-0.006	-0.083
-671.105	800.000	0.067	-0.215
-670.091	146.926	0.067	-0.090
-669.076	326.374	-0.028	-0.054
-668.062	13.810	0.139	-0.108
-667.047	71.396	-0.141	-0.147
-666.032	-163.890	0.373	-0.017
-665.018	-99.745	-0.280	-0.070
-664.003	-200.000	-0.008	-0.339
-662.989	-200.000	-0.013	-0.179
-661.974	-149.719	0.380	-0.030
-660.959	40.585	-0.162	0.146
-659.945	-200.000	-0.003	0.194
-658.930	25.006	0.087	0.072
-657.916	-118.153	0.207	-0.037
-656.901	-200.000	-0.027	0.130
-655.886	3.102	-0.202	0.147
-654.872	359.974	0.103	0.206
-653.857	-83.178	0.410	-0.132
-652.843	-106.815	-0.099	-0.022
-651.828	-99.299	0.156	-0.039
-650.814	-155.532	-0.136	-0.009
-649.799	4.114	-0.057	-0.042
-648.784	-200.000	-0.000	0.066
-647.770	-45.985	-0.128	0.063
-646.755	-127.674	-0.139	-0.020
-645.741	179.741	-0.186	-0.272
-644.726	-114.937	0.273	0.052
-643.711	266.634	0.104	0.181
-642.697	185.036	0.080	-0.119
-641.682	-68.794	-0.195	-0.075
-640.668	-200.000	0.074	0.343
-639.653	553.263	0.066	-0.159
-638.638	-200.000	-0.045	-0.396
-637.624	-200.000	-0.023	0.306
-636.609	284.067	0.180	-0.324
-635.595	46.788	-0.157	0.145
-634.580	800.000	0.059	-0.245
-633.565	418.350	-0.131	0.281
-632.551	-101.428	0.266	0.065
-631.536	201.427	-0.144	-0.222
-630.522	-49.639	-0.191	0.091
-629.507	-198.081	0.242	-0.001
-628.492	478.931	0.103	0.232
-627.478	-200.000	0.020	-0.190
-626.463	84.579	0.115	0.126
-625.449	-200.000	-0.115	0.513
-624.434	800.000	-0.021	0.068
-623.419	664.141	0.092	0.236
-622.405	287.786	0.105	-0.190
-621.390	-161.220	-0.269	0.014
-620.376	68.239	-0.263	0.269
-619.361	220.515	-0.024	0.038
-618.346	-59.921	0.284	-0.121
-617.332	58.228	-0.265	-0.259
-616.317	-24.544	0.306	-0.182
-615.303	177.153	-0.114	0.166
-614.288	-200.000	-0.018	-0.365
-613.273	177.127	0.132	-0.191
-612.259	-200.000	-0.022	-0.221
-611.244	165.362	0.115	0.162
-610.230	52.704	-0.132	0.126
-609.215	-38.683	0.363	-0.191
-608.201	116.673	-0.267	-0.328
-607.186	115.333	-0.178	-0.217
-606.171	126.089	-0.095	0.120
-605.157	-77.209	0.255	0.089
-604.142	53.170	-0.052	0.050
-603.128	-108.355	-0.378	0.081
-602.113	84.530	0.031	-0.034
-601.098	-28.650	0.127	-0.073
-600.084	151.713	-0.141	0.191
-599.069	800.000	0.074	0.260
-598.055	-23.716	-0.295	0.177
-597.040	-200.000	0.026	-0.229
-596.025	-50.385	-0.132	0.062
-595.011	279.182	-0.098	0.174
-593.996	-200.000	-0.080	0.410
-592.982	-48.104	0.208	-0.100
-591.967	11.063	-0.036	0.027
-590.952	-200.000	-0.030	0.205
-589.938	319.413	-0.064	-0.120
-588.923	112.965	0.083	-0.101
-587.909	-68.027	0.646	0.251
-586.894	533.066	0.163	-0.385
-585.879	-180.758	0.005	0.000
-584.865	284.642	-0.169	-0.304
-583.850	204.824	0.010	0.015
-582.836	258.214	0.094	-0.162
-581.821	-75.420	0.172	0.061
-580.806	31.781	-0.302	-0.259
-579.792	529.876	-0.080	0.189
-578.777	800.000	-0.061	-0.189
-577.763	-95.491	-0.401	-0.107
-576.748	-200.000	0.000	0.184
-575.733	-77.779	-0.435	-0.150
-574.719	-200.000	-0.047	-0.224
-573.704	-4.707	-0.096	-0.066
-572.690	105.949	-0.060	-0.071
-571.675	800.000	-0.074	-0.268
-570.661	-142.009	-0.261	-0.026
-569.646	453.805	-0.083	0.184
-568.631	-193.163	-0.208	0.002
-567.617	-200.000	0.004	-0.171
-566.602	-111.919	0.074	0.015
-565.588	-19.845	-0.163	-0.100
-564.573	-200.000	0.003	0.261
-563.558	-200.000	0.008	0.203
-562.544	-54.243	0.153	0.069
-561.529	800.000	0.105	-0.322
-560.515	-37.320	-0.174	-0.093
-559.500	-12.630	-0.091	0.059
-558.485	-35.327	-0.108	0.059
-557.471	-70.930	0.162	-0.061
-556.456	-7.638	0.246	-0.166
-555.442	244.503	0.055	-0.091
-554.427	242.556	0.133	0.222
-553.412	68.169	-0.135	0.138
-552.398	-200.000	-0.058	0.438
-551.383	-117.741	0.387	0.069
-550.369	329.296	-0.083	-0.159
-549.354	-120.857	-0.123	0.021
-548.339	262.859	-0.114	0.198
-547.325	122.984	-0.275	-0.343
-546.310	101.947	0.297	0.346
-545.296	-200.000	0.029	-0.387
-544.281	-102.221	-0.264	0.063
-543.266	83.030	-0.236	-0.255
-542.252	293.178	-0.166	-0.302
-541.237	-83.783	-0.203	-0.064
-540.223	-200.000	0.003	-0.058
-539.208	-46.923	-0.246	0.120
-538.193	-132.842	-0.394	0.050
-537.179	-200.000	0.079	0.382
-536.164	800.000	0.023	0.072
-535.150	-155.864	-0.236	0.015
-534.135	86.588	0.101	-0.110
-533.121	-200.000	-0.012	-0.160
-532.106	-41.788	0.176	0.090
-531.091	-169.829	0.109	-0.004
-530.077	800.000	-0.059	-0.203
-529.062	115.198	0.141	-0.172
-528.048	257.221	-0.249	0.427
-527.033	-118.958	0.219	-0.038
-526.018	-200.000	0.226	0.001
-525.004	-152.807	0.066	-0.005
-523.989	-151.452	0.163	0.012
-522.975	404.468	0.039	-0.081
-521.960	94.823	0.196	0.221
-520.945	800.000	-0.044	0.131
-519.931	88.144	-0.106	-0.117
-518.916	-49.969	0.161	-0.076
-517.902	154.229	-0.130	0.177
-516.887	204.894	-0.039	0.060
-515.872	167.173	-0.195	0.276
-514.858	153.164	-0.114	0.155
-513.843	613.824	0.131	-0.326
-512.829	88.023	0.128	0.142
-511.814	-70.580	-0.372	0.140
-510.799	703.752	-0.053	0.139
-509.785	-200.000	0.048	-0.368
-508.770	-200.000	0.051	0.299
-507.756	-22.396	0.111	0.067
-506.741	236.305	0.253	0.417
-505.726	571.171	0.020	0.048
-504.712	16.621	-0.320	-0.252
-503.697	-6.674	-0.273	0.185
-502.683	-65.731	0.085	0.034
-501.668	-194.867	0.162	0.001
-500.653	631.950	-0.134	-0.338
-499.639	-114.433	-0.052	0.010
-498.624	100.200	0.204	-0.235
-497.610	-200.000	-0.012	0.278
-496.595	-109.859	0.155	-0.032
-495.581	-59.889	-0.255	0.108
-494.566	-111.882	-0.086	0.017
-493.551	-11.795	-0.242	-0.158
-492.537	583.813	0.051	-0.126
-491.522	-67.206	0.156	0.061
-490.508	-200.000	-0.017	0.121
-489.493	779.884	0.106	0.288
-488.478	288.771	-0.132	0.237
-487.464	-37.783	-0.282	0.149
-486.449	19.398	-0.165	0.132
-485.435	-63.097	-0.568	0.233
-484.420	-26.317	0.092	0.054
-483.405	-14.466	0.152	-0.097
-482.391	83.683	0.041	-0.045
-481.376	-200.000	0.031	0.316
-480.362	-181.641	-0.141	-0.003
-479.347	-111.709	0.361	0.073
-478.332	73.303	0.133	0.139
-477.318	800.000	-0.042	-0.123
-476.303	-81.301	0.258	0.085
-475.289	-200.000	0.014	-0.167
-474.274	-38.713	-0.196	-0.103
-473.259	800.000	-0.031	0.103
-472.245	-200.000	0.010	0.403
-471.230	-158.593	-0.118	0.007
-470.216	137.201	-0.142	-0.185
-469.201	-21.884	0.077	0.047
-468.186	-186.350	0.163	0.002
-467.172	-200.000	-0.003	-0.406
-466.157	-200.000	-0.019	0.412
-465.143	-19.154	-0.290	-0.179
-464.128	327.230	0.121	-0.230
-463.113	25.847	-0.263	-0.218
-462.099	-147.715	0.142	0.012
-461.084	-77.592	0.379	0.131
-460.070	-106.716	0.091	-0.020
-459.055	23.430	0.120	-0.098
-458.040	-200.000	-0.011	0.125
-457.026	-92.247	0.090	0.025
-456.011	-125.341	-0.236	-0.036
-454.997	301.270	-0.067	0.123
-453.982	72.665	-0.166	-0.172
-452.968	-70.017	-0.185	-0.070
-451.953	-108.688	-0.220	-0.047
-450.938	-156.488	-0.162	-0.010
-449.924	800.000	0.152	0.508
-448.909	-200.000	-0.025	0.117
-447.895	161.908	-0.161	-0.223
-446.880	-200.000	-0.021	-0.154
-445.865	293.839	-0.153	-0.277
-444.851	11.738	-0.321	-0.245
-443.836	-83.653	-0.015	0.005
-442.822	-48.996	0.338	-0.161
-441.807	-93.343	-0.289	-0.080
-440.792	-200.000	0.005	0.113
-439.778	-61.490	0.134	0.056
-438.763	-200.000	0.006	0.164
-437.749	49.356	-0.128	0.119
-436.734	126.073	-0.136	-0.171
-435.719	-200.000	-0.002	0.185
-434.705	146.934	0.103	-0.137
-433.690	542.768	0.088	-0.209
-432.676	283.893	0.172	0.307
-431.661	-78.448	0.145	0.049
-430.646	79.918	-0.185	-0.197
-429.632	64.000	-0.044	-0.044
-428.617	-200.000	0.009	-0.141
-427.603	93.168	0.209	-0.235
-426.588	-37.267	0.067	-0.036
-425.573	-95.311	-0.179	-0.048
-424.559	800.000	0.037	-0.142
-423.544	-9.486	0.242	-0.160
-422.530	-52.625	0.288	-0.132
-421.515	-13.902	-0.125	-0.080
-420.500	-97.308	0.112	-0.029
-419.486	63.965	-0.185	-0.184
-418.471	800.000	-0.127	0.405
-417.457	-141.418	0.256	-0.026
-416.442	33.861	0.089	0.077
-415.428	-200.000	0.010	-0.091
-414.413	62.334	0.135	0.133
-413.398	-61.742	0.250	0.104
-412.384	800.000	-0.043	-0.138
-411.369	314.781	-0.075	-0.140
-410.355	-60.960	0.537	0.225
-409.340	-200.000	-0.019	-0.161
-408.325	-110.378	-0.138	-0.028
-407.311	-19.821	-0.056	-0.034
-406.296	800.000	-0.063	0.198
-405.282	308.330	-0.103	-0.191
-404.267	-200.000	0.008	-0.155
-403.252	150.325	0.143	0.192
-402.238	800.000	-0.043	-0.143
-401.223	-82.019	-0.237	-0.077
-400.209	315.982	0.122	0.229
-399.194	80.374	0.315	-0.336
-398.179	112.805	0.095	0.114
-397.165	440.403	-0.131	0.283
-396.150	787.269	0.056	0.153
-395.136	-137.576	0.279	-0.031
-394.121	239.054	0.200	-0.329
-393.106	-94.365	0.274	-0.074
-392.092	282.924	0.130	-0.231
-391.077	-53.599	-0.115	-0.052
-390.063	-48.518	0.394	-0.188
-389.048	56.184	0.094	0.091
-388.033	249.311	-0.139	-0.234
-387.019	34.087	0.070	-0.060
-386.004	272.972	0.170	0.297
-384.990	800.000	-0.026	0.112
-383.975	-200.000	0.034	0.168
-382.960	34.401	0.054	-0.047
-381.946	91.162	0.252	0.280
-380.931	-151.586	0.329	-0.024
-379.917	800.000	0.077	0.212
-378.902	-200.000	0.033	-0.257
-377.888	-49.888	0.079	0.037
-376.873	22.419	-0.148	0.120
-375.858	800.000	0.027	-0.101
-374.844	-82.981	0.254	0.081
-373.829	32.967	0.255	0.219
-372.815	-68.646	-0.424	-0.162
-371.800	-65.838	-0.245	-0.097
-370.785	-191.155	0.251	-0.003
-369.771	-151.717	0.237	0.017
-368.756	-171.760	-0.303	-0.010
-367.742	-200.000	0.011	-0.051
-366.727	-15.038	-0.296	0.188
-365.712	-101.717	0.239	-0.057
-364.698	-84.485	0.339	-0.106
-363.683	800.000	-0.043	0.163
-362.669	-61.138	-0.095	-0.040
-361.654	-3.065	0.421	0.291
-360.639	-102.863	0.428	-0.101
-359.625	-30.477	-0.108	-0.061
-358.610	-200.000	-0.006	0.093
-357.596	41.701	0.227	0.203
-356.581	-200.000	0.014	-0.375
-355.566	-200.000	-0.025	0.209
-354.552	0.969	0.276	0.195
-353.537	-40.602	-0.174	0.089
-352.523	477.335	0.039	-0.087
-351.508	-26.571	-0.276	-0.160
-350.493	154.882	0.141	-0.192
-349.479	248.662	-0.137	-0.230
-348.464	62.716	-0.123	0.122
-347.450	-117.551	-0.161	0.029
-346.435	-89.383	0.281	0.082
-345.420	54.049	-0.174	-0.165
-344.406	-52.426	0.163	0.075
-343.391	-51.293	-0.303	0.140
-342.377	-106.617	-0.335	-0.074
-341.362	207.720	0.134	0.207
-340.348	800.000	0.048	0.138
-339.333	800.000	0.080	0.315
-338.318	147.014	0.189	0.251
-337.304	338.145	-0.075	-0.144
-336.289	-200.000	-0.012	-0.113
-335.275	570.753	-0.085	-0.205
-334.260	106.336	-0.168	-0.196
-333.245	199.578	-0.054	-0.082
-332.231	119.848	-0.093	-0.114
-331.216	48.972	0.097	0.090
-330.202	540.221	-0.025	-0.060
-329.187	335.629	0.041	0.078
-328.172	58.564	-0.157	-0.152
-327.158	181.885	-0.050	-0.073
-326.143	-200.000	-0.014	-0.067
-325.129	-153.801	-0.168	-0.011
-324.114	231.600	0.085	0.137
-323.099	-91.863	0.170	0.048
-322.085	800.000	-0.147	0.402
-321.070	-2.100	-0.125	0.087
-320.056	-75.778	0.081	-0.029
-319.041	-200.000	0.014	-0.099
-318.026	126.266	-0.187	0.234
-317.012	800.000	-0.030	0.091
-315.997	-200.000	-0.033	0.240
-314.983	-147.733	-0.076	0.006
-313.968	70.231	0.062	-0.063
-312.953	24.596	0.124	0.101
-311.939	800.000	-0.010	-0.031
-310.924	151.586	-0.215	-0.289
-309.910	13.829	-0.143	0.109
-308.895	222.212	0.184	0.292
-307.880	-8.013	0.054	-0.036
-306.866	74.644	0.127	-0.131
-305.851	228.257	-0.100	-0.161
-304.837	-200.000	-0.013	-0.352
-303.822	-177.330	0.187	0.005
-302.807	-49.047	0.320	0.151
-301.793	-200.000	0.011	0.552
-300.778	-200.000	0.004	0.064
-299.764	-72.811	0.076	0.028
-298.749	-111.336	0.151	0.030
-297.735	4.687	-0.289	0.210
-296.720	-200.000	0.018	0.263
-295.705	-18.381	0.189	0.117
-294.691	-25.123	0.092	0.054
-293.676	-118.566	0.144	0.025
-292.662	178.545	-0.113	-0.163
-291.647	247.002	-0.241	0.401
-290.632	75.206	0.102	0.106
-289.618	20.387	-0.049	0.039
-288.603	-168.912	0.190	0.007
-287.589	-50.950	-0.034	0.016
-286.574	800.000	-0.068	-0.207
-285.559	-200.000	0.018	0.228
-284.545	-88.107	-0.280	-0.083
-283.530	-71.488	0.401	0.148
-282.516	-73.123	0.158	0.057
-281.501	800.000	0.126	-0.428
-280.486	235.785	0.119	0.194
-279.472	-78.149	0.160	-0.054
-278.457	-200.000	-0.041	-0.209
-277.443	-200.000	0.009	0.079
-276.428	85.999	-0.141	0.154
-275.413	-185.657	0.113	-0.002
-274.399	-176.895	-0.200	-0.005
-273.384	800.000	0.122	0.492
-272.370	249.292	-0.081	0.135
-271.355	-13.877	0.117	0.075
-270.340	-26.053	-0.072	-0.041
-269.326	-75.740	0.103	0.036
-268.311	144.126	-0.149	-0.196
-267.297	340.352	0.127	-0.245
-266.282	-0.108	-0.153	0.107
-265.267	214.923	0.096	-0.150
-264.253	-118.763	-0.234	0.041
-263.238	-26.705	-0.029	-0.017
-262.224	96.277	0.273	-0.308
-261.209	-64.102	0.214	-0.086
-260.195	800.000	-0.065	-0.182
-259.180	-84.437	-0.063	0.020
-258.165	66.947	0.158	-0.159
-257.151	-16.025	0.106	0.067
-256.136	-70.665	-0.123	-0.046
-255.122	438.569	-0.114	-0.246
-254.107	-200.000	0.037	-0.215
-253.092	-200.000	-0.021	-0.118
-252.078	-88.193	0.252	0.074
-251.063	-71.970	-0.210	-0.077
-250.049	-53.329	-0.180	0.081
-249.034	-38.285	0.125	-0.065
-248.019	45.959	-0.170	-0.155
-247.005	-200.000	-0.005	0.175
-245.990	-61.894	0.291	-0.120
-244.976	-27.190	-0.121	-0.069
-243.961	13.888	0.403	-0.309
-242.946	-200.000	-0.031	0.494
-241.932	26.377	0.122	0.100
-240.917	-17.551	-0.213	0.132
-239.903	306.389	-0.032	-0.058
-238.888	-71.230	-0.097	-0.036
-237.873	-200.000	0.008	-0.101
-236.859	215.813	-0.270	-0.423
-235.844	-179.437	0.236	0.005
-234.830	800.000	-0.002	0.007
-233.815	-145.887	0.066	-0.006
-232.800	635.289	-0.125	0.313
-231.786	-1.250	0.235	-0.164
-230.771	8.085	-0.194	-0.143
-229.757	434.306	0.072	0.153
-228.742	-69.922	-0.206	0.077
-227.727	-49.922	-0.106	-0.049
-226.713	-22.018	0.019	0.011
-225.698	95.064	0.048	0.053
-224.684	8.628	0.083	0.062
-223.669	-34.666	0.247	-0.133
-222.655	-11.608	-0.155	0.100
-221.640	-42.068	0.242	-0.122
-220.625	-18.197	-0.282	-0.174
-219.611	51.443	-0.104	0.097
-218.596	-125.306	0.237	-0.036
-217.582	-147.303	-0.301	-0.025
-216.567	-115.420	0.123	-0.023
-215.552	-200.000	0.033	0.276
-214.538	-200.000	-0.152	0.000
-213.523	-121.766	0.370	-0.060
-212.509	5.345	-0.203	-0.147
-211.494	800.000	0.061	0.211
-210.479	177.288	-0.275	0.394
-209.465	138.153	-0.148	0.190
-208.450	-37.097	0.287	0.151
-207.436	800.000	0.012	0.039
-206.421	-3.095	0.163	-0.112
-205.406	-28.313	0.081	0.046
-204.392	-43.357	0.300	0.149
-203.377	-40.598	0.141	0.072
-202.363	-9.613	-0.217	-0.142
-201.348	-200.000	0.040	0.207
-200.333	-13.944	0.249	-0.158
-199.319	552.860	0.070	0.165
-198.304	-89.973	-0.396	-0.114
-197.290	-136.782	-0.216	0.024
-196.275	47.617	0.299	-0.275
-195.260	312.261	-0.065	-0.120
-194.246	-36.707	-0.324	0.171
-193.231	297.773	0.089	-0.161
-192.217	21.591	0.434	0.347
-191.202	-88.096	0.095	-0.028
-190.187	800.000	-0.076	0.281
-189.173	-55.766	0.172	0.076
-188.158	-159.177	0.342	0.019
-187.144	-103.821	-0.345	-0.079
-186.129	48.323	-0.229	-0.210
-185.114	311.245	0.089	0.164
-184.100	-200.000	0.013	-0.159
-183.085	-42.431	0.031	-0.016
-182.071	-59.895	-0.324	0.136
-181.056	-14.393	0.021	0.013
-180.042	532.111	0.151	-0.351
-179.027	721.956	-0.061	-0.160
-178.012	-81.939	-0.236	0.076
-176.998	259.265	-0.176	-0.299
-175.983	46.876	-0.183	0.167
-174.969	189.935	-0.062	0.091
-173.954	800.000	0.042	0.139
-172.939	-200.000	-0.022	-0.579
-171.925	-62.327	0.264	0.108
-170.910	-93.744	-0.088	-0.024
-169.896	134.591	0.083	0.106
-168.881	-155.294	-0.173	0.011
-167.866	-88.229	0.285	-0.084
-166.852	-200.000	-0.020	-0.102
-165.837	-30.418	-0.500	0.278
-164.823	-97.830	-0.122	0.031
-163.808	-200.000	0.067	-0.393
-162.793	27.824	-0.070	-0.058
-161.779	-200.000	0.002	-0.098
-160.764	-20.704	-0.040	0.024
-159.750	-30.194	0.333	-0.186
-158.735	-200.000	0.000	0.258
-157.720	44.170	-0.109	0.098
-156.706	-200.000	-0.009	-0.302
-155.691	800.000	-0.091	-0.285
-154.677	-200.000	0.023	-0.359
-153.662	10.825	0.076	-0.057
-152.647	563.994	-0.064	-0.152
-151.633	-66.988	-0.292	-0.113
-150.618	273.949	0.104	-0.180
-149.604	-200.000	0.032	-0.260
-148.589	-200.000	-0.008	-0.039
-147.574	-121.942	0.077	-0.013
-146.560	-35.499	0.148	-0.079
-145.545	-136.476	0.121	0.014
-144.531	432.378	0.146	0.310
-143.516	559.452	0.163	0.386
-142.502	491.817	-0.084	0.188
-141.487	228.309	0.219	-0.349
-140.472	137.828	-0.177	0.228
-139.458	265.459	-0.190	0.325
-138.443	16.202	-0.256	-0.198
-137.429	51.784	-0.076	0.071
-136.414	-200.000	0.021	0.307
-135.399	-92.850	-0.311	-0.085
-134.385	89.579	-0.180	0.197
-133.370	-57.258	0.135	0.058
-132.356	479.429	-0.121	-0.269
-131.341	800.000	0.061	0.233
-130.326	283.562	-0.107	0.189
-129.312	160.629	-0.078	0.106
-128.297	-4.749	-0.105	-0.071
-127.283	800.000	-0.076	-0.211
-126.268	-77.876	0.188	-0.063
-125.253	42.088	0.029	-0.026
-124.239	-35.464	-0.306	0.163
-123.224	64.064	-0.098	0.097
-122.210	181.468	-0.075	0.108
-121.195	94.993	-0.107	0.120
