DTS Sentinel unit serial number:	SN413079Multiplexer serial number:	ORYXHardware model number:	OX4-SRSoftware version number:	ORYX F/W v4.00 Oryx Data Collector v3.7.2.0data status	okinstallation	princeton_trtdifferential loss correction	single-endedforward channel	channel 1reverse channel	N/Adate	2019/09/16time	20:50:35forward acquisition time	60.00reverse acquisition time	0.00gamma	496.2192k internal	0.2325k external	0.2325temperature offset calibration	0.9952default loss term (dB/km)	0.3790temperature slope calibration	1.0000multiplexer offset coefficient	1.0000multiplexer slope coefficient	1.0000fibre end	0.00T internal ref (°C)	32.25T ext. ref 1 (°C)	0.06T ext. ref 2 (°C)	25.66length (m)	temperature (°C)	Stokes	anti-Stokes-747.200	-200.000	-0.035	0.391
-746.185	800.000	-0.032	-0.099
-745.171	523.780	0.051	-0.122
-744.156	141.481	0.045	0.060
-743.142	-68.040	-0.120	0.047
-742.127	-140.569	-0.327	-0.034
-741.112	-200.000	-0.028	0.194
-740.098	-31.566	0.040	-0.023
-739.083	27.103	0.005	-0.004
-738.069	-200.000	-0.023	0.465
-737.054	-26.100	0.216	0.128
-736.039	328.332	-0.103	-0.200
-735.025	-200.000	-0.006	0.424
-734.010	800.000	0.085	-0.366
-732.996	800.000	-0.113	-0.338
-731.981	-86.084	-0.268	-0.084
-730.966	80.124	-0.157	0.170
-729.952	121.523	-0.238	-0.299
-728.937	64.678	-0.336	-0.342
-727.923	81.072	-0.193	-0.210
-726.908	800.000	-0.102	0.312
-725.894	78.826	0.145	0.157
-724.879	-132.426	-0.468	-0.061
-723.864	-109.471	-0.222	0.047
-722.850	-134.880	-0.053	-0.006
-721.835	164.626	-0.223	-0.318
-720.821	-200.000	0.031	-0.172
-719.806	31.370	0.232	-0.201
-718.791	563.664	0.024	0.058
-717.777	-117.194	0.155	0.029
-716.762	-68.359	-0.095	-0.037
-715.748	-102.254	-0.075	-0.018
-714.733	-200.000	-0.017	0.281
-713.718	-168.009	0.290	-0.011
-712.704	277.647	0.099	-0.177
-711.689	-169.324	0.040	0.002
-710.675	122.790	-0.066	0.083
-709.660	-176.892	0.314	-0.008
-708.645	103.961	0.124	-0.147
-707.631	-44.965	-0.078	0.039
-706.616	-200.000	-0.076	-0.350
-705.602	372.125	-0.074	-0.152
-704.587	266.624	-0.121	-0.212
-703.572	-200.000	-0.000	-0.014
-702.558	231.607	0.034	0.057
-701.543	-200.000	-0.007	-0.328
-700.529	96.847	-0.241	-0.278
-699.514	800.000	0.105	0.302
-698.499	257.588	-0.042	0.073
-697.485	35.335	0.063	0.056
-696.470	166.919	0.121	0.173
-695.456	106.124	0.040	0.047
-694.441	-61.115	-0.215	-0.091
-693.426	454.193	0.119	-0.266
-692.412	1.900	-0.292	-0.212
-691.397	236.720	-0.112	0.187
-690.383	-22.613	0.051	0.031
-689.368	93.182	-0.262	-0.298
-688.354	60.344	-0.247	-0.246
-687.339	-200.000	0.066	-0.454
-686.324	232.837	0.122	-0.201
-685.310	-37.202	-0.291	-0.157
-684.295	360.962	0.075	-0.152
-683.281	-144.233	-0.320	-0.030
-682.266	-200.000	-0.040	-0.210
-681.251	530.291	-0.088	0.208
-680.237	-94.143	0.258	0.071
-679.222	-79.995	-0.068	-0.023
-678.208	-11.630	0.149	0.098
-677.193	84.210	-0.109	0.120
-676.178	800.000	0.071	0.261
-675.164	800.000	0.131	-0.391
-674.149	-100.641	0.303	-0.075
-673.135	183.486	-0.138	-0.205
-672.120	10.323	-0.067	0.052
-671.105	-197.933	-0.274	0.002
-670.091	-104.390	-0.260	0.061
-669.076	-200.000	0.005	0.090
-668.062	125.373	0.191	-0.242
-667.047	-27.378	0.064	-0.038
-666.032	458.019	0.127	-0.285
-665.018	-145.712	0.264	-0.024
-664.003	44.078	0.287	0.265
-662.989	52.225	-0.085	-0.082
-661.974	-200.000	-0.034	-0.390
-660.959	-126.115	-0.252	-0.038
-659.945	248.896	-0.063	-0.108
-658.930	-29.737	0.367	-0.210
-657.916	-85.531	0.174	-0.054
-656.901	450.383	0.152	-0.338
-655.886	-111.613	-0.399	0.081
-654.872	-10.767	-0.514	0.342
-653.857	-96.077	0.028	-0.008
-652.843	3.020	-0.130	0.095
-651.828	-30.342	0.252	-0.144
-650.814	-73.140	-0.194	-0.072
-649.799	-35.051	-0.193	0.106
-648.784	473.764	-0.049	0.111
-647.770	-128.077	-0.250	0.036
-646.755	-82.767	0.174	-0.057
-645.741	283.458	-0.095	0.172
-644.726	-200.000	0.005	-0.256
-643.711	234.693	-0.065	0.108
-642.697	-79.710	-0.277	0.094
-641.682	-200.000	-0.006	-0.070
-640.668	296.578	-0.109	-0.200
-639.653	-200.000	0.043	0.245
-638.638	-200.000	-0.023	-0.106
-637.624	-28.703	-0.178	0.103
-636.609	-93.390	-0.096	-0.027
-635.595	800.000	-0.131	-0.372
-634.580	278.003	0.076	0.135
-633.565	-62.438	-0.059	0.025
-632.551	-45.870	0.159	0.079
-631.536	-200.000	0.022	0.125
-630.522	-52.058	-0.343	-0.160
-629.507	26.444	0.039	0.033
-628.492	-200.000	0.002	0.130
-627.478	-144.016	-0.279	0.026
-626.463	-200.000	0.002	-0.287
-625.449	36.679	-0.131	0.116
-624.434	-56.538	0.226	0.101
-623.419	244.482	0.044	0.075
-622.405	38.885	-0.100	0.090
-621.390	800.000	0.046	-0.177
-620.376	-125.080	-0.158	0.024
-619.361	-200.000	0.016	0.146
-618.346	207.125	0.149	0.233
-617.332	168.097	0.271	0.387
-616.317	-169.448	0.193	-0.007
-615.303	-78.843	-0.097	0.033
-614.288	800.000	-0.045	-0.143
-613.273	24.704	-0.211	0.175
-612.259	23.460	0.103	0.085
-611.244	7.740	-0.220	-0.165
-610.230	50.058	0.096	-0.091
-609.215	362.308	0.119	-0.240
-608.201	657.406	-0.064	-0.164
-607.186	163.497	0.190	-0.268
-606.171	-159.024	-0.028	-0.002
-605.157	-200.000	0.001	-0.059
-604.142	-128.725	-0.262	0.037
-603.128	-132.197	0.206	-0.027
-602.113	-200.000	0.036	-0.237
-601.098	800.000	0.034	0.142
-600.084	-79.157	0.149	-0.051
-599.069	-200.000	0.014	-0.172
-598.055	255.817	0.139	0.239
-597.040	-200.000	-0.053	0.346
-596.025	-0.888	-0.150	0.106
-595.011	24.838	-0.217	-0.180
-593.996	-33.138	0.076	0.042
-592.982	30.203	0.191	0.164
-591.967	310.655	-0.107	0.201
-590.952	-84.217	0.452	-0.144
-589.938	148.602	0.133	-0.180
-588.923	205.408	0.027	0.042
-587.909	-15.974	0.499	-0.319
-586.894	-200.000	0.042	-0.277
-585.879	253.394	0.173	-0.296
-584.865	99.923	-0.169	-0.196
-583.850	575.756	0.110	0.269
-582.836	-200.000	-0.002	-0.306
-581.821	-116.710	0.231	0.043
-580.806	24.642	0.293	-0.243
-579.792	-200.000	0.010	-0.280
-578.777	-83.531	-0.283	-0.091
-577.763	-200.000	-0.041	-0.353
-576.748	-107.172	0.109	-0.024
-575.733	-200.000	0.001	-0.160
-574.719	-80.019	0.088	-0.029
-573.704	179.076	0.036	-0.052
-572.690	-200.000	-0.036	-0.286
-571.675	190.779	0.142	-0.214
-570.661	161.355	0.204	0.286
-569.646	21.387	-0.381	0.311
-568.631	800.000	0.037	-0.116
-567.617	-148.298	0.198	-0.016
-566.602	-9.815	0.302	-0.201
-565.588	33.888	-0.078	-0.068
-564.573	49.811	0.198	-0.187
-563.558	-200.000	-0.034	0.270
-562.544	800.000	0.096	0.333
-561.529	-76.888	-0.196	-0.069
-560.515	-186.231	0.374	-0.005
-559.500	301.542	-0.037	0.069
-558.485	-104.108	0.431	0.101
-557.471	-200.000	-0.028	0.273
-556.456	125.509	-0.127	-0.161
-555.442	-200.000	0.018	0.312
-554.427	800.000	-0.048	-0.176
-553.412	77.779	-0.412	-0.439
-552.398	149.376	0.087	-0.118
-551.383	-35.240	0.080	0.043
-550.369	158.301	0.076	-0.105
-549.354	152.515	0.027	-0.037
-548.339	-145.014	0.303	-0.028
-547.325	-137.479	0.216	0.025
-546.310	800.000	-0.049	-0.214
-545.296	-128.092	-0.172	0.025
-544.281	29.118	-0.119	0.101
-543.266	170.222	-0.190	0.273
-542.252	-200.000	-0.010	-0.415
-541.237	-148.018	-0.066	0.006
-540.223	-145.920	-0.042	0.004
-539.208	94.179	-0.247	0.281
-538.193	13.928	0.105	-0.081
-537.179	425.785	0.276	-0.596
-536.164	86.905	-0.197	-0.218
-535.150	269.589	0.083	0.146
-534.135	217.269	-0.134	-0.214
-533.121	-200.000	-0.029	-0.176
-532.106	-79.066	0.223	0.076
-531.091	-95.275	-0.226	-0.061
-530.077	20.619	-0.109	-0.088
-529.062	-33.561	-0.188	-0.104
-528.048	26.409	-0.265	0.222
-527.033	446.217	-0.084	-0.185
-526.018	-145.439	0.224	-0.020
-525.004	-13.477	0.183	-0.119
-523.989	-159.204	0.151	0.009
-522.975	-103.057	0.316	-0.075
-521.960	327.266	0.284	0.546
-520.945	213.203	0.129	-0.204
-519.931	-74.384	-0.028	0.010
-518.916	-200.000	0.119	0.548
-517.902	80.618	-0.167	0.180
-516.887	67.084	0.193	-0.196
-515.872	-148.273	0.143	-0.012
-514.858	-200.000	0.004	-0.040
-513.843	-54.259	0.144	0.065
-512.829	-74.802	-0.083	0.030
-511.814	-75.896	0.218	-0.077
-510.799	71.331	-0.176	-0.182
-509.785	91.635	-0.317	0.357
-508.770	355.017	-0.059	0.117
-507.756	800.000	0.019	-0.062
-506.741	-89.971	-0.320	0.094
-505.726	11.005	-0.100	-0.076
-504.712	-154.898	0.088	-0.006
-503.697	-152.785	-0.201	0.014
-502.683	800.000	0.029	0.098
-501.668	-200.000	-0.059	-0.400
-500.653	-109.013	-0.066	-0.014
-499.639	-200.000	0.031	-0.163
-498.624	-200.000	0.004	-0.153
-497.610	-133.189	-0.071	0.009
-496.595	-98.572	0.133	-0.034
-495.581	383.882	-0.070	0.144
-494.566	-72.393	-0.053	0.020
-493.551	-114.369	0.172	-0.033
-492.537	-74.434	0.221	-0.080
-491.522	-91.105	-0.192	-0.055
-490.508	333.863	-0.110	0.213
-489.493	98.042	0.032	-0.037
-488.478	-200.000	-0.011	0.053
-487.464	100.594	-0.300	-0.348
-486.449	-200.000	0.006	-0.104
-485.435	9.697	0.197	-0.150
-484.420	32.579	0.122	-0.105
-483.405	-6.784	-0.221	0.150
-482.391	-108.328	0.203	-0.044
-481.376	-200.000	0.018	-0.232
-480.362	761.409	-0.102	-0.275
-479.347	-200.000	0.016	0.260
-478.332	-54.793	0.250	0.113
-477.318	-200.000	-0.013	0.684
-476.303	94.690	-0.115	0.130
-475.289	48.273	-0.276	-0.258
-474.274	-200.000	-0.068	0.339
-473.259	-200.000	0.025	-0.216
-472.245	-97.942	-0.234	-0.060
-471.230	171.186	-0.013	0.019
-470.216	800.000	0.063	-0.250
-469.201	-200.000	0.003	-0.117
-468.186	800.000	0.056	0.195
-467.172	334.252	0.045	-0.086
-466.157	120.111	-0.162	0.200
-465.143	459.035	-0.164	0.364
-464.128	-75.769	-0.065	-0.023
-463.113	-123.843	0.121	-0.019
-462.099	-200.000	-0.064	0.375
-461.084	236.087	0.172	0.284
-460.070	-200.000	-0.044	-0.215
-459.055	29.924	-0.225	0.191
-458.040	404.703	-0.026	-0.055
-457.026	800.000	0.040	0.169
-456.011	800.000	-0.046	0.146
-454.997	-64.976	0.242	0.098
-453.982	-120.855	0.298	-0.050
-452.968	-10.999	0.067	0.044
-451.953	99.913	-0.117	-0.135
-450.938	-200.000	-0.078	0.369
-449.924	-123.608	0.115	0.018
-448.909	280.964	-0.139	-0.248
-447.895	371.633	-0.056	-0.113
-446.880	-18.121	-0.070	0.044
-445.865	-200.000	0.121	-0.000
-444.851	-150.906	0.138	0.010
-443.836	76.785	0.334	0.353
-442.822	-200.000	0.021	0.270
-441.807	-163.572	0.199	0.009
-440.792	28.957	0.154	0.130
-439.778	-14.155	0.276	0.178
-438.763	22.172	0.047	-0.038
-437.749	195.958	-0.088	0.134
-436.734	-80.180	0.042	-0.014
-435.719	-67.503	0.043	0.017
-434.705	-5.669	0.225	0.154
-433.690	-200.000	0.033	-0.192
-432.676	275.688	-0.229	-0.406
-431.661	411.563	-0.077	-0.163
-430.646	-89.328	-0.300	0.088
-429.632	-50.529	0.129	-0.061
-428.617	-200.000	-0.013	-0.083
-427.603	-48.171	0.290	0.140
-426.588	525.053	0.100	-0.235
-425.573	47.577	0.083	0.077
-424.559	-44.568	-0.075	0.037
-423.544	-27.394	0.241	0.140
-422.530	-165.406	-0.243	0.011
-421.515	69.289	-0.027	-0.028
-420.500	147.059	-0.200	0.268
-419.486	-101.311	0.105	0.026
-418.471	800.000	-0.072	-0.261
-417.457	-200.000	-0.017	0.167
-416.442	218.968	0.067	-0.107
-415.428	-94.055	0.249	-0.068
-414.413	137.243	0.117	0.152
-413.398	800.000	-0.088	-0.323
-412.384	-28.931	-0.422	-0.242
-411.369	-200.000	-0.013	-0.135
-410.355	-17.812	0.087	0.054
-409.340	-97.420	0.181	-0.047
-408.325	7.633	-0.283	-0.211
-407.311	-130.790	-0.352	-0.047
-406.296	271.299	-0.079	0.138
-405.282	649.608	-0.137	0.348
-404.267	800.000	-0.081	-0.238
-403.252	-38.986	-0.339	-0.177
-402.238	-139.479	-0.140	-0.015
-401.223	-114.230	0.354	-0.068
-400.209	-36.993	0.256	-0.136
-399.194	-163.025	-0.407	0.020
-398.179	71.661	-0.145	0.150
-397.165	329.701	-0.090	0.173
-396.150	140.120	0.169	0.222
-395.136	623.465	0.059	-0.147
-394.121	18.699	0.080	0.064
-393.106	648.383	0.113	-0.287
-392.092	-34.137	-0.079	-0.043
-391.077	-80.835	-0.487	0.161
-390.063	-161.682	0.092	-0.005
-389.048	-200.000	-0.013	-0.223
-388.033	-174.169	0.413	-0.012
-387.019	83.248	-0.016	0.017
-386.004	74.367	-0.133	0.139
-384.990	30.920	0.077	0.066
-383.975	211.957	-0.098	0.153
-382.960	-68.369	0.155	0.060
-381.946	76.382	0.291	-0.307
-380.931	-200.000	0.015	0.172
-379.917	661.333	-0.105	0.270
-378.902	-122.675	0.170	0.027
-377.888	90.539	-0.243	0.271
-376.873	-29.492	0.126	0.072
-375.858	436.767	-0.130	-0.281
-374.844	289.063	-0.129	-0.233
-373.829	8.638	-0.175	0.131
-372.815	-38.204	-0.217	0.115
-371.800	-103.545	0.519	-0.121
-370.785	604.284	0.002	-0.005
-369.771	-200.000	0.025	-0.168
-368.756	17.569	0.143	-0.113
-367.742	712.998	-0.071	-0.187
-366.727	800.000	0.083	-0.280
-365.712	-118.529	-0.182	0.032
-364.698	235.252	-0.101	0.166
-363.683	-110.495	-0.078	0.016
-362.669	284.013	-0.101	0.181
-361.654	-10.983	-0.210	0.138
-360.639	-137.342	0.514	-0.058
-359.625	800.000	0.054	-0.171
-358.610	39.688	-0.147	0.131
-357.596	-76.174	-0.104	0.036
-356.581	800.000	0.053	-0.152
-355.566	800.000	-0.099	-0.275
-354.552	775.565	0.114	0.310
-353.537	-63.798	0.207	0.084
-352.523	23.088	-0.413	0.337
-351.508	-200.000	0.032	-0.150
-350.493	62.494	0.280	0.278
-349.479	80.622	0.161	0.172
-348.464	-200.000	-0.028	-0.355
-347.450	438.778	-0.069	0.149
-346.435	-25.309	-0.291	-0.171
-345.420	19.952	0.110	-0.088
-344.406	-184.571	0.620	0.010
-343.391	-174.418	0.128	-0.004
-342.377	77.443	0.235	-0.248
-341.362	-76.005	0.255	0.090
-340.348	-86.097	0.408	0.125
-339.333	800.000	-0.139	-0.473
-338.318	131.366	0.073	0.094
-337.304	94.794	-0.292	-0.330
-336.289	-198.888	0.487	-0.003
-335.275	-14.796	0.153	0.097
-334.260	347.048	0.058	-0.113
-333.245	559.638	0.150	0.361
-332.231	-113.639	-0.238	-0.046
-331.216	147.245	-0.044	-0.059
-330.202	-200.000	0.042	-0.197
-329.187	-139.457	0.040	-0.004
-328.172	480.797	0.100	-0.224
-327.158	-81.683	-0.136	-0.044
-326.143	8.397	0.332	0.248
-325.129	87.546	-0.053	-0.058
-324.114	-109.344	-0.257	0.054
-323.099	195.656	-0.126	-0.190
-322.085	339.159	-0.198	-0.382
-321.070	-126.335	0.052	0.008
-320.056	-100.502	0.228	0.056
-319.041	224.305	0.103	-0.165
-318.026	-54.647	-0.104	-0.047
-317.012	-200.000	-0.009	0.256
-315.997	538.790	-0.071	0.167
-314.983	-69.850	0.160	-0.060
-313.968	177.444	0.089	-0.129
-312.953	-15.986	0.192	-0.121
-311.939	-46.557	0.136	0.066
-310.924	-184.855	0.072	-0.001
-309.910	222.003	0.138	-0.221
-308.895	-77.192	-0.400	0.138
-307.880	30.356	-0.377	0.319
-306.866	-200.000	-0.005	-0.092
-305.851	-125.172	0.209	0.032
-304.837	-200.000	-0.000	0.327
-303.822	-49.601	0.112	-0.053
-302.807	642.197	0.054	-0.136
-301.793	-97.632	0.051	-0.013
-300.778	185.662	-0.101	0.149
-299.764	534.143	-0.190	0.448
-298.749	800.000	-0.117	-0.354
-297.735	118.173	-0.121	-0.148
-296.720	342.249	-0.036	0.071
-295.705	135.699	-0.176	0.227
-294.691	-65.303	0.145	0.058
-293.676	76.536	-0.289	-0.303
-292.662	-114.757	0.113	-0.021
-291.647	-78.002	0.255	-0.087
-290.632	106.884	0.056	0.066
-289.618	800.000	0.037	0.126
-288.603	37.376	-0.360	0.316
-287.589	-144.156	-0.166	-0.015
-286.574	-4.903	-0.293	0.200
-285.559	-37.015	-0.242	-0.128
-284.545	-58.558	-0.210	-0.090
-283.530	800.000	-0.106	0.410
-282.516	55.759	0.238	0.229
-281.501	-106.404	0.210	-0.046
-280.486	-96.377	0.122	-0.032
-279.472	-93.392	-0.256	0.070
-278.457	-106.597	-0.247	0.055
-277.443	58.597	0.102	0.099
-276.428	-200.000	0.044	-0.518
-275.413	-200.000	-0.031	-0.367
-274.399	-196.208	-0.267	0.002
-273.384	-200.000	0.052	0.409
-272.370	284.954	0.065	0.116
-271.355	-25.581	-0.011	-0.006
-270.340	314.667	0.149	0.278
-269.326	800.000	0.073	0.226
-268.311	260.821	-0.108	0.185
-267.297	-85.028	0.083	0.026
-266.282	217.616	0.158	0.250
-265.267	-200.000	-0.024	0.289
-264.253	-132.239	0.141	-0.018
-263.238	800.000	-0.059	-0.230
-262.224	-158.926	0.824	-0.046
-261.209	-67.984	0.026	-0.010
-260.195	529.931	0.075	0.176
-259.180	800.000	0.017	-0.063
-258.165	-150.586	0.427	-0.032
-257.151	404.687	-0.086	-0.180
-256.136	667.944	-0.056	0.145
-255.122	218.632	0.174	0.275
-254.107	654.603	-0.059	-0.150
-253.092	-200.000	0.020	-0.241
-252.078	800.000	-0.041	0.155
-251.063	-85.932	-0.104	0.032
-250.049	-200.000	0.033	0.317
-249.034	800.000	-0.076	-0.248
-248.019	-127.387	-0.083	0.012
-247.005	-41.745	-0.078	-0.040
-245.990	78.593	0.239	-0.252
-244.976	330.327	-0.112	0.214
-243.961	39.622	0.136	0.121
-242.946	146.970	-0.078	0.104
-241.932	-138.692	-0.065	0.007
-240.917	257.475	0.120	-0.204
-239.903	-120.047	0.123	0.021
-238.888	-200.000	-0.004	-0.162
-237.873	-200.000	-0.023	0.197
-236.859	-121.673	-0.233	-0.038
-235.844	-79.850	-0.371	0.124
-234.830	-66.058	-0.425	0.168
-233.815	-200.000	0.015	-0.094
-232.800	5.264	-0.162	0.118
-231.786	-200.000	0.018	0.201
-230.771	-56.215	0.096	-0.042
-229.757	-200.000	-0.003	-0.096
-228.742	754.554	-0.122	-0.327
-227.727	311.164	-0.087	0.161
-226.713	192.799	-0.184	-0.275
-225.698	-109.384	-0.175	0.037
-224.684	800.000	-0.039	0.134
-223.669	-200.000	0.004	0.211
-222.655	-200.000	-0.034	0.215
-221.640	-22.933	-0.187	-0.112
-220.625	107.192	-0.097	0.114
-219.611	-200.000	-0.062	0.333
-218.596	38.689	0.151	-0.133
-217.582	117.006	0.044	0.053
-216.567	189.899	-0.010	-0.014
-215.552	19.713	-0.348	-0.277
-214.538	158.502	-0.189	0.260
-213.523	800.000	0.045	0.171
-212.509	304.230	0.137	0.251
-211.494	-200.000	-0.005	0.158
-210.479	18.161	0.136	0.108
-209.465	-147.022	-0.367	0.031
-208.450	-138.169	-0.463	-0.051
-207.436	739.337	-0.088	-0.233
-206.421	287.593	-0.171	0.306
-205.406	356.317	-0.105	-0.207
-204.392	-124.273	-0.262	-0.040
-203.377	123.254	0.175	-0.216
-202.363	-24.378	-0.220	-0.130
-201.348	-91.627	0.199	-0.056
-200.333	171.968	-0.112	0.159
-199.319	-55.516	0.219	0.097
-198.304	800.000	-0.017	-0.047
-197.290	800.000	0.066	-0.196
-196.275	-151.773	0.274	-0.020
-195.260	329.640	0.090	-0.170
-194.246	-37.402	-0.250	-0.132
-193.231	83.001	-0.022	-0.024
-192.217	-118.658	-0.221	0.039
-191.202	758.443	0.079	-0.211
-190.187	-59.360	-0.029	0.012
-189.173	-200.000	0.008	-0.088
-188.158	-3.456	-0.084	0.057
-187.144	-139.214	-0.235	0.025
-186.129	800.000	0.053	-0.163
-185.114	800.000	-0.073	-0.198
-184.100	-73.257	-0.326	0.118
-183.085	-200.000	-0.024	-0.263
-182.071	14.063	0.186	-0.143
-181.056	-200.000	-0.001	0.048
-180.042	54.036	0.177	0.168
-179.027	412.175	0.071	0.149
-178.012	-145.553	0.381	0.034
-176.998	-91.804	-0.256	-0.072
-175.983	342.784	-0.080	0.155
-174.969	-52.347	0.201	-0.092
-173.954	0.557	0.202	0.142
-172.939	507.264	-0.032	0.074
-171.925	800.000	0.053	0.229
-170.910	-60.456	0.246	0.103
-169.896	-68.352	-0.250	-0.096
-168.881	-27.824	0.137	-0.078
-167.866	-53.450	-0.166	0.075
-166.852	-147.620	-0.026	-0.002
-165.837	76.076	0.125	-0.131
-164.823	-140.002	-0.099	0.010
-163.808	-142.399	0.212	0.021
-162.793	361.263	-0.050	0.099
-161.779	14.452	-0.306	-0.235
-160.764	-200.000	0.028	0.134
-159.750	158.403	0.078	-0.107
-158.735	42.627	-0.119	0.107
-157.720	-90.413	0.065	-0.019
-156.706	-200.000	-0.001	-0.181
-155.691	-200.000	0.027	-0.207
-154.677	800.000	-0.060	0.208
-153.662	-142.824	0.193	-0.019
-152.647	654.028	0.063	0.158
-151.633	-8.337	-0.243	0.161
-150.618	-3.964	-0.147	0.101
-149.604	-28.923	0.181	0.102
-148.589	-200.000	-0.003	-0.187
-147.574	86.685	-0.304	0.330
-146.560	-11.153	0.276	0.179
-145.545	102.750	-0.064	0.074
-144.531	82.053	-0.113	-0.121
-143.516	-200.000	-0.066	-0.288
-142.502	-200.000	-0.030	0.410
-141.487	-40.390	-0.299	-0.153
-140.472	-69.173	0.077	0.029
-139.458	59.472	-0.032	0.031
-138.443	146.713	0.178	-0.236
-137.429	746.918	0.020	-0.054
-136.414	800.000	0.019	-0.059
-135.399	344.478	0.163	0.316
-134.385	110.624	-0.145	0.172
-133.370	-200.000	-0.033	-0.144
-132.356	68.711	-0.240	-0.243
-131.341	99.378	-0.136	0.155
-130.326	127.735	0.041	-0.052
-129.312	18.606	-0.126	-0.099
-128.297	571.216	0.045	-0.107
-127.283	-200.000	0.015	0.088
-126.268	321.286	-0.103	0.192
-125.253	-200.000	0.088	0.384
-124.239	-173.513	-0.182	0.005
-123.224	-91.739	0.231	0.065
-122.210	-66.790	-0.316	-0.123
