DTS Sentinel unit serial number:	SN413079Multiplexer serial number:	ORYXHardware model number:	OX4-SRSoftware version number:	ORYX F/W v4.00 Oryx Data Collector v3.7.2.0data status	okinstallation	princeton_trtdifferential loss correction	single-endedforward channel	channel 1reverse channel	N/Adate	2019/09/14time	00:58:35forward acquisition time	60.00reverse acquisition time	0.00gamma	496.2192k internal	0.2337k external	0.2337temperature offset calibration	1.0080default loss term (dB/km)	0.3790temperature slope calibration	1.0000multiplexer offset coefficient	1.0000multiplexer slope coefficient	1.0000fibre end	0.00T internal ref (°C)	26.37T ext. ref 1 (°C)	3.17T ext. ref 2 (°C)	21.31length (m)	temperature (°C)	Stokes	anti-Stokes-747.200	800.000	-0.052	0.148
-746.185	800.000	0.068	-0.188
-745.171	-152.396	0.407	-0.029
-744.156	-149.453	-0.234	-0.019
-743.142	-200.000	0.034	-0.172
-742.127	-38.704	0.165	0.088
-741.112	461.200	0.082	0.183
-740.098	440.589	0.165	0.363
-739.083	-200.000	-0.005	-0.153
-738.069	345.938	-0.088	-0.173
-737.054	160.677	-0.078	-0.110
-736.039	-200.000	0.032	-0.188
-735.025	-84.703	0.533	0.168
-734.010	-62.669	-0.300	-0.125
-732.996	213.535	-0.193	-0.307
-731.981	-61.745	0.190	0.080
-730.966	800.000	0.055	-0.208
-729.952	566.851	-0.130	-0.317
-728.937	-57.300	0.219	0.097
-727.923	800.000	0.009	-0.030
-726.908	-22.382	0.259	-0.157
-725.894	9.663	0.113	0.086
-724.879	-200.000	-0.017	-0.212
-723.864	49.882	0.147	-0.139
-722.850	-200.000	-0.021	-0.138
-721.835	304.858	-0.030	-0.056
-720.821	-147.662	-0.564	-0.047
-719.806	-158.737	-0.512	0.029
-718.791	337.764	-0.136	-0.266
-717.777	-100.042	0.127	0.032
-716.762	800.000	-0.049	-0.198
-715.748	36.524	0.082	-0.073
-714.733	-200.000	0.082	0.390
-713.718	105.033	0.186	-0.220
-712.704	-111.529	-0.223	-0.045
-711.689	21.475	-0.151	-0.123
-710.675	177.073	0.058	0.085
-709.660	-67.504	-0.354	0.139
-708.645	-167.757	-0.393	0.016
-707.631	-151.707	-0.226	0.017
-706.616	800.000	-0.093	-0.285
-705.602	139.115	-0.238	-0.314
-704.587	-200.000	-0.012	-0.062
-703.572	252.965	0.170	-0.291
-702.558	-141.220	-0.106	0.011
-701.543	-13.546	0.262	0.170
-700.529	372.185	-0.065	-0.133
-699.514	-92.592	-0.127	-0.036
-698.499	-200.000	0.011	0.136
-697.485	-97.830	-0.332	-0.086
-696.470	800.000	-0.008	-0.027
-695.456	800.000	-0.102	0.292
-694.441	27.656	0.040	0.034
-693.426	800.000	-0.063	-0.256
-692.412	-200.000	-0.005	-0.247
-691.397	-200.000	-0.076	-0.594
-690.383	381.915	-0.081	-0.166
-689.368	66.620	0.238	-0.242
-688.354	-108.047	-0.312	0.068
-687.339	-23.162	-0.216	-0.131
-686.324	-200.000	0.002	0.261
-685.310	398.800	0.085	0.179
-684.295	109.022	-0.327	0.392
-683.281	172.100	0.149	-0.214
-682.266	-80.296	-0.107	-0.036
-681.251	-99.857	-0.221	0.055
-680.237	-30.600	-0.177	-0.100
-679.222	96.213	0.279	0.320
-678.208	50.715	0.195	0.185
-677.193	215.418	0.015	-0.025
-676.178	61.386	0.075	-0.074
-675.164	547.165	0.127	0.305
-674.149	-114.716	-0.154	-0.030
-673.135	800.000	0.046	-0.174
-672.120	-120.998	-0.086	0.015
-671.105	-5.666	0.158	0.109
-670.091	-75.957	-0.437	0.155
-669.076	800.000	0.050	0.203
-668.062	-29.541	-0.143	-0.082
-667.047	2.824	0.200	0.145
-666.032	20.966	0.192	-0.156
-665.018	-16.629	-0.165	-0.104
-664.003	800.000	0.053	0.194
-662.989	3.777	0.142	0.103
-661.974	-200.000	-0.027	-0.376
-660.959	-200.000	0.081	-0.435
-659.945	-123.757	0.381	-0.060
-658.930	-46.323	-0.264	0.130
-657.916	-0.733	0.027	-0.019
-656.901	-78.084	0.146	-0.050
-655.886	-129.437	-0.159	-0.022
-654.872	-102.045	-0.245	-0.059
-653.857	-23.975	-0.253	-0.151
-652.843	-200.000	0.037	0.173
-651.828	-57.063	-0.368	0.162
-650.814	199.708	-0.041	-0.063
-649.799	-200.000	-0.020	-0.292
-648.784	800.000	-0.062	-0.200
-647.770	-200.000	-0.056	-0.411
-646.755	-96.431	-0.203	0.054
-645.741	-73.313	0.214	-0.078
-644.726	51.826	-0.078	0.074
-643.711	-163.570	-0.085	-0.004
-642.697	78.525	-0.242	-0.258
-641.682	800.000	0.029	-0.114
-640.668	-62.371	-0.145	-0.060
-639.653	68.249	-0.242	0.248
-638.638	130.471	0.152	0.195
-637.624	-154.263	-0.535	-0.036
-636.609	-17.151	0.117	-0.074
-635.595	-68.583	0.436	-0.169
-634.580	410.946	0.060	-0.128
-633.565	-200.000	0.015	0.077
-632.551	-168.746	-0.081	-0.003
-631.536	-171.453	-0.102	0.003
-630.522	97.749	0.111	0.128
-629.507	-150.266	0.148	-0.011
-628.492	87.742	-0.011	-0.012
-627.478	149.465	0.105	-0.142
-626.463	92.166	0.036	0.040
-625.449	-132.676	-0.255	0.033
-624.434	-157.160	-0.314	-0.019
-623.419	-59.051	0.174	0.075
-622.405	-200.000	-0.006	0.087
-621.390	48.519	-0.050	0.047
-620.376	-84.181	0.172	-0.054
-619.361	-3.593	0.197	0.137
-618.346	117.090	0.195	0.240
-617.332	-111.375	-0.367	0.075
-616.317	-124.506	-0.514	0.080
-615.303	301.803	-0.064	0.119
-614.288	242.380	0.088	-0.146
-613.273	372.510	0.048	0.096
-612.259	800.000	0.045	-0.142
-611.244	800.000	0.112	-0.358
-610.230	-91.988	-0.293	-0.083
-609.215	246.120	0.108	0.182
-608.201	290.069	-0.153	-0.278
-607.186	-200.000	0.017	0.210
-606.171	-200.000	0.041	0.352
-605.157	393.652	-0.203	-0.421
-604.142	-18.386	-0.475	-0.297
-603.128	-2.354	-0.017	-0.012
-602.113	-70.826	0.267	0.100
-601.098	-24.344	-0.077	-0.046
-600.084	-74.555	0.158	-0.057
-599.069	-24.165	-0.148	-0.088
-598.055	-127.525	-0.331	0.048
-597.040	86.789	-0.097	-0.106
-596.025	800.000	0.057	-0.194
-595.011	40.655	-0.319	-0.287
-593.996	-91.885	0.176	-0.050
-592.982	800.000	-0.083	-0.272
-591.967	-80.581	0.172	0.057
-590.952	-113.615	0.489	-0.095
-589.938	85.961	-0.121	-0.133
-588.923	68.770	-0.258	-0.264
-587.909	-33.202	-0.094	0.052
-586.894	-7.584	0.172	-0.116
-585.879	800.000	-0.073	-0.301
-584.865	75.689	-0.193	-0.203
-583.850	-98.941	-0.089	-0.023
-582.836	365.764	0.076	0.153
-581.821	707.935	-0.016	-0.043
-580.806	800.000	-0.165	-0.573
-579.792	-178.736	0.297	-0.007
-578.777	-33.637	-0.222	0.122
-577.763	41.064	-0.096	-0.086
-576.748	-200.000	-0.001	0.282
-575.733	178.997	0.153	0.224
-574.719	142.207	-0.225	-0.297
-573.704	-54.329	0.086	-0.039
-572.690	-200.000	-0.013	-0.184
-571.675	-200.000	0.002	0.085
-570.661	-200.000	0.046	-0.315
-569.646	-9.020	-0.082	-0.055
-568.631	-200.000	-0.013	-0.149
-567.617	256.131	-0.081	-0.139
-566.602	-91.389	0.146	0.042
-565.588	-121.184	-0.215	-0.036
-564.573	172.033	-0.092	-0.132
-563.558	-179.102	-0.175	0.004
-562.544	800.000	-0.117	0.342
-561.529	1.812	-0.077	0.055
-560.515	-150.699	0.207	0.016
-559.500	187.658	0.068	0.101
-558.485	800.000	0.061	-0.227
-557.471	139.052	0.245	-0.321
-556.456	-83.544	-0.081	0.026
-555.442	-118.174	0.207	0.037
-554.427	-49.801	-0.136	0.064
-553.412	-200.000	0.012	0.094
-552.398	142.259	-0.147	0.194
-551.383	-122.174	-0.275	-0.045
-550.369	206.372	0.097	-0.151
-549.354	-130.314	0.249	-0.034
-548.339	-60.935	0.234	0.099
-547.325	-144.117	0.325	0.030
-546.310	188.313	-0.154	0.230
-545.296	-58.707	-0.400	0.173
-544.281	205.757	-0.236	-0.365
-543.266	-160.336	-0.142	0.008
-542.252	-36.521	0.076	-0.041
-541.237	-142.083	-0.212	-0.021
-540.223	46.513	0.081	0.075
-539.208	-126.554	0.179	0.026
-538.193	359.234	0.076	-0.151
-537.179	19.928	0.227	-0.182
-536.164	19.822	0.346	-0.277
-535.150	-200.000	-0.076	-0.360
-534.135	-11.608	-0.166	0.109
-533.121	-36.599	-0.084	0.045
-532.106	-47.130	0.043	0.021
-531.091	157.358	0.205	0.283
-530.077	460.711	0.165	0.365
-529.062	98.628	-0.026	-0.030
-528.048	-200.000	-0.021	0.117
-527.033	50.644	0.158	-0.149
-526.018	-200.000	-0.033	-0.159
-525.004	800.000	0.132	0.430
-523.989	800.000	0.083	0.231
-522.975	-200.000	-0.057	-0.296
-521.960	-200.000	-0.022	0.101
-520.945	17.395	-0.053	0.042
-519.931	1.332	0.460	0.329
-518.916	223.579	0.065	0.105
-517.902	222.276	-0.145	-0.233
-516.887	-106.943	0.304	-0.067
-515.872	-32.938	0.094	-0.052
-514.858	227.025	0.179	-0.290
-513.843	800.000	-0.075	-0.281
-512.829	-29.827	0.336	0.191
-511.814	-63.411	0.102	-0.042
-510.799	400.648	0.138	0.287
-509.785	-51.265	0.180	0.084
-508.770	87.111	0.088	0.097
-507.756	561.226	-0.161	0.387
-506.741	119.584	-0.025	-0.031
-505.726	-30.534	-0.142	0.080
-504.712	27.762	0.111	0.093
-503.697	-148.151	-0.193	-0.016
-502.683	394.930	-0.022	0.045
-501.668	-200.000	0.004	-0.235
-500.653	-52.613	0.328	-0.150
-499.639	523.754	0.114	0.267
-498.624	-44.230	-0.058	0.029
-497.610	-95.356	0.365	-0.098
-496.595	87.010	-0.212	-0.233
-495.581	-200.000	-0.019	-0.249
-494.566	-35.452	0.136	0.073
-493.551	-92.561	0.216	-0.060
-492.537	-200.000	-0.008	0.051
-491.522	-89.247	0.173	-0.051
-490.508	10.372	-0.144	0.109
-489.493	9.327	-0.099	-0.074
-488.478	-200.000	0.002	-0.012
-487.464	13.689	0.044	-0.034
-486.449	431.098	0.112	0.240
-485.435	65.013	0.027	-0.027
-484.420	-61.170	0.054	-0.023
-483.405	232.478	0.152	-0.248
-482.391	-6.497	-0.101	-0.068
-481.376	150.543	0.126	-0.170
-480.362	371.748	-0.042	0.085
-479.347	-200.000	0.013	0.298
-478.332	-79.565	-0.359	0.120
-477.318	-200.000	-0.008	-0.129
-476.303	-200.000	0.015	0.176
-475.289	-200.000	-0.043	0.218
-474.274	-200.000	-0.055	0.590
-473.259	-200.000	-0.032	0.452
-472.245	-77.412	-0.061	0.021
-471.230	-105.603	-0.245	0.055
-470.216	617.498	-0.119	0.297
-469.201	-123.762	-0.126	0.020
-468.186	-200.000	0.003	-0.319
-467.172	-81.696	0.207	0.068
-466.157	-29.944	-0.177	-0.100
-465.143	-200.000	-0.007	-0.045
-464.128	-87.254	0.162	0.049
-463.113	-48.294	-0.269	-0.129
-462.099	343.374	0.077	0.149
-461.084	-11.094	-0.297	0.194
-460.070	800.000	0.047	-0.150
-459.055	172.059	0.116	-0.165
-458.040	164.159	-0.128	-0.179
-457.026	140.337	0.073	-0.095
-456.011	503.859	-0.140	-0.321
-454.997	261.779	-0.048	-0.083
-453.982	-23.779	-0.204	-0.121
-452.968	-20.935	-0.084	0.051
-451.953	-86.626	0.209	0.063
-450.938	-148.058	-0.182	-0.015
-449.924	24.802	0.109	-0.090
-448.909	105.365	-0.215	0.252
-447.895	81.715	0.197	-0.212
-446.880	-130.340	-0.248	0.033
-445.865	800.000	-0.040	-0.167
-444.851	-103.648	-0.184	0.043
-443.836	-200.000	-0.052	0.256
-442.822	-99.217	0.236	-0.059
-441.807	527.378	-0.086	-0.201
-440.792	-154.799	-0.371	-0.024
-439.778	-125.881	0.465	0.069
-438.763	800.000	-0.054	-0.203
-437.749	-193.460	0.150	-0.001
-436.734	-200.000	0.019	-0.582
-435.719	197.724	0.068	0.103
-434.705	324.075	0.263	0.497
-433.690	-200.000	0.018	-0.084
-432.676	-123.274	0.095	0.015
-431.661	-85.514	0.189	-0.058
-430.646	33.408	-0.192	-0.165
-429.632	7.472	0.104	-0.077
-428.617	180.484	-0.032	0.046
-427.603	-0.659	-0.183	0.129
-426.588	32.140	-0.122	-0.104
-425.573	-200.000	-0.032	-0.314
-424.559	-97.349	0.156	-0.040
-423.544	-6.830	-0.077	-0.052
-422.530	729.791	-0.166	0.441
-421.515	544.922	-0.019	-0.046
-420.500	255.071	0.126	0.215
-419.486	-177.429	-0.315	-0.008
-418.471	543.342	-0.110	0.260
-417.457	140.296	-0.105	0.137
-416.442	-87.593	-0.092	-0.027
-415.428	-72.417	0.300	0.110
-414.413	-118.861	-0.172	0.030
-413.398	117.800	0.143	0.174
-412.384	37.250	-0.199	0.175
-411.369	36.207	-0.085	0.074
-410.355	-161.926	-0.068	0.003
-409.340	-200.000	0.018	0.385
-408.325	93.519	0.114	0.128
-407.311	47.577	-0.085	0.078
-406.296	800.000	-0.084	0.349
-405.282	-91.147	0.284	0.081
-404.267	-200.000	0.014	0.419
-403.252	-200.000	-0.052	-0.234
-402.238	76.250	0.254	-0.266
-401.223	78.480	0.225	-0.238
-400.209	-200.000	0.018	0.106
-399.194	800.000	0.099	-0.277
-398.179	255.065	0.131	0.223
-397.165	-200.000	0.025	0.130
-396.150	-128.527	0.329	-0.046
-395.136	-88.101	0.088	0.026
-394.121	121.804	0.052	-0.064
-393.106	-76.474	0.241	0.084
-392.092	800.000	0.063	0.248
-391.077	80.199	-0.116	-0.123
-390.063	-95.668	0.046	0.012
-389.048	-92.279	-0.139	-0.039
-388.033	708.551	0.188	0.493
-387.019	-116.276	-0.064	-0.012
-386.004	-33.860	0.211	-0.115
-384.990	185.337	0.116	-0.171
-383.975	29.828	0.161	-0.136
-382.960	800.000	-0.073	-0.252
-381.946	18.893	-0.144	0.114
-380.931	-200.000	-0.062	0.392
-379.917	-200.000	-0.038	-0.288
-378.902	800.000	0.058	-0.240
-377.888	-87.031	-0.220	0.066
-376.873	-200.000	-0.073	0.322
-375.858	-143.264	-0.308	0.029
-374.844	-95.208	0.087	0.023
-373.829	800.000	0.083	-0.232
-372.815	-200.000	-0.021	-0.175
-371.800	377.922	-0.029	0.059
-370.785	-115.812	-0.315	-0.058
-369.771	-155.243	0.203	0.013
-368.756	-27.880	-0.204	0.117
-367.742	39.705	0.218	0.193
-366.727	203.316	-0.035	-0.054
-365.712	-110.593	0.405	-0.083
-364.698	800.000	-0.073	0.293
-363.683	-200.000	0.018	0.232
-362.669	157.426	-0.146	-0.200
-361.654	-70.553	0.119	0.045
-360.639	474.765	0.010	0.023
-359.625	-15.015	-0.074	0.047
-358.610	-200.000	-0.029	0.276
-357.596	87.927	0.197	0.216
-356.581	683.097	-0.084	-0.218
-355.566	-115.546	-0.179	-0.033
-354.552	272.601	0.121	0.211
-353.537	-123.068	0.274	-0.043
-352.523	97.507	-0.196	0.223
-351.508	157.801	0.133	-0.182
-350.493	-106.816	0.093	0.020
-349.479	-70.243	0.206	-0.077
-348.464	800.000	0.098	-0.305
-347.450	-53.998	-0.262	-0.118
-346.435	142.889	0.133	0.175
-345.420	-200.000	-0.022	0.446
-344.406	-105.901	-0.092	0.021
-343.391	617.872	-0.094	-0.232
-342.377	355.429	0.169	0.332
-341.362	-96.125	0.138	0.036
-340.348	126.721	0.106	-0.133
-339.333	141.013	-0.168	0.220
-338.318	270.231	0.117	-0.203
-337.304	123.273	0.198	-0.245
-336.289	-14.714	0.135	0.086
-335.275	364.700	-0.110	-0.218
-334.260	-200.000	0.003	0.137
-333.245	555.009	0.045	-0.106
-332.231	233.237	-0.148	0.241
-331.216	-200.000	-0.003	-0.063
-330.202	334.531	-0.162	-0.309
-329.187	136.846	0.174	0.224
-328.172	-78.296	-0.174	0.059
-327.158	-98.335	-0.279	0.071
-326.143	35.132	-0.152	-0.132
-325.129	106.553	0.286	0.336
-324.114	-109.399	-0.219	-0.046
-323.099	-160.182	-0.424	-0.023
-322.085	-87.261	0.268	-0.080
-321.070	800.000	0.063	0.196
-320.056	209.111	0.113	-0.175
-319.041	23.007	-0.307	-0.249
-318.026	225.903	0.107	-0.172
-317.012	397.605	-0.036	-0.074
-315.997	82.075	0.047	0.050
-314.983	261.994	0.115	-0.198
-313.968	89.835	0.085	-0.093
-312.953	-89.129	-0.151	0.044
-311.939	141.279	-0.071	0.093
-310.924	236.715	0.164	0.268
-309.910	411.135	0.049	-0.103
-308.895	-111.018	0.142	-0.029
-307.880	-103.066	0.055	0.013
-306.866	-12.474	0.106	0.068
-305.851	567.687	-0.065	0.157
-304.837	-200.000	-0.006	-0.118
-303.822	-49.453	0.216	-0.101
-302.807	-6.384	-0.114	0.077
-301.793	19.133	0.194	-0.154
-300.778	57.151	-0.216	0.208
-299.764	-200.000	0.019	0.150
-298.749	-63.507	-0.309	-0.125
-297.735	-99.748	0.181	0.045
-296.720	126.194	-0.089	-0.111
-295.705	-180.553	0.433	0.009
-294.691	135.038	-0.247	0.316
-293.676	502.645	-0.079	0.180
-292.662	-47.623	0.123	0.059
-291.647	-53.144	0.205	-0.093
-290.632	-61.329	0.249	-0.103
-289.618	122.278	-0.212	-0.261
-288.603	352.082	-0.089	-0.173
-287.589	-82.809	0.200	0.064
-286.574	-200.000	-0.031	-0.204
-285.559	-83.459	0.258	0.082
-284.545	-46.983	0.058	-0.028
-283.530	88.570	-0.110	-0.120
-282.516	115.218	0.203	0.245
-281.501	-157.541	0.054	0.003
-280.486	-200.000	-0.014	-0.068
-279.472	-200.000	-0.022	-0.155
-278.457	-62.958	-0.211	0.086
-277.443	-200.000	0.008	-0.134
-276.428	-147.927	0.318	-0.026
-275.413	-8.863	0.185	0.122
-274.399	-50.559	0.083	0.038
-273.384	508.297	-0.010	0.023
-272.370	-43.992	-0.267	-0.132
-271.355	347.489	-0.074	0.143
-270.340	236.857	0.097	0.158
-269.326	-149.205	-0.119	0.009
-268.311	-200.000	0.021	-0.263
-267.297	51.695	-0.164	0.154
-266.282	368.378	0.068	0.135
-265.267	-22.793	-0.241	0.143
-264.253	122.684	0.259	0.319
-263.238	-98.261	-0.085	0.021
-262.224	177.013	-0.304	0.436
-261.209	86.825	-0.228	0.248
-260.195	-200.000	0.103	-0.496
-259.180	84.158	0.022	-0.024
-258.165	800.000	-0.042	-0.143
-257.151	-48.825	0.110	-0.052
-256.136	215.739	0.185	-0.290
-255.122	190.576	0.170	-0.252
-254.107	-129.357	0.146	0.020
-253.092	338.925	0.106	0.203
-252.078	32.574	0.101	-0.086
-251.063	-104.992	-0.447	0.101
-250.049	298.734	0.113	0.205
-249.034	61.887	0.178	-0.174
-248.019	106.583	0.157	0.183
-247.005	-74.140	0.175	-0.062
-245.990	-92.973	-0.325	-0.089
-244.976	-200.000	0.048	0.322
-243.961	-200.000	-0.000	-0.127
-242.946	205.884	-0.063	0.097
-241.932	374.306	-0.088	0.176
-240.917	-200.000	0.045	0.515
-239.903	99.497	0.194	-0.221
-238.888	12.149	0.136	0.103
-237.873	112.697	0.039	-0.047
-236.859	477.816	-0.040	0.088
-235.844	17.515	0.267	-0.208
-234.830	13.551	-0.188	-0.144
-233.815	129.314	-0.036	-0.045
-232.800	-56.999	-0.300	0.130
-231.786	-200.000	-0.001	0.016
-230.771	105.650	-0.205	-0.239
-229.757	5.991	-0.121	-0.088
-228.742	-200.000	-0.076	-0.331
-227.727	800.000	-0.096	0.287
-226.713	-127.078	0.168	-0.024
-225.698	-200.000	0.064	-0.311
-224.684	-200.000	-0.023	-0.211
-223.669	-8.951	-0.086	0.056
-222.655	-72.317	-0.109	-0.040
-221.640	-101.149	0.145	0.035
-220.625	800.000	0.138	-0.384
-219.611	-117.450	-0.408	-0.073
-218.596	508.959	0.071	-0.163
-217.582	-155.181	-0.224	-0.014
-216.567	-168.265	0.026	-0.001
-215.552	800.000	0.068	-0.188
-214.538	-59.667	0.167	-0.071
-213.523	-112.560	0.168	0.033
-212.509	-86.346	-0.218	0.066
-211.494	88.534	-0.044	-0.048
-210.479	-200.000	0.015	-0.243
-209.465	-112.374	0.266	-0.052
-208.450	457.694	-0.094	0.205
-207.436	-56.369	-0.399	-0.174
-206.421	800.000	-0.029	0.105
-205.406	-20.969	-0.171	0.103
-204.392	61.457	0.156	-0.152
-203.377	323.715	-0.135	0.253
-202.363	800.000	-0.053	0.145
-201.348	-200.000	0.017	-0.143
-200.333	-90.140	-0.558	0.160
-199.319	143.284	-0.078	0.102
-198.304	800.000	-0.058	0.211
-197.290	-200.000	-0.009	-0.218
-196.275	-200.000	0.008	-0.076
-195.260	127.015	0.113	-0.141
-194.246	0.707	-0.163	-0.115
-193.231	-200.000	0.385	-0.001
-192.217	-198.583	0.205	-0.001
-191.202	-172.528	0.473	-0.015
-190.187	-200.000	-0.016	-0.081
-189.173	-118.707	0.203	0.035
-188.158	-97.547	0.229	-0.058
-187.144	-85.858	-0.086	0.026
-186.129	-76.491	0.166	0.057
-185.114	-155.231	0.218	0.014
-184.100	-135.569	-0.096	-0.011
-183.085	372.316	0.077	0.154
-182.071	83.491	-0.154	-0.165
-181.056	800.000	-0.074	-0.309
-180.042	281.561	0.187	0.329
-179.027	-105.380	-0.495	0.111
-178.012	210.132	0.204	0.314
-176.998	-200.000	0.011	0.140
-175.983	-200.000	0.013	-0.085
-174.969	222.377	0.175	0.277
-173.954	360.881	-0.120	-0.236
-172.939	-101.492	-0.293	0.070
-171.925	-5.368	-0.211	0.142
-170.910	800.000	0.051	0.149
-169.896	-143.906	-0.198	-0.018
-168.881	593.692	0.010	-0.023
-167.866	152.084	0.061	-0.082
-166.852	604.145	0.163	0.398
-165.837	-27.752	-0.046	0.026
-164.823	800.000	0.091	0.258
-163.808	-97.040	-0.396	-0.102
-162.793	-200.000	0.065	0.341
-161.779	-200.000	0.006	0.134
-160.764	-200.000	-0.061	-0.457
-159.750	39.870	0.148	-0.130
-158.735	678.031	-0.058	-0.148
-157.720	-156.455	-0.122	0.007
-156.706	-64.923	0.192	-0.076
-155.691	-200.000	-0.038	0.462
-154.677	-91.045	-0.175	0.049
-153.662	-143.173	0.123	0.012
-152.647	-33.921	-0.223	0.120
-151.633	58.477	-0.065	0.063
-150.618	114.035	-0.152	-0.181
-149.604	66.920	0.130	0.130
-148.589	800.000	-0.060	-0.228
-147.574	85.989	0.085	-0.092
-146.560	360.297	0.302	0.593
-145.545	21.901	0.251	-0.200
-144.531	-189.885	0.308	0.003
-143.516	-200.000	0.003	-0.056
-142.502	-35.758	-0.129	-0.068
-141.487	83.172	-0.310	-0.331
-140.472	-122.956	-0.201	-0.032
-139.458	356.211	-0.034	-0.067
-138.443	-162.505	-0.426	-0.021
-137.429	500.496	0.056	0.127
-136.414	800.000	0.045	-0.132
-135.399	11.349	-0.250	-0.187
-134.385	437.987	0.060	0.128
-133.370	-84.558	-0.346	0.107
-132.356	50.537	0.007	0.006
-131.341	305.192	0.142	-0.259
-130.326	800.000	0.034	0.107
-129.312	-161.823	-0.207	0.010
-128.297	-145.199	0.094	0.008
-127.283	70.938	-0.262	-0.266
-126.268	46.260	0.188	0.171
-125.253	-200.000	-0.033	0.307
-124.239	348.531	-0.061	0.117
-123.224	27.319	-0.381	-0.313
-122.210	212.982	0.062	0.096
