DTS Sentinel unit serial number:	SN413079Multiplexer serial number:	ORYXHardware model number:	OX4-SRSoftware version number:	ORYX F/W v4.00 Oryx Data Collector v3.7.2.0data status	okinstallation	princeton_trtdifferential loss correction	single-endedforward channel	channel 1reverse channel	N/Adate	2019/09/14time	09:02:35forward acquisition time	60.00reverse acquisition time	0.00gamma	496.2192k internal	0.2325k external	0.2325temperature offset calibration	1.0064default loss term (dB/km)	0.3790temperature slope calibration	1.0000multiplexer offset coefficient	1.0000multiplexer slope coefficient	1.0000fibre end	0.00T internal ref (°C)	30.06T ext. ref 1 (°C)	3.74T ext. ref 2 (°C)	28.40length (m)	temperature (°C)	Stokes	anti-Stokes-747.200	-142.911	0.167	-0.016
-746.185	-28.379	-0.048	0.028
-745.171	-200.000	0.030	0.241
-744.156	-112.900	-0.178	0.036
-743.142	97.424	0.064	0.074
-742.127	109.851	0.118	0.143
-741.112	-166.950	0.306	-0.013
-740.098	-108.719	-0.275	0.060
-739.083	-59.101	0.266	0.116
-738.069	55.476	-0.247	0.241
-737.054	795.244	-0.081	-0.225
-736.039	81.034	-0.339	-0.369
-735.025	201.936	0.246	0.383
-734.010	-200.000	-0.027	-0.322
-732.996	276.062	0.265	-0.475
-731.981	755.420	-0.188	0.511
-730.966	-200.000	-0.013	0.257
-729.952	45.702	-0.335	-0.312
-728.937	-103.760	0.128	-0.030
-727.923	-200.000	-0.021	0.208
-726.908	130.162	0.071	0.092
-725.894	-172.521	-0.111	-0.004
-724.879	800.000	0.070	-0.280
-723.864	-69.986	-0.139	-0.053
-722.850	2.026	-0.345	-0.251
-721.835	-55.953	0.393	-0.177
-720.821	37.551	0.089	-0.080
-719.806	-70.467	0.175	-0.067
-718.791	-200.000	0.005	0.051
-717.777	-96.768	0.260	-0.069
-716.762	-95.593	-0.191	-0.052
-715.748	-200.000	-0.011	-0.092
-714.733	-101.617	-0.104	0.026
-713.718	-116.156	-0.236	-0.044
-712.704	101.148	-0.247	-0.290
-711.689	-97.176	-0.093	-0.024
-710.675	-93.910	-0.606	-0.168
-709.660	-200.000	-0.067	-0.309
-708.645	257.209	0.121	-0.210
-707.631	176.088	-0.101	-0.148
-706.616	-1.673	-0.240	0.171
-705.602	81.497	-0.154	0.168
-704.587	-135.960	-0.322	-0.038
-703.572	441.839	-0.048	-0.105
-702.558	-0.396	0.261	0.187
-701.543	-200.000	0.024	0.153
-700.529	-140.143	-0.045	0.005
-699.514	325.516	-0.070	0.136
-698.499	270.598	0.109	0.192
-697.485	74.502	0.132	-0.140
-696.470	-200.000	0.079	-0.439
-695.456	-200.000	0.016	-0.195
-694.441	307.527	0.099	-0.186
-693.426	800.000	-0.062	0.206
-692.412	68.332	-0.304	-0.313
-691.397	256.367	-0.117	-0.203
-690.383	-151.764	0.149	-0.011
-689.368	-74.146	0.071	0.026
-688.354	-161.148	0.351	-0.018
-687.339	179.890	0.042	0.062
-686.324	-16.064	0.057	-0.037
-685.310	800.000	-0.050	0.174
-684.295	800.000	-0.058	-0.241
-683.281	45.219	0.063	-0.058
-682.266	-57.080	-0.125	-0.056
-681.251	94.959	-0.109	-0.124
-680.237	97.033	-0.151	-0.174
-679.222	247.258	-0.157	0.267
-678.208	-139.870	0.149	-0.016
-677.193	-200.000	-0.051	0.261
-676.178	-200.000	-0.006	0.081
-675.164	-200.000	-0.032	-0.168
-674.149	-200.000	-0.000	0.013
-673.135	241.057	-0.181	0.304
-672.120	183.561	0.141	-0.210
-671.105	101.025	0.333	0.389
-670.091	-200.000	0.026	0.137
-669.076	-200.000	-0.074	0.343
-668.062	430.111	0.127	0.276
-667.047	-11.651	0.379	-0.250
-666.032	421.470	0.162	0.350
-665.018	36.963	0.280	-0.249
-664.003	-200.000	0.020	-0.089
-662.989	-119.518	-0.245	-0.043
-661.974	69.099	0.205	-0.212
-660.959	-200.000	-0.010	0.179
-659.945	-200.000	-0.005	-0.282
-658.930	-97.062	-0.206	0.054
-657.916	-13.144	-0.166	-0.109
-656.901	343.215	-0.112	0.220
-655.886	182.228	0.087	0.129
-654.872	-200.000	-0.017	0.086
-653.857	129.877	-0.013	-0.017
-652.843	800.000	-0.119	0.346
-651.828	59.723	-0.067	0.066
-650.814	206.558	-0.093	0.145
-649.799	65.806	0.005	-0.005
-648.784	-26.704	-0.149	0.088
-647.770	-73.212	-0.360	-0.132
-646.755	-44.266	-0.325	0.164
-645.741	-5.983	0.222	0.153
-644.726	800.000	0.033	0.119
-643.711	-123.303	-0.114	0.018
-642.697	-200.000	-0.012	-0.171
-641.682	37.324	-0.114	-0.102
-640.668	167.219	-0.011	-0.016
-639.653	-144.245	0.179	0.017
-638.638	-200.000	0.023	0.145
-637.624	-15.292	-0.278	0.178
-636.609	-200.000	-0.017	0.084
-635.595	-200.000	-0.009	-0.243
-634.580	249.038	-0.222	0.378
-633.565	-60.626	-0.107	0.046
-632.551	375.761	0.086	0.176
-631.536	-96.674	0.233	0.062
-630.522	-200.000	0.016	-0.124
-629.507	-13.089	0.150	-0.098
-628.492	37.342	-0.137	-0.122
-627.478	67.698	0.150	0.154
-626.463	92.342	-0.091	0.103
-625.449	-200.000	-0.008	0.073
-624.434	-52.963	0.163	0.075
-623.419	-93.952	0.070	-0.019
-622.405	122.105	0.196	-0.246
-621.390	19.795	0.147	-0.119
-620.376	-59.850	0.391	0.168
-619.361	345.649	0.152	-0.300
-618.346	248.112	-0.006	-0.011
-617.332	-125.660	0.360	-0.055
-616.317	-131.987	-0.285	0.037
-615.303	800.000	0.048	0.159
-614.288	-44.005	0.190	-0.096
-613.273	800.000	0.030	-0.100
-612.259	57.271	-0.091	-0.090
-611.244	444.985	0.168	0.371
-610.230	-98.160	0.255	-0.066
-609.215	-33.250	-0.241	0.134
-608.201	-54.967	0.266	0.121
-607.186	60.577	0.282	-0.280
-606.171	152.601	-0.345	-0.473
-605.157	-104.125	-0.226	0.053
-604.142	-157.459	-0.497	0.030
-603.128	290.203	-0.118	0.214
-602.113	-74.765	-0.472	0.170
-601.098	254.832	-0.090	0.154
-600.084	30.691	-0.208	0.179
-599.069	64.752	-0.179	-0.181
-598.055	-200.000	0.056	-0.250
-597.040	-16.316	0.240	-0.153
-596.025	-200.000	0.025	0.188
-595.011	106.330	0.134	0.159
-593.996	60.081	0.211	0.209
-592.982	207.256	-0.251	-0.393
-591.967	138.489	0.217	0.285
-590.952	-21.275	0.187	-0.114
-589.938	-70.699	-0.269	-0.102
-588.923	-200.000	0.010	-0.073
-587.909	-200.000	-0.009	-0.122
-586.894	272.831	0.196	-0.347
-585.879	-72.105	-0.240	-0.089
-584.865	285.220	-0.102	0.184
-583.850	16.186	0.073	-0.058
-582.836	-61.126	-0.101	-0.043
-581.821	-113.440	-0.263	0.052
-580.806	-200.000	0.010	-0.114
-579.792	-200.000	0.048	0.269
-578.777	800.000	0.020	-0.058
-577.763	800.000	0.049	-0.185
-576.748	800.000	0.100	-0.318
-575.733	-97.230	-0.170	-0.045
-574.719	800.000	0.061	0.231
-573.704	-17.048	-0.176	-0.111
-572.690	-200.000	0.073	-0.509
-571.675	-117.117	-0.296	0.054
-570.661	-146.297	-0.208	-0.018
-569.646	555.448	-0.134	0.323
-568.631	-115.522	-0.426	0.080
-567.617	90.868	-0.112	0.125
-566.602	27.400	-0.226	-0.190
-565.588	800.000	0.081	0.275
-564.573	-36.202	-0.171	-0.092
-563.558	268.005	0.083	-0.146
-562.544	-6.586	-0.234	0.160
-561.529	-17.520	0.258	0.163
-560.515	-200.000	-0.001	0.146
-559.500	-200.000	-0.043	0.206
-558.485	329.593	0.066	-0.128
-557.471	-79.692	0.085	-0.029
-556.456	0.696	-0.264	0.189
-555.442	-200.000	0.039	-0.204
-554.427	800.000	0.013	-0.036
-553.412	218.132	0.136	0.218
-552.398	-200.000	-0.019	0.273
-551.383	86.451	-0.202	-0.223
-550.369	-200.000	-0.031	0.320
-549.354	-200.000	0.029	0.133
-548.339	-200.000	0.016	-0.090
-547.325	-76.245	-0.225	-0.080
-546.310	-153.267	-0.486	-0.034
-545.296	-143.781	0.188	0.018
-544.281	52.204	0.164	-0.156
-543.266	350.765	-0.223	-0.441
-542.252	-91.858	0.263	-0.075
-541.237	42.520	0.110	0.100
-540.223	-16.137	0.425	-0.270
-539.208	-86.112	-0.159	-0.049
-538.193	139.460	0.179	0.236
-537.179	10.258	-0.188	-0.143
-536.164	744.562	-0.084	-0.227
-535.150	-13.698	0.231	-0.150
-534.135	-19.424	0.361	0.224
-533.121	-110.845	0.267	0.055
-532.106	-134.738	-0.509	-0.062
-531.091	206.844	0.178	0.278
-530.077	-29.229	-0.238	0.137
-529.062	395.353	0.106	0.222
-528.048	134.160	-0.050	-0.065
-527.033	-32.964	-0.048	0.027
-526.018	-200.000	-0.002	-0.132
-525.004	-76.891	-0.275	0.096
-523.989	-69.197	-0.388	-0.149
-522.975	632.989	0.119	-0.303
-521.960	-200.000	-0.013	0.134
-520.945	-62.651	-0.071	0.029
-519.931	800.000	0.008	-0.026
-518.916	275.066	-0.020	0.035
-517.902	764.899	-0.174	0.473
-516.887	186.448	0.195	-0.291
-515.872	180.876	-0.127	0.187
-514.858	210.021	0.047	-0.073
-513.843	8.462	-0.067	-0.051
-512.829	-49.824	0.125	0.059
-511.814	434.331	-0.065	0.142
-510.799	285.481	-0.012	-0.022
-509.785	-37.909	0.152	0.081
-508.770	-27.930	-0.140	0.081
-507.756	-200.000	-0.036	0.389
-506.741	97.000	0.160	-0.183
-505.726	-200.000	0.003	-0.063
-504.712	124.722	0.105	-0.132
-503.697	-100.626	-0.195	-0.048
-502.683	-200.000	0.023	0.231
-501.668	622.827	0.182	-0.457
-500.653	11.509	0.174	-0.133
-499.639	92.439	-0.148	-0.167
-498.624	4.073	0.195	-0.143
-497.610	34.422	0.117	-0.102
-496.595	157.613	0.039	-0.054
-495.581	-37.490	0.121	-0.064
-494.566	-200.000	0.003	0.106
-493.551	161.635	0.047	0.066
-492.537	-11.636	0.202	-0.133
-491.522	73.971	-0.295	0.309
-490.508	-186.921	-0.108	0.001
-489.493	-117.848	0.328	0.059
-488.478	-200.000	-0.014	-0.119
-487.464	-77.522	-0.119	0.041
-486.449	118.874	0.271	-0.334
-485.435	77.069	-0.115	0.122
-484.420	-86.010	0.080	-0.025
-483.405	-34.524	0.284	0.155
-482.391	-106.824	0.019	-0.004
-481.376	800.000	0.024	0.099
-480.362	282.475	0.090	-0.160
-479.347	26.101	-0.349	-0.290
-478.332	349.548	-0.100	0.197
-477.318	148.057	0.183	0.246
-476.303	-200.000	0.016	-0.092
-475.289	-115.482	-0.284	-0.053
-474.274	-23.981	0.169	-0.101
-473.259	-111.152	0.288	-0.059
-472.245	-52.557	0.152	-0.070
-471.230	-182.923	0.391	-0.007
-470.216	800.000	0.032	-0.112
-469.201	-11.894	-0.351	0.230
-468.186	-47.660	0.140	-0.068
-467.172	-170.983	0.340	0.012
-466.157	55.520	0.098	0.095
-465.143	-27.118	-0.239	0.139
-464.128	-2.266	0.125	0.087
-463.113	307.843	0.118	0.219
-462.099	33.561	-0.069	-0.060
-461.084	-57.575	-0.181	-0.079
-460.070	112.205	0.225	0.271
-459.055	-21.616	0.209	-0.127
-458.040	-49.116	-0.149	-0.071
-457.026	-161.513	0.292	-0.015
-456.011	-114.649	-0.223	0.043
-454.997	-31.058	-0.255	-0.143
-453.982	69.947	0.197	-0.202
-452.968	-22.410	0.282	-0.170
-451.953	-200.000	-0.029	-0.258
-450.938	135.515	0.139	-0.181
-449.924	310.819	0.064	0.120
-448.909	-65.757	0.288	-0.115
-447.895	177.314	-0.083	-0.121
-446.880	-200.000	0.017	-0.169
-445.865	-10.790	-0.114	-0.075
-444.851	-96.956	-0.186	0.049
-443.836	-10.337	0.015	0.010
-442.822	565.636	0.043	-0.103
-441.807	117.897	0.179	-0.220
-440.792	-200.000	0.013	0.097
-439.778	-125.616	0.144	-0.022
-438.763	-130.411	-0.464	-0.063
-437.749	-53.341	0.287	-0.131
-436.734	-10.427	0.191	0.126
-435.719	458.136	-0.058	-0.128
-434.705	-52.429	0.271	0.125
-433.690	519.276	-0.036	-0.085
-432.676	-65.030	0.092	0.037
-431.661	-40.605	-0.196	0.101
-430.646	-200.000	-0.021	-0.223
-429.632	132.713	-0.145	0.187
-428.617	-130.704	-0.063	0.008
-427.603	-86.582	-0.061	0.019
-426.588	194.270	-0.082	0.124
-425.573	-200.000	0.079	-0.511
-424.559	-17.130	-0.151	-0.095
-423.544	486.447	-0.098	0.222
-422.530	-200.000	-0.065	0.422
-421.515	25.899	0.323	0.269
-420.500	46.641	0.234	-0.216
-419.486	28.548	-0.140	-0.118
-418.471	-95.474	-0.205	-0.055
-417.457	-8.136	0.054	-0.036
-416.442	-26.057	-0.127	0.075
-415.428	645.898	-0.067	-0.171
-414.413	-119.574	-0.158	0.027
-413.398	-169.005	0.059	-0.002
-412.384	-29.395	0.165	0.094
-411.369	-146.416	-0.362	-0.031
-410.355	800.000	0.034	-0.124
-409.340	800.000	0.058	0.241
-408.325	-158.927	-0.312	0.018
-407.311	-155.275	0.121	-0.008
-406.296	113.183	0.124	0.150
-405.282	-200.000	-0.000	-0.033
-404.267	-90.106	0.328	-0.095
-403.252	-200.000	-0.026	0.263
-402.238	-119.908	0.139	-0.024
-401.223	-49.451	-0.168	-0.080
-400.209	161.699	0.097	-0.135
-399.194	-30.141	-0.161	0.091
-398.179	-200.000	-0.018	0.187
-397.165	-200.000	0.039	0.288
-396.150	-200.000	-0.017	0.157
-395.136	-200.000	0.018	0.165
-394.121	-200.000	0.017	-0.099
-393.106	-13.004	0.299	-0.194
-392.092	-200.000	0.015	-0.309
-391.077	151.130	0.189	-0.255
-390.063	-157.800	0.306	0.018
-389.048	-131.486	-0.123	-0.016
-388.033	-81.217	-0.163	0.054
-387.019	572.210	-0.113	0.274
-386.004	560.803	-0.074	-0.178
-384.990	-65.123	-0.342	-0.137
-383.975	-150.479	0.461	0.035
-382.960	142.775	0.247	-0.327
-381.946	132.262	0.132	-0.169
-380.931	158.700	0.226	-0.312
-379.917	-34.462	-0.096	0.052
-378.902	481.575	0.233	0.526
-377.888	-132.069	-0.281	0.036
-376.873	-90.789	0.203	0.058
-375.858	-15.387	0.138	-0.088
-374.844	130.251	-0.171	0.217
-373.829	418.733	0.054	0.114
-372.815	800.000	-0.030	0.094
-371.800	18.097	0.181	0.143
-370.785	-200.000	-0.041	-0.287
-369.771	-162.419	0.304	-0.015
-368.756	-200.000	-0.022	-0.153
-367.742	263.083	-0.222	-0.383
-366.727	112.186	0.153	-0.183
-365.712	54.096	-0.286	0.273
-364.698	-182.768	-0.040	-0.001
-363.683	29.538	-0.060	-0.051
-362.669	127.458	-0.087	-0.110
-361.654	23.481	-0.232	0.190
-360.639	-13.595	0.147	-0.095
-359.625	800.000	0.091	-0.270
-358.610	-200.000	-0.007	-0.195
-357.596	-15.282	-0.218	-0.138
-356.581	174.131	-0.051	-0.073
-355.566	-109.027	0.187	-0.040
-354.552	800.000	-0.043	-0.170
-353.537	129.420	-0.120	-0.152
-352.523	447.567	-0.061	-0.134
-351.508	-134.059	0.067	-0.008
-350.493	-73.539	-0.117	0.042
-349.479	-35.675	0.018	0.010
-348.464	159.034	0.114	-0.157
-347.450	-107.428	-0.073	0.016
-346.435	225.967	-0.212	-0.341
-345.420	-91.522	-0.106	-0.030
-344.406	64.339	0.334	0.334
-343.391	-200.000	0.037	0.269
-342.377	24.354	0.212	0.174
-341.362	-81.322	0.058	0.019
-340.348	-148.384	-0.153	0.012
-339.333	-200.000	-0.011	0.397
-338.318	-84.225	0.184	0.058
-337.304	180.107	-0.129	0.187
-336.289	-200.000	0.076	0.435
-335.275	157.699	0.155	0.213
-334.260	-200.000	-0.016	-0.148
-333.245	800.000	0.070	0.194
-332.231	407.790	-0.079	-0.166
-331.216	-37.750	0.101	-0.053
-330.202	380.800	-0.065	0.133
-329.187	177.627	-0.119	-0.171
-328.172	800.000	-0.049	0.169
-327.158	-103.869	-0.152	0.035
-326.143	-39.246	-0.062	0.032
-325.129	-7.505	0.158	0.106
-324.114	1.847	0.047	-0.034
-323.099	23.183	0.301	0.245
-322.085	-106.940	-0.261	-0.057
-321.070	800.000	-0.071	-0.290
-320.056	-96.723	-0.227	0.059
-319.041	0.685	0.198	0.141
-318.026	-180.098	0.141	-0.003
-317.012	-22.188	-0.304	-0.183
-315.997	-125.058	0.128	-0.020
-314.983	68.353	-0.183	0.186
-313.968	-50.906	0.136	0.064
-312.953	-200.000	0.035	0.177
-311.939	-126.707	-0.203	0.030
-310.924	-51.539	-0.254	-0.118
-309.910	70.323	0.105	0.108
-308.895	-200.000	-0.061	0.357
-307.880	-119.301	-0.061	-0.011
-306.866	-72.751	-0.235	-0.086
-305.851	-57.887	-0.356	0.154
-304.837	166.458	-0.011	0.015
-303.822	800.000	-0.043	0.125
-302.807	211.830	-0.077	0.121
-301.793	650.413	-0.051	0.129
-300.778	-108.180	-0.279	-0.060
-299.764	-86.381	0.192	-0.059
-298.749	107.883	-0.100	0.118
-297.735	101.362	-0.223	-0.257
-296.720	-167.269	0.140	0.006
-295.705	88.481	0.042	-0.046
-294.691	-129.236	-0.134	-0.019
-293.676	-200.000	0.055	-0.342
-292.662	20.684	0.271	-0.217
-291.647	38.534	-0.144	0.127
-290.632	57.042	-0.095	0.092
-289.618	-8.700	-0.171	0.114
-288.603	-56.517	-0.249	0.109
-287.589	800.000	0.026	-0.087
-286.574	800.000	0.071	0.221
-285.559	-200.000	-0.012	0.274
-284.545	-200.000	-0.026	-0.179
-283.530	200.027	-0.022	-0.033
-282.516	-97.968	-0.100	-0.026
-281.501	340.980	0.016	0.030
-280.486	1.210	-0.160	-0.114
-279.472	-183.174	0.237	-0.004
-278.457	-49.935	0.083	0.039
-277.443	183.668	0.123	0.180
-276.428	29.780	0.172	-0.145
-275.413	89.406	-0.066	-0.073
-274.399	6.595	0.142	0.104
-273.384	-182.626	-0.278	-0.005
-272.370	-200.000	0.019	-0.158
-271.355	328.646	0.047	0.089
-270.340	-200.000	-0.028	-0.252
-269.326	378.298	-0.110	0.222
-268.311	-200.000	-0.044	-0.249
-267.297	-91.248	0.552	0.156
-266.282	-16.622	0.320	-0.201
-265.267	-193.513	0.155	-0.001
-264.253	43.650	0.075	0.068
-263.238	800.000	-0.104	0.358
-262.224	-134.889	-0.440	0.053
-261.209	800.000	0.034	-0.130
-260.195	-200.000	-0.031	-0.309
-259.180	-92.550	0.040	-0.011
-258.165	28.846	-0.147	0.123
-257.151	-83.522	-0.192	0.061
-256.136	799.699	-0.029	-0.080
-255.122	178.207	0.110	-0.159
-254.107	-200.000	0.014	0.210
-253.092	800.000	-0.060	0.201
-252.078	-185.706	0.131	-0.002
-251.063	309.121	0.094	0.174
-250.049	-200.000	-0.003	-0.039
-249.034	-148.371	-0.440	0.036
-248.019	36.535	0.232	-0.203
-247.005	-110.384	0.308	-0.063
-245.990	800.000	0.011	0.042
-244.976	763.466	0.040	0.107
-243.961	-110.267	0.232	-0.048
-242.946	-200.000	-0.186	-0.000
-241.932	112.224	0.062	0.075
-240.917	-187.207	-0.329	-0.004
-239.903	-31.096	0.322	-0.180
-238.888	-139.887	0.139	-0.015
-237.873	-6.687	-0.025	-0.017
-236.859	54.675	-0.268	0.256
-235.844	-200.000	-0.007	0.034
-234.830	-34.532	0.142	0.077
-233.815	-200.000	-0.016	-0.264
-232.800	85.178	-0.282	-0.306
-231.786	-128.642	-0.091	0.013
-230.771	311.599	-0.116	0.215
-229.757	12.363	-0.124	0.095
-228.742	-200.000	-0.019	0.165
-227.727	-144.878	0.176	-0.016
-226.713	54.907	-0.103	-0.098
-225.698	-200.000	0.021	-0.194
-224.684	-171.021	0.097	-0.003
-223.669	-42.577	0.229	-0.115
-222.655	73.120	0.193	-0.200
-221.640	800.000	-0.068	-0.273
-220.625	-200.000	0.014	0.294
-219.611	-35.298	0.187	-0.100
-218.596	-113.731	0.076	0.015
-217.582	-172.935	-0.165	-0.005
-216.567	-94.563	-0.267	0.072
-215.552	-19.015	0.228	-0.140
-214.538	-95.721	-0.097	-0.026
-213.523	576.621	-0.060	0.144
-212.509	152.381	0.090	0.121
-211.494	-200.000	0.009	0.260
-210.479	-200.000	0.038	-0.251
-209.465	15.054	-0.218	-0.169
-208.450	-139.749	-0.465	-0.049
-207.436	-200.000	-0.008	0.203
-206.421	245.806	-0.179	-0.298
-205.406	-97.030	0.159	0.041
-204.392	75.761	-0.097	0.101
-203.377	-127.913	-0.112	0.016
-202.363	-94.014	0.322	0.087
-201.348	93.595	-0.159	-0.177
-200.333	-21.585	-0.241	0.145
-199.319	337.898	-0.214	0.412
-198.304	262.789	0.123	0.210
-197.290	-45.064	0.066	0.032
-196.275	-183.460	-0.493	-0.008
-195.260	-118.164	0.206	-0.036
-194.246	-118.805	0.431	0.075
-193.231	-44.956	0.257	0.126
-192.217	-118.850	0.205	0.036
-191.202	112.722	-0.064	-0.077
-190.187	-42.494	0.457	0.230
-189.173	-63.594	0.249	0.101
-188.158	-108.750	0.330	0.070
-187.144	133.943	0.146	0.186
-186.129	6.107	0.050	-0.037
-185.114	-69.011	-0.178	-0.068
-184.100	-200.000	0.027	-0.355
-183.085	747.842	0.048	-0.128
-182.071	718.264	0.099	-0.259
-181.056	-72.672	0.068	-0.025
-180.042	191.016	0.056	-0.083
-179.027	800.000	-0.024	0.088
-178.012	-106.987	-0.293	0.064
-176.998	-200.000	0.022	0.111
-175.983	-97.996	0.085	0.022
-174.969	374.250	-0.036	-0.071
-173.954	-36.502	0.302	-0.160
-172.939	223.811	0.187	0.298
-171.925	-191.733	0.276	0.003
-170.910	310.452	0.125	0.231
-169.896	-113.269	0.163	0.032
-168.881	-43.450	-0.162	0.081
-167.866	134.860	-0.201	-0.257
-166.852	-92.482	-0.199	0.055
-165.837	117.210	-0.149	0.181
-164.823	-4.455	-0.088	0.060
-163.808	98.661	-0.068	-0.078
-162.793	-64.252	-0.246	-0.099
-161.779	300.849	0.050	0.091
-160.764	297.403	0.136	0.247
-159.750	-200.000	-0.030	0.162
-158.735	800.000	-0.021	-0.080
-157.720	172.450	-0.062	-0.088
-156.706	-200.000	0.010	-0.248
-155.691	101.953	-0.147	-0.169
-154.677	207.849	-0.025	0.038
-153.662	-36.269	0.160	-0.085
-152.647	21.590	0.063	-0.051
-151.633	127.815	-0.151	-0.189
-150.618	23.154	0.076	-0.061
-149.604	171.429	0.023	0.032
-148.589	36.489	0.165	0.143
-147.574	-200.000	-0.070	-0.370
-146.560	-127.786	0.054	-0.008
-145.545	-148.031	-0.187	-0.015
-144.531	363.197	0.133	0.263
-143.516	293.730	-0.134	-0.241
-142.502	800.000	0.067	-0.188
-141.487	-200.000	0.019	-0.141
-140.472	433.603	-0.166	0.355
-139.458	186.886	0.209	0.308
-138.443	-200.000	-0.000	0.106
-137.429	800.000	0.054	0.152
-136.414	-200.000	-0.004	-0.244
-135.399	113.393	0.343	-0.410
-134.385	-46.762	0.265	0.128
-133.370	325.059	-0.133	0.251
-132.356	-200.000	-0.002	0.054
-131.341	152.658	0.110	0.148
-130.326	-8.011	-0.052	-0.035
-129.312	546.515	-0.190	0.448
-128.297	-83.034	0.126	0.040
-127.283	9.851	0.273	0.204
-126.268	-200.000	-0.004	0.224
-125.253	363.071	-0.047	0.093
-124.239	302.934	0.061	0.112
-123.224	-151.579	0.373	0.027
-122.210	-119.941	-0.217	0.037
