DTS Sentinel unit serial number:	SN413079Multiplexer serial number:	ORYXHardware model number:	OX4-SRSoftware version number:	ORYX F/W v4.00 Oryx Data Collector v3.7.2.0data status	okinstallation	princeton_trtdifferential loss correction	single-endedforward channel	channel 1reverse channel	N/Adate	2019/09/13time	15:46:35forward acquisition time	60.00reverse acquisition time	0.00gamma	496.2192k internal	0.2308k external	0.2308temperature offset calibration	1.0162default loss term (dB/km)	0.3790temperature slope calibration	1.0000multiplexer offset coefficient	1.0000multiplexer slope coefficient	1.0000fibre end	0.00T internal ref (°C)	34.73T ext. ref 1 (°C)	4.76T ext. ref 2 (°C)	29.39length (m)	temperature (°C)	Stokes	anti-Stokes-747.200	800.000	0.044	-0.131
-746.185	-119.429	0.343	0.061
-745.171	42.341	0.084	-0.077
-744.156	-145.174	-0.127	0.012
-743.142	4.718	-0.174	0.130
-742.127	-73.421	-0.091	0.034
-741.112	-67.801	-0.225	-0.090
-740.098	220.355	0.090	0.146
-739.083	800.000	0.047	-0.156
-738.069	-40.901	-0.217	0.114
-737.054	-200.000	-0.073	-0.329
-736.039	-81.897	-0.121	0.040
-735.025	120.906	-0.294	0.371
-734.010	-158.236	-0.564	0.033
-732.996	800.000	0.037	-0.158
-731.981	-200.000	-0.004	-0.256
-730.966	-10.781	0.256	-0.172
-729.952	-37.968	-0.324	-0.175
-728.937	53.359	0.140	-0.137
-727.923	133.323	-0.080	0.105
-726.908	8.116	-0.119	-0.091
-725.894	-104.609	-0.268	-0.063
-724.879	84.040	-0.159	-0.176
-723.864	115.399	-0.217	0.269
-722.850	-19.766	0.125	0.078
-721.835	779.315	0.115	-0.318
-720.821	240.350	-0.140	-0.236
-719.806	-200.000	0.069	-0.526
-718.791	-200.000	-0.007	0.239
-717.777	-82.453	-0.207	0.068
-716.762	-17.675	-0.169	0.108
-715.748	-200.000	0.068	-0.346
-714.733	-200.000	0.004	-0.164
-713.718	20.950	-0.144	0.118
-712.704	104.072	0.049	0.059
-711.689	22.961	-0.238	0.198
-710.675	273.419	-0.053	-0.095
-709.660	100.064	-0.144	-0.169
-708.645	-200.000	-0.045	0.214
-707.631	-200.000	-0.062	0.323
-706.616	-7.657	-0.098	-0.067
-705.602	-74.288	-0.112	-0.041
-704.587	-200.000	-0.009	0.082
-703.572	34.416	0.204	0.180
-702.558	200.539	0.143	0.224
-701.543	-126.435	0.170	0.026
-700.529	-200.000	-0.115	-0.001
-699.514	-32.820	0.336	0.190
-698.499	74.245	-0.197	-0.209
-697.485	-200.000	0.097	-0.498
-696.470	800.000	0.063	0.180
-695.456	-22.438	-0.144	0.088
-694.441	39.313	0.073	-0.066
-693.426	-27.229	-0.213	0.126
-692.412	-76.172	0.300	0.107
-691.397	146.109	0.073	-0.099
-690.383	-138.102	-0.075	-0.008
-689.368	10.537	0.193	-0.149
-688.354	152.246	0.273	0.377
-687.339	-73.841	-0.140	-0.052
-686.324	136.140	0.130	0.172
-685.310	70.151	0.039	0.041
-684.295	-22.543	-0.190	-0.117
-683.281	-157.920	-0.231	0.014
-682.266	-200.000	0.025	-0.318
-681.251	302.590	0.016	-0.030
-680.237	-56.411	-0.370	-0.166
-679.222	-190.604	0.204	-0.002
-678.208	150.011	0.163	0.224
-677.193	236.729	-0.144	0.241
-676.178	42.043	0.137	0.126
-675.164	-82.826	-0.120	0.039
-674.149	-45.219	-0.323	0.162
-673.135	419.917	-0.073	0.158
-672.120	800.000	0.066	0.244
-671.105	-32.241	-0.284	0.161
-670.091	-35.412	-0.182	-0.100
-669.076	-47.863	-0.162	-0.080
-668.062	220.120	-0.095	-0.154
-667.047	-95.916	0.058	-0.016
-666.032	-200.000	-0.003	-0.245
-665.018	23.416	-0.122	-0.102
-664.003	-122.264	0.155	0.026
-662.989	139.577	0.175	-0.233
-661.974	-3.296	-0.334	-0.236
-660.959	266.728	0.071	-0.125
-659.945	-43.937	-0.234	-0.119
-658.930	-44.284	0.246	0.125
-657.916	141.899	-0.221	0.297
-656.901	800.000	0.073	0.236
-655.886	-20.886	-0.214	0.133
-654.872	-71.886	0.078	-0.030
-653.857	-60.290	0.248	0.107
-652.843	20.519	-0.120	-0.098
-651.828	231.777	0.168	-0.279
-650.814	1.544	0.331	0.241
-649.799	-126.785	-0.257	-0.038
-648.784	-69.792	-0.232	0.090
-647.770	25.640	-0.088	0.074
-646.755	778.535	-0.006	-0.016
-645.741	77.276	-0.204	0.219
-644.726	95.934	-0.038	0.044
-643.711	-91.854	-0.130	-0.037
-642.697	102.075	-0.180	0.213
-641.682	-100.978	-0.212	-0.053
-640.668	102.770	0.071	-0.084
-639.653	-21.941	0.254	-0.156
-638.638	800.000	0.035	0.146
-637.624	-136.275	-0.132	0.016
-636.609	105.744	-0.091	0.109
-635.595	-129.524	-0.087	-0.012
-634.580	-200.000	0.065	-0.343
-633.565	151.691	-0.088	-0.121
-632.551	-200.000	0.020	-0.241
-631.536	-95.435	0.046	0.013
-630.522	240.567	-0.023	0.039
-629.507	307.024	0.031	-0.058
-628.492	208.307	-0.117	-0.185
-627.478	-200.000	0.063	-0.282
-626.463	-55.664	0.378	-0.171
-625.449	-195.782	-0.167	0.001
-624.434	2.278	-0.350	-0.256
-623.419	-35.527	0.140	0.077
-622.405	-97.664	0.160	0.042
-621.390	20.847	-0.090	0.074
-620.376	50.118	-0.254	-0.243
-619.361	-44.038	0.137	-0.070
-618.346	-77.195	0.188	0.066
-617.332	-128.696	-0.099	-0.014
-616.317	-200.000	-0.012	-0.088
-615.303	-83.641	0.271	0.088
-614.288	92.719	0.291	0.333
-613.273	800.000	0.097	0.414
-612.259	716.792	0.060	0.160
-611.244	-82.078	-0.279	-0.092
-610.230	175.393	0.253	0.370
-609.215	350.587	-0.115	-0.230
-608.201	232.733	0.210	0.350
-607.186	-14.866	-0.164	0.106
-606.171	196.695	0.189	-0.291
-605.157	-200.000	0.036	0.200
-604.142	-200.000	0.004	-0.389
-603.128	39.012	-0.058	-0.052
-602.113	800.000	-0.041	-0.123
-601.098	210.294	-0.249	-0.395
-600.084	8.068	0.176	-0.134
-599.069	372.611	0.138	0.284
-598.055	75.704	0.227	-0.242
-597.040	-128.593	0.055	0.008
-596.025	800.000	0.053	-0.214
-595.011	-186.664	-0.293	0.004
-593.996	-22.154	0.227	-0.139
-592.982	800.000	0.090	0.394
-591.967	-107.926	-0.296	-0.065
-590.952	103.738	0.160	0.189
-589.938	-100.990	-0.113	-0.028
-588.923	48.469	0.102	-0.096
-587.909	31.984	-0.105	0.091
-586.894	80.535	0.169	-0.184
-585.879	195.927	-0.114	-0.175
-584.865	-90.830	-0.141	-0.041
-583.850	-200.000	-0.024	0.129
-582.836	-53.007	0.237	-0.110
-581.821	-68.548	-0.260	0.102
-580.806	461.800	-0.222	0.499
-579.792	-200.000	0.015	0.236
-578.777	-160.332	0.163	-0.009
-577.763	205.119	0.014	0.022
-576.748	347.002	0.080	-0.158
-575.733	72.261	0.127	0.134
-574.719	421.191	0.217	0.470
-573.704	-49.478	0.262	0.126
-572.690	196.456	0.170	0.262
-571.675	110.593	-0.070	0.085
-570.661	-142.541	0.112	-0.011
-569.646	-175.564	0.092	-0.003
-568.631	-111.798	0.269	0.055
-567.617	-116.102	-0.127	-0.024
-566.602	453.383	0.142	0.316
-565.588	-200.000	0.016	0.296
-564.573	75.846	-0.262	0.280
-563.558	800.000	0.043	0.164
-562.544	8.363	-0.024	-0.018
-561.529	-105.796	-0.285	0.065
-560.515	-69.796	-0.251	-0.097
-559.500	391.416	0.158	0.332
-558.485	-74.951	0.229	0.083
-557.471	-84.109	-0.255	-0.082
-556.456	392.884	0.082	0.173
-555.442	-200.000	-0.038	0.238
-554.427	80.721	-0.166	-0.180
-553.412	-200.000	0.000	-0.021
-552.398	486.821	-0.041	0.094
-551.383	-127.879	0.274	-0.040
-550.369	-200.000	0.073	0.332
-549.354	-200.000	0.031	-0.180
-548.339	142.300	-0.141	0.189
-547.325	-134.452	-0.273	-0.034
-546.310	59.733	0.173	0.172
-545.296	-120.761	-0.072	-0.012
-544.281	-26.617	-0.374	-0.221
-543.266	-123.416	0.157	-0.025
-542.252	-200.000	-0.013	0.155
-541.237	-6.821	0.225	0.154
-540.223	-200.000	0.011	0.239
-539.208	-66.409	-0.251	0.100
-538.193	86.234	0.158	0.175
-537.179	-200.000	-0.056	-0.397
-536.164	-200.000	-0.033	-0.163
-535.150	-87.217	0.097	-0.030
-534.135	-65.991	0.168	0.068
-533.121	185.528	0.176	0.264
-532.106	27.835	0.129	-0.110
-531.091	8.604	0.113	0.086
-530.077	-118.794	0.156	-0.028
-529.062	205.550	0.179	-0.280
-528.048	800.000	0.019	0.079
-527.033	-32.924	-0.220	0.123
-526.018	-16.157	0.387	-0.248
-525.004	227.695	0.250	0.410
-523.989	-52.619	-0.467	-0.217
-522.975	151.620	0.095	-0.130
-521.960	800.000	-0.026	-0.106
-520.945	27.863	-0.179	0.152
-519.931	190.817	0.137	-0.208
-518.916	422.818	-0.134	0.290
-517.902	800.000	-0.093	-0.397
-516.887	113.063	0.124	0.152
-515.872	-112.770	0.150	0.030
-514.858	-184.223	-0.196	-0.003
-513.843	800.000	-0.142	-0.458
-512.829	-119.686	0.435	-0.076
-511.814	528.639	-0.108	-0.256
-510.799	-85.402	0.129	0.041
-509.785	-105.238	-0.286	-0.066
-508.770	-93.225	0.325	0.091
-507.756	-16.380	-0.183	-0.117
-506.741	-33.623	-0.205	0.114
-505.726	-200.000	-0.028	-0.183
-504.712	301.678	0.036	0.066
-503.697	-78.312	0.169	-0.059
-502.683	-95.042	-0.572	0.156
-501.668	-111.883	0.440	-0.090
-500.653	149.295	0.271	-0.369
-499.639	-39.753	-0.174	-0.092
-498.624	6.541	-0.158	-0.118
-497.610	93.708	-0.159	-0.182
-496.595	-132.457	0.225	-0.029
-495.581	358.427	0.142	0.285
-494.566	709.663	-0.138	0.368
-493.551	33.907	-0.203	-0.178
-492.537	-23.029	-0.117	0.071
-491.522	-200.000	-0.010	0.109
-490.508	226.026	0.038	-0.062
-489.493	47.157	0.161	0.150
-488.478	-70.720	0.237	0.090
-487.464	9.565	0.202	-0.154
-486.449	311.883	-0.059	0.111
-485.435	19.522	-0.066	0.054
-484.420	-16.796	0.184	-0.117
-483.405	-72.804	0.339	-0.125
-482.391	133.226	-0.147	0.190
-481.376	57.464	-0.213	0.210
-480.362	-200.000	-0.025	0.251
-479.347	325.674	0.033	-0.063
-478.332	173.965	-0.125	-0.182
-477.318	-14.813	-0.094	-0.060
-476.303	-77.282	0.364	-0.127
-475.289	-200.000	-0.007	-0.215
-474.274	51.200	0.097	-0.092
-473.259	4.803	-0.133	0.099
-472.245	26.461	0.164	-0.138
-471.230	716.604	-0.069	0.185
-470.216	186.915	0.086	0.129
-469.201	-34.797	-0.047	0.026
-468.186	292.187	0.223	-0.409
-467.172	246.610	-0.208	-0.352
-466.157	-79.864	0.277	0.094
-465.143	170.727	0.137	0.197
-464.128	7.646	0.206	0.155
-463.113	-115.128	-0.153	0.029
-462.099	35.714	0.248	0.219
-461.084	110.552	-0.085	-0.102
-460.070	-155.929	-0.330	-0.021
-459.055	-80.616	0.228	0.076
-458.040	24.556	0.082	-0.068
-457.026	-117.940	0.110	0.020
-456.011	248.556	-0.073	0.125
-454.997	800.000	-0.115	-0.358
-453.982	-200.000	0.026	-0.187
-452.968	64.048	0.229	0.231
-451.953	800.000	-0.038	0.128
-450.938	-117.837	0.261	-0.047
-449.924	800.000	0.058	0.191
-448.909	-98.425	-0.233	-0.060
-447.895	273.233	0.107	0.190
-446.880	124.438	0.110	0.138
-445.865	739.623	-0.064	-0.173
-444.851	-200.000	-0.003	-0.046
-443.836	202.204	-0.245	0.379
-442.822	548.702	0.058	-0.139
-441.807	-200.000	0.005	-0.286
-440.792	115.938	-0.175	-0.215
-439.778	800.000	0.023	0.094
-438.763	88.892	0.133	-0.149
-437.749	299.846	-0.056	-0.104
-436.734	-115.157	-0.389	-0.074
-435.719	-158.172	0.013	0.001
-434.705	-200.000	0.069	-0.317
-433.690	-152.695	-0.189	0.014
-432.676	47.375	-0.120	0.112
-431.661	260.701	-0.085	-0.148
-430.646	-200.000	-0.008	0.115
-429.632	639.470	-0.056	0.144
-428.617	28.706	-0.136	-0.116
-427.603	125.657	0.099	-0.126
-426.588	57.871	-0.176	0.173
-425.573	-39.110	0.046	0.025
-424.559	115.036	-0.051	-0.063
-423.544	-200.000	-0.007	-0.113
-422.530	-200.000	0.016	-0.139
-421.515	-161.846	0.120	0.006
-420.500	29.375	0.069	0.059
-419.486	800.000	0.021	-0.066
-418.471	128.408	-0.081	-0.103
-417.457	338.154	-0.152	-0.296
-416.442	800.000	0.075	-0.229
-415.428	498.667	0.036	0.082
-414.413	791.557	0.081	0.224
-413.398	64.587	-0.113	-0.114
-412.384	-200.000	-0.034	-0.257
-411.369	381.222	-0.087	-0.178
-410.355	-200.000	0.038	-0.532
-409.340	263.370	0.011	-0.020
-408.325	-56.501	0.055	-0.025
-407.311	-164.640	-0.141	0.006
-406.296	-83.693	-0.595	-0.190
-405.282	-200.000	0.010	0.266
-404.267	800.000	-0.085	0.268
-403.252	-41.988	0.155	0.080
-402.238	76.897	0.203	0.216
-401.223	87.697	0.076	0.084
-400.209	800.000	0.055	0.210
-399.194	800.000	0.029	0.081
-398.179	-42.402	0.211	0.108
-397.165	-59.473	-0.191	0.082
-396.150	682.202	0.125	-0.326
-395.136	-137.064	-0.263	-0.030
-394.121	450.946	-0.076	-0.168
-393.106	800.000	-0.064	0.219
-392.092	-200.000	-0.026	0.166
-391.077	-191.115	-0.087	0.001
-390.063	-83.283	-0.257	0.083
-389.048	-130.075	0.251	0.034
-388.033	800.000	-0.079	0.263
-387.019	-8.926	-0.287	-0.193
-386.004	193.538	0.111	-0.168
-384.990	-17.419	0.114	-0.072
-383.975	727.750	0.124	0.332
-382.960	164.410	-0.073	-0.103
-381.946	-200.000	0.003	-0.158
-380.931	-30.296	-0.112	0.064
-379.917	-200.000	0.017	0.185
-378.902	-80.289	-0.323	0.108
-377.888	-65.325	0.285	0.115
-376.873	738.585	-0.107	0.288
-375.858	542.595	-0.105	0.251
-374.844	-200.000	0.008	-0.101
-373.829	-156.736	-0.421	0.026
-372.815	401.702	0.009	0.020
-371.800	-200.000	-0.020	0.144
-370.785	108.349	-0.071	0.084
-369.771	-200.000	0.020	-0.273
-368.756	264.070	0.083	-0.144
-367.742	255.796	-0.053	0.091
-366.727	694.486	-0.098	-0.257
-365.712	-176.193	0.233	0.006
-364.698	-124.462	0.134	0.021
-363.683	139.380	0.081	0.106
-362.669	-117.783	0.299	-0.054
-361.654	171.979	-0.051	0.074
-360.639	-200.000	0.031	-0.170
-359.625	107.025	-0.243	-0.289
-358.610	-90.075	-0.229	0.067
-357.596	109.523	-0.234	0.281
-356.581	290.162	-0.191	-0.347
-355.566	-158.826	-0.268	0.015
-354.552	-59.761	-0.209	-0.089
-353.537	-59.880	-0.302	-0.129
-352.523	-59.006	0.368	0.159
-351.508	32.159	-0.076	0.066
-350.493	-200.000	-0.015	-0.089
-349.479	-200.000	0.044	-0.222
-348.464	304.139	-0.101	0.187
-347.450	552.895	-0.067	0.160
-346.435	-104.840	0.328	0.075
-345.420	800.000	0.027	0.114
-344.406	-200.000	0.014	-0.213
-343.391	-21.374	0.203	-0.124
-342.377	-74.824	0.120	-0.043
-341.362	210.255	0.214	-0.335
-340.348	86.360	-0.111	0.123
-339.333	-200.000	0.016	0.220
-338.318	-36.720	0.263	-0.141
-337.304	30.554	0.029	0.025
-336.289	671.779	0.070	-0.181
-335.275	25.309	-0.189	-0.157
-334.260	-114.323	0.083	0.016
-333.245	-200.000	0.021	0.489
-332.231	143.983	0.009	-0.012
-331.216	193.657	-0.218	0.331
-330.202	349.082	-0.037	-0.074
-329.187	-24.919	-0.342	-0.203
-328.172	-19.710	0.205	-0.127
-327.158	163.358	-0.086	0.121
-326.143	-75.985	-0.099	-0.035
-325.129	-117.174	0.356	-0.065
-324.114	-92.419	-0.292	0.082
-323.099	-200.000	-0.036	0.160
-322.085	-86.330	0.205	-0.063
-321.070	-145.712	-0.016	-0.001
-320.056	-77.448	0.172	-0.060
-319.041	126.157	0.150	-0.190
-318.026	4.561	-0.185	-0.135
-317.012	-145.278	0.476	-0.043
-315.997	17.348	0.064	-0.051
-314.983	-47.895	-0.131	-0.063
-313.968	367.334	-0.046	0.092
-312.953	-100.992	-0.237	0.058
-311.939	-200.000	0.005	0.102
-310.924	-200.000	-0.018	0.237
-309.910	-148.501	-0.345	-0.028
-308.895	-139.780	-0.437	0.046
-307.880	348.861	-0.091	0.180
-306.866	-153.249	-0.247	0.017
-305.851	-111.011	-0.230	0.047
-304.837	-4.390	-0.240	-0.166
-303.822	800.000	-0.072	0.247
-302.807	95.959	0.168	-0.191
-301.793	800.000	-0.068	-0.273
-300.778	-200.000	-0.024	-0.122
-299.764	-37.228	-0.265	-0.141
-298.749	-92.692	-0.153	-0.043
-297.735	251.178	-0.147	-0.250
-296.720	68.407	-0.099	-0.101
-295.705	-200.000	0.084	0.427
-294.691	-12.183	-0.082	0.054
-293.676	-160.106	0.112	-0.006
-292.662	-22.608	0.277	0.167
-291.647	19.120	-0.205	-0.164
-290.632	-200.000	-0.002	-0.313
-289.618	140.448	0.227	0.299
-288.603	-128.088	0.495	-0.071
-287.589	800.000	-0.012	-0.046
-286.574	-51.314	0.206	-0.096
-285.559	-200.000	-0.024	-0.190
-284.545	-45.154	0.080	-0.039
-283.530	77.229	0.144	0.153
-282.516	4.587	-0.165	-0.121
-281.501	97.551	-0.155	0.177
-280.486	319.900	-0.079	0.149
-279.472	7.834	-0.305	-0.228
-278.457	-132.067	0.151	-0.020
-277.443	114.164	-0.206	-0.251
-276.428	-200.000	-0.003	0.101
-275.413	-200.000	0.037	0.383
-274.399	332.877	-0.054	0.104
-273.384	279.690	0.176	0.313
-272.370	-6.463	0.059	-0.040
-271.355	-200.000	-0.007	-0.344
-270.340	-200.000	-0.039	-0.272
-269.326	-61.383	-0.115	-0.048
-268.311	-161.285	-0.273	0.014
-267.297	-108.431	0.250	-0.054
-266.282	-200.000	0.006	0.207
-265.267	-104.132	-0.221	0.051
-264.253	-123.390	0.129	0.021
-263.238	4.769	0.054	0.040
-262.224	-78.650	0.131	0.045
-261.209	-45.420	0.276	0.137
-260.195	-76.013	0.115	0.041
-259.180	332.307	0.052	0.101
-258.165	145.458	0.111	-0.148
-257.151	80.825	-0.078	0.084
-256.136	-200.000	0.036	0.212
-255.122	-13.383	0.118	0.076
-254.107	-45.343	-0.166	0.082
-253.092	-134.435	0.167	-0.020
-252.078	0.669	-0.132	-0.094
-251.063	583.139	-0.163	-0.398
-250.049	-3.534	-0.074	-0.052
-249.034	-62.835	-0.064	-0.026
-248.019	138.159	0.103	-0.134
-247.005	-48.984	0.028	0.014
-245.990	193.846	0.090	0.136
-244.976	-200.000	0.003	-0.071
-243.961	-99.112	0.270	-0.068
-242.946	-114.802	0.098	0.019
-241.932	-50.512	-0.312	-0.146
-240.917	28.232	-0.124	0.104
-239.903	12.550	0.137	-0.105
-238.888	-200.000	0.000	0.329
-237.873	156.913	0.029	-0.040
-236.859	-59.351	0.095	0.041
-235.844	19.546	-0.380	-0.304
-234.830	326.191	0.164	-0.313
-233.815	-41.619	-0.038	0.019
-232.800	-200.000	-0.016	-0.102
-231.786	-64.572	0.107	-0.043
-230.771	-159.853	-0.147	0.008
-229.757	800.000	0.106	0.302
-228.742	-49.500	-0.036	0.017
-227.727	-200.000	0.072	0.417
-226.713	-18.856	-0.114	-0.071
-225.698	-99.816	-0.258	0.064
-224.684	791.521	-0.025	-0.070
-223.669	-200.000	-0.013	0.185
-222.655	-200.000	0.026	-0.248
-221.640	694.506	0.078	-0.205
-220.625	-200.000	-0.139	0.001
-219.611	-200.000	-0.069	-0.346
-218.596	212.222	0.165	-0.259
-217.582	-15.942	0.283	-0.180
-216.567	13.407	0.169	0.130
-215.552	227.061	-0.024	0.039
-214.538	627.723	-0.085	-0.214
-213.523	99.364	0.190	0.219
-212.509	-76.521	0.250	0.088
-211.494	-80.975	0.336	-0.111
-210.479	-68.987	0.388	-0.149
-209.465	26.687	0.240	0.200
-208.450	-65.490	-0.266	0.106
-207.436	60.329	0.200	0.197
-206.421	37.669	-0.099	-0.087
-205.406	-47.626	-0.209	0.101
-204.392	39.198	0.185	0.165
-203.377	-48.831	0.230	0.110
-202.363	-200.000	-0.011	-0.219
-201.348	800.000	0.043	-0.175
-200.333	40.456	-0.203	-0.182
-199.319	93.135	0.147	-0.165
-198.304	-132.606	-0.288	0.037
-197.290	80.138	-0.027	-0.029
-196.275	-14.322	-0.321	0.205
-195.260	26.790	0.159	0.133
-194.246	-34.646	-0.275	-0.150
-193.231	17.608	-0.205	0.162
-192.217	800.000	-0.107	0.339
-191.202	168.979	0.067	0.094
-190.187	42.397	0.077	0.070
-189.173	-200.000	0.007	0.308
-188.158	79.350	0.104	0.111
-187.144	800.000	-0.023	-0.074
-186.129	-2.871	-0.089	-0.062
-185.114	207.436	0.061	-0.095
-184.100	-48.883	0.260	-0.124
-183.085	158.745	-0.187	0.259
-182.071	38.707	-0.288	0.255
-181.056	-110.363	0.121	0.025
-180.042	5.151	0.111	0.082
-179.027	-106.347	0.108	0.024
-178.012	-157.184	-0.138	-0.008
-176.998	132.523	0.131	0.168
-175.983	482.825	0.039	-0.088
-174.969	-200.000	-0.032	0.157
-173.954	-200.000	0.003	-0.316
-172.939	-41.214	-0.056	-0.029
-171.925	-189.129	0.176	0.002
-170.910	61.211	0.227	0.224
-169.896	-70.047	0.110	-0.042
-168.881	-34.282	0.206	-0.112
-167.866	72.655	0.187	-0.194
-166.852	-43.726	0.067	0.034
-165.837	22.751	-0.084	0.068
-164.823	-12.312	0.278	-0.180
-163.808	-78.611	-0.138	-0.047
-162.793	207.498	0.126	-0.195
-161.779	-200.000	-0.022	-0.147
-160.764	-89.680	-0.142	-0.041
-159.750	21.192	0.251	0.203
-158.735	-62.870	-0.090	0.037
-157.720	-90.583	-0.409	0.117
-156.706	187.975	0.071	-0.105
-155.691	800.000	-0.026	0.105
-154.677	-200.000	0.022	-0.407
-153.662	-3.200	0.320	-0.221
-152.647	-174.082	-0.061	-0.002
-151.633	-142.388	-0.254	0.025
-150.618	71.263	-0.052	-0.054
-149.604	-74.216	0.208	0.075
-148.589	-42.718	-0.154	-0.078
-147.574	51.548	-0.217	0.205
-146.560	-27.806	0.230	0.132
-145.545	668.082	0.058	0.148
-144.531	77.359	0.054	0.057
-143.516	13.395	0.197	0.152
-142.502	60.321	0.188	0.185
-141.487	-100.767	-0.245	-0.060
-140.472	-200.000	-0.011	0.161
-139.458	-200.000	0.032	-0.148
-138.443	25.164	-0.096	0.079
-137.429	800.000	0.009	0.038
-136.414	-180.130	-0.339	-0.007
-135.399	800.000	0.019	0.080
-134.385	-82.084	-0.166	0.054
-133.370	31.103	-0.152	0.129
-132.356	314.783	0.143	-0.267
-131.341	40.297	-0.110	-0.098
-130.326	63.863	0.084	0.084
-129.312	277.084	-0.134	0.236
-128.297	800.000	0.114	-0.426
-127.283	92.255	-0.104	-0.116
-126.268	-43.895	0.034	0.017
-125.253	133.490	0.156	0.200
-124.239	-132.095	-0.195	0.025
-123.224	-200.000	0.041	-0.490
-122.210	87.293	0.146	0.160
-121.195	800.000	0.106	0.362
-120.180	-93.019	0.025	-0.007
