DTS Sentinel unit serial number:	SN413079Multiplexer serial number:	ORYXHardware model number:	OX4-SRSoftware version number:	ORYX F/W v4.00 Oryx Data Collector v3.7.2.0data status	okinstallation	princeton_trtdifferential loss correction	single-endedforward channel	channel 1reverse channel	N/Adate	2019/09/10time	15:40:11forward acquisition time	60.00reverse acquisition time	0.00gamma	496.2192k internal	0.2299k external	0.2299temperature offset calibration	0.9918default loss term (dB/km)	0.3790temperature slope calibration	1.0000multiplexer offset coefficient	1.0000multiplexer slope coefficient	1.0000fibre end	0.00T internal ref (°C)	38.05T ext. ref 1 (°C)	-0.28T ext. ref 2 (°C)	31.38length (m)	temperature (°C)	Stokes	anti-Stokes-747.200	-166.876	0.195	0.008
-746.185	-200.000	-0.010	-0.150
-745.171	186.843	0.180	-0.274
-744.156	-96.212	-0.325	0.088
-743.142	-91.626	0.178	-0.052
-742.127	532.169	0.149	0.358
-741.112	-200.000	0.020	0.116
-740.098	-88.417	-0.129	0.039
-739.083	459.371	0.145	-0.329
-738.069	100.845	0.279	0.331
-737.054	800.000	0.088	-0.349
-736.039	-100.641	0.273	-0.069
-735.025	-108.015	0.332	0.074
-734.010	800.000	0.052	-0.164
-732.996	61.506	-0.231	-0.234
-731.981	2.365	0.091	0.067
-730.966	-168.949	-0.400	-0.015
-729.952	-49.793	0.235	-0.114
-728.937	-27.528	0.108	-0.064
-727.923	-80.050	0.255	-0.087
-726.908	-200.000	0.033	-0.271
-725.894	-200.000	-0.007	-0.059
-724.879	364.608	-0.103	-0.212
-723.864	-200.000	-0.040	-0.194
-722.850	-69.687	0.333	-0.130
-721.835	-200.000	-0.042	-0.294
-720.821	-200.000	-0.020	-0.103
-719.806	28.703	-0.082	0.071
-718.791	123.119	0.047	-0.060
-717.777	325.320	0.135	0.264
-716.762	-200.000	-0.006	-0.154
-715.748	191.327	0.206	-0.316
-714.733	569.778	0.056	-0.138
-713.718	-35.999	-0.279	0.154
-712.704	2.727	0.170	-0.125
-711.689	800.000	-0.046	0.199
-710.675	0.942	-0.084	-0.062
-709.660	-72.766	0.067	0.025
-708.645	-48.181	-0.276	0.136
-707.631	-200.000	0.008	0.041
-706.616	7.169	-0.131	-0.100
-705.602	-200.000	0.071	-0.338
-704.587	-161.443	0.429	0.023
-703.572	-200.000	-0.018	0.308
-702.558	96.737	0.134	-0.156
-701.543	255.721	-0.057	-0.100
-700.529	-200.000	-0.057	-0.370
-699.514	22.406	0.025	-0.021
-698.499	70.958	0.353	-0.372
-697.485	-34.580	0.430	0.240
-696.470	-28.951	0.055	-0.032
-695.456	51.881	-0.241	-0.234
-694.441	-153.821	-0.263	-0.018
-693.426	575.103	-0.053	0.131
-692.412	-22.935	0.151	0.093
-691.397	198.950	-0.224	-0.349
-690.383	-88.380	-0.148	0.045
-689.368	800.000	-0.128	0.379
-688.354	800.000	0.049	-0.149
-687.339	24.886	-0.047	-0.040
-686.324	-200.000	-0.020	-0.111
-685.310	-15.459	0.157	-0.102
-684.295	-110.701	-0.090	0.019
-683.281	-68.969	-0.123	0.048
-682.266	-200.000	0.003	0.216
-681.251	-125.640	-0.283	-0.044
-680.237	325.687	-0.107	-0.208
-679.222	18.387	-0.051	-0.041
-678.208	39.259	-0.290	-0.264
-677.193	453.213	-0.089	0.201
-676.178	-19.604	0.231	0.146
-675.164	499.905	-0.025	-0.058
-674.149	-138.373	0.061	0.007
-673.135	296.820	0.050	-0.094
-672.120	89.905	-0.113	0.128
-671.105	156.554	-0.158	-0.222
-670.091	-200.000	0.013	-0.537
-669.076	-200.000	0.172	-0.000
-668.062	-200.000	0.008	0.159
-667.047	442.388	0.048	-0.107
-666.032	-88.144	0.278	-0.085
-665.018	-200.000	0.038	0.183
-664.003	28.043	-0.117	0.101
-662.989	-200.000	-0.017	-0.177
-661.974	361.254	0.038	-0.077
-660.959	-200.000	-0.009	0.226
-659.945	-171.328	0.100	0.003
-658.930	-200.000	-0.058	-0.377
-657.916	800.000	0.084	-0.253
-656.901	-52.055	-0.171	0.081
-655.886	-122.001	0.046	-0.008
-654.872	-132.583	-0.257	0.034
-653.857	-14.165	-0.147	0.097
-652.843	24.386	0.247	-0.207
-651.828	36.703	-0.082	-0.074
-650.814	178.779	0.186	0.276
-649.799	31.881	0.252	-0.221
-648.784	690.615	-0.124	0.330
-647.770	-32.781	-0.085	0.048
-646.755	800.000	-0.079	-0.314
-645.741	-152.565	0.139	0.010
-644.726	-95.512	-0.210	0.057
-643.711	7.521	-0.318	-0.242
-642.697	-18.919	0.074	-0.047
-641.682	-18.534	-0.095	-0.060
-640.668	-31.903	0.103	-0.058
-639.653	341.346	0.106	-0.210
-638.638	-114.390	-0.126	0.025
-637.624	44.297	0.309	0.288
-636.609	187.114	0.032	0.048
-635.595	228.899	0.189	0.314
-634.580	-72.428	-0.104	-0.039
-633.565	-200.000	0.057	0.449
-632.551	81.356	0.106	-0.116
-631.536	52.834	0.242	-0.235
-630.522	-10.769	-0.203	0.136
-629.507	-71.875	0.156	0.059
-628.492	-75.916	-0.078	-0.028
-627.478	800.000	-0.066	0.216
-626.463	-74.993	-0.142	-0.052
-625.449	-200.000	-0.044	0.258
-624.434	-20.727	0.115	0.072
-623.419	-10.026	-0.097	0.066
-622.405	-135.932	0.202	-0.024
-621.390	-98.825	0.147	0.038
-620.376	800.000	-0.058	0.177
-619.361	369.605	-0.165	-0.339
-618.346	92.007	-0.207	-0.236
-617.332	4.437	0.115	-0.086
-616.317	431.894	-0.045	0.100
-615.303	-194.525	-0.351	0.003
-614.288	-34.174	-0.337	-0.188
-613.273	-10.265	0.140	-0.094
-612.259	-200.000	-0.007	-0.161
-611.244	-98.065	0.212	-0.055
-610.230	-0.915	-0.194	0.140
-609.215	800.000	0.078	-0.234
-608.201	125.648	0.081	-0.103
-607.186	115.367	-0.206	-0.256
-606.171	70.940	0.060	0.063
-605.157	-200.000	0.003	-0.072
-604.142	58.348	-0.304	0.302
-603.128	-20.330	0.134	0.084
-602.113	-119.598	0.115	0.020
-601.098	-175.448	0.188	0.005
-600.084	143.474	-0.249	-0.336
-599.069	-39.310	-0.120	0.064
-598.055	-112.073	0.210	0.043
-597.040	668.088	-0.137	0.360
-596.025	30.252	0.252	0.218
-595.011	-70.389	0.269	0.103
-593.996	-25.930	-0.092	0.055
-592.982	178.948	-0.094	-0.139
-591.967	621.912	0.080	0.204
-590.952	-13.214	-0.256	-0.169
-589.938	-200.000	0.027	-0.162
-588.923	-34.434	-0.160	-0.089
-587.909	556.117	-0.160	-0.391
-586.894	-65.024	-0.102	-0.042
-585.879	97.510	-0.169	-0.197
-584.865	800.000	0.018	0.078
-583.850	135.555	0.211	-0.279
-582.836	-200.000	-0.261	0.000
-581.821	375.676	0.087	-0.180
-580.806	121.498	-0.048	0.060
-579.792	596.142	0.104	-0.262
-578.777	-200.000	0.005	-0.203
-577.763	-157.346	0.233	0.014
-576.748	137.357	0.085	-0.113
-575.733	-200.000	-0.054	0.419
-574.719	-87.394	-0.285	0.088
-573.704	-48.586	0.211	-0.103
-572.690	-32.567	-0.026	-0.015
-571.675	-200.000	-0.030	-0.232
-570.661	-78.824	-0.109	0.038
-569.646	155.407	0.022	0.030
-568.631	-71.241	0.255	0.097
-567.617	140.427	0.051	-0.069
-566.602	-96.089	-0.025	0.007
-565.588	278.425	-0.160	0.289
-564.573	-7.698	-0.263	-0.180
-563.558	-140.615	-0.380	0.040
-562.544	-62.194	-0.301	0.127
-561.529	773.499	0.073	0.202
-560.515	-175.168	-0.307	0.009
-559.500	-200.000	0.018	-0.452
-558.485	10.642	0.119	-0.092
-557.471	99.240	0.161	0.189
-556.456	-200.000	-0.056	-0.271
-555.442	-171.685	-0.351	-0.012
-554.427	-200.000	-0.088	0.423
-553.412	800.000	0.078	-0.336
-552.398	800.000	-0.049	0.191
-551.383	233.094	0.152	0.253
-550.369	-200.000	0.018	0.117
-549.354	-99.173	-0.283	-0.073
-548.339	48.961	-0.265	0.252
-547.325	-200.000	-0.024	-0.159
-546.310	23.091	0.279	-0.232
-545.296	800.000	-0.031	-0.091
-544.281	-147.897	-0.144	0.012
-543.266	800.000	0.043	-0.135
-542.252	136.264	-0.109	0.144
-541.237	658.691	0.062	-0.162
-540.223	-181.110	-0.432	-0.009
-539.208	44.760	0.293	-0.273
-538.193	-138.523	0.112	-0.012
-537.179	-111.414	-0.377	-0.078
-536.164	-54.301	0.043	0.020
-535.150	310.117	0.182	0.345
-534.135	-119.075	-0.093	0.016
-533.121	-43.166	-0.195	0.100
-532.106	-200.000	-0.033	-0.233
-531.091	800.000	0.037	-0.124
-530.077	-97.951	-0.104	0.027
-529.062	20.715	0.174	-0.143
-528.048	800.000	-0.023	-0.084
-527.033	-81.784	-0.415	0.138
-526.018	-200.000	0.034	0.160
-525.004	45.797	0.234	-0.219
-523.989	800.000	-0.061	-0.249
-522.975	-153.019	-0.252	0.018
-521.960	242.803	0.064	0.108
-520.945	-61.856	0.206	-0.087
-519.931	-138.174	0.202	0.023
-518.916	800.000	-0.089	-0.302
-517.902	36.681	-0.301	-0.269
-516.887	-35.869	-0.265	-0.145
-515.872	84.417	-0.433	-0.478
-514.858	-12.426	-0.160	0.106
-513.843	-12.590	0.028	0.018
-512.829	121.390	0.043	-0.055
-511.814	-69.609	0.147	-0.057
-510.799	26.880	-0.064	0.054
-509.785	4.632	0.304	-0.226
-508.770	-143.154	0.295	-0.029
-507.756	-200.000	0.051	0.399
-506.741	-200.000	0.005	-0.051
-505.726	-200.000	0.003	-0.046
-504.712	800.000	-0.026	-0.075
-503.697	-34.009	0.139	-0.077
-502.683	-200.000	-0.073	-0.339
-501.668	45.067	-0.176	-0.164
-500.653	264.686	-0.169	0.297
-499.639	427.383	0.079	-0.173
-498.624	-135.982	0.259	0.031
-497.610	-200.000	0.029	-0.212
-496.595	-73.144	-0.085	-0.031
-495.581	-42.638	0.127	0.065
-494.566	-148.756	-0.120	-0.010
-493.551	800.000	0.039	-0.115
-492.537	218.951	-0.105	0.170
-491.522	-64.143	-0.279	0.115
-490.508	-112.758	0.094	-0.019
-489.493	-114.832	0.166	-0.032
-488.478	-74.830	-0.010	0.004
-487.464	1.720	0.257	0.187
-486.449	67.416	0.182	-0.187
-485.435	139.101	0.142	0.188
-484.420	800.000	-0.104	0.337
-483.405	35.766	-0.035	-0.031
-482.391	-200.000	0.026	0.251
-481.376	83.208	-0.101	0.111
-480.362	800.000	-0.046	-0.150
-479.347	-74.097	0.224	-0.082
-478.332	399.458	-0.044	-0.093
-477.318	779.979	-0.053	-0.145
-476.303	-148.913	-0.204	-0.017
-475.289	-5.519	0.027	0.019
-474.274	-31.397	-0.030	-0.017
-473.259	-200.000	-0.002	-0.036
-472.245	-116.515	-0.220	-0.041
-471.230	800.000	0.172	-0.509
-470.216	-182.626	-0.201	0.004
-469.201	-200.000	-0.038	0.196
-468.186	62.963	0.310	-0.313
-467.172	189.615	-0.192	0.290
-466.157	14.431	0.089	-0.070
-465.143	-70.879	-0.153	0.058
-464.128	-107.682	0.180	-0.040
-463.113	-200.000	0.014	-0.204
-462.099	-85.839	0.294	-0.092
-461.084	-167.056	0.162	-0.007
-460.070	-200.000	-0.047	0.319
-459.055	800.000	0.009	-0.029
-458.040	339.752	-0.062	-0.121
-457.026	800.000	0.029	-0.116
-456.011	800.000	-0.068	0.269
-454.997	-53.412	0.118	0.055
-453.982	-200.000	-0.019	-0.227
-452.968	-77.348	0.148	0.052
-451.953	800.000	-0.129	0.544
-450.938	-4.705	-0.170	-0.118
-449.924	-13.461	-0.081	0.053
-448.909	-60.107	0.140	-0.060
-447.895	-124.421	-0.251	-0.039
-446.880	75.159	0.227	0.241
-445.865	800.000	0.039	0.163
-444.851	-165.423	0.249	0.011
-443.836	-177.675	0.327	0.008
-442.822	104.827	0.063	-0.075
-441.807	-200.000	0.022	-0.177
-440.792	47.339	-0.099	0.093
-439.778	-200.000	0.017	0.245
-438.763	182.381	0.041	0.061
-437.749	-200.000	0.001	0.083
-436.734	800.000	0.072	-0.211
-435.719	-74.292	-0.052	-0.019
-434.705	212.832	0.176	0.279
-433.690	479.736	-0.055	0.125
-432.676	356.890	0.109	-0.218
-431.661	131.199	0.106	0.137
-430.646	65.221	0.261	-0.266
-429.632	133.198	0.285	0.371
-428.617	-101.953	0.372	-0.091
-427.603	74.907	-0.211	-0.224
-426.588	70.267	0.160	-0.167
-425.573	415.376	0.016	0.034
-424.559	333.633	0.094	-0.182
-423.544	26.199	0.279	-0.235
-422.530	117.702	-0.060	-0.074
-421.515	-40.557	0.282	-0.148
-420.500	282.492	-0.071	0.129
-419.486	-42.309	0.251	0.129
-418.471	-90.098	-0.142	0.042
-417.457	-180.816	-0.124	-0.003
-416.442	159.710	0.029	-0.040
-415.428	-157.133	0.206	-0.013
-414.413	800.000	0.021	0.070
-413.398	-110.204	-0.092	0.019
-412.384	229.253	0.039	-0.064
-411.369	-200.000	-0.030	0.285
-410.355	-35.576	0.046	0.025
-409.340	-200.000	0.042	-0.235
-408.325	-72.568	-0.103	-0.038
-407.311	-22.029	0.077	0.047
-406.296	222.867	-0.151	0.245
-405.282	396.822	-0.115	0.242
-404.267	-10.426	0.198	-0.132
-403.252	215.299	-0.106	0.169
-402.238	-200.000	-0.014	0.086
-401.223	-132.386	0.361	-0.047
-400.209	-200.000	0.024	-0.282
-399.194	29.818	-0.188	-0.161
-398.179	-200.000	0.093	-0.554
-397.165	553.588	0.098	0.238
-396.150	800.000	-0.043	-0.125
-395.136	-200.000	0.260	-0.001
-394.121	-200.000	-0.037	0.218
-393.106	-75.338	-0.310	0.111
-392.092	-56.588	0.131	-0.059
-391.077	444.377	0.085	0.188
-390.063	-200.000	-0.039	-0.217
-389.048	-121.440	0.209	0.035
-388.033	-58.111	-0.066	0.029
-387.019	77.264	-0.143	0.153
-386.004	-171.145	-0.087	-0.003
-384.990	-30.891	-0.156	-0.089
-383.975	-140.486	-0.303	0.032
-382.960	800.000	0.090	-0.258
-381.946	-93.481	-0.364	-0.101
-380.931	-159.864	-0.223	-0.012
-379.917	-200.000	0.019	-0.168
-378.902	68.224	0.118	-0.121
-377.888	350.726	0.155	0.308
-376.873	-91.023	0.138	0.040
-375.858	63.084	-0.094	0.095
-374.844	-11.184	-0.164	-0.108
-373.829	-70.541	-0.263	-0.100
-372.815	10.322	-0.346	-0.265
-371.800	276.544	0.120	0.215
-370.785	435.517	-0.131	-0.286
-369.771	-142.333	0.090	0.009
-368.756	-49.588	-0.197	-0.094
-367.742	64.112	-0.239	0.242
-366.727	-200.000	0.016	0.197
-365.712	800.000	-0.076	-0.267
-364.698	800.000	-0.182	0.507
-363.683	-82.036	0.347	0.114
-362.669	-10.827	0.110	-0.073
-361.654	-200.000	-0.016	0.224
-360.639	-177.788	0.319	-0.008
-359.625	-200.000	0.030	-0.184
-358.610	8.659	0.146	-0.111
-357.596	-46.100	-0.079	0.039
-356.581	338.298	0.058	-0.114
-355.566	13.973	-0.241	0.189
-354.552	280.937	0.056	-0.101
-353.537	800.000	0.040	-0.135
-352.523	800.000	0.040	0.148
-351.508	800.000	0.069	-0.223
-350.493	-200.000	0.001	0.165
-349.479	-71.269	-0.163	0.062
-348.464	800.000	-0.015	0.047
-347.450	-200.000	-0.027	-0.186
-346.435	-84.516	-0.255	0.081
-345.420	711.490	0.110	-0.292
-344.406	-2.797	0.129	-0.091
-343.391	-114.148	0.127	-0.025
-342.377	11.442	-0.224	-0.172
-341.362	-98.892	0.228	0.058
-340.348	-200.000	0.004	0.132
-339.333	800.000	0.067	-0.254
-338.318	-127.232	-0.498	-0.073
-337.304	130.307	-0.197	0.253
-336.289	2.154	-0.168	-0.122
-335.275	-200.000	0.362	0.000
-334.260	-154.127	-0.244	-0.017
-333.245	-200.000	0.006	-0.072
-332.231	800.000	0.029	-0.111
-331.216	140.208	0.039	0.051
-330.202	23.890	0.337	-0.279
-329.187	-57.519	0.242	0.107
-328.172	-72.219	-0.383	0.143
-327.158	-200.000	-0.070	0.331
-326.143	140.316	0.101	0.134
-325.129	-111.438	0.126	0.026
-324.114	667.356	-0.089	0.231
-323.099	-198.834	0.163	0.001
-322.085	58.022	-0.197	0.194
-321.070	44.798	-0.036	0.033
-320.056	195.053	0.132	0.202
-319.041	-78.077	-0.248	0.086
-318.026	-24.130	0.116	-0.070
-317.012	58.090	-0.083	-0.081
-315.997	-61.107	0.170	-0.072
-314.983	64.967	-0.209	0.212
-313.968	-42.382	-0.276	-0.141
-312.953	800.000	0.035	-0.117
-311.939	-108.622	-0.378	0.081
-310.924	-156.132	-0.302	0.019
-309.910	340.365	-0.082	-0.161
-308.895	-200.000	0.048	-0.250
-307.880	63.533	-0.140	-0.140
-306.866	407.221	-0.077	0.164
-305.851	-53.343	-0.243	0.112
-304.837	-118.467	-0.164	0.029
-303.822	-200.000	-0.001	-0.099
-302.807	-55.794	0.289	0.130
-301.793	-6.165	0.115	-0.079
-300.778	-62.432	0.156	-0.065
-299.764	-200.000	0.044	0.196
-298.749	594.709	-0.120	0.297
-297.735	800.000	0.082	0.248
-296.720	-200.000	0.010	0.308
-295.705	43.244	0.341	0.312
-294.691	-86.310	-0.180	0.055
-293.676	-200.000	0.078	0.472
-292.662	-125.486	0.206	-0.031
-291.647	85.778	-0.198	-0.218
-290.632	130.302	-0.094	0.121
-289.618	11.082	0.276	0.212
-288.603	-39.044	-0.140	0.074
-287.589	-200.000	0.024	0.235
-286.574	325.701	-0.149	0.285
-285.559	414.153	0.106	0.227
-284.545	800.000	0.024	-0.083
-283.530	-77.242	-0.218	0.076
-282.516	-200.000	0.062	0.352
-281.501	-200.000	0.037	-0.165
-280.486	21.096	-0.282	0.229
-279.472	800.000	0.048	-0.156
-278.457	-200.000	0.014	-0.066
-277.443	-50.573	-0.181	-0.086
-276.428	-200.000	-0.032	-0.298
-275.413	-19.472	0.219	-0.136
-274.399	-5.723	0.054	-0.037
-273.384	308.860	-0.131	0.245
-272.370	10.082	-0.170	-0.130
-271.355	-128.412	-0.181	0.026
-270.340	198.767	-0.131	0.200
-269.326	28.614	0.240	0.203
-268.311	-96.417	-0.053	-0.014
-267.297	800.000	0.081	0.292
-266.282	587.953	0.079	-0.194
-265.267	-200.000	0.006	-0.187
-264.253	78.731	0.164	-0.175
-263.238	-25.082	0.283	-0.168
-262.224	-122.644	-0.090	-0.015
-261.209	-200.000	0.012	0.059
-260.195	-200.000	-0.046	0.241
-259.180	-28.260	-0.147	0.085
-258.165	-200.000	-0.013	0.208
-257.151	800.000	-0.049	-0.150
-256.136	800.000	0.037	-0.127
-255.122	-71.493	-0.299	0.112
-254.107	16.680	-0.374	-0.296
-253.092	163.937	-0.118	-0.166
-252.078	-0.411	-0.158	0.112
-251.063	54.242	-0.156	-0.151
-250.049	-120.910	0.237	-0.040
-249.034	5.104	0.058	-0.043
-248.019	-39.325	-0.122	-0.064
-247.005	-200.000	-0.010	-0.200
-245.990	-200.000	-0.003	-0.132
-244.976	-200.000	0.011	-0.150
-243.961	313.338	0.079	0.148
-242.946	-200.000	-0.052	0.240
-241.932	-200.000	0.023	-0.186
-240.917	-159.409	0.183	-0.010
-239.903	310.630	0.109	0.204
-238.888	-30.926	0.247	0.140
-237.873	-95.219	0.374	0.101
-236.859	-154.049	-0.046	-0.003
-235.844	61.175	0.237	0.235
-234.830	-100.483	-0.195	0.048
-233.815	-24.424	0.047	0.028
-232.800	-67.823	0.146	0.057
-231.786	618.181	-0.050	-0.127
-230.771	-200.000	0.001	0.220
-229.757	572.654	0.156	-0.381
-228.742	-109.812	-0.212	-0.045
-227.727	-26.461	0.026	-0.015
-226.713	-86.264	-0.174	-0.054
-225.698	-200.000	-0.006	0.080
-224.684	-39.578	0.363	-0.190
-223.669	-13.265	0.010	-0.006
-222.655	293.942	-0.136	-0.248
-221.640	-145.037	0.298	-0.027
-220.625	-5.621	-0.122	0.084
-219.611	597.618	-0.044	-0.108
-218.596	-83.343	0.302	0.097
-217.582	151.974	-0.077	0.106
-216.567	296.177	0.031	-0.057
-215.552	16.419	-0.069	0.055
-214.538	-80.480	0.098	-0.033
-213.523	361.242	-0.114	0.229
-212.509	-86.544	0.172	0.053
-211.494	-200.000	-0.045	0.222
-210.479	81.348	0.152	-0.164
-209.465	-64.469	-0.140	0.057
-208.450	26.617	-0.203	-0.170
-207.436	66.856	-0.073	-0.074
-206.421	259.904	0.186	-0.321
-205.406	-147.632	-0.104	0.009
-204.392	-117.540	-0.193	-0.035
-203.377	-33.785	0.191	0.105
-202.363	13.318	0.243	0.188
-201.348	-200.000	-0.027	0.165
-200.333	-200.000	-0.030	-0.214
-199.319	224.738	-0.094	0.152
-198.304	-24.272	0.017	-0.010
-197.290	5.276	0.117	-0.086
-196.275	-141.521	0.206	-0.021
-195.260	154.925	-0.241	0.331
-194.246	-20.979	0.257	0.157
-193.231	113.672	-0.081	0.098
-192.217	-90.710	0.144	0.042
-191.202	136.660	-0.153	0.200
-190.187	117.831	0.090	0.110
-189.173	16.453	0.144	0.114
-188.158	41.191	0.075	0.067
-187.144	56.635	-0.346	-0.336
-186.129	414.615	0.058	-0.124
-185.114	-200.000	0.003	-0.054
-184.100	-200.000	0.015	0.193
-183.085	697.420	0.106	0.277
-182.071	673.305	-0.046	-0.119
-181.056	-48.253	-0.101	0.049
-180.042	679.459	-0.013	-0.034
-179.027	-137.961	0.254	-0.028
-178.012	-42.988	0.125	0.063
-176.998	278.162	0.110	-0.195
-175.983	-96.367	0.238	-0.063
-174.969	4.277	-0.282	-0.206
-173.954	44.532	-0.103	-0.094
-172.939	-96.112	-0.207	-0.055
-171.925	-200.000	0.013	0.125
-170.910	12.389	0.529	0.407
-169.896	-200.000	-0.037	0.310
-168.881	73.643	0.198	-0.207
-167.866	260.372	0.190	0.327
-166.852	-41.777	-0.186	0.095
-165.837	800.000	-0.028	0.103
-164.823	153.911	0.072	0.099
-163.808	271.590	0.102	-0.180
-162.793	-40.346	0.390	0.202
-161.779	800.000	0.068	-0.203
-160.764	-200.000	0.047	0.303
-159.750	17.826	0.195	-0.155
-158.735	-200.000	-0.032	-0.350
-157.720	-6.993	0.157	0.106
-156.706	800.000	0.102	-0.313
-155.691	-122.267	0.386	-0.063
-154.677	24.544	0.075	-0.062
-153.662	-45.423	-0.218	-0.108
-152.647	-136.778	-0.277	0.032
-151.633	139.175	0.165	0.216
-150.618	-200.000	-0.001	-0.066
-149.604	-79.775	0.144	0.048
-148.589	-83.576	0.047	-0.015
-147.574	-96.731	0.185	-0.049
-146.560	260.921	-0.141	-0.243
-145.545	684.393	-0.056	-0.145
-144.531	246.351	-0.037	0.062
-143.516	-81.257	-0.169	0.055
-142.502	-200.000	0.034	0.151
-141.487	89.153	-0.153	0.169
-140.472	155.975	0.270	0.371
-139.458	800.000	-0.049	-0.157
-138.443	-128.377	-0.053	0.008
-137.429	800.000	0.149	-0.462
-136.414	-137.491	-0.266	-0.030
-135.399	-96.296	-0.052	-0.014
-134.385	0.460	-0.119	-0.085
-133.370	-86.611	0.252	-0.077
-132.356	55.437	-0.155	-0.149
-131.341	22.901	0.118	0.096
-130.326	-90.773	0.193	-0.055
-129.312	-116.225	0.389	-0.072
-128.297	-171.774	0.254	-0.008
-127.283	206.202	0.069	0.106
-126.268	2.797	-0.083	0.060
-125.253	-124.263	0.158	-0.025
-124.239	-36.194	-0.245	0.132
-123.224	-109.045	0.233	0.050
-122.210	-103.120	-0.254	-0.060
-121.195	71.222	0.103	0.106
