DTS Sentinel unit serial number:	SN413079Multiplexer serial number:	ORYXHardware model number:	OX4-SRSoftware version number:	ORYX F/W v4.00 Oryx Data Collector v3.7.2.0data status	okinstallation	princeton_trtdifferential loss correction	single-endedforward channel	channel 1reverse channel	N/Adate	2019/09/15time	00:26:35forward acquisition time	60.00reverse acquisition time	0.00gamma	496.2192k internal	0.2320k external	0.2320temperature offset calibration	0.9996default loss term (dB/km)	0.3790temperature slope calibration	1.0000multiplexer offset coefficient	1.0000multiplexer slope coefficient	1.0000fibre end	0.00T internal ref (°C)	32.12T ext. ref 1 (°C)	4.59T ext. ref 2 (°C)	27.16length (m)	temperature (°C)	Stokes	anti-Stokes-747.200	-92.968	0.279	0.079
-746.185	-79.030	-0.212	0.073
-745.171	-33.232	0.238	-0.134
-744.156	800.000	0.076	0.239
-743.142	278.159	-0.168	0.302
-742.127	-117.307	0.259	0.048
-741.112	-35.047	0.157	-0.086
-740.098	800.000	0.031	0.124
-739.083	-42.287	0.199	0.103
-738.069	-199.535	-0.223	0.001
-737.054	77.752	-0.054	0.058
-736.039	-31.205	-0.450	0.256
-735.025	-80.508	-0.348	0.117
-734.010	93.190	0.189	-0.216
-732.996	23.450	0.141	-0.117
-731.981	612.226	-0.083	0.211
-730.966	584.644	-0.102	-0.253
-729.952	-200.000	-0.006	0.204
-728.937	-139.452	-0.311	0.034
-727.923	97.458	0.123	-0.143
-726.908	-18.528	0.129	0.082
-725.894	-66.418	0.248	0.100
-724.879	-29.877	0.180	0.103
-723.864	358.233	0.051	-0.102
-722.850	132.367	-0.125	-0.163
-721.835	-69.952	-0.232	-0.089
-720.821	-49.487	-0.084	-0.040
-719.806	-200.000	0.037	-0.176
-718.791	30.307	0.143	-0.123
-717.777	800.000	-0.016	0.071
-716.762	-84.286	0.304	0.097
-715.748	144.709	-0.227	-0.307
-714.733	-61.172	-0.052	-0.022
-713.718	268.507	-0.058	0.102
-712.704	-200.000	-0.004	-0.064
-711.689	68.438	-0.250	-0.259
-710.675	530.650	0.033	-0.078
-709.660	-200.000	-0.015	0.248
-708.645	800.000	0.052	0.158
-707.631	28.376	0.200	-0.171
-706.616	800.000	0.058	0.188
-705.602	-160.403	-0.188	0.010
-704.587	-200.000	-0.016	0.153
-703.572	800.000	0.128	-0.382
-702.558	134.148	0.282	0.369
-701.543	-200.000	0.013	-0.169
-700.529	106.535	-0.299	-0.358
-699.514	-127.362	0.367	-0.054
-698.499	-200.000	0.045	0.277
-697.485	-49.080	0.076	-0.037
-696.470	-45.618	0.185	0.092
-695.456	-125.431	-0.178	0.027
-694.441	-127.452	-0.167	0.025
-693.426	-90.840	0.249	-0.072
-692.412	101.176	0.140	-0.165
-691.397	-9.306	-0.191	-0.128
-690.383	218.509	0.114	0.184
-689.368	800.000	-0.087	0.248
-688.354	3.388	0.140	-0.103
-687.339	-200.000	-0.016	-0.087
-686.324	-80.484	-0.159	0.053
-685.310	145.518	-0.162	-0.219
-684.295	36.522	0.242	0.215
-683.281	-92.634	-0.084	-0.024
-682.266	18.396	0.257	-0.207
-681.251	-56.157	-0.072	-0.032
-680.237	-115.257	-0.138	-0.026
-679.222	49.934	-0.136	-0.129
-678.208	24.659	0.107	0.089
-677.193	-158.033	0.025	0.001
-676.178	151.952	0.271	-0.373
-675.164	-116.723	0.080	-0.015
-674.149	18.045	-0.230	-0.185
-673.135	-11.278	0.058	-0.038
-672.120	261.182	-0.098	-0.171
-671.105	-60.714	0.161	-0.069
-670.091	255.635	-0.052	-0.091
-669.076	178.852	0.054	0.079
-668.062	-14.782	0.256	0.165
-667.047	-11.359	-0.332	0.220
-666.032	331.400	-0.050	0.097
-665.018	-200.000	0.008	0.295
-664.003	-137.392	0.159	-0.018
-662.989	40.560	0.074	0.067
-661.974	-139.801	-0.244	0.026
-660.959	-4.910	0.169	0.118
-659.945	800.000	-0.044	-0.129
-658.930	800.000	-0.091	-0.313
-657.916	-47.293	-0.249	-0.122
-656.901	-117.202	0.112	-0.020
-655.886	-74.434	0.320	-0.117
-654.872	69.612	0.126	-0.131
-653.857	20.439	-0.102	-0.083
-652.843	-200.000	0.013	-0.198
-651.828	359.686	-0.163	0.329
-650.814	-95.970	-0.170	0.046
-649.799	92.663	-0.244	-0.278
-648.784	800.000	0.107	-0.340
-647.770	48.150	-0.273	-0.257
-646.755	-0.389	-0.202	-0.144
-645.741	93.348	0.152	0.173
-644.726	-116.617	0.210	0.039
-643.711	-51.163	-0.515	-0.243
-642.697	-28.897	0.213	-0.123
-641.682	-74.760	0.206	-0.075
-640.668	29.886	-0.131	-0.113
-639.653	-44.332	-0.260	-0.131
-638.638	-200.000	0.002	-0.374
-637.624	-119.273	0.359	-0.063
-636.609	-30.144	0.293	-0.168
-635.595	209.987	-0.083	-0.132
-634.580	800.000	-0.061	-0.199
-633.565	-148.419	0.146	-0.012
-632.551	-200.000	0.004	-0.032
-631.536	-51.018	-0.054	-0.025
-630.522	246.860	-0.144	0.245
-629.507	70.545	-0.226	0.236
-628.492	-200.000	-0.052	-0.304
-627.478	-88.328	0.101	-0.030
-626.463	-90.082	-0.279	0.082
-625.449	244.173	-0.063	-0.106
-624.434	800.000	0.066	0.246
-623.419	72.028	0.178	-0.187
-622.405	800.000	-0.024	-0.103
-621.390	108.330	0.176	-0.211
-620.376	113.241	-0.105	-0.128
-619.361	203.153	-0.131	-0.204
-618.346	-38.630	0.255	0.136
-617.332	419.655	-0.121	-0.261
-616.317	-200.000	-0.079	0.349
-615.303	-149.007	0.178	-0.014
-614.288	800.000	0.036	0.114
-613.273	74.842	0.275	-0.291
-612.259	-57.538	0.262	-0.116
-611.244	-163.196	-0.148	-0.007
-610.230	800.000	-0.077	-0.241
-609.215	-200.000	-0.022	-0.357
-608.201	-200.000	0.026	-0.441
-607.186	-131.563	0.267	-0.035
-606.171	-18.195	0.149	0.094
-605.157	-200.000	0.035	0.194
-604.142	-200.000	-0.031	0.256
-603.128	-125.157	0.265	-0.041
-602.113	101.111	0.159	0.186
-601.098	-155.731	-0.529	0.034
-600.084	-106.668	0.034	-0.008
-599.069	-78.169	-0.018	-0.006
-598.055	26.323	0.071	-0.060
-597.040	-110.310	-0.322	-0.067
-596.025	33.443	0.100	0.088
-595.011	29.289	-0.010	0.009
-593.996	22.588	-0.065	-0.053
-592.982	31.843	-0.053	0.046
-591.967	27.926	-0.117	-0.099
-590.952	-200.000	0.001	0.023
-589.938	-13.218	-0.225	-0.147
-588.923	-25.236	-0.184	-0.110
-587.909	-73.401	0.268	0.098
-586.894	-200.000	-0.029	0.167
-585.879	705.389	0.054	0.142
-584.865	-141.740	-0.373	0.038
-583.850	-36.114	-0.092	0.050
-582.836	800.000	0.014	0.059
-581.821	-18.247	-0.217	-0.137
-580.806	309.058	-0.171	0.320
-579.792	-46.205	-0.178	-0.088
-578.777	142.058	-0.116	0.155
-577.763	-200.000	-0.011	0.315
-576.748	-39.472	0.196	-0.103
-575.733	-200.000	-0.035	-0.159
-574.719	-200.000	0.014	0.233
-573.704	-22.368	-0.146	-0.089
-572.690	-109.503	-0.176	-0.037
-571.675	-99.421	0.098	0.025
-570.661	-200.000	0.041	-0.287
-569.646	-157.820	0.241	0.014
-568.631	-95.910	-0.293	0.078
-567.617	-200.000	0.022	-0.209
-566.602	-161.163	-0.146	0.008
-565.588	93.164	-0.089	-0.101
-564.573	-188.255	0.100	0.001
-563.558	-75.199	0.218	-0.078
-562.544	84.436	-0.101	-0.110
-561.529	-83.689	-0.326	0.104
-560.515	72.978	0.125	0.131
-559.500	-109.612	-0.334	-0.071
-558.485	-41.116	-0.158	-0.082
-557.471	-105.643	-0.245	-0.056
-556.456	-30.008	-0.238	0.136
-555.442	800.000	0.095	0.356
-554.427	-200.000	0.007	0.133
-553.412	-158.181	0.227	0.013
-552.398	93.071	-0.126	-0.144
-551.383	121.710	0.040	-0.051
-550.369	-10.589	-0.210	0.140
-549.354	570.184	0.076	0.186
-548.339	-76.390	-0.078	0.028
-547.325	5.601	0.187	0.139
-546.310	-146.192	0.058	0.005
-545.296	212.218	-0.134	-0.212
-544.281	-118.772	-0.268	-0.047
-543.266	7.814	-0.250	0.188
-542.252	-21.127	0.254	-0.156
-541.237	800.000	-0.039	-0.168
-540.223	55.700	0.222	0.216
-539.208	299.984	0.123	0.228
-538.193	800.000	0.086	-0.282
-537.179	-200.000	0.002	0.249
-536.164	-102.098	-0.094	-0.023
-535.150	-200.000	0.024	-0.154
-534.135	93.908	0.153	0.174
-533.121	-173.945	0.045	0.001
-532.106	-200.000	0.014	0.156
-531.091	-200.000	-0.024	0.201
-530.077	-164.778	-0.157	0.007
-529.062	71.780	0.095	0.099
-528.048	17.565	0.099	0.079
-527.033	-107.090	0.363	-0.080
-526.018	-84.406	-0.214	0.068
-525.004	800.000	0.021	-0.071
-523.989	89.299	0.348	0.389
-522.975	-100.493	-0.251	0.062
-521.960	251.634	0.157	-0.268
-520.945	576.689	-0.172	-0.422
-519.931	-40.556	0.174	-0.090
-518.916	83.930	-0.091	-0.099
-517.902	800.000	0.068	0.253
-516.887	800.000	0.037	0.128
-515.872	-12.086	-0.189	-0.124
-514.858	-107.600	0.210	0.046
-513.843	296.347	0.036	0.066
-512.829	73.507	0.170	-0.178
-511.814	-200.000	0.022	-0.283
-510.799	-200.000	0.006	0.316
-509.785	94.630	0.227	0.259
-508.770	-44.123	-0.117	-0.059
-507.756	10.521	0.185	-0.141
-506.741	96.666	0.175	-0.200
-505.726	-86.469	-0.211	0.065
-504.712	-200.000	-0.014	-0.352
-503.697	268.411	0.025	-0.044
-502.683	-144.039	0.197	-0.019
-501.668	273.548	0.039	0.069
-500.653	-193.615	0.171	0.001
-499.639	800.000	0.130	-0.448
-498.624	-76.635	0.105	0.037
-497.610	164.501	0.175	0.247
-496.595	4.459	-0.084	-0.062
-495.581	-112.053	0.376	0.076
-494.566	40.201	0.116	0.104
-493.551	133.335	0.126	0.163
-492.537	-39.664	0.273	0.143
-491.522	-200.000	0.001	-0.047
-490.508	93.445	-0.075	0.085
-489.493	584.921	-0.064	0.158
-488.478	123.165	-0.095	0.120
-487.464	-200.000	0.047	-0.326
-486.449	281.904	0.012	-0.021
-485.435	2.110	0.028	-0.021
-484.420	-200.000	0.021	-0.118
-483.405	-30.163	-0.211	-0.120
-482.391	-67.057	0.440	-0.174
-481.376	-41.658	-0.191	0.098
-480.362	-200.000	-0.063	0.304
-479.347	142.823	0.104	-0.138
-478.332	519.899	-0.089	0.209
-477.318	-62.819	-0.573	0.237
-476.303	326.680	0.192	-0.368
-475.289	-200.000	0.027	-0.134
-474.274	38.472	-0.225	0.201
-473.259	-66.314	0.251	-0.100
-472.245	32.433	-0.175	0.151
-471.230	-13.187	-0.117	0.076
-470.216	234.024	-0.026	0.042
-469.201	229.901	-0.103	0.168
-468.186	800.000	0.089	0.322
-467.172	-200.000	0.039	-0.404
-466.157	800.000	0.087	0.298
-465.143	781.154	-0.123	0.337
-464.128	165.420	0.229	0.324
-463.113	-7.682	-0.288	0.195
-462.099	409.276	0.051	0.109
-461.084	58.873	0.192	0.189
-460.070	-200.000	0.006	0.282
-459.055	-59.563	0.197	0.085
-458.040	-93.704	-0.149	-0.041
-457.026	-72.252	-0.115	-0.042
-456.011	800.000	-0.040	-0.167
-454.997	174.374	0.094	0.136
-453.982	401.370	0.155	0.325
-452.968	-200.000	-0.016	0.291
-451.953	-157.060	-0.071	-0.004
-450.938	-99.645	0.173	-0.043
-449.924	68.702	0.048	0.049
-448.909	-200.000	0.077	0.376
-447.895	-200.000	-0.013	-0.164
-446.880	-52.534	-0.200	0.092
-445.865	-84.367	0.299	0.095
-444.851	-113.429	0.414	0.081
-443.836	357.813	-0.171	0.340
-442.822	28.569	0.054	0.046
-441.807	-78.263	-0.159	-0.055
-440.792	459.238	-0.062	0.137
-439.778	50.569	-0.210	-0.199
-438.763	193.149	-0.116	-0.175
-437.749	-32.824	0.193	0.107
-436.734	-128.462	-0.257	-0.036
-435.719	800.000	-0.033	0.142
-434.705	49.664	0.176	0.166
-433.690	229.334	0.127	0.206
-432.676	157.612	-0.015	0.021
-431.661	331.986	-0.058	0.111
-430.646	-21.693	-0.180	-0.110
-429.632	-200.000	0.059	-0.271
-428.617	17.915	-0.184	0.147
-427.603	599.007	0.110	0.272
-426.588	530.765	-0.098	0.230
-425.573	20.214	-0.344	0.277
-424.559	-200.000	-0.059	-0.272
-423.544	-103.312	-0.304	0.072
-422.530	41.178	0.085	-0.077
-421.515	800.000	-0.087	-0.278
-420.500	-63.090	0.117	-0.048
-419.486	800.000	-0.099	-0.285
-418.471	-89.866	0.306	-0.089
-417.457	-117.500	0.297	0.054
-416.442	50.872	-0.093	0.088
-415.428	-136.931	-0.142	0.016
-414.413	-68.210	0.293	0.114
-413.398	800.000	-0.020	0.065
-412.384	-200.000	-0.049	0.413
-411.369	-38.448	0.108	-0.057
-410.355	-49.949	-0.298	0.141
-409.340	118.309	-0.183	0.225
-408.325	-200.000	0.013	-0.072
-407.311	158.463	-0.041	-0.057
-406.296	-16.959	-0.209	0.132
-405.282	-200.000	-0.014	0.131
-404.267	-200.000	-0.022	0.157
-403.252	-200.000	-0.014	0.236
-402.238	544.770	-0.089	-0.212
-401.223	-85.997	-0.067	0.021
-400.209	11.464	0.263	-0.201
-399.194	-200.000	-0.016	-0.235
-398.179	6.934	-0.093	0.069
-397.165	-149.240	-0.309	0.025
-396.150	39.692	-0.048	0.043
-395.136	-95.433	0.093	-0.025
-394.121	-200.000	0.027	0.282
-393.106	263.605	-0.116	0.201
-392.092	325.428	-0.059	0.113
-391.077	18.298	0.346	-0.276
-390.063	4.854	0.316	-0.232
-389.048	-200.000	-0.054	0.276
-388.033	-200.000	-0.048	-0.363
-387.019	102.969	0.317	-0.371
-386.004	325.648	-0.119	-0.227
-384.990	90.199	-0.194	0.216
-383.975	16.486	-0.233	0.183
-382.960	157.190	-0.044	0.061
-381.946	-200.000	0.027	-0.191
-380.931	244.059	0.172	-0.288
-379.917	173.935	0.140	0.202
-378.902	60.796	0.164	0.162
-377.888	422.115	-0.130	0.278
-376.873	-120.057	-0.108	-0.018
-375.858	630.942	0.079	0.200
-374.844	87.662	0.108	-0.119
-373.829	-0.662	-0.191	-0.135
-372.815	142.992	0.141	0.187
-371.800	-200.000	0.001	0.279
-370.785	800.000	-0.089	-0.370
-369.771	-55.239	0.283	-0.127
-368.756	-26.034	-0.384	0.225
-367.742	198.562	-0.184	0.281
-366.727	-87.247	0.134	-0.041
-365.712	-158.382	-0.165	-0.010
-364.698	-24.713	0.099	0.059
-363.683	-67.421	0.273	-0.107
-362.669	493.976	0.062	0.142
-361.654	-200.000	-0.022	-0.110
-360.639	800.000	0.013	-0.053
-359.625	-96.344	0.203	-0.054
-358.610	800.000	-0.021	0.083
-357.596	140.838	-0.169	0.223
-356.581	-200.000	-0.046	-0.288
-355.566	-200.000	-0.043	0.202
-354.552	620.265	-0.058	0.145
-353.537	-200.000	-0.027	0.176
-352.523	-92.347	0.085	0.024
-351.508	-30.961	0.101	0.057
-350.493	-38.080	-0.072	-0.038
-349.479	-77.082	-0.019	-0.007
-348.464	-57.866	0.213	0.093
-347.450	420.618	-0.105	0.223
-346.435	-122.649	-0.052	0.008
-345.420	-200.000	0.007	-0.275
-344.406	588.138	0.076	-0.188
-343.391	42.442	0.158	0.143
-342.377	3.245	0.137	0.099
-341.362	-200.000	-0.005	-0.316
-340.348	-79.035	-0.251	-0.085
-339.333	-200.000	0.024	0.130
-338.318	-111.126	0.268	0.055
-337.304	-106.675	-0.185	0.041
-336.289	73.203	0.070	0.073
-335.275	-55.988	0.216	-0.096
-334.260	-136.100	0.075	-0.009
-333.245	749.764	0.022	0.060
-332.231	800.000	0.124	0.391
-331.216	50.702	0.040	0.038
-330.202	-200.000	0.045	-0.274
-329.187	19.170	0.278	0.222
-328.172	446.313	-0.056	-0.122
-327.158	-138.149	0.491	-0.054
-326.143	561.665	-0.074	0.178
-325.129	313.296	-0.080	-0.150
-324.114	800.000	0.071	-0.236
-323.099	143.925	-0.062	0.083
-322.085	-37.223	0.098	0.052
-321.070	-78.061	-0.270	0.093
-320.056	-200.000	0.017	0.141
-319.041	-104.518	0.215	-0.049
-318.026	84.893	-0.177	0.193
-317.012	-121.257	-0.161	-0.027
-315.997	302.063	0.130	0.239
-314.983	-61.403	0.292	-0.122
-313.968	-9.793	-0.147	-0.097
-312.953	800.000	0.082	-0.242
-311.939	327.296	0.084	-0.161
-310.924	81.979	0.096	0.104
-309.910	-102.329	-0.363	-0.087
-308.895	-67.342	-0.251	-0.098
-307.880	272.505	0.128	0.224
-306.866	494.054	0.085	0.195
-305.851	-86.443	-0.106	0.032
-304.837	-61.366	-0.220	-0.092
-303.822	-83.167	0.080	-0.026
-302.807	-149.919	0.211	0.016
-301.793	405.189	-0.047	-0.098
-300.778	800.000	0.108	0.390
-299.764	42.495	-0.189	-0.171
-298.749	-200.000	-0.002	0.284
-297.735	-93.780	-0.089	0.024
-296.720	-200.000	0.029	-0.133
-295.705	-32.950	-0.204	0.113
-294.691	29.296	0.192	0.162
-293.676	-200.000	-0.042	-0.270
-292.662	541.569	-0.084	0.198
-291.647	-135.565	-0.118	-0.014
-290.632	800.000	-0.081	-0.285
-289.618	114.385	-0.077	0.094
-288.603	63.672	0.061	-0.061
-287.589	-23.215	-0.239	0.143
-286.574	-156.228	0.310	0.019
-285.559	31.959	0.176	-0.151
-284.545	53.430	0.124	0.118
-283.530	-21.997	-0.240	0.145
-282.516	205.434	0.091	-0.140
-281.501	-200.000	-0.029	0.201
-280.486	5.336	0.041	0.030
-279.472	90.941	0.115	0.128
-278.457	48.767	-0.074	0.069
-277.443	-200.000	0.091	-0.408
-276.428	216.760	-0.062	-0.098
-275.413	388.981	0.158	-0.325
-274.399	800.000	-0.044	-0.153
-273.384	91.146	0.163	-0.182
-272.370	8.903	-0.195	0.146
-271.355	-154.020	-0.198	-0.013
-270.340	-55.628	0.264	-0.117
-269.326	43.497	-0.217	-0.197
-268.311	-93.726	0.199	-0.054
-267.297	128.943	0.034	0.043
-266.282	-200.000	-0.026	0.261
-265.267	-92.163	-0.243	0.068
-264.253	-124.387	-0.213	-0.033
-263.238	146.785	-0.235	-0.314
-262.224	611.031	-0.122	-0.304
-261.209	-48.571	-0.349	-0.167
-260.195	16.621	0.098	0.077
-259.180	31.318	0.059	0.050
-258.165	178.659	0.111	-0.161
-257.151	-200.000	0.026	-0.284
-256.136	-104.674	-0.302	-0.069
-255.122	180.457	0.186	-0.270
-254.107	-200.000	-0.028	-0.293
-253.092	-127.689	-0.209	0.030
-252.078	-1.791	0.288	0.201
-251.063	-105.326	-0.092	0.021
-250.049	-200.000	-0.005	0.080
-249.034	800.000	-0.051	0.158
-248.019	663.111	0.071	-0.183
-247.005	-57.946	-0.281	-0.122
-245.990	226.824	-0.156	-0.251
-244.976	166.656	-0.125	0.175
-243.961	-200.000	0.017	0.145
-242.946	3.577	0.084	0.061
-241.932	800.000	-0.048	-0.151
-240.917	-79.085	0.168	0.057
-239.903	-80.535	-0.130	-0.043
-238.888	190.642	0.080	-0.119
-237.873	367.315	-0.025	0.050
-236.859	800.000	-0.092	-0.286
-235.844	524.442	-0.048	-0.113
-234.830	-200.000	-0.044	-0.196
-233.815	44.710	-0.165	-0.151
-232.800	469.597	-0.150	-0.335
-231.786	-127.601	0.036	-0.005
-230.771	-200.000	0.013	-0.242
-229.757	-19.235	0.167	0.103
-228.742	-200.000	0.018	0.087
-227.727	-72.382	0.137	0.050
-226.713	-138.902	0.087	0.009
-225.698	-17.776	0.322	-0.200
-224.684	-76.388	-0.251	-0.087
-223.669	33.205	0.255	0.219
-222.655	-114.329	0.110	-0.021
-221.640	22.790	-0.167	-0.135
-220.625	173.911	0.223	0.319
-219.611	-4.335	0.201	0.138
-218.596	800.000	-0.047	-0.183
-217.582	800.000	-0.091	-0.389
-216.567	2.960	0.129	-0.093
-215.552	9.872	-0.072	-0.054
-214.538	-124.856	-0.202	-0.031
-213.523	-168.549	-0.033	-0.001
-212.509	-39.767	-0.089	0.046
-211.494	800.000	-0.039	0.124
-210.479	-154.414	-0.032	-0.002
-209.465	-55.839	-0.370	-0.164
-208.450	-9.152	-0.134	-0.089
-207.436	237.185	-0.052	-0.086
-206.421	12.474	0.304	0.232
-205.406	67.964	0.137	-0.139
-204.392	-200.000	-0.049	-0.360
-203.377	-80.170	0.350	-0.116
-202.363	-200.000	0.057	0.467
-201.348	-19.363	-0.165	-0.102
-200.333	800.000	0.140	-0.425
-199.319	-68.014	-0.165	0.064
-198.304	-61.105	0.388	-0.162
-197.290	-100.241	-0.047	0.012
-196.275	-101.231	0.349	0.085
-195.260	-149.689	0.089	0.007
-194.246	-200.000	0.051	0.318
-193.231	-200.000	0.025	-0.243
-192.217	-102.775	-0.271	0.064
-191.202	-39.834	-0.212	0.110
-190.187	-171.801	0.065	-0.002
-189.173	-200.000	0.041	0.349
-188.158	-80.703	0.152	-0.050
-187.144	-5.493	-0.286	-0.194
-186.129	800.000	-0.089	0.249
-185.114	800.000	0.093	-0.256
-184.100	257.567	0.133	0.226
-183.085	-57.529	-0.168	0.073
-182.071	800.000	-0.042	0.176
-181.056	-150.666	0.270	-0.020
-180.042	800.000	-0.076	-0.297
-179.027	191.059	0.015	-0.022
-178.012	-49.699	0.204	-0.096
-176.998	-200.000	-0.028	-0.187
-175.983	-161.245	-0.162	-0.008
-174.969	359.513	0.036	-0.071
-173.954	-155.994	-0.201	0.013
-172.939	110.803	0.194	-0.230
-171.925	286.641	0.204	0.364
-170.910	22.194	0.075	0.060
-169.896	800.000	0.070	0.303
-168.881	308.054	0.083	0.154
-167.866	18.567	-0.243	-0.192
-166.852	-200.000	-0.020	0.137
-165.837	-163.810	0.304	0.014
-164.823	-11.891	0.340	0.220
-163.808	-30.603	-0.118	-0.066
-162.793	-14.690	0.154	-0.098
-161.779	17.724	-0.187	-0.147
-160.764	-87.525	-0.273	0.082
-159.750	22.882	-0.120	0.097
-158.735	800.000	-0.033	-0.132
-157.720	-27.868	0.171	-0.098
-156.706	210.397	-0.172	-0.268
-155.691	-18.500	-0.303	-0.187
-154.677	145.683	0.101	0.134
-153.662	-200.000	-0.023	0.123
-152.647	784.112	-0.122	0.329
-151.633	-33.010	0.306	0.168
-150.618	-42.543	-0.532	0.268
-149.604	-133.962	-0.462	0.057
-148.589	57.826	-0.046	-0.044
-147.574	-118.504	-0.404	0.071
-146.560	-109.473	-0.130	0.027
-145.545	-33.279	-0.072	0.039
-144.531	-117.452	0.340	-0.061
-143.516	-122.342	-0.181	0.029
-142.502	-14.735	0.265	0.168
-141.487	-143.361	0.050	-0.005
-140.472	-56.420	0.247	0.108
-139.458	513.047	-0.087	0.200
-138.443	144.587	0.082	-0.108
-137.429	-161.805	0.030	-0.002
-136.414	152.480	-0.134	-0.181
-135.399	-56.758	0.182	0.079
-134.385	20.881	-0.243	-0.195
-133.370	395.114	0.083	-0.171
-132.356	122.028	0.117	-0.145
-131.341	150.869	0.074	0.099
-130.326	144.704	-0.278	-0.366
-129.312	-24.221	-0.011	-0.006
-128.297	-95.285	-0.212	-0.056
-127.283	-83.905	0.122	-0.038
-126.268	403.665	-0.027	-0.056
-125.253	800.000	0.037	0.111
-124.239	274.919	-0.152	0.266
-123.224	71.248	-0.139	0.143
-122.210	-200.000	-0.038	0.393
-121.195	-29.281	0.221	-0.125
