DTS Sentinel unit serial number:	SN413079Multiplexer serial number:	ORYXHardware model number:	OX4-SRSoftware version number:	ORYX F/W v4.00 Oryx Data Collector v3.7.2.0data status	okinstallation	princeton_trtdifferential loss correction	single-endedforward channel	channel 1reverse channel	N/Adate	2019/09/18time	16:38:36forward acquisition time	60.00reverse acquisition time	0.00gamma	496.2192k internal	0.2292k external	0.2292temperature offset calibration	0.9994default loss term (dB/km)	0.3790temperature slope calibration	1.0000multiplexer offset coefficient	1.0000multiplexer slope coefficient	1.0000fibre end	0.00T internal ref (°C)	39.61T ext. ref 1 (°C)	0.86T ext. ref 2 (°C)	36.84length (m)	temperature (°C)	Stokes	anti-Stokes-747.200	-195.134	0.135	-0.001
-746.185	159.759	0.186	0.265
-745.171	-200.000	0.030	-0.247
-744.156	-200.000	-0.026	0.157
-743.142	-200.000	0.005	0.211
-742.127	84.182	0.271	0.303
-741.112	800.000	0.050	0.156
-740.098	254.199	-0.135	0.236
-739.083	-200.000	0.004	0.208
-738.069	-79.720	0.091	-0.032
-737.054	-37.833	0.164	-0.089
-736.039	-107.711	-0.187	0.042
-735.025	-40.208	-0.193	0.103
-734.010	26.166	0.033	0.028
-732.996	-128.038	-0.167	-0.024
-731.981	147.801	-0.011	-0.015
-730.966	-200.000	-0.035	0.213
-729.952	39.732	0.159	0.146
-728.937	236.935	-0.042	0.071
-727.923	61.888	-0.224	-0.229
-726.908	305.677	0.167	0.317
-725.894	542.415	-0.092	0.225
-724.879	-200.000	-0.025	-0.216
-723.864	-157.552	0.180	-0.011
-722.850	-34.299	-0.093	0.052
-721.835	-200.000	0.002	-0.392
-720.821	-149.967	-0.102	-0.008
-719.806	17.477	-0.093	-0.076
-718.791	65.067	-0.041	-0.042
-717.777	-200.000	0.035	-0.358
-716.762	-200.000	0.028	-0.149
-715.748	127.678	0.183	-0.238
-714.733	229.004	-0.185	-0.308
-713.718	590.171	-0.154	-0.389
-712.704	-200.000	0.005	0.034
-711.689	25.561	-0.074	0.063
-710.675	-186.258	0.391	-0.006
-709.660	-95.206	0.221	-0.061
-708.645	800.000	-0.063	-0.191
-707.631	-200.000	-0.056	0.402
-706.616	46.683	-0.145	-0.138
-705.602	-200.000	0.048	-0.379
-704.587	-182.239	0.304	-0.006
-703.572	-200.000	0.019	-0.121
-702.558	535.989	0.170	-0.411
-701.543	-200.000	0.082	-0.389
-700.529	800.000	-0.070	-0.206
-699.514	-23.095	-0.188	-0.116
-698.499	-200.000	-0.027	0.313
-697.485	-200.000	-0.051	0.265
-696.470	-182.682	-0.224	-0.004
-695.456	8.513	-0.133	-0.102
-694.441	12.544	-0.112	0.088
-693.426	-62.716	-0.070	0.029
-692.412	-16.822	0.094	0.060
-691.397	-50.573	-0.152	0.073
-690.383	800.000	-0.088	-0.342
-689.368	258.352	-0.206	-0.363
-688.354	-200.000	0.019	-0.284
-687.339	-23.854	-0.288	0.176
-686.324	173.716	0.081	-0.119
-685.310	19.601	0.110	0.090
-684.295	-200.000	0.021	-0.100
-683.281	-14.844	-0.211	-0.139
-682.266	153.626	0.182	-0.255
-681.251	-108.318	-0.240	0.053
-680.237	-200.000	0.027	0.156
-679.222	800.000	0.061	-0.240
-678.208	84.105	0.192	-0.214
-677.193	-101.963	-0.318	0.078
-676.178	155.310	0.077	-0.108
-675.164	597.284	-0.048	0.122
-674.149	800.000	0.079	0.252
-673.135	790.772	-0.141	-0.395
-672.120	-7.101	0.087	-0.061
-671.105	-178.046	0.182	0.004
-670.091	-86.428	0.318	-0.100
-669.076	800.000	-0.065	0.285
-668.062	184.961	-0.056	-0.085
-667.047	-200.000	0.032	0.160
-666.032	710.227	0.130	-0.351
-665.018	-139.396	0.331	0.036
-664.003	140.681	-0.206	-0.278
-662.989	209.828	0.092	0.147
-661.974	-62.879	-0.198	0.084
-660.959	-103.004	-0.065	-0.016
-659.945	21.543	-0.256	-0.213
-658.930	60.342	-0.125	-0.127
-657.916	442.165	0.120	-0.268
-656.901	-66.735	-0.168	-0.068
-655.886	800.000	0.038	0.109
-654.872	-200.000	-0.041	0.243
-653.857	-71.999	0.148	0.056
-652.843	-86.359	0.196	-0.061
-651.828	800.000	-0.051	-0.219
-650.814	-72.823	0.200	0.075
-649.799	800.000	-0.140	0.548
-648.784	-200.000	0.012	-0.164
-647.770	65.653	-0.222	-0.229
-646.755	253.706	-0.120	-0.210
-645.741	8.306	0.143	-0.110
-644.726	151.584	-0.079	-0.110
-643.711	800.000	0.076	-0.263
-642.697	705.708	0.085	0.228
-641.682	-200.000	-0.028	-0.168
-640.668	8.509	0.120	0.092
-639.653	196.201	0.134	0.208
-638.638	-5.871	-0.305	-0.213
-637.624	-71.170	0.279	0.107
-636.609	-33.182	-0.118	0.067
-635.595	9.946	0.077	-0.060
-634.580	48.582	-0.045	0.043
-633.565	-87.157	-0.441	0.137
-632.551	-200.000	0.045	0.247
-631.536	800.000	0.047	-0.210
-630.522	800.000	0.098	-0.434
-629.507	83.223	-0.072	0.080
-628.492	489.612	-0.142	-0.331
-627.478	-57.300	0.090	-0.040
-626.463	-117.248	0.116	0.021
-625.449	-200.000	0.010	0.056
-624.434	-200.000	0.040	-0.185
-623.419	-200.000	-0.043	-0.477
-622.405	-0.926	-0.140	0.101
-621.390	390.077	0.115	0.242
-620.376	180.446	0.193	0.288
-619.361	-91.045	0.283	0.083
-618.346	-200.000	0.012	0.419
-617.332	2.651	-0.271	-0.200
-616.317	-200.000	0.008	-0.210
-615.303	16.067	0.136	0.109
-614.288	1.560	0.272	-0.199
-613.273	-7.718	-0.158	-0.109
-612.259	-94.772	-0.319	-0.088
-611.244	-57.139	0.192	0.086
-610.230	70.413	-0.221	-0.232
-609.215	800.000	0.066	0.241
-608.201	-93.779	-0.080	-0.022
-607.186	-114.690	-0.218	-0.042
-606.171	-15.925	0.229	0.149
-605.157	800.000	0.049	0.202
-604.142	-32.365	-0.044	-0.025
-603.128	-107.666	-0.089	0.020
-602.113	191.601	0.130	-0.199
-601.098	87.457	-0.118	-0.132
-600.084	-5.149	0.074	-0.052
-599.069	800.000	0.031	0.095
-598.055	262.152	-0.221	0.390
-597.040	411.740	-0.113	0.244
-596.025	800.000	-0.131	0.390
-595.011	23.981	-0.180	-0.151
-593.996	-200.000	0.007	0.321
-592.982	800.000	-0.074	-0.274
-591.967	730.706	0.093	0.253
-590.952	87.979	0.117	-0.132
-589.938	-132.990	-0.369	0.048
-588.923	61.331	-0.068	-0.069
-587.909	-101.556	0.063	-0.015
-586.894	52.923	0.116	-0.113
-585.879	-200.000	-0.000	0.048
-584.865	-200.000	0.031	0.151
-583.850	165.408	-0.118	-0.170
-582.836	76.238	-0.139	0.150
-581.821	292.148	0.114	-0.211
-580.806	-76.872	-0.114	-0.040
-579.792	-108.655	0.254	-0.055
-578.777	-90.939	0.208	-0.061
-577.763	785.775	0.063	0.175
-576.748	-44.809	0.260	-0.132
-575.733	-99.039	0.180	-0.046
-574.719	-200.000	-0.313	-0.001
-573.704	-32.089	0.108	-0.061
-572.690	185.177	-0.179	-0.270
-571.675	128.006	-0.083	-0.107
-570.661	-79.406	0.354	-0.122
-569.646	-28.661	0.247	-0.145
-568.631	-98.054	0.310	0.081
-567.617	4.920	0.072	0.054
-566.602	-73.665	-0.259	0.096
-565.588	77.208	-0.035	-0.038
-564.573	-200.000	-0.035	-0.285
-563.558	44.825	-0.221	0.207
-562.544	800.000	0.081	0.292
-561.529	139.319	-0.234	0.313
-560.515	61.411	-0.101	0.102
-559.500	-36.379	0.273	-0.149
-558.485	188.709	-0.222	-0.337
-557.471	33.362	-0.118	0.104
-556.456	121.938	0.110	0.140
-555.442	-120.843	-0.016	0.003
-554.427	-109.134	-0.277	0.060
-553.412	-109.765	-0.071	0.015
-552.398	-200.000	-0.017	0.213
-551.383	300.329	0.161	0.301
-550.369	108.396	-0.213	-0.258
-549.354	-89.622	0.460	0.137
-548.339	-200.000	0.013	-0.327
-547.325	-21.418	0.251	0.156
-546.310	800.000	-0.027	0.097
-545.296	-173.726	-0.271	-0.008
-544.281	-16.917	-0.094	-0.061
-543.266	-200.000	0.025	-0.113
-542.252	42.028	0.199	-0.183
-541.237	-51.723	0.051	0.024
-540.223	-200.000	0.007	-0.270
-539.208	241.625	0.180	0.305
-538.193	-65.965	-0.259	0.105
-537.179	800.000	0.053	-0.227
-536.164	236.844	0.100	-0.168
-535.150	152.222	0.207	-0.287
-534.135	800.000	-0.024	-0.084
-533.121	-77.662	0.108	0.038
-532.106	-123.816	0.408	0.065
-531.091	280.127	0.040	-0.073
-530.077	349.582	0.058	-0.116
-529.062	210.708	0.186	0.296
-528.048	207.851	0.117	0.186
-527.033	-200.000	0.036	-0.266
-526.018	570.577	-0.107	0.263
-525.004	796.296	-0.148	-0.414
-523.989	65.421	-0.062	-0.063
-522.975	-118.766	-0.253	0.045
-521.960	-147.586	0.090	0.008
-520.945	-86.711	0.066	0.021
-519.931	800.000	0.032	0.120
-518.916	800.000	0.076	-0.323
-517.902	-135.692	-0.463	0.056
-516.887	-35.402	0.186	-0.103
-515.872	800.000	-0.037	-0.105
-514.858	-200.000	0.017	0.183
-513.843	-40.130	0.445	0.235
-512.829	-200.000	-0.041	-0.214
-511.814	800.000	0.107	-0.335
-510.799	-44.747	-0.294	-0.149
-509.785	800.000	-0.074	0.237
-508.770	-200.000	-0.004	0.068
-507.756	275.026	-0.184	-0.330
-506.741	-6.796	0.092	0.063
-505.726	800.000	0.125	-0.477
-504.712	-200.000	0.027	-0.142
-503.697	47.216	-0.164	0.155
-502.683	-84.051	0.035	-0.011
-501.668	-94.271	0.051	0.014
-500.653	-200.000	0.023	-0.113
-499.639	-16.418	-0.043	-0.028
-498.624	471.276	0.129	-0.295
-497.610	19.333	-0.390	0.317
-496.595	-116.403	0.393	-0.074
-495.581	13.116	0.168	-0.132
-494.566	195.860	-0.268	-0.413
-493.551	-54.893	0.264	-0.121
-492.537	-112.233	-0.490	0.100
-491.522	139.718	-0.159	-0.212
-490.508	132.260	-0.114	-0.148
-489.493	42.476	-0.167	0.154
-488.478	-142.374	0.115	-0.011
-487.464	159.985	0.180	0.254
-486.449	-117.325	0.140	-0.026
-485.435	121.360	-0.117	0.148
-484.420	-86.588	-0.083	0.026
-483.405	-184.983	-0.447	-0.007
-482.391	130.214	0.079	0.103
-481.376	208.625	0.172	0.273
-480.362	-1.816	0.056	-0.040
-479.347	-67.306	-0.067	-0.027
-478.332	800.000	0.098	0.331
-477.318	-128.815	-0.052	-0.007
-476.303	-61.150	-0.189	0.081
-475.289	133.069	-0.137	-0.179
-474.274	-82.708	0.521	0.171
-473.259	526.507	-0.048	-0.114
-472.245	-200.000	-0.000	0.058
-471.230	2.534	0.123	0.090
-470.216	-155.446	0.071	-0.005
-469.201	-187.331	0.185	-0.003
-468.186	-161.764	0.155	0.008
-467.172	-78.829	-0.298	-0.103
-466.157	-22.999	0.313	0.191
-465.143	148.008	-0.096	-0.131
-464.128	7.605	-0.202	0.153
-463.113	225.808	-0.102	-0.168
-462.099	-200.000	-0.280	0.001
-461.084	5.046	0.066	0.049
-460.070	-200.000	-0.002	0.015
-459.055	109.445	0.124	-0.150
-458.040	-114.186	0.180	0.035
-457.026	133.385	-0.113	0.148
-456.011	-182.460	0.101	0.002
-454.997	-56.609	0.148	0.066
-453.982	181.803	-0.031	-0.046
-452.968	222.870	0.124	0.203
-451.953	-105.335	-0.288	0.066
-450.938	800.000	0.037	-0.103
-449.924	-62.365	-0.393	0.165
-448.909	-200.000	-0.037	-0.210
-447.895	-128.071	-0.247	0.036
-446.880	-99.833	-0.215	0.054
-445.865	-200.000	-0.064	-0.295
-444.851	118.350	0.043	-0.054
-443.836	-64.185	-0.196	-0.081
-442.822	-31.523	-0.145	0.083
-441.807	88.970	0.159	-0.179
-440.792	-200.000	-0.001	-0.009
-439.778	47.219	-0.266	0.251
-438.763	41.363	0.053	0.048
-437.749	107.082	0.344	0.413
-436.734	-51.951	-0.166	-0.078
-435.719	-200.000	0.009	0.085
-434.705	78.464	-0.146	-0.158
-433.690	316.394	0.050	-0.095
-432.676	74.418	-0.301	0.319
-431.661	177.051	-0.068	-0.101
-430.646	-47.734	0.206	0.101
-429.632	-103.280	-0.096	0.023
-428.617	800.000	0.068	0.276
-427.603	800.000	-0.030	-0.105
-426.588	-200.000	0.000	0.116
-425.573	-146.743	0.090	-0.008
-424.559	41.011	0.138	0.126
-423.544	0.385	0.367	0.265
-422.530	800.000	0.050	-0.158
-421.515	-200.000	-0.104	-0.475
-420.500	-200.000	0.053	-0.328
-419.486	-200.000	0.003	-0.139
-418.471	-13.442	-0.190	-0.124
-417.457	-140.940	-0.203	0.021
-416.442	-5.766	0.286	0.198
-415.428	-123.865	0.103	-0.016
-414.413	-200.000	-0.021	0.212
-413.398	205.858	-0.100	-0.157
-412.384	-200.000	-0.006	0.107
-411.369	-102.832	-0.269	-0.065
-410.355	-200.000	0.019	0.182
-409.340	-130.794	-0.047	-0.006
-408.325	-200.000	-0.006	0.203
-407.311	800.000	-0.066	0.236
-406.296	-123.932	0.225	0.036
-405.282	-70.026	-0.234	-0.090
-404.267	-48.975	-0.077	-0.037
-403.252	323.745	0.112	-0.217
-402.238	-125.568	-0.312	-0.048
-401.223	113.569	0.230	-0.282
-400.209	-1.020	0.233	0.167
-399.194	-114.232	-0.203	-0.040
-398.179	800.000	-0.040	0.116
-397.165	0.906	-0.052	-0.037
-396.150	-200.000	0.067	0.459
-395.136	-127.211	0.273	-0.040
-394.121	800.000	-0.084	0.270
-393.106	-200.000	0.013	0.078
-392.092	209.133	-0.067	-0.106
-391.077	-200.000	0.035	0.000
-390.063	59.807	-0.209	-0.208
-389.048	-116.861	0.132	-0.024
-388.033	-200.000	-0.005	-0.153
-387.019	-50.144	-0.143	-0.068
-386.004	-170.625	-0.055	-0.002
-384.990	-200.000	0.027	-0.125
-383.975	11.403	0.162	0.126
-382.960	420.516	-0.087	-0.187
-381.946	800.000	-0.013	0.037
-380.931	-200.000	-0.045	0.330
-379.917	800.000	-0.045	0.181
-378.902	17.975	-0.155	-0.125
-377.888	160.497	-0.039	0.055
-376.873	44.684	0.212	0.197
-375.858	61.985	-0.108	-0.109
-374.844	-93.712	-0.073	0.020
-373.829	203.273	0.168	0.262
-372.815	200.847	0.308	0.478
-371.800	-28.779	0.056	-0.032
-370.785	-52.641	-0.197	0.092
-369.771	273.392	0.042	-0.076
-368.756	-200.000	-0.022	-0.165
-367.742	-70.916	0.142	-0.054
-366.727	-200.000	0.003	0.185
-365.712	-200.000	-0.027	-0.176
-364.698	800.000	-0.036	-0.135
-363.683	35.703	0.365	-0.324
-362.669	-60.273	-0.147	-0.063
-361.654	-136.097	-0.235	0.028
-360.639	117.997	0.052	-0.064
-359.625	535.965	0.042	0.100
-358.610	234.622	-0.079	-0.132
-357.596	-200.000	0.025	-0.298
-356.581	74.016	-0.203	-0.215
-355.566	2.248	-0.131	-0.095
-354.552	65.226	-0.104	0.106
-353.537	414.424	-0.148	0.318
-352.523	-35.031	0.541	0.297
-351.508	-33.697	-0.379	-0.211
-350.493	-144.093	0.040	-0.004
-349.479	-108.761	-0.411	0.089
-348.464	106.704	-0.211	0.252
-347.450	-105.722	0.064	0.015
-346.435	139.990	0.052	-0.069
-345.420	-111.549	0.164	0.034
-344.406	-200.000	-0.005	-0.040
-343.391	-92.204	0.384	0.109
-342.377	-46.747	-0.493	0.243
-341.362	-108.447	0.258	0.056
-340.348	-22.364	0.388	-0.237
-339.333	800.000	0.085	-0.271
-338.318	46.791	0.142	0.133
-337.304	13.702	0.193	0.151
-336.289	119.754	-0.296	-0.369
-335.275	-142.311	0.212	0.021
-334.260	-200.000	0.079	0.351
-333.245	171.848	0.109	0.157
-332.231	250.263	0.183	0.312
-331.216	137.938	-0.025	0.032
-330.202	-200.000	0.041	0.239
-329.187	-93.901	0.372	0.103
-328.172	800.000	0.024	-0.098
-327.158	16.072	-0.043	-0.034
-326.143	277.732	-0.071	-0.127
-325.129	800.000	0.056	-0.193
-324.114	-66.421	0.295	-0.118
-323.099	-105.968	0.293	0.066
-322.085	113.514	-0.029	0.035
-321.070	-200.000	0.022	0.252
-320.056	88.684	-0.330	0.370
-319.041	108.485	-0.103	0.124
-318.026	62.474	0.106	0.107
-317.012	97.646	0.212	-0.245
-315.997	-87.813	-0.201	-0.061
-314.983	-200.000	-0.039	0.258
-313.968	447.304	0.031	-0.069
-312.953	-113.305	0.125	0.025
-311.939	-177.899	-0.590	0.014
-310.924	-107.774	-0.107	0.023
-309.910	-200.000	-0.004	0.080
-308.895	-148.152	-0.300	-0.025
-307.880	194.409	0.184	-0.281
-306.866	295.142	-0.149	0.275
-305.851	-200.000	-0.064	-0.309
-304.837	-134.468	-0.398	0.049
-303.822	800.000	0.070	-0.216
-302.807	53.275	0.145	0.140
-301.793	-16.147	-0.180	-0.115
-300.778	64.503	0.288	0.292
-299.764	107.586	0.161	-0.193
-298.749	-99.543	0.197	-0.050
-297.735	-200.000	-0.025	0.166
-296.720	-108.554	-0.215	-0.046
-295.705	286.658	-0.081	0.146
-294.691	186.783	0.131	-0.196
-293.676	-54.439	0.187	0.085
-292.662	-77.780	-0.337	0.117
-291.647	-167.450	-0.213	0.009
-290.632	-69.131	-0.316	0.122
-289.618	-26.466	-0.076	0.045
-288.603	-200.000	-0.022	-0.314
-287.589	-119.684	0.145	-0.025
-286.574	145.082	-0.041	-0.054
-285.559	-163.879	-0.412	-0.019
-284.545	-0.228	-0.334	-0.239
-283.530	448.159	-0.095	-0.210
-282.516	188.364	0.192	-0.289
-281.501	-85.623	0.462	0.144
-280.486	-200.000	-0.042	0.328
-279.472	313.207	-0.087	0.164
-278.457	-37.832	-0.071	0.038
-277.443	543.312	0.036	0.086
-276.428	800.000	-0.063	-0.196
-275.413	-41.539	-0.138	-0.071
-274.399	7.471	0.110	-0.083
-273.384	-60.836	0.112	-0.048
-272.370	48.803	-0.166	0.156
-271.355	143.110	0.059	-0.079
-270.340	-100.474	0.264	0.066
-269.326	800.000	0.073	-0.241
-268.311	-90.007	-0.268	0.079
-267.297	330.983	0.132	0.255
-266.282	-200.000	0.034	-0.236
-265.267	42.235	-0.138	-0.126
-264.253	800.000	0.020	-0.065
-263.238	194.081	-0.064	-0.097
-262.224	-121.127	0.483	-0.081
-261.209	240.797	0.157	-0.263
-260.195	-84.680	-0.276	0.087
-259.180	-59.120	-0.275	-0.119
-258.165	256.880	0.123	-0.213
-257.151	-72.478	-0.218	0.081
-256.136	800.000	-0.018	-0.062
-255.122	19.870	-0.273	-0.221
-254.107	-143.775	-0.134	0.013
-253.092	-15.415	0.149	0.095
-252.078	-5.461	0.075	-0.051
-251.063	265.060	-0.096	-0.168
-250.049	-38.237	0.294	-0.156
-249.034	289.076	0.109	-0.198
-248.019	582.266	-0.144	-0.354
-247.005	178.337	0.100	-0.147
-245.990	113.020	-0.063	-0.077
-244.976	0.841	0.311	-0.224
-243.961	800.000	0.159	-0.499
-242.946	-35.279	0.335	-0.183
-241.932	-129.574	-0.151	0.021
-240.917	22.060	0.135	-0.110
-239.903	-34.366	-0.016	-0.009
-238.888	-200.000	0.001	0.235
-237.873	-137.375	0.116	0.013
-236.859	104.409	-0.083	-0.098
-235.844	-200.000	0.056	0.359
-234.830	-200.000	0.054	0.255
-233.815	-3.002	0.097	-0.068
-232.800	-80.644	0.191	-0.064
-231.786	4.415	-0.055	-0.041
-230.771	-182.828	-0.104	0.002
-229.757	-85.658	0.248	-0.077
-228.742	-26.941	-0.219	0.128
-227.727	-200.000	0.005	-0.204
-226.713	71.451	0.099	-0.103
-225.698	-200.000	-0.050	0.228
-224.684	109.236	-0.314	0.376
-223.669	183.590	0.092	0.137
-222.655	101.497	0.172	-0.201
-221.640	-200.000	0.005	-0.130
-220.625	-133.786	0.068	-0.009
-219.611	-17.251	-0.128	0.081
-218.596	153.905	-0.036	-0.049
-217.582	1.032	0.193	0.139
-216.567	-200.000	-0.022	0.154
-215.552	142.589	0.016	0.021
-214.538	27.076	-0.085	-0.072
-213.523	180.771	0.105	0.155
-212.509	-161.905	-0.308	-0.016
-211.494	355.049	0.170	0.339
-210.479	-22.227	-0.085	0.052
-209.465	270.115	0.089	-0.156
-208.450	-73.973	-0.236	-0.086
-207.436	-117.714	-0.283	0.051
-206.421	54.479	-0.125	-0.121
-205.406	800.000	-0.068	0.241
-204.392	44.173	-0.116	-0.106
-203.377	800.000	0.121	-0.359
-202.363	-76.432	-0.274	-0.097
-201.348	-200.000	-0.000	0.052
-200.333	-200.000	0.097	0.454
-199.319	-69.664	-0.340	-0.130
-198.304	798.877	-0.034	-0.093
-197.290	279.287	-0.121	-0.216
-196.275	72.671	-0.162	0.169
-195.260	245.310	0.011	0.019
-194.246	-146.553	0.231	0.020
-193.231	-200.000	0.010	0.220
-192.217	-79.273	-0.023	0.008
-191.202	-135.231	0.295	-0.035
-190.187	-75.977	0.267	-0.095
-189.173	67.329	0.257	0.263
-188.158	-7.325	0.056	-0.038
-187.144	396.031	-0.076	-0.159
-186.129	378.731	-0.098	-0.201
-185.114	-200.000	0.035	-0.262
-184.100	-200.000	0.001	0.231
-183.085	239.041	-0.082	-0.136
-182.071	81.049	-0.040	-0.044
-181.056	-45.943	0.074	-0.037
-180.042	-200.000	0.048	0.280
-179.027	-101.197	0.304	0.074
-178.012	-76.688	0.054	-0.019
-176.998	156.716	0.048	0.067
-175.983	-33.039	0.094	-0.052
-174.969	-34.825	-0.249	-0.136
-173.954	-30.264	0.157	0.089
-172.939	30.336	-0.192	0.164
-171.925	25.219	-0.280	0.233
-170.910	-130.388	0.234	0.032
-169.896	800.000	0.059	0.231
-168.881	265.523	0.130	0.227
-167.866	-121.227	-0.120	0.020
-166.852	-85.912	-0.184	0.057
-165.837	-96.608	0.202	0.053
-164.823	-200.000	-0.000	0.182
-163.808	210.164	0.143	-0.224
-162.793	-200.000	0.010	0.136
-161.779	393.283	0.075	0.155
-160.764	-57.847	0.300	0.131
-159.750	5.155	0.101	0.074
-158.735	-35.319	0.321	-0.175
-157.720	-104.491	0.152	0.035
-156.706	-30.535	-0.199	-0.113
-155.691	-200.000	0.004	0.182
-154.677	-200.000	0.036	-0.287
-153.662	368.899	0.141	0.286
-152.647	83.086	-0.225	0.245
-151.633	54.787	0.183	0.176
-150.618	569.592	0.076	0.184
-149.604	-200.000	0.276	-0.001
-148.589	274.424	0.032	-0.056
-147.574	366.171	0.072	-0.144
-146.560	-192.273	-0.235	-0.002
-145.545	185.101	-0.118	-0.176
-144.531	128.824	0.071	-0.091
-143.516	800.000	0.158	-0.554
-142.502	333.173	-0.129	0.250
-141.487	-58.804	-0.263	-0.114
-140.472	348.099	0.077	0.152
-139.458	-48.872	-0.325	-0.156
-138.443	7.239	0.178	-0.133
-137.429	-48.898	0.143	0.069
-136.414	-110.269	0.394	-0.082
-135.399	-68.203	-0.296	-0.115
-134.385	78.091	0.193	-0.205
-133.370	-80.818	-0.232	0.077
-132.356	539.677	-0.117	0.277
-131.341	-55.054	0.106	-0.048
-130.326	-138.092	-0.207	0.023
-129.312	-101.262	-0.160	0.039
-128.297	-63.774	-0.283	-0.116
-127.283	116.359	0.209	0.256
-126.268	800.000	-0.052	-0.144
-125.253	-174.026	0.262	0.008
-124.239	-60.611	-0.291	0.123
-123.224	241.675	-0.145	-0.242
-122.210	177.705	0.230	-0.335
-121.195	-200.000	-0.028	0.148
