DTS Sentinel unit serial number:	SN413079Multiplexer serial number:	ORYXHardware model number:	OX4-SRSoftware version number:	ORYX F/W v4.00 Oryx Data Collector v3.7.2.0data status	okinstallation	princeton_trtdifferential loss correction	single-endedforward channel	channel 1reverse channel	N/Adate	2019/09/18time	01:26:35forward acquisition time	60.00reverse acquisition time	0.00gamma	496.2192k internal	0.2341k external	0.2341temperature offset calibration	0.9977default loss term (dB/km)	0.3790temperature slope calibration	1.0000multiplexer offset coefficient	1.0000multiplexer slope coefficient	1.0000fibre end	0.00T internal ref (°C)	23.12T ext. ref 1 (°C)	0.16T ext. ref 2 (°C)	16.89length (m)	temperature (°C)	Stokes	anti-Stokes-747.200	372.885	0.003	0.006
-746.185	219.798	-0.159	0.254
-745.171	-146.586	-0.278	-0.024
-744.156	281.435	0.151	0.271
-743.142	-54.602	0.227	-0.103
-742.127	800.000	0.147	0.458
-741.112	800.000	-0.021	0.069
-740.098	195.609	-0.165	0.252
-739.083	292.570	0.046	-0.084
-738.069	-64.393	0.189	0.077
-737.054	165.492	0.064	-0.090
-736.039	-91.808	-0.420	-0.120
-735.025	800.000	-0.022	-0.072
-734.010	-31.866	-0.121	-0.068
-732.996	800.000	-0.095	-0.291
-731.981	-37.673	-0.130	-0.069
-730.966	-200.000	-0.027	-0.169
-729.952	-200.000	0.001	-0.190
-728.937	153.867	0.128	-0.176
-727.923	-200.000	-0.027	0.124
-726.908	-91.062	0.218	-0.063
-725.894	800.000	0.056	-0.246
-724.879	69.160	0.017	0.018
-723.864	-200.000	-0.041	-0.216
-722.850	-200.000	0.012	0.200
-721.835	-93.497	-0.132	0.037
-720.821	47.758	-0.049	-0.046
-719.806	-143.336	-0.419	-0.040
-718.791	162.423	0.026	0.036
-717.777	-11.656	-0.178	0.117
-716.762	349.254	0.040	0.079
-715.748	42.200	0.303	-0.276
-714.733	-200.000	0.024	-0.297
-713.718	168.909	-0.063	-0.090
-712.704	-54.283	-0.111	0.050
-711.689	159.202	-0.068	-0.095
-710.675	-8.842	-0.365	0.245
-709.660	800.000	-0.055	0.156
-708.645	185.680	-0.316	0.469
-707.631	-64.476	-0.149	-0.061
-706.616	216.165	0.032	0.051
-705.602	-20.569	0.075	-0.046
-704.587	-134.350	0.049	0.006
-703.572	-80.751	-0.445	0.148
-702.558	-90.170	0.180	0.052
-701.543	95.676	-0.162	0.185
-700.529	-200.000	-0.018	0.087
-699.514	193.711	-0.141	-0.214
-698.499	-67.300	0.253	-0.099
-697.485	43.488	0.066	-0.060
-696.470	209.845	0.163	0.255
-695.456	800.000	-0.072	-0.222
-694.441	277.868	-0.203	-0.362
-693.426	659.074	0.030	-0.077
-692.412	-200.000	-0.002	0.111
-691.397	-175.949	-0.203	-0.005
-690.383	178.531	-0.130	0.190
-689.368	4.938	-0.260	0.191
-688.354	-200.000	-0.006	-0.272
-687.339	-200.000	0.062	-0.301
-686.324	-70.021	0.146	-0.056
-685.310	-18.444	-0.266	0.166
-684.295	26.440	0.089	0.075
-683.281	-46.651	-0.020	0.010
-682.266	-167.378	0.184	-0.007
-681.251	347.593	0.047	-0.093
-680.237	-134.106	-0.434	0.054
-679.222	-186.327	-0.058	0.001
-678.208	-12.040	0.201	-0.132
-677.193	-91.721	0.106	0.030
-676.178	-110.840	0.178	-0.037
-675.164	131.564	-0.032	-0.041
-674.149	2.837	0.201	0.145
-673.135	-88.753	0.312	0.093
-672.120	800.000	-0.120	-0.338
-671.105	197.785	0.196	-0.299
-670.091	-107.031	-0.141	-0.031
-669.076	370.954	-0.076	0.154
-668.062	-143.470	-0.028	-0.003
-667.047	29.295	-0.189	-0.161
-666.032	-110.641	-0.369	0.076
-665.018	22.738	-0.103	-0.084
-664.003	59.338	-0.238	0.234
-662.989	126.239	-0.101	0.128
-661.974	-82.508	-0.298	0.097
-660.959	-200.000	-0.038	0.335
-659.945	-149.420	0.339	-0.027
-658.930	-83.046	0.111	-0.036
-657.916	212.528	0.213	-0.335
-656.901	-200.000	-0.020	0.114
-655.886	11.437	-0.076	-0.058
-654.872	5.129	0.105	-0.078
-653.857	-91.992	-0.371	0.105
-652.843	55.002	-0.137	-0.132
-651.828	-200.000	-0.006	0.046
-650.814	-68.747	0.056	-0.022
-649.799	-136.715	-0.111	-0.013
-648.784	-102.874	-0.174	0.041
-647.770	-130.013	-0.245	-0.033
-646.755	11.774	-0.139	-0.106
-645.741	187.261	-0.159	0.237
-644.726	-136.104	-0.302	0.035
-643.711	-23.456	0.280	-0.168
-642.697	99.967	-0.095	0.110
-641.682	-171.284	0.298	0.010
-640.668	198.944	-0.107	-0.163
-639.653	30.374	-0.244	-0.208
-638.638	-162.208	-0.123	-0.006
-637.624	-200.000	-0.023	-0.282
-636.609	-78.348	0.224	-0.077
-635.595	102.935	0.120	0.140
-634.580	37.026	0.122	-0.107
-633.565	-33.542	0.333	-0.184
-632.551	800.000	-0.031	0.095
-631.536	96.913	0.111	-0.127
-630.522	-52.174	0.296	0.137
-629.507	-200.000	-0.006	0.220
-628.492	-40.042	-0.274	-0.143
-627.478	-29.367	0.207	0.118
-626.463	-200.000	-0.018	-0.095
-625.449	-182.532	-0.139	0.003
-624.434	-65.494	-0.098	0.039
-623.419	-116.270	0.040	-0.007
-622.405	-124.465	0.068	0.010
-621.390	-182.037	0.283	-0.005
-620.376	-200.000	0.043	0.287
-619.361	271.592	-0.047	0.082
-618.346	-200.000	-0.068	0.303
-617.332	-40.998	0.269	-0.139
-616.317	-24.519	0.149	0.089
-615.303	7.758	0.395	-0.295
-614.288	-48.733	-0.304	0.145
-613.273	89.478	-0.103	-0.114
-612.259	-150.369	-0.194	-0.015
-611.244	-180.077	0.154	-0.003
-610.230	-200.000	0.006	-0.236
-609.215	146.654	0.053	-0.070
-608.201	-179.946	0.249	0.005
-607.186	-102.366	0.190	0.045
-606.171	405.671	-0.077	0.163
-605.157	33.611	0.127	-0.110
-604.142	-127.151	-0.183	0.027
-603.128	-35.482	0.095	-0.052
-602.113	399.880	-0.032	-0.067
-601.098	-1.692	0.212	0.149
-600.084	800.000	0.116	0.363
-599.069	-200.000	-0.095	0.433
-598.055	70.437	-0.391	0.403
-597.040	-200.000	-0.014	0.089
-596.025	-47.326	0.046	-0.022
-595.011	267.027	-0.105	0.183
-593.996	630.535	0.073	-0.183
-592.982	-117.641	0.030	-0.005
-591.967	100.255	0.048	-0.055
-590.952	383.252	-0.055	0.113
-589.938	97.814	0.240	0.275
-588.923	-200.000	0.032	0.170
-587.909	-54.081	-0.286	-0.130
-586.894	-59.872	-0.285	0.121
-585.879	-70.151	0.170	0.064
-584.865	150.700	0.097	-0.131
-583.850	191.502	-0.222	0.334
-582.836	-200.000	0.001	0.284
-581.821	-45.086	-0.102	-0.051
-580.806	-8.906	0.078	0.052
-579.792	-146.854	0.241	-0.021
-578.777	-147.567	-0.586	-0.049
-577.763	-52.380	0.206	-0.095
-576.748	250.005	0.057	0.097
-575.733	-200.000	0.025	-0.162
-574.719	122.962	0.184	-0.230
-573.704	-200.000	-0.000	0.170
-572.690	18.387	0.079	-0.063
-571.675	-118.147	0.168	0.030
-570.661	150.581	0.028	-0.038
-569.646	-101.104	-0.365	-0.089
-568.631	599.006	-0.086	-0.213
-567.617	-89.715	0.247	0.072
-566.602	-48.931	0.134	0.064
-565.588	-62.093	0.277	0.115
-564.573	-116.260	0.358	0.066
-563.558	46.255	-0.196	0.180
-562.544	800.000	0.092	0.273
-561.529	-10.924	0.367	0.241
-560.515	-106.260	-0.509	0.114
-559.500	-200.000	0.003	0.163
-558.485	471.587	-0.084	0.187
-557.471	-67.235	0.362	0.142
-556.456	109.664	0.115	0.137
-555.442	57.932	0.123	-0.120
-554.427	-71.630	-0.301	-0.112
-553.412	-117.586	-0.218	-0.039
-552.398	270.162	-0.165	0.288
-551.383	723.695	0.058	0.153
-550.369	-139.323	-0.161	0.017
-549.354	-200.000	0.026	-0.229
-548.339	352.195	-0.081	-0.159
-547.325	-87.407	-0.183	0.055
-546.310	74.096	-0.103	-0.108
-545.296	-17.639	-0.374	-0.234
-544.281	800.000	0.075	0.293
-543.266	81.372	0.162	0.174
-542.252	135.111	-0.125	-0.161
-541.237	-30.786	-0.237	0.134
-540.223	-155.499	-0.181	0.012
-539.208	-88.948	0.245	0.072
-538.193	237.145	0.209	-0.345
-537.179	-200.000	0.013	-0.283
-536.164	-46.261	0.178	0.087
-535.150	-109.560	-0.212	-0.044
-534.135	800.000	-0.055	0.218
-533.121	44.311	-0.183	-0.167
-532.106	457.761	-0.058	0.128
-531.091	-91.463	-0.060	-0.017
-530.077	419.366	-0.094	0.200
-529.062	713.877	0.021	0.056
-528.048	800.000	-0.112	-0.366
-527.033	82.547	0.121	0.131
-526.018	-57.084	0.181	-0.079
-525.004	70.192	0.127	-0.130
-523.989	102.028	0.102	0.119
-522.975	62.820	0.294	-0.293
-521.960	-200.000	0.003	-0.118
-520.945	-51.054	-0.189	-0.088
-519.931	12.550	0.190	-0.145
-518.916	6.830	-0.110	0.082
-517.902	391.073	0.077	-0.160
-516.887	-200.000	-0.014	-0.164
-515.872	127.739	-0.075	-0.095
-514.858	-200.000	-0.008	-0.227
-513.843	-200.000	0.007	0.495
-512.829	-128.004	-0.316	-0.045
-511.814	800.000	-0.080	-0.286
-510.799	-194.945	-0.162	-0.001
-509.785	-200.000	-0.001	-0.019
-508.770	-53.792	-0.234	0.106
-507.756	93.410	0.073	-0.082
-506.741	-44.286	0.152	0.075
-505.726	129.719	-0.144	0.183
-504.712	476.844	-0.034	0.076
-503.697	95.033	-0.101	-0.114
-502.683	0.590	-0.238	-0.169
-501.668	800.000	-0.098	-0.306
-500.653	800.000	-0.036	-0.138
-499.639	-200.000	-0.077	0.338
-498.624	-200.000	-0.008	-0.039
-497.610	-50.627	-0.235	0.110
-496.595	-49.387	-0.175	-0.083
-495.581	5.323	-0.377	-0.276
-494.566	800.000	0.057	-0.178
-493.551	770.717	-0.155	-0.419
-492.537	-119.560	-0.119	-0.020
-491.522	-113.479	0.360	0.070
-490.508	74.785	0.244	-0.255
-489.493	-76.246	0.153	-0.053
-488.478	317.902	-0.142	-0.267
-487.464	280.561	-0.080	-0.141
-486.449	-53.124	0.129	0.059
-485.435	-200.000	0.003	-0.155
-484.420	149.521	-0.216	-0.290
-483.405	290.269	0.128	-0.230
-482.391	27.785	0.217	-0.181
-481.376	-122.018	0.468	0.076
-480.362	-120.255	0.499	-0.084
-479.347	-61.966	-0.392	0.162
-478.332	-200.000	-0.031	0.148
-477.318	286.179	-0.146	0.261
-476.303	800.000	-0.081	0.325
-475.289	800.000	0.076	0.230
-474.274	372.996	-0.052	0.104
-473.259	313.067	0.132	-0.245
-472.245	-95.319	0.402	0.107
-471.230	-200.000	0.020	0.166
-470.216	-117.191	-0.148	0.027
-469.201	-99.655	0.192	-0.048
-468.186	-200.000	0.034	0.190
-467.172	523.060	-0.070	-0.164
-466.157	143.624	-0.060	0.079
-465.143	8.944	-0.105	-0.078
-464.128	294.881	0.226	-0.410
-463.113	-27.591	-0.288	-0.166
-462.099	186.719	0.064	-0.095
-461.084	-200.000	-0.084	0.372
-460.070	-72.735	0.103	-0.037
-459.055	-86.813	0.337	0.102
-458.040	-200.000	-0.012	0.061
-457.026	8.695	-0.116	0.086
-456.011	112.091	-0.100	0.119
-454.997	149.096	0.244	0.327
-453.982	800.000	0.151	0.428
-452.968	-153.865	-0.132	0.009
-451.953	-64.252	-0.118	-0.048
-450.938	385.161	0.070	-0.144
-449.924	-54.140	-0.179	-0.081
-448.909	54.677	0.347	-0.332
-447.895	339.745	-0.066	0.128
-446.880	-127.790	-0.342	0.049
-445.865	800.000	-0.051	-0.179
-444.851	35.000	0.095	0.082
-443.836	-165.899	0.253	-0.011
-442.822	-143.351	0.379	0.036
-441.807	-179.403	-0.277	0.006
-440.792	117.666	-0.081	0.098
-439.778	277.608	-0.059	-0.105
-438.763	196.556	-0.276	-0.417
-437.749	-73.549	-0.352	-0.127
-436.734	203.104	-0.088	0.134
-435.719	-200.000	0.000	-0.083
-434.705	-55.207	0.256	-0.114
-433.690	-92.358	-0.326	-0.091
-432.676	53.091	-0.200	0.190
-431.661	48.955	0.138	-0.129
-430.646	95.652	0.097	0.109
-429.632	33.767	-0.053	-0.046
-428.617	516.522	-0.145	-0.335
-427.603	458.552	0.045	0.100
-426.588	280.692	0.111	-0.196
-425.573	-133.530	-0.350	-0.043
-424.559	125.112	-0.030	0.037
-423.544	-200.000	-0.006	-0.028
-422.530	-137.856	0.220	-0.024
-421.515	-45.204	0.309	-0.152
-420.500	-94.994	-0.104	-0.028
-419.486	-35.963	0.101	-0.054
-418.471	-82.854	-0.155	0.049
-417.457	800.000	0.035	0.151
-416.442	-178.102	-0.139	-0.003
-415.428	-134.522	-0.197	-0.024
-414.413	-34.564	-0.171	0.093
-413.398	-200.000	0.009	0.329
-412.384	228.162	0.145	0.233
-411.369	301.121	-0.151	-0.276
-410.355	-200.000	-0.003	-0.193
-409.340	-0.588	0.190	-0.133
-408.325	397.174	-0.162	0.335
-407.311	-47.032	-0.229	0.110
-406.296	-93.127	-0.240	0.066
-405.282	800.000	-0.067	0.223
-404.267	800.000	-0.041	-0.139
-403.252	106.437	-0.169	0.199
-402.238	-125.700	0.307	0.046
-401.223	96.057	0.054	-0.061
-400.209	91.029	-0.177	0.196
-399.194	-200.000	-0.007	-0.081
-398.179	-90.555	-0.237	0.068
-397.165	252.136	0.045	-0.075
-396.150	127.995	-0.060	-0.075
-395.136	-90.616	0.138	0.039
-394.121	-112.086	-0.127	0.025
-393.106	109.580	-0.177	-0.210
-392.092	238.725	-0.094	-0.154
-391.077	-48.363	0.054	-0.026
-390.063	57.400	0.141	-0.136
-389.048	72.491	-0.205	-0.211
-388.033	-38.824	-0.410	-0.214
-387.019	481.178	-0.074	0.167
-386.004	-137.750	0.307	-0.034
-384.990	-169.472	-0.258	0.009
-383.975	800.000	0.071	-0.277
-382.960	549.403	-0.057	-0.136
-381.946	80.813	0.100	0.107
-380.931	800.000	-0.084	0.256
-379.917	-200.000	0.012	0.280
-378.902	800.000	0.010	0.033
-377.888	-40.608	-0.360	-0.184
-376.873	-27.427	0.185	0.106
-375.858	4.471	0.202	0.146
-374.844	181.095	-0.146	-0.212
-373.829	-200.000	0.025	0.179
-372.815	34.532	-0.087	-0.075
-371.800	800.000	-0.055	-0.163
-370.785	-200.000	0.036	-0.355
-369.771	-200.000	0.049	0.262
-368.756	-200.000	-0.001	0.073
-367.742	-37.355	0.094	-0.050
-366.727	-6.514	0.166	-0.111
-365.712	800.000	0.072	-0.227
-364.698	5.159	0.273	0.199
-363.683	-67.794	-0.294	0.113
-362.669	800.000	0.079	0.275
-361.654	28.647	-0.266	-0.223
-360.639	188.050	0.128	0.189
-359.625	-56.153	-0.258	0.113
-358.610	-20.619	0.177	-0.107
-357.596	-200.000	-0.003	-0.183
-356.581	151.593	-0.073	-0.098
-355.566	-200.000	-0.025	0.126
-354.552	755.741	-0.026	-0.069
-353.537	-130.781	-0.227	0.030
-352.523	-104.556	0.125	0.028
-351.508	-200.000	-0.031	-0.301
-350.493	800.000	-0.030	0.122
-349.479	314.445	0.192	-0.356
-348.464	682.274	0.110	-0.284
-347.450	80.775	-0.155	0.165
-346.435	-129.376	0.336	0.046
-345.420	386.121	-0.131	0.267
-344.406	10.467	-0.059	0.045
-343.391	-90.801	-0.245	0.070
-342.377	571.532	-0.075	-0.180
-341.362	30.713	0.216	0.183
-340.348	307.495	-0.038	-0.069
-339.333	189.190	-0.101	-0.150
-338.318	-147.821	0.171	0.014
-337.304	800.000	-0.107	-0.295
-336.289	-146.898	-0.176	0.015
-335.275	-128.658	-0.326	0.045
-334.260	-136.211	0.114	-0.013
-333.245	674.143	0.105	-0.269
-332.231	627.980	-0.146	-0.364
-331.216	-94.900	0.350	-0.093
-330.202	-139.887	0.183	-0.019
-329.187	-118.469	-0.158	0.028
-328.172	800.000	0.053	0.172
-327.158	-149.327	-0.204	-0.016
-326.143	-200.000	-0.012	-0.062
-325.129	-37.387	0.207	-0.109
-324.114	-119.702	0.284	-0.048
-323.099	6.036	-0.185	-0.135
-322.085	765.993	-0.148	0.397
-321.070	239.152	-0.127	0.209
-320.056	59.035	-0.038	-0.037
-319.041	103.393	0.037	0.042
-318.026	377.986	0.110	0.223
-317.012	258.724	-0.054	0.091
-315.997	311.805	0.090	0.166
-314.983	783.794	-0.018	0.048
-313.968	95.522	0.051	0.057
-312.953	-106.862	0.156	-0.034
-311.939	131.059	-0.040	-0.051
-310.924	-58.696	0.184	-0.079
-309.910	-26.600	-0.199	-0.115
-308.895	800.000	-0.029	-0.109
-307.880	800.000	-0.143	-0.475
-306.866	800.000	-0.047	-0.140
-305.851	-142.427	0.061	0.006
-304.837	42.966	0.386	-0.346
-303.822	20.913	-0.315	-0.251
-302.807	800.000	-0.076	-0.226
-301.793	59.322	0.134	-0.130
-300.778	-33.960	0.302	0.164
-299.764	-114.369	-0.139	0.026
-298.749	257.061	-0.104	-0.177
-297.735	-200.000	0.021	0.134
-296.720	-73.946	0.258	0.092
-295.705	575.080	0.035	-0.084
-294.691	38.276	0.176	0.154
-293.676	400.296	0.020	0.041
-292.662	292.129	-0.209	0.375
-291.647	-41.019	0.216	-0.110
-290.632	-6.716	-0.163	-0.109
-289.618	67.488	0.218	0.219
-288.603	-133.161	-0.142	0.018
-287.589	49.054	-0.029	-0.027
-286.574	-145.432	-0.352	0.031
-285.559	83.811	0.101	0.109
-284.545	-65.331	0.029	0.011
-283.530	174.035	-0.193	-0.274
-282.516	338.327	0.195	0.373
-281.501	244.092	0.157	-0.259
-280.486	46.158	-0.081	-0.074
-279.472	-200.000	0.004	-0.213
-278.457	-21.606	-0.210	-0.126
-277.443	257.441	-0.097	0.165
-276.428	800.000	0.059	0.162
-275.413	89.040	-0.203	0.222
-274.399	389.645	-0.055	0.112
-273.384	-78.398	0.334	-0.113
-272.370	117.867	0.056	0.067
-271.355	-50.864	-0.159	-0.074
-270.340	-200.000	-0.006	-0.105
-269.326	294.998	0.099	-0.177
-268.311	232.368	0.142	0.229
-267.297	122.344	0.092	-0.113
-266.282	253.426	-0.106	-0.178
-265.267	526.882	-0.088	0.204
-264.253	800.000	-0.125	0.349
-263.238	-25.807	0.189	-0.110
-262.224	-200.000	0.015	0.092
-261.209	46.182	0.173	-0.158
-260.195	-143.580	-0.289	0.027
-259.180	604.409	0.161	-0.393
-258.165	-200.000	0.001	0.031
-257.151	-33.187	0.198	0.108
-256.136	112.384	-0.095	-0.112
-255.122	-131.505	-0.342	0.044
-254.107	31.203	0.158	-0.133
-253.092	543.207	0.056	-0.130
-252.078	207.779	-0.033	-0.051
-251.063	-80.547	-0.078	-0.025
-250.049	-200.000	-0.005	0.219
-249.034	-200.000	0.020	0.449
-248.019	63.863	0.159	-0.157
-247.005	118.841	-0.211	-0.257
-245.990	39.221	0.085	-0.075
-244.976	-18.497	-0.030	-0.018
-243.961	-200.000	0.032	-0.212
-242.946	75.851	-0.165	-0.171
-241.932	-22.368	-0.483	-0.287
-240.917	-16.330	0.199	-0.124
-239.903	-15.267	-0.029	0.018
-238.888	55.768	0.204	0.195
-237.873	-200.000	0.034	0.400
-236.859	-30.247	0.340	0.190
-235.844	148.032	-0.210	0.278
-234.830	12.005	0.059	0.044
-233.815	800.000	0.067	0.240
-232.800	354.557	0.090	-0.176
-231.786	159.612	0.105	-0.144
-230.771	-155.548	0.180	0.011
-229.757	-68.051	0.051	-0.019
-228.742	-151.907	-0.334	0.024
-227.727	13.116	0.126	0.096
-226.713	-39.352	0.249	0.128
-225.698	51.319	0.096	0.089
-224.684	13.814	0.087	0.066
-223.669	-85.867	-0.134	0.041
-222.655	-96.964	-0.162	-0.042
-221.640	386.938	0.135	-0.275
-220.625	-200.000	0.035	0.186
-219.611	-21.175	0.105	0.063
-218.596	430.889	0.128	0.272
-217.582	106.541	-0.207	-0.242
-216.567	-38.243	0.240	-0.125
-215.552	331.745	0.080	0.152
-214.538	-11.926	0.321	0.206
-213.523	18.184	0.212	0.166
-212.509	-200.000	0.003	-0.093
-211.494	800.000	-0.056	0.214
-210.479	-200.000	0.008	0.189
-209.465	282.536	-0.210	0.369
-208.450	-119.476	-0.513	0.087
-207.436	141.609	0.193	-0.251
-206.421	97.581	-0.113	-0.128
-205.406	800.000	0.071	0.197
-204.392	-18.562	-0.245	-0.150
-203.377	-200.000	0.025	0.169
-202.363	79.111	-0.295	0.310
-201.348	184.544	-0.027	0.039
-200.333	187.681	0.186	-0.272
-199.319	158.520	-0.200	-0.273
-198.304	-130.235	-0.201	-0.027
-197.290	312.691	-0.101	0.185
-196.275	800.000	-0.014	0.047
-195.260	-49.548	0.304	-0.142
-194.246	-62.715	0.320	0.130
-193.231	30.641	0.306	0.257
-192.217	175.465	0.104	-0.148
-191.202	106.822	0.269	0.313
-190.187	-45.122	0.213	-0.104
-189.173	-200.000	-0.229	-0.001
-188.158	-200.000	-0.045	-0.338
-187.144	184.896	0.186	-0.271
-186.129	337.368	-0.082	-0.156
-185.114	260.348	-0.082	-0.139
-184.100	-200.000	-0.028	0.196
-183.085	-68.034	0.321	0.123
-182.071	74.702	0.158	0.163
-181.056	-153.115	0.222	-0.015
-180.042	-200.000	-0.001	-0.061
-179.027	-83.317	0.133	0.042
-178.012	-173.180	-0.121	-0.004
-176.998	16.442	-0.161	-0.124
-175.983	-34.956	-0.215	-0.115
-174.969	3.609	-0.265	-0.189
-173.954	-200.000	0.003	0.107
-172.939	76.488	0.111	-0.116
-171.925	-136.046	0.480	0.055
-170.910	361.172	0.077	-0.151
-169.896	624.380	0.122	0.302
-168.881	119.969	0.152	-0.185
-167.866	203.321	0.126	0.192
-166.852	68.626	0.173	-0.174
-165.837	442.406	0.324	0.696
-164.823	-41.640	0.056	0.028
-163.808	-45.718	-0.259	-0.125
-162.793	-200.000	-0.037	0.173
-161.779	19.068	0.171	-0.134
-160.764	54.693	-0.103	0.097
-159.750	762.314	-0.094	0.250
-158.735	-6.838	0.504	-0.336
-157.720	-78.931	-0.322	0.107
-156.706	-7.075	0.185	-0.123
-155.691	106.928	0.070	-0.081
-154.677	85.838	-0.215	0.232
-153.662	261.348	0.144	0.244
-152.647	-200.000	0.011	0.062
-151.633	-174.762	-0.335	-0.009
-150.618	-200.000	0.037	-0.192
-149.604	505.961	0.012	-0.028
-148.589	-200.000	0.027	0.323
-147.574	-87.492	-0.091	-0.027
-146.560	800.000	-0.083	0.232
-145.545	-48.165	-0.263	0.124
-144.531	800.000	0.036	-0.133
-143.516	39.671	0.172	0.151
-142.502	-200.000	0.021	0.169
-141.487	15.787	0.034	-0.026
-140.472	176.077	0.012	0.017
-139.458	-3.520	-0.028	-0.019
-138.443	55.200	-0.269	0.254
-137.429	-109.369	-0.449	-0.093
-136.414	164.838	0.093	0.128
-135.399	-200.000	0.005	-0.058
-134.385	-137.096	0.164	0.018
-133.370	-108.832	0.047	-0.010
-132.356	35.358	-0.186	0.160
-131.341	29.025	0.051	0.042
-130.326	716.990	-0.088	-0.228
-129.312	602.633	-0.114	-0.278
-128.297	-20.914	-0.212	-0.127
-127.283	800.000	0.036	0.123
-126.268	-64.402	-0.286	-0.114
-125.253	-200.000	0.005	-0.140
-124.239	399.319	-0.058	-0.119
-123.224	-200.000	-0.032	-0.206
-122.210	800.000	-0.084	0.236
-121.195	-200.000	-0.043	0.322
