DTS Sentinel unit serial number:	SN413079Multiplexer serial number:	ORYXHardware model number:	OX4-SRSoftware version number:	ORYX F/W v4.00 Oryx Data Collector v3.7.2.0data status	okinstallation	princeton_trtdifferential loss correction	single-endedforward channel	channel 1reverse channel	N/Adate	2019/09/12time	23:02:35forward acquisition time	60.00reverse acquisition time	0.00gamma	496.2192k internal	0.2327k external	0.2327temperature offset calibration	1.0148default loss term (dB/km)	0.3790temperature slope calibration	1.0000multiplexer offset coefficient	1.0000multiplexer slope coefficient	1.0000fibre end	0.00T internal ref (°C)	29.31T ext. ref 1 (°C)	3.73T ext. ref 2 (°C)	23.87length (m)	temperature (°C)	Stokes	anti-Stokes-747.200	-62.280	0.295	0.124
-746.185	-94.397	-0.061	0.017
-745.171	-200.000	-0.024	0.205
-744.156	-61.881	-0.258	0.109
-743.142	-137.723	0.082	-0.009
-742.127	-51.321	-0.088	-0.042
-741.112	-60.491	-0.015	0.006
-740.098	570.347	-0.091	0.224
-739.083	-14.687	0.219	-0.142
-738.069	800.000	0.111	0.353
-737.054	-200.000	0.010	0.100
-736.039	-127.605	-0.400	0.058
-735.025	-86.548	0.300	0.093
-734.010	-85.135	0.147	-0.046
-732.996	-200.000	-0.017	-0.099
-731.981	389.229	-0.285	-0.594
-730.966	117.896	-0.159	-0.198
-729.952	-200.000	0.045	-0.216
-728.937	-153.356	-0.331	0.023
-727.923	-11.283	0.149	0.099
-726.908	-110.604	0.160	-0.033
-725.894	-197.988	-0.182	-0.001
-724.879	181.992	-0.128	-0.190
-723.864	-144.190	-0.507	0.048
-722.850	43.490	0.274	0.252
-721.835	-175.880	-0.112	-0.003
-720.821	-200.000	0.016	0.093
-719.806	-11.104	-0.202	0.134
-718.791	-176.590	-0.175	-0.005
-717.777	800.000	-0.101	-0.337
-716.762	-111.396	0.209	0.043
-715.748	90.003	-0.103	-0.116
-714.733	-44.776	0.136	-0.068
-713.718	7.229	-0.210	-0.158
-712.704	800.000	0.068	-0.291
-711.689	-66.522	-0.228	-0.091
-710.675	-200.000	0.020	-0.100
-709.660	-200.000	0.026	0.146
-708.645	105.720	-0.179	0.213
-707.631	375.767	0.107	-0.219
-706.616	-100.360	-0.457	-0.114
-705.602	-78.171	-0.451	0.156
-704.587	24.309	0.195	0.162
-703.572	165.769	0.118	-0.168
-702.558	-191.343	-0.313	0.003
-701.543	110.465	-0.233	-0.282
-700.529	116.989	-0.182	0.225
-699.514	-200.000	0.049	-0.365
-698.499	88.577	-0.213	-0.238
-697.485	58.211	0.110	-0.109
-696.470	-110.341	0.220	-0.046
-695.456	26.780	-0.301	0.254
-694.441	-50.173	0.012	-0.006
-693.426	-45.201	0.537	-0.268
-692.412	800.000	-0.008	0.023
-691.397	800.000	0.016	0.050
-690.383	-194.471	0.232	0.002
-689.368	531.719	-0.163	-0.387
-688.354	-102.253	-0.191	0.046
-687.339	159.744	-0.057	0.079
-686.324	511.044	0.081	-0.189
-685.310	441.935	0.158	-0.348
-684.295	-54.219	-0.193	-0.088
-683.281	13.656	-0.036	-0.028
-682.266	-107.865	0.364	-0.080
-681.251	800.000	-0.034	-0.139
-680.237	38.509	-0.245	-0.220
-679.222	-35.118	-0.373	0.205
-678.208	200.383	-0.063	0.097
-677.193	-48.969	-0.293	-0.141
-676.178	-200.000	-0.042	0.460
-675.164	148.029	0.084	-0.114
-674.149	70.106	-0.060	0.062
-673.135	-184.603	-0.253	0.004
-672.120	774.132	-0.115	-0.316
-671.105	-52.344	0.107	-0.050
-670.091	25.042	-0.309	0.258
-669.076	492.060	0.139	0.320
-668.062	220.241	-0.136	0.219
-667.047	174.294	-0.116	0.169
-666.032	122.696	0.078	0.099
-665.018	23.393	0.152	0.125
-664.003	-173.326	0.129	0.004
-662.989	800.000	-0.058	-0.200
-661.974	-96.939	0.112	0.029
-660.959	635.367	-0.008	0.020
-659.945	-68.124	0.387	0.151
-658.930	-200.000	0.034	0.163
-657.916	800.000	0.069	-0.236
-656.901	-200.000	-0.050	-0.320
-655.886	-200.000	0.004	-0.119
-654.872	160.530	-0.070	0.098
-653.857	107.323	-0.116	0.139
-652.843	134.793	0.253	0.330
-651.828	-75.417	-0.095	-0.034
-650.814	-13.296	-0.184	-0.120
-649.799	-83.287	-0.287	-0.093
-648.784	-76.690	-0.308	0.109
-647.770	10.811	0.278	0.213
-646.755	-63.201	-0.136	0.056
-645.741	316.861	0.131	0.249
-644.726	-125.630	0.250	0.038
-643.711	148.779	0.033	-0.044
-642.697	-88.152	0.151	-0.045
-641.682	18.049	0.155	0.124
-640.668	800.000	-0.045	-0.169
-639.653	-79.584	-0.178	-0.060
-638.638	10.312	-0.112	0.086
-637.624	451.302	-0.071	-0.158
-636.609	-200.000	-0.009	0.087
-635.595	-5.625	-0.148	-0.102
-634.580	800.000	0.054	0.218
-633.565	283.770	-0.089	-0.160
-632.551	-120.176	-0.190	-0.033
-631.536	-49.408	0.176	0.084
-630.522	123.869	-0.131	0.165
-629.507	800.000	-0.121	-0.422
-628.492	45.146	0.095	-0.088
-627.478	-8.456	0.272	-0.183
-626.463	-107.118	-0.272	-0.060
-625.449	-133.736	-0.169	0.021
-624.434	268.526	0.051	-0.090
-623.419	-121.272	0.245	0.041
-622.405	-34.274	-0.211	0.116
-621.390	-200.000	-0.075	0.344
-620.376	-200.000	0.017	-0.130
-619.361	-83.136	-0.197	-0.063
-618.346	-200.000	0.009	0.109
-617.332	-71.329	-0.194	-0.073
-616.317	-200.000	-0.026	-0.158
-615.303	318.026	-0.117	-0.223
-614.288	165.119	0.248	-0.351
-613.273	178.414	0.187	0.274
-612.259	337.439	0.169	0.330
-611.244	-200.000	0.029	0.287
-610.230	-24.081	-0.100	-0.060
-609.215	166.623	0.133	0.190
-608.201	50.246	0.199	0.189
-607.186	139.665	0.036	-0.047
-606.171	-0.974	0.323	-0.229
-605.157	353.270	-0.090	-0.178
-604.142	-98.903	-0.216	0.055
-603.128	-43.254	0.206	0.105
-602.113	761.825	0.098	-0.265
-601.098	130.603	0.208	0.267
-600.084	82.290	0.095	0.104
-599.069	-98.267	-0.173	0.044
-598.055	800.000	0.036	-0.126
-597.040	-73.349	-0.125	-0.046
-596.025	-192.043	0.347	0.003
-595.011	125.152	-0.206	0.260
-593.996	800.000	0.011	0.038
-592.982	-5.508	0.258	0.177
-591.967	145.318	-0.039	-0.052
-590.952	800.000	-0.008	-0.034
-589.938	-79.543	-0.222	-0.075
-588.923	11.881	-0.291	0.224
-587.909	-200.000	0.010	-0.100
-586.894	250.733	-0.093	0.159
-585.879	8.574	0.377	0.285
-584.865	-62.053	0.045	-0.019
-583.850	-62.088	0.215	-0.090
-582.836	-145.835	-0.194	-0.017
-581.821	-200.000	0.010	-0.284
-580.806	55.523	0.177	0.172
-579.792	-122.380	0.136	-0.022
-578.777	427.242	0.097	0.210
-577.763	633.575	-0.176	0.447
-576.748	800.000	0.087	-0.274
-575.733	-100.344	-0.399	-0.099
-574.719	-109.974	-0.122	-0.026
-573.704	-200.000	-0.019	-0.153
-572.690	475.885	-0.094	0.214
-571.675	141.913	0.103	0.137
-570.661	47.605	-0.085	-0.080
-569.646	89.593	0.192	-0.215
-568.631	-200.000	0.000	0.076
-567.617	74.290	-0.132	-0.139
-566.602	13.267	0.195	-0.151
-565.588	800.000	0.052	-0.186
-564.573	-28.370	-0.052	0.030
-563.558	800.000	-0.113	-0.375
-562.544	266.066	0.036	-0.063
-561.529	57.088	0.088	-0.086
-560.515	-46.609	-0.241	-0.118
-559.500	-200.000	0.049	0.432
-558.485	-123.553	0.116	-0.018
-557.471	800.000	0.076	0.213
-556.456	43.777	0.200	-0.183
-555.442	51.261	-0.254	-0.242
-554.427	299.149	-0.048	-0.089
-553.412	-174.072	0.130	0.004
-552.398	261.816	0.037	0.064
-551.383	-200.000	0.025	0.389
-550.369	99.416	0.216	-0.250
-549.354	-144.768	-0.276	0.025
-548.339	0.303	0.171	-0.122
-547.325	800.000	0.059	-0.169
-546.310	71.801	0.074	0.077
-545.296	48.786	0.041	0.038
-544.281	40.286	0.114	0.103
-543.266	-142.442	-0.129	-0.013
-542.252	-83.660	0.415	-0.132
-541.237	-16.333	-0.157	0.100
-540.223	800.000	-0.093	0.399
-539.208	-57.819	-0.307	0.134
-538.193	-34.941	0.142	0.078
-537.179	-139.236	0.036	-0.004
-536.164	-186.323	-0.169	-0.002
-535.150	-72.922	-0.501	0.184
-534.135	222.289	0.016	0.025
-533.121	-56.072	-0.283	0.126
-532.106	-11.931	-0.257	-0.169
-531.091	-193.102	0.106	-0.001
-530.077	-200.000	-0.017	-0.079
-529.062	800.000	0.073	-0.202
-528.048	-93.227	0.062	0.017
-527.033	800.000	-0.029	-0.106
-526.018	-59.858	-0.094	0.040
-525.004	-41.968	-0.434	0.222
-523.989	-140.133	0.272	0.029
-522.975	18.633	0.060	0.048
-521.960	36.569	0.228	-0.201
-520.945	7.241	0.171	-0.128
-519.931	233.372	-0.099	-0.163
-518.916	-75.207	-0.148	0.053
-517.902	222.446	-0.307	-0.494
-516.887	-64.650	0.359	0.146
-515.872	62.234	-0.139	0.139
-514.858	438.945	0.115	-0.251
-513.843	-200.000	0.001	-0.286
-512.829	-5.801	0.147	-0.101
-511.814	14.900	-0.162	0.126
-510.799	800.000	0.031	0.088
-509.785	-41.616	0.191	-0.098
-508.770	415.185	-0.118	-0.252
-507.756	-130.377	-0.235	0.032
-506.741	800.000	-0.057	0.174
-505.726	800.000	0.070	0.215
-504.712	684.555	0.114	0.297
-503.697	-113.468	-0.549	0.107
-502.683	-200.000	0.015	-0.076
-501.668	-189.818	-0.293	-0.003
-500.653	451.120	0.156	-0.343
-499.639	-78.722	0.254	-0.087
-498.624	-200.000	-0.017	-0.432
-497.610	475.600	-0.142	0.321
-496.595	800.000	0.084	-0.272
-495.581	-65.827	-0.364	0.145
-494.566	-200.000	-0.026	-0.119
-493.551	-50.331	-0.117	-0.055
-492.537	534.878	-0.156	-0.368
-491.522	-200.000	0.105	0.000
-490.508	800.000	0.225	0.648
-489.493	57.299	0.064	0.062
-488.478	30.500	0.016	0.014
-487.464	2.326	0.248	0.179
-486.449	130.859	0.031	-0.040
-485.435	-179.687	0.408	-0.009
-484.420	257.834	-0.182	-0.313
-483.405	202.294	0.111	0.171
-482.391	-45.432	0.115	0.057
-481.376	-30.038	-0.328	-0.186
-480.362	418.470	-0.086	-0.184
-479.347	-32.329	0.123	-0.068
-478.332	-200.000	0.012	-0.439
-477.318	20.052	0.165	-0.133
-476.303	-1.401	-0.155	-0.109
-475.289	-45.199	0.183	-0.091
-474.274	488.698	-0.063	0.144
-473.259	57.212	-0.116	-0.113
-472.245	-45.280	0.400	-0.198
-471.230	-85.491	0.330	-0.103
-470.216	55.398	-0.136	-0.131
-469.201	4.761	0.087	-0.064
-468.186	190.871	-0.156	-0.233
-467.172	7.502	-0.321	-0.240
-466.157	800.000	0.075	-0.325
-465.143	-107.065	-0.310	-0.068
-464.128	-200.000	-0.039	0.506
-463.113	107.587	-0.072	-0.085
-462.099	-168.227	-0.302	0.012
-461.084	-160.011	0.266	0.014
-460.070	800.000	-0.044	0.159
-459.055	-200.000	-0.003	-0.052
-458.040	51.191	0.088	-0.084
-457.026	55.859	0.307	-0.297
-456.011	170.916	-0.053	-0.075
-454.997	224.434	-0.059	-0.095
-453.982	49.403	-0.093	-0.087
-452.968	-200.000	-0.026	0.201
-451.953	-113.264	-0.065	-0.013
-450.938	350.079	0.189	-0.372
-449.924	-184.900	0.119	0.002
-448.909	800.000	-0.088	0.255
-447.895	800.000	-0.045	0.145
-446.880	-34.190	-0.272	-0.149
-445.865	800.000	0.006	0.027
-444.851	52.262	-0.119	-0.113
-443.836	-56.246	0.099	-0.044
-442.822	131.823	0.199	-0.256
-441.807	-200.000	-0.004	0.040
-440.792	800.000	-0.061	0.243
-439.778	239.725	0.111	-0.184
-438.763	272.610	-0.183	0.322
-437.749	171.304	-0.103	0.148
-436.734	-112.643	-0.301	0.060
-435.719	290.986	-0.105	0.191
-434.705	-150.195	0.155	0.012
-433.690	-141.220	-0.071	0.007
-432.676	159.417	-0.222	0.308
-431.661	-200.000	-0.001	0.239
-430.646	103.126	-0.210	-0.245
-429.632	77.374	0.148	0.157
-428.617	513.863	-0.005	0.010
-427.603	-200.000	-0.028	-0.299
-426.588	-200.000	0.028	-0.185
-425.573	-113.064	0.320	-0.063
-424.559	-85.623	-0.307	0.095
-423.544	-200.000	0.032	0.149
-422.530	-36.993	-0.307	-0.164
-421.515	-9.140	-0.114	0.076
-420.500	73.194	0.159	0.166
-419.486	149.336	0.103	0.139
-418.471	463.271	0.068	0.151
-417.457	-60.643	0.120	-0.051
-416.442	800.000	0.053	0.159
-415.428	-37.727	0.251	-0.133
-414.413	800.000	0.101	-0.358
-413.398	800.000	0.022	-0.075
-412.384	-56.161	-0.158	0.070
-411.369	-40.817	0.219	0.113
-410.355	72.220	0.106	-0.109
-409.340	-34.177	-0.016	-0.009
-408.325	800.000	0.026	-0.082
-407.311	-64.098	-0.387	0.157
-406.296	196.229	-0.072	0.108
-405.282	159.406	0.129	-0.179
-404.267	-200.000	-0.031	-0.284
-403.252	-200.000	-0.004	-0.043
-402.238	56.664	-0.013	0.013
-401.223	27.922	-0.100	-0.084
-400.209	-80.931	0.141	-0.047
-399.194	-52.035	-0.076	-0.035
-398.179	-56.500	-0.160	0.071
-397.165	-42.374	-0.118	0.060
-396.150	-17.803	0.258	-0.161
-395.136	-30.327	0.141	-0.080
-394.121	-10.161	-0.172	0.113
-393.106	-76.428	-0.217	-0.076
-392.092	313.349	0.022	-0.042
-391.077	-129.256	-0.082	0.011
-390.063	-200.000	-0.033	-0.207
-389.048	-50.010	-0.080	0.038
-388.033	-168.593	0.268	-0.010
-387.019	182.993	-0.089	0.131
-386.004	-200.000	-0.003	-0.074
-384.990	7.166	0.167	-0.124
-383.975	317.424	0.055	-0.104
-382.960	-115.143	-0.390	0.073
-381.946	469.609	-0.065	0.145
-380.931	-50.757	0.304	0.142
-379.917	-57.293	0.167	-0.073
-378.902	5.667	-0.081	-0.060
-377.888	-77.182	-0.113	0.039
-376.873	-171.675	0.051	-0.002
-375.858	15.853	-0.241	-0.188
-374.844	135.086	-0.082	0.105
-373.829	-200.000	-0.015	0.149
-372.815	-10.016	-0.237	0.157
-371.800	-5.740	0.090	0.061
-370.785	91.812	0.177	0.197
-369.771	-200.000	0.006	0.146
-368.756	241.423	0.075	0.124
-367.742	-32.920	-0.287	-0.158
-366.727	85.445	0.123	0.134
-365.712	-78.656	0.210	-0.071
-364.698	300.514	0.089	-0.164
-363.683	-200.000	0.001	-0.011
-362.669	-109.486	0.572	0.120
-361.654	255.778	0.075	-0.128
-360.639	-63.754	0.279	-0.114
-359.625	-200.000	-0.001	0.078
-358.610	-200.000	-0.016	-0.112
-357.596	4.668	0.181	0.132
-356.581	576.291	0.139	-0.337
-355.566	34.135	0.237	0.205
-354.552	-200.000	0.022	0.095
-353.537	5.537	0.087	0.064
-352.523	-97.394	0.225	0.058
-351.508	-200.000	0.040	-0.260
-350.493	-105.649	0.095	-0.021
-349.479	-9.880	0.159	-0.105
-348.464	218.061	-0.203	0.321
-347.450	-167.532	0.216	0.009
-346.435	-200.000	0.056	0.258
-345.420	-67.018	0.281	-0.110
-344.406	-200.000	0.004	0.212
-343.391	85.475	0.185	0.201
-342.377	-104.310	-0.063	-0.015
-341.362	-112.602	-0.200	0.040
-340.348	161.323	-0.070	-0.097
-339.333	7.459	0.160	0.119
-338.318	-33.952	-0.215	0.118
-337.304	800.000	0.061	0.236
-336.289	71.934	0.060	0.062
-335.275	25.433	-0.142	-0.117
-334.260	-108.307	-0.182	-0.039
-333.245	-56.259	0.200	-0.088
-332.231	-141.414	0.226	-0.023
-331.216	-129.002	-0.284	0.040
-330.202	-200.000	0.049	0.309
-329.187	-200.000	-0.129	-0.000
-328.172	363.454	0.061	-0.122
-327.158	-48.059	0.163	0.078
-326.143	800.000	-0.012	-0.038
-325.129	17.067	-0.180	0.142
-324.114	202.893	0.080	0.122
-323.099	28.895	-0.187	0.157
-322.085	-95.439	0.203	0.054
-321.070	3.284	-0.298	-0.215
-320.056	-38.211	-0.134	-0.071
-319.041	159.524	-0.047	0.065
-318.026	154.696	0.099	0.135
-317.012	-77.963	0.193	0.066
-315.997	67.502	-0.150	0.152
-314.983	-15.083	-0.116	-0.074
-313.968	137.779	-0.142	0.185
-312.953	551.874	-0.044	0.106
-311.939	62.567	-0.173	-0.172
-310.924	-199.877	0.315	0.002
-309.910	20.073	-0.331	-0.264
-308.895	118.060	-0.047	-0.057
-307.880	617.057	-0.053	-0.131
-306.866	25.839	0.121	-0.100
-305.851	111.290	0.116	0.139
-304.837	-32.444	-0.098	-0.054
-303.822	-200.000	-0.023	0.280
-302.807	67.345	0.135	0.137
-301.793	-200.000	0.012	0.146
-300.778	-200.000	-0.019	0.376
-299.764	800.000	-0.139	0.411
-298.749	-200.000	0.007	-0.099
-297.735	800.000	0.097	-0.355
-296.720	-155.094	0.205	-0.013
-295.705	-102.286	-0.292	0.069
-294.691	9.614	0.137	-0.103
-293.676	130.993	-0.130	-0.165
-292.662	-2.210	-0.186	0.129
-291.647	82.389	0.167	0.179
-290.632	5.448	0.147	0.108
-289.618	272.373	0.075	0.132
-288.603	-116.230	-0.076	0.014
-287.589	71.796	0.120	-0.123
-286.574	-200.000	0.027	0.196
-285.559	-59.466	0.230	0.098
-284.545	-158.073	-0.261	-0.015
-283.530	-165.367	0.101	0.004
-282.516	800.000	0.054	-0.161
-281.501	-101.785	0.203	-0.049
-280.486	-41.535	0.279	-0.142
-279.472	110.224	-0.055	-0.065
-278.457	-75.459	-0.014	0.005
-277.443	120.107	0.136	-0.167
-276.428	40.975	-0.042	-0.037
-275.413	164.102	-0.099	0.139
-274.399	-41.032	0.271	0.139
-273.384	-200.000	0.008	0.140
-272.370	-83.689	0.040	0.013
-271.355	-30.382	0.266	0.149
-270.340	169.413	-0.240	0.340
-269.326	-200.000	0.010	0.335
-268.311	-117.472	0.252	-0.045
-267.297	-20.017	0.362	-0.221
-266.282	-104.187	-0.337	-0.078
-265.267	800.000	-0.015	0.043
-264.253	-59.501	0.114	-0.049
-263.238	186.733	-0.044	-0.064
-262.224	-6.621	0.094	-0.063
-261.209	33.489	-0.099	-0.085
-260.195	-45.514	-0.093	-0.045
-259.180	-150.496	-0.261	-0.020
-258.165	-148.014	-0.198	0.016
-257.151	-69.220	0.146	0.055
-256.136	-108.336	0.335	-0.071
-255.122	95.660	-0.188	0.213
-254.107	63.858	-0.190	0.189
-253.092	409.003	-0.035	0.073
-252.078	35.983	0.269	0.234
-251.063	-66.618	-0.201	-0.079
-250.049	58.109	-0.207	0.201
-249.034	-200.000	0.007	-0.129
-248.019	-17.119	-0.151	0.094
-247.005	-134.454	0.095	0.012
-245.990	800.000	-0.131	0.369
-244.976	-82.342	-0.169	-0.054
-243.961	56.402	0.095	0.091
-242.946	-63.840	0.201	0.081
-241.932	5.807	-0.259	0.189
-240.917	-117.180	0.265	0.048
-239.903	94.468	0.089	-0.100
-238.888	-169.208	0.408	0.015
-237.873	-188.873	0.178	-0.002
-236.859	627.206	0.010	0.026
-235.844	800.000	-0.042	0.162
-234.830	668.200	-0.060	0.153
-233.815	4.774	0.139	-0.101
-232.800	-12.854	0.156	0.100
-231.786	-86.866	-0.239	-0.072
-230.771	534.319	-0.072	-0.169
-229.757	-14.760	-0.232	-0.147
-228.742	-140.788	-0.187	-0.019
-227.727	-200.000	0.018	0.170
-226.713	-87.104	0.190	0.057
-225.698	190.910	-0.109	0.162
-224.684	-58.057	-0.129	-0.055
-223.669	-200.000	0.273	0.001
-222.655	-200.000	-0.014	0.120
-221.640	-46.182	0.152	0.074
-220.625	800.000	0.109	-0.307
-219.611	146.484	0.051	-0.067
-218.596	-16.741	-0.193	-0.121
-217.582	10.090	-0.130	-0.097
-216.567	-80.405	0.360	0.119
-215.552	-1.981	-0.250	-0.173
-214.538	52.603	-0.162	-0.153
-213.523	-182.201	-0.108	-0.002
-212.509	-76.263	-0.076	0.027
-211.494	-146.657	-0.285	-0.024
-210.479	-200.000	-0.011	-0.190
-209.465	-85.105	-0.078	-0.024
-208.450	-200.000	-0.052	-0.274
-207.436	-128.125	-0.337	-0.048
-206.421	-27.092	0.071	-0.041
-205.406	126.472	0.054	0.067
-204.392	-168.416	0.336	0.013
-203.377	-196.753	-0.328	-0.002
-202.363	-100.406	0.124	-0.030
-201.348	800.000	-0.020	0.077
-200.333	-44.528	-0.292	-0.144
-199.319	37.384	0.462	-0.404
-198.304	-200.000	-0.030	0.131
-197.290	-90.968	-0.138	0.039
-196.275	-200.000	-0.033	-0.160
-195.260	260.404	-0.075	-0.128
-194.246	39.546	0.179	0.159
-193.231	410.820	0.117	0.246
-192.217	-35.710	0.170	0.091
-191.202	-7.541	0.100	0.067
-190.187	800.000	0.141	-0.582
-189.173	800.000	0.014	0.045
-188.158	699.859	0.044	-0.115
-187.144	-25.292	0.375	0.219
-186.129	-13.728	-0.149	-0.095
-185.114	-20.919	0.113	-0.068
-184.100	121.984	-0.172	0.211
-183.085	23.425	0.114	-0.092
-182.071	-84.473	-0.164	-0.051
-181.056	-200.000	-0.056	-0.377
-180.042	125.222	-0.158	0.197
-179.027	6.803	0.224	-0.164
-178.012	16.966	-0.115	0.090
-176.998	408.786	0.200	-0.418
-175.983	114.214	-0.194	-0.232
-174.969	119.008	-0.183	0.222
-173.954	-200.000	-0.029	0.292
-172.939	57.502	-0.052	0.050
-171.925	-117.076	-0.090	-0.016
-170.910	730.349	-0.127	0.334
-169.896	-35.247	-0.138	0.074
-168.881	445.563	-0.046	0.099
-167.866	-104.231	-0.105	-0.024
-166.852	-154.943	0.408	0.026
-165.837	-200.000	0.030	-0.179
-164.823	192.641	0.168	-0.250
-163.808	53.482	-0.056	0.053
-162.793	-59.555	-0.205	-0.087
-161.779	-200.000	-0.042	0.196
-160.764	-200.000	-0.009	-0.186
-159.750	-122.747	0.137	0.022
-158.735	-200.000	0.017	-0.084
-157.720	68.065	-0.308	0.311
-156.706	644.213	-0.061	-0.155
-155.691	-200.000	-0.017	0.142
-154.677	-114.929	-0.277	0.052
-153.662	-76.893	0.186	-0.064
-152.647	26.939	0.068	-0.056
-151.633	28.022	-0.296	-0.246
-150.618	-113.893	0.293	-0.056
-149.604	45.109	0.241	0.219
-148.589	53.247	-0.123	-0.116
-147.574	27.971	-0.137	-0.114
-146.560	-90.040	-0.199	0.057
-145.545	-200.000	0.036	-0.290
-144.531	69.308	0.190	-0.193
-143.516	-131.777	0.271	-0.035
-142.502	225.694	-0.191	-0.305
-141.487	-61.483	0.200	-0.083
-140.472	786.916	-0.089	-0.240
-139.458	800.000	-0.109	0.359
-138.443	800.000	-0.049	-0.153
-137.429	-131.759	0.381	0.049
-136.414	731.617	0.094	0.247
-135.399	-97.748	-0.101	-0.026
-134.385	-106.360	0.223	0.049
-133.370	800.000	0.058	-0.205
-132.356	238.633	-0.079	-0.129
-131.341	8.268	-0.141	-0.104
-130.326	-87.320	0.176	0.053
-129.312	333.366	-0.191	0.363
-128.297	54.633	0.128	0.121
-127.283	800.000	-0.130	0.365
-126.268	-52.674	0.268	-0.122
-125.253	24.303	0.119	-0.097
-124.239	191.849	0.252	0.374
-123.224	53.502	-0.015	0.014
-122.210	-55.420	-0.381	-0.168
-121.195	-177.924	0.292	-0.007
-120.180	-64.824	-0.080	0.032
