DTS Sentinel unit serial number:	SN413079Multiplexer serial number:	ORYXHardware model number:	OX4-SRSoftware version number:	ORYX F/W v4.00 Oryx Data Collector v3.7.2.0data status	okinstallation	princeton_trtdifferential loss correction	single-endedforward channel	channel 1reverse channel	N/Adate	2019/09/13time	15:58:35forward acquisition time	60.00reverse acquisition time	0.00gamma	496.2192k internal	0.2307k external	0.2307temperature offset calibration	1.0162default loss term (dB/km)	0.3790temperature slope calibration	1.0000multiplexer offset coefficient	1.0000multiplexer slope coefficient	1.0000fibre end	0.00T internal ref (°C)	34.62T ext. ref 1 (°C)	4.80T ext. ref 2 (°C)	31.06length (m)	temperature (°C)	Stokes	anti-Stokes-747.200	456.571	-0.018	0.040
-746.185	-89.996	0.189	-0.056
-745.171	-99.814	-0.133	-0.034
-744.156	-55.068	-0.149	-0.068
-743.142	-63.409	0.202	0.085
-742.127	-200.000	-0.060	0.370
-741.112	800.000	-0.019	-0.059
-740.098	-120.137	0.162	0.028
-739.083	-113.766	0.208	-0.041
-738.069	-155.694	-0.403	-0.026
-737.054	-132.512	0.214	-0.028
-736.039	337.513	0.121	0.240
-735.025	-200.000	0.020	-0.137
-734.010	-36.769	-0.315	0.172
-732.996	-88.441	-0.145	-0.044
-731.981	-104.129	-0.345	0.081
-730.966	2.260	-0.184	0.135
-729.952	-131.174	0.488	-0.066
-728.937	-73.553	-0.119	0.044
-727.923	169.742	-0.095	-0.138
-726.908	-200.000	0.028	-0.290
-725.894	2.410	-0.098	-0.072
-724.879	31.760	0.189	0.166
-723.864	307.732	0.094	-0.179
-722.850	-126.629	0.177	-0.027
-721.835	53.843	-0.173	0.169
-720.821	-200.000	0.015	-0.199
-719.806	800.000	0.014	0.051
-718.791	-67.196	0.071	0.029
-717.777	101.825	-0.102	-0.120
-716.762	381.501	-0.092	0.191
-715.748	-200.000	-0.014	-0.111
-714.733	-12.924	-0.213	-0.141
-713.718	-130.419	0.139	-0.019
-712.704	800.000	0.063	-0.233
-711.689	429.553	-0.103	0.226
-710.675	662.927	-0.066	0.172
-709.660	247.990	0.141	-0.242
-708.645	11.162	0.142	-0.110
-707.631	26.749	0.067	-0.057
-706.616	-155.064	-0.295	-0.020
-705.602	-200.000	0.030	0.240
-704.587	-173.551	-0.112	-0.003
-703.572	-37.581	0.235	-0.127
-702.558	-200.000	-0.011	-0.052
-701.543	-33.434	0.203	0.114
-700.529	-200.000	-0.021	0.312
-699.514	51.689	0.219	-0.212
-698.499	359.480	-0.109	0.221
-697.485	189.631	-0.192	-0.293
-696.470	-29.295	-0.486	-0.282
-695.456	-7.230	0.174	0.119
-694.441	-9.543	-0.276	-0.187
-693.426	-39.008	0.121	-0.065
-692.412	-200.000	0.064	0.428
-691.397	-122.552	-0.262	0.043
-690.383	323.189	-0.084	-0.163
-689.368	-200.000	-0.002	-0.291
-688.354	-67.043	0.349	0.139
-687.339	172.280	0.113	-0.165
-686.324	82.983	0.129	-0.143
-685.310	47.545	0.361	-0.341
-684.295	-200.000	0.015	0.145
-683.281	-200.000	-0.015	-0.308
-682.266	-107.236	0.287	-0.064
-681.251	89.464	-0.186	-0.211
-680.237	526.071	-0.117	0.279
-679.222	17.158	0.207	-0.166
-678.208	-66.523	-0.199	-0.080
-677.193	-167.448	0.202	0.008
-676.178	-94.734	0.364	0.100
-675.164	132.832	-0.136	-0.179
-674.149	800.000	0.067	0.191
-673.135	8.597	0.123	-0.094
-672.120	694.542	-0.147	-0.391
-671.105	-106.767	-0.156	-0.035
-670.091	-200.000	-0.040	0.285
-669.076	-155.507	-0.257	0.017
-668.062	800.000	-0.020	-0.080
-667.047	-119.677	0.099	0.017
-666.032	-92.343	-0.233	-0.067
-665.018	-93.878	-0.126	0.035
-664.003	800.000	-0.041	-0.179
-662.989	-139.885	0.198	0.021
-661.974	800.000	0.074	-0.244
-660.959	417.758	0.070	0.151
-659.945	397.398	-0.044	0.093
-658.930	800.000	-0.069	0.277
-657.916	43.067	0.163	0.151
-656.901	442.895	0.077	0.171
-655.886	128.518	-0.044	-0.057
-654.872	-78.172	-0.338	-0.118
-653.857	-119.247	-0.405	0.071
-652.843	506.856	0.115	-0.269
-651.828	94.003	-0.081	-0.093
-650.814	800.000	-0.085	0.239
-649.799	-200.000	-0.024	0.144
-648.784	289.410	-0.191	0.351
-647.770	-200.000	-0.016	0.186
-646.755	-53.505	-0.335	0.155
-645.741	224.099	-0.042	-0.070
-644.726	5.181	-0.135	0.101
-643.711	-30.951	-0.256	-0.146
-642.697	-120.165	0.231	0.040
-641.682	-160.533	-0.392	0.021
-640.668	800.000	-0.144	-0.441
-639.653	-200.000	-0.012	0.078
-638.638	-119.795	-0.415	0.072
-637.624	-200.000	0.017	0.117
-636.609	-24.456	-0.307	0.185
-635.595	23.825	-0.249	0.208
-634.580	116.720	0.128	0.159
-633.565	6.822	-0.252	-0.190
-632.551	-138.874	-0.114	-0.013
-631.536	27.195	0.257	-0.218
-630.522	-117.161	0.191	-0.035
-629.507	-115.039	-0.100	0.019
-628.492	55.616	-0.182	0.178
-627.478	5.210	0.228	0.170
-626.463	-200.000	-0.096	-0.576
-625.449	24.443	0.186	-0.156
-624.434	190.218	0.120	-0.183
-623.419	-151.464	-0.172	-0.013
-622.405	0.163	0.182	-0.131
-621.390	201.468	0.262	-0.409
-620.376	-17.605	0.229	0.146
-619.361	-17.603	0.178	0.113
-618.346	-79.348	0.050	-0.017
-617.332	126.072	-0.060	0.076
-616.317	69.089	-0.192	-0.199
-615.303	51.759	-0.095	0.092
-614.288	181.951	-0.139	0.207
-613.273	-75.493	-0.159	0.057
-612.259	-200.000	0.018	-0.145
-611.244	-139.833	-0.202	0.022
-610.230	42.050	-0.179	-0.164
-609.215	38.834	-0.209	0.189
-608.201	-62.065	0.113	-0.048
-607.186	-54.449	-0.185	-0.085
-606.171	422.698	0.064	-0.139
-605.157	8.432	0.227	-0.173
-604.142	-34.024	0.102	-0.057
-603.128	184.354	0.061	-0.092
-602.113	-86.215	-0.284	0.088
-601.098	-51.304	-0.274	-0.130
-600.084	-200.000	-0.001	0.137
-599.069	664.666	-0.151	-0.395
-598.055	24.669	0.021	-0.018
-597.040	42.640	-0.368	0.338
-596.025	77.523	-0.060	-0.064
-595.011	-200.000	0.014	-0.282
-593.996	-200.000	-0.013	-0.109
-592.982	356.695	-0.081	0.163
-591.967	-96.119	-0.168	-0.045
-590.952	711.753	0.066	0.176
-589.938	-48.204	-0.126	0.061
-588.923	228.679	-0.183	-0.302
-587.909	-70.219	-0.329	0.126
-586.894	-94.838	0.396	0.108
-585.879	6.418	-0.262	-0.197
-584.865	800.000	0.063	-0.244
-583.850	-104.039	-0.222	-0.052
-582.836	-57.785	-0.391	0.173
-581.821	398.486	-0.047	0.098
-580.806	800.000	0.088	0.281
-579.792	307.894	-0.163	-0.307
-578.777	-200.000	0.036	-0.339
-577.763	-90.799	-0.395	-0.115
-576.748	-144.771	-0.327	0.030
-575.733	-93.239	0.566	0.159
-574.719	187.397	0.088	-0.133
-573.704	800.000	0.113	-0.337
-572.690	800.000	0.009	0.036
-571.675	-141.948	-0.362	-0.037
-570.661	38.869	0.250	-0.226
-569.646	214.366	-0.228	0.364
-568.631	371.092	0.188	-0.385
-567.617	-200.000	0.014	-0.188
-566.602	-34.236	0.203	0.113
-565.588	20.866	0.322	0.264
-564.573	-134.282	0.239	-0.030
-563.558	37.468	-0.130	-0.116
-562.544	204.055	0.108	0.169
-561.529	63.931	0.123	0.125
-560.515	-17.295	0.142	-0.090
-559.500	-200.000	-0.045	-0.471
-558.485	-62.215	-0.450	-0.189
-557.471	-59.825	0.115	-0.050
-556.456	-200.000	0.019	-0.200
-555.442	410.640	0.148	-0.317
-554.427	74.628	-0.111	-0.118
-553.412	-10.393	-0.153	0.103
-552.398	800.000	-0.085	0.252
-551.383	221.090	0.156	-0.252
-550.369	-156.731	-0.100	0.006
-549.354	-200.000	0.032	0.151
-548.339	277.509	0.158	-0.283
-547.325	-200.000	-0.025	0.225
-546.310	-153.680	0.231	0.016
-545.296	-61.730	0.058	0.025
-544.281	800.000	-0.006	0.016
-543.266	264.955	0.147	0.259
-542.252	800.000	-0.043	0.153
-541.237	800.000	-0.058	0.180
-540.223	131.165	0.082	-0.106
-539.208	-200.000	-0.043	-0.328
-538.193	30.181	-0.280	-0.241
-537.179	-106.403	0.119	-0.027
-536.164	31.162	0.167	0.144
-535.150	-200.000	0.017	-0.227
-534.135	-12.385	0.251	0.166
-533.121	-200.000	0.025	0.114
-532.106	13.719	0.128	-0.100
-531.091	52.705	-0.147	0.141
-530.077	454.748	0.083	0.186
-529.062	142.283	-0.137	0.184
-528.048	800.000	-0.033	0.138
-527.033	800.000	0.079	-0.306
-526.018	-200.000	0.046	0.264
-525.004	-200.000	-0.021	0.095
-523.989	-126.850	-0.217	-0.032
-522.975	32.474	0.132	0.115
-521.960	-101.100	0.131	-0.032
-520.945	-7.306	-0.234	0.160
-519.931	76.003	0.164	-0.175
-518.916	800.000	0.084	0.370
-517.902	-52.271	0.106	0.049
-516.887	-21.836	-0.118	0.072
-515.872	-87.271	-0.410	0.126
-514.858	-200.000	-0.005	0.073
-513.843	3.204	-0.145	0.107
-512.829	-81.304	-0.278	0.092
-511.814	-200.000	0.002	-0.271
-510.799	-148.508	0.168	0.014
-509.785	9.433	-0.337	-0.257
-508.770	42.255	0.213	-0.195
-507.756	-95.498	0.196	-0.053
-506.741	59.695	-0.159	-0.158
-505.726	-47.638	-0.254	0.124
-504.712	102.848	0.166	-0.196
-503.697	304.297	-0.174	-0.324
-502.683	115.278	0.096	0.118
-501.668	-128.491	0.056	-0.008
-500.653	-8.866	0.317	-0.214
-499.639	-25.427	-0.033	-0.019
-498.624	699.541	-0.026	-0.069
-497.610	-200.000	0.016	0.248
-496.595	-150.094	-0.239	-0.019
-495.581	160.568	-0.109	0.153
-494.566	-200.000	0.126	-0.001
-493.551	-200.000	-0.058	-0.340
-492.537	241.855	-0.077	0.130
-491.522	107.549	-0.134	0.161
-490.508	-200.000	-0.015	0.133
-489.493	800.000	-0.043	0.154
-488.478	-108.855	-0.164	0.035
-487.464	36.580	-0.107	0.095
-486.449	-200.000	-0.066	-0.433
-485.435	94.137	-0.042	-0.048
-484.420	150.600	0.140	0.192
-483.405	-35.826	-0.152	-0.083
-482.391	-76.887	0.326	0.115
-481.376	27.415	0.117	0.099
-480.362	352.947	0.075	-0.150
-479.347	82.929	-0.068	0.074
-478.332	-10.281	0.207	0.138
-477.318	-81.109	-0.188	0.063
-476.303	-17.429	-0.206	-0.131
-475.289	392.404	-0.108	-0.227
-474.274	245.142	0.140	0.237
-473.259	-98.022	0.317	-0.082
-472.245	-177.634	-0.156	-0.004
-471.230	800.000	0.041	0.131
-470.216	-23.722	-0.101	0.061
-469.201	353.788	-0.063	0.126
-468.186	-200.000	0.013	0.191
-467.172	374.094	0.116	0.238
-466.157	-61.382	0.056	-0.024
-465.143	508.073	0.038	0.089
-464.128	800.000	-0.022	-0.092
-463.113	-8.320	0.169	0.114
-462.099	25.873	0.202	0.169
-461.084	21.653	-0.227	-0.186
-460.070	-104.406	-0.136	0.032
-459.055	-103.069	0.186	0.044
-458.040	34.118	-0.224	0.197
-457.026	32.260	0.033	0.028
-456.011	-32.848	0.138	0.077
-454.997	21.559	0.326	0.267
-453.982	248.717	-0.107	-0.181
-452.968	7.985	0.232	-0.175
-451.953	-152.429	0.182	0.013
-450.938	120.979	0.139	0.174
-449.924	-104.022	0.157	0.037
-448.909	-200.000	-0.002	-0.025
-447.895	22.646	0.133	-0.110
-446.880	-102.777	0.097	-0.023
-445.865	749.473	0.093	-0.252
-444.851	-127.644	0.671	-0.098
-443.836	800.000	0.057	0.187
-442.822	-94.449	0.167	-0.046
-441.807	66.148	0.167	0.170
-440.792	-200.000	0.006	0.277
-439.778	-48.679	0.203	-0.098
-438.763	213.914	-0.175	0.278
-437.749	-74.922	0.224	-0.081
-436.734	85.638	0.305	-0.337
-435.719	-51.373	-0.280	0.131
-434.705	305.833	-0.111	0.206
-433.690	-200.000	-0.006	-0.126
-432.676	188.303	-0.126	0.189
-431.661	-200.000	0.005	0.032
-430.646	651.258	0.054	-0.139
-429.632	-117.937	-0.245	0.044
-428.617	-54.217	-0.071	-0.033
-427.603	758.596	-0.023	0.064
-426.588	-133.879	0.232	-0.029
-425.573	-90.162	-0.265	-0.078
-424.559	-138.391	0.131	0.015
-423.544	-3.901	0.164	-0.114
-422.530	-67.699	-0.172	0.068
-421.515	-101.043	0.261	-0.064
-420.500	-200.000	-0.029	0.292
-419.486	-200.000	-0.007	0.118
-418.471	176.425	0.189	0.276
-417.457	-200.000	-0.025	-0.114
-416.442	-27.538	0.235	-0.137
-415.428	-36.473	0.084	0.045
-414.413	-11.137	-0.467	-0.309
-413.398	103.536	0.128	-0.150
-412.384	-108.670	0.214	-0.046
-411.369	800.000	0.059	-0.172
-410.355	800.000	-0.030	-0.100
-409.340	-39.058	0.084	0.044
-408.325	-200.000	-0.022	-0.212
-407.311	-31.013	0.192	-0.109
-406.296	180.870	0.128	-0.189
-405.282	198.802	-0.075	-0.116
-404.267	-139.784	0.220	0.023
-403.252	378.981	0.132	-0.271
-402.238	-164.959	-0.398	0.018
-401.223	-200.000	0.030	-0.305
-400.209	-158.115	0.114	-0.007
-399.194	-101.096	-0.054	-0.013
-398.179	606.409	0.053	0.132
-397.165	-44.480	-0.215	-0.108
-396.150	-200.000	-0.012	0.152
-395.136	387.696	-0.096	0.199
-394.121	-200.000	0.019	0.209
-393.106	22.616	0.117	0.096
-392.092	-25.895	0.266	-0.157
-391.077	-23.030	0.321	0.194
-390.063	-103.221	0.313	-0.074
-389.048	38.710	-0.193	-0.173
-388.033	203.405	-0.148	0.230
-387.019	-188.117	-0.292	0.004
-386.004	65.885	0.036	0.037
-384.990	-68.180	-0.187	0.073
-383.975	800.000	0.021	-0.069
-382.960	26.142	0.140	0.117
-381.946	35.344	-0.020	0.017
-380.931	175.776	-0.177	0.258
-379.917	81.163	-0.057	-0.062
-378.902	85.681	-0.172	0.190
-377.888	497.401	0.217	-0.500
-376.873	-55.612	0.166	0.074
-375.858	277.279	0.087	0.156
-374.844	-16.059	-0.252	-0.160
-373.829	-200.000	0.032	0.257
-372.815	32.936	0.145	0.126
-371.800	81.868	-0.152	-0.164
-370.785	235.989	-0.155	0.257
-369.771	-191.002	0.128	-0.001
-368.756	23.071	0.135	-0.111
-367.742	213.186	-0.012	-0.020
-366.727	-200.000	0.000	0.124
-365.712	405.365	-0.155	0.328
-364.698	276.659	-0.093	0.166
-363.683	-113.046	0.250	-0.049
-362.669	-70.835	0.045	0.017
-361.654	800.000	-0.054	0.201
-360.639	-77.566	0.186	0.065
-359.625	-39.050	0.292	0.154
-358.610	800.000	-0.078	-0.225
-357.596	-76.547	-0.345	-0.121
-356.581	-16.343	-0.163	0.104
-355.566	-200.000	-0.007	-0.107
-354.552	-63.623	0.375	0.154
-353.537	73.975	-0.070	-0.074
-352.523	-200.000	0.016	0.101
-351.508	-200.000	0.021	-0.241
-350.493	266.114	-0.141	-0.246
-349.479	-118.211	0.144	0.026
-348.464	-38.552	0.116	-0.062
-347.450	-148.794	0.331	0.027
-346.435	-61.172	0.191	0.081
-345.420	-8.595	0.348	0.234
-344.406	10.133	0.219	-0.166
-343.391	102.275	-0.342	-0.399
-342.377	-109.902	-0.268	0.056
-341.362	-60.098	-0.175	0.075
-340.348	-42.344	0.086	-0.044
-339.333	150.923	-0.068	0.092
-338.318	-200.000	-0.030	0.171
-337.304	237.194	-0.121	-0.201
-336.289	111.451	0.023	0.028
-335.275	-39.244	-0.116	0.061
-334.260	270.066	-0.315	0.553
-333.245	42.060	0.240	0.218
-332.231	-82.286	0.146	-0.048
-331.216	123.506	-0.302	0.379
-330.202	-200.000	0.029	-0.189
-329.187	-200.000	0.045	-0.258
-328.172	-200.000	-0.043	-0.592
-327.158	-23.311	-0.119	-0.071
-326.143	-112.992	-0.374	0.074
-325.129	-160.830	-0.214	-0.011
-324.114	-81.175	0.193	0.064
-323.099	63.858	0.200	0.201
-322.085	89.489	-0.183	-0.205
-321.070	-83.708	0.175	-0.056
-320.056	-86.680	0.149	-0.046
-319.041	800.000	0.060	-0.216
-318.026	-98.300	0.098	0.025
-317.012	-200.000	0.009	0.261
-315.997	-36.565	0.299	0.161
-314.983	-108.574	0.136	-0.029
-313.968	2.847	0.337	-0.244
-312.953	800.000	0.039	0.110
-311.939	-96.958	0.173	0.045
-310.924	-200.000	0.026	-0.376
-309.910	215.385	0.059	-0.093
-308.895	-200.000	-0.060	0.274
-307.880	55.814	-0.206	0.200
-306.866	507.219	0.027	0.062
-305.851	73.048	0.058	0.061
-304.837	800.000	0.015	-0.063
-303.822	-92.007	0.288	-0.081
-302.807	-95.431	0.105	-0.028
-301.793	-85.188	-0.447	0.140
-300.778	-113.320	0.414	0.081
-299.764	-69.394	-0.193	-0.074
-298.749	-34.415	0.146	-0.080
-297.735	-82.889	0.150	-0.048
-296.720	-43.896	-0.281	-0.141
-295.705	800.000	0.060	0.229
-294.691	-200.000	0.001	-0.130
-293.676	564.129	0.039	0.094
-292.662	-31.635	-0.126	-0.070
-291.647	800.000	0.024	-0.075
-290.632	-92.250	-0.199	-0.056
-289.618	209.105	0.177	0.277
-288.603	172.361	0.086	-0.123
-287.589	-149.144	-0.244	0.020
-286.574	-200.000	0.027	0.161
-285.559	-18.254	0.157	0.098
-284.545	205.659	0.151	-0.234
-283.530	192.141	-0.047	-0.071
-282.516	25.845	0.065	-0.054
-281.501	24.404	-0.145	0.119
-280.486	101.987	0.061	0.071
-279.472	-43.753	-0.109	0.055
-278.457	47.687	0.104	-0.097
-277.443	-200.000	0.016	-0.163
-276.428	-11.569	-0.105	-0.069
-275.413	-158.428	0.332	0.019
-274.399	-200.000	-0.010	-0.134
-273.384	800.000	0.013	0.047
-272.370	-73.635	-0.225	0.082
-271.355	126.990	-0.132	-0.167
-270.340	28.052	0.094	0.079
-269.326	10.161	-0.120	0.091
-268.311	119.653	-0.181	-0.224
-267.297	228.050	0.097	-0.158
-266.282	-106.497	0.269	0.060
-265.267	-200.000	-0.027	0.256
-264.253	159.312	0.159	0.220
-263.238	-55.778	0.109	0.049
-262.224	-200.000	-0.024	0.134
-261.209	-86.442	-0.484	0.148
-260.195	-30.515	0.317	0.179
-259.180	-28.102	0.488	-0.281
-258.165	800.000	-0.030	-0.131
-257.151	26.226	0.131	0.109
-256.136	-200.000	0.015	-0.098
-255.122	-29.905	0.132	-0.075
-254.107	173.931	-0.146	-0.211
-253.092	-124.488	0.208	0.032
-252.078	134.844	0.282	0.366
-251.063	663.905	0.093	-0.240
-250.049	-200.000	-0.011	-0.182
-249.034	-200.000	-0.005	0.224
-248.019	-11.759	0.127	0.083
-247.005	-200.000	-0.006	-0.086
-245.990	-121.113	-0.168	0.028
-244.976	177.672	0.209	-0.303
-243.961	744.493	-0.072	0.193
-242.946	254.425	-0.008	0.013
-241.932	78.923	-0.175	-0.186
-240.917	68.735	-0.227	-0.232
-239.903	566.195	-0.159	0.384
-238.888	138.598	-0.131	-0.171
-237.873	-38.177	-0.122	-0.064
-236.859	-185.431	-0.217	0.003
-235.844	2.515	-0.072	0.052
-234.830	371.854	-0.214	0.433
-233.815	135.995	-0.204	0.265
-232.800	-142.963	0.110	-0.011
-231.786	-81.885	-0.498	-0.162
-230.771	-102.114	0.307	0.074
-229.757	800.000	0.039	-0.113
-228.742	-103.905	0.107	-0.025
-227.727	-57.916	0.160	0.070
-226.713	800.000	-0.043	0.181
-225.698	-200.000	-0.034	0.219
-224.684	366.023	-0.093	-0.188
-223.669	163.876	-0.206	-0.289
-222.655	-200.000	0.038	0.238
-221.640	653.216	-0.220	0.563
-220.625	198.107	-0.065	-0.098
-219.611	800.000	0.048	-0.155
-218.596	403.328	-0.081	-0.170
-217.582	-119.026	0.347	0.060
-216.567	341.876	0.125	-0.243
-215.552	800.000	-0.055	0.228
-214.538	34.118	0.016	-0.014
-213.523	79.983	0.192	-0.205
-212.509	-5.693	-0.136	0.093
-211.494	-73.280	0.260	0.095
-210.479	-155.769	0.355	0.023
-209.465	268.501	0.214	-0.373
-208.450	-30.509	0.198	-0.112
-207.436	249.783	-0.068	0.115
-206.421	-200.000	0.002	0.035
-205.406	654.288	0.069	0.177
-204.392	88.878	-0.137	-0.152
-203.377	-200.000	0.051	-0.251
-202.363	-200.000	-0.048	-0.305
-201.348	201.508	-0.223	-0.341
-200.333	-86.919	0.039	-0.012
-199.319	-157.515	0.249	0.015
-198.304	126.319	-0.089	0.112
-197.290	-200.000	0.026	0.133
-196.275	21.239	-0.062	-0.050
-195.260	457.940	0.175	0.386
-194.246	-200.000	0.007	-0.154
-193.231	392.719	-0.053	0.110
-192.217	132.834	0.150	0.193
-191.202	-187.803	-0.297	0.004
-190.187	-33.420	0.076	0.042
-189.173	244.235	-0.117	-0.196
-188.158	-23.839	-0.174	0.104
-187.144	-106.464	-0.278	0.062
-186.129	231.195	0.330	0.538
-185.114	-200.000	-0.057	-0.411
-184.100	-135.217	-0.331	0.040
-183.085	-200.000	0.015	-0.186
-182.071	800.000	0.030	-0.085
-181.056	-63.277	-0.168	0.069
-180.042	370.776	-0.339	0.684
-179.027	-7.646	0.236	0.159
-178.012	126.678	-0.054	-0.068
-176.998	269.917	0.070	0.122
-175.983	-6.356	0.094	0.063
-174.969	-200.000	-0.014	-0.409
-173.954	635.251	-0.050	0.127
-172.939	-62.571	-0.305	0.126
-171.925	90.385	0.022	0.024
-170.910	-200.000	0.009	-0.097
-169.896	443.064	0.082	-0.179
-168.881	176.622	0.182	-0.263
-167.866	-200.000	0.023	-0.109
-166.852	800.000	-0.006	0.018
-165.837	120.317	0.197	-0.243
-164.823	800.000	-0.083	0.234
-163.808	53.317	-0.175	0.167
-162.793	52.535	-0.193	-0.183
-161.779	-120.994	0.292	-0.049
-160.764	-200.000	0.058	0.367
-159.750	2.016	0.215	0.154
-158.735	-69.642	-0.165	-0.063
-157.720	69.659	-0.308	-0.315
-156.706	-43.002	-0.090	-0.045
-155.691	260.982	0.154	-0.264
-154.677	800.000	-0.059	0.186
-153.662	620.749	-0.094	0.236
-152.647	146.857	-0.138	0.184
-151.633	-140.410	-0.118	0.012
-150.618	89.455	0.249	0.276
-149.604	79.682	-0.181	0.193
-148.589	-8.477	0.214	-0.143
-147.574	-96.779	-0.293	-0.076
-146.560	89.706	-0.202	0.224
-145.545	800.000	0.113	0.315
-144.531	-15.484	0.152	0.096
-143.516	50.556	0.229	-0.215
-142.502	167.720	-0.061	0.086
-141.487	65.489	-0.174	0.175
-140.472	-200.000	0.019	0.175
-139.458	-137.792	0.047	0.005
-138.443	-67.730	0.135	0.053
-137.429	459.178	-0.108	0.238
-136.414	800.000	-0.109	0.437
-135.399	-200.000	-0.013	0.093
-134.385	-104.991	0.251	0.057
-133.370	-34.011	-0.358	-0.195
-132.356	253.973	-0.070	-0.119
-131.341	-184.879	0.238	0.004
-130.326	-145.467	0.122	-0.011
-129.312	-106.301	-0.339	-0.075
-128.297	682.976	0.083	-0.214
-127.283	10.913	0.317	-0.240
-126.268	167.349	-0.111	0.157
-125.253	-117.341	0.344	0.062
-124.239	-87.938	-0.067	0.020
-123.224	629.368	0.098	-0.247
-122.210	-3.685	0.130	-0.090
-121.195	-6.076	-0.220	0.149
-120.180	800.000	-0.062	0.197
