DTS Sentinel unit serial number:	SN413079Multiplexer serial number:	ORYXHardware model number:	OX4-SRSoftware version number:	ORYX F/W v4.00 Oryx Data Collector v3.7.2.0data status	okinstallation	princeton_trtdifferential loss correction	single-endedforward channel	channel 1reverse channel	N/Adate	2019/09/14time	19:02:35forward acquisition time	60.00reverse acquisition time	0.00gamma	496.2192k internal	0.2308k external	0.2308temperature offset calibration	1.0029default loss term (dB/km)	0.3790temperature slope calibration	1.0000multiplexer offset coefficient	1.0000multiplexer slope coefficient	1.0000fibre end	0.00T internal ref (°C)	35.56T ext. ref 1 (°C)	4.85T ext. ref 2 (°C)	29.41length (m)	temperature (°C)	Stokes	anti-Stokes-747.200	-11.868	-0.185	-0.124
-746.185	-200.000	0.037	0.192
-745.171	-146.355	0.074	-0.007
-744.156	-20.088	0.171	-0.107
-743.142	-45.444	0.106	-0.053
-742.127	800.000	-0.110	0.336
-741.112	283.924	-0.051	0.093
-740.098	-200.000	-0.001	0.230
-739.083	-200.000	0.021	0.192
-738.069	-200.000	-0.024	0.288
-737.054	63.557	0.177	-0.181
-736.039	-105.488	-0.181	0.042
-735.025	-4.866	0.274	0.192
-734.010	547.574	-0.090	0.219
-732.996	209.004	-0.133	0.212
-731.981	419.058	-0.075	0.164
-730.966	148.990	0.170	0.234
-729.952	29.200	-0.188	-0.162
-728.937	-8.397	0.215	-0.147
-727.923	-44.284	0.164	-0.084
-726.908	16.312	0.133	-0.107
-725.894	-76.230	0.102	0.036
-724.879	-25.213	0.071	0.043
-723.864	-56.462	-0.283	0.128
-722.850	12.297	0.185	-0.145
-721.835	158.629	0.199	-0.281
-720.821	-83.317	0.333	-0.108
-719.806	-106.792	-0.197	-0.044
-718.791	-95.938	0.193	-0.052
-717.777	481.059	-0.050	0.115
-716.762	-92.287	0.323	0.092
-715.748	-200.000	0.044	-0.360
-714.733	-200.000	-0.003	0.222
-713.718	-181.840	-0.357	0.007
-712.704	42.596	0.047	-0.044
-711.689	238.859	-0.067	0.113
-710.675	256.700	0.098	0.171
-709.660	-76.413	0.354	0.127
-708.645	-37.900	0.170	-0.091
-707.631	115.406	-0.162	-0.201
-706.616	508.882	0.112	-0.263
-705.602	-200.000	-0.010	0.084
-704.587	152.850	0.059	-0.082
-703.572	800.000	-0.097	0.359
-702.558	-200.000	-0.010	0.305
-701.543	-200.000	0.050	-0.293
-700.529	-115.959	-0.241	0.046
-699.514	290.578	0.160	0.295
-698.499	698.148	0.059	0.158
-697.485	-103.748	0.135	-0.032
-696.470	-200.000	-0.032	0.196
-695.456	-140.229	-0.363	-0.039
-694.441	-2.535	0.119	-0.085
-693.426	-53.256	0.023	-0.011
-692.412	137.068	0.153	0.203
-691.397	416.623	0.096	-0.208
-690.383	306.785	0.116	-0.219
-689.368	-33.808	-0.064	-0.036
-688.354	51.106	-0.248	-0.239
-687.339	-83.157	0.156	-0.051
-686.324	-137.587	-0.290	0.033
-685.310	135.715	-0.104	-0.137
-684.295	-144.530	-0.139	-0.013
-683.281	-21.948	-0.326	0.201
-682.266	41.865	-0.224	-0.206
-681.251	-93.376	-0.212	-0.060
-680.237	112.563	0.046	-0.057
-679.222	570.765	-0.138	0.341
-678.208	-74.291	0.168	0.062
-677.193	69.238	-0.073	0.076
-676.178	51.597	0.251	0.242
-675.164	389.563	-0.121	0.254
-674.149	765.500	-0.089	0.245
-673.135	87.261	-0.220	-0.247
-672.120	-200.000	-0.022	-0.267
-671.105	-82.942	0.302	0.099
-670.091	-171.992	-0.161	-0.005
-669.076	-23.733	-0.417	-0.253
-668.062	-85.713	0.257	0.081
-667.047	-200.000	-0.051	-0.288
-666.032	800.000	-0.018	0.076
-665.018	800.000	-0.091	-0.334
-664.003	-200.000	0.042	0.194
-662.989	-119.321	-0.201	0.035
-661.974	213.462	0.198	0.317
-660.959	-114.715	-0.158	-0.031
-659.945	503.015	0.041	-0.095
-658.930	152.147	-0.184	-0.254
-657.916	-117.710	0.169	-0.031
-656.901	-70.924	-0.120	0.046
-655.886	184.456	0.042	0.063
-654.872	-82.059	-0.123	0.041
-653.857	-26.153	0.295	-0.175
-652.843	-63.373	-0.457	0.191
-651.828	105.808	-0.178	0.213
-650.814	75.296	0.149	0.159
-649.799	145.694	0.125	0.169
-648.784	-200.000	0.032	0.198
-647.770	384.244	0.069	0.144
-646.755	-47.334	-0.139	-0.068
-645.741	14.943	-0.076	0.060
-644.726	286.206	-0.176	-0.322
-643.711	-200.000	0.018	-0.198
-642.697	800.000	-0.090	0.353
-641.682	-82.712	-0.193	-0.063
-640.668	389.213	-0.101	0.212
-639.653	468.612	0.053	0.120
-638.638	83.705	-0.390	0.431
-637.624	91.086	-0.054	0.061
-636.609	-10.492	0.093	-0.062
-635.595	54.543	-0.107	-0.104
-634.580	71.888	-0.203	0.213
-633.565	-69.958	0.306	-0.118
-632.551	-50.498	0.216	-0.103
-631.536	800.000	0.082	-0.259
-630.522	-37.073	-0.061	-0.033
-629.507	800.000	-0.064	-0.211
-628.492	-104.611	0.123	-0.029
-627.478	-68.434	0.408	-0.160
-626.463	-23.844	0.183	-0.111
-625.449	-200.000	-0.054	-0.302
-624.434	142.940	0.102	0.137
-623.419	245.777	-0.127	-0.216
-622.405	-122.604	-0.187	0.031
-621.390	88.569	0.077	0.087
-620.376	800.000	-0.081	-0.230
-619.361	-200.000	-0.048	-0.229
-618.346	-118.606	0.259	-0.046
-617.332	26.453	0.150	-0.127
-616.317	369.191	-0.045	0.092
-615.303	70.372	-0.053	0.055
-614.288	-200.000	0.044	0.439
-613.273	-42.919	0.063	-0.033
-612.259	800.000	-0.074	-0.228
-611.244	87.430	0.123	0.138
-610.230	-5.492	0.276	0.191
-609.215	546.544	0.021	-0.050
-608.201	-200.000	0.017	-0.193
-607.186	58.769	0.116	-0.116
-606.171	314.248	0.028	-0.053
-605.157	45.081	-0.383	0.357
-604.142	-72.592	-0.356	-0.133
-603.128	800.000	0.128	-0.430
-602.113	-148.204	-0.191	-0.016
-601.098	-119.827	-0.304	0.053
-600.084	-200.000	0.003	-0.049
-599.069	135.077	0.133	0.175
-598.055	800.000	0.020	-0.072
-597.040	148.805	0.108	0.148
-596.025	-197.284	-0.319	0.002
-595.011	-161.214	0.174	-0.009
-593.996	-200.000	0.013	-0.144
-592.982	-200.000	-0.047	0.269
-591.967	-40.463	-0.269	0.141
-590.952	-14.264	-0.199	0.130
-589.938	-86.559	-0.259	-0.080
-588.923	241.602	-0.110	0.186
-587.909	-103.492	0.258	0.061
-586.894	-200.000	0.028	-0.185
-585.879	210.189	-0.331	-0.524
-584.865	146.415	-0.148	-0.201
-583.850	-111.901	0.352	-0.072
-582.836	515.864	-0.037	0.087
-581.821	125.225	-0.110	-0.141
-580.806	-163.698	0.170	0.008
-579.792	-35.224	-0.025	-0.014
-578.777	-161.491	0.421	0.022
-577.763	67.330	0.189	0.194
-576.748	-120.312	0.176	-0.030
-575.733	-17.685	0.052	-0.033
-574.719	-87.256	-0.063	0.019
-573.704	-200.000	-0.081	-0.377
-572.690	117.479	-0.124	0.154
-571.675	207.530	0.144	0.227
-570.661	-200.000	-0.004	-0.141
-569.646	-66.456	0.350	-0.141
-568.631	635.635	-0.102	0.262
-567.617	-200.000	-0.002	0.147
-566.602	649.895	0.044	-0.113
-565.588	-151.116	-0.347	-0.026
-564.573	-39.406	0.285	-0.151
-563.558	-80.464	-0.205	-0.069
-562.544	685.340	0.111	-0.291
-561.529	-195.581	0.166	-0.001
-560.515	-33.756	0.237	0.132
-559.500	-200.000	0.009	0.105
-558.485	-128.473	-0.011	-0.002
-557.471	-200.000	0.017	0.269
-556.456	-84.227	-0.143	0.046
-555.442	192.668	-0.339	-0.517
-554.427	762.971	-0.090	-0.247
-553.412	346.334	0.087	-0.173
-552.398	54.598	-0.177	-0.172
-551.383	-86.565	0.187	-0.058
-550.369	800.000	-0.089	0.265
-549.354	-200.000	0.010	0.091
-548.339	463.359	0.063	-0.143
-547.325	205.752	0.117	0.184
-546.310	-150.827	-0.158	-0.012
-545.296	-60.386	-0.286	0.123
-544.281	288.158	0.043	0.078
-543.266	-93.108	0.150	0.042
-542.252	79.043	0.050	-0.054
-541.237	-76.016	-0.108	0.038
-540.223	28.249	0.123	0.105
-539.208	800.000	0.075	-0.226
-538.193	170.530	-0.084	-0.121
-537.179	800.000	0.117	0.445
-536.164	-51.179	-0.012	0.006
-535.150	328.552	-0.108	-0.210
-534.135	-200.000	-0.023	-0.104
-533.121	-87.718	-0.205	-0.062
-532.106	41.609	-0.120	-0.110
-531.091	-142.458	0.314	0.031
-530.077	51.682	-0.132	0.127
-529.062	-70.066	-0.102	-0.039
-528.048	-46.360	-0.124	-0.062
-527.033	-135.044	0.182	-0.022
-526.018	-131.368	-0.033	0.004
-525.004	-11.742	0.144	-0.095
-523.989	27.700	-0.052	-0.044
-522.975	172.594	0.063	0.092
-521.960	-23.218	-0.118	0.072
-520.945	800.000	0.100	-0.426
-519.931	-11.386	-0.176	0.117
-518.916	-19.971	0.120	-0.075
-517.902	-82.988	-0.332	-0.108
-516.887	-152.523	-0.386	0.028
-515.872	-170.689	-0.138	0.005
-514.858	16.838	-0.079	-0.063
-513.843	-84.355	0.272	0.087
-512.829	800.000	0.061	-0.184
-511.814	-38.486	0.364	0.194
-510.799	-30.960	0.178	-0.101
-509.785	654.776	0.109	0.283
-508.770	251.910	0.077	-0.132
-507.756	-200.000	-0.013	-0.234
-506.741	-46.720	-0.089	-0.044
-505.726	-70.688	-0.145	0.055
-504.712	19.665	-0.089	-0.072
-503.697	162.026	-0.106	0.150
-502.683	-107.971	-0.458	-0.100
-501.668	161.833	-0.115	0.162
-500.653	800.000	0.037	-0.137
-499.639	-106.489	-0.199	-0.045
-498.624	205.252	-0.173	-0.271
-497.610	-31.235	-0.316	-0.179
-496.595	295.375	-0.110	0.203
-495.581	43.483	-0.150	-0.138
-494.566	120.878	0.117	0.146
-493.551	-200.000	-0.010	0.436
-492.537	606.012	0.087	-0.217
-491.522	527.455	0.016	0.038
-490.508	-76.088	0.440	0.156
-489.493	336.056	-0.013	0.025
-488.478	-76.820	-0.094	-0.033
-487.464	606.818	0.247	-0.619
-486.449	800.000	-0.020	0.072
-485.435	800.000	0.058	-0.200
-484.420	460.459	0.150	0.336
-483.405	517.872	-0.041	0.098
-482.391	800.000	-0.033	-0.107
-481.376	399.661	0.205	-0.433
-480.362	288.477	0.093	0.170
-479.347	215.838	0.175	-0.280
-478.332	-61.639	-0.252	0.106
-477.318	332.612	-0.156	0.303
-476.303	110.120	-0.093	-0.112
-475.289	-62.142	-0.194	0.082
-474.274	-134.375	-0.147	-0.018
-473.259	800.000	-0.042	0.169
-472.245	-81.317	0.164	-0.054
-471.230	-200.000	0.006	0.138
-470.216	800.000	0.051	0.141
-469.201	-155.120	0.298	0.020
-468.186	49.172	0.085	0.080
-467.172	146.036	-0.141	-0.191
-466.157	800.000	0.099	-0.365
-465.143	59.237	-0.087	0.086
-464.128	609.367	-0.186	-0.466
-463.113	49.782	0.213	-0.202
-462.099	-27.092	0.145	0.085
-461.084	209.486	-0.138	0.217
-460.070	-123.867	0.474	0.075
-459.055	152.681	-0.100	0.138
-458.040	52.343	-0.213	0.204
-457.026	800.000	0.058	0.224
-456.011	800.000	0.055	0.220
-454.997	150.097	-0.118	-0.161
-453.982	257.625	-0.077	0.132
-452.968	466.003	0.070	0.159
-451.953	377.723	0.065	-0.134
-450.938	319.215	0.138	-0.262
-449.924	39.757	-0.163	0.147
-448.909	800.000	-0.026	-0.087
-447.895	397.309	0.168	-0.354
-446.880	-4.710	0.072	0.050
-445.865	123.293	-0.082	0.103
-444.851	800.000	-0.021	0.078
-443.836	131.893	0.080	0.104
-442.822	-200.000	0.048	0.355
-441.807	-113.911	-0.064	-0.012
-440.792	76.140	-0.158	0.168
-439.778	-87.022	0.167	-0.051
-438.763	-167.086	-0.284	0.012
-437.749	-93.350	0.244	0.068
-436.734	182.596	0.173	0.256
-435.719	105.781	0.195	0.231
-434.705	-20.080	0.371	-0.230
-433.690	-113.465	0.231	0.046
-432.676	800.000	-0.023	0.094
-431.661	-36.965	-0.124	-0.067
-430.646	-200.000	-0.047	-0.270
-429.632	-67.696	-0.170	0.067
-428.617	720.216	-0.125	-0.334
-427.603	-92.281	-0.161	0.046
-426.588	-22.081	0.036	0.022
-425.573	-133.955	0.076	0.009
-424.559	-200.000	-0.013	-0.109
-423.544	-28.185	0.123	-0.072
-422.530	-16.080	-0.100	0.064
-421.515	474.212	-0.082	0.185
-420.500	-92.808	-0.322	-0.090
-419.486	800.000	-0.047	0.187
-418.471	754.990	0.076	-0.206
-417.457	-200.000	-0.047	-0.332
-416.442	9.310	-0.136	-0.104
-415.428	-200.000	-0.017	0.212
-414.413	-134.342	-0.238	-0.029
-413.398	800.000	-0.105	-0.450
-412.384	782.368	-0.157	-0.431
-411.369	276.038	-0.088	0.157
-410.355	-200.000	-0.001	0.024
-409.340	-125.903	0.241	-0.036
-408.325	-56.968	-0.229	0.101
-407.311	164.315	0.171	0.241
-406.296	192.908	-0.122	-0.184
-405.282	-200.000	0.009	0.059
-404.267	298.625	0.044	-0.081
-403.252	-200.000	0.033	-0.176
-402.238	800.000	0.021	-0.060
-401.223	-200.000	0.026	-0.160
-400.209	122.649	0.143	-0.179
-399.194	572.918	-0.043	0.105
-398.179	-21.549	0.178	0.109
-397.165	562.788	-0.079	-0.193
-396.150	431.461	-0.017	-0.036
-395.136	800.000	0.073	-0.282
-394.121	496.064	-0.162	0.372
-393.106	-200.000	0.017	-0.094
-392.092	20.478	-0.117	0.095
-391.077	-200.000	0.017	0.100
-390.063	-127.928	0.111	-0.016
-389.048	-12.358	0.145	-0.095
-388.033	520.240	-0.106	0.249
-387.019	-128.014	0.223	0.032
-386.004	800.000	-0.030	-0.120
-384.990	-155.462	0.020	0.001
-383.975	0.300	-0.226	-0.162
-382.960	-24.883	-0.319	-0.190
-381.946	-63.504	-0.446	-0.184
-380.931	9.619	-0.269	-0.204
-379.917	41.893	0.154	0.140
-378.902	6.351	-0.268	0.199
-377.888	-200.000	0.014	0.324
-376.873	-56.413	0.103	-0.046
-375.858	-119.402	-0.266	0.046
-374.844	-71.316	0.288	-0.108
-373.829	520.085	-0.070	-0.165
-372.815	40.455	0.176	-0.158
-371.800	567.284	0.020	0.048
-370.785	800.000	0.059	0.166
-369.771	104.418	-0.145	0.171
-368.756	-158.035	-0.103	0.006
-367.742	218.387	-0.060	-0.096
-366.727	-200.000	0.054	0.409
-365.712	314.145	0.168	-0.317
-364.698	-200.000	0.011	0.132
-363.683	-47.740	-0.192	0.093
-362.669	-29.218	0.215	0.124
-361.654	63.881	-0.032	-0.032
-360.639	-200.000	0.008	-0.091
-359.625	-155.348	0.060	0.004
-358.610	-165.716	-0.201	0.009
-357.596	-51.767	0.191	-0.089
-356.581	-123.873	-0.205	0.032
-355.566	668.067	0.058	-0.149
-354.552	-52.408	-0.297	0.138
-353.537	-81.678	0.215	-0.071
-352.523	173.387	-0.152	0.220
-351.508	392.989	0.135	0.281
-350.493	338.923	-0.154	-0.300
-349.479	-42.568	0.166	0.085
-348.464	-67.569	0.214	0.084
-347.450	-23.859	0.119	0.071
-346.435	-79.415	-0.075	-0.026
-345.420	424.320	-0.048	-0.103
-344.406	-131.863	0.204	0.027
-343.391	152.843	0.165	-0.225
-342.377	-100.654	-0.408	-0.101
-341.362	-200.000	-0.018	0.145
-340.348	-125.891	-0.292	0.044
-339.333	800.000	-0.021	-0.084
-338.318	-200.000	0.003	0.163
-337.304	188.851	-0.086	0.128
-336.289	74.986	-0.063	0.067
-335.275	30.506	0.034	0.029
-334.260	44.097	-0.217	0.199
-333.245	70.173	-0.106	-0.109
-332.231	-61.288	0.108	0.046
-331.216	800.000	0.062	0.176
-330.202	-137.545	0.199	-0.022
-329.187	64.175	-0.192	-0.193
-328.172	130.880	0.085	-0.109
-327.158	800.000	-0.091	0.286
-326.143	254.520	0.127	0.217
-325.129	669.466	-0.087	-0.225
-324.114	-43.537	-0.217	0.109
-323.099	-51.518	0.090	0.042
-322.085	800.000	-0.015	0.050
-321.070	-135.290	0.190	-0.023
-320.056	800.000	-0.050	0.159
-319.041	800.000	-0.023	0.101
-318.026	165.082	0.118	0.166
-317.012	-97.709	0.199	0.052
-315.997	96.511	0.059	0.068
-314.983	4.819	0.102	-0.075
-313.968	-58.830	-0.555	-0.240
-312.953	-200.000	-0.002	-0.037
-311.939	9.546	-0.132	0.100
-310.924	243.298	0.052	-0.086
-309.910	-96.083	-0.195	-0.052
-308.895	-24.136	0.155	-0.093
-307.880	-63.133	-0.113	-0.046
-306.866	-200.000	0.005	0.176
-305.851	-200.000	-0.004	0.143
-304.837	519.746	-0.100	-0.235
-303.822	-190.050	0.189	-0.002
-302.807	-200.000	0.032	0.188
-301.793	-49.170	0.105	0.050
-300.778	-70.570	0.310	-0.117
-299.764	670.257	-0.024	-0.063
-298.749	-91.366	0.355	0.101
-297.735	23.819	0.256	-0.211
-296.720	-56.956	-0.158	-0.070
-295.705	-105.175	0.170	-0.039
-294.691	-50.783	-0.146	0.069
-293.676	-200.000	-0.066	-0.356
-292.662	-97.055	-0.389	0.102
-291.647	339.760	0.081	0.157
-290.632	8.824	0.395	0.297
-289.618	-150.498	0.226	0.017
-288.603	-200.000	0.002	0.040
-287.589	-200.000	-0.001	-0.034
-286.574	122.252	0.071	-0.088
-285.559	-90.803	-0.170	0.049
-284.545	27.219	-0.208	-0.174
-283.530	-31.127	-0.085	0.048
-282.516	162.836	-0.164	0.230
-281.501	-114.459	0.128	0.025
-280.486	-50.384	-0.175	0.083
-279.472	-92.084	0.215	0.061
-278.457	800.000	-0.058	-0.225
-277.443	800.000	-0.077	0.252
-276.428	-152.520	-0.148	0.011
-275.413	-138.166	-0.239	-0.026
-274.399	236.432	0.146	-0.240
-273.384	-111.827	0.210	0.042
-272.370	103.284	-0.077	0.090
-271.355	86.120	0.205	0.226
-270.340	509.666	-0.169	0.392
-269.326	135.336	-0.067	0.087
-268.311	-200.000	-0.031	-0.266
-267.297	217.071	0.048	-0.077
-266.282	-19.372	-0.184	0.114
-265.267	-57.481	0.105	-0.046
-264.253	-123.289	0.275	0.044
-263.238	207.214	-0.124	-0.193
-262.224	-72.236	0.295	-0.109
-261.209	122.417	0.056	-0.070
-260.195	-11.883	0.108	0.071
-259.180	-92.537	-0.548	0.153
-258.165	800.000	0.080	0.278
-257.151	-108.822	0.055	0.012
-256.136	435.825	0.110	0.238
-255.122	-18.515	0.347	0.216
-254.107	-17.761	0.224	0.140
-253.092	18.278	-0.140	-0.111
-252.078	-139.380	-0.106	-0.011
-251.063	-143.606	-0.217	0.021
-250.049	244.847	0.084	-0.140
-249.034	-121.438	0.440	-0.073
-248.019	370.800	0.070	-0.141
-247.005	800.000	0.106	-0.311
-245.990	87.209	-0.154	0.170
-244.976	-200.000	0.003	-0.026
-243.961	-147.706	0.077	-0.006
-242.946	23.219	0.381	0.312
-241.932	-89.746	-0.279	-0.082
-240.917	-120.677	0.003	-0.000
-239.903	309.332	0.145	-0.270
-238.888	-29.856	0.144	-0.082
-237.873	111.166	0.172	0.207
-236.859	-200.000	-0.018	0.323
-235.844	480.514	0.031	-0.070
-234.830	594.004	-0.109	0.267
-233.815	386.779	0.041	-0.084
-232.800	-24.025	-0.090	-0.053
-231.786	-60.034	-0.049	-0.021
-230.771	-64.509	-0.179	0.073
-229.757	129.380	0.032	0.041
-228.742	287.086	-0.038	-0.069
-227.727	277.911	-0.086	0.152
-226.713	-136.580	0.206	0.024
-225.698	-62.981	0.299	-0.123
-224.684	502.964	0.124	-0.285
-223.669	-146.493	-0.177	-0.015
-222.655	75.208	0.136	-0.143
-221.640	800.000	0.016	0.045
-220.625	-57.365	-0.222	0.097
-219.611	279.065	0.151	-0.269
-218.596	78.562	-0.168	0.179
-217.582	-112.861	0.351	0.069
-216.567	45.953	0.084	0.077
-215.552	623.352	-0.114	0.286
-214.538	-200.000	0.170	-0.000
-213.523	-33.545	0.361	0.199
-212.509	-200.000	-0.036	-0.181
-211.494	-10.216	0.063	0.041
-210.479	-200.000	-0.013	0.167
-209.465	-200.000	0.011	0.203
-208.450	-82.318	-0.188	-0.061
-207.436	328.490	-0.095	-0.182
-206.421	-112.959	-0.414	0.082
-205.406	-200.000	-0.049	-0.217
-204.392	-200.000	0.042	-0.238
-203.377	188.288	-0.081	-0.120
-202.363	-174.184	0.142	0.004
-201.348	439.731	0.126	0.274
-200.333	-105.205	-0.404	-0.092
-199.319	322.446	0.113	0.215
-198.304	800.000	0.061	0.184
-197.290	-119.789	0.408	0.070
-196.275	-157.435	0.227	0.014
-195.260	-149.952	0.257	-0.020
-194.246	-67.485	0.084	-0.033
-193.231	24.707	-0.300	0.247
-192.217	-37.534	0.125	0.066
-191.202	39.311	0.052	0.046
-190.187	511.621	-0.159	0.368
-189.173	24.970	-0.116	-0.095
-188.158	-124.397	0.490	-0.076
-187.144	103.430	-0.123	0.143
-186.129	-200.000	0.002	0.298
-185.114	-9.007	-0.198	0.132
-184.100	-200.000	0.013	-0.285
-183.085	-8.446	-0.326	0.218
-182.071	-200.000	-0.028	0.361
-181.056	-91.654	0.124	0.035
-180.042	-53.102	0.125	-0.057
-179.027	-39.776	0.193	0.100
-178.012	-159.744	-0.520	-0.029
-176.998	5.419	0.197	0.144
-175.983	562.227	0.100	-0.240
-174.969	-29.610	-0.100	0.057
-173.954	-141.843	-0.241	0.024
-172.939	136.597	0.112	0.145
-171.925	95.699	0.067	-0.076
-170.910	139.346	0.225	0.294
-169.896	-104.732	0.107	0.024
-168.881	-67.989	-0.364	0.141
-167.866	-52.651	0.005	-0.002
-166.852	368.027	0.182	-0.365
-165.837	38.075	0.334	-0.295
-164.823	-200.000	-0.020	-0.322
-163.808	800.000	0.077	0.271
-162.793	-79.501	-0.076	-0.025
-161.779	92.206	-0.225	-0.252
-160.764	-200.000	0.090	-0.423
-159.750	124.197	-0.053	-0.067
-158.735	118.569	-0.114	0.140
-157.720	-124.844	0.395	0.060
-156.706	-200.000	-0.047	0.211
-155.691	-58.468	0.291	-0.125
-154.677	266.532	-0.168	-0.291
-153.662	-200.000	0.023	-0.155
-152.647	160.095	-0.058	0.081
-151.633	-76.772	-0.058	-0.020
-150.618	85.714	-0.023	0.025
-149.604	-34.905	-0.081	-0.044
-148.589	-169.374	-0.177	-0.006
-147.574	-200.000	-0.042	0.638
-146.560	-184.817	-0.069	0.001
-145.545	-36.864	0.298	-0.158
-144.531	33.058	-0.076	-0.066
-143.516	-145.590	0.156	0.014
-142.502	-75.770	0.183	0.064
-141.487	-45.748	0.221	0.108
-140.472	-129.084	0.107	0.015
-139.458	632.872	-0.167	-0.421
-138.443	-33.171	-0.122	-0.067
-137.429	96.571	-0.181	0.205
-136.414	-65.451	0.070	0.028
-135.399	16.791	0.186	0.146
-134.385	374.465	-0.064	-0.130
-133.370	-96.886	-0.309	-0.081
-132.356	143.007	-0.137	0.181
-131.341	800.000	0.053	0.230
-130.326	800.000	0.075	-0.259
-129.312	61.879	0.209	-0.206
-128.297	156.900	-0.033	0.045
-127.283	-122.098	-0.096	0.016
-126.268	9.937	0.261	0.196
-125.253	92.988	0.056	0.063
-124.239	167.088	0.048	0.068
-123.224	-143.851	-0.113	-0.011
-122.210	800.000	0.112	0.402
-121.195	186.768	0.064	0.094
