DTS Sentinel unit serial number:	SN413079Multiplexer serial number:	ORYXHardware model number:	OX4-SRSoftware version number:	ORYX F/W v4.00 Oryx Data Collector v3.7.2.0data status	okinstallation	princeton_trtdifferential loss correction	single-endedforward channel	channel 1reverse channel	N/Adate	2019/09/12time	00:52:11forward acquisition time	60.00reverse acquisition time	0.00gamma	496.2192k internal	0.2319k external	0.2319temperature offset calibration	1.0078default loss term (dB/km)	0.3790temperature slope calibration	1.0000multiplexer offset coefficient	1.0000multiplexer slope coefficient	1.0000fibre end	0.00T internal ref (°C)	33.25T ext. ref 1 (°C)	2.09T ext. ref 2 (°C)	28.00length (m)	temperature (°C)	Stokes	anti-Stokes-747.200	-200.000	-0.077	0.346
-746.185	-114.893	-0.207	0.040
-745.171	26.581	0.213	0.180
-744.156	-200.000	0.002	0.290
-743.142	-67.934	0.080	0.032
-742.127	61.713	0.160	0.162
-741.112	347.915	0.064	-0.128
-740.098	500.713	-0.122	0.285
-739.083	-200.000	0.025	0.230
-738.069	760.624	-0.146	0.400
-737.054	-93.360	-0.113	0.032
-736.039	-200.000	-0.007	0.258
-735.025	204.794	0.186	0.292
-734.010	11.666	0.069	-0.053
-732.996	-200.000	0.013	-0.075
-731.981	267.104	0.152	-0.268
-730.966	19.127	-0.223	-0.181
-729.952	-117.707	-0.154	0.028
-728.937	-200.000	-0.024	-0.223
-727.923	50.211	-0.044	-0.042
-726.908	161.663	0.073	0.103
-725.894	230.735	0.073	0.121
-724.879	-200.000	0.034	0.153
-723.864	-200.000	-0.036	-0.214
-722.850	91.833	0.173	0.196
-721.835	800.000	-0.071	-0.203
-720.821	-0.330	-0.189	0.136
-719.806	85.315	-0.036	-0.040
-718.791	-68.650	-0.098	-0.038
-717.777	-200.000	-0.052	0.314
-716.762	-53.893	0.157	-0.072
-715.748	-200.000	-0.050	0.309
-714.733	-200.000	-0.050	-0.456
-713.718	-196.334	0.086	-0.001
-712.704	-200.000	-0.027	0.128
-711.689	-119.403	-0.058	-0.010
-710.675	-130.193	0.654	0.090
-709.660	46.426	-0.199	-0.186
-708.645	309.063	-0.123	-0.232
-707.631	800.000	0.041	0.176
-706.616	800.000	0.060	0.209
-705.602	-10.982	0.170	-0.114
-704.587	-186.083	0.115	0.002
-703.572	-96.560	0.205	-0.055
-702.558	143.562	0.197	0.265
-701.543	-161.816	-0.391	-0.020
-700.529	-200.000	0.011	0.107
-699.514	-9.500	-0.147	0.099
-698.499	382.883	-0.112	0.233
-697.485	-200.000	-0.013	0.266
-696.470	750.440	0.042	0.115
-695.456	167.505	-0.042	-0.060
-694.441	800.000	-0.030	0.115
-693.426	800.000	0.079	0.293
-692.412	-200.000	0.050	-0.288
-691.397	-31.904	0.070	-0.040
-690.383	800.000	0.041	-0.116
-689.368	-74.639	-0.283	0.103
-688.354	-46.354	-0.071	-0.035
-687.339	-63.320	0.043	-0.018
-686.324	800.000	0.034	0.114
-685.310	-54.669	0.227	-0.103
-684.295	-168.505	0.187	-0.007
-683.281	-130.061	0.091	-0.012
-682.266	-6.075	0.428	-0.295
-681.251	800.000	0.013	0.055
-680.237	-63.962	-0.268	-0.110
-679.222	-103.321	-0.335	-0.080
-678.208	-6.143	0.336	0.231
-677.193	800.000	-0.048	-0.139
-676.178	-33.251	-0.292	0.163
-675.164	-47.422	-0.304	-0.149
-674.149	-200.000	0.022	-0.179
-673.135	-54.200	-0.206	0.094
-672.120	-200.000	0.024	0.280
-671.105	-11.128	0.096	0.064
-670.091	-129.231	-0.135	-0.019
-669.076	537.535	0.063	-0.151
-668.062	-155.425	-0.167	-0.011
-667.047	28.355	0.295	0.251
-666.032	256.604	-0.182	-0.316
-665.018	395.413	0.108	-0.227
-664.003	189.842	0.107	0.162
-662.989	60.528	0.253	-0.253
-661.974	-19.384	0.145	0.091
-660.959	-200.000	0.069	-0.355
-659.945	-200.000	-0.027	-0.202
-658.930	800.000	0.050	0.142
-657.916	284.455	-0.087	0.158
-656.901	-7.346	-0.195	0.133
-655.886	362.808	0.118	0.238
-654.872	-52.658	-0.130	0.060
-653.857	178.210	-0.096	0.141
-652.843	168.853	0.142	0.204
-651.828	-34.192	0.388	0.215
-650.814	-66.226	0.199	-0.080
-649.799	271.653	0.145	-0.258
-648.784	-122.316	-0.166	-0.027
-647.770	98.713	-0.182	-0.212
-646.755	-50.982	-0.371	-0.176
-645.741	-200.000	0.063	0.297
-644.726	-40.153	-0.169	-0.089
-643.711	79.161	-0.199	0.215
-642.697	394.041	-0.092	-0.193
-641.682	317.181	-0.150	-0.285
-640.668	-55.680	-0.133	0.060
-639.653	-134.152	-0.095	0.012
-638.638	800.000	-0.005	-0.021
-637.624	-146.268	0.344	0.030
-636.609	74.868	0.175	-0.186
-635.595	800.000	0.032	0.136
-634.580	-145.716	-0.094	-0.008
-633.565	-103.291	-0.243	0.058
-632.551	122.932	-0.050	-0.063
-631.536	107.200	-0.270	0.324
-630.522	177.405	0.034	-0.050
-629.507	153.694	0.031	-0.042
-628.492	5.638	0.184	-0.137
-627.478	-173.716	0.344	-0.010
-626.463	800.000	-0.092	0.308
-625.449	800.000	-0.070	-0.216
-624.434	-98.145	0.110	0.029
-623.419	28.899	-0.241	0.206
-622.405	800.000	0.104	-0.312
-621.390	486.318	-0.121	-0.278
-620.376	-80.056	0.353	-0.119
-619.361	14.263	-0.226	0.177
-618.346	-155.354	-0.314	0.020
-617.332	431.476	-0.141	-0.308
-616.317	47.894	-0.091	-0.085
-615.303	-200.000	0.055	0.349
-614.288	51.721	0.221	0.211
-613.273	-200.000	-0.059	-0.592
-612.259	25.797	0.152	0.128
-611.244	-200.000	0.013	0.210
-610.230	1.704	-0.191	-0.139
-609.215	-200.000	0.009	-0.091
-608.201	9.788	0.340	-0.260
-607.186	-74.638	0.058	0.021
-606.171	-200.000	0.102	-0.524
-605.157	277.885	-0.203	-0.363
-604.142	123.381	-0.132	-0.166
-603.128	-75.075	-0.027	0.010
-602.113	390.542	-0.077	-0.160
-601.098	-142.352	-0.168	-0.017
-600.084	-200.000	-0.023	0.249
-599.069	412.566	0.219	0.467
-598.055	-136.778	0.137	0.016
-597.040	-84.937	0.230	0.073
-596.025	248.522	-0.109	0.186
-595.011	-200.000	0.011	-0.161
-593.996	421.546	0.076	-0.164
-592.982	-166.314	-0.258	0.011
-591.967	-142.560	0.029	0.003
-590.952	644.416	-0.110	0.283
-589.938	-116.161	-0.198	-0.037
-588.923	376.192	-0.049	0.100
-587.909	-200.000	-0.003	0.115
-586.894	-32.702	-0.215	-0.121
-585.879	-151.851	0.421	-0.031
-584.865	800.000	0.029	0.089
-583.850	-141.569	-0.245	0.025
-582.836	113.663	0.205	0.250
-581.821	498.513	0.101	0.235
-580.806	218.396	0.025	0.040
-579.792	206.435	-0.065	0.101
-578.777	94.567	0.319	-0.364
-577.763	800.000	-0.061	-0.218
-576.748	-41.159	-0.209	0.108
-575.733	-56.823	0.357	0.159
-574.719	102.812	0.138	-0.162
-573.704	239.653	-0.163	-0.272
-572.690	-77.766	0.058	0.020
-571.675	-200.000	0.015	0.403
-570.661	-113.248	-0.588	0.116
-569.646	421.170	0.137	-0.295
-568.631	229.198	-0.124	-0.202
-567.617	-200.000	-0.022	0.117
-566.602	646.461	-0.024	-0.061
-565.588	800.000	0.072	0.297
-564.573	474.154	0.108	0.245
-563.558	9.134	-0.192	0.146
-562.544	-200.000	-0.010	-0.236
-561.529	-75.186	0.203	0.073
-560.515	-200.000	0.049	0.220
-559.500	55.640	-0.216	0.210
-558.485	-148.786	-0.096	-0.008
-557.471	45.528	-0.154	0.143
-556.456	-137.956	-0.282	0.032
-555.442	-22.608	-0.120	-0.073
-554.427	-140.637	0.076	-0.008
-553.412	124.434	-0.096	0.122
-552.398	506.282	0.115	-0.267
-551.383	-89.572	0.133	-0.039
-550.369	279.589	-0.167	-0.299
-549.354	13.345	-0.221	-0.172
-548.339	14.218	0.030	0.024
-547.325	166.959	-0.043	0.061
-546.310	-100.843	0.050	0.012
-545.296	1.553	0.145	-0.105
-544.281	127.735	-0.133	-0.170
-543.266	-43.241	-0.162	0.082
-542.252	-200.000	-0.064	-0.364
-541.237	62.384	0.329	0.330
-540.223	-81.035	0.115	0.038
-539.208	-71.635	0.234	0.088
-538.193	-200.000	0.001	-0.254
-537.179	556.483	0.068	0.164
-536.164	-114.101	0.455	-0.088
-535.150	-70.432	0.208	-0.079
-534.135	233.598	-0.132	-0.218
-533.121	-178.119	0.363	-0.009
-532.106	-8.309	-0.178	0.120
-531.091	-123.909	0.041	-0.007
-530.077	101.982	0.189	0.221
-529.062	-169.526	0.020	-0.001
-528.048	-200.000	0.001	0.055
-527.033	144.699	0.060	-0.080
-526.018	-200.000	0.011	-0.178
-525.004	-10.059	0.209	0.139
-523.989	-98.648	-0.341	0.087
-522.975	141.437	0.177	-0.235
-521.960	4.998	0.138	0.102
-520.945	-80.633	-0.168	0.056
-519.931	43.544	0.060	0.055
-518.916	800.000	-0.006	-0.020
-517.902	-200.000	-0.027	-0.294
-516.887	-39.759	0.045	-0.024
-515.872	29.657	-0.231	0.197
-514.858	-60.815	-0.257	-0.109
-513.843	-44.098	-0.407	-0.205
-512.829	9.325	0.222	-0.168
-511.814	775.567	0.092	0.253
-510.799	170.215	0.136	0.195
-509.785	200.595	-0.127	-0.195
-508.770	-101.894	0.060	0.015
-507.756	57.116	-0.252	0.246
-506.741	-105.045	0.226	-0.052
-505.726	-41.765	-0.261	-0.134
-504.712	506.989	-0.081	-0.188
-503.697	4.452	0.097	-0.072
-502.683	566.528	0.117	-0.285
-501.668	800.000	0.031	-0.110
-500.653	-171.507	-0.072	-0.002
-499.639	-9.974	0.195	-0.130
-498.624	-200.000	-0.021	-0.150
-497.610	-139.986	0.294	0.031
-496.595	-200.000	-0.003	0.065
-495.581	-51.672	0.370	-0.173
-494.566	-200.000	-0.241	0.001
-493.551	41.709	0.188	-0.170
-492.537	-200.000	0.020	-0.320
-491.522	72.878	0.104	0.109
-490.508	-107.195	-0.215	0.047
-489.493	-6.807	0.080	0.054
-488.478	-178.568	0.238	-0.005
-487.464	800.000	-0.093	-0.286
-486.449	14.658	-0.198	0.155
-485.435	-48.677	0.173	0.083
-484.420	606.806	-0.035	0.088
-483.405	-47.639	-0.099	-0.048
-482.391	358.613	0.169	0.338
-481.376	-108.231	0.318	0.069
-480.362	118.158	-0.048	-0.060
-479.347	-200.000	-0.020	0.118
-478.332	292.978	0.123	0.225
-477.318	800.000	0.079	-0.222
-476.303	18.309	-0.344	0.275
-475.289	-200.000	-0.021	0.201
-474.274	245.960	0.142	-0.240
-473.259	5.099	0.151	0.111
-472.245	485.516	0.041	-0.093
-471.230	-32.728	-0.171	0.095
-470.216	170.987	0.057	0.082
-469.201	-181.650	-0.311	0.006
-468.186	81.543	-0.133	0.143
-467.172	-22.499	-0.130	0.079
-466.157	130.651	0.055	0.070
-465.143	-163.044	0.103	-0.005
-464.128	154.484	0.120	0.165
-463.113	223.469	-0.115	-0.186
-462.099	29.276	0.065	0.055
-461.084	-106.140	-0.394	0.089
-460.070	102.884	-0.186	0.218
-459.055	203.267	0.204	0.316
-458.040	81.582	-0.053	-0.058
-457.026	800.000	0.033	-0.130
-456.011	14.139	-0.031	-0.024
-454.997	-120.679	0.158	0.027
-453.982	171.886	-0.209	0.301
-452.968	-81.306	-0.231	0.076
-451.953	-53.050	-0.152	-0.070
-450.938	69.402	-0.151	-0.155
-449.924	-53.762	-0.139	-0.063
-448.909	800.000	-0.010	-0.035
-447.895	-200.000	-0.006	-0.064
-446.880	-29.705	-0.141	0.081
-445.865	800.000	-0.040	0.174
-444.851	159.000	-0.273	0.379
-443.836	-77.436	-0.189	0.066
-442.822	-200.000	0.013	-0.108
-441.807	144.839	0.038	-0.051
-440.792	-76.673	0.343	0.120
-439.778	-74.340	-0.358	-0.129
-438.763	800.000	0.082	-0.240
-437.749	222.715	-0.137	0.220
-436.734	618.828	0.077	0.194
-435.719	-200.000	-0.007	0.180
-434.705	-200.000	-0.009	-0.223
-433.690	-52.647	-0.185	0.086
-432.676	0.683	0.127	-0.091
-431.661	-121.009	0.297	-0.050
-430.646	-200.000	-0.011	0.052
-429.632	-53.925	0.087	0.040
-428.617	-200.000	-0.018	0.270
-427.603	-91.466	-0.408	-0.116
-426.588	-200.000	-0.039	-0.408
-425.573	702.516	-0.016	0.043
-424.559	87.698	0.182	-0.201
-423.544	-139.279	-0.234	-0.025
-422.530	-133.785	-0.459	-0.057
-421.515	97.583	0.151	-0.174
-420.500	-85.465	-0.061	-0.019
-419.486	-157.199	-0.039	0.002
-418.471	-159.316	-0.240	-0.013
-417.457	98.118	0.226	0.259
-416.442	133.104	0.184	-0.237
-415.428	-25.913	0.386	-0.227
-414.413	-97.311	-0.449	-0.117
-413.398	121.483	0.046	-0.057
-412.384	-168.891	-0.291	0.011
-411.369	-24.947	0.092	-0.055
-410.355	90.825	-0.257	-0.287
-409.340	-70.244	0.269	0.102
-408.325	164.819	0.102	0.144
-407.311	-200.000	-0.006	0.344
-406.296	-156.668	-0.343	-0.021
-405.282	-36.907	-0.070	0.038
-404.267	238.659	0.158	-0.263
-403.252	8.193	-0.138	-0.104
-402.238	-200.000	-0.058	-0.267
-401.223	259.633	-0.069	0.118
-400.209	413.977	0.036	0.077
-399.194	434.981	0.066	-0.143
-398.179	167.950	-0.072	-0.103
-397.165	-144.891	-0.281	0.026
-396.150	-200.000	-0.068	-0.298
-395.136	-113.739	0.424	-0.082
-394.121	-200.000	0.058	0.256
-393.106	-200.000	0.018	0.128
-392.092	281.861	-0.104	0.187
-391.077	-3.122	-0.269	0.187
-390.063	98.194	0.099	-0.114
-389.048	137.293	0.174	-0.227
-388.033	-13.184	-0.082	0.053
-387.019	-95.215	0.313	0.084
-386.004	-21.681	0.143	0.087
-384.990	-120.707	0.164	-0.028
-383.975	-200.000	-0.026	0.374
-382.960	-200.000	0.254	0.000
-381.946	800.000	0.043	0.132
-380.931	-128.506	-0.228	-0.032
-379.917	-200.000	-0.064	-0.344
-378.902	-134.500	-0.074	-0.009
-377.888	210.215	-0.142	-0.222
-376.873	-120.668	0.292	-0.049
-375.858	-200.000	0.002	-0.191
-374.844	-149.459	-0.436	0.034
-373.829	-200.000	-0.046	0.354
-372.815	-200.000	0.023	-0.379
-371.800	6.724	-0.074	-0.055
-370.785	18.001	-0.274	-0.218
-369.771	800.000	-0.010	-0.030
-368.756	-80.920	0.217	0.072
-367.742	1.387	0.250	-0.179
-366.727	141.484	-0.094	-0.124
-365.712	102.588	-0.135	-0.157
-364.698	189.805	-0.099	-0.148
-363.683	176.488	-0.128	-0.186
-362.669	-69.182	-0.177	0.068
-361.654	-68.780	-0.340	0.131
-360.639	800.000	0.018	0.072
-359.625	-136.038	0.238	0.028
-358.610	-61.782	0.194	0.081
-357.596	-36.137	0.201	-0.108
-356.581	585.747	0.068	0.168
-355.566	752.326	0.068	0.183
-354.552	128.925	-0.081	0.104
-353.537	137.647	0.287	-0.374
-352.523	84.037	0.060	-0.065
-351.508	-143.688	0.262	-0.025
-350.493	-41.282	-0.323	-0.166
-349.479	414.775	0.225	0.478
-348.464	173.683	-0.267	0.383
-347.450	39.660	0.201	0.180
-346.435	67.970	-0.335	0.341
-345.420	152.702	-0.142	0.193
-344.406	-200.000	-0.026	0.372
-343.391	17.966	0.256	-0.203
-342.377	-67.364	-0.164	-0.064
-341.362	-200.000	0.009	0.298
-340.348	207.833	0.158	0.245
-339.333	68.064	0.143	-0.146
-338.318	-111.608	0.231	-0.047
-337.304	-9.409	-0.050	0.033
-336.289	-44.495	-0.126	-0.063
-335.275	-63.832	-0.262	0.107
-334.260	62.284	-0.126	-0.125
-333.245	-68.821	0.351	-0.135
-332.231	192.037	0.146	-0.219
-331.216	-43.129	-0.107	0.054
-330.202	-88.006	-0.083	0.025
-329.187	-200.000	0.005	0.028
-328.172	-88.605	0.207	-0.061
-327.158	800.000	-0.083	0.231
-326.143	-90.721	-0.081	0.023
-325.129	-42.219	0.103	-0.052
-324.114	348.132	-0.101	-0.197
-323.099	289.109	-0.114	-0.205
-322.085	-200.000	0.013	0.106
-321.070	63.109	0.074	0.073
-320.056	92.123	-0.071	0.079
-319.041	800.000	-0.086	0.325
-318.026	-167.218	0.225	-0.009
-317.012	622.923	0.071	-0.178
-315.997	-47.798	-0.130	-0.063
-314.983	-200.000	-0.261	0.000
-313.968	-106.289	0.273	-0.061
-312.953	402.202	-0.110	-0.230
-311.939	636.643	-0.009	0.023
-310.924	91.765	0.118	0.132
-309.910	-93.299	-0.125	-0.034
-308.895	110.591	-0.126	0.150
-307.880	-42.618	0.138	-0.070
-306.866	8.925	0.091	0.068
-305.851	-200.000	0.000	-0.288
-304.837	-23.083	-0.318	0.190
-303.822	194.573	-0.145	-0.219
-302.807	-2.909	-0.276	-0.192
-301.793	137.640	-0.030	-0.039
-300.778	-24.167	-0.303	0.180
-299.764	25.879	-0.278	-0.230
-298.749	-90.461	0.215	0.062
-297.735	13.035	-0.179	0.138
-296.720	-156.470	-0.169	-0.010
-295.705	800.000	0.037	0.117
-294.691	556.114	-0.140	0.335
-293.676	-42.989	-0.167	-0.084
-292.662	117.760	0.221	0.270
-291.647	800.000	-0.097	0.365
-290.632	-142.600	-0.149	-0.014
-289.618	593.238	-0.070	0.171
-288.603	161.291	0.229	-0.318
-287.589	51.824	0.121	-0.115
-286.574	7.334	0.140	-0.104
-285.559	-42.362	-0.099	0.050
-284.545	-99.443	-0.037	-0.009
-283.530	220.145	0.087	0.138
-282.516	404.065	-0.140	0.294
-281.501	-161.639	-0.178	-0.009
-280.486	-143.649	-0.261	0.025
-279.472	415.275	0.115	0.243
-278.457	-98.151	0.129	-0.033
-277.443	-34.420	0.073	-0.040
-276.428	-66.808	-0.263	0.103
-275.413	88.375	0.083	-0.092
-274.399	113.327	0.072	-0.087
-273.384	38.332	0.262	-0.232
-272.370	-192.971	0.158	-0.001
-271.355	-184.674	0.159	-0.003
-270.340	-200.000	0.005	0.098
-269.326	95.716	0.214	-0.242
-268.311	614.043	-0.023	-0.056
-267.297	194.853	-0.049	-0.074
-266.282	-51.279	0.076	-0.035
-265.267	23.656	0.316	0.258
-264.253	-0.955	-0.098	-0.069
-263.238	-94.564	0.170	0.046
-262.224	-131.786	0.145	0.019
-261.209	-74.396	-0.168	-0.060
-260.195	-132.836	0.214	-0.027
-259.180	210.510	0.045	-0.070
-258.165	-200.000	0.007	-0.273
-257.151	-200.000	-0.013	-0.075
-256.136	-200.000	-0.036	0.227
-255.122	-66.135	-0.251	-0.099
-254.107	800.000	0.028	0.120
-253.092	-18.029	0.094	-0.059
-252.078	-42.682	0.105	0.053
-251.063	-200.000	0.074	0.477
-250.049	156.604	0.212	-0.291
-249.034	-200.000	0.020	-0.166
-248.019	93.203	0.215	0.241
-247.005	250.544	-0.097	0.163
-245.990	800.000	0.080	0.254
-244.976	-0.272	-0.240	-0.169
-243.961	313.748	-0.093	-0.174
-242.946	34.073	-0.103	0.089
-241.932	-149.051	0.461	0.037
-240.917	-200.000	-0.021	0.227
-239.903	601.994	-0.118	0.291
-238.888	62.701	0.256	-0.254
-237.873	-133.712	0.209	-0.026
-236.859	-122.939	0.148	0.024
-235.844	-200.000	-0.037	0.159
-234.830	-49.078	-0.359	-0.170
-233.815	-127.976	0.161	0.023
-232.800	31.806	-0.202	-0.173
-231.786	-72.902	0.293	0.107
-230.771	-92.167	0.348	0.098
-229.757	-54.699	0.514	0.230
-228.742	-200.000	0.088	0.433
-227.727	-200.000	-0.031	-0.136
-226.713	123.291	-0.176	-0.218
-225.698	408.687	-0.049	0.102
-224.684	-200.000	0.035	0.341
-223.669	-143.718	-0.357	-0.033
-222.655	360.964	0.164	0.326
-221.640	-109.069	0.384	0.081
-220.625	-146.272	0.162	0.014
-219.611	-132.470	-0.273	-0.035
-218.596	479.944	0.045	0.102
-217.582	150.179	0.232	-0.312
-216.567	-76.722	0.095	-0.033
-215.552	-200.000	0.025	-0.204
-214.538	-109.857	-0.404	-0.084
-213.523	-84.092	-0.143	-0.045
-212.509	447.980	0.066	0.143
-211.494	-200.000	0.010	-0.122
-210.479	525.505	0.137	-0.319
-209.465	-122.633	0.062	-0.010
-208.450	-59.887	-0.137	0.058
-207.436	800.000	-0.086	0.272
-206.421	-45.815	-0.376	0.184
-205.406	-84.807	0.326	0.101
-204.392	800.000	-0.067	-0.189
-203.377	-39.006	-0.183	0.095
-202.363	292.744	-0.122	-0.221
-201.348	-64.455	-0.227	0.091
-200.333	-76.979	-0.304	0.105
-199.319	-200.000	0.069	0.368
-198.304	-10.961	-0.436	-0.285
-197.290	247.256	-0.071	-0.118
-196.275	15.695	0.214	-0.167
-195.260	487.684	0.102	0.230
-194.246	-51.487	0.438	0.202
-193.231	-126.080	0.175	-0.026
-192.217	52.245	0.258	-0.244
-191.202	-66.322	0.243	0.096
-190.187	-49.389	0.244	-0.115
-189.173	126.167	-0.131	-0.164
-188.158	-109.278	-0.153	0.032
-187.144	-78.473	0.188	0.064
-186.129	12.184	-0.183	0.139
-185.114	-200.000	0.010	0.351
-184.100	544.466	-0.017	0.040
-183.085	451.949	-0.031	-0.067
-182.071	-54.531	-0.439	-0.197
-181.056	-166.646	0.027	-0.001
-180.042	448.042	0.111	-0.243
-179.027	306.831	0.200	-0.368
-178.012	166.825	-0.073	-0.103
-176.998	94.810	0.122	0.138
-175.983	117.692	0.155	-0.188
-174.969	24.410	0.231	0.189
-173.954	-2.573	0.121	0.083
-172.939	-50.921	0.133	0.062
-171.925	-162.929	0.247	0.012
-170.910	-85.878	-0.136	-0.042
-169.896	33.433	0.068	-0.058
-168.881	-80.075	-0.269	0.089
-167.866	-26.937	0.316	0.182
-166.852	-179.617	0.273	-0.006
-165.837	147.085	0.094	-0.125
-164.823	62.280	0.303	-0.299
-163.808	-96.087	-0.048	-0.013
-162.793	-124.997	0.288	-0.044
-161.779	746.411	0.097	-0.257
-160.764	-36.175	-0.106	-0.057
-159.750	800.000	0.106	0.380
-158.735	-116.001	-0.046	0.008
-157.720	278.230	0.066	-0.117
-156.706	-71.810	-0.175	-0.064
-155.691	-49.394	0.095	0.045
-154.677	-200.000	-0.012	0.131
-153.662	-158.489	-0.278	0.016
-152.647	-19.362	0.207	0.127
-151.633	674.273	0.046	-0.117
-150.618	-200.000	0.012	0.391
-149.604	133.577	-0.144	0.184
-148.589	-89.898	-0.162	0.047
-147.574	549.466	0.043	0.102
-146.560	152.155	0.093	0.125
-145.545	-119.943	-0.415	-0.070
-144.531	-20.385	0.143	0.087
-143.516	558.575	0.106	0.254
-142.502	-17.799	-0.322	0.200
-141.487	-200.000	-0.055	-0.244
-140.472	-74.019	-0.113	0.040
-139.458	-200.000	0.012	0.097
-138.443	-86.011	0.172	0.053
-137.429	-114.619	-0.137	0.026
-136.414	135.200	0.074	-0.096
-135.399	-46.965	0.082	-0.040
-134.385	376.572	0.037	-0.075
-133.370	-200.000	-0.021	0.186
-132.356	485.914	-0.174	0.391
-131.341	-134.347	0.045	-0.005
-130.326	-80.471	-0.179	0.059
-129.312	-4.727	-0.407	0.277
-128.297	6.215	0.239	0.175
-127.283	-107.388	-0.054	-0.012
-126.268	-87.994	0.318	0.094
-125.253	216.618	-0.258	-0.405
-124.239	81.804	0.072	-0.077
-123.224	340.546	0.069	-0.133
-122.210	-171.426	0.323	0.011
-121.195	-0.410	0.173	0.121
