DTS Sentinel unit serial number:	SN413079Multiplexer serial number:	ORYXHardware model number:	OX4-SRSoftware version number:	ORYX F/W v4.00 Oryx Data Collector v3.7.2.0data status	okinstallation	princeton_trtdifferential loss correction	single-endedforward channel	channel 1reverse channel	N/Adate	2019/09/11time	06:04:11forward acquisition time	60.00reverse acquisition time	0.00gamma	496.2192k internal	0.2331k external	0.2331temperature offset calibration	0.9924default loss term (dB/km)	0.3790temperature slope calibration	1.0000multiplexer offset coefficient	1.0000multiplexer slope coefficient	1.0000fibre end	0.00T internal ref (°C)	29.44T ext. ref 1 (°C)	-0.22T ext. ref 2 (°C)	23.69length (m)	temperature (°C)	Stokes	anti-Stokes-747.200	78.569	0.126	0.136
-746.185	-200.000	-0.014	-0.111
-745.171	487.417	-0.056	0.129
-744.156	86.710	-0.369	0.410
-743.142	-200.000	-0.026	-0.176
-742.127	16.107	0.130	0.103
-741.112	-100.216	0.195	0.049
-740.098	-200.000	0.065	0.387
-739.083	800.000	-0.079	-0.267
-738.069	140.146	0.125	-0.166
-737.054	800.000	0.169	0.500
-736.039	-71.140	-0.212	-0.080
-735.025	-143.328	-0.136	0.013
-734.010	141.570	-0.099	-0.132
-732.996	78.966	-0.308	-0.331
-731.981	-11.066	0.147	0.098
-730.966	-7.297	0.305	-0.208
-729.952	-200.000	-0.020	-0.121
-728.937	800.000	0.111	-0.471
-727.923	-200.000	0.014	-0.313
-726.908	800.000	0.020	0.062
-725.894	-73.947	0.350	0.128
-724.879	90.872	0.109	-0.123
-723.864	-116.429	0.119	0.022
-722.850	597.746	0.065	0.161
-721.835	-91.680	-0.408	-0.117
-720.821	107.730	-0.200	-0.239
-719.806	67.994	-0.119	-0.122
-718.791	239.073	-0.042	-0.070
-717.777	-54.541	-0.306	-0.139
-716.762	-200.000	0.050	-0.223
-715.748	-40.299	0.220	0.115
-714.733	-94.861	-0.400	-0.109
-713.718	800.000	-0.010	0.029
-712.704	142.720	-0.218	-0.291
-711.689	-2.103	-0.171	0.121
-710.675	-200.000	-0.020	0.101
-709.660	153.231	0.195	-0.268
-708.645	800.000	-0.072	-0.273
-707.631	-151.355	0.141	0.011
-706.616	-200.000	0.006	-0.176
-705.602	-104.336	-0.273	-0.064
-704.587	198.288	0.109	-0.168
-703.572	-113.870	0.260	0.051
-702.558	-62.520	-0.163	-0.068
-701.543	-200.000	0.016	0.282
-700.529	-66.102	-0.235	0.094
-699.514	110.853	-0.143	0.173
-698.499	-104.287	0.096	-0.022
-697.485	-200.000	0.014	0.296
-696.470	31.644	0.137	-0.119
-695.456	-200.000	-0.060	-0.270
-694.441	98.511	-0.116	0.134
-693.426	502.406	0.088	-0.204
-692.412	-109.037	-0.212	0.045
-691.397	198.154	0.157	0.240
-690.383	-91.256	0.164	-0.047
-689.368	-60.944	0.010	-0.004
-688.354	800.000	0.092	-0.313
-687.339	629.780	-0.030	0.075
-686.324	-15.136	0.151	-0.097
-685.310	-21.206	-0.259	0.159
-684.295	-200.000	0.173	-0.000
-683.281	531.420	0.096	0.227
-682.266	57.373	-0.100	0.098
-681.251	236.250	-0.142	0.236
-680.237	-31.762	0.352	-0.198
-679.222	327.604	-0.216	-0.416
-678.208	168.684	0.289	0.413
-677.193	-13.401	0.266	-0.173
-676.178	-103.723	-0.167	-0.039
-675.164	-60.516	-0.068	0.029
-674.149	-200.000	-0.006	-0.087
-673.135	-200.000	-0.052	-0.342
-672.120	38.318	0.137	-0.122
-671.105	142.392	0.124	-0.165
-670.091	-200.000	-0.013	-0.126
-669.076	53.899	0.075	-0.072
-668.062	-138.780	-0.399	0.044
-667.047	-200.000	0.193	0.000
-666.032	255.800	-0.113	-0.194
-665.018	555.409	-0.143	-0.345
-664.003	-94.042	-0.066	-0.018
-662.989	63.613	-0.207	-0.208
-661.974	-200.000	-0.019	-0.160
-660.959	-200.000	-0.045	0.233
-659.945	555.388	0.071	0.172
-658.930	-200.000	0.014	-0.196
-657.916	90.452	-0.148	-0.166
-656.901	-200.000	0.138	-0.000
-655.886	137.750	-0.112	-0.148
-654.872	-14.149	0.085	-0.055
-653.857	2.599	0.226	-0.164
-652.843	-57.345	-0.069	0.030
-651.828	-147.140	-0.257	0.022
-650.814	-102.245	0.139	-0.033
-649.799	-38.799	0.162	0.086
-648.784	-200.000	-0.063	0.377
-647.770	-39.720	0.144	-0.076
-646.755	-200.000	-0.023	-0.186
-645.741	-200.000	-0.012	0.455
-644.726	32.669	-0.178	-0.154
-643.711	8.252	-0.110	-0.083
-642.697	-62.370	-0.073	0.030
-641.682	589.815	0.106	0.261
-640.668	-71.938	0.269	0.100
-639.653	-133.502	0.054	0.007
-638.638	-38.032	-0.118	-0.063
-637.624	41.065	-0.105	0.095
-636.609	30.132	0.112	-0.095
-635.595	800.000	0.092	0.348
-634.580	-200.000	-0.002	0.076
-633.565	-22.591	0.198	0.120
-632.551	768.431	0.030	0.081
-631.536	-171.933	0.287	0.009
-630.522	-109.585	0.131	-0.028
-629.507	285.785	0.080	0.144
-628.492	800.000	0.053	-0.162
-627.478	-141.185	-0.193	0.020
-626.463	33.311	-0.255	-0.221
-625.449	97.041	-0.142	-0.163
-624.434	800.000	-0.012	-0.038
-623.419	17.947	0.243	-0.194
-622.405	-23.990	-0.151	0.090
-621.390	-170.103	-0.242	0.009
-620.376	120.312	0.117	0.146
-619.361	800.000	-0.091	-0.257
-618.346	-91.440	-0.093	-0.027
-617.332	-126.809	-0.215	-0.032
-616.317	138.145	-0.110	0.144
-615.303	-135.198	0.136	0.016
-614.288	-200.000	0.001	0.109
-613.273	-200.000	0.022	-0.129
-612.259	164.080	0.044	0.062
-611.244	-44.705	-0.229	-0.114
-610.230	-200.000	0.017	0.254
-609.215	-64.395	-0.243	-0.099
-608.201	61.604	-0.078	-0.078
-607.186	33.933	-0.034	0.030
-606.171	-38.958	-0.068	0.036
-605.157	10.997	0.265	0.203
-604.142	-27.299	-0.150	0.087
-603.128	-100.873	0.353	0.087
-602.113	-45.124	-0.282	-0.141
-601.098	-157.652	-0.040	0.002
-600.084	-200.000	0.038	-0.247
-599.069	-54.425	0.227	-0.103
-598.055	-200.000	0.027	-0.260
-597.040	800.000	-0.084	-0.316
-596.025	-200.000	-0.014	-0.598
-595.011	-200.000	-0.040	-0.313
-593.996	-184.632	0.138	0.002
-592.982	800.000	0.016	-0.064
-591.967	42.598	-0.174	-0.159
-590.952	-102.310	0.326	0.078
-589.938	237.398	0.059	-0.098
-588.923	48.796	0.161	-0.151
-587.909	566.298	0.058	0.140
-586.894	-158.007	-0.237	-0.014
-585.879	800.000	0.089	-0.255
-584.865	236.192	-0.061	-0.102
-583.850	-8.851	-0.402	-0.269
-582.836	-30.459	-0.109	0.062
-581.821	-200.000	0.022	-0.224
-580.806	476.850	-0.052	0.119
-579.792	-142.292	-0.261	0.026
-578.777	-50.647	-0.431	0.203
-577.763	-116.654	-0.125	-0.023
-576.748	-89.728	-0.074	0.022
-575.733	-200.000	0.031	-0.154
-574.719	-200.000	-0.002	-0.198
-573.704	98.039	-0.119	0.137
-572.690	-200.000	0.011	-0.239
-571.675	-97.266	-0.304	-0.079
-570.661	51.322	-0.173	-0.165
-569.646	-200.000	0.015	-0.095
-568.631	215.686	-0.128	0.203
-567.617	-200.000	-0.031	-0.172
-566.602	-159.033	-0.217	-0.012
-565.588	-110.268	0.187	-0.039
-564.573	15.559	0.189	0.148
-563.558	-200.000	-0.048	0.232
-562.544	-68.714	0.065	-0.025
-561.529	151.122	0.057	-0.077
-560.515	-172.438	-0.496	0.016
-559.500	47.669	0.239	-0.223
-558.485	11.955	0.197	0.151
-557.471	-59.835	-0.102	-0.044
-556.456	361.357	-0.004	-0.008
-555.442	-200.000	-0.038	0.211
-554.427	800.000	0.037	-0.155
-553.412	-35.504	0.191	-0.103
-552.398	129.117	-0.146	-0.186
-551.383	-200.000	-0.007	-0.275
-550.369	800.000	-0.045	0.165
-549.354	-77.029	-0.205	-0.071
-548.339	363.324	-0.111	-0.223
-547.325	-39.032	0.230	0.121
-546.310	-117.749	0.377	0.068
-545.296	800.000	-0.001	-0.002
-544.281	55.993	-0.103	-0.099
-543.266	-121.447	-0.088	-0.015
-542.252	61.502	0.166	-0.165
-541.237	800.000	0.036	0.138
-540.223	800.000	-0.058	0.252
-539.208	30.485	0.069	0.059
-538.193	-29.039	-0.363	-0.208
-537.179	-2.557	-0.168	0.118
-536.164	800.000	-0.089	-0.324
-535.150	15.241	0.074	0.058
-534.135	800.000	0.031	-0.132
-533.121	-138.491	0.292	-0.032
-532.106	800.000	0.034	-0.093
-531.091	312.197	-0.086	0.160
-530.077	-53.108	-0.114	-0.052
-529.062	-103.900	-0.153	0.036
-528.048	-82.827	0.124	0.040
-527.033	-53.949	0.263	-0.119
-526.018	-144.694	-0.341	-0.031
-525.004	86.745	-0.198	-0.218
-523.989	-116.634	0.370	-0.068
-522.975	27.851	0.156	0.131
-521.960	231.639	0.031	-0.050
-520.945	-133.137	0.214	-0.027
-519.931	-159.035	-0.313	0.018
-518.916	-75.163	-0.303	0.108
-517.902	-45.854	-0.255	-0.126
-516.887	69.848	-0.150	0.155
-515.872	-111.492	0.059	0.012
-514.858	800.000	0.061	-0.201
-513.843	27.889	0.049	-0.041
-512.829	-200.000	0.010	0.302
-511.814	-17.768	0.288	-0.180
-510.799	-144.227	0.094	-0.009
-509.785	310.034	-0.086	-0.161
-508.770	800.000	0.083	0.258
-507.756	-88.862	-0.054	-0.016
-506.741	-96.235	0.230	-0.061
-505.726	-92.056	0.051	-0.014
-504.712	800.000	-0.085	0.250
-503.697	-200.000	-0.041	0.221
-502.683	230.052	0.093	-0.151
-501.668	-85.863	0.254	0.079
-500.653	-146.675	-0.424	-0.037
-499.639	-200.000	0.034	-0.378
-498.624	800.000	-0.062	-0.263
-497.610	800.000	-0.038	-0.126
-496.595	-150.342	-0.379	-0.029
-495.581	-44.530	-0.073	-0.036
-494.566	-38.870	0.274	-0.144
-493.551	197.578	-0.099	0.150
-492.537	-102.691	-0.123	0.029
-491.522	-200.000	0.006	-0.122
-490.508	588.359	-0.073	-0.180
-489.493	800.000	-0.043	-0.168
-488.478	-42.723	0.076	0.039
-487.464	800.000	-0.150	-0.444
-486.449	800.000	-0.072	0.247
-485.435	602.674	-0.086	-0.212
-484.420	58.911	-0.051	-0.050
-483.405	-169.205	0.379	0.014
-482.391	-200.000	-0.043	0.241
-481.376	-64.865	-0.236	-0.095
-480.362	110.731	-0.137	-0.164
-479.347	42.191	-0.186	0.168
-478.332	-96.246	-0.219	-0.058
-477.318	-56.996	0.320	0.141
-476.303	-200.000	-0.026	0.150
-475.289	592.147	-0.080	0.197
-474.274	-115.036	0.315	0.060
-473.259	24.105	-0.181	0.149
-472.245	-163.566	-0.082	-0.004
-471.230	236.009	0.143	0.235
-470.216	-61.582	-0.196	0.082
-469.201	-173.542	-0.312	-0.009
-468.186	-200.000	-0.011	0.341
-467.172	-176.233	0.097	0.003
-466.157	327.712	-0.205	-0.391
-465.143	208.888	-0.223	0.348
-464.128	-98.667	0.319	0.081
-463.113	1.493	0.291	0.209
-462.099	69.814	-0.107	0.110
-461.084	-95.535	-0.102	-0.027
-460.070	-84.590	-0.173	0.054
-459.055	163.157	-0.178	-0.249
-458.040	493.089	0.055	0.125
-457.026	-28.644	-0.094	0.054
-456.011	800.000	-0.058	0.177
-454.997	46.329	-0.297	0.274
-453.982	-71.707	0.055	0.020
-452.968	800.000	-0.158	0.526
-451.953	-200.000	-0.028	0.387
-450.938	-35.796	-0.118	0.064
-449.924	-6.470	0.142	0.097
-448.909	42.904	-0.074	0.067
-447.895	-71.046	-0.183	0.068
-446.880	522.000	-0.059	0.137
-445.865	88.726	0.083	-0.091
-444.851	800.000	-0.059	0.246
-443.836	-36.771	0.259	0.138
-442.822	149.490	-0.164	0.221
-441.807	800.000	-0.010	0.041
-440.792	-94.349	0.108	0.029
-439.778	-65.355	0.041	-0.016
-438.763	800.000	-0.063	0.194
-437.749	-9.411	-0.249	-0.165
-436.734	-96.546	-0.178	-0.047
-435.719	-139.579	0.214	-0.023
-434.705	-55.456	-0.198	0.088
-433.690	123.817	-0.200	-0.249
-432.676	-200.000	0.058	-0.397
-431.661	-200.000	-0.038	-0.250
-430.646	-0.811	0.267	0.188
-429.632	-33.627	-0.107	0.058
-428.617	177.477	-0.114	-0.165
-427.603	358.406	-0.111	-0.220
-426.588	-200.000	-0.020	0.127
-425.573	-74.505	-0.388	0.139
-424.559	-66.936	0.151	0.059
-423.544	23.603	0.148	0.121
-422.530	-10.161	-0.225	0.148
-421.515	-200.000	-0.034	0.191
-420.500	-3.028	0.221	0.153
-419.486	-200.000	0.002	-0.289
-418.471	8.364	-0.147	-0.110
-417.457	-77.201	0.039	0.014
-416.442	-200.000	0.022	0.395
-415.428	-121.144	0.161	-0.027
-414.413	-118.544	-0.120	-0.021
-413.398	257.299	0.117	0.200
-412.384	-200.000	-0.001	-0.180
-411.369	-200.000	-0.015	0.317
-410.355	-129.425	-0.198	-0.027
-409.340	-36.575	-0.338	-0.180
-408.325	188.181	0.122	0.181
-407.311	-46.905	0.056	-0.027
-406.296	314.973	-0.095	0.177
-405.282	434.031	-0.051	-0.110
-404.267	-126.013	-0.307	-0.046
-403.252	-68.704	-0.111	0.043
-402.238	-159.847	-0.158	0.009
-401.223	532.282	-0.099	0.232
-400.209	-126.431	-0.154	-0.023
-399.194	-63.882	-0.100	-0.041
-398.179	-70.859	0.158	0.059
-397.165	-200.000	-0.010	0.054
-396.150	-152.332	0.224	-0.016
-395.136	-150.142	0.164	-0.013
-394.121	-200.000	0.041	-0.270
-393.106	-49.563	0.201	0.095
-392.092	208.829	-0.117	-0.182
-391.077	279.375	-0.135	-0.240
-390.063	-186.408	-0.147	0.002
-389.048	-35.047	0.217	-0.117
-388.033	30.432	0.123	0.104
-387.019	-110.765	-0.237	0.049
-386.004	-200.000	-0.014	0.113
-384.990	-50.161	-0.204	0.096
-383.975	167.995	0.373	-0.526
-382.960	-25.346	-0.214	-0.126
-381.946	-8.004	0.237	-0.158
-380.931	203.158	-0.184	0.282
-379.917	-74.296	-0.243	0.087
-378.902	-75.189	-0.103	-0.037
-377.888	-172.329	0.211	0.007
-376.873	35.511	0.122	-0.106
-375.858	455.260	-0.105	0.231
-374.844	-112.859	0.407	0.080
-373.829	-200.000	0.049	-0.324
-372.815	24.640	0.132	0.108
-371.800	-200.000	0.006	0.187
-370.785	144.886	-0.211	0.279
-369.771	-27.521	0.074	0.043
-368.756	-200.000	-0.018	-0.095
-367.742	-137.356	0.336	-0.038
-366.727	-86.437	-0.176	-0.054
-365.712	-186.857	0.063	-0.001
-364.698	-200.000	0.065	0.390
-363.683	-121.300	0.086	-0.014
-362.669	132.217	-0.096	-0.123
-361.654	-200.000	0.017	-0.336
-360.639	-200.000	0.066	-0.314
-359.625	-200.000	-0.029	-0.186
-358.610	93.731	-0.084	-0.095
-357.596	-200.000	0.014	0.172
-356.581	33.572	-0.138	-0.119
-355.566	28.291	0.146	0.123
-354.552	131.062	-0.059	-0.076
-353.537	800.000	0.029	0.117
-352.523	43.521	-0.212	0.192
-351.508	-93.473	0.117	-0.032
-350.493	547.495	-0.033	-0.079
-349.479	532.639	0.051	-0.120
-348.464	800.000	-0.023	-0.087
-347.450	423.456	-0.122	0.259
-346.435	-35.577	0.362	0.195
-345.420	162.424	0.076	0.105
-344.406	441.487	0.058	0.126
-343.391	119.218	0.077	-0.094
-342.377	142.772	-0.042	0.055
-341.362	98.469	0.171	0.195
-340.348	-93.866	0.322	0.088
-339.333	373.062	-0.088	0.177
-338.318	-147.650	0.153	0.013
-337.304	-30.555	-0.250	0.141
-336.289	56.739	-0.146	-0.140
-335.275	-46.825	0.147	-0.071
-334.260	-114.033	0.114	0.022
-333.245	266.001	-0.066	0.113
-332.231	-135.270	0.153	-0.018
-331.216	255.930	0.150	-0.255
-330.202	-65.277	0.114	-0.045
-329.187	6.574	-0.248	0.183
-328.172	15.983	0.010	-0.008
-327.158	-200.000	-0.037	0.218
-326.143	93.924	0.053	0.060
-325.129	293.572	-0.117	-0.211
-324.114	-146.072	0.253	0.022
-323.099	-200.000	0.003	0.026
-322.085	-94.601	0.463	0.125
-321.070	55.902	0.188	-0.181
-320.056	800.000	-0.094	0.279
-319.041	-37.342	0.280	0.148
-318.026	-15.380	-0.163	0.103
-317.012	-153.278	0.361	-0.025
-315.997	-200.000	-0.013	-0.084
-314.983	451.180	0.035	-0.076
-313.968	-200.000	-0.038	-0.296
-312.953	-140.628	-0.220	-0.023
-311.939	-35.149	0.240	-0.129
-310.924	-154.146	0.146	-0.010
-309.910	-87.627	0.153	0.046
-308.895	-94.088	0.306	-0.083
-307.880	-87.275	-0.415	-0.125
-306.866	-93.483	0.184	-0.050
-305.851	-16.560	0.141	-0.088
-304.837	59.492	0.117	0.114
-303.822	-77.141	-0.121	0.042
-302.807	85.232	-0.052	0.056
-301.793	-60.255	0.264	0.111
-300.778	-109.207	0.189	-0.040
-299.764	-153.991	-0.245	0.016
-298.749	-149.538	-0.081	-0.006
-297.735	193.691	-0.123	0.185
-296.720	79.205	0.068	-0.072
-295.705	800.000	-0.118	-0.404
-294.691	-14.935	-0.103	0.065
-293.676	-200.000	0.013	0.201
-292.662	-200.000	0.029	0.185
-291.647	-16.332	0.438	-0.275
-290.632	-81.288	-0.344	-0.112
-289.618	639.140	0.061	0.155
-288.603	510.464	0.089	-0.204
-287.589	-152.802	-0.364	0.026
-286.574	189.667	-0.146	-0.217
-285.559	-128.890	0.097	0.014
-284.545	401.921	0.085	-0.176
-283.530	-200.000	-0.027	-0.148
-282.516	24.160	0.274	-0.224
-281.501	373.645	-0.096	-0.193
-280.486	84.368	0.135	0.146
-279.472	-200.000	0.015	0.072
-278.457	-67.229	0.323	0.126
-277.443	-126.238	0.095	-0.014
-276.428	-159.570	-0.228	0.012
-275.413	78.914	0.144	0.153
-274.399	-130.464	0.239	-0.032
-273.384	-26.395	0.077	-0.044
-272.370	-182.170	0.193	0.004
-271.355	-176.652	0.340	-0.009
-270.340	44.048	-0.248	-0.224
-269.326	190.468	0.127	0.189
-268.311	661.475	-0.123	0.313
-267.297	127.258	-0.161	0.202
-266.282	316.414	0.119	0.222
-265.267	-200.000	0.032	0.180
-264.253	800.000	0.033	0.124
-263.238	38.876	0.237	-0.209
-262.224	140.350	0.033	0.043
-261.209	-191.256	0.161	0.002
-260.195	-87.986	0.134	-0.040
-259.180	28.073	-0.192	0.160
-258.165	36.107	0.191	-0.166
-257.151	-25.910	0.108	-0.063
-256.136	800.000	0.115	-0.401
-255.122	464.378	-0.082	-0.182
-254.107	42.458	-0.255	0.229
-253.092	-200.000	0.058	0.283
-252.078	464.766	-0.033	-0.073
-251.063	-200.000	-0.008	0.590
-250.049	-200.000	-0.011	0.221
-249.034	-200.000	0.039	0.299
-248.019	-200.000	-0.014	0.232
-247.005	-144.967	-0.153	0.014
-245.990	178.820	0.059	0.085
-244.976	1.536	0.227	-0.161
-243.961	800.000	0.076	0.305
-242.946	-200.000	0.007	0.229
-241.932	-97.963	0.178	0.045
-240.917	-97.454	0.197	-0.050
-239.903	-29.525	-0.411	-0.232
-238.888	-5.241	0.170	-0.115
-237.873	28.296	0.096	0.080
-236.859	3.793	-0.058	-0.042
-235.844	-129.643	0.196	0.027
-234.830	-200.000	-0.034	-0.407
-233.815	800.000	-0.048	-0.136
-232.800	147.003	-0.106	-0.141
-231.786	570.501	-0.049	-0.117
-230.771	-200.000	0.288	0.000
-229.757	260.228	-0.076	-0.130
-228.742	188.015	-0.056	-0.083
-227.727	-90.902	-0.157	-0.045
-226.713	530.238	-0.048	-0.111
-225.698	-165.071	0.390	0.017
-224.684	-74.476	-0.274	-0.098
-223.669	293.061	0.178	0.320
-222.655	-200.000	-0.018	-0.107
-221.640	-200.000	0.005	0.391
-220.625	-47.282	0.157	-0.075
-219.611	296.103	0.162	-0.292
-218.596	255.136	-0.119	0.201
-217.582	-54.964	-0.216	0.096
-216.567	-78.037	-0.237	0.081
-215.552	-71.369	-0.114	-0.042
-214.538	334.206	0.165	0.314
-213.523	-87.647	-0.220	0.066
-212.509	498.280	0.121	0.275
-211.494	399.540	0.066	0.136
-210.479	-146.409	-0.205	0.018
-209.465	-200.000	-0.082	-0.565
-208.450	419.320	-0.052	-0.109
-207.436	0.293	0.164	-0.115
-206.421	-30.944	0.277	0.154
-205.406	-128.616	-0.269	-0.038
-204.392	800.000	0.050	0.149
-203.377	44.292	0.179	0.162
-202.363	-10.722	-0.122	-0.079
-201.348	2.748	0.225	0.161
-200.333	-98.184	-0.115	0.029
-199.319	-200.000	-0.002	0.300
-198.304	800.000	0.048	-0.147
-197.290	-200.000	0.043	-0.366
-196.275	103.703	-0.158	0.183
-195.260	800.000	0.041	-0.173
-194.246	-137.390	0.266	0.030
-193.231	121.987	0.174	-0.214
-192.217	-200.000	-0.010	0.260
-191.202	0.631	-0.354	0.249
-190.187	-49.950	-0.099	-0.046
-189.173	591.792	0.110	0.267
-188.158	-100.369	0.185	0.045
-187.144	589.045	0.123	-0.300
-186.129	-15.602	0.231	-0.145
-185.114	-112.804	-0.097	0.019
-184.100	17.628	0.092	-0.072
-183.085	122.985	0.269	-0.331
-182.071	81.076	0.090	-0.095
-181.056	-200.000	-0.003	-0.068
-180.042	-200.000	0.003	0.124
-179.027	-83.892	-0.166	-0.052
-178.012	-16.365	0.109	-0.068
-176.998	477.499	0.078	-0.173
-175.983	-155.939	-0.183	0.011
-174.969	-0.569	0.164	0.114
-173.954	-149.512	0.350	0.027
-172.939	-129.603	0.062	-0.008
-171.925	187.158	-0.188	-0.276
-170.910	48.709	-0.289	0.267
-169.896	-148.958	0.266	0.021
-168.881	-93.965	-0.110	-0.030
-167.866	-200.000	-0.045	-0.484
-166.852	-57.214	0.420	0.182
-165.837	18.713	-0.345	0.272
-164.823	-85.927	-0.133	-0.041
-163.808	-8.954	0.282	-0.186
-162.793	-200.000	0.028	-0.215
-161.779	252.240	-0.222	-0.372
-160.764	171.380	0.114	0.161
-159.750	-44.908	-0.218	0.107
-158.735	-48.918	-0.391	-0.184
-157.720	-65.657	0.256	0.101
-156.706	-194.269	-0.333	-0.003
-155.691	-95.152	0.442	0.117
-154.677	118.912	-0.094	0.114
-153.662	83.346	0.117	-0.125
-152.647	-10.685	0.058	0.038
-151.633	-200.000	0.027	-0.184
-150.618	418.646	-0.048	-0.100
-149.604	-5.365	0.142	0.096
-148.589	540.369	0.073	0.171
-147.574	-200.000	0.031	0.190
-146.560	-200.000	-0.003	-0.016
-145.545	152.857	0.183	-0.246
-144.531	-200.000	0.040	0.237
-143.516	800.000	0.027	0.115
-142.502	-200.000	0.009	0.281
-141.487	-94.536	0.302	-0.081
-140.472	800.000	0.075	0.263
-139.458	-100.190	-0.167	0.041
-138.443	730.668	-0.064	-0.169
-137.429	800.000	-0.022	0.086
-136.414	-61.951	-0.149	0.061
-135.399	-200.000	0.025	0.275
-134.385	-53.571	-0.172	-0.077
-133.370	302.011	0.175	0.318
-132.356	31.664	-0.154	0.130
-131.341	-56.680	-0.106	-0.046
-130.326	-118.955	0.209	0.036
-129.312	-33.976	-0.327	-0.177
-128.297	270.747	0.056	-0.098
-127.283	-200.000	-0.016	-0.175
-126.268	-200.000	0.060	-0.268
-125.253	-200.000	-0.029	-0.264
-124.239	-61.751	-0.071	-0.029
-123.224	-200.000	-0.014	-0.269
-122.210	-200.000	0.022	-0.169
