DTS Sentinel unit serial number:	SN413079Multiplexer serial number:	ORYXHardware model number:	OX4-SRSoftware version number:	ORYX F/W v4.00 Oryx Data Collector v3.7.2.0data status	okinstallation	princeton_trtdifferential loss correction	single-endedforward channel	channel 1reverse channel	N/Adate	2019/09/15time	20:22:35forward acquisition time	60.00reverse acquisition time	0.00gamma	496.2192k internal	0.2321k external	0.2321temperature offset calibration	0.9962default loss term (dB/km)	0.3790temperature slope calibration	1.0000multiplexer offset coefficient	1.0000multiplexer slope coefficient	1.0000fibre end	0.00T internal ref (°C)	33.97T ext. ref 1 (°C)	7.74T ext. ref 2 (°C)	25.48length (m)	temperature (°C)	Stokes	anti-Stokes-747.200	-34.833	0.067	0.037
-746.185	-107.566	-0.202	-0.045
-745.171	766.882	0.036	-0.099
-744.156	208.588	-0.105	-0.167
-743.142	-200.000	-0.033	0.466
-742.127	-52.023	-0.259	-0.122
-741.112	-15.675	-0.185	-0.120
-740.098	46.078	-0.299	-0.280
-739.083	-76.565	-0.203	-0.072
-738.069	571.054	0.051	0.124
-737.054	346.872	0.086	0.170
-736.039	-83.296	0.088	0.029
-735.025	-63.788	0.104	-0.043
-734.010	-113.200	-0.093	0.019
-732.996	328.726	-0.197	0.382
-731.981	70.506	-0.152	0.159
-730.966	800.000	-0.027	-0.096
-729.952	-200.000	0.002	-0.281
-728.937	-200.000	-0.014	-0.228
-727.923	672.233	-0.127	-0.334
-726.908	40.038	0.055	0.050
-725.894	-12.561	-0.276	-0.182
-724.879	363.634	-0.106	-0.215
-723.864	-136.889	0.042	0.005
-722.850	224.412	-0.081	-0.132
-721.835	315.669	0.061	-0.116
-720.821	179.142	-0.358	-0.529
-719.806	800.000	0.031	0.088
-718.791	-50.487	-0.268	-0.128
-717.777	364.259	-0.050	-0.103
-716.762	154.490	-0.200	0.277
-715.748	-24.717	0.017	0.010
-714.733	277.095	0.044	-0.079
-713.718	-68.337	-0.157	0.062
-712.704	-92.310	-0.309	0.088
-711.689	323.341	0.061	0.117
-710.675	-200.000	0.008	-0.070
-709.660	-64.779	-0.054	0.022
-708.645	50.761	-0.265	-0.253
-707.631	162.698	-0.147	-0.208
-706.616	43.844	0.164	-0.151
-705.602	800.000	-0.033	-0.103
-704.587	-122.006	0.317	0.053
-703.572	47.752	-0.357	-0.336
-702.558	-156.289	0.234	-0.015
-701.543	-28.987	0.071	-0.041
-700.529	57.892	-0.058	-0.057
-699.514	18.204	0.070	0.056
-698.499	-16.310	0.194	0.124
-697.485	-14.877	-0.224	-0.145
-696.470	-200.000	-0.053	-0.297
-695.456	44.117	-0.163	0.151
-694.441	-5.439	-0.127	0.088
-693.426	70.449	-0.258	-0.269
-692.412	-200.000	0.005	0.113
-691.397	527.726	0.042	0.099
-690.383	98.742	0.271	0.315
-689.368	-7.744	-0.214	0.146
-688.354	124.746	-0.103	-0.131
-687.339	8.423	-0.068	-0.052
-686.324	-5.592	0.022	0.015
-685.310	433.966	-0.077	-0.168
-684.295	0.106	0.154	-0.111
-683.281	-61.650	0.191	-0.081
-682.266	-107.681	0.185	-0.041
-681.251	-162.562	0.147	-0.007
-680.237	-200.000	-0.009	0.272
-679.222	-200.000	-0.015	-0.216
-678.208	46.114	-0.178	0.166
-677.193	-29.739	0.235	-0.135
-676.178	-49.676	-0.120	-0.057
-675.164	-21.857	0.218	-0.133
-674.149	82.115	0.247	0.269
-673.135	-79.594	-0.159	-0.054
-672.120	-131.267	-0.095	-0.013
-671.105	416.763	-0.026	-0.056
-670.091	-47.054	-0.149	0.073
-669.076	-155.830	-0.191	0.012
-668.062	800.000	-0.089	0.309
-667.047	166.867	-0.223	0.318
-666.032	90.487	-0.113	-0.127
-665.018	29.823	-0.107	-0.092
-664.003	1.957	-0.165	-0.120
-662.989	-83.457	0.196	0.063
-661.974	-187.767	0.227	0.003
-660.959	-112.825	0.295	0.059
-659.945	28.188	-0.121	0.103
-658.930	-131.477	0.264	-0.035
-657.916	-101.547	-0.207	-0.051
-656.901	351.316	0.049	-0.098
-655.886	81.319	-0.245	-0.267
-654.872	800.000	-0.038	0.139
-653.857	97.017	-0.127	-0.146
-652.843	62.194	-0.198	-0.199
-651.828	275.583	-0.033	0.059
-650.814	-18.323	-0.418	0.263
-649.799	458.939	-0.084	-0.188
-648.784	-25.296	0.362	0.216
-647.770	-159.337	-0.526	-0.030
-646.755	-200.000	-0.017	0.229
-645.741	800.000	0.070	-0.265
-644.726	-110.619	0.019	-0.004
-643.711	-65.758	-0.148	-0.060
-642.697	-200.000	-0.082	-0.464
-641.682	303.628	-0.038	0.071
-640.668	800.000	0.040	0.148
-639.653	48.752	0.186	0.176
-638.638	76.317	0.228	0.243
-637.624	40.465	0.244	0.222
-636.609	-200.000	-0.008	-0.223
-635.595	-90.213	-0.164	0.048
-634.580	-90.215	0.057	0.017
-633.565	-114.501	-0.278	0.054
-632.551	-200.000	0.046	-0.382
-631.536	317.433	-0.101	0.193
-630.522	800.000	-0.097	-0.330
-629.507	63.689	0.218	-0.220
-628.492	800.000	-0.085	-0.337
-627.478	-79.362	0.096	-0.033
-626.463	113.919	0.138	-0.169
-625.449	-127.889	0.333	0.048
-624.434	-67.824	-0.066	0.026
-623.419	458.884	-0.058	-0.129
-622.405	-200.000	-0.027	-0.179
-621.390	-140.385	-0.181	-0.019
-620.376	-70.942	0.192	0.073
-619.361	36.942	0.059	-0.052
-618.346	-26.674	0.133	-0.078
-617.332	-200.000	0.025	0.233
-616.317	-200.000	-0.002	0.352
-615.303	-66.219	-0.144	0.058
-614.288	184.493	-0.089	-0.132
-613.273	102.671	0.113	-0.133
-612.259	119.393	-0.181	-0.225
-611.244	800.000	0.113	-0.456
-610.230	241.895	-0.113	0.190
-609.215	189.606	0.123	-0.185
-608.201	-80.834	-0.040	0.013
-607.186	-137.485	0.141	0.016
-606.171	-90.291	0.133	-0.039
-605.157	25.459	0.111	-0.093
-604.142	25.885	-0.056	-0.047
-603.128	126.674	-0.388	0.495
-602.113	45.490	0.039	-0.036
-601.098	378.618	0.122	0.250
-600.084	-103.401	0.197	0.047
-599.069	-169.745	-0.177	0.006
-598.055	236.728	0.120	0.200
-597.040	800.000	-0.009	-0.036
-596.025	-88.123	-0.097	0.029
-595.011	800.000	0.091	-0.335
-593.996	-178.712	0.099	-0.002
-592.982	-10.531	0.206	0.137
-591.967	38.295	0.048	-0.043
-590.952	69.643	0.219	0.227
-589.938	14.365	0.271	-0.212
-588.923	-148.237	0.319	0.026
-587.909	-200.000	-0.011	-0.282
-586.894	-28.032	0.215	-0.125
-585.879	-35.351	0.129	0.071
-584.865	-200.000	-0.018	0.134
-583.850	-48.433	-0.548	0.265
-582.836	-44.604	-0.155	-0.078
-581.821	14.119	-0.102	-0.080
-580.806	-54.059	0.079	-0.036
-579.792	-111.608	-0.264	0.054
-578.777	-47.211	0.215	-0.105
-577.763	200.769	-0.119	-0.184
-576.748	-99.060	-0.085	0.022
-575.733	222.395	0.131	0.212
-574.719	-138.474	-0.141	-0.016
-573.704	-200.000	-0.036	0.388
-572.690	-89.627	-0.049	-0.014
-571.675	171.102	-0.026	-0.037
-570.661	-200.000	0.040	0.308
-569.646	154.618	0.256	-0.352
-568.631	-33.669	0.255	0.141
-567.617	800.000	-0.101	-0.359
-566.602	58.860	0.017	-0.017
-565.588	-25.933	-0.086	-0.051
-564.573	115.387	0.023	-0.028
-563.558	-168.405	-0.253	0.010
-562.544	472.634	-0.118	0.266
-561.529	129.829	0.216	-0.278
-560.515	373.779	0.080	0.163
-559.500	800.000	-0.125	-0.358
-558.485	-140.306	-0.191	-0.020
-557.471	-47.331	0.062	-0.030
-556.456	29.897	-0.133	-0.114
-555.442	-157.162	0.082	0.005
-554.427	95.197	-0.089	0.102
-553.412	-92.959	0.093	0.026
-552.398	41.706	-0.156	-0.142
-551.383	-200.000	-0.010	-0.089
-550.369	-200.000	0.009	-0.092
-549.354	-73.214	-0.042	-0.015
-548.339	-200.000	-0.010	0.052
-547.325	72.697	-0.097	-0.101
-546.310	174.674	0.098	0.142
-545.296	606.745	-0.097	-0.242
-544.281	-24.363	0.159	-0.095
-543.266	561.093	-0.068	-0.165
-542.252	-180.870	0.067	0.001
-541.237	71.622	0.239	-0.249
-540.223	-200.000	0.027	0.297
-539.208	576.157	-0.146	-0.358
-538.193	-118.966	-0.142	0.025
-537.179	22.015	0.122	0.100
-536.164	272.361	-0.257	-0.454
-535.150	15.766	0.301	-0.238
-534.135	67.166	-0.102	-0.104
-533.121	-200.000	0.038	0.422
-532.106	-145.591	-0.312	-0.028
-531.091	298.302	0.127	-0.234
-530.077	-67.362	0.072	-0.028
-529.062	-200.000	0.012	-0.371
-528.048	-84.633	-0.233	-0.073
-527.033	288.109	0.115	0.209
-526.018	424.420	-0.135	0.291
-525.004	-140.902	0.069	0.007
-523.989	60.125	0.072	-0.071
-522.975	74.255	0.256	0.270
-521.960	-200.000	0.001	0.039
-520.945	-200.000	0.019	-0.236
-519.931	800.000	0.107	-0.355
-518.916	-37.506	-0.307	0.164
-517.902	230.090	-0.163	-0.267
-516.887	-112.807	0.430	0.085
-515.872	-200.000	-0.019	-0.221
-514.858	-200.000	-0.042	-0.197
-513.843	-101.616	-0.268	0.065
-512.829	-6.901	-0.182	0.124
-511.814	196.424	0.287	0.438
-510.799	-66.528	0.307	-0.122
-509.785	636.926	0.062	0.158
-508.770	199.450	-0.094	-0.144
-507.756	116.379	-0.225	-0.276
-506.741	-200.000	0.013	-0.216
-505.726	800.000	0.145	0.487
-504.712	101.530	0.214	0.250
-503.697	-9.884	-0.212	-0.141
-502.683	256.456	-0.054	-0.092
-501.668	146.518	0.109	0.147
-500.653	-50.224	-0.108	0.051
-499.639	-68.895	0.095	0.037
-498.624	-200.000	-0.034	0.202
-497.610	2.874	-0.242	-0.176
-496.595	-200.000	-0.013	-0.229
-495.581	-200.000	0.002	-0.310
-494.566	56.707	-0.102	-0.099
-493.551	-172.362	0.229	0.007
-492.537	257.447	0.164	0.283
-491.522	105.423	-0.084	-0.099
-490.508	185.452	-0.059	-0.087
-489.493	74.674	0.212	-0.223
-488.478	-169.941	0.252	0.009
-487.464	205.896	0.031	0.048
-486.449	-36.672	0.123	-0.066
-485.435	55.413	0.108	0.105
-484.420	66.342	-0.035	0.036
-483.405	61.282	-0.200	-0.199
-482.391	180.402	0.136	0.200
-481.376	219.767	-0.060	-0.095
-480.362	24.374	0.195	0.161
-479.347	85.879	-0.065	-0.072
-478.332	33.546	0.071	0.062
-477.318	7.658	0.260	0.195
-476.303	674.279	0.089	-0.231
-475.289	68.168	-0.256	0.263
-474.274	35.014	-0.082	-0.072
-473.259	168.499	0.186	0.265
-472.245	558.872	-0.148	0.358
-471.230	15.090	-0.062	0.049
-470.216	-116.656	0.175	-0.032
-469.201	-200.000	0.003	-0.186
-468.186	800.000	0.029	-0.114
-467.172	-86.472	0.201	-0.062
-466.157	-124.311	0.356	0.056
-465.143	800.000	0.065	-0.271
-464.128	-184.499	-0.158	-0.003
-463.113	166.612	0.097	-0.138
-462.099	187.843	-0.281	0.419
-461.084	-200.000	-0.016	0.131
-460.070	27.857	-0.206	0.173
-459.055	-200.000	0.004	0.342
-458.040	-62.006	0.086	-0.036
-457.026	211.253	0.130	-0.205
-456.011	73.727	0.085	-0.089
-454.997	6.179	0.130	0.096
-453.982	800.000	-0.087	-0.361
-452.968	260.824	0.104	0.180
-451.953	-65.349	-0.261	-0.105
-450.938	-0.846	0.063	0.044
-449.924	-25.309	-0.045	-0.026
-448.909	352.615	-0.149	0.296
-447.895	-35.205	-0.108	-0.059
-446.880	800.000	0.062	-0.181
-445.865	250.976	0.088	0.149
-444.851	800.000	-0.131	0.424
-443.836	-93.727	0.357	-0.098
-442.822	-79.480	-0.193	-0.065
-441.807	180.718	-0.243	-0.356
-440.792	-134.605	0.400	-0.049
-439.778	-122.918	-0.311	-0.050
-438.763	800.000	-0.058	-0.251
-437.749	226.468	-0.124	-0.200
-436.734	-99.733	-0.232	-0.058
-435.719	-9.821	-0.305	-0.203
-434.705	22.155	-0.028	-0.023
-433.690	278.483	-0.218	0.387
-432.676	428.365	0.056	-0.121
-431.661	-80.762	-0.302	0.100
-430.646	64.958	0.152	-0.154
-429.632	102.533	-0.063	0.073
-428.617	-200.000	-0.004	0.184
-427.603	59.287	-0.266	0.262
-426.588	-200.000	-0.111	0.587
-425.573	-198.941	0.416	-0.002
-424.559	12.631	-0.134	-0.104
-423.544	45.077	0.078	0.072
-422.530	49.111	-0.156	0.146
-421.515	-90.824	0.351	-0.101
-420.500	82.403	-0.230	0.249
-419.486	341.089	0.091	-0.178
-418.471	-48.754	-0.358	-0.171
-417.457	-141.517	-0.079	0.008
-416.442	-45.982	-0.143	0.071
-415.428	-52.347	-0.300	-0.139
-414.413	-35.545	-0.098	0.053
-413.398	-200.000	-0.023	-0.209
-412.384	800.000	0.069	-0.252
-411.369	-39.708	-0.258	0.135
-410.355	-200.000	0.007	-0.060
-409.340	-78.728	0.046	-0.016
-408.325	-200.000	-0.057	-0.321
-407.311	57.303	-0.130	0.127
-406.296	800.000	-0.035	-0.117
-405.282	-64.117	-0.161	-0.065
-404.267	-89.290	-0.284	-0.083
-403.252	110.310	0.117	-0.140
-402.238	313.749	0.071	0.134
-401.223	18.826	0.139	-0.111
-400.209	-60.661	0.377	0.159
-399.194	296.267	-0.255	0.467
-398.179	-145.963	0.185	-0.016
-397.165	-200.000	-0.027	-0.140
-396.150	-39.723	0.146	0.076
-395.136	-136.135	-0.262	-0.031
-394.121	-30.196	-0.059	0.033
-393.106	800.000	-0.031	0.117
-392.092	-43.333	-0.459	0.231
-391.077	800.000	0.068	0.263
-390.063	-39.161	0.174	0.091
-389.048	15.855	0.184	-0.144
-388.033	195.513	0.210	0.319
-387.019	234.064	-0.091	-0.149
-386.004	41.266	0.358	-0.323
-384.990	380.328	-0.044	0.091
-383.975	800.000	0.059	-0.165
-382.960	62.016	0.192	0.191
-381.946	33.468	0.125	-0.109
-380.931	-140.358	0.013	-0.001
-379.917	113.048	0.096	0.116
-378.902	-200.000	0.005	0.421
-377.888	560.968	0.094	-0.226
-376.873	-200.000	0.026	-0.128
-375.858	269.827	0.150	0.263
-374.844	26.796	-0.439	0.366
-373.829	1.921	-0.271	0.194
-372.815	232.610	-0.101	0.166
-371.800	-56.098	-0.128	0.057
-370.785	800.000	0.022	0.078
-369.771	33.396	-0.146	-0.126
-368.756	229.565	0.124	-0.202
-367.742	-134.978	0.129	0.015
-366.727	28.288	0.270	-0.227
-365.712	173.707	-0.067	-0.096
-364.698	-51.420	0.178	0.083
-363.683	-84.235	0.320	-0.101
-362.669	-80.964	-0.162	-0.053
-361.654	-42.377	-0.119	-0.060
-360.639	-198.037	0.334	-0.002
-359.625	-116.136	-0.467	0.086
-358.610	-200.000	-0.001	0.185
-357.596	-200.000	0.020	0.289
-356.581	-99.378	0.119	-0.030
-355.566	800.000	-0.033	0.119
-354.552	-146.603	-0.199	0.017
-353.537	-55.731	0.192	0.085
-352.523	-101.677	-0.403	-0.097
-351.508	72.990	-0.056	-0.058
-350.493	302.853	0.057	0.105
-349.479	27.085	0.374	-0.312
-348.464	-80.683	-0.143	0.047
-347.450	-93.548	-0.223	-0.061
-346.435	101.428	-0.123	0.143
-345.420	-170.263	0.302	0.011
-344.406	800.000	0.116	-0.337
-343.391	176.365	0.147	0.212
-342.377	-169.033	0.349	-0.013
-341.362	-46.528	-0.182	0.089
-340.348	800.000	-0.164	0.504
-339.333	-90.184	-0.007	-0.002
-338.318	74.515	0.071	-0.075
-337.304	-100.160	0.456	0.113
-336.289	-35.458	0.117	-0.063
-335.275	-200.000	0.043	0.237
-334.260	-200.000	0.028	-0.312
-333.245	-28.341	0.112	-0.065
-332.231	254.441	-0.092	0.157
-331.216	103.919	-0.123	0.143
-330.202	-3.663	0.124	-0.086
-329.187	192.686	-0.100	0.150
-328.172	-135.576	-0.143	0.017
-327.158	-200.000	0.012	-0.122
-326.143	-14.287	0.390	0.250
-325.129	-200.000	-0.021	-0.286
-324.114	-200.000	0.029	-0.167
-323.099	-117.454	0.275	0.049
-322.085	-200.000	-0.020	-0.515
-321.070	-200.000	-0.065	0.367
-320.056	-176.965	-0.239	-0.006
-319.041	-200.000	-0.015	-0.113
-318.026	-200.000	0.028	-0.261
-317.012	800.000	0.065	0.253
-315.997	-9.427	-0.305	0.203
-314.983	493.225	-0.092	0.211
-313.968	685.558	0.116	0.301
-312.953	106.661	-0.269	-0.317
-311.939	-65.033	-0.185	0.074
-310.924	800.000	-0.032	-0.124
-309.910	146.940	0.093	0.124
-308.895	60.322	-0.110	0.108
-307.880	800.000	-0.077	0.285
-306.866	-33.556	-0.341	-0.187
-305.851	-39.457	-0.338	-0.176
-304.837	-90.050	0.183	0.053
-303.822	-143.882	-0.176	0.016
-302.807	60.380	-0.176	-0.173
-301.793	-150.668	-0.271	-0.021
-300.778	362.884	-0.033	0.066
-299.764	-64.721	-0.469	-0.189
-298.749	-35.710	-0.046	-0.025
-297.735	676.177	0.036	-0.092
-296.720	56.107	0.193	-0.186
-295.705	75.688	-0.132	0.139
-294.691	197.182	-0.081	0.122
-293.676	97.033	0.282	0.321
-292.662	-200.000	-0.019	0.100
-291.647	-191.298	0.450	0.005
-290.632	-200.000	0.000	0.092
-289.618	800.000	-0.062	-0.238
-288.603	257.131	-0.048	-0.083
-287.589	41.990	-0.116	-0.105
-286.574	-125.330	0.166	0.025
-285.559	115.284	-0.258	0.313
-284.545	-132.465	-0.137	0.018
-283.530	-200.000	0.097	0.476
-282.516	-173.391	0.177	-0.005
-281.501	44.991	-0.147	0.135
-280.486	-27.341	-0.315	-0.182
-279.472	-200.000	0.010	-0.525
-278.457	-36.449	-0.226	0.121
-277.443	800.000	0.093	0.321
-276.428	-200.000	0.012	0.189
-275.413	300.205	-0.111	0.203
-274.399	-200.000	0.001	0.208
-273.384	242.909	-0.071	-0.118
-272.370	-182.896	0.182	-0.003
-271.355	118.524	-0.081	-0.099
-270.340	140.432	0.450	-0.589
-269.326	-8.170	0.218	0.145
-268.311	29.209	0.233	-0.196
-267.297	-115.228	0.077	-0.014
-266.282	47.367	0.158	-0.146
-265.267	38.226	-0.104	0.092
-264.253	-112.298	-0.233	0.046
-263.238	800.000	-0.044	0.176
-262.224	-4.262	-0.146	0.100
-261.209	165.885	0.132	0.185
-260.195	15.904	-0.336	0.262
-259.180	800.000	0.084	0.283
-258.165	-200.000	-0.006	-0.090
-257.151	-14.041	0.309	-0.198
-256.136	-67.830	0.160	-0.062
-255.122	-184.167	0.178	0.003
-254.107	57.233	0.121	-0.117
-253.092	-79.786	-0.114	-0.038
-252.078	-78.069	-0.220	-0.075
-251.063	108.857	0.135	-0.160
-250.049	-78.476	0.226	0.077
-249.034	30.169	-0.398	0.337
-248.019	-113.720	-0.087	-0.017
-247.005	-69.525	-0.150	0.057
-245.990	-13.316	-0.097	-0.063
-244.976	-65.317	0.273	-0.109
-243.961	-85.984	0.425	-0.130
-242.946	662.344	0.067	0.171
-241.932	8.854	-0.246	0.184
-240.917	158.136	0.044	0.061
-239.903	-43.317	0.194	-0.097
-238.888	-46.104	-0.009	0.004
-237.873	-51.924	0.038	0.017
-236.859	716.302	-0.038	0.100
-235.844	24.972	0.198	0.163
-234.830	496.652	-0.164	0.373
-233.815	-200.000	-0.035	0.297
-232.800	-4.933	0.177	0.121
-231.786	667.657	-0.068	-0.174
-230.771	-64.279	-0.111	0.045
-229.757	-17.681	-0.176	-0.110
-228.742	345.590	0.067	-0.130
-227.727	-8.097	-0.306	-0.204
-226.713	-44.856	0.043	-0.021
-225.698	-113.013	0.205	-0.040
-224.684	-42.121	0.195	0.099
-223.669	-120.598	0.186	-0.031
-222.655	24.173	0.186	0.152
-221.640	-161.352	0.275	-0.014
-220.625	96.656	0.196	0.222
-219.611	-200.000	-0.014	0.177
-218.596	-200.000	-0.001	0.100
-217.582	121.789	-0.105	0.130
-216.567	-200.000	0.008	0.244
-215.552	-134.457	0.125	0.015
-214.538	63.995	-0.154	-0.153
-213.523	35.816	-0.284	0.247
-212.509	-16.966	0.167	0.105
-211.494	-5.520	0.174	0.118
-210.479	-10.950	0.161	-0.105
-209.465	-200.000	0.029	0.165
-208.450	-139.979	-0.211	0.022
-207.436	-93.957	-0.182	-0.049
-206.421	273.679	0.037	-0.064
-205.406	-200.000	-0.021	0.217
-204.392	-200.000	-0.007	-0.169
-203.377	-200.000	0.090	-0.562
-202.363	-73.287	-0.046	-0.017
-201.348	-200.000	0.073	-0.419
-200.333	800.000	0.113	-0.403
-199.319	-157.665	-0.322	-0.019
-198.304	187.799	0.154	-0.227
-197.290	-96.226	0.255	-0.067
-196.275	800.000	0.071	-0.195
-195.260	-152.841	0.250	0.018
-194.246	694.258	0.046	0.119
-193.231	238.539	0.207	-0.341
-192.217	-200.000	0.030	-0.273
-191.202	-48.172	0.244	0.117
-190.187	-171.740	0.111	-0.004
-189.173	245.064	-0.149	-0.248
-188.158	218.935	0.091	0.144
-187.144	-200.000	0.050	-0.313
-186.129	87.518	-0.114	0.125
-185.114	-126.149	-0.199	-0.030
-184.100	11.258	-0.170	-0.129
-183.085	-121.217	-0.200	-0.033
-182.071	450.311	-0.066	-0.144
-181.056	-2.003	-0.051	0.036
-180.042	-94.798	-0.303	0.081
-179.027	-43.897	0.299	-0.149
-178.012	266.008	-0.168	0.290
-176.998	411.037	0.044	-0.093
-175.983	96.864	-0.151	-0.171
-174.969	39.744	0.072	0.064
-173.954	52.373	0.103	0.097
-172.939	729.992	-0.084	0.221
-171.925	-200.000	-0.018	0.328
-170.910	-6.509	-0.124	-0.084
-169.896	-123.710	0.106	-0.017
-168.881	-200.000	0.004	-0.185
-167.866	-158.781	0.221	-0.013
-166.852	60.343	-0.200	-0.196
-165.837	92.019	0.047	0.052
-164.823	800.000	-0.097	0.378
-163.808	0.244	-0.178	0.125
-162.793	800.000	0.035	-0.098
-161.779	10.379	-0.217	-0.163
-160.764	-92.053	0.096	0.027
-159.750	-11.682	0.074	-0.048
-158.735	-123.783	-0.228	-0.036
-157.720	-200.000	-0.013	-0.092
-156.706	-200.000	-0.023	0.134
-155.691	-72.232	0.312	-0.114
-154.677	78.919	-0.109	-0.116
-153.662	52.229	-0.044	0.041
-152.647	29.452	-0.206	0.173
-151.633	-200.000	-0.038	0.382
-150.618	390.531	-0.084	-0.171
-149.604	157.603	0.119	0.162
-148.589	-20.959	-0.160	-0.097
-147.574	-200.000	0.003	-0.193
-146.560	-162.180	0.126	-0.006
-145.545	42.698	0.230	0.207
-144.531	94.837	-0.162	-0.182
-143.516	54.306	0.154	0.147
-142.502	27.409	0.142	0.118
-141.487	78.731	-0.166	-0.175
-140.472	800.000	0.030	-0.127
-139.458	654.464	-0.054	0.137
-138.443	-200.000	-0.049	0.218
-137.429	-85.601	-0.147	0.045
-136.414	-81.632	0.225	-0.073
-135.399	800.000	0.081	0.248
-134.385	170.930	-0.263	0.372
-133.370	53.747	0.180	0.171
-132.356	-129.180	-0.186	-0.026
-131.341	-43.091	0.119	0.059
-130.326	622.003	-0.100	0.248
-129.312	50.500	-0.145	0.135
-128.297	-62.318	0.256	-0.105
-127.283	-32.907	0.262	-0.144
-126.268	45.899	0.060	0.055
-125.253	140.716	0.115	-0.150
-124.239	403.190	0.119	0.247
-123.224	56.361	-0.031	-0.030
-122.210	40.005	0.227	0.201
-121.195	-200.000	-0.001	0.113
-120.180	-200.000	0.008	0.138
