DTS Sentinel unit serial number:	SN413079Multiplexer serial number:	ORYXHardware model number:	OX4-SRSoftware version number:	ORYX F/W v4.00 Oryx Data Collector v3.7.2.0data status	okinstallation	princeton_trtdifferential loss correction	single-endedforward channel	channel 1reverse channel	N/Adate	2019/09/14time	03:30:35forward acquisition time	60.00reverse acquisition time	0.00gamma	496.2192k internal	0.2335k external	0.2335temperature offset calibration	1.0079default loss term (dB/km)	0.3790temperature slope calibration	1.0000multiplexer offset coefficient	1.0000multiplexer slope coefficient	1.0000fibre end	0.00T internal ref (°C)	26.62T ext. ref 1 (°C)	3.28T ext. ref 2 (°C)	21.57length (m)	temperature (°C)	Stokes	anti-Stokes-747.200	1.095	0.079	0.057
-746.185	-113.049	0.289	0.057
-745.171	-200.000	0.012	-0.074
-744.156	182.101	0.193	0.285
-743.142	718.080	-0.071	-0.190
-742.127	-7.570	0.172	-0.117
-741.112	109.111	-0.068	-0.081
-740.098	-141.740	-0.331	-0.033
-739.083	800.000	0.041	-0.178
-738.069	-200.000	-0.028	0.131
-737.054	328.324	-0.137	-0.265
-736.039	66.727	-0.166	-0.170
-735.025	45.176	0.327	0.303
-734.010	-144.105	-0.139	-0.013
-732.996	10.849	-0.351	-0.269
-731.981	-93.854	-0.502	0.139
-730.966	251.585	-0.162	-0.276
-729.952	288.431	-0.158	-0.287
-728.937	9.833	0.297	0.226
-727.923	791.086	-0.105	-0.289
-726.908	767.161	-0.068	-0.185
-725.894	-63.039	-0.071	0.029
-724.879	-35.913	-0.130	-0.070
-723.864	800.000	-0.021	-0.067
-722.850	-7.498	0.106	0.072
-721.835	-122.186	0.332	0.054
-720.821	-119.907	0.298	-0.051
-719.806	507.651	-0.046	-0.108
-718.791	-28.233	-0.166	0.096
-717.777	-200.000	-0.003	-0.048
-716.762	-61.859	-0.162	-0.068
-715.748	433.089	0.133	-0.290
-714.733	800.000	0.072	0.290
-713.718	-20.409	0.138	0.085
-712.704	-198.325	-0.135	-0.001
-711.689	-200.000	-0.144	0.001
-710.675	41.434	0.068	-0.062
-709.660	-25.734	-0.175	0.103
-708.645	119.603	0.152	-0.188
-707.631	-29.794	-0.131	-0.075
-706.616	-129.090	-0.397	0.056
-705.602	380.368	0.024	-0.049
-704.587	395.962	-0.082	-0.172
-703.572	800.000	-0.094	0.352
-702.558	44.274	-0.164	-0.151
-701.543	-116.033	0.113	-0.021
-700.529	13.223	0.102	-0.079
-699.514	-200.000	0.011	-0.218
-698.499	-126.096	-0.402	-0.060
-697.485	106.114	0.208	0.247
-696.470	-53.618	0.258	0.118
-695.456	5.531	-0.231	-0.171
-694.441	-26.564	-0.119	0.070
-693.426	139.056	-0.156	-0.206
-692.412	245.053	-0.196	-0.331
-691.397	-100.496	0.159	-0.039
-690.383	-200.000	0.002	-0.134
-689.368	-28.670	0.119	-0.069
-688.354	8.804	-0.067	0.051
-687.339	114.342	0.128	0.156
-686.324	313.523	0.016	0.031
-685.310	800.000	0.093	0.322
-684.295	-141.326	-0.166	0.017
-683.281	613.746	0.070	0.176
-682.266	-200.000	0.041	0.287
-681.251	24.680	-0.212	-0.176
-680.237	-200.000	-0.012	-0.342
-679.222	-88.844	-0.203	-0.060
-678.208	-69.453	-0.311	0.119
-677.193	-0.619	0.185	0.132
-676.178	-200.000	-0.016	-0.269
-675.164	-200.000	-0.098	-0.440
-674.149	-200.000	-0.026	-0.298
-673.135	-200.000	0.005	0.110
-672.120	-75.816	0.088	0.031
-671.105	-67.097	0.121	-0.048
-670.091	-27.700	-0.138	-0.080
-669.076	-200.000	-0.003	0.218
-668.062	-200.000	0.003	-0.289
-667.047	-200.000	0.013	0.182
-666.032	176.176	0.162	-0.236
-665.018	-196.494	0.219	0.001
-664.003	6.826	-0.107	-0.080
-662.989	-178.259	-0.120	-0.003
-661.974	-44.763	0.217	-0.109
-660.959	-15.505	-0.230	-0.147
-659.945	-22.833	-0.254	-0.153
-658.930	56.917	-0.161	0.157
-657.916	-127.508	-0.059	0.009
-656.901	-129.671	0.326	0.045
-655.886	790.785	-0.064	-0.175
-654.872	26.217	-0.223	0.187
-653.857	220.402	-0.184	0.295
-652.843	-167.015	-0.225	-0.009
-651.828	-104.420	0.264	-0.061
-650.814	531.961	-0.046	-0.109
-649.799	-147.021	-0.084	0.007
-648.784	163.248	0.150	0.211
-647.770	545.445	-0.122	0.291
-646.755	800.000	-0.028	0.077
-645.741	-0.915	-0.189	0.134
-644.726	-110.287	-0.159	0.033
-643.711	41.262	-0.219	-0.199
-642.697	-100.109	0.062	-0.015
-641.682	-34.895	-0.135	-0.074
-640.668	-3.345	-0.235	-0.164
-639.653	-52.330	0.237	0.110
-638.638	800.000	-0.038	0.124
-637.624	500.182	0.160	0.369
-636.609	84.558	-0.240	0.263
-635.595	-165.320	0.070	0.003
-634.580	154.118	-0.151	0.207
-633.565	-11.197	0.178	-0.117
-632.551	-10.269	-0.213	-0.141
-631.536	-40.864	0.342	0.177
-630.522	-102.809	-0.286	0.068
-629.507	245.662	0.028	0.046
-628.492	-200.000	-0.021	0.202
-627.478	133.209	-0.166	-0.214
-626.463	-106.703	0.093	-0.021
-625.449	24.731	-0.191	0.158
-624.434	-200.000	-0.012	-0.149
-623.419	-25.344	0.187	-0.110
-622.405	-34.231	0.130	-0.071
-621.390	-76.660	-0.226	-0.079
-620.376	172.200	-0.204	-0.293
-619.361	168.561	0.188	0.268
-618.346	76.497	-0.260	0.276
-617.332	-200.000	0.021	-0.210
-616.317	-11.255	0.120	-0.079
-615.303	522.559	-0.110	-0.258
-614.288	87.703	-0.060	-0.067
-613.273	-43.483	0.012	0.006
-612.259	-80.523	-0.128	0.043
-611.244	-200.000	0.009	-0.073
-610.230	800.000	0.110	0.384
-609.215	-34.849	0.142	0.078
-608.201	127.524	-0.124	0.157
-607.186	-39.854	0.230	0.120
-606.171	-200.000	0.018	0.087
-605.157	4.912	-0.061	0.045
-604.142	800.000	-0.049	-0.189
-603.128	-101.963	-0.266	0.064
-602.113	-131.240	-0.274	-0.036
-601.098	247.022	0.102	-0.172
-600.084	519.430	-0.094	-0.220
-599.069	-143.507	-0.171	0.016
-598.055	-92.239	0.117	0.033
-597.040	-41.867	-0.094	-0.048
-596.025	-106.354	-0.255	-0.057
-595.011	-200.000	-0.091	-0.420
-593.996	-40.492	0.187	-0.097
-592.982	-200.000	-0.049	0.405
-591.967	280.799	0.071	-0.128
-590.952	-145.747	0.090	0.008
-589.938	-25.088	0.351	0.208
-588.923	800.000	-0.034	0.139
-587.909	-200.000	0.020	-0.130
-586.894	155.553	-0.067	0.092
-585.879	800.000	-0.111	0.352
-584.865	52.997	-0.096	-0.092
-583.850	466.500	-0.019	0.043
-582.836	4.115	-0.096	-0.070
-581.821	-66.126	0.116	0.046
-580.806	28.257	0.197	0.166
-579.792	99.270	0.212	0.245
-578.777	-78.476	0.117	-0.040
-577.763	-186.012	0.161	0.002
-576.748	77.997	-0.149	0.159
-575.733	-171.680	-0.352	-0.012
-574.719	-88.676	0.270	0.080
-573.704	-129.600	0.337	-0.046
-572.690	10.644	-0.189	-0.144
-571.675	155.768	-0.173	-0.238
-570.661	-200.000	-0.006	-0.249
-569.646	297.299	-0.154	-0.281
-568.631	-90.469	-0.329	-0.095
-567.617	-200.000	0.021	0.257
-566.602	-99.963	0.291	-0.072
-565.588	78.997	0.038	-0.041
-564.573	662.982	-0.060	0.154
-563.558	-7.822	-0.233	-0.157
-562.544	-200.000	0.055	-0.471
-561.529	-200.000	0.049	0.222
-560.515	-111.590	0.092	0.019
-559.500	-107.473	-0.230	0.050
-558.485	-54.328	-0.036	-0.016
-557.471	142.286	-0.106	0.140
-556.456	-52.128	0.475	0.220
-555.442	-200.000	0.024	-0.137
-554.427	235.335	0.180	0.296
-553.412	-37.907	-0.058	0.031
-552.398	-200.000	0.000	0.081
-551.383	-115.976	-0.253	-0.047
-550.369	-125.233	0.277	0.042
-549.354	-147.192	-0.145	0.012
-548.339	588.365	0.042	-0.103
-547.325	3.527	0.031	-0.022
-546.310	66.547	0.055	0.056
-545.296	-200.000	-0.022	0.113
-544.281	-66.036	-0.370	-0.147
-543.266	323.609	0.101	0.191
-542.252	-66.856	0.296	0.117
-541.237	-56.735	0.134	-0.059
-540.223	148.376	0.050	0.067
-539.208	-40.552	0.249	0.129
-538.193	15.447	-0.149	-0.116
-537.179	37.070	0.022	-0.019
-536.164	-93.241	-0.472	-0.131
-535.150	-200.000	-0.030	0.283
-534.135	119.611	-0.168	-0.207
-533.121	-200.000	-0.006	0.121
-532.106	800.000	0.055	0.232
-531.091	-12.804	-0.165	-0.107
-530.077	-17.383	-0.446	0.280
-529.062	12.441	0.175	0.134
-528.048	120.785	0.111	-0.138
-527.033	-140.173	-0.348	0.036
-526.018	97.789	-0.194	0.222
-525.004	-69.824	-0.310	0.118
-523.989	800.000	0.027	0.093
-522.975	426.009	-0.045	0.096
-521.960	47.847	-0.132	0.123
-520.945	-166.880	-0.152	-0.006
-519.931	477.690	0.077	-0.174
-518.916	510.484	0.109	-0.253
-517.902	-35.993	-0.204	-0.110
-516.887	26.573	-0.246	0.205
-515.872	-200.000	0.037	-0.231
-514.858	-73.790	0.584	0.212
-513.843	225.458	-0.150	0.243
-512.829	-200.000	-0.012	-0.168
-511.814	-200.000	0.009	-0.124
-510.799	-200.000	0.017	-0.200
-509.785	-200.000	0.055	-0.253
-508.770	693.560	-0.063	0.164
-507.756	31.785	0.121	0.104
-506.741	132.418	0.119	0.153
-505.726	-69.934	0.016	-0.006
-504.712	-119.780	0.150	0.026
-503.697	279.711	0.149	0.265
-502.683	-34.682	-0.336	0.183
-501.668	-122.367	-0.223	-0.036
-500.653	187.708	0.144	0.213
-499.639	66.641	0.203	-0.206
-498.624	181.940	-0.146	-0.214
-497.610	367.341	-0.080	-0.161
-496.595	85.931	-0.082	-0.090
-495.581	-93.912	-0.364	-0.100
-494.566	800.000	0.057	0.201
-493.551	-35.774	0.351	-0.189
-492.537	-103.443	-0.219	-0.051
-491.522	-19.410	0.083	0.051
-490.508	-200.000	0.025	-0.180
-489.493	-200.000	0.006	0.107
-488.478	-78.048	-0.256	0.088
-487.464	60.069	-0.130	-0.128
-486.449	800.000	0.058	-0.180
-485.435	-128.967	0.110	0.015
-484.420	175.549	0.077	0.111
-483.405	-132.421	0.106	0.014
-482.391	62.991	-0.216	0.215
-481.376	800.000	-0.051	0.153
-480.362	-200.000	0.000	-0.004
-479.347	62.889	-0.146	-0.145
-478.332	-18.397	0.142	-0.088
-477.318	-107.561	-0.022	-0.005
-476.303	144.518	0.153	0.203
-475.289	800.000	0.075	-0.309
-474.274	800.000	0.114	-0.389
-473.259	39.489	-0.380	-0.338
-472.245	405.887	-0.105	-0.221
-471.230	408.906	0.122	0.257
-470.216	-161.720	0.155	0.008
-469.201	800.000	-0.086	-0.259
-468.186	11.832	0.103	-0.078
-467.172	-49.921	0.089	-0.042
-466.157	-158.044	0.386	-0.023
-465.143	642.321	-0.087	0.219
-464.128	-98.960	-0.249	0.063
-463.113	402.307	-0.163	-0.340
-462.099	-93.766	-0.241	0.066
-461.084	-200.000	-0.091	0.487
-460.070	-102.200	0.204	-0.049
-459.055	800.000	-0.091	-0.276
-458.040	800.000	0.026	0.104
-457.026	-200.000	0.015	0.339
-456.011	178.385	-0.131	-0.190
-454.997	317.928	0.102	0.192
-453.982	-200.000	0.000	0.179
-452.968	-57.570	0.075	-0.033
-451.953	78.719	-0.233	-0.247
-450.938	800.000	0.078	0.280
-449.924	378.159	-0.133	0.271
-448.909	-200.000	0.018	-0.093
-447.895	800.000	0.048	0.202
-446.880	-200.000	0.028	-0.268
-445.865	458.199	0.038	0.084
-444.851	-200.000	-0.060	-0.362
-443.836	-195.311	0.300	0.002
-442.822	37.360	0.248	0.219
-441.807	105.985	0.080	-0.094
-440.792	0.304	-0.193	-0.137
-439.778	800.000	0.060	-0.185
-438.763	-97.619	-0.418	0.108
-437.749	255.140	-0.067	0.114
-436.734	-200.000	-0.049	0.323
-435.719	-74.695	0.166	0.059
-434.705	-47.053	-0.165	0.080
-433.690	800.000	-0.121	-0.348
-432.676	23.386	-0.256	0.209
-431.661	-96.713	-0.242	-0.063
-430.646	-126.921	-0.265	0.039
-429.632	-179.630	-0.206	0.004
-428.617	800.000	0.004	-0.017
-427.603	-82.125	-0.177	0.057
-426.588	800.000	-0.109	-0.306
-425.573	288.682	-0.045	-0.080
-424.559	-200.000	0.046	0.324
-423.544	-200.000	-0.007	-0.127
-422.530	105.358	-0.074	0.087
-421.515	-149.704	0.057	-0.004
-420.500	157.497	-0.035	-0.048
-419.486	341.957	0.091	-0.176
-418.471	744.329	0.106	-0.283
-417.457	29.061	-0.118	0.100
-416.442	530.835	-0.076	0.177
-415.428	338.941	-0.139	0.269
-414.413	311.624	0.156	0.291
-413.398	-200.000	0.060	-0.331
-412.384	800.000	-0.149	0.420
-411.369	71.879	0.084	0.086
-410.355	-104.388	-0.059	0.013
-409.340	12.598	0.228	-0.174
-408.325	-200.000	-0.045	-0.302
-407.311	63.292	-0.159	0.158
-406.296	-68.430	-0.037	0.014
-405.282	410.507	-0.046	-0.098
-404.267	-121.341	0.238	0.039
-403.252	-85.954	0.092	0.028
-402.238	-5.289	-0.213	-0.145
-401.223	-54.125	-0.273	0.123
-400.209	800.000	0.096	-0.293
-399.194	-5.946	0.132	-0.090
-398.179	43.299	0.089	0.081
-397.165	-86.348	0.245	0.075
-396.150	800.000	0.049	-0.192
-395.136	-35.966	0.123	-0.066
-394.121	-181.108	-0.246	0.005
-393.106	-200.000	-0.038	-0.419
-392.092	125.852	0.137	-0.172
-391.077	800.000	0.109	-0.364
-390.063	1.042	0.541	0.384
-389.048	383.818	0.158	0.323
-388.033	75.932	0.023	-0.025
-387.019	-85.672	-0.067	0.020
-386.004	30.334	0.198	0.167
-384.990	151.871	-0.054	-0.073
-383.975	-137.484	-0.121	-0.014
-382.960	-38.217	-0.081	0.043
-381.946	800.000	-0.021	-0.081
-380.931	28.323	0.284	0.238
-379.917	-74.151	-0.065	0.023
-378.902	-169.033	0.374	-0.014
-377.888	-88.996	-0.107	0.031
-376.873	-200.000	-0.010	-0.303
-375.858	315.658	-0.033	-0.061
-374.844	-28.239	0.127	-0.073
-373.829	-178.178	-0.110	-0.003
-372.815	-135.364	0.219	0.026
-371.800	-200.000	-0.039	0.360
-370.785	-8.368	0.166	0.110
-369.771	-69.707	0.294	-0.111
-368.756	-200.000	-0.017	0.124
-367.742	-200.000	-0.039	0.298
-366.727	364.413	-0.124	-0.247
-365.712	157.797	-0.337	-0.462
-364.698	-6.323	-0.269	-0.182
-363.683	-113.549	0.093	0.018
-362.669	-200.000	0.045	0.298
-361.654	-31.815	-0.084	-0.047
-360.639	-94.328	-0.112	-0.030
-359.625	5.006	0.151	0.110
-358.610	-11.619	0.461	-0.300
-357.596	-200.000	-0.048	0.264
-356.581	-151.803	-0.190	0.014
-355.566	-17.357	0.352	0.219
-354.552	800.000	-0.075	0.266
-353.537	542.029	0.036	0.084
-352.523	-132.282	0.191	-0.024
-351.508	39.827	-0.120	0.106
-350.493	800.000	0.138	-0.435
-349.479	-174.189	-0.151	-0.004
-348.464	-200.000	0.008	-0.103
-347.450	-200.000	0.015	0.234
-346.435	92.629	0.144	0.161
-345.420	27.604	0.100	0.083
-344.406	-200.000	-0.058	-0.297
-343.391	-79.138	0.083	-0.028
-342.377	-200.000	0.166	0.000
-341.362	-33.115	0.360	-0.197
-340.348	-6.655	-0.161	-0.108
-339.333	296.518	-0.045	-0.082
-338.318	-200.000	0.031	-0.543
-337.304	65.839	-0.136	-0.136
-336.289	-16.167	0.276	-0.173
-335.275	-29.547	0.208	0.117
-334.260	-95.852	0.408	-0.107
-333.245	145.308	-0.055	-0.072
-332.231	173.560	-0.138	0.197
-331.216	170.054	-0.139	0.197
-330.202	-28.182	0.208	0.119
-329.187	-71.333	0.050	0.019
-328.172	-90.592	0.051	-0.015
-327.158	-200.000	0.024	0.389
-326.143	-59.475	-0.120	-0.051
-325.129	109.826	-0.225	0.267
-324.114	-200.000	0.012	0.082
-323.099	-66.854	0.179	-0.070
-322.085	-169.326	0.359	0.013
-321.070	-102.124	0.042	-0.010
-320.056	-33.474	-0.104	-0.057
-319.041	618.071	0.192	-0.477
-318.026	-125.881	-0.117	-0.017
-317.012	134.262	-0.115	-0.148
-315.997	83.657	0.216	0.233
-314.983	-200.000	0.010	-0.112
-313.968	-188.058	0.292	-0.004
-312.953	-33.922	-0.265	-0.144
-311.939	-58.505	0.168	0.072
-310.924	25.059	-0.155	-0.127
-309.910	-200.000	-0.001	0.162
-308.895	-104.852	-0.105	0.024
-307.880	-84.965	-0.070	0.022
-306.866	445.183	-0.099	-0.215
-305.851	-72.990	0.158	-0.057
-304.837	-118.804	-0.176	0.031
-303.822	125.865	0.060	0.075
-302.807	-84.460	0.173	-0.054
-301.793	577.500	0.117	0.281
-300.778	-22.000	0.068	0.040
-299.764	-46.054	-0.284	-0.138
-298.749	-200.000	-0.026	0.141
-297.735	176.729	0.030	0.043
-296.720	241.960	-0.064	0.106
-295.705	186.622	-0.080	0.118
-294.691	-61.056	0.214	-0.089
-293.676	-200.000	-0.008	-0.221
-292.662	204.114	0.137	-0.209
-291.647	800.000	0.074	0.259
-290.632	735.911	-0.015	0.040
-289.618	-142.699	-0.499	0.048
-288.603	8.850	0.122	0.091
-287.589	800.000	0.020	0.083
-286.574	-102.866	0.218	0.051
-285.559	-200.000	0.003	-0.022
-284.545	622.928	0.094	-0.233
-283.530	-200.000	0.008	-0.086
-282.516	800.000	-0.079	-0.297
-281.501	409.730	0.010	-0.021
-280.486	-67.847	0.228	-0.088
-279.472	311.785	0.184	-0.341
-278.457	173.466	0.252	0.358
-277.443	-200.000	0.025	-0.217
-276.428	800.000	-0.048	-0.149
-275.413	117.961	-0.372	-0.452
-274.399	-200.000	-0.017	0.105
-273.384	-200.000	0.032	0.250
-272.370	-71.757	0.026	-0.010
-271.355	172.454	0.181	-0.257
-270.340	267.382	0.102	-0.176
-269.326	800.000	0.026	0.099
-268.311	69.853	-0.120	0.122
-267.297	-98.150	-0.488	0.124
-266.282	-200.000	-0.040	-0.404
-265.267	99.441	0.141	-0.161
-264.253	90.242	0.059	0.065
-263.238	176.104	-0.103	0.148
-262.224	-33.791	-0.148	0.080
-261.209	17.512	0.213	-0.167
-260.195	-147.684	0.056	-0.005
-259.180	-115.298	-0.215	0.040
-258.165	-61.982	-0.164	-0.068
-257.151	787.248	-0.035	-0.093
-256.136	233.256	-0.086	-0.139
-255.122	-200.000	0.045	0.232
-254.107	-123.391	-0.088	0.014
-253.092	-72.615	0.368	-0.134
-252.078	150.987	-0.167	-0.224
-251.063	97.042	0.083	-0.094
-250.049	-200.000	-0.034	-0.220
-249.034	-58.808	0.211	-0.090
-248.019	77.227	0.083	-0.087
-247.005	-101.503	0.253	0.061
-245.990	-200.000	0.044	0.371
-244.976	-61.172	-0.185	-0.077
-243.961	-108.671	0.095	0.020
-242.946	698.223	-0.092	0.239
-241.932	278.386	-0.109	0.191
-240.917	76.862	-0.181	-0.189
-239.903	92.481	-0.147	-0.164
-238.888	-9.979	-0.205	-0.135
-237.873	315.743	-0.126	0.235
-236.859	-82.656	-0.314	-0.100
-235.844	128.262	0.221	0.278
-234.830	-200.000	0.033	-0.148
-233.815	131.451	0.179	0.227
-232.800	-196.589	-0.292	0.002
-231.786	800.000	0.087	-0.250
-230.771	-103.876	0.185	-0.042
-229.757	19.071	0.280	-0.221
-228.742	-200.000	-0.020	0.299
-227.727	129.146	-0.143	0.180
-226.713	-200.000	0.014	-0.198
-225.698	-200.000	-0.012	-0.200
-224.684	700.832	-0.049	-0.127
-223.669	-35.314	-0.024	-0.013
-222.655	-83.659	-0.184	-0.058
-221.640	45.430	0.079	0.072
-220.625	-200.000	-0.032	0.290
-219.611	-200.000	0.004	0.192
-218.596	54.424	-0.176	-0.166
-217.582	-200.000	-0.002	-0.401
-216.567	-200.000	-0.018	0.081
-215.552	22.906	0.122	-0.098
-214.538	49.859	0.190	-0.176
-213.523	273.576	0.169	0.294
-212.509	157.869	0.111	0.152
-211.494	-200.000	0.030	-0.231
-210.479	723.647	-0.085	0.222
-209.465	-64.421	0.347	-0.139
-208.450	-84.912	0.204	0.063
-207.436	-77.028	0.244	-0.084
-206.421	-173.897	0.429	-0.012
-205.406	-168.816	-0.161	-0.006
-204.392	-125.477	0.089	-0.013
-203.377	-10.361	0.183	-0.119
-202.363	-146.974	0.063	0.005
-201.348	341.610	0.048	-0.093
-200.333	800.000	-0.077	0.260
-199.319	187.844	-0.233	0.343
-198.304	-200.000	0.021	-0.341
-197.290	-134.508	-0.140	-0.017
-196.275	-98.495	0.330	-0.083
-195.260	-47.838	-0.065	0.031
-194.246	774.259	-0.033	-0.089
-193.231	234.690	0.105	-0.170
-192.217	-200.000	0.033	0.240
-191.202	-41.407	0.215	-0.109
-190.187	-41.451	-0.207	-0.105
-189.173	-117.444	0.293	-0.052
-188.158	-154.544	-0.303	-0.020
-187.144	-61.750	-0.092	-0.038
-186.129	73.668	-0.192	0.197
-185.114	-200.000	-0.012	0.349
-184.100	312.600	-0.073	0.135
-183.085	-29.646	-0.167	-0.094
-182.071	-60.686	-0.404	0.168
-181.056	6.300	0.443	0.323
-180.042	-200.000	0.021	0.486
-179.027	-200.000	-0.015	-0.081
-178.012	-76.972	0.145	-0.050
-176.998	800.000	-0.070	0.240
-175.983	-200.000	0.050	-0.354
-174.969	-44.801	-0.168	-0.082
-173.954	748.468	-0.007	0.019
-172.939	94.095	-0.050	0.056
-171.925	-62.782	-0.103	-0.042
-170.910	-200.000	-0.003	0.036
-169.896	-85.635	0.409	-0.125
-168.881	279.772	-0.047	0.082
-167.866	-200.000	0.006	0.133
-166.852	-30.362	0.086	-0.048
-165.837	-59.129	0.063	-0.027
-164.823	-43.555	0.189	0.094
-163.808	13.855	0.213	-0.162
-162.793	800.000	-0.037	0.110
-161.779	-85.834	-0.176	0.054
-160.764	-121.284	-0.160	-0.026
-159.750	-37.435	0.137	0.072
-158.735	455.735	-0.100	-0.218
-157.720	-0.453	0.386	0.269
-156.706	-58.449	-0.155	0.066
-155.691	-102.353	-0.337	0.079
-154.677	-200.000	-0.007	-0.384
-153.662	214.277	0.090	0.141
-152.647	-60.562	0.084	0.035
-151.633	-200.000	0.041	-0.191
-150.618	-200.000	-0.020	-0.206
-149.604	580.681	-0.122	0.294
-148.589	115.118	-0.111	0.133
-147.574	23.341	0.148	0.119
-146.560	192.310	-0.039	-0.058
-145.545	-52.322	-0.221	0.101
-144.531	92.193	-0.087	0.096
-143.516	218.919	-0.070	-0.110
-142.502	-125.083	-0.075	-0.011
-141.487	-112.834	0.117	0.023
-140.472	593.062	0.176	0.427
-139.458	-17.672	0.136	-0.084
-138.443	800.000	-0.115	-0.320
-137.429	407.486	0.073	-0.152
-136.414	-200.000	-0.297	-0.001
-135.399	68.831	0.242	-0.243
-134.385	5.964	-0.186	-0.135
-133.370	18.477	-0.339	0.266
-132.356	-200.000	-0.007	-0.100
-131.341	-69.987	-0.559	-0.209
-130.326	-155.164	0.196	0.013
-129.312	449.687	0.085	-0.184
-128.297	10.635	0.149	-0.112
-127.283	145.159	0.157	-0.206
-126.268	800.000	-0.085	0.240
-125.253	-93.825	-0.248	-0.067
-124.239	76.899	-0.149	-0.155
-123.224	446.218	0.076	-0.163
-122.210	-200.000	0.039	0.306
