DTS Sentinel unit serial number:	SN413079Multiplexer serial number:	ORYXHardware model number:	OX4-SRSoftware version number:	ORYX F/W v4.00 Oryx Data Collector v3.7.2.0data status	okinstallation	princeton_trtdifferential loss correction	single-endedforward channel	channel 1reverse channel	N/Adate	2019/09/18time	20:02:35forward acquisition time	60.00reverse acquisition time	0.00gamma	496.2192k internal	0.2330k external	0.2330temperature offset calibration	1.0028default loss term (dB/km)	0.3790temperature slope calibration	1.0000multiplexer offset coefficient	1.0000multiplexer slope coefficient	1.0000fibre end	0.00T internal ref (°C)	30.20T ext. ref 1 (°C)	0.94T ext. ref 2 (°C)	20.80length (m)	temperature (°C)	Stokes	anti-Stokes-747.200	121.505	0.123	-0.155
-746.185	-80.009	-0.383	0.130
-745.171	445.981	0.089	-0.198
-744.156	800.000	0.085	0.348
-743.142	800.000	-0.067	0.291
-742.127	164.927	0.053	0.075
-741.112	279.806	0.095	-0.170
-740.098	-158.979	-0.386	0.022
-739.083	-52.238	-0.121	0.056
-738.069	28.321	-0.149	0.127
-737.054	136.253	0.136	-0.179
-736.039	-47.862	-0.251	0.123
-735.025	-90.128	-0.059	-0.017
-734.010	-88.885	-0.354	-0.106
-732.996	135.984	0.012	0.016
-731.981	122.082	-0.028	0.036
-730.966	800.000	0.093	0.318
-729.952	-122.619	-0.282	0.046
-728.937	-101.728	0.182	0.044
-727.923	-200.000	0.006	-0.056
-726.908	-32.176	0.199	-0.112
-725.894	344.601	0.015	0.030
-724.879	-200.000	-0.047	-0.287
-723.864	800.000	-0.074	-0.272
-722.850	-102.943	-0.222	0.053
-721.835	297.141	-0.049	0.090
-720.821	-54.196	-0.137	0.063
-719.806	-75.311	-0.172	-0.062
-718.791	88.450	-0.096	-0.107
-717.777	-168.234	-0.330	0.013
-716.762	135.862	0.174	-0.229
-715.748	-95.138	-0.050	0.014
-714.733	11.152	0.185	0.143
-713.718	392.395	-0.038	-0.080
-712.704	121.725	0.111	0.139
-711.689	-94.604	0.237	0.065
-710.675	9.343	0.318	-0.242
-709.660	-84.812	-0.100	0.032
-708.645	-79.603	-0.617	-0.209
-707.631	800.000	0.057	0.162
-706.616	-132.219	0.403	0.052
-705.602	800.000	0.066	0.193
-704.587	-60.376	-0.263	0.113
-703.572	53.186	-0.301	-0.290
-702.558	800.000	-0.046	-0.178
-701.543	-3.106	0.298	-0.209
-700.529	-104.159	0.232	-0.054
-699.514	-200.000	0.008	-0.061
-698.499	-192.324	-0.323	-0.003
-697.485	452.876	0.082	-0.183
-696.470	30.291	-0.205	0.176
-695.456	82.413	0.253	0.276
-694.441	84.128	-0.151	-0.166
-693.426	-144.718	0.380	-0.035
-692.412	-87.348	0.109	-0.033
-691.397	756.159	-0.095	0.257
-690.383	60.709	-0.048	-0.048
-689.368	-100.572	0.139	0.035
-688.354	-59.495	0.078	-0.034
-687.339	241.475	-0.105	0.176
-686.324	-113.408	0.141	-0.028
-685.310	-151.982	-0.224	0.016
-684.295	-40.151	0.164	0.086
-683.281	-200.000	-0.027	-0.261
-682.266	141.477	-0.116	0.155
-681.251	66.251	-0.163	0.166
-680.237	158.293	0.149	-0.208
-679.222	24.457	-0.141	0.117
-678.208	-200.000	-0.036	0.384
-677.193	108.663	0.125	0.150
-676.178	32.848	-0.305	-0.265
-675.164	197.320	0.137	0.210
-674.149	-111.719	-0.249	-0.051
-673.135	-74.021	-0.180	0.066
-672.120	263.742	-0.211	0.369
-671.105	-200.000	0.018	0.147
-670.091	-200.000	0.022	-0.121
-669.076	-184.635	0.151	-0.002
-668.062	320.564	-0.070	0.133
-667.047	-41.092	-0.283	-0.147
-666.032	-58.931	0.188	-0.082
-665.018	-200.000	-0.019	-0.244
-664.003	800.000	0.099	-0.423
-662.989	-45.381	0.097	-0.048
-661.974	-84.957	0.119	-0.037
-660.959	-139.500	0.078	-0.008
-659.945	52.119	-0.224	0.214
-658.930	-71.173	0.315	0.119
-657.916	-110.747	-0.087	0.018
-656.901	77.092	-0.237	-0.253
-655.886	-200.000	0.020	-0.368
-654.872	115.340	-0.116	-0.143
-653.857	53.392	-0.182	0.175
-652.843	-113.407	0.277	0.055
-651.828	117.278	0.142	-0.175
-650.814	-154.111	-0.202	-0.014
-649.799	18.461	0.120	0.097
-648.784	40.455	-0.324	0.293
-647.770	322.278	0.030	0.056
-646.755	-200.000	0.103	0.467
-645.741	-101.538	0.297	0.073
-644.726	-19.559	-0.388	0.241
-643.711	-200.000	-0.045	-0.341
-642.697	325.293	0.166	-0.319
-641.682	800.000	-0.049	0.191
-640.668	75.330	-0.230	0.244
-639.653	369.885	0.201	-0.408
-638.638	800.000	-0.089	-0.284
-637.624	229.842	0.040	-0.065
-636.609	479.988	-0.053	-0.120
-635.595	-116.268	-0.161	-0.030
-634.580	-160.749	-0.127	0.007
-633.565	-200.000	0.018	-0.176
-632.551	-200.000	0.025	-0.244
-631.536	-200.000	-0.083	0.389
-630.522	-110.776	-0.207	0.043
-629.507	-26.570	-0.210	-0.123
-628.492	70.056	-0.061	0.063
-627.478	95.758	-0.250	-0.286
-626.463	-82.768	-0.246	0.080
-625.449	800.000	0.091	-0.378
-624.434	6.574	0.049	0.036
-623.419	800.000	0.057	-0.166
-622.405	-87.749	0.236	-0.071
-621.390	331.564	-0.120	-0.232
-620.376	709.250	-0.054	-0.143
-619.361	-200.000	0.008	-0.318
-618.346	-46.479	-0.187	-0.092
-617.332	-174.202	0.292	0.009
-616.317	106.306	0.093	-0.110
-615.303	-8.424	-0.278	0.187
-614.288	95.643	-0.134	-0.153
-613.273	-200.000	-0.027	-0.148
-612.259	-174.042	-0.104	0.003
-611.244	-81.585	0.120	0.040
-610.230	-30.052	0.129	0.073
-609.215	216.955	-0.195	0.311
-608.201	318.486	0.160	0.303
-607.186	800.000	0.017	0.074
-606.171	211.672	-0.117	0.185
-605.157	-83.394	-0.291	0.093
-604.142	60.381	0.068	0.067
-603.128	719.377	-0.095	-0.253
-602.113	-200.000	0.048	0.215
-601.098	457.386	0.081	0.181
-600.084	146.572	-0.123	-0.165
-599.069	-129.681	0.211	-0.029
-598.055	-62.388	-0.187	-0.078
-597.040	-40.146	0.159	-0.083
-596.025	47.239	0.213	-0.199
-595.011	800.000	-0.052	-0.185
-593.996	292.284	0.073	-0.133
-592.982	-127.656	0.121	-0.017
-591.967	316.292	-0.111	0.210
-590.952	39.788	0.165	0.148
-589.938	-200.000	-0.022	0.376
-588.923	165.909	-0.165	-0.234
-587.909	190.239	0.228	0.343
-586.894	800.000	0.129	-0.382
-585.879	-38.768	-0.241	-0.127
-584.865	19.660	0.021	-0.017
-583.850	-65.480	-0.386	-0.155
-582.836	290.074	0.063	0.115
-581.821	113.511	0.076	0.092
-580.806	99.209	0.119	0.137
-579.792	62.234	-0.297	-0.297
-578.777	687.688	-0.074	-0.194
-577.763	-22.740	-0.128	0.077
-576.748	337.279	-0.076	0.148
-575.733	800.000	0.072	0.246
-574.719	-109.516	0.230	-0.049
-573.704	-66.541	-0.078	0.031
-572.690	-45.261	-0.105	-0.052
-571.675	-200.000	0.089	0.462
-570.661	169.445	-0.052	0.074
-569.646	-200.000	0.006	-0.218
-568.631	307.935	-0.093	-0.174
-567.617	108.994	0.298	-0.357
-566.602	-139.760	-0.205	-0.022
-565.588	-200.000	-0.012	0.072
-564.573	-165.175	0.244	-0.011
-563.558	-72.191	0.417	-0.155
-562.544	16.178	-0.109	-0.086
-561.529	800.000	0.070	-0.301
-560.515	800.000	-0.040	0.160
-559.500	-122.243	0.157	0.026
-558.485	-33.035	-0.370	-0.205
-557.471	137.636	-0.365	0.478
-556.456	-200.000	0.001	0.039
-555.442	29.161	0.228	-0.194
-554.427	-146.809	-0.101	-0.009
-553.412	-81.450	-0.136	0.045
-552.398	800.000	0.089	0.298
-551.383	-200.000	-0.005	-0.263
-550.369	509.477	-0.121	0.280
-549.354	98.578	-0.104	0.120
-548.339	-58.036	0.204	-0.089
-547.325	-63.498	-0.289	-0.119
-546.310	508.320	-0.131	0.305
-545.296	-200.000	-0.001	0.311
-544.281	382.409	0.122	0.250
-543.266	201.720	0.069	-0.107
-542.252	-182.387	0.150	-0.003
-541.237	-174.304	-0.198	0.006
-540.223	105.425	0.046	-0.054
-539.208	53.936	0.093	0.089
-538.193	-65.715	-0.326	-0.130
-537.179	-7.924	-0.182	0.122
-536.164	103.391	0.069	-0.081
-535.150	86.335	-0.129	0.141
-534.135	-74.410	0.139	0.050
-533.121	-32.801	-0.124	-0.069
-532.106	-46.477	-0.012	-0.006
-531.091	-19.789	0.179	0.110
-530.077	-94.262	-0.176	0.048
-529.062	178.984	-0.040	-0.058
-528.048	25.296	-0.119	0.099
-527.033	5.111	0.138	-0.101
-526.018	-84.989	-0.288	0.090
-525.004	267.839	-0.252	-0.441
-523.989	-200.000	0.026	-0.182
-522.975	404.951	-0.107	-0.226
-521.960	-23.872	-0.204	-0.122
-520.945	800.000	0.047	0.170
-519.931	-47.478	-0.295	-0.143
-518.916	415.412	0.055	-0.117
-517.902	151.890	0.127	-0.172
-516.887	367.799	-0.159	0.320
-515.872	-12.727	0.114	0.074
-514.858	-59.902	0.164	-0.070
-513.843	397.511	-0.114	0.238
-512.829	472.096	-0.003	-0.006
-511.814	388.742	0.012	0.024
-510.799	-4.190	0.146	0.101
-509.785	-111.992	-0.217	-0.044
-508.770	-145.950	-0.258	-0.023
-507.756	-200.000	-0.004	0.194
-506.741	800.000	-0.084	0.363
-505.726	-200.000	0.036	0.172
-504.712	153.445	-0.073	0.099
-503.697	-37.090	-0.051	-0.027
-502.683	1.202	0.256	0.183
-501.668	86.766	0.271	0.298
-500.653	-114.295	0.203	0.039
-499.639	-133.804	0.067	-0.008
-498.624	100.454	-0.044	-0.051
-497.610	203.561	0.302	-0.466
-496.595	800.000	0.088	-0.288
-495.581	-49.780	-0.535	0.254
-494.566	-171.125	-0.112	-0.004
-493.551	-111.788	0.018	-0.004
-492.537	-200.000	-0.002	-0.044
-491.522	-200.000	0.051	0.263
-490.508	800.000	0.086	-0.250
-489.493	270.227	-0.154	-0.270
-488.478	-3.501	0.214	0.148
-487.464	-79.261	0.180	-0.061
-486.449	-53.505	0.257	-0.117
-485.435	452.501	0.124	-0.274
-484.420	31.668	0.165	0.141
-483.405	243.519	0.113	0.190
-482.391	252.829	0.054	0.092
-481.376	-200.000	-0.012	-0.228
-480.362	-200.000	0.005	0.090
-479.347	800.000	0.082	0.287
-478.332	176.312	-0.234	0.338
-477.318	800.000	-0.070	0.225
-476.303	-66.955	-0.041	0.016
-475.289	-165.757	-0.236	0.010
-474.274	-200.000	0.003	-0.181
-473.259	-126.065	0.102	-0.015
-472.245	-200.000	-0.012	-0.180
-471.230	490.742	0.041	0.094
-470.216	-51.620	0.237	0.110
-469.201	-200.000	-0.000	-0.126
-468.186	-10.149	0.194	-0.129
-467.172	118.797	0.320	-0.393
-466.157	-98.184	0.060	0.015
-465.143	134.122	0.191	-0.246
-464.128	-200.000	0.003	-0.370
-463.113	114.484	0.271	-0.329
-462.099	-200.000	0.073	-0.341
-461.084	-49.286	-0.066	-0.031
-460.070	-96.500	-0.137	0.036
-459.055	-80.339	-0.428	0.142
-458.040	800.000	-0.022	-0.077
-457.026	-15.340	-0.076	-0.048
-456.011	-200.000	-0.013	-0.168
-454.997	-37.116	0.041	-0.022
-453.982	800.000	-0.059	0.192
-452.968	800.000	0.059	-0.247
-451.953	-94.230	0.291	0.079
-450.938	-105.150	0.176	0.040
-449.924	454.970	0.061	0.136
-448.909	82.595	0.183	0.198
-447.895	75.704	0.269	-0.283
-446.880	-200.000	0.023	-0.363
-445.865	-200.000	-0.018	-0.101
-444.851	-97.326	0.216	-0.056
-443.836	-153.040	-0.211	-0.015
-442.822	800.000	-0.074	0.299
-441.807	-55.023	-0.138	0.062
-440.792	149.555	0.150	0.202
-439.778	-85.255	-0.236	-0.073
-438.763	-15.379	0.191	0.121
-437.749	269.677	-0.197	0.344
-436.734	82.612	-0.272	-0.294
-435.719	-76.831	-0.354	-0.123
-434.705	-132.786	-0.373	0.047
-433.690	800.000	0.064	0.273
-432.676	74.384	-0.179	-0.187
-431.661	167.631	0.127	-0.179
-430.646	800.000	-0.064	0.225
-429.632	-25.069	0.349	-0.206
-428.617	-69.800	0.539	0.205
-427.603	13.229	0.249	-0.192
-426.588	254.712	-0.185	-0.315
-425.573	80.339	-0.242	0.259
-424.559	320.627	0.126	-0.237
-423.544	93.613	0.088	-0.099
-422.530	-81.893	-0.155	0.051
-421.515	162.187	0.099	-0.138
-420.500	-131.414	0.035	-0.005
-419.486	140.418	0.081	-0.106
-418.471	40.348	0.194	-0.174
-417.457	-200.000	0.035	0.165
-416.442	363.435	-0.033	0.066
-415.428	-57.197	-0.097	0.042
-414.413	296.072	-0.115	0.210
-413.398	-44.051	0.164	0.082
-412.384	-200.000	0.057	0.283
-411.369	180.003	-0.147	0.215
-410.355	800.000	0.046	-0.188
-409.340	-200.000	-0.010	-0.530
-408.325	203.119	-0.138	-0.212
-407.311	800.000	-0.083	-0.241
-406.296	-170.708	-0.401	-0.014
-405.282	750.137	0.082	0.220
-404.267	151.051	0.136	-0.183
-403.252	-62.739	-0.329	0.136
-402.238	-123.597	0.019	0.003
-401.223	520.163	-0.089	0.208
-400.209	-200.000	0.006	0.098
-399.194	-137.673	0.126	0.014
-398.179	180.198	0.130	-0.189
-397.165	342.517	0.149	-0.289
-396.150	439.833	-0.048	-0.104
-395.136	800.000	0.023	0.069
-394.121	-200.000	0.030	0.230
-393.106	79.929	0.194	0.207
-392.092	-44.186	-0.315	0.157
-391.077	30.773	0.073	0.062
-390.063	-189.450	-0.158	0.002
-389.048	800.000	0.092	-0.362
-388.033	-188.737	0.541	0.007
-387.019	17.737	-0.161	0.127
-386.004	-32.761	-0.477	-0.263
-384.990	-96.359	0.359	0.094
-383.975	-200.000	0.027	-0.166
-382.960	-100.626	0.083	-0.020
-381.946	24.334	0.237	0.195
-380.931	800.000	-0.050	-0.138
-379.917	224.529	0.032	-0.051
-378.902	-200.000	-0.000	0.081
-377.888	17.986	-0.162	-0.128
-376.873	-200.000	-0.009	-0.104
-375.858	-14.435	0.064	0.041
-374.844	800.000	0.037	-0.124
-373.829	158.868	0.115	-0.159
-372.815	56.363	0.160	-0.155
-371.800	-146.609	0.151	-0.013
-370.785	-200.000	-0.063	0.310
-369.771	-136.018	0.371	0.043
-368.756	-16.225	0.083	-0.052
-367.742	477.938	-0.112	-0.252
-366.727	70.531	0.113	0.116
-365.712	191.910	-0.336	0.503
-364.698	85.542	0.115	0.126
-363.683	242.463	0.120	-0.199
-362.669	-200.000	0.012	0.089
-361.654	-99.431	-0.104	0.026
-360.639	9.420	-0.141	0.106
-359.625	83.007	0.325	0.351
-358.610	62.136	-0.183	-0.181
-357.596	-200.000	-0.010	-0.125
-356.581	-174.158	0.131	0.004
-355.566	200.180	-0.100	-0.153
-354.552	1.783	0.258	0.185
-353.537	140.112	-0.089	-0.117
-352.523	8.693	-0.113	-0.084
-351.508	-200.000	-0.012	0.135
-350.493	-44.431	-0.128	0.063
-349.479	-200.000	0.033	-0.325
-348.464	-8.419	0.332	-0.221
-347.450	-135.560	0.087	0.010
-346.435	104.401	-0.023	-0.027
-345.420	132.586	-0.233	-0.298
-344.406	-17.691	-0.259	0.162
-343.391	-74.169	0.152	0.054
-342.377	-178.932	0.228	-0.005
-341.362	-10.616	0.138	-0.090
-340.348	86.239	0.064	-0.070
-339.333	-200.000	0.347	-0.001
-338.318	-134.999	-0.194	-0.023
-337.304	-63.748	-0.235	-0.096
-336.289	-0.910	0.054	-0.038
-335.275	-79.803	0.196	-0.065
-334.260	400.954	-0.072	0.150
-333.245	212.040	-0.027	0.041
-332.231	267.421	0.186	-0.322
-331.216	-89.724	0.090	-0.026
-330.202	-200.000	-0.054	-0.300
-329.187	800.000	0.051	-0.144
-328.172	100.462	-0.226	0.260
-327.158	216.451	-0.211	0.333
-326.143	-176.481	-0.292	-0.007
-325.129	6.205	-0.115	0.085
-324.114	253.783	-0.142	0.240
-323.099	800.000	0.010	-0.040
-322.085	-200.000	0.027	-0.179
-321.070	786.107	0.039	-0.105
-320.056	762.768	0.040	0.106
-319.041	83.208	0.193	-0.208
-318.026	-158.283	0.133	0.008
-317.012	-200.000	-0.048	0.320
-315.997	800.000	0.049	0.172
-314.983	-200.000	-0.060	0.000
-313.968	-200.000	-0.018	-0.207
-312.953	-32.490	0.115	0.064
-311.939	-198.591	0.441	0.002
-310.924	-44.491	-0.105	-0.052
-309.910	-110.860	0.347	-0.071
-308.895	-30.630	-0.158	0.088
-307.880	15.184	-0.115	-0.089
-306.866	280.039	0.065	-0.114
-305.851	-120.211	-0.244	-0.041
-304.837	-113.279	-0.220	-0.043
-303.822	168.664	-0.069	-0.098
-302.807	29.061	0.248	-0.208
-301.793	164.827	0.038	0.053
-300.778	-95.855	0.094	0.025
-299.764	10.065	0.222	-0.167
-298.749	-13.611	0.233	-0.149
-297.735	-87.746	0.424	-0.126
-296.720	-186.993	0.482	0.007
-295.705	800.000	-0.041	0.112
-294.691	435.326	-0.066	0.142
-293.676	12.337	0.306	-0.233
-292.662	324.162	-0.249	0.471
-291.647	-32.987	-0.131	0.072
-290.632	143.722	0.117	0.154
-289.618	-200.000	0.008	0.305
-288.603	597.811	-0.061	-0.149
-287.589	-130.259	-0.225	0.030
-286.574	-200.000	0.028	0.192
-285.559	-111.740	-0.148	-0.030
-284.545	-171.456	0.201	-0.007
-283.530	338.806	-0.099	0.191
-282.516	72.611	0.095	0.098
-281.501	-102.409	0.066	0.016
-280.486	-38.441	-0.201	0.105
-279.472	24.608	-0.164	0.134
-278.457	143.770	0.197	-0.260
-277.443	309.997	-0.145	0.268
-276.428	98.143	0.074	0.085
-275.413	-49.763	-0.211	-0.099
-274.399	-51.633	-0.125	-0.058
-273.384	-200.000	0.001	0.297
-272.370	-29.944	0.303	-0.170
-271.355	-2.848	0.115	-0.079
-270.340	-83.003	0.155	-0.050
-269.326	800.000	-0.065	0.191
-268.311	-0.766	-0.333	-0.234
-267.297	-200.000	-0.036	0.232
-266.282	25.047	0.181	0.148
-265.267	-131.045	0.244	-0.032
-264.253	665.443	-0.080	0.203
-263.238	-103.742	0.603	-0.140
-262.224	-36.979	0.107	0.056
-261.209	-200.000	0.051	-0.302
-260.195	-26.512	-0.173	0.100
-259.180	63.852	0.196	-0.195
-258.165	311.307	-0.049	-0.092
-257.151	-200.000	-0.027	-0.268
-256.136	-200.000	-0.042	0.217
-255.122	156.065	-0.141	0.193
-254.107	643.741	-0.027	0.069
-253.092	714.917	0.091	0.239
-252.078	-81.016	-0.309	0.101
-251.063	137.756	0.081	-0.105
-250.049	-63.492	-0.146	0.059
-249.034	-200.000	-0.021	0.168
-248.019	57.771	0.147	-0.142
-247.005	-108.742	-0.114	0.024
-245.990	46.719	0.186	0.171
-244.976	-200.000	0.027	-0.118
-243.961	264.252	-0.179	0.307
-242.946	-7.686	-0.129	0.086
-241.932	-174.187	-0.317	0.009
-240.917	-108.881	0.185	-0.039
-239.903	97.700	0.194	0.220
-238.888	-200.000	-0.017	-0.090
-237.873	-43.897	-0.214	-0.106
-236.859	203.799	0.160	-0.244
-235.844	-21.184	0.286	-0.173
-234.830	-111.017	-0.238	-0.048
-233.815	198.696	-0.131	-0.197
-232.800	-99.640	0.380	0.094
-231.786	121.703	-0.171	0.210
-230.771	496.600	0.107	-0.244
-229.757	-200.000	0.010	-0.071
-228.742	208.014	0.077	0.119
-227.727	-63.496	-0.274	0.111
-226.713	505.185	-0.072	0.165
-225.698	-107.011	-0.308	-0.067
-224.684	-42.626	0.134	-0.067
-223.669	-4.497	0.162	-0.111
-222.655	-106.719	-0.157	-0.034
-221.640	18.548	0.169	-0.133
-220.625	702.312	-0.181	-0.471
-219.611	671.704	-0.013	-0.033
-218.596	-200.000	-0.001	-0.011
-217.582	58.650	0.332	0.322
-216.567	-38.474	-0.180	0.094
-215.552	-200.000	0.002	0.223
-214.538	-143.710	0.058	-0.005
-213.523	64.659	-0.179	-0.178
-212.509	369.854	-0.018	0.036
-211.494	57.089	0.173	-0.166
-210.479	-109.412	0.326	0.068
-209.465	70.955	-0.256	0.262
-208.450	-149.174	-0.306	0.024
-207.436	-73.273	0.244	-0.088
-206.421	-67.221	-0.116	0.045
-205.406	333.557	-0.057	0.108
-204.392	-200.000	0.061	0.388
-203.377	306.877	0.090	0.165
-202.363	-57.323	-0.063	-0.027
-201.348	306.468	0.152	0.279
-200.333	466.806	-0.062	0.138
-199.319	-46.632	-0.465	-0.224
-198.304	5.283	-0.145	-0.105
-197.290	426.981	0.023	-0.049
-196.275	-72.651	-0.141	-0.051
-195.260	277.562	0.061	0.108
-194.246	-0.047	0.058	-0.041
-193.231	-69.657	-0.171	0.065
-192.217	72.604	-0.164	-0.168
-191.202	-31.366	-0.197	0.109
-190.187	-190.762	0.278	0.003
-189.173	-52.288	0.169	-0.077
-188.158	177.122	-0.306	0.439
-187.144	-38.232	0.106	0.055
-186.129	122.581	0.299	-0.368
-185.114	158.779	-0.141	0.193
-184.100	-129.568	-0.248	-0.034
-183.085	-176.268	-0.256	0.007
-182.071	-200.000	0.024	-0.227
-181.056	800.000	-0.033	-0.137
-180.042	-200.000	-0.069	-0.362
-179.027	82.104	-0.100	0.106
-178.012	44.742	0.071	-0.065
-176.998	-200.000	0.034	-0.335
-175.983	-200.000	-0.080	-0.374
-174.969	-14.677	0.120	0.076
-173.954	-200.000	-0.006	0.194
-172.939	800.000	0.031	0.115
-171.925	-89.317	0.255	-0.074
-170.910	325.670	-0.032	-0.061
-169.896	-87.633	0.082	-0.024
-168.881	-200.000	-0.005	0.228
-167.866	-43.001	-0.188	0.094
-166.852	-41.664	0.145	-0.073
-165.837	270.113	0.221	0.382
-164.823	800.000	-0.052	0.153
-163.808	-34.197	-0.251	0.136
-162.793	479.006	0.090	0.200
-161.779	-98.420	-0.206	-0.052
-160.764	-200.000	-0.012	0.243
-159.750	-200.000	0.047	0.240
-158.735	-173.724	0.144	0.004
-157.720	-98.437	-0.230	0.058
-156.706	800.000	-0.053	0.204
-155.691	800.000	0.033	-0.095
-154.677	58.964	0.359	0.347
-153.662	53.239	-0.130	-0.122
-152.647	-83.685	-0.214	0.067
-151.633	170.332	0.082	0.116
-150.618	85.240	0.202	-0.218
-149.604	-200.000	0.067	-0.405
-148.589	-200.000	0.012	-0.356
-147.574	113.387	0.163	0.195
-146.560	137.991	0.061	-0.079
-145.545	-200.000	0.065	0.306
-144.531	-200.000	-0.017	0.081
-143.516	79.991	-0.166	0.175
-142.502	706.759	-0.018	-0.047
-141.487	22.546	-0.122	-0.098
-140.472	-190.325	0.147	-0.002
-139.458	-200.000	0.027	-0.267
-138.443	34.707	0.056	0.048
-137.429	-4.401	0.221	0.151
-136.414	-11.608	-0.213	-0.138
-135.399	433.592	0.007	-0.015
-134.385	135.741	0.075	0.096
-133.370	277.564	-0.084	-0.147
-132.356	-200.000	-0.016	0.092
-131.341	-140.860	-0.261	0.026
-130.326	-13.480	0.076	-0.049
-129.312	-92.976	-0.233	-0.064
-128.297	567.500	0.065	-0.154
-127.283	719.129	0.086	-0.224
-126.268	-94.536	-0.171	-0.046
-125.253	730.231	0.073	-0.193
-124.239	169.358	-0.157	0.220
-123.224	800.000	0.009	0.030
-122.210	50.527	0.307	-0.286
-121.195	-200.000	-0.009	0.072
