DTS Sentinel unit serial number:	SN413079Multiplexer serial number:	ORYXHardware model number:	OX4-SRSoftware version number:	ORYX F/W v4.00 Oryx Data Collector v3.7.2.0data status	okinstallation	princeton_trtdifferential loss correction	single-endedforward channel	channel 1reverse channel	N/Adate	2019/09/15time	03:02:35forward acquisition time	60.00reverse acquisition time	0.00gamma	496.2192k internal	0.2324k external	0.2324temperature offset calibration	0.9987default loss term (dB/km)	0.3790temperature slope calibration	1.0000multiplexer offset coefficient	1.0000multiplexer slope coefficient	1.0000fibre end	0.00T internal ref (°C)	31.19T ext. ref 1 (°C)	4.58T ext. ref 2 (°C)	25.72length (m)	temperature (°C)	Stokes	anti-Stokes-747.200	800.000	0.074	0.223
-746.185	-163.069	-0.126	0.006
-745.171	800.000	-0.070	0.286
-744.156	-69.110	-0.278	0.108
-743.142	-200.000	-0.031	0.248
-742.127	-200.000	-0.076	0.630
-741.112	800.000	0.045	-0.168
-740.098	-160.659	0.187	0.010
-739.083	-98.494	-0.180	0.046
-738.069	-36.073	-0.537	0.293
-737.054	-74.360	-0.375	0.137
-736.039	347.550	-0.197	-0.392
-735.025	-132.017	-0.067	0.009
-734.010	-200.000	0.033	0.381
-732.996	-200.000	0.012	-0.066
-731.981	94.060	-0.381	-0.436
-730.966	-200.000	0.014	-0.254
-729.952	-27.486	-0.227	0.133
-728.937	-23.466	-0.148	-0.090
-727.923	-185.875	-0.213	0.003
-726.908	-200.000	-0.049	-0.299
-725.894	-86.879	0.128	0.039
-724.879	-100.013	0.373	0.094
-723.864	-47.726	-0.268	-0.131
-722.850	-117.197	-0.461	-0.085
-721.835	-73.163	-0.028	0.010
-720.821	-9.652	0.315	-0.212
-719.806	-200.000	0.006	0.157
-718.791	800.000	0.054	0.236
-717.777	57.946	-0.147	0.145
-716.762	-195.019	-0.226	0.002
-715.748	45.188	-0.170	0.158
-714.733	88.370	-0.133	0.149
-713.718	99.273	0.182	0.212
-712.704	-154.687	-0.422	-0.028
-711.689	-109.656	-0.219	-0.047
-710.675	7.515	0.160	0.121
-709.660	-200.000	0.014	-0.213
-708.645	-200.000	-0.004	0.198
-707.631	444.098	0.092	-0.204
-706.616	29.721	-0.274	0.235
-705.602	398.730	0.088	-0.186
-704.587	-42.388	-0.207	0.106
-703.572	-97.988	0.191	-0.050
-702.558	149.281	0.261	-0.356
-701.543	347.410	-0.035	0.070
-700.529	-200.000	-0.055	-0.404
-699.514	-200.000	-0.020	-0.192
-698.499	-125.490	0.093	0.014
-697.485	654.033	-0.104	-0.268
-696.470	-34.694	0.157	-0.086
-695.456	190.130	-0.080	0.122
-694.441	20.642	0.118	0.096
-693.426	-200.000	0.065	0.289
-692.412	24.113	-0.095	0.079
-691.397	586.564	0.028	-0.070
-690.383	436.058	0.028	0.060
-689.368	196.797	0.073	0.112
-688.354	-58.515	0.142	0.062
-687.339	36.950	0.164	-0.146
-686.324	337.788	0.190	0.373
-685.310	-115.097	-0.474	0.091
-684.295	40.020	-0.065	-0.058
-683.281	-11.713	-0.278	-0.184
-682.266	-200.000	-0.009	0.092
-681.251	800.000	-0.016	-0.051
-680.237	-100.787	-0.138	-0.034
-679.222	-165.591	-0.104	0.005
-678.208	-23.488	-0.164	-0.099
-677.193	-153.631	-0.170	0.012
-676.178	123.719	-0.158	0.199
-675.164	101.209	0.005	0.006
-674.149	-47.746	0.138	0.067
-673.135	-127.754	0.149	-0.022
-672.120	-157.458	0.160	-0.010
-671.105	365.131	-0.014	0.027
-670.091	-105.448	-0.141	0.032
-669.076	800.000	0.018	0.073
-668.062	-48.351	-0.340	-0.165
-667.047	-31.764	-0.290	0.164
-666.032	800.000	0.059	-0.223
-665.018	-165.788	0.146	0.006
-664.003	-65.885	-0.393	-0.158
-662.989	-22.881	-0.282	0.171
-661.974	272.049	0.122	-0.217
-660.959	-200.000	0.015	0.147
-659.945	-96.289	0.383	-0.102
-658.930	-114.288	-0.206	0.040
-657.916	168.124	0.018	-0.026
-656.901	14.106	-0.328	-0.257
-655.886	800.000	-0.039	-0.128
-654.872	-41.543	-0.043	-0.022
-653.857	800.000	0.079	-0.232
-652.843	143.453	-0.169	-0.227
-651.828	-200.000	0.024	0.131
-650.814	-45.239	0.213	-0.106
-649.799	-111.578	0.321	0.066
-648.784	32.756	-0.258	-0.225
-647.770	310.836	0.068	-0.127
-646.755	-200.000	0.014	0.261
-645.741	628.532	0.061	-0.154
-644.726	196.439	0.198	0.304
-643.711	800.000	0.098	-0.296
-642.697	35.866	-0.281	0.249
-641.682	-69.495	-0.026	-0.010
-640.668	126.409	0.202	0.257
-639.653	39.434	-0.132	-0.119
-638.638	147.064	-0.101	0.137
-637.624	611.605	-0.092	0.231
-636.609	-76.070	-0.144	0.051
-635.595	800.000	-0.015	-0.067
-634.580	800.000	0.038	-0.155
-633.565	109.707	0.045	0.054
-632.551	65.845	0.121	0.123
-631.536	281.026	-0.073	-0.131
-630.522	39.920	-0.133	0.121
-629.507	289.687	-0.032	-0.058
-628.492	-3.787	0.036	-0.025
-627.478	-180.503	0.252	-0.005
-626.463	142.795	0.261	-0.349
-625.449	195.370	-0.080	0.121
-624.434	800.000	0.094	-0.405
-623.419	-93.896	0.264	0.073
-622.405	-57.571	-0.176	-0.078
-621.390	-51.247	0.252	-0.118
-620.376	-138.500	-0.116	-0.013
-619.361	206.059	-0.101	0.158
-618.346	-104.115	-0.219	-0.051
-617.332	153.789	0.275	-0.379
-616.317	67.128	-0.028	0.028
-615.303	-21.670	0.057	-0.035
-614.288	143.750	-0.271	-0.362
-613.273	59.657	-0.144	0.143
-612.259	-200.000	0.044	0.244
-611.244	538.503	-0.162	-0.387
-610.230	-57.536	-0.153	0.067
-609.215	-96.933	0.021	-0.006
-608.201	-200.000	-0.014	0.113
-607.186	114.921	-0.108	0.133
-606.171	-159.216	-0.167	-0.009
-605.157	246.570	0.091	-0.154
-604.142	-6.230	-0.524	-0.360
-603.128	-84.867	0.188	0.059
-602.113	-200.000	-0.007	0.253
-601.098	200.054	-0.171	0.264
-600.084	48.918	0.081	-0.077
-599.069	369.588	-0.046	-0.094
-598.055	-132.022	-0.130	0.017
-597.040	-57.530	-0.113	-0.050
-596.025	-73.001	0.064	0.024
-595.011	-65.935	-0.244	-0.098
-593.996	119.203	-0.076	-0.094
-592.982	4.653	-0.168	0.124
-591.967	43.767	0.178	-0.164
-590.952	-97.525	0.331	0.086
-589.938	212.780	0.050	-0.080
-588.923	-80.700	0.167	-0.056
-587.909	-119.190	-0.175	0.031
-586.894	800.000	0.103	-0.331
-585.879	-71.244	0.185	0.070
-584.865	-200.000	-0.038	0.277
-583.850	367.135	-0.055	-0.112
-582.836	76.399	0.064	0.068
-581.821	-95.413	0.103	-0.028
-580.806	800.000	-0.051	-0.156
-579.792	-92.027	-0.266	0.076
-578.777	-200.000	-0.029	0.135
-577.763	192.995	-0.061	0.092
-576.748	-136.932	-0.164	0.019
-575.733	800.000	-0.053	-0.163
-574.719	420.199	0.069	0.148
-573.704	5.200	-0.296	-0.219
-572.690	-38.558	-0.131	-0.070
-571.675	-200.000	0.017	-0.196
-570.661	-68.944	0.262	0.102
-569.646	-91.132	-0.256	-0.074
-568.631	224.108	0.124	-0.201
-567.617	800.000	-0.019	-0.053
-566.602	67.380	0.085	0.087
-565.588	-89.959	-0.324	0.095
-564.573	95.954	-0.058	-0.066
-563.558	261.701	0.112	0.195
-562.544	122.527	-0.147	-0.184
-561.529	-45.194	-0.434	0.216
-560.515	213.977	-0.158	0.250
-559.500	-83.764	0.071	0.023
-558.485	800.000	-0.123	-0.395
-557.471	-137.796	0.157	0.018
-556.456	-200.000	-0.048	-0.420
-555.442	-149.284	-0.501	-0.040
-554.427	-18.099	-0.148	0.093
-553.412	103.087	0.217	0.255
-552.398	747.651	0.025	-0.067
-551.383	-200.000	-0.054	-0.373
-550.369	-79.744	-0.294	0.099
-549.354	-200.000	0.010	0.113
-548.339	85.065	-0.178	0.195
-547.325	47.302	-0.103	0.096
-546.310	800.000	-0.027	0.088
-545.296	-109.410	0.083	-0.018
-544.281	68.680	-0.113	0.116
-543.266	524.574	0.059	-0.139
-542.252	800.000	0.104	-0.300
-541.237	112.082	-0.098	-0.118
-540.223	800.000	0.041	0.117
-539.208	-200.000	-0.031	-0.215
-538.193	-88.470	0.286	-0.086
-537.179	-116.419	0.236	-0.044
-536.164	-120.825	0.171	-0.029
-535.150	12.645	0.040	-0.031
-534.135	-200.000	0.027	-0.132
-533.121	-152.725	0.383	0.027
-532.106	800.000	-0.052	-0.179
-531.091	-75.833	0.188	0.067
-530.077	-64.054	-0.422	-0.172
-529.062	-54.546	0.025	0.012
-528.048	-200.000	0.041	-0.245
-527.033	-200.000	-0.080	0.421
-526.018	800.000	-0.111	-0.311
-525.004	-20.735	-0.308	0.189
-523.989	32.454	0.184	-0.159
-522.975	-102.489	-0.148	-0.036
-521.960	-101.737	-0.172	0.042
-520.945	344.401	-0.218	0.429
-519.931	-200.000	-0.039	-0.221
-518.916	800.000	-0.100	-0.280
-517.902	-200.000	-0.001	-0.187
-516.887	8.868	0.344	0.260
-515.872	-68.679	-0.261	0.101
-514.858	-200.000	0.011	-0.205
-513.843	-28.393	0.116	0.067
-512.829	97.841	0.132	0.152
-511.814	150.321	0.152	0.206
-510.799	-142.229	-0.124	-0.012
-509.785	493.312	0.064	-0.147
-508.770	227.337	-0.197	-0.321
-507.756	-18.580	0.195	0.122
-506.741	218.777	0.066	0.106
-505.726	80.021	-0.082	-0.088
-504.712	-155.546	0.052	-0.003
-503.697	186.454	0.013	0.019
-502.683	-93.797	0.109	0.030
-501.668	-134.775	0.076	0.009
-500.653	-30.702	0.298	0.169
-499.639	-80.036	0.052	-0.018
-498.624	800.000	0.052	-0.155
-497.610	-84.614	-0.108	-0.034
-496.595	-200.000	-0.003	-0.163
-495.581	-64.460	-0.096	0.039
-494.566	-200.000	-0.030	0.238
-493.551	23.184	-0.118	0.097
-492.537	-171.012	0.426	0.014
-491.522	64.266	-0.096	0.096
-490.508	-200.000	0.031	-0.185
-489.493	-200.000	-0.039	0.198
-488.478	48.878	0.164	0.154
-487.464	48.628	-0.309	-0.290
-486.449	419.954	-0.121	0.259
-485.435	75.982	-0.093	-0.098
-484.420	-145.518	0.302	0.027
-483.405	64.979	-0.186	-0.188
-482.391	203.935	-0.016	0.024
-481.376	-39.297	-0.501	0.263
-480.362	800.000	-0.071	0.291
-479.347	131.959	-0.119	0.153
-478.332	763.946	0.078	-0.212
-477.318	-200.000	-0.034	0.160
-476.303	-200.000	0.013	-0.095
-475.289	-69.115	0.075	-0.029
-474.274	800.000	-0.020	-0.068
-473.259	-20.179	-0.475	-0.292
-472.245	800.000	0.048	0.183
-471.230	800.000	0.109	0.304
-470.216	-115.654	-0.129	0.024
-469.201	5.895	-0.236	0.174
-468.186	291.254	-0.275	-0.500
-467.172	800.000	0.121	-0.437
-466.157	66.504	0.121	-0.123
-465.143	-18.205	0.158	-0.098
-464.128	-60.838	-0.179	-0.076
-463.113	55.318	0.040	-0.039
-462.099	800.000	0.026	0.106
-461.084	800.000	-0.140	0.394
-460.070	-96.735	-0.267	-0.070
-459.055	608.497	-0.075	-0.187
-458.040	2.347	-0.115	0.083
-457.026	-200.000	-0.009	0.290
-456.011	255.841	0.180	0.309
-454.997	717.224	0.078	0.206
-453.982	800.000	0.081	0.277
-452.968	-200.000	-0.006	0.131
-451.953	-12.689	0.120	0.078
-450.938	251.201	-0.122	0.208
-449.924	755.002	-0.098	-0.266
-448.909	76.429	-0.348	0.369
-447.895	-200.000	-0.010	0.277
-446.880	29.311	0.155	0.131
-445.865	151.247	-0.051	0.069
-444.851	-24.184	0.222	-0.132
-443.836	-199.572	0.274	-0.001
-442.822	-200.000	0.024	-0.255
-441.807	18.479	0.228	-0.182
-440.792	-161.317	0.183	0.009
-439.778	-19.020	0.139	0.086
-438.763	221.202	0.069	0.111
-437.749	154.253	-0.163	-0.223
-436.734	-33.545	-0.125	-0.069
-435.719	-106.446	-0.262	0.058
-434.705	420.423	0.095	-0.202
-433.690	-47.261	0.079	0.038
-432.676	184.673	-0.166	-0.245
-431.661	10.910	-0.113	0.086
-430.646	120.312	-0.199	-0.247
-429.632	-89.844	-0.120	0.035
-428.617	116.995	-0.216	-0.265
-427.603	652.616	0.060	0.155
-426.588	-140.302	0.368	-0.038
-425.573	357.917	-0.115	-0.228
-424.559	-200.000	-0.021	-0.135
-423.544	-22.811	0.133	-0.080
-422.530	-200.000	-0.035	-0.242
-421.515	692.285	-0.070	0.184
-420.500	4.334	-0.227	0.166
-419.486	-158.334	0.234	0.014
-418.471	-200.000	-0.021	-0.369
-417.457	62.509	0.164	-0.164
-416.442	59.294	0.238	-0.233
-415.428	-6.160	-0.409	-0.279
-414.413	130.477	0.089	-0.114
-413.398	0.928	-0.169	-0.121
-412.384	31.440	0.261	0.224
-411.369	28.037	-0.138	-0.116
-410.355	-2.077	0.068	-0.048
-409.340	77.473	0.281	0.298
-408.325	262.108	-0.080	0.138
-407.311	-200.000	-0.015	0.092
-406.296	252.456	0.204	0.346
-405.282	-98.414	0.131	0.033
-404.267	114.207	0.148	-0.179
-403.252	-200.000	-0.006	0.028
-402.238	83.612	-0.100	0.109
-401.223	-148.515	0.105	0.009
-400.209	-200.000	0.018	-0.299
-399.194	-97.064	-0.177	0.046
-398.179	435.543	0.110	0.239
-397.165	274.766	0.234	-0.413
-396.150	635.771	0.048	-0.121
-395.136	-77.093	-0.200	-0.070
-394.121	31.549	-0.126	-0.108
-393.106	-107.404	-0.184	-0.040
-392.092	-130.186	0.287	0.039
-391.077	-123.249	-0.285	0.045
-390.063	-15.511	-0.191	0.121
-389.048	-81.939	-0.241	0.078
-388.033	-119.563	-0.214	0.037
-387.019	-32.532	-0.096	-0.053
-386.004	-96.466	0.406	-0.107
-384.990	-85.256	0.112	-0.035
-383.975	-191.342	-0.136	-0.001
-382.960	-200.000	-0.023	0.570
-381.946	800.000	-0.087	0.339
-380.931	800.000	-0.086	0.272
-379.917	-152.164	0.069	0.005
-378.902	-200.000	0.040	-0.216
-377.888	-79.059	0.053	-0.018
-376.873	-200.000	0.020	0.160
-375.858	-200.000	0.010	0.232
-374.844	729.747	-0.133	-0.353
-373.829	-102.326	-0.190	-0.045
-372.815	-113.982	0.189	-0.036
-371.800	800.000	0.050	0.218
-370.785	-128.059	0.219	-0.031
-369.771	26.447	-0.021	-0.017
-368.756	-177.704	-0.237	-0.006
-367.742	13.185	-0.355	0.274
-366.727	358.816	-0.080	0.159
-365.712	9.861	0.147	-0.111
-364.698	163.805	-0.094	-0.132
-363.683	573.151	0.084	-0.204
-362.669	-129.732	-0.237	0.032
-361.654	-173.820	0.127	-0.004
-360.639	78.151	0.207	-0.220
-359.625	-39.006	0.076	-0.040
-358.610	-59.657	-0.114	-0.049
-357.596	-200.000	-0.059	-0.341
-356.581	90.609	0.240	-0.267
-355.566	749.693	-0.060	0.160
-354.552	402.680	-0.127	0.265
-353.537	-117.807	0.365	0.065
-352.523	-85.299	0.375	-0.116
-351.508	87.301	0.266	-0.293
-350.493	-50.838	-0.292	-0.137
-349.479	800.000	0.065	0.186
-348.464	653.674	-0.027	-0.068
-347.450	-52.838	0.265	-0.122
-346.435	800.000	-0.098	-0.368
-345.420	800.000	0.040	0.120
-344.406	800.000	0.056	0.161
-343.391	-64.754	0.117	-0.047
-342.377	-200.000	0.026	0.171
-341.362	132.461	-0.216	0.277
-340.348	64.367	0.072	0.072
-339.333	-6.512	-0.085	0.058
-338.318	212.877	-0.125	-0.197
-337.304	20.640	-0.131	0.105
-336.289	436.329	-0.076	0.164
-335.275	50.247	-0.110	-0.103
-334.260	-98.294	0.234	-0.060
-333.245	99.732	0.194	-0.223
-332.231	-95.152	-0.178	0.048
-331.216	-65.652	-0.164	0.065
-330.202	-15.640	-0.202	0.128
-329.187	-200.000	-0.002	0.147
-328.172	-57.125	0.311	-0.136
-327.158	352.030	-0.071	0.140
-326.143	328.214	-0.089	-0.169
-325.129	-200.000	0.021	0.176
-324.114	-200.000	-0.017	-0.153
-323.099	-61.198	0.175	-0.073
-322.085	-200.000	0.003	-0.177
-321.070	-200.000	-0.024	-0.122
-320.056	-112.526	-0.325	-0.064
-319.041	-108.700	0.126	-0.027
-318.026	-200.000	-0.042	0.448
-317.012	800.000	-0.014	0.054
-315.997	614.884	-0.038	-0.093
-314.983	-56.833	-0.072	0.031
-313.968	342.587	-0.014	-0.028
-312.953	800.000	0.013	-0.042
-311.939	-200.000	-0.023	-0.417
-310.924	413.942	0.142	-0.299
-309.910	-90.512	0.094	-0.027
-308.895	700.463	0.121	0.317
-307.880	62.371	0.274	0.272
-306.866	297.750	-0.227	-0.414
-305.851	-81.675	0.316	-0.103
-304.837	16.770	-0.330	0.259
-303.822	800.000	0.094	0.291
-302.807	-126.054	0.177	-0.026
-301.793	800.000	-0.018	-0.073
-300.778	-109.400	0.148	-0.031
-299.764	-39.621	0.300	-0.156
-298.749	-200.000	-0.001	0.173
-297.735	800.000	0.023	-0.064
-296.720	368.922	-0.004	-0.009
-295.705	233.585	0.039	0.063
-294.691	-200.000	0.046	-0.221
-293.676	-181.616	0.066	-0.001
-292.662	-200.000	-0.046	-0.292
-291.647	-98.590	-0.251	0.063
-290.632	416.874	0.105	0.222
-289.618	483.584	-0.025	0.057
-288.603	47.719	-0.103	0.096
-287.589	-57.759	0.351	-0.152
-286.574	-74.772	0.125	0.045
-285.559	-200.000	-0.012	-0.188
-284.545	369.293	-0.067	-0.135
-283.530	-200.000	-0.011	0.141
-282.516	57.110	0.156	0.151
-281.501	-10.249	-0.163	0.107
-280.486	-200.000	-0.067	-0.458
-279.472	-120.856	-0.189	-0.032
-278.457	611.036	0.006	0.016
-277.443	-108.948	0.184	-0.039
-276.428	-200.000	-0.013	-0.100
-275.413	-103.490	0.209	0.049
-274.399	-34.167	0.263	0.143
-273.384	87.285	-0.155	0.170
-272.370	-112.353	-0.266	-0.053
-271.355	19.646	0.115	0.092
-270.340	292.235	-0.172	0.311
-269.326	18.666	-0.124	0.099
-268.311	31.501	-0.032	0.027
-267.297	-200.000	-0.066	0.290
-266.282	115.549	-0.028	0.033
-265.267	-200.000	0.004	0.068
-264.253	-57.578	0.167	-0.072
-263.238	-200.000	0.029	-0.198
-262.224	-200.000	-0.010	0.045
-261.209	-56.411	-0.257	-0.113
-260.195	-78.466	0.278	0.094
-259.180	-23.467	-0.149	-0.089
-258.165	-59.732	0.134	0.057
-257.151	-95.323	0.180	0.048
-256.136	107.834	0.175	0.207
-255.122	-200.000	0.084	0.475
-254.107	-52.455	0.115	0.053
-253.092	267.071	0.116	0.200
-252.078	-83.950	-0.279	-0.088
-251.063	772.820	0.063	-0.169
-250.049	122.959	-0.145	-0.179
-249.034	-200.000	0.063	-0.277
-248.019	800.000	0.027	-0.081
-247.005	-120.204	-0.158	-0.027
-245.990	800.000	0.071	0.216
-244.976	-119.190	-0.322	-0.056
-243.961	333.907	0.146	0.281
-242.946	41.713	0.389	-0.349
-241.932	-76.860	-0.116	-0.040
-240.917	-25.877	0.256	0.149
-239.903	800.000	0.056	0.241
-238.888	-123.020	-0.204	-0.032
-237.873	800.000	-0.073	-0.273
-236.859	-200.000	0.002	-0.179
-235.844	800.000	-0.059	0.169
-234.830	800.000	0.061	-0.222
-233.815	-170.429	0.162	0.006
-232.800	-157.134	0.048	0.003
-231.786	-86.376	-0.173	-0.053
-230.771	-90.823	-0.101	-0.029
-229.757	96.693	-0.171	0.193
-228.742	-111.025	0.581	0.118
-227.727	-149.440	-0.369	-0.029
-226.713	268.463	0.137	0.238
-225.698	-200.000	-0.003	0.294
-224.684	106.271	-0.165	0.194
-223.669	-73.325	-0.233	-0.084
-222.655	-4.163	0.106	0.073
-221.640	800.000	0.116	0.319
-220.625	-20.545	0.116	0.070
-219.611	-150.163	0.368	-0.028
-218.596	-200.000	-0.014	0.167
-217.582	380.987	-0.026	-0.053
-216.567	428.735	-0.137	0.293
-215.552	115.690	-0.039	0.047
-214.538	800.000	-0.092	0.331
-213.523	226.021	0.075	0.121
-212.509	744.346	-0.054	-0.143
-211.494	798.874	-0.057	0.156
-210.479	-139.318	0.156	-0.017
-209.465	-30.397	0.134	0.075
-208.450	158.683	0.110	-0.152
-207.436	629.572	0.074	-0.184
-206.421	151.579	0.223	-0.301
-205.406	-22.899	-0.100	-0.060
-204.392	-200.000	-0.171	-0.001
-203.377	163.797	0.159	0.221
-202.363	-114.624	-0.332	-0.063
-201.348	29.527	0.191	0.160
-200.333	-85.941	0.190	-0.058
-199.319	155.391	0.088	0.120
-198.304	-200.000	0.022	-0.363
-197.290	-136.600	0.212	-0.024
-196.275	800.000	-0.091	0.308
-195.260	-18.554	-0.074	-0.046
-194.246	800.000	0.087	0.358
-193.231	800.000	0.055	0.236
-192.217	24.126	0.253	-0.207
-191.202	-41.068	0.036	0.018
-190.187	800.000	-0.057	-0.164
-189.173	-35.895	0.107	-0.057
-188.158	-101.474	0.320	-0.077
-187.144	61.051	-0.060	0.059
-186.129	117.249	0.122	-0.148
-185.114	800.000	0.032	0.095
-184.100	68.142	0.046	-0.047
-183.085	-98.177	0.224	0.057
-182.071	112.374	0.155	-0.185
-181.056	-45.927	-0.182	0.089
-180.042	214.476	0.168	0.262
-179.027	-80.381	0.299	0.099
-178.012	108.794	-0.115	-0.136
-176.998	-200.000	-0.038	0.295
-175.983	457.833	0.166	0.364
-174.969	597.576	-0.038	0.093
-173.954	800.000	0.013	-0.046
-172.939	141.866	-0.211	0.276
-171.925	-100.566	0.087	-0.021
-170.910	233.805	0.111	0.180
-169.896	800.000	-0.015	0.045
-168.881	242.358	-0.060	-0.099
-167.866	721.948	0.113	-0.296
-166.852	-37.033	0.214	0.113
-165.837	-38.251	-0.306	0.160
-164.823	322.994	-0.146	-0.275
-163.808	-1.166	0.273	-0.190
-162.793	800.000	0.103	-0.301
-161.779	442.397	-0.124	-0.267
-160.764	43.318	-0.141	0.127
-159.750	597.558	0.155	0.380
-158.735	102.142	-0.156	-0.179
-157.720	71.102	0.087	-0.089
-156.706	127.518	-0.199	-0.250
-155.691	176.349	0.224	0.321
-154.677	-111.949	0.036	-0.007
-153.662	762.575	0.039	-0.105
-152.647	-50.920	-0.138	0.064
-151.633	-200.000	0.011	0.127
-150.618	6.606	-0.262	0.192
-149.604	343.465	-0.063	0.122
-148.589	15.529	-0.359	-0.278
-147.574	316.102	-0.078	-0.145
-146.560	-93.252	0.219	-0.060
-145.545	560.668	-0.078	0.185
-144.531	-131.849	0.142	0.018
-143.516	-57.364	-0.116	0.050
-142.502	1.639	-0.110	0.078
-141.487	-55.227	0.359	-0.159
-140.472	-59.585	-0.044	0.019
-139.458	800.000	0.037	0.157
-138.443	-200.000	-0.003	-0.247
-137.429	-57.208	-0.169	0.073
-136.414	-59.346	-0.163	-0.069
-135.399	-200.000	-0.039	0.294
-134.385	800.000	-0.030	-0.130
-133.370	366.572	0.124	0.247
-132.356	800.000	-0.046	0.148
-131.341	82.152	0.129	0.137
-130.326	95.365	0.196	0.220
-129.312	-63.651	-0.287	0.116
-128.297	800.000	0.035	-0.113
-127.283	179.617	-0.037	0.053
-126.268	170.061	0.193	-0.272
-125.253	-118.576	0.278	-0.048
-124.239	146.177	0.249	-0.329
-123.224	-200.000	-0.058	-0.338
-122.210	225.499	-0.058	0.092
-121.195	535.873	0.153	0.357
