DTS Sentinel unit serial number:	SN413079Multiplexer serial number:	ORYXHardware model number:	OX4-SRSoftware version number:	ORYX F/W v4.00 Oryx Data Collector v3.7.2.0data status	okinstallation	princeton_trtdifferential loss correction	single-endedforward channel	channel 1reverse channel	N/Adate	2019/09/11time	18:32:11forward acquisition time	60.00reverse acquisition time	0.00gamma	496.2192k internal	0.2290k external	0.2290temperature offset calibration	1.0003default loss term (dB/km)	0.3790temperature slope calibration	1.0000multiplexer offset coefficient	1.0000multiplexer slope coefficient	1.0000fibre end	0.00T internal ref (°C)	43.81T ext. ref 1 (°C)	1.18T ext. ref 2 (°C)	37.25length (m)	temperature (°C)	Stokes	anti-Stokes-747.200	-200.000	0.058	-0.338
-746.185	-78.521	0.066	-0.023
-745.171	72.828	0.222	0.237
-744.156	112.682	-0.209	0.259
-743.142	471.611	0.028	0.065
-742.127	-38.663	-0.242	-0.131
-741.112	466.549	0.050	0.115
-740.098	-200.000	-0.009	0.507
-739.083	217.209	0.083	-0.136
-738.069	-200.000	-0.020	0.368
-737.054	-200.000	-0.027	-0.264
-736.039	-36.484	-0.237	0.130
-735.025	58.234	0.303	-0.304
-734.010	325.227	-0.062	-0.121
-732.996	440.523	-0.090	0.201
-731.981	800.000	0.066	-0.235
-730.966	711.147	0.126	-0.342
-729.952	615.229	0.114	0.292
-728.937	441.834	-0.048	0.108
-727.923	-200.000	-0.037	-0.334
-726.908	259.123	-0.079	-0.139
-725.894	-106.616	0.077	-0.018
-724.879	-131.979	-0.032	0.004
-723.864	244.233	0.058	-0.101
-722.850	-86.685	-0.197	-0.062
-721.835	771.912	0.027	-0.075
-720.821	385.699	-0.128	-0.271
-719.806	-135.753	-0.254	-0.031
-718.791	43.412	-0.270	0.252
-717.777	800.000	-0.128	-0.490
-716.762	-23.504	-0.217	0.133
-715.748	-112.867	-0.298	-0.060
-714.733	-76.763	-0.157	-0.056
-713.718	149.851	-0.093	0.128
-712.704	131.688	-0.131	-0.173
-711.689	102.185	-0.049	-0.058
-710.675	-133.758	-0.164	-0.021
-709.660	-82.934	-0.532	-0.176
-708.645	-199.848	-0.093	0.000
-707.631	-59.819	-0.033	-0.015
-706.616	207.729	0.143	-0.229
-705.602	800.000	-0.065	-0.258
-704.587	-200.000	0.020	0.266
-703.572	45.314	-0.165	-0.156
-702.558	-70.758	-0.461	0.178
-701.543	800.000	-0.026	-0.075
-700.529	57.750	0.146	0.146
-699.514	-111.444	-0.134	-0.028
-698.499	-97.336	-0.428	0.114
-697.485	109.823	0.139	0.171
-696.470	-14.542	-0.158	-0.104
-695.456	-8.813	0.235	-0.161
-694.441	69.596	-0.184	0.194
-693.426	-142.701	-0.241	0.024
-692.412	-136.597	0.025	0.003
-691.397	51.692	0.335	-0.326
-690.383	-200.000	-0.036	-0.171
-689.368	-118.055	-0.260	0.047
-688.354	-48.615	0.202	0.099
-687.339	-9.223	0.068	0.046
-686.324	326.491	0.187	-0.365
-685.310	-102.260	0.050	-0.012
-684.295	102.878	-0.084	0.100
-683.281	-162.571	-0.080	0.004
-682.266	-65.742	-0.211	0.086
-681.251	240.375	-0.100	0.171
-680.237	-200.000	0.042	0.262
-679.222	-26.995	-0.182	-0.108
-678.208	685.258	0.074	-0.197
-677.193	800.000	0.069	-0.204
-676.178	-105.835	0.080	-0.019
-675.164	-200.000	-0.010	0.574
-674.149	16.875	-0.067	0.054
-673.135	507.211	-0.070	-0.165
-672.120	3.162	0.227	0.168
-671.105	-120.703	-0.399	-0.069
-670.091	-97.794	0.345	0.091
-669.076	145.380	0.227	-0.310
-668.062	-99.670	0.288	-0.074
-667.047	-7.875	0.163	-0.112
-666.032	-129.778	0.266	-0.037
-665.018	-200.000	-0.000	-0.020
-664.003	800.000	-0.027	-0.088
-662.989	-158.038	-0.425	0.026
-661.974	-127.351	-0.410	-0.061
-660.959	-167.702	-0.021	-0.001
-659.945	348.705	-0.192	-0.387
-658.930	800.000	-0.108	0.342
-657.916	32.552	-0.318	-0.281
-656.901	58.139	-0.060	-0.060
-655.886	-76.356	-0.246	0.088
-654.872	410.011	-0.078	-0.170
-653.857	-82.692	0.312	0.103
-652.843	-136.151	-0.218	-0.026
-651.828	235.321	-0.064	0.108
-650.814	-41.405	-0.107	-0.056
-649.799	95.757	-0.140	0.163
-648.784	7.480	0.450	0.343
-647.770	276.510	0.148	-0.268
-646.755	-200.000	-0.021	-0.184
-645.741	371.876	-0.070	0.146
-644.726	-10.291	0.243	0.165
-643.711	-200.000	-0.029	-0.204
-642.697	149.936	0.017	0.023
-641.682	72.638	-0.061	-0.065
-640.668	-127.096	-0.552	-0.083
-639.653	-54.242	-0.112	-0.052
-638.638	-56.789	0.231	0.104
-637.624	-3.249	0.073	-0.052
-636.609	-60.622	-0.171	0.074
-635.595	46.482	-0.181	-0.171
-634.580	263.392	-0.084	0.148
-633.565	-85.072	0.233	0.074
-632.551	-179.448	-0.125	-0.003
-631.536	-42.074	0.283	0.147
-630.522	-158.637	0.177	-0.010
-629.507	150.064	-0.060	0.083
-628.492	16.376	-0.242	0.194
-627.478	-147.002	-0.201	-0.018
-626.463	-130.285	0.201	-0.028
-625.449	-200.000	0.025	0.353
-624.434	-161.420	0.205	-0.011
-623.419	800.000	-0.046	-0.192
-622.405	83.002	-0.094	-0.104
-621.390	-50.266	-0.321	-0.155
-620.376	287.864	0.080	-0.148
-619.361	31.818	0.065	-0.057
-618.346	-142.222	0.253	-0.025
-617.332	41.441	-0.102	-0.094
-616.317	684.204	0.131	-0.349
-615.303	6.479	0.144	-0.109
-614.288	-200.000	-0.006	-0.215
-613.273	800.000	-0.054	-0.157
-612.259	-200.000	0.011	-0.183
-611.244	-200.000	0.008	-0.138
-610.230	-85.771	-0.132	-0.042
-609.215	-51.692	-0.296	0.141
-608.201	460.256	-0.041	0.092
-607.186	57.644	-0.049	-0.049
-606.171	564.136	0.059	0.146
-605.157	201.585	-0.113	-0.178
-604.142	43.026	-0.026	0.024
-603.128	-27.542	0.118	-0.070
-602.113	-128.038	0.225	-0.033
-601.098	-5.560	0.330	-0.231
-600.084	-65.356	0.125	0.051
-599.069	-200.000	-0.007	0.177
-598.055	-200.000	0.034	0.175
-597.040	16.216	-0.060	-0.048
-596.025	-130.945	-0.157	0.021
-595.011	57.099	0.179	-0.178
-593.996	133.056	-0.083	0.109
-592.982	800.000	0.075	-0.296
-591.967	-200.000	-0.005	-0.058
-590.952	-200.000	0.011	-0.083
-589.938	227.173	0.186	-0.308
-588.923	71.537	0.085	-0.090
-587.909	-200.000	-0.034	0.159
-586.894	-200.000	0.090	0.435
-585.879	-90.119	0.338	-0.100
-584.865	-34.535	0.309	-0.172
-583.850	206.371	0.066	0.104
-582.836	358.794	-0.083	0.169
-581.821	18.704	0.107	-0.087
-580.806	-2.314	0.255	-0.182
-579.792	63.984	0.056	0.057
-578.777	-128.401	-0.018	0.003
-577.763	-29.454	-0.351	0.204
-576.748	604.684	-0.027	0.068
-575.733	-200.000	0.029	-0.254
-574.719	-50.387	0.473	0.228
-573.704	-200.000	0.017	-0.161
-572.690	25.068	0.284	-0.240
-571.675	243.411	0.069	0.118
-570.661	800.000	-0.069	-0.290
-569.646	-200.000	0.023	0.176
-568.631	-3.146	0.342	0.243
-567.617	-200.000	0.026	0.514
-566.602	-15.388	0.148	0.096
-565.588	268.634	-0.051	-0.091
-564.573	-69.422	-0.379	-0.148
-563.558	-109.892	-0.359	-0.077
-562.544	-75.838	0.263	-0.095
-561.529	-36.249	-0.099	-0.054
-560.515	-66.851	-0.176	-0.071
-559.500	-90.860	-0.101	-0.029
-558.485	367.208	0.029	0.059
-557.471	-41.660	-0.159	-0.083
-556.456	-62.983	-0.058	-0.024
-555.442	81.547	0.090	0.099
-554.427	-60.111	-0.073	-0.032
-553.412	279.409	-0.164	-0.298
-552.398	548.318	0.119	-0.290
-551.383	59.944	0.222	-0.223
-550.369	205.114	-0.249	-0.393
-549.354	-151.852	-0.086	0.006
-548.339	797.089	-0.040	0.111
-547.325	347.919	-0.035	0.070
-546.310	122.739	0.069	-0.087
-545.296	-86.351	0.134	-0.042
-544.281	-200.000	-0.004	0.179
-543.266	159.196	-0.067	-0.095
-542.252	800.000	-0.014	-0.053
-541.237	317.737	-0.134	-0.257
-540.223	-121.295	0.297	-0.050
-539.208	87.023	-0.286	-0.322
-538.193	258.602	0.122	0.214
-537.179	500.256	0.157	-0.369
-536.164	117.962	-0.183	0.229
-535.150	36.928	0.213	-0.191
-534.135	-22.943	-0.271	0.166
-533.121	800.000	-0.087	0.278
-532.106	-60.993	-0.245	-0.105
-531.091	800.000	0.040	-0.172
-530.077	-99.766	-0.401	0.102
-529.062	174.897	0.228	-0.335
-528.048	800.000	-0.069	-0.243
-527.033	156.513	-0.101	0.141
-526.018	335.133	-0.037	0.073
-525.004	800.000	-0.072	-0.277
-523.989	-200.000	-0.027	0.176
-522.975	-143.334	-0.204	-0.020
-521.960	-10.414	-0.195	0.131
-520.945	-146.468	-0.176	-0.016
-519.931	16.111	-0.202	-0.162
-518.916	139.598	0.196	-0.262
-517.902	-200.000	0.031	-0.326
-516.887	-200.000	-0.024	-0.392
-515.872	-55.342	-0.322	0.147
-514.858	184.438	0.188	0.283
-513.843	800.000	0.061	0.209
-512.829	-94.990	0.158	0.043
-511.814	800.000	0.113	0.480
-510.799	-7.399	-0.250	-0.172
-509.785	467.119	-0.065	0.149
-508.770	-200.000	0.037	0.273
-507.756	-74.541	0.160	0.059
-506.741	-144.412	-0.279	0.026
-505.726	11.077	-0.274	-0.212
-504.712	-170.121	-0.264	0.010
-503.697	-200.000	0.077	-0.366
-502.683	647.202	-0.076	0.198
-501.668	-31.770	0.223	0.127
-500.653	46.624	-0.051	-0.048
-499.639	447.817	0.158	-0.353
-498.624	37.679	-0.073	-0.066
-497.610	62.910	-0.107	0.109
-496.595	140.337	-0.339	0.453
-495.581	-170.390	0.018	0.001
-494.566	-200.000	0.009	0.204
-493.551	-42.242	0.136	-0.071
-492.537	-26.808	-0.220	0.130
-491.522	-32.769	-0.180	0.101
-490.508	-23.027	-0.121	-0.074
-489.493	125.950	-0.141	0.180
-488.478	248.057	-0.059	-0.101
-487.464	-123.021	-0.305	0.050
-486.449	-148.228	-0.320	-0.027
-485.435	-138.222	0.307	-0.035
-484.420	-27.546	0.239	-0.141
-483.405	-45.815	-0.201	0.101
-482.391	-200.000	0.027	0.222
-481.376	-200.000	-0.058	-0.307
-480.362	-200.000	-0.029	0.235
-479.347	229.334	0.163	0.270
-478.332	-200.000	-0.030	0.137
-477.318	-46.859	-0.098	0.048
-476.303	800.000	-0.087	0.311
-475.289	-127.001	0.065	0.010
-474.274	800.000	0.109	0.330
-473.259	680.961	0.088	0.233
-472.245	800.000	0.089	0.269
-471.230	-200.000	0.010	0.076
-470.216	-18.434	0.243	0.154
-469.201	-34.512	0.184	0.102
-468.186	389.645	0.085	0.179
-467.172	402.648	0.180	-0.384
-466.157	-115.540	0.054	-0.010
-465.143	-37.146	-0.085	0.046
-464.128	-100.982	0.158	0.039
-463.113	800.000	0.029	-0.093
-462.099	-105.520	0.245	-0.056
-461.084	3.076	-0.127	0.093
-460.070	-200.000	-0.029	-0.158
-459.055	-61.584	-0.261	0.111
-458.040	800.000	0.063	-0.181
-457.026	-72.714	-0.219	-0.082
-456.011	-74.145	0.222	-0.082
-454.997	62.260	0.031	0.031
-453.982	-193.608	0.311	0.003
-452.968	800.000	-0.013	-0.054
-451.953	800.000	0.059	-0.197
-450.938	-108.953	0.188	0.041
-449.924	244.583	0.145	-0.247
-448.909	177.333	-0.102	-0.150
-447.895	800.000	0.103	-0.313
-446.880	0.317	0.297	0.215
-445.865	-166.989	-0.219	0.009
-444.851	-94.301	0.183	-0.051
-443.836	800.000	0.042	-0.179
-442.822	299.954	0.185	-0.346
-441.807	126.594	-0.145	-0.186
-440.792	-200.000	0.022	0.108
-439.778	260.749	-0.050	-0.087
-438.763	-85.018	-0.189	0.060
-437.749	-200.000	0.081	0.471
-436.734	-155.536	-0.207	0.014
-435.719	54.068	-0.072	-0.070
-434.705	-89.160	-0.278	0.083
-433.690	-75.567	0.105	0.038
-432.676	-145.363	0.056	0.005
-431.661	-51.664	-0.369	-0.174
-430.646	-32.107	0.198	-0.112
-429.632	-50.159	0.116	0.056
-428.617	21.443	-0.392	0.323
-427.603	42.321	-0.112	-0.103
-426.588	150.151	-0.081	-0.112
-425.573	172.229	0.093	-0.135
-424.559	9.852	-0.027	0.021
-423.544	-200.000	-0.050	-0.226
-422.530	-93.640	-0.182	-0.051
-421.515	800.000	-0.064	0.201
-420.500	-111.634	-0.111	-0.023
-419.486	-88.330	0.211	-0.064
-418.471	59.119	0.136	-0.135
-417.457	49.032	-0.245	-0.233
-416.442	34.209	0.100	0.088
-415.428	627.035	0.055	0.141
-414.413	36.927	0.055	-0.049
-413.398	746.419	0.035	-0.097
-412.384	580.407	0.077	0.190
-411.369	800.000	0.056	-0.210
-410.355	341.283	-0.069	-0.137
-409.340	-200.000	0.026	-0.125
-408.325	-200.000	-0.057	-0.290
-407.311	-94.853	0.182	-0.050
-406.296	800.000	0.029	0.108
-405.282	142.288	0.061	-0.081
-404.267	-80.808	-0.119	0.040
-403.252	473.616	-0.088	0.200
-402.238	-200.000	0.026	-0.154
-401.223	5.988	-0.278	0.208
-400.209	23.660	0.195	-0.162
-399.194	47.676	-0.229	-0.216
-398.179	800.000	-0.050	-0.168
-397.165	-159.643	-0.282	0.016
-396.150	-125.068	-0.217	0.034
-395.136	-41.287	-0.198	0.103
-394.121	118.788	0.195	-0.244
-393.106	-94.353	0.337	-0.093
-392.092	800.000	0.047	0.147
-391.077	350.049	-0.054	0.107
-390.063	-200.000	0.011	-0.204
-389.048	94.243	-0.212	-0.243
-388.033	11.434	-0.174	-0.134
-387.019	800.000	0.050	0.166
-386.004	394.997	-0.060	0.127
-384.990	621.588	0.081	0.206
-383.975	-200.000	-0.011	0.325
-382.960	-155.391	-0.208	-0.014
-381.946	-3.530	-0.220	0.154
-380.931	57.892	0.135	-0.134
-379.917	-71.777	-0.442	0.166
-378.902	81.464	-0.074	-0.081
-377.888	-160.374	-0.154	0.008
-376.873	-49.278	0.209	0.101
-375.858	71.936	0.205	-0.216
-374.844	-132.161	0.170	0.022
-373.829	800.000	-0.144	-0.405
-372.815	169.047	0.112	-0.162
-371.800	674.296	0.224	0.586
-370.785	1.080	0.075	0.055
-369.771	151.607	-0.071	0.098
-368.756	430.750	0.064	0.139
-367.742	193.611	0.165	0.252
-366.727	-62.637	-0.031	-0.013
-365.712	12.740	-0.103	-0.080
-364.698	-77.252	-0.132	0.046
-363.683	145.630	0.091	0.123
-362.669	269.619	-0.174	0.309
-361.654	-200.000	-0.007	0.034
-360.639	-200.000	0.002	-0.168
-359.625	656.690	0.098	-0.253
-358.610	-80.264	-0.233	-0.079
-357.596	-200.000	-0.001	-0.091
-356.581	14.590	-0.433	-0.341
-355.566	-132.958	-0.123	-0.016
-354.552	-200.000	0.040	-0.346
-353.537	-76.677	-0.231	-0.082
-352.523	58.433	0.153	-0.151
-351.508	-124.818	0.361	-0.056
-350.493	-200.000	0.018	-0.114
-349.479	800.000	0.130	-0.395
-348.464	-200.000	-0.037	0.244
-347.450	-4.322	-0.188	-0.131
-346.435	-200.000	-0.027	-0.226
-345.420	-66.317	0.241	0.097
-344.406	-106.893	0.271	-0.060
-343.391	-73.302	-0.305	0.112
-342.377	-101.664	-0.327	0.080
-341.362	495.860	-0.122	0.283
-340.348	800.000	-0.043	0.145
-339.333	-3.158	0.298	0.209
-338.318	-200.000	0.031	-0.284
-337.304	15.225	-0.232	-0.184
-336.289	172.130	-0.107	0.155
-335.275	14.281	0.241	-0.190
-334.260	205.885	-0.063	-0.099
-333.245	-163.460	0.329	0.016
-332.231	72.842	-0.054	-0.057
-331.216	549.297	0.048	0.116
-330.202	-200.000	-0.015	0.109
-329.187	42.361	-0.009	-0.009
-328.172	449.334	0.038	-0.085
-327.158	-145.124	0.052	0.005
-326.143	-143.478	-0.415	0.040
-325.129	28.562	0.168	0.143
-324.114	159.163	-0.057	-0.080
-323.099	237.691	0.152	0.254
-322.085	-119.757	0.214	0.037
-321.070	-149.959	0.141	-0.011
-320.056	-107.028	-0.295	-0.066
-319.041	-14.922	-0.264	0.171
-318.026	742.823	0.149	0.404
-317.012	169.698	0.042	-0.061
-315.997	-41.337	-0.225	0.117
-314.983	17.646	0.203	0.162
-313.968	-51.181	-0.225	-0.106
-312.953	304.941	-0.063	-0.119
-311.939	-82.243	0.298	-0.098
-310.924	382.441	0.048	-0.100
-309.910	-150.515	-0.310	0.024
-308.895	78.522	0.189	0.204
-307.880	555.023	-0.026	-0.063
-306.866	-74.363	-0.161	0.059
-305.851	-8.610	0.390	-0.264
-304.837	97.927	0.046	-0.053
-303.822	-88.660	-0.079	0.024
-302.807	-155.149	-0.331	-0.022
-301.793	-200.000	-0.016	0.144
-300.778	-138.683	-0.271	0.030
-299.764	-25.871	-0.153	-0.091
-298.749	800.000	0.118	-0.380
-297.735	295.618	-0.021	0.039
-296.720	800.000	0.075	0.225
-295.705	-74.917	-0.161	-0.058
-294.691	-200.000	0.023	0.140
-293.676	168.282	-0.107	-0.153
-292.662	-66.726	0.056	0.022
-291.647	404.299	0.110	-0.234
-290.632	498.081	0.029	-0.067
-289.618	-3.697	-0.363	0.254
-288.603	-99.928	-0.460	0.116
-287.589	118.620	0.073	0.091
-286.574	800.000	0.020	0.060
-285.559	158.319	-0.123	0.172
-284.545	800.000	-0.053	0.170
-283.530	-8.671	-0.087	-0.059
-282.516	-175.100	-0.076	0.002
-281.501	259.304	0.145	-0.251
-280.486	326.464	0.089	0.171
-279.472	-50.219	0.419	0.199
-278.457	440.010	0.129	-0.285
-277.443	-200.000	-0.035	-0.195
-276.428	118.352	-0.053	-0.066
-275.413	19.133	0.212	-0.171
-274.399	-70.360	0.296	0.113
-273.384	-200.000	-0.050	-0.424
-272.370	-115.548	0.199	-0.038
-271.355	-49.252	0.204	0.098
-270.340	483.581	0.094	0.215
-269.326	-200.000	0.004	0.092
-268.311	-83.286	0.116	-0.037
-267.297	800.000	0.059	-0.247
-266.282	538.612	0.126	0.301
-265.267	-134.981	0.242	0.029
-264.253	18.980	0.158	0.127
-263.238	-54.854	0.302	0.137
-262.224	-61.159	-0.294	0.125
-261.209	-46.704	-0.360	0.177
-260.195	342.204	-0.146	0.286
-259.180	-138.405	-0.439	-0.049
-258.165	-200.000	-0.088	0.439
-257.151	-111.004	0.160	0.033
-256.136	-146.516	-0.236	0.021
-255.122	74.293	-0.203	-0.214
-254.107	-6.024	0.211	-0.145
-253.092	-101.098	0.146	-0.036
-252.078	800.000	-0.036	-0.139
-251.063	57.678	0.120	0.118
-250.049	-99.746	0.195	-0.049
-249.034	72.434	-0.241	-0.253
-248.019	800.000	0.069	-0.280
-247.005	16.823	0.356	0.283
-245.990	-170.836	-0.421	-0.015
-244.976	-30.574	0.113	0.064
-243.961	-17.796	0.157	-0.099
-242.946	-69.468	0.115	0.044
-241.932	77.059	-0.074	-0.079
-240.917	-200.000	0.007	0.038
-239.903	346.600	-0.089	-0.176
-238.888	800.000	-0.070	0.258
-237.873	136.097	-0.027	0.036
-236.859	-97.012	0.246	0.065
-235.844	-24.987	0.294	0.175
-234.830	-133.729	-0.214	-0.027
-233.815	734.200	-0.180	-0.485
-232.800	-200.000	-0.023	-0.147
-231.786	-200.000	0.027	-0.189
-230.771	-200.000	-0.018	0.473
-229.757	-23.449	-0.245	0.148
-228.742	-8.445	-0.284	0.191
-227.727	-141.457	0.210	-0.021
-226.713	-39.596	-0.136	0.071
-225.698	361.976	-0.158	-0.318
-224.684	327.333	-0.157	-0.303
-223.669	72.863	0.078	0.081
-222.655	319.861	-0.150	0.286
-221.640	-186.891	-0.189	-0.003
-220.625	800.000	0.088	0.297
-219.611	295.460	-0.059	0.109
-218.596	400.900	-0.012	-0.025
-217.582	-200.000	0.003	-0.164
-216.567	24.254	0.116	0.096
-215.552	600.769	0.105	0.262
-214.538	-100.719	0.218	0.054
-213.523	-141.889	-0.159	0.016
-212.509	-200.000	-0.006	0.058
-211.494	125.798	0.020	0.025
-210.479	-89.174	0.302	0.090
-209.465	-78.108	-0.109	-0.038
-208.450	59.567	0.071	0.070
-207.436	800.000	0.117	0.328
-206.421	-200.000	0.065	0.405
-205.406	-200.000	-0.045	-0.384
-204.392	-65.894	-0.109	-0.044
-203.377	570.206	-0.159	0.389
-202.363	-8.240	0.080	-0.054
-201.348	-200.000	0.005	-0.352
-200.333	800.000	-0.061	-0.262
-199.319	23.090	-0.159	-0.131
-198.304	-90.950	0.161	0.046
-197.290	-88.903	-0.103	0.031
-196.275	-200.000	-0.029	-0.139
-195.260	-200.000	0.037	0.177
-194.246	-29.674	-0.401	0.230
-193.231	138.490	-0.119	-0.157
-192.217	339.851	-0.068	-0.133
-191.202	-123.749	-0.036	0.006
-190.187	222.444	0.093	-0.150
-189.173	27.789	0.099	0.084
-188.158	-135.658	0.158	-0.019
-187.144	177.037	-0.048	0.070
-186.129	-8.824	-0.198	0.133
-185.114	86.373	0.268	-0.296
-184.100	105.081	-0.155	-0.184
-183.085	57.350	0.201	-0.197
-182.071	217.352	-0.147	-0.235
-181.056	-67.433	0.274	0.108
-180.042	-50.353	0.310	0.147
-179.027	-3.894	0.287	0.199
-178.012	-200.000	0.026	0.479
-176.998	-70.441	0.176	0.067
-175.983	533.672	0.053	-0.126
-174.969	394.471	-0.098	0.205
-173.954	213.859	0.218	0.345
-172.939	-51.292	-0.242	0.114
-171.925	194.334	0.083	-0.126
-170.910	722.151	0.073	0.194
-169.896	246.405	0.087	-0.146
-168.881	-200.000	0.000	0.034
-167.866	418.831	0.121	0.260
-166.852	-200.000	0.005	0.156
-165.837	-95.092	-0.110	-0.030
-164.823	-107.934	0.256	-0.056
-163.808	116.938	0.251	-0.309
-162.793	17.428	0.273	-0.217
-161.779	-180.850	0.381	0.008
-160.764	15.315	0.061	0.048
-159.750	-74.028	0.115	-0.042
-158.735	-179.159	-0.118	-0.003
-157.720	177.993	0.099	0.144
-156.706	488.124	0.038	0.086
-155.691	-200.000	0.022	0.682
-154.677	-115.576	0.187	0.035
-153.662	153.173	0.158	0.217
-152.647	90.327	-0.100	0.112
-151.633	412.221	0.129	0.274
-150.618	-99.423	-0.089	-0.023
-149.604	467.024	-0.068	0.152
-148.589	-138.869	-0.173	0.019
-147.574	800.000	-0.052	-0.173
-146.560	48.805	-0.219	-0.206
-145.545	-35.511	-0.071	0.039
-144.531	290.522	0.080	0.145
-143.516	800.000	0.057	-0.216
-142.502	-200.000	-0.058	-0.310
-141.487	-200.000	0.042	-0.437
-140.472	142.968	-0.065	-0.086
-139.458	-136.319	-0.127	-0.015
-138.443	171.731	-0.115	0.165
-137.429	-200.000	0.055	0.308
-136.414	12.208	-0.042	0.032
-135.399	-92.042	0.312	0.088
-134.385	800.000	-0.018	0.076
-133.370	-16.676	-0.270	-0.171
-132.356	-65.916	0.410	-0.164
-131.341	100.326	0.010	-0.011
-130.326	-6.698	-0.268	0.182
-129.312	-92.596	0.275	0.077
-128.297	251.982	0.198	-0.337
-127.283	656.702	-0.093	-0.238
-126.268	800.000	0.064	0.256
-125.253	23.199	0.216	0.177
-124.239	15.199	-0.116	-0.091
-123.224	-80.586	0.112	0.037
-122.210	-152.627	0.022	-0.002
-121.195	800.000	0.074	-0.221
