DTS Sentinel unit serial number:	SN413079Multiplexer serial number:	ORYXHardware model number:	OX4-SRSoftware version number:	ORYX F/W v4.00 Oryx Data Collector v3.7.2.0data status	okinstallation	princeton_trtdifferential loss correction	single-endedforward channel	channel 1reverse channel	N/Adate	2019/09/15time	10:06:35forward acquisition time	60.00reverse acquisition time	0.00gamma	496.2192k internal	0.2309k external	0.2309temperature offset calibration	0.9987default loss term (dB/km)	0.3790temperature slope calibration	1.0000multiplexer offset coefficient	1.0000multiplexer slope coefficient	1.0000fibre end	0.00T internal ref (°C)	34.19T ext. ref 1 (°C)	5.02T ext. ref 2 (°C)	29.98length (m)	temperature (°C)	Stokes	anti-Stokes-747.200	-200.000	0.043	0.500
-746.185	287.540	-0.126	0.232
-745.171	-120.518	-0.269	0.046
-744.156	800.000	0.032	-0.119
-743.142	-200.000	0.028	0.168
-742.127	-200.000	0.006	-0.145
-741.112	-65.205	0.205	-0.084
-740.098	-200.000	-0.006	0.157
-739.083	-200.000	0.062	0.306
-738.069	134.858	0.132	0.174
-737.054	188.247	0.063	0.096
-736.039	-99.208	-0.314	-0.081
-735.025	-200.000	0.052	0.303
-734.010	-200.000	-0.030	-0.301
-732.996	178.622	0.143	-0.212
-731.981	263.467	0.078	0.137
-730.966	-108.196	0.242	0.053
-729.952	75.358	-0.237	0.254
-728.937	-97.774	0.241	0.063
-727.923	163.635	-0.028	0.040
-726.908	-8.415	-0.192	-0.131
-725.894	160.619	0.065	0.093
-724.879	-200.000	0.053	-0.275
-723.864	565.411	0.101	-0.248
-722.850	800.000	0.148	-0.567
-721.835	352.583	0.097	-0.195
-720.821	-155.664	-0.317	-0.021
-719.806	279.700	-0.135	-0.244
-718.791	86.030	-0.345	-0.386
-717.777	-200.000	0.023	0.113
-716.762	-200.000	0.004	0.175
-715.748	529.577	-0.100	-0.239
-714.733	154.939	-0.199	0.278
-713.718	406.775	0.080	0.171
-712.704	235.569	-0.210	-0.352
-711.689	800.000	-0.112	-0.367
-710.675	-113.205	0.093	-0.019
-709.660	118.987	-0.054	0.067
-708.645	-101.307	0.120	-0.030
-707.631	-200.000	0.018	-0.163
-706.616	12.534	-0.161	-0.126
-705.602	-57.874	-0.318	-0.141
-704.587	-167.681	0.413	0.017
-703.572	88.852	-0.004	0.004
-702.558	55.552	0.029	0.029
-701.543	-200.000	-0.043	0.202
-700.529	41.849	0.106	-0.098
-699.514	-200.000	-0.000	0.215
-698.499	50.813	-0.160	0.154
-697.485	-35.653	0.220	-0.121
-696.470	224.911	-0.221	-0.362
-695.456	-98.580	-0.193	0.050
-694.441	-200.000	0.105	0.508
-693.426	773.984	-0.030	0.084
-692.412	739.097	-0.042	0.114
-691.397	-103.504	-0.145	-0.035
-690.383	-10.397	0.199	-0.134
-689.368	-76.240	-0.228	0.082
-688.354	-107.495	0.206	0.046
-687.339	-51.605	-0.188	-0.089
-686.324	-200.000	-0.004	-0.288
-685.310	-85.684	-0.378	-0.119
-684.295	-200.000	0.059	0.274
-683.281	271.095	0.045	0.081
-682.266	800.000	0.056	-0.207
-681.251	490.241	0.053	-0.122
-680.237	-200.000	0.025	-0.199
-679.222	235.812	-0.112	-0.188
-678.208	800.000	0.038	-0.114
-677.193	-93.743	-0.164	-0.046
-676.178	-33.931	-0.283	-0.158
-675.164	-135.553	-0.127	0.015
-674.149	800.000	0.012	0.053
-673.135	65.830	0.148	-0.152
-672.120	274.448	0.088	0.158
-671.105	-92.789	-0.204	-0.058
-670.091	-200.000	-0.011	-0.086
-669.076	-200.000	0.005	-0.302
-668.062	-62.844	0.203	-0.085
-667.047	-150.079	-0.073	-0.006
-666.032	-100.698	0.442	-0.110
-665.018	-200.000	0.010	0.287
-664.003	-86.269	-0.202	0.063
-662.989	-200.000	0.020	-0.181
-661.974	-156.735	-0.093	-0.006
-660.959	-7.710	0.118	0.081
-659.945	-200.000	-0.005	-0.073
-658.930	28.909	0.043	0.037
-657.916	800.000	0.142	-0.499
-656.901	-90.398	-0.297	-0.087
-655.886	-87.926	-0.438	-0.133
-654.872	212.068	-0.072	-0.115
-653.857	-200.000	-0.047	0.282
-652.843	665.143	0.072	-0.188
-651.828	151.684	0.187	0.258
-650.814	101.875	-0.047	0.055
-649.799	-97.570	-0.136	0.036
-648.784	136.915	-0.091	0.120
-647.770	-182.219	0.149	0.003
-646.755	800.000	-0.065	-0.184
-645.741	128.634	-0.099	0.127
-644.726	-86.522	-0.171	0.053
-643.711	-200.000	-0.022	-0.137
-642.697	0.592	0.289	-0.209
-641.682	324.745	-0.132	-0.255
-640.668	311.565	-0.179	-0.339
-639.653	-7.837	0.243	-0.166
-638.638	-104.801	-0.112	0.026
-637.624	215.516	0.135	-0.217
-636.609	-52.191	0.229	0.107
-635.595	-39.240	0.276	-0.147
-634.580	320.165	0.074	-0.143
-633.565	-200.000	0.028	-0.291
-632.551	800.000	-0.104	-0.455
-631.536	800.000	-0.025	0.087
-630.522	321.553	-0.176	-0.339
-629.507	38.639	0.319	0.288
-628.492	107.796	-0.093	-0.112
-627.478	-200.000	-0.054	-0.336
-626.463	453.114	0.057	-0.127
-625.449	-63.402	-0.203	0.084
-624.434	91.948	0.235	0.267
-623.419	40.373	-0.316	0.288
-622.405	212.749	-0.120	0.192
-621.390	-63.403	0.177	-0.074
-620.376	537.881	0.121	0.291
-619.361	520.412	-0.036	-0.086
-618.346	421.264	-0.050	-0.109
-617.332	19.918	0.122	-0.100
-616.317	628.420	0.073	0.186
-615.303	800.000	0.139	0.393
-614.288	-200.000	0.009	0.185
-613.273	-95.638	-0.358	0.097
-612.259	3.154	-0.294	-0.216
-611.244	136.747	-0.261	-0.345
-610.230	230.947	-0.089	0.147
-609.215	-77.965	0.192	0.067
-608.201	-107.325	-0.196	-0.044
-607.186	-63.251	-0.172	-0.072
-606.171	12.817	-0.139	-0.109
-605.157	590.081	-0.013	0.033
-604.142	-200.000	-0.007	-0.105
-603.128	-118.666	-0.158	-0.028
-602.113	-28.821	0.220	-0.128
-601.098	-133.457	0.082	-0.010
-600.084	-89.178	0.313	0.093
-599.069	-75.581	0.120	0.043
-598.055	-2.770	-0.172	0.121
-597.040	119.222	-0.072	-0.090
-596.025	800.000	0.069	-0.252
-595.011	-197.709	0.144	-0.001
-593.996	800.000	-0.026	0.076
-592.982	-59.872	-0.322	0.139
-591.967	-200.000	0.012	0.060
-590.952	-94.740	-0.171	-0.047
-589.938	-200.000	0.004	-0.317
-588.923	-102.774	-0.246	0.059
-587.909	-200.000	-0.059	0.316
-586.894	-200.000	-0.022	0.290
-585.879	-200.000	0.017	0.258
-584.865	17.085	-0.154	0.123
-583.850	468.170	-0.115	-0.260
-582.836	-144.350	-0.155	-0.015
-581.821	-100.310	0.080	0.020
-580.806	-200.000	0.043	0.209
-579.792	18.133	0.229	-0.184
-578.777	-92.942	-0.384	0.108
-577.763	-158.300	-0.097	-0.006
-576.748	5.083	0.125	-0.093
-575.733	-166.209	-0.113	0.005
-574.719	158.988	-0.092	-0.129
-573.704	697.691	0.028	0.073
-572.690	-29.499	0.137	-0.079
-571.675	-26.366	-0.132	-0.078
-570.661	147.898	-0.056	0.076
-569.646	-200.000	0.039	0.197
-568.631	-100.823	-0.317	0.079
-567.617	-200.000	0.441	-0.001
-566.602	-1.365	-0.125	0.089
-565.588	49.396	0.152	-0.145
-564.573	-126.627	0.170	-0.025
-563.558	237.361	-0.112	-0.187
-562.544	-114.829	0.103	0.020
-561.529	317.907	-0.123	0.234
-560.515	-139.205	0.199	0.022
-559.500	30.521	-0.161	0.139
-558.485	688.505	0.073	-0.192
-557.471	281.480	-0.133	-0.240
-556.456	-200.000	0.034	0.362
-555.442	115.197	-0.167	-0.206
-554.427	187.895	0.114	0.172
-553.412	800.000	-0.056	0.189
-552.398	66.092	0.346	-0.354
-551.383	78.831	-0.209	-0.226
-550.369	42.159	0.177	0.162
-549.354	-117.884	0.279	-0.050
-548.339	41.821	0.101	-0.092
-547.325	-63.373	-0.211	0.088
-546.310	228.583	-0.091	0.150
-545.296	390.947	0.227	-0.475
-544.281	-200.000	0.010	-0.281
-543.266	-146.217	-0.076	0.007
-542.252	429.805	-0.084	0.183
-541.237	-127.218	0.147	-0.022
-540.223	-88.328	0.174	0.052
-539.208	-88.890	-0.228	0.068
-538.193	-111.842	0.427	0.087
-537.179	-59.552	-0.185	0.080
-536.164	-39.248	0.111	0.058
-535.150	4.829	0.175	0.130
-534.135	-108.124	-0.286	0.063
-533.121	-200.000	-0.053	-0.256
-532.106	-200.000	-0.015	-0.220
-531.091	-200.000	0.079	0.514
-530.077	-81.135	0.296	0.099
-529.062	-118.971	0.239	-0.042
-528.048	-56.174	-0.206	0.092
-527.033	593.284	0.109	0.272
-526.018	477.034	-0.119	0.270
-525.004	-200.000	0.005	0.033
-523.989	-200.000	-0.040	0.228
-522.975	268.734	0.225	0.397
-521.960	-200.000	0.054	-0.335
-520.945	581.086	-0.104	-0.256
-519.931	-200.000	0.002	0.067
-518.916	-88.861	-0.273	-0.082
-517.902	-25.164	0.179	-0.107
-516.887	93.427	-0.151	0.172
-515.872	-95.608	0.140	-0.038
-514.858	-60.824	0.144	0.061
-513.843	-88.547	0.149	0.045
-512.829	-144.957	0.033	0.003
-511.814	96.217	0.156	0.179
-510.799	-200.000	0.073	-0.330
-509.785	306.271	0.003	0.007
-508.770	136.072	0.123	0.162
-507.756	-200.000	-0.010	0.240
-506.741	-200.000	-0.016	0.369
-505.726	-200.000	0.039	0.376
-504.712	58.017	0.167	-0.165
-503.697	-68.324	0.070	0.027
-502.683	199.443	-0.103	-0.159
-501.668	-200.000	0.027	-0.357
-500.653	-70.310	0.233	0.089
-499.639	-200.000	0.087	-0.419
-498.624	159.773	-0.169	-0.237
-497.610	800.000	0.138	-0.505
-496.595	-200.000	0.016	-0.092
-495.581	167.790	-0.011	0.016
-494.566	800.000	0.071	-0.198
-493.551	208.451	-0.111	0.175
-492.537	-80.189	-0.158	-0.053
-491.522	-32.048	0.022	0.012
-490.508	800.000	-0.116	0.345
-489.493	-42.250	-0.200	-0.103
-488.478	-27.225	-0.130	-0.076
-487.464	-28.987	-0.048	-0.028
-486.449	800.000	-0.104	-0.389
-485.435	25.204	0.055	-0.046
-484.420	800.000	-0.028	-0.121
-483.405	-60.707	0.321	-0.137
-482.391	-43.535	-0.055	0.028
-481.376	338.192	0.017	-0.034
-480.362	489.842	0.187	-0.429
-479.347	-77.294	0.156	0.054
-478.332	-200.000	-0.009	-0.109
-477.318	-184.292	-0.063	0.001
-476.303	-60.507	0.369	0.158
-475.289	174.293	-0.161	0.234
-474.274	44.890	0.213	0.198
-473.259	-141.119	0.116	-0.012
-472.245	160.718	-0.119	0.166
-471.230	90.598	0.106	-0.119
-470.216	-49.966	0.283	0.135
-469.201	-200.000	-0.007	0.052
-468.186	298.719	-0.053	-0.099
-467.172	-71.274	0.293	-0.110
-466.157	-200.000	-0.043	0.333
-465.143	-58.901	-0.085	0.037
-464.128	22.422	0.047	-0.038
-463.113	23.750	0.233	0.193
-462.099	-169.393	-0.171	-0.006
-461.084	22.880	-0.112	-0.092
-460.070	-45.333	-0.440	-0.219
-459.055	-70.143	-0.291	0.111
-458.040	800.000	0.071	0.222
-457.026	574.812	0.117	0.286
-456.011	-39.397	-0.190	-0.100
-454.997	-146.293	-0.165	-0.015
-453.982	82.858	0.025	0.028
-452.968	-82.158	-0.201	-0.066
-451.953	800.000	0.012	0.037
-450.938	-123.212	0.305	0.049
-449.924	-200.000	-0.040	0.237
-448.909	-139.571	0.438	-0.047
-447.895	299.641	-0.104	0.193
-446.880	-116.520	0.256	-0.047
-445.865	-68.847	0.024	0.009
-444.851	-164.651	0.006	-0.000
-443.836	-77.878	-0.146	0.051
-442.822	157.537	0.323	-0.448
-441.807	800.000	0.089	-0.373
-440.792	-130.588	-0.102	-0.014
-439.778	319.837	-0.097	0.186
-438.763	51.067	-0.197	-0.187
-437.749	478.901	-0.217	-0.494
-436.734	371.270	-0.130	-0.264
-435.719	800.000	0.062	0.189
-434.705	800.000	0.019	-0.070
-433.690	-149.126	-0.069	-0.006
-432.676	800.000	-0.029	-0.117
-431.661	-200.000	0.032	0.335
-430.646	114.066	-0.279	0.341
-429.632	800.000	-0.042	0.142
-428.617	-23.857	-0.091	-0.055
-427.603	764.130	0.059	-0.160
-426.588	678.240	-0.056	0.145
-425.573	-8.333	-0.329	0.222
-424.559	-161.103	-0.260	-0.014
-423.544	53.746	-0.036	-0.035
-422.530	-200.000	0.034	0.269
-421.515	-5.525	-0.262	0.180
-420.500	353.327	-0.113	0.226
-419.486	-200.000	0.033	0.218
-418.471	204.539	-0.046	-0.072
-417.457	800.000	-0.058	-0.194
-416.442	-180.474	0.150	-0.003
-415.428	413.272	0.106	-0.227
-414.413	-81.319	-0.124	0.041
-413.398	6.174	-0.089	0.066
-412.384	-200.000	-0.019	0.271
-411.369	-75.044	-0.126	-0.045
-410.355	-68.979	-0.194	-0.075
-409.340	92.241	0.082	0.093
-408.325	8.089	-0.080	0.060
-407.311	-200.000	0.050	0.253
-406.296	-143.073	-0.166	0.016
-405.282	800.000	-0.090	0.325
-404.267	642.839	-0.101	-0.257
-403.252	54.407	0.208	0.201
-402.238	-19.605	-0.306	-0.190
-401.223	557.355	-0.120	-0.290
-400.209	800.000	-0.003	-0.012
-399.194	245.335	-0.054	-0.091
-398.179	800.000	-0.026	0.093
-397.165	635.543	-0.063	-0.161
-396.150	-29.828	-0.184	-0.105
-395.136	-29.535	0.167	0.095
-394.121	-68.252	-0.212	0.083
-393.106	-200.000	0.019	0.171
-392.092	-200.000	0.027	-0.236
-391.077	-95.922	0.258	0.069
-390.063	-156.937	0.102	0.006
-389.048	-41.468	-0.036	0.019
-388.033	449.953	0.148	0.328
-387.019	321.671	-0.081	-0.154
-386.004	-5.650	0.212	0.145
-384.990	55.186	0.180	0.174
-383.975	438.387	-0.073	-0.159
-382.960	-200.000	0.009	-0.048
-381.946	-200.000	0.081	0.385
-380.931	135.146	0.058	0.076
-379.917	-89.708	-0.041	0.012
-378.902	-57.070	-0.032	-0.014
-377.888	-114.301	-0.040	0.008
-376.873	-88.755	0.199	-0.059
-375.858	-125.282	-0.228	0.035
-374.844	169.125	-0.126	0.181
-373.829	40.906	-0.118	0.107
-372.815	85.058	0.119	-0.131
-371.800	-200.000	0.001	0.191
-370.785	344.937	-0.105	-0.206
-369.771	-139.270	0.095	0.010
-368.756	84.742	0.223	0.244
-367.742	-5.024	-0.208	0.143
-366.727	-200.000	0.009	0.263
-365.712	137.967	-0.250	0.328
-364.698	175.171	0.187	-0.272
-363.683	-68.996	-0.141	0.054
-362.669	-28.117	0.466	-0.270
-361.654	-200.000	0.018	0.288
-360.639	-87.618	0.241	0.073
-359.625	122.051	-0.037	-0.046
-358.610	269.092	-0.130	0.229
-357.596	800.000	0.099	-0.281
-356.581	-123.349	0.112	-0.018
-355.566	-200.000	0.030	-0.344
-354.552	-71.055	-0.255	-0.096
-353.537	-41.082	-0.171	0.088
-352.523	-32.720	-0.305	0.170
-351.508	23.636	0.195	0.160
-350.493	303.403	0.082	-0.152
-349.479	-163.733	-0.294	-0.014
-348.464	-192.309	-0.462	0.004
-347.450	-85.708	0.677	0.210
-346.435	85.530	-0.099	-0.109
-345.420	47.164	0.137	0.127
-344.406	-97.651	-0.234	0.061
-343.391	-54.943	0.167	-0.075
-342.377	-82.416	0.078	0.025
-341.362	-118.032	-0.048	0.009
-340.348	-89.881	0.275	0.080
-339.333	189.529	-0.047	0.070
-338.318	-200.000	-0.031	0.283
-337.304	214.245	0.007	0.011
-336.289	800.000	0.021	0.074
-335.275	800.000	0.052	-0.175
-334.260	-72.016	0.059	-0.022
-333.245	-26.688	0.253	-0.148
-332.231	-21.362	0.058	0.035
-331.216	800.000	-0.088	0.252
-330.202	21.016	0.222	0.180
-329.187	-86.211	0.381	0.117
-328.172	-191.650	0.112	-0.001
-327.158	-200.000	-0.006	-0.380
-326.143	-200.000	0.097	0.430
-325.129	-200.000	0.036	0.191
-324.114	114.036	0.204	-0.248
-323.099	26.842	-0.080	0.067
-322.085	271.862	0.086	0.151
-321.070	116.989	0.173	0.212
-320.056	-1.975	0.145	0.102
-319.041	-97.182	0.285	-0.074
-318.026	-200.000	-0.055	0.332
-317.012	57.762	0.115	-0.112
-315.997	-145.560	-0.321	-0.029
-314.983	-31.896	-0.056	-0.032
-313.968	163.142	0.197	0.277
-312.953	-200.000	0.040	0.313
-311.939	-80.070	0.170	0.057
-310.924	-88.009	0.109	-0.033
-309.910	-134.049	0.063	0.008
-308.895	-32.872	-0.087	0.048
-307.880	248.229	-0.181	-0.306
-306.866	362.959	-0.124	-0.249
-305.851	-200.000	-0.063	-0.423
-304.837	-134.798	-0.395	0.048
-303.822	-200.000	-0.008	0.230
-302.807	-200.000	-0.001	-0.129
-301.793	-38.101	-0.228	-0.121
-300.778	36.117	-0.217	-0.191
-299.764	119.292	0.085	-0.105
-298.749	-91.079	-0.156	-0.045
-297.735	-97.785	0.082	0.021
-296.720	-76.581	-0.120	0.042
-295.705	-200.000	0.035	-0.200
-294.691	-15.786	0.334	-0.212
-293.676	336.233	-0.088	-0.171
-292.662	800.000	-0.044	0.170
-291.647	-99.317	-0.096	-0.024
-290.632	-90.988	0.124	0.036
-289.618	-85.971	-0.150	0.046
-288.603	-200.000	-0.039	0.231
-287.589	-200.000	0.080	0.452
-286.574	-115.205	0.302	0.057
-285.559	-22.644	-0.423	-0.255
-284.545	8.024	0.127	-0.095
-283.530	800.000	-0.032	-0.120
-282.516	-200.000	-0.038	-0.263
-281.501	604.087	-0.207	0.513
-280.486	734.573	-0.107	0.285
-279.472	439.396	0.042	0.091
-278.457	-141.760	-0.190	-0.019
-277.443	521.690	-0.075	-0.175
-276.428	-137.998	-0.276	-0.031
-275.413	118.848	-0.174	-0.214
-274.399	-83.962	-0.112	0.036
-273.384	-91.546	0.134	-0.038
-272.370	130.758	0.207	-0.265
-271.355	230.992	0.047	-0.077
-270.340	-125.500	0.314	0.048
-269.326	171.208	0.067	-0.096
-268.311	570.934	0.156	-0.379
-267.297	510.852	0.058	0.135
-266.282	-56.257	-0.222	0.099
-265.267	-5.465	0.014	0.010
-264.253	693.675	0.048	-0.126
-263.238	-2.092	-0.057	0.040
-262.224	133.307	-0.095	-0.123
-261.209	176.420	0.190	0.275
-260.195	-200.000	0.009	-0.139
-259.180	-72.558	0.202	0.074
-258.165	-200.000	-0.003	0.034
-257.151	-69.156	-0.093	0.036
-256.136	-159.624	-0.185	-0.010
-255.122	-200.000	0.001	-0.053
-254.107	26.332	-0.169	-0.141
-253.092	-200.000	-0.027	0.200
-252.078	-200.000	-0.052	-0.243
-251.063	8.832	0.156	-0.117
-250.049	-26.511	-0.125	-0.073
-249.034	200.800	0.278	0.426
-248.019	277.760	0.012	0.021
-247.005	-200.000	-0.039	-0.242
-245.990	79.253	0.191	0.204
-244.976	-105.240	0.256	0.058
-243.961	12.056	0.244	0.187
-242.946	84.410	-0.206	-0.224
-241.932	-21.296	-0.036	-0.022
-240.917	162.031	0.048	-0.066
-239.903	-43.285	0.156	-0.079
-238.888	800.000	-0.038	-0.120
-237.873	24.614	-0.240	-0.198
-236.859	146.577	0.062	-0.083
-235.844	-47.434	0.325	-0.157
-234.830	635.123	-0.102	-0.259
-233.815	-200.000	0.007	0.037
-232.800	-93.148	-0.394	0.109
-231.786	-35.765	-0.161	0.087
-230.771	-59.209	0.390	-0.167
-229.757	-154.305	0.330	-0.022
-228.742	-200.000	0.002	0.154
-227.727	800.000	-0.074	0.231
-226.713	-200.000	-0.048	-0.266
-225.698	-19.984	0.151	-0.093
-224.684	-200.000	0.018	-0.158
-223.669	-106.788	0.120	-0.026
-222.655	800.000	0.110	0.396
-221.640	-30.821	0.375	0.211
-220.625	259.735	-0.153	-0.262
-219.611	33.470	-0.060	-0.052
-218.596	-200.000	-0.026	0.142
-217.582	-112.456	-0.118	-0.023
-216.567	59.361	0.200	0.196
-215.552	-200.000	0.053	0.337
-214.538	191.671	0.004	0.006
-213.523	-200.000	0.024	-0.122
-212.509	-136.509	-0.196	-0.023
-211.494	137.957	-0.142	-0.185
-210.479	299.426	0.120	-0.219
-209.465	-150.260	-0.485	-0.037
-208.450	282.233	0.031	0.055
-207.436	53.866	-0.244	0.233
-206.421	-200.000	-0.001	0.100
-205.406	-200.000	-0.037	0.230
-204.392	202.490	-0.127	0.195
-203.377	-137.504	0.491	-0.055
-202.363	476.450	-0.062	-0.138
-201.348	103.553	-0.086	0.100
-200.333	331.044	-0.102	-0.196
-199.319	-200.000	0.010	0.199
-198.304	-127.075	0.455	0.066
-197.290	-200.000	0.034	-0.213
-196.275	-57.207	-0.171	0.075
-195.260	299.047	0.086	-0.157
-194.246	109.769	0.184	0.220
-193.231	-103.948	-0.185	-0.043
-192.217	718.332	-0.026	0.068
-191.202	800.000	-0.121	0.340
-190.187	-48.679	0.158	-0.075
-189.173	-46.132	0.331	-0.162
-188.158	87.893	0.142	0.157
-187.144	-84.548	-0.154	0.048
-186.129	219.851	0.076	-0.121
-185.114	-101.513	0.174	0.042
-184.100	-200.000	0.008	-0.109
-183.085	149.339	-0.169	-0.227
-182.071	60.279	0.028	-0.027
-181.056	-113.314	-0.218	-0.043
-180.042	93.958	-0.335	0.377
-179.027	-47.145	-0.205	-0.099
-178.012	-200.000	-0.028	-0.214
-176.998	-129.281	-0.241	0.033
-175.983	-200.000	0.002	0.135
-174.969	-200.000	0.024	0.293
-173.954	134.344	-0.225	-0.289
-172.939	57.631	0.178	-0.173
-171.925	-77.923	0.141	0.048
-170.910	342.663	0.040	-0.078
-169.896	-200.000	0.015	0.303
-168.881	-200.000	0.009	-0.138
-167.866	240.424	0.037	-0.061
-166.852	-85.318	-0.371	-0.115
-165.837	223.338	0.173	-0.277
-164.823	356.082	-0.094	-0.186
-163.808	750.368	-0.052	-0.139
-162.793	-69.039	0.072	0.027
-161.779	-200.000	-0.030	-0.239
-160.764	133.434	-0.085	-0.110
-159.750	1.956	-0.080	0.057
-158.735	256.070	0.132	-0.224
-157.720	226.439	0.147	-0.236
-156.706	-74.309	-0.060	0.021
-155.691	800.000	0.043	-0.118
-154.677	359.204	0.108	-0.214
-153.662	284.596	0.042	-0.074
-152.647	126.244	-0.120	0.151
-151.633	53.924	-0.164	-0.157
-150.618	-84.115	0.392	0.123
-149.604	115.492	-0.127	0.154
-148.589	-28.976	0.268	0.153
-147.574	-200.000	-0.015	0.196
-146.560	800.000	-0.083	0.257
-145.545	528.938	0.058	0.136
-144.531	-9.655	0.056	0.037
-143.516	473.388	-0.136	-0.305
-142.502	-150.895	-0.107	0.008
-141.487	11.481	-0.161	0.122
-140.472	127.753	0.109	-0.137
-139.458	-200.000	0.038	0.228
-138.443	-71.736	-0.232	-0.086
-137.429	786.522	-0.025	0.068
-136.414	-56.585	0.285	0.125
-135.399	8.431	0.225	0.168
-134.385	10.668	0.334	-0.253
-133.370	-86.123	-0.221	-0.068
-132.356	433.229	-0.092	-0.198
-131.341	184.191	0.149	-0.219
-130.326	126.802	0.058	0.072
-129.312	215.839	0.073	-0.115
-128.297	-21.129	-0.358	0.217
-127.283	130.930	0.045	0.057
-126.268	568.825	-0.094	-0.227
-125.253	800.000	-0.078	-0.217
-124.239	-137.531	0.035	0.004
-123.224	128.445	0.166	0.210
-122.210	-65.229	-0.121	-0.048
