DTS Sentinel unit serial number:	SN413079Multiplexer serial number:	ORYXHardware model number:	OX4-SRSoftware version number:	ORYX F/W v4.00 Oryx Data Collector v3.7.2.0data status	okinstallation	princeton_trtdifferential loss correction	single-endedforward channel	channel 1reverse channel	N/Adate	2019/09/12time	22:06:35forward acquisition time	60.00reverse acquisition time	0.00gamma	496.2192k internal	0.2326k external	0.2326temperature offset calibration	1.0151default loss term (dB/km)	0.3790temperature slope calibration	1.0000multiplexer offset coefficient	1.0000multiplexer slope coefficient	1.0000fibre end	0.00T internal ref (°C)	30.00T ext. ref 1 (°C)	3.73T ext. ref 2 (°C)	24.55length (m)	temperature (°C)	Stokes	anti-Stokes-747.200	-62.544	-0.161	0.067
-746.185	226.976	-0.137	0.224
-745.171	206.737	0.064	0.101
-744.156	-111.909	-0.369	-0.075
-743.142	55.280	-0.015	0.015
-742.127	357.312	-0.121	-0.243
-741.112	179.621	0.064	0.095
-740.098	-22.747	0.080	0.049
-739.083	-200.000	0.039	-0.430
-738.069	-126.792	0.168	0.025
-737.054	-140.283	-0.201	-0.021
-736.039	360.693	0.110	-0.222
-735.025	113.686	0.044	0.054
-734.010	-200.000	-0.020	0.150
-732.996	56.538	-0.059	-0.057
-731.981	800.000	-0.047	-0.157
-730.966	-17.581	-0.506	0.320
-729.952	-110.962	-0.260	-0.054
-728.937	21.300	-0.270	-0.221
-727.923	-200.000	-0.085	-0.396
-726.908	800.000	-0.058	-0.187
-725.894	-104.474	-0.187	-0.044
-724.879	-58.829	0.189	0.083
-723.864	109.582	-0.252	0.304
-722.850	-103.256	-0.321	0.076
-721.835	-111.753	0.067	0.014
-720.821	41.808	-0.056	-0.051
-719.806	65.510	-0.136	0.138
-718.791	-140.095	-0.147	0.016
-717.777	-41.133	-0.133	0.069
-716.762	-7.313	-0.092	-0.063
-715.748	-200.000	0.025	0.385
-714.733	430.984	-0.131	-0.285
-713.718	82.100	0.161	-0.176
-712.704	137.060	0.134	0.177
-711.689	-89.504	-0.258	0.076
-710.675	-106.351	-0.298	0.067
-709.660	221.268	-0.181	0.293
-708.645	190.917	-0.081	-0.122
-707.631	40.674	-0.187	0.169
-706.616	528.211	-0.043	-0.102
-705.602	64.072	-0.105	0.106
-704.587	210.938	0.094	-0.149
-703.572	800.000	0.014	-0.048
-702.558	41.032	0.168	0.152
-701.543	170.766	0.252	-0.364
-700.529	56.170	-0.043	0.042
-699.514	-200.000	-0.052	0.269
-698.499	-12.976	-0.180	-0.118
-697.485	-68.371	-0.240	-0.094
-696.470	467.793	0.095	-0.213
-695.456	-200.000	0.049	0.228
-694.441	219.040	0.041	0.067
-693.426	-80.985	-0.128	-0.043
-692.412	-44.235	0.164	-0.083
-691.397	-11.536	-0.133	-0.088
-690.383	311.991	-0.024	-0.046
-689.368	-200.000	0.027	0.380
-688.354	194.166	0.225	-0.344
-687.339	167.528	0.077	0.111
-686.324	-137.934	-0.496	0.056
-685.310	215.395	-0.149	0.238
-684.295	-103.971	0.104	0.025
-683.281	-87.777	-0.188	0.057
-682.266	568.001	0.072	-0.176
-681.251	800.000	-0.069	-0.201
-680.237	-155.191	0.106	-0.007
-679.222	110.433	-0.120	-0.145
-678.208	-74.159	-0.249	0.091
-677.193	-99.824	-0.141	0.036
-676.178	-136.928	-0.599	0.069
-675.164	-119.397	-0.219	-0.038
-674.149	-152.879	0.238	-0.017
-673.135	-14.858	0.218	0.140
-672.120	800.000	0.041	-0.148
-671.105	384.615	-0.137	0.284
-670.091	404.466	-0.046	0.098
-669.076	-200.000	-0.026	-0.311
-668.062	-200.000	0.032	0.233
-667.047	234.765	-0.127	-0.211
-666.032	226.312	-0.161	-0.263
-665.018	97.016	0.213	0.245
-664.003	-83.621	-0.115	-0.037
-662.989	-200.000	0.011	0.076
-661.974	530.262	0.163	-0.386
-660.959	-32.662	-0.196	0.110
-659.945	434.961	-0.026	-0.057
-658.930	280.214	-0.096	0.172
-657.916	-43.097	0.194	0.099
-656.901	-40.043	-0.269	-0.141
-655.886	216.234	-0.077	0.123
-654.872	-122.352	0.211	0.035
-653.857	-113.953	-0.311	0.061
-652.843	-200.000	-0.012	0.125
-651.828	15.337	0.167	0.132
-650.814	-93.123	-0.201	0.056
-649.799	-113.617	0.160	0.031
-648.784	-70.965	-0.329	-0.125
-647.770	274.576	-0.077	-0.137
-646.755	-50.360	-0.363	-0.172
-645.741	-45.448	-0.214	-0.106
-644.726	94.164	0.090	0.103
-643.711	314.451	0.084	-0.158
-642.697	-200.000	-0.023	-0.187
-641.682	409.931	-0.099	-0.211
-640.668	-200.000	-0.012	0.147
-639.653	-31.086	0.137	0.078
-638.638	390.543	-0.038	-0.078
-637.624	-100.608	-0.042	0.010
-636.609	-200.000	0.027	-0.209
-635.595	-102.719	-0.328	0.079
-634.580	-200.000	0.075	0.343
-633.565	633.955	-0.095	0.243
-632.551	130.297	-0.061	-0.079
-631.536	-77.083	-0.369	0.129
-630.522	175.001	-0.174	-0.253
-629.507	36.546	0.284	-0.252
-628.492	211.752	-0.109	0.172
-627.478	8.616	0.145	-0.109
-626.463	-149.760	-0.178	-0.014
-625.449	-200.000	0.035	-0.173
-624.434	785.108	-0.039	0.107
-623.419	-199.062	0.194	0.001
-622.405	341.677	-0.066	-0.130
-621.390	356.486	-0.165	-0.331
-620.376	-105.228	0.300	0.069
-619.361	762.490	-0.062	0.168
-618.346	97.459	0.205	-0.236
-617.332	-161.144	-0.130	-0.007
-616.317	-89.874	-0.226	-0.066
-615.303	-100.089	-0.303	0.076
-614.288	373.017	-0.116	-0.237
-613.273	612.306	0.115	0.289
-612.259	34.392	0.252	-0.221
-611.244	80.491	0.170	-0.184
-610.230	58.353	0.159	-0.157
-609.215	-114.380	-0.056	0.011
-608.201	208.845	-0.232	-0.364
-607.186	-111.911	-0.118	-0.024
-606.171	38.618	-0.191	-0.171
-605.157	-100.201	0.112	-0.028
-604.142	-114.435	0.174	-0.034
-603.128	-137.623	-0.214	-0.024
-602.113	-70.480	-0.390	-0.148
-601.098	197.084	-0.045	-0.069
-600.084	15.970	-0.103	0.081
-599.069	-52.926	0.415	0.191
-598.055	445.083	0.122	-0.269
-597.040	-68.310	0.033	-0.013
-596.025	79.841	0.174	0.187
-595.011	-92.196	-0.195	0.055
-593.996	-117.623	-0.118	-0.021
-592.982	-200.000	-0.024	0.160
-591.967	-50.597	0.048	-0.023
-590.952	-9.301	0.076	-0.051
-589.938	-115.333	0.245	-0.046
-588.923	-200.000	-0.043	0.241
-587.909	-200.000	-0.018	0.097
-586.894	800.000	0.048	-0.149
-585.879	-9.271	-0.034	0.023
-584.865	-200.000	-0.008	-0.192
-583.850	107.999	-0.190	-0.227
-582.836	-49.408	0.109	0.052
-581.821	-159.467	0.108	0.006
-580.806	-179.582	0.354	0.008
-579.792	21.598	0.288	0.235
-578.777	749.377	-0.057	-0.154
-577.763	108.338	-0.065	0.077
-576.748	389.496	-0.136	0.283
-575.733	145.625	-0.187	0.251
-574.719	-65.729	-0.075	0.030
-573.704	386.259	-0.069	0.142
-572.690	-104.952	-0.220	0.051
-571.675	125.047	-0.243	0.307
-570.661	665.520	0.026	0.066
-569.646	-130.620	-0.017	0.002
-568.631	170.148	0.084	-0.120
-567.617	43.985	0.286	-0.263
-566.602	115.704	-0.306	0.375
-565.588	-200.000	-0.017	0.120
-564.573	490.345	0.150	-0.344
-563.558	131.382	-0.294	0.378
-562.544	-108.025	-0.255	0.055
-561.529	800.000	0.124	-0.444
-560.515	-200.000	0.055	-0.473
-559.500	-200.000	0.012	-0.067
-558.485	645.539	-0.049	-0.125
-557.471	-90.185	0.062	0.018
-556.456	14.650	-0.316	0.247
-555.442	44.947	-0.144	0.133
-554.427	-200.000	-0.037	-0.230
-553.412	-200.000	0.022	-0.320
-552.398	293.317	-0.139	0.254
-551.383	-73.724	-0.437	-0.159
-550.369	-59.515	-0.215	-0.092
-549.354	278.990	0.107	0.190
-548.339	165.079	0.084	-0.118
-547.325	-20.228	0.304	-0.187
-546.310	-200.000	0.043	-0.272
-545.296	51.003	0.234	0.222
-544.281	-65.455	-0.189	-0.076
-543.266	233.051	-0.189	0.311
-542.252	800.000	-0.047	0.153
-541.237	730.429	0.104	0.279
-540.223	-11.785	0.070	-0.046
-539.208	225.941	0.277	-0.449
-538.193	54.640	-0.078	-0.076
-537.179	-107.580	-0.126	0.028
-536.164	281.588	0.345	0.617
-535.150	182.283	0.066	-0.098
-534.135	6.004	-0.145	0.107
-533.121	-200.000	0.005	0.127
-532.106	167.803	0.149	0.212
-531.091	-123.726	-0.355	0.056
-530.077	-99.872	0.217	-0.054
-529.062	279.186	0.115	-0.205
-528.048	-76.556	-0.450	0.158
-527.033	800.000	0.039	0.126
-526.018	447.357	0.152	-0.334
-525.004	-153.455	-0.053	0.004
-523.989	-186.964	0.332	-0.005
-522.975	-200.000	0.022	-0.111
-521.960	800.000	0.043	-0.137
-520.945	800.000	0.068	0.238
-519.931	-173.106	0.286	0.009
-518.916	-116.571	0.214	-0.039
-517.902	523.065	0.055	0.130
-516.887	69.615	0.171	0.176
-515.872	-200.000	-0.013	-0.164
-514.858	140.030	0.140	0.184
-513.843	-196.704	-0.091	0.001
-512.829	-155.694	0.188	-0.012
-511.814	-2.717	0.200	-0.140
-510.799	-104.445	0.193	0.045
-509.785	800.000	0.060	-0.233
-508.770	-13.579	0.228	-0.147
-507.756	88.231	-0.079	-0.088
-506.741	154.746	-0.073	0.100
-505.726	59.220	-0.198	-0.195
-504.712	-29.856	0.110	-0.063
-503.697	19.540	0.239	-0.192
-502.683	-56.613	0.120	-0.053
-501.668	-200.000	0.012	0.351
-500.653	2.968	0.214	-0.155
-499.639	17.062	-0.378	-0.300
-498.624	-55.118	0.340	0.153
-497.610	-17.080	0.105	-0.066
-496.595	-74.406	-0.038	0.014
-495.581	110.151	0.112	0.135
-494.566	249.614	-0.156	-0.263
-493.551	800.000	0.021	-0.058
-492.537	70.016	-0.179	-0.184
-491.522	52.329	-0.156	-0.148
-490.508	-33.487	-0.295	0.163
-489.493	751.494	-0.030	0.081
-488.478	-200.000	-0.011	0.238
-487.464	-87.804	0.091	-0.027
-486.449	-200.000	-0.018	-0.121
-485.435	-100.710	0.049	0.012
-484.420	23.277	-0.109	-0.090
-483.405	-124.562	-0.312	-0.048
-482.391	-130.434	-0.205	0.028
-481.376	-68.414	-0.218	-0.084
-480.362	800.000	0.065	-0.259
-479.347	-181.878	-0.350	-0.007
-478.332	59.407	0.142	0.140
-477.318	-200.000	0.032	-0.196
-476.303	-175.438	-0.192	-0.005
-475.289	-56.935	-0.228	-0.101
-474.274	-46.145	-0.198	0.098
-473.259	-200.000	-0.023	0.122
-472.245	569.673	-0.058	-0.140
-471.230	213.402	0.050	-0.079
-470.216	-16.042	-0.295	-0.187
-469.201	-194.340	0.057	0.000
-468.186	-48.523	0.178	0.086
-467.172	104.341	0.248	-0.291
-466.157	-53.316	-0.223	-0.102
-465.143	-166.513	-0.253	0.011
-464.128	800.000	0.029	-0.119
-463.113	-41.518	-0.219	0.112
-462.099	48.409	0.119	0.111
-461.084	31.319	0.072	-0.062
-460.070	230.057	0.116	0.189
-459.055	-200.000	0.029	0.157
-458.040	-200.000	0.026	0.372
-457.026	79.825	-0.080	-0.086
-456.011	-78.938	0.199	0.068
-454.997	-200.000	0.009	-0.094
-453.982	-89.969	0.204	0.059
-452.968	-66.874	-0.080	0.031
-451.953	226.180	0.087	-0.140
-450.938	55.416	-0.095	0.092
-449.924	-63.786	-0.102	0.042
-448.909	58.143	0.209	-0.204
-447.895	-200.000	0.027	-0.240
-446.880	65.445	0.193	-0.195
-445.865	47.642	-0.205	0.191
-444.851	55.813	0.055	-0.053
-443.836	-200.000	-0.017	-0.525
-442.822	173.377	-0.104	-0.150
-441.807	-37.554	-0.208	-0.110
-440.792	-81.560	0.335	-0.110
-439.778	-83.280	-0.280	0.090
-438.763	800.000	-0.101	0.327
-437.749	103.543	-0.270	-0.316
-436.734	-4.478	0.134	0.092
-435.719	160.209	0.150	0.208
-434.705	10.239	-0.139	0.105
-433.690	-90.854	-0.149	0.043
-432.676	-200.000	0.031	-0.146
-431.661	189.858	0.128	0.192
-430.646	-98.789	0.118	-0.030
-429.632	-44.423	-0.220	-0.110
-428.617	544.448	0.154	-0.365
-427.603	-83.801	0.253	-0.080
-426.588	-106.288	0.510	0.114
-425.573	-104.328	-0.090	-0.021
-424.559	-175.200	-0.351	0.010
-423.544	109.367	-0.159	0.190
-422.530	12.988	0.173	0.133
-421.515	-89.098	-0.432	0.127
-420.500	-177.569	0.086	0.002
-419.486	-6.218	-0.159	-0.108
-418.471	-56.701	-0.169	-0.074
-417.457	65.253	0.114	0.115
-416.442	307.460	0.101	0.187
-415.428	800.000	-0.131	0.513
-414.413	-168.695	0.315	-0.012
-413.398	-200.000	0.042	-0.378
-412.384	489.590	-0.196	0.447
-411.369	93.874	0.246	-0.277
-410.355	-200.000	-0.001	-0.012
-409.340	-200.000	0.010	0.393
-408.325	-68.629	0.257	0.099
-407.311	-200.000	-0.005	-0.079
-406.296	10.409	0.110	-0.083
-405.282	-200.000	-0.018	-0.081
-404.267	-57.334	-0.229	-0.100
-403.252	-178.921	-0.219	-0.005
-402.238	-67.673	0.208	-0.081
-401.223	-126.729	0.171	-0.025
-400.209	302.677	-0.091	-0.168
-399.194	-200.000	-0.032	-0.190
-398.179	542.897	0.117	-0.278
-397.165	-20.614	0.288	0.176
-396.150	213.561	-0.018	-0.029
-395.136	800.000	0.061	0.240
-394.121	-86.327	0.140	0.043
-393.106	-107.925	-0.317	-0.068
-392.092	-110.302	-0.266	0.055
-391.077	-200.000	-0.007	-0.218
-390.063	-50.766	0.335	0.157
-389.048	-151.859	-0.127	-0.009
-388.033	-93.704	-0.224	0.061
-387.019	-104.792	-0.285	0.065
-386.004	-18.664	-0.109	0.068
-384.990	-200.000	0.027	-0.314
-383.975	-200.000	-0.023	0.309
-382.960	339.629	0.044	0.086
-381.946	-26.895	-0.075	-0.043
-380.931	37.913	0.043	0.038
-379.917	40.389	-0.388	-0.348
-378.902	-131.090	0.172	0.023
-377.888	800.000	0.025	-0.071
-376.873	800.000	-0.097	0.388
-375.858	74.191	-0.076	0.080
-374.844	186.480	-0.107	0.158
-373.829	-67.269	-0.236	0.092
-372.815	-79.638	-0.172	0.058
-371.800	162.149	0.091	0.127
-370.785	245.832	-0.069	-0.116
-369.771	459.664	-0.083	0.184
-368.756	-17.709	0.050	-0.031
-367.742	419.154	-0.186	-0.396
-366.727	-130.158	0.340	-0.046
-365.712	-200.000	-0.026	0.366
-364.698	-59.401	0.216	-0.092
-363.683	84.069	0.194	-0.210
-362.669	-143.970	0.157	0.015
-361.654	106.885	-0.252	0.297
-360.639	391.657	-0.004	0.008
-359.625	57.460	0.087	0.085
-358.610	-29.077	0.140	0.080
-357.596	-200.000	0.006	0.066
-356.581	-99.151	-0.239	0.060
-355.566	-143.986	0.243	-0.023
-354.552	669.853	0.066	-0.169
-353.537	-12.828	-0.543	-0.351
-352.523	96.684	-0.061	-0.070
-351.508	-108.525	-0.146	0.031
-350.493	-35.095	0.067	-0.036
-349.479	-8.455	0.369	0.246
-348.464	-108.447	-0.191	0.041
-347.450	-200.000	0.011	-0.204
-346.435	33.490	-0.168	-0.145
-345.420	-120.098	-0.206	0.035
-344.406	-95.614	-0.239	0.064
-343.391	250.835	-0.039	0.066
-342.377	76.373	0.084	0.088
-341.362	100.004	-0.089	0.103
-340.348	-200.000	-0.041	0.296
-339.333	-132.443	0.622	0.080
-338.318	505.356	-0.044	0.102
-337.304	-102.886	0.245	0.058
-336.289	594.767	0.053	-0.130
-335.275	73.007	0.038	-0.039
-334.260	67.225	-0.150	0.151
-333.245	-116.143	0.350	-0.065
-332.231	183.660	0.052	0.077
-331.216	-193.284	-0.203	-0.002
-330.202	-24.625	0.325	0.192
-329.187	-132.054	-0.139	-0.018
-328.172	-30.930	-0.190	-0.107
-327.158	235.507	0.130	-0.212
-326.143	-134.082	0.104	-0.013
-325.129	-54.568	0.172	0.077
-324.114	800.000	-0.060	-0.176
-323.099	-136.623	-0.371	-0.043
-322.085	34.859	0.430	-0.373
-321.070	-132.198	-0.329	-0.042
-320.056	800.000	-0.075	0.302
-319.041	177.590	0.070	0.101
-318.026	-66.583	0.042	0.016
-317.012	-73.799	0.182	-0.066
-315.997	7.037	-0.301	-0.223
-314.983	800.000	-0.088	-0.384
-313.968	21.372	0.371	-0.299
-312.953	-169.137	0.230	0.008
-311.939	800.000	0.158	-0.479
-310.924	135.702	0.027	-0.035
-309.910	-200.000	0.012	-0.578
-308.895	-200.000	0.016	0.134
-307.880	-111.740	-0.104	-0.021
-306.866	-200.000	-0.001	-0.199
-305.851	800.000	0.124	-0.447
-304.837	-48.498	0.206	-0.098
-303.822	119.387	-0.319	-0.391
-302.807	-200.000	0.059	0.313
-301.793	-139.713	0.311	0.033
-300.778	-200.000	0.010	-0.141
-299.764	216.143	0.087	-0.137
-298.749	800.000	0.035	-0.145
-297.735	-200.000	-0.084	0.539
-296.720	-9.270	0.109	0.072
-295.705	280.906	-0.082	0.145
-294.691	-200.000	-0.059	0.312
-293.676	7.333	0.150	0.111
-292.662	-68.781	0.079	-0.030
-291.647	146.556	0.122	0.163
-290.632	159.052	0.195	-0.269
-289.618	-28.272	0.294	-0.168
-288.603	145.985	0.273	0.362
-287.589	-101.626	-0.288	-0.069
-286.574	-65.131	-0.378	0.151
-285.559	-112.088	-0.136	-0.027
-284.545	439.661	0.076	-0.165
-283.530	800.000	-0.052	0.153
-282.516	-200.000	0.046	-0.212
-281.501	-22.570	-0.151	0.090
-280.486	69.386	-0.156	-0.159
-279.472	32.333	-0.373	0.319
-278.457	-75.606	0.118	-0.041
-277.443	-70.531	-0.138	-0.052
-276.428	356.312	-0.152	0.299
-275.413	-32.031	0.103	-0.057
-274.399	-200.000	0.006	0.109
-273.384	466.577	0.133	0.294
-272.370	656.464	-0.112	0.285
-271.355	-64.550	-0.310	0.125
-270.340	-200.000	-0.001	-0.287
-269.326	-81.437	-0.029	0.009
-268.311	800.000	-0.114	-0.348
-267.297	-7.090	0.162	-0.109
-266.282	76.419	-0.235	0.247
-265.267	216.261	-0.117	0.184
-264.253	-200.000	0.061	0.468
-263.238	-109.703	-0.153	-0.032
-262.224	-51.254	0.096	0.044
-261.209	800.000	-0.079	-0.250
-260.195	58.173	-0.184	0.179
-259.180	203.663	-0.082	-0.126
-258.165	800.000	-0.085	0.276
-257.151	-200.000	-0.029	0.365
-256.136	800.000	0.098	-0.297
-255.122	800.000	0.093	0.302
-254.107	729.248	-0.110	-0.292
-253.092	240.489	0.042	0.069
-252.078	43.056	0.054	0.049
-251.063	-200.000	-0.012	-0.278
-250.049	-200.000	-0.044	0.201
-249.034	-132.106	0.449	0.058
-248.019	-139.081	-0.369	-0.039
-247.005	-6.371	0.261	0.176
-245.990	-22.403	0.172	0.103
-244.976	-31.299	-0.170	0.094
-243.961	1.868	0.315	0.225
-242.946	316.253	0.124	0.232
-241.932	286.812	-0.172	0.308
-240.917	-80.728	0.314	0.103
-239.903	800.000	-0.093	0.286
-238.888	-200.000	0.021	-0.185
-237.873	-126.881	0.212	0.031
-236.859	800.000	-0.051	-0.152
-235.844	65.246	0.155	0.155
-234.830	-93.312	-0.150	-0.041
-233.815	-200.000	-0.005	-0.200
-232.800	58.242	-0.131	-0.127
-231.786	-25.236	0.229	-0.134
-230.771	122.173	-0.140	-0.173
-229.757	-200.000	0.001	0.041
-228.742	-136.771	-0.047	-0.005
-227.727	800.000	-0.094	0.279
-226.713	-73.926	0.197	-0.071
-225.698	220.742	0.109	-0.173
-224.684	151.606	0.180	0.243
-223.669	-141.248	-0.326	-0.033
-222.655	372.602	0.033	0.067
-221.640	-57.857	-0.221	-0.096
-220.625	455.114	0.076	0.167
-219.611	-200.000	0.015	0.129
-218.596	38.881	-0.146	-0.129
-217.582	-128.221	0.246	0.035
-216.567	5.433	0.228	0.167
-215.552	-200.000	0.028	-0.137
-214.538	-200.000	-0.017	0.154
-213.523	132.925	0.146	-0.186
-212.509	800.000	0.114	0.370
-211.494	-200.000	-0.119	-0.596
-210.479	-200.000	-0.027	-0.152
-209.465	-49.406	0.298	0.140
-208.450	-30.058	0.267	-0.150
-207.436	-171.100	0.174	0.006
-206.421	195.991	-0.143	-0.215
-205.406	800.000	-0.055	-0.204
-204.392	-127.631	-0.122	0.017
-203.377	-29.390	0.434	-0.245
-202.363	-71.241	-0.147	0.055
-201.348	216.607	0.118	0.185
-200.333	128.823	0.216	0.272
-199.319	103.488	0.259	0.300
-198.304	95.343	-0.102	0.115
-197.290	-37.647	-0.179	0.094
-196.275	-1.390	0.014	0.009
-195.260	-200.000	-0.021	0.103
-194.246	196.167	0.093	-0.140
-193.231	-200.000	-0.009	-0.170
-192.217	-136.649	0.145	0.017
-191.202	463.622	0.039	-0.086
-190.187	-146.424	0.141	0.012
-189.173	317.303	-0.074	0.139
-188.158	305.444	-0.084	0.155
-187.144	656.628	-0.092	0.234
-186.129	40.424	0.276	-0.245
-185.114	-156.008	0.273	-0.017
-184.100	800.000	0.027	0.080
-183.085	-4.644	0.177	0.120
-182.071	-65.882	0.201	0.079
-181.056	617.111	-0.143	0.353
-180.042	-117.704	-0.134	0.024
-179.027	-200.000	0.003	0.243
-178.012	800.000	-0.031	0.099
-176.998	-16.809	-0.120	0.075
-175.983	20.427	-0.125	0.100
-174.969	-200.000	-0.013	-0.160
-173.954	64.266	0.186	0.185
-172.939	331.782	0.068	0.130
-171.925	-74.056	0.145	0.052
-170.910	-97.526	-0.079	-0.020
-169.896	-0.338	0.142	-0.099
-168.881	-116.396	-0.253	-0.046
-167.866	106.999	-0.092	-0.107
-166.852	-143.825	-0.250	0.023
-165.837	-76.205	-0.173	-0.060
-164.823	388.105	0.101	-0.206
-163.808	-137.359	-0.165	-0.018
-162.793	-127.417	0.142	-0.020
-161.779	-110.123	0.285	0.059
-160.764	-187.646	0.329	-0.004
-159.750	115.727	0.192	0.232
-158.735	-24.699	0.049	0.029
-157.720	77.495	-0.225	0.236
-156.706	-41.134	-0.429	0.218
-155.691	-129.844	0.233	0.032
-154.677	-52.244	0.199	-0.091
-153.662	261.461	-0.066	0.113
-152.647	800.000	-0.087	0.251
-151.633	-89.389	0.093	0.027
-150.618	-15.902	0.107	0.067
-149.604	-200.000	0.007	-0.039
-148.589	-51.813	-0.178	-0.082
-147.574	800.000	-0.056	0.177
-146.560	-200.000	-0.009	0.247
-145.545	-200.000	-0.001	0.134
-144.531	-45.526	-0.255	0.125
-143.516	-200.000	0.017	0.191
-142.502	65.818	0.231	0.230
-141.487	-70.277	-0.371	0.139
-140.472	-88.790	0.226	-0.066
-139.458	-11.599	-0.065	-0.042
-138.443	-148.632	-0.209	0.017
-137.429	-55.779	0.310	-0.137
-136.414	708.565	0.066	0.171
-135.399	-29.863	0.207	-0.116
-134.385	-200.000	-0.021	0.099
-133.370	-200.000	-0.030	0.159
-132.356	800.000	0.020	-0.062
-131.341	345.848	-0.057	-0.110
-130.326	800.000	0.011	0.033
-129.312	26.200	0.147	0.121
-128.297	6.823	0.109	-0.080
-127.283	-200.000	0.023	0.264
-126.268	9.235	-0.130	0.097
-125.253	-56.961	0.200	0.087
-124.239	-200.000	-0.013	0.321
-123.224	-200.000	0.019	0.381
-122.210	-93.815	0.141	0.038
-121.195	45.499	0.107	0.097
