DTS Sentinel unit serial number:	SN413079Multiplexer serial number:	ORYXHardware model number:	OX4-SRSoftware version number:	ORYX F/W v4.00 Oryx Data Collector v3.7.2.0data status	okinstallation	princeton_trtdifferential loss correction	single-endedforward channel	channel 1reverse channel	N/Adate	2019/09/18time	12:22:35forward acquisition time	60.00reverse acquisition time	0.00gamma	496.2192k internal	0.2321k external	0.2321temperature offset calibration	0.9976default loss term (dB/km)	0.3790temperature slope calibration	1.0000multiplexer offset coefficient	1.0000multiplexer slope coefficient	1.0000fibre end	0.00T internal ref (°C)	31.95T ext. ref 1 (°C)	0.52T ext. ref 2 (°C)	29.51length (m)	temperature (°C)	Stokes	anti-Stokes-747.200	-4.887	-0.317	0.221
-746.185	363.741	0.061	-0.125
-745.171	-58.568	-0.322	-0.141
-744.156	8.596	0.040	0.030
-743.142	-200.000	-0.035	-0.551
-742.127	-200.000	-0.046	-0.286
-741.112	97.295	-0.080	0.093
-740.098	-112.640	0.227	-0.046
-739.083	327.371	-0.130	0.251
-738.069	82.250	0.220	0.241
-737.054	-57.487	0.350	-0.155
-736.039	160.684	0.269	-0.379
-735.025	149.445	0.105	0.144
-734.010	128.529	-0.052	-0.067
-732.996	-14.856	-0.136	-0.088
-731.981	121.733	-0.127	-0.159
-730.966	-120.947	-0.189	-0.032
-729.952	-50.343	-0.098	-0.047
-728.937	-200.000	0.009	-0.183
-727.923	-182.358	0.340	-0.006
-726.908	51.389	-0.142	0.136
-725.894	-200.000	0.073	-0.385
-724.879	313.591	-0.123	-0.233
-723.864	24.993	0.089	0.074
-722.850	-62.056	-0.435	0.183
-721.835	162.603	0.165	0.233
-720.821	20.258	-0.264	0.215
-719.806	204.857	0.106	-0.165
-718.791	-68.203	-0.447	0.176
-717.777	-50.588	-0.269	0.128
-716.762	125.092	0.212	-0.270
-715.748	358.064	0.040	-0.082
-714.733	800.000	0.061	0.262
-713.718	-36.706	0.151	0.082
-712.704	28.667	-0.108	0.092
-711.689	-178.805	-0.335	-0.008
-710.675	-46.739	0.306	-0.151
-709.660	159.588	0.226	-0.317
-708.645	-200.000	0.014	-0.458
-707.631	-131.903	0.277	-0.037
-706.616	-200.000	0.046	-0.458
-705.602	519.611	0.093	0.219
-704.587	-149.732	0.186	0.015
-703.572	-200.000	0.026	-0.278
-702.558	83.066	0.032	0.035
-701.543	-200.000	0.147	-0.000
-700.529	45.667	0.092	-0.086
-699.514	-54.260	0.178	-0.082
-698.499	-200.000	-0.028	-0.266
-697.485	-39.152	0.054	0.029
-696.470	206.232	-0.110	0.173
-695.456	-200.000	-0.012	0.155
-694.441	-164.005	0.218	-0.010
-693.426	-200.000	-0.021	0.122
-692.412	-158.833	-0.066	-0.004
-691.397	-45.230	0.159	0.080
-690.383	103.316	0.286	-0.339
-689.368	-12.083	-0.378	-0.250
-688.354	210.413	-0.118	0.187
-687.339	288.303	0.176	-0.322
-686.324	-142.816	-0.174	-0.017
-685.310	-200.000	0.014	0.118
-684.295	175.744	-0.206	0.301
-683.281	-151.768	0.057	0.004
-682.266	-65.097	0.435	-0.177
-681.251	-113.983	-0.150	-0.029
-680.237	-22.367	-0.240	-0.146
-679.222	-45.145	0.202	0.101
-678.208	-200.000	0.004	-0.125
-677.193	181.096	-0.233	0.345
-676.178	-7.065	-0.167	-0.114
-675.164	-77.269	-0.068	-0.024
-674.149	800.000	-0.025	-0.106
-673.135	75.883	0.025	0.026
-672.120	-35.204	-0.369	-0.203
-671.105	-60.645	-0.280	-0.120
-670.091	-94.824	0.094	0.026
-669.076	-94.005	0.198	0.055
-668.062	-126.090	-0.388	-0.059
-667.047	800.000	0.093	0.310
-666.032	41.841	0.110	0.101
-665.018	800.000	-0.028	0.121
-664.003	66.477	-0.100	-0.103
-662.989	-58.804	0.015	0.007
-661.974	-153.811	-0.434	-0.030
-660.959	107.684	-0.035	-0.042
-659.945	308.552	0.212	-0.399
-658.930	64.672	-0.145	0.148
-657.916	12.121	-0.156	-0.121
-656.901	-88.960	0.375	-0.112
-655.886	-58.626	0.183	-0.080
-654.872	-119.702	-0.162	0.028
-653.857	35.126	-0.056	0.049
-652.843	-200.000	0.057	0.435
-651.828	79.996	-0.177	-0.192
-650.814	-169.904	-0.034	0.001
-649.799	52.350	-0.230	0.221
-648.784	209.463	-0.131	-0.207
-647.770	377.783	0.144	-0.296
-646.755	-33.435	0.155	0.086
-645.741	-8.266	-0.214	0.145
-644.726	-102.949	-0.101	0.024
-643.711	-127.332	-0.251	-0.037
-642.697	14.410	-0.050	0.039
-641.682	-87.066	-0.120	0.037
-640.668	670.711	-0.161	-0.419
-639.653	-78.225	-0.288	0.100
-638.638	-105.766	-0.259	0.059
-637.624	-105.360	0.112	-0.026
-636.609	744.803	-0.146	-0.395
-635.595	-200.000	-0.003	-0.023
-634.580	533.069	0.140	-0.333
-633.565	800.000	0.074	0.219
-632.551	-126.581	0.291	0.043
-631.536	308.736	-0.072	-0.134
-630.522	534.261	0.042	-0.100
-629.507	-93.245	0.214	0.060
-628.492	100.866	0.113	-0.132
-627.478	345.595	-0.212	-0.418
-626.463	106.485	0.205	-0.244
-625.449	241.840	0.070	-0.117
-624.434	-1.270	-0.075	-0.053
-623.419	-99.195	0.103	0.026
-622.405	-80.541	-0.239	0.080
-621.390	98.589	0.102	-0.119
-620.376	-23.266	-0.152	-0.092
-619.361	-18.570	-0.197	-0.124
-618.346	65.314	-0.283	0.288
-617.332	-3.226	0.107	0.075
-616.317	207.268	-0.148	0.232
-615.303	-200.000	0.023	-0.231
-614.288	-36.543	-0.057	0.031
-613.273	-27.882	0.218	0.127
-612.259	62.577	0.244	0.245
-611.244	-200.000	-0.005	0.162
-610.230	-200.000	0.049	0.270
-609.215	761.829	0.071	-0.193
-608.201	25.703	-0.200	-0.167
-607.186	28.448	0.221	0.188
-606.171	-93.403	0.120	0.033
-605.157	-84.127	0.298	0.095
-604.142	-51.196	-0.220	0.104
-603.128	28.742	-0.172	0.146
-602.113	400.267	-0.052	-0.109
-601.098	800.000	-0.045	0.179
-600.084	-13.027	0.315	-0.206
-599.069	478.609	0.014	-0.031
-598.055	78.062	0.195	-0.209
-597.040	337.929	-0.139	0.272
-596.025	144.143	0.132	-0.178
-595.011	800.000	-0.036	-0.108
-593.996	-200.000	0.021	0.150
-592.982	-200.000	0.010	-0.116
-591.967	13.719	-0.250	-0.195
-590.952	-200.000	-0.030	-0.321
-589.938	-90.448	-0.212	0.062
-588.923	-200.000	-0.014	0.089
-587.909	224.924	0.182	0.297
-586.894	800.000	-0.066	-0.208
-585.879	800.000	-0.064	-0.228
-584.865	777.826	0.086	0.235
-583.850	-200.000	-0.020	0.122
-582.836	-115.863	0.169	-0.032
-581.821	227.368	-0.083	-0.135
-580.806	-91.801	-0.206	0.059
-579.792	-43.596	0.318	0.161
-578.777	133.705	-0.157	-0.204
-577.763	179.193	0.135	0.198
-576.748	800.000	0.002	0.010
-575.733	-96.733	-0.183	-0.048
-574.719	-200.000	0.025	0.167
-573.704	-200.000	0.008	-0.058
-572.690	-55.174	-0.176	-0.080
-571.675	800.000	0.113	-0.343
-570.661	-200.000	-0.009	0.175
-569.646	100.109	0.072	0.084
-568.631	337.474	0.059	-0.116
-567.617	-200.000	-0.015	0.084
-566.602	-20.140	0.117	0.072
-565.588	50.739	-0.198	0.188
-564.573	800.000	0.076	-0.253
-563.558	-200.000	0.052	-0.310
-562.544	-79.479	0.207	-0.070
-561.529	60.655	-0.090	0.090
-560.515	-200.000	0.014	-0.158
-559.500	-64.558	0.156	-0.064
-558.485	78.050	-0.125	-0.134
-557.471	-200.000	0.046	-0.207
-556.456	357.671	-0.069	-0.138
-555.442	4.710	-0.150	-0.110
-554.427	61.313	-0.134	-0.134
-553.412	800.000	0.092	-0.275
-552.398	-63.942	-0.175	-0.072
-551.383	800.000	-0.080	0.223
-550.369	586.134	0.181	0.447
-549.354	-89.115	-0.322	-0.096
-548.339	524.726	-0.038	-0.090
-547.325	800.000	0.084	0.269
-546.310	59.685	0.171	0.169
-545.296	96.772	-0.289	-0.332
-544.281	-155.491	0.541	-0.035
-543.266	-147.330	0.026	0.002
-542.252	-200.000	0.007	-0.083
-541.237	-200.000	-0.023	-0.238
-540.223	-37.523	-0.128	-0.068
-539.208	64.315	-0.132	0.134
-538.193	166.422	0.159	0.226
-537.179	-8.274	-0.298	-0.201
-536.164	-73.754	0.285	0.104
-535.150	-5.348	0.246	0.170
-534.135	64.638	0.218	0.220
-533.121	-163.232	-0.183	0.009
-532.106	-118.446	0.134	-0.024
-531.091	78.247	-0.134	-0.144
-530.077	-77.418	-0.246	0.085
-529.062	-113.215	0.233	-0.046
-528.048	-84.956	-0.111	-0.035
-527.033	-145.822	0.094	0.008
-526.018	-101.154	-0.333	0.082
-525.004	-190.223	-0.083	0.001
-523.989	5.211	-0.108	-0.080
-522.975	-107.387	-0.352	-0.077
-521.960	47.000	-0.065	-0.060
-520.945	69.548	-0.246	0.254
-519.931	42.544	0.163	0.149
-518.916	458.939	-0.075	0.166
-517.902	106.209	-0.143	0.170
-516.887	-41.490	0.161	-0.083
-515.872	99.004	0.038	-0.044
-514.858	-55.168	0.082	-0.037
-513.843	-180.148	-0.291	0.006
-512.829	-136.010	0.265	-0.031
-511.814	800.000	-0.044	-0.156
-510.799	-117.449	-0.137	-0.025
-509.785	-133.787	0.089	-0.011
-508.770	-90.621	0.257	-0.074
-507.756	290.637	-0.087	-0.159
-506.741	-37.620	-0.218	0.117
-505.726	-200.000	-0.024	-0.177
-504.712	-144.108	0.276	0.026
-503.697	800.000	0.051	-0.207
-502.683	-9.859	0.235	-0.156
-501.668	-103.451	0.287	0.068
-500.653	-200.000	0.016	-0.283
-499.639	-102.963	-0.337	0.080
-498.624	-200.000	0.291	-0.000
-497.610	67.347	-0.378	0.386
-496.595	-82.882	-0.132	-0.043
-495.581	800.000	-0.049	0.153
-494.566	-102.275	0.083	0.020
-493.551	-200.000	0.024	0.182
-492.537	-20.689	0.322	-0.198
-491.522	518.347	-0.122	0.285
-490.508	800.000	-0.082	-0.273
-489.493	243.576	0.105	0.176
-488.478	395.893	0.096	-0.201
-487.464	115.230	-0.210	0.256
-486.449	22.855	0.466	-0.382
-485.435	-176.704	0.351	0.009
-484.420	-81.219	0.081	-0.027
-483.405	18.616	-0.259	0.207
-482.391	178.798	-0.237	-0.346
-481.376	-116.341	0.085	0.016
-480.362	-96.928	-0.073	0.019
-479.347	173.486	0.216	-0.312
-478.332	735.800	0.154	-0.412
-477.318	10.568	-0.273	0.208
-476.303	-11.585	-0.094	0.062
-475.289	-200.000	0.075	-0.340
-474.274	-200.000	0.005	-0.136
-473.259	-200.000	0.060	0.294
-472.245	701.374	-0.178	0.468
-471.230	55.212	0.286	0.277
-470.216	-130.775	-0.166	0.022
-469.201	-96.807	-0.211	0.055
-468.186	409.665	0.313	0.663
-467.172	713.756	0.127	0.337
-466.157	217.503	-0.175	-0.279
-465.143	-88.247	-0.497	0.149
-464.128	144.928	-0.290	-0.387
-463.113	800.000	0.130	-0.469
-462.099	16.725	0.185	-0.146
-461.084	-47.534	0.073	-0.036
-460.070	312.868	0.144	-0.271
-459.055	-80.248	0.116	-0.039
-458.040	-147.402	0.052	-0.004
-457.026	64.095	-0.026	0.026
-456.011	28.588	-0.336	0.284
-454.997	-200.000	0.010	0.152
-453.982	-140.717	0.367	-0.038
-452.968	800.000	0.048	0.172
-451.953	-200.000	0.043	-0.411
-450.938	-141.471	0.443	0.045
-449.924	23.631	-0.145	0.119
-448.909	79.488	0.099	0.106
-447.895	40.583	-0.073	-0.065
-446.880	126.244	0.277	-0.350
-445.865	-4.577	-0.095	0.065
-444.851	350.171	-0.047	-0.093
-443.836	-150.132	-0.251	0.019
-442.822	-200.000	0.091	-0.487
-441.807	800.000	-0.034	-0.098
-440.792	593.561	0.126	-0.310
-439.778	-200.000	-0.041	0.292
-438.763	-200.000	-0.028	0.247
-437.749	800.000	-0.004	-0.015
-436.734	-20.639	0.142	-0.087
-435.719	87.419	0.083	0.092
-434.705	800.000	-0.054	0.195
-433.690	111.413	-0.096	-0.115
-432.676	-2.635	0.218	-0.152
-431.661	-200.000	0.025	0.250
-430.646	-200.000	-0.058	-0.362
-429.632	31.201	-0.049	-0.042
-428.617	-21.427	-0.073	0.044
-427.603	44.732	0.064	0.059
-426.588	-88.053	-0.172	0.052
-425.573	254.330	0.206	-0.351
-424.559	-132.314	-0.104	0.013
-423.544	-72.749	-0.107	-0.039
-422.530	-99.506	-0.080	-0.020
-421.515	-21.054	0.215	-0.132
-420.500	-173.119	-0.129	-0.004
-419.486	-17.657	0.182	0.114
-418.471	-200.000	-0.029	0.238
-417.457	-136.872	-0.230	0.026
-416.442	-105.625	-0.259	0.059
-415.428	416.227	0.154	0.327
-414.413	-200.000	-0.032	-0.193
-413.398	-146.102	-0.067	-0.006
-412.384	113.960	-0.163	-0.198
-411.369	59.592	-0.163	-0.161
-410.355	-122.507	-0.310	0.050
-409.340	-140.531	0.208	-0.022
-408.325	-66.825	0.319	0.126
-407.311	177.710	-0.134	0.195
-406.296	62.152	0.150	0.149
-405.282	-24.941	-0.226	-0.134
-404.267	129.608	-0.117	0.149
-403.252	248.219	0.184	-0.310
-402.238	133.898	-0.065	0.084
-401.223	212.814	0.116	0.183
-400.209	-200.000	-0.001	-0.031
-399.194	114.066	-0.107	-0.130
-398.179	329.543	-0.036	-0.070
-397.165	155.941	-0.070	-0.096
-396.150	-91.426	-0.198	-0.056
-395.136	546.248	-0.055	-0.131
-394.121	491.371	-0.141	-0.322
-393.106	420.306	-0.054	-0.116
-392.092	159.393	-0.163	-0.227
-391.077	52.420	-0.018	-0.017
-390.063	80.452	0.158	-0.170
-389.048	193.289	0.045	0.068
-388.033	65.076	0.259	-0.261
-387.019	-111.632	-0.085	-0.017
-386.004	4.552	0.374	0.273
-384.990	-200.000	-0.030	-0.216
-383.975	800.000	0.071	-0.292
-382.960	742.050	0.061	-0.162
-381.946	-155.264	0.209	0.014
-380.931	180.594	-0.168	0.245
-379.917	545.873	-0.132	-0.314
-378.902	183.510	-0.197	0.290
-377.888	-155.734	-0.300	-0.019
-376.873	-200.000	-0.006	-0.169
-375.858	123.556	0.284	-0.355
-374.844	-82.918	0.133	-0.043
-373.829	-200.000	-0.018	-0.167
-372.815	-63.572	-0.142	0.058
-371.800	482.460	0.027	0.060
-370.785	800.000	-0.064	0.269
-369.771	800.000	0.049	0.200
-368.756	639.754	0.085	0.215
-367.742	74.045	-0.156	-0.163
-366.727	479.901	0.043	0.097
-365.712	31.571	-0.197	0.169
-364.698	-200.000	0.003	0.291
-363.683	57.117	0.227	0.220
-362.669	-157.310	-0.249	-0.015
-361.654	-186.179	0.208	0.003
-360.639	-86.430	0.075	0.023
-359.625	-27.545	-0.094	-0.054
-358.610	7.567	0.141	0.105
-357.596	-93.004	-0.214	-0.060
-356.581	-200.000	-0.049	-0.269
-355.566	-58.944	0.280	-0.120
-354.552	-200.000	0.062	0.321
-353.537	-200.000	-0.003	0.101
-352.523	-60.123	0.333	-0.142
-351.508	157.269	-0.165	-0.227
-350.493	-200.000	0.010	-0.049
-349.479	56.699	0.243	0.235
-348.464	-97.441	0.208	0.054
-347.450	373.827	0.069	-0.140
-346.435	357.116	-0.088	-0.174
-345.420	-118.551	0.229	-0.040
-344.406	-72.318	0.007	0.003
-343.391	96.149	-0.026	-0.030
-342.377	166.873	-0.154	-0.217
-341.362	99.730	-0.164	0.189
-340.348	-52.054	0.332	0.154
-339.333	-157.338	-0.232	-0.014
-338.318	117.657	0.198	-0.243
-337.304	-104.810	0.162	-0.037
-336.289	-104.562	-0.361	0.083
-335.275	34.716	-0.378	0.329
-334.260	126.516	0.171	-0.216
-333.245	-98.862	-0.134	0.034
-332.231	800.000	-0.098	0.300
-331.216	45.863	-0.061	-0.056
-330.202	800.000	0.051	0.198
-329.187	-49.244	0.112	0.053
-328.172	182.556	-0.224	-0.328
-327.158	-112.043	0.322	0.065
-326.143	-115.281	0.314	0.059
-325.129	-11.773	0.070	0.046
-324.114	37.804	0.155	0.137
-323.099	-200.000	0.048	-0.361
-322.085	27.900	-0.432	-0.362
-321.070	-63.281	-0.131	-0.053
-320.056	-200.000	-0.020	-0.227
-319.041	37.815	0.113	0.100
-318.026	361.158	0.116	0.232
-317.012	800.000	0.039	-0.118
-315.997	213.026	0.122	-0.191
-314.983	-27.182	-0.204	-0.118
-313.968	16.075	0.088	0.069
-312.953	452.311	-0.074	-0.162
-311.939	-153.932	0.192	-0.013
-310.924	-87.395	0.217	0.065
-309.910	151.654	0.080	-0.109
-308.895	35.096	0.293	-0.255
-307.880	800.000	-0.048	-0.164
-306.866	-126.075	0.383	-0.057
-305.851	-200.000	0.049	0.358
-304.837	21.282	0.030	-0.024
-303.822	800.000	-0.024	0.083
-302.807	62.451	-0.260	-0.258
-301.793	172.414	0.148	0.212
-300.778	-112.018	-0.432	0.086
-299.764	-169.297	-0.139	0.005
-298.749	105.884	0.138	-0.162
-297.735	723.500	0.254	0.672
-296.720	109.902	-0.142	0.169
-295.705	96.862	-0.214	-0.244
-294.691	-60.685	-0.072	0.030
-293.676	-200.000	0.035	-0.276
-292.662	800.000	0.102	0.323
-291.647	-44.173	-0.081	-0.040
-290.632	-61.002	0.026	-0.011
-289.618	-32.578	0.058	0.032
-288.603	-85.958	0.299	0.092
-287.589	626.123	0.044	-0.109
-286.574	157.933	-0.111	0.153
-285.559	-54.676	0.181	0.081
-284.545	-102.272	-0.089	-0.021
-283.530	-200.000	0.004	0.044
-282.516	12.544	-0.230	0.176
-281.501	49.531	-0.157	0.147
-280.486	-26.922	-0.044	-0.025
-279.472	17.370	0.120	0.095
-278.457	261.858	0.098	0.169
-277.443	-148.180	-0.470	0.039
-276.428	-95.111	-0.179	0.048
-275.413	12.966	0.121	0.093
-274.399	-79.201	0.219	-0.074
-273.384	800.000	0.113	0.341
-272.370	-93.522	-0.108	-0.030
-271.355	-200.000	0.086	0.439
-270.340	28.259	-0.168	-0.141
-269.326	161.294	0.134	-0.186
-268.311	-98.900	-0.075	0.019
-267.297	53.072	-0.240	0.228
-266.282	-66.065	0.303	0.120
-265.267	84.523	-0.091	0.099
-264.253	-146.507	-0.079	-0.007
-263.238	-106.256	0.110	0.025
-262.224	75.195	-0.193	-0.202
-261.209	5.636	-0.199	0.146
-260.195	-200.000	0.001	0.154
-259.180	-155.587	-0.195	-0.012
-258.165	-200.000	0.007	0.242
-257.151	800.000	-0.045	0.152
-256.136	800.000	0.082	0.348
-255.122	-111.414	0.241	0.049
-254.107	42.272	-0.099	0.089
-253.092	570.743	0.009	-0.023
-252.078	-200.000	-0.062	-0.280
-251.063	101.819	0.160	-0.185
-250.049	106.748	-0.143	-0.168
-249.034	-87.824	-0.320	0.096
-248.019	-51.736	-0.156	-0.072
-247.005	-200.000	0.025	0.188
-245.990	158.507	-0.157	0.217
-244.976	-186.967	-0.291	-0.004
-243.961	138.561	-0.043	-0.055
-242.946	-142.624	0.231	-0.022
-241.932	33.195	0.197	0.169
-240.917	22.740	-0.298	0.242
-239.903	-153.186	-0.044	0.003
-238.888	-89.845	0.075	-0.022
-237.873	-184.501	-0.474	0.008
-236.859	-159.314	0.289	0.016
-235.844	342.815	-0.055	0.107
-234.830	263.339	0.094	0.162
-233.815	-200.000	-0.002	-0.177
-232.800	116.040	-0.199	0.242
-231.786	297.494	0.086	-0.156
-230.771	132.822	-0.146	0.187
-229.757	192.319	0.032	-0.049
-228.742	62.367	0.056	0.055
-227.727	800.000	-0.050	0.177
-226.713	-200.000	-0.008	0.207
-225.698	46.490	0.150	0.138
-224.684	-110.302	-0.304	0.063
-223.669	-200.000	0.011	-0.082
-222.655	431.218	-0.069	0.147
-221.640	800.000	-0.071	0.303
-220.625	-167.363	0.098	0.004
-219.611	800.000	-0.091	0.270
-218.596	69.682	-0.055	0.056
-217.582	-8.026	-0.322	-0.215
-216.567	-200.000	-0.037	-0.324
-215.552	471.650	-0.086	-0.191
-214.538	-200.000	0.035	-0.196
-213.523	-79.783	0.237	-0.079
-212.509	4.624	0.176	-0.128
-211.494	-135.259	0.025	0.003
-210.479	-7.287	-0.038	-0.026
-209.465	-40.175	0.318	-0.164
-208.450	-200.000	-0.059	-0.299
-207.436	800.000	-0.074	-0.205
-206.421	-69.647	0.160	0.061
-205.406	-200.000	-0.035	0.296
-204.392	231.190	0.080	0.130
-203.377	53.497	0.155	0.147
-202.363	-200.000	0.029	0.177
-201.348	-200.000	-0.048	-0.271
-200.333	-26.906	0.267	-0.154
-199.319	15.676	-0.364	0.283
-198.304	-44.743	-0.156	0.077
-197.290	277.100	0.101	-0.178
-196.275	800.000	-0.021	-0.069
-195.260	-56.324	0.151	0.066
-194.246	399.936	0.252	0.522
-193.231	-200.000	-0.001	-0.093
-192.217	800.000	0.025	0.106
-191.202	48.029	0.269	0.249
-190.187	-8.048	0.169	0.113
-189.173	609.192	-0.047	0.115
-188.158	-103.037	-0.169	0.040
-187.144	104.893	0.112	-0.131
-186.129	-200.000	0.010	0.352
-185.114	41.312	-0.320	-0.286
-184.100	97.837	0.144	-0.163
-183.085	194.511	0.186	0.279
-182.071	68.257	0.057	0.058
-181.056	800.000	-0.082	-0.244
-180.042	30.430	-0.207	0.175
-179.027	317.441	-0.062	0.116
-178.012	29.596	0.177	-0.149
-176.998	-26.691	0.253	0.147
-175.983	165.974	-0.152	-0.212
-174.969	-200.000	-0.024	-0.152
-173.954	47.507	0.241	-0.222
-172.939	70.524	0.134	0.137
-171.925	119.048	0.248	0.303
-170.910	101.703	0.256	0.295
-169.896	773.797	0.083	-0.222
-168.881	-114.552	0.137	-0.026
-167.866	-184.478	-0.239	-0.004
-166.852	-200.000	0.034	-0.446
-165.837	-200.000	0.007	0.455
-164.823	174.953	0.227	-0.324
-163.808	-159.550	0.102	-0.006
-162.793	-130.824	0.192	-0.026
-161.779	24.823	-0.128	0.105
-160.764	32.826	-0.121	-0.103
-159.750	-28.198	-0.324	0.185
-158.735	-42.164	-0.072	-0.036
-157.720	-177.485	-0.112	0.003
-156.706	800.000	-0.083	0.264
-155.691	-72.414	0.202	-0.074
-154.677	229.087	0.100	0.162
-153.662	-200.000	-0.157	-0.001
-152.647	283.706	-0.110	0.195
-151.633	-44.773	0.211	0.104
-150.618	95.077	-0.300	-0.338
-149.604	-200.000	0.027	-0.491
-148.589	800.000	0.030	-0.096
-147.574	-164.690	0.256	-0.011
-146.560	-161.387	-0.147	-0.008
-145.545	-200.000	-0.019	0.320
-144.531	800.000	-0.094	0.349
-143.516	800.000	0.045	0.161
-142.502	39.240	0.200	0.177
-141.487	418.846	0.121	0.255
-140.472	153.423	-0.238	0.322
-139.458	793.957	0.050	0.135
-138.443	-139.354	0.395	-0.042
-137.429	-58.984	0.089	0.038
-136.414	-59.449	0.109	0.046
-135.399	800.000	0.070	0.288
-134.385	728.651	-0.125	-0.329
-133.370	69.425	-0.172	-0.175
-132.356	171.626	0.192	-0.272
-131.341	-200.000	-0.060	-0.398
-130.326	61.796	0.144	-0.142
-129.312	639.015	-0.198	0.497
-128.297	-112.145	-0.261	-0.052
-127.283	800.000	0.085	0.298
-126.268	-110.622	0.148	0.030
-125.253	86.547	0.203	0.221
-124.239	-101.923	0.026	0.006
-123.224	187.356	-0.048	0.071
-122.210	-200.000	0.039	-0.186
-121.195	-25.995	0.230	-0.133
