DTS Sentinel unit serial number:	SN413079Multiplexer serial number:	ORYXHardware model number:	OX4-SRSoftware version number:	ORYX F/W v4.00 Oryx Data Collector v3.7.2.0data status	okinstallation	princeton_trtdifferential loss correction	single-endedforward channel	channel 1reverse channel	N/Adate	2019/09/14time	15:18:35forward acquisition time	60.00reverse acquisition time	0.00gamma	496.2192k internal	0.2293k external	0.2293temperature offset calibration	1.0078default loss term (dB/km)	0.3790temperature slope calibration	1.0000multiplexer offset coefficient	1.0000multiplexer slope coefficient	1.0000fibre end	0.00T internal ref (°C)	39.06T ext. ref 1 (°C)	5.14T ext. ref 2 (°C)	34.22length (m)	temperature (°C)	Stokes	anti-Stokes-747.200	-93.743	-0.259	-0.073
-746.185	82.420	-0.117	-0.130
-745.171	-80.130	-0.395	0.135
-744.156	-40.127	0.084	-0.045
-743.142	-200.000	0.009	-0.065
-742.127	-200.000	-0.099	0.458
-741.112	223.119	0.137	0.226
-740.098	295.239	-0.039	-0.072
-739.083	129.810	-0.198	0.259
-738.069	-21.734	-0.125	0.078
-737.054	-158.611	-0.205	0.012
-736.039	-200.000	-0.048	-0.420
-735.025	326.753	0.146	0.287
-734.010	800.000	-0.008	-0.031
-732.996	546.831	0.044	-0.107
-731.981	800.000	0.108	-0.311
-730.966	-68.536	0.022	-0.009
-729.952	-113.361	-0.246	-0.049
-728.937	112.231	-0.255	-0.316
-727.923	-17.450	-0.276	-0.178
-726.908	-5.487	-0.072	-0.051
-725.894	-200.000	-0.005	-0.238
-724.879	260.258	0.084	-0.149
-723.864	-200.000	0.047	0.273
-722.850	-124.677	-0.290	0.046
-721.835	-114.414	0.144	-0.028
-720.821	156.305	-0.111	0.157
-719.806	800.000	0.053	-0.225
-718.791	14.072	-0.112	-0.089
-717.777	122.075	0.201	-0.257
-716.762	-141.782	-0.151	-0.015
-715.748	-155.611	-0.065	0.004
-714.733	-144.022	0.093	-0.009
-713.718	157.419	0.127	-0.180
-712.704	-161.469	-0.280	0.015
-711.689	69.709	0.132	-0.139
-710.675	-200.000	-0.016	-0.233
-709.660	-200.000	0.046	0.298
-708.645	-179.208	0.182	-0.004
-707.631	-46.926	-0.291	0.145
-706.616	80.685	0.295	-0.325
-705.602	800.000	-0.106	-0.416
-704.587	-200.000	-0.011	-0.077
-703.572	66.109	-0.235	-0.244
-702.558	27.815	0.166	0.143
-701.543	403.572	0.073	0.157
-700.529	8.367	-0.273	0.209
-699.514	-16.681	-0.264	-0.170
-698.499	150.487	-0.189	0.261
-697.485	-36.221	-0.144	0.079
-696.470	-175.400	-0.309	0.009
-695.456	124.055	-0.144	0.185
-694.441	800.000	-0.009	-0.036
-693.426	-200.000	-0.028	0.212
-692.412	800.000	0.030	-0.126
-691.397	18.394	-0.202	-0.165
-690.383	-200.000	0.033	-0.276
-689.368	-178.988	-0.258	-0.006
-688.354	75.882	0.075	-0.080
-687.339	604.827	-0.056	-0.142
-686.324	800.000	-0.125	0.434
-685.310	-57.494	0.159	0.071
-684.295	273.666	-0.100	-0.181
-683.281	800.000	-0.130	-0.449
-682.266	117.247	0.279	-0.350
-681.251	-29.950	-0.103	-0.060
-680.237	343.570	0.056	0.112
-679.222	-105.548	0.158	0.037
-678.208	-200.000	-0.053	-0.253
-677.193	196.147	-0.096	-0.149
-676.178	-164.514	-0.231	0.011
-675.164	-200.000	-0.002	0.070
-674.149	-65.606	-0.138	0.056
-673.135	154.702	-0.173	-0.242
-672.120	-200.000	0.060	0.320
-671.105	800.000	-0.118	0.352
-670.091	238.719	0.127	-0.215
-669.076	-200.000	0.000	-0.279
-668.062	-200.000	-0.001	0.073
-667.047	172.915	0.092	-0.136
-666.032	-169.052	-0.243	0.009
-665.018	166.312	-0.042	0.061
-664.003	-59.195	-0.301	0.132
-662.989	320.100	0.064	0.124
-661.974	-119.671	-0.023	0.004
-660.959	-200.000	-0.019	-0.140
-659.945	-200.000	-0.043	-0.270
-658.930	-13.448	0.164	-0.108
-657.916	41.535	-0.187	-0.173
-656.901	-5.792	-0.073	-0.051
-655.886	-130.605	0.237	0.033
-654.872	15.104	-0.039	0.031
-653.857	-1.536	-0.141	0.102
-652.843	54.607	-0.147	-0.145
-651.828	-136.078	-0.323	0.039
-650.814	-200.000	-0.000	-0.174
-649.799	-58.419	-0.291	0.129
-648.784	-44.786	0.250	-0.127
-647.770	-77.199	-0.270	0.096
-646.755	255.055	0.145	-0.253
-645.741	-50.661	-0.184	0.088
-644.726	-49.376	0.106	-0.052
-643.711	-200.000	0.042	0.461
-642.697	-138.234	-0.112	0.013
-641.682	800.000	0.053	0.168
-640.668	616.350	-0.105	-0.267
-639.653	116.615	0.010	0.012
-638.638	-200.000	-0.033	-0.259
-637.624	-97.672	-0.164	-0.043
-636.609	348.322	0.126	0.253
-635.595	-34.930	0.114	-0.063
-634.580	126.210	-0.120	-0.155
-633.565	800.000	-0.037	-0.120
-632.551	40.540	-0.240	0.220
-631.536	214.274	0.115	-0.185
-630.522	-63.905	-0.098	0.041
-629.507	134.148	0.165	-0.217
-628.492	-200.000	0.006	0.139
-627.478	23.207	0.253	-0.212
-626.463	-95.278	-0.084	-0.023
-625.449	-104.923	-0.243	-0.057
-624.434	-45.935	-0.027	-0.014
-623.419	68.159	0.297	-0.309
-622.405	-0.101	-0.261	-0.189
-621.390	-200.000	0.022	-0.294
-620.376	-167.429	0.298	-0.012
-619.361	-132.968	-0.034	-0.004
-618.346	325.518	-0.049	0.095
-617.332	-200.000	-0.013	-0.264
-616.317	547.338	-0.064	-0.155
-615.303	10.017	-0.122	0.094
-614.288	82.806	0.257	0.285
-613.273	76.890	0.167	-0.181
-612.259	-79.329	-0.323	-0.111
-611.244	93.650	0.168	0.194
-610.230	-200.000	0.049	-0.460
-609.215	-160.935	0.205	0.011
-608.201	490.164	-0.076	0.178
-607.186	393.610	-0.084	-0.179
-606.171	-116.776	-0.225	0.042
-605.157	228.583	-0.097	-0.161
-604.142	-175.666	-0.390	-0.011
-603.128	800.000	-0.013	-0.041
-602.113	-83.783	-0.316	-0.102
-601.098	508.294	0.008	-0.020
-600.084	-8.588	0.170	-0.116
-599.069	250.830	-0.170	0.293
-598.055	5.408	0.250	-0.188
-597.040	162.115	0.090	0.129
-596.025	-6.974	0.077	-0.053
-595.011	167.634	-0.048	0.070
-593.996	800.000	0.054	0.165
-592.982	-55.893	-0.093	0.042
-591.967	-113.625	-0.240	0.048
-590.952	800.000	-0.056	0.221
-589.938	-109.863	-0.082	-0.018
-588.923	-27.001	-0.113	0.067
-587.909	-200.000	-0.011	-0.308
-586.894	127.586	-0.031	-0.039
-585.879	233.358	0.215	0.360
-584.865	-64.319	0.119	0.049
-583.850	-62.932	-0.291	0.122
-582.836	306.128	-0.150	-0.284
-581.821	-77.380	-0.219	0.077
-580.806	19.657	0.295	-0.241
-579.792	-65.144	-0.041	-0.017
-578.777	-33.997	0.346	0.194
-577.763	-200.000	0.012	-0.113
-576.748	-157.266	-0.195	-0.012
-575.733	724.281	0.094	0.254
-574.719	-200.000	0.035	-0.170
-573.704	184.781	0.163	0.246
-572.690	-200.000	0.015	0.494
-571.675	-193.391	0.335	0.003
-570.661	335.688	-0.090	-0.178
-569.646	-188.519	-0.493	-0.006
-568.631	53.445	0.358	-0.349
-567.617	-200.000	0.009	0.135
-566.602	-85.205	-0.195	-0.062
-565.588	-200.000	-0.009	-0.308
-564.573	29.700	0.372	0.322
-563.558	-200.000	-0.037	0.233
-562.544	-200.000	0.046	0.213
-561.529	800.000	-0.100	0.417
-560.515	-83.958	0.566	-0.183
-559.500	12.727	-0.045	-0.035
-558.485	412.821	0.113	0.244
-557.471	-200.000	0.055	-0.391
-556.456	173.395	0.177	-0.259
-555.442	-200.000	0.013	0.179
-554.427	-86.693	-0.025	0.008
-553.412	457.155	0.135	0.304
-552.398	238.321	0.116	0.196
-551.383	99.828	0.161	0.190
-550.369	-200.000	0.010	-0.108
-549.354	146.268	-0.192	0.261
-548.339	77.252	-0.215	-0.232
-547.325	166.870	-0.141	-0.202
-546.310	-78.322	-0.316	-0.110
-545.296	219.859	-0.135	-0.219
-544.281	-169.204	-0.083	-0.003
-543.266	-183.526	-0.246	-0.004
-542.252	106.117	-0.129	-0.156
-541.237	5.536	-0.174	-0.130
-540.223	-19.121	-0.380	0.239
-539.208	85.711	-0.187	-0.209
-538.193	-61.984	-0.217	0.092
-537.179	-200.000	-0.018	0.181
-536.164	749.122	-0.047	-0.127
-535.150	-26.716	0.159	0.094
-534.135	-85.408	0.124	0.039
-533.121	-178.871	0.265	-0.006
-532.106	-74.509	0.151	0.055
-531.091	102.236	0.078	-0.092
-530.077	-121.637	-0.102	0.017
-529.062	589.922	0.057	-0.142
-528.048	544.406	0.071	0.172
-527.033	800.000	-0.032	-0.131
-526.018	692.335	0.084	0.224
-525.004	-3.604	-0.067	-0.047
-523.989	-98.650	-0.344	0.089
-522.975	-200.000	0.014	-0.190
-521.960	51.551	0.153	-0.147
-520.945	-187.428	0.174	0.002
-519.931	-50.811	-0.248	-0.118
-518.916	-200.000	0.000	-0.166
-517.902	288.773	-0.101	-0.186
-516.887	800.000	0.153	-0.450
-515.872	257.850	-0.063	-0.111
-514.858	25.290	-0.091	0.076
-513.843	-124.664	0.297	-0.047
-512.829	201.032	0.079	-0.123
-511.814	35.841	-0.224	0.200
-510.799	-32.574	0.116	0.066
-509.785	351.757	0.137	0.274
-508.770	35.225	0.061	-0.054
-507.756	356.957	-0.145	-0.294
-506.741	-200.000	-0.021	0.244
-505.726	-200.000	0.023	-0.373
-504.712	103.210	0.198	0.236
-503.697	16.741	0.073	0.058
-502.683	-12.179	-0.076	0.050
-501.668	-75.481	0.104	-0.038
-500.653	746.195	0.064	-0.175
-499.639	-101.874	-0.165	-0.040
-498.624	19.905	0.297	-0.242
-497.610	-85.339	0.180	0.057
-496.595	-13.366	-0.327	-0.215
-495.581	100.737	-0.248	0.292
-494.566	591.467	-0.031	-0.078
-493.551	54.625	0.172	0.168
-492.537	-59.535	0.456	-0.198
-491.522	-200.000	-0.016	-0.092
-490.508	-200.000	0.034	0.229
-489.493	252.142	0.055	-0.095
-488.478	-152.112	0.240	-0.018
-487.464	800.000	0.044	-0.167
-486.449	-89.760	-0.090	-0.027
-485.435	129.332	-0.445	0.576
-484.420	200.239	0.077	0.120
-483.405	167.255	-0.219	-0.314
-482.391	110.535	0.241	-0.294
-481.376	-19.720	-0.169	0.106
-480.362	-17.533	-0.119	-0.076
-479.347	236.184	0.056	0.093
-478.332	202.066	-0.130	0.203
-477.318	800.000	0.019	0.082
-476.303	97.843	0.038	-0.044
-475.289	379.415	-0.041	0.085
-474.274	51.199	-0.177	-0.170
-473.259	6.245	0.091	0.068
-472.245	238.032	-0.191	-0.320
-471.230	800.000	0.084	-0.248
-470.216	4.828	0.121	0.090
-469.201	-200.000	-0.019	0.193
-468.186	5.543	-0.304	0.228
-467.172	46.800	0.179	-0.169
-466.157	-103.683	-0.175	0.041
-465.143	-200.000	-0.031	0.163
-464.128	228.290	0.123	0.202
-463.113	-50.470	-0.197	0.094
-462.099	-76.610	0.380	0.135
-461.084	-200.000	-0.041	-0.230
-460.070	800.000	-0.124	-0.430
-459.055	-200.000	-0.008	-0.330
-458.040	-14.437	0.298	0.194
-457.026	104.237	-0.242	0.287
-456.011	-200.000	0.035	-0.408
-454.997	12.071	0.197	0.154
-453.982	31.862	0.032	0.028
-452.968	-200.000	-0.014	-0.093
-451.953	77.257	-0.329	0.354
-450.938	-79.185	0.026	0.009
-449.924	150.362	0.088	-0.121
-448.909	7.400	-0.235	-0.178
-447.895	-200.000	-0.008	0.154
-446.880	231.566	0.032	-0.053
-445.865	800.000	0.083	0.317
-444.851	800.000	0.097	0.295
-443.836	347.864	-0.163	0.324
-442.822	33.912	-0.147	0.129
-441.807	-130.288	0.405	0.056
-440.792	-103.313	-0.040	-0.009
-439.778	-200.000	0.014	-0.331
-438.763	-37.581	-0.265	-0.143
-437.749	-200.000	0.008	0.039
-436.734	54.549	-0.252	0.245
-435.719	-28.329	0.160	-0.094
-434.705	800.000	0.036	0.125
-433.690	89.866	0.165	-0.186
-432.676	-200.000	0.002	0.045
-431.661	-16.801	-0.178	-0.114
-430.646	-200.000	-0.072	-0.415
-429.632	-184.662	0.292	0.005
-428.617	-14.399	0.196	0.127
-427.603	-121.503	0.289	-0.049
-426.588	98.375	0.215	0.250
-425.573	60.451	0.145	-0.145
-424.559	-102.493	0.226	-0.055
-423.544	-142.966	0.074	-0.007
-422.530	132.393	0.076	-0.098
-421.515	33.430	0.303	-0.266
-420.500	-200.000	0.012	-0.311
-419.486	54.510	-0.129	0.126
-418.471	-21.920	0.421	0.258
-417.457	-200.000	0.012	-0.062
-416.442	-90.089	0.103	0.030
-415.428	761.966	0.106	0.290
-414.413	598.997	0.079	-0.198
-413.398	-21.210	-0.334	-0.206
-412.384	-93.456	-0.258	0.072
-411.369	-18.607	-0.140	-0.088
-410.355	-2.223	0.191	-0.135
-409.340	580.392	-0.033	0.083
-408.325	800.000	-0.040	0.147
-407.311	-41.436	0.321	0.167
-406.296	800.000	-0.112	-0.430
-405.282	427.405	-0.042	-0.092
-404.267	-107.737	0.027	-0.006
-403.252	45.823	0.127	0.118
-402.238	-200.000	0.006	-0.253
-401.223	-13.113	-0.085	-0.056
-400.209	-39.513	0.252	-0.133
-399.194	-25.222	0.217	0.130
-398.179	-200.000	0.063	-0.284
-397.165	102.243	0.157	-0.185
-396.150	15.746	0.205	-0.163
-395.136	-117.064	-0.182	-0.034
-394.121	-106.809	-0.142	-0.032
-393.106	-44.298	0.226	-0.114
-392.092	-200.000	0.007	0.251
-391.077	519.001	-0.068	0.161
-390.063	23.025	-0.227	-0.188
-389.048	800.000	0.045	0.156
-388.033	-85.559	0.113	-0.035
-387.019	-56.767	-0.149	-0.067
-386.004	-77.373	-0.097	0.034
-384.990	128.351	-0.010	0.013
-383.975	-200.000	0.005	0.247
-382.960	612.833	-0.163	0.411
-381.946	-200.000	0.010	-0.222
-380.931	57.169	0.191	0.188
-379.917	800.000	0.045	-0.163
-378.902	651.967	-0.036	-0.094
-377.888	-168.810	-0.488	-0.019
-376.873	-200.000	0.023	-0.105
-375.858	-200.000	0.037	0.173
-374.844	-61.656	0.234	-0.099
-373.829	-113.384	0.188	-0.037
-372.815	49.152	0.129	0.123
-371.800	269.907	0.221	-0.392
-370.785	313.284	0.161	-0.305
-369.771	800.000	0.068	0.199
-368.756	88.824	-0.230	0.258
-367.742	386.230	0.080	0.167
-366.727	-92.335	-0.122	-0.035
-365.712	-150.887	-0.240	0.018
-364.698	-10.083	-0.110	0.073
-363.683	608.578	-0.109	0.275
-362.669	33.753	-0.200	0.175
-361.654	663.989	-0.076	0.198
-360.639	119.268	0.119	0.149
-359.625	48.216	-0.091	-0.085
-358.610	44.358	-0.137	0.127
-357.596	-1.586	-0.197	-0.140
-356.581	405.791	-0.108	0.230
-355.566	266.699	-0.070	-0.123
-354.552	-200.000	0.001	0.051
-353.537	-92.981	0.230	-0.065
-352.523	48.320	0.114	0.107
-351.508	-200.000	-0.046	0.454
-350.493	183.947	0.004	0.006
-349.479	49.108	0.044	0.042
-348.464	93.896	-0.125	0.143
-347.450	-137.180	-0.217	-0.025
-346.435	80.565	-0.233	0.253
-345.420	-11.818	0.047	-0.031
-344.406	64.905	0.214	0.218
-343.391	-200.000	0.003	-0.106
-342.377	-3.813	0.261	0.183
-341.362	4.492	0.091	-0.067
-340.348	40.072	0.234	0.212
-339.333	-25.521	0.328	-0.195
-338.318	800.000	-0.080	-0.263
-337.304	108.770	-0.154	0.185
-336.289	98.634	0.144	-0.167
-335.275	14.682	0.150	0.118
-334.260	132.066	0.199	0.259
-333.245	419.224	-0.078	0.169
-332.231	-140.237	0.300	-0.032
-331.216	-15.375	-0.137	0.088
-330.202	44.098	-0.168	0.155
-329.187	-200.000	0.015	0.417
-328.172	-144.099	0.220	-0.021
-327.158	-200.000	-0.011	0.056
-326.143	-3.713	-0.103	-0.072
-325.129	40.241	0.044	0.040
-324.114	-49.735	-0.224	0.107
-323.099	-200.000	0.085	-0.569
-322.085	712.796	-0.085	-0.226
-321.070	-37.304	-0.119	0.064
-320.056	-152.478	0.409	0.030
-319.041	34.093	-0.226	-0.198
-318.026	309.885	0.031	-0.058
-317.012	-77.140	-0.226	-0.079
-315.997	-35.385	-0.239	-0.131
-314.983	65.979	0.124	0.127
-313.968	-72.180	-0.155	0.058
-312.953	-53.894	0.228	0.105
-311.939	707.162	-0.026	-0.069
-310.924	800.000	-0.065	-0.269
-309.910	-120.202	-0.215	-0.037
-308.895	-33.874	0.026	-0.014
-307.880	800.000	0.048	0.193
-306.866	-4.279	-0.345	-0.240
-305.851	-140.501	-0.291	0.030
-304.837	231.409	-0.068	-0.112
-303.822	0.040	-0.192	-0.137
-302.807	-124.034	0.308	0.049
-301.793	-80.771	0.155	0.052
-300.778	139.954	-0.154	0.204
-299.764	230.305	0.046	0.076
-298.749	-17.818	-0.082	-0.051
-297.735	-32.451	-0.164	-0.092
-296.720	144.870	0.076	-0.103
-295.705	-76.243	0.448	0.159
-294.691	800.000	0.098	0.387
-293.676	800.000	-0.047	-0.169
-292.662	-53.753	0.147	0.068
-291.647	531.191	-0.104	0.246
-290.632	144.910	-0.305	0.409
-289.618	-118.950	-0.401	0.071
-288.603	107.960	-0.132	-0.157
-287.589	28.332	-0.055	0.047
-286.574	800.000	-0.017	-0.065
-285.559	63.724	-0.158	0.160
-284.545	365.774	-0.044	0.089
-283.530	110.731	-0.262	-0.317
-282.516	-22.796	0.151	0.092
-281.501	-22.809	-0.215	-0.130
-280.486	-91.488	0.186	-0.053
-279.472	-132.626	0.278	-0.036
-278.457	-105.215	-0.167	-0.038
-277.443	-89.583	0.154	0.045
-276.428	-200.000	0.006	-0.200
-275.413	359.484	0.076	-0.152
-274.399	225.078	0.116	-0.189
-273.384	-88.700	0.234	0.070
-272.370	-8.703	-0.117	-0.079
-271.355	-140.486	-0.368	-0.038
-270.340	800.000	-0.089	0.324
-269.326	-200.000	-0.392	-0.001
-268.311	-200.000	-0.013	-0.127
-267.297	-181.443	-0.166	-0.003
-266.282	68.370	0.149	0.154
-265.267	-91.050	-0.254	0.073
-264.253	800.000	-0.049	0.181
-263.238	-200.000	-0.031	-0.221
-262.224	-12.812	-0.179	-0.117
-261.209	-58.288	0.014	0.006
-260.195	114.650	-0.231	-0.283
-259.180	715.103	0.057	-0.152
-258.165	-85.913	0.143	0.045
-257.151	-200.000	0.022	0.165
-256.136	-164.625	-0.183	-0.008
-255.122	-2.808	0.133	-0.093
-254.107	-66.418	0.189	-0.075
-253.092	343.084	0.127	0.250
-252.078	-200.000	-0.023	0.203
-251.063	-121.067	-0.256	-0.043
-250.049	-63.446	0.297	-0.123
-249.034	-147.684	-0.106	0.009
-248.019	800.000	-0.044	-0.154
-247.005	-200.000	-0.003	0.281
-245.990	54.663	0.091	0.088
-244.976	800.000	-0.096	-0.327
-243.961	63.086	-0.249	-0.251
-242.946	247.019	-0.064	-0.108
-241.932	-5.959	0.036	0.025
-240.917	-127.543	-0.319	-0.046
-239.903	-57.022	-0.117	-0.052
-238.888	-56.515	0.293	0.130
-237.873	360.974	0.170	-0.342
-236.859	-200.000	-0.024	0.324
-235.844	-109.179	0.141	-0.030
-234.830	800.000	0.049	0.196
-233.815	-84.986	-0.219	0.069
-232.800	-23.436	-0.372	-0.224
-231.786	-38.588	0.388	0.205
-230.771	144.768	-0.055	-0.073
-229.757	196.471	0.093	0.142
-228.742	-94.738	-0.279	0.076
-227.727	133.845	0.249	-0.323
-226.713	152.710	-0.160	0.220
-225.698	-112.838	-0.232	-0.046
-224.684	-97.167	-0.159	0.042
-223.669	69.181	-0.208	-0.214
-222.655	-200.000	-0.006	0.029
-221.640	-42.621	0.164	-0.084
-220.625	479.615	0.075	0.171
-219.611	-87.153	0.097	0.029
-218.596	796.500	0.033	-0.092
-217.582	800.000	-0.068	0.194
-216.567	290.893	-0.101	-0.184
-215.552	-129.012	-0.165	0.023
-214.538	136.019	-0.204	-0.267
-213.523	-200.000	0.040	-0.206
-212.509	-122.385	-0.075	-0.012
-211.494	-200.000	0.072	0.401
-210.479	108.426	-0.084	-0.100
-209.465	-49.917	0.220	0.104
-208.450	-64.976	-0.186	-0.075
-207.436	-96.761	0.151	0.040
-206.421	208.881	0.244	0.382
-205.406	-200.000	0.003	0.298
-204.392	175.294	0.089	0.129
-203.377	-23.889	-0.114	-0.068
-202.363	-106.565	-0.067	-0.015
-201.348	5.652	0.443	0.328
-200.333	-31.801	0.329	-0.185
-199.319	-114.089	-0.256	-0.050
-198.304	-74.104	-0.097	0.035
-197.290	236.466	0.160	0.265
-196.275	-30.390	0.260	0.148
-195.260	-200.000	0.003	-0.373
-194.246	-200.000	-0.007	-0.190
-193.231	44.926	-0.155	0.143
-192.217	-134.873	0.044	0.005
-191.202	-79.449	-0.091	0.031
-190.187	-30.809	0.115	0.065
-189.173	800.000	0.059	-0.181
-188.158	800.000	0.035	0.145
-187.144	-200.000	-0.002	0.218
-186.129	287.308	-0.123	0.223
-185.114	-130.829	0.306	-0.041
-184.100	800.000	0.045	-0.193
-183.085	-53.436	-0.191	0.088
-182.071	-54.666	-0.142	0.064
-181.056	-126.650	-0.039	0.006
-180.042	61.802	0.166	-0.165
-179.027	-200.000	0.003	0.028
-178.012	-135.212	0.355	-0.043
-176.998	-200.000	-0.012	-0.059
-175.983	116.239	0.052	-0.064
-174.969	800.000	-0.033	-0.094
-173.954	263.924	0.192	0.334
-172.939	53.774	0.151	0.145
-171.925	-77.882	0.308	-0.106
-170.910	-25.703	0.050	-0.030
-169.896	-200.000	0.090	-0.417
-168.881	-200.000	0.027	0.240
-167.866	154.689	-0.268	0.368
-166.852	42.831	0.080	0.073
-165.837	-83.282	0.384	0.123
-164.823	103.806	0.226	0.265
-163.808	800.000	0.056	0.213
-162.793	84.185	0.080	0.087
-161.779	351.523	0.115	-0.227
-160.764	619.964	-0.010	0.024
-159.750	800.000	-0.120	-0.522
-158.735	-110.729	-0.332	0.069
-157.720	800.000	-0.076	-0.315
-156.706	157.145	-0.158	-0.218
-155.691	128.572	0.160	-0.204
-154.677	-161.214	-0.091	-0.005
-153.662	78.181	0.178	0.190
-152.647	-99.102	0.209	0.053
-151.633	-89.541	-0.161	0.047
-150.618	45.711	0.228	0.210
-149.604	-200.000	-0.039	0.270
-148.589	800.000	0.108	0.315
-147.574	-47.934	0.302	0.146
-146.560	23.622	-0.188	0.155
-145.545	-200.000	-0.004	-0.031
-144.531	44.331	0.029	-0.027
-143.516	-132.190	0.131	0.017
-142.502	-200.000	0.014	0.152
-141.487	-80.352	0.229	0.077
-140.472	800.000	0.145	0.411
-139.458	120.130	0.315	-0.390
-138.443	-48.655	-0.233	0.112
-137.429	-2.637	0.226	0.158
-136.414	-121.968	-0.164	-0.027
-135.399	-200.000	-0.024	-0.128
-134.385	365.059	-0.028	-0.056
-133.370	-200.000	0.007	-0.059
-132.356	-72.552	-0.202	-0.075
-131.341	106.901	-0.032	0.038
-130.326	-98.822	-0.098	0.025
-129.312	800.000	-0.046	-0.143
-128.297	-41.045	-0.205	-0.106
-127.283	800.000	0.077	0.246
-126.268	516.683	-0.022	-0.051
-125.253	62.075	0.233	-0.232
-124.239	-50.604	0.357	0.168
-123.224	-200.000	-0.007	0.173
-122.210	272.261	0.072	0.127
-121.195	800.000	0.101	0.356
