DTS Sentinel unit serial number:	SN413079Multiplexer serial number:	ORYXHardware model number:	OX4-SRSoftware version number:	ORYX F/W v4.00 Oryx Data Collector v3.7.2.0data status	okinstallation	princeton_trtdifferential loss correction	single-endedforward channel	channel 1reverse channel	N/Adate	2019/09/16time	01:58:35forward acquisition time	60.00reverse acquisition time	0.00gamma	496.2192k internal	0.2332k external	0.2332temperature offset calibration	0.9976default loss term (dB/km)	0.3790temperature slope calibration	1.0000multiplexer offset coefficient	1.0000multiplexer slope coefficient	1.0000fibre end	0.00T internal ref (°C)	27.44T ext. ref 1 (°C)	10.08T ext. ref 2 (°C)	22.40length (m)	temperature (°C)	Stokes	anti-Stokes-747.200	152.450	0.201	0.277
-746.185	49.717	-0.098	0.093
-745.171	-82.243	0.145	-0.047
-744.156	-83.137	-0.285	-0.092
-743.142	-18.903	0.153	0.096
-742.127	-70.307	0.304	0.116
-741.112	-0.366	-0.267	-0.191
-740.098	53.879	-0.138	-0.133
-739.083	800.000	-0.103	-0.357
-738.069	-64.513	-0.498	0.203
-737.054	-64.013	0.354	-0.145
-736.039	518.289	-0.116	-0.274
-735.025	466.904	-0.136	0.306
-734.010	800.000	-0.043	0.186
-732.996	-76.265	-0.365	-0.129
-731.981	-200.000	0.012	0.098
-730.966	-45.025	0.444	0.222
-729.952	-108.337	0.101	-0.022
-728.937	-200.000	0.006	0.044
-727.923	-69.470	0.150	-0.058
-726.908	146.476	0.179	0.242
-725.894	454.200	-0.059	0.130
-724.879	-72.864	-0.401	-0.148
-723.864	164.950	0.085	0.120
-722.850	-107.388	-0.151	-0.033
-721.835	-200.000	-0.008	-0.172
-720.821	425.981	-0.037	-0.080
-719.806	-177.128	-0.178	-0.004
-718.791	185.184	0.200	-0.298
-717.777	800.000	-0.019	-0.069
-716.762	5.854	-0.059	0.044
-715.748	-108.792	0.079	-0.017
-714.733	800.000	-0.032	0.124
-713.718	800.000	-0.071	0.243
-712.704	-150.287	-0.211	0.016
-711.689	140.954	-0.238	-0.317
-710.675	-124.873	0.209	0.032
-709.660	109.971	-0.142	-0.172
-708.645	800.000	0.159	-0.472
-707.631	104.790	0.064	0.076
-706.616	-164.270	-0.391	-0.018
-705.602	-62.734	-0.345	-0.144
-704.587	-200.000	0.032	0.184
-703.572	-200.000	0.030	0.213
-702.558	-30.679	0.142	0.081
-701.543	652.227	0.102	0.263
-700.529	48.704	-0.278	-0.262
-699.514	-200.000	0.008	-0.120
-698.499	441.857	0.129	0.284
-697.485	800.000	0.004	-0.015
-696.470	-200.000	0.015	0.189
-695.456	297.934	-0.092	-0.169
-694.441	-98.236	-0.176	0.045
-693.426	-200.000	-0.032	0.148
-692.412	22.253	-0.116	-0.095
-691.397	35.800	0.244	0.215
-690.383	123.701	0.154	-0.194
-689.368	-31.595	0.159	-0.090
-688.354	800.000	-0.108	-0.344
-687.339	-200.000	-0.026	0.160
-686.324	187.621	0.091	0.136
-685.310	245.914	-0.087	0.147
-684.295	800.000	0.031	-0.110
-683.281	-200.000	-0.033	-0.247
-682.266	-86.235	-0.145	-0.045
-681.251	-200.000	0.021	-0.102
-680.237	-152.999	-0.381	-0.027
-679.222	-200.000	-0.004	-0.111
-678.208	737.490	0.007	-0.020
-677.193	-95.050	0.273	-0.074
-676.178	800.000	0.161	0.535
-675.164	-110.328	-0.384	-0.080
-674.149	-200.000	-0.004	-0.213
-673.135	-117.196	0.085	-0.015
-672.120	800.000	0.113	-0.372
-671.105	1.839	0.133	-0.096
-670.091	-200.000	-0.032	0.402
-669.076	-93.786	0.296	-0.082
-668.062	-40.339	-0.108	0.056
-667.047	487.147	0.092	-0.210
-666.032	14.842	-0.112	-0.088
-665.018	-36.525	-0.237	0.128
-664.003	-114.521	-0.155	0.030
-662.989	-200.000	-0.009	-0.156
-661.974	800.000	-0.055	-0.196
-660.959	-200.000	0.004	0.113
-659.945	-200.000	-0.005	0.179
-658.930	-93.435	0.240	0.067
-657.916	-158.164	-0.360	0.021
-656.901	-39.414	-0.465	-0.244
-655.886	-80.629	0.048	-0.016
-654.872	-154.134	-0.022	-0.002
-653.857	-74.650	-0.147	-0.053
-652.843	800.000	0.049	-0.164
-651.828	800.000	-0.021	0.067
-650.814	-35.607	-0.130	0.071
-649.799	250.132	-0.140	0.238
-648.784	-200.000	-0.045	-0.430
-647.770	52.457	0.287	0.275
-646.755	-52.737	0.132	0.061
-645.741	-161.030	0.118	-0.006
-644.726	-16.322	-0.153	0.097
-643.711	16.076	-0.158	0.125
-642.697	139.306	-0.120	0.158
-641.682	23.089	0.218	0.179
-640.668	-2.615	0.076	0.053
-639.653	37.985	0.306	0.273
-638.638	740.592	-0.063	0.169
-637.624	224.516	0.084	0.135
-636.609	5.964	0.148	-0.110
-635.595	35.301	-0.050	-0.044
-634.580	-125.651	-0.333	0.051
-633.565	-121.717	-0.325	0.054
-632.551	85.415	-0.117	-0.129
-631.536	684.467	-0.112	0.293
-630.522	-200.000	0.002	0.364
-629.507	-70.925	-0.156	-0.059
-628.492	45.196	0.142	-0.131
-627.478	-128.658	0.133	0.019
-626.463	-10.398	0.328	0.218
-625.449	-97.449	-0.214	0.056
-624.434	-69.658	-0.322	-0.123
-623.419	9.128	0.073	0.055
-622.405	-200.000	0.011	-0.270
-621.390	-25.416	0.029	0.017
-620.376	86.479	-0.112	0.124
-619.361	800.000	0.030	-0.103
-618.346	-169.879	-0.120	-0.004
-617.332	-23.072	0.187	0.113
-616.317	43.776	-0.224	-0.205
-615.303	220.447	0.195	0.313
-614.288	800.000	0.008	-0.026
-613.273	510.021	0.089	-0.207
-612.259	800.000	-0.018	0.074
-611.244	8.656	0.329	0.248
-610.230	-200.000	0.092	-0.000
-609.215	0.753	-0.303	0.217
-608.201	800.000	0.036	-0.102
-607.186	480.039	-0.013	-0.031
-606.171	-19.300	0.156	-0.097
-605.157	800.000	-0.059	-0.162
-604.142	-129.160	0.166	0.023
-603.128	800.000	0.093	-0.301
-602.113	-152.279	0.107	0.008
-601.098	-200.000	0.084	-0.393
-600.084	-96.904	-0.293	0.077
-599.069	-33.416	-0.381	-0.211
-598.055	482.245	-0.067	0.152
-597.040	-60.841	0.199	0.084
-596.025	31.125	-0.169	-0.145
-595.011	-134.115	-0.152	0.019
-593.996	-98.222	0.258	0.066
-592.982	519.350	-0.008	-0.018
-591.967	-80.071	0.095	0.032
-590.952	-200.000	0.071	-0.486
-589.938	-200.000	0.010	0.291
-588.923	153.182	-0.196	0.269
-587.909	-200.000	0.027	0.190
-586.894	-178.754	0.198	0.005
-585.879	-65.727	-0.172	0.069
-584.865	206.548	-0.090	-0.141
-583.850	68.934	-0.108	0.111
-582.836	468.226	0.053	-0.119
-581.821	667.143	-0.148	-0.381
-580.806	99.146	0.092	-0.106
-579.792	59.289	-0.087	-0.086
-578.777	-200.000	0.067	-0.302
-577.763	-140.278	-0.256	-0.027
-576.748	185.908	0.192	-0.286
-575.733	797.843	0.039	-0.109
-574.719	92.876	-0.231	-0.260
-573.704	-143.967	0.139	0.013
-572.690	551.932	-0.141	0.339
-571.675	-23.169	-0.232	0.140
-570.661	7.787	-0.309	-0.231
-569.646	-120.005	-0.312	0.053
-568.631	-104.300	0.004	-0.001
-567.617	23.166	0.208	-0.170
-566.602	-78.430	-0.286	-0.098
-565.588	-113.242	-0.649	0.128
-564.573	270.709	0.044	0.077
-563.558	-200.000	-0.029	0.265
-562.544	-200.000	0.066	-0.308
-561.529	800.000	-0.084	0.339
-560.515	-120.482	-0.049	0.008
-559.500	51.108	-0.121	-0.115
-558.485	321.741	-0.193	0.367
-557.471	119.623	-0.280	0.347
-556.456	-44.560	0.427	0.213
-555.442	484.222	-0.125	-0.283
-554.427	48.380	0.346	-0.324
-553.412	800.000	0.055	-0.191
-552.398	22.187	0.223	0.182
-551.383	-27.193	-0.338	-0.196
-550.369	111.860	-0.236	0.285
-549.354	351.323	0.108	-0.213
-548.339	371.372	-0.142	-0.287
-547.325	182.561	0.270	-0.398
-546.310	-115.958	0.222	-0.041
-545.296	-21.281	0.253	0.155
-544.281	-39.749	-0.186	-0.097
-543.266	94.186	0.225	0.255
-542.252	81.030	-0.177	-0.190
-541.237	-139.985	0.220	-0.023
-540.223	248.065	-0.095	0.160
-539.208	-167.832	0.261	-0.010
-538.193	38.273	-0.144	0.128
-537.179	292.278	-0.157	0.286
-536.164	-153.640	-0.150	-0.010
-535.150	-200.000	-0.009	0.086
-534.135	458.676	-0.115	0.256
-533.121	-130.881	-0.191	-0.026
-532.106	0.503	-0.137	-0.098
-531.091	-60.757	0.186	0.079
-530.077	-68.611	-0.372	0.144
-529.062	318.008	-0.071	-0.134
-528.048	-37.539	0.171	-0.091
-527.033	-164.561	0.190	0.009
-526.018	-197.260	-0.178	-0.001
-525.004	-86.262	-0.138	-0.042
-523.989	-27.605	-0.130	-0.075
-522.975	-128.941	0.182	0.026
-521.960	98.209	0.138	0.158
-520.945	-49.314	0.267	0.127
-519.931	-200.000	0.021	-0.449
-518.916	665.515	-0.140	-0.361
-517.902	-200.000	-0.088	0.490
-516.887	271.787	-0.087	-0.153
-515.872	800.000	-0.034	0.106
-514.858	30.940	-0.249	0.213
-513.843	56.764	-0.123	0.119
-512.829	85.753	-0.191	0.209
-511.814	-200.000	0.025	0.121
-510.799	-33.894	0.371	-0.204
-509.785	259.491	-0.088	0.151
-508.770	10.170	-0.093	-0.071
-507.756	-40.226	-0.354	-0.183
-506.741	60.268	0.294	0.290
-505.726	-11.080	0.102	-0.067
-504.712	800.000	-0.023	-0.069
-503.697	572.515	0.048	-0.118
-502.683	48.429	-0.068	0.063
-501.668	-200.000	0.029	-0.197
-500.653	174.667	0.116	0.168
-499.639	-34.749	-0.106	-0.058
-498.624	474.552	0.063	-0.141
-497.610	-39.704	-0.097	-0.051
-496.595	81.872	0.230	0.248
-495.581	-52.193	-0.291	0.134
-494.566	83.281	-0.040	0.043
-493.551	-2.301	0.110	0.077
-492.537	-200.000	0.031	0.240
-491.522	287.888	0.097	-0.175
-490.508	-8.635	0.103	0.069
-489.493	800.000	0.106	-0.415
-488.478	-200.000	-0.044	0.332
-487.464	24.783	0.198	0.163
-486.449	120.779	-0.072	-0.089
-485.435	259.481	-0.054	0.093
-484.420	-93.032	0.230	-0.064
-483.405	-56.239	-0.181	-0.080
-482.391	800.000	0.078	-0.307
-481.376	45.995	0.104	0.096
-480.362	-86.470	0.332	-0.102
-479.347	223.631	-0.077	0.123
-478.332	-64.201	-0.152	0.062
-477.318	-95.264	0.173	-0.046
-476.303	-200.000	-0.064	-0.312
-475.289	-16.720	0.173	0.109
-474.274	80.093	-0.239	0.256
-473.259	-125.491	0.165	-0.025
-472.245	105.700	-0.039	0.046
-471.230	2.937	0.289	0.209
-470.216	-142.822	-0.500	0.048
-469.201	-200.000	0.015	0.098
-468.186	4.555	-0.240	-0.175
-467.172	-200.000	-0.010	0.069
-466.157	86.839	-0.150	-0.165
-465.143	-200.000	0.002	-0.130
-464.128	222.986	0.097	-0.155
-463.113	-200.000	0.027	-0.338
-462.099	273.434	0.036	-0.064
-461.084	-51.515	0.340	-0.158
-460.070	-200.000	-0.003	0.024
-459.055	-2.394	-0.131	-0.092
-458.040	278.367	0.260	0.460
-457.026	-153.687	0.055	0.004
-456.011	-147.988	0.178	-0.015
-454.997	-200.000	0.037	-0.178
-453.982	363.589	-0.120	0.240
-452.968	90.296	-0.034	-0.038
-451.953	157.434	-0.052	-0.072
-450.938	148.561	-0.185	0.248
-449.924	-144.469	-0.067	0.006
-448.909	163.301	0.211	0.295
-447.895	-89.543	-0.470	-0.137
-446.880	18.394	0.092	-0.073
-445.865	383.414	-0.101	0.206
-444.851	-57.262	0.220	-0.096
-443.836	30.244	0.111	-0.094
-442.822	-200.000	0.009	0.041
-441.807	519.978	-0.112	0.261
-440.792	-31.031	0.342	0.192
-439.778	749.820	-0.114	0.306
-438.763	-200.000	0.024	0.161
-437.749	60.252	0.176	0.173
-436.734	-30.638	-0.430	-0.242
-435.719	-60.982	0.243	0.102
-434.705	85.723	-0.073	0.080
-433.690	-200.000	0.008	-0.043
-432.676	450.549	-0.045	0.098
-431.661	-181.349	-0.143	0.003
-430.646	246.406	0.107	-0.179
-429.632	32.693	-0.146	0.126
-428.617	-18.146	-0.229	-0.142
-427.603	122.593	0.228	0.284
-426.588	-129.084	0.084	-0.012
-425.573	242.240	-0.032	-0.054
-424.559	174.923	-0.122	-0.176
-423.544	-68.781	0.244	-0.094
-422.530	-43.719	0.191	0.095
-421.515	-58.976	0.162	0.070
-420.500	-96.677	0.232	0.061
-419.486	225.180	-0.055	-0.088
-418.471	336.839	-0.048	0.092
-417.457	105.474	-0.036	-0.042
-416.442	-107.209	0.267	0.058
-415.428	800.000	0.073	0.254
-414.413	-100.551	0.207	-0.051
-413.398	511.732	-0.072	-0.166
-412.384	466.038	0.099	0.221
-411.369	99.864	-0.206	0.237
-410.355	42.095	-0.312	0.281
-409.340	800.000	0.055	0.183
-408.325	103.035	-0.170	-0.198
-407.311	326.839	-0.043	-0.082
-406.296	-115.607	-0.036	0.007
-405.282	800.000	-0.043	0.183
-404.267	494.569	-0.117	0.266
-403.252	327.572	0.081	-0.154
-402.238	-44.099	-0.172	0.086
-401.223	-200.000	-0.023	0.330
-400.209	-14.800	-0.290	0.185
-399.194	-113.934	0.061	-0.012
-398.179	-200.000	0.000	-0.231
-397.165	185.745	0.038	-0.056
-396.150	-200.000	0.023	0.172
-395.136	-5.581	0.092	-0.063
-394.121	273.096	-0.191	-0.335
-393.106	473.631	-0.104	0.232
-392.092	800.000	-0.028	-0.078
-391.077	-3.031	0.262	-0.182
-390.063	214.612	0.106	0.167
-389.048	-200.000	-0.016	0.182
-388.033	290.328	0.229	-0.412
-387.019	421.758	0.053	0.112
-386.004	-169.202	-0.334	-0.012
-384.990	-200.000	0.003	-0.095
-383.975	-60.228	-0.143	0.060
-382.960	7.571	-0.271	-0.201
-381.946	55.604	-0.121	-0.116
-380.931	51.984	-0.119	0.112
-379.917	-78.781	0.168	0.057
-378.902	-92.950	-0.177	-0.049
-377.888	-84.347	0.326	0.102
-376.873	32.359	0.127	-0.108
-375.858	162.596	-0.046	-0.063
-374.844	-200.000	0.002	-0.286
-373.829	-131.084	0.299	0.040
-372.815	-200.000	0.035	-0.182
-371.800	417.390	0.149	0.315
-370.785	87.281	0.115	-0.126
-369.771	-123.090	0.183	0.029
-368.756	214.298	-0.190	0.299
-367.742	-200.000	0.022	-0.305
-366.727	-200.000	0.004	0.294
-365.712	24.009	0.190	-0.156
-364.698	-200.000	-0.008	0.191
-363.683	-200.000	-0.012	0.104
-362.669	-200.000	-0.012	0.137
-361.654	-0.898	0.116	0.082
-360.639	3.165	-0.146	-0.105
-359.625	341.385	-0.247	-0.478
-358.610	412.981	0.110	-0.231
-357.596	118.551	-0.131	-0.160
-356.581	631.276	-0.144	-0.361
-355.566	452.758	-0.112	-0.245
-354.552	-66.966	-0.099	0.039
-353.537	-200.000	-0.026	0.198
-352.523	-81.899	0.207	-0.067
-351.508	12.826	0.070	-0.053
-350.493	334.792	0.186	-0.356
-349.479	521.864	0.145	-0.337
-348.464	-134.558	0.346	0.042
-347.450	598.433	0.085	0.208
-346.435	72.614	0.041	0.042
-345.420	-109.591	0.143	0.030
-344.406	-89.853	-0.301	0.087
-343.391	-129.012	0.453	-0.063
-342.377	-200.000	0.013	-0.183
-341.362	-200.000	0.000	-0.193
-340.348	176.654	-0.071	0.103
-339.333	116.252	-0.091	0.111
-338.318	565.992	0.034	-0.080
-337.304	800.000	-0.012	-0.050
-336.289	60.355	0.116	0.114
-335.275	-96.044	-0.151	0.040
-334.260	-151.006	0.067	0.005
-333.245	151.836	-0.070	0.094
-332.231	-3.040	-0.088	0.061
-331.216	-109.288	-0.211	0.044
-330.202	800.000	0.021	0.082
-329.187	-135.959	0.081	0.009
-328.172	-57.675	0.264	-0.114
-327.158	-200.000	0.020	-0.160
-326.143	-200.000	-0.038	-0.230
-325.129	584.724	-0.046	-0.111
-324.114	141.738	-0.214	-0.280
-323.099	59.903	0.235	0.230
-322.085	136.223	0.132	0.170
-321.070	-29.613	-0.257	-0.145
-320.056	146.943	-0.083	-0.110
-319.041	-39.207	0.148	0.077
-318.026	-134.314	-0.190	0.023
-317.012	-200.000	-0.006	0.084
-315.997	272.409	-0.062	0.109
-314.983	-200.000	-0.002	-0.027
-313.968	116.501	-0.052	0.063
-312.953	-200.000	-0.023	-0.202
-311.939	800.000	-0.068	0.196
-310.924	687.558	0.039	-0.101
-309.910	800.000	-0.051	-0.180
-308.895	800.000	-0.162	-0.693
-307.880	317.908	0.065	0.122
-306.866	800.000	0.035	-0.150
-305.851	180.922	-0.108	0.158
-304.837	8.576	0.245	-0.182
-303.822	-52.409	0.186	-0.085
-302.807	-52.628	-0.110	-0.050
-301.793	-118.665	-0.129	-0.022
-300.778	800.000	-0.054	0.206
-299.764	-145.220	-0.028	0.003
-298.749	-181.986	-0.178	0.003
-297.735	800.000	-0.037	0.114
-296.720	-200.000	0.034	0.154
-295.705	800.000	-0.133	-0.382
-294.691	470.287	0.085	0.190
-293.676	62.613	0.242	-0.239
-292.662	-200.000	-0.038	-0.185
-291.647	16.065	0.171	-0.133
-290.632	86.382	0.227	-0.247
-289.618	-200.000	0.016	0.187
-288.603	-200.000	0.547	-0.002
-287.589	463.590	0.075	-0.165
-286.574	700.876	-0.068	0.177
-285.559	-38.589	-0.169	-0.088
-284.545	345.859	0.029	-0.056
-283.530	179.671	-0.106	-0.153
-282.516	-91.471	-0.103	-0.029
-281.501	49.098	0.235	-0.218
-280.486	-200.000	-0.010	0.220
-279.472	165.041	-0.159	0.222
-278.457	-200.000	0.016	0.200
-277.443	-200.000	-0.013	0.098
-276.428	-87.849	-0.251	0.075
-275.413	330.260	-0.033	0.062
-274.399	212.867	-0.158	-0.246
-273.384	560.806	0.063	-0.151
-272.370	65.324	-0.138	-0.138
-271.355	-80.667	0.292	-0.096
-270.340	45.293	-0.363	0.331
-269.326	-200.000	-0.002	-0.144
-268.311	-56.177	0.203	-0.089
-267.297	800.000	0.035	-0.133
-266.282	118.428	0.249	-0.303
-265.267	143.951	-0.211	-0.277
-264.253	-3.675	0.204	-0.140
-263.238	35.586	0.070	-0.061
-262.224	-104.536	-0.150	0.034
-261.209	800.000	0.072	0.265
-260.195	221.150	0.140	0.222
-259.180	-200.000	-0.055	0.382
-258.165	-39.745	0.138	-0.071
-257.151	-17.896	-0.062	-0.039
-256.136	-141.520	0.315	0.031
-255.122	-7.489	0.078	-0.052
-254.107	-200.000	-0.008	0.088
-253.092	22.341	0.306	0.247
-252.078	-100.443	-0.471	-0.115
-251.063	241.649	0.119	-0.196
-250.049	-128.935	-0.125	-0.017
-249.034	-200.000	0.000	0.092
-248.019	-200.000	-0.044	0.262
-247.005	-200.000	0.017	0.121
-245.990	-81.068	-0.197	0.064
-244.976	-200.000	0.006	0.208
-243.961	49.779	0.330	0.307
-242.946	-30.441	-0.203	0.113
-241.932	194.620	-0.150	-0.224
-240.917	416.902	-0.157	0.330
-239.903	-97.745	0.070	-0.018
-238.888	-59.175	0.148	-0.063
-237.873	-87.555	-0.395	0.118
-236.859	-119.659	0.173	0.030
-235.844	-154.823	-0.199	0.013
-234.830	-112.711	0.206	0.040
-233.815	511.884	0.125	0.287
-232.800	-37.261	-0.191	-0.101
-231.786	-200.000	0.045	0.312
-230.771	800.000	0.080	-0.342
-229.757	800.000	0.142	0.406
-228.742	-200.000	0.033	-0.146
-227.727	17.362	0.124	-0.097
-226.713	-200.000	-0.035	0.154
-225.698	-55.869	0.135	-0.060
-224.684	324.787	-0.099	0.187
-223.669	-23.077	0.324	0.192
-222.655	-200.000	-0.014	0.176
-221.640	93.552	-0.233	-0.260
-220.625	394.177	0.041	-0.084
-219.611	-65.419	-0.203	0.080
-218.596	625.236	0.130	-0.324
-217.582	-113.356	0.083	0.016
-216.567	13.051	0.175	0.133
-215.552	7.570	-0.108	-0.080
-214.538	-37.600	0.168	0.088
-213.523	-200.000	0.076	-0.381
-212.509	-102.216	0.178	-0.042
-211.494	-200.000	-0.035	0.372
-210.479	-42.713	0.326	0.163
-209.465	242.031	-0.104	-0.172
-208.450	-95.585	-0.262	-0.069
-207.436	-23.891	-0.093	0.055
-206.421	18.174	-0.151	0.118
-205.406	36.042	-0.232	-0.202
-204.392	-39.529	0.051	0.026
-203.377	-87.124	-0.238	-0.071
-202.363	96.519	0.052	-0.058
-201.348	234.140	0.122	-0.199
-200.333	-24.624	0.124	0.073
-199.319	-121.027	0.107	0.018
-198.304	199.082	0.235	0.355
-197.290	-200.000	-0.015	0.117
-196.275	448.168	0.046	-0.099
-195.260	-55.288	-0.090	0.040
-194.246	-200.000	0.043	-0.222
-193.231	-91.231	0.198	-0.056
-192.217	-200.000	0.036	-0.202
-191.202	-86.737	0.262	0.079
-190.187	800.000	0.016	0.066
-189.173	3.501	0.179	0.128
-188.158	-92.885	-0.191	-0.052
-187.144	8.993	0.213	0.158
-186.129	800.000	0.040	-0.172
-185.114	-101.216	0.060	-0.014
-184.100	342.557	0.150	0.289
-183.085	-66.342	0.296	0.116
-182.071	-200.000	0.030	-0.283
-181.056	234.341	-0.239	0.388
-180.042	-111.933	-0.268	0.053
-179.027	-57.397	-0.127	-0.055
-178.012	289.281	-0.081	0.144
-176.998	-176.923	-0.213	-0.005
-175.983	-148.378	0.127	-0.010
-174.969	98.611	-0.207	0.235
-173.954	58.875	0.085	0.082
-172.939	-31.272	-0.091	0.050
-171.925	281.047	0.192	-0.338
-170.910	458.092	0.105	0.229
-169.896	800.000	0.024	0.084
-168.881	-59.990	0.183	0.077
-167.866	-200.000	-0.022	-0.322
-166.852	263.560	-0.222	-0.380
-165.837	149.413	-0.081	-0.107
-164.823	-28.886	-0.219	0.124
-163.808	-111.705	-0.238	-0.047
-162.793	-39.642	-0.151	-0.077
-161.779	800.000	0.104	-0.419
-160.764	39.976	-0.125	-0.110
-159.750	-200.000	0.005	-0.125
-158.735	800.000	0.078	-0.225
-157.720	85.660	-0.044	-0.048
-156.706	-57.375	0.177	0.077
-155.691	444.203	0.024	-0.052
-154.677	117.934	0.133	-0.161
-153.662	-200.000	-0.037	-0.223
-152.647	207.008	-0.138	0.211
-151.633	429.923	0.103	-0.219
-150.618	-91.108	-0.192	0.054
-149.604	-200.000	-0.002	0.143
-148.589	-111.431	-0.434	-0.087
-147.574	-200.000	0.009	0.053
-146.560	-126.897	0.132	-0.019
-145.545	-95.057	0.048	-0.013
-144.531	-40.142	-0.039	0.020
-143.516	-46.229	0.067	0.032
-142.502	352.708	-0.066	0.128
-141.487	-200.000	-0.006	0.119
-140.472	55.151	0.129	-0.123
-139.458	792.158	0.037	-0.101
-138.443	-129.887	0.230	-0.031
-137.429	-105.134	-0.259	0.058
-136.414	800.000	-0.054	0.175
-135.399	-200.000	0.032	0.193
-134.385	497.632	-0.144	0.326
-133.370	-200.000	0.021	0.241
-132.356	-90.201	-0.115	-0.033
-131.341	-200.000	0.007	0.068
-130.326	-200.000	-0.004	-0.107
-129.312	-45.832	-0.153	-0.074
-128.297	-200.000	0.089	0.411
-127.283	-200.000	-0.047	-0.456
-126.268	-12.805	-0.079	0.050
-125.253	-200.000	0.035	-0.260
-124.239	-97.824	0.155	-0.039
-123.224	-100.034	-0.112	-0.027
-122.210	-200.000	-0.013	-0.122
-121.195	-71.598	-0.199	0.073
