DTS Sentinel unit serial number:	SN413079Multiplexer serial number:	ORYXHardware model number:	OX4-SRSoftware version number:	ORYX F/W v4.00 Oryx Data Collector v3.7.2.0data status	okinstallation	princeton_trtdifferential loss correction	single-endedforward channel	channel 1reverse channel	N/Adate	2019/09/18time	07:42:35forward acquisition time	60.00reverse acquisition time	0.00gamma	496.2192k internal	0.2339k external	0.2339temperature offset calibration	0.9976default loss term (dB/km)	0.3790temperature slope calibration	1.0000multiplexer offset coefficient	1.0000multiplexer slope coefficient	1.0000fibre end	0.00T internal ref (°C)	23.25T ext. ref 1 (°C)	0.19T ext. ref 2 (°C)	18.09length (m)	temperature (°C)	Stokes	anti-Stokes-747.200	95.666	0.149	-0.171
-746.185	84.599	-0.295	-0.323
-745.171	38.569	0.102	-0.092
-744.156	153.412	0.182	-0.250
-743.142	800.000	-0.047	0.155
-742.127	800.000	-0.054	0.189
-741.112	-137.073	-0.340	-0.039
-740.098	110.040	0.219	0.264
-739.083	-200.000	0.038	0.235
-738.069	-200.000	-0.040	0.297
-737.054	-200.000	0.002	0.422
-736.039	65.131	-0.289	0.293
-735.025	-153.501	0.293	-0.020
-734.010	-44.899	-0.165	0.082
-732.996	-26.880	0.121	0.071
-731.981	717.915	0.037	0.097
-730.966	-200.000	0.061	0.337
-729.952	40.672	0.115	0.104
-728.937	100.546	0.160	-0.187
-727.923	451.517	-0.073	0.162
-726.908	83.449	0.081	-0.088
-725.894	-105.247	0.033	0.007
-724.879	-24.983	-0.430	-0.256
-723.864	20.971	-0.325	-0.264
-722.850	-37.136	-0.250	-0.134
-721.835	633.456	-0.049	-0.125
-720.821	56.230	-0.216	0.211
-719.806	-200.000	0.025	-0.123
-718.791	-166.075	-0.160	-0.007
-717.777	-200.000	0.006	-0.129
-716.762	-53.570	0.152	0.070
-715.748	-2.703	-0.276	0.193
-714.733	99.906	-0.184	-0.214
-713.718	405.873	-0.020	-0.042
-712.704	44.154	-0.294	0.270
-711.689	11.941	0.088	0.067
-710.675	179.340	-0.028	-0.042
-709.660	219.448	-0.121	-0.194
-708.645	-18.065	0.234	-0.147
-707.631	-188.713	0.201	-0.002
-706.616	-21.246	-0.312	0.191
-705.602	-169.656	-0.072	-0.003
-704.587	101.999	-0.108	0.126
-703.572	1.165	-0.290	0.208
-702.558	109.002	-0.075	0.090
-701.543	-200.000	-0.002	0.220
-700.529	-34.397	0.134	0.073
-699.514	21.724	0.091	-0.074
-698.499	-4.292	-0.087	0.060
-697.485	-37.490	0.188	-0.100
-696.470	-96.912	-0.188	0.049
-695.456	0.140	0.228	-0.163
-694.441	-62.684	0.426	-0.177
-693.426	657.205	0.163	0.418
-692.412	394.053	-0.091	-0.190
-691.397	-18.617	-0.145	-0.091
-690.383	434.407	-0.111	-0.242
-689.368	-166.492	-0.414	-0.017
-688.354	-126.702	-0.140	-0.021
-687.339	-120.355	-0.240	0.041
-686.324	800.000	-0.092	-0.340
-685.310	222.360	-0.146	0.235
-684.295	-170.556	0.726	-0.025
-683.281	386.279	-0.105	-0.216
-682.266	-200.000	0.055	-0.344
-681.251	-140.744	-0.150	0.015
-680.237	138.449	-0.093	0.121
-679.222	-149.789	-0.050	-0.004
-678.208	139.254	0.135	0.177
-677.193	378.858	0.117	-0.240
-676.178	63.203	0.068	0.068
-675.164	484.921	-0.058	-0.132
-674.149	-104.134	-0.101	0.023
-673.135	5.848	0.156	0.116
-672.120	59.343	0.179	0.176
-671.105	-200.000	0.030	-0.178
-670.091	281.776	-0.214	-0.383
-669.076	607.501	0.103	-0.257
-668.062	-137.962	-0.282	-0.031
-667.047	-23.834	-0.347	-0.208
-666.032	202.905	-0.049	0.076
-665.018	800.000	-0.119	-0.363
-664.003	-81.171	0.342	-0.113
-662.989	15.334	-0.195	0.153
-661.974	-5.058	0.178	0.123
-660.959	-200.000	0.088	-0.421
-659.945	-200.000	-0.044	-0.400
-658.930	800.000	-0.034	-0.103
-657.916	-200.000	0.012	-0.272
-656.901	115.146	-0.253	-0.309
-655.886	-200.000	0.045	0.235
-654.872	4.722	-0.273	-0.201
-653.857	-66.516	-0.144	0.057
-652.843	23.663	-0.381	-0.314
-651.828	43.259	-0.036	-0.033
-650.814	741.486	-0.046	0.123
-649.799	-5.618	-0.217	0.149
-648.784	800.000	-0.007	0.025
-647.770	-44.769	0.272	-0.136
-646.755	-32.576	-0.153	-0.085
-645.741	-96.998	0.188	-0.049
-644.726	25.515	-0.096	0.080
-643.711	-200.000	0.018	-0.181
-642.697	231.089	-0.151	0.247
-641.682	45.394	0.208	0.192
-640.668	62.509	-0.101	0.101
-639.653	-75.555	-0.401	-0.143
-638.638	28.964	-0.204	-0.172
-637.624	178.051	-0.048	-0.071
-636.609	-90.133	0.229	-0.067
-635.595	-200.000	-0.004	0.138
-634.580	-22.905	-0.378	0.228
-633.565	-100.906	0.161	0.039
-632.551	426.350	-0.173	-0.372
-631.536	132.998	0.049	-0.063
-630.522	-147.277	0.118	0.010
-629.507	23.454	0.268	0.220
-628.492	-92.739	-0.034	-0.009
-627.478	-119.725	-0.184	0.032
-626.463	-90.163	-0.136	0.040
-625.449	-117.755	-0.304	-0.054
-624.434	267.225	0.089	0.156
-623.419	14.768	0.172	-0.134
-622.405	-120.829	-0.221	-0.037
-621.390	-110.351	-0.026	0.005
-620.376	392.923	0.170	0.353
-619.361	-200.000	-0.016	-0.257
-618.346	-34.801	-0.078	-0.043
-617.332	66.892	0.112	-0.114
-616.317	-143.741	0.239	0.023
-615.303	124.496	0.080	0.101
-614.288	-200.000	-0.019	-0.217
-613.273	-37.503	-0.403	-0.215
-612.259	-200.000	0.063	0.314
-611.244	800.000	-0.032	0.112
-610.230	-10.527	0.218	0.144
-609.215	-60.338	0.105	0.045
-608.201	-200.000	-0.033	-0.197
-607.186	300.151	0.184	-0.338
-606.171	-157.813	-0.197	-0.012
-605.157	120.788	-0.127	-0.158
-604.142	800.000	-0.112	0.309
-603.128	151.650	0.098	0.133
-602.113	-130.129	-0.266	0.036
-601.098	-27.203	0.229	-0.133
-600.084	-200.000	-0.031	-0.363
-599.069	11.521	0.073	-0.056
-598.055	137.320	-0.080	0.105
-597.040	-56.427	-0.365	0.161
-596.025	-200.000	0.021	-0.097
-595.011	-142.509	0.228	-0.022
-593.996	15.592	0.074	-0.058
-592.982	119.009	0.111	0.137
-591.967	338.830	-0.058	-0.113
-590.952	-200.000	-0.008	0.167
-589.938	-121.020	-0.294	-0.049
-588.923	10.753	-0.179	-0.136
-587.909	-99.962	0.108	-0.027
-586.894	-121.551	-0.349	0.058
-585.879	128.228	0.084	0.106
-584.865	800.000	0.082	0.228
-583.850	-67.456	-0.234	-0.092
-582.836	472.439	0.161	-0.362
-581.821	209.981	-0.048	0.076
-580.806	-95.388	0.205	0.055
-579.792	52.431	0.217	0.207
-578.777	800.000	0.019	0.071
-577.763	325.663	0.135	-0.258
-576.748	800.000	-0.043	-0.169
-575.733	85.002	-0.274	-0.299
-574.719	-89.718	-0.328	0.096
-573.704	-56.870	0.294	0.130
-572.690	-200.000	0.058	-0.280
-571.675	312.737	0.045	-0.083
-570.661	-101.756	0.103	0.025
-569.646	-200.000	0.013	-0.234
-568.631	265.677	0.110	-0.191
-567.617	-26.649	-0.245	-0.143
-566.602	-85.158	-0.218	0.068
-565.588	-79.629	-0.139	-0.047
-564.573	46.721	0.223	-0.206
-563.558	800.000	-0.092	0.328
-562.544	-89.840	-0.446	0.130
-561.529	92.223	0.358	-0.401
-560.515	-96.980	-0.260	-0.068
-559.500	47.069	-0.381	-0.353
-558.485	-27.508	0.136	0.079
-557.471	262.699	0.099	0.171
-556.456	291.679	0.151	-0.273
-555.442	800.000	-0.135	-0.405
-554.427	-200.000	-0.103	0.452
-553.412	-58.471	-0.194	0.084
-552.398	261.853	-0.047	0.081
-551.383	-88.230	0.094	-0.028
-550.369	161.488	0.097	-0.135
-549.354	84.664	-0.185	-0.202
-548.339	800.000	0.059	0.193
-547.325	-200.000	0.010	0.306
-546.310	-62.807	-0.165	-0.068
-545.296	42.011	-0.266	-0.241
-544.281	-102.860	0.412	0.097
-543.266	-70.220	-0.082	0.031
-542.252	48.387	-0.237	0.220
-541.237	800.000	-0.034	0.098
-540.223	540.960	-0.178	-0.423
-539.208	16.439	0.113	0.089
-538.193	-57.969	-0.148	0.064
-537.179	-49.504	-0.161	-0.076
-536.164	-186.618	-0.232	-0.003
-535.150	800.000	0.042	0.150
-534.135	-200.000	0.017	-0.144
-533.121	-134.918	-0.056	0.007
-532.106	800.000	0.038	0.135
-531.091	-74.955	0.075	-0.027
-530.077	70.421	0.080	-0.083
-529.062	-132.153	0.285	-0.037
-528.048	152.579	-0.099	-0.135
-527.033	20.608	0.247	-0.198
-526.018	162.978	-0.073	0.101
-525.004	361.322	0.125	0.248
-523.989	800.000	0.061	0.234
-522.975	344.518	-0.126	-0.246
-521.960	211.608	-0.221	0.346
-520.945	800.000	-0.039	0.164
-519.931	800.000	-0.057	-0.230
-518.916	-200.000	-0.034	0.265
-517.902	169.445	-0.097	0.138
-516.887	111.998	0.061	0.074
-515.872	-126.101	0.104	-0.015
-514.858	800.000	0.034	0.137
-513.843	63.193	0.179	0.178
-512.829	-91.630	-0.300	0.085
-511.814	-200.000	-0.024	0.276
-510.799	30.818	-0.090	-0.076
-509.785	14.531	-0.335	0.260
-508.770	800.000	-0.053	-0.150
-507.756	-63.702	0.140	-0.057
-506.741	-47.135	0.592	0.287
-505.726	-200.000	-0.003	-0.118
-504.712	15.116	-0.316	-0.246
-503.697	95.809	-0.149	-0.169
-502.683	-200.000	-0.028	-0.200
-501.668	-124.375	-0.147	0.023
-500.653	-200.000	0.014	0.136
-499.639	148.900	-0.112	-0.150
-498.624	-132.624	0.212	-0.027
-497.610	714.587	-0.054	0.143
-496.595	496.762	0.060	-0.136
-495.581	-20.102	0.100	-0.061
-494.566	800.000	-0.028	0.119
-493.551	-21.969	0.030	-0.018
-492.537	430.417	-0.091	0.196
-491.522	-158.606	0.088	0.005
-490.508	-200.000	-0.108	0.000
-489.493	-157.222	-0.215	-0.013
-488.478	773.577	0.072	-0.194
-487.464	-80.263	-0.309	-0.103
-486.449	189.468	0.076	-0.113
-485.435	15.847	-0.223	-0.174
-484.420	97.873	-0.097	-0.111
-483.405	32.993	0.152	0.130
-482.391	-160.526	0.264	0.014
-481.376	800.000	0.078	-0.244
-480.362	517.791	0.077	0.179
-479.347	-70.469	0.223	0.084
-478.332	138.320	-0.098	0.128
-477.318	-6.708	0.145	-0.098
-476.303	-171.708	0.240	-0.008
-475.289	-200.000	0.032	-0.296
-474.274	149.713	-0.095	-0.127
-473.259	-159.926	0.186	-0.010
-472.245	-51.933	-0.242	0.112
-471.230	278.152	-0.074	0.130
-470.216	-57.663	0.129	0.056
-469.201	-105.088	-0.064	-0.015
-468.186	-163.565	0.306	-0.014
-467.172	114.498	-0.077	-0.093
-466.157	800.000	-0.034	-0.145
-465.143	-88.899	-0.446	-0.131
-464.128	-17.491	0.058	0.036
-463.113	-108.084	-0.006	-0.001
-462.099	-68.839	0.438	0.168
-461.084	-167.456	0.254	-0.010
-460.070	224.467	-0.125	-0.201
-459.055	496.704	-0.075	0.171
-458.040	800.000	0.027	0.091
-457.026	-132.241	-0.166	0.021
-456.011	800.000	-0.054	-0.155
-454.997	188.989	-0.180	0.267
-453.982	-139.416	0.171	-0.018
-452.968	-82.961	0.268	-0.086
-451.953	-200.000	0.001	-0.051
-450.938	-119.781	0.057	0.010
-449.924	800.000	-0.106	0.390
-448.909	-6.429	0.228	-0.154
-447.895	-8.751	-0.320	-0.213
-446.880	563.285	0.067	-0.161
-445.865	694.970	-0.099	0.259
-444.851	19.706	-0.216	-0.172
-443.836	800.000	0.114	0.384
-442.822	-35.522	0.078	-0.042
-441.807	29.618	-0.329	-0.277
-440.792	17.330	0.178	0.140
-439.778	-75.366	-0.281	0.099
-438.763	-64.683	-0.177	-0.071
-437.749	-13.996	-0.315	0.201
-436.734	-200.000	0.022	0.113
-435.719	-200.000	-0.006	-0.124
-434.705	478.811	-0.054	0.121
-433.690	-200.000	0.003	-0.043
-432.676	167.676	-0.055	0.077
-431.661	-200.000	0.015	0.195
-430.646	-75.156	0.145	0.052
-429.632	-96.360	-0.336	-0.088
-428.617	-50.674	-0.188	-0.088
-427.603	-200.000	-0.001	0.117
-426.588	800.000	-0.083	0.231
-425.573	268.794	-0.085	-0.148
-424.559	800.000	0.133	0.370
-423.544	-200.000	-0.043	0.251
-422.530	-200.000	-0.018	-0.095
-421.515	-200.000	0.005	-0.218
-420.500	41.369	-0.111	-0.099
-419.486	800.000	0.041	0.120
-418.471	523.445	-0.073	-0.169
-417.457	-130.250	-0.265	0.036
-416.442	-105.280	-0.168	0.038
-415.428	-28.848	0.266	-0.151
-414.413	384.433	-0.108	0.221
-413.398	119.157	0.102	-0.124
-412.384	-103.150	0.291	0.068
-411.369	94.868	-0.189	-0.213
-410.355	-21.874	0.047	0.028
-409.340	800.000	-0.052	0.165
-408.325	21.481	-0.169	0.136
-407.311	-90.364	-0.186	0.054
-406.296	-83.024	0.093	0.030
-405.282	-45.936	0.283	-0.138
-404.267	-151.116	0.306	0.023
-403.252	443.279	0.169	-0.367
-402.238	-200.000	0.058	-0.273
-401.223	-200.000	0.007	-0.291
-400.209	108.572	-0.070	-0.082
-399.194	-9.242	0.132	-0.087
-398.179	442.231	-0.054	-0.118
-397.165	-200.000	0.004	0.040
-396.150	126.159	0.008	0.010
-395.136	415.581	0.011	0.023
-394.121	-71.765	0.240	-0.089
-393.106	-200.000	-0.054	-0.356
-392.092	-102.891	-0.296	0.069
-391.077	281.666	-0.033	0.059
-390.063	81.787	0.137	0.146
-389.048	-167.514	0.073	0.003
-388.033	-23.166	-0.273	0.163
-387.019	-65.141	-0.154	-0.061
-386.004	-107.474	0.286	-0.062
-384.990	-165.209	-0.287	0.013
-383.975	-134.322	0.374	-0.045
-382.960	430.780	-0.095	-0.203
-381.946	-122.142	0.566	0.092
-380.931	-102.258	0.272	0.065
-379.917	800.000	-0.031	-0.131
-378.902	-11.369	-0.108	-0.070
-377.888	0.601	0.286	0.202
-376.873	-200.000	0.004	0.105
-375.858	-200.000	0.060	0.275
-374.844	71.160	0.104	-0.107
-373.829	800.000	-0.069	0.198
-372.815	-39.947	-0.131	0.068
-371.800	0.822	0.082	0.058
-370.785	134.506	0.167	-0.214
-369.771	-200.000	0.023	-0.204
-368.756	-187.386	-0.216	0.003
-367.742	-145.388	0.419	-0.037
-366.727	710.068	0.127	0.331
-365.712	22.443	-0.141	0.114
-364.698	-41.372	0.222	0.113
-363.683	215.875	0.027	-0.043
-362.669	83.424	0.300	-0.323
-361.654	-118.737	-0.121	-0.021
-360.639	-126.764	0.256	0.037
-359.625	395.899	0.037	-0.076
-358.610	-55.290	0.196	-0.087
-357.596	800.000	-0.105	-0.327
-356.581	-200.000	-0.008	-0.204
-355.566	-60.100	-0.135	0.057
-354.552	-67.666	0.192	0.074
-353.537	-78.644	-0.025	-0.008
-352.523	460.007	0.184	0.405
-351.508	300.939	-0.106	0.193
-350.493	335.363	0.147	-0.281
-349.479	-133.064	0.128	0.016
-348.464	477.680	0.063	-0.141
-347.450	46.183	-0.026	-0.024
-346.435	-71.227	-0.341	-0.126
-345.420	116.554	-0.115	-0.139
-344.406	-32.309	-0.064	0.035
-343.391	233.622	0.170	0.276
-342.377	120.940	0.104	0.127
-341.362	-200.000	0.022	-0.389
-340.348	-24.191	-0.203	0.119
-339.333	176.571	-0.096	0.138
-338.318	104.489	-0.154	-0.179
-337.304	8.231	0.112	0.083
-336.289	-141.253	0.258	0.026
-335.275	425.966	-0.149	0.317
-334.260	-26.314	-0.332	-0.193
-333.245	-155.730	-0.134	-0.008
-332.231	-108.334	0.207	0.044
-331.216	126.685	-0.042	-0.052
-330.202	-200.000	0.040	0.257
-329.187	-95.046	0.134	0.036
-328.172	138.289	0.188	-0.243
-327.158	-200.000	0.015	-0.112
-326.143	-179.925	0.368	0.008
-325.129	800.000	0.064	-0.215
-324.114	-200.000	-0.038	-0.353
-323.099	-135.729	-0.233	-0.027
-322.085	409.196	0.120	-0.250
-321.070	2.715	0.023	0.017
-320.056	66.263	-0.139	0.139
-319.041	741.553	-0.059	0.155
-318.026	-30.361	0.253	0.142
-317.012	-200.000	-0.007	-0.200
-315.997	775.468	0.062	0.166
-314.983	155.924	-0.051	-0.070
-313.968	-127.326	0.104	-0.015
-312.953	221.498	0.139	-0.219
-311.939	-75.134	-0.191	0.067
-310.924	-200.000	0.022	-0.237
-309.910	9.706	-0.234	0.175
-308.895	-200.000	0.047	0.344
-307.880	9.040	-0.163	0.122
-306.866	-73.640	-0.071	-0.026
-305.851	-15.757	0.156	-0.098
-304.837	52.785	-0.193	0.182
-303.822	88.900	-0.215	-0.235
-302.807	34.752	0.315	-0.271
-301.793	-53.614	-0.155	0.070
-300.778	-200.000	-0.057	0.283
-299.764	-200.000	0.020	0.248
-298.749	-27.250	-0.360	-0.207
-297.735	-53.662	-0.341	-0.153
-296.720	52.165	-0.223	-0.209
-295.705	-149.961	0.138	-0.011
-294.691	199.175	-0.082	-0.123
-293.676	-200.000	-0.019	-0.213
-292.662	-200.000	0.019	-0.091
-291.647	207.387	0.106	-0.163
-290.632	226.986	0.121	-0.193
-289.618	-74.558	0.302	0.107
-288.603	-11.692	-0.334	0.216
-287.589	-108.652	0.095	-0.020
-286.574	89.591	0.119	0.130
-285.559	44.087	-0.074	-0.067
-284.545	-137.493	0.252	0.028
-283.530	28.523	0.074	0.061
-282.516	-2.664	-0.276	-0.190
-281.501	-200.000	0.013	0.109
-280.486	136.730	0.061	0.079
-279.472	1.818	0.282	-0.200
-278.457	800.000	-0.007	0.026
-277.443	-200.000	0.016	0.135
-276.428	158.865	0.106	0.145
-275.413	-146.203	0.480	-0.042
-274.399	-33.415	-0.092	0.050
-273.384	-152.268	0.279	-0.020
-272.370	-36.481	0.201	0.106
-271.355	-200.000	-0.064	0.318
-270.340	-191.716	0.106	0.001
-269.326	103.461	0.184	0.213
-268.311	2.864	0.201	-0.144
-267.297	-34.194	0.317	-0.171
-266.282	465.628	0.109	-0.240
-265.267	36.964	0.212	-0.184
-264.253	8.219	0.165	0.122
-263.238	-7.599	0.058	0.038
-262.224	-123.707	0.243	-0.038
-261.209	-63.139	-0.223	-0.091
-260.195	-200.000	0.081	-0.374
-259.180	113.730	-0.122	0.146
-258.165	52.175	-0.129	-0.121
-257.151	-49.136	-0.288	-0.136
-256.136	-105.492	0.089	-0.020
-255.122	-57.859	0.313	-0.135
-254.107	-142.212	0.175	0.017
-253.092	-22.395	-0.237	0.141
-252.078	-147.756	-0.479	0.039
-251.063	-4.579	0.120	-0.082
-250.049	158.947	0.173	0.237
-249.034	-105.952	-0.141	-0.031
-248.019	-85.211	0.268	0.082
-247.005	-125.171	-0.175	0.026
-245.990	-40.240	-0.120	-0.061
-244.976	800.000	0.060	0.190
-243.961	203.032	-0.059	0.089
-242.946	-73.368	-0.086	0.031
-241.932	98.351	0.052	-0.058
-240.917	218.010	0.097	0.153
-239.903	-62.852	-0.333	0.135
-238.888	111.425	-0.096	0.114
-237.873	-108.942	0.117	0.025
-236.859	60.444	0.132	0.129
-235.844	101.126	-0.114	0.131
-234.830	-130.286	0.311	0.041
-233.815	-200.000	0.082	0.694
-232.800	229.778	-0.106	0.169
-231.786	-44.114	0.336	-0.166
-230.771	-133.379	0.092	0.011
-229.757	105.692	0.031	0.036
-228.742	122.622	-0.148	-0.182
-227.727	-35.114	-0.159	-0.085
-226.713	82.924	-0.146	0.156
-225.698	-50.222	0.216	0.100
-224.684	-200.000	0.038	-0.192
-223.669	-200.000	-0.002	-0.085
-222.655	-32.320	0.343	-0.188
-221.640	-78.165	0.306	0.103
-220.625	586.604	-0.045	-0.108
-219.611	-67.906	-0.140	-0.054
-218.596	262.767	-0.196	0.334
-217.582	-140.247	-0.320	-0.033
-216.567	-200.000	0.044	0.206
-215.552	63.511	-0.083	-0.082
-214.538	-39.564	0.090	0.047
-213.523	-130.548	0.228	0.030
-212.509	-2.209	0.063	0.043
-211.494	-200.000	0.020	0.100
-210.479	800.000	0.043	0.137
-209.465	-37.564	-0.365	-0.191
-208.450	-200.000	-0.026	-0.189
-207.436	167.933	0.109	0.153
-206.421	576.870	-0.066	-0.158
-205.406	-157.877	0.202	0.012
-204.392	127.405	0.068	0.085
-203.377	-84.038	0.125	0.039
-202.363	474.369	0.105	-0.232
-201.348	68.424	0.146	-0.147
-200.333	487.829	0.034	0.076
-199.319	-119.675	0.358	-0.061
-198.304	800.000	-0.151	-0.530
-197.290	267.192	0.146	-0.250
-196.275	722.442	0.066	0.173
-195.260	-58.440	-0.321	-0.137
-194.246	134.167	-0.098	0.124
-193.231	52.817	-0.222	0.208
-192.217	74.944	-0.258	0.267
-191.202	-200.000	0.025	-0.252
-190.187	13.084	0.203	-0.155
-189.173	-200.000	-0.307	0.001
-188.158	171.578	0.080	0.112
-187.144	3.227	0.210	0.150
-186.129	260.575	0.114	0.194
-185.114	559.579	0.058	0.136
-184.100	-65.631	-0.099	0.039
-183.085	-200.000	0.020	0.164
-182.071	-4.666	-0.231	0.156
-181.056	191.264	0.012	-0.017
-180.042	305.635	-0.144	0.263
-179.027	-147.062	0.069	0.006
-178.012	9.587	0.037	-0.027
-176.998	14.016	-0.254	0.194
-175.983	-102.590	-0.039	0.009
-174.969	800.000	-0.025	0.082
-173.954	329.599	0.118	0.222
-172.939	-104.444	0.088	-0.020
-171.925	-200.000	0.013	-0.103
-170.910	134.818	-0.120	0.152
-169.896	-128.083	-0.110	0.015
-168.881	455.061	0.117	0.255
-167.866	-200.000	0.041	0.355
-166.852	15.778	-0.050	0.039
-165.837	-45.459	-0.160	-0.078
-164.823	-116.686	0.230	-0.041
-163.808	160.982	0.141	0.193
-162.793	166.585	-0.081	-0.112
-161.779	-181.105	0.033	0.001
-160.764	800.000	0.035	-0.100
-159.750	136.509	0.188	-0.241
-158.735	800.000	0.019	-0.060
-157.720	106.552	-0.253	0.294
-156.706	2.810	0.155	-0.110
-155.691	-200.000	-0.032	0.196
-154.677	-146.931	-0.494	-0.042
-153.662	-35.548	0.180	-0.096
-152.647	-89.896	-0.081	-0.023
-151.633	57.114	-0.048	0.046
-150.618	47.691	-0.172	-0.157
-149.604	-26.737	0.132	-0.076
-148.589	-66.146	-0.097	-0.038
-147.574	-161.831	-0.130	-0.006
-146.560	-43.396	0.149	-0.074
-145.545	7.898	0.111	-0.081
-144.531	26.726	-0.116	0.095
-143.516	447.318	0.102	-0.219
-142.502	32.998	-0.191	-0.162
-141.487	27.354	-0.058	0.048
-140.472	125.904	0.083	0.102
-139.458	-200.000	0.009	0.058
-138.443	-115.041	0.401	0.075
-137.429	-6.215	-0.158	0.106
-136.414	45.009	0.188	0.169
-135.399	82.647	0.164	-0.175
-134.385	90.699	0.032	0.035
-133.370	-200.000	-0.078	-0.337
-132.356	-200.000	-0.070	-0.300
-131.341	153.071	0.191	-0.256
-130.326	-200.000	-0.049	0.319
-129.312	800.000	-0.056	0.167
-128.297	49.369	-0.218	0.201
-127.283	-21.453	0.150	0.090
-126.268	-200.000	0.002	0.057
-125.253	-142.191	0.116	-0.011
-124.239	800.000	0.060	-0.224
-123.224	18.545	-0.148	-0.115
-122.210	110.093	0.189	-0.222
-121.195	45.135	0.161	-0.145
-120.180	-157.800	0.148	0.009
