DTS Sentinel unit serial number:	SN413079Multiplexer serial number:	ORYXHardware model number:	OX4-SRSoftware version number:	ORYX F/W v4.00 Oryx Data Collector v3.7.2.0data status	okinstallation	princeton_trtdifferential loss correction	single-endedforward channel	channel 1reverse channel	N/Adate	2019/09/14time	23:30:35forward acquisition time	60.00reverse acquisition time	0.00gamma	496.2192k internal	0.2320k external	0.2320temperature offset calibration	0.9993default loss term (dB/km)	0.3790temperature slope calibration	1.0000multiplexer offset coefficient	1.0000multiplexer slope coefficient	1.0000fibre end	0.00T internal ref (°C)	32.34T ext. ref 1 (°C)	4.63T ext. ref 2 (°C)	27.37length (m)	temperature (°C)	Stokes	anti-Stokes-747.200	644.188	-0.089	-0.229
-746.185	-34.324	-0.373	-0.207
-745.171	-144.240	0.090	0.008
-744.156	88.401	-0.095	0.107
-743.142	169.977	0.100	-0.144
-742.127	800.000	-0.117	0.400
-741.112	-200.000	0.002	0.502
-740.098	800.000	-0.137	0.408
-739.083	-5.805	0.142	0.098
-738.069	-104.529	0.152	-0.036
-737.054	-126.881	-0.152	0.023
-736.039	-88.073	-0.211	-0.064
-735.025	-68.497	0.228	0.089
-734.010	800.000	-0.026	-0.081
-732.996	-137.035	-0.247	-0.028
-731.981	297.269	0.078	-0.145
-730.966	157.167	-0.121	0.170
-729.952	800.000	0.048	0.140
-728.937	-200.000	0.015	-0.256
-727.923	-90.016	0.200	0.059
-726.908	-23.010	-0.245	-0.149
-725.894	-200.000	-0.019	-0.247
-724.879	-146.922	-0.034	0.003
-723.864	163.832	-0.037	-0.053
-722.850	68.805	-0.203	0.211
-721.835	-78.372	0.270	0.094
-720.821	29.571	-0.049	0.042
-719.806	-80.552	-0.309	-0.104
-718.791	-200.000	0.030	-0.169
-717.777	-200.000	0.000	0.183
-716.762	17.499	0.208	0.167
-715.748	378.512	0.075	0.156
-714.733	-200.000	0.005	0.374
-713.718	-114.738	-0.117	0.023
-712.704	-122.256	0.086	0.014
-711.689	161.982	-0.161	0.228
-710.675	-146.845	0.312	-0.027
-709.660	-59.492	-0.336	-0.146
-708.645	-76.137	0.329	-0.117
-707.631	800.000	-0.011	0.037
-706.616	800.000	0.016	-0.067
-705.602	206.757	0.062	-0.098
-704.587	128.350	0.120	0.155
-703.572	-51.607	-0.232	-0.109
-702.558	-200.000	0.053	-0.368
-701.543	165.425	-0.109	-0.156
-700.529	399.833	0.035	0.074
-699.514	-200.000	-0.010	0.125
-698.499	24.502	-0.215	-0.180
-697.485	-95.260	0.166	-0.045
-696.470	800.000	-0.104	-0.302
-695.456	800.000	0.081	-0.297
-694.441	6.019	0.109	-0.081
-693.426	-31.066	-0.063	-0.036
-692.412	-118.758	-0.460	0.082
-691.397	-200.000	0.001	-0.311
-690.383	16.810	0.106	-0.085
-689.368	-153.325	0.538	0.038
-688.354	339.731	-0.051	-0.101
-687.339	-18.660	-0.046	-0.029
-686.324	-73.997	0.152	-0.056
-685.310	-9.852	-0.266	-0.178
-684.295	-200.000	-0.015	0.306
-683.281	269.891	-0.087	-0.154
-682.266	-109.490	0.189	0.040
-681.251	-200.000	-0.002	0.327
-680.237	77.616	0.239	0.257
-679.222	-200.000	-0.101	-0.513
-678.208	-87.067	0.267	0.082
-677.193	-200.000	-0.007	0.114
-676.178	-94.653	-0.293	0.080
-675.164	185.105	-0.105	0.157
-674.149	-4.663	-0.122	0.085
-673.135	-200.000	0.004	-0.342
-672.120	60.697	0.192	0.192
-671.105	-200.000	-0.008	-0.083
-670.091	73.621	-0.200	-0.212
-669.076	413.213	0.086	0.183
-668.062	3.077	0.195	-0.143
-667.047	-200.000	-0.143	-0.000
-666.032	404.208	-0.127	0.269
-665.018	-157.179	0.340	-0.021
-664.003	800.000	0.050	-0.203
-662.989	167.310	0.113	-0.161
-661.974	-13.588	0.077	0.050
-660.959	-200.000	-0.021	-0.122
-659.945	-73.964	-0.129	0.047
-658.930	75.409	0.138	-0.147
-657.916	491.975	-0.037	-0.086
-656.901	-35.477	-0.435	-0.238
-655.886	-22.607	-0.184	-0.112
-654.872	15.907	-0.103	-0.081
-653.857	-30.492	-0.209	-0.120
-652.843	-48.077	-0.055	-0.027
-651.828	331.401	-0.128	-0.248
-650.814	421.293	0.079	0.170
-649.799	51.275	0.237	0.227
-648.784	-41.337	0.128	0.066
-647.770	-60.468	-0.259	-0.111
-646.755	-73.267	-0.370	-0.136
-645.741	800.000	0.033	0.125
-644.726	-24.773	-0.137	0.082
-643.711	45.428	-0.270	0.251
-642.697	60.002	-0.095	0.094
-641.682	-112.408	0.165	-0.033
-640.668	-45.860	-0.315	-0.156
-639.653	-48.498	-0.305	-0.148
-638.638	-83.289	0.314	-0.101
-637.624	90.344	0.184	-0.207
-636.609	-104.924	0.237	0.055
-635.595	-200.000	0.018	-0.149
-634.580	-140.466	-0.306	-0.032
-633.565	-200.000	0.002	0.093
-632.551	164.845	-0.041	0.058
-631.536	277.611	0.039	0.070
-630.522	-80.686	-0.121	0.041
-629.507	-16.044	-0.087	-0.056
-628.492	21.183	-0.558	-0.456
-627.478	-122.314	-0.186	-0.031
-626.463	-52.588	-0.167	-0.078
-625.449	-128.480	0.299	-0.043
-624.434	-76.441	0.275	-0.097
-623.419	-200.000	0.024	-0.226
-622.405	-111.041	-0.252	-0.052
-621.390	152.169	-0.211	0.289
-620.376	-118.437	-0.288	-0.051
-619.361	-113.129	0.233	-0.046
-618.346	715.150	0.118	-0.315
-617.332	800.000	0.102	0.331
-616.317	533.090	-0.105	-0.249
-615.303	381.561	-0.043	0.088
-614.288	-200.000	0.015	-0.140
-613.273	-200.000	0.026	-0.206
-612.259	-200.000	0.021	0.100
-611.244	442.456	-0.070	0.154
-610.230	167.419	-0.207	0.296
-609.215	23.803	-0.217	-0.180
-608.201	133.336	-0.274	-0.356
-607.186	-200.000	0.042	-0.357
-606.171	-200.000	0.011	0.278
-605.157	105.408	-0.282	-0.335
-604.142	209.955	-0.210	0.332
-603.128	-3.307	-0.242	-0.170
-602.113	-4.795	-0.288	-0.199
-601.098	-17.594	-0.124	0.079
-600.084	13.302	-0.134	-0.104
-599.069	-200.000	-0.048	-0.359
-598.055	-16.036	0.344	0.220
-597.040	44.223	-0.226	-0.209
-596.025	292.304	-0.192	0.352
-595.011	-87.114	-0.170	-0.052
-593.996	-200.000	-0.020	-0.114
-592.982	-75.386	-0.140	-0.050
-591.967	-55.696	0.182	-0.082
-590.952	-159.246	-0.158	-0.009
-589.938	53.020	0.245	-0.236
-588.923	-94.603	-0.500	0.137
-587.909	-111.170	-0.178	-0.037
-586.894	-179.838	0.268	-0.006
-585.879	-38.570	-0.250	-0.133
-584.865	192.336	-0.231	-0.350
-583.850	-22.974	0.285	-0.173
-582.836	756.175	0.087	0.238
-581.821	800.000	0.008	-0.025
-580.806	-26.067	-0.236	-0.139
-579.792	-14.070	0.135	-0.087
-578.777	-68.464	0.256	0.100
-577.763	800.000	0.020	0.073
-576.748	64.367	-0.048	-0.049
-575.733	-157.865	0.585	-0.035
-574.719	-152.732	0.056	-0.004
-573.704	-200.000	0.038	-0.195
-572.690	800.000	-0.050	-0.160
-571.675	35.560	0.152	0.134
-570.661	-22.081	-0.044	-0.027
-569.646	6.740	-0.035	0.026
-568.631	116.451	0.184	0.227
-567.617	200.922	0.078	-0.121
-566.602	-157.075	-0.447	0.027
-565.588	319.900	0.158	0.300
-564.573	329.794	0.067	0.130
-563.558	-200.000	0.005	0.067
-562.544	275.628	-0.220	0.391
-561.529	-200.000	0.001	-0.113
-560.515	-200.000	0.012	-0.118
-559.500	-200.000	-0.000	-0.125
-558.485	-200.000	0.024	-0.241
-557.471	386.012	-0.066	0.137
-556.456	44.520	0.149	-0.137
-555.442	-200.000	0.031	0.153
-554.427	84.628	0.122	0.134
-553.412	-200.000	-0.029	-0.244
-552.398	133.180	-0.238	0.308
-551.383	50.265	0.186	0.177
-550.369	-31.731	0.159	-0.090
-549.354	74.603	-0.096	0.101
-548.339	800.000	-0.068	0.266
-547.325	1.218	0.269	0.194
-546.310	-52.807	0.132	0.061
-545.296	112.565	-0.057	-0.069
-544.281	-146.477	-0.279	0.024
-543.266	-200.000	-0.075	-0.339
-542.252	-154.495	-0.334	0.022
-541.237	124.805	0.091	0.115
-540.223	173.619	0.103	-0.149
-539.208	-47.911	0.124	0.060
-538.193	33.899	-0.225	-0.196
-537.179	96.109	-0.192	-0.220
-536.164	-37.161	0.326	0.175
-535.150	422.863	-0.090	-0.193
-534.135	44.082	-0.131	-0.121
-533.121	-200.000	0.001	0.226
-532.106	219.154	-0.145	0.232
-531.091	264.648	-0.106	-0.185
-530.077	-200.000	0.040	0.193
-529.062	14.628	0.119	0.093
-528.048	400.762	0.099	0.208
-527.033	20.145	0.319	-0.258
-526.018	-200.000	-0.096	-0.481
-525.004	-123.403	-0.344	-0.055
-523.989	-144.814	0.187	-0.017
-522.975	-25.052	-0.071	-0.042
-521.960	189.577	-0.189	-0.285
-520.945	800.000	-0.085	0.303
-519.931	-51.379	-0.264	-0.124
-518.916	800.000	0.118	0.384
-517.902	-200.000	-0.011	-0.157
-516.887	-134.978	0.426	0.052
-515.872	-186.440	-0.216	-0.003
-514.858	-200.000	0.018	0.213
-513.843	-4.714	0.105	0.072
-512.829	348.547	-0.171	0.338
-511.814	325.072	0.124	0.238
-510.799	-63.945	-0.187	-0.077
-509.785	-67.555	0.114	-0.045
-508.770	-100.717	-0.252	0.062
-507.756	63.422	0.334	0.336
-506.741	6.442	-0.098	0.073
-505.726	333.710	-0.196	0.379
-504.712	-200.000	0.060	0.353
-503.697	800.000	-0.054	0.160
-502.683	-138.270	0.170	0.019
-501.668	399.014	-0.179	0.376
-500.653	-67.231	-0.276	-0.109
-499.639	-82.882	-0.244	-0.079
-498.624	-38.439	-0.423	0.224
-497.610	-200.000	0.012	-0.137
-496.595	-153.152	0.135	0.009
-495.581	501.493	-0.077	-0.178
-494.566	51.398	-0.246	0.234
-493.551	-103.010	0.285	-0.068
-492.537	-65.226	0.205	0.083
-491.522	113.236	-0.104	0.126
-490.508	-119.833	0.122	0.021
-489.493	101.026	0.096	-0.111
-488.478	-200.000	-0.158	-0.000
-487.464	95.515	0.177	-0.202
-486.449	242.908	-0.067	0.112
-485.435	115.960	-0.036	-0.043
-484.420	145.826	0.092	0.123
-483.405	82.320	0.073	0.079
-482.391	402.825	-0.075	-0.158
-481.376	-53.471	0.106	0.049
-480.362	-19.328	-0.215	0.133
-479.347	800.000	-0.050	-0.193
-478.332	-25.889	0.110	-0.065
-477.318	-41.485	0.196	0.101
-476.303	-200.000	0.013	-0.213
-475.289	-55.376	-0.176	0.079
-474.274	-143.039	0.169	0.016
-473.259	-133.586	0.039	-0.005
-472.245	-71.041	-0.057	0.022
-471.230	-200.000	-0.016	0.127
-470.216	-200.000	0.008	0.154
-469.201	-125.009	-0.188	0.029
-468.186	-168.266	0.407	0.016
-467.172	42.967	0.086	-0.079
-466.157	69.312	-0.188	0.194
-465.143	-55.749	-0.125	0.056
-464.128	385.084	-0.108	-0.223
-463.113	145.370	0.155	0.207
-462.099	-3.521	0.335	-0.233
-461.084	318.151	0.103	-0.195
-460.070	211.050	0.131	-0.205
-459.055	-200.000	0.002	0.182
-458.040	-115.277	0.061	0.012
-457.026	-28.715	-0.234	0.134
-456.011	-200.000	0.009	0.326
-454.997	409.269	-0.061	0.129
-453.982	-92.761	-0.277	-0.078
-452.968	524.815	-0.051	-0.120
-451.953	30.069	0.193	0.164
-450.938	167.148	0.071	0.101
-449.924	-133.530	-0.315	0.039
-448.909	-86.089	0.041	0.013
-447.895	-12.974	0.210	0.136
-446.880	93.836	-0.193	0.219
-445.865	-200.000	0.032	0.143
-444.851	332.890	0.071	-0.137
-443.836	-189.293	-0.153	-0.002
-442.822	-200.000	-0.018	0.117
-441.807	800.000	-0.083	0.243
-440.792	-67.049	0.052	-0.020
-439.778	205.000	-0.028	-0.044
-438.763	-3.266	0.252	0.175
-437.749	233.344	0.123	0.201
-436.734	800.000	0.049	-0.199
-435.719	-6.820	-0.124	0.084
-434.705	-200.000	0.024	-0.207
-433.690	800.000	-0.097	-0.304
-432.676	-35.874	0.044	0.024
-431.661	260.506	-0.059	-0.102
-430.646	159.584	0.122	-0.170
-429.632	800.000	0.018	-0.059
-428.617	-121.820	-0.223	0.037
-427.603	-200.000	-0.018	-0.084
-426.588	20.383	0.309	-0.249
-425.573	-124.394	0.180	0.028
-424.559	14.555	0.231	0.180
-423.544	-1.632	-0.287	0.202
-422.530	-98.488	-0.365	-0.093
-421.515	-61.446	-0.332	0.140
-420.500	-19.300	-0.234	0.145
-419.486	800.000	0.089	-0.279
-418.471	16.072	-0.229	-0.180
-417.457	-89.078	0.223	-0.066
-416.442	165.892	0.153	-0.216
-415.428	56.090	-0.044	0.042
-414.413	-64.499	-0.229	-0.093
-413.398	-48.379	0.145	0.070
-412.384	-16.386	-0.062	0.039
-411.369	227.837	0.093	0.150
-410.355	-200.000	-0.021	-0.190
-409.340	-21.072	-0.178	0.109
-408.325	33.711	0.235	-0.204
-407.311	263.925	-0.188	0.327
-406.296	-200.000	-0.008	-0.274
-405.282	-135.642	0.266	-0.031
-404.267	-114.174	0.295	0.057
-403.252	204.014	0.095	-0.147
-402.238	-200.000	0.003	0.280
-401.223	101.828	0.137	-0.159
-400.209	-200.000	0.004	-0.080
-399.194	-200.000	-0.299	0.000
-398.179	-200.000	0.022	0.258
-397.165	139.574	0.160	0.210
-396.150	800.000	0.020	-0.087
-395.136	-48.174	-0.206	0.099
-394.121	237.048	0.189	0.312
-393.106	-200.000	-0.003	-0.352
-392.092	-200.000	-0.010	0.103
-391.077	551.476	0.107	0.255
-390.063	800.000	0.077	0.322
-389.048	30.713	0.193	-0.165
-388.033	-200.000	-0.037	-0.212
-387.019	-30.908	-0.144	-0.081
-386.004	251.975	-0.131	-0.222
-384.990	111.821	0.059	-0.071
-383.975	800.000	-0.037	0.150
-382.960	193.568	-0.041	0.062
-381.946	-118.640	0.057	-0.010
-380.931	397.755	-0.063	0.131
-379.917	34.029	0.221	0.192
-378.902	59.906	0.068	0.067
-377.888	-24.076	0.332	0.198
-376.873	-110.226	0.275	-0.057
-375.858	800.000	-0.033	0.100
-374.844	-137.540	0.206	0.023
-373.829	800.000	0.143	-0.445
-372.815	-31.947	-0.046	-0.026
-371.800	-99.772	0.215	0.054
-370.785	-159.903	0.310	0.017
-369.771	800.000	-0.074	0.214
-368.756	62.382	0.150	0.150
-367.742	527.365	-0.065	-0.152
-366.727	155.200	0.263	-0.360
-365.712	-200.000	-0.015	-0.117
-364.698	-39.354	0.155	-0.081
-363.683	-51.669	0.188	0.087
-362.669	-200.000	-0.002	0.105
-361.654	153.642	0.154	-0.210
-360.639	71.100	-0.150	0.155
-359.625	-131.408	0.621	0.082
-358.610	-70.381	-0.490	0.185
-357.596	-85.715	0.299	-0.092
-356.581	127.627	0.155	-0.196
-355.566	-21.191	0.162	0.099
-354.552	800.000	0.152	0.423
-353.537	13.486	0.174	-0.134
-352.523	-128.048	-0.257	-0.037
-351.508	700.860	0.020	-0.053
-350.493	-200.000	-0.025	-0.173
-349.479	-91.593	-0.211	-0.060
-348.464	-79.166	-0.191	0.065
-347.450	-54.561	0.424	0.191
-346.435	-72.241	0.252	-0.093
-345.420	-64.616	0.272	0.110
-344.406	-80.603	-0.062	0.021
-343.391	163.151	-0.197	-0.275
-342.377	800.000	-0.071	-0.213
-341.362	210.878	-0.047	0.074
-340.348	-164.979	0.181	-0.008
-339.333	-200.000	-0.017	-0.330
-338.318	800.000	-0.033	-0.142
-337.304	800.000	0.035	0.144
-336.289	28.393	-0.065	0.054
-335.275	-200.000	-0.029	0.160
-334.260	94.466	-0.078	-0.088
-333.245	-101.393	0.225	-0.054
-332.231	-3.277	0.273	0.189
-331.216	5.208	0.101	0.074
-330.202	-120.521	-0.031	-0.005
-329.187	-103.556	-0.158	-0.037
-328.172	319.524	-0.036	0.067
-327.158	800.000	0.023	0.066
-326.143	800.000	0.069	-0.243
-325.129	-100.042	-0.172	-0.043
-324.114	-200.000	-0.051	-0.229
-323.099	-61.481	0.245	-0.103
-322.085	466.000	-0.069	-0.153
-321.070	185.275	0.227	0.336
-320.056	800.000	0.111	0.342
-319.041	321.726	0.063	-0.120
-318.026	106.342	0.081	-0.095
-317.012	189.236	0.181	-0.270
-315.997	-145.044	-0.105	-0.010
-314.983	37.662	-0.229	-0.202
-313.968	-80.785	0.171	-0.057
-312.953	-200.000	-0.080	-0.379
-311.939	800.000	-0.057	-0.182
-310.924	-101.636	-0.042	0.010
-309.910	-125.810	-0.271	-0.041
-308.895	-24.223	0.414	0.245
-307.880	75.386	0.176	0.184
-306.866	354.453	0.042	-0.082
-305.851	232.133	0.240	-0.391
-304.837	21.712	0.079	-0.064
-303.822	800.000	-0.073	-0.203
-302.807	99.108	0.329	-0.378
-301.793	32.151	-0.205	0.176
-300.778	800.000	-0.120	0.337
-299.764	-85.283	-0.334	0.104
-298.749	-200.000	-0.001	-0.212
-297.735	335.622	-0.081	-0.156
-296.720	-83.501	-0.113	0.036
-295.705	215.188	0.114	0.180
-294.691	-200.000	0.012	-0.127
-293.676	-15.631	-0.217	0.138
-292.662	-90.148	0.120	-0.035
-291.647	-165.010	-0.177	0.008
-290.632	-200.000	0.011	0.172
-289.618	15.864	-0.232	-0.181
-288.603	-86.653	-0.277	0.084
-287.589	302.638	0.162	-0.299
-286.574	-200.000	-0.016	-0.132
-285.559	782.182	-0.068	0.186
-284.545	275.623	-0.108	-0.190
-283.530	-19.449	-0.340	-0.209
-282.516	800.000	-0.012	-0.036
-281.501	800.000	0.074	0.209
-280.486	316.763	-0.222	0.416
-279.472	130.402	0.346	-0.440
-278.457	151.396	-0.210	-0.283
-277.443	-200.000	0.010	0.084
-276.428	564.944	-0.118	0.283
-275.413	-200.000	-0.014	0.272
-274.399	-37.071	0.019	0.010
-273.384	800.000	0.056	-0.194
-272.370	-200.000	0.046	0.264
-271.355	339.831	-0.139	0.269
-270.340	-15.477	-0.237	-0.150
-269.326	235.632	-0.123	-0.202
-268.311	800.000	-0.041	0.125
-267.297	56.407	0.199	0.192
-266.282	60.033	-0.269	0.264
-265.267	-153.594	0.063	-0.004
-264.253	-118.213	0.318	0.056
-263.238	-110.245	0.404	-0.084
-262.224	-159.951	-0.164	0.009
-261.209	-2.259	0.301	-0.210
-260.195	-107.090	-0.188	0.041
-259.180	248.122	-0.054	-0.090
-258.165	-9.789	0.135	0.089
-257.151	-24.982	-0.157	-0.092
-256.136	-112.033	-0.105	0.021
-255.122	-141.097	-0.019	0.002
-254.107	-119.432	-0.365	0.063
-253.092	305.159	0.119	0.219
-252.078	-120.700	0.208	0.035
-251.063	800.000	0.060	0.176
-250.049	712.662	0.038	-0.100
-249.034	263.055	0.141	-0.242
-248.019	267.672	0.038	0.065
-247.005	32.169	0.027	-0.023
-245.990	-76.738	0.098	-0.034
-244.976	-35.281	0.214	0.115
-243.961	-178.558	0.026	0.001
-242.946	285.782	-0.034	0.060
-241.932	-200.000	0.010	0.353
-240.917	403.426	0.089	0.186
-239.903	800.000	-0.116	-0.461
-238.888	60.633	-0.235	0.231
-237.873	29.946	0.214	0.181
-236.859	-145.032	-0.029	0.003
-235.844	-200.000	-0.000	0.243
-234.830	-198.645	0.424	0.002
-233.815	-125.135	-0.038	0.006
-232.800	342.062	0.116	-0.224
-231.786	-200.000	-0.037	-0.238
-230.771	-40.996	0.190	-0.097
-229.757	81.689	-0.233	-0.250
-228.742	212.915	-0.101	0.158
-227.727	-79.174	-0.248	-0.083
-226.713	-97.415	-0.339	0.087
-225.698	123.064	0.057	-0.070
-224.684	-20.878	0.391	-0.238
-223.669	-27.181	0.177	-0.102
-222.655	-200.000	0.031	0.164
-221.640	270.142	0.121	-0.210
-220.625	80.672	-0.184	-0.197
-219.611	-105.742	-0.284	0.064
-218.596	751.639	0.129	-0.346
-217.582	-40.473	0.098	-0.050
-216.567	-113.899	-0.100	0.019
-215.552	-73.519	0.184	0.067
-214.538	800.000	-0.086	0.316
-213.523	314.022	-0.263	0.490
-212.509	-52.019	-0.284	-0.131
-211.494	-48.228	-0.167	0.080
-210.479	-200.000	-0.003	-0.240
-209.465	203.161	0.104	-0.159
-208.450	-200.000	0.013	-0.108
-207.436	800.000	0.038	-0.155
-206.421	-113.324	0.355	0.069
-205.406	-200.000	0.021	0.140
-204.392	-200.000	0.007	0.067
-203.377	-200.000	-0.017	0.198
-202.363	-98.278	0.409	-0.104
-201.348	-30.556	0.416	0.233
-200.333	15.429	-0.262	-0.203
-199.319	-146.277	-0.224	-0.019
-198.304	-159.788	-0.295	-0.016
-197.290	358.077	0.159	-0.315
-196.275	-200.000	0.057	-0.301
-195.260	-2.592	0.110	-0.076
-194.246	28.398	0.219	-0.183
-193.231	374.565	-0.027	-0.054
-192.217	2.224	0.109	0.078
-191.202	-113.057	-0.145	-0.028
-190.187	-200.000	-0.026	-0.153
-189.173	-200.000	0.021	0.305
-188.158	59.220	-0.143	-0.139
-187.144	-115.795	0.206	-0.038
-186.129	-88.117	0.283	0.084
-185.114	144.902	0.125	-0.166
-184.100	51.660	0.171	0.161
-183.085	-121.361	0.200	0.033
-182.071	-19.434	0.210	0.129
-181.056	-200.000	-0.019	0.253
-180.042	284.397	-0.068	0.121
-179.027	3.950	-0.142	0.102
-178.012	-129.363	-0.559	-0.077
-176.998	320.744	-0.196	-0.368
-175.983	-97.573	0.220	0.056
-174.969	515.511	0.124	-0.287
-173.954	44.018	-0.033	-0.030
-172.939	312.643	-0.134	0.249
-171.925	800.000	-0.119	0.378
-170.910	68.431	0.079	0.080
-169.896	344.186	-0.197	-0.383
-168.881	-200.000	-0.008	-0.078
-167.866	-55.521	-0.035	0.016
-166.852	188.948	-0.157	0.232
-165.837	-134.552	-0.168	0.020
-164.823	39.923	-0.095	0.085
-163.808	-126.351	0.204	-0.030
-162.793	-6.836	-0.131	0.088
-161.779	-35.072	0.105	0.057
-160.764	-151.024	0.158	0.012
-159.750	800.000	-0.050	0.204
-158.735	800.000	0.037	0.131
-157.720	-32.661	-0.253	0.139
-156.706	-182.902	-0.059	0.001
-155.691	54.758	0.219	-0.209
-154.677	11.763	0.184	-0.140
-153.662	-54.831	0.215	0.096
-152.647	-121.570	0.167	-0.027
-151.633	-200.000	-0.007	0.410
-150.618	39.270	0.257	-0.227
-149.604	-200.000	0.003	-0.071
-148.589	-102.213	0.386	-0.092
-147.574	-40.274	0.100	0.051
-146.560	-200.000	0.002	0.327
-145.545	-116.483	0.187	-0.034
-144.531	88.135	-0.093	-0.102
-143.516	-200.000	0.004	-0.045
-142.502	-78.439	-0.372	0.126
-141.487	-60.161	-0.096	0.041
-140.472	103.489	-0.066	-0.077
-139.458	-175.056	-0.340	0.009
-138.443	39.106	0.110	0.097
-137.429	-200.000	-0.018	-0.133
-136.414	381.006	0.013	0.026
-135.399	-200.000	0.012	-0.171
-134.385	-158.630	-0.298	-0.017
-133.370	800.000	0.040	0.144
-132.356	384.860	0.119	-0.243
-131.341	264.123	0.209	0.360
-130.326	-200.000	-0.042	0.216
-129.312	-122.836	0.365	-0.058
-128.297	7.111	0.288	0.212
-127.283	800.000	0.082	0.313
-126.268	-200.000	-0.041	-0.313
-125.253	-200.000	0.010	0.054
-124.239	-42.935	0.396	0.198
-123.224	-48.295	0.338	-0.161
-122.210	-121.728	0.181	0.030
