DTS Sentinel unit serial number:	SN413079Multiplexer serial number:	ORYXHardware model number:	OX4-SRSoftware version number:	ORYX F/W v4.00 Oryx Data Collector v3.7.2.0data status	okinstallation	princeton_trtdifferential loss correction	single-endedforward channel	channel 1reverse channel	N/Adate	2019/09/14time	10:38:35forward acquisition time	60.00reverse acquisition time	0.00gamma	496.2192k internal	0.2303k external	0.2303temperature offset calibration	1.0074default loss term (dB/km)	0.3790temperature slope calibration	1.0000multiplexer offset coefficient	1.0000multiplexer slope coefficient	1.0000fibre end	0.00T internal ref (°C)	35.17T ext. ref 1 (°C)	4.24T ext. ref 2 (°C)	33.11length (m)	temperature (°C)	Stokes	anti-Stokes-747.200	552.726	-0.092	0.224
-746.185	397.071	0.109	0.232
-745.171	-200.000	0.012	0.180
-744.156	-200.000	0.027	0.352
-743.142	116.197	-0.054	0.068
-742.127	800.000	-0.020	0.057
-741.112	171.945	-0.097	-0.143
-740.098	-200.000	-0.057	0.272
-739.083	29.987	-0.079	-0.068
-738.069	229.992	-0.088	-0.146
-737.054	-102.068	-0.117	0.029
-736.039	-200.000	0.037	-0.305
-735.025	-98.490	-0.149	-0.039
-734.010	-200.000	0.006	0.051
-732.996	167.083	0.138	-0.200
-731.981	800.000	0.078	0.261
-730.966	25.321	-0.241	-0.204
-729.952	-122.785	0.263	0.043
-728.937	-200.000	0.025	-0.185
-727.923	-31.112	-0.200	0.115
-726.908	10.872	-0.304	0.236
-725.894	-136.393	-0.120	-0.014
-724.879	-90.821	-0.322	-0.094
-723.864	52.204	-0.135	0.131
-722.850	256.669	0.193	-0.337
-721.835	72.536	-0.182	0.193
-720.821	-200.000	-0.012	0.082
-719.806	-143.778	-0.149	0.014
-718.791	116.551	-0.162	-0.203
-717.777	64.182	-0.241	-0.247
-716.762	338.423	0.079	-0.157
-715.748	740.983	0.067	-0.183
-714.733	2.794	0.177	0.131
-713.718	-124.907	0.240	-0.038
-712.704	320.541	-0.079	0.153
-711.689	-190.301	0.181	-0.002
-710.675	20.489	0.171	0.141
-709.660	62.228	0.309	-0.314
-708.645	-200.000	0.022	-0.200
-707.631	411.132	0.081	0.175
-706.616	356.970	-0.159	0.323
-705.602	36.317	0.230	0.206
-704.587	800.000	0.036	0.130
-703.572	-83.110	-0.465	0.152
-702.558	252.404	0.168	-0.291
-701.543	-44.029	0.103	-0.053
-700.529	26.218	-0.288	0.244
-699.514	62.557	0.198	-0.201
-698.499	-200.000	-0.004	-0.166
-697.485	-29.929	0.335	0.194
-696.470	-177.184	-0.062	-0.002
-695.456	-3.804	0.052	-0.036
-694.441	-200.000	0.258	-0.001
-693.426	800.000	-0.069	0.303
-692.412	-162.707	-0.130	0.006
-691.397	349.927	-0.073	-0.147
-690.383	-12.484	0.216	0.143
-689.368	-200.000	0.063	-0.300
-688.354	-27.762	-0.181	0.106
-687.339	40.917	-0.066	-0.060
-686.324	10.982	-0.127	0.099
-685.310	-124.725	-0.377	-0.059
-684.295	112.884	0.248	-0.306
-683.281	-79.957	-0.042	-0.014
-682.266	357.203	0.027	0.054
-681.251	800.000	0.093	-0.405
-680.237	-146.399	0.088	0.008
-679.222	-200.000	-0.072	-0.343
-678.208	-10.157	-0.220	0.148
-677.193	0.701	-0.360	-0.262
-676.178	181.213	0.124	-0.186
-675.164	-200.000	-0.037	-0.174
-674.149	800.000	-0.071	0.249
-673.135	45.815	0.128	-0.121
-672.120	-68.160	0.096	0.038
-671.105	230.865	-0.078	-0.130
-670.091	-200.000	0.000	0.042
-669.076	-106.762	-0.071	-0.016
-668.062	17.295	-0.223	0.180
-667.047	-200.000	-0.010	-0.103
-666.032	77.250	-0.269	-0.290
-665.018	-200.000	-0.200	-0.001
-664.003	-200.000	-0.046	-0.236
-662.989	343.434	0.165	-0.328
-661.974	406.884	-0.160	-0.343
-660.959	-168.061	-0.186	-0.007
-659.945	23.238	0.157	0.131
-658.930	13.155	-0.200	-0.157
-657.916	88.342	-0.208	-0.234
-656.901	-200.000	0.005	0.090
-655.886	-19.477	-0.254	-0.160
-654.872	414.593	0.139	-0.301
-653.857	800.000	-0.093	-0.263
-652.843	800.000	0.043	0.128
-651.828	-125.366	-0.189	-0.029
-650.814	164.723	-0.147	0.211
-649.799	-143.337	-0.134	0.013
-648.784	118.733	-0.131	0.165
-647.770	63.301	0.191	0.195
-646.755	148.852	-0.073	-0.101
-645.741	800.000	0.076	0.284
-644.726	-147.638	-0.457	-0.039
-643.711	208.905	0.052	0.083
-642.697	-30.766	-0.135	0.078
-641.682	-143.032	-0.399	0.039
-640.668	264.141	-0.215	0.379
-639.653	-200.000	0.254	-0.001
-638.638	-115.660	-0.537	0.102
-637.624	-200.000	-0.032	0.143
-636.609	800.000	0.073	-0.246
-635.595	-200.000	0.044	-0.244
-634.580	-200.000	-0.002	-0.096
-633.565	509.383	-0.140	-0.330
-632.551	-129.683	-0.230	0.032
-631.536	-111.284	0.365	-0.076
-630.522	-200.000	0.039	0.181
-629.507	800.000	-0.041	0.172
-628.492	-109.501	-0.192	0.041
-627.478	311.499	-0.041	0.077
-626.463	-200.000	0.034	-0.219
-625.449	-200.000	0.046	0.247
-624.434	-1.508	0.048	-0.034
-623.419	-81.387	0.231	0.077
-622.405	-200.000	0.014	0.188
-621.390	-120.195	-0.113	-0.020
-620.376	-50.965	-0.495	0.236
-619.361	-16.350	0.163	-0.105
-618.346	-194.444	0.153	0.001
-617.332	5.250	-0.293	-0.219
-616.317	-15.895	-0.288	-0.186
-615.303	132.339	0.196	-0.256
-614.288	213.902	-0.071	-0.114
-613.273	80.100	0.222	-0.242
-612.259	428.168	0.153	-0.336
-611.244	-16.863	-0.184	0.118
-610.230	758.593	-0.099	-0.272
-609.215	-124.536	-0.264	0.042
-608.201	-200.000	0.028	0.213
-607.186	-139.859	0.254	0.027
-606.171	227.418	0.123	0.203
-605.157	-200.000	-0.026	-0.184
-604.142	-87.960	-0.209	-0.064
-603.128	-200.000	-0.003	-0.086
-602.113	-191.523	-0.243	-0.002
-601.098	162.940	-0.063	0.090
-600.084	-149.094	-0.107	0.009
-599.069	155.752	0.151	0.210
-598.055	-200.000	0.028	0.225
-597.040	37.619	-0.042	0.038
-596.025	-200.000	0.004	-0.021
-595.011	800.000	0.130	0.394
-593.996	-200.000	0.015	0.352
-592.982	800.000	0.040	-0.160
-591.967	461.648	0.164	-0.369
-590.952	616.902	0.069	-0.174
-589.938	-124.140	-0.115	-0.018
-588.923	311.702	-0.082	0.157
-587.909	-200.000	-0.044	-0.197
-586.894	477.324	0.157	-0.360
-585.879	-95.893	-0.148	-0.040
-584.865	-38.505	0.335	0.179
-583.850	10.399	-0.154	0.118
-582.836	-29.222	0.212	0.123
-581.821	309.796	0.053	-0.101
-580.806	800.000	0.043	0.169
-579.792	800.000	-0.064	-0.233
-578.777	-200.000	-0.018	-0.139
-577.763	-88.643	0.111	0.033
-576.748	69.807	0.050	0.052
-575.733	-64.103	0.334	-0.138
-574.719	-25.556	-0.125	-0.075
-573.704	10.866	0.267	0.206
-572.690	141.011	-0.167	-0.224
-571.675	-98.352	0.157	0.041
-570.661	-200.000	0.043	0.194
-569.646	-69.858	0.151	-0.058
-568.631	-116.057	0.190	0.036
-567.617	-27.131	-0.412	-0.243
-566.602	-61.064	-0.298	-0.127
-565.588	-2.772	0.128	0.091
-564.573	16.484	-0.102	-0.081
-563.558	-113.422	0.051	-0.010
-562.544	305.755	-0.197	0.371
-561.529	-122.934	0.028	-0.005
-560.515	-79.467	0.287	-0.098
-559.500	-36.432	-0.046	0.025
-558.485	48.954	-0.140	-0.133
-557.471	-111.159	0.209	0.043
-556.456	-200.000	0.020	0.233
-555.442	-56.057	0.088	0.039
-554.427	800.000	-0.072	0.266
-553.412	-200.000	-0.013	-0.149
-552.398	-200.000	0.020	-0.124
-551.383	43.139	0.149	-0.137
-550.369	-111.175	-0.413	0.086
-549.354	-75.165	0.108	0.039
-548.339	29.439	0.128	-0.110
-547.325	800.000	-0.083	-0.290
-546.310	-18.454	0.122	0.077
-545.296	-200.000	0.014	0.190
-544.281	-56.967	0.164	0.073
-543.266	-20.991	0.292	-0.181
-542.252	65.297	0.218	0.223
-541.237	-40.745	-0.336	0.176
-540.223	-200.000	-0.019	-0.159
-539.208	-143.565	-0.188	-0.018
-538.193	28.994	-0.097	0.083
-537.179	439.369	0.101	0.223
-536.164	800.000	0.070	-0.259
-535.150	-3.748	0.238	0.167
-534.135	-43.535	-0.095	-0.049
-533.121	-91.260	0.205	-0.059
-532.106	-107.117	0.330	-0.074
-531.091	198.289	-0.027	0.042
-530.077	22.987	-0.143	0.118
-529.062	800.000	-0.037	0.117
-528.048	-87.567	-0.263	0.080
-527.033	-77.123	-0.158	0.056
-526.018	-138.293	0.212	0.024
-525.004	-200.000	-0.009	0.043
-523.989	554.899	-0.060	-0.145
-522.975	-107.479	-0.133	-0.030
-521.960	8.157	0.096	-0.073
-520.945	-62.314	0.067	-0.028
-519.931	54.874	-0.193	0.188
-518.916	-135.343	-0.151	0.018
-517.902	-191.742	0.245	0.002
-516.887	-200.000	-0.046	-0.331
-515.872	800.000	-0.036	-0.151
-514.858	-23.571	0.221	-0.134
-513.843	32.694	-0.265	0.231
-512.829	-200.000	0.059	-0.405
-511.814	241.930	0.125	0.212
-510.799	-62.904	0.521	-0.217
-509.785	-113.080	-0.033	0.007
-508.770	800.000	-0.187	-0.662
-507.756	-61.754	0.295	0.125
-506.741	27.023	0.266	-0.225
-505.726	-133.243	0.242	0.031
-504.712	-12.860	0.276	0.182
-503.697	-66.588	-0.114	0.046
-502.683	-200.000	0.016	0.218
-501.668	-78.285	0.312	-0.108
-500.653	270.991	-0.209	0.372
-499.639	-175.478	-0.705	0.019
-498.624	-102.277	-0.114	0.028
-497.610	214.889	0.074	0.119
-496.595	274.797	-0.037	-0.067
-495.581	130.324	0.042	-0.054
-494.566	-200.000	0.008	0.061
-493.551	-10.872	0.026	-0.018
-492.537	-69.274	0.119	-0.046
-491.522	800.000	0.075	0.220
-490.508	-94.710	-0.114	-0.031
-489.493	-104.974	-0.151	0.035
-488.478	-68.706	-0.058	0.023
-487.464	195.644	-0.032	0.049
-486.449	-107.484	0.260	-0.057
-485.435	33.987	-0.183	-0.161
-484.420	34.227	0.204	0.179
-483.405	-200.000	0.027	0.162
-482.391	-200.000	0.014	-0.138
-481.376	72.614	0.076	-0.080
-480.362	-35.119	-0.169	-0.093
-479.347	660.353	-0.078	-0.203
-478.332	-200.000	0.002	0.036
-477.318	-200.000	-0.001	0.092
-476.303	-36.844	0.371	0.201
-475.289	44.380	-0.253	0.235
-474.274	-200.000	0.008	0.066
-473.259	-28.734	0.120	-0.070
-472.245	-200.000	-0.004	-0.213
-471.230	-200.000	-0.020	0.143
-470.216	-69.504	-0.266	0.103
-469.201	12.783	0.178	-0.139
-468.186	-85.417	0.310	-0.097
-467.172	232.783	0.120	0.199
-466.157	-80.850	0.174	-0.058
-465.143	532.056	0.092	0.219
-464.128	415.037	-0.099	0.213
-463.113	-104.831	0.217	0.050
-462.099	54.352	0.183	0.177
-461.084	-21.793	-0.199	0.122
-460.070	-200.000	-0.011	-0.158
-459.055	-158.310	-0.110	-0.006
-458.040	36.885	-0.076	0.068
-457.026	256.574	0.113	0.195
-456.011	395.875	-0.105	-0.221
-454.997	-69.764	-0.326	-0.125
-453.982	89.011	0.194	0.218
-452.968	788.027	-0.068	-0.187
-451.953	214.256	-0.112	-0.178
-450.938	-200.000	-0.024	-0.184
-449.924	-35.018	-0.357	0.196
-448.909	296.008	-0.122	0.225
-447.895	-126.887	0.164	-0.024
-446.880	314.088	0.334	-0.633
-445.865	-200.000	0.001	-0.493
-444.851	-80.449	-0.233	-0.078
-443.836	-200.000	-0.007	-0.042
-442.822	-77.551	-0.133	0.047
-441.807	121.043	-0.197	0.247
-440.792	-100.876	0.161	-0.040
-439.778	208.328	0.033	0.052
-438.763	-66.606	0.215	-0.086
-437.749	131.351	-0.131	0.169
-436.734	-120.133	-0.187	-0.032
-435.719	500.147	-0.051	-0.117
-434.705	-200.000	-0.074	0.346
-433.690	41.880	-0.114	0.104
-432.676	159.072	0.295	-0.412
-431.661	200.592	0.278	0.430
-430.646	789.645	-0.117	0.325
-429.632	155.983	-0.273	-0.378
-428.617	-54.165	0.331	0.151
-427.603	494.546	0.184	0.425
-426.588	56.552	-0.103	-0.100
-425.573	88.966	-0.179	0.200
-424.559	-35.193	-0.237	-0.130
-423.544	-54.930	-0.170	0.077
-422.530	-193.007	-0.189	0.002
-421.515	800.000	-0.027	0.110
-420.500	-200.000	0.000	0.220
-419.486	800.000	0.037	0.116
-418.471	21.577	0.229	0.187
-417.457	-90.924	-0.259	0.075
-416.442	1.860	-0.086	-0.063
-415.428	-107.101	0.288	0.064
-414.413	-37.548	-0.171	0.092
-413.398	800.000	0.038	0.139
-412.384	-90.373	0.246	-0.072
-411.369	55.645	0.232	-0.226
-410.355	800.000	-0.091	-0.332
-409.340	-114.263	-0.158	0.031
-408.325	376.453	-0.060	0.123
-407.311	396.817	0.133	-0.279
-406.296	-163.732	-0.231	-0.011
-405.282	-200.000	-0.011	-0.229
-404.267	142.409	-0.150	-0.201
-403.252	139.723	-0.105	0.139
-402.238	-182.837	-0.250	0.005
-401.223	-89.660	-0.286	0.084
-400.209	800.000	0.020	0.062
-399.194	405.279	-0.099	0.209
-398.179	-197.244	-0.127	0.001
-397.165	-134.140	0.247	0.031
-396.150	20.383	-0.097	0.079
-395.136	-127.761	0.226	-0.033
-394.121	-84.418	0.228	0.073
-393.106	-73.124	0.294	0.108
-392.092	210.663	0.058	0.091
-391.077	-200.000	-0.020	-0.154
-390.063	243.250	-0.075	0.127
-389.048	-17.361	-0.308	-0.195
-388.033	-167.516	-0.194	0.008
-387.019	800.000	-0.068	0.193
-386.004	-84.238	0.133	-0.042
-384.990	-149.859	0.305	-0.024
-383.975	193.226	-0.073	-0.111
-382.960	-200.000	0.016	-0.124
-381.946	-100.945	0.254	-0.063
-380.931	-200.000	0.002	0.061
-379.917	765.205	0.141	-0.386
-378.902	-91.877	0.313	0.089
-377.888	-68.603	0.146	-0.057
-376.873	243.580	-0.005	0.008
-375.858	-200.000	0.005	-0.165
-374.844	-154.508	0.378	-0.025
-373.829	-200.000	0.002	0.103
-372.815	202.714	0.066	0.102
-371.800	-200.000	-0.041	0.348
-370.785	-142.790	-0.075	0.007
-369.771	55.925	-0.060	-0.059
-368.756	-63.330	0.271	0.112
-367.742	800.000	-0.076	0.230
-366.727	52.988	-0.123	0.118
-365.712	-200.000	-0.016	-0.240
-364.698	-98.383	0.299	-0.077
-363.683	-26.267	0.260	0.153
-362.669	32.588	-0.084	-0.073
-361.654	-200.000	-0.076	-0.352
-360.639	213.662	-0.119	-0.189
-359.625	-73.849	-0.266	-0.097
-358.610	-101.447	0.129	-0.031
-357.596	347.363	-0.080	-0.159
-356.581	532.395	0.072	0.170
-355.566	552.917	-0.150	-0.361
-354.552	800.000	-0.088	-0.311
-353.537	33.443	0.214	0.187
-352.523	68.045	-0.097	-0.100
-351.508	-200.000	-0.064	0.316
-350.493	7.012	-0.327	0.244
-349.479	-200.000	0.019	-0.091
-348.464	-200.000	-0.005	-0.196
-347.450	62.692	-0.216	-0.217
-346.435	166.920	-0.060	0.086
-345.420	-65.722	-0.214	0.086
-344.406	-18.090	-0.033	-0.020
-343.391	-74.596	0.167	0.060
-342.377	800.000	-0.070	-0.231
-341.362	754.239	0.066	-0.178
-340.348	56.135	-0.258	0.251
-339.333	401.726	0.075	0.158
-338.318	19.821	0.226	-0.182
-337.304	-200.000	0.017	0.249
-336.289	-26.770	0.151	-0.088
-335.275	33.185	-0.390	-0.339
-334.260	-200.000	-0.018	-0.148
-333.245	-200.000	-0.002	0.252
-332.231	-200.000	0.014	-0.088
-331.216	383.581	-0.094	0.194
-330.202	-106.687	-0.108	-0.024
-329.187	-200.000	-0.003	0.045
-328.172	648.359	-0.058	0.148
-327.158	-75.524	0.129	0.046
-326.143	-1.069	-0.291	-0.206
-325.129	-35.738	0.316	0.171
-324.114	-48.208	0.219	0.106
-323.099	-178.934	0.259	0.006
-322.085	167.551	0.042	-0.059
-321.070	120.901	0.225	-0.281
-320.056	-200.000	-0.022	0.120
-319.041	-95.734	0.223	0.060
-318.026	-151.729	0.229	0.017
-317.012	-31.819	-0.281	-0.158
-315.997	171.779	0.202	-0.291
-314.983	107.270	-0.164	-0.196
-313.968	800.000	-0.050	0.165
-312.953	-200.000	-0.005	0.189
-311.939	800.000	0.059	-0.234
-310.924	-200.000	0.031	-0.321
-309.910	-169.972	-0.160	-0.006
-308.895	-177.059	-0.122	-0.003
-307.880	196.947	-0.134	-0.204
-306.866	37.735	-0.190	0.169
-305.851	-48.368	0.280	-0.135
-304.837	-100.706	-0.196	0.049
-303.822	800.000	-0.065	0.279
-302.807	-91.496	-0.028	0.008
-301.793	497.744	-0.092	0.211
-300.778	-93.598	0.272	-0.075
-299.764	-146.154	0.082	0.007
-298.749	-36.517	-0.252	0.136
-297.735	380.079	0.127	0.260
-296.720	-131.326	-0.143	0.019
-295.705	206.438	0.158	0.247
-294.691	430.908	0.077	-0.167
-293.676	-97.681	0.169	0.044
-292.662	8.675	0.274	-0.206
-291.647	399.091	-0.074	0.156
-290.632	-57.633	0.072	-0.032
-289.618	225.124	0.090	0.147
-288.603	87.490	-0.159	-0.176
-287.589	-24.355	-0.330	0.197
-286.574	110.030	0.098	0.118
-285.559	-130.355	-0.142	0.019
-284.545	25.369	-0.105	-0.087
-283.530	-200.000	-0.054	-0.393
-282.516	-20.529	0.087	0.054
-281.501	-200.000	-0.014	-0.168
-280.486	94.877	0.137	-0.156
-279.472	-21.110	-0.096	-0.058
-278.457	800.000	0.061	-0.232
-277.443	627.812	-0.170	-0.429
-276.428	-147.962	0.163	0.014
-275.413	483.050	-0.052	0.119
-274.399	451.403	0.045	-0.098
-273.384	76.564	0.087	0.092
-272.370	-200.000	-0.027	0.146
-271.355	800.000	-0.053	0.169
-270.340	92.430	-0.271	0.306
-269.326	6.884	0.111	-0.083
-268.311	-54.778	-0.194	-0.087
-267.297	131.130	0.333	-0.428
-266.282	-158.814	0.225	0.013
-265.267	84.969	0.145	-0.159
-264.253	-44.622	0.142	0.071
-263.238	-147.540	-0.526	0.044
-262.224	-200.000	0.035	0.341
-261.209	6.726	-0.096	0.072
-260.195	-39.337	-0.232	0.122
-259.180	-73.682	0.293	0.107
-258.165	514.435	-0.035	-0.083
-257.151	379.117	0.038	-0.077
-256.136	800.000	-0.128	0.470
-255.122	82.108	0.083	-0.090
-254.107	57.726	0.371	0.363
-253.092	800.000	-0.058	0.186
-252.078	800.000	0.036	-0.132
-251.063	-83.645	-0.155	0.049
-250.049	796.097	0.037	-0.103
-249.034	-80.222	-0.307	-0.103
-248.019	-125.421	0.352	0.054
-247.005	800.000	0.097	0.345
-245.990	-105.452	0.321	0.073
-244.976	-200.000	-0.016	-0.249
-243.961	-158.689	0.058	0.003
-242.946	71.857	0.063	0.065
-241.932	-200.000	0.025	0.137
-240.917	800.000	0.008	0.024
-239.903	-38.180	0.221	0.117
-238.888	-116.659	0.120	0.022
-237.873	486.854	0.058	-0.131
-236.859	120.233	0.078	0.097
-235.844	-200.000	-0.000	0.077
-234.830	-87.786	0.146	0.044
-233.815	559.923	-0.114	-0.274
-232.800	-69.407	-0.162	-0.062
-231.786	12.803	-0.283	-0.219
-230.771	581.954	-0.081	0.199
-229.757	800.000	0.047	-0.154
-228.742	54.329	0.167	-0.160
-227.727	800.000	0.021	-0.083
-226.713	316.481	0.119	0.224
-225.698	-105.997	-0.096	-0.021
-224.684	740.367	0.114	-0.306
-223.669	-143.967	-0.048	-0.005
-222.655	2.453	0.182	-0.132
-221.640	-200.000	-0.008	0.125
-220.625	-92.223	0.372	0.105
-219.611	-200.000	-0.005	-0.025
-218.596	-90.729	0.170	-0.049
-217.582	336.855	-0.200	-0.389
-216.567	-55.130	-0.111	0.050
-215.552	688.800	0.155	0.403
-214.538	569.731	0.045	0.110
-213.523	-47.052	-0.086	-0.042
-212.509	19.256	-0.257	0.206
-211.494	101.224	-0.053	-0.061
-210.479	-4.207	0.343	0.237
-209.465	120.425	0.052	0.064
-208.450	448.569	-0.030	-0.067
-207.436	163.794	0.114	-0.160
-206.421	614.325	-0.126	0.315
-205.406	4.399	-0.019	-0.014
-204.392	-28.795	0.224	0.128
-203.377	-37.023	-0.127	0.068
-202.363	59.830	-0.063	-0.062
-201.348	-123.648	-0.087	-0.014
-200.333	-200.000	0.053	0.237
-199.319	307.555	0.215	0.399
-198.304	148.333	-0.049	0.065
-197.290	-200.000	0.030	0.447
-196.275	551.382	-0.024	-0.057
-195.260	-200.000	0.010	0.191
-194.246	371.988	0.114	-0.230
-193.231	48.808	0.247	-0.231
-192.217	800.000	-0.042	-0.117
-191.202	-30.113	-0.031	0.017
-190.187	-26.619	-0.108	0.063
-189.173	-74.822	-0.027	0.010
-188.158	-64.640	0.262	0.106
-187.144	-174.243	0.182	0.005
-186.129	-200.000	-0.001	-0.469
-185.114	383.518	-0.070	-0.144
-184.100	-0.366	0.080	0.057
-183.085	-56.223	-0.097	0.043
-182.071	531.007	0.052	0.122
-181.056	800.000	-0.007	-0.029
-180.042	210.303	-0.100	0.156
-179.027	53.532	-0.299	-0.286
-178.012	-179.038	-0.341	0.008
-176.998	-133.454	0.053	-0.007
-175.983	361.528	-0.116	0.232
-174.969	-26.800	-0.163	0.095
-173.954	-70.907	-0.138	0.052
-172.939	800.000	-0.195	-0.544
-171.925	499.025	-0.063	-0.145
-170.910	-82.530	-0.306	0.099
-169.896	-0.361	-0.076	0.054
-168.881	-135.775	0.368	0.043
-167.866	-80.380	0.297	-0.099
-166.852	154.047	-0.179	-0.244
-165.837	800.000	-0.051	-0.195
-164.823	-39.898	-0.242	-0.126
-163.808	-200.000	-0.063	0.354
-162.793	-148.324	0.311	-0.025
-161.779	-23.682	-0.141	-0.084
-160.764	-1.192	-0.285	-0.201
-159.750	286.410	-0.128	-0.230
-158.735	800.000	0.115	-0.356
-157.720	94.625	-0.296	0.335
-156.706	-189.444	-0.301	-0.003
-155.691	323.249	0.018	-0.034
-154.677	-86.040	-0.172	-0.053
-153.662	-105.507	-0.148	-0.034
-152.647	-130.027	0.193	-0.026
-151.633	390.836	0.128	-0.265
-150.618	-200.000	0.009	0.091
-149.604	-10.850	0.197	0.129
-148.589	-200.000	-0.044	0.355
-147.574	-91.928	0.209	-0.059
-146.560	-45.036	0.187	0.093
-145.545	-200.000	0.045	0.217
-144.531	70.429	-0.017	0.018
-143.516	712.557	0.045	-0.119
-142.502	-83.647	-0.371	-0.118
-141.487	-182.453	0.289	-0.005
-140.472	90.583	-0.106	-0.118
-139.458	-48.854	-0.261	0.125
-138.443	-118.908	0.272	0.047
-137.429	800.000	0.029	-0.121
-136.414	-85.482	-0.148	-0.046
-135.399	102.712	-0.080	-0.093
-134.385	-118.553	-0.092	0.016
-133.370	-200.000	-0.002	-0.505
-132.356	8.729	0.116	-0.087
-131.341	800.000	0.032	0.129
-130.326	-96.933	0.179	0.047
-129.312	-200.000	0.001	0.119
-128.297	-130.564	-0.140	0.019
-127.283	-172.315	-0.138	-0.004
-126.268	-200.000	0.012	0.199
-125.253	-51.558	-0.145	-0.067
-124.239	-200.000	-0.003	-0.179
-123.224	137.239	-0.172	-0.224
-122.210	174.554	-0.084	0.120
