DTS Sentinel unit serial number:	SN413079Multiplexer serial number:	ORYXHardware model number:	OX4-SRSoftware version number:	ORYX F/W v4.00 Oryx Data Collector v3.7.2.0data status	okinstallation	princeton_trtdifferential loss correction	single-endedforward channel	channel 1reverse channel	N/Adate	2019/09/15time	07:58:35forward acquisition time	60.00reverse acquisition time	0.00gamma	496.2192k internal	0.2324k external	0.2324temperature offset calibration	1.0001default loss term (dB/km)	0.3790temperature slope calibration	1.0000multiplexer offset coefficient	1.0000multiplexer slope coefficient	1.0000fibre end	0.00T internal ref (°C)	30.75T ext. ref 1 (°C)	4.99T ext. ref 2 (°C)	26.38length (m)	temperature (°C)	Stokes	anti-Stokes-747.200	-200.000	-0.002	0.147
-746.185	187.751	0.161	0.242
-745.171	64.067	-0.181	-0.183
-744.156	-27.325	-0.227	0.133
-743.142	136.386	0.116	0.153
-742.127	-42.450	0.396	0.204
-741.112	-35.754	-0.271	0.148
-740.098	-95.243	-0.146	-0.040
-739.083	261.420	-0.080	0.140
-738.069	120.470	-0.123	0.154
-737.054	505.642	0.041	-0.097
-736.039	386.258	-0.178	-0.370
-735.025	519.933	-0.047	0.111
-734.010	-98.532	-0.236	0.061
-732.996	-200.000	0.008	-0.245
-731.981	-69.341	0.077	-0.030
-730.966	-200.000	0.006	-0.190
-729.952	47.855	-0.147	0.138
-728.937	58.897	-0.167	-0.165
-727.923	-200.000	0.036	-0.322
-726.908	-56.359	-0.173	0.077
-725.894	-200.000	0.001	0.021
-724.879	799.989	-0.058	0.163
-723.864	-200.000	-0.007	-0.175
-722.850	152.926	0.058	-0.080
-721.835	78.174	-0.157	-0.169
-720.821	-20.965	-0.284	0.175
-719.806	33.727	0.200	0.176
-718.791	337.487	0.036	-0.072
-717.777	-82.326	-0.161	-0.053
-716.762	106.976	0.175	-0.210
-715.748	-116.131	-0.247	0.046
-714.733	-62.095	-0.608	0.256
-713.718	-200.000	-0.021	-0.178
-712.704	-50.341	-0.148	0.070
-711.689	392.558	-0.084	0.177
-710.675	282.461	-0.087	-0.157
-709.660	179.664	-0.180	-0.266
-708.645	-19.488	-0.261	-0.163
-707.631	287.816	-0.037	-0.068
-706.616	49.783	0.231	-0.220
-705.602	-62.545	0.260	0.109
-704.587	-32.989	0.175	0.098
-703.572	304.625	0.201	-0.375
-702.558	339.648	0.108	-0.213
-701.543	454.972	0.176	-0.392
-700.529	387.924	0.131	-0.272
-699.514	3.106	0.167	0.122
-698.499	219.532	0.087	0.140
-697.485	721.793	-0.064	-0.173
-696.470	36.687	-0.037	0.033
-695.456	-94.203	0.413	0.114
-694.441	-200.000	0.006	-0.419
-693.426	-27.803	-0.296	-0.173
-692.412	800.000	0.054	0.177
-691.397	-123.047	-0.174	0.028
-690.383	493.990	-0.113	-0.262
-689.368	-48.693	-0.321	-0.155
-688.354	613.724	-0.139	0.350
-687.339	28.598	-0.108	-0.092
-686.324	-59.265	0.192	-0.083
-685.310	-126.288	-0.373	0.056
-684.295	353.350	-0.026	0.052
-683.281	88.427	-0.124	0.138
-682.266	-0.388	0.099	0.071
-681.251	-200.000	0.009	0.140
-680.237	-200.000	-0.012	0.069
-679.222	251.484	0.049	-0.083
-678.208	-51.793	-0.270	-0.126
-677.193	106.509	0.226	-0.270
-676.178	-159.571	-0.133	0.007
-675.164	-119.006	0.398	0.070
-674.149	-196.544	-0.220	0.001
-673.135	498.883	0.088	-0.204
-672.120	-166.491	-0.237	0.010
-671.105	800.000	-0.044	-0.138
-670.091	179.678	0.082	-0.121
-669.076	-200.000	0.073	-0.452
-668.062	366.034	-0.142	-0.288
-667.047	-46.405	0.257	-0.127
-666.032	529.115	-0.014	0.034
-665.018	494.361	-0.065	0.150
-664.003	-119.391	-0.025	-0.004
-662.989	-41.711	0.255	-0.132
-661.974	43.802	-0.100	0.092
-660.959	-41.763	-0.272	-0.140
-659.945	-120.176	-0.225	-0.039
-658.930	-62.198	-0.138	-0.058
-657.916	55.044	0.146	0.142
-656.901	9.726	-0.220	-0.168
-655.886	-15.880	-0.234	-0.150
-654.872	-17.177	-0.266	-0.169
-653.857	-81.625	0.133	-0.044
-652.843	-91.769	0.053	-0.015
-651.828	-29.993	0.166	0.095
-650.814	8.317	-0.262	0.198
-649.799	112.401	0.054	0.066
-648.784	-200.000	-0.006	0.270
-647.770	304.888	-0.112	0.210
-646.755	-32.084	-0.435	0.245
-645.741	-61.381	-0.169	0.071
-644.726	-22.180	0.188	-0.115
-643.711	696.211	0.065	0.172
-642.697	-127.616	0.311	0.045
-641.682	-72.527	0.127	0.047
-640.668	-61.415	-0.185	0.078
-639.653	131.922	0.093	0.120
-638.638	-200.000	-0.331	-0.001
-637.624	-55.901	-0.117	0.053
-636.609	433.877	0.069	-0.151
-635.595	123.100	0.169	-0.213
-634.580	74.388	-0.190	-0.200
-633.565	-200.000	-0.030	-0.153
-632.551	242.888	-0.098	-0.165
-631.536	102.011	0.083	-0.098
-630.522	42.844	-0.080	-0.073
-629.507	-34.954	0.249	-0.137
-628.492	-29.196	0.220	-0.127
-627.478	141.535	-0.104	-0.138
-626.463	118.578	-0.122	0.152
-625.449	298.871	-0.088	0.162
-624.434	-133.067	-0.253	0.032
-623.419	-57.909	-0.216	0.095
-622.405	-200.000	-0.025	0.290
-621.390	-200.000	0.030	0.152
-620.376	-33.624	-0.191	0.106
-619.361	-146.532	-0.300	-0.026
-618.346	-91.265	0.155	0.045
-617.332	283.473	-0.141	0.255
-616.317	800.000	0.060	-0.242
-615.303	331.214	-0.159	0.307
-614.288	-52.484	0.227	-0.105
-613.273	362.118	-0.086	-0.173
-612.259	-200.000	0.011	-0.340
-611.244	58.773	0.099	-0.098
-610.230	73.926	0.204	0.215
-609.215	59.081	-0.200	-0.198
-608.201	-135.877	-0.224	-0.027
-607.186	-128.133	-0.437	0.063
-606.171	532.765	0.092	-0.218
-605.157	409.958	0.063	-0.134
-604.142	800.000	0.081	0.259
-603.128	800.000	-0.061	0.256
-602.113	377.473	-0.054	0.111
-601.098	-200.000	-0.015	0.159
-600.084	239.482	-0.142	-0.238
-599.069	-69.845	0.301	-0.115
-598.055	-92.955	-0.143	0.040
-597.040	-113.653	-0.417	-0.082
-596.025	-12.753	0.261	-0.171
-595.011	-112.109	-0.133	0.027
-593.996	-18.994	-0.265	0.165
-592.982	-200.000	0.034	-0.336
-591.967	-99.910	0.281	0.070
-590.952	-55.232	0.051	0.023
-589.938	-9.213	-0.371	0.249
-588.923	112.013	0.065	0.078
-587.909	174.298	-0.167	-0.243
-586.894	-45.111	0.260	-0.130
-585.879	-17.951	-0.190	0.119
-584.865	-55.476	-0.252	0.114
-583.850	445.177	-0.154	-0.340
-582.836	51.463	-0.152	-0.145
-581.821	-200.000	0.005	-0.026
-580.806	-121.736	0.130	0.022
-579.792	800.000	-0.048	-0.140
-578.777	-200.000	0.081	-0.375
-577.763	68.330	0.076	-0.078
-576.748	343.916	0.065	-0.127
-575.733	-112.508	-0.453	0.091
-574.719	127.432	0.413	0.525
-573.704	45.458	-0.182	0.168
-572.690	800.000	-0.054	0.185
-571.675	147.551	-0.259	-0.350
-570.661	-132.994	0.199	0.025
-569.646	800.000	0.050	-0.179
-568.631	-177.847	-0.111	-0.003
-567.617	-7.055	0.051	0.035
-566.602	-36.241	-0.180	0.097
-565.588	73.498	-0.141	0.148
-564.573	746.434	-0.024	0.065
-563.558	-200.000	0.040	-0.192
-562.544	434.123	0.055	-0.121
-561.529	-200.000	-0.000	0.062
-560.515	-130.762	0.088	-0.012
-559.500	-55.696	0.073	0.033
-558.485	-79.391	-0.138	0.047
-557.471	800.000	-0.014	0.052
-556.456	-76.208	0.076	-0.027
-555.442	312.875	0.136	0.256
-554.427	-68.594	-0.067	-0.026
-553.412	509.968	0.128	0.298
-552.398	-19.818	0.253	0.157
-551.383	514.780	0.088	-0.206
-550.369	-71.201	-0.362	0.136
-549.354	-200.000	0.016	0.329
-548.339	-159.844	0.159	0.009
-547.325	35.702	-0.252	-0.222
-546.310	398.689	-0.160	-0.336
-545.296	-200.000	-0.002	-0.209
-544.281	-73.775	-0.566	-0.206
-543.266	-200.000	0.001	-0.153
-542.252	-14.335	0.133	-0.085
-541.237	1.810	0.197	0.142
-540.223	-200.000	0.062	-0.344
-539.208	-200.000	-0.026	-0.358
-538.193	-75.197	-0.473	0.169
-537.179	107.937	-0.223	0.266
-536.164	-131.728	0.322	-0.042
-535.150	-3.727	0.102	-0.071
-534.135	123.630	-0.157	0.197
-533.121	-15.663	0.138	-0.088
-532.106	0.988	0.149	-0.107
-531.091	-40.042	-0.104	-0.054
-530.077	-200.000	0.012	-0.214
-529.062	800.000	-0.038	0.108
-528.048	800.000	0.066	0.201
-527.033	-62.546	0.325	-0.135
-526.018	59.939	0.141	-0.140
-525.004	-200.000	0.033	-0.253
-523.989	-28.583	0.106	-0.061
-522.975	72.707	0.185	-0.193
-521.960	-200.000	-0.008	-0.162
-520.945	41.733	-0.180	-0.163
-519.931	24.905	0.259	-0.215
-518.916	-117.480	-0.302	0.055
-517.902	218.504	0.045	0.072
-516.887	-50.637	0.196	-0.093
-515.872	-163.453	0.059	0.003
-514.858	-76.019	0.115	-0.041
-513.843	299.062	0.147	0.270
-512.829	-39.855	0.060	0.031
-511.814	-200.000	-0.016	0.102
-510.799	-200.000	0.008	-0.139
-509.785	800.000	-0.016	-0.049
-508.770	4.279	0.230	-0.169
-507.756	-124.637	0.041	-0.006
-506.741	5.354	-0.182	-0.134
-505.726	-41.566	-0.131	0.067
-504.712	-48.508	0.350	-0.169
-503.697	708.102	0.116	-0.305
-502.683	-113.202	0.316	-0.062
-501.668	-92.668	0.070	0.020
-500.653	-51.415	-0.151	-0.070
-499.639	-22.153	-0.139	-0.084
-498.624	280.320	-0.171	0.306
-497.610	-200.000	0.025	0.172
-496.595	149.731	0.131	0.177
-495.581	495.940	0.077	-0.178
-494.566	81.684	0.102	-0.110
-493.551	567.736	-0.161	0.392
-492.537	42.808	0.106	-0.097
-491.522	-200.000	-0.010	-0.217
-490.508	-200.000	0.009	-0.077
-489.493	-200.000	-0.037	-0.168
-488.478	227.273	-0.025	0.041
-487.464	-200.000	-0.062	0.295
-486.449	52.099	-0.221	0.210
-485.435	-59.951	0.154	0.066
-484.420	-11.452	-0.262	-0.172
-483.405	-200.000	-0.001	0.024
-482.391	-36.282	-0.053	-0.029
-481.376	396.550	0.026	0.055
-480.362	-200.000	-0.008	-0.162
-479.347	-148.284	0.184	-0.015
-478.332	-22.281	-0.318	-0.193
-477.318	-200.000	0.012	0.185
-476.303	800.000	-0.074	-0.221
-475.289	-200.000	0.010	0.068
-474.274	-43.868	0.265	0.133
-473.259	800.000	0.054	0.183
-472.245	10.369	-0.410	-0.312
-471.230	64.458	0.026	-0.026
-470.216	-106.339	-0.177	0.040
-469.201	120.319	-0.116	-0.143
-468.186	114.162	-0.071	-0.086
-467.172	-176.933	-0.165	0.004
-466.157	217.590	-0.093	-0.148
-465.143	-107.794	-0.350	-0.076
-464.128	3.814	0.190	-0.139
-463.113	-23.743	-0.102	0.061
-462.099	-51.467	-0.259	0.121
-461.084	-145.549	0.295	0.026
-460.070	-11.443	0.063	0.041
-459.055	-200.000	0.002	0.238
-458.040	-95.923	0.170	-0.045
-457.026	-59.928	0.023	0.010
-456.011	-11.844	-0.056	-0.036
-454.997	-200.000	0.015	0.267
-453.982	399.614	0.116	-0.242
-452.968	670.370	-0.129	-0.335
-451.953	-200.000	0.002	0.312
-450.938	-200.000	-0.013	0.174
-449.924	322.686	0.226	0.430
-448.909	-200.000	0.047	-0.238
-447.895	27.271	-0.161	0.135
-446.880	-111.069	0.309	0.063
-445.865	-127.312	0.119	-0.017
-444.851	200.197	0.056	-0.086
-443.836	800.000	-0.062	-0.210
-442.822	193.352	-0.173	-0.261
-441.807	-200.000	0.038	0.227
-440.792	1.145	0.249	0.178
-439.778	25.922	0.271	-0.226
-438.763	20.042	-0.047	-0.038
-437.749	-88.129	0.336	-0.100
-436.734	41.556	-0.251	-0.227
-435.719	-63.579	0.355	-0.145
-434.705	-200.000	-0.047	-0.232
-433.690	283.993	-0.109	0.196
-432.676	69.561	0.028	-0.029
-431.661	596.577	-0.029	-0.071
-430.646	-157.118	-0.262	-0.016
-429.632	176.433	0.099	0.144
-428.617	-51.285	-0.201	-0.094
-427.603	173.808	0.147	0.212
-426.588	-54.909	0.173	0.078
-425.573	230.640	0.062	-0.101
-424.559	-48.067	-0.213	-0.102
-423.544	31.340	0.252	-0.216
-422.530	-47.458	0.091	-0.044
-421.515	198.969	0.060	0.091
-420.500	90.684	0.015	-0.017
-419.486	40.030	-0.156	-0.140
-418.471	-74.520	-0.339	-0.122
-417.457	800.000	-0.036	0.118
-416.442	-51.487	-0.060	0.028
-415.428	-200.000	-0.007	-0.058
-414.413	-7.780	0.192	0.129
-413.398	-200.000	-0.060	-0.325
-412.384	47.795	0.168	0.156
-411.369	315.642	0.056	0.106
-410.355	800.000	0.039	-0.134
-409.340	52.790	-0.312	-0.298
-408.325	-111.279	0.147	0.030
-407.311	474.795	-0.110	0.248
-406.296	18.148	0.086	-0.068
-405.282	-200.000	0.062	-0.383
-404.267	-6.384	0.165	-0.112
-403.252	800.000	-0.035	0.114
-402.238	59.331	-0.103	0.101
-401.223	-76.145	0.139	-0.049
-400.209	45.867	0.069	-0.064
-399.194	545.816	-0.107	0.254
-398.179	-200.000	-0.026	0.133
-397.165	-86.789	0.113	-0.034
-396.150	-200.000	0.072	-0.523
-395.136	70.128	0.213	-0.219
-394.121	-132.814	-0.172	0.022
-393.106	-124.868	-0.182	0.028
-392.092	97.307	0.245	0.281
-391.077	-65.208	0.189	0.076
-390.063	800.000	-0.037	-0.110
-389.048	800.000	0.159	-0.442
-388.033	-200.000	0.011	-0.123
-387.019	-50.791	0.315	0.147
-386.004	436.792	-0.159	-0.344
-384.990	390.507	-0.043	0.089
-383.975	-14.114	0.154	0.099
-382.960	278.739	-0.126	0.223
-381.946	-110.820	-0.245	0.050
-380.931	721.111	-0.091	0.242
-379.917	-127.223	-0.273	0.040
-378.902	-146.184	-0.195	0.017
-377.888	-75.378	0.133	0.047
-376.873	284.803	0.135	-0.242
-375.858	-131.546	-0.169	-0.022
-374.844	191.094	-0.159	-0.238
-373.829	-91.409	-0.207	-0.059
-372.815	306.880	0.075	-0.140
-371.800	152.766	-0.026	0.035
-370.785	33.166	-0.225	-0.194
-369.771	-200.000	-0.038	0.483
-368.756	-200.000	0.006	-0.137
-367.742	-112.360	-0.059	0.012
-366.727	34.780	0.036	-0.032
-365.712	-86.624	-0.264	0.081
-364.698	800.000	0.054	-0.209
-363.683	19.633	0.387	0.310
-362.669	481.618	-0.127	0.287
-361.654	115.448	0.137	-0.166
-360.639	-103.113	0.213	-0.050
-359.625	800.000	0.062	0.206
-358.610	220.745	0.090	0.144
-357.596	-74.214	-0.233	-0.084
-356.581	-117.620	-0.428	0.077
-355.566	144.550	-0.095	0.126
-354.552	-141.115	0.250	-0.025
-353.537	800.000	-0.073	-0.254
-352.523	-18.075	0.290	-0.181
-351.508	-98.160	0.170	0.043
-350.493	165.739	0.124	-0.174
-349.479	590.418	0.019	-0.046
-348.464	90.312	0.185	-0.205
-347.450	-200.000	0.014	0.093
-346.435	1.851	0.091	0.065
-345.420	800.000	-0.106	0.390
-344.406	800.000	0.027	-0.104
-343.391	268.003	-0.034	0.060
-342.377	-200.000	-0.007	0.057
-341.362	19.820	-0.249	0.199
-340.348	77.202	0.032	0.034
-339.333	-179.615	-0.323	0.007
-338.318	-53.904	0.199	-0.090
-337.304	-36.286	0.063	0.034
-336.289	-196.638	-0.202	0.001
-335.275	800.000	-0.112	0.381
-334.260	-200.000	-0.071	0.399
-333.245	-99.811	0.158	-0.039
-332.231	800.000	0.037	0.158
-331.216	-31.897	-0.221	-0.123
-330.202	-200.000	-0.026	0.400
-329.187	72.581	0.270	0.279
-328.172	-89.668	-0.346	-0.101
-327.158	-158.096	-0.130	0.008
-326.143	40.926	-0.046	-0.041
-325.129	207.272	-0.269	0.416
-324.114	800.000	-0.063	0.270
-323.099	-157.433	0.251	-0.015
-322.085	-200.000	0.033	0.299
-321.070	-107.468	-0.087	-0.019
-320.056	800.000	0.043	-0.159
-319.041	-102.478	-0.167	0.040
-318.026	800.000	-0.024	0.072
-317.012	-12.264	0.203	0.132
-315.997	800.000	0.068	0.195
-314.983	110.002	0.054	-0.065
-313.968	-200.000	0.004	0.174
-312.953	251.428	-0.183	0.309
-311.939	88.527	0.132	0.145
-310.924	-109.112	-0.221	0.047
-309.910	-200.000	0.008	0.050
-308.895	152.536	-0.117	-0.159
-307.880	-41.513	-0.078	0.040
-306.866	-160.458	-0.207	0.011
-305.851	-28.326	-0.282	-0.162
-304.837	-122.872	-0.245	0.039
-303.822	4.180	-0.129	0.094
-302.807	-149.917	0.362	0.028
-301.793	-200.000	0.071	-0.311
-300.778	-41.093	-0.194	0.099
-299.764	-89.149	0.304	-0.089
-298.749	-200.000	-0.027	0.248
-297.735	122.894	-0.069	0.085
-296.720	164.960	0.117	-0.164
-295.705	-24.126	0.062	-0.037
-294.691	800.000	-0.048	0.171
-293.676	55.440	-0.034	0.032
-292.662	-12.743	-0.142	-0.092
-291.647	165.866	0.064	-0.090
-290.632	800.000	-0.056	-0.198
-289.618	60.735	-0.088	-0.087
-288.603	121.136	0.209	0.258
-287.589	30.338	0.328	0.277
-286.574	-86.203	0.194	0.059
-285.559	-77.044	0.330	-0.114
-284.545	236.532	0.146	-0.240
-283.530	-191.937	-0.216	0.002
-282.516	-176.029	0.413	0.011
-281.501	86.708	-0.208	-0.228
-280.486	393.753	-0.080	-0.166
-279.472	-31.700	-0.429	0.239
-278.457	-200.000	0.012	0.265
-277.443	-200.000	-0.016	0.117
-276.428	309.582	-0.160	-0.297
-275.413	144.152	-0.052	-0.069
-274.399	-124.953	-0.314	0.048
-273.384	-81.670	0.116	-0.038
-272.370	301.029	0.156	0.286
-271.355	-200.000	0.069	0.333
-270.340	-12.915	0.282	-0.182
-269.326	-166.779	0.450	0.018
-268.311	800.000	0.108	-0.426
-267.297	-126.455	0.132	0.019
-266.282	-68.100	0.030	0.012
-265.267	-35.062	0.377	0.203
-264.253	-47.976	0.110	-0.053
-263.238	-200.000	0.002	0.258
-262.224	-116.120	0.109	-0.020
-261.209	-65.801	-0.366	0.145
-260.195	-140.798	-0.272	-0.028
-259.180	303.611	0.088	-0.162
-258.165	634.346	-0.159	-0.400
-257.151	-74.097	0.215	0.077
-256.136	800.000	0.056	-0.158
-255.122	177.609	0.095	0.136
-254.107	-116.335	0.297	0.054
-253.092	56.853	0.133	0.128
-252.078	155.129	-0.102	-0.139
-251.063	3.959	0.236	0.171
-250.049	279.459	-0.083	-0.146
-249.034	-200.000	-0.075	0.333
-248.019	281.979	0.132	-0.234
-247.005	102.348	-0.092	-0.107
-245.990	-102.619	0.262	0.062
-244.976	119.579	0.064	-0.078
-243.961	42.094	0.023	-0.021
-242.946	800.000	-0.070	-0.247
-241.932	-5.975	0.157	0.106
-240.917	341.221	0.098	0.189
-239.903	-135.182	0.207	0.025
-238.888	-6.979	-0.096	-0.065
-237.873	-200.000	0.032	0.279
-236.859	16.581	0.238	0.186
-235.844	636.030	-0.124	-0.311
-234.830	645.160	0.057	0.145
-233.815	-111.196	0.550	-0.111
-232.800	-200.000	-0.005	-0.342
-231.786	-128.995	-0.186	-0.026
-230.771	-138.241	0.336	-0.037
-229.757	363.430	0.032	0.064
-228.742	-25.341	0.169	0.099
-227.727	-22.900	-0.205	-0.123
-226.713	10.574	-0.089	-0.067
-225.698	-108.661	-0.230	-0.049
-224.684	-25.653	-0.142	0.083
-223.669	-107.334	-0.301	0.065
-222.655	-49.213	-0.271	0.128
-221.640	74.125	0.102	0.106
-220.625	-62.066	-0.041	0.017
-219.611	-127.842	0.280	-0.040
-218.596	-158.266	-0.126	0.007
-217.582	22.448	0.205	0.166
-216.567	-200.000	0.314	-0.000
-215.552	-200.000	0.001	0.122
-214.538	-101.263	-0.049	-0.012
-213.523	800.000	0.076	-0.318
-212.509	-98.144	-0.192	0.049
-211.494	-193.832	-0.338	-0.003
-210.479	-200.000	-0.046	-0.218
-209.465	98.882	-0.171	-0.195
-208.450	122.685	0.211	-0.261
-207.436	-13.315	0.158	0.101
-206.421	-36.215	-0.316	0.168
-205.406	-73.428	0.331	0.120
-204.392	-157.923	-0.427	0.025
-203.377	303.548	-0.169	-0.309
-202.363	-166.520	0.345	0.014
-201.348	113.236	-0.031	-0.037
-200.333	-48.399	-0.340	-0.162
-199.319	-5.290	-0.230	-0.156
-198.304	800.000	0.026	-0.100
-197.290	154.998	-0.241	0.327
-196.275	-174.865	0.048	0.001
-195.260	211.806	0.173	-0.269
-194.246	-200.000	0.049	0.313
-193.231	-150.280	0.354	0.027
-192.217	-59.074	-0.328	0.140
-191.202	-106.204	-0.042	0.009
-190.187	429.965	0.126	0.270
-189.173	-100.714	-0.062	0.015
-188.158	149.169	0.137	0.183
-187.144	131.755	-0.066	0.084
-186.129	-200.000	0.021	-0.121
-185.114	-200.000	0.019	0.350
-184.100	-148.813	-0.189	-0.015
-183.085	-149.174	-0.081	-0.006
-182.071	293.526	0.118	0.213
-181.056	-200.000	0.083	0.437
-180.042	135.483	0.203	-0.261
-179.027	-79.539	0.186	0.062
-178.012	800.000	-0.020	0.070
-176.998	-82.845	0.103	-0.033
-175.983	79.369	-0.098	-0.104
-174.969	141.772	0.137	0.180
-173.954	13.581	0.197	0.151
-172.939	-200.000	0.045	-0.388
-171.925	-200.000	-0.006	0.120
-170.910	800.000	0.034	0.100
-169.896	57.787	-0.052	0.050
-168.881	-200.000	0.015	-0.359
-167.866	-70.951	-0.184	-0.069
-166.852	-34.670	0.155	0.084
-165.837	800.000	-0.052	0.221
-164.823	-200.000	0.036	0.355
-163.808	59.703	-0.231	0.225
-162.793	-200.000	0.049	-0.224
-161.779	-200.000	0.003	0.054
-160.764	-156.905	0.285	0.017
-159.750	-200.000	-0.002	0.092
-158.735	172.393	0.106	-0.151
-157.720	-76.526	-0.149	-0.052
-156.706	8.456	0.298	-0.221
-155.691	10.642	0.211	-0.159
-154.677	201.672	0.173	-0.263
-153.662	800.000	-0.061	0.212
-152.647	-39.697	-0.045	-0.023
-151.633	-27.816	0.028	-0.016
-150.618	-98.723	-0.195	-0.049
-149.604	76.171	0.092	0.096
-148.589	-142.344	-0.145	0.014
-147.574	197.576	-0.084	-0.127
-146.560	-200.000	-0.009	-0.576
-145.545	-200.000	0.001	-0.134
-144.531	-87.595	0.248	0.074
-143.516	126.855	0.312	-0.390
-142.502	800.000	0.040	-0.124
-141.487	-28.708	-0.054	0.031
-140.472	-51.097	-0.077	-0.036
-139.458	39.498	-0.205	0.181
-138.443	24.395	0.267	-0.218
-137.429	800.000	0.141	-0.462
-136.414	-97.590	0.228	0.058
-135.399	250.803	-0.137	0.229
-134.385	-141.594	-0.058	0.006
-133.370	180.901	0.124	-0.180
-132.356	-200.000	-0.009	-0.042
-131.341	800.000	-0.019	-0.071
-130.326	-200.000	-0.032	-0.218
-129.312	18.638	0.054	0.042
-128.297	496.275	0.142	0.321
-127.283	-128.804	-0.229	-0.032
-126.268	-74.647	0.170	0.060
-125.253	-200.000	0.016	-0.097
-124.239	-17.297	0.024	0.015
-123.224	-37.783	-0.229	-0.120
-122.210	-200.000	-0.041	-0.198
-121.195	78.260	-0.071	-0.075
