DTS Sentinel unit serial number:	SN413079Multiplexer serial number:	ORYXHardware model number:	OX4-SRSoftware version number:	ORYX F/W v4.00 Oryx Data Collector v3.7.2.0data status	okinstallation	princeton_trtdifferential loss correction	single-endedforward channel	channel 1reverse channel	N/Adate	2019/09/17time	01:42:35forward acquisition time	60.00reverse acquisition time	0.00gamma	496.2192k internal	0.2323k external	0.2323temperature offset calibration	0.9958default loss term (dB/km)	0.3790temperature slope calibration	1.0000multiplexer offset coefficient	1.0000multiplexer slope coefficient	1.0000fibre end	0.00T internal ref (°C)	29.56T ext. ref 1 (°C)	0.11T ext. ref 2 (°C)	24.54length (m)	temperature (°C)	Stokes	anti-Stokes-747.200	760.871	-0.095	-0.261
-746.185	113.007	-0.251	0.308
-745.171	-87.571	0.135	-0.041
-744.156	50.389	-0.116	-0.110
-743.142	-200.000	0.001	0.151
-742.127	-53.134	-0.140	-0.065
-741.112	800.000	0.009	-0.034
-740.098	551.362	0.158	0.382
-739.083	-55.954	-0.100	0.045
-738.069	-122.052	0.334	0.055
-737.054	442.233	0.002	-0.005
-736.039	-79.182	-0.032	0.011
-735.025	-54.653	-0.235	0.107
-734.010	-22.918	0.191	0.116
-732.996	17.764	-0.370	-0.297
-731.981	118.475	-0.172	0.214
-730.966	-58.584	-0.240	0.105
-729.952	-111.450	0.127	-0.026
-728.937	133.047	-0.166	-0.216
-727.923	42.736	-0.256	-0.235
-726.908	-108.502	0.076	0.016
-725.894	800.000	0.102	-0.355
-724.879	150.871	-0.129	-0.178
-723.864	-102.447	0.298	-0.072
-722.850	262.838	0.074	-0.130
-721.835	0.570	0.160	0.116
-720.821	33.320	-0.184	-0.161
-719.806	-200.000	0.011	0.218
-718.791	-148.469	-0.093	0.008
-717.777	-67.539	-0.354	-0.140
-716.762	-200.000	0.045	-0.401
-715.748	195.366	0.026	-0.040
-714.733	800.000	-0.101	-0.303
-713.718	-146.954	0.360	-0.031
-712.704	-200.000	0.045	-0.494
-711.689	-7.415	0.180	-0.123
-710.675	-200.000	0.000	-0.016
-709.660	-0.322	0.266	-0.191
-708.645	339.404	-0.030	0.058
-707.631	-61.108	0.335	-0.142
-706.616	-200.000	0.049	-0.362
-705.602	-135.273	0.172	0.021
-704.587	88.941	-0.117	0.131
-703.572	780.430	0.077	0.212
-702.558	-132.847	0.252	-0.032
-701.543	-58.685	-0.202	-0.088
-700.529	142.439	-0.105	-0.140
-699.514	-166.857	-0.257	0.011
-698.499	800.000	0.103	0.392
-697.485	171.347	-0.049	-0.071
-696.470	-200.000	0.018	-0.140
-695.456	-154.550	0.418	-0.028
-694.441	-33.149	-0.348	-0.194
-693.426	35.243	0.079	-0.070
-692.412	-39.247	0.285	-0.151
-691.397	800.000	-0.016	-0.070
-690.383	115.766	0.253	-0.312
-689.368	-200.000	-0.004	0.069
-688.354	-107.040	-0.203	-0.045
-687.339	800.000	-0.051	-0.210
-686.324	-43.904	-0.332	-0.168
-685.310	-12.033	-0.271	0.179
-684.295	800.000	0.060	0.212
-683.281	442.210	0.084	-0.186
-682.266	396.692	0.245	-0.517
-681.251	-200.000	-0.003	0.090
-680.237	-59.707	0.163	-0.070
-679.222	-18.043	0.115	-0.073
-678.208	42.285	-0.051	0.046
-677.193	-100.016	0.361	-0.091
-676.178	-200.000	0.029	-0.235
-675.164	-75.584	-0.323	0.116
-674.149	-200.000	-0.053	-0.273
-673.135	153.703	-0.091	0.125
-672.120	-200.000	0.012	-0.138
-671.105	607.173	-0.107	0.270
-670.091	-30.880	-0.155	-0.088
-669.076	-200.000	-0.020	-0.124
-668.062	336.331	0.165	-0.323
-667.047	-45.864	0.190	0.094
-666.032	-21.899	-0.194	-0.119
-665.018	-137.293	-0.397	0.045
-664.003	800.000	0.063	-0.235
-662.989	408.759	-0.074	0.157
-661.974	-200.000	-0.025	-0.493
-660.959	126.665	-0.101	-0.129
-659.945	778.165	-0.176	0.483
-658.930	-161.043	0.118	0.006
-657.916	800.000	-0.116	-0.483
-656.901	-53.454	0.126	0.058
-655.886	97.145	-0.270	-0.312
-654.872	-200.000	0.098	-0.479
-653.857	44.832	0.182	-0.169
-652.843	355.119	-0.119	-0.239
-651.828	800.000	-0.049	0.138
-650.814	-52.967	-0.444	0.206
-649.799	50.601	-0.216	-0.205
-648.784	-89.365	-0.260	-0.077
-647.770	-154.441	0.300	-0.020
-646.755	800.000	0.056	0.177
-645.741	96.338	-0.138	0.159
-644.726	-139.056	-0.135	-0.015
-643.711	62.664	0.105	0.106
-642.697	190.568	0.128	0.194
-641.682	-40.084	0.148	-0.078
-640.668	-111.087	-0.135	-0.028
-639.653	-175.509	-0.201	0.005
-638.638	800.000	0.119	-0.488
-637.624	456.236	0.094	-0.209
-636.609	-95.641	0.089	0.024
-635.595	219.852	-0.136	0.218
-634.580	9.791	0.070	-0.053
-633.565	107.772	-0.044	0.052
-632.551	48.397	0.145	0.137
-631.536	100.991	0.047	-0.055
-630.522	143.591	-0.113	-0.151
-629.507	231.867	-0.143	0.236
-628.492	-41.542	-0.126	-0.065
-627.478	-139.802	-0.371	0.039
-626.463	-29.880	0.369	-0.211
-625.449	-200.000	-0.023	0.176
-624.434	-200.000	-0.010	0.183
-623.419	120.276	0.150	0.187
-622.405	-78.068	-0.308	-0.107
-621.390	-200.000	-0.027	0.377
-620.376	-159.714	0.273	0.015
-619.361	-143.382	-0.277	-0.027
-618.346	-35.396	-0.383	0.209
-617.332	-41.948	-0.117	-0.060
-616.317	63.561	0.133	0.134
-615.303	186.100	-0.312	-0.466
-614.288	800.000	-0.023	-0.096
-613.273	-149.512	0.304	-0.024
-612.259	59.632	-0.235	-0.232
-611.244	21.377	-0.096	0.079
-610.230	206.325	0.131	0.204
-609.215	467.805	-0.046	0.103
-608.201	155.110	-0.044	-0.061
-607.186	8.369	-0.185	-0.140
-606.171	78.818	0.255	-0.274
-605.157	31.182	-0.247	-0.213
-604.142	-144.209	-0.222	-0.021
-603.128	800.000	-0.030	0.106
-602.113	-131.352	0.174	0.023
-601.098	-200.000	0.026	-0.141
-600.084	-200.000	0.004	-0.217
-599.069	-64.440	-0.281	0.114
-598.055	-164.081	-0.178	0.008
-597.040	-200.000	-0.004	0.084
-596.025	218.701	-0.206	-0.331
-595.011	9.382	-0.207	0.157
-593.996	80.348	-0.179	0.194
-592.982	-200.000	-0.007	-0.197
-591.967	394.165	-0.165	-0.345
-590.952	-42.736	0.241	0.123
-589.938	-10.166	-0.161	0.107
-588.923	385.325	0.038	0.079
-587.909	75.577	0.131	-0.139
-586.894	5.534	0.124	-0.092
-585.879	36.308	-0.091	0.081
-584.865	-74.346	-0.201	0.073
-583.850	-200.000	0.025	-0.158
-582.836	-112.329	0.197	-0.040
-581.821	-159.990	0.217	-0.012
-580.806	-200.000	-0.015	0.142
-579.792	-86.045	-0.345	0.107
-578.777	197.036	-0.035	-0.054
-577.763	-126.996	-0.492	0.072
-576.748	71.100	-0.157	0.163
-575.733	-58.142	-0.082	-0.036
-574.719	-200.000	0.002	-0.411
-573.704	-30.430	-0.201	0.115
-572.690	-200.000	0.003	-0.120
-571.675	-126.389	0.153	0.023
-570.661	115.572	0.285	0.350
-569.646	75.890	0.186	0.197
-568.631	204.083	0.151	0.235
-567.617	-29.818	0.203	-0.116
-566.602	59.318	-0.084	0.083
-565.588	125.587	-0.209	-0.265
-564.573	-200.000	0.007	-0.035
-563.558	42.429	0.228	0.208
-562.544	800.000	-0.046	0.178
-561.529	-141.061	-0.299	0.031
-560.515	800.000	0.019	0.070
-559.500	-200.000	0.006	-0.052
-558.485	-108.280	-0.114	0.025
-557.471	-87.834	0.111	-0.034
-556.456	800.000	-0.085	0.281
-555.442	215.734	0.220	-0.350
-554.427	228.271	-0.126	-0.206
-553.412	-200.000	0.011	-0.456
-552.398	-38.802	-0.188	0.099
-551.383	-123.608	-0.180	0.029
-550.369	800.000	-0.056	-0.226
-549.354	8.047	0.186	0.140
-548.339	17.035	-0.325	0.258
-547.325	-17.794	0.198	0.124
-546.310	-35.079	-0.277	0.151
-545.296	-184.347	0.246	-0.004
-544.281	-157.626	-0.320	0.019
-543.266	-91.836	-0.110	-0.031
-542.252	-146.485	-0.073	0.006
-541.237	-153.426	-0.301	0.021
-540.223	-113.644	0.179	-0.035
-539.208	-47.480	0.181	-0.088
-538.193	-99.379	0.148	0.037
-537.179	-200.000	0.022	-0.244
-536.164	-7.379	-0.112	-0.076
-535.150	289.430	-0.092	-0.168
-534.135	-39.996	-0.306	0.160
-533.121	800.000	0.074	0.303
-532.106	573.594	-0.047	-0.114
-531.091	-110.034	0.087	-0.018
-530.077	-200.000	0.007	0.142
-529.062	-140.969	0.043	0.004
-528.048	-159.899	0.084	-0.005
-527.033	33.187	-0.206	0.179
-526.018	-200.000	0.032	0.282
-525.004	-200.000	0.007	0.293
-523.989	-148.025	-0.141	-0.012
-522.975	-32.054	0.198	0.111
-521.960	76.494	-0.078	0.083
-520.945	-200.000	-0.012	0.206
-519.931	800.000	-0.091	0.269
-518.916	-102.955	-0.195	0.046
-517.902	-200.000	-0.057	0.282
-516.887	209.204	0.136	-0.213
-515.872	800.000	0.040	0.156
-514.858	-136.039	0.278	0.033
-513.843	-114.690	0.123	-0.024
-512.829	188.932	0.089	0.133
-511.814	800.000	0.066	-0.196
-510.799	-118.559	0.426	-0.075
-509.785	416.971	-0.238	0.509
-508.770	98.924	-0.102	-0.118
-507.756	76.367	-0.097	0.103
-506.741	65.697	0.042	-0.043
-505.726	394.143	0.131	0.273
-504.712	-68.319	-0.236	-0.092
-503.697	800.000	-0.101	-0.395
-502.683	175.460	0.027	0.039
-501.668	800.000	0.071	-0.257
-500.653	-45.518	0.097	-0.048
-499.639	95.720	-0.205	0.234
-498.624	-110.548	-0.259	0.054
-497.610	395.887	-0.015	0.032
-496.595	-200.000	-0.019	0.377
-495.581	219.346	-0.198	-0.317
-494.566	-5.182	0.309	-0.212
-493.551	115.275	0.162	-0.198
-492.537	-29.540	-0.163	-0.093
-491.522	116.135	-0.126	0.155
-490.508	175.870	0.106	0.154
-489.493	800.000	-0.043	-0.170
-488.478	-200.000	-0.030	-0.159
-487.464	-200.000	-0.058	0.267
-486.449	-200.000	-0.033	0.151
-485.435	172.742	0.286	0.412
-484.420	693.521	-0.033	0.087
-483.405	-95.003	-0.441	0.119
-482.391	-98.997	-0.071	0.018
-481.376	-36.800	-0.167	-0.090
-480.362	258.959	-0.055	-0.095
-479.347	-42.839	0.162	0.082
-478.332	449.154	-0.029	-0.064
-477.318	-52.280	-0.239	0.111
-476.303	-84.023	0.159	0.051
-475.289	247.340	0.176	0.297
-474.274	489.071	-0.073	-0.166
-473.259	-200.000	-0.002	-0.372
-472.245	29.879	0.261	-0.222
-471.230	63.681	0.186	-0.187
-470.216	83.455	-0.217	-0.236
-469.201	-200.000	0.029	0.130
-468.186	-200.000	-0.013	-0.200
-467.172	621.451	0.056	-0.140
-466.157	670.588	-0.057	-0.149
-465.143	-132.516	-0.165	0.021
-464.128	-97.172	0.267	-0.070
-463.113	195.157	-0.027	0.041
-462.099	-51.129	0.181	0.085
-461.084	-83.437	-0.266	0.085
-460.070	122.981	-0.080	-0.101
-459.055	-51.238	-0.263	-0.123
-458.040	800.000	0.083	-0.263
-457.026	-200.000	0.054	-0.320
-456.011	-200.000	-0.003	-0.156
-454.997	771.661	0.094	-0.255
-453.982	420.193	-0.106	-0.227
-452.968	-200.000	0.017	0.129
-451.953	25.700	-0.256	0.213
-450.938	265.421	-0.219	-0.382
-449.924	26.971	-0.223	0.187
-448.909	347.636	0.036	-0.070
-447.895	-200.000	-0.031	-0.218
-446.880	-20.638	0.191	0.117
-445.865	-22.725	-0.191	0.115
-444.851	-200.000	0.041	0.241
-443.836	-32.821	0.131	0.073
-442.822	75.780	-0.036	-0.038
-441.807	-200.000	0.084	-0.420
-440.792	800.000	-0.005	-0.017
-439.778	-200.000	0.018	0.313
-438.763	-200.000	0.101	0.485
-437.749	-106.809	0.321	-0.071
-436.734	-0.968	0.231	-0.163
-435.719	165.969	-0.200	-0.282
-434.705	23.737	0.230	0.189
-433.690	120.372	0.008	0.010
-432.676	-16.351	-0.371	0.235
-431.661	-126.521	0.385	0.057
-430.646	-200.000	0.007	0.234
-429.632	573.469	-0.091	-0.222
-428.617	93.967	0.032	0.036
-427.603	46.621	-0.385	-0.357
-426.588	124.325	-0.106	0.134
-425.573	74.725	0.126	-0.132
-424.559	-200.000	-0.019	0.092
-423.544	-39.002	0.275	-0.145
-422.530	-200.000	0.009	0.335
-421.515	-200.000	0.000	0.301
-420.500	243.178	-0.122	-0.204
-419.486	-47.947	0.320	-0.154
-418.471	-198.720	-0.215	-0.001
-417.457	78.993	0.061	0.065
-416.442	252.609	0.013	-0.023
-415.428	800.000	-0.049	-0.179
-414.413	98.002	0.081	-0.093
-413.398	516.044	0.087	0.202
-412.384	-125.388	0.178	-0.027
-411.369	329.600	0.034	0.065
-410.355	196.459	0.115	0.174
-409.340	94.061	-0.100	-0.113
-408.325	-82.285	-0.071	-0.023
-407.311	131.834	0.167	0.214
-406.296	-76.692	0.072	-0.025
-405.282	631.884	0.032	0.080
-404.267	20.389	-0.158	-0.127
-403.252	465.959	0.088	-0.196
-402.238	46.322	0.105	-0.097
-401.223	800.000	0.169	0.545
-400.209	800.000	-0.016	-0.059
-399.194	-24.826	0.166	-0.098
-398.179	641.105	-0.056	-0.141
-397.165	-25.289	-0.051	-0.030
-396.150	271.035	0.031	-0.054
-395.136	-19.654	-0.025	-0.016
-394.121	75.335	-0.229	-0.240
-393.106	800.000	0.070	-0.260
-392.092	63.017	0.053	-0.052
-391.077	-200.000	-0.053	0.296
-390.063	199.971	-0.068	-0.104
-389.048	-50.725	0.204	-0.096
-388.033	16.248	-0.174	-0.137
-387.019	-200.000	0.051	-0.280
-386.004	800.000	-0.018	-0.055
-384.990	-89.221	-0.138	0.041
-383.975	-200.000	0.003	0.207
-382.960	800.000	0.044	0.177
-381.946	-34.731	-0.089	-0.049
-380.931	-200.000	-0.009	0.066
-379.917	-137.890	0.254	-0.028
-378.902	122.103	-0.297	0.369
-377.888	516.174	-0.016	-0.038
-376.873	-111.714	0.186	-0.037
-375.858	191.788	0.141	0.212
-374.844	-76.810	-0.307	0.107
-373.829	-111.388	-0.243	0.049
-372.815	-83.579	-0.184	0.058
-371.800	-200.000	0.011	0.106
-370.785	-136.963	-0.112	0.013
-369.771	326.980	-0.123	-0.234
-368.756	388.470	0.049	-0.100
-367.742	-22.436	0.220	0.133
-366.727	-3.164	-0.050	-0.034
-365.712	-166.660	0.123	-0.005
-364.698	28.498	0.181	0.152
-363.683	800.000	-0.115	-0.393
-362.669	790.891	0.045	0.124
-361.654	-167.422	0.789	-0.031
-360.639	800.000	0.105	-0.429
-359.625	592.853	-0.076	-0.186
-358.610	-200.000	0.006	-0.039
-357.596	-71.847	-0.083	-0.031
-356.581	-200.000	-0.017	0.532
-355.566	-158.314	0.280	0.016
-354.552	-144.743	-0.424	-0.039
-353.537	328.648	-0.114	-0.218
-352.523	-155.473	-0.238	0.015
-351.508	89.514	0.202	-0.224
-350.493	405.298	-0.078	0.163
-349.479	3.843	-0.231	-0.168
-348.464	57.383	-0.134	-0.131
-347.450	-67.793	0.371	0.144
-346.435	339.351	-0.101	0.195
-345.420	5.928	0.285	-0.210
-344.406	42.590	0.084	-0.076
-343.391	796.489	0.083	-0.227
-342.377	36.548	0.227	-0.199
-341.362	158.545	0.095	-0.131
-340.348	800.000	-0.086	0.313
-339.333	450.628	-0.078	-0.170
-338.318	-56.587	-0.336	0.148
-337.304	47.469	0.187	-0.174
-336.289	-200.000	-0.010	0.199
-335.275	382.336	-0.078	0.158
-334.260	-9.240	-0.055	-0.037
-333.245	101.292	0.065	0.075
-332.231	10.976	-0.375	-0.285
-331.216	-131.839	0.389	0.050
-330.202	147.055	-0.128	0.171
-329.187	516.494	0.079	-0.184
-328.172	-78.584	0.125	0.042
-327.158	17.069	-0.313	0.246
-326.143	-126.197	-0.354	0.053
-325.129	144.468	-0.069	-0.091
-324.114	800.000	-0.017	0.060
-323.099	-200.000	-0.061	0.000
-322.085	-67.497	0.377	0.147
-321.070	-92.841	0.255	0.071
-320.056	-200.000	0.039	-0.199
-319.041	-19.431	0.265	-0.163
-318.026	80.647	0.306	0.327
-317.012	-109.605	0.265	-0.055
-315.997	-200.000	-0.035	-0.175
-314.983	-132.802	-0.258	0.033
-313.968	-135.875	0.440	0.052
-312.953	-66.875	-0.253	-0.099
-311.939	34.552	-0.327	0.284
-310.924	220.535	0.032	0.051
-309.910	-47.371	0.256	0.124
-308.895	-200.000	-0.051	0.275
-307.880	19.900	-0.113	0.090
-306.866	-101.887	0.217	-0.052
-305.851	-52.591	0.337	0.155
-304.837	-27.745	-0.281	-0.162
-303.822	293.134	-0.137	0.249
-302.807	20.408	0.180	0.144
-301.793	206.338	-0.134	0.207
-300.778	-200.000	0.020	-0.110
-299.764	800.000	0.077	0.271
-298.749	-101.537	-0.271	-0.065
-297.735	137.368	-0.248	0.322
-296.720	-79.874	0.154	0.052
-295.705	-200.000	0.033	-0.392
-294.691	27.937	0.360	-0.301
-293.676	-200.000	0.041	-0.219
-292.662	-66.566	0.112	0.044
-291.647	-134.264	0.248	0.030
-290.632	-10.085	-0.182	0.120
-289.618	-83.851	-0.254	-0.080
-288.603	262.717	0.119	-0.205
-287.589	218.466	0.240	0.380
-286.574	-34.446	0.345	-0.187
-285.559	451.036	-0.057	0.124
-284.545	9.278	-0.151	-0.113
-283.530	34.781	-0.184	0.160
-282.516	293.154	0.023	-0.041
-281.501	36.189	-0.277	-0.242
-280.486	-45.136	0.181	0.089
-279.472	-132.833	0.322	-0.041
-278.457	257.571	0.075	0.127
-277.443	262.526	0.107	-0.184
-276.428	112.797	0.067	-0.081
-275.413	-82.658	0.221	-0.071
-274.399	-120.354	-0.112	0.019
-273.384	-200.000	0.006	-0.049
-272.370	559.578	0.062	0.149
-271.355	569.741	0.115	0.278
-270.340	-200.000	0.029	0.267
-269.326	396.547	0.204	0.422
-268.311	68.670	-0.405	-0.412
-267.297	28.006	-0.115	-0.096
-266.282	-200.000	0.012	0.199
-265.267	10.740	-0.039	0.029
-264.253	-122.209	0.147	-0.024
-263.238	98.318	-0.234	-0.268
-262.224	27.495	0.117	-0.097
-261.209	6.809	0.121	-0.089
-260.195	-200.000	0.053	0.498
-259.180	-171.859	-0.247	0.008
-258.165	-43.063	0.060	0.030
-257.151	225.287	-0.140	-0.225
-256.136	-61.526	0.407	0.169
-255.122	38.204	0.142	-0.125
-254.107	309.027	-0.111	-0.206
-253.092	-77.224	0.148	0.051
-252.078	800.000	0.075	-0.285
-251.063	42.590	0.017	-0.015
-250.049	-200.000	0.033	-0.237
-249.034	418.548	0.235	0.498
-248.019	-6.291	0.103	-0.070
-247.005	-200.000	-0.010	-0.143
-245.990	800.000	-0.031	0.092
-244.976	-22.153	-0.043	0.026
-243.961	-28.942	0.135	0.077
-242.946	-124.382	0.148	-0.023
-241.932	800.000	0.031	-0.086
-240.917	-38.558	-0.356	0.186
-239.903	-71.940	-0.112	0.041
-238.888	-200.000	-0.015	0.118
-237.873	9.044	-0.137	-0.102
-236.859	800.000	0.044	-0.158
-235.844	123.001	0.043	0.054
-234.830	-54.219	-0.131	0.059
-233.815	283.226	-0.045	0.079
-232.800	228.121	0.048	0.077
-231.786	-62.368	-0.223	0.092
-230.771	58.217	0.062	0.060
-229.757	-45.012	0.091	0.045
-228.742	440.044	0.047	-0.102
-227.727	-200.000	-0.009	-0.098
-226.713	-200.000	0.013	0.107
-225.698	-200.000	0.021	0.199
-224.684	174.368	-0.091	-0.131
-223.669	5.299	-0.247	0.180
-222.655	-72.786	0.482	0.176
-221.640	659.031	-0.032	-0.081
-220.625	-150.932	-0.010	0.001
-219.611	-54.319	-0.063	0.028
-218.596	7.352	-0.179	-0.132
-217.582	51.986	0.146	-0.138
-216.567	-200.000	0.092	0.688
-215.552	-165.487	-0.296	0.013
-214.538	27.662	-0.327	-0.272
-213.523	-104.816	0.343	-0.078
-212.509	-150.338	0.298	0.023
-211.494	-98.364	0.150	0.038
-210.479	-110.884	0.272	-0.055
-209.465	-158.312	-0.144	0.008
-208.450	-200.000	0.017	0.094
-207.436	22.481	-0.109	-0.088
-206.421	762.291	-0.128	-0.344
-205.406	353.201	0.139	-0.273
-204.392	146.549	0.045	-0.059
-203.377	484.116	0.012	-0.028
-202.363	267.646	-0.087	-0.150
-201.348	156.784	0.143	0.196
-200.333	-83.894	-0.343	0.108
-199.319	-74.116	0.260	-0.093
-198.304	-200.000	-0.015	0.220
-197.290	-200.000	0.056	-0.260
-196.275	501.546	-0.107	-0.245
-195.260	53.407	-0.294	0.279
-194.246	51.502	0.135	0.127
-193.231	-146.341	0.182	-0.016
-192.217	-200.000	0.017	0.121
-191.202	800.000	0.011	0.040
-190.187	-86.440	-0.146	-0.044
-189.173	51.028	0.340	-0.319
-188.158	-200.000	-0.020	-0.120
-187.144	-16.265	-0.055	-0.034
-186.129	70.766	0.360	-0.368
-185.114	12.299	0.367	-0.279
-184.100	-48.606	0.074	-0.035
-183.085	467.888	-0.132	-0.292
-182.071	-161.991	0.138	-0.007
-181.056	16.605	0.163	0.127
-180.042	-200.000	0.000	-0.527
-179.027	191.216	-0.109	0.162
-178.012	-39.742	0.252	0.130
-176.998	239.039	-0.137	-0.225
-175.983	62.908	-0.087	0.086
-174.969	98.870	0.228	0.260
-173.954	800.000	-0.035	0.116
-172.939	800.000	0.068	-0.264
-171.925	800.000	-0.029	0.097
-170.910	-96.075	0.470	0.123
-169.896	800.000	0.038	-0.106
-168.881	-123.362	-0.160	0.025
-167.866	-1.150	-0.067	-0.047
-166.852	-131.072	-0.230	0.030
-165.837	-69.427	-0.226	0.086
-164.823	-160.878	-0.040	-0.002
-163.808	355.283	-0.047	0.092
-162.793	49.805	-0.085	-0.079
-161.779	800.000	0.053	0.226
-160.764	-100.757	-0.287	0.070
-159.750	29.493	-0.205	0.172
-158.735	1.121	0.059	-0.041
-157.720	-35.433	0.251	0.135
-156.706	-110.898	0.371	-0.075
-155.691	193.665	-0.041	-0.061
-154.677	-29.866	0.408	-0.229
-153.662	-92.994	-0.051	0.014
-152.647	117.108	-0.134	0.163
-151.633	26.557	-0.174	-0.144
-150.618	212.893	-0.081	-0.126
-149.604	-88.874	0.294	0.086
-148.589	-147.037	-0.248	0.021
-147.574	160.093	0.213	-0.293
-146.560	210.141	-0.201	0.312
-145.545	-154.480	-0.078	0.005
-144.531	-66.875	0.222	-0.086
-143.516	-150.081	0.134	-0.010
-142.502	-119.384	-0.407	-0.070
-141.487	-51.254	0.232	0.107
-140.472	-187.469	0.271	-0.004
-139.458	460.841	-0.183	0.402
-138.443	-95.932	0.198	0.052
-137.429	-43.995	0.478	0.237
-136.414	121.399	-0.200	0.245
-135.399	800.000	-0.063	-0.173
-134.385	-168.020	-0.200	0.008
-133.370	-28.448	0.349	0.199
-132.356	-200.000	-0.009	-0.064
-131.341	277.442	-0.144	-0.252
-130.326	401.325	-0.081	0.168
-129.312	-80.700	-0.366	0.120
-128.297	800.000	-0.051	-0.161
-127.283	-17.947	0.347	-0.214
-126.268	-146.740	0.155	-0.013
-125.253	645.217	-0.040	0.100
-124.239	800.000	0.066	-0.194
-123.224	31.167	-0.313	-0.265
-122.210	125.040	-0.068	0.084
-121.195	319.817	-0.041	-0.077
