DTS Sentinel unit serial number:	SN413079Multiplexer serial number:	ORYXHardware model number:	OX4-SRSoftware version number:	ORYX F/W v4.00 Oryx Data Collector v3.7.2.0data status	okinstallation	princeton_trtdifferential loss correction	single-endedforward channel	channel 1reverse channel	N/Adate	2019/09/13time	15:54:36forward acquisition time	60.00reverse acquisition time	0.00gamma	496.2192k internal	0.2308k external	0.2308temperature offset calibration	1.0162default loss term (dB/km)	0.3790temperature slope calibration	1.0000multiplexer offset coefficient	1.0000multiplexer slope coefficient	1.0000fibre end	0.00T internal ref (°C)	34.62T ext. ref 1 (°C)	4.79T ext. ref 2 (°C)	30.50length (m)	temperature (°C)	Stokes	anti-Stokes-747.200	-80.826	-0.236	-0.080
-746.185	800.000	-0.035	-0.118
-745.171	-200.000	-0.060	0.294
-744.156	-28.077	-0.266	-0.156
-743.142	-60.255	0.186	-0.081
-742.127	-66.611	0.117	-0.047
-741.112	442.264	-0.052	0.116
-740.098	800.000	-0.048	-0.198
-739.083	-12.100	0.161	0.107
-738.069	-200.000	-0.055	0.352
-737.054	90.653	0.124	-0.141
-736.039	-106.904	-0.239	-0.054
-735.025	416.335	0.123	0.267
-734.010	-78.007	-0.152	0.053
-732.996	27.062	-0.068	-0.058
-731.981	107.430	-0.133	-0.161
-730.966	-200.000	-0.030	-0.352
-729.952	331.034	-0.067	-0.131
-728.937	-200.000	-0.003	-0.164
-727.923	-200.000	0.012	0.108
-726.908	-155.881	-0.109	0.007
-725.894	325.907	0.019	0.036
-724.879	-114.769	-0.286	0.055
-723.864	2.020	0.133	0.098
-722.850	-0.527	0.251	0.181
-721.835	-21.825	-0.047	0.029
-720.821	-28.950	0.091	0.053
-719.806	800.000	-0.035	0.148
-718.791	71.217	0.188	-0.198
-717.777	800.000	0.072	0.223
-716.762	95.631	-0.277	0.321
-715.748	-0.404	0.074	0.053
-714.733	-84.612	0.118	0.038
-713.718	543.336	-0.070	-0.169
-712.704	-166.943	-0.376	-0.016
-711.689	-80.001	0.437	-0.149
-710.675	-115.002	-0.313	0.060
-709.660	-94.415	0.099	0.027
-708.645	800.000	-0.108	-0.326
-707.631	268.310	-0.079	-0.141
-706.616	35.981	0.126	-0.113
-705.602	-200.000	-0.006	0.065
-704.587	-131.656	-0.261	0.035
-703.572	18.879	-0.049	0.039
-702.558	-140.242	0.249	0.026
-701.543	45.696	-0.229	-0.215
-700.529	69.707	0.117	-0.123
-699.514	182.814	-0.110	-0.165
-698.499	800.000	-0.113	-0.369
-697.485	-6.009	-0.234	-0.162
-696.470	-92.903	0.053	0.015
-695.456	89.077	-0.113	-0.128
-694.441	17.154	0.338	0.272
-693.426	69.488	-0.177	-0.185
-692.412	-61.718	0.210	-0.089
-691.397	800.000	0.035	-0.123
-690.383	-200.000	-0.029	-0.226
-689.368	-88.691	-0.073	-0.022
-688.354	277.817	0.073	0.132
-687.339	-200.000	-0.030	-0.200
-686.324	256.254	-0.046	0.081
-685.310	-78.517	-0.221	0.077
-684.295	-70.989	-0.327	-0.125
-683.281	-35.699	-0.091	0.050
-682.266	-67.657	0.031	0.012
-681.251	800.000	-0.032	-0.124
-680.237	29.330	-0.159	0.137
-679.222	-55.262	0.126	-0.058
-678.208	700.399	-0.113	-0.302
-677.193	-10.401	0.256	0.172
-676.178	-56.475	0.095	0.043
-675.164	-26.707	-0.123	0.073
-674.149	-69.691	0.281	0.109
-673.135	-200.000	0.004	-0.119
-672.120	800.000	0.026	-0.077
-671.105	800.000	-0.086	-0.376
-670.091	-19.067	-0.220	-0.138
-669.076	-108.145	-0.066	-0.015
-668.062	-61.782	0.132	-0.056
-667.047	-58.133	0.210	-0.093
-666.032	355.342	0.101	0.204
-665.018	-200.000	-0.010	-0.258
-664.003	-106.037	-0.166	0.038
-662.989	75.550	0.072	0.077
-661.974	32.222	-0.141	-0.123
-660.959	-95.550	0.152	0.041
-659.945	116.448	0.147	0.182
-658.930	-126.765	0.497	0.074
-657.916	-26.318	0.137	0.082
-656.901	157.531	0.301	0.422
-655.886	-156.123	0.226	0.014
-654.872	263.470	0.243	0.427
-653.857	-67.334	0.234	-0.093
-652.843	126.960	0.259	0.332
-651.828	-200.000	-0.015	0.082
-650.814	-126.036	0.110	0.017
-649.799	63.480	-0.100	0.101
-648.784	28.245	-0.170	-0.145
-647.770	110.189	0.162	-0.197
-646.755	-99.719	-0.122	-0.031
-645.741	151.574	0.173	-0.238
-644.726	-107.068	-0.058	0.013
-643.711	174.319	0.067	-0.098
-642.697	-78.324	0.093	-0.032
-641.682	-46.508	0.211	-0.105
-640.668	453.812	-0.047	-0.106
-639.653	-200.000	0.027	-0.323
-638.638	300.166	0.053	-0.099
-637.624	-71.288	0.157	-0.060
-636.609	38.193	0.208	-0.187
-635.595	690.943	-0.115	-0.304
-634.580	-29.529	-0.075	0.044
-633.565	90.123	-0.153	0.174
-632.551	-200.000	0.015	-0.300
-631.536	167.300	-0.050	-0.072
-630.522	23.324	-0.092	-0.076
-629.507	-151.762	-0.193	0.014
-628.492	-200.000	-0.040	0.342
-627.478	-200.000	0.012	-0.142
-626.463	6.218	-0.115	0.086
-625.449	-154.921	-0.141	0.009
-624.434	235.342	-0.077	-0.128
-623.419	241.724	0.172	0.291
-622.405	-200.000	-0.048	0.268
-621.390	800.000	-0.122	0.382
-620.376	638.641	0.113	-0.291
-619.361	800.000	0.074	-0.286
-618.346	-60.626	-0.350	-0.150
-617.332	22.852	-0.204	0.169
-616.317	236.512	-0.021	-0.036
-615.303	117.691	0.106	-0.132
-614.288	35.530	0.044	0.039
-613.273	-200.000	0.030	0.256
-612.259	-200.000	0.043	0.250
-611.244	51.835	0.078	-0.075
-610.230	-200.000	-0.008	0.092
-609.215	-200.000	0.049	-0.264
-608.201	34.331	0.131	-0.115
-607.186	-200.000	0.056	-0.282
-606.171	-53.685	-0.109	0.050
-605.157	-154.102	-0.622	-0.043
-604.142	67.398	-0.093	0.096
-603.128	-176.967	0.347	0.009
-602.113	-6.134	-0.080	0.055
-601.098	-200.000	0.043	0.352
-600.084	120.487	0.114	-0.143
-599.069	800.000	0.041	-0.118
-598.055	-200.000	0.030	-0.252
-597.040	-143.225	0.086	-0.008
-596.025	-155.357	-0.290	-0.019
-595.011	-200.000	0.030	-0.388
-593.996	331.295	0.143	-0.278
-592.982	19.551	-0.199	-0.162
-591.967	301.599	-0.068	-0.127
-590.952	329.836	0.085	-0.166
-589.938	678.774	-0.052	-0.137
-588.923	38.524	0.257	-0.232
-587.909	210.705	-0.211	0.335
-586.894	157.554	0.094	0.132
-585.879	-36.543	-0.095	0.052
-584.865	11.513	-0.371	0.287
-583.850	154.871	-0.066	-0.091
-582.836	99.568	-0.212	0.247
-581.821	6.059	-0.244	-0.182
-580.806	-200.000	0.021	-0.094
-579.792	0.901	-0.008	-0.006
-578.777	-200.000	-0.026	-0.122
-577.763	-171.329	0.202	-0.007
-576.748	15.537	0.347	0.275
-575.733	14.055	-0.287	0.225
-574.719	-40.036	0.313	-0.165
-573.704	800.000	-0.100	-0.286
-572.690	-200.000	0.023	-0.210
-571.675	187.585	0.120	0.180
-570.661	19.549	0.233	-0.189
-569.646	85.820	0.064	-0.071
-568.631	551.844	-0.089	-0.216
-567.617	-128.391	-0.514	-0.074
-566.602	-144.719	0.073	0.007
-565.588	86.679	0.262	0.292
-564.573	-134.040	-0.131	-0.016
-563.558	-64.091	0.189	-0.078
-562.544	1.718	0.227	0.165
-561.529	-19.975	0.146	0.091
-560.515	-200.000	-0.058	0.296
-559.500	390.253	-0.170	-0.355
-558.485	800.000	-0.103	-0.290
-557.471	800.000	0.036	-0.159
-556.456	293.455	0.029	-0.054
-555.442	539.644	0.176	-0.422
-554.427	-62.086	-0.036	-0.015
-553.412	364.470	-0.153	-0.312
-552.398	-92.132	0.235	-0.067
-551.383	-23.597	-0.203	-0.123
-550.369	-120.863	-0.320	0.054
-549.354	-143.739	0.113	0.011
-548.339	-107.710	0.161	0.035
-547.325	800.000	0.073	-0.302
-546.310	-2.913	-0.065	-0.046
-545.296	-0.728	0.209	0.149
-544.281	-200.000	-0.026	-0.213
-543.266	-16.487	0.275	-0.176
-542.252	105.691	-0.164	-0.196
-541.237	39.621	0.246	0.223
-540.223	73.293	0.149	0.158
-539.208	-69.334	0.435	-0.168
-538.193	32.843	0.146	0.127
-537.179	760.978	-0.035	-0.096
-536.164	472.467	0.132	-0.299
-535.150	125.773	-0.150	0.191
-534.135	132.757	-0.168	-0.219
-533.121	-56.606	-0.333	0.149
-532.106	-200.000	-0.019	0.161
-531.091	495.276	-0.074	0.172
-530.077	-70.515	-0.237	-0.090
-529.062	70.045	-0.099	0.103
-528.048	-63.640	0.176	-0.073
-527.033	-76.803	-0.144	-0.051
-526.018	13.938	-0.148	-0.116
-525.004	236.236	0.152	0.253
-523.989	61.751	0.183	0.183
-522.975	116.059	-0.073	0.090
-521.960	458.796	-0.044	0.099
-520.945	800.000	-0.068	-0.249
-519.931	800.000	0.095	0.318
-518.916	-112.111	-0.120	-0.024
-517.902	-78.662	-0.163	-0.056
-516.887	-18.266	-0.428	-0.269
-515.872	-51.887	-0.281	0.132
-514.858	-200.000	-0.018	0.195
-513.843	405.498	-0.214	0.454
-512.829	-46.904	-0.313	0.154
-511.814	-140.214	-0.136	-0.014
-510.799	39.769	-0.054	-0.049
-509.785	-200.000	0.025	-0.116
-508.770	-200.000	-0.007	0.066
-507.756	69.371	0.201	-0.208
-506.741	-134.006	-0.070	-0.009
-505.726	-200.000	0.076	-0.359
-504.712	800.000	0.035	-0.138
-503.697	-26.119	-0.186	-0.110
-502.683	800.000	0.034	0.106
-501.668	-12.160	-0.057	0.038
-500.653	-111.480	-0.293	-0.060
-499.639	-200.000	0.019	0.151
-498.624	611.523	0.056	0.140
-497.610	148.210	0.106	-0.145
-496.595	800.000	-0.070	-0.307
-495.581	-200.000	-0.002	0.100
-494.566	-92.911	-0.109	0.031
-493.551	98.632	-0.112	-0.130
-492.537	-63.787	0.250	-0.103
-491.522	800.000	-0.077	0.236
-490.508	50.560	-0.176	-0.168
-489.493	800.000	-0.074	0.242
-488.478	-27.416	-0.225	-0.132
-487.464	-3.993	0.202	0.141
-486.449	543.683	-0.125	-0.301
-485.435	142.102	-0.344	0.459
-484.420	-26.265	0.075	-0.044
-483.405	-68.218	0.212	0.083
-482.391	-9.915	-0.139	-0.093
-481.376	-112.177	0.102	-0.021
-480.362	-160.371	-0.323	0.017
-479.347	-112.437	0.089	-0.018
-478.332	308.908	0.247	-0.463
-477.318	-97.454	-0.251	0.066
-476.303	-71.826	-0.086	-0.032
-475.289	800.000	0.044	-0.176
-474.274	-7.025	0.123	-0.084
-473.259	395.215	-0.140	0.294
-472.245	21.763	-0.125	-0.102
-471.230	167.762	0.153	0.219
-470.216	800.000	-0.057	0.182
-469.201	-200.000	-0.040	0.323
-468.186	-200.000	0.005	0.072
-467.172	-137.470	-0.313	-0.036
-466.157	61.469	-0.293	0.293
-465.143	800.000	-0.064	0.264
-464.128	-28.235	0.202	0.117
-463.113	115.174	0.152	0.186
-462.099	288.531	-0.046	0.083
-461.084	409.967	0.088	-0.187
-460.070	-90.633	-0.076	0.022
-459.055	800.000	0.040	0.131
-458.040	-164.920	-0.311	-0.014
-457.026	762.164	0.104	0.282
-456.011	-122.755	-0.342	-0.056
-454.997	-170.441	0.492	0.017
-453.982	-7.810	-0.134	-0.091
-452.968	-180.915	-0.216	0.004
-451.953	-42.056	-0.172	-0.089
-450.938	-200.000	-0.008	-0.040
-449.924	-200.000	0.003	-0.042
-448.909	113.270	0.112	-0.136
-447.895	-17.913	0.068	0.043
-446.880	80.036	-0.248	-0.268
-445.865	-104.420	0.406	0.094
-444.851	300.657	-0.200	0.371
-443.836	245.482	0.078	0.132
-442.822	72.977	0.187	0.196
-441.807	-100.831	-0.281	-0.069
-440.792	-145.819	-0.268	0.024
-439.778	-155.376	-0.226	-0.015
-438.763	-119.871	0.422	0.073
-437.749	-144.577	0.078	0.007
-436.734	-94.792	0.278	-0.076
-435.719	63.339	-0.209	0.210
-434.705	-106.867	-0.439	-0.098
-433.690	0.199	0.273	-0.196
-432.676	-91.740	-0.057	0.016
-431.661	800.000	-0.035	-0.147
-430.646	563.549	0.051	-0.125
-429.632	-200.000	0.048	0.230
-428.617	-80.964	0.131	0.044
-427.603	328.648	0.209	-0.404
-426.588	553.460	-0.120	-0.290
-425.573	84.034	0.308	-0.338
-424.559	-173.864	-0.087	-0.003
-423.544	-114.550	0.359	-0.069
-422.530	800.000	-0.061	0.192
-421.515	-38.874	-0.354	0.187
-420.500	-76.934	0.166	0.058
-419.486	67.589	-0.309	-0.316
-418.471	134.300	-0.045	0.058
-417.457	311.679	0.246	0.463
-416.442	43.712	-0.402	-0.370
-415.428	-84.647	-0.109	-0.034
-414.413	303.641	0.136	-0.252
-413.398	25.976	0.077	-0.065
-412.384	5.830	0.261	0.194
-411.369	31.887	-0.103	0.089
-410.355	172.974	0.027	-0.039
-409.340	39.301	0.204	0.183
-408.325	43.109	0.165	-0.151
-407.311	800.000	-0.037	0.146
-406.296	169.230	-0.072	-0.103
-405.282	582.339	-0.093	0.230
-404.267	310.707	-0.048	-0.089
-403.252	124.109	0.061	0.077
-402.238	-200.000	-0.004	-0.313
-401.223	-200.000	0.028	-0.221
-400.209	48.723	-0.128	0.120
-399.194	-166.919	0.440	0.018
-398.179	502.976	0.038	-0.089
-397.165	46.222	0.029	-0.027
-396.150	45.995	0.233	0.216
-395.136	-135.162	0.247	0.030
-394.121	18.367	-0.028	0.023
-393.106	-64.033	-0.092	0.038
-392.092	-116.972	-0.138	-0.025
-391.077	800.000	-0.043	-0.145
-390.063	-112.772	0.152	-0.030
-389.048	87.476	-0.084	0.093
-388.033	-30.486	0.011	0.006
-387.019	-36.435	0.091	0.049
-386.004	-200.000	0.053	0.251
-384.990	506.358	0.042	-0.097
-383.975	-200.000	-0.012	0.143
-382.960	446.769	0.094	0.207
-381.946	223.048	0.222	-0.358
-380.931	800.000	0.079	0.271
-379.917	217.819	-0.062	0.099
-378.902	278.797	-0.132	0.237
-377.888	487.715	0.081	-0.184
-376.873	-5.445	-0.198	0.136
-375.858	20.208	-0.255	-0.206
-374.844	11.765	0.185	-0.142
-373.829	-50.779	-0.123	0.058
-372.815	58.903	0.119	0.117
-371.800	-63.350	0.171	-0.071
-370.785	800.000	-0.072	0.269
-369.771	-200.000	-0.012	0.112
-368.756	32.421	0.178	-0.154
-367.742	731.785	0.072	-0.193
-366.727	379.385	0.073	-0.149
-365.712	-64.322	-0.210	0.085
-364.698	49.381	0.064	0.061
-363.683	440.047	-0.054	-0.117
-362.669	-93.863	0.413	0.114
-361.654	-102.909	-0.293	-0.070
-360.639	800.000	0.038	-0.146
-359.625	-200.000	0.065	-0.312
-358.610	-32.209	-0.333	-0.186
-357.596	-106.551	0.085	-0.019
-356.581	-25.344	0.115	-0.068
-355.566	-1.799	0.194	-0.137
-354.552	709.413	0.134	0.354
-353.537	800.000	-0.079	-0.257
-352.523	-55.056	0.257	-0.116
-351.508	-184.459	-0.241	0.004
-350.493	-200.000	-0.108	0.476
-349.479	18.297	-0.202	-0.161
-348.464	107.746	-0.249	-0.297
-347.450	44.811	-0.308	-0.284
-346.435	-120.297	0.245	0.042
-345.420	800.000	-0.086	-0.315
-344.406	215.458	0.221	-0.351
-343.391	-200.000	-0.000	-0.019
-342.377	-200.000	-0.001	-0.061
-341.362	-132.830	-0.066	0.008
-340.348	-65.879	0.247	0.099
-339.333	-176.445	-0.181	0.005
-338.318	800.000	-0.028	0.085
-337.304	-137.165	-0.350	0.040
-336.289	-83.617	-0.173	-0.055
-335.275	27.337	0.210	0.177
-334.260	-20.974	0.086	0.053
-333.245	-135.451	0.171	-0.020
-332.231	-200.000	0.005	-0.297
-331.216	-37.571	0.241	0.128
-330.202	-5.197	-0.224	0.154
-329.187	232.875	0.120	-0.197
-328.172	-200.000	-0.011	0.221
-327.158	-92.933	0.062	-0.017
-326.143	545.781	0.086	0.205
-325.129	-200.000	0.017	-0.215
-324.114	-58.095	0.238	0.104
-323.099	800.000	0.101	0.285
-322.085	-161.267	-0.175	-0.009
-321.070	-153.117	0.257	-0.018
-320.056	463.597	-0.138	0.308
-319.041	800.000	0.094	-0.325
-318.026	-99.828	0.236	0.059
-317.012	800.000	0.003	0.011
-315.997	-200.000	-0.019	0.256
-314.983	-200.000	0.025	0.176
-313.968	-109.393	0.184	0.039
-312.953	229.427	-0.085	-0.138
-311.939	-89.827	0.306	-0.089
-310.924	218.566	0.131	0.208
-309.910	95.405	0.092	-0.105
-308.895	-146.226	0.363	-0.032
-307.880	-78.566	0.448	0.153
-306.866	133.105	0.084	-0.109
-305.851	-15.912	-0.187	-0.119
-304.837	-190.488	0.185	0.002
-303.822	-200.000	0.001	-0.323
-302.807	157.210	-0.050	0.069
-301.793	-175.369	0.173	0.005
-300.778	-114.012	0.186	-0.036
-299.764	-99.562	-0.091	0.023
-298.749	30.688	0.049	-0.042
-297.735	538.626	-0.034	-0.082
-296.720	250.049	0.089	0.150
-295.705	800.000	0.090	0.380
-294.691	745.013	-0.167	0.450
-293.676	-152.833	-0.159	0.011
-292.662	-134.383	0.113	-0.014
-291.647	-93.790	0.163	0.045
-290.632	227.408	-0.058	-0.093
-289.618	-200.000	-0.011	-0.087
-288.603	-188.853	-0.165	0.002
-287.589	-29.657	-0.366	0.209
-286.574	295.876	0.052	0.095
-285.559	-163.187	0.087	-0.004
-284.545	-200.000	0.002	-0.088
-283.530	-200.000	0.021	0.243
-282.516	176.664	0.152	0.221
-281.501	-157.826	0.198	-0.012
-280.486	-96.181	-0.275	0.073
-279.472	-200.000	0.009	0.166
-278.457	117.650	0.192	0.236
-277.443	37.378	0.171	0.152
-276.428	651.032	0.026	0.066
-275.413	44.951	0.219	-0.202
-274.399	-45.242	-0.131	-0.065
-273.384	-200.000	0.160	-0.000
-272.370	-92.135	0.073	0.021
-271.355	800.000	-0.057	-0.164
-270.340	-96.543	0.178	-0.047
-269.326	-55.845	-0.415	0.185
-268.311	-27.623	-0.285	0.165
-267.297	-200.000	0.007	0.302
-266.282	-200.000	0.052	0.275
-265.267	-124.290	-0.411	0.064
-264.253	119.471	0.075	0.093
-263.238	5.938	-0.060	0.045
-262.224	629.469	0.076	0.191
-261.209	-200.000	0.024	0.326
-260.195	-200.000	0.011	0.146
-259.180	109.834	0.085	-0.102
-258.165	-200.000	-0.055	0.261
-257.151	-35.315	-0.162	0.088
-256.136	-200.000	-0.019	0.132
-255.122	534.463	0.052	-0.123
-254.107	-109.687	-0.188	0.040
-253.092	-59.958	0.161	0.069
-252.078	-154.789	0.136	-0.009
-251.063	11.170	0.183	0.139
-250.049	-21.261	0.076	-0.046
-249.034	107.497	0.211	-0.250
-248.019	-16.260	0.125	0.079
-247.005	238.698	0.134	0.222
-245.990	19.347	0.136	-0.109
-244.976	50.779	-0.218	0.205
-243.961	145.189	-0.196	-0.262
-242.946	177.806	-0.093	-0.136
-241.932	-104.902	-0.181	0.041
-240.917	15.137	-0.226	0.176
-239.903	600.813	0.200	0.494
-238.888	395.034	0.011	0.024
-237.873	-139.737	-0.337	0.036
-236.859	205.715	-0.111	-0.171
-235.844	-112.243	-0.071	-0.014
-234.830	-166.212	-0.265	-0.011
-233.815	126.336	-0.100	0.126
-232.800	-200.000	-0.021	-0.286
-231.786	-200.000	-0.005	-0.161
-230.771	-36.444	-0.144	0.077
-229.757	70.460	-0.078	0.081
-228.742	11.122	0.175	0.133
-227.727	437.482	-0.065	-0.141
-226.713	-200.000	-0.023	-0.102
-225.698	582.452	-0.077	0.188
-224.684	135.734	-0.306	-0.397
-223.669	-46.160	-0.128	-0.063
-222.655	-200.000	-0.022	0.104
-221.640	-185.215	-0.091	0.001
-220.625	-135.804	-0.168	0.020
-219.611	439.514	-0.058	0.126
-218.596	28.857	-0.095	0.080
-217.582	438.750	-0.118	0.256
-216.567	-200.000	0.020	0.091
-215.552	-110.955	-0.336	0.069
-214.538	661.376	-0.041	-0.105
-213.523	800.000	0.133	-0.514
-212.509	-67.292	-0.514	0.201
-211.494	-71.129	-0.276	-0.103
-210.479	195.024	0.191	0.288
-209.465	-200.000	0.012	-0.125
-208.450	153.055	0.212	0.288
-207.436	-146.520	0.155	-0.013
-206.421	241.039	0.218	-0.362
-205.406	-71.914	-0.310	0.115
-204.392	194.302	-0.089	-0.134
-203.377	-97.342	0.123	0.032
-202.363	800.000	-0.047	0.194
-201.348	41.167	-0.142	-0.127
-200.333	301.999	-0.133	-0.246
-199.319	137.152	0.036	-0.047
-198.304	-118.407	0.031	0.005
-197.290	708.530	0.064	0.168
-196.275	-28.640	0.308	0.176
-195.260	-67.859	0.274	0.106
-194.246	-200.000	0.007	-0.117
-193.231	-5.903	0.165	0.113
-192.217	17.723	0.273	0.216
-191.202	800.000	0.078	0.246
-190.187	-13.626	0.242	-0.156
-189.173	800.000	-0.020	0.065
-188.158	-147.321	0.107	0.009
-187.144	-137.448	-0.102	-0.012
-186.129	43.120	-0.103	-0.093
-185.114	800.000	0.055	-0.180
-184.100	800.000	0.041	-0.162
-183.085	-173.754	0.058	0.002
-182.071	-200.000	0.048	0.248
-181.056	-62.461	-0.179	0.074
-180.042	-2.901	0.189	-0.131
-179.027	-10.895	0.388	0.255
-178.012	35.408	0.301	-0.262
-176.998	32.831	0.241	-0.208
-175.983	-200.000	-0.012	0.561
-174.969	800.000	-0.020	-0.080
-173.954	-200.000	0.033	-0.310
-172.939	800.000	-0.045	-0.139
-171.925	254.487	0.038	-0.064
-170.910	117.461	0.232	0.283
-169.896	137.812	0.211	0.275
-168.881	-99.895	0.367	0.091
-167.866	25.452	-0.061	0.050
-166.852	204.269	-0.050	0.077
-165.837	519.022	-0.090	-0.209
-164.823	-117.703	-0.273	0.049
-163.808	-165.933	0.219	0.009
-162.793	-200.000	-0.032	0.214
-161.779	-200.000	-0.006	0.174
-160.764	130.230	-0.218	-0.277
-159.750	706.590	0.020	-0.051
-158.735	-13.292	-0.061	-0.039
-157.720	37.158	0.210	0.184
-156.706	122.471	0.078	0.096
-155.691	-125.293	-0.103	0.016
-154.677	50.788	-0.341	-0.321
-153.662	-11.588	0.219	-0.143
-152.647	-88.231	0.224	-0.067
-151.633	99.944	0.114	-0.132
-150.618	-138.147	0.244	-0.027
-149.604	17.737	-0.224	0.177
-148.589	-200.000	0.007	-0.083
-147.574	128.836	0.078	-0.098
-146.560	466.432	-0.077	-0.171
-145.545	-80.200	0.278	0.092
-144.531	-56.978	0.389	-0.170
-143.516	800.000	-0.049	0.138
-142.502	190.903	-0.087	0.130
-141.487	203.911	-0.126	-0.193
-140.472	-33.907	-0.157	0.086
-139.458	-200.000	0.036	-0.174
-138.443	-161.723	-0.292	0.015
-137.429	-119.416	-0.130	0.022
-136.414	344.123	-0.041	0.081
-135.399	102.616	0.064	0.074
-134.385	-72.287	-0.147	0.054
-133.370	166.120	-0.047	-0.066
-132.356	249.130	0.094	0.158
-131.341	80.782	0.153	-0.164
-130.326	349.676	0.056	-0.110
-129.312	-200.000	0.038	0.356
-128.297	800.000	0.045	-0.156
-127.283	-45.822	-0.469	-0.230
-126.268	21.389	-0.134	0.108
-125.253	-118.449	0.239	-0.042
-124.239	351.562	-0.075	-0.147
-123.224	-80.777	0.095	0.031
-122.210	7.155	0.263	0.195
-121.195	-26.297	-0.102	0.059
-120.180	-18.179	0.275	0.170
