DTS Sentinel unit serial number:	SN413079Multiplexer serial number:	ORYXHardware model number:	OX4-SRSoftware version number:	ORYX F/W v4.00 Oryx Data Collector v3.7.2.0data status	okinstallation	princeton_trtdifferential loss correction	single-endedforward channel	channel 1reverse channel	N/Adate	2019/09/18time	19:58:35forward acquisition time	60.00reverse acquisition time	0.00gamma	496.2192k internal	0.2329k external	0.2329temperature offset calibration	1.0030default loss term (dB/km)	0.3790temperature slope calibration	1.0000multiplexer offset coefficient	1.0000multiplexer slope coefficient	1.0000fibre end	0.00T internal ref (°C)	30.52T ext. ref 1 (°C)	1.01T ext. ref 2 (°C)	21.24length (m)	temperature (°C)	Stokes	anti-Stokes-747.200	-200.000	0.018	-0.225
-746.185	61.096	-0.337	0.337
-745.171	800.000	0.078	-0.219
-744.156	707.739	-0.043	0.115
-743.142	-98.337	0.327	0.084
-742.127	-200.000	0.007	0.060
-741.112	-13.947	-0.026	-0.017
-740.098	162.003	0.035	-0.049
-739.083	213.449	0.093	0.148
-738.069	82.710	-0.221	0.242
-737.054	-126.046	-0.221	0.033
-736.039	-104.793	-0.163	0.038
-735.025	-39.822	0.154	-0.081
-734.010	-164.144	-0.230	0.011
-732.996	-137.200	0.050	0.006
-731.981	-136.998	0.262	-0.030
-730.966	34.502	0.093	0.081
-729.952	-167.721	-0.305	-0.012
-728.937	-6.758	-0.334	0.229
-727.923	-30.501	0.239	0.136
-726.908	-200.000	0.020	-0.370
-725.894	800.000	0.093	0.287
-724.879	-20.140	-0.145	-0.090
-723.864	-61.895	-0.206	0.087
-722.850	-30.197	-0.105	-0.060
-721.835	-11.683	-0.289	-0.191
-720.821	-31.214	0.287	-0.162
-719.806	-173.028	-0.087	0.003
-718.791	-33.245	0.031	0.017
-717.777	-200.000	0.034	0.360
-716.762	157.970	-0.086	-0.120
-715.748	-141.390	-0.073	0.007
-714.733	132.424	-0.127	-0.164
-713.718	-87.343	-0.298	0.091
-712.704	-87.790	-0.164	-0.050
-711.689	-106.056	-0.143	-0.032
-710.675	395.027	-0.114	-0.240
-709.660	-199.255	-0.172	0.001
-708.645	110.408	-0.171	0.207
-707.631	-46.485	-0.282	-0.139
-706.616	242.039	0.055	-0.093
-705.602	-49.691	-0.310	0.148
-704.587	-89.119	-0.275	0.082
-703.572	800.000	0.052	-0.215
-702.558	800.000	-0.051	0.153
-701.543	-32.028	-0.074	0.042
-700.529	-200.000	-0.008	-0.182
-699.514	176.330	-0.093	-0.135
-698.499	336.991	0.213	0.416
-697.485	800.000	0.062	0.219
-696.470	-129.033	-0.182	0.026
-695.456	105.105	-0.146	-0.174
-694.441	689.980	0.074	-0.194
-693.426	800.000	-0.042	-0.184
-692.412	402.700	0.056	0.119
-691.397	800.000	0.031	0.093
-690.383	180.456	-0.238	-0.351
-689.368	-200.000	0.058	0.459
-688.354	5.485	0.258	-0.192
-687.339	-130.716	-0.290	0.039
-686.324	-127.882	0.371	0.054
-685.310	275.890	-0.077	-0.138
-684.295	167.569	0.092	-0.132
-683.281	-34.586	-0.122	0.067
-682.266	292.193	-0.127	0.233
-681.251	3.439	-0.134	0.098
-680.237	-14.486	0.130	-0.084
-679.222	123.277	-0.091	0.114
-678.208	-40.914	-0.333	-0.173
-677.193	-173.921	-0.086	0.003
-676.178	-200.000	-0.036	-0.258
-675.164	800.000	0.097	-0.385
-674.149	13.973	-0.173	0.136
-673.135	-75.505	-0.173	-0.062
-672.120	425.680	0.068	-0.146
-671.105	-144.162	0.233	0.022
-670.091	-145.340	-0.373	-0.034
-669.076	118.334	0.080	-0.099
-668.062	800.000	0.052	0.184
-667.047	565.179	0.062	0.151
-666.032	102.859	-0.090	-0.106
-665.018	-200.000	-0.018	0.308
-664.003	153.222	-0.106	0.146
-662.989	800.000	0.091	-0.258
-661.974	-141.870	0.391	0.039
-660.959	56.244	-0.154	0.150
-659.945	-200.000	0.067	-0.317
-658.930	-110.528	-0.207	-0.043
-657.916	-59.584	0.272	0.117
-656.901	-45.045	-0.509	0.254
-655.886	800.000	0.057	0.171
-654.872	162.003	0.086	-0.121
-653.857	700.356	0.135	-0.358
-652.843	271.327	-0.096	-0.169
-651.828	32.154	-0.161	0.140
-650.814	-94.174	-0.154	-0.042
-649.799	364.476	0.058	-0.117
-648.784	-141.301	-0.326	-0.033
-647.770	-100.281	-0.061	0.015
-646.755	50.453	-0.336	-0.319
-645.741	29.334	0.196	0.167
-644.726	-129.809	-0.170	0.023
-643.711	-2.471	-0.296	0.208
-642.697	-38.583	0.035	0.019
-641.682	-26.278	-0.322	0.190
-640.668	-32.490	-0.159	-0.089
-639.653	113.419	-0.255	-0.311
-638.638	156.535	0.218	0.302
-637.624	-200.000	0.029	-0.304
-636.609	-200.000	-0.081	-0.397
-635.595	-173.882	0.166	0.005
-634.580	-22.778	0.170	-0.103
-633.565	-80.426	-0.245	-0.082
-632.551	-73.713	-0.505	0.184
-631.536	-200.000	-0.055	0.302
-630.522	-32.003	0.050	0.028
-629.507	-122.323	0.208	0.034
-628.492	-98.043	0.249	0.064
-627.478	-126.617	-0.211	0.031
-626.463	-19.879	-0.353	-0.219
-625.449	-55.014	0.051	-0.023
-624.434	-80.429	-0.302	0.101
-623.419	800.000	0.062	-0.233
-622.405	-65.123	0.218	-0.088
-621.390	-133.156	0.194	0.025
-620.376	60.981	0.175	-0.174
-619.361	139.067	0.238	0.314
-618.346	-200.000	0.003	0.385
-617.332	-200.000	-0.026	-0.171
-616.317	-70.323	0.138	-0.053
-615.303	96.126	0.386	0.442
-614.288	507.134	-0.114	0.266
-613.273	-24.645	-0.137	0.082
-612.259	243.136	0.059	-0.100
-611.244	-25.696	-0.028	-0.016
-610.230	-96.719	0.083	0.022
-609.215	231.819	0.142	0.234
-608.201	173.052	-0.216	-0.312
-607.186	-200.000	-0.034	-0.307
-606.171	86.461	0.164	-0.182
-605.157	800.000	-0.095	0.349
-604.142	224.759	0.102	0.165
-603.128	-117.441	0.250	-0.045
-602.113	-200.000	0.017	0.083
-601.098	154.676	0.097	-0.134
-600.084	24.035	-0.143	0.118
-599.069	-180.524	-0.152	0.003
-598.055	43.014	0.199	0.181
-597.040	70.191	-0.128	-0.132
-596.025	297.766	-0.174	-0.321
-595.011	-128.900	0.243	0.034
-593.996	89.780	-0.134	0.149
-592.982	318.936	-0.119	-0.226
-591.967	-18.294	-0.309	0.194
-590.952	-200.000	0.046	0.274
-589.938	269.308	0.026	0.046
-588.923	-200.000	0.049	-0.327
-587.909	125.274	-0.309	-0.390
-586.894	-200.000	0.014	0.140
-585.879	-200.000	-0.002	-0.206
-584.865	127.730	0.017	0.021
-583.850	590.812	0.080	-0.196
-582.836	-35.976	0.059	-0.032
-581.821	-200.000	-0.015	0.156
-580.806	171.974	0.128	0.184
-579.792	-3.165	-0.044	-0.031
-578.777	7.589	-0.294	0.220
-577.763	-64.304	-0.213	-0.087
-576.748	652.756	-0.070	-0.179
-575.733	42.946	-0.147	0.134
-574.719	-174.561	0.204	0.006
-573.704	800.000	-0.027	0.100
-572.690	66.812	-0.099	-0.101
-571.675	-200.000	-0.027	-0.357
-570.661	-200.000	0.015	-0.276
-569.646	33.198	0.126	-0.109
-568.631	-200.000	0.040	0.231
-567.617	156.444	-0.140	0.193
-566.602	-3.728	-0.106	-0.074
-565.588	-200.000	-0.034	0.157
-564.573	-90.483	-0.096	0.028
-563.558	44.571	0.104	0.096
-562.544	-112.234	-0.086	0.017
-561.529	800.000	0.030	0.130
-560.515	-26.720	-0.071	0.041
-559.500	-200.000	-0.004	0.318
-558.485	20.796	-0.208	0.168
-557.471	69.689	0.316	-0.326
-556.456	-133.514	-0.175	-0.022
-555.442	47.702	0.058	-0.054
-554.427	683.977	-0.091	-0.237
-553.412	-169.407	0.266	-0.010
-552.398	-121.610	-0.288	-0.048
-551.383	-200.000	-0.014	-0.191
-550.369	228.865	0.092	0.150
-549.354	-11.486	-0.142	-0.093
-548.339	-43.017	0.179	0.091
-547.325	-56.179	-0.225	0.100
-546.310	351.512	-0.091	-0.180
-545.296	-25.823	-0.206	0.121
-544.281	-143.684	0.160	0.015
-543.266	182.675	-0.104	-0.154
-542.252	-32.815	-0.026	-0.014
-541.237	687.084	-0.114	-0.297
-540.223	-200.000	0.025	0.199
-539.208	64.647	0.060	0.061
-538.193	766.361	0.039	-0.107
-537.179	-56.287	0.446	0.198
-536.164	-165.335	0.065	0.003
-535.150	-21.473	-0.192	0.117
-534.135	-72.957	-0.219	0.080
-533.121	305.261	0.212	0.394
-532.106	-200.000	-0.060	-0.263
-531.091	-96.365	0.190	-0.050
-530.077	-134.934	-0.102	0.012
-529.062	322.564	0.118	-0.224
-528.048	471.253	-0.053	-0.120
-527.033	-50.518	-0.188	-0.089
-526.018	-135.829	0.288	0.034
-525.004	122.516	-0.033	-0.042
-523.989	-90.657	-0.161	0.046
-522.975	-73.404	-0.192	-0.070
-521.960	55.165	-0.067	-0.064
-520.945	-61.747	-0.239	-0.100
-519.931	597.189	0.044	-0.109
-518.916	180.306	0.175	-0.256
-517.902	105.425	0.123	-0.145
-516.887	-58.430	0.390	-0.169
-515.872	-54.707	-0.182	-0.082
-514.858	-200.000	-0.044	0.326
-513.843	-200.000	-0.063	0.281
-512.829	-200.000	-0.062	-0.319
-511.814	-104.882	-0.006	0.001
-510.799	-33.122	0.228	-0.126
-509.785	800.000	-0.038	-0.147
-508.770	-200.000	-0.053	-0.380
-507.756	-200.000	0.010	-0.081
-506.741	73.067	-0.134	-0.140
-505.726	462.857	-0.115	-0.257
-504.712	800.000	-0.022	-0.089
-503.697	-200.000	0.054	-0.288
-502.683	-27.008	-0.289	-0.168
-501.668	-8.623	-0.117	-0.078
-500.653	-137.703	0.111	0.012
-499.639	-100.591	-0.297	-0.073
-498.624	-68.501	0.506	0.196
-497.610	84.241	0.095	0.103
-496.595	57.920	0.087	0.085
-495.581	8.436	-0.122	0.092
-494.566	155.492	-0.062	-0.085
-493.551	-32.931	-0.121	0.067
-492.537	-200.000	0.062	-0.455
-491.522	800.000	0.118	-0.419
-490.508	204.896	0.063	0.097
-489.493	800.000	0.125	0.401
-488.478	15.233	-0.363	-0.284
-487.464	-112.150	-0.338	-0.068
-486.449	-200.000	0.018	-0.381
-485.435	-33.680	-0.356	0.196
-484.420	-99.298	-0.178	0.045
-483.405	39.449	-0.176	-0.157
-482.391	146.303	-0.039	0.052
-481.376	67.258	-0.198	-0.201
-480.362	125.959	-0.223	0.281
-479.347	-50.521	-0.079	0.037
-478.332	-97.360	0.147	-0.038
-477.318	800.000	-0.078	-0.238
-476.303	-200.000	0.005	0.060
-475.289	-11.271	-0.357	0.235
-474.274	800.000	0.039	0.155
-473.259	800.000	0.067	0.217
-472.245	289.843	-0.101	0.183
-471.230	151.992	0.078	0.105
-470.216	-200.000	0.023	0.349
-469.201	-34.584	-0.098	-0.054
-468.186	118.684	0.198	-0.244
-467.172	10.494	-0.061	-0.046
-466.157	759.686	0.095	0.255
-465.143	-55.561	0.160	0.072
-464.128	-200.000	0.011	0.114
-463.113	-200.000	0.007	0.176
-462.099	-184.277	0.201	0.003
-461.084	104.185	-0.102	0.119
-460.070	-200.000	-0.040	0.285
-459.055	144.111	0.100	-0.133
-458.040	-98.147	0.264	0.068
-457.026	-200.000	0.005	-0.095
-456.011	302.279	0.089	0.165
-454.997	-200.000	-0.075	0.571
-453.982	226.111	0.066	-0.107
-452.968	6.715	-0.209	-0.155
-451.953	-61.955	-0.239	0.099
-450.938	800.000	-0.074	0.262
-449.924	-164.858	0.209	-0.009
-448.909	-200.000	-0.016	-0.302
-447.895	54.795	0.231	-0.222
-446.880	510.768	-0.091	-0.212
-445.865	28.768	0.249	0.210
-444.851	-90.508	-0.459	-0.132
-443.836	-90.584	0.171	-0.049
-442.822	-200.000	-0.019	-0.101
-441.807	-200.000	0.014	-0.406
-440.792	20.690	-0.192	-0.155
-439.778	-79.574	-0.180	0.061
-438.763	329.988	0.164	-0.314
-437.749	636.229	-0.046	0.117
-436.734	-52.898	-0.328	0.151
-435.719	-115.952	-0.107	-0.020
-434.705	103.362	-0.142	0.166
-433.690	-200.000	-0.004	0.049
-432.676	-200.000	0.013	-0.111
-431.661	-63.866	0.170	0.069
-430.646	8.998	-0.369	-0.277
-429.632	-83.068	0.335	-0.107
-428.617	-50.577	-0.045	-0.021
-427.603	97.445	0.291	0.332
-426.588	25.257	0.401	-0.331
-425.573	-200.000	0.010	0.125
-424.559	-37.320	-0.358	-0.190
-423.544	-155.219	-0.189	-0.012
-422.530	-200.000	0.002	0.092
-421.515	160.698	-0.079	-0.109
-420.500	454.311	0.141	0.311
-419.486	15.613	-0.115	0.090
-418.471	386.681	0.111	-0.228
-417.457	-52.261	-0.501	-0.231
-416.442	313.591	-0.230	-0.430
-415.428	-200.000	0.036	-0.199
-414.413	15.145	0.109	-0.085
-413.398	800.000	0.056	0.157
-412.384	-173.774	-0.225	-0.007
-411.369	-81.417	-0.330	0.108
-410.355	-161.523	-0.057	-0.003
-409.340	74.659	-0.184	-0.193
-408.325	-150.405	0.294	0.022
-407.311	-60.952	-0.373	0.157
-406.296	-21.315	-0.196	0.119
-405.282	-41.345	0.186	0.095
-404.267	223.891	0.089	0.143
-403.252	-200.000	0.031	0.177
-402.238	50.944	-0.104	-0.098
-401.223	-68.523	-0.290	0.112
-400.209	95.447	0.199	-0.225
-399.194	-200.000	-0.032	-0.159
-398.179	8.416	0.398	0.298
-397.165	800.000	-0.091	-0.259
-396.150	-97.346	0.489	0.126
-395.136	374.330	-0.183	0.370
-394.121	-66.362	-0.279	0.110
-393.106	282.387	0.006	0.011
-392.092	440.931	0.171	-0.373
-391.077	313.702	-0.152	-0.283
-390.063	-200.000	-0.007	-0.065
-389.048	-200.000	0.076	0.434
-388.033	9.884	0.078	-0.059
-387.019	-40.637	-0.161	-0.083
-386.004	39.464	-0.108	0.096
-384.990	800.000	0.051	-0.156
-383.975	-53.975	0.494	-0.224
-382.960	261.109	-0.145	-0.249
-381.946	-113.306	0.462	0.090
-380.931	-165.957	-0.233	-0.010
-379.917	-142.704	0.112	0.011
-378.902	347.985	-0.097	-0.190
-377.888	14.144	-0.280	-0.217
-376.873	132.529	-0.156	0.199
-375.858	-145.447	0.152	0.014
-374.844	24.365	0.230	0.189
-373.829	571.080	0.154	0.371
-372.815	19.094	-0.108	0.086
-371.800	-52.935	0.107	0.049
-370.785	70.369	-0.088	0.090
-369.771	42.660	-0.162	0.146
-368.756	108.177	-0.065	0.077
-367.742	-116.082	0.103	0.019
-366.727	-200.000	-0.005	0.184
-365.712	95.420	0.258	0.292
-364.698	72.641	0.095	-0.099
-363.683	800.000	0.044	-0.162
-362.669	-53.757	0.265	-0.120
-361.654	-65.334	-0.264	0.105
-360.639	-111.476	-0.211	0.043
-359.625	-193.467	0.030	-0.000
-358.610	434.974	0.119	0.257
-357.596	120.944	0.073	0.090
-356.581	53.334	0.193	0.183
-355.566	800.000	0.104	-0.361
-354.552	-129.990	0.252	-0.034
-353.537	-190.063	0.157	-0.002
-352.523	-135.626	0.133	0.016
-351.508	-52.430	-0.130	0.060
-350.493	-200.000	-0.018	0.197
-349.479	-200.000	-0.061	0.468
-348.464	149.679	-0.102	0.138
-347.450	-200.000	0.006	-0.069
-346.435	130.241	0.191	0.242
-345.420	-140.261	-0.144	-0.015
-344.406	-200.000	-0.022	-0.168
-343.391	-105.399	-0.278	0.063
-342.377	-200.000	0.030	0.168
-341.362	800.000	0.047	0.203
-340.348	800.000	0.049	0.202
-339.333	-57.340	-0.229	-0.100
-338.318	-200.000	0.009	0.181
-337.304	-200.000	0.004	0.183
-336.289	-36.908	-0.088	-0.047
-335.275	-86.410	-0.251	0.076
-334.260	725.678	0.068	-0.180
-333.245	-155.209	-0.309	-0.020
-332.231	800.000	-0.031	-0.099
-331.216	12.181	-0.261	-0.199
-330.202	-200.000	-0.027	-0.215
-329.187	143.366	-0.307	0.405
-328.172	-80.976	-0.142	0.046
-327.158	93.857	-0.239	-0.268
-326.143	697.602	0.158	0.412
-325.129	-40.887	0.346	0.178
-324.114	-22.628	-0.278	-0.166
-323.099	-54.752	-0.105	0.047
-322.085	10.920	-0.211	-0.160
-321.070	142.913	0.095	-0.125
-320.056	354.829	0.161	0.317
-319.041	13.102	0.179	0.137
-318.026	-134.868	-0.297	-0.036
-317.012	35.442	0.276	0.240
-315.997	-75.380	0.072	0.025
-314.983	-151.898	0.244	0.018
-313.968	7.671	-0.065	0.048
-312.953	690.888	0.057	-0.147
-311.939	24.862	-0.305	0.250
-310.924	-71.600	0.272	-0.101
-309.910	-168.223	-0.034	-0.001
-308.895	-98.959	0.268	0.067
-307.880	3.745	-0.317	-0.229
-306.866	468.126	0.076	0.168
-305.851	-200.000	-0.022	0.165
-304.837	-48.666	0.131	0.063
-303.822	-30.789	0.295	0.165
-302.807	-118.498	0.441	-0.077
-301.793	-153.726	0.223	0.015
-300.778	-170.077	0.309	0.011
-299.764	800.000	0.087	-0.256
-298.749	-8.785	-0.426	0.283
-297.735	-181.793	0.178	-0.003
-296.720	556.453	0.075	0.179
-295.705	119.850	0.179	0.219
-294.691	-80.935	-0.114	-0.037
-293.676	-51.291	0.154	-0.071
-292.662	-155.908	0.258	0.016
-291.647	210.902	0.068	0.106
-290.632	10.540	0.120	-0.090
-289.618	-1.485	0.251	-0.175
-288.603	40.550	0.009	0.008
-287.589	33.587	-0.099	0.085
-286.574	198.959	0.027	0.041
-285.559	-92.767	0.189	0.052
-284.545	-200.000	-0.042	0.285
-283.530	534.114	0.110	-0.257
-282.516	-106.072	-0.406	0.090
-281.501	-177.719	0.194	0.005
-280.486	212.754	0.158	-0.247
-279.472	-102.504	0.058	-0.014
-278.457	-14.351	0.138	0.088
-277.443	800.000	0.094	-0.365
-276.428	33.785	0.127	-0.110
-275.413	17.458	0.032	0.025
-274.399	800.000	0.082	0.312
-273.384	-200.000	0.008	-0.270
-272.370	-32.888	-0.053	-0.029
-271.355	800.000	-0.013	0.035
-270.340	-47.096	0.337	-0.163
-269.326	-200.000	0.067	0.357
-268.311	-200.000	-0.031	0.209
-267.297	5.198	0.049	0.036
-266.282	105.854	0.298	-0.348
-265.267	-99.438	-0.226	-0.056
-264.253	-92.359	-0.238	-0.066
-263.238	3.955	0.577	0.417
-262.224	-83.498	0.156	-0.049
-261.209	442.333	-0.104	-0.225
-260.195	-200.000	0.027	-0.186
-259.180	-62.206	0.457	-0.188
-258.165	-200.000	0.018	0.156
-257.151	-50.129	-0.096	0.045
-256.136	329.099	-0.164	-0.311
-255.122	73.708	-0.263	-0.272
-254.107	77.905	-0.399	-0.420
-253.092	800.000	-0.082	-0.248
-252.078	-140.500	-0.238	-0.024
-251.063	-170.669	0.434	-0.015
-250.049	-60.615	0.434	-0.182
-249.034	-200.000	0.012	-0.262
-248.019	329.806	-0.027	-0.051
-247.005	-97.238	0.106	-0.027
-245.990	443.302	0.044	-0.096
-244.976	-200.000	-0.014	0.256
-243.961	-31.459	0.195	0.109
-242.946	-32.148	0.282	0.156
-241.932	-76.816	-0.052	-0.018
-240.917	26.221	0.282	0.233
-239.903	-74.544	0.250	0.089
-238.888	-101.194	-0.260	-0.063
-237.873	65.387	0.057	0.057
-236.859	99.904	-0.073	-0.084
-235.844	200.118	0.204	-0.309
-234.830	542.586	0.072	-0.169
-233.815	346.096	-0.122	0.238
-232.800	800.000	-0.064	0.227
-231.786	-67.362	0.203	0.079
-230.771	526.072	-0.041	-0.096
-229.757	316.401	0.159	0.297
-228.742	-88.579	0.357	0.105
-227.727	-200.000	-0.072	-0.528
-226.713	14.716	0.190	-0.146
-225.698	-99.067	0.365	0.091
-224.684	-104.326	0.315	0.072
-223.669	-200.000	-0.023	-0.139
-222.655	-44.685	0.189	-0.093
-221.640	-49.856	-0.139	-0.065
-220.625	-123.068	-0.159	0.025
-219.611	174.578	0.100	-0.143
-218.596	48.504	-0.172	0.159
-217.582	152.829	0.173	-0.234
-216.567	438.763	-0.166	-0.357
-215.552	366.502	-0.030	-0.060
-214.538	-100.222	-0.168	-0.041
-213.523	254.019	0.063	-0.107
-212.509	-200.000	0.182	0.001
-211.494	-135.983	-0.144	0.017
-210.479	-37.230	-0.080	-0.042
-209.465	-47.596	0.296	-0.142
-208.450	-200.000	0.014	0.091
-207.436	800.000	-0.096	0.326
-206.421	-200.000	-0.001	0.267
-205.406	-101.173	-0.486	0.117
-204.392	-121.649	-0.366	-0.060
-203.377	381.696	-0.106	-0.214
-202.363	112.191	0.117	-0.140
-201.348	-8.214	-0.342	0.227
-200.333	20.672	0.084	0.067
-199.319	486.306	0.172	0.386
-198.304	-200.000	0.036	0.163
-197.290	-200.000	-0.023	-0.357
-196.275	-93.715	-0.329	-0.089
-195.260	157.667	-0.135	0.185
-194.246	119.428	-0.056	0.068
-193.231	-116.232	0.053	-0.010
-192.217	159.022	0.135	0.185
-191.202	-98.040	-0.291	0.074
-190.187	-27.155	0.285	-0.164
-189.173	800.000	-0.026	0.112
-188.158	-74.599	-0.075	0.027
-187.144	-131.668	0.223	0.029
-186.129	38.463	0.119	0.105
-185.114	202.491	0.170	0.259
-184.100	-135.725	-0.191	0.022
-183.085	253.115	-0.152	0.255
-182.071	669.982	0.056	-0.142
-181.056	-1.919	0.064	-0.044
-180.042	-110.195	-0.240	0.049
-179.027	-158.434	0.413	-0.024
-178.012	-200.000	-0.029	-0.357
-176.998	800.000	-0.013	-0.042
-175.983	515.117	-0.107	0.245
-174.969	92.616	0.137	0.152
-173.954	21.870	-0.205	0.165
-172.939	-159.678	0.382	0.021
-171.925	117.211	0.148	0.179
-170.910	-200.000	-0.010	0.149
-169.896	469.434	0.183	0.404
-168.881	-200.000	0.021	0.250
-167.866	800.000	-0.022	-0.082
-166.852	-200.000	0.079	0.405
-165.837	-150.826	0.054	0.004
-164.823	-34.686	-0.018	-0.009
-163.808	-200.000	-0.018	-0.189
-162.793	99.426	-0.321	-0.366
-161.779	800.000	-0.055	-0.186
-160.764	-200.000	0.063	0.297
-159.750	-200.000	0.039	-0.268
-158.735	800.000	0.100	-0.372
-157.720	160.693	0.104	0.143
-156.706	-118.614	0.236	-0.041
-155.691	-24.905	-0.255	-0.149
-154.677	331.298	-0.054	0.103
-153.662	419.138	-0.006	0.013
-152.647	611.353	-0.048	-0.118
-151.633	166.755	-0.004	0.005
-150.618	-80.961	-0.175	0.057
-149.604	10.322	0.050	0.037
-148.589	571.382	0.027	-0.064
-147.574	-150.094	0.373	0.029
-146.560	575.750	-0.048	0.115
-145.545	-200.000	0.022	0.117
-144.531	-200.000	0.040	-0.338
-143.516	6.845	-0.097	-0.071
-142.502	-200.000	0.078	0.344
-141.487	397.118	-0.051	0.106
-140.472	133.057	-0.230	-0.292
-139.458	-19.088	0.162	0.099
-138.443	-54.072	0.173	0.077
-137.429	192.255	-0.332	-0.493
-136.414	0.120	0.181	-0.127
-135.399	-118.841	-0.171	0.030
-134.385	-200.000	-0.015	-0.181
-133.370	-200.000	0.055	-0.364
-132.356	334.353	-0.036	0.069
-131.341	199.172	-0.074	-0.111
-130.326	656.389	-0.036	-0.090
-129.312	800.000	-0.094	0.275
-128.297	-40.454	0.103	-0.053
-127.283	-200.000	0.024	0.394
-126.268	197.885	0.086	-0.129
-125.253	-200.000	-0.009	0.312
-124.239	-170.612	-0.060	-0.002
-123.224	332.186	0.241	-0.457
-122.210	-92.981	0.045	0.012
-121.195	-71.723	-0.090	-0.033
