DTS Sentinel unit serial number:	SN413079Multiplexer serial number:	ORYXHardware model number:	OX4-SRSoftware version number:	ORYX F/W v4.00 Oryx Data Collector v3.7.2.0data status	okinstallation	princeton_trtdifferential loss correction	single-endedforward channel	channel 1reverse channel	N/Adate	2019/09/11time	05:12:11forward acquisition time	60.00reverse acquisition time	0.00gamma	496.2192k internal	0.2330k external	0.2330temperature offset calibration	0.9929default loss term (dB/km)	0.3790temperature slope calibration	1.0000multiplexer offset coefficient	1.0000multiplexer slope coefficient	1.0000fibre end	0.00T internal ref (°C)	29.44T ext. ref 1 (°C)	-0.26T ext. ref 2 (°C)	23.45length (m)	temperature (°C)	Stokes	anti-Stokes-747.200	575.804	0.042	-0.104
-746.185	-200.000	0.018	0.339
-745.171	800.000	0.028	-0.091
-744.156	-200.000	0.010	0.172
-743.142	-138.921	0.177	-0.019
-742.127	30.665	-0.080	-0.069
-741.112	110.302	0.095	0.115
-740.098	-28.193	-0.370	0.215
-739.083	12.981	0.240	-0.187
-738.069	99.455	-0.163	0.190
-737.054	-99.683	0.155	0.039
-736.039	-92.989	-0.166	0.046
-735.025	-5.964	-0.034	-0.024
-734.010	49.730	-0.360	-0.342
-732.996	308.078	-0.152	-0.285
-731.981	-36.859	0.255	-0.138
-730.966	-27.141	0.107	-0.063
-729.952	-111.219	0.163	-0.034
-728.937	-90.250	-0.035	-0.010
-727.923	-200.000	-0.031	0.263
-726.908	420.049	0.141	-0.303
-725.894	-126.568	-0.162	0.024
-724.879	-113.074	-0.206	0.041
-723.864	34.165	-0.091	-0.080
-722.850	43.663	-0.213	-0.196
-721.835	-11.816	-0.090	-0.059
-720.821	-155.314	-0.333	-0.022
-719.806	117.854	0.084	-0.104
-718.791	-39.703	0.370	0.194
-717.777	367.787	0.125	0.255
-716.762	689.401	-0.017	-0.045
-715.748	99.539	0.131	0.152
-714.733	-112.875	-0.139	-0.028
-713.718	-29.769	0.299	0.172
-712.704	672.456	0.091	-0.236
-711.689	-92.819	-0.188	-0.053
-710.675	41.635	0.192	0.175
-709.660	57.323	0.126	-0.123
-708.645	419.646	0.069	0.148
-707.631	25.158	-0.213	0.178
-706.616	172.662	0.067	-0.096
-705.602	-200.000	0.004	0.122
-704.587	43.777	-0.170	-0.156
-703.572	641.454	0.059	-0.151
-702.558	-129.666	0.056	0.008
-701.543	76.669	0.075	0.080
-700.529	800.000	-0.099	0.413
-699.514	-114.351	-0.215	0.042
-698.499	740.864	0.085	-0.231
-697.485	-95.971	0.086	0.023
-696.470	42.731	0.071	0.065
-695.456	-200.000	0.013	0.153
-694.441	-5.182	-0.205	-0.142
-693.426	18.942	0.223	-0.180
-692.412	-107.640	0.372	-0.082
-691.397	-200.000	-0.023	0.155
-690.383	-158.590	-0.143	-0.008
-689.368	-200.000	-0.006	0.225
-688.354	98.617	-0.227	-0.263
-687.339	51.586	0.058	0.055
-686.324	110.272	0.012	0.014
-685.310	208.919	-0.154	-0.242
-684.295	-66.790	0.247	0.098
-683.281	-157.846	-0.364	0.022
-682.266	-184.924	-0.199	0.003
-681.251	-129.540	-0.091	0.013
-680.237	800.000	0.068	-0.236
-679.222	60.830	-0.125	-0.124
-678.208	-87.139	0.147	-0.045
-677.193	-200.000	-0.018	0.218
-676.178	-0.212	-0.372	-0.266
-675.164	-200.000	0.001	-0.070
-674.149	63.154	-0.192	-0.193
-673.135	788.132	0.157	-0.433
-672.120	162.987	0.092	-0.130
-671.105	-49.406	-0.152	-0.073
-670.091	-76.072	-0.139	0.049
-669.076	446.167	0.054	-0.120
-668.062	-200.000	-0.038	-0.217
-667.047	800.000	0.073	0.238
-666.032	-69.016	0.316	-0.122
-665.018	508.223	0.049	0.115
-664.003	-124.739	-0.210	0.033
-662.989	-12.297	0.226	0.149
-661.974	764.320	0.014	0.039
-660.959	-45.387	0.143	0.071
-659.945	484.731	-0.025	-0.058
-658.930	-102.693	0.197	-0.047
-657.916	116.859	-0.233	0.286
-656.901	71.054	-0.308	0.320
-655.886	304.128	-0.118	-0.219
-654.872	42.901	0.147	-0.134
-653.857	247.546	0.075	0.128
-652.843	800.000	0.030	0.099
-651.828	800.000	-0.095	-0.346
-650.814	22.741	-0.386	0.317
-649.799	-190.377	-0.288	0.003
-648.784	-200.000	-0.037	-0.350
-647.770	-63.579	0.290	-0.120
-646.755	-156.129	0.187	-0.012
-645.741	-200.000	-0.014	0.098
-644.726	163.777	-0.093	-0.132
-643.711	-150.515	0.337	0.026
-642.697	-129.918	0.427	-0.059
-641.682	55.136	0.275	-0.266
-640.668	38.510	-0.051	0.045
-639.653	-138.598	0.047	-0.005
-638.638	-94.731	0.287	-0.078
-637.624	-67.830	-0.233	0.091
-636.609	609.202	0.087	-0.217
-635.595	-64.636	0.335	-0.136
-634.580	-200.000	0.060	-0.310
-633.565	800.000	0.083	0.294
-632.551	800.000	-0.062	-0.186
-631.536	-55.787	0.435	-0.195
-630.522	-107.673	-0.264	-0.058
-629.507	-117.827	0.087	0.016
-628.492	-144.061	0.254	-0.024
-627.478	2.523	-0.200	-0.145
-626.463	-94.067	-0.265	0.073
-625.449	176.971	-0.166	0.241
-624.434	-200.000	0.038	-0.174
-623.419	-33.692	0.222	0.122
-622.405	41.803	0.237	0.215
-621.390	31.729	0.175	0.151
-620.376	-200.000	0.047	0.231
-619.361	35.899	0.392	0.346
-618.346	61.846	-0.109	-0.109
-617.332	63.591	-0.045	-0.045
-616.317	134.657	0.020	0.025
-615.303	-68.623	0.369	0.143
-614.288	-200.000	-0.010	-0.120
-613.273	153.929	0.132	-0.181
-612.259	466.302	0.071	-0.160
-611.244	60.514	0.131	-0.130
-610.230	-127.634	0.017	-0.003
-609.215	-96.848	-0.134	0.035
-608.201	198.635	0.041	-0.062
-607.186	-112.974	0.158	-0.031
-606.171	145.480	-0.207	-0.277
-605.157	-52.241	0.078	-0.036
-604.142	-96.131	0.258	0.069
-603.128	-66.538	-0.280	-0.111
-602.113	431.850	-0.091	0.198
-601.098	128.944	0.145	0.185
-600.084	-34.455	0.223	-0.122
-599.069	-34.470	-0.109	-0.060
-598.055	60.774	-0.187	-0.185
-597.040	5.720	-0.023	0.017
-596.025	6.598	0.073	0.055
-595.011	-140.633	-0.085	-0.009
-593.996	-62.168	-0.085	0.035
-592.982	10.567	-0.092	0.071
-591.967	-200.000	-0.010	-0.064
-590.952	133.061	-0.111	-0.144
-589.938	-87.464	-0.454	-0.137
-588.923	-200.000	0.006	0.126
-587.909	-120.723	-0.494	0.084
-586.894	-45.826	-0.109	-0.054
-585.879	800.000	0.077	0.333
-584.865	-200.000	-0.051	-0.246
-583.850	-180.810	0.110	0.002
-582.836	800.000	-0.095	0.277
-581.821	-200.000	0.038	0.272
-580.806	-85.866	0.272	0.084
-579.792	-126.283	-0.206	-0.031
-578.777	800.000	-0.129	0.443
-577.763	800.000	-0.083	0.251
-576.748	-79.549	-0.092	-0.031
-575.733	242.599	-0.117	0.197
-574.719	253.229	0.106	0.181
-573.704	391.925	-0.204	0.424
-572.690	324.288	0.160	0.306
-571.675	-12.552	-0.208	-0.136
-570.661	-93.485	0.434	-0.120
-569.646	-200.000	-0.039	-0.260
-568.631	24.195	-0.060	0.050
-567.617	-199.576	0.118	0.001
-566.602	-76.177	-0.258	-0.091
-565.588	110.514	0.080	0.096
-564.573	107.557	-0.118	0.141
-563.558	311.506	-0.086	0.161
-562.544	-200.000	0.077	0.353
-561.529	-53.633	0.256	-0.117
-560.515	800.000	0.072	0.220
-559.500	-24.131	0.144	-0.086
-558.485	-99.683	0.403	0.101
-557.471	-100.390	0.053	0.013
-556.456	-120.895	0.385	0.065
-555.442	-200.000	0.011	-0.432
-554.427	-95.337	-0.245	-0.066
-553.412	-168.885	-0.234	0.009
-552.398	-43.472	-0.214	0.108
-551.383	800.000	-0.019	-0.073
-550.369	284.379	-0.175	0.314
-549.354	-146.986	-0.168	-0.014
-548.339	623.187	-0.082	-0.206
-547.325	257.820	0.072	-0.124
-546.310	111.097	-0.178	-0.214
-545.296	256.670	-0.117	-0.200
-544.281	-150.895	0.054	-0.004
-543.266	67.813	0.235	0.240
-542.252	-123.812	-0.010	-0.002
-541.237	-61.618	0.061	0.026
-540.223	-20.764	-0.146	-0.090
-539.208	-200.000	-0.096	0.000
-538.193	54.621	-0.181	-0.174
-537.179	-140.004	0.085	0.009
-536.164	-118.003	-0.098	-0.017
-535.150	800.000	-0.045	-0.162
-534.135	800.000	-0.077	0.285
-533.121	-130.496	-0.123	0.017
-532.106	275.470	-0.166	-0.294
-531.091	-9.390	-0.144	-0.096
-530.077	58.484	0.290	0.284
-529.062	-90.434	-0.189	-0.055
-528.048	800.000	0.050	0.174
-527.033	11.381	0.106	-0.081
-526.018	800.000	0.071	0.228
-525.004	-104.082	-0.143	0.033
-523.989	-165.485	-0.343	-0.015
-522.975	92.368	0.137	0.154
-521.960	24.356	-0.093	0.077
-520.945	-15.373	0.216	-0.138
-519.931	-94.693	-0.360	-0.098
-518.916	-55.519	0.116	0.052
-517.902	146.547	-0.028	-0.038
-516.887	128.530	-0.226	-0.287
-515.872	-79.232	0.210	-0.071
-514.858	-111.622	-0.236	-0.048
-513.843	-20.604	-0.194	-0.119
-512.829	-116.602	0.027	-0.005
-511.814	105.668	-0.246	0.290
-510.799	-45.419	0.075	0.037
-509.785	198.999	-0.083	0.127
-508.770	15.653	-0.134	-0.105
-507.756	-200.000	-0.014	-0.104
-506.741	-200.000	0.001	0.094
-505.726	-177.131	-0.371	0.009
-504.712	62.094	-0.152	-0.151
-503.697	-13.999	-0.049	0.031
-502.683	160.618	0.040	-0.055
-501.668	-152.772	0.100	-0.007
-500.653	800.000	-0.108	-0.324
-499.639	-89.902	-0.102	-0.030
-498.624	800.000	-0.014	-0.043
-497.610	28.954	0.251	-0.212
-496.595	-17.056	0.290	-0.183
-495.581	-82.413	-0.221	-0.071
-494.566	-58.626	-0.358	0.155
-493.551	470.022	0.056	0.126
-492.537	-95.658	-0.193	0.051
-491.522	98.253	-0.065	0.075
-490.508	-69.556	-0.145	0.055
-489.493	-111.355	0.209	-0.043
-488.478	591.163	-0.127	0.311
-487.464	-59.714	-0.160	0.068
-486.449	198.170	-0.167	-0.254
-485.435	10.589	-0.217	-0.165
-484.420	23.834	-0.114	-0.094
-483.405	-74.440	0.086	-0.031
-482.391	-200.000	0.038	0.213
-481.376	149.531	0.197	-0.266
-480.362	-84.745	-0.217	0.068
-479.347	115.845	-0.112	-0.137
-478.332	-63.237	-0.263	-0.108
-477.318	-100.759	0.138	-0.034
-476.303	-11.118	-0.272	-0.179
-475.289	186.095	0.030	0.044
-474.274	-26.275	-0.270	-0.158
-473.259	-20.427	0.135	-0.083
-472.245	-73.161	-0.270	-0.099
-471.230	233.020	0.194	-0.318
-470.216	-100.473	0.067	0.016
-469.201	-200.000	-0.016	-0.241
-468.186	-88.294	0.218	-0.065
-467.172	-142.935	-0.166	0.016
-466.157	-165.978	0.167	-0.007
-465.143	39.764	0.041	0.037
-464.128	-137.141	0.010	-0.001
-463.113	-3.021	0.179	0.125
-462.099	-200.000	0.042	0.366
-461.084	77.110	-0.255	-0.270
-460.070	-60.258	0.167	0.071
-459.055	172.203	-0.206	0.294
-458.040	217.854	0.062	-0.098
-457.026	-169.517	-0.379	-0.014
-456.011	-79.812	0.201	0.067
-454.997	220.400	0.087	-0.139
-453.982	325.041	0.122	0.233
-452.968	-57.545	-0.134	0.059
-451.953	48.920	0.137	-0.128
-450.938	185.967	-0.248	0.367
-449.924	-163.594	0.239	-0.011
-448.909	-9.910	0.140	0.093
-447.895	-200.000	0.024	0.146
-446.880	-200.000	-0.007	0.123
-445.865	-53.083	-0.209	0.096
-444.851	171.882	-0.242	0.346
-443.836	671.422	0.077	-0.198
-442.822	-3.515	0.286	-0.198
-441.807	3.498	-0.020	-0.015
-440.792	76.822	0.147	0.155
-439.778	-200.000	0.052	0.422
-438.763	429.552	-0.114	0.245
-437.749	349.145	0.124	-0.243
-436.734	-128.503	0.300	0.042
-435.719	800.000	0.109	-0.422
-434.705	-140.186	0.250	-0.026
-433.690	483.007	0.040	0.091
-432.676	-52.183	0.254	-0.117
-431.661	-200.000	0.024	-0.277
-430.646	176.715	0.100	0.144
-429.632	71.702	-0.096	0.099
-428.617	-200.000	0.013	-0.258
-427.603	-200.000	-0.007	-0.160
-426.588	-145.503	-0.489	0.044
-425.573	62.417	-0.112	0.111
-424.559	800.000	-0.034	0.124
-423.544	800.000	-0.076	0.209
-422.530	-54.292	-0.250	-0.113
-421.515	-128.646	0.492	-0.069
-420.500	-26.265	0.199	0.116
-419.486	-110.031	0.430	0.089
-418.471	-88.506	-0.371	-0.110
-417.457	800.000	0.039	-0.139
-416.442	114.286	0.080	-0.097
-415.428	-91.531	0.109	-0.031
-414.413	-152.840	0.108	0.008
-413.398	112.752	0.169	0.204
-412.384	270.193	-0.104	-0.182
-411.369	-143.447	0.253	0.024
-410.355	498.931	0.096	-0.219
-409.340	-200.000	0.046	-0.462
-408.325	-55.605	0.030	-0.013
-407.311	-1.021	0.297	-0.208
-406.296	-200.000	-0.044	-0.305
-405.282	-33.571	-0.303	0.166
-404.267	145.490	-0.087	-0.115
-403.252	-11.074	-0.125	0.082
-402.238	-80.891	0.190	-0.063
-401.223	454.609	0.146	-0.321
-400.209	-200.000	-0.069	-0.337
-399.194	800.000	-0.105	-0.289
-398.179	-141.731	-0.151	-0.015
-397.165	334.198	-0.041	0.080
-396.150	-114.945	0.293	0.055
-395.136	82.793	-0.149	-0.160
-394.121	-200.000	0.053	-0.328
-393.106	-56.805	-0.109	0.048
-392.092	-169.333	-0.176	0.006
-391.077	-49.305	0.294	-0.139
-390.063	-34.886	-0.209	-0.113
-389.048	-55.123	0.146	-0.065
-388.033	-79.232	0.212	-0.071
-387.019	-118.405	0.219	-0.039
-386.004	-130.669	-0.281	0.038
-384.990	9.578	-0.170	0.127
-383.975	75.553	-0.113	-0.119
-382.960	34.674	-0.086	0.074
-381.946	-200.000	0.044	-0.246
-380.931	17.097	-0.398	-0.313
-379.917	-200.000	0.057	0.257
-378.902	439.018	0.063	-0.137
-377.888	18.163	-0.242	-0.191
-376.873	-97.167	0.187	0.049
-375.858	-50.598	-0.111	0.052
-374.844	-200.000	-0.022	-0.337
-373.829	41.203	-0.182	0.164
-372.815	0.140	-0.178	0.126
-371.800	-85.514	0.238	0.074
-370.785	-36.239	-0.125	-0.067
-369.771	800.000	-0.059	-0.235
-368.756	65.383	-0.189	0.190
-367.742	-72.223	-0.508	0.187
-366.727	-200.000	0.019	0.170
-365.712	-54.790	-0.120	-0.054
-364.698	-0.151	-0.036	0.025
-363.683	-54.229	-0.224	-0.101
-362.669	-3.095	0.120	-0.083
-361.654	-7.686	-0.297	0.199
-360.639	-200.000	-0.043	0.289
-359.625	-100.950	0.200	0.049
-358.610	-77.747	-0.357	0.122
-357.596	-75.525	0.251	0.089
-356.581	800.000	-0.011	-0.045
-355.566	-37.991	-0.299	-0.157
-354.552	44.284	-0.250	-0.227
-353.537	-47.441	0.458	-0.221
-352.523	-200.000	0.006	0.228
-351.508	-200.000	-0.003	-0.056
-350.493	-200.000	-0.059	0.310
-349.479	0.358	0.179	-0.127
-348.464	174.396	0.298	0.428
-347.450	-33.213	0.134	0.073
-346.435	621.259	0.118	0.294
-345.420	-200.000	-0.002	0.018
-344.406	237.064	0.192	-0.315
-343.391	138.812	0.073	0.095
-342.377	-3.642	0.152	0.105
-341.362	-200.000	-0.009	-0.081
-340.348	230.410	-0.204	-0.331
-339.333	800.000	0.081	-0.266
-338.318	-200.000	-0.009	-0.234
-337.304	191.608	0.054	0.081
-336.289	154.022	0.086	-0.117
-335.275	61.928	0.149	0.147
-334.260	-54.769	-0.295	0.132
-333.245	-34.430	-0.190	-0.103
-332.231	-200.000	0.035	0.228
-331.216	-54.078	0.210	-0.094
-330.202	-53.515	0.260	-0.118
-329.187	52.046	-0.164	-0.155
-328.172	-200.000	-0.033	-0.259
-327.158	342.898	0.020	-0.039
-326.143	-40.996	0.272	0.139
-325.129	-79.005	-0.129	-0.044
-324.114	428.571	0.043	-0.093
-323.099	107.091	-0.127	-0.149
-322.085	-142.323	-0.366	-0.036
-321.070	111.164	-0.301	-0.359
-320.056	-51.762	-0.236	0.109
-319.041	-135.266	0.282	-0.033
-318.026	800.000	0.104	-0.339
-317.012	-48.699	-0.041	-0.020
-315.997	135.751	-0.046	0.059
-314.983	23.809	-0.187	0.152
-313.968	800.000	-0.074	-0.226
-312.953	134.723	-0.199	0.255
-311.939	463.858	-0.093	0.206
-310.924	-200.000	0.003	-0.315
-309.910	-200.000	-0.037	0.164
-308.895	-5.722	0.236	0.160
-307.880	-200.000	-0.031	0.140
-306.866	92.880	-0.140	0.157
-305.851	-200.000	0.312	-0.000
-304.837	504.485	-0.036	-0.083
-303.822	-158.005	-0.063	-0.004
-302.807	800.000	-0.061	-0.258
-301.793	-200.000	0.039	0.337
-300.778	32.473	0.166	0.142
-299.764	800.000	0.058	-0.163
-298.749	800.000	0.080	0.267
-297.735	59.953	0.238	0.233
-296.720	166.928	0.186	-0.261
-295.705	-200.000	0.030	-0.173
-294.691	800.000	0.026	0.094
-293.676	338.442	-0.099	-0.191
-292.662	222.828	-0.061	0.096
-291.647	74.860	0.149	0.155
-290.632	-121.622	0.139	0.023
-289.618	-200.000	-0.040	0.183
-288.603	800.000	-0.068	-0.188
-287.589	52.761	-0.069	0.065
-286.574	-200.000	-0.009	0.140
-285.559	-200.000	-0.008	-0.067
-284.545	-200.000	0.010	-0.290
-283.530	-95.318	-0.149	-0.040
-282.516	82.741	0.170	0.183
-281.501	-122.202	0.164	-0.027
-280.486	-64.118	-0.207	-0.084
-279.472	-114.334	-0.347	0.066
-278.457	-64.910	0.353	-0.141
-277.443	26.314	-0.150	0.124
-276.428	-21.322	-0.028	-0.017
-275.413	392.497	-0.079	0.162
-274.399	-162.671	-0.027	-0.001
-273.384	307.187	-0.125	-0.229
-272.370	53.286	0.347	0.328
-271.355	672.062	0.066	0.170
-270.340	-20.440	-0.102	-0.062
-269.326	-44.767	0.051	-0.025
-268.311	-81.159	-0.387	-0.127
-267.297	-200.000	0.051	-0.228
-266.282	48.037	-0.179	-0.166
-265.267	-102.649	-0.112	0.026
-264.253	130.004	0.120	0.151
-263.238	97.426	0.079	-0.089
-262.224	667.158	0.165	-0.421
-261.209	-66.542	0.095	-0.037
-260.195	85.013	-0.099	0.107
-259.180	142.329	0.107	0.140
-258.165	-80.211	0.131	0.043
-257.151	800.000	0.092	-0.321
-256.136	57.656	0.182	-0.176
-255.122	121.839	-0.117	0.145
-254.107	6.494	0.107	0.079
-253.092	0.353	0.291	0.205
-252.078	-26.249	-0.329	0.191
-251.063	-108.951	0.052	0.011
-250.049	-197.016	0.285	0.002
-249.034	525.747	0.134	0.312
-248.019	-47.514	-0.105	-0.050
-247.005	64.903	-0.211	-0.210
-245.990	-22.942	0.072	-0.043
-244.976	236.077	-0.294	0.480
-243.961	78.625	-0.130	-0.138
-242.946	327.332	-0.314	0.595
-241.932	166.653	0.125	0.175
-240.917	-72.343	0.431	0.157
-239.903	18.765	-0.129	-0.102
-238.888	-140.240	0.241	0.025
-237.873	-200.000	-0.015	0.124
-236.859	-161.139	0.118	0.006
-235.844	-200.000	-0.000	-0.379
-234.830	-8.116	0.171	0.114
-233.815	-108.558	0.193	-0.041
-232.800	594.404	-0.105	-0.256
-231.786	-72.843	0.281	0.102
-230.771	-200.000	0.011	-0.084
-229.757	800.000	0.033	-0.131
-228.742	100.407	0.189	-0.217
-227.727	14.416	-0.165	-0.127
-226.713	450.475	-0.095	0.206
-225.698	-200.000	-0.054	0.278
-224.684	147.497	-0.168	-0.223
-223.669	-83.757	0.338	-0.107
-222.655	800.000	-0.062	0.189
-221.640	159.614	0.153	0.210
-220.625	264.219	-0.265	0.454
-219.611	-119.060	0.139	-0.024
-218.596	-161.269	0.342	0.018
-217.582	-114.477	-0.092	0.017
-216.567	800.000	0.051	-0.150
-215.552	187.567	0.082	0.121
-214.538	-9.631	-0.087	0.057
-213.523	-200.000	-0.027	-0.169
-212.509	800.000	-0.026	0.095
-211.494	54.855	0.253	-0.240
-210.479	-200.000	-0.032	0.420
-209.465	444.395	0.046	-0.100
-208.450	-200.000	0.000	-0.042
-207.436	-43.754	0.337	-0.167
-206.421	-200.000	-0.005	-0.138
-205.406	537.084	-0.044	-0.102
-204.392	0.345	0.181	-0.127
-203.377	-59.917	0.154	0.065
-202.363	-183.500	0.079	0.001
-201.348	40.865	0.187	0.167
-200.333	800.000	-0.068	0.205
-199.319	-16.613	0.182	-0.114
-198.304	-200.000	-0.010	-0.106
-197.290	800.000	-0.025	0.100
-196.275	-45.801	0.340	0.165
-195.260	-58.753	0.253	0.108
-194.246	-2.639	-0.110	-0.076
-193.231	-92.064	0.193	-0.054
-192.217	231.919	-0.151	0.244
-191.202	-43.309	-0.249	0.124
-190.187	312.077	0.214	-0.396
-189.173	-200.000	-0.020	-0.166
-188.158	-200.000	-0.014	0.141
-187.144	410.302	-0.217	0.454
-186.129	800.000	0.093	0.310
-185.114	-153.458	0.066	0.004
-184.100	-92.272	0.052	0.014
-183.085	163.701	0.040	-0.055
-182.071	158.552	0.065	-0.089
-181.056	377.070	-0.123	-0.247
-180.042	800.000	-0.031	0.112
-179.027	18.711	-0.269	0.212
-178.012	-80.458	-0.258	0.085
-176.998	-200.000	0.003	0.127
-175.983	-38.092	-0.164	0.086
-174.969	5.175	-0.157	0.114
-173.954	27.123	-0.218	0.180
-172.939	-200.000	0.024	0.118
-171.925	52.637	0.104	-0.098
-170.910	83.522	0.052	-0.056
-169.896	800.000	-0.076	0.242
-168.881	800.000	-0.070	0.216
-167.866	116.297	-0.169	0.204
-166.852	198.816	-0.108	-0.163
-165.837	107.913	0.193	0.226
-164.823	562.957	-0.097	0.230
-163.808	-84.225	-0.068	-0.021
-162.793	24.400	-0.164	0.133
-161.779	-200.000	-0.058	-0.531
-160.764	-75.899	0.275	0.096
-159.750	-74.125	0.290	0.103
-158.735	520.505	-0.128	0.294
-157.720	-73.383	0.342	0.123
-156.706	-200.000	0.011	0.102
-155.691	79.935	0.304	-0.321
-154.677	-200.000	-0.026	-0.316
-153.662	-41.360	0.204	0.104
-152.647	-56.884	-0.759	0.330
-151.633	-32.293	-0.196	0.107
-150.618	163.610	-0.044	0.061
-149.604	291.647	0.296	0.531
-148.589	-200.000	0.006	0.040
-147.574	-44.907	-0.151	0.074
-146.560	174.589	0.045	0.065
-145.545	-200.000	0.023	0.175
-144.531	800.000	0.045	-0.170
-143.516	-127.752	0.554	-0.079
-142.502	6.743	0.387	-0.283
-141.487	800.000	-0.094	0.259
-140.472	-198.260	0.045	-0.000
-139.458	800.000	-0.126	0.351
-138.443	11.768	0.198	0.149
-137.429	-48.095	-0.094	-0.045
-136.414	60.713	-0.300	0.293
-135.399	-200.000	0.002	0.023
-134.385	70.671	0.127	-0.130
-133.370	147.629	-0.218	0.289
-132.356	76.027	-0.088	-0.092
-131.341	248.213	-0.057	0.096
-130.326	-51.977	0.236	0.108
-129.312	-90.233	0.147	-0.042
-128.297	-71.199	0.495	-0.182
-127.283	62.938	0.043	-0.042
-126.268	320.959	-0.220	0.410
-125.253	-200.000	0.016	-0.101
-124.239	800.000	0.096	-0.288
-123.224	268.556	-0.013	0.022
-122.210	800.000	-0.059	0.196
-121.195	-200.000	0.077	0.370
-120.180	-200.000	0.000	0.278
