DTS Sentinel unit serial number:	SN413079Multiplexer serial number:	ORYXHardware model number:	OX4-SRSoftware version number:	ORYX F/W v4.00 Oryx Data Collector v3.7.2.0data status	okinstallation	princeton_trtdifferential loss correction	single-endedforward channel	channel 1reverse channel	N/Adate	2019/09/18time	13:34:35forward acquisition time	60.00reverse acquisition time	0.00gamma	496.2192k internal	0.2312k external	0.2312temperature offset calibration	0.9986default loss term (dB/km)	0.3790temperature slope calibration	1.0000multiplexer offset coefficient	1.0000multiplexer slope coefficient	1.0000fibre end	0.00T internal ref (°C)	34.31T ext. ref 1 (°C)	0.62T ext. ref 2 (°C)	30.45length (m)	temperature (°C)	Stokes	anti-Stokes-747.200	59.768	0.125	0.125
-746.185	-181.890	0.039	-0.001
-745.171	-24.998	0.267	0.160
-744.156	-200.000	0.047	0.266
-743.142	-200.000	-0.072	-0.499
-742.127	-84.012	-0.237	-0.076
-741.112	-65.188	0.083	-0.034
-740.098	-31.437	-0.307	0.175
-739.083	12.562	-0.112	0.088
-738.069	369.014	-0.137	0.282
-737.054	-200.000	-0.002	-0.240
-736.039	-74.439	-0.117	-0.043
-735.025	227.776	0.138	0.228
-734.010	30.105	-0.047	0.040
-732.996	-200.000	-0.029	-0.360
-731.981	-200.000	0.026	-0.260
-730.966	-17.485	0.153	0.098
-729.952	-20.158	-0.088	0.055
-728.937	28.866	0.103	0.089
-727.923	102.039	-0.128	0.152
-726.908	800.000	0.047	-0.174
-725.894	334.977	-0.098	-0.192
-724.879	-105.341	-0.103	-0.024
-723.864	146.475	-0.081	-0.111
-722.850	-200.000	0.013	0.135
-721.835	-200.000	0.006	0.128
-720.821	-82.024	0.239	0.079
-719.806	143.921	0.155	0.209
-718.791	274.592	0.063	-0.113
-717.777	-109.009	-0.167	0.036
-716.762	76.486	0.250	-0.269
-715.748	10.147	-0.128	-0.099
-714.733	313.015	0.193	-0.367
-713.718	800.000	-0.066	-0.271
-712.704	205.718	0.103	-0.162
-711.689	36.392	-0.120	-0.107
-710.675	-200.000	-0.010	-0.254
-709.660	176.464	-0.058	-0.086
-708.645	397.989	0.070	0.148
-707.631	153.413	0.043	0.060
-706.616	-119.196	0.224	-0.040
-705.602	-120.093	-0.051	0.009
-704.587	-48.816	0.160	-0.078
-703.572	-151.646	0.063	0.005
-702.558	79.392	-0.247	-0.269
-701.543	-45.148	0.254	0.128
-700.529	13.023	-0.121	0.095
-699.514	-200.000	-0.014	-0.318
-698.499	5.383	-0.218	-0.163
-697.485	-98.720	-0.145	0.037
-696.470	698.343	-0.009	-0.023
-695.456	800.000	0.066	-0.203
-694.441	-45.683	-0.206	0.103
-693.426	-200.000	-0.014	-0.155
-692.412	119.918	-0.138	0.173
-691.397	194.531	-0.026	-0.040
-690.383	220.374	-0.091	-0.148
-689.368	-200.000	0.060	-0.278
-688.354	-120.079	0.172	0.030
-687.339	-200.000	0.002	-0.204
-686.324	222.524	0.209	-0.340
-685.310	-200.000	0.007	0.108
-684.295	-200.000	-0.076	-0.449
-683.281	-61.612	-0.070	0.030
-682.266	-150.155	-0.173	-0.014
-681.251	-50.716	0.184	-0.088
-680.237	-200.000	0.005	0.116
-679.222	181.491	0.009	0.014
-678.208	146.535	-0.010	-0.014
-677.193	-143.027	-0.294	0.029
-676.178	-68.604	0.074	-0.029
-675.164	-26.114	0.453	-0.269
-674.149	-113.318	-0.183	-0.036
-673.135	360.864	0.035	0.072
-672.120	23.011	0.212	0.176
-671.105	-200.000	-0.004	0.084
-670.091	-200.000	0.042	-0.247
-669.076	-26.057	-0.155	0.092
-668.062	-171.483	-0.091	0.003
-667.047	-141.599	0.365	0.037
-666.032	272.538	-0.071	-0.127
-665.018	-146.843	0.271	0.024
-664.003	76.995	-0.299	-0.322
-662.989	-52.688	0.076	0.035
-661.974	-24.066	0.214	0.129
-660.959	-168.257	-0.038	0.001
-659.945	471.520	-0.075	0.172
-658.930	29.394	0.256	0.220
-657.916	533.248	0.138	-0.331
-656.901	-7.078	0.058	-0.040
-655.886	55.948	0.207	0.203
-654.872	-200.000	-0.049	0.469
-653.857	-200.000	0.028	0.583
-652.843	271.546	0.243	0.434
-651.828	-132.991	0.405	-0.052
-650.814	184.673	0.048	-0.072
-649.799	-144.531	-0.125	0.012
-648.784	0.733	0.022	0.016
-647.770	-200.000	0.015	0.147
-646.755	60.418	0.106	-0.106
-645.741	800.000	-0.049	-0.140
-644.726	-127.824	0.125	0.018
-643.711	-5.394	0.185	0.128
-642.697	-83.267	0.307	-0.099
-641.682	90.507	0.217	0.246
-640.668	158.125	-0.096	0.135
-639.653	-200.000	0.014	-0.195
-638.638	-9.126	0.154	-0.104
-637.624	-65.175	-0.077	-0.031
-636.609	-84.218	-0.168	0.054
-635.595	117.374	0.035	-0.044
-634.580	69.020	-0.284	-0.294
-633.565	-139.277	-0.159	0.017
-632.551	-200.000	0.013	-0.179
-631.536	800.000	0.034	0.106
-630.522	-101.369	-0.129	-0.032
-629.507	-200.000	0.034	0.268
-628.492	255.021	-0.104	0.180
-627.478	398.439	0.137	0.290
-626.463	-131.559	-0.251	-0.033
-625.449	-48.077	0.100	0.049
-624.434	182.812	0.031	-0.046
-623.419	-45.942	-0.401	-0.200
-622.405	-138.219	-0.301	0.034
-621.390	19.597	-0.093	-0.075
-620.376	110.381	0.245	0.297
-619.361	313.443	0.117	0.222
-618.346	-116.394	-0.102	0.019
-617.332	-107.560	-0.121	-0.027
-616.317	-200.000	-0.088	0.438
-615.303	255.279	0.117	0.202
-614.288	147.643	-0.263	0.358
-613.273	21.618	0.159	-0.131
-612.259	-101.130	0.144	0.035
-611.244	-146.359	0.179	0.016
-610.230	-56.372	-0.116	-0.052
-609.215	-168.234	0.287	-0.011
-608.201	-200.000	0.004	-0.028
-607.186	723.954	-0.095	0.255
-606.171	-129.121	-0.193	-0.027
-605.157	588.777	-0.037	-0.093
-604.142	58.698	-0.174	0.172
-603.128	-200.000	0.006	0.111
-602.113	87.763	-0.142	0.159
-601.098	214.053	0.096	0.153
-600.084	88.351	0.210	-0.235
-599.069	-51.586	0.112	-0.053
-598.055	-200.000	-0.027	-0.220
-597.040	-57.762	0.095	0.042
-596.025	-3.748	-0.151	-0.106
-595.011	43.056	-0.112	0.103
-593.996	237.515	0.110	0.183
-592.982	-51.702	0.147	0.069
-591.967	-68.405	0.306	0.120
-590.952	-115.849	0.121	-0.023
-589.938	800.000	0.058	-0.165
-588.923	-111.639	0.187	-0.038
-587.909	8.665	-0.034	0.026
-586.894	-86.645	0.111	-0.034
-585.879	-5.251	-0.088	0.061
-584.865	61.203	-0.070	0.070
-583.850	-55.069	-0.213	-0.097
-582.836	-42.031	-0.172	0.089
-581.821	456.568	0.191	0.428
-580.806	180.815	-0.151	-0.223
-579.792	142.183	-0.153	0.205
-578.777	-124.438	-0.380	-0.060
-577.763	-173.858	-0.200	-0.006
-576.748	47.938	-0.128	-0.121
-575.733	800.000	0.123	-0.387
-574.719	-115.864	-0.331	-0.062
-573.704	353.180	0.182	-0.365
-572.690	-200.000	0.007	-0.187
-571.675	-25.904	-0.237	-0.140
-570.661	800.000	0.047	-0.195
-569.646	183.324	0.194	-0.289
-568.631	800.000	-0.054	-0.211
-567.617	134.555	-0.100	-0.131
-566.602	38.769	0.229	-0.206
-565.588	-200.000	-0.008	0.186
-564.573	535.984	0.071	0.171
-563.558	105.666	0.084	0.100
-562.544	331.463	-0.088	-0.172
-561.529	683.812	-0.155	-0.407
-560.515	-8.293	-0.115	0.078
-559.500	800.000	-0.017	-0.059
-558.485	800.000	-0.088	-0.251
-557.471	338.992	-0.081	0.158
-556.456	-137.549	0.348	-0.040
-555.442	-200.000	-0.048	0.335
-554.427	-150.390	0.246	-0.019
-553.412	-98.244	0.107	-0.028
-552.398	222.488	0.122	-0.198
-551.383	-52.364	0.528	-0.246
-550.369	-91.506	-0.085	0.024
-549.354	800.000	-0.029	0.095
-548.339	-200.000	-0.009	0.101
-547.325	-9.535	0.079	-0.053
-546.310	-200.000	0.419	0.001
-545.296	90.059	-0.204	0.229
-544.281	179.206	-0.088	-0.130
-543.266	-65.164	0.203	-0.082
-542.252	138.714	0.081	0.107
-541.237	94.809	0.240	0.274
-540.223	-46.450	-0.200	-0.099
-539.208	434.308	0.042	0.093
-538.193	-26.940	0.229	0.135
-537.179	-200.000	0.046	-0.302
-536.164	-200.000	-0.069	-0.338
-535.150	-67.039	0.298	-0.118
-534.135	-91.515	-0.133	0.038
-533.121	37.353	0.100	-0.089
-532.106	-198.677	0.118	-0.001
-531.091	41.354	-0.177	0.161
-530.077	153.846	0.269	-0.371
-529.062	7.126	0.093	0.070
-528.048	43.086	0.128	0.117
-527.033	800.000	0.021	0.065
-526.018	-156.743	0.207	-0.013
-525.004	177.267	0.045	0.066
-523.989	-0.634	0.095	0.068
-522.975	176.295	0.039	0.057
-521.960	31.021	-0.082	0.071
-520.945	-56.486	-0.163	-0.073
-519.931	83.528	-0.305	0.334
-518.916	-14.574	0.141	-0.091
-517.902	51.316	-0.040	-0.039
-516.887	-60.212	-0.193	-0.083
-515.872	-113.541	0.286	0.056
-514.858	437.967	-0.050	0.110
-513.843	115.299	-0.103	-0.127
-512.829	166.399	-0.110	0.157
-511.814	-200.000	0.013	0.146
-510.799	-47.614	-0.307	0.150
-509.785	322.847	-0.122	-0.233
-508.770	-39.985	-0.249	-0.131
-507.756	-112.559	-0.399	0.080
-506.741	407.348	0.244	0.519
-505.726	-59.962	0.254	-0.109
-504.712	54.929	0.195	0.190
-503.697	-31.020	0.550	0.312
-502.683	206.342	-0.109	0.171
-501.668	7.650	0.071	-0.054
-500.653	-131.984	0.180	-0.024
-499.639	389.433	0.144	-0.301
-498.624	800.000	-0.076	-0.306
-497.610	-88.973	0.378	-0.112
-496.595	-200.000	0.066	0.302
-495.581	-68.199	-0.361	0.141
-494.566	800.000	-0.060	0.233
-493.551	-55.510	-0.168	0.076
-492.537	-200.000	0.004	-0.083
-491.522	78.852	0.149	-0.160
-490.508	14.460	-0.090	-0.071
-489.493	-200.000	-0.014	0.116
-488.478	-200.000	-0.003	0.189
-487.464	87.214	-0.198	-0.220
-486.449	-93.305	0.140	-0.039
-485.435	170.592	-0.122	-0.176
-484.420	-1.489	0.069	0.049
-483.405	-200.000	0.028	0.199
-482.391	800.000	-0.064	0.273
-481.376	293.795	-0.191	0.351
-480.362	92.702	0.077	-0.087
-479.347	-200.000	-0.004	-0.097
-478.332	561.939	0.076	-0.186
-477.318	309.395	0.128	0.240
-476.303	-100.998	-0.242	-0.060
-475.289	-103.762	0.246	-0.058
-474.274	-200.000	0.007	-0.169
-473.259	25.252	-0.216	0.180
-472.245	265.803	-0.040	0.070
-471.230	-122.576	0.362	-0.059
-470.216	491.134	0.054	-0.124
-469.201	-68.220	0.116	-0.045
-468.186	-81.123	-0.223	0.074
-467.172	-57.833	-0.473	0.208
-466.157	204.534	0.065	-0.101
-465.143	-51.822	-0.350	-0.164
-464.128	-30.700	-0.246	-0.140
-463.113	800.000	0.029	0.102
-462.099	86.794	-0.056	-0.062
-461.084	628.127	-0.076	0.193
-460.070	24.590	0.231	-0.192
-459.055	274.244	0.117	0.208
-458.040	112.580	0.189	-0.230
-457.026	338.200	0.106	-0.206
-456.011	-6.328	-0.219	-0.150
-454.997	314.509	0.190	0.360
-453.982	179.717	0.252	-0.371
-452.968	88.035	0.138	-0.153
-451.953	471.399	0.052	-0.117
-450.938	-56.614	0.192	0.085
-449.924	-136.312	-0.245	0.029
-448.909	800.000	-0.045	-0.183
-447.895	28.417	-0.041	0.035
-446.880	-42.614	-0.107	0.055
-445.865	-200.000	-0.027	-0.205
-444.851	-200.000	-0.004	-0.256
-443.836	-65.757	0.194	0.078
-442.822	-153.205	0.297	-0.021
-441.807	239.243	-0.122	0.203
-440.792	-77.116	0.123	0.043
-439.778	61.396	-0.245	0.244
-438.763	73.463	-0.299	-0.314
-437.749	-200.000	0.064	-0.364
-436.734	216.152	-0.060	-0.096
-435.719	-112.818	0.401	-0.080
-434.705	22.085	-0.194	0.159
-433.690	248.205	-0.031	-0.052
-432.676	137.762	0.143	-0.188
-431.661	454.502	-0.159	-0.352
-430.646	-84.076	0.387	0.123
-429.632	-200.000	0.027	0.300
-428.617	-200.000	0.025	0.241
-427.603	800.000	-0.057	0.197
-426.588	6.906	0.187	0.139
-425.573	-34.517	-0.081	0.045
-424.559	800.000	-0.036	0.132
-423.544	204.066	0.235	-0.365
-422.530	41.927	-0.079	-0.071
-421.515	384.088	0.170	-0.352
-420.500	170.766	0.228	0.328
-419.486	-45.556	-0.189	-0.094
-418.471	-200.000	-0.005	-0.204
-417.457	40.256	0.213	-0.192
-416.442	-143.351	-0.200	0.019
-415.428	-159.382	0.268	-0.015
-414.413	-200.000	-0.044	0.292
-413.398	107.230	-0.224	0.267
-412.384	641.835	-0.041	-0.104
-411.369	72.740	-0.314	0.328
-410.355	-148.345	0.091	-0.007
-409.340	121.748	-0.056	0.070
-408.325	423.980	-0.179	-0.386
-407.311	800.000	0.043	-0.156
-406.296	-200.000	0.068	0.382
-405.282	465.724	0.039	0.087
-404.267	494.221	-0.096	-0.221
-403.252	361.305	-0.187	0.376
-402.238	-164.143	0.204	0.009
-401.223	-47.266	0.167	0.081
-400.209	151.061	-0.282	0.384
-399.194	312.590	-0.128	0.241
-398.179	353.660	0.046	-0.092
-397.165	-109.428	-0.138	-0.029
-396.150	119.068	-0.065	-0.081
-395.136	380.909	-0.212	-0.436
-394.121	800.000	-0.074	-0.304
-393.106	339.910	-0.060	0.118
-392.092	43.364	0.193	0.177
-391.077	-200.000	0.065	0.483
-390.063	17.612	0.107	-0.085
-389.048	-200.000	0.032	0.237
-388.033	194.717	-0.069	-0.104
-387.019	71.112	-0.075	-0.078
-386.004	-102.732	-0.153	-0.036
-384.990	308.003	0.166	0.310
-383.975	-26.372	-0.140	0.082
-382.960	338.074	-0.146	0.283
-381.946	-200.000	0.001	0.312
-380.931	-55.711	0.221	-0.099
-379.917	-184.351	0.421	0.007
-378.902	163.008	0.081	0.114
-377.888	358.252	0.048	0.096
-376.873	-20.114	-0.262	-0.162
-375.858	-74.410	0.112	0.040
-374.844	-200.000	-0.016	0.158
-373.829	238.424	0.014	0.023
-372.815	-125.957	0.191	-0.029
-371.800	378.960	-0.132	0.271
-370.785	-34.405	-0.061	0.033
-369.771	361.663	-0.119	-0.239
-368.756	-200.000	-0.034	-0.190
-367.742	298.838	0.223	-0.411
-366.727	-94.339	-0.153	0.042
-365.712	-32.609	0.098	0.055
-364.698	251.793	0.070	0.119
-363.683	-164.655	-0.439	0.020
-362.669	-200.000	0.002	0.021
-361.654	-82.322	-0.353	0.115
-360.639	-14.370	-0.139	0.090
-359.625	-32.358	0.149	0.083
-358.610	-29.795	0.251	0.143
-357.596	-62.395	0.085	-0.035
-356.581	800.000	-0.042	-0.139
-355.566	138.686	-0.157	-0.206
-354.552	-59.879	-0.281	0.120
-353.537	221.647	-0.129	-0.208
-352.523	-200.000	-0.048	0.311
-351.508	31.395	-0.163	-0.140
-350.493	272.251	-0.086	0.152
-349.479	-200.000	0.029	0.350
-348.464	152.825	0.114	-0.156
-347.450	195.862	0.131	0.199
-346.435	-31.329	-0.053	0.030
-345.420	-169.770	0.196	-0.007
-344.406	8.079	-0.115	0.086
-343.391	-153.681	-0.107	-0.007
-342.377	186.383	-0.074	-0.110
-341.362	64.664	-0.015	-0.015
-340.348	28.691	0.042	0.036
-339.333	195.898	0.102	-0.155
-338.318	95.618	0.223	-0.254
-337.304	672.829	0.066	-0.172
-336.289	-173.272	0.127	-0.004
-335.275	-71.578	0.117	-0.044
-334.260	558.171	0.058	0.140
-333.245	-38.857	-0.114	0.060
-332.231	598.925	0.058	-0.144
-331.216	-94.720	-0.055	0.015
-330.202	-154.866	-0.167	-0.011
-329.187	-70.266	0.246	0.093
-328.172	-79.378	0.054	0.018
-327.158	102.434	-0.138	0.161
-326.143	-200.000	0.019	-0.165
-325.129	-200.000	-0.039	0.236
-324.114	153.431	-0.067	0.091
-323.099	-200.000	-0.065	0.444
-322.085	-135.111	-0.262	0.031
-321.070	70.588	-0.072	-0.075
-320.056	-52.483	-0.334	0.154
-319.041	-200.000	-0.000	0.073
-318.026	-25.085	-0.151	-0.089
-317.012	-35.578	-0.126	-0.068
-315.997	98.247	-0.159	-0.183
-314.983	-13.492	-0.398	0.258
-313.968	-200.000	-0.321	-0.001
-312.953	518.804	0.144	0.335
-311.939	320.502	0.089	-0.170
-310.924	-73.121	0.373	0.136
-309.910	-84.898	-0.157	-0.049
-308.895	428.422	0.109	-0.234
-307.880	372.692	-0.218	-0.442
-306.866	-54.478	-0.195	0.088
-305.851	86.168	0.002	0.002
-304.837	135.917	0.113	0.147
-303.822	-121.852	-0.111	0.018
-302.807	-1.279	0.246	-0.173
-301.793	130.986	0.058	-0.074
-300.778	91.572	-0.049	-0.055
-299.764	89.047	-0.252	0.279
-298.749	800.000	0.036	-0.099
-297.735	-43.930	-0.348	0.175
-296.720	-93.643	-0.126	-0.035
-295.705	372.821	0.037	-0.076
-294.691	-7.607	-0.180	0.121
-293.676	-92.573	0.234	0.065
-292.662	79.723	0.290	0.310
-291.647	-150.541	-0.309	0.024
-290.632	-150.698	-0.277	-0.021
-289.618	27.231	0.395	-0.331
-288.603	-35.154	-0.153	-0.083
-287.589	800.000	-0.099	0.281
-286.574	-82.509	-0.066	-0.021
-285.559	-116.338	0.235	-0.043
-284.545	-43.329	-0.190	-0.096
-283.530	-69.220	0.157	-0.060
-282.516	-7.901	-0.026	0.017
-281.501	99.979	0.102	0.118
-280.486	-200.000	-0.089	-0.410
-279.472	552.311	0.062	-0.149
-278.457	25.175	-0.142	-0.118
-277.443	-68.172	0.195	0.076
-276.428	-83.223	-0.087	0.028
-275.413	-132.728	0.141	0.018
-274.399	-92.735	-0.256	-0.071
-273.384	-44.161	0.225	-0.113
-272.370	783.362	0.067	-0.182
-271.355	-140.411	0.167	0.017
-270.340	-37.539	-0.341	0.181
-269.326	-101.786	0.115	-0.028
-268.311	192.935	0.067	-0.100
-267.297	-5.018	0.143	-0.098
-266.282	-200.000	0.055	-0.498
-265.267	-0.072	0.097	0.069
-264.253	-178.469	0.189	-0.004
-263.238	151.786	0.149	0.203
-262.224	42.693	0.112	0.102
-261.209	441.119	0.082	-0.179
-260.195	-200.000	0.013	0.221
-259.180	3.798	-0.225	0.163
-258.165	-50.066	-0.272	-0.128
-257.151	-200.000	-0.021	0.146
-256.136	-10.886	-0.098	0.064
-255.122	-120.532	0.435	-0.074
-254.107	-200.000	-0.016	-0.148
-253.092	67.114	-0.109	0.111
-252.078	-72.008	-0.351	0.130
-251.063	143.697	-0.127	-0.169
-250.049	19.722	-0.246	-0.197
-249.034	100.052	0.134	0.155
-248.019	-200.000	0.076	-0.444
-247.005	44.288	0.150	0.137
-245.990	214.303	-0.176	0.278
-244.976	-200.000	0.062	0.276
-243.961	16.099	0.354	0.278
-242.946	326.191	0.043	0.082
-241.932	-200.000	-0.009	-0.118
-240.917	-200.000	0.005	0.032
-239.903	800.000	0.165	0.515
-238.888	-200.000	0.026	-0.222
-237.873	-200.000	-0.020	-0.092
-236.859	156.378	-0.164	-0.225
-235.844	-10.710	-0.084	0.055
-234.830	-21.134	0.143	0.087
-233.815	-55.058	0.222	0.100
-232.800	-88.350	0.430	-0.128
-231.786	243.039	0.065	0.109
-230.771	-15.702	-0.151	0.096
-229.757	-12.860	-0.083	0.054
-228.742	104.408	0.086	-0.100
-227.727	62.691	0.197	0.196
-226.713	-200.000	0.042	-0.492
-225.698	14.544	0.082	-0.064
-224.684	-15.117	-0.348	0.221
-223.669	133.272	0.221	0.283
-222.655	120.647	0.067	-0.083
-221.640	-22.305	-0.157	-0.095
-220.625	-135.590	-0.074	-0.009
-219.611	667.753	-0.028	-0.071
-218.596	-138.509	0.325	0.035
-217.582	-200.000	-0.033	0.215
-216.567	20.851	-0.109	-0.088
-215.552	-200.000	-0.040	-0.235
-214.538	209.858	0.093	0.145
-213.523	-200.000	-0.065	0.377
-212.509	35.307	-0.348	0.303
-211.494	-112.417	-0.252	-0.050
-210.479	555.821	0.125	0.298
-209.465	588.863	-0.099	-0.242
-208.450	-108.930	-0.195	0.041
-207.436	-200.000	-0.029	-0.248
-206.421	-82.416	-0.173	-0.056
-205.406	-63.674	-0.229	-0.093
-204.392	505.140	-0.064	-0.148
-203.377	12.499	-0.204	-0.156
-202.363	51.678	-0.381	-0.360
-201.348	60.118	-0.092	0.091
-200.333	144.454	-0.110	-0.147
-199.319	108.368	-0.107	-0.127
-198.304	-200.000	0.014	0.275
-197.290	18.690	0.160	-0.127
-196.275	176.020	0.199	-0.288
-195.260	-147.052	-0.598	-0.051
-194.246	-40.621	0.253	0.130
-193.231	606.014	-0.089	0.220
-192.217	-76.818	0.338	-0.118
-191.202	454.418	-0.062	0.136
-190.187	288.965	0.114	-0.206
-189.173	-16.632	-0.098	-0.061
-188.158	-82.329	0.400	0.129
-187.144	240.336	-0.061	-0.100
-186.129	327.129	-0.109	-0.208
-185.114	-200.000	0.002	-0.239
-184.100	-74.979	0.077	-0.027
-183.085	-109.405	-0.253	-0.053
-182.071	-64.066	0.183	-0.074
-181.056	188.933	-0.023	0.033
-180.042	-200.000	-0.046	-0.384
-179.027	-123.124	0.272	-0.043
-178.012	-68.235	-0.164	0.063
-176.998	-23.314	0.196	-0.117
-175.983	800.000	-0.048	-0.155
-174.969	-68.000	0.110	0.043
-173.954	-200.000	0.035	-0.183
-172.939	-200.000	-0.005	0.160
-171.925	-21.392	-0.088	0.053
-170.910	222.329	0.078	-0.124
-169.896	4.456	0.224	0.163
-168.881	5.023	0.189	0.138
-167.866	-92.017	0.100	0.028
-166.852	-71.359	0.138	-0.051
-165.837	668.246	0.082	-0.211
-164.823	95.054	0.160	-0.181
-163.808	6.015	-0.202	0.148
-162.793	-49.650	0.027	0.013
-161.779	-26.168	-0.202	-0.118
-160.764	-200.000	0.013	-0.094
-159.750	749.693	0.098	-0.263
-158.735	663.839	-0.160	-0.409
-157.720	-200.000	-0.013	0.381
-156.706	-77.038	0.091	0.032
-155.691	794.027	-0.061	-0.165
-154.677	-65.492	0.251	-0.100
-153.662	-90.223	0.231	0.066
-152.647	-200.000	0.027	-0.274
-151.633	10.572	0.128	0.097
-150.618	-147.310	0.428	0.036
-149.604	216.263	-0.085	0.134
-148.589	211.005	-0.196	-0.306
-147.574	-200.000	-0.010	0.238
-146.560	69.863	-0.153	0.156
-145.545	544.445	0.027	0.065
-144.531	-200.000	0.028	-0.196
-143.516	800.000	-0.043	-0.156
-142.502	101.444	-0.129	-0.149
-141.487	561.821	-0.031	-0.074
-140.472	-27.244	-0.023	-0.013
-139.458	37.017	0.039	-0.034
-138.443	199.025	0.201	0.305
-137.429	800.000	0.107	-0.444
-136.414	-200.000	-0.031	0.229
-135.399	-158.042	-0.280	0.016
-134.385	-73.488	0.193	0.070
-133.370	-43.459	0.197	0.099
-132.356	-162.552	0.409	-0.020
-131.341	800.000	0.025	0.099
-130.326	-137.176	0.226	-0.025
-129.312	-102.171	0.212	0.051
-128.297	-22.774	0.215	0.128
-127.283	17.408	0.099	-0.078
-126.268	-38.783	-0.101	0.053
-125.253	-10.439	-0.187	-0.123
-124.239	800.000	-0.054	-0.169
-123.224	38.716	-0.208	-0.184
-122.210	800.000	-0.081	-0.222
-121.195	0.008	0.069	-0.049
