DTS Sentinel unit serial number:	SN413079Multiplexer serial number:	ORYXHardware model number:	OX4-SRSoftware version number:	ORYX F/W v4.00 Oryx Data Collector v3.7.2.0data status	okinstallation	princeton_trtdifferential loss correction	single-endedforward channel	channel 1reverse channel	N/Adate	2019/09/12time	22:42:35forward acquisition time	60.00reverse acquisition time	0.00gamma	496.2192k internal	0.2326k external	0.2326temperature offset calibration	1.0151default loss term (dB/km)	0.3790temperature slope calibration	1.0000multiplexer offset coefficient	1.0000multiplexer slope coefficient	1.0000fibre end	0.00T internal ref (°C)	29.52T ext. ref 1 (°C)	3.76T ext. ref 2 (°C)	24.16length (m)	temperature (°C)	Stokes	anti-Stokes-747.200	-200.000	-0.006	-0.215
-746.185	-71.118	0.109	-0.041
-745.171	-200.000	0.010	-0.226
-744.156	-71.369	-0.003	0.001
-743.142	144.984	0.153	-0.206
-742.127	-86.258	-0.112	0.035
-741.112	6.615	0.310	0.232
-740.098	-26.561	-0.154	-0.091
-739.083	172.208	0.043	-0.062
-738.069	253.814	-0.067	0.115
-737.054	-200.000	-0.009	0.051
-736.039	-101.974	-0.110	0.027
-735.025	-83.688	0.325	0.105
-734.010	-4.467	0.123	-0.086
-732.996	-33.167	-0.352	-0.196
-731.981	34.884	-0.312	0.276
-730.966	-41.214	-0.129	-0.067
-729.952	256.186	-0.098	-0.170
-728.937	-200.000	-0.039	-0.194
-727.923	-200.000	0.040	-0.243
-726.908	90.680	-0.238	-0.269
-725.894	312.749	0.064	0.122
-724.879	341.266	-0.070	-0.138
-723.864	-200.000	-0.035	0.291
-722.850	-82.378	0.130	0.043
-721.835	-70.744	-0.262	-0.100
-720.821	779.397	-0.042	0.116
-719.806	-99.724	-0.136	0.034
-718.791	14.224	-0.255	0.200
-717.777	7.797	0.212	0.160
-716.762	-200.000	0.014	0.155
-715.748	-137.994	-0.226	0.025
-714.733	-200.000	-0.016	0.211
-713.718	-200.000	0.003	-0.471
-712.704	-200.000	-0.001	-0.163
-711.689	-197.908	0.005	0.000
-710.675	182.640	-0.065	-0.097
-709.660	-76.824	-0.263	0.093
-708.645	-67.595	0.320	0.126
-707.631	-71.593	0.165	0.062
-706.616	-9.314	0.060	0.041
-705.602	2.967	0.086	0.063
-704.587	-110.649	-0.208	-0.043
-703.572	-177.851	0.208	0.005
-702.558	-32.042	-0.140	-0.079
-701.543	-87.450	-0.233	-0.071
-700.529	-68.196	-0.103	-0.040
-699.514	73.471	0.097	-0.102
-698.499	259.139	0.105	-0.183
-697.485	59.136	0.222	-0.220
-696.470	800.000	0.102	-0.365
-695.456	108.717	0.154	0.186
-694.441	-173.592	0.268	-0.008
-693.426	18.774	0.184	-0.148
-692.412	-116.345	0.197	-0.037
-691.397	-107.837	-0.206	-0.045
-690.383	-200.000	0.030	-0.199
-689.368	800.000	-0.069	-0.245
-688.354	800.000	-0.027	0.113
-687.339	800.000	0.029	-0.085
-686.324	388.358	0.158	-0.330
-685.310	-200.000	0.108	-0.490
-684.295	-52.898	0.061	-0.028
-683.281	-139.982	0.233	0.025
-682.266	70.091	0.127	0.132
-681.251	143.180	0.060	0.080
-680.237	-200.000	-0.029	-0.392
-679.222	175.198	-0.164	0.239
-678.208	-190.403	-0.425	0.005
-677.193	-200.000	-0.048	-0.288
-676.178	-132.248	-0.338	-0.044
-675.164	42.933	-0.268	0.246
-674.149	557.521	0.049	-0.119
-673.135	-200.000	-0.024	0.154
-672.120	-47.147	0.089	0.044
-671.105	-135.151	-0.170	0.021
-670.091	-101.895	-0.234	0.057
-669.076	-200.000	-0.080	0.365
-668.062	-58.268	0.179	0.078
-667.047	-68.705	0.070	-0.027
-666.032	-92.445	0.141	-0.040
-665.018	-171.979	-0.190	0.006
-664.003	-200.000	-0.489	0.001
-662.989	123.268	0.053	0.067
-661.974	-30.828	-0.314	-0.178
-660.959	-70.492	-0.270	-0.103
-659.945	-94.256	-0.047	-0.013
-658.930	-63.281	0.036	0.015
-657.916	310.527	0.097	-0.183
-656.901	-200.000	0.011	-0.109
-655.886	3.348	0.191	0.140
-654.872	800.000	-0.024	0.099
-653.857	-101.916	-0.093	0.022
-652.843	-66.874	-0.286	-0.113
-651.828	-155.637	-0.068	0.004
-650.814	35.823	-0.253	0.223
-649.799	-200.000	-0.008	-0.188
-648.784	88.185	-0.098	-0.110
-647.770	0.643	-0.166	0.120
-646.755	-200.000	-0.002	0.134
-645.741	44.998	-0.157	0.146
-644.726	-19.018	0.072	-0.045
-643.711	-65.520	0.179	-0.072
-642.697	605.015	-0.039	0.098
-641.682	-20.348	-0.314	0.194
-640.668	-43.022	0.459	-0.234
-639.653	49.179	0.166	-0.157
-638.638	-200.000	-0.023	0.259
-637.624	-126.557	0.257	0.038
-636.609	332.698	-0.010	0.020
-635.595	-152.185	-0.164	-0.012
-634.580	-123.971	-0.050	0.008
-633.565	-17.215	0.093	0.059
-632.551	158.449	0.014	-0.020
-631.536	-19.381	-0.044	0.027
-630.522	-200.000	0.039	-0.227
-629.507	492.904	-0.064	0.147
-628.492	68.531	-0.150	0.155
-627.478	-200.000	-0.007	0.101
-626.463	271.436	0.078	0.139
-625.449	800.000	0.054	-0.201
-624.434	160.948	-0.174	-0.243
-623.419	-136.206	-0.036	-0.004
-622.405	-99.521	-0.392	0.099
-621.390	285.943	-0.030	0.055
-620.376	-73.206	-0.285	0.105
-619.361	63.726	-0.055	-0.056
-618.346	-200.000	0.006	-0.087
-617.332	-200.000	0.029	-0.306
-616.317	317.677	0.025	0.048
-615.303	-106.243	-0.189	0.043
-614.288	-200.000	-0.001	-0.129
-613.273	140.930	0.118	-0.157
-612.259	-27.391	0.047	-0.028
-611.244	800.000	0.034	0.143
-610.230	80.842	-0.117	0.127
-609.215	-70.456	0.257	-0.098
-608.201	-78.761	-0.175	-0.060
-607.186	-200.000	-0.037	-0.307
-606.171	1.737	0.106	0.077
-605.157	386.322	-0.066	-0.136
-604.142	44.512	0.069	0.063
-603.128	-17.759	0.169	0.107
-602.113	158.304	0.205	-0.285
-601.098	800.000	-0.121	0.483
-600.084	-142.673	-0.038	0.004
-599.069	-111.989	-0.145	0.029
-598.055	90.985	-0.236	-0.266
-597.040	182.919	0.093	-0.138
-596.025	151.028	0.089	-0.121
-595.011	135.376	0.041	0.054
-593.996	403.905	0.184	-0.388
-592.982	-156.070	0.322	0.020
-591.967	161.515	-0.026	-0.037
-590.952	486.235	-0.057	-0.130
-589.938	-90.112	-0.288	0.084
-588.923	-64.203	-0.207	0.085
-587.909	-68.776	0.262	-0.102
-586.894	-1.922	0.280	-0.197
-585.879	-152.554	-0.110	-0.008
-584.865	-51.965	0.136	0.063
-583.850	-53.827	-0.265	0.121
-582.836	-200.000	-0.197	-0.001
-581.821	6.822	0.194	-0.145
-580.806	-118.193	0.237	-0.042
-579.792	-54.739	-0.239	-0.108
-578.777	258.096	-0.078	-0.134
-577.763	121.572	0.207	-0.258
-576.748	-200.000	-0.027	0.189
-575.733	-149.463	-0.288	-0.023
-574.719	-200.000	-0.038	-0.385
-573.704	59.843	0.106	-0.105
-572.690	137.863	0.191	-0.251
-571.675	33.815	-0.200	0.175
-570.661	356.961	-0.085	0.170
-569.646	85.864	0.030	0.033
-568.631	-64.098	0.092	0.038
-567.617	800.000	-0.203	-0.587
-566.602	-178.261	0.098	-0.002
-565.588	-112.655	-0.300	0.060
-564.573	494.726	-0.021	-0.048
-563.558	-200.000	-0.009	-0.042
-562.544	-139.236	-0.148	0.016
-561.529	-200.000	0.025	-0.142
-560.515	-6.910	-0.220	0.150
-559.500	217.150	-0.091	-0.145
-558.485	72.842	-0.205	0.215
-557.471	270.818	-0.124	0.218
-556.456	-164.831	-0.216	0.010
-555.442	-63.858	0.052	-0.021
-554.427	-18.541	-0.169	0.105
-553.412	800.000	-0.045	0.176
-552.398	37.023	0.228	-0.202
-551.383	-9.964	-0.163	0.108
-550.369	-75.670	-0.223	0.079
-549.354	-83.277	-0.154	-0.050
-548.339	-7.650	0.075	-0.051
-547.325	-119.388	0.341	-0.059
-546.310	-134.895	-0.038	-0.005
-545.296	-200.000	0.032	-0.151
-544.281	-114.451	-0.152	0.029
-543.266	-200.000	-0.003	0.358
-542.252	73.711	0.257	0.270
-541.237	-168.447	-0.111	0.004
-540.223	137.952	-0.099	-0.130
-539.208	-65.625	-0.245	0.098
-538.193	1.074	-0.419	-0.300
-537.179	-200.000	0.028	-0.266
-536.164	642.494	0.086	-0.220
-535.150	323.736	0.078	0.150
-534.135	160.642	-0.103	-0.144
-533.121	394.649	0.087	0.182
-532.106	-120.429	-0.102	-0.017
-531.091	-84.785	-0.167	0.053
-530.077	94.056	0.192	-0.218
-529.062	394.619	0.101	-0.210
-528.048	-200.000	0.006	-0.048
-527.033	-106.535	-0.460	-0.102
-526.018	25.300	-0.144	-0.120
-525.004	41.393	-0.150	0.135
-523.989	-82.141	-0.217	-0.071
-522.975	-48.997	-0.145	0.069
-521.960	-200.000	-0.296	0.000
-520.945	58.895	0.206	-0.203
-519.931	-148.400	-0.455	0.037
-518.916	-101.557	0.079	0.019
-517.902	800.000	0.041	0.164
-516.887	64.676	-0.114	-0.115
-515.872	44.308	0.196	0.180
-514.858	-123.410	0.177	-0.028
-513.843	428.587	-0.174	0.375
-512.829	-18.005	-0.133	-0.083
-511.814	25.304	0.012	-0.010
-510.799	378.298	-0.078	-0.160
-509.785	-124.725	0.301	0.047
-508.770	-200.000	0.025	0.196
-507.756	-200.000	0.017	-0.458
-506.741	89.556	-0.177	-0.197
-505.726	-97.758	0.209	0.054
-504.712	64.921	-0.225	-0.227
-503.697	53.037	0.105	0.100
-502.683	25.395	-0.287	-0.238
-501.668	74.683	-0.046	0.048
-500.653	-21.960	-0.025	0.015
-499.639	-200.000	0.035	-0.159
-498.624	82.870	-0.079	0.086
-497.610	-6.404	-0.095	-0.064
-496.595	146.987	0.011	0.015
-495.581	-135.555	-0.148	0.018
-494.566	221.330	0.106	-0.170
-493.551	-38.325	-0.233	-0.123
-492.537	193.897	-0.149	-0.225
-491.522	-200.000	0.001	-0.106
-490.508	-143.325	-0.052	0.005
-489.493	17.976	0.244	0.194
-488.478	580.859	0.035	-0.085
-487.464	153.161	-0.207	-0.283
-486.449	-99.766	-0.228	0.057
-485.435	-83.612	-0.154	0.049
-484.420	-200.000	0.017	0.091
-483.405	800.000	-0.080	-0.254
-482.391	631.415	-0.016	0.040
-481.376	800.000	-0.077	0.289
-480.362	-30.810	0.095	-0.054
-479.347	-119.806	0.196	0.034
-478.332	-200.000	-0.017	0.320
-477.318	-151.282	-0.172	-0.013
-476.303	107.376	-0.177	-0.210
-475.289	-91.863	0.262	0.074
-474.274	-135.375	-0.095	-0.011
-473.259	565.705	-0.138	0.335
-472.245	445.902	-0.076	-0.166
-471.230	-43.559	0.261	0.132
-470.216	-59.000	-0.322	-0.139
-469.201	-102.398	-0.364	0.087
-468.186	-121.110	-0.157	-0.026
-467.172	-85.374	-0.253	0.079
-466.157	800.000	-0.041	0.176
-465.143	365.230	0.062	-0.125
-464.128	-200.000	-0.008	0.113
-463.113	-1.375	0.079	0.055
-462.099	800.000	0.061	-0.249
-461.084	-129.832	0.383	-0.052
-460.070	-140.641	-0.372	0.038
-459.055	-48.952	-0.232	-0.111
-458.040	122.013	0.208	-0.259
-457.026	40.619	-0.151	-0.136
-456.011	33.722	-0.345	-0.300
-454.997	163.846	0.175	0.246
-453.982	800.000	-0.061	0.262
-452.968	-200.000	-0.017	0.196
-451.953	371.020	-0.100	0.202
-450.938	209.533	-0.115	0.180
-449.924	733.189	0.099	-0.265
-448.909	-100.744	0.220	0.054
-447.895	-186.187	-0.223	0.003
-446.880	-129.054	0.208	0.029
-445.865	124.023	0.047	-0.059
-444.851	-200.000	-0.016	-0.323
-443.836	665.937	-0.092	0.237
-442.822	23.330	-0.063	0.052
-441.807	211.667	0.268	0.420
-440.792	227.759	0.088	-0.143
-439.778	-200.000	0.007	-0.177
-438.763	7.792	-0.119	0.089
-437.749	45.145	0.107	-0.098
-436.734	405.105	0.134	0.281
-435.719	393.293	-0.164	-0.340
-434.705	-134.458	0.211	-0.026
-433.690	-116.976	0.435	0.079
-432.676	-102.360	-0.208	-0.050
-431.661	46.644	-0.127	0.117
-430.646	254.539	0.230	-0.392
-429.632	-71.539	-0.189	-0.071
-428.617	282.128	-0.133	0.237
-427.603	-200.000	0.013	-0.252
-426.588	174.953	0.165	-0.238
-425.573	178.663	0.145	-0.211
-424.559	800.000	0.029	0.088
-423.544	38.601	0.345	0.306
-422.530	-65.115	-0.356	-0.143
-421.515	289.965	0.130	-0.236
-420.500	-200.000	0.030	-0.165
-419.486	110.481	0.125	0.150
-418.471	-137.061	0.184	0.021
-417.457	239.084	-0.079	-0.131
-416.442	800.000	-0.012	0.052
-415.428	-8.778	0.261	0.174
-414.413	415.971	0.075	0.160
-413.398	-125.964	0.334	-0.050
-412.384	160.402	0.065	0.090
-411.369	-200.000	0.025	-0.134
-410.355	369.022	0.219	0.442
-409.340	-125.385	-0.232	-0.035
-408.325	639.747	0.110	-0.280
-407.311	679.218	-0.079	-0.204
-406.296	-91.427	0.138	-0.039
-405.282	800.000	0.109	-0.339
-404.267	-17.724	0.174	0.109
-403.252	369.022	0.068	-0.137
-402.238	-125.192	-0.110	0.017
-401.223	23.424	-0.167	-0.137
-400.209	-41.240	-0.111	-0.057
-399.194	-10.887	0.260	-0.171
-398.179	66.834	0.035	0.035
-397.165	-108.094	0.355	-0.076
-396.150	151.240	-0.188	-0.255
-395.136	-200.000	0.023	0.107
-394.121	-194.114	0.189	0.002
-393.106	-12.564	-0.259	0.168
-392.092	582.771	-0.110	-0.269
-391.077	-186.409	-0.200	-0.003
-390.063	115.843	0.216	0.263
-389.048	367.837	0.217	0.436
-388.033	233.532	-0.119	-0.194
-387.019	-15.276	-0.174	0.111
-386.004	31.743	-0.123	-0.105
-384.990	7.408	0.173	0.129
-383.975	-172.000	-0.241	0.008
-382.960	34.971	-0.054	-0.047
-381.946	511.011	-0.148	-0.343
-380.931	81.659	0.157	-0.169
-379.917	162.929	0.107	-0.149
-378.902	-26.335	0.073	-0.043
-377.888	-155.519	-0.182	-0.012
-376.873	232.902	0.144	0.236
-375.858	-10.587	-0.273	-0.180
-374.844	-82.945	0.116	0.037
-373.829	-89.624	0.120	-0.035
-372.815	177.781	-0.133	-0.193
-371.800	-13.265	0.395	0.255
-370.785	-110.132	0.119	0.025
-369.771	38.585	-0.163	-0.145
-368.756	-8.651	0.165	0.110
-367.742	-198.948	-0.093	0.001
-366.727	284.856	0.112	0.201
-365.712	-38.096	-0.474	0.250
-364.698	-200.000	-0.059	0.366
-363.683	800.000	0.104	0.319
-362.669	329.168	0.039	-0.075
-361.654	-200.000	0.020	-0.125
-360.639	-200.000	-0.009	0.139
-359.625	162.758	-0.139	0.194
-358.610	-200.000	0.003	0.250
-357.596	-155.778	0.247	0.016
-356.581	-26.328	0.196	-0.115
-355.566	66.893	-0.104	-0.105
-354.552	-22.401	-0.220	-0.132
-353.537	-1.629	0.129	0.090
-352.523	-98.504	0.247	0.063
-351.508	-143.539	0.183	-0.017
-350.493	14.121	0.269	-0.208
-349.479	800.000	-0.039	-0.127
-348.464	24.081	-0.307	-0.251
-347.450	-200.000	0.007	-0.074
-346.435	569.413	0.022	-0.054
-345.420	47.598	0.217	-0.201
-344.406	-80.560	-0.166	0.055
-343.391	102.279	0.296	-0.344
-342.377	-29.470	0.128	0.073
-341.362	-200.000	0.027	0.147
-340.348	-46.274	0.291	0.142
-339.333	733.219	0.125	0.331
-338.318	-2.735	-0.028	0.019
-337.304	-38.302	0.122	0.064
-336.289	247.300	-0.150	0.251
-335.275	32.515	0.218	0.187
-334.260	60.210	0.143	-0.140
-333.245	-92.300	0.134	0.037
-332.231	31.662	0.072	-0.061
-331.216	-200.000	-0.009	0.108
-330.202	-60.493	0.232	0.098
-329.187	800.000	-0.091	0.258
-328.172	-117.605	-0.301	-0.054
-327.158	-50.049	0.175	-0.082
-326.143	800.000	-0.084	-0.235
-325.129	506.644	-0.088	-0.203
-324.114	258.333	0.116	-0.198
-323.099	-110.165	-0.240	-0.050
-322.085	16.328	-0.187	0.146
-321.070	-118.975	-0.157	0.027
-320.056	-200.000	-0.025	0.292
-319.041	209.341	0.030	0.046
-318.026	-200.000	-0.004	-0.036
-317.012	92.456	0.233	-0.261
-315.997	101.337	-0.333	-0.384
-314.983	-15.080	0.101	-0.064
-313.968	-19.944	0.280	0.171
-312.953	193.690	0.162	-0.243
-311.939	-22.203	-0.104	0.062
-310.924	800.000	0.084	0.275
-309.910	7.004	0.177	0.130
-308.895	78.790	0.294	-0.312
-307.880	-158.790	-0.262	-0.015
-306.866	252.424	-0.169	0.286
-305.851	-200.000	0.002	-0.073
-304.837	800.000	-0.009	-0.026
-303.822	-179.699	0.151	0.003
-302.807	-163.523	0.178	0.008
-301.793	-66.712	0.072	-0.028
-300.778	75.854	-0.363	0.380
-299.764	-200.000	-0.059	0.274
-298.749	-95.978	0.070	-0.018
-297.735	800.000	-0.045	0.168
-296.720	104.902	0.329	0.385
-295.705	-158.288	0.174	0.010
-294.691	161.323	-0.180	0.250
-293.676	14.492	0.185	-0.143
-292.662	-200.000	0.042	0.228
-291.647	-66.966	0.166	-0.065
-290.632	-16.516	0.096	-0.060
-289.618	-200.000	0.020	0.120
-288.603	-72.211	0.331	-0.122
-287.589	-200.000	-0.026	0.238
-286.574	110.686	-0.103	-0.123
-285.559	-159.396	0.314	-0.017
-284.545	-146.164	0.170	-0.015
-283.530	800.000	-0.084	0.276
-282.516	-67.849	0.210	-0.081
-281.501	106.326	-0.261	0.307
-280.486	-69.146	0.103	0.039
-279.472	302.974	0.155	-0.285
-278.457	620.580	-0.071	0.177
-277.443	-97.031	0.057	0.015
-276.428	541.012	-0.125	0.295
-275.413	433.562	0.149	0.321
-274.399	278.752	0.183	0.322
-273.384	-10.919	-0.210	-0.137
-272.370	-40.528	0.344	0.177
-271.355	7.432	-0.096	-0.071
-270.340	800.000	0.082	-0.278
-269.326	-200.000	-0.016	-0.080
-268.311	-5.743	0.229	-0.155
-267.297	102.254	0.249	0.288
-266.282	800.000	-0.051	-0.197
-265.267	-142.207	0.211	-0.021
-264.253	98.995	-0.149	-0.171
-263.238	-200.000	0.030	-0.161
-262.224	-161.476	-0.103	0.005
-261.209	237.554	0.075	0.123
-260.195	-55.332	-0.146	-0.065
-259.180	72.599	0.054	0.056
-258.165	-200.000	-0.008	-0.514
-257.151	23.453	-0.165	0.134
-256.136	95.600	0.088	0.099
-255.122	-120.772	0.092	-0.015
-254.107	681.336	-0.042	0.108
-253.092	-200.000	0.030	0.151
-252.078	-137.461	-0.429	-0.048
-251.063	54.274	-0.088	0.083
-250.049	800.000	0.091	0.266
-249.034	800.000	-0.077	-0.308
-248.019	-200.000	0.165	0.000
-247.005	126.449	0.133	-0.167
-245.990	-61.662	0.405	-0.168
-244.976	-105.363	0.300	-0.068
-243.961	-11.756	-0.286	0.186
-242.946	15.570	-0.204	0.159
-241.932	47.438	0.379	-0.349
-240.917	168.806	0.048	-0.068
-239.903	-200.000	-0.014	0.128
-238.888	-22.857	0.106	-0.063
-237.873	185.998	-0.127	0.186
-236.859	800.000	-0.047	-0.180
-235.844	43.514	-0.082	-0.074
-234.830	-34.379	-0.280	0.152
-233.815	675.243	0.062	0.159
-232.800	-28.289	0.164	-0.094
-231.786	800.000	0.033	-0.110
-230.771	800.000	0.098	-0.404
-229.757	800.000	-0.082	-0.312
-228.742	127.824	-0.131	0.165
-227.727	326.505	0.124	0.235
-226.713	-5.687	-0.146	0.099
-225.698	-200.000	0.000	-0.103
-224.684	-132.638	-0.091	0.012
-223.669	-200.000	-0.005	-0.155
-222.655	-200.000	-0.026	-0.122
-221.640	-188.326	0.174	-0.002
-220.625	-200.000	-0.002	0.111
-219.611	-200.000	-0.019	0.085
-218.596	190.490	-0.049	0.073
-217.582	713.812	-0.100	0.261
-216.567	-113.741	0.274	0.053
-215.552	58.645	0.078	-0.076
-214.538	-127.382	-0.440	-0.063
-213.523	-129.648	0.143	-0.020
-212.509	-200.000	0.006	0.232
-211.494	-126.459	-0.417	0.061
-210.479	-200.000	-0.035	0.253
-209.465	-180.004	-0.266	-0.006
-208.450	-19.237	0.306	-0.187
-207.436	146.238	0.182	0.241
-206.421	1.177	0.271	0.192
-205.406	-200.000	0.004	-0.320
-204.392	317.586	0.082	-0.153
-203.377	2.638	-0.137	0.098
-202.363	63.921	0.144	0.143
-201.348	86.920	-0.144	0.157
-200.333	248.682	-0.078	0.131
-199.319	-33.249	-0.447	0.244
-198.304	-63.994	-0.321	-0.129
-197.290	7.572	-0.145	0.107
-196.275	170.617	0.153	0.216
-195.260	137.236	0.143	0.185
-194.246	-200.000	0.047	0.411
-193.231	800.000	-0.085	0.325
-192.217	-200.000	-0.032	0.268
-191.202	44.626	-0.236	0.214
-190.187	-200.000	-0.036	0.211
-189.173	61.757	-0.301	0.296
-188.158	-28.729	-0.285	-0.162
-187.144	-159.848	-0.191	-0.010
-186.129	169.017	0.122	-0.172
-185.114	9.988	0.102	-0.076
-184.100	-200.000	0.025	0.151
-183.085	754.575	0.114	-0.303
-182.071	-164.574	-0.358	0.016
-181.056	-200.000	-0.020	-0.252
-180.042	-133.651	0.434	-0.053
-179.027	-116.862	-0.122	-0.022
-178.012	-155.450	0.284	-0.018
-176.998	-188.169	-0.042	-0.001
-175.983	367.831	0.189	0.376
-174.969	800.000	0.042	-0.148
-173.954	-121.891	0.139	0.023
-172.939	-200.000	-0.010	0.081
-171.925	-54.117	0.253	0.113
-170.910	543.224	-0.136	-0.320
-169.896	-166.355	0.058	-0.002
-168.881	-106.963	0.163	0.036
-167.866	-95.354	0.027	0.007
-166.852	-119.905	-0.276	0.047
-165.837	59.126	-0.201	0.195
-164.823	-129.128	0.115	0.016
-163.808	30.132	0.133	-0.112
-162.793	46.079	0.150	0.137
-161.779	129.792	-0.225	0.284
-160.764	-33.779	0.142	-0.077
-159.750	-91.769	0.328	-0.092
-158.735	25.598	0.268	-0.220
-157.720	9.090	0.277	0.206
-156.706	70.863	0.122	0.125
-155.691	641.158	0.042	0.105
-154.677	14.010	-0.210	-0.161
-153.662	-40.198	0.105	-0.054
-152.647	287.990	-0.042	-0.074
-151.633	-86.356	0.096	0.029
-150.618	188.754	-0.213	0.314
-149.604	80.220	-0.034	0.036
-148.589	253.835	0.068	0.114
-147.574	-112.531	0.112	0.022
-146.560	357.481	-0.115	0.225
-145.545	46.107	0.061	0.056
-144.531	81.916	0.104	0.111
-143.516	-170.714	-0.104	0.004
-142.502	408.907	-0.079	-0.165
-141.487	-72.698	0.335	0.122
-140.472	-114.939	-0.073	-0.014
-139.458	221.144	-0.057	-0.090
-138.443	-11.659	0.295	0.191
-137.429	143.321	-0.175	0.229
-136.414	645.885	0.046	-0.117
-135.399	263.883	0.051	0.087
-134.385	-160.361	0.136	0.007
-133.370	-15.780	0.117	-0.073
-132.356	261.993	0.005	-0.008
-131.341	-30.312	-0.133	-0.074
-130.326	551.348	0.057	0.135
-129.312	142.115	0.118	-0.154
-128.297	-83.653	0.350	0.110
-127.283	1.136	0.070	-0.050
-126.268	-59.472	0.065	0.028
-125.253	90.155	0.122	0.134
-124.239	-200.000	0.023	0.152
-123.224	105.860	0.099	0.115
-122.210	216.282	-0.062	0.097
-121.195	-200.000	0.002	0.051
-120.180	-200.000	0.022	0.099
