DTS Sentinel unit serial number:	SN413079Multiplexer serial number:	ORYXHardware model number:	OX4-SRSoftware version number:	ORYX F/W v4.00 Oryx Data Collector v3.7.2.0data status	okinstallation	princeton_trtdifferential loss correction	single-endedforward channel	channel 1reverse channel	N/Adate	2019/09/18time	13:26:35forward acquisition time	60.00reverse acquisition time	0.00gamma	496.2192k internal	0.2313k external	0.2313temperature offset calibration	0.9982default loss term (dB/km)	0.3790temperature slope calibration	1.0000multiplexer offset coefficient	1.0000multiplexer slope coefficient	1.0000fibre end	0.00T internal ref (°C)	34.17T ext. ref 1 (°C)	0.61T ext. ref 2 (°C)	29.83length (m)	temperature (°C)	Stokes	anti-Stokes-747.200	-184.833	-0.073	0.001
-746.185	-94.451	0.118	0.032
-745.171	227.650	0.097	-0.160
-744.156	127.374	-0.213	0.274
-743.142	-127.712	0.227	-0.033
-742.127	153.560	-0.155	0.216
-741.112	-68.938	0.207	0.081
-740.098	-200.000	0.011	-0.168
-739.083	-146.794	0.246	0.022
-738.069	359.512	-0.168	0.340
-737.054	-200.000	0.044	-0.207
-736.039	-34.012	-0.470	-0.262
-735.025	-98.840	-0.155	-0.040
-734.010	-88.267	-0.394	-0.119
-732.996	-97.708	-0.292	-0.077
-731.981	274.708	-0.250	-0.449
-730.966	-124.791	0.340	0.053
-729.952	43.044	0.071	0.066
-728.937	-84.874	-0.164	-0.052
-727.923	-189.375	-0.384	0.005
-726.908	-200.000	-0.010	-0.160
-725.894	-200.000	-0.032	-0.407
-724.879	-70.357	-0.238	-0.092
-723.864	-129.602	-0.119	-0.017
-722.850	488.583	-0.041	0.095
-721.835	-200.000	-0.009	0.054
-720.821	678.200	-0.057	-0.150
-719.806	350.738	0.106	-0.212
-718.791	96.231	-0.172	-0.199
-717.777	12.770	-0.158	0.124
-716.762	66.727	-0.121	0.124
-715.748	-82.939	0.180	-0.059
-714.733	148.475	-0.156	-0.214
-713.718	-200.000	-0.002	-0.135
-712.704	-95.042	0.087	0.024
-711.689	153.143	0.030	-0.042
-710.675	-200.000	-0.015	-0.167
-709.660	-200.000	0.019	-0.225
-708.645	-60.339	-0.508	0.219
-707.631	-87.676	0.354	-0.108
-706.616	113.310	-0.044	-0.054
-705.602	373.764	-0.076	-0.156
-704.587	-109.953	0.112	0.024
-703.572	-61.272	0.123	-0.053
-702.558	193.675	-0.145	-0.222
-701.543	800.000	0.027	0.108
-700.529	121.667	0.318	-0.401
-699.514	-57.567	-0.306	-0.136
-698.499	-110.330	-0.264	0.056
-697.485	-68.867	-0.211	-0.082
-696.470	-143.152	0.125	0.012
-695.456	592.404	0.061	-0.151
-694.441	61.553	-0.022	0.022
-693.426	645.731	-0.087	0.224
-692.412	-119.317	-0.314	-0.055
-691.397	137.602	-0.082	-0.109
-690.383	-200.000	-0.086	-0.399
-689.368	83.327	-0.110	0.121
-688.354	-26.754	-0.044	0.026
-687.339	47.296	-0.272	0.257
-686.324	-177.287	0.368	0.009
-685.310	-63.551	0.171	0.071
-684.295	-94.546	-0.277	0.076
-683.281	800.000	-0.077	-0.232
-682.266	-200.000	0.012	-0.209
-681.251	-200.000	0.020	-0.190
-680.237	-76.946	-0.197	0.070
-679.222	106.705	-0.095	0.113
-678.208	-81.006	-0.188	-0.063
-677.193	-10.625	-0.170	-0.114
-676.178	35.049	0.059	-0.052
-675.164	206.831	0.106	-0.167
-674.149	44.755	0.133	0.123
-673.135	-150.431	-0.540	-0.042
-672.120	-38.574	0.225	-0.120
-671.105	-75.734	0.183	-0.066
-670.091	-200.000	-0.019	0.094
-669.076	-71.557	0.140	0.053
-668.062	347.040	0.128	0.254
-667.047	-84.347	-0.366	-0.117
-666.032	-200.000	-0.020	-0.088
-665.018	100.935	-0.066	-0.078
-664.003	-47.359	0.168	0.083
-662.989	61.308	-0.387	-0.389
-661.974	232.304	0.052	0.086
-660.959	186.862	-0.106	0.160
-659.945	-18.308	0.189	0.119
-658.930	800.000	-0.089	-0.251
-657.916	-140.352	0.153	0.016
-656.901	-107.213	-0.205	0.046
-655.886	-25.105	-0.275	-0.165
-654.872	516.491	-0.121	0.286
-653.857	-200.000	-0.023	-0.106
-652.843	132.160	-0.102	-0.132
-651.828	-200.000	0.037	0.168
-650.814	-57.754	-0.142	-0.063
-649.799	-11.773	0.127	-0.084
-648.784	-82.679	0.141	-0.046
-647.770	-200.000	-0.020	-0.115
-646.755	-100.092	0.248	0.063
-645.741	281.253	-0.154	0.278
-644.726	-28.229	-0.162	-0.095
-643.711	-50.097	0.083	-0.040
-642.697	202.187	-0.187	-0.292
-641.682	-31.712	-0.187	0.106
-640.668	-142.753	0.250	0.025
-639.653	149.059	-0.139	-0.190
-638.638	-85.179	-0.264	-0.083
-637.624	434.634	0.102	0.224
-636.609	-200.000	0.005	-0.323
-635.595	-182.468	0.303	0.006
-634.580	-18.714	0.287	-0.181
-633.565	-175.491	0.081	-0.002
-632.551	-200.000	-0.035	-0.311
-631.536	-200.000	-0.002	-0.362
-630.522	-38.088	0.249	-0.133
-629.507	106.873	-0.129	0.155
-628.492	-131.346	0.272	-0.036
-627.478	35.022	-0.108	0.095
-626.463	736.581	0.110	-0.298
-625.449	-60.494	0.174	0.074
-624.434	-44.555	-0.244	0.123
-623.419	176.322	-0.154	0.226
-622.405	748.142	0.065	-0.178
-621.390	-37.618	-0.106	-0.057
-620.376	-200.000	0.011	-0.125
-619.361	-200.000	0.005	-0.142
-618.346	65.623	0.065	-0.066
-617.332	-200.000	-0.003	-0.396
-616.317	17.065	0.077	0.062
-615.303	670.682	0.050	-0.130
-614.288	800.000	-0.070	0.204
-613.273	245.559	-0.022	0.038
-612.259	-200.000	-0.004	-0.130
-611.244	620.123	0.134	-0.341
-610.230	-64.286	-0.255	-0.105
-609.215	447.241	-0.070	-0.155
-608.201	121.783	0.071	-0.089
-607.186	-46.828	-0.282	0.139
-606.171	214.854	-0.131	0.209
-605.157	800.000	0.166	-0.541
-604.142	72.669	0.054	0.057
-603.128	79.542	-0.288	0.311
-602.113	-200.000	-0.023	0.208
-601.098	-144.159	0.236	-0.022
-600.084	-33.884	-0.187	0.104
-599.069	38.055	0.113	-0.101
-598.055	-7.938	-0.253	-0.172
-597.040	-136.883	-0.094	-0.011
-596.025	-48.184	0.265	0.129
-595.011	122.521	-0.249	0.314
-593.996	112.721	0.105	-0.129
-592.982	123.593	0.178	0.226
-591.967	102.940	-0.125	0.147
-590.952	770.335	0.060	-0.165
-589.938	-137.942	0.106	-0.012
-588.923	-39.246	0.084	-0.044
-587.909	446.538	0.135	0.300
-586.894	220.767	-0.177	-0.287
-585.879	687.563	-0.031	-0.082
-584.865	359.942	0.089	-0.179
-583.850	-53.819	0.095	0.043
-582.836	23.505	-0.108	0.089
-581.821	785.821	-0.086	-0.239
-580.806	-30.853	0.234	-0.133
-579.792	-27.198	0.076	0.044
-578.777	117.645	-0.264	-0.328
-577.763	-200.000	-0.065	-0.312
-576.748	164.063	-0.059	-0.084
-575.733	3.007	0.229	-0.167
-574.719	0.152	-0.157	0.113
-573.704	-200.000	0.070	0.376
-572.690	-200.000	-0.037	0.547
-571.675	-102.674	-0.175	-0.042
-570.661	466.761	0.030	-0.068
-569.646	-116.298	-0.106	0.020
-568.631	-22.243	0.178	-0.109
-567.617	500.918	-0.088	0.204
-566.602	800.000	-0.088	0.266
-565.588	-39.377	-0.277	-0.146
-564.573	-200.000	-0.023	0.135
-563.558	232.380	0.088	-0.146
-562.544	-200.000	-0.022	0.125
-561.529	-161.174	0.197	0.010
-560.515	44.673	-0.160	-0.148
-559.500	-200.000	0.027	0.124
-558.485	-104.862	0.436	-0.101
-557.471	-200.000	0.036	0.256
-556.456	-200.000	0.000	0.080
-555.442	-200.000	-0.001	0.288
-554.427	-200.000	-0.040	0.234
-553.412	4.012	-0.103	-0.076
-552.398	800.000	-0.040	0.161
-551.383	201.787	-0.183	0.285
-550.369	-137.713	0.473	0.053
-549.354	-44.250	-0.103	-0.052
-548.339	354.419	0.087	-0.174
-547.325	-170.783	0.304	0.011
-546.310	-22.871	-0.166	0.101
-545.296	756.070	0.114	0.310
-544.281	-40.079	-0.204	-0.107
-543.266	0.204	-0.105	-0.076
-542.252	-200.000	-0.006	0.189
-541.237	103.040	-0.099	0.117
-540.223	-200.000	0.014	0.098
-539.208	-156.099	0.178	-0.011
-538.193	-128.941	-0.108	-0.015
-537.179	-200.000	-0.048	0.234
-536.164	-67.410	-0.180	-0.071
-535.150	800.000	0.042	0.159
-534.135	50.636	-0.126	-0.120
-533.121	800.000	-0.021	-0.071
-532.106	-200.000	-0.001	-0.034
-531.091	32.184	-0.056	0.048
-530.077	-34.736	0.205	-0.113
-529.062	-90.674	-0.438	-0.127
-528.048	-21.008	0.127	-0.078
-527.033	34.213	0.253	-0.221
-526.018	800.000	-0.131	-0.375
-525.004	791.081	-0.063	-0.175
-523.989	-98.394	-0.266	0.068
-522.975	143.215	-0.057	0.076
-521.960	-142.965	0.342	0.033
-520.945	-200.000	0.030	-0.217
-519.931	-137.683	-0.163	-0.018
-518.916	-200.000	-0.020	0.205
-517.902	133.707	-0.071	-0.092
-516.887	-129.819	-0.540	-0.075
-515.872	-200.000	0.028	0.146
-514.858	-200.000	0.026	0.129
-513.843	-31.402	0.183	-0.103
-512.829	22.813	0.087	0.071
-511.814	751.406	-0.095	-0.258
-510.799	-200.000	0.009	0.101
-509.785	74.390	-0.162	0.171
-508.770	74.213	-0.201	0.212
-507.756	49.878	0.111	0.105
-506.741	120.962	0.189	-0.236
-505.726	-111.620	0.388	0.079
-504.712	-163.373	0.274	-0.013
-503.697	-200.000	0.040	0.446
-502.683	-41.333	-0.077	0.040
-501.668	33.640	0.065	-0.056
-500.653	-144.592	0.124	0.012
-499.639	-200.000	0.007	-0.099
-498.624	-200.000	0.010	-0.113
-497.610	608.926	0.136	0.341
-496.595	800.000	-0.051	0.166
-495.581	-200.000	-0.008	0.317
-494.566	59.916	-0.017	-0.017
-493.551	254.468	-0.077	-0.132
-492.537	-200.000	-0.013	0.084
-491.522	111.899	0.161	-0.196
-490.508	800.000	0.022	0.093
-489.493	29.619	0.216	0.185
-488.478	-200.000	-0.008	0.046
-487.464	800.000	-0.053	-0.227
-486.449	-120.150	-0.297	-0.051
-485.435	-5.096	0.129	-0.089
-484.420	-144.183	-0.484	0.045
-483.405	599.459	-0.158	0.395
-482.391	-200.000	-0.006	0.122
-481.376	-70.495	0.144	-0.055
-480.362	93.643	0.163	0.185
-479.347	-77.829	-0.349	0.121
-478.332	-200.000	0.064	-0.369
-477.318	800.000	-0.038	-0.164
-476.303	-108.319	0.403	0.087
-475.289	-200.000	-0.012	0.075
-474.274	800.000	-0.068	0.198
-473.259	642.987	-0.148	-0.379
-472.245	-10.282	0.227	0.151
-471.230	-200.000	-0.007	0.311
-470.216	66.562	0.225	-0.229
-469.201	-41.747	-0.344	-0.177
-468.186	-65.062	0.048	0.019
-467.172	-200.000	0.015	0.114
-466.157	314.923	0.059	-0.111
-465.143	528.318	-0.165	0.391
-464.128	-200.000	0.009	0.139
-463.113	-142.678	0.137	-0.013
-462.099	109.111	-0.055	0.066
-461.084	-200.000	-0.075	-0.419
-460.070	52.420	0.161	-0.154
-459.055	-200.000	0.080	-0.384
-458.040	-114.184	0.162	-0.031
-457.026	540.410	-0.078	-0.187
-456.011	-94.476	-0.126	-0.034
-454.997	503.517	0.092	-0.214
-453.982	355.225	-0.131	0.260
-452.968	103.676	0.191	-0.225
-451.953	-200.000	0.034	0.302
-450.938	556.062	-0.031	-0.075
-449.924	158.029	0.060	0.083
-448.909	800.000	-0.123	-0.456
-447.895	322.710	-0.084	0.160
-446.880	-69.517	0.221	0.085
-445.865	800.000	-0.061	0.259
-444.851	-49.225	-0.330	-0.158
-443.836	-200.000	0.017	-0.189
-442.822	-88.215	0.255	0.077
-441.807	-0.474	-0.184	-0.131
-440.792	-94.321	-0.220	-0.060
-439.778	-44.111	0.238	-0.120
-438.763	800.000	0.104	-0.346
-437.749	-97.362	0.113	-0.030
-436.734	54.957	0.211	0.205
-435.719	-200.000	0.020	-0.102
-434.705	-142.498	-0.089	0.009
-433.690	-48.914	0.030	-0.015
-432.676	567.180	-0.156	0.380
-431.661	-161.285	0.142	0.007
-430.646	4.681	0.091	-0.067
-429.632	-185.316	-0.292	-0.005
-428.617	-200.000	0.040	0.207
-427.603	132.655	-0.083	-0.107
-426.588	-200.000	-0.013	0.218
-425.573	618.201	0.137	0.345
-424.559	800.000	0.004	0.014
-423.544	-3.023	-0.131	-0.091
-422.530	15.822	-0.057	0.045
-421.515	-72.702	-0.217	0.080
-420.500	-109.567	0.239	0.051
-419.486	412.072	0.087	-0.184
-418.471	-34.120	0.084	-0.046
-417.457	800.000	0.019	0.054
-416.442	-77.900	-0.323	-0.112
-415.428	800.000	0.042	0.126
-414.413	495.884	-0.103	0.238
-413.398	-113.396	0.199	-0.039
-412.384	40.875	0.218	-0.197
-411.369	-60.195	0.016	0.007
-410.355	25.128	-0.062	0.051
-409.340	553.745	-0.073	0.176
-408.325	293.219	-0.077	0.140
-407.311	-200.000	0.029	0.264
-406.296	-16.485	0.155	-0.098
-405.282	800.000	0.009	0.032
-404.267	723.121	-0.030	-0.079
-403.252	-101.472	-0.191	-0.047
-402.238	32.349	0.128	-0.110
-401.223	256.880	-0.039	0.066
-400.209	-125.898	-0.213	-0.032
-399.194	-200.000	0.017	0.091
-398.179	-195.324	-0.121	-0.001
-397.165	-200.000	0.033	0.161
-396.150	79.099	-0.106	0.114
-395.136	800.000	-0.093	-0.318
-394.121	314.219	-0.098	-0.184
-393.106	-200.000	0.060	0.407
-392.092	-200.000	-0.011	0.069
-391.077	-120.978	-0.447	-0.075
-390.063	-200.000	0.009	0.426
-389.048	-195.053	-0.501	0.004
-388.033	25.826	-0.239	-0.199
-387.019	-39.374	-0.164	0.086
-386.004	-74.371	0.342	0.123
-384.990	511.421	0.020	-0.047
-383.975	-60.819	0.317	0.134
-382.960	800.000	-0.150	0.444
-381.946	11.379	-0.090	-0.069
-380.931	-57.571	0.149	-0.065
-379.917	-171.065	-0.236	0.008
-378.902	-140.020	0.297	-0.031
-377.888	489.442	-0.078	0.178
-376.873	-135.930	0.103	0.012
-375.858	-182.027	0.205	-0.004
-374.844	6.635	0.204	0.152
-373.829	-164.224	0.384	-0.018
-372.815	-99.347	0.245	-0.062
-371.800	-73.056	-0.219	0.080
-370.785	289.303	-0.148	-0.269
-369.771	-200.000	-0.025	-0.342
-368.756	-200.000	0.044	0.321
-367.742	203.497	0.054	0.084
-366.727	-88.382	0.150	-0.045
-365.712	101.891	-0.139	-0.162
-364.698	6.162	-0.227	0.168
-363.683	-155.562	-0.226	-0.015
-362.669	800.000	0.041	-0.165
-361.654	-110.910	-0.147	-0.030
-360.639	128.274	0.181	-0.231
-359.625	239.804	-0.096	0.159
-358.610	555.962	-0.080	-0.193
-357.596	-37.719	0.285	-0.151
-356.581	-1.113	-0.230	-0.162
-355.566	116.217	-0.217	0.265
-354.552	-96.854	0.285	0.075
-353.537	99.268	-0.178	0.205
-352.523	800.000	-0.055	0.215
-351.508	149.304	-0.025	-0.034
-350.493	87.115	-0.185	0.205
-349.479	295.592	0.083	0.152
-348.464	-136.108	-0.323	-0.038
-347.450	49.840	0.218	-0.205
-346.435	800.000	0.109	-0.334
-345.420	-200.000	-0.020	-0.184
-344.406	90.221	0.311	-0.347
-343.391	152.038	0.046	0.063
-342.377	-7.970	-0.235	0.158
-341.362	24.735	0.381	0.315
-340.348	142.514	0.026	-0.034
-339.333	-51.791	-0.116	-0.054
-338.318	0.011	-0.256	-0.182
-337.304	-200.000	0.012	-0.167
-336.289	-106.981	0.182	0.040
-335.275	508.392	0.100	0.231
-334.260	145.273	0.020	-0.026
-333.245	23.986	0.067	0.055
-332.231	-62.952	0.045	-0.019
-331.216	74.726	-0.324	-0.340
-330.202	-67.072	0.407	0.160
-329.187	156.090	-0.063	0.086
-328.172	-93.273	0.060	-0.017
-327.158	-142.415	0.098	0.010
-326.143	207.652	0.061	0.095
-325.129	101.641	0.145	-0.169
-324.114	-200.000	0.056	-0.321
-323.099	-200.000	-0.030	0.304
-322.085	74.821	-0.205	-0.215
-321.070	18.377	0.232	0.185
-320.056	-29.922	-0.091	-0.052
-319.041	-200.000	-0.001	0.044
-318.026	-119.360	0.326	0.057
-317.012	109.590	-0.193	0.231
-315.997	800.000	-0.047	-0.160
-314.983	-42.558	0.075	-0.038
-313.968	346.933	0.061	-0.119
-312.953	-200.000	0.029	0.329
-311.939	-15.077	0.189	-0.121
-310.924	-42.311	-0.130	0.066
-309.910	-93.578	0.053	-0.015
-308.895	-200.000	-0.068	0.307
-307.880	-25.759	-0.125	0.073
-306.866	149.519	-0.255	0.344
-305.851	74.004	-0.100	-0.105
-304.837	-23.388	0.261	-0.156
-303.822	362.376	-0.051	0.102
-302.807	620.364	0.053	0.133
-301.793	85.174	0.199	0.217
-300.778	153.813	0.147	-0.201
-299.764	-144.244	0.194	-0.018
-298.749	222.431	-0.125	0.200
-297.735	-144.936	-0.105	-0.010
-296.720	59.632	0.106	0.104
-295.705	-43.247	-0.156	0.079
-294.691	800.000	-0.071	-0.196
-293.676	-9.576	0.299	-0.198
-292.662	800.000	-0.031	-0.105
-291.647	332.624	0.022	-0.042
-290.632	157.895	-0.221	0.306
-289.618	-6.009	-0.080	-0.054
-288.603	41.289	0.262	0.236
-287.589	-200.000	0.038	-0.201
-286.574	-200.000	-0.075	-0.328
-285.559	-173.537	-0.410	0.012
-284.545	-131.076	-0.136	-0.018
-283.530	-138.593	-0.262	0.029
-282.516	-54.002	0.037	0.017
-281.501	56.960	0.033	-0.032
-280.486	-166.684	0.230	0.010
-279.472	-200.000	-0.001	-0.023
-278.457	-178.377	-0.314	-0.007
-277.443	-200.000	0.005	-0.051
-276.428	-70.884	-0.274	0.103
-275.413	-200.000	-0.007	0.294
-274.399	-12.392	-0.089	0.058
-273.384	16.042	-0.068	-0.053
-272.370	-200.000	0.005	-0.224
-271.355	-165.852	-0.380	-0.016
-270.340	-98.449	0.307	-0.078
-269.326	-27.902	0.276	-0.159
-268.311	-14.387	0.014	0.009
-267.297	61.746	-0.083	-0.082
-266.282	337.115	-0.139	-0.269
-265.267	-19.865	-0.122	0.075
-264.253	360.974	-0.069	-0.137
-263.238	-65.874	-0.250	0.099
-262.224	-200.000	-0.033	-0.157
-261.209	26.144	-0.222	0.184
-260.195	-200.000	0.136	-0.621
-259.180	800.000	-0.066	-0.220
-258.165	-15.966	0.196	0.124
-257.151	145.577	-0.111	-0.148
-256.136	625.555	-0.085	0.214
-255.122	17.305	0.099	-0.078
-254.107	-200.000	0.043	0.262
-253.092	116.007	-0.036	0.044
-252.078	-200.000	0.027	-0.149
-251.063	89.592	-0.255	0.283
-250.049	-59.801	-0.140	0.060
-249.034	-31.751	-0.094	-0.053
-248.019	44.008	-0.156	0.142
-247.005	168.183	-0.077	0.109
-245.990	-108.593	-0.091	0.019
-244.976	268.997	0.099	-0.173
-243.961	490.132	-0.020	-0.045
-242.946	295.904	-0.054	-0.098
-241.932	286.323	0.039	0.070
-240.917	497.490	-0.136	-0.312
-239.903	46.172	0.004	0.004
-238.888	11.948	0.047	-0.036
-237.873	142.698	-0.024	0.031
-236.859	-67.134	0.344	0.135
-235.844	-141.307	0.193	-0.019
-234.830	205.417	0.166	-0.257
-233.815	-21.195	-0.267	-0.162
-232.800	-8.555	0.120	-0.080
-231.786	246.848	0.200	0.335
-230.771	20.123	-0.006	0.005
-229.757	-200.000	0.002	0.181
-228.742	-200.000	-0.031	-0.311
-227.727	-54.614	0.071	0.032
-226.713	-15.004	0.237	0.151
-225.698	-63.007	-0.091	-0.037
-224.684	489.091	-0.075	-0.170
-223.669	800.000	-0.066	-0.218
-222.655	-46.612	-0.181	-0.088
-221.640	800.000	-0.133	-0.394
-220.625	-74.117	-0.196	-0.070
-219.611	-92.138	0.125	0.035
-218.596	-37.711	0.148	0.078
-217.582	222.791	0.215	0.344
-216.567	-172.671	-0.084	0.003
-215.552	19.211	0.216	0.172
-214.538	-200.000	0.038	-0.239
-213.523	-27.873	0.093	-0.054
-212.509	-200.000	0.014	-0.357
-211.494	711.666	0.051	0.135
-210.479	-200.000	-0.023	0.157
-209.465	800.000	-0.025	-0.080
-208.450	54.435	-0.105	0.100
-207.436	-111.720	-0.093	0.019
-206.421	463.756	-0.059	0.131
-205.406	-156.958	0.098	-0.006
-204.392	4.769	0.301	-0.220
-203.377	-121.787	0.153	-0.025
-202.363	-200.000	0.064	-0.307
-201.348	82.626	0.366	0.394
-200.333	-104.284	0.200	0.046
-199.319	458.526	-0.068	0.150
-198.304	-12.815	0.127	0.082
-197.290	800.000	0.183	0.589
-196.275	-99.682	0.122	-0.030
-195.260	-200.000	0.057	0.269
-194.246	-200.000	0.027	0.302
-193.231	-58.067	-0.223	-0.097
-192.217	-48.163	-0.081	-0.039
-191.202	-71.832	-0.359	-0.133
-190.187	-143.739	0.399	-0.037
-189.173	-130.684	0.136	-0.018
-188.158	-15.939	0.047	-0.030
-187.144	349.712	-0.033	-0.064
-186.129	-200.000	0.041	0.196
-185.114	-79.315	-0.313	-0.105
-184.100	160.481	-0.091	0.127
-183.085	-200.000	-0.055	-0.262
-182.071	800.000	-0.065	0.248
-181.056	57.176	0.060	0.059
-180.042	137.610	0.171	0.222
-179.027	-200.000	-0.017	-0.387
-178.012	69.910	-0.193	-0.198
-176.998	281.765	0.128	0.227
-175.983	-50.703	0.050	-0.023
-174.969	-32.038	0.103	-0.057
-173.954	717.574	0.122	-0.321
-172.939	235.887	0.106	0.174
-171.925	-65.636	-0.139	0.055
-170.910	244.276	0.077	-0.129
-169.896	-39.101	0.163	-0.085
-168.881	-200.000	-0.004	-0.038
-167.866	782.506	0.071	0.192
-166.852	13.073	0.070	0.053
-165.837	-0.308	-0.119	0.084
-164.823	800.000	0.086	-0.316
-163.808	273.655	0.073	0.127
-162.793	35.093	0.327	-0.284
-161.779	11.225	0.201	0.153
-160.764	95.996	0.047	-0.053
-159.750	-1.415	-0.143	0.100
-158.735	-180.642	-0.110	-0.002
-157.720	237.993	0.086	0.141
-156.706	59.572	-0.222	-0.217
-155.691	201.611	-0.068	0.104
-154.677	-130.259	-0.274	-0.037
-153.662	-200.000	-0.035	0.183
-152.647	-200.000	0.001	-0.238
-151.633	-90.553	-0.207	-0.059
-150.618	19.630	-0.217	-0.173
-149.604	-200.000	0.006	-0.146
-148.589	126.681	-0.012	-0.015
-147.574	-200.000	0.008	-0.177
-146.560	-200.000	0.021	0.245
-145.545	-143.288	0.340	-0.032
-144.531	-136.687	0.270	0.031
-143.516	-110.082	-0.192	0.040
-142.502	49.348	0.048	-0.045
-141.487	-200.000	-0.026	-0.162
-140.472	562.865	0.077	-0.186
-139.458	800.000	0.034	0.098
-138.443	48.036	-0.426	0.394
-137.429	-200.000	-0.399	-0.001
-136.414	-43.533	0.109	0.055
-135.399	-14.981	0.282	-0.179
-134.385	-129.700	-0.048	0.007
-133.370	-143.997	0.357	-0.033
-132.356	800.000	-0.034	-0.117
-131.341	7.146	0.156	0.115
-130.326	-106.360	0.036	0.008
-129.312	-126.923	-0.302	0.044
-128.297	-117.691	-0.254	-0.045
-127.283	-89.356	0.192	-0.056
-126.268	-61.365	-0.084	-0.035
-125.253	-41.339	-0.159	-0.081
-124.239	-200.000	0.069	-0.467
-123.224	-88.622	-0.108	0.032
