DTS Sentinel unit serial number:	SN413079Multiplexer serial number:	ORYXHardware model number:	OX4-SRSoftware version number:	ORYX F/W v4.00 Oryx Data Collector v3.7.2.0data status	okinstallation	princeton_trtdifferential loss correction	single-endedforward channel	channel 1reverse channel	N/Adate	2019/09/17time	18:02:35forward acquisition time	60.00reverse acquisition time	0.00gamma	496.2192k internal	0.2291k external	0.2291temperature offset calibration	0.9954default loss term (dB/km)	0.3790temperature slope calibration	1.0000multiplexer offset coefficient	1.0000multiplexer slope coefficient	1.0000fibre end	0.00T internal ref (°C)	43.50T ext. ref 1 (°C)	0.33T ext. ref 2 (°C)	38.01length (m)	temperature (°C)	Stokes	anti-Stokes-747.200	-150.947	0.350	0.027
-746.185	433.166	0.025	0.055
-745.171	-200.000	0.011	-0.094
-744.156	800.000	0.086	0.251
-743.142	-200.000	-0.020	-0.268
-742.127	37.275	0.055	0.050
-741.112	-132.686	0.298	-0.039
-740.098	-1.145	0.133	-0.096
-739.083	-103.115	0.314	0.076
-738.069	-130.128	-0.211	0.030
-737.054	-25.704	-0.061	0.037
-736.039	-200.000	-0.009	-0.195
-735.025	800.000	-0.009	-0.029
-734.010	-64.912	-0.347	0.143
-732.996	-39.882	0.124	0.066
-731.981	436.934	-0.081	-0.181
-730.966	34.243	-0.150	0.134
-729.952	-86.871	-0.095	-0.030
-728.937	-72.504	-0.083	0.031
-727.923	800.000	0.062	-0.274
-726.908	-95.613	0.123	-0.034
-725.894	57.370	-0.101	0.101
-724.879	-200.000	0.005	-0.198
-723.864	105.225	0.209	0.252
-722.850	-26.669	-0.251	0.150
-721.835	-200.000	0.050	-0.328
-720.821	103.685	-0.034	-0.041
-719.806	-73.523	-0.392	0.146
-718.791	-88.242	0.123	0.038
-717.777	-200.000	0.003	-0.189
-716.762	21.268	-0.216	0.179
-715.748	208.697	-0.140	-0.223
-714.733	187.852	0.159	-0.243
-713.718	-69.678	0.104	-0.041
-712.704	374.448	0.169	-0.352
-711.689	-118.100	-0.269	0.049
-710.675	-50.925	-0.177	0.085
-709.660	91.546	0.073	-0.084
-708.645	400.748	0.052	-0.111
-707.631	-39.322	0.027	0.015
-706.616	-200.000	-0.028	-0.312
-705.602	-74.458	-0.037	0.013
-704.587	-178.948	-0.272	-0.006
-703.572	199.417	0.171	-0.268
-702.558	-165.930	-0.381	-0.017
-701.543	-123.987	-0.124	0.020
-700.529	99.224	0.117	0.138
-699.514	702.229	0.110	-0.295
-698.499	456.187	-0.043	0.097
-697.485	-23.852	-0.167	-0.102
-696.470	-200.000	-0.070	-0.461
-695.456	77.053	-0.233	-0.253
-694.441	-160.061	-0.273	-0.015
-693.426	-111.531	-0.046	0.009
-692.412	-200.000	-0.006	0.033
-691.397	-200.000	-0.005	-0.071
-690.383	-147.201	-0.095	0.008
-689.368	-75.523	-0.137	-0.050
-688.354	-70.334	0.103	0.040
-687.339	-95.825	-0.160	-0.044
-686.324	-92.430	0.284	-0.082
-685.310	800.000	-0.028	0.107
-684.295	-91.726	-0.091	0.027
-683.281	549.472	-0.158	-0.386
-682.266	378.827	-0.143	0.298
-681.251	-200.000	-0.006	0.095
-680.237	-200.000	0.042	-0.200
-679.222	800.000	-0.017	-0.075
-678.208	-123.767	-0.163	0.026
-677.193	75.966	-0.091	0.099
-676.178	313.777	0.156	-0.300
-675.164	22.003	0.397	-0.331
-674.149	216.422	0.091	0.147
-673.135	-157.019	-0.162	-0.010
-672.120	114.830	0.144	0.179
-671.105	-78.333	-0.130	-0.046
-670.091	-11.378	-0.033	0.022
-669.076	-60.421	0.164	0.071
-668.062	-103.451	0.365	0.088
-667.047	-200.000	-0.030	-0.203
-666.032	130.639	-0.190	-0.249
-665.018	-79.775	0.242	0.083
-664.003	-117.247	-0.042	-0.008
-662.989	-29.863	0.116	-0.068
-661.974	28.855	-0.279	0.241
-660.959	367.274	-0.151	0.312
-659.945	-128.764	0.056	-0.008
-658.930	-127.164	-0.224	0.034
-657.916	-68.975	0.192	0.075
-656.901	356.644	0.081	0.165
-655.886	800.000	-0.045	-0.141
-654.872	113.702	0.233	-0.289
-653.857	83.349	-0.329	0.365
-652.843	-43.509	-0.071	-0.037
-651.828	60.546	0.051	-0.052
-650.814	-29.799	0.180	-0.104
-649.799	-160.180	-0.159	-0.009
-648.784	115.946	-0.013	0.016
-647.770	144.274	0.074	-0.101
-646.755	-200.000	-0.003	-0.312
-645.741	28.359	0.153	0.132
-644.726	689.893	0.044	-0.116
-643.711	44.509	-0.077	-0.073
-642.697	-3.373	0.234	-0.166
-641.682	-114.986	-0.446	-0.086
-640.668	378.846	0.031	-0.065
-639.653	497.116	0.026	-0.061
-638.638	76.998	-0.169	-0.183
-637.624	-200.000	-0.006	-0.160
-636.609	-200.000	0.061	-0.457
-635.595	-200.000	0.035	-0.204
-634.580	800.000	-0.093	-0.380
-633.565	-200.000	0.000	-0.052
-632.551	100.011	0.139	0.165
-631.536	-45.197	-0.150	0.076
-630.522	49.835	-0.140	0.134
-629.507	31.001	-0.115	-0.100
-628.492	-200.000	-0.020	-0.303
-627.478	89.698	-0.085	-0.097
-626.463	-140.589	0.013	0.001
-625.449	24.961	-0.060	-0.051
-624.434	58.365	-0.157	-0.157
-623.419	153.167	-0.320	-0.446
-622.405	162.118	-0.268	-0.383
-621.390	-200.000	-0.008	0.195
-620.376	-115.073	-0.315	0.061
-619.361	626.730	-0.058	0.149
-618.346	-160.924	-0.022	0.001
-617.332	13.219	-0.048	0.038
-616.317	-155.562	-0.429	0.028
-615.303	-56.951	-0.095	-0.043
-614.288	-200.000	0.003	-0.057
-613.273	36.327	0.281	0.252
-612.259	-10.859	-0.258	-0.174
-611.244	-200.000	-0.025	-0.122
-610.230	-189.301	-0.147	0.002
-609.215	25.562	-0.078	0.066
-608.201	-200.000	0.010	-0.115
-607.186	800.000	0.086	0.253
-606.171	-135.320	0.185	0.023
-605.157	-200.000	0.038	-0.260
-604.142	-17.105	0.246	-0.158
-603.128	-122.781	0.383	0.063
-602.113	630.354	-0.066	-0.171
-601.098	-101.026	-0.464	-0.116
-600.084	-105.052	-0.172	0.040
-599.069	89.210	0.094	0.106
-598.055	17.945	-0.075	0.061
-597.040	29.696	-0.064	0.055
-596.025	-141.457	0.081	-0.008
-595.011	192.647	0.195	-0.300
-593.996	264.299	0.029	-0.051
-592.982	800.000	0.050	0.198
-591.967	-149.156	0.329	0.027
-590.952	638.754	-0.125	-0.325
-589.938	-134.458	0.117	-0.015
-588.923	-65.412	-0.185	0.076
-587.909	-84.512	-0.216	0.069
-586.894	-200.000	0.044	0.224
-585.879	-146.959	-0.304	0.027
-584.865	140.860	-0.213	0.287
-583.850	72.227	-0.227	0.240
-582.836	-200.000	-0.004	0.092
-581.821	-151.047	-0.161	0.012
-580.806	-200.000	-0.040	0.320
-579.792	98.511	0.193	0.226
-578.777	-118.805	-0.148	0.027
-577.763	30.935	-0.072	0.063
-576.748	62.495	-0.029	-0.029
-575.733	-110.600	-0.223	0.047
-574.719	800.000	0.066	-0.270
-573.704	131.831	0.103	-0.134
-572.690	-200.000	0.038	0.174
-571.675	8.921	-0.304	-0.234
-570.661	8.294	0.212	-0.162
-569.646	132.516	-0.167	0.219
-568.631	800.000	0.104	-0.374
-567.617	-200.000	-0.048	-0.222
-566.602	346.351	0.133	-0.265
-565.588	501.323	-0.020	-0.048
-564.573	397.855	-0.128	-0.272
-563.558	341.847	0.032	-0.064
-562.544	-200.000	-0.001	-0.290
-561.529	115.768	0.140	-0.174
-560.515	800.000	0.115	0.379
-559.500	-135.891	-0.451	-0.054
-558.485	-173.692	-0.096	0.003
-557.471	-26.656	0.137	-0.081
-556.456	800.000	0.017	0.059
-555.442	-26.471	0.122	-0.073
-554.427	-42.335	0.137	0.071
-553.412	-89.959	0.244	-0.072
-552.398	-127.537	0.234	-0.034
-551.383	-200.000	0.000	0.103
-550.369	-167.200	0.147	0.006
-549.354	-27.860	-0.238	-0.140
-548.339	-143.292	0.127	-0.012
-547.325	124.487	-0.159	-0.203
-546.310	-200.000	0.002	0.050
-545.296	-200.000	0.025	0.314
-544.281	-69.837	-0.185	-0.072
-543.266	116.113	-0.146	0.182
-542.252	269.665	0.132	0.235
-541.237	-200.000	0.082	0.386
-540.223	-167.418	-0.050	0.002
-539.208	-92.137	-0.039	-0.011
-538.193	-61.937	-0.049	0.021
-537.179	4.802	0.068	0.050
-536.164	588.767	-0.112	0.281
-535.150	-22.563	0.164	0.101
-534.135	-200.000	0.044	0.429
-533.121	699.731	-0.027	0.071
-532.106	800.000	-0.056	-0.230
-531.091	800.000	0.025	0.079
-530.077	248.186	-0.137	0.236
-529.062	-125.970	-0.169	-0.026
-528.048	-200.000	0.006	0.198
-527.033	89.997	0.026	0.030
-526.018	-17.588	-0.190	0.121
-525.004	-113.687	-0.300	0.059
-523.989	39.437	0.178	0.162
-522.975	-200.000	0.004	0.228
-521.960	72.882	-0.046	0.048
-520.945	143.069	-0.072	0.097
-519.931	800.000	0.052	0.173
-518.916	-56.064	-0.179	-0.081
-517.902	259.858	-0.121	-0.211
-516.887	-200.000	0.003	-0.021
-515.872	-200.000	0.011	-0.214
-514.858	800.000	0.055	-0.226
-513.843	800.000	-0.043	0.131
-512.829	418.644	0.085	-0.185
-511.814	230.765	0.153	0.254
-510.799	-57.593	-0.086	0.038
-509.785	59.320	0.089	-0.089
-508.770	-94.621	-0.034	-0.009
-507.756	800.000	-0.036	0.118
-506.741	29.067	-0.169	-0.145
-505.726	483.339	-0.023	-0.053
-504.712	-46.294	0.541	0.270
-503.697	-13.565	0.177	0.117
-502.683	-200.000	-0.035	0.274
-501.668	650.599	0.140	0.363
-500.653	-200.000	0.089	0.490
-499.639	-54.136	-0.063	0.029
-498.624	353.002	-0.062	-0.125
-497.610	66.956	-0.285	-0.294
-496.595	-90.595	0.195	-0.057
-495.581	588.339	-0.138	0.345
-494.566	236.777	0.026	-0.044
-493.551	-15.430	-0.197	0.128
-492.537	-46.148	0.282	-0.141
-491.522	-50.279	-0.038	-0.018
-490.508	-188.728	0.214	0.003
-489.493	800.000	0.038	-0.121
-488.478	-200.000	-0.005	0.168
-487.464	-40.341	-0.177	-0.093
-486.449	397.274	0.129	0.274
-485.435	22.372	0.164	0.136
-484.420	800.000	0.035	0.150
-483.405	-78.117	0.084	-0.029
-482.391	800.000	0.045	0.161
-481.376	122.650	0.070	0.089
-480.362	-200.000	0.035	-0.338
-479.347	-117.291	-0.199	-0.037
-478.332	267.888	-0.093	-0.165
-477.318	-125.579	-0.260	0.040
-476.303	9.776	0.139	-0.107
-475.289	313.539	0.111	0.212
-474.274	90.569	-0.112	-0.127
-473.259	56.295	0.048	0.047
-472.245	800.000	-0.062	-0.250
-471.230	-10.227	-0.206	-0.138
-470.216	-200.000	0.029	-0.142
-469.201	-110.670	-0.140	0.029
-468.186	-53.799	0.319	-0.147
-467.172	160.914	0.155	0.219
-466.157	116.980	0.039	-0.048
-465.143	-28.484	-0.173	-0.101
-464.128	268.397	0.147	-0.262
-463.113	-8.094	0.046	-0.031
-462.099	-200.000	-0.026	-0.177
-461.084	717.218	0.078	0.209
-460.070	153.156	-0.064	0.089
-459.055	7.017	-0.038	0.029
-458.040	-71.755	0.075	0.028
-457.026	105.660	0.127	-0.152
-456.011	-12.772	0.091	0.060
-454.997	-71.158	0.168	-0.064
-453.982	-18.509	-0.076	0.048
-452.968	-119.927	-0.288	-0.050
-451.953	-200.000	-0.005	-0.081
-450.938	133.614	-0.234	-0.306
-449.924	39.552	-0.060	-0.054
-448.909	112.251	0.095	-0.117
-447.895	22.184	0.261	0.216
-446.880	800.000	0.048	0.139
-445.865	70.292	0.234	-0.245
-444.851	59.717	0.111	0.111
-443.836	-113.341	-0.284	-0.056
-442.822	-162.059	-0.158	-0.008
-441.807	-35.429	-0.078	-0.043
-440.792	177.206	-0.138	0.204
-439.778	-200.000	0.027	0.165
-438.763	18.414	-0.221	0.179
-437.749	280.128	-0.041	0.074
-436.734	-39.161	0.315	0.168
-435.719	-189.455	-0.251	0.003
-434.705	32.439	0.266	-0.233
-433.690	-39.925	-0.200	0.105
-432.676	303.182	0.095	-0.178
-431.661	-157.390	0.224	0.014
-430.646	463.512	-0.061	0.139
-429.632	183.575	0.004	0.006
-428.617	800.000	-0.101	-0.330
-427.603	800.000	0.088	-0.310
-426.588	-118.380	-0.192	0.035
-425.573	-200.000	0.027	0.172
-424.559	-200.000	-0.048	-0.263
-423.544	800.000	0.018	-0.065
-422.530	-90.765	-0.191	0.056
-421.515	69.066	0.203	0.211
-420.500	594.442	-0.207	-0.518
-419.486	91.371	0.118	0.134
-418.471	393.146	-0.152	-0.320
-417.457	800.000	0.059	-0.194
-416.442	760.822	-0.158	-0.432
-415.428	-200.000	0.042	0.301
-414.413	368.701	0.071	0.145
-413.398	-200.000	0.031	0.390
-412.384	146.457	0.159	0.216
-411.369	-116.500	-0.269	0.050
-410.355	38.861	-0.123	0.111
-409.340	7.382	-0.253	-0.191
-408.325	5.795	0.214	0.160
-407.311	-55.654	-0.188	-0.085
-406.296	196.357	-0.160	-0.245
-405.282	234.229	0.188	0.314
-404.267	-37.583	0.188	-0.101
-403.252	-82.134	0.195	-0.064
-402.238	308.829	0.110	-0.209
-401.223	-52.545	0.138	0.064
-400.209	105.200	-0.030	-0.036
-399.194	800.000	0.072	-0.307
-398.179	367.483	-0.081	-0.166
-397.165	-51.069	-0.296	-0.140
-396.150	-150.912	-0.080	-0.006
-395.136	-184.975	0.355	-0.006
-394.121	69.838	0.147	0.153
-393.106	-10.887	-0.113	-0.075
-392.092	132.983	-0.050	-0.066
-391.077	198.085	0.149	0.230
-390.063	-79.382	0.261	0.089
-389.048	-200.000	0.002	0.146
-388.033	-1.636	0.382	-0.272
-387.019	-26.482	0.049	-0.029
-386.004	-8.031	-0.069	-0.047
-384.990	800.000	0.025	-0.091
-383.975	-200.000	0.000	-0.144
-382.960	215.907	0.132	0.212
-381.946	59.222	-0.287	-0.286
-380.931	536.446	0.106	-0.254
-379.917	-14.522	0.127	0.082
-378.902	800.000	0.048	0.208
-377.888	-49.629	0.231	0.111
-376.873	-149.836	-0.321	-0.025
-375.858	779.986	-0.036	0.099
-374.844	57.309	-0.144	-0.142
-373.829	48.554	-0.231	-0.219
-372.815	716.265	-0.121	0.323
-371.800	206.014	0.055	0.087
-370.785	-32.455	-0.203	-0.114
-369.771	800.000	0.072	0.301
-368.756	-75.625	0.098	-0.035
-367.742	-200.000	-0.025	-0.112
-366.727	-200.000	-0.005	0.135
-365.712	800.000	0.098	-0.326
-364.698	-55.026	-0.191	-0.087
-363.683	-103.113	0.238	0.057
-362.669	35.902	-0.160	-0.142
-361.654	499.128	0.180	-0.418
-360.639	222.025	0.121	0.196
-359.625	125.977	-0.077	0.099
-358.610	23.498	0.087	-0.072
-357.596	-200.000	-0.027	-0.217
-356.581	-29.665	0.090	-0.052
-355.566	-200.000	0.004	0.246
-354.552	-73.658	-0.121	0.044
-353.537	800.000	0.035	0.122
-352.523	257.300	-0.090	0.156
-351.508	800.000	-0.032	-0.125
-350.493	-200.000	-0.045	0.265
-349.479	197.643	-0.037	-0.058
-348.464	182.549	-0.099	-0.147
-347.450	-200.000	-0.009	-0.291
-346.435	800.000	-0.048	-0.207
-345.420	-143.872	-0.108	-0.010
-344.406	-92.344	0.272	0.077
-343.391	311.000	-0.052	0.098
-342.377	11.090	0.260	0.200
-341.362	-76.660	-0.125	-0.044
-340.348	-13.291	0.210	0.137
-339.333	-80.419	0.232	-0.078
-338.318	-81.202	0.317	-0.105
-337.304	-66.647	-0.311	-0.124
-336.289	800.000	-0.069	0.225
-335.275	-200.000	-0.023	0.109
-334.260	-53.277	0.151	-0.070
-333.245	-200.000	-0.043	0.193
-332.231	70.194	0.112	0.117
-331.216	53.899	-0.106	-0.103
-330.202	-200.000	0.014	0.096
-329.187	800.000	-0.127	0.386
-328.172	-200.000	0.012	0.261
-327.158	-83.062	-0.361	0.117
-326.143	-200.000	0.014	0.264
-325.129	-200.000	0.065	-0.326
-324.114	-200.000	0.036	-0.400
-323.099	695.377	0.017	-0.046
-322.085	-200.000	0.029	0.362
-321.070	-44.999	-0.175	0.088
-320.056	82.081	-0.058	-0.063
-319.041	-200.000	-0.000	0.164
-318.026	-200.000	-0.023	0.203
-317.012	-28.641	-0.298	0.173
-315.997	-171.885	-0.113	-0.004
-314.983	-62.740	0.296	0.124
-313.968	-200.000	-0.016	0.117
-312.953	-101.383	0.066	0.016
-311.939	-85.617	0.149	0.047
-310.924	75.517	0.219	-0.233
-309.910	-41.549	-0.296	0.153
-308.895	-46.295	-0.346	0.171
-307.880	-200.000	-0.013	-0.202
-306.866	-200.000	0.002	0.286
-305.851	-200.000	0.091	-0.546
-304.837	800.000	-0.087	-0.265
-303.822	-200.000	0.015	-0.086
-302.807	-148.163	0.174	0.014
-301.793	-47.118	-0.198	-0.097
-300.778	-70.215	-0.228	0.087
-299.764	26.938	-0.221	-0.186
-298.749	-60.631	-0.207	0.088
-297.735	-85.244	0.241	0.076
-296.720	-29.194	0.291	-0.168
-295.705	-164.881	0.112	-0.005
-294.691	800.000	0.065	-0.189
-293.676	-49.284	-0.192	0.092
-292.662	-50.935	-0.050	-0.024
-291.647	31.048	0.265	-0.228
-290.632	81.065	-0.125	-0.135
-289.618	-6.327	-0.097	0.067
-288.603	-154.907	0.160	0.011
-287.589	96.616	-0.239	0.275
-286.574	20.755	0.027	0.022
-285.559	50.929	-0.112	-0.107
-284.545	-192.507	0.422	0.004
-283.530	-19.848	0.149	-0.092
-282.516	88.300	-0.075	0.083
-281.501	-81.099	-0.025	-0.008
-280.486	-200.000	-0.019	0.246
-279.472	-200.000	-0.008	0.052
-278.457	800.000	0.051	-0.173
-277.443	-111.910	-0.402	0.082
-276.428	-200.000	-0.004	-0.251
-275.413	-200.000	0.061	0.352
-274.399	73.517	-0.154	0.162
-273.384	484.252	0.112	0.255
-272.370	12.116	0.047	0.036
-271.355	73.042	-0.048	-0.051
-270.340	134.372	-0.152	-0.198
-269.326	800.000	0.073	-0.267
-268.311	-148.890	0.436	0.035
-267.297	37.803	0.126	0.113
-266.282	163.651	-0.165	0.234
-265.267	53.561	0.228	-0.220
-264.253	282.410	-0.129	-0.233
-263.238	124.264	-0.063	-0.079
-262.224	-101.825	0.347	-0.084
-261.209	6.062	-0.237	-0.177
-260.195	-52.126	0.218	-0.102
-259.180	642.265	0.064	-0.163
-258.165	26.038	0.166	0.139
-257.151	800.000	-0.112	0.476
-256.136	-95.938	0.147	0.039
-255.122	322.399	0.189	0.361
-254.107	-18.506	-0.195	-0.122
-253.092	35.974	0.142	0.126
-252.078	-16.998	0.113	-0.072
-251.063	4.435	0.103	-0.076
-250.049	-158.376	0.269	0.016
-249.034	18.989	-0.107	-0.086
-248.019	800.000	-0.148	0.417
-247.005	87.484	0.049	0.054
-245.990	-106.673	0.176	-0.039
-244.976	306.229	-0.238	0.444
-243.961	800.000	0.078	0.229
-242.946	462.441	-0.037	-0.084
-241.932	546.735	-0.089	0.215
-240.917	-200.000	0.002	0.144
-239.903	-103.365	-0.133	-0.031
-238.888	-200.000	0.015	-0.305
-237.873	-42.858	0.394	0.201
-236.859	-107.317	0.131	0.029
-235.844	16.615	0.089	0.071
-234.830	-200.000	-0.040	0.288
-233.815	-200.000	0.027	0.304
-232.800	187.112	-0.128	-0.191
-231.786	160.619	0.128	0.180
-230.771	127.609	-0.077	0.099
-229.757	87.956	-0.030	-0.034
-228.742	-85.197	-0.225	-0.071
-227.727	-200.000	-0.046	-0.394
-226.713	257.337	0.082	0.141
-225.698	800.000	0.093	0.320
-224.684	20.148	0.272	0.220
-223.669	-35.228	0.127	0.069
-222.655	409.993	0.031	-0.066
-221.640	484.559	0.062	-0.141
-220.625	111.674	-0.217	0.263
-219.611	800.000	-0.115	-0.332
-218.596	-63.826	-0.110	0.045
-217.582	84.982	0.231	0.254
-216.567	24.442	0.107	0.089
-215.552	-200.000	-0.020	-0.433
-214.538	-28.094	0.148	-0.086
-213.523	-117.451	-0.292	0.053
-212.509	75.860	0.147	-0.156
-211.494	-55.823	0.408	0.183
-210.479	-87.518	0.180	0.055
-209.465	-8.033	0.290	-0.196
-208.450	17.728	0.228	-0.182
-207.436	354.519	-0.161	-0.321
-206.421	-200.000	0.047	-0.574
-205.406	-143.159	-0.294	-0.028
-204.392	631.346	0.013	-0.032
-203.377	-38.533	0.268	-0.142
-202.363	31.267	-0.061	0.053
-201.348	43.973	-0.118	-0.109
-200.333	-127.306	-0.322	-0.047
-199.319	-99.427	0.430	0.109
-198.304	493.487	0.117	0.269
-197.290	129.352	-0.189	0.243
-196.275	800.000	0.042	0.181
-195.260	-184.436	-0.221	-0.004
-194.246	-200.000	-0.057	-0.325
-193.231	123.927	0.150	-0.189
-192.217	800.000	-0.017	-0.055
-191.202	-106.489	-0.179	0.040
-190.187	246.039	0.130	0.219
-189.173	-200.000	-0.059	-0.299
-188.158	631.470	0.041	0.104
-187.144	0.676	-0.174	0.125
-186.129	-187.984	0.194	0.003
-185.114	800.000	0.160	0.470
-184.100	-17.061	-0.133	0.084
-183.085	524.631	-0.083	-0.196
-182.071	-27.906	-0.096	0.056
-181.056	138.456	0.115	0.151
-180.042	-200.000	0.076	-0.434
-179.027	-148.588	0.239	0.020
-178.012	-146.137	0.156	0.014
-176.998	63.191	-0.048	-0.048
-175.983	-56.653	-0.287	0.127
-174.969	-36.606	-0.113	-0.061
-173.954	-32.825	-0.223	-0.124
-172.939	-133.795	0.133	0.017
-171.925	-88.169	0.357	0.107
-170.910	34.382	0.216	0.189
-169.896	-19.736	0.085	0.053
-168.881	-97.056	-0.245	-0.064
-167.866	361.960	-0.031	0.062
-166.852	-3.054	0.316	0.221
-165.837	3.281	0.260	-0.190
-164.823	-200.000	-0.040	0.213
-163.808	4.405	0.131	0.096
-162.793	72.271	-0.078	0.082
-161.779	-200.000	0.023	-0.167
-160.764	-111.037	0.126	-0.026
-159.750	151.440	-0.178	0.242
-158.735	23.971	0.015	-0.012
-157.720	7.713	0.318	-0.238
-156.706	-200.000	0.012	0.104
-155.691	-161.711	-0.218	-0.011
-154.677	229.595	-0.122	-0.199
-153.662	800.000	-0.056	-0.194
-152.647	146.291	-0.120	0.161
-151.633	800.000	0.102	0.294
-150.618	564.354	0.130	0.314
-149.604	182.904	-0.053	-0.078
-148.589	800.000	-0.052	0.164
-147.574	-7.988	-0.167	0.112
-146.560	800.000	0.028	0.112
-145.545	800.000	0.111	0.446
-144.531	-200.000	0.004	-0.092
-143.516	-200.000	0.036	-0.241
-142.502	800.000	0.140	0.400
-141.487	800.000	-0.016	0.063
-140.472	-70.298	0.133	-0.050
-139.458	4.800	-0.186	-0.137
-138.443	-81.871	0.243	0.080
-137.429	-200.000	0.013	0.056
-136.414	-200.000	0.052	-0.291
-135.399	-114.290	0.045	-0.009
-134.385	155.441	0.168	0.232
-133.370	174.386	0.121	-0.174
-132.356	-141.652	0.186	-0.019
-131.341	110.465	0.118	0.141
-130.326	209.548	0.137	0.214
-129.312	228.916	-0.098	-0.160
-128.297	-46.337	0.063	0.031
-127.283	-144.128	0.065	0.006
-126.268	-14.910	-0.095	0.061
-125.253	-83.619	0.132	-0.042
-124.239	-200.000	0.008	-0.151
-123.224	206.559	-0.292	-0.454
-122.210	800.000	-0.059	-0.171
-121.195	268.215	-0.068	0.119
