DTS Sentinel unit serial number:	SN413079Multiplexer serial number:	ORYXHardware model number:	OX4-SRSoftware version number:	ORYX F/W v4.00 Oryx Data Collector v3.7.2.0data status	okinstallation	princeton_trtdifferential loss correction	single-endedforward channel	channel 1reverse channel	N/Adate	2019/09/13time	21:42:35forward acquisition time	60.00reverse acquisition time	0.00gamma	496.2192k internal	0.2331k external	0.2331temperature offset calibration	1.0080default loss term (dB/km)	0.3790temperature slope calibration	1.0000multiplexer offset coefficient	1.0000multiplexer slope coefficient	1.0000fibre end	0.00T internal ref (°C)	28.16T ext. ref 1 (°C)	3.12T ext. ref 2 (°C)	22.93length (m)	temperature (°C)	Stokes	anti-Stokes-747.200	-72.512	0.139	0.052
-746.185	547.784	0.141	0.339
-745.171	-127.520	0.115	0.017
-744.156	32.721	-0.114	0.099
-743.142	-60.566	-0.121	0.052
-742.127	-200.000	-0.013	0.207
-741.112	800.000	0.043	-0.121
-740.098	800.000	0.015	-0.048
-739.083	0.433	-0.134	0.096
-738.069	-77.057	-0.077	0.027
-737.054	333.566	0.168	0.326
-736.039	22.818	-0.149	0.123
-735.025	0.060	0.263	-0.189
-734.010	302.479	-0.083	0.154
-732.996	220.718	-0.168	-0.272
-731.981	-94.445	-0.292	0.080
-730.966	800.000	-0.044	-0.150
-729.952	99.104	-0.244	0.284
-728.937	85.984	-0.051	-0.056
-727.923	-69.258	-0.209	0.081
-726.908	-171.354	0.063	0.002
-725.894	-93.144	-0.302	-0.084
-724.879	290.500	-0.136	-0.249
-723.864	160.700	0.153	-0.215
-722.850	-107.341	0.111	-0.025
-721.835	-25.555	-0.276	0.164
-720.821	800.000	0.101	0.286
-719.806	-94.864	-0.275	-0.075
-718.791	-143.013	0.158	-0.015
-717.777	-200.000	-0.007	-0.159
-716.762	211.522	-0.105	-0.166
-715.748	-16.251	0.295	-0.188
-714.733	-149.992	0.151	-0.012
-713.718	-103.286	-0.274	0.065
-712.704	156.745	-0.133	-0.185
-711.689	800.000	-0.138	-0.484
-710.675	-83.609	0.056	-0.018
-709.660	-168.679	-0.243	0.009
-708.645	-57.287	0.062	0.027
-707.631	770.254	-0.029	0.080
-706.616	-65.270	0.147	0.060
-705.602	63.437	0.080	-0.081
-704.587	-200.000	0.029	0.348
-703.572	-95.231	0.287	-0.078
-702.558	-71.770	-0.316	-0.118
-701.543	109.378	-0.250	-0.301
-700.529	800.000	0.085	-0.294
-699.514	139.870	0.239	-0.317
-698.499	-183.837	0.076	-0.001
-697.485	-200.000	0.011	-0.107
-696.470	73.273	0.172	-0.181
-695.456	64.977	-0.180	0.183
-694.441	-77.561	-0.343	0.119
-693.426	-46.425	0.322	0.159
-692.412	42.804	-0.082	0.075
-691.397	-200.000	0.023	-0.207
-690.383	-16.004	0.076	-0.048
-689.368	15.369	-0.259	0.204
-688.354	-18.989	-0.346	-0.216
-687.339	205.376	-0.091	0.142
-686.324	-11.263	-0.286	0.189
-685.310	-95.232	-0.260	0.070
-684.295	-124.072	-0.086	-0.014
-683.281	-200.000	-0.003	0.026
-682.266	800.000	0.093	-0.264
-681.251	-9.800	0.124	-0.083
-680.237	-200.000	0.021	0.101
-679.222	-200.000	-0.415	0.002
-678.208	63.629	-0.151	0.152
-677.193	-32.011	-0.287	-0.161
-676.178	-193.240	-0.330	-0.003
-675.164	-20.824	-0.020	-0.012
-674.149	-63.176	0.092	0.038
-673.135	36.413	0.124	-0.109
-672.120	-97.803	0.125	-0.032
-671.105	-98.537	-0.066	-0.017
-670.091	-29.766	0.167	-0.095
-669.076	164.788	0.060	-0.086
-668.062	5.965	0.201	-0.149
-667.047	-200.000	-0.051	0.291
-666.032	-200.000	-0.003	-0.048
-665.018	-200.000	0.079	0.427
-664.003	-200.000	-0.003	-0.186
-662.989	-168.958	-0.342	0.013
-661.974	-122.490	0.118	-0.019
-660.959	-8.563	-0.140	-0.094
-659.945	10.180	-0.109	0.083
-658.930	800.000	0.037	-0.117
-657.916	-200.000	-0.004	-0.173
-656.901	101.498	-0.009	0.011
-655.886	-157.927	-0.044	-0.003
-654.872	800.000	0.054	0.153
-653.857	156.077	0.060	0.083
-652.843	59.570	0.091	0.090
-651.828	-14.736	0.296	-0.191
-650.814	4.911	-0.170	0.125
-649.799	800.000	0.050	-0.195
-648.784	57.816	-0.292	0.287
-647.770	582.461	0.128	-0.315
-646.755	800.000	0.045	0.155
-645.741	-51.631	0.071	0.033
-644.726	-200.000	0.005	-0.336
-643.711	-62.754	-0.129	-0.054
-642.697	-133.013	-0.236	0.030
-641.682	-200.000	0.009	0.310
-640.668	28.294	-0.159	-0.135
-639.653	-52.248	0.082	0.038
-638.638	210.071	-0.113	-0.178
-637.624	-114.263	0.191	0.037
-636.609	-89.783	0.261	0.077
-635.595	338.425	-0.121	0.237
-634.580	-26.905	0.066	0.039
-633.565	69.926	-0.128	0.132
-632.551	-10.069	-0.267	0.178
-631.536	235.631	-0.118	-0.195
-630.522	-200.000	0.021	-0.242
-629.507	47.073	0.233	0.217
-628.492	-200.000	-0.015	-0.076
-627.478	2.406	0.147	0.107
-626.463	-152.436	-0.240	-0.017
-625.449	-200.000	-0.019	0.318
-624.434	276.858	0.205	0.365
-623.419	-200.000	-0.034	-0.182
-622.405	-46.804	-0.154	-0.076
-621.390	432.709	0.083	-0.180
-620.376	-103.717	0.159	-0.037
-619.361	-51.968	0.216	0.100
-618.346	-156.941	0.182	0.011
-617.332	-166.607	-0.352	-0.015
-616.317	79.001	0.251	-0.270
-615.303	-49.792	-0.254	-0.121
-614.288	298.905	0.156	0.287
-613.273	17.162	-0.169	0.135
-612.259	-200.000	-0.011	0.056
-611.244	503.964	0.024	-0.055
-610.230	8.024	0.036	0.027
-609.215	800.000	0.050	0.188
-608.201	140.491	-0.108	-0.143
-607.186	-97.961	-0.253	0.065
-606.171	-40.483	0.265	0.138
-605.157	-200.000	-0.014	0.110
-604.142	512.013	-0.034	0.079
-603.128	2.992	0.113	0.082
-602.113	-128.147	0.630	-0.090
-601.098	18.584	-0.190	0.152
-600.084	-200.000	0.027	0.181
-599.069	-92.453	0.181	-0.051
-598.055	32.285	0.227	0.196
-597.040	-26.633	-0.282	0.165
-596.025	-4.528	-0.254	-0.175
-595.011	-115.500	0.316	0.059
-593.996	-89.315	0.190	-0.056
-592.982	-130.504	-0.506	0.068
-591.967	121.289	-0.116	-0.144
-590.952	276.205	-0.068	-0.121
-589.938	21.362	0.101	0.082
-588.923	213.680	0.041	-0.065
-587.909	-75.695	-0.210	0.075
-586.894	664.360	0.050	-0.129
-585.879	-200.000	0.114	-0.578
-584.865	199.674	-0.311	-0.478
-583.850	373.458	0.079	-0.160
-582.836	-23.056	-0.299	0.180
-581.821	-5.072	0.197	-0.136
-580.806	-38.642	-0.131	0.069
-579.792	73.792	-0.128	-0.135
-578.777	800.000	-0.053	0.148
-577.763	-123.989	0.230	-0.036
-576.748	-145.104	0.134	0.012
-575.733	73.384	-0.165	0.173
-574.719	46.070	-0.118	0.109
-573.704	144.553	-0.096	0.128
-572.690	800.000	0.005	-0.019
-571.675	-200.000	0.024	-0.450
-570.661	788.529	-0.089	-0.243
-569.646	800.000	0.088	-0.310
-568.631	-39.234	0.073	-0.038
-567.617	107.825	-0.161	-0.192
-566.602	800.000	-0.051	0.188
-565.588	-126.561	-0.225	0.033
-564.573	-186.095	0.402	-0.006
-563.558	-41.929	-0.313	0.161
-562.544	200.106	-0.253	0.388
-561.529	59.677	-0.181	-0.179
-560.515	-181.247	0.170	-0.003
-559.500	14.263	0.087	-0.068
-558.485	-200.000	-0.029	0.224
-557.471	-67.822	0.202	0.079
-556.456	-71.288	-0.419	0.157
-555.442	-79.523	-0.310	-0.105
-554.427	800.000	0.076	0.239
-553.412	100.244	0.171	0.198
-552.398	-52.619	0.202	-0.093
-551.383	-34.547	-0.051	0.028
-550.369	-200.000	0.039	0.393
-549.354	-15.868	0.353	0.224
-548.339	45.488	0.194	-0.179
-547.325	299.765	-0.119	0.220
-546.310	179.587	-0.154	0.226
-545.296	800.000	-0.036	0.102
-544.281	-48.523	-0.467	-0.224
-543.266	81.242	0.161	0.173
-542.252	273.351	-0.181	-0.319
-541.237	-72.994	0.100	-0.037
-540.223	-34.341	0.073	-0.040
-539.208	-123.786	-0.143	0.023
-538.193	658.181	-0.051	0.130
-537.179	-12.963	-0.127	-0.083
-536.164	-8.787	-0.185	0.124
-535.150	390.740	-0.145	0.300
-534.135	-76.340	-0.297	-0.104
-533.121	800.000	-0.029	-0.122
-532.106	-127.015	0.130	-0.019
-531.091	44.599	0.232	0.212
-530.077	-200.000	-0.023	0.174
-529.062	800.000	0.078	0.242
-528.048	-134.227	-0.166	-0.020
-527.033	-200.000	0.027	0.128
-526.018	-60.246	-0.378	0.161
-525.004	-197.574	0.203	0.001
-523.989	800.000	-0.042	0.139
-522.975	800.000	-0.022	0.063
-521.960	-22.318	0.086	0.052
-520.945	800.000	-0.106	-0.458
-519.931	43.907	0.113	0.103
-518.916	-200.000	-0.086	0.447
-517.902	6.875	0.188	-0.140
-516.887	14.745	-0.139	-0.108
-515.872	694.107	-0.076	-0.198
-514.858	-6.318	0.044	-0.030
-513.843	4.371	0.102	0.074
-512.829	-113.514	0.237	0.046
-511.814	37.027	0.205	0.181
-510.799	106.841	0.026	0.031
-509.785	237.746	-0.139	-0.229
-508.770	212.012	-0.321	-0.504
-507.756	-93.716	0.107	-0.029
-506.741	-81.331	0.201	-0.066
-505.726	-169.269	0.083	-0.003
-504.712	-94.030	-0.200	-0.055
-503.697	-156.702	0.225	0.014
-502.683	-90.737	0.115	-0.033
-501.668	-33.950	0.149	0.082
-500.653	-185.675	-0.162	0.002
-499.639	-173.023	-0.035	0.001
-498.624	120.302	0.310	-0.383
-497.610	-133.099	-0.043	-0.005
-496.595	-4.986	-0.202	0.139
-495.581	-125.972	-0.237	-0.036
-494.566	-52.302	0.136	0.063
-493.551	-43.352	0.490	0.247
-492.537	-20.375	-0.121	0.074
-491.522	544.128	-0.059	-0.141
-490.508	-200.000	0.013	0.114
-489.493	129.161	0.039	-0.050
-488.478	-98.051	0.086	0.022
-487.464	30.561	-0.321	-0.273
-486.449	-32.469	0.216	0.120
-485.435	-97.960	0.189	0.049
-484.420	-24.933	-0.131	0.077
-483.405	-200.000	0.041	0.272
-482.391	-29.498	-0.215	0.122
-481.376	-162.287	0.249	0.012
-480.362	238.148	-0.110	0.182
-479.347	-9.293	-0.027	0.018
-478.332	115.548	-0.262	0.320
-477.318	-200.000	0.061	-0.361
-476.303	800.000	-0.137	-0.420
-475.289	800.000	0.041	-0.114
-474.274	-156.445	0.137	0.009
-473.259	800.000	0.102	-0.324
-472.245	435.045	0.052	0.113
-471.230	-61.100	0.188	0.079
-470.216	-200.000	-0.009	0.201
-469.201	-175.012	0.212	-0.006
-468.186	148.394	0.047	0.063
-467.172	264.971	-0.117	0.202
-466.157	-39.870	0.388	-0.202
-465.143	-200.000	-0.026	0.221
-464.128	-121.727	0.226	0.037
-463.113	-196.948	0.145	0.001
-462.099	-87.393	-0.349	0.105
-461.084	-112.327	0.152	-0.030
-460.070	-40.121	0.232	-0.120
-459.055	-91.836	-0.144	-0.041
-458.040	-200.000	-0.026	-0.262
-457.026	-41.717	-0.240	0.123
-456.011	-75.563	-0.421	-0.149
-454.997	-4.700	0.056	-0.038
-453.982	87.186	-0.028	0.030
-452.968	-4.182	0.220	-0.152
-451.953	27.754	0.375	-0.314
-450.938	255.395	0.136	-0.232
-449.924	-7.380	0.089	0.060
-448.909	-200.000	0.008	0.100
-447.895	617.686	0.050	-0.125
-446.880	-200.000	-0.029	-0.324
-445.865	-200.000	-0.032	0.151
-444.851	-200.000	0.040	-0.247
-443.836	-136.458	0.131	-0.015
-442.822	-124.967	-0.276	-0.042
-441.807	-29.142	-0.191	-0.109
-440.792	-150.750	-0.241	-0.018
-439.778	144.738	0.152	-0.202
-438.763	409.781	0.125	-0.264
-437.749	-121.043	-0.078	-0.013
-436.734	-22.280	-0.238	-0.143
-435.719	27.216	-0.135	-0.113
-434.705	800.000	0.062	0.211
-433.690	-160.733	0.266	0.014
-432.676	189.578	0.165	0.246
-431.661	-58.237	0.066	0.028
-430.646	78.157	-0.111	-0.117
-429.632	-160.810	-0.228	-0.012
-428.617	-82.997	-0.093	0.030
-427.603	800.000	-0.034	0.122
-426.588	-37.629	-0.278	0.147
-425.573	46.069	0.092	-0.085
-424.559	574.855	0.069	0.167
-423.544	800.000	0.054	0.160
-422.530	-17.676	0.221	0.138
-421.515	-200.000	-0.003	0.229
-420.500	-138.436	-0.250	-0.027
-419.486	800.000	-0.048	0.145
-418.471	22.819	0.145	-0.118
-417.457	36.981	-0.331	0.291
-416.442	800.000	-0.033	-0.132
-415.428	67.469	-0.195	-0.198
-414.413	-132.912	-0.075	-0.009
-413.398	-87.037	0.513	-0.155
-412.384	-166.168	-0.357	0.015
-411.369	-50.950	-0.140	0.065
-410.355	800.000	-0.063	0.221
-409.340	-200.000	0.042	0.426
-408.325	134.390	-0.197	0.254
-407.311	-190.861	-0.275	0.003
-406.296	800.000	0.016	-0.059
-405.282	-153.110	-0.365	-0.025
-404.267	-4.124	-0.251	0.173
-403.252	-200.000	-0.009	-0.215
-402.238	65.251	-0.109	0.110
-401.223	800.000	0.063	-0.239
-400.209	800.000	0.063	0.180
-399.194	184.361	0.077	-0.113
-398.179	-22.593	0.253	0.152
-397.165	-42.603	-0.085	-0.043
-396.150	-28.316	0.149	0.085
-395.136	-166.471	-0.223	0.009
-394.121	-30.636	0.136	0.076
-393.106	-40.365	-0.148	0.076
-392.092	-20.426	0.159	0.097
-391.077	-139.987	0.169	0.018
-390.063	55.531	0.217	-0.209
-389.048	26.821	0.083	-0.069
-388.033	32.139	0.223	0.191
-387.019	148.193	-0.078	-0.105
-386.004	-200.000	-0.033	-0.156
-384.990	138.834	0.098	0.128
-383.975	96.695	0.086	0.098
-382.960	800.000	-0.066	0.190
-381.946	410.727	-0.064	-0.135
-380.931	-9.296	0.109	0.072
-379.917	-32.574	-0.208	0.115
-378.902	472.749	0.071	-0.158
-377.888	-200.000	0.028	0.131
-376.873	-200.000	-0.003	-0.179
-375.858	32.946	0.253	-0.218
-374.844	-66.311	0.137	-0.054
-373.829	-118.733	-0.346	0.060
-372.815	-200.000	-0.036	0.235
-371.800	-48.290	0.213	-0.102
-370.785	800.000	0.043	-0.165
-369.771	-85.032	0.381	-0.119
-368.756	103.268	-0.086	-0.100
-367.742	573.132	-0.072	-0.175
-366.727	800.000	0.073	0.233
-365.712	121.816	0.146	0.181
-364.698	-200.000	-0.016	-0.191
-363.683	-47.083	-0.064	-0.031
-362.669	67.906	0.194	-0.197
-361.654	-70.947	-0.097	-0.036
-360.639	-200.000	0.002	0.334
-359.625	-114.167	0.280	-0.054
-358.610	-200.000	-0.009	-0.107
-357.596	-60.739	0.240	-0.101
-356.581	-200.000	-0.010	-0.107
-355.566	25.980	0.168	0.139
-354.552	-98.630	0.219	-0.055
-353.537	800.000	-0.038	-0.163
-352.523	-142.050	-0.222	0.022
-351.508	-140.745	-0.214	0.022
-350.493	800.000	-0.071	0.196
-349.479	-200.000	0.023	-0.312
-348.464	800.000	-0.111	0.384
-347.450	-117.894	0.250	0.044
-346.435	-200.000	0.012	0.064
-345.420	357.654	-0.116	-0.229
-344.406	108.927	-0.131	0.156
-343.391	-24.831	-0.221	-0.130
-342.377	671.940	-0.051	-0.132
-341.362	454.527	-0.170	0.372
-340.348	-144.150	0.262	0.024
-339.333	-173.684	-0.157	0.005
-338.318	219.757	0.065	-0.103
-337.304	800.000	-0.074	-0.220
-336.289	-200.000	-0.011	-0.305
-335.275	269.473	-0.139	0.242
-334.260	-52.640	0.232	0.106
-333.245	43.157	0.098	0.089
-332.231	66.160	-0.189	-0.190
-331.216	-20.203	-0.130	-0.079
-330.202	229.757	0.058	0.094
-329.187	-41.269	-0.087	0.045
-328.172	-200.000	-0.027	0.265
-327.158	-200.000	-0.011	0.109
-326.143	-79.056	-0.146	0.049
-325.129	-45.287	-0.219	-0.107
-324.114	-110.257	-0.149	-0.031
-323.099	800.000	0.065	-0.270
-322.085	-102.395	-0.205	-0.049
-321.070	-103.686	0.213	-0.049
-320.056	-105.137	-0.241	-0.055
-319.041	253.989	0.124	-0.210
-318.026	78.701	-0.194	0.206
-317.012	-77.406	0.068	0.023
-315.997	268.360	0.089	-0.154
-314.983	352.563	-0.074	-0.145
-313.968	-118.437	0.049	-0.009
-312.953	274.287	0.017	-0.029
-311.939	-200.000	0.085	-0.511
-310.924	-200.000	0.047	0.239
-309.910	800.000	0.051	-0.198
-308.895	241.254	-0.098	-0.162
-307.880	-200.000	0.026	0.343
-306.866	-200.000	-0.029	0.238
-305.851	201.609	-0.166	0.254
-304.837	-77.566	-0.227	0.078
-303.822	628.760	0.045	-0.112
-302.807	413.723	-0.166	0.348
-301.793	-76.857	-0.129	-0.045
-300.778	15.551	0.261	0.203
-299.764	800.000	-0.034	0.097
-298.749	33.113	0.247	-0.212
-297.735	-130.579	-0.297	-0.040
-296.720	-90.740	-0.054	-0.015
-295.705	88.282	0.128	-0.141
-294.691	-123.141	0.374	-0.059
-293.676	213.042	0.177	0.276
-292.662	131.283	0.168	0.213
-291.647	486.199	-0.164	0.369
-290.632	-144.911	0.472	-0.043
-289.618	800.000	0.058	-0.211
-288.603	87.092	-0.196	-0.214
-287.589	723.619	-0.112	0.296
-286.574	322.382	-0.169	0.318
-285.559	-102.954	0.308	0.072
-284.545	-200.000	0.009	-0.370
-283.530	107.562	-0.318	-0.374
-282.516	-26.387	0.160	-0.093
-281.501	41.273	0.198	0.177
-280.486	800.000	-0.069	0.250
-279.472	309.098	-0.148	0.274
-278.457	132.022	-0.078	-0.099
-277.443	90.024	0.153	-0.169
-276.428	-200.000	0.040	0.442
-275.413	-18.197	0.189	-0.117
-274.399	275.356	-0.065	-0.113
-273.384	-200.000	0.039	-0.205
-272.370	-53.738	0.235	0.106
-271.355	427.225	0.144	0.308
-270.340	-55.186	-0.230	0.102
-269.326	-152.808	0.058	0.004
-268.311	-26.598	-0.071	-0.041
-267.297	-7.383	-0.180	0.120
-266.282	139.999	0.119	0.155
-265.267	0.519	-0.183	0.129
-264.253	-22.847	0.180	-0.107
-263.238	157.527	0.148	-0.203
-262.224	543.885	-0.100	-0.235
-261.209	-195.638	0.302	-0.002
-260.195	121.857	-0.102	0.125
-259.180	800.000	-0.058	0.177
-258.165	-113.418	0.098	0.019
-257.151	-116.004	0.219	0.040
-256.136	-185.130	-0.218	-0.003
-255.122	17.171	0.246	0.192
-254.107	-105.910	0.070	0.015
-253.092	73.687	-0.270	-0.279
-252.078	37.519	0.130	-0.114
-251.063	7.495	-0.314	-0.232
-250.049	43.682	-0.112	-0.101
-249.034	-200.000	-0.029	-0.222
-248.019	-200.000	0.097	-0.435
-247.005	189.866	0.126	-0.187
-245.990	-134.246	0.107	-0.013
-244.976	241.635	0.029	-0.048
-243.961	84.095	0.221	0.239
-242.946	-144.635	0.038	-0.004
-241.932	29.207	0.129	0.108
-240.917	-200.000	-0.004	-0.272
-239.903	800.000	0.062	-0.263
-238.888	800.000	0.103	-0.415
-237.873	-94.944	0.381	0.102
-236.859	17.510	0.138	-0.108
-235.844	-50.737	0.188	-0.087
-234.830	718.722	-0.058	0.152
-233.815	-32.642	0.149	-0.082
-232.800	-144.073	-0.142	0.013
-231.786	-155.595	0.116	-0.007
-230.771	-80.307	0.193	0.064
-229.757	-136.233	0.319	0.037
-228.742	335.675	0.128	0.245
-227.727	-59.564	-0.265	0.112
-226.713	686.729	0.047	0.121
-225.698	280.113	-0.187	-0.330
-224.684	138.230	-0.114	0.148
-223.669	-60.917	0.251	0.105
-222.655	90.680	0.081	-0.090
-221.640	-156.076	0.206	0.013
-220.625	-81.417	-0.150	-0.049
-219.611	-37.653	-0.156	-0.082
-218.596	417.651	-0.046	-0.097
-217.582	86.681	-0.121	-0.131
-216.567	-40.022	-0.300	0.154
-215.552	-200.000	0.006	0.089
-214.538	48.088	-0.196	-0.180
-213.523	-25.680	0.173	0.101
-212.509	29.614	-0.126	0.106
-211.494	11.786	-0.120	0.091
-210.479	38.560	-0.021	0.019
-209.465	-88.952	-0.201	0.059
-208.450	80.996	0.059	0.063
-207.436	-45.458	-0.244	-0.119
-206.421	131.754	-0.063	-0.080
-205.406	-200.000	-0.024	-0.176
-204.392	-85.124	-0.067	0.021
-203.377	-200.000	0.016	-0.337
-202.363	-200.000	-0.020	0.150
-201.348	215.713	0.019	-0.029
-200.333	-48.505	0.304	-0.144
-199.319	-19.694	-0.330	-0.201
-198.304	521.810	0.068	-0.156
-197.290	-100.563	0.031	0.007
-196.275	-200.000	0.057	0.295
-195.260	188.584	0.119	0.176
-194.246	800.000	-0.038	0.142
-193.231	328.984	-0.103	-0.194
-192.217	-200.000	-0.003	-0.021
-191.202	22.302	0.035	-0.028
-190.187	96.854	-0.162	-0.183
-189.173	-94.513	-0.218	-0.058
-188.158	557.239	-0.181	-0.429
-187.144	11.667	-0.331	0.250
-186.129	15.286	0.102	0.078
-185.114	25.047	-0.155	-0.127
-184.100	-200.000	0.012	0.101
-183.085	17.094	0.048	-0.038
-182.071	348.049	-0.053	0.103
-181.056	191.267	-0.113	-0.168
-180.042	-62.669	0.227	-0.093
-179.027	-54.756	0.149	-0.066
-178.012	-200.000	-0.051	-0.361
-176.998	-34.649	0.281	-0.151
-175.983	275.138	0.091	-0.159
-174.969	-41.908	0.161	-0.081
-173.954	-200.000	0.021	0.111
-172.939	800.000	0.115	0.339
-171.925	34.303	0.461	0.395
-170.910	-200.000	-0.052	-0.351
-169.896	-200.000	-0.021	0.250
-168.881	-115.137	-0.159	-0.030
-167.866	-111.673	-0.247	0.049
-166.852	112.732	0.117	-0.139
-165.837	-200.000	0.017	-0.093
-164.823	-200.000	0.022	-0.165
-163.808	623.586	0.032	0.079
-162.793	160.397	-0.099	-0.135
-161.779	-56.026	-0.033	-0.015
-160.764	-159.601	0.447	0.024
-159.750	-90.418	0.309	0.088
-158.735	-67.218	-0.328	0.127
-157.720	800.000	0.225	0.676
-156.706	-36.393	-0.184	-0.097
-155.691	-114.721	-0.200	-0.038
-154.677	64.485	0.174	0.172
-153.662	247.672	-0.045	-0.075
-152.647	-16.375	-0.214	0.133
-151.633	30.396	-0.209	-0.176
-150.618	-200.000	0.000	-0.027
-149.604	-59.092	-0.269	0.114
-148.589	-184.987	-0.319	0.005
-147.574	96.703	0.148	0.167
-146.560	-35.232	-0.253	-0.136
-145.545	77.257	0.162	-0.169
-144.531	178.624	0.157	-0.225
-143.516	265.037	0.345	0.591
-142.502	-200.000	-0.011	-0.212
-141.487	219.970	0.147	0.231
-140.472	311.956	-0.087	-0.160
-139.458	800.000	-0.056	-0.159
-138.443	-200.000	0.066	-0.424
-137.429	-74.801	0.010	0.004
-136.414	138.408	-0.203	0.262
-135.399	-91.948	0.353	0.098
-134.385	408.199	0.055	0.113
-133.370	16.771	0.330	0.257
-132.356	353.141	-0.120	-0.235
-131.341	-126.622	0.196	0.029
-130.326	-5.028	-0.245	0.165
-129.312	51.944	-0.173	-0.162
-128.297	800.000	-0.050	0.179
-127.283	-170.741	0.269	0.009
-126.268	11.949	-0.018	0.013
-125.253	-187.786	-0.155	0.002
-124.239	-200.000	0.002	0.084
-123.224	-148.449	-0.242	0.020
-122.210	-5.089	-0.332	0.224
-121.195	-78.510	0.205	0.069
