DTS Sentinel unit serial number:	SN413079Multiplexer serial number:	ORYXHardware model number:	OX4-SRSoftware version number:	ORYX F/W v4.00 Oryx Data Collector v3.7.2.0data status	okinstallation	princeton_trtdifferential loss correction	single-endedforward channel	channel 1reverse channel	N/Adate	2019/09/11time	12:32:11forward acquisition time	60.00reverse acquisition time	0.00gamma	496.2192k internal	0.2294k external	0.2294temperature offset calibration	0.9946default loss term (dB/km)	0.3790temperature slope calibration	1.0000multiplexer offset coefficient	1.0000multiplexer slope coefficient	1.0000fibre end	0.00T internal ref (°C)	40.56T ext. ref 1 (°C)	0.21T ext. ref 2 (°C)	37.91length (m)	temperature (°C)	Stokes	anti-Stokes-747.200	292.655	0.126	0.235
-746.185	564.905	0.097	0.241
-745.171	800.000	0.115	0.396
-744.156	125.616	-0.126	0.163
-743.142	32.872	0.108	-0.096
-742.127	-142.461	-0.297	0.030
-741.112	-21.678	0.150	-0.093
-740.098	800.000	0.059	0.166
-739.083	10.663	0.192	0.149
-738.069	255.888	0.101	0.177
-737.054	-45.798	0.134	0.068
-736.039	291.647	-0.041	0.077
-735.025	-149.350	-0.132	-0.011
-734.010	213.325	0.125	-0.201
-732.996	580.446	0.048	-0.120
-731.981	800.000	-0.060	-0.211
-730.966	517.205	-0.157	0.375
-729.952	389.303	0.062	0.131
-728.937	-200.000	0.001	0.023
-727.923	-90.108	-0.124	0.037
-726.908	-11.056	-0.302	0.204
-725.894	-57.329	-0.101	0.045
-724.879	71.023	-0.195	-0.206
-723.864	51.834	-0.071	0.069
-722.850	633.024	-0.075	-0.195
-721.835	163.346	0.086	0.124
-720.821	-15.803	-0.414	0.270
-719.806	-200.000	0.011	-0.223
-718.791	-200.000	0.020	-0.148
-717.777	298.614	-0.118	-0.221
-716.762	-79.924	0.449	-0.154
-715.748	297.196	0.137	-0.256
-714.733	179.417	-0.187	-0.279
-713.718	124.689	0.151	-0.195
-712.704	-0.759	0.080	0.058
-711.689	-39.101	-0.123	-0.066
-710.675	-200.000	0.001	-0.286
-709.660	35.605	-0.196	-0.176
-708.645	800.000	0.054	0.223
-707.631	16.056	0.090	0.072
-706.616	-126.153	-0.089	-0.014
-705.602	-42.949	-0.180	0.093
-704.587	800.000	-0.060	-0.238
-703.572	-46.678	0.320	0.160
-702.558	-158.366	0.264	-0.016
-701.543	212.174	0.034	0.055
-700.529	-200.000	-0.016	-0.196
-699.514	-136.062	0.172	-0.021
-698.499	359.894	-0.067	-0.137
-697.485	-139.275	-0.310	0.034
-696.470	9.051	-0.157	0.121
-695.456	-81.686	-0.145	0.048
-694.441	-84.438	0.257	-0.083
-693.426	25.333	-0.144	-0.122
-692.412	-81.200	0.127	-0.043
-691.397	69.076	0.091	0.096
-690.383	-160.475	-0.322	0.018
-689.368	-10.727	-0.200	0.135
-688.354	-190.701	0.157	-0.002
-687.339	425.070	-0.050	0.110
-686.324	-44.720	0.274	0.139
-685.310	-28.980	-0.185	0.109
-684.295	107.607	-0.186	-0.226
-683.281	140.111	0.166	-0.223
-682.266	256.974	0.076	-0.134
-681.251	-73.471	0.197	-0.073
-680.237	-200.000	-0.010	0.130
-679.222	-101.255	-0.225	0.056
-678.208	-31.080	0.097	0.056
-677.193	800.000	-0.062	-0.243
-676.178	-200.000	-0.047	0.220
-675.164	-200.000	0.010	-0.215
-674.149	213.644	0.134	-0.217
-673.135	-63.652	0.111	0.047
-672.120	120.849	0.086	0.109
-671.105	-156.973	0.113	-0.007
-670.091	12.847	0.273	0.215
-669.076	-200.000	0.344	0.002
-668.062	327.847	-0.125	0.245
-667.047	-55.880	-0.224	-0.102
-666.032	346.885	-0.096	-0.192
-665.018	379.379	-0.103	0.215
-664.003	-109.811	-0.087	0.019
-662.989	-108.586	-0.048	0.010
-661.974	219.310	0.137	0.223
-660.959	20.208	-0.268	-0.221
-659.945	-37.167	-0.225	0.123
-658.930	240.195	0.108	-0.184
-657.916	29.866	0.166	-0.144
-656.901	293.147	-0.114	-0.211
-655.886	-78.293	-0.283	-0.099
-654.872	-156.308	0.405	0.026
-653.857	141.438	0.051	0.069
-652.843	-200.000	-0.029	-0.190
-651.828	-119.708	0.249	-0.044
-650.814	-200.000	0.013	-0.207
-649.799	-131.449	0.338	0.045
-648.784	-200.000	0.029	0.197
-647.770	198.934	0.106	0.166
-646.755	800.000	0.061	0.254
-645.741	40.272	-0.204	-0.187
-644.726	471.068	-0.128	-0.293
-643.711	690.778	-0.027	-0.073
-642.697	-184.182	0.392	-0.007
-641.682	-19.379	-0.202	0.128
-640.668	-21.036	-0.269	0.168
-639.653	-42.878	-0.159	0.082
-638.638	-200.000	-0.005	0.139
-637.624	-94.178	0.248	-0.069
-636.609	-103.440	-0.119	0.028
-635.595	13.204	0.226	0.178
-634.580	-90.569	0.099	-0.029
-633.565	-172.416	-0.268	0.009
-632.551	-200.000	-0.015	-0.070
-631.536	800.000	0.079	0.247
-630.522	365.922	0.085	-0.175
-629.507	411.195	-0.098	-0.213
-628.492	-103.038	-0.217	0.052
-627.478	179.789	0.064	-0.096
-626.463	-200.000	0.002	0.080
-625.449	-93.837	-0.330	-0.093
-624.434	-200.000	0.037	0.224
-623.419	-200.000	0.022	-0.116
-622.405	29.284	-0.129	-0.112
-621.390	115.542	-0.264	0.329
-620.376	800.000	-0.040	0.156
-619.361	-154.654	0.130	0.009
-618.346	-69.365	0.245	-0.096
-617.332	-95.704	0.066	0.018
-616.317	200.662	-0.099	-0.155
-615.303	800.000	0.035	0.138
-614.288	67.523	-0.274	0.285
-613.273	-75.658	0.275	0.099
-612.259	-200.000	0.027	-0.204
-611.244	-200.000	-0.360	-0.001
-610.230	-200.000	-0.027	-0.326
-609.215	417.761	0.026	0.055
-608.201	-45.924	-0.215	-0.108
-607.186	12.718	-0.142	0.111
-606.171	14.756	0.242	0.192
-605.157	-23.577	-0.145	0.089
-604.142	126.394	-0.149	-0.192
-603.128	-86.552	-0.198	-0.062
-602.113	23.194	0.400	0.334
-601.098	-37.746	0.038	0.021
-600.084	300.992	-0.078	-0.147
-599.069	-61.693	-0.149	-0.064
-598.055	210.236	0.074	-0.119
-597.040	-123.533	-0.421	-0.068
-596.025	95.340	-0.147	0.170
-595.011	-31.054	0.278	0.160
-593.996	-43.376	-0.157	-0.081
-592.982	91.249	-0.179	0.204
-591.967	800.000	-0.048	-0.210
-590.952	800.000	0.063	0.206
-589.938	-102.230	0.046	-0.011
-588.923	343.063	-0.154	-0.307
-587.909	-146.342	0.178	0.016
-586.894	33.002	0.050	0.044
-585.879	800.000	0.102	-0.375
-584.865	-46.977	0.120	0.059
-583.850	-200.000	-0.016	0.121
-582.836	144.274	-0.112	0.152
-581.821	78.615	-0.287	-0.312
-580.806	163.047	0.132	0.189
-579.792	-200.000	-0.018	0.130
-578.777	223.332	-0.073	-0.119
-577.763	45.643	-0.211	-0.198
-576.748	3.021	0.096	0.071
-575.733	-1.346	0.113	0.081
-574.719	-200.000	0.081	-0.367
-573.704	800.000	-0.093	0.276
-572.690	-85.766	-0.302	-0.095
-571.675	800.000	0.078	0.309
-570.661	-200.000	-0.021	0.279
-569.646	651.034	0.128	0.332
-568.631	62.451	0.079	-0.080
-567.617	-143.902	0.111	0.011
-566.602	-200.000	-0.001	-0.145
-565.588	256.506	0.233	0.407
-564.573	11.960	0.373	0.291
-563.558	-200.000	0.021	-0.131
-562.544	645.579	-0.071	-0.184
-561.529	-6.633	-0.114	-0.078
-560.515	1.614	-0.151	0.110
-559.500	-180.746	0.355	-0.007
-558.485	111.642	0.162	0.199
-557.471	381.601	-0.097	0.202
-556.456	800.000	0.016	-0.066
-555.442	580.094	-0.044	-0.109
-554.427	-200.000	0.059	-0.291
-553.412	66.434	-0.193	-0.199
-552.398	179.266	0.107	0.159
-551.383	-126.161	-0.440	-0.067
-550.369	-200.000	-0.026	-0.360
-549.354	-85.539	-0.128	0.040
-548.339	-44.619	0.182	-0.092
-547.325	-200.000	-0.012	-0.478
-546.310	-200.000	0.003	-0.110
-545.296	206.961	-0.110	-0.174
-544.281	387.785	0.063	0.132
-543.266	-83.086	-0.118	-0.039
-542.252	-200.000	0.002	-0.135
-541.237	-36.540	-0.142	-0.077
-540.223	-200.000	-0.068	-0.617
-539.208	-200.000	0.020	-0.143
-538.193	-9.626	-0.287	0.194
-537.179	-69.246	0.173	-0.067
-536.164	-67.226	-0.363	0.145
-535.150	-120.832	0.155	-0.027
-534.135	170.413	0.135	-0.196
-533.121	-200.000	-0.038	-0.196
-532.106	272.039	0.107	0.192
-531.091	-1.859	0.267	-0.190
-530.077	120.326	-0.163	-0.205
-529.062	-46.186	0.201	0.100
-528.048	381.477	-0.058	-0.121
-527.033	-200.000	0.023	-0.224
-526.018	-144.676	-0.112	-0.010
-525.004	-200.000	-0.047	0.322
-523.989	78.901	0.115	-0.124
-522.975	-98.904	-0.161	-0.041
-521.960	205.486	-0.143	-0.225
-520.945	290.985	0.231	0.426
-519.931	326.875	0.060	0.116
-518.916	-200.000	0.013	-0.313
-517.902	800.000	0.079	-0.311
-516.887	-68.663	0.190	0.075
-515.872	54.393	0.369	-0.360
-514.858	-200.000	0.011	0.077
-513.843	181.821	0.134	0.201
-512.829	-200.000	0.008	-0.322
-511.814	397.732	-0.059	-0.125
-510.799	34.646	0.213	0.188
-509.785	391.209	0.046	-0.096
-508.770	-31.315	0.075	-0.043
-507.756	267.484	-0.152	0.269
-506.741	81.942	-0.122	-0.134
-505.726	114.680	-0.178	0.220
-504.712	328.129	0.071	0.137
-503.697	69.623	-0.307	0.321
-502.683	-70.371	0.403	0.155
-501.668	-200.000	-0.009	0.247
-500.653	323.865	0.109	0.211
-499.639	-8.260	0.137	-0.094
-498.624	-80.868	0.207	-0.070
-497.610	-0.532	0.150	-0.108
-496.595	-82.926	-0.203	-0.066
-495.581	74.167	-0.184	-0.196
-494.566	-34.620	-0.260	-0.144
-493.551	800.000	-0.054	-0.198
-492.537	71.031	-0.015	-0.016
-491.522	-200.000	-0.026	-0.193
-490.508	58.419	0.040	-0.039
-489.493	-130.255	-0.130	0.018
-488.478	86.655	0.083	0.092
-487.464	26.647	0.085	0.072
-486.449	41.587	0.322	-0.295
-485.435	800.000	-0.068	-0.284
-484.420	111.081	0.148	-0.181
-483.405	-3.521	-0.213	-0.150
-482.391	8.049	-0.013	-0.010
-481.376	54.389	-0.110	-0.107
-480.362	37.421	-0.062	-0.056
-479.347	-170.242	0.031	0.001
-478.332	-200.000	-0.071	0.360
-477.318	-177.282	0.033	-0.001
-476.303	-10.519	-0.097	0.065
-475.289	-200.000	0.029	0.153
-474.274	-200.000	0.026	0.179
-473.259	27.905	0.264	0.225
-472.245	-59.860	-0.238	-0.103
-471.230	18.752	-0.351	0.284
-470.216	-126.783	0.070	-0.010
-469.201	-136.503	-0.149	-0.017
-468.186	55.658	-0.269	0.264
-467.172	800.000	-0.046	0.146
-466.157	-129.404	-0.127	-0.018
-465.143	69.361	0.307	0.320
-464.128	36.514	-0.213	0.190
-463.113	96.985	-0.036	0.041
-462.099	-200.000	0.016	-0.080
-461.084	-98.243	-0.280	-0.073
-460.070	744.346	0.072	0.195
-459.055	-59.547	0.172	0.075
-458.040	-42.732	0.086	0.044
-457.026	-51.091	0.236	-0.112
-456.011	-150.426	-0.186	-0.014
-454.997	57.885	-0.222	0.219
-453.982	24.912	-0.247	0.207
-452.968	800.000	0.057	0.222
-451.953	341.430	-0.109	0.215
-450.938	-155.339	-0.474	-0.031
-449.924	125.133	-0.042	0.054
-448.909	70.429	0.081	-0.085
-447.895	64.783	0.083	-0.085
-446.880	101.143	0.126	-0.148
-445.865	-200.000	0.003	0.120
-444.851	-157.215	0.246	0.015
-443.836	-148.211	-0.136	-0.011
-442.822	748.425	0.106	-0.289
-441.807	-74.814	-0.137	0.050
-440.792	76.880	0.105	-0.113
-439.778	-5.096	-0.246	-0.171
-438.763	35.724	0.103	-0.091
-437.749	-200.000	0.044	0.240
-436.734	-200.000	0.027	-0.236
-435.719	-108.720	-0.119	-0.026
-434.705	-200.000	-0.016	-0.224
-433.690	-198.532	-0.144	-0.001
-432.676	226.691	-0.090	0.148
-431.661	41.626	0.131	-0.119
-430.646	232.551	-0.235	-0.391
-429.632	243.567	-0.203	-0.344
-428.617	800.000	-0.044	0.147
-427.603	18.404	-0.144	-0.116
-426.588	-90.452	-0.129	0.038
-425.573	-180.525	0.097	-0.002
-424.559	-200.000	-0.012	0.067
-423.544	28.363	-0.242	-0.207
-422.530	-72.620	-0.080	0.030
-421.515	-72.736	0.227	-0.084
-420.500	-93.019	0.247	-0.069
-419.486	-36.742	-0.118	-0.064
-418.471	-200.000	-0.035	-0.303
-417.457	261.583	-0.287	-0.502
-416.442	800.000	0.066	0.225
-415.428	-88.862	0.048	0.014
-414.413	-3.226	0.061	0.043
-413.398	190.469	-0.111	0.169
-412.384	-8.602	-0.224	-0.152
-411.369	-113.017	0.484	-0.097
-410.355	-200.000	0.040	0.422
-409.340	-16.636	-0.113	0.072
-408.325	800.000	0.032	-0.105
-407.311	800.000	-0.079	-0.282
-406.296	-31.886	0.225	-0.127
-405.282	522.927	0.057	0.135
-404.267	148.064	-0.140	0.190
-403.252	800.000	-0.023	-0.085
-402.238	-97.369	-0.256	0.067
-401.223	-142.682	0.207	0.020
-400.209	-79.060	0.076	-0.026
-399.194	-143.462	0.338	-0.033
-398.179	-200.000	-0.058	0.261
-397.165	-44.840	-0.307	0.155
-396.150	-129.046	0.148	-0.021
-395.136	800.000	-0.077	0.244
-394.121	172.514	-0.143	-0.208
-393.106	-39.720	0.188	0.099
-392.092	371.102	0.106	0.218
-391.077	-58.231	0.132	0.058
-390.063	378.969	-0.106	0.219
-389.048	-98.108	-0.028	0.007
-388.033	800.000	-0.055	0.228
-387.019	206.850	0.154	0.241
-386.004	592.911	0.112	-0.280
-384.990	76.537	-0.096	0.103
-383.975	340.290	0.124	0.244
-382.960	112.422	0.087	0.106
-381.946	-143.218	0.122	0.012
-380.931	37.841	0.252	-0.226
-379.917	43.208	-0.204	-0.188
-378.902	-200.000	-0.004	-0.267
-377.888	-200.000	0.071	0.319
-376.873	85.375	0.072	0.080
-375.858	244.675	-0.078	-0.131
-374.844	-138.068	-0.216	0.024
-373.829	50.741	-0.268	-0.256
-372.815	-7.220	-0.074	0.051
-371.800	-78.341	0.266	-0.092
-370.785	60.270	0.044	0.044
-369.771	-200.000	0.019	-0.118
-368.756	-125.889	-0.132	0.020
-367.742	779.395	0.018	-0.050
-366.727	800.000	0.052	0.209
-365.712	800.000	-0.070	0.227
-364.698	93.076	-0.162	-0.185
-363.683	-112.859	0.145	0.029
-362.669	-133.395	-0.182	0.023
-361.654	-78.377	-0.042	-0.015
-360.639	-53.776	-0.075	0.035
-359.625	800.000	-0.042	-0.185
-358.610	-99.384	-0.165	0.042
-357.596	275.476	-0.023	-0.042
-356.581	-3.335	0.146	0.102
-355.566	310.627	0.097	0.183
-354.552	8.361	0.110	-0.083
-353.537	625.574	-0.129	0.327
-352.523	-102.122	0.138	-0.033
-351.508	21.656	0.097	-0.079
-350.493	-193.524	-0.095	-0.001
-349.479	9.472	0.473	0.360
-348.464	-101.336	-0.080	-0.020
-347.450	57.033	0.131	-0.129
-346.435	70.028	0.377	0.392
-345.420	31.638	0.051	0.044
-344.406	-64.558	0.114	0.047
-343.391	-113.191	0.162	0.032
-342.377	48.270	0.155	-0.146
-341.362	800.000	0.094	0.324
-340.348	-44.083	0.143	0.072
-339.333	169.350	-0.162	0.233
-338.318	355.308	0.111	0.222
-337.304	106.965	0.086	-0.102
-336.289	10.452	0.039	-0.030
-335.275	141.245	-0.137	-0.183
-334.260	-108.251	0.342	0.074
-333.245	-200.000	0.044	-0.243
-332.231	115.545	0.005	-0.006
-331.216	582.950	0.054	0.133
-330.202	-9.092	0.218	-0.147
-329.187	-200.000	-0.014	-0.093
-328.172	-88.251	-0.151	0.045
-327.158	-200.000	-0.068	0.385
-326.143	-132.347	-0.176	0.023
-325.129	-154.663	0.367	0.025
-324.114	-200.000	-0.002	0.239
-323.099	-67.209	0.272	0.108
-322.085	29.451	0.153	-0.131
-321.070	-200.000	-0.045	0.318
-320.056	-200.000	-0.182	-0.001
-319.041	-17.892	0.064	0.040
-318.026	7.018	0.171	0.128
-317.012	-109.158	0.176	-0.038
-315.997	-35.691	0.174	-0.095
-314.983	354.119	0.129	-0.259
-313.968	800.000	0.038	0.110
-312.953	-200.000	-0.004	0.115
-311.939	25.896	-0.031	-0.026
-310.924	-200.000	-0.006	-0.146
-309.910	73.995	0.193	0.203
-308.895	-69.767	0.143	-0.055
-307.880	-26.016	0.308	0.182
-306.866	-108.759	-0.232	0.050
-305.851	-110.344	-0.093	-0.019
-304.837	305.048	-0.190	0.354
-303.822	-103.520	-0.043	0.010
-302.807	130.886	0.119	0.153
-301.793	600.001	-0.157	0.392
-300.778	-58.260	0.446	-0.195
-299.764	-200.000	-0.052	-0.235
-298.749	-47.431	0.104	-0.051
-297.735	326.078	-0.048	-0.092
-296.720	-108.655	-0.199	0.043
-295.705	800.000	0.157	-0.687
-294.691	-200.000	0.078	-0.401
-293.676	189.208	0.044	-0.066
-292.662	-200.000	0.014	-0.114
-291.647	-200.000	-0.009	0.112
-290.632	167.224	0.122	0.174
-289.618	-8.465	-0.250	0.169
-288.603	524.577	0.009	-0.022
-287.589	800.000	-0.021	0.065
-286.574	441.884	0.135	-0.297
-285.559	-80.440	0.405	0.136
-284.545	-57.854	-0.163	-0.072
-283.530	-80.971	-0.116	0.039
-282.516	-84.757	0.208	-0.066
-281.501	69.964	-0.164	-0.170
-280.486	-179.239	-0.329	-0.007
-279.472	-121.901	0.438	-0.073
-278.457	245.781	-0.042	0.071
-277.443	-29.741	0.082	-0.047
-276.428	462.295	-0.179	0.401
-275.413	-26.993	-0.250	0.146
-274.399	800.000	0.068	0.252
-273.384	-66.383	0.161	-0.064
-272.370	55.402	0.272	-0.264
-271.355	-114.822	0.107	-0.020
-270.340	-200.000	0.026	-0.283
-269.326	-200.000	0.013	-0.276
-268.311	-1.042	-0.120	-0.085
-267.297	359.617	-0.124	-0.249
-266.282	171.304	-0.093	0.134
-265.267	-200.000	-0.006	-0.133
-264.253	360.004	0.177	-0.355
-263.238	-48.476	0.102	-0.049
-262.224	800.000	0.036	-0.123
-261.209	515.241	0.016	-0.038
-260.195	110.419	-0.229	-0.276
-259.180	-150.895	-0.273	0.021
-258.165	-88.779	-0.173	-0.052
-257.151	494.623	0.040	0.092
-256.136	116.182	0.129	-0.158
-255.122	87.247	0.015	0.017
-254.107	18.540	0.148	-0.119
-253.092	-170.297	-0.276	-0.010
-252.078	-142.412	-0.289	-0.029
-251.063	-155.729	-0.219	-0.014
-250.049	-146.529	0.288	-0.025
-249.034	-200.000	-0.005	0.071
-248.019	-24.576	0.371	0.222
-247.005	-190.387	-0.101	0.001
-245.990	-200.000	-0.005	-0.149
-244.976	104.827	-0.027	-0.032
-243.961	330.812	0.031	-0.060
-242.946	-60.307	-0.162	0.069
-241.932	-0.014	-0.054	0.039
-240.917	68.951	0.021	-0.021
-239.903	4.445	-0.240	0.177
-238.888	15.714	-0.194	0.153
-237.873	343.839	0.151	-0.297
-236.859	-54.739	-0.302	0.137
-235.844	-180.706	-0.257	-0.005
-234.830	-77.009	0.180	-0.063
-233.815	-200.000	-0.049	-0.384
-232.800	-129.575	0.234	-0.032
-231.786	78.667	-0.104	-0.112
-230.771	-56.510	-0.159	0.071
-229.757	-200.000	0.027	0.310
-228.742	191.161	-0.109	0.164
-227.727	-129.113	-0.234	-0.033
-226.713	800.000	0.054	-0.178
-225.698	218.893	-0.118	0.189
-224.684	-200.000	0.030	-0.136
-223.669	-156.575	0.183	-0.011
-222.655	224.792	-0.084	-0.137
-221.640	523.704	0.131	-0.308
-220.625	-33.749	-0.070	0.039
-219.611	-143.081	0.145	0.014
-218.596	800.000	-0.105	-0.310
-217.582	-200.000	-0.027	-0.123
-216.567	-71.609	-0.352	0.132
-215.552	-121.380	0.241	0.040
-214.538	-5.165	0.288	0.199
-213.523	-143.704	0.173	-0.016
-212.509	155.859	0.111	-0.153
-211.494	-101.352	-0.202	0.049
-210.479	157.403	0.178	0.246
-209.465	-200.000	-0.016	0.347
-208.450	-200.000	-0.053	0.325
-207.436	-77.879	-0.235	-0.081
-206.421	112.003	0.402	0.486
-205.406	-172.736	-0.116	-0.004
-204.392	-200.000	-0.017	-0.365
-203.377	-200.000	0.037	-0.278
-202.363	800.000	-0.068	-0.218
-201.348	800.000	-0.078	0.300
-200.333	-200.000	0.018	-0.344
-199.319	800.000	-0.084	0.254
-198.304	-29.419	-0.113	-0.065
-197.290	-116.350	-0.268	-0.050
-196.275	16.625	0.242	0.192
-195.260	-145.501	-0.103	0.009
-194.246	379.205	-0.210	0.431
-193.231	-200.000	0.025	0.143
-192.217	71.460	-0.118	-0.122
-191.202	-200.000	-0.014	-0.075
-190.187	-200.000	0.002	-0.055
-189.173	-34.571	0.274	-0.150
-188.158	-41.022	-0.207	-0.107
-187.144	-157.939	0.054	0.003
-186.129	800.000	0.199	0.599
-185.114	-61.958	0.259	0.108
-184.100	550.786	0.094	0.225
-183.085	-200.000	0.020	0.156
-182.071	-200.000	-0.021	-0.395
-181.056	-19.693	0.241	0.149
-180.042	800.000	-0.029	0.086
-179.027	19.786	0.022	-0.018
-178.012	438.894	0.175	-0.382
-176.998	-46.936	0.163	0.080
-175.983	-2.428	0.049	0.034
-174.969	-103.093	-0.102	0.024
-173.954	-86.029	-0.149	0.046
-172.939	111.301	-0.054	-0.066
-171.925	-200.000	0.004	-0.145
-170.910	-111.486	-0.029	-0.006
-169.896	309.745	-0.186	0.348
-168.881	90.336	-0.187	0.209
-167.866	-37.840	0.240	0.127
-166.852	-99.612	-0.287	0.072
-165.837	-17.197	-0.145	-0.091
-164.823	-12.402	-0.255	0.167
-163.808	151.702	0.256	-0.349
-162.793	-11.914	0.247	-0.162
-161.779	-99.154	0.109	0.028
-160.764	98.579	-0.183	-0.211
-159.750	-200.000	-0.014	-0.067
-158.735	-103.790	0.330	0.077
-157.720	474.487	-0.064	-0.145
-156.706	144.197	0.027	0.036
-155.691	654.939	-0.095	0.244
-154.677	-84.649	0.095	0.030
-153.662	-200.000	-0.029	-0.289
-152.647	175.521	-0.045	-0.066
-151.633	206.079	-0.104	-0.161
-150.618	800.000	0.120	-0.331
-149.604	800.000	0.017	0.046
-148.589	0.028	-0.179	0.127
-147.574	-63.485	-0.135	0.055
-146.560	-39.462	-0.320	-0.168
-145.545	-105.284	-0.237	-0.054
-144.531	800.000	0.057	0.200
-143.516	-174.176	0.233	-0.007
-142.502	-133.992	-0.164	0.020
-141.487	800.000	0.137	0.408
-140.472	-64.779	0.180	-0.073
-139.458	3.318	0.347	-0.253
-138.443	-115.919	0.256	0.048
-137.429	-200.000	-0.025	-0.255
-136.414	435.714	-0.182	-0.394
-135.399	-48.712	0.157	-0.075
-134.385	800.000	0.077	0.275
-133.370	717.915	-0.108	0.286
-132.356	42.257	0.196	0.177
-131.341	800.000	0.034	0.121
-130.326	-25.831	-0.081	0.047
-129.312	98.499	0.133	0.153
-128.297	333.122	0.108	0.208
-127.283	800.000	-0.074	-0.287
-126.268	345.002	0.093	0.182
-125.253	-193.206	-0.125	0.001
-124.239	282.494	-0.068	0.121
-123.224	22.773	0.159	-0.130
-122.210	-148.621	0.178	0.014
-121.195	505.852	0.058	0.134
