DTS Sentinel unit serial number:	SN413079Multiplexer serial number:	ORYXHardware model number:	OX4-SRSoftware version number:	ORYX F/W v4.00 Oryx Data Collector v3.7.2.0data status	okinstallation	princeton_trtdifferential loss correction	single-endedforward channel	channel 1reverse channel	N/Adate	2019/09/16time	11:50:35forward acquisition time	60.00reverse acquisition time	0.00gamma	496.2192k internal	0.2296k external	0.2296temperature offset calibration	0.9963default loss term (dB/km)	0.3790temperature slope calibration	1.0000multiplexer offset coefficient	1.0000multiplexer slope coefficient	1.0000fibre end	0.00T internal ref (°C)	38.33T ext. ref 1 (°C)	13.09T ext. ref 2 (°C)	35.74length (m)	temperature (°C)	Stokes	anti-Stokes-747.200	-139.673	0.143	0.016
-746.185	-200.000	0.035	0.330
-745.171	87.399	-0.212	0.240
-744.156	247.442	0.094	0.163
-743.142	-56.714	-0.157	0.071
-742.127	800.000	0.019	0.074
-741.112	800.000	-0.040	-0.161
-740.098	-200.000	0.004	0.054
-739.083	-56.273	-0.150	0.068
-738.069	226.124	-0.119	0.198
-737.054	-140.269	-0.062	0.007
-736.039	16.519	-0.188	-0.152
-735.025	-200.000	0.013	-0.065
-734.010	228.365	-0.022	-0.037
-732.996	-145.367	-0.459	0.042
-731.981	530.917	-0.183	-0.442
-730.966	-12.452	-0.310	0.207
-729.952	674.555	0.171	0.453
-728.937	800.000	0.042	0.169
-727.923	559.874	-0.097	0.239
-726.908	-9.197	0.151	-0.103
-725.894	187.896	-0.152	-0.232
-724.879	11.360	-0.325	-0.254
-723.864	-155.812	0.159	-0.010
-722.850	-14.096	-0.094	-0.062
-721.835	-200.000	0.048	0.238
-720.821	-0.181	0.100	-0.072
-719.806	165.355	0.097	-0.140
-718.791	800.000	-0.007	-0.026
-717.777	-200.000	-0.016	0.102
-716.762	177.095	0.086	0.127
-715.748	-52.475	-0.213	-0.101
-714.733	-14.561	-0.272	-0.178
-713.718	-137.062	0.220	0.026
-712.704	764.918	0.030	-0.083
-711.689	543.605	0.085	-0.207
-710.675	-42.030	-0.237	0.124
-709.660	24.250	-0.090	0.076
-708.645	-46.708	0.256	0.128
-707.631	-107.655	-0.062	0.014
-706.616	-126.799	-0.368	0.055
-705.602	35.427	0.163	-0.146
-704.587	-95.957	-0.314	-0.085
-703.572	77.976	-0.069	-0.075
-702.558	-108.882	0.127	-0.028
-701.543	-0.317	0.187	-0.135
-700.529	-137.138	-0.192	0.022
-699.514	5.017	0.208	0.156
-698.499	280.556	0.107	0.195
-697.485	-155.479	0.021	0.001
-696.470	24.909	0.045	-0.038
-695.456	-162.075	-0.273	0.014
-694.441	-125.817	-0.261	-0.040
-693.426	221.823	-0.225	0.369
-692.412	-47.218	-0.204	0.102
-691.397	32.230	0.335	-0.294
-690.383	-75.551	0.241	0.087
-689.368	217.680	-0.057	-0.092
-688.354	357.614	0.059	-0.120
-687.339	-200.000	0.015	0.136
-686.324	-192.316	-0.228	0.002
-685.310	131.743	0.185	-0.243
-684.295	129.662	-0.105	-0.137
-683.281	-62.721	0.263	-0.111
-682.266	-200.000	0.013	-0.264
-681.251	-59.844	-0.205	0.089
-680.237	-89.036	-0.151	-0.045
-679.222	206.684	-0.137	0.218
-678.208	-80.790	-0.195	-0.066
-677.193	800.000	0.112	0.453
-676.178	-200.000	0.021	-0.174
-675.164	16.840	-0.070	0.056
-674.149	752.229	0.102	-0.280
-673.135	-200.000	0.041	0.194
-672.120	-150.252	0.156	0.012
-671.105	-200.000	0.053	-0.456
-670.091	60.543	0.220	-0.222
-669.076	288.442	0.254	-0.469
-668.062	-46.583	-0.226	0.113
-667.047	235.837	-0.019	-0.033
-666.032	-57.503	-0.133	-0.059
-665.018	-200.000	-0.042	-0.190
-664.003	578.728	-0.075	0.186
-662.989	-74.754	-0.189	0.069
-661.974	-107.225	-0.266	-0.060
-660.959	586.978	0.168	-0.422
-659.945	-200.000	0.031	-0.309
-658.930	-200.000	-0.040	-0.334
-657.916	58.597	-0.038	-0.038
-656.901	64.884	0.092	0.095
-655.886	-109.152	0.247	0.054
-654.872	-44.403	-0.018	0.009
-653.857	800.000	-0.074	-0.328
-652.843	800.000	0.067	0.250
-651.828	-77.014	-0.212	-0.075
-650.814	294.731	0.130	0.243
-649.799	-15.718	0.252	0.164
-648.784	-21.334	-0.145	0.090
-647.770	-16.177	-0.305	-0.197
-646.755	327.080	0.067	-0.130
-645.741	-17.468	-0.218	-0.140
-644.726	800.000	-0.026	0.080
-643.711	22.010	0.209	0.173
-642.697	-108.664	0.248	-0.054
-641.682	74.404	0.112	-0.120
-640.668	310.748	0.044	-0.084
-639.653	-5.228	-0.146	-0.102
-638.638	122.687	-0.121	-0.154
-637.624	-200.000	0.019	-0.157
-636.609	-106.577	-0.173	-0.039
-635.595	252.597	-0.177	-0.308
-634.580	334.975	-0.230	-0.453
-633.565	-128.257	0.242	0.035
-632.551	-61.791	0.069	0.029
-631.536	189.508	0.080	-0.122
-630.522	800.000	0.076	-0.273
-629.507	-93.666	-0.207	-0.058
-628.492	569.667	-0.087	-0.216
-627.478	-87.353	-0.378	-0.117
-626.463	-200.000	-0.026	-0.132
-625.449	662.356	-0.095	0.250
-624.434	193.463	-0.116	-0.178
-623.419	-20.730	0.097	0.061
-622.405	281.022	-0.094	0.171
-621.390	248.278	0.077	-0.133
-620.376	-200.000	-0.023	-0.194
-619.361	-43.305	-0.059	0.030
-618.346	800.000	0.046	-0.186
-617.332	-68.469	-0.093	-0.037
-616.317	398.112	0.187	-0.398
-615.303	-108.878	0.155	-0.034
-614.288	-200.000	0.026	-0.304
-613.273	604.829	-0.079	-0.201
-612.259	800.000	0.051	-0.151
-611.244	-97.492	0.237	0.063
-610.230	-200.000	-0.006	0.250
-609.215	39.745	0.030	0.028
-608.201	-128.702	0.161	0.023
-607.186	-129.827	0.215	-0.030
-606.171	800.000	-0.068	-0.239
-605.157	-136.308	0.376	-0.045
-604.142	-200.000	0.015	-0.134
-603.128	-132.656	-0.263	-0.034
-602.113	-59.710	0.384	-0.167
-601.098	93.584	-0.250	-0.288
-600.084	-113.824	0.328	0.065
-599.069	-110.089	0.110	0.023
-598.055	-200.000	-0.018	-0.136
-597.040	-106.287	-0.091	0.021
-596.025	-58.371	0.257	-0.114
-595.011	403.632	0.053	0.113
-593.996	-200.000	-0.015	0.193
-592.982	-162.589	0.187	-0.009
-591.967	-7.329	0.112	-0.077
-590.952	88.785	-0.121	0.136
-589.938	9.477	-0.115	0.088
-588.923	160.548	0.118	0.167
-587.909	174.211	-0.084	-0.124
-586.894	-200.000	-0.004	-0.084
-585.879	800.000	-0.017	-0.065
-584.865	800.000	-0.052	-0.220
-583.850	58.901	-0.202	-0.202
-582.836	183.985	0.274	0.411
-581.821	-117.693	-0.295	-0.054
-580.806	-32.283	0.264	0.150
-579.792	-89.395	-0.057	-0.017
-578.777	800.000	-0.024	-0.082
-577.763	259.723	0.128	0.224
-576.748	74.884	0.088	0.094
-575.733	20.806	0.230	0.189
-574.719	-67.423	-0.355	0.142
-573.704	-200.000	-0.004	-0.153
-572.690	-47.243	-0.168	0.083
-571.675	-23.799	-0.165	0.100
-570.661	-134.835	0.144	-0.018
-569.646	582.293	0.035	0.086
-568.631	-38.324	-0.151	-0.081
-567.617	-200.000	0.011	-0.192
-566.602	501.632	-0.079	-0.186
-565.588	188.541	-0.118	-0.179
-564.573	-200.000	-0.003	-0.395
-563.558	-74.599	-0.111	0.041
-562.544	257.532	-0.183	0.319
-561.529	-160.576	0.104	-0.006
-560.515	221.401	0.081	0.132
-559.500	-104.912	0.303	-0.070
-558.485	-200.000	-0.051	0.365
-557.471	800.000	-0.097	0.350
-556.456	-200.000	-0.007	0.300
-555.442	99.570	-0.214	0.251
-554.427	-69.566	0.367	0.143
-553.412	245.363	0.162	-0.277
-552.398	97.126	-0.334	-0.389
-551.383	-53.915	-0.113	-0.052
-550.369	-19.412	-0.187	-0.118
-549.354	-146.852	-0.215	-0.019
-548.339	307.305	-0.033	0.063
-547.325	-200.000	-0.002	-0.317
-546.310	1.723	0.104	-0.076
-545.296	-99.645	0.210	0.053
-544.281	188.809	0.198	0.300
-543.266	-137.246	0.382	-0.044
-542.252	-200.000	-0.029	-0.169
-541.237	-200.000	-0.018	0.155
-540.223	-136.983	-0.297	0.035
-539.208	-63.460	-0.195	-0.081
-538.193	45.936	-0.185	0.173
-537.179	-86.021	0.146	0.046
-536.164	431.013	-0.044	-0.096
-535.150	-41.287	0.287	-0.150
-534.135	94.833	0.327	0.377
-533.121	-75.955	0.140	-0.050
-532.106	-49.779	-0.103	0.049
-531.091	12.711	0.230	-0.180
-530.077	575.802	-0.145	-0.360
-529.062	800.000	-0.041	-0.128
-528.048	-56.347	0.200	-0.090
-527.033	800.000	0.087	-0.350
-526.018	84.227	0.140	0.155
-525.004	-10.020	-0.192	-0.129
-523.989	800.000	0.078	-0.345
-522.975	185.113	-0.226	-0.339
-521.960	28.770	-0.155	0.133
-520.945	-99.406	0.244	0.062
-519.931	90.210	0.205	-0.232
-518.916	-112.336	-0.307	0.062
-517.902	-153.392	-0.456	-0.032
-516.887	246.615	-0.246	-0.420
-515.872	0.563	0.139	0.100
-514.858	800.000	-0.021	0.080
-513.843	164.946	-0.112	0.161
-512.829	49.631	-0.027	-0.025
-511.814	800.000	0.072	0.313
-510.799	203.935	0.031	-0.048
-509.785	-154.963	-0.116	-0.008
-508.770	-200.000	-0.025	0.189
-507.756	84.736	-0.168	-0.186
-506.741	-154.732	-0.377	-0.025
-505.726	127.392	-0.143	-0.183
-504.712	800.000	0.019	-0.081
-503.697	-200.000	-0.001	-0.112
-502.683	-151.278	-0.261	-0.020
-501.668	100.527	0.042	0.049
-500.653	-32.238	0.035	-0.020
-499.639	-200.000	0.012	0.190
-498.624	51.785	0.076	-0.074
-497.610	125.239	-0.184	0.235
-496.595	-200.000	-0.011	-0.238
-495.581	455.141	-0.050	-0.113
-494.566	-109.852	-0.242	-0.051
-493.551	634.424	0.051	-0.131
-492.537	-200.000	-0.017	-0.137
-491.522	250.921	0.090	0.155
-490.508	-162.219	-0.232	0.012
-489.493	232.908	0.017	-0.028
-488.478	6.454	0.161	0.121
-487.464	166.673	-0.116	0.167
-486.449	-190.122	0.142	-0.002
-485.435	-48.401	-0.371	-0.181
-484.420	-57.249	0.261	-0.116
-483.405	-87.927	0.258	0.078
-482.391	494.612	-0.127	0.294
-481.376	93.469	0.305	-0.349
-480.362	-95.236	-0.116	-0.032
-479.347	-200.000	0.026	-0.203
-478.332	257.290	0.118	0.205
-477.318	550.260	-0.110	0.268
-476.303	112.259	0.249	-0.305
-475.289	4.400	0.164	-0.121
-474.274	654.812	0.083	-0.215
-473.259	-22.342	-0.107	-0.065
-472.245	-200.000	0.035	0.287
-471.230	112.474	0.231	0.282
-470.216	316.011	0.044	0.085
-469.201	13.502	0.321	0.251
-468.186	90.116	-0.212	0.240
-467.172	-182.523	0.247	0.005
-466.157	-200.000	-0.014	0.084
-465.143	-143.244	-0.165	0.016
-464.128	-179.381	-0.172	-0.004
-463.113	800.000	0.096	0.372
-462.099	-200.000	0.017	0.310
-461.084	-107.790	0.293	-0.065
-460.070	800.000	0.125	0.488
-459.055	-26.456	-0.204	0.121
-458.040	1.985	-0.253	0.184
-457.026	191.744	0.059	-0.091
-456.011	800.000	-0.035	0.100
-454.997	-155.040	-0.364	0.024
-453.982	800.000	-0.057	0.166
-452.968	-107.471	0.133	0.029
-451.953	-81.153	-0.112	-0.037
-450.938	-121.337	-0.178	-0.030
-449.924	113.875	0.146	-0.180
-448.909	800.000	-0.089	-0.324
-447.895	7.158	0.325	-0.245
-446.880	-59.377	0.275	-0.119
-445.865	136.418	-0.147	-0.194
-444.851	250.094	-0.111	0.190
-443.836	-200.000	0.031	-0.340
-442.822	800.000	-0.147	0.425
-441.807	205.270	0.086	-0.135
-440.792	-39.179	0.327	0.174
-439.778	203.294	0.154	-0.240
-438.763	-78.520	0.391	0.135
-437.749	800.000	-0.028	-0.110
-436.734	-92.443	-0.416	-0.118
-435.719	-5.616	0.190	0.131
-434.705	17.836	0.158	0.127
-433.690	-32.833	0.193	-0.108
-432.676	164.275	0.124	0.176
-431.661	431.041	-0.134	0.293
-430.646	60.024	-0.003	-0.003
-429.632	-200.000	0.009	-0.156
-428.617	87.633	-0.206	-0.230
-427.603	508.956	0.086	0.201
-426.588	-8.615	0.164	-0.111
-425.573	-87.600	0.204	-0.062
-424.559	641.463	-0.086	-0.221
-423.544	-44.587	0.148	0.075
-422.530	-181.101	0.428	-0.009
-421.515	75.969	-0.108	0.116
-420.500	-200.000	-0.041	0.264
-419.486	20.920	-0.158	0.129
-418.471	-99.648	0.030	0.008
-417.457	-88.753	-0.348	0.104
-416.442	-200.000	0.027	-0.178
-415.428	-200.000	0.014	0.076
-414.413	800.000	-0.061	-0.172
-413.398	171.573	-0.093	0.134
-412.384	53.033	0.229	-0.221
-411.369	-200.000	-0.007	0.262
-410.355	170.999	0.041	0.059
-409.340	-200.000	0.026	0.207
-408.325	-57.669	0.096	0.042
-407.311	-36.962	0.299	0.162
-406.296	-141.770	0.324	-0.033
-405.282	-136.071	-0.255	-0.030
-404.267	-102.907	0.334	0.080
-403.252	383.001	-0.107	0.221
-402.238	-200.000	0.081	-0.630
-401.223	-136.243	-0.138	-0.016
-400.209	-43.902	-0.057	0.029
-399.194	558.765	-0.142	-0.346
-398.179	244.965	0.130	0.221
-397.165	54.515	0.223	-0.217
-396.150	11.088	-0.066	0.051
-395.136	6.708	0.293	0.220
-394.121	-105.691	0.154	-0.035
-393.106	59.029	-0.120	0.119
-392.092	-58.728	-0.129	0.056
-391.077	-4.122	0.201	-0.140
-390.063	313.512	0.030	-0.057
-389.048	-56.941	0.271	-0.120
-388.033	376.169	-0.086	0.176
-387.019	-18.939	-0.155	-0.097
-386.004	86.892	-0.233	-0.259
-384.990	469.492	0.043	0.096
-383.975	83.685	0.214	-0.235
-382.960	-200.000	-0.055	-0.451
-381.946	373.069	-0.072	0.148
-380.931	275.370	0.090	0.161
-379.917	-66.426	-0.177	-0.071
-378.902	-98.689	-0.214	-0.055
-377.888	800.000	0.053	-0.217
-376.873	800.000	0.036	0.115
-375.858	-60.148	0.402	-0.173
-374.844	-154.088	0.082	-0.006
-373.829	557.177	0.123	0.298
-372.815	470.794	-0.151	0.343
-371.800	171.464	-0.109	-0.157
-370.785	592.442	-0.058	0.145
-369.771	9.309	0.139	0.106
-368.756	-200.000	-0.008	0.234
-367.742	-200.000	0.003	-0.218
-366.727	-189.042	-0.125	0.002
-365.712	581.097	0.159	0.392
-364.698	150.800	-0.064	0.087
-363.683	365.313	-0.101	-0.204
-362.669	374.856	-0.098	-0.201
-361.654	-158.019	0.148	-0.009
-360.639	-95.793	0.192	0.052
-359.625	800.000	-0.058	0.167
-358.610	-106.721	-0.218	-0.049
-357.596	-176.103	-0.169	-0.004
-356.581	-98.800	-0.121	0.031
-355.566	-200.000	0.045	-0.380
-354.552	-9.731	0.104	-0.070
-353.537	191.604	-0.131	0.199
-352.523	16.341	0.088	0.070
-351.508	68.199	-0.184	0.189
-350.493	-55.151	0.035	0.016
-349.479	-68.893	-0.400	0.155
-348.464	-200.000	0.006	0.403
-347.450	453.730	-0.023	-0.052
-346.435	188.276	0.116	-0.175
-345.420	-125.235	-0.334	-0.051
-344.406	-40.858	-0.127	0.066
-343.391	800.000	0.033	0.112
-342.377	123.984	0.100	-0.126
-341.362	260.691	-0.092	-0.161
-340.348	800.000	0.103	0.305
-339.333	110.291	-0.150	-0.181
-338.318	102.444	0.270	0.317
-337.304	-110.374	0.344	0.072
-336.289	-200.000	0.058	-0.258
-335.275	327.778	-0.057	-0.111
-334.260	800.000	0.137	-0.543
-333.245	-17.081	0.138	0.088
-332.231	-150.950	0.163	0.012
-331.216	-52.161	-0.165	-0.077
-330.202	-113.003	0.163	-0.032
-329.187	58.494	0.172	-0.170
-328.172	-117.057	-0.282	0.052
-327.158	160.559	-0.234	0.329
-326.143	800.000	0.084	-0.326
-325.129	550.703	-0.101	-0.244
-324.114	515.384	-0.113	0.266
-323.099	11.481	0.151	0.116
-322.085	744.459	-0.094	0.255
-321.070	32.241	-0.152	0.132
-320.056	-24.883	-0.237	-0.141
-319.041	-131.735	0.229	-0.030
-318.026	351.441	0.049	0.098
-317.012	342.488	-0.153	0.301
-315.997	210.890	-0.163	0.257
-314.983	800.000	0.083	-0.338
-313.968	583.506	-0.118	-0.291
-312.953	216.979	0.272	0.435
-311.939	-89.512	0.116	0.034
-310.924	212.471	-0.227	-0.360
-309.910	58.924	0.243	-0.240
-308.895	-66.499	0.115	-0.046
-307.880	800.000	0.056	0.173
-306.866	151.266	-0.152	-0.208
-305.851	-171.417	-0.260	-0.009
-304.837	-200.000	0.009	0.098
-303.822	-114.163	0.265	0.052
-302.807	-200.000	-0.010	0.098
-301.793	-154.627	0.044	-0.003
-300.778	-107.491	0.229	-0.050
-299.764	-90.797	-0.181	0.052
-298.749	800.000	0.045	-0.184
-297.735	125.191	0.074	-0.094
-296.720	140.587	0.124	0.164
-295.705	-25.108	-0.277	0.165
-294.691	800.000	-0.109	0.351
-293.676	-66.941	0.448	0.177
-292.662	-200.000	0.018	-0.095
-291.647	-200.000	0.017	0.435
-290.632	21.600	0.169	0.138
-289.618	564.291	-0.114	-0.278
-288.603	290.587	-0.079	-0.143
-287.589	109.466	0.182	-0.219
-286.574	-139.355	0.387	0.042
-285.559	146.670	-0.169	0.229
-284.545	327.402	-0.155	0.298
-283.530	-85.527	-0.227	0.071
-282.516	638.822	-0.180	-0.458
-281.501	-49.876	0.402	-0.192
-280.486	800.000	-0.054	-0.182
-279.472	584.984	0.093	0.230
-278.457	-26.430	-0.126	0.074
-277.443	-2.611	0.133	0.094
-276.428	34.537	-0.132	0.116
-275.413	-40.968	0.106	-0.055
-274.399	-200.000	0.010	0.226
-273.384	60.066	-0.205	0.203
-272.370	-50.636	-0.124	-0.059
-271.355	717.844	-0.057	0.151
-270.340	-100.861	-0.250	-0.062
-269.326	800.000	0.018	0.057
-268.311	94.880	-0.185	0.211
-267.297	-56.104	0.101	-0.045
-266.282	-151.502	-0.269	0.020
-265.267	210.346	0.070	0.110
-264.253	-133.333	0.176	-0.022
-263.238	800.000	-0.007	-0.021
-262.224	-200.000	0.049	0.255
-261.209	800.000	0.053	-0.199
-260.195	194.311	0.094	-0.143
-259.180	-82.091	-0.205	0.067
-258.165	800.000	0.074	0.316
-257.151	767.296	0.068	-0.186
-256.136	179.852	0.007	-0.010
-255.122	-175.641	0.262	-0.007
-254.107	-171.052	-0.287	0.010
-253.092	800.000	0.077	0.217
-252.078	-4.652	-0.148	0.102
-251.063	29.704	0.041	0.035
-250.049	-113.250	-0.085	0.017
-249.034	800.000	0.042	0.174
-248.019	-200.000	-0.008	-0.294
-247.005	-15.290	0.336	0.215
-245.990	-136.887	0.070	-0.008
-244.976	-2.258	0.171	-0.120
-243.961	730.371	0.070	-0.186
-242.946	-136.559	-0.425	0.049
-241.932	55.641	-0.156	-0.152
-240.917	597.611	-0.056	-0.140
-239.903	40.954	-0.057	-0.052
-238.888	99.136	0.046	0.053
-237.873	-76.241	0.456	-0.161
-236.859	800.000	-0.061	0.176
-235.844	154.903	-0.189	0.260
-234.830	28.540	-0.236	0.200
-233.815	184.442	-0.033	-0.050
-232.800	21.521	-0.310	0.252
-231.786	-200.000	-0.015	-0.068
-230.771	108.075	-0.305	0.364
-229.757	526.194	0.037	0.088
-228.742	-106.406	-0.338	0.076
-227.727	132.145	0.241	-0.311
-226.713	-170.897	0.144	0.005
-225.698	-144.192	-0.076	0.007
-224.684	-200.000	0.292	0.001
-223.669	800.000	0.022	0.086
-222.655	362.504	0.023	0.046
-221.640	264.090	-0.176	0.306
-220.625	-200.000	0.046	-0.298
-219.611	-133.320	0.223	0.028
-218.596	-65.699	-0.325	0.130
-217.582	568.696	-0.138	-0.336
-216.567	-76.715	0.275	0.097
-215.552	-63.062	-0.026	0.011
-214.538	-39.129	0.039	-0.020
-213.523	-31.522	-0.216	-0.122
-212.509	-65.660	-0.072	0.029
-211.494	-50.091	0.132	0.062
-210.479	175.085	-0.060	0.087
-209.465	-76.700	0.187	0.066
-208.450	-84.354	0.210	0.066
-207.436	-200.000	0.035	0.156
-206.421	-29.079	0.242	0.139
-205.406	8.074	-0.095	-0.071
-204.392	-200.000	-0.008	0.190
-203.377	-38.134	-0.182	-0.096
-202.363	129.449	-0.086	-0.110
-201.348	-109.468	-0.408	0.086
-200.333	66.129	-0.045	-0.046
-199.319	-0.767	0.123	-0.087
-198.304	-119.029	-0.330	0.058
-197.290	-149.442	0.102	0.008
-196.275	-16.937	-0.139	-0.088
-195.260	800.000	-0.049	-0.151
-194.246	190.591	-0.158	-0.237
-193.231	80.556	0.068	-0.073
-192.217	-200.000	-0.019	-0.155
-191.202	-9.802	0.154	0.102
-190.187	-91.527	-0.311	-0.089
-189.173	-72.124	-0.044	0.016
-188.158	210.283	0.230	0.362
-187.144	47.869	0.102	-0.095
-186.129	375.791	-0.042	0.085
-185.114	716.894	-0.121	-0.321
-184.100	172.823	0.138	0.198
-183.085	-200.000	0.007	0.255
-182.071	-137.590	-0.343	0.039
-181.056	-25.277	0.142	-0.084
-180.042	-99.657	0.197	0.049
-179.027	299.691	0.116	0.213
-178.012	140.361	-0.068	0.090
-176.998	-125.713	-0.424	0.064
-175.983	-177.733	-0.189	-0.005
-174.969	536.321	0.131	-0.311
-173.954	281.612	0.091	-0.163
-172.939	468.426	-0.027	0.061
-171.925	-200.000	0.021	0.203
-170.910	-151.152	-0.052	-0.004
-169.896	75.025	0.249	0.262
-168.881	-200.000	0.036	0.265
-167.866	72.909	-0.088	-0.092
-166.852	-200.000	0.065	0.292
-165.837	207.874	0.116	-0.181
-164.823	-200.000	0.006	0.340
-163.808	-200.000	0.003	0.167
-162.793	16.636	0.175	0.138
-161.779	-200.000	-0.037	-0.179
-160.764	-200.000	-0.008	-0.162
-159.750	-168.516	0.059	0.002
-158.735	-74.983	-0.134	-0.048
-157.720	-8.885	-0.265	0.178
-156.706	-8.708	0.238	0.159
-155.691	131.180	0.083	0.107
-154.677	-200.000	-0.056	-0.250
-153.662	800.000	-0.094	-0.260
-152.647	31.837	-0.318	-0.274
-151.633	-58.887	-0.111	0.048
-150.618	-15.002	0.210	0.135
-149.604	-200.000	-0.021	-0.112
-148.589	-119.311	0.313	-0.054
-147.574	487.630	0.166	-0.379
-146.560	123.357	-0.287	0.359
-145.545	-200.000	-0.026	-0.139
-144.531	537.917	0.042	0.101
-143.516	124.461	0.024	0.030
-142.502	-73.673	-0.124	-0.045
-141.487	-179.992	-0.406	0.009
-140.472	-74.709	0.052	0.019
-139.458	-128.167	-0.067	-0.010
-138.443	800.000	0.021	-0.089
-137.429	-47.290	0.070	-0.034
-136.414	-91.340	-0.118	-0.034
-135.399	-82.529	0.119	0.038
-134.385	-16.188	-0.140	0.089
-133.370	29.235	-0.146	-0.124
-132.356	-25.168	-0.192	0.113
-131.341	-154.948	-0.510	-0.033
-130.326	90.119	-0.125	0.139
-129.312	658.569	0.173	0.445
-128.297	-200.000	-0.002	0.155
-127.283	3.654	-0.199	0.145
-126.268	666.148	-0.072	0.186
-125.253	-138.839	-0.073	-0.008
-124.239	800.000	-0.037	-0.157
-123.224	-35.355	0.073	-0.040
-122.210	15.051	0.133	-0.104
-121.195	800.000	-0.041	-0.116
