DTS Sentinel unit serial number:	SN413079Multiplexer serial number:	ORYXHardware model number:	OX4-SRSoftware version number:	ORYX F/W v4.00 Oryx Data Collector v3.7.2.0data status	okinstallation	princeton_trtdifferential loss correction	single-endedforward channel	channel 1reverse channel	N/Adate	2019/09/17time	12:42:35forward acquisition time	60.00reverse acquisition time	0.00gamma	496.2192k internal	0.2315k external	0.2315temperature offset calibration	0.9967default loss term (dB/km)	0.3790temperature slope calibration	1.0000multiplexer offset coefficient	1.0000multiplexer slope coefficient	1.0000fibre end	0.00T internal ref (°C)	32.42T ext. ref 1 (°C)	0.44T ext. ref 2 (°C)	30.41length (m)	temperature (°C)	Stokes	anti-Stokes-747.200	-200.000	0.011	-0.318
-746.185	-81.420	-0.226	-0.075
-745.171	-59.272	-0.089	-0.039
-744.156	125.882	0.083	0.106
-743.142	212.073	0.005	0.007
-742.127	-200.000	-0.073	0.328
-741.112	-76.554	-0.267	0.095
-740.098	58.722	-0.128	0.127
-739.083	-46.963	-0.208	-0.103
-738.069	35.617	-0.113	0.101
-737.054	123.266	-0.129	0.164
-736.039	15.243	-0.288	-0.229
-735.025	156.789	0.055	0.078
-734.010	-200.000	0.050	-0.224
-732.996	-78.315	-0.297	0.103
-731.981	55.381	-0.126	0.124
-730.966	-102.732	-0.043	0.010
-729.952	110.948	0.174	-0.212
-728.937	-200.000	0.011	-0.145
-727.923	-33.374	-0.403	-0.226
-726.908	-200.000	-0.031	-0.528
-725.894	-77.250	-0.363	0.128
-724.879	-200.000	-0.022	-0.144
-723.864	-104.312	0.300	0.070
-722.850	135.508	0.046	0.061
-721.835	-39.165	0.309	0.164
-720.821	487.054	-0.074	-0.170
-719.806	-133.487	-0.269	-0.034
-718.791	-200.000	0.031	-0.227
-717.777	-53.819	-0.608	-0.281
-716.762	16.863	-0.310	0.249
-715.748	-200.000	0.007	0.150
-714.733	-38.766	-0.154	0.082
-713.718	-135.553	-0.217	-0.026
-712.704	-67.449	0.129	0.051
-711.689	143.413	0.025	-0.034
-710.675	-200.000	-0.011	-0.161
-709.660	226.859	0.012	0.020
-708.645	404.038	0.060	0.128
-707.631	-129.455	0.152	-0.021
-706.616	411.961	-0.065	0.140
-705.602	-200.000	-0.030	0.176
-704.587	68.007	-0.161	-0.166
-703.572	-142.933	-0.190	-0.019
-702.558	-125.331	-0.032	-0.005
-701.543	-200.000	-0.023	0.108
-700.529	-200.000	0.009	0.089
-699.514	-14.736	0.179	-0.116
-698.499	83.843	-0.226	-0.249
-697.485	-200.000	0.041	-0.302
-696.470	-99.764	-0.123	0.031
-695.456	621.106	0.081	0.206
-694.441	-134.738	0.055	0.007
-693.426	800.000	-0.042	-0.120
-692.412	800.000	0.056	-0.183
-691.397	114.491	0.188	-0.231
-690.383	-53.698	-0.159	0.073
-689.368	-0.960	-0.062	0.044
-688.354	261.100	0.154	-0.270
-687.339	-75.591	-0.229	0.082
-686.324	25.323	-0.157	0.132
-685.310	443.993	-0.045	0.101
-684.295	-35.366	-0.162	0.089
-683.281	-200.000	0.037	-0.169
-682.266	-19.707	0.065	-0.041
-681.251	590.199	-0.078	-0.195
-680.237	-106.917	-0.118	-0.026
-679.222	-51.014	-0.274	0.130
-678.208	-43.495	-0.271	-0.138
-677.193	5.156	-0.352	-0.262
-676.178	27.888	0.139	-0.118
-675.164	800.000	0.018	0.054
-674.149	308.604	0.072	0.137
-673.135	-96.043	-0.281	0.075
-672.120	9.350	0.233	0.178
-671.105	-200.000	0.054	-0.449
-670.091	-38.600	-0.126	0.067
-669.076	172.180	-0.064	-0.093
-668.062	-23.220	-0.205	0.124
-667.047	800.000	0.067	0.206
-666.032	-135.605	-0.408	-0.049
-665.018	112.833	0.182	0.223
-664.003	-18.207	0.286	-0.181
-662.989	264.710	-0.224	-0.395
-661.974	-62.328	-0.154	-0.065
-660.959	800.000	-0.070	-0.211
-659.945	-76.378	-0.137	-0.049
-658.930	77.755	-0.310	-0.334
-657.916	208.199	-0.109	-0.173
-656.901	117.357	-0.155	0.193
-655.886	-1.977	-0.205	0.146
-654.872	297.977	-0.161	-0.298
-653.857	258.028	-0.051	0.089
-652.843	17.947	-0.052	0.042
-651.828	-65.828	-0.203	-0.082
-650.814	-1.786	0.202	0.143
-649.799	41.010	0.258	-0.235
-648.784	-92.452	-0.169	-0.048
-647.770	800.000	0.017	-0.057
-646.755	137.292	0.166	0.219
-645.741	-200.000	-0.005	-0.199
-644.726	629.356	-0.085	-0.216
-643.711	-9.636	-0.243	-0.163
-642.697	-52.623	-0.362	0.169
-641.682	-112.221	0.187	-0.038
-640.668	-200.000	-0.045	0.215
-639.653	-84.851	-0.512	-0.162
-638.638	-36.679	0.278	0.151
-637.624	283.842	0.056	0.102
-636.609	-32.295	0.063	-0.036
-635.595	800.000	0.075	-0.234
-634.580	241.682	-0.152	0.257
-633.565	53.248	0.195	0.188
-632.551	-66.742	-0.382	-0.153
-631.536	-91.652	0.209	-0.060
-630.522	241.594	0.116	0.196
-629.507	-61.121	0.328	0.140
-628.492	65.755	-0.194	0.198
-627.478	800.000	-0.031	-0.088
-626.463	103.003	0.145	-0.171
-625.449	-200.000	-0.004	0.220
-624.434	433.959	-0.178	-0.389
-623.419	373.657	0.046	-0.095
-622.405	407.244	0.047	-0.101
-621.390	128.389	0.231	-0.296
-620.376	-108.371	-0.032	0.007
-619.361	-200.000	0.021	-0.162
-618.346	369.794	0.033	0.067
-617.332	-200.000	-0.021	0.306
-616.317	-118.352	-0.096	0.017
-615.303	-61.249	0.280	-0.119
-614.288	800.000	-0.053	0.204
-613.273	-105.872	-0.058	-0.013
-612.259	800.000	0.112	-0.413
-611.244	1.281	-0.058	-0.042
-610.230	-12.973	0.263	-0.173
-609.215	306.779	-0.077	0.145
-608.201	-104.739	0.128	0.030
-607.186	41.899	0.290	0.265
-606.171	48.458	0.040	0.038
-605.157	-28.348	-0.111	-0.065
-604.142	509.617	0.024	-0.057
-603.128	-42.178	-0.470	-0.242
-602.113	-200.000	-0.013	0.231
-601.098	113.366	-0.088	0.108
-600.084	-103.646	0.118	0.028
-599.069	-107.227	-0.164	-0.036
-598.055	-85.761	-0.426	0.133
-597.040	144.937	-0.211	0.285
-596.025	-81.184	-0.426	0.142
-595.011	353.771	0.029	-0.059
-593.996	-105.260	0.111	-0.026
-592.982	258.689	-0.150	-0.260
-591.967	178.040	-0.024	0.035
-590.952	118.125	-0.039	-0.049
-589.938	-170.690	-0.151	0.005
-588.923	-139.598	0.405	-0.043
-587.909	-77.102	0.115	0.040
-586.894	472.113	0.103	0.234
-585.879	-87.613	-0.423	-0.129
-584.865	-89.154	-0.082	0.024
-583.850	-200.000	-0.020	-0.144
-582.836	5.124	0.182	0.135
-581.821	108.711	0.035	-0.042
-580.806	-200.000	0.060	0.430
-579.792	61.194	-0.365	0.365
-578.777	-36.578	0.122	-0.066
-577.763	800.000	-0.093	0.357
-576.748	-200.000	0.020	-0.152
-575.733	800.000	0.110	-0.408
-574.719	63.591	0.044	0.045
-573.704	24.945	-0.163	0.136
-572.690	800.000	0.083	-0.255
-571.675	138.719	0.060	-0.079
-570.661	-109.091	-0.183	0.039
-569.646	56.744	0.138	-0.135
-568.631	166.820	-0.045	-0.064
-567.617	174.376	-0.067	0.097
-566.602	-145.110	-0.062	0.006
-565.588	800.000	0.104	0.326
-564.573	216.707	0.054	0.087
-563.558	90.306	-0.134	0.150
-562.544	-200.000	-0.028	0.212
-561.529	-30.194	0.185	-0.106
-560.515	-108.623	-0.282	0.061
-559.500	-4.590	0.156	-0.108
-558.485	603.989	0.149	0.374
-557.471	71.363	0.150	-0.156
-556.456	-200.000	-0.011	-0.077
-555.442	312.469	0.117	0.221
-554.427	-200.000	0.067	-0.317
-553.412	247.941	-0.126	-0.215
-552.398	-174.525	0.214	0.006
-551.383	-76.710	0.157	0.055
-550.369	48.352	-0.104	-0.098
-549.354	64.144	-0.300	0.304
-548.339	-21.396	-0.170	0.105
-547.325	-200.000	0.003	-0.202
-546.310	-94.705	0.168	0.046
-545.296	70.151	0.165	-0.171
-544.281	320.842	-0.086	-0.164
-543.266	485.514	-0.134	-0.307
-542.252	141.729	0.078	-0.104
-541.237	147.761	0.151	0.205
-540.223	-113.961	-0.045	-0.009
-539.208	800.000	0.029	0.105
-538.193	-35.396	0.149	-0.081
-537.179	-200.000	-0.046	-0.409
-536.164	-200.000	0.007	-0.231
-535.150	-20.291	0.379	-0.234
-534.135	-200.000	-0.018	-0.449
-533.121	800.000	0.040	-0.131
-532.106	-200.000	-0.021	-0.124
-531.091	-200.000	-0.044	-0.204
-530.077	-136.863	0.168	-0.019
-529.062	183.166	0.144	-0.213
-528.048	108.384	-0.154	0.184
-527.033	97.027	-0.096	0.110
-526.018	-113.786	-0.280	-0.055
-525.004	-28.249	-0.274	-0.159
-523.989	-96.863	0.212	0.056
-522.975	-73.254	-0.168	0.062
-521.960	-157.849	-0.284	-0.017
-520.945	-29.368	0.363	0.209
-519.931	-165.759	-0.194	-0.008
-518.916	800.000	0.040	0.160
-517.902	227.902	0.037	0.061
-516.887	-200.000	0.003	0.087
-515.872	166.656	0.126	0.179
-514.858	800.000	0.078	-0.226
-513.843	207.696	0.092	0.144
-512.829	-50.311	0.163	0.078
-511.814	-21.101	-0.037	0.023
-510.799	-98.428	0.205	0.053
-509.785	34.463	0.168	0.148
-508.770	-146.352	-0.148	-0.013
-507.756	-200.000	-0.010	0.049
-506.741	-200.000	-0.038	-0.404
-505.726	211.959	0.140	0.221
-504.712	800.000	0.085	0.320
-503.697	755.718	-0.085	-0.231
-502.683	-16.209	0.111	0.071
-501.668	-49.115	0.129	0.062
-500.653	321.022	-0.071	-0.136
-499.639	-143.323	-0.070	0.007
-498.624	-93.261	0.040	0.011
-497.610	180.083	0.258	0.379
-496.595	-200.000	-0.035	0.297
-495.581	63.523	0.135	-0.136
-494.566	800.000	0.036	0.155
-493.551	-23.874	-0.101	0.060
-492.537	-133.040	0.288	-0.037
-491.522	-67.717	-0.353	0.139
-490.508	-200.000	0.001	-0.096
-489.493	-38.812	0.087	-0.046
-488.478	-200.000	-0.043	0.291
-487.464	-97.767	-0.276	-0.072
-486.449	-200.000	-0.002	0.106
-485.435	-20.206	-0.253	-0.157
-484.420	-133.404	0.178	0.022
-483.405	-200.000	0.001	-0.071
-482.391	-51.436	-0.287	-0.135
-481.376	-200.000	-0.002	0.300
-480.362	-104.067	-0.033	-0.008
-479.347	-117.844	-0.330	0.059
-478.332	-175.231	-0.114	0.003
-477.318	-200.000	0.062	-0.300
-476.303	800.000	0.045	0.138
-475.289	-153.635	0.178	-0.012
-474.274	-19.607	-0.029	0.018
-473.259	-45.976	-0.238	0.118
-472.245	293.258	-0.129	0.236
-471.230	-58.952	0.196	0.085
-470.216	800.000	-0.054	-0.158
-469.201	-51.387	0.109	-0.051
-468.186	20.576	0.116	-0.094
-467.172	-44.943	0.192	-0.096
-466.157	-166.099	-0.313	-0.013
-465.143	71.238	-0.124	-0.129
-464.128	800.000	-0.056	0.170
-463.113	112.480	-0.028	0.034
-462.099	-20.742	-0.087	-0.053
-461.084	-180.631	-0.199	-0.004
-460.070	-200.000	0.003	-0.064
-459.055	-100.040	-0.206	0.051
-458.040	639.617	-0.082	0.210
-457.026	-200.000	0.009	-0.069
-456.011	-46.096	-0.113	0.056
-454.997	-155.949	-0.141	-0.009
-453.982	-36.418	0.086	-0.046
-452.968	-84.822	-0.250	0.079
-451.953	-47.838	0.286	-0.139
-450.938	185.179	-0.158	-0.235
-449.924	-200.000	0.035	-0.388
-448.909	69.658	-0.237	-0.244
-447.895	-200.000	-0.027	0.161
-446.880	-200.000	-0.082	0.513
-445.865	337.202	-0.123	0.239
-444.851	800.000	0.040	-0.147
-443.836	-200.000	-0.011	-0.249
-442.822	-200.000	-0.059	0.340
-441.807	-113.483	0.199	0.039
-440.792	-103.807	-0.113	-0.027
-439.778	117.484	-0.238	0.294
-438.763	800.000	0.065	-0.236
-437.749	151.885	-0.014	0.019
-436.734	-200.000	-0.013	-0.145
-435.719	137.088	0.118	-0.154
-434.705	238.671	0.056	-0.094
-433.690	-88.148	0.123	0.037
-432.676	-113.160	0.405	0.080
-431.661	-191.565	-0.167	0.002
-430.646	-200.000	-0.001	0.131
-429.632	-102.281	0.220	0.053
-428.617	-87.056	0.078	0.024
-427.603	-81.930	0.151	-0.049
-426.588	270.135	0.006	-0.010
-425.573	102.698	0.075	0.088
-424.559	800.000	0.018	0.071
-423.544	-91.877	-0.122	0.034
-422.530	-110.854	0.141	-0.029
-421.515	38.750	-0.321	-0.286
-420.500	191.459	0.078	0.117
-419.486	215.775	-0.176	-0.279
-418.471	800.000	0.037	0.141
-417.457	-102.067	-0.093	0.022
-416.442	441.547	0.062	-0.136
-415.428	-75.076	0.350	-0.125
-414.413	71.182	0.081	-0.084
-413.398	-56.202	-0.173	0.077
-412.384	-187.263	0.642	-0.009
-411.369	84.557	-0.126	-0.138
-410.355	-132.706	-0.262	-0.034
-409.340	372.741	0.113	-0.230
-408.325	39.430	-0.188	-0.169
-407.311	17.617	-0.215	-0.171
-406.296	77.029	0.120	0.127
-405.282	-114.062	-0.163	0.032
-404.267	-26.438	0.314	0.184
-403.252	-45.390	-0.176	0.087
-402.238	-200.000	0.054	0.356
-401.223	89.977	-0.241	0.269
-400.209	80.144	0.148	0.159
-399.194	249.182	-0.225	0.381
-398.179	-46.432	0.077	0.038
-397.165	-104.623	0.228	-0.053
-396.150	-36.335	-0.273	-0.147
-395.136	800.000	0.151	-0.492
-394.121	-51.533	-0.103	-0.048
-393.106	168.397	-0.099	-0.140
-392.092	-104.245	-0.188	0.044
-391.077	256.519	0.223	-0.383
-390.063	-92.671	-0.081	0.023
-389.048	800.000	0.027	-0.084
-388.033	-200.000	0.034	-0.384
-387.019	-200.000	-0.002	0.102
-386.004	-139.541	0.131	0.014
-384.990	-39.413	-0.237	0.124
-383.975	-19.371	0.287	-0.178
-382.960	15.332	0.121	-0.095
-381.946	221.689	-0.055	-0.088
-380.931	417.135	0.057	0.122
-379.917	-114.754	0.081	-0.016
-378.902	327.416	0.031	-0.058
-377.888	74.999	-0.111	-0.117
-376.873	800.000	-0.049	0.144
-375.858	-38.510	0.020	0.010
-374.844	-200.000	-0.052	0.348
-373.829	-13.364	-0.162	-0.105
-372.815	14.630	0.273	-0.213
-371.800	-200.000	-0.024	0.158
-370.785	-200.000	0.040	0.272
-369.771	262.930	0.090	0.156
-368.756	-21.543	0.126	-0.076
-367.742	25.098	0.043	0.036
-366.727	28.487	0.143	0.121
-365.712	-200.000	-0.003	0.212
-364.698	-139.697	0.217	0.023
-363.683	-65.453	0.013	-0.005
-362.669	800.000	-0.087	-0.333
-361.654	32.689	0.241	-0.208
-360.639	121.394	-0.135	0.168
-359.625	42.293	0.118	-0.107
-358.610	-200.000	-0.064	0.386
-357.596	-34.485	0.253	0.138
-356.581	-150.108	-0.297	-0.023
-355.566	93.989	-0.019	0.021
-354.552	-70.043	0.189	0.072
-353.537	-20.015	0.398	0.245
-352.523	6.840	-0.262	-0.195
-351.508	-115.741	0.103	0.019
-350.493	-200.000	-0.012	0.129
-349.479	67.961	-0.086	-0.088
-348.464	-81.693	-0.203	0.066
-347.450	-107.694	-0.209	-0.046
-346.435	695.919	0.166	0.434
-345.420	-24.117	0.108	-0.064
-344.406	-74.129	0.339	0.122
-343.391	685.300	0.073	-0.189
-342.377	-200.000	0.000	-0.147
-341.362	14.262	-0.263	0.205
-340.348	643.885	-0.106	-0.269
-339.333	174.556	-0.102	0.148
-338.318	224.648	-0.092	0.148
-337.304	-19.778	-0.219	-0.135
-336.289	-17.924	-0.036	-0.022
-335.275	-131.320	-0.142	0.019
-334.260	-37.779	0.126	0.067
-333.245	-24.990	0.118	-0.070
-332.231	-200.000	-0.103	0.603
-331.216	-118.758	0.132	-0.023
-330.202	-113.224	-0.133	-0.026
-329.187	-66.948	-0.284	-0.112
-328.172	-47.922	0.093	0.045
-327.158	800.000	0.040	0.159
-326.143	40.894	-0.230	-0.207
-325.129	-71.995	-0.164	-0.061
-324.114	-25.887	0.301	-0.177
-323.099	99.932	-0.074	-0.085
-322.085	-152.539	0.065	0.005
-321.070	-126.152	-0.371	0.055
-320.056	-200.000	0.042	-0.286
-319.041	-78.910	0.112	-0.038
-318.026	-74.431	0.285	0.103
-317.012	800.000	0.052	0.167
-315.997	-106.863	0.113	0.025
-314.983	-200.000	0.026	0.202
-313.968	-48.330	-0.060	-0.029
-312.953	52.169	-0.151	0.144
-311.939	47.630	0.185	-0.171
-310.924	136.434	-0.151	0.196
-309.910	-83.818	0.229	-0.073
-308.895	-29.870	0.229	0.130
-307.880	-200.000	-0.005	0.117
-306.866	428.113	0.162	0.349
-305.851	-200.000	0.032	-0.262
-304.837	800.000	-0.086	0.250
-303.822	46.741	-0.051	-0.047
-302.807	-200.000	0.372	0.000
-301.793	410.898	-0.039	0.082
-300.778	209.464	-0.057	-0.088
-299.764	-144.532	-0.187	-0.017
-298.749	57.094	-0.088	0.086
-297.735	-133.131	-0.142	-0.018
-296.720	-156.437	-0.193	-0.012
-295.705	-17.958	0.066	0.041
-294.691	117.454	0.202	0.248
-293.676	189.078	0.172	-0.257
-292.662	145.452	-0.137	-0.183
-291.647	-95.681	-0.126	-0.034
-290.632	185.601	0.122	0.180
-289.618	772.826	0.049	-0.134
-288.603	163.996	0.191	0.268
-287.589	-50.385	0.273	0.128
-286.574	123.750	-0.116	-0.145
-285.559	800.000	-0.096	-0.332
-284.545	-200.000	0.010	0.148
-283.530	-120.839	-0.170	0.029
-282.516	126.645	-0.139	0.175
-281.501	705.831	-0.103	0.269
-280.486	77.431	0.201	-0.213
-279.472	800.000	0.097	-0.349
-278.457	-76.048	-0.102	0.036
-277.443	22.956	0.301	0.246
-276.428	330.904	0.018	-0.034
-275.413	38.223	-0.057	-0.050
-274.399	-32.002	0.055	-0.031
-273.384	-95.435	0.374	-0.100
-272.370	55.658	0.235	-0.227
-271.355	-51.285	-0.192	0.089
-270.340	266.697	-0.154	-0.268
-269.326	205.846	-0.216	0.334
-268.311	-118.855	-0.201	-0.035
-267.297	95.114	-0.312	-0.353
-266.282	-105.807	-0.119	0.027
-265.267	-140.460	0.309	0.032
-264.253	800.000	-0.015	0.065
-263.238	-200.000	0.017	-0.161
-262.224	33.916	0.144	-0.125
-261.209	443.162	-0.048	0.104
-260.195	-24.755	-0.219	0.129
-259.180	-179.957	0.208	-0.004
-258.165	-200.000	-0.032	0.356
-257.151	-18.348	-0.208	0.129
-256.136	65.976	-0.089	-0.090
-255.122	-32.871	0.061	-0.034
-254.107	69.578	-0.154	0.158
-253.092	800.000	-0.020	0.086
-252.078	-200.000	-0.030	-0.139
-251.063	-93.473	0.215	-0.059
-250.049	-31.412	0.165	0.092
-249.034	-138.287	0.107	0.012
-248.019	-200.000	0.048	-0.433
-247.005	-44.734	0.235	0.116
-245.990	396.602	-0.099	-0.205
-244.976	-200.000	-0.025	-0.177
-243.961	5.757	0.201	-0.148
-242.946	-17.688	-0.245	-0.153
-241.932	-200.000	0.020	-0.092
-240.917	-200.000	0.019	0.207
-239.903	253.699	-0.049	-0.084
-238.888	-200.000	-0.014	0.271
-237.873	300.983	-0.080	0.148
-236.859	-159.350	-0.182	0.010
-235.844	-127.929	0.202	0.029
-234.830	453.384	-0.197	0.432
-233.815	-152.289	0.165	-0.012
-232.800	-114.816	-0.161	0.030
-231.786	-123.394	0.149	0.024
-230.771	-150.992	0.179	0.013
-229.757	800.000	0.074	0.255
-228.742	-60.821	0.141	-0.059
-227.727	-3.636	0.094	0.065
-226.713	493.038	-0.154	0.351
-225.698	-120.390	0.199	-0.034
-224.684	32.584	0.052	-0.045
-223.669	171.596	-0.094	0.134
-222.655	-73.364	-0.200	-0.073
-221.640	87.011	-0.029	-0.032
-220.625	-95.471	0.241	-0.064
-219.611	-126.830	0.340	-0.050
-218.596	-70.337	-0.173	-0.065
-217.582	-200.000	0.005	-0.119
-216.567	-108.935	0.233	0.049
-215.552	800.000	0.083	-0.359
-214.538	-51.661	-0.213	-0.099
-213.523	369.025	0.091	0.183
-212.509	774.500	-0.040	-0.110
-211.494	17.970	-0.098	-0.077
-210.479	-4.275	-0.094	0.064
-209.465	-200.000	0.041	-0.203
-208.450	-200.000	-0.001	-0.162
-207.436	184.796	0.062	0.091
-206.421	-149.596	0.074	0.006
-205.406	-4.011	0.229	0.157
-204.392	-96.451	-0.137	0.036
-203.377	-128.884	0.130	-0.018
-202.363	-200.000	0.010	0.107
-201.348	16.351	-0.300	-0.235
-200.333	106.817	0.265	-0.312
-199.319	-77.390	-0.396	0.137
-198.304	-200.000	-0.029	0.344
-197.290	800.000	0.095	-0.274
-196.275	800.000	0.098	-0.287
-195.260	-69.069	-0.067	0.025
-194.246	79.027	-0.141	0.150
-193.231	137.216	-0.233	0.302
-192.217	98.009	0.302	-0.345
-191.202	163.760	0.159	-0.222
-190.187	-9.073	-0.485	0.322
-189.173	-200.000	-0.017	-0.143
-188.158	-200.000	-0.004	0.408
-187.144	653.720	-0.076	-0.192
-186.129	800.000	-0.106	-0.374
-185.114	234.962	0.120	0.197
-184.100	-83.422	0.043	0.014
-183.085	-200.000	0.008	-0.216
-182.071	730.675	-0.081	0.214
-181.056	-200.000	-0.008	-0.284
-180.042	92.817	-0.140	-0.157
-179.027	-112.268	-0.196	-0.039
-178.012	-131.206	-0.223	0.029
-176.998	-146.039	0.179	-0.016
-175.983	789.247	-0.173	-0.470
-174.969	184.234	-0.235	-0.345
-173.954	92.776	0.408	-0.457
-172.939	800.000	0.054	0.151
-171.925	36.639	0.014	-0.012
-170.910	800.000	-0.072	0.286
-169.896	-67.593	0.205	0.079
-168.881	-94.610	0.096	-0.026
-167.866	-76.238	-0.263	0.092
-166.852	-54.626	-0.360	0.161
-165.837	-200.000	0.008	0.070
-164.823	73.572	0.176	-0.183
-163.808	102.235	0.219	-0.253
-162.793	-116.930	-0.251	0.046
-161.779	-119.365	0.193	0.033
-160.764	84.060	0.095	-0.103
-159.750	-172.683	0.305	-0.009
-158.735	434.610	-0.052	-0.112
-157.720	-82.812	0.269	-0.086
-156.706	211.769	-0.087	0.136
-155.691	324.251	0.074	0.141
-154.677	-156.038	-0.174	0.011
-153.662	-200.000	-0.069	0.332
-152.647	38.659	-0.294	0.260
-151.633	-66.518	0.233	-0.092
-150.618	-161.239	0.091	-0.005
-149.604	-200.000	-0.007	0.157
-148.589	64.559	0.133	0.132
-147.574	-200.000	-0.326	0.000
-146.560	-19.831	0.345	-0.211
-145.545	-183.440	-0.262	0.004
-144.531	245.926	0.185	0.309
-143.516	246.152	0.241	0.402
-142.502	-18.904	-0.259	-0.159
-141.487	-90.689	-0.043	-0.012
-140.472	-144.212	0.231	-0.021
-139.458	-68.696	-0.513	0.196
-138.443	-186.041	0.180	-0.003
-137.429	33.134	-0.133	0.114
-136.414	540.372	-0.201	-0.473
-135.399	-96.215	0.118	-0.031
-134.385	45.632	0.100	0.091
-133.370	270.792	0.031	0.054
-132.356	-188.707	-0.163	0.002
-131.341	-31.576	-0.315	0.175
-130.326	618.043	-0.026	0.064
-129.312	14.686	0.141	0.109
-128.297	323.661	-0.131	0.248
-127.283	800.000	-0.051	-0.187
-126.268	-106.838	0.086	0.019
-125.253	85.459	0.052	-0.057
-124.239	-157.966	-0.350	-0.020
-123.224	39.049	0.168	-0.148
-122.210	142.273	-0.250	-0.328
