DTS Sentinel unit serial number:	SN413079Multiplexer serial number:	ORYXHardware model number:	OX4-SRSoftware version number:	ORYX F/W v4.00 Oryx Data Collector v3.7.2.0data status	okinstallation	princeton_trtdifferential loss correction	single-endedforward channel	channel 1reverse channel	N/Adate	2019/09/12time	02:52:11forward acquisition time	60.00reverse acquisition time	0.00gamma	496.2192k internal	0.2322k external	0.2322temperature offset calibration	1.0077default loss term (dB/km)	0.3790temperature slope calibration	1.0000multiplexer offset coefficient	1.0000multiplexer slope coefficient	1.0000fibre end	0.00T internal ref (°C)	32.31T ext. ref 1 (°C)	2.09T ext. ref 2 (°C)	27.17length (m)	temperature (°C)	Stokes	anti-Stokes-747.200	-72.066	-0.017	0.007
-746.185	-1.667	-0.111	0.079
-745.171	-92.886	0.363	-0.103
-744.156	-200.000	0.004	0.134
-743.142	-0.859	-0.067	0.048
-742.127	800.000	0.113	0.374
-741.112	151.296	0.142	-0.195
-740.098	-109.780	-0.427	0.091
-739.083	188.216	0.131	0.198
-738.069	22.693	-0.184	-0.152
-737.054	37.828	-0.156	-0.140
-736.039	-181.011	-0.229	0.005
-735.025	580.965	-0.123	0.306
-734.010	446.165	-0.032	0.072
-732.996	800.000	0.095	-0.319
-731.981	-158.257	0.145	-0.009
-730.966	800.000	-0.103	-0.386
-729.952	-30.912	-0.169	-0.096
-728.937	522.825	-0.141	-0.334
-727.923	40.074	0.236	-0.214
-726.908	17.508	0.145	-0.116
-725.894	-119.669	0.296	0.052
-724.879	800.000	-0.062	-0.221
-723.864	49.784	-0.038	0.036
-722.850	-87.085	-0.256	-0.079
-721.835	534.041	-0.050	-0.120
-720.821	-174.844	0.152	-0.004
-719.806	-200.000	0.006	-0.046
-718.791	-44.104	-0.121	-0.061
-717.777	697.861	-0.108	-0.285
-716.762	334.905	-0.137	-0.268
-715.748	-68.009	-0.295	0.116
-714.733	-200.000	0.016	0.273
-713.718	800.000	-0.093	-0.391
-712.704	370.694	0.100	-0.204
-711.689	-200.000	0.348	-0.001
-710.675	221.651	0.054	-0.088
-709.660	800.000	-0.111	-0.328
-708.645	-65.101	-0.280	-0.114
-707.631	-93.579	0.325	-0.091
-706.616	255.356	0.187	-0.323
-705.602	753.736	-0.064	-0.175
-704.587	-200.000	-0.015	0.168
-703.572	590.698	0.025	-0.063
-702.558	-200.000	0.018	-0.156
-701.543	-200.000	0.006	0.191
-700.529	-128.896	-0.393	0.056
-699.514	-91.659	0.225	0.065
-698.499	800.000	-0.019	0.073
-697.485	201.167	-0.183	0.285
-696.470	-43.308	0.239	0.122
-695.456	-47.124	-0.303	0.149
-694.441	44.752	0.191	0.177
-693.426	-74.427	0.114	-0.042
-692.412	137.381	-0.198	-0.261
-691.397	310.437	-0.209	-0.394
-690.383	-200.000	0.037	-0.414
-689.368	800.000	0.095	-0.305
-688.354	4.541	0.134	0.099
-687.339	52.549	-0.093	0.089
-686.324	-144.090	-0.290	0.027
-685.310	-94.675	0.096	-0.026
-684.295	800.000	0.037	-0.138
-683.281	-200.000	0.023	0.104
-682.266	138.657	-0.202	-0.267
-681.251	800.000	-0.045	0.138
-680.237	99.570	-0.126	0.148
-679.222	274.607	0.104	-0.186
-678.208	-66.648	0.035	-0.014
-677.193	82.682	-0.092	-0.101
-676.178	-79.994	0.468	-0.158
-675.164	259.025	-0.121	0.210
-674.149	52.942	-0.165	-0.159
-673.135	202.398	0.192	-0.299
-672.120	72.948	0.200	-0.211
-671.105	-200.000	-0.024	0.191
-670.091	-200.000	-0.018	0.080
-669.076	24.764	-0.053	-0.044
-668.062	608.196	-0.090	-0.226
-667.047	184.373	-0.178	-0.266
-666.032	-51.110	0.213	0.100
-665.018	-200.000	-0.059	0.265
-664.003	109.399	-0.178	-0.214
-662.989	-103.210	-0.065	-0.016
-661.974	23.287	-0.102	-0.084
-660.959	-200.000	0.056	-0.355
-659.945	-70.316	-0.308	-0.118
-658.930	685.037	0.089	-0.234
-657.916	-200.000	-0.016	0.073
-656.901	61.170	-0.038	-0.038
-655.886	401.020	0.022	0.047
-654.872	-200.000	0.020	-0.177
-653.857	56.141	-0.226	-0.221
-652.843	124.695	0.090	-0.114
-651.828	475.391	-0.059	0.134
-650.814	43.046	0.102	0.094
-649.799	-15.625	0.282	-0.181
-648.784	-139.696	-0.056	-0.006
-647.770	300.932	-0.053	-0.099
-646.755	800.000	-0.009	0.032
-645.741	-200.000	0.021	-0.096
-644.726	-200.000	0.033	-0.168
-643.711	675.234	-0.109	-0.285
-642.697	-164.538	0.124	0.006
-641.682	800.000	0.136	-0.481
-640.668	-200.000	0.049	-0.309
-639.653	282.261	-0.073	0.132
-638.638	196.144	0.180	-0.276
-637.624	-200.000	-0.040	0.238
-636.609	-81.318	-0.119	0.040
-635.595	800.000	-0.027	-0.097
-634.580	-66.130	0.261	-0.105
-633.565	311.690	0.214	-0.405
-632.551	-24.557	-0.015	-0.009
-631.536	201.802	-0.063	-0.098
-630.522	296.345	0.111	0.205
-629.507	142.986	-0.266	0.356
-628.492	349.845	-0.125	-0.249
-627.478	800.000	0.057	0.228
-626.463	800.000	0.059	0.209
-625.449	800.000	-0.072	-0.217
-624.434	-102.284	-0.311	0.075
-623.419	-82.116	-0.293	-0.096
-622.405	348.580	0.105	0.209
-621.390	-72.874	-0.227	0.084
-620.376	-64.700	0.405	0.165
-619.361	109.156	-0.140	0.169
-618.346	262.662	0.113	0.197
-617.332	-200.000	-0.043	-0.268
-616.317	174.823	-0.137	-0.199
-615.303	688.498	0.022	-0.059
-614.288	800.000	-0.067	-0.242
-613.273	562.767	0.082	-0.199
-612.259	58.483	-0.135	0.133
-611.244	-115.500	0.315	-0.060
-610.230	178.163	-0.083	0.122
-609.215	-200.000	-0.027	0.250
-608.201	-77.075	-0.446	-0.156
-607.186	96.305	-0.095	-0.110
-606.171	-130.732	-0.233	-0.031
-605.157	239.019	0.125	0.209
-604.142	248.246	-0.130	-0.221
-603.128	373.981	0.036	-0.074
-602.113	-46.489	-0.205	0.101
-601.098	142.487	-0.134	0.179
-600.084	-200.000	0.060	-0.343
-599.069	139.572	0.057	-0.075
-598.055	246.989	-0.031	-0.052
-597.040	62.708	0.192	-0.193
-596.025	-36.265	0.356	-0.193
-595.011	-125.198	-0.107	-0.016
-593.996	72.665	-0.128	0.135
-592.982	254.448	0.003	0.005
-591.967	-3.652	-0.045	0.032
-590.952	800.000	0.117	-0.346
-589.938	-11.242	-0.125	-0.083
-588.923	-68.685	0.113	0.044
-587.909	-87.344	0.169	-0.052
-586.894	-166.283	-0.154	0.007
-585.879	199.569	-0.076	-0.118
-584.865	-144.671	0.112	0.010
-583.850	-70.801	0.116	-0.044
-582.836	179.075	0.052	-0.076
-581.821	31.144	-0.093	0.080
-580.806	-73.597	0.304	0.111
-579.792	-200.000	-0.040	-0.552
-578.777	47.595	0.091	0.085
-577.763	-200.000	0.013	0.284
-576.748	113.157	0.133	0.162
-575.733	-200.000	-0.014	-0.167
-574.719	-105.705	0.082	0.019
-573.704	7.495	0.023	-0.017
-572.690	-200.000	-0.021	0.173
-571.675	-2.818	-0.219	0.154
-570.661	-17.283	0.254	0.161
-569.646	-119.312	0.398	0.070
-568.631	186.155	-0.092	-0.137
-567.617	-10.284	0.229	-0.153
-566.602	-200.000	0.041	-0.351
-565.588	9.911	0.420	0.320
-564.573	61.836	-0.027	0.027
-563.558	-18.887	0.130	0.081
-562.544	82.385	-0.169	0.184
-561.529	-76.483	0.230	0.081
-560.515	-28.647	-0.039	0.023
-559.500	-83.478	0.235	-0.076
-558.485	-61.759	-0.071	-0.030
-557.471	487.067	0.131	-0.300
-556.456	467.980	0.055	-0.123
-555.442	80.550	-0.219	-0.237
-554.427	-143.698	0.139	0.013
-553.412	302.296	0.035	-0.065
-552.398	-137.788	0.434	-0.049
-551.383	-62.741	-0.061	-0.025
-550.369	94.337	0.231	0.263
-549.354	-200.000	0.003	0.067
-548.339	-12.283	0.103	-0.068
-547.325	-194.680	0.257	-0.002
-546.310	-70.121	-0.227	0.087
-545.296	39.143	-0.147	0.132
-544.281	114.638	-0.099	-0.121
-543.266	-9.775	0.166	0.111
-542.252	181.454	-0.129	-0.190
-541.237	-200.000	-0.064	0.491
-540.223	19.762	-0.159	0.128
-539.208	-200.000	0.008	-0.069
-538.193	118.090	-0.052	0.065
-537.179	-70.996	0.153	0.058
-536.164	-53.392	-0.093	0.043
-535.150	-38.279	-0.163	0.087
-534.135	-71.118	0.252	0.095
-533.121	-99.054	0.114	-0.029
-532.106	-34.634	0.296	-0.163
-531.091	-200.000	-0.053	-0.364
-530.077	800.000	0.079	-0.299
-529.062	-48.979	0.326	-0.157
-528.048	-200.000	-0.024	0.221
-527.033	-177.537	0.156	-0.004
-526.018	45.925	-0.203	-0.188
-525.004	-200.000	0.005	-0.046
-523.989	-200.000	-0.028	-0.253
-522.975	800.000	0.014	-0.054
-521.960	800.000	-0.017	-0.065
-520.945	31.811	0.168	-0.145
-519.931	-109.990	0.219	-0.046
-518.916	-200.000	-0.012	-0.196
-517.902	-200.000	0.053	0.253
-516.887	-113.840	0.147	0.029
-515.872	-109.360	0.278	0.059
-514.858	330.032	-0.118	-0.227
-513.843	-28.262	-0.291	-0.169
-512.829	158.911	0.140	0.195
-511.814	16.845	0.478	0.379
-510.799	-87.924	-0.363	0.109
-509.785	97.414	0.086	-0.099
-508.770	800.000	0.084	-0.277
-507.756	-79.595	-0.150	0.051
-506.741	204.468	-0.066	-0.103
-505.726	324.805	-0.053	-0.101
-504.712	293.701	0.043	0.078
-503.697	194.147	0.048	0.073
-502.683	123.543	-0.105	-0.131
-501.668	29.972	-0.126	0.107
-500.653	40.529	-0.183	0.165
-499.639	117.772	0.075	-0.093
-498.624	-200.000	-0.002	0.235
-497.610	252.007	-0.198	0.337
-496.595	800.000	0.046	0.194
-495.581	800.000	-0.037	-0.127
-494.566	-60.651	0.188	-0.080
-493.551	-176.646	0.081	-0.002
-492.537	66.806	0.186	-0.189
-491.522	-57.922	-0.123	-0.054
-490.508	-200.000	-0.032	0.267
-489.493	49.613	-0.200	-0.189
-488.478	800.000	-0.146	-0.418
-487.464	6.868	-0.150	-0.111
-486.449	-99.045	0.116	0.029
-485.435	243.431	-0.117	-0.196
-484.420	-90.651	-0.130	0.038
-483.405	110.114	-0.169	0.203
-482.391	-27.533	-0.093	0.054
-481.376	41.512	0.286	0.259
-480.362	-200.000	-0.035	0.271
-479.347	118.994	-0.252	-0.311
-478.332	-142.533	0.411	-0.040
-477.318	-200.000	-0.015	0.407
-476.303	119.506	-0.121	-0.150
-475.289	21.795	-0.126	-0.103
-474.274	-100.830	0.157	-0.039
-473.259	-200.000	0.162	0.000
-472.245	9.328	-0.207	-0.157
-471.230	-200.000	0.002	0.029
-470.216	-40.258	-0.146	-0.076
-469.201	-70.674	0.194	0.073
-468.186	235.384	-0.157	-0.259
-467.172	309.231	-0.248	0.463
-466.157	-41.681	-0.093	-0.048
-465.143	203.337	-0.102	0.157
-464.128	-200.000	0.013	0.115
-463.113	800.000	-0.060	-0.228
-462.099	73.761	-0.127	0.133
-461.084	800.000	-0.043	-0.141
-460.070	150.682	0.163	0.222
-459.055	-16.698	-0.186	-0.118
-458.040	800.000	0.116	0.327
-457.026	-2.956	0.457	-0.319
-456.011	-70.779	-0.173	0.065
-454.997	9.509	-0.139	0.105
-453.982	-54.254	-0.169	-0.077
-452.968	-9.765	0.139	-0.092
-451.953	-200.000	-0.007	-0.132
-450.938	-129.851	-0.103	-0.014
-449.924	111.806	-0.130	-0.157
-448.909	-117.664	0.219	-0.039
-447.895	-97.716	-0.313	-0.081
-446.880	-53.860	0.060	-0.027
-445.865	-111.806	-0.148	0.030
-444.851	581.999	-0.052	0.127
-443.836	192.286	-0.146	-0.221
-442.822	-159.038	0.267	0.015
-441.807	612.900	-0.031	0.077
-440.792	23.939	-0.124	-0.102
-439.778	-197.564	-0.136	-0.001
-438.763	21.961	0.076	-0.062
-437.749	509.518	0.047	-0.109
-436.734	-54.846	0.130	-0.059
-435.719	611.016	0.120	-0.299
-434.705	245.836	0.049	0.083
-433.690	-196.298	0.094	0.001
-432.676	800.000	0.067	0.207
-431.661	800.000	0.141	0.417
-430.646	-200.000	-0.023	0.108
-429.632	221.121	0.150	0.240
-428.617	-200.000	0.003	-0.136
-427.603	721.172	0.146	0.388
-426.588	146.553	0.082	-0.110
-425.573	485.754	0.143	0.324
-424.559	-24.650	0.134	-0.080
-423.544	115.153	0.053	-0.065
-422.530	-111.169	0.176	0.036
-421.515	-200.000	0.001	-0.152
-420.500	800.000	-0.039	0.153
-419.486	-200.000	0.023	0.125
-418.471	70.738	-0.155	-0.160
-417.457	800.000	0.122	-0.376
-416.442	38.919	-0.270	-0.241
-415.428	3.654	-0.232	-0.169
-414.413	800.000	-0.013	-0.055
-413.398	153.620	0.090	-0.123
-412.384	800.000	-0.028	0.089
-411.369	-200.000	-0.051	0.259
-410.355	51.235	-0.028	-0.026
-409.340	299.947	0.131	-0.240
-408.325	800.000	-0.051	0.155
-407.311	145.561	0.046	0.061
-406.296	-200.000	-0.031	0.140
-405.282	-79.454	0.137	0.046
-404.267	-200.000	0.012	0.114
-403.252	-9.422	-0.301	0.200
-402.238	-16.122	-0.204	-0.129
-401.223	-200.000	0.003	-0.094
-400.209	800.000	-0.012	0.037
-399.194	-200.000	-0.014	0.187
-398.179	86.766	-0.197	0.216
-397.165	-43.523	0.202	-0.102
-396.150	-35.484	-0.054	-0.029
-395.136	488.944	0.029	0.066
-394.121	601.335	-0.119	-0.294
-393.106	222.876	-0.147	0.236
-392.092	-200.000	0.048	-0.389
-391.077	-118.053	-0.165	0.029
-390.063	-200.000	-0.023	-0.166
-389.048	-140.389	0.075	-0.008
-388.033	-25.035	0.065	-0.038
-387.019	7.742	0.106	-0.079
-386.004	800.000	0.050	-0.144
-384.990	-60.871	-0.232	0.098
-383.975	-35.727	0.089	-0.048
-382.960	-60.961	-0.084	0.035
-381.946	106.454	0.181	-0.214
-380.931	150.349	-0.056	-0.075
-379.917	-122.875	0.064	0.010
-378.902	-57.961	-0.081	-0.035
-377.888	81.628	0.227	0.245
-376.873	800.000	0.090	0.346
-375.858	-200.000	-0.030	0.192
-374.844	64.372	-0.319	-0.320
-373.829	-200.000	-0.005	0.142
-372.815	-200.000	0.028	-0.128
-371.800	800.000	0.047	0.180
-370.785	45.608	0.115	0.106
-369.771	99.338	-0.089	-0.103
-368.756	-67.622	-0.186	0.072
-367.742	-98.793	-0.244	-0.062
-366.727	-79.351	0.270	0.091
-365.712	-54.980	-0.159	0.072
-364.698	-200.000	0.000	0.037
-363.683	344.265	0.035	0.068
-362.669	360.990	0.088	-0.176
-361.654	244.725	-0.134	0.224
-360.639	-88.701	-0.384	-0.114
-359.625	-31.017	-0.338	0.190
-358.610	-133.852	0.152	-0.019
-357.596	-15.463	-0.044	0.028
-356.581	22.924	-0.033	-0.027
-355.566	387.760	0.109	0.225
-354.552	379.110	0.160	-0.326
-353.537	-58.932	-0.218	0.094
-352.523	-150.800	0.386	-0.029
-351.508	-200.000	-0.019	-0.131
-350.493	-114.165	-0.113	-0.022
-349.479	-200.000	0.003	-0.012
-348.464	0.163	-0.176	0.125
-347.450	-200.000	0.011	0.145
-346.435	800.000	0.085	-0.268
-345.420	497.277	0.063	0.144
-344.406	-200.000	-0.034	0.277
-343.391	249.045	0.087	0.146
-342.377	-7.953	0.195	0.131
-341.362	-200.000	-0.014	0.223
-340.348	-38.237	-0.160	-0.085
-339.333	64.970	0.130	0.130
-338.318	-200.000	-0.010	-0.221
-337.304	104.830	-0.225	0.264
-336.289	-200.000	0.012	-0.183
-335.275	64.600	0.159	0.160
-334.260	-133.729	-0.072	0.009
-333.245	94.723	-0.059	-0.067
-332.231	27.916	0.130	0.109
-331.216	-160.076	-0.118	-0.006
-330.202	201.963	-0.163	-0.249
-329.187	-20.667	-0.128	0.078
-328.172	-28.604	-0.195	0.112
-327.158	131.791	-0.082	0.105
-326.143	-76.401	0.234	0.082
-325.129	800.000	0.056	0.182
-324.114	-200.000	-0.022	-0.283
-323.099	647.157	-0.083	-0.212
-322.085	515.250	-0.113	-0.262
-321.070	-41.512	-0.067	-0.034
-320.056	62.985	-0.188	0.187
-319.041	80.754	-0.244	0.262
-318.026	-36.997	0.158	0.084
-317.012	7.143	-0.235	0.175
-315.997	77.463	0.354	-0.375
-314.983	-200.000	0.007	0.248
-313.968	800.000	0.166	0.486
-312.953	1.995	-0.099	-0.071
-311.939	69.147	0.110	0.112
-310.924	180.343	-0.046	0.067
-309.910	-82.254	-0.139	-0.045
-308.895	88.160	0.165	-0.182
-307.880	144.215	-0.286	-0.379
-306.866	-126.634	-0.144	0.021
-305.851	80.635	0.135	0.144
-304.837	154.296	-0.221	-0.301
-303.822	172.087	-0.160	-0.228
-302.807	-70.374	-0.050	0.019
-301.793	800.000	-0.040	0.166
-300.778	800.000	-0.060	0.257
-299.764	114.523	-0.331	0.400
-298.749	-87.104	-0.205	0.062
-297.735	4.396	-0.185	0.134
-296.720	-116.147	0.237	-0.044
-295.705	259.392	0.306	0.524
-294.691	-86.625	0.033	0.010
-293.676	-200.000	-0.025	0.158
-292.662	-93.699	0.249	-0.068
-291.647	98.429	-0.132	-0.151
-290.632	800.000	0.033	0.098
-289.618	-200.000	0.015	-0.296
-288.603	-200.000	-0.007	-0.055
-287.589	153.562	-0.165	0.225
-286.574	565.100	0.084	-0.201
-285.559	-200.000	-0.009	-0.308
-284.545	-153.695	0.128	0.009
-283.530	52.022	-0.028	0.026
-282.516	-7.372	0.056	-0.037
-281.501	-200.000	-0.051	-0.277
-280.486	-176.716	0.240	0.006
-279.472	800.000	-0.065	0.275
-278.457	-200.000	0.016	0.156
-277.443	528.606	0.068	-0.160
-276.428	800.000	0.069	-0.268
-275.413	-200.000	-0.009	-0.370
-274.399	-53.148	-0.154	-0.070
-273.384	8.048	-0.208	0.155
-272.370	-32.144	0.202	0.112
-271.355	-200.000	0.060	0.503
-270.340	-26.042	0.251	0.146
-269.326	800.000	0.051	-0.145
-268.311	142.736	0.233	0.308
-267.297	163.768	-0.017	0.024
-266.282	183.703	0.145	-0.212
-265.267	-132.894	-0.313	-0.040
-264.253	-125.509	0.183	0.028
-263.238	-2.648	0.109	-0.076
-262.224	189.312	-0.126	-0.187
-261.209	98.748	-0.213	0.243
-260.195	800.000	0.150	-0.449
-259.180	-200.000	-0.012	0.215
-258.165	-165.234	0.207	-0.009
-257.151	-76.244	0.195	0.068
-256.136	800.000	0.063	-0.217
-255.122	-92.306	-0.116	-0.032
-254.107	31.464	-0.176	0.150
-253.092	19.981	-0.023	0.018
-252.078	6.325	-0.210	-0.155
-251.063	-43.439	-0.292	0.146
-250.049	52.763	-0.028	-0.027
-249.034	99.440	0.123	0.140
-248.019	-81.668	-0.285	0.093
-247.005	-79.663	0.153	-0.051
-245.990	-6.453	-0.179	-0.121
-244.976	14.415	0.216	-0.167
-243.961	-200.000	0.031	0.320
-242.946	13.662	0.066	0.051
-241.932	-99.035	-0.312	0.078
-240.917	69.286	0.107	0.109
-239.903	800.000	0.070	0.267
-238.888	343.430	-0.040	0.078
-237.873	-29.310	-0.120	0.068
-236.859	-125.469	0.124	-0.019
-235.844	-27.139	0.051	0.029
-234.830	-27.380	0.236	0.136
-233.815	-50.296	0.185	0.087
-232.800	43.597	0.079	-0.071
-231.786	-200.000	0.019	-0.397
-230.771	-92.207	0.276	0.077
-229.757	-0.944	-0.052	-0.037
-228.742	10.341	-0.106	-0.080
-227.727	-169.608	0.297	0.011
-226.713	-164.807	0.195	0.009
-225.698	-62.442	0.325	0.134
-224.684	-114.457	-0.193	-0.037
-223.669	187.410	0.150	0.221
-222.655	-121.465	0.152	0.025
-221.640	-200.000	0.054	-0.245
-220.625	-119.475	-0.230	0.040
-219.611	800.000	-0.064	-0.270
-218.596	-55.815	-0.205	0.091
-217.582	-143.380	0.238	-0.023
-216.567	-78.867	-0.119	0.040
-215.552	9.388	-0.169	-0.127
-214.538	-2.159	-0.201	0.140
-213.523	506.482	0.076	-0.173
-212.509	-113.775	-0.187	0.036
-211.494	-26.188	0.132	-0.077
-210.479	-27.950	-0.295	-0.169
-209.465	-51.096	0.184	-0.085
-208.450	-200.000	0.058	0.320
-207.436	186.043	-0.112	0.165
-206.421	-117.103	0.122	-0.022
-205.406	-97.394	-0.220	0.057
-204.392	-104.358	-0.209	0.048
-203.377	76.306	0.121	0.126
-202.363	362.294	-0.066	-0.132
-201.348	-200.000	0.003	-0.144
-200.333	-5.976	-0.134	0.090
-199.319	-1.019	-0.085	0.059
-198.304	176.954	0.190	0.273
-197.290	-30.217	0.062	-0.035
-196.275	169.452	0.114	0.161
-195.260	-145.918	-0.474	-0.042
-194.246	800.000	-0.021	0.088
-193.231	772.862	0.152	0.410
-192.217	-111.532	-0.195	0.039
-191.202	33.109	-0.222	-0.191
-190.187	681.630	-0.180	-0.464
-189.173	800.000	0.024	0.104
-188.158	-71.776	0.193	0.071
-187.144	800.000	0.067	0.193
-186.129	226.086	-0.048	-0.078
-185.114	51.091	0.050	0.047
-184.100	-107.856	-0.113	0.024
-183.085	-144.085	0.268	-0.025
-182.071	-161.662	0.145	0.007
-181.056	-116.320	-0.340	0.062
-180.042	-118.455	0.178	-0.031
-179.027	800.000	0.056	0.207
-178.012	679.370	-0.047	-0.120
-176.998	-200.000	0.024	-0.287
-175.983	-128.042	0.256	-0.036
-174.969	-160.920	-0.202	0.011
-173.954	80.176	0.102	-0.108
-172.939	-127.716	0.137	-0.020
-171.925	253.544	-0.111	0.187
-170.910	-173.526	-0.075	0.002
-169.896	51.517	-0.142	0.133
-168.881	38.974	-0.226	-0.199
-167.866	-20.947	0.231	0.140
-166.852	283.013	-0.106	0.187
-165.837	-3.227	-0.151	-0.104
-164.823	-115.943	-0.130	-0.024
-163.808	-90.161	0.210	0.060
-162.793	-200.000	0.000	0.019
-161.779	-42.587	0.129	0.065
-160.764	-93.172	-0.259	0.071
-159.750	-200.000	0.034	-0.252
-158.735	380.408	-0.070	0.141
-157.720	800.000	0.007	0.025
-156.706	-147.453	0.062	-0.005
-155.691	69.404	0.054	0.055
-154.677	800.000	0.107	-0.297
-153.662	62.483	0.143	0.141
-152.647	360.001	0.061	-0.121
-151.633	-66.865	-0.305	0.119
-150.618	431.691	0.043	0.093
-149.604	313.806	0.064	0.119
-148.589	31.358	0.194	-0.165
-147.574	675.737	-0.189	-0.485
-146.560	94.651	-0.134	-0.150
-145.545	800.000	0.104	0.431
-144.531	-102.732	0.250	-0.059
-143.516	24.083	0.221	-0.180
-142.502	398.679	-0.060	0.125
-141.487	236.727	0.094	0.154
-140.472	-156.922	-0.329	-0.020
-139.458	110.787	-0.126	-0.150
-138.443	-200.000	0.010	-0.238
-137.429	219.339	-0.102	-0.162
-136.414	800.000	0.139	-0.381
-135.399	-200.000	-0.022	-0.258
-134.385	598.801	0.087	-0.213
-133.370	143.880	-0.216	-0.284
-132.356	115.303	0.242	-0.291
-131.341	-200.000	0.007	0.191
-130.326	-200.000	-0.050	0.261
-129.312	532.671	0.060	0.141
-128.297	-122.103	0.435	-0.070
-127.283	94.067	0.108	-0.120
-126.268	-200.000	0.058	-0.289
-125.253	92.107	0.206	0.229
-124.239	203.316	-0.058	0.089
-123.224	11.509	0.033	-0.025
-122.210	569.988	0.074	-0.178
-121.195	-75.488	-0.057	0.020
-120.180	-66.983	0.066	-0.026
