DTS Sentinel unit serial number:	SN413079Multiplexer serial number:	ORYXHardware model number:	OX4-SRSoftware version number:	ORYX F/W v4.00 Oryx Data Collector v3.7.2.0data status	okinstallation	princeton_trtdifferential loss correction	single-endedforward channel	channel 1reverse channel	N/Adate	2019/09/15time	12:58:35forward acquisition time	60.00reverse acquisition time	0.00gamma	496.2192k internal	0.2296k external	0.2296temperature offset calibration	0.9982default loss term (dB/km)	0.3790temperature slope calibration	1.0000multiplexer offset coefficient	1.0000multiplexer slope coefficient	1.0000fibre end	0.00T internal ref (°C)	36.39T ext. ref 1 (°C)	5.03T ext. ref 2 (°C)	34.46length (m)	temperature (°C)	Stokes	anti-Stokes-747.200	-200.000	0.064	-0.445
-746.185	800.000	0.062	-0.262
-745.171	117.007	0.120	0.151
-744.156	514.489	0.108	-0.257
-743.142	4.418	-0.070	-0.053
-742.127	-56.144	-0.186	0.084
-741.112	162.565	-0.176	-0.252
-740.098	-92.462	0.154	-0.044
-739.083	-152.870	0.191	-0.014
-738.069	-26.669	-0.180	-0.108
-737.054	-153.035	-0.155	0.011
-736.039	378.330	0.094	-0.196
-735.025	42.275	0.332	0.308
-734.010	-115.716	-0.506	-0.097
-732.996	-39.521	0.155	0.083
-731.981	-46.391	-0.306	-0.154
-730.966	782.462	0.035	0.099
-729.952	-75.632	0.120	0.044
-728.937	-200.000	-0.039	-0.369
-727.923	-40.442	0.342	-0.182
-726.908	154.657	-0.149	-0.210
-725.894	-193.763	-0.185	0.002
-724.879	-75.273	-0.208	0.076
-723.864	620.333	-0.099	-0.253
-722.850	-96.098	-0.055	-0.015
-721.835	-115.396	-0.237	0.046
-720.821	749.524	0.045	0.123
-719.806	-178.013	-0.233	-0.006
-718.791	-71.530	-0.141	-0.054
-717.777	-45.348	-0.253	-0.128
-716.762	103.679	-0.241	-0.289
-715.748	-48.052	-0.212	-0.104
-714.733	-89.786	-0.090	-0.027
-713.718	-21.949	0.288	-0.179
-712.704	800.000	-0.073	-0.253
-711.689	800.000	-0.015	-0.059
-710.675	116.782	0.068	0.086
-709.660	-120.732	-0.177	-0.030
-708.645	-200.000	0.033	0.158
-707.631	-102.696	0.390	0.095
-706.616	445.717	0.045	0.101
-705.602	-200.000	0.013	0.347
-704.587	-42.949	-0.131	-0.068
-703.572	800.000	0.042	0.138
-702.558	61.918	-0.119	0.120
-701.543	213.632	0.188	0.304
-700.529	800.000	0.122	0.404
-699.514	-87.411	0.348	-0.108
-698.499	-33.354	-0.149	-0.084
-697.485	-200.000	-0.009	-0.257
-696.470	-29.715	-0.174	-0.101
-695.456	-43.961	0.167	-0.086
-694.441	800.000	0.080	0.242
-693.426	800.000	-0.091	-0.265
-692.412	-200.000	-0.008	-0.283
-691.397	800.000	0.056	-0.192
-690.383	99.436	0.090	0.106
-689.368	-12.499	0.144	-0.096
-688.354	-40.181	-0.081	-0.043
-687.339	784.564	-0.049	0.138
-686.324	-101.467	-0.149	-0.037
-685.310	800.000	-0.087	0.319
-684.295	-137.705	-0.363	-0.042
-683.281	71.551	-0.118	-0.125
-682.266	-16.143	-0.162	0.105
-681.251	66.753	-0.107	-0.111
-680.237	-200.000	0.085	-0.472
-679.222	-61.121	0.050	0.021
-678.208	800.000	0.090	0.321
-677.193	800.000	-0.065	0.260
-676.178	-48.055	0.286	0.141
-675.164	800.000	0.062	-0.214
-674.149	268.207	-0.158	0.282
-673.135	-21.417	0.076	-0.047
-672.120	-108.198	0.261	-0.058
-671.105	-93.474	-0.083	0.023
-670.091	-200.000	0.032	-0.141
-669.076	800.000	0.064	-0.184
-668.062	98.271	0.171	-0.200
-667.047	274.364	-0.091	0.165
-666.032	82.327	-0.026	0.028
-665.018	76.646	0.261	-0.282
-664.003	162.510	-0.147	-0.210
-662.989	223.156	-0.191	-0.313
-661.974	239.338	0.033	0.056
-660.959	-128.952	-0.363	-0.052
-659.945	-39.527	0.227	0.121
-658.930	363.718	-0.080	-0.164
-657.916	-146.252	0.385	-0.034
-656.901	-112.095	0.197	0.040
-655.886	800.000	0.021	0.081
-654.872	163.605	-0.092	-0.132
-653.857	-29.340	0.242	-0.141
-652.843	-200.000	-0.062	0.317
-651.828	-200.000	-0.064	-0.377
-650.814	10.109	-0.152	-0.118
-649.799	-200.000	0.020	0.153
-648.784	-99.773	-0.207	-0.053
-647.770	-103.765	0.219	-0.052
-646.755	-57.238	-0.235	-0.105
-645.741	-117.917	-0.301	0.055
-644.726	-200.000	-0.006	0.030
-643.711	-200.000	-0.026	-0.127
-642.697	430.359	0.061	-0.135
-641.682	800.000	-0.057	0.246
-640.668	156.791	0.069	0.097
-639.653	-171.778	-0.302	0.010
-638.638	-150.348	-0.145	0.011
-637.624	-200.000	0.000	-0.296
-636.609	596.708	0.158	0.398
-635.595	-200.000	-0.058	-0.321
-634.580	44.462	0.056	0.053
-633.565	800.000	-0.068	0.210
-632.551	800.000	-0.010	0.030
-631.536	35.841	0.063	0.056
-630.522	-200.000	0.034	0.371
-629.507	641.364	0.189	-0.490
-628.492	-151.886	0.236	-0.018
-627.478	204.450	0.077	0.121
-626.463	59.680	0.107	-0.107
-625.449	333.261	0.161	-0.317
-624.434	-92.073	0.188	0.054
-623.419	115.669	0.133	-0.166
-622.405	-89.813	0.124	-0.037
-621.390	800.000	-0.135	0.436
-620.376	131.849	-0.040	0.052
-619.361	-200.000	-0.030	-0.259
-618.346	7.074	0.240	-0.182
-617.332	543.431	0.021	0.052
-616.317	195.676	0.090	-0.138
-615.303	-25.397	-0.091	0.055
-614.288	-200.000	0.041	0.191
-613.273	-69.157	-0.221	-0.087
-612.259	59.972	0.073	0.074
-611.244	800.000	0.018	-0.064
-610.230	99.356	0.161	-0.189
-609.215	213.353	-0.037	-0.059
-608.201	-64.226	0.181	0.075
-607.186	-200.000	-0.001	-0.064
-606.171	9.929	-0.228	0.176
-605.157	-89.949	0.322	-0.095
-604.142	800.000	-0.099	-0.310
-603.128	-68.867	-0.221	-0.087
-602.113	295.846	0.101	-0.188
-601.098	-112.368	0.169	0.034
-600.084	179.434	-0.121	-0.180
-599.069	56.247	0.234	0.231
-598.055	-97.624	-0.412	0.108
-597.040	-200.000	0.036	-0.346
-596.025	207.801	-0.168	-0.267
-595.011	605.887	-0.112	-0.283
-593.996	-63.772	0.152	-0.063
-592.982	-117.205	0.122	-0.023
-591.967	89.729	0.089	-0.101
-590.952	-200.000	-0.001	0.238
-589.938	294.191	-0.106	-0.196
-588.923	269.668	-0.048	0.086
-587.909	138.237	0.169	0.224
-586.894	138.663	-0.113	-0.150
-585.879	518.842	-0.118	-0.281
-584.865	-200.000	-0.001	-0.278
-583.850	-88.773	0.101	-0.031
-582.836	-155.786	-0.222	0.014
-581.821	294.518	-0.049	0.092
-580.806	-72.098	0.294	0.111
-579.792	5.136	0.244	0.182
-578.777	-200.000	0.033	-0.334
-577.763	-200.000	0.019	-0.193
-576.748	277.738	0.150	-0.271
-575.733	17.002	0.234	0.188
-574.719	216.561	-0.128	-0.207
-573.704	-200.000	0.005	0.081
-572.690	380.024	0.048	0.100
-571.675	548.650	-0.121	0.295
-570.661	-200.000	-0.030	-0.164
-569.646	-200.000	0.002	-0.085
-568.631	-151.652	-0.286	-0.021
-567.617	44.858	0.065	0.061
-566.602	565.952	0.052	0.128
-565.588	9.418	-0.199	0.153
-564.573	6.170	0.066	-0.050
-563.558	250.179	0.169	-0.290
-562.544	171.040	0.128	0.187
-561.529	41.820	-0.281	0.258
-560.515	-106.907	-0.271	-0.061
-559.500	720.879	-0.083	-0.223
-558.485	170.295	0.146	-0.212
-557.471	179.861	-0.161	0.240
-556.456	-118.394	0.163	0.029
-555.442	-29.131	0.254	0.148
-554.427	-88.940	0.077	-0.023
-553.412	363.408	0.089	-0.181
-552.398	12.326	-0.225	-0.176
-551.383	41.605	0.217	-0.200
-550.369	-61.226	-0.175	0.075
-549.354	279.217	0.081	0.146
-548.339	-127.787	-0.109	0.016
-547.325	66.001	-0.124	-0.127
-546.310	-96.601	0.138	0.037
-545.296	265.900	-0.206	0.365
-544.281	212.980	0.018	-0.030
-543.266	-149.345	0.109	-0.009
-542.252	68.788	-0.140	-0.146
-541.237	576.122	-0.086	0.212
-540.223	-134.699	-0.339	-0.042
-539.208	37.963	-0.193	0.174
-538.193	-90.596	-0.355	0.104
-537.179	-32.107	0.148	-0.084
-536.164	-86.764	-0.144	0.045
-535.150	-115.400	0.210	-0.040
-534.135	-26.601	0.243	-0.144
-533.121	-199.991	0.360	-0.002
-532.106	-200.000	-0.011	-0.193
-531.091	800.000	-0.048	0.172
-530.077	800.000	-0.057	0.175
-529.062	77.508	0.160	-0.172
-528.048	-129.053	-0.061	-0.009
-527.033	-200.000	-0.004	-0.055
-526.018	66.570	-0.135	-0.139
-525.004	-92.887	0.179	-0.051
-523.989	800.000	0.035	-0.101
-522.975	459.666	0.084	-0.190
-521.960	236.077	-0.030	-0.051
-520.945	-99.820	-0.305	-0.077
-519.931	179.567	-0.096	-0.142
-518.916	517.338	-0.004	0.010
-517.902	34.098	-0.177	0.156
-516.887	-77.233	0.159	0.056
-515.872	185.515	0.083	0.124
-514.858	-54.847	-0.084	-0.039
-513.843	232.962	-0.131	0.218
-512.829	800.000	0.047	0.163
-511.814	1.112	0.106	-0.077
-510.799	800.000	0.090	-0.329
-509.785	-36.889	-0.293	-0.159
-508.770	800.000	0.102	0.307
-507.756	-80.937	0.129	-0.043
-506.741	-110.973	-0.352	0.073
-505.726	15.938	-0.205	0.164
-504.712	-200.000	-0.050	0.557
-503.697	-45.140	-0.218	-0.110
-502.683	-98.853	0.294	-0.076
-501.668	-200.000	0.036	-0.357
-500.653	796.070	-0.071	0.198
-499.639	36.418	0.120	0.107
-498.624	297.576	0.035	0.066
-497.610	154.666	-0.245	-0.340
-496.595	38.231	0.121	-0.109
-495.581	95.255	-0.192	0.222
-494.566	-179.709	0.205	-0.004
-493.551	4.521	-0.158	0.118
-492.537	-200.000	0.028	0.381
-491.522	123.274	-0.176	-0.223
-490.508	18.087	-0.300	-0.242
-489.493	59.083	0.340	-0.339
-488.478	484.090	0.137	-0.316
-487.464	-0.470	-0.068	0.049
-486.449	358.399	-0.074	0.149
-485.435	28.684	-0.173	0.148
-484.420	-34.372	-0.114	0.063
-483.405	1.854	0.356	0.259
-482.391	-136.022	0.303	0.036
-481.376	-109.036	-0.165	0.035
-480.362	-55.846	-0.199	-0.090
-479.347	-120.162	-0.028	-0.005
-478.332	595.085	0.081	0.201
-477.318	-21.000	-0.145	-0.090
-476.303	754.941	-0.055	-0.149
-475.289	-6.535	-0.280	-0.193
-474.274	300.811	-0.090	-0.169
-473.259	-80.062	0.260	0.088
-472.245	-51.113	-0.229	-0.108
-471.230	-200.000	0.006	-0.261
-470.216	384.849	0.030	-0.062
-469.201	-121.303	-0.312	0.053
-468.186	-56.018	-0.156	0.070
-467.172	-200.000	-0.009	-0.135
-466.157	99.192	-0.172	-0.201
-465.143	115.374	-0.136	0.168
-464.128	309.191	-0.075	-0.142
-463.113	800.000	0.061	0.227
-462.099	65.006	0.111	-0.113
-461.084	-200.000	-0.030	-0.167
-460.070	101.138	0.127	0.149
-459.055	4.167	0.107	0.079
-458.040	-24.392	0.201	0.121
-457.026	-28.859	0.138	0.080
-456.011	-37.117	0.170	-0.092
-454.997	800.000	0.016	-0.067
-453.982	-200.000	-0.014	-0.084
-452.968	249.132	0.025	-0.042
-451.953	158.034	-0.226	0.317
-450.938	-200.000	-0.037	0.407
-449.924	800.000	0.096	0.323
-448.909	-79.169	-0.188	0.065
-447.895	163.678	0.020	-0.029
-446.880	53.459	0.172	-0.166
-445.865	-103.889	-0.130	-0.031
-444.851	-83.247	0.078	-0.025
-443.836	-65.790	-0.226	-0.091
-442.822	81.837	0.198	-0.216
-441.807	176.437	-0.197	0.289
-440.792	39.719	0.054	0.049
-439.778	411.179	-0.066	0.141
-438.763	-94.960	-0.213	0.058
-437.749	-158.974	0.262	-0.015
-436.734	800.000	-0.187	0.558
-435.719	325.076	0.077	0.149
-434.705	309.866	0.305	-0.575
-433.690	202.218	0.094	-0.146
-432.676	-143.359	-0.088	-0.008
-431.661	178.294	0.105	-0.155
-430.646	9.507	0.283	-0.216
-429.632	-144.195	0.127	0.012
-428.617	7.249	-0.060	0.045
-427.603	-116.727	0.109	0.020
-426.588	179.255	0.236	0.349
-425.573	-67.703	0.303	0.120
-424.559	-92.291	-0.385	-0.110
-423.544	-54.631	-0.156	0.071
-422.530	608.962	0.092	0.233
-421.515	-200.000	0.028	0.127
-420.500	-200.000	0.001	0.154
-419.486	-200.000	0.018	0.213
-418.471	360.175	-0.166	0.334
-417.457	-139.825	0.097	-0.010
-416.442	-66.001	0.416	0.168
-415.428	-46.725	-0.254	0.126
-414.413	135.429	0.249	0.327
-413.398	171.357	-0.059	0.085
-412.384	800.000	-0.094	0.308
-411.369	63.989	-0.191	0.194
-410.355	-200.000	-0.022	0.228
-409.340	-7.619	0.081	0.055
-408.325	-200.000	-0.016	0.240
-407.311	-81.713	-0.353	0.117
-406.296	175.905	0.133	0.194
-405.282	62.164	-0.260	0.262
-404.267	116.337	0.114	-0.141
-403.252	-138.801	-0.034	-0.004
-402.238	87.246	-0.205	-0.228
-401.223	-161.860	0.208	0.011
-400.209	-1.290	0.216	-0.153
-399.194	-11.087	-0.181	-0.120
-398.179	132.333	0.166	0.216
-397.165	45.015	-0.148	-0.137
-396.150	373.363	-0.023	0.046
-395.136	126.194	0.276	-0.351
-394.121	259.163	-0.079	-0.137
-393.106	375.502	-0.071	-0.147
-392.092	-167.943	0.154	-0.006
-391.077	-200.000	-0.004	0.157
-390.063	-200.000	0.004	0.103
-389.048	-68.355	0.311	0.122
-388.033	77.120	-0.053	-0.057
-387.019	-200.000	-0.018	0.239
-386.004	-126.194	0.187	-0.028
-384.990	-77.335	0.111	-0.039
-383.975	-67.277	-0.187	-0.074
-382.960	16.985	-0.038	-0.031
-381.946	578.398	0.088	-0.217
-380.931	-39.452	0.200	-0.106
-379.917	20.036	0.105	0.085
-378.902	-39.767	-0.470	0.248
-377.888	-115.240	-0.026	0.005
-376.873	-134.402	0.182	-0.022
-375.858	800.000	-0.038	0.111
-374.844	-82.996	0.213	0.069
-373.829	-91.963	-0.051	0.015
-372.815	-61.623	-0.399	-0.168
-371.800	704.530	-0.022	-0.059
-370.785	-161.901	-0.312	-0.016
-369.771	100.528	-0.148	-0.173
-368.756	46.418	-0.053	0.049
-367.742	369.689	-0.056	0.114
-366.727	8.111	0.166	-0.125
-365.712	313.499	0.132	-0.250
-364.698	211.623	0.234	-0.371
-363.683	-113.490	-0.272	-0.054
-362.669	-2.446	-0.075	0.053
-361.654	-36.725	0.122	-0.066
-360.639	49.829	-0.236	-0.224
-359.625	-26.276	-0.185	0.109
-358.610	800.000	-0.128	0.497
-357.596	118.478	-0.202	0.251
-356.581	-200.000	0.274	-0.000
-355.566	-37.495	0.310	0.166
-354.552	76.658	-0.224	-0.239
-353.537	-114.256	0.167	0.032
-352.523	-189.248	0.122	0.001
-351.508	38.374	0.054	0.048
-350.493	82.959	-0.225	-0.246
-349.479	416.156	0.130	-0.279
-348.464	-15.305	-0.230	-0.148
-347.450	138.427	-0.195	-0.257
-346.435	-200.000	0.012	0.133
-345.420	-153.448	-0.459	-0.032
-344.406	72.629	0.133	-0.140
-343.391	-133.446	0.350	0.044
-342.377	800.000	-0.165	-0.505
-341.362	25.135	0.080	0.066
-340.348	-69.694	-0.255	0.098
-339.333	-200.000	0.004	0.059
-338.318	-116.560	0.155	-0.029
-337.304	-102.945	-0.093	0.022
-336.289	-46.203	0.265	-0.131
-335.275	-77.233	-0.406	0.142
-334.260	-98.278	0.250	-0.064
-333.245	381.715	-0.150	-0.309
-332.231	34.684	0.135	0.118
-331.216	-144.419	-0.097	0.009
-330.202	-21.343	-0.087	0.053
-329.187	77.129	0.177	0.189
-328.172	147.696	-0.164	-0.222
-327.158	-132.725	0.394	0.051
-326.143	-65.818	0.454	0.183
-325.129	-90.217	-0.351	-0.103
-324.114	3.847	0.149	-0.110
-323.099	137.722	0.189	0.249
-322.085	-123.783	-0.127	-0.020
-321.070	421.144	0.099	0.213
-320.056	-116.681	-0.162	0.030
-319.041	-35.403	0.118	0.064
-318.026	33.580	-0.145	-0.127
-317.012	-145.829	-0.188	-0.017
-315.997	-28.436	-0.406	0.235
-314.983	800.000	-0.083	0.232
-313.968	800.000	-0.089	-0.379
-312.953	239.942	0.166	0.278
-311.939	-200.000	0.095	-0.508
-310.924	170.239	-0.127	0.183
-309.910	-99.115	-0.136	0.035
-308.895	287.908	0.075	-0.137
-307.880	-83.914	0.107	0.034
-306.866	-80.888	0.028	-0.009
-305.851	-39.085	-0.108	0.057
-304.837	-71.108	0.197	-0.074
-303.822	-17.228	0.281	0.178
-302.807	107.079	0.128	0.153
-301.793	104.724	-0.114	0.135
-300.778	-92.994	-0.439	-0.123
-299.764	68.348	-0.143	-0.147
-298.749	45.558	-0.116	0.108
-297.735	228.714	-0.252	-0.412
-296.720	262.863	-0.104	0.182
-295.705	487.106	0.135	0.308
-294.691	-174.472	-0.217	-0.006
-293.676	94.356	-0.098	0.112
-292.662	-159.873	0.105	0.006
-291.647	160.384	0.108	-0.152
-290.632	800.000	-0.039	-0.156
-289.618	64.741	-0.144	0.146
-288.603	268.461	0.078	0.137
-287.589	-93.881	-0.160	0.044
-286.574	-153.284	-0.246	0.017
-285.559	-200.000	-0.044	0.193
-284.545	-200.000	0.029	0.171
-283.530	-200.000	-0.000	-0.125
-282.516	800.000	0.076	0.310
-281.501	800.000	0.070	0.303
-280.486	-89.172	0.211	-0.063
-279.472	-120.941	-0.358	0.060
-278.457	5.473	0.090	0.067
-277.443	16.763	-0.031	0.025
-276.428	36.306	0.206	-0.182
-275.413	0.941	0.093	-0.067
-274.399	-159.953	0.125	-0.007
-273.384	-86.210	-0.113	0.035
-272.370	-7.456	0.114	-0.077
-271.355	18.359	0.113	-0.091
-270.340	800.000	-0.018	-0.065
-269.326	-154.337	-0.213	0.014
-268.311	-149.648	-0.132	-0.010
-267.297	800.000	-0.032	0.107
-266.282	-125.119	-0.237	-0.037
-265.267	-200.000	-0.017	-0.318
-264.253	34.941	0.083	0.073
-263.238	155.236	0.131	-0.181
-262.224	-151.068	0.262	-0.020
-261.209	-24.529	-0.153	0.091
-260.195	72.037	0.131	0.137
-259.180	55.874	-0.217	0.211
-258.165	-15.509	0.072	-0.046
-257.151	750.078	0.092	0.249
-256.136	-61.666	0.013	0.005
-255.122	462.076	-0.075	0.168
-254.107	51.138	0.092	0.088
-253.092	-200.000	0.016	0.112
-252.078	106.597	0.209	-0.249
-251.063	55.724	-0.161	-0.157
-250.049	-108.899	0.135	0.029
-249.034	261.052	-0.083	0.143
-248.019	666.429	0.079	0.203
-247.005	43.337	0.188	0.172
-245.990	407.513	0.063	0.133
-244.976	87.521	-0.202	-0.224
-243.961	-82.844	0.265	0.086
-242.946	-162.972	0.443	-0.022
-241.932	248.917	-0.202	0.344
-240.917	-16.789	0.235	-0.149
-239.903	-200.000	0.033	-0.156
-238.888	784.260	0.035	0.095
-237.873	-188.715	-0.312	0.004
-236.859	72.837	0.115	-0.120
-235.844	-200.000	-0.032	-0.194
-234.830	664.384	-0.068	-0.175
-233.815	-161.599	0.341	-0.018
-232.800	481.944	0.072	-0.163
-231.786	800.000	-0.047	-0.172
-230.771	74.440	-0.017	-0.017
-229.757	-122.061	0.066	0.011
-228.742	-145.065	-0.462	0.042
-227.727	109.159	0.170	0.204
-226.713	31.697	0.202	-0.174
-225.698	518.061	0.224	-0.525
-224.684	136.859	-0.165	-0.216
-223.669	-43.071	0.345	0.175
-222.655	674.819	0.052	-0.136
-221.640	-121.780	0.439	0.073
-220.625	-170.818	-0.234	-0.008
-219.611	-20.734	0.165	0.101
-218.596	-28.344	0.298	-0.172
-217.582	96.499	0.064	-0.073
-216.567	105.263	-0.224	-0.265
-215.552	-77.661	-0.215	0.074
-214.538	-37.832	0.130	0.069
-213.523	-153.819	-0.219	-0.015
-212.509	14.836	-0.333	-0.261
-211.494	-138.363	-0.185	0.020
-210.479	146.333	0.196	-0.263
-209.465	118.547	-0.145	-0.180
-208.450	-29.880	0.324	0.185
-207.436	-61.406	0.133	-0.056
-206.421	-200.000	-0.029	0.340
-205.406	-200.000	-0.002	0.257
-204.392	-48.469	-0.274	0.132
-203.377	-200.000	0.034	-0.218
-202.363	-83.907	0.287	0.091
-201.348	118.996	-0.175	-0.216
-200.333	-200.000	-0.034	0.385
-199.319	216.796	0.215	-0.342
-198.304	800.000	-0.073	-0.202
-197.290	-8.045	-0.172	0.116
-196.275	-28.880	-0.173	0.099
-195.260	783.098	0.088	-0.240
-194.246	26.040	0.413	0.345
-193.231	-138.039	-0.093	-0.010
-192.217	-70.505	0.207	0.078
-191.202	-60.862	0.019	0.008
-190.187	602.924	0.077	0.191
-189.173	800.000	-0.028	0.084
-188.158	-41.398	-0.046	0.024
-187.144	-85.038	-0.227	0.071
-186.129	140.746	-0.227	0.300
-185.114	-127.339	0.228	0.033
-184.100	257.844	0.080	-0.138
-183.085	239.799	0.096	-0.160
-182.071	7.891	0.225	-0.169
-181.056	-88.838	0.239	-0.071
-180.042	322.748	0.066	0.126
-179.027	64.158	-0.337	0.339
-178.012	-200.000	-0.009	0.088
-176.998	800.000	-0.034	0.146
-175.983	7.571	0.269	-0.201
-174.969	-172.013	0.320	0.010
-173.954	-48.576	-0.216	0.104
-172.939	-99.063	-0.257	0.065
-171.925	-180.012	-0.183	-0.004
-170.910	622.807	-0.019	-0.047
-169.896	46.718	0.265	-0.246
-168.881	-200.000	0.023	0.281
-167.866	-200.000	-0.047	-0.320
-166.852	254.624	-0.069	0.117
-165.837	418.509	-0.015	-0.031
-164.823	-61.074	-0.107	0.045
-163.808	-130.186	-0.224	0.031
-162.793	144.505	0.084	0.112
-161.779	-60.484	-0.217	0.092
-160.764	-200.000	0.036	-0.189
-159.750	-109.288	0.222	-0.047
-158.735	4.482	-0.097	-0.071
-157.720	291.321	0.153	-0.278
-156.706	-122.244	0.196	-0.032
-155.691	46.620	-0.072	0.067
-154.677	119.202	-0.055	-0.067
-153.662	-79.780	0.193	-0.065
-152.647	131.880	0.186	0.239
-151.633	-200.000	-0.001	-0.234
-150.618	38.399	-0.063	-0.056
-149.604	358.372	0.170	-0.339
-148.589	180.886	-0.150	-0.219
-147.574	516.369	-0.182	-0.426
-146.560	156.545	0.032	-0.044
-145.545	-103.960	-0.256	0.060
-144.531	-200.000	0.053	-0.279
-143.516	-110.488	0.358	0.074
-142.502	800.000	0.068	0.204
-141.487	300.036	-0.107	0.198
-140.472	-200.000	0.064	0.406
-139.458	-153.380	0.229	-0.016
-138.443	88.985	0.105	-0.117
-137.429	-93.461	0.051	0.014
-136.414	9.429	0.274	0.207
-135.399	123.492	-0.239	0.299
-134.385	-117.455	-0.146	-0.026
-133.370	89.831	-0.258	0.287
-132.356	-200.000	0.061	0.284
-131.341	800.000	-0.088	0.386
-130.326	119.218	0.087	0.108
-129.312	-49.060	-0.197	-0.094
-128.297	-137.230	0.038	-0.004
-127.283	63.213	-0.255	0.255
-126.268	21.857	0.214	-0.174
-125.253	692.644	0.073	0.190
-124.239	132.793	0.267	0.344
-123.224	-7.474	-0.128	0.086
-122.210	800.000	0.086	0.300
-121.195	-200.000	0.014	-0.242
-120.180	-200.000	0.002	-0.070
