DTS Sentinel unit serial number:	SN413079Multiplexer serial number:	ORYXHardware model number:	OX4-SRSoftware version number:	ORYX F/W v4.00 Oryx Data Collector v3.7.2.0data status	okinstallation	princeton_trtdifferential loss correction	single-endedforward channel	channel 1reverse channel	N/Adate	2019/09/18time	18:54:36forward acquisition time	60.00reverse acquisition time	0.00gamma	496.2192k internal	0.2306k external	0.2306temperature offset calibration	1.0021default loss term (dB/km)	0.3790temperature slope calibration	1.0000multiplexer offset coefficient	1.0000multiplexer slope coefficient	1.0000fibre end	0.00T internal ref (°C)	36.64T ext. ref 1 (°C)	0.92T ext. ref 2 (°C)	26.20length (m)	temperature (°C)	Stokes	anti-Stokes-747.200	20.302	-0.184	-0.151
-746.185	-200.000	-0.065	0.389
-745.171	30.874	-0.120	0.104
-744.156	521.245	-0.069	-0.164
-743.142	-5.009	0.254	-0.178
-742.127	495.361	-0.089	0.208
-741.112	800.000	-0.058	0.237
-740.098	-200.000	-0.003	0.329
-739.083	42.140	0.112	0.104
-738.069	486.515	0.239	0.554
-737.054	-93.766	0.152	0.043
-736.039	595.933	-0.031	-0.078
-735.025	-29.490	0.051	0.030
-734.010	-158.240	-0.229	-0.014
-732.996	138.630	-0.286	-0.382
-731.981	-106.199	-0.083	0.019
-730.966	800.000	0.092	0.282
-729.952	328.047	-0.191	-0.373
-728.937	-118.536	-0.424	-0.076
-727.923	-7.361	0.252	0.173
-726.908	-134.478	0.256	-0.032
-725.894	596.427	0.101	-0.255
-724.879	-200.000	-0.012	0.066
-723.864	-38.474	-0.099	0.053
-722.850	117.858	-0.098	-0.123
-721.835	-175.935	-0.207	-0.006
-720.821	26.689	0.084	-0.071
-719.806	-30.919	-0.217	-0.125
-718.791	373.223	-0.072	-0.149
-717.777	-143.731	-0.082	0.008
-716.762	-200.000	-0.018	0.085
-715.748	132.956	0.102	0.134
-714.733	20.110	0.221	-0.181
-713.718	800.000	-0.121	-0.373
-712.704	641.698	-0.087	0.225
-711.689	270.236	-0.105	0.188
-710.675	800.000	-0.072	-0.266
-709.660	-7.733	0.184	-0.127
-708.645	-29.551	-0.222	-0.129
-707.631	800.000	-0.042	0.185
-706.616	-101.642	0.226	-0.056
-705.602	-91.939	0.331	0.095
-704.587	261.719	-0.075	-0.131
-703.572	502.456	0.106	-0.250
-702.558	-112.101	0.356	-0.073
-701.543	-128.813	0.180	-0.026
-700.529	17.000	-0.112	0.090
-699.514	800.000	-0.031	0.113
-698.499	42.240	0.104	-0.096
-697.485	49.032	0.121	0.116
-696.470	800.000	0.082	0.262
-695.456	-75.839	-0.210	-0.076
-694.441	321.831	0.032	-0.062
-693.426	-79.861	-0.206	0.070
-692.412	129.065	0.253	-0.328
-691.397	207.284	0.191	-0.302
-690.383	283.042	0.096	-0.175
-689.368	-42.339	-0.255	0.132
-688.354	133.183	0.049	0.065
-687.339	-45.101	-0.150	-0.076
-686.324	-86.331	0.372	-0.116
-685.310	19.107	0.102	0.083
-684.295	714.846	0.080	-0.216
-683.281	-123.150	0.285	0.046
-682.266	518.627	-0.085	-0.203
-681.251	-139.794	-0.290	0.031
-680.237	328.858	-0.159	-0.309
-679.222	-6.645	-0.169	0.116
-678.208	75.495	-0.090	0.097
-677.193	-161.306	-0.464	0.024
-676.178	567.707	-0.178	0.440
-675.164	-56.349	0.205	-0.092
-674.149	96.719	0.164	0.191
-673.135	108.215	0.161	0.195
-672.120	97.023	-0.160	-0.186
-671.105	800.000	-0.014	0.049
-670.091	-28.914	-0.231	0.135
-669.076	129.869	-0.091	-0.119
-668.062	-143.451	0.505	0.049
-667.047	81.775	0.161	0.177
-666.032	800.000	-0.042	-0.135
-665.018	-200.000	-0.005	0.094
-664.003	-152.752	-0.430	0.031
-662.989	-44.050	0.130	0.066
-661.974	-125.256	0.193	-0.030
-660.959	-134.901	0.107	0.013
-659.945	114.824	-0.178	-0.220
-658.930	-97.214	0.213	-0.056
-657.916	14.192	-0.105	0.083
-656.901	800.000	0.071	0.283
-655.886	-200.000	0.028	0.142
-654.872	365.945	-0.039	-0.080
-653.857	800.000	0.044	0.178
-652.843	78.346	0.146	0.158
-651.828	-200.000	0.004	0.181
-650.814	12.114	-0.090	0.071
-649.799	129.710	0.193	0.250
-648.784	-133.635	-0.412	0.052
-647.770	-197.233	-0.039	0.000
-646.755	-200.000	-0.036	-0.414
-645.741	138.265	0.045	0.059
-644.726	-172.352	0.251	-0.008
-643.711	-47.558	0.289	-0.142
-642.697	-107.261	-0.162	0.036
-641.682	199.567	-0.071	0.111
-640.668	79.052	-0.122	0.132
-639.653	-200.000	-0.058	0.297
-638.638	52.981	0.308	-0.299
-637.624	85.814	-0.276	-0.307
-636.609	32.285	-0.130	0.114
-635.595	34.441	-0.132	0.117
-634.580	103.410	-0.217	-0.258
-633.565	-200.000	0.046	-0.395
-632.551	3.111	-0.042	-0.031
-631.536	138.719	0.105	-0.140
-630.522	-97.515	0.389	0.102
-629.507	-77.456	0.146	-0.051
-628.492	-182.141	-0.050	0.001
-627.478	-200.000	-0.017	-0.123
-626.463	-200.000	0.014	-0.152
-625.449	-200.000	-0.034	-0.275
-624.434	307.785	0.092	0.174
-623.419	-107.116	-0.186	-0.041
-622.405	220.401	-0.075	-0.122
-621.390	335.155	0.108	-0.211
-620.376	112.178	-0.126	-0.154
-619.361	70.089	0.269	0.281
-618.346	672.647	-0.067	-0.176
-617.332	707.700	-0.018	-0.049
-616.317	375.759	0.092	-0.190
-615.303	-97.374	-0.321	0.085
-614.288	-120.003	-0.063	0.011
-613.273	-1.270	-0.090	0.065
-612.259	-101.545	0.157	0.039
-611.244	31.946	-0.258	0.225
-610.230	-200.000	0.033	-0.169
-609.215	335.629	-0.088	0.173
-608.201	202.228	-0.085	0.133
-607.186	-86.158	0.145	-0.045
-606.171	171.123	0.094	0.137
-605.157	-78.819	-0.130	-0.045
-604.142	124.472	-0.124	-0.158
-603.128	118.871	0.149	-0.186
-602.113	76.239	0.213	0.228
-601.098	323.667	-0.071	-0.138
-600.084	-146.315	-0.222	-0.020
-599.069	-100.393	0.374	-0.094
-598.055	43.432	0.058	-0.054
-597.040	217.426	-0.104	-0.167
-596.025	-136.657	-0.074	0.009
-595.011	-21.220	-0.054	-0.033
-593.996	156.084	0.122	-0.170
-592.982	492.668	0.052	-0.120
-591.967	-24.076	-0.099	-0.060
-590.952	-200.000	0.000	0.090
-589.938	-200.000	0.007	0.171
-588.923	-200.000	-0.076	0.404
-587.909	-200.000	-0.005	-0.138
-586.894	-200.000	-0.040	-0.467
-585.879	160.005	0.062	0.087
-584.865	800.000	-0.089	0.314
-583.850	-200.000	-0.046	-0.285
-582.836	-104.912	0.112	0.026
-581.821	538.576	0.098	-0.235
-580.806	-0.088	0.229	0.164
-579.792	21.736	-0.187	0.154
-578.777	174.662	-0.121	-0.177
-577.763	249.868	-0.131	-0.224
-576.748	-200.000	0.007	-0.136
-575.733	-46.499	0.172	0.085
-574.719	1.890	-0.133	0.097
-573.704	153.830	-0.164	-0.226
-572.690	130.625	-0.228	0.296
-571.675	-164.959	-0.288	-0.013
-570.661	-56.472	-0.257	0.115
-569.646	-200.000	-0.011	-0.183
-568.631	-172.405	-0.126	-0.004
-567.617	57.497	0.144	-0.143
-566.602	77.582	-0.378	-0.406
-565.588	80.341	-0.027	0.029
-564.573	-159.669	-0.012	-0.001
-563.558	-83.251	-0.210	-0.068
-562.544	-119.595	0.130	0.023
-561.529	761.094	0.069	0.188
-560.515	800.000	0.075	-0.249
-559.500	-37.762	0.299	-0.161
-558.485	800.000	0.033	-0.124
-557.471	-200.000	-0.027	0.330
-556.456	-24.873	-0.066	-0.039
-555.442	-200.000	-0.014	-0.189
-554.427	16.223	-0.343	0.273
-553.412	-200.000	-0.016	0.262
-552.398	-29.927	0.060	-0.035
-551.383	-200.000	0.024	0.176
-550.369	-200.000	0.019	-0.348
-549.354	800.000	-0.117	-0.387
-548.339	-71.170	0.131	0.050
-547.325	-71.939	0.237	-0.089
-546.310	-182.325	0.208	-0.004
-545.296	137.864	-0.083	-0.110
-544.281	71.245	-0.063	-0.066
-543.266	-132.772	-0.142	-0.018
-542.252	-200.000	-0.046	-0.441
-541.237	350.872	-0.106	-0.212
-540.223	-119.860	-0.217	-0.038
-539.208	-117.332	-0.124	0.023
-538.193	-38.149	0.076	-0.041
-537.179	-68.281	0.273	0.107
-536.164	-8.127	-0.121	0.082
-535.150	-61.193	-0.257	0.109
-534.135	-200.000	-0.023	0.272
-533.121	-200.000	-0.003	0.344
-532.106	-200.000	0.004	0.050
-531.091	116.694	-0.282	-0.349
-530.077	441.436	-0.045	-0.100
-529.062	800.000	0.039	0.123
-528.048	-168.453	-0.095	0.004
-527.033	-31.963	0.288	-0.162
-526.018	-110.913	0.258	-0.054
-525.004	67.290	-0.107	0.110
-523.989	316.007	-0.055	-0.104
-522.975	-200.000	-0.019	-0.277
-521.960	-200.000	-0.026	-0.378
-520.945	800.000	-0.002	-0.006
-519.931	-65.505	0.365	0.148
-518.916	237.854	0.144	0.241
-517.902	-74.340	0.081	-0.030
-516.887	-27.156	-0.333	-0.196
-515.872	167.285	0.027	0.039
-514.858	-36.197	0.384	-0.209
-513.843	-200.000	-0.020	-0.123
-512.829	-36.879	0.102	-0.055
-511.814	-200.000	-0.066	-0.479
-510.799	-126.035	0.554	-0.084
-509.785	281.258	0.104	-0.187
-508.770	-200.000	0.035	-0.179
-507.756	384.645	-0.116	-0.242
-506.741	64.351	0.091	-0.093
-505.726	-200.000	-0.017	0.089
-504.712	-122.351	0.181	-0.030
-503.697	134.726	-0.125	0.163
-502.683	42.185	-0.187	-0.171
-501.668	-200.000	-0.082	0.445
-500.653	800.000	-0.037	0.126
-499.639	-200.000	-0.025	-0.222
-498.624	-200.000	0.308	0.001
-497.610	800.000	0.089	0.252
-496.595	-200.000	-0.015	0.191
-495.581	-200.000	-0.021	-0.198
-494.566	59.976	0.122	0.121
-493.551	-112.401	-0.147	-0.030
-492.537	540.253	-0.166	-0.398
-491.522	42.062	0.184	-0.168
-490.508	-84.312	-0.090	0.029
-489.493	552.362	-0.070	0.169
-488.478	-62.282	-0.222	-0.093
-487.464	-200.000	-0.023	-0.216
-486.449	-75.838	0.075	-0.027
-485.435	227.233	0.104	-0.171
-484.420	-156.390	-0.516	-0.032
-483.405	-51.088	0.182	0.086
-482.391	148.135	0.182	-0.247
-481.376	58.911	0.046	-0.045
-480.362	-129.483	0.124	0.017
-479.347	-20.775	0.123	-0.076
-478.332	-81.611	0.468	0.155
-477.318	-86.076	-0.241	-0.075
-476.303	378.831	-0.149	-0.306
-475.289	-78.228	-0.200	-0.069
-474.274	-16.743	-0.139	0.089
-473.259	262.763	0.237	-0.415
-472.245	-109.772	-0.493	0.104
-471.230	25.488	-0.009	0.008
-470.216	179.118	0.112	0.165
-469.201	246.929	0.076	0.130
-468.186	600.366	-0.077	-0.192
-467.172	136.292	-0.080	-0.105
-466.157	122.612	0.159	-0.200
-465.143	-22.858	0.393	-0.239
-464.128	-38.356	-0.333	-0.178
-463.113	-200.000	-0.008	-0.041
-462.099	784.228	-0.095	0.262
-461.084	800.000	0.016	0.054
-460.070	-25.124	-0.173	-0.103
-459.055	-200.000	-0.071	0.345
-458.040	800.000	-0.002	-0.009
-457.026	-55.507	-0.202	0.091
-456.011	-106.821	-0.139	-0.031
-454.997	23.484	0.050	-0.041
-453.982	356.532	-0.054	-0.108
-452.968	-200.000	0.066	0.589
-451.953	-47.897	0.268	0.130
-450.938	-200.000	0.043	0.249
-449.924	116.794	-0.135	-0.167
-448.909	586.419	-0.123	-0.304
-447.895	198.008	0.052	0.079
-446.880	-200.000	-0.009	0.103
-445.865	-87.400	-0.539	0.164
-444.851	75.860	0.089	-0.095
-443.836	-79.220	0.400	-0.136
-442.822	560.672	-0.116	-0.283
-441.807	-44.774	-0.182	-0.091
-440.792	800.000	0.105	0.406
-439.778	-148.263	-0.303	0.025
-438.763	495.306	-0.089	-0.204
-437.749	-57.988	-0.131	0.057
-436.734	-130.105	-0.131	-0.018
-435.719	-200.000	0.053	-0.255
-434.705	-26.504	0.053	-0.031
-433.690	-66.964	-0.151	0.060
-432.676	-100.270	0.066	0.017
-431.661	239.021	0.014	0.024
-430.646	-200.000	0.001	-0.176
-429.632	-3.898	-0.073	-0.051
-428.617	24.137	-0.067	-0.056
-427.603	7.882	-0.143	0.107
-426.588	-49.376	0.212	0.101
-425.573	800.000	-0.147	0.457
-424.559	126.782	-0.070	-0.089
-423.544	-9.439	0.083	0.056
-422.530	-77.014	-0.193	0.068
-421.515	-200.000	0.181	0.001
-420.500	800.000	-0.052	0.170
-419.486	-200.000	0.003	-0.034
-418.471	-167.523	-0.201	-0.008
-417.457	-200.000	-0.036	-0.259
-416.442	-53.367	-0.038	0.017
-415.428	221.153	0.084	-0.135
-414.413	-200.000	-0.034	0.160
-413.398	-200.000	0.003	0.248
-412.384	59.311	-0.213	0.211
-411.369	-129.299	-0.259	-0.036
-410.355	199.176	-0.025	0.038
-409.340	-22.096	0.071	0.044
-408.325	-71.415	0.248	0.093
-407.311	800.000	-0.021	0.076
-406.296	-59.589	-0.136	-0.059
-405.282	780.960	-0.062	-0.169
-404.267	-170.641	0.117	-0.004
-403.252	-99.159	0.145	0.037
-402.238	69.559	-0.172	0.178
-401.223	-200.000	-0.016	0.167
-400.209	275.872	-0.177	0.316
-399.194	-158.648	-0.285	-0.016
-398.179	-72.488	-0.175	0.065
-397.165	276.994	0.195	0.348
-396.150	-200.000	-0.061	0.286
-395.136	-71.654	0.146	0.055
-394.121	-62.090	-0.238	-0.099
-393.106	-200.000	0.017	-0.182
-392.092	-53.027	0.090	-0.041
-391.077	-113.872	0.151	0.029
-390.063	-84.410	0.270	-0.086
-389.048	-200.000	0.037	0.360
-388.033	-200.000	-0.015	0.176
-387.019	179.669	-0.034	0.050
-386.004	-44.509	-0.307	0.154
-384.990	-200.000	0.035	0.228
-383.975	-88.495	-0.351	0.105
-382.960	258.353	0.141	0.243
-381.946	137.493	0.154	0.202
-380.931	-58.553	0.152	-0.066
-379.917	66.574	-0.460	0.469
-378.902	265.611	0.136	0.238
-377.888	800.000	-0.065	-0.257
-376.873	8.408	0.206	-0.155
-375.858	-7.653	0.107	-0.073
-374.844	-134.329	0.411	-0.051
-373.829	262.260	-0.094	-0.163
-372.815	-200.000	0.014	-0.122
-371.800	-200.000	0.067	0.332
-370.785	-76.045	0.178	-0.063
-369.771	341.984	-0.055	-0.108
-368.756	361.519	0.029	-0.058
-367.742	36.627	0.037	0.033
-366.727	-200.000	0.011	0.151
-365.712	-71.357	-0.236	0.089
-364.698	800.000	0.069	-0.275
-363.683	-103.169	0.500	-0.118
-362.669	338.671	0.162	-0.316
-361.654	-127.033	-0.293	-0.043
-360.639	138.387	0.166	0.219
-359.625	-83.017	-0.168	-0.054
-358.610	-168.271	0.209	-0.008
-357.596	38.618	0.257	-0.230
-356.581	37.598	-0.218	0.194
-355.566	-44.715	-0.133	-0.066
-354.552	31.668	-0.127	0.109
-353.537	-97.392	-0.228	0.059
-352.523	-128.564	-0.170	0.024
-351.508	-71.242	0.180	-0.068
-350.493	152.421	0.058	-0.080
-349.479	47.348	-0.058	-0.054
-348.464	800.000	-0.041	-0.153
-347.450	-46.457	-0.203	-0.100
-346.435	285.527	-0.083	-0.149
-345.420	386.241	-0.031	-0.065
-344.406	-86.487	-0.099	-0.030
-343.391	170.297	0.058	0.083
-342.377	-15.358	0.087	-0.056
-341.362	-140.579	-0.296	-0.031
-340.348	800.000	0.047	0.148
-339.333	25.922	-0.057	0.048
-338.318	31.456	0.215	-0.185
-337.304	795.631	0.072	-0.199
-336.289	-36.747	0.375	0.202
-335.275	-200.000	-0.032	0.157
-334.260	382.331	0.051	0.105
-333.245	-24.381	0.431	-0.257
-332.231	-62.671	-0.234	-0.097
-331.216	-200.000	-0.006	0.085
-330.202	-125.392	-0.263	-0.040
-329.187	-118.996	0.217	0.038
-328.172	-200.000	0.001	0.103
-327.158	-32.512	0.183	-0.102
-326.143	602.568	0.170	-0.424
-325.129	-50.515	-0.250	0.118
-324.114	32.681	0.116	0.100
-323.099	63.416	0.281	-0.282
-322.085	-103.855	-0.131	-0.031
-321.070	-200.000	-0.001	0.115
-320.056	-79.893	-0.277	0.093
-319.041	-200.000	0.014	0.155
-318.026	-5.916	-0.153	0.104
-317.012	731.314	0.130	0.347
-315.997	278.750	-0.140	0.249
-314.983	-35.795	0.226	-0.123
-313.968	-200.000	-0.039	-0.187
-312.953	-151.784	-0.340	-0.025
-311.939	-17.338	-0.213	-0.134
-310.924	5.558	-0.223	-0.165
-309.910	-95.669	-0.059	0.016
-308.895	89.128	-0.195	0.217
-307.880	-200.000	0.003	0.043
-306.866	-129.634	0.223	0.031
-305.851	-81.382	-0.185	0.061
-304.837	376.693	0.173	-0.354
-303.822	-3.176	-0.196	-0.137
-302.807	53.196	-0.237	0.227
-301.793	298.442	-0.096	0.177
-300.778	180.827	-0.180	0.265
-299.764	-200.000	0.063	-0.312
-298.749	229.438	-0.173	0.282
-297.735	68.154	-0.151	0.155
-296.720	-86.257	0.212	0.065
-295.705	-185.670	-0.124	-0.002
-294.691	489.809	0.082	0.186
-293.676	-2.877	-0.214	-0.149
-292.662	143.026	-0.071	-0.094
-291.647	-35.332	-0.111	0.060
-290.632	-92.613	0.048	0.013
-289.618	-36.125	0.208	-0.112
-288.603	-23.389	0.070	0.042
-287.589	-200.000	0.049	0.393
-286.574	193.373	0.095	-0.143
-285.559	64.554	-0.037	0.037
-284.545	141.276	-0.053	0.070
-283.530	-98.899	0.138	-0.035
-282.516	-75.652	0.273	-0.097
-281.501	-200.000	-0.027	0.170
-280.486	-50.752	-0.030	0.014
-279.472	-0.743	-0.180	0.127
-278.457	632.026	0.132	-0.333
-277.443	-20.904	0.341	-0.209
-276.428	185.951	-0.049	-0.072
-275.413	212.416	-0.228	0.359
-274.399	-200.000	-0.050	0.308
-273.384	-120.024	-0.103	-0.018
-272.370	-200.000	-0.005	0.043
-271.355	-91.328	0.077	-0.022
-270.340	-85.405	-0.122	-0.038
-269.326	-52.323	0.097	-0.045
-268.311	800.000	0.071	0.243
-267.297	148.207	-0.080	0.108
-266.282	800.000	-0.074	0.207
-265.267	-200.000	0.033	0.305
-264.253	-200.000	0.008	0.059
-263.238	-142.433	0.072	0.007
-262.224	-200.000	0.034	-0.198
-261.209	-200.000	0.095	-0.466
-260.195	37.396	0.136	0.121
-259.180	114.782	-0.076	0.092
-258.165	-79.799	0.068	-0.023
-257.151	-79.428	0.268	0.091
-256.136	-93.685	-0.300	0.083
-255.122	-86.141	-0.114	-0.035
-254.107	140.695	-0.040	-0.052
-253.092	370.972	-0.072	-0.145
-252.078	-97.237	0.280	0.073
-251.063	466.538	-0.165	0.368
-250.049	-54.708	-0.245	0.111
-249.034	-197.770	0.181	0.001
-248.019	489.322	-0.084	-0.192
-247.005	33.277	-0.024	-0.021
-245.990	81.857	-0.144	-0.155
-244.976	433.457	0.037	0.081
-243.961	142.879	-0.008	-0.010
-242.946	-93.463	0.097	-0.027
-241.932	19.720	0.377	-0.303
-240.917	593.280	-0.082	0.203
-239.903	-40.855	0.259	-0.134
-238.888	800.000	0.043	0.132
-237.873	-56.872	0.076	-0.033
-236.859	-35.327	0.220	0.119
-235.844	-200.000	-0.093	0.587
-234.830	799.183	0.018	-0.048
-233.815	176.655	0.188	-0.273
-232.800	-24.096	0.134	0.080
-231.786	-80.166	0.307	0.102
-230.771	86.798	-0.128	-0.141
-229.757	213.825	0.173	-0.273
-228.742	634.760	0.136	0.345
-227.727	126.445	0.160	0.202
-226.713	216.578	0.079	0.125
-225.698	35.766	-0.381	0.334
-224.684	-73.585	-0.487	0.177
-223.669	-20.179	-0.254	-0.156
-222.655	800.000	0.053	0.208
-221.640	-200.000	0.023	0.126
-220.625	-97.364	-0.144	0.037
-219.611	-200.000	0.020	0.097
-218.596	-109.068	0.214	-0.045
-217.582	-48.251	0.164	-0.079
-216.567	158.784	-0.149	0.206
-215.552	-200.000	0.046	-0.257
-214.538	313.182	0.015	-0.029
-213.523	-42.032	-0.164	-0.084
-212.509	800.000	-0.069	0.229
-211.494	-200.000	0.005	-0.206
-210.479	800.000	0.141	-0.473
-209.465	800.000	0.035	-0.137
-208.450	-200.000	0.000	0.030
-207.436	-200.000	-0.003	0.348
-206.421	-151.826	0.322	-0.024
-205.406	67.790	0.174	0.177
-204.392	-69.013	0.090	0.034
-203.377	800.000	-0.059	0.181
-202.363	127.135	-0.307	0.387
-201.348	699.348	-0.085	-0.223
-200.333	-34.879	0.457	-0.248
-199.319	-76.220	0.475	0.167
-198.304	588.108	-0.026	-0.064
-197.290	-66.863	0.170	0.067
-196.275	5.113	-0.253	0.186
-195.260	47.232	0.055	-0.051
-194.246	800.000	0.094	-0.328
-193.231	-154.093	0.152	-0.010
-192.217	-56.143	0.248	0.110
-191.202	34.766	-0.120	0.105
-190.187	-113.002	-0.179	-0.035
-189.173	5.792	0.218	0.160
-188.158	170.977	-0.134	0.191
-187.144	-200.000	-0.006	-0.177
-186.129	800.000	0.035	0.115
-185.114	358.243	-0.039	0.077
-184.100	-139.418	0.133	-0.014
-183.085	-168.254	0.327	0.013
-182.071	459.356	0.082	-0.181
-181.056	-83.623	0.327	-0.104
-180.042	-123.829	0.204	-0.032
-179.027	-101.944	0.205	0.049
-178.012	8.376	0.125	0.093
-176.998	65.192	0.049	-0.049
-175.983	51.460	0.335	0.317
-174.969	38.211	-0.056	0.049
-173.954	204.888	0.132	0.204
-172.939	286.281	0.083	-0.149
-171.925	-90.674	0.129	-0.037
-170.910	-44.486	0.216	0.107
-169.896	-200.000	0.000	0.260
-168.881	-200.000	0.033	-0.233
-167.866	800.000	-0.050	-0.161
-166.852	186.881	-0.167	0.248
-165.837	127.996	0.087	0.111
-164.823	-200.000	-0.047	-0.259
-163.808	-199.119	-0.406	-0.002
-162.793	-200.000	-0.001	-0.072
-161.779	293.411	-0.153	-0.277
-160.764	379.043	0.123	-0.250
-159.750	38.364	-0.200	-0.177
-158.735	48.223	0.297	0.276
-157.720	-200.000	0.015	0.185
-156.706	-9.445	-0.125	-0.083
-155.691	70.256	0.079	-0.081
-154.677	143.450	-0.202	0.267
-153.662	418.527	0.139	0.296
-152.647	298.887	-0.146	0.268
-151.633	-85.882	0.374	0.115
-150.618	-67.092	0.103	-0.040
-149.604	-42.788	-0.052	-0.026
-148.589	-23.575	-0.189	-0.113
-147.574	-200.000	-0.002	0.053
-146.560	-155.873	0.104	-0.007
-145.545	-30.784	0.252	0.142
-144.531	-48.582	-0.116	-0.056
-143.516	406.459	-0.159	-0.333
-142.502	211.596	-0.109	0.170
-141.487	-62.268	0.153	-0.063
-140.472	-175.399	-0.182	-0.005
-139.458	800.000	-0.038	-0.105
-138.443	-200.000	-0.005	0.085
-137.429	-81.962	-0.102	-0.033
-136.414	-51.680	0.187	0.087
-135.399	-149.117	-0.269	-0.021
-134.385	-131.961	-0.106	0.014
-133.370	136.934	0.060	-0.078
-132.356	138.405	0.247	0.322
-131.341	-200.000	-0.023	0.149
-130.326	142.416	-0.017	0.022
-129.312	-12.905	-0.134	0.087
-128.297	-106.525	-0.062	0.014
-127.283	800.000	-0.031	0.132
-126.268	50.646	-0.110	0.104
-125.253	19.219	-0.063	0.050
-124.239	-126.579	0.345	0.051
-123.224	-71.705	-0.367	-0.136
-122.210	88.039	0.263	0.290
