DTS Sentinel unit serial number:	SN413079Multiplexer serial number:	ORYXHardware model number:	OX4-SRSoftware version number:	ORYX F/W v4.00 Oryx Data Collector v3.7.2.0data status	okinstallation	princeton_trtdifferential loss correction	single-endedforward channel	channel 1reverse channel	N/Adate	2019/09/17time	21:42:35forward acquisition time	60.00reverse acquisition time	0.00gamma	496.2192k internal	0.2340k external	0.2340temperature offset calibration	0.9977default loss term (dB/km)	0.3790temperature slope calibration	1.0000multiplexer offset coefficient	1.0000multiplexer slope coefficient	1.0000fibre end	0.00T internal ref (°C)	26.67T ext. ref 1 (°C)	0.19T ext. ref 2 (°C)	19.21length (m)	temperature (°C)	Stokes	anti-Stokes-747.200	800.000	0.049	-0.150
-746.185	-200.000	-0.035	0.243
-745.171	59.555	-0.099	0.098
-744.156	-114.780	-0.254	0.049
-743.142	280.145	0.122	-0.219
-742.127	-36.777	0.172	0.092
-741.112	800.000	0.087	-0.317
-740.098	-200.000	0.019	-0.173
-739.083	187.816	-0.196	-0.294
-738.069	-67.291	-0.245	0.097
-737.054	748.704	-0.110	0.297
-736.039	92.319	-0.123	-0.139
-735.025	-200.000	0.020	0.139
-734.010	8.762	-0.148	-0.112
-732.996	-95.612	0.458	-0.123
-731.981	-36.557	-0.076	-0.041
-730.966	77.975	0.297	-0.317
-729.952	54.316	0.127	0.122
-728.937	-63.495	-0.533	-0.219
-727.923	203.663	0.049	0.076
-726.908	-18.651	-0.254	-0.158
-725.894	-83.899	-0.033	-0.010
-724.879	-136.835	0.169	0.019
-723.864	4.272	-0.271	-0.199
-722.850	509.340	0.126	0.293
-721.835	33.413	-0.242	0.210
-720.821	711.693	-0.115	-0.304
-719.806	-62.621	-0.330	-0.137
-718.791	69.995	-0.316	0.326
-717.777	-163.909	0.275	0.013
-716.762	-15.202	-0.152	0.098
-715.748	14.680	-0.241	0.188
-714.733	-31.056	0.083	0.047
-713.718	-170.352	-0.276	-0.010
-712.704	82.494	-0.446	-0.485
-711.689	-160.608	0.204	-0.011
-710.675	-7.027	-0.057	0.039
-709.660	800.000	-0.008	0.027
-708.645	109.137	-0.155	0.186
-707.631	-79.143	-0.199	-0.067
-706.616	169.445	0.203	-0.290
-705.602	-62.210	-0.198	-0.082
-704.587	139.520	-0.159	0.209
-703.572	525.545	0.143	-0.338
-702.558	-93.329	-0.268	0.075
-701.543	222.912	-0.169	-0.272
-700.529	-200.000	0.031	-0.281
-699.514	-200.000	-0.006	0.192
-698.499	-124.041	-0.408	0.064
-697.485	-98.767	-0.268	-0.068
-696.470	-28.725	0.093	0.053
-695.456	-52.707	-0.311	0.144
-694.441	121.032	-0.150	-0.187
-693.426	615.452	0.109	-0.273
-692.412	404.781	0.038	0.081
-691.397	-200.000	0.043	0.200
-690.383	-13.050	0.316	0.205
-689.368	-121.755	0.258	0.043
-688.354	144.483	-0.133	-0.177
-687.339	-35.267	-0.217	0.118
-686.324	-114.187	-0.234	0.045
-685.310	200.861	-0.132	0.203
-684.295	25.335	-0.209	0.174
-683.281	-200.000	0.047	-0.331
-682.266	37.025	0.006	0.005
-681.251	757.809	0.068	-0.184
-680.237	-85.845	-0.323	-0.100
-679.222	8.570	0.163	0.123
-678.208	-200.000	-0.044	0.258
-677.193	-33.015	-0.123	-0.068
-676.178	-200.000	0.010	-0.055
-675.164	-27.454	-0.122	0.071
-674.149	-24.530	-0.228	-0.136
-673.135	-200.000	0.019	0.134
-672.120	-87.148	0.035	-0.011
-671.105	-69.060	0.468	-0.180
-670.091	-156.473	-0.138	-0.009
-669.076	-200.000	0.053	-0.287
-668.062	-40.240	0.152	0.079
-667.047	481.685	0.082	-0.186
-666.032	147.634	-0.213	-0.287
-665.018	-200.000	-0.009	0.257
-664.003	749.131	0.051	0.139
-662.989	-200.000	-0.016	0.121
-661.974	-116.922	-0.215	0.039
-660.959	800.000	-0.095	0.277
-659.945	479.189	0.117	0.266
-658.930	-114.878	-0.448	0.085
-657.916	800.000	0.077	-0.226
-656.901	-62.861	-0.094	-0.039
-655.886	239.103	-0.131	0.218
-654.872	288.773	-0.116	0.210
-653.857	266.977	0.140	-0.244
-652.843	543.054	0.144	-0.344
-651.828	221.025	0.102	-0.164
-650.814	303.485	-0.165	-0.305
-649.799	48.479	0.420	0.393
-648.784	-144.529	-0.117	0.011
-647.770	186.959	-0.117	-0.174
-646.755	-162.650	0.259	0.013
-645.741	695.800	-0.034	-0.089
-644.726	100.197	-0.126	-0.146
-643.711	-114.941	0.231	0.044
-642.697	42.877	0.205	0.187
-641.682	-114.695	-0.175	-0.033
-640.668	-200.000	0.004	-0.368
-639.653	-70.743	0.306	0.115
-638.638	119.575	0.119	0.147
-637.624	-171.766	-0.218	0.007
-636.609	-181.444	-0.040	-0.001
-635.595	127.180	-0.234	-0.296
-634.580	269.082	0.081	-0.141
-633.565	-200.000	0.075	0.457
-632.551	-174.293	-0.202	-0.006
-631.536	-63.018	-0.374	0.154
-630.522	-30.388	0.215	-0.122
-629.507	800.000	0.009	-0.026
-628.492	-22.770	-0.224	0.135
-627.478	800.000	-0.095	0.307
-626.463	156.407	-0.100	0.137
-625.449	423.751	0.029	0.061
-624.434	4.813	0.135	-0.099
-623.419	429.205	-0.182	-0.392
-622.405	228.504	-0.101	-0.164
-621.390	-165.362	0.519	0.023
-620.376	-34.876	0.134	-0.073
-619.361	-107.623	-0.263	-0.057
-618.346	34.840	-0.161	0.141
-617.332	45.587	0.138	-0.127
-616.317	-113.109	0.169	-0.033
-615.303	-124.052	-0.180	0.028
-614.288	-200.000	-0.016	0.255
-613.273	800.000	-0.009	-0.025
-612.259	-61.379	-0.233	-0.098
-611.244	191.604	-0.099	0.149
-610.230	168.289	-0.083	-0.117
-609.215	153.998	-0.124	0.169
-608.201	-7.616	0.280	0.189
-607.186	149.941	-0.113	-0.152
-606.171	100.203	0.245	-0.283
-605.157	-187.572	-0.302	-0.004
-604.142	-143.767	-0.250	0.024
-603.128	25.121	0.166	-0.138
-602.113	-60.040	0.205	0.087
-601.098	-200.000	0.017	-0.243
-600.084	184.056	0.092	-0.136
-599.069	-200.000	0.007	-0.396
-598.055	218.363	-0.154	0.246
-597.040	-148.431	-0.058	0.005
-596.025	-31.794	-0.180	0.101
-595.011	-200.000	0.035	-0.369
-593.996	130.281	-0.141	0.180
-592.982	196.770	0.052	0.079
-591.967	-94.586	-0.128	0.035
-590.952	-45.980	0.226	-0.111
-589.938	689.625	0.050	0.130
-588.923	-29.720	-0.226	-0.129
-587.909	-108.698	0.210	0.045
-586.894	-147.945	0.190	-0.016
-585.879	-147.519	-0.335	0.028
-584.865	377.073	-0.058	-0.118
-583.850	-44.225	0.058	0.029
-582.836	-36.937	-0.040	-0.021
-581.821	69.675	-0.138	-0.142
-580.806	77.210	-0.107	0.113
-579.792	30.533	0.290	-0.247
-578.777	-200.000	-0.001	-0.040
-577.763	-68.554	-0.251	0.097
-576.748	741.766	0.049	0.130
-575.733	-54.839	0.066	-0.030
-574.719	-200.000	0.018	0.116
-573.704	-200.000	-0.012	0.239
-572.690	68.572	-0.257	-0.263
-571.675	364.422	0.118	-0.237
-570.661	86.123	-0.182	-0.200
-569.646	-200.000	0.011	0.099
-568.631	-15.886	0.166	-0.105
-567.617	-126.857	0.251	-0.037
-566.602	-80.376	-0.116	-0.039
-565.588	-200.000	0.008	-0.093
-564.573	-200.000	-0.049	-0.330
-563.558	-82.209	0.159	-0.052
-562.544	-160.876	-0.209	-0.011
-561.529	-17.930	0.126	-0.079
-560.515	-122.491	-0.235	-0.038
-559.500	168.911	0.212	-0.301
-558.485	-200.000	0.026	0.159
-557.471	61.285	0.099	-0.098
-556.456	56.558	0.233	-0.225
-555.442	146.687	-0.176	0.236
-554.427	635.491	-0.115	-0.290
-553.412	-155.942	-0.250	-0.016
-552.398	-182.696	0.435	-0.008
-551.383	-15.795	0.026	-0.017
-550.369	-81.595	-0.142	0.047
-549.354	-141.531	0.138	-0.014
-548.339	-200.000	0.037	-0.390
-547.325	0.562	0.192	-0.137
-546.310	-30.975	0.207	-0.116
-545.296	22.671	-0.097	-0.079
-544.281	465.815	0.104	-0.231
-543.266	-7.098	0.290	-0.196
-542.252	800.000	0.113	-0.413
-541.237	-49.895	-0.098	-0.046
-540.223	360.030	-0.146	-0.291
-539.208	-200.000	0.007	0.433
-538.193	366.427	0.096	0.193
-537.179	396.933	-0.209	-0.435
-536.164	7.843	0.066	0.049
-535.150	184.063	-0.069	0.102
-534.135	219.148	0.067	-0.106
-533.121	205.696	-0.220	0.340
-532.106	49.241	0.054	-0.050
-531.091	-128.973	0.190	-0.026
-530.077	-31.526	-0.151	0.084
-529.062	-117.774	0.204	0.036
-528.048	67.651	0.268	0.272
-527.033	-200.000	0.048	0.280
-526.018	-200.000	0.002	0.082
-525.004	800.000	-0.012	0.052
-523.989	-200.000	-0.008	-0.099
-522.975	45.695	-0.185	-0.170
-521.960	1.066	-0.204	-0.146
-520.945	-200.000	0.046	-0.277
-519.931	-11.464	-0.164	-0.107
-518.916	-134.953	-0.274	0.033
-517.902	-200.000	-0.006	0.447
-516.887	-143.027	0.158	-0.015
-515.872	-200.000	-0.010	0.323
-514.858	442.661	0.040	0.087
-513.843	-165.920	0.241	0.010
-512.829	84.817	0.121	0.132
-511.814	-200.000	0.009	-0.109
-510.799	-200.000	-0.050	-0.304
-509.785	800.000	0.084	-0.270
-508.770	28.705	-0.238	-0.200
-507.756	-200.000	0.017	-0.333
-506.741	252.593	0.107	0.182
-505.726	57.067	0.074	-0.072
-504.712	-49.058	0.223	-0.106
-503.697	-162.017	-0.424	0.021
-502.683	800.000	-0.040	0.169
-501.668	560.724	0.026	0.062
-500.653	384.560	0.052	-0.106
-499.639	-104.226	-0.140	-0.032
-498.624	-130.264	-0.170	0.023
-497.610	-23.794	-0.364	0.216
-496.595	-49.999	0.097	-0.046
-495.581	238.030	-0.096	-0.159
-494.566	-200.000	-0.022	-0.186
-493.551	-135.216	0.243	-0.029
-492.537	374.014	0.150	-0.303
-491.522	347.701	-0.038	-0.074
-490.508	147.184	0.069	0.092
-489.493	243.848	-0.206	-0.344
-488.478	-99.168	0.059	-0.015
-487.464	330.883	-0.212	-0.405
-486.449	180.118	-0.158	-0.230
-485.435	212.899	-0.138	0.217
-484.420	-106.406	-0.081	-0.018
-483.405	-24.078	0.201	0.119
-482.391	338.062	0.206	0.397
-481.376	122.077	-0.277	0.343
-480.362	138.693	-0.207	0.269
-479.347	52.035	-0.151	0.143
-478.332	-67.552	-0.147	0.057
-477.318	-35.583	-0.197	-0.106
-476.303	-181.495	-0.205	0.004
-475.289	-52.512	0.319	0.146
-474.274	-154.298	0.076	-0.005
-473.259	-101.740	-0.096	-0.023
-472.245	322.083	0.053	-0.100
-471.230	486.822	0.140	-0.317
-470.216	25.010	-0.200	0.164
-469.201	-200.000	0.017	0.196
-468.186	42.289	-0.131	-0.118
-467.172	-73.191	-0.167	-0.061
-466.157	738.877	-0.046	0.124
-465.143	115.302	0.247	-0.299
-464.128	330.686	-0.144	-0.275
-463.113	-113.481	0.139	-0.027
-462.099	732.499	0.148	-0.392
-461.084	-90.997	0.116	-0.033
-460.070	-40.572	0.076	0.039
-459.055	-52.245	-0.300	-0.138
-458.040	31.799	0.095	0.081
-457.026	-54.969	0.178	0.080
-456.011	392.460	-0.095	-0.196
-454.997	-53.460	0.252	0.114
-453.982	69.958	-0.014	0.015
-452.968	-10.361	0.138	0.090
-451.953	-6.437	0.193	-0.130
-450.938	20.079	-0.056	0.045
-449.924	-200.000	0.025	0.213
-448.909	150.599	0.092	-0.124
-447.895	-83.107	-0.078	0.025
-446.880	-99.843	-0.074	0.018
-445.865	604.323	-0.040	0.099
-444.851	62.674	0.269	0.266
-443.836	-200.000	-0.015	0.150
-442.822	13.731	0.083	0.064
-441.807	145.382	0.062	0.082
-440.792	281.161	0.131	0.232
-439.778	-43.338	-0.081	-0.041
-438.763	-9.339	-0.219	-0.145
-437.749	-200.000	-0.005	0.115
-436.734	-39.393	0.190	-0.099
-435.719	-40.007	0.205	-0.106
-434.705	-200.000	0.006	0.239
-433.690	785.808	-0.085	0.232
-432.676	-200.000	0.036	0.226
-431.661	-66.644	0.062	-0.024
-430.646	17.383	0.161	0.127
-429.632	-55.863	0.184	0.082
-428.617	49.712	0.157	-0.147
-427.603	239.435	-0.119	-0.197
-426.588	-200.000	0.028	0.202
-425.573	-200.000	-0.026	-0.150
-424.559	-89.234	-0.175	-0.051
-423.544	397.360	0.060	-0.124
-422.530	-141.931	-0.135	-0.013
-421.515	-200.000	-0.015	-0.353
-420.500	153.032	-0.232	-0.314
-419.486	-200.000	-0.048	0.219
-418.471	800.000	-0.022	-0.077
-417.457	79.104	0.076	0.081
-416.442	-200.000	0.014	0.425
-415.428	-117.610	0.308	0.055
-414.413	19.817	0.273	-0.218
-413.398	329.372	0.111	0.212
-412.384	-74.363	0.179	0.064
-411.369	800.000	0.082	-0.303
-410.355	718.764	-0.056	0.147
-409.340	-43.984	0.232	-0.115
-408.325	-200.000	0.040	0.197
-407.311	13.516	-0.071	0.054
-406.296	265.752	-0.188	0.325
-405.282	-6.411	-0.287	-0.194
-404.267	800.000	0.060	-0.210
-403.252	-93.685	-0.303	0.083
-402.238	60.745	0.050	0.049
-401.223	-200.000	0.008	-0.232
-400.209	-188.336	-0.392	-0.005
-399.194	-8.216	-0.170	0.113
-398.179	-90.463	-0.454	0.130
-397.165	92.045	0.211	-0.235
-396.150	-200.000	-0.011	0.160
-395.136	-200.000	0.010	-0.145
-394.121	800.000	0.106	-0.368
-393.106	-200.000	0.114	-0.599
-392.092	228.849	0.150	-0.243
-391.077	580.095	0.091	0.219
-390.063	5.989	0.176	0.129
-389.048	-159.709	0.277	0.015
-388.033	-192.148	0.234	-0.002
-387.019	-200.000	0.030	-0.383
-386.004	-115.230	-0.286	-0.053
-384.990	5.206	0.164	0.119
-383.975	573.647	-0.026	-0.062
-382.960	-200.000	0.010	-0.061
-381.946	800.000	0.036	0.112
-380.931	-200.000	-0.035	-0.222
-379.917	621.441	0.097	0.241
-378.902	-125.290	-0.359	-0.054
-377.888	800.000	0.025	0.078
-376.873	800.000	0.064	-0.275
-375.858	-200.000	-0.021	0.316
-374.844	103.766	-0.044	0.051
-373.829	800.000	0.078	0.286
-372.815	-164.679	-0.205	0.009
-371.800	-200.000	0.022	0.119
-370.785	81.599	-0.196	0.210
-369.771	-88.869	-0.185	0.054
-368.756	-117.114	-0.131	-0.024
-367.742	-156.682	0.253	-0.015
-366.727	70.014	-0.143	-0.146
-365.712	275.891	-0.162	-0.284
-364.698	26.945	0.095	0.079
-363.683	13.583	-0.336	0.258
-362.669	210.352	0.095	0.148
-361.654	203.779	-0.217	0.332
-360.639	-111.605	0.143	0.029
-359.625	-25.082	-0.142	-0.083
-358.610	7.013	-0.095	-0.070
-357.596	526.863	-0.079	0.184
-356.581	-200.000	-0.040	0.263
-355.566	66.310	-0.120	0.120
-354.552	-200.000	0.004	0.114
-353.537	-20.920	0.135	-0.082
-352.523	-96.368	-0.072	-0.019
-351.508	184.386	-0.240	0.351
-350.493	132.177	0.143	-0.182
-349.479	-32.113	0.030	-0.017
-348.464	-19.741	0.280	-0.171
-347.450	-27.043	0.343	-0.198
-346.435	-27.164	-0.124	-0.071
-345.420	-150.301	-0.053	0.004
-344.406	118.012	-0.095	-0.116
-343.391	-200.000	-0.028	-0.192
-342.377	-200.000	0.033	-0.203
-341.362	-41.592	-0.054	-0.027
-340.348	800.000	0.030	-0.086
-339.333	-200.000	-0.027	0.181
-338.318	-200.000	-0.000	0.147
-337.304	-200.000	-0.014	0.073
-336.289	41.720	-0.080	-0.072
-335.275	361.767	0.149	0.295
-334.260	332.118	-0.154	-0.293
-333.245	-38.404	-0.162	-0.085
-332.231	-21.980	-0.066	0.040
-331.216	-28.595	-0.065	0.037
-330.202	-37.508	-0.263	-0.138
-329.187	-46.318	0.211	-0.102
-328.172	800.000	0.072	0.229
-327.158	-200.000	-0.048	0.309
-326.143	121.288	-0.142	-0.174
-325.129	-105.555	0.238	0.053
-324.114	-200.000	0.008	0.209
-323.099	34.764	0.150	-0.129
-322.085	29.822	0.156	-0.131
-321.070	48.624	-0.351	0.325
-320.056	-8.848	-0.230	-0.152
-319.041	-22.807	-0.205	0.122
-318.026	-200.000	-0.007	0.062
-317.012	800.000	0.114	0.364
-315.997	-58.646	0.180	-0.077
-314.983	223.265	-0.052	-0.083
-313.968	307.956	0.138	0.254
-312.953	-84.438	-0.263	-0.082
-311.939	28.729	0.165	0.138
-310.924	-200.000	-0.028	-0.124
-309.910	800.000	0.090	0.247
-308.895	-200.000	-0.014	-0.248
-307.880	51.563	-0.147	-0.137
-306.866	-200.000	0.001	0.168
-305.851	-156.700	-0.263	0.016
-304.837	-28.702	0.059	-0.033
-303.822	91.825	0.132	-0.146
-302.807	-46.352	0.115	0.056
-301.793	293.669	-0.117	-0.211
-300.778	-72.410	0.061	-0.022
-299.764	282.359	0.146	-0.257
-298.749	-71.512	0.401	-0.148
-297.735	-120.862	-0.205	0.034
-296.720	-34.936	-0.180	0.097
-295.705	-154.431	0.435	0.029
-294.691	14.455	-0.117	0.090
-293.676	800.000	-0.070	0.269
-292.662	-200.000	0.013	-0.065
-291.647	94.154	-0.080	-0.090
-290.632	22.864	0.149	0.120
-289.618	-200.000	0.045	0.550
-288.603	-87.398	-0.174	0.052
-287.589	-200.000	0.003	0.129
-286.574	-175.329	-0.159	-0.004
-285.559	792.592	-0.034	-0.093
-284.545	-44.151	-0.134	0.066
-283.530	112.393	0.182	0.217
-282.516	-200.000	0.004	0.024
-281.501	-200.000	-0.001	-0.150
-280.486	-200.000	-0.033	-0.171
-279.472	-200.000	-0.046	0.268
-278.457	-6.391	-0.155	0.104
-277.443	800.000	-0.012	-0.044
-276.428	-165.064	0.268	-0.012
-275.413	-23.849	0.051	-0.030
-274.399	-36.764	0.230	0.121
-273.384	32.931	-0.174	0.148
-272.370	258.109	0.130	-0.220
-271.355	26.666	-0.111	0.092
-270.340	-101.727	-0.381	0.091
-269.326	-15.127	-0.189	0.119
-268.311	189.999	0.155	0.228
-267.297	-200.000	-0.024	0.344
-266.282	-200.000	-0.094	0.451
-265.267	212.492	0.028	0.043
-264.253	-36.973	0.196	0.104
-263.238	79.219	-0.080	0.084
-262.224	415.712	-0.070	-0.146
-261.209	555.479	0.068	0.162
-260.195	476.870	-0.083	0.184
-259.180	-200.000	0.036	0.173
-258.165	84.067	0.078	-0.084
-257.151	433.187	-0.117	-0.249
-256.136	59.215	0.206	0.199
-255.122	-200.000	-0.001	0.240
-254.107	5.372	-0.375	0.272
-253.092	-111.771	0.098	-0.020
-252.078	-167.298	-0.120	0.005
-251.063	10.108	0.260	0.194
-250.049	5.311	0.202	0.146
-249.034	-104.548	-0.311	0.071
-248.019	-200.000	-0.071	-0.387
-247.005	-89.918	-0.309	-0.089
-245.990	-178.509	0.247	-0.006
-244.976	-4.168	0.100	0.068
-243.961	-200.000	0.004	-0.110
-242.946	74.551	0.165	-0.171
-241.932	492.594	-0.143	0.322
-240.917	12.413	0.130	-0.098
-239.903	-119.641	0.261	-0.044
-238.888	66.126	0.199	0.199
-237.873	170.634	-0.144	-0.202
-236.859	-200.000	-0.054	-0.279
-235.844	-200.000	-0.005	0.283
-234.830	-24.288	0.264	0.155
-233.815	800.000	0.049	-0.174
-232.800	-3.141	-0.069	-0.047
-231.786	-200.000	0.034	-0.185
-230.771	-158.069	-0.226	0.013
-229.757	32.328	-0.255	0.217
-228.742	-122.623	0.029	-0.005
-227.727	-73.671	-0.010	0.003
-226.713	-200.000	-0.016	-0.157
-225.698	188.839	0.111	-0.164
-224.684	18.943	-0.200	0.157
-223.669	106.494	-0.169	-0.197
-222.655	800.000	0.042	-0.151
-221.640	-100.884	-0.281	0.068
-220.625	102.582	0.182	0.210
-219.611	-200.000	-0.173	-0.001
-218.596	-108.870	0.564	0.118
-217.582	-76.667	-0.330	0.114
-216.567	657.520	0.157	0.397
-215.552	-135.835	0.182	-0.021
-214.538	25.397	0.071	-0.058
-213.523	-46.233	0.246	-0.119
-212.509	763.521	0.087	-0.231
-211.494	800.000	-0.046	-0.155
-210.479	-200.000	-0.017	-0.175
-209.465	-146.741	0.217	-0.018
-208.450	468.925	0.094	-0.207
-207.436	-200.000	-0.039	-0.284
-206.421	-75.324	-0.183	-0.064
-205.406	280.421	0.067	0.117
-204.392	-120.043	0.143	0.024
-203.377	-200.000	-0.025	-0.220
-202.363	16.707	-0.094	-0.073
-201.348	183.330	0.134	0.194
-200.333	-45.587	0.073	-0.036
-199.319	15.358	-0.115	0.089
-198.304	-96.272	-0.184	0.048
-197.290	707.283	-0.045	0.116
-196.275	-151.953	-0.211	0.015
-195.260	-200.000	0.275	-0.000
-194.246	-16.974	-0.296	-0.183
-193.231	-99.047	0.120	0.030
-192.217	291.447	0.135	0.240
-191.202	182.263	0.182	-0.263
-190.187	800.000	-0.076	0.257
-189.173	268.279	0.048	0.082
-188.158	-61.946	0.184	-0.076
-187.144	60.536	-0.187	-0.182
-186.129	-138.141	-0.095	-0.010
-185.114	-81.919	0.320	0.103
-184.100	-200.000	0.019	-0.191
-183.085	-51.131	-0.062	-0.029
-182.071	-113.516	-0.216	0.041
-181.056	629.124	0.098	-0.244
-180.042	98.097	0.263	0.297
-179.027	-147.096	-0.219	-0.018
-178.012	204.236	-0.356	0.541
-176.998	-79.752	0.094	-0.031
-175.983	-163.371	0.150	-0.007
-174.969	-29.100	0.123	-0.069
-173.954	46.781	0.401	0.365
-172.939	-94.594	0.084	0.022
-171.925	-91.377	0.118	0.033
-170.910	-49.711	0.320	-0.149
-169.896	-163.244	-0.137	-0.006
-168.881	-74.579	-0.052	0.018
-167.866	103.271	-0.349	-0.402
-166.852	-188.779	0.457	-0.005
-165.837	105.495	-0.192	0.223
-164.823	-200.000	-0.006	-0.110
-163.808	800.000	-0.074	-0.201
-162.793	800.000	0.014	0.037
-161.779	800.000	0.071	0.233
-160.764	92.006	0.100	0.110
-159.750	800.000	-0.026	-0.077
-158.735	-87.750	0.193	0.057
-157.720	-23.717	-0.296	0.174
-156.706	-48.834	-0.122	0.057
-155.691	66.101	0.114	-0.114
-154.677	121.130	0.138	-0.169
-153.662	800.000	-0.145	0.402
-152.647	-15.389	0.074	-0.046
-151.633	113.108	0.037	0.044
-150.618	-200.000	0.052	-0.352
-149.604	460.180	0.072	-0.157
-148.589	14.066	-0.189	-0.145
-147.574	-200.000	0.005	-0.108
-146.560	800.000	-0.048	-0.141
-145.545	57.111	0.136	0.130
-144.531	-200.000	-0.008	0.204
-143.516	628.329	-0.128	0.316
-142.502	150.233	-0.192	0.255
-141.487	-200.000	0.034	0.212
-140.472	800.000	-0.010	-0.034
-139.458	470.835	-0.152	0.334
-138.443	134.575	0.143	-0.182
-137.429	99.724	0.134	0.152
-136.414	204.755	0.091	-0.138
-135.399	-200.000	-0.003	-0.051
-134.385	-97.424	0.046	0.012
-133.370	609.058	-0.163	0.398
-132.356	800.000	-0.065	0.192
-131.341	-200.000	0.004	0.182
-130.326	111.701	-0.117	0.138
-129.312	-14.988	0.168	-0.106
-128.297	-5.406	-0.191	0.128
-127.283	-110.168	-0.211	0.043
-126.268	435.251	0.107	-0.228
-125.253	-65.013	0.169	0.067
-124.239	-125.406	0.115	0.017
-123.224	-129.262	-0.239	0.033
-122.210	178.154	0.200	0.285
-121.195	303.400	0.054	0.099
