DTS Sentinel unit serial number:	SN413079Multiplexer serial number:	ORYXHardware model number:	OX4-SRSoftware version number:	ORYX F/W v4.00 Oryx Data Collector v3.7.2.0data status	okinstallation	princeton_trtdifferential loss correction	single-endedforward channel	channel 1reverse channel	N/Adate	2019/09/13time	13:42:35forward acquisition time	60.00reverse acquisition time	0.00gamma	496.2192k internal	0.2304k external	0.2304temperature offset calibration	1.0162default loss term (dB/km)	0.3790temperature slope calibration	1.0000multiplexer offset coefficient	1.0000multiplexer slope coefficient	1.0000fibre end	0.00T internal ref (°C)	35.12T ext. ref 1 (°C)	4.59T ext. ref 2 (°C)	31.37length (m)	temperature (°C)	Stokes	anti-Stokes-747.200	-190.382	-0.049	-0.001
-746.185	-10.972	0.150	-0.101
-745.171	-200.000	-0.060	-0.333
-744.156	77.792	0.207	0.224
-743.142	-200.000	0.030	-0.208
-742.127	266.413	-0.046	-0.082
-741.112	800.000	0.091	0.270
-740.098	-114.897	-0.323	0.063
-739.083	-200.000	0.046	0.293
-738.069	-96.586	0.173	-0.046
-737.054	-200.000	-0.068	-0.353
-736.039	566.226	-0.135	-0.332
-735.025	270.454	-0.113	0.203
-734.010	7.134	-0.266	0.202
-732.996	-200.000	0.035	-0.376
-731.981	71.617	-0.115	-0.122
-730.966	-106.557	-0.314	0.071
-729.952	800.000	0.043	-0.137
-728.937	77.046	0.127	-0.138
-727.923	800.000	-0.050	-0.146
-726.908	-132.127	0.032	-0.004
-725.894	-2.471	-0.417	0.297
-724.879	-116.868	0.292	0.054
-723.864	-200.000	-0.007	0.220
-722.850	23.680	-0.230	-0.193
-721.835	-200.000	0.016	-0.221
-720.821	27.648	0.103	-0.088
-719.806	120.477	-0.238	0.301
-718.791	-200.000	-0.034	-0.253
-717.777	-3.308	-0.178	0.126
-716.762	-200.000	0.007	-0.219
-715.748	97.097	-0.063	-0.073
-714.733	-200.000	0.020	-0.251
-713.718	-116.458	0.252	-0.047
-712.704	382.659	0.058	0.120
-711.689	-152.320	-0.353	0.026
-710.675	800.000	0.066	0.271
-709.660	37.859	-0.093	-0.084
-708.645	-109.827	0.188	-0.040
-707.631	88.475	-0.207	0.234
-706.616	800.000	-0.122	0.392
-705.602	800.000	0.079	-0.256
-704.587	-200.000	0.024	0.131
-703.572	-200.000	0.026	-0.179
-702.558	200.399	-0.184	-0.288
-701.543	-16.073	0.259	-0.168
-700.529	-124.862	-0.485	0.076
-699.514	-4.924	-0.374	0.262
-698.499	-125.044	-0.357	-0.056
-697.485	-120.772	0.134	-0.023
-696.470	-200.000	-0.017	-0.265
-695.456	195.692	-0.126	0.195
-694.441	-43.543	-0.071	-0.036
-693.426	-146.804	-0.397	0.035
-692.412	800.000	0.068	-0.197
-691.397	-200.000	-0.007	-0.126
-690.383	-168.691	-0.076	-0.003
-689.368	582.189	-0.063	0.156
-688.354	800.000	-0.065	-0.231
-687.339	800.000	-0.049	0.147
-686.324	-136.648	0.225	-0.026
-685.310	428.628	-0.145	-0.318
-684.295	-148.968	-0.270	-0.022
-683.281	-148.475	-0.077	0.006
-682.266	-65.092	-0.250	0.103
-681.251	11.253	-0.316	0.246
-680.237	88.253	0.010	-0.011
-679.222	42.688	0.150	0.138
-678.208	-89.110	-0.201	0.060
-677.193	18.479	0.049	0.040
-676.178	-200.000	-0.012	-0.223
-675.164	508.820	0.138	-0.326
-674.149	-200.000	0.052	0.247
-673.135	-100.752	0.123	0.031
-672.120	-158.241	-0.086	0.005
-671.105	-66.576	-0.393	-0.158
-670.091	242.178	0.212	-0.360
-669.076	-193.972	-0.231	0.002
-668.062	800.000	-0.063	0.235
-667.047	107.406	0.329	-0.398
-666.032	-200.000	-0.037	-0.267
-665.018	-200.000	0.000	-0.174
-664.003	163.165	-0.069	0.099
-662.989	648.035	-0.021	-0.053
-661.974	800.000	0.036	-0.147
-660.959	-146.385	0.047	0.004
-659.945	20.606	-0.085	0.069
-658.930	80.388	0.116	-0.126
-657.916	-121.238	-0.202	-0.034
-656.901	-53.361	0.086	0.040
-655.886	276.778	-0.170	-0.306
-654.872	-200.000	-0.026	-0.190
-653.857	113.368	0.138	-0.170
-652.843	800.000	-0.052	-0.212
-651.828	27.467	-0.096	-0.082
-650.814	-12.308	-0.216	0.143
-649.799	-135.412	0.211	-0.026
-648.784	-146.210	-0.198	-0.018
-647.770	-200.000	0.041	-0.289
-646.755	196.494	0.030	0.046
-645.741	-67.889	-0.114	0.045
-644.726	53.557	-0.163	-0.159
-643.711	133.095	0.058	0.076
-642.697	137.119	-0.294	-0.390
-641.682	209.955	0.286	-0.455
-640.668	-200.000	0.086	-0.471
-639.653	67.931	0.101	0.104
-638.638	-74.262	-0.168	0.062
-637.624	-200.000	-0.046	-0.310
-636.609	754.821	0.134	-0.367
-635.595	101.269	-0.090	-0.106
-634.580	-55.380	0.113	0.052
-633.565	-35.608	0.315	0.173
-632.551	93.639	0.152	0.174
-631.536	-200.000	0.026	-0.282
-630.522	195.327	-0.026	-0.040
-629.507	-39.194	0.226	-0.120
-628.492	-200.000	0.073	-0.396
-627.478	56.965	-0.169	0.167
-626.463	-7.056	-0.290	0.200
-625.449	33.977	0.213	-0.188
-624.434	676.787	-0.045	-0.119
-623.419	220.165	-0.038	-0.063
-622.405	-113.460	0.046	0.009
-621.390	299.943	-0.075	0.140
-620.376	-45.374	-0.299	0.151
-619.361	-135.874	0.227	0.027
-618.346	-4.941	0.071	0.049
-617.332	-200.000	0.071	-0.448
-616.317	-13.294	-0.071	-0.047
-615.303	-175.332	-0.301	0.008
-614.288	161.552	0.039	-0.056
-613.273	505.188	0.052	-0.122
-612.259	-119.557	-0.287	-0.050
-611.244	-13.105	-0.426	-0.280
-610.230	-106.519	0.226	-0.051
-609.215	102.330	0.302	-0.357
-608.201	39.718	-0.186	-0.169
-607.186	67.816	0.273	0.283
-606.171	-114.779	-0.264	0.051
-605.157	-124.804	-0.144	0.022
-604.142	-76.928	-0.095	-0.034
-603.128	407.084	-0.098	0.210
-602.113	-200.000	-0.003	-0.223
-601.098	60.902	-0.268	0.269
-600.084	-52.211	-0.343	-0.161
-599.069	233.851	0.074	-0.124
-598.055	-82.471	-0.212	-0.070
-597.040	507.735	-0.195	0.459
-596.025	-37.218	-0.429	-0.232
-595.011	-63.866	-0.144	-0.060
-593.996	-102.773	0.067	-0.016
-592.982	211.818	0.034	0.055
-591.967	-43.422	-0.058	0.029
-590.952	642.171	-0.143	0.369
-589.938	91.751	0.160	-0.182
-588.923	-41.548	0.060	0.031
-587.909	-28.312	-0.033	-0.019
-586.894	-118.661	-0.226	-0.040
-585.879	29.787	0.172	-0.148
-584.865	-57.197	-0.174	0.077
-583.850	-200.000	-0.051	-0.230
-582.836	-200.000	0.028	0.199
-581.821	-93.844	0.229	-0.064
-580.806	124.265	0.091	0.116
-579.792	800.000	0.031	-0.098
-578.777	280.020	-0.127	0.230
-577.763	-80.590	0.268	0.090
-576.748	61.903	0.134	0.135
-575.733	56.056	0.046	0.045
-574.719	410.266	0.040	0.087
-573.704	79.383	-0.199	0.216
-572.690	-22.545	0.073	-0.045
-571.675	239.873	-0.094	-0.158
-570.661	146.799	0.019	-0.026
-569.646	100.486	0.206	-0.242
-568.631	800.000	-0.057	-0.242
-567.617	-125.365	0.241	-0.037
-566.602	-200.000	-0.044	-0.363
-565.588	-111.844	-0.284	0.058
-564.573	41.891	0.245	0.225
-563.558	-168.147	0.246	0.010
-562.544	-81.639	0.229	0.076
-561.529	-62.472	-0.284	0.119
-560.515	433.061	-0.126	-0.276
-559.500	-101.839	0.469	0.115
-558.485	-95.901	-0.329	-0.089
-557.471	-31.025	0.409	0.233
-556.456	323.804	-0.030	-0.058
-555.442	-152.557	-0.168	-0.012
-554.427	-166.512	0.156	0.007
-553.412	-84.728	-0.304	-0.097
-552.398	-0.262	0.170	-0.122
-551.383	-200.000	-0.023	0.222
-550.369	380.063	-0.105	-0.217
-549.354	-106.167	-0.102	0.023
-548.339	-100.817	0.386	-0.096
-547.325	-200.000	-0.080	0.385
-546.310	800.000	0.102	-0.304
-545.296	15.989	0.240	0.191
-544.281	153.622	0.108	-0.150
-543.266	50.323	0.216	-0.207
-542.252	-36.046	-0.128	-0.070
-541.237	-149.703	0.069	0.006
-540.223	140.645	0.188	-0.251
-539.208	129.654	0.115	-0.148
-538.193	3.966	-0.228	-0.168
-537.179	-122.066	0.091	0.015
-536.164	-87.657	0.396	-0.121
-535.150	277.241	0.149	-0.268
-534.135	-130.220	0.153	0.021
-533.121	210.968	-0.198	-0.314
-532.106	800.000	-0.022	-0.093
-531.091	-200.000	0.006	-0.073
-530.077	147.619	-0.120	0.163
-529.062	-57.930	-0.070	-0.031
-528.048	-134.983	-0.197	0.024
-527.033	-200.000	0.020	0.242
-526.018	-51.787	0.111	0.052
-525.004	24.933	-0.189	-0.159
-523.989	-151.426	-0.274	0.021
-522.975	-90.285	0.302	-0.089
-521.960	-48.995	0.024	0.012
-520.945	36.967	-0.221	-0.198
-519.931	-200.000	0.019	-0.144
-518.916	-49.770	-0.033	0.016
-517.902	-200.000	-0.037	0.333
-516.887	800.000	0.013	-0.041
-515.872	408.755	0.195	-0.416
-514.858	-200.000	-0.014	-0.078
-513.843	755.640	-0.012	0.034
-512.829	-29.999	-0.254	-0.146
-511.814	-114.300	0.284	0.055
-510.799	-200.000	0.023	0.108
-509.785	27.737	-0.158	-0.134
-508.770	310.251	0.104	-0.196
-507.756	-107.338	-0.072	0.016
-506.741	-200.000	0.009	-0.144
-505.726	-83.861	0.174	-0.056
-504.712	-170.712	0.286	0.010
-503.697	-200.000	-0.008	-0.080
-502.683	85.861	0.181	0.201
-501.668	800.000	0.006	0.027
-500.653	-115.757	-0.352	-0.067
-499.639	-200.000	-0.005	-0.280
-498.624	223.929	0.104	-0.170
-497.610	800.000	0.051	0.174
-496.595	800.000	0.072	-0.226
-495.581	-200.000	-0.035	0.164
-494.566	-84.805	0.261	-0.083
-493.551	-103.538	0.049	-0.012
-492.537	-94.462	0.260	-0.072
-491.522	35.462	-0.205	-0.181
-490.508	-10.270	-0.190	-0.127
-489.493	-49.140	-0.507	-0.244
-488.478	-106.443	0.317	0.071
-487.464	34.872	0.113	-0.099
-486.449	800.000	-0.035	0.112
-485.435	44.657	0.036	0.033
-484.420	338.870	0.038	0.075
-483.405	-67.710	0.331	0.131
-482.391	58.657	0.172	0.170
-481.376	684.112	-0.105	0.277
-480.362	50.737	0.093	0.089
-479.347	316.642	0.052	-0.098
-478.332	-51.147	0.106	0.050
-477.318	-200.000	0.010	-0.149
-476.303	-200.000	-0.032	0.316
-475.289	59.506	-0.075	-0.075
-474.274	45.841	-0.256	0.238
-473.259	-200.000	0.027	0.319
-472.245	800.000	0.031	-0.115
-471.230	800.000	0.046	0.169
-470.216	-113.430	0.063	0.012
-469.201	-34.178	-0.281	-0.156
-468.186	800.000	-0.023	0.093
-467.172	800.000	-0.065	-0.216
-466.157	316.879	0.127	-0.242
-465.143	-3.922	0.065	-0.045
-464.128	800.000	-0.113	0.357
-463.113	608.498	0.104	-0.261
-462.099	800.000	0.086	0.324
-461.084	-99.326	0.212	0.054
-460.070	-200.000	-0.012	0.173
-459.055	308.573	-0.091	-0.171
-458.040	-200.000	0.005	0.218
-457.026	-7.740	-0.294	0.200
-456.011	246.449	0.044	0.075
-454.997	-83.703	0.008	-0.003
-453.982	-78.591	0.336	0.116
-452.968	260.466	-0.075	0.131
-451.953	-200.000	-0.016	-0.127
-450.938	263.425	-0.119	-0.208
-449.924	-16.956	0.339	-0.216
-448.909	79.050	-0.081	0.087
-447.895	-112.535	-0.304	-0.061
-446.880	525.749	-0.069	-0.163
-445.865	-68.486	-0.415	-0.162
-444.851	-156.038	-0.211	-0.013
-443.836	125.558	0.331	0.421
-442.822	29.716	-0.046	0.040
-441.807	17.270	-0.259	-0.207
-440.792	-146.325	-0.095	0.008
-439.778	200.211	0.119	0.184
-438.763	14.882	-0.290	0.228
-437.749	-164.853	0.286	-0.013
-436.734	-153.233	-0.258	0.018
-435.719	-22.211	0.183	-0.112
-434.705	-200.000	0.003	0.146
-433.690	-200.000	-0.047	0.216
-432.676	3.478	-0.328	-0.240
-431.661	-56.013	-0.199	0.089
-430.646	-200.000	-0.023	0.220
-429.632	355.021	-0.103	-0.206
-428.617	-124.098	0.163	-0.026
-427.603	99.472	0.292	0.340
-426.588	5.448	0.154	0.115
-425.573	800.000	0.049	0.171
-424.559	-44.310	0.138	-0.070
-423.544	800.000	0.103	0.352
-422.530	800.000	0.089	-0.369
-421.515	99.316	-0.010	-0.011
-420.500	-36.841	0.386	0.208
-419.486	-200.000	0.030	0.195
-418.471	-91.400	-0.262	0.075
-417.457	-200.000	0.009	-0.166
-416.442	-182.048	0.214	0.004
-415.428	334.321	-0.110	-0.214
-414.413	-28.549	0.131	-0.076
-413.398	114.459	0.207	-0.253
-412.384	89.332	0.218	-0.244
-411.369	-134.970	-0.137	0.017
-410.355	6.048	-0.153	0.114
-409.340	214.976	0.186	0.296
-408.325	602.897	0.090	-0.225
-407.311	-200.000	0.022	0.285
-406.296	-200.000	-0.016	0.099
-405.282	-200.000	-0.002	0.189
-404.267	71.057	0.042	-0.043
-403.252	800.000	-0.035	0.117
-402.238	-77.336	0.245	0.086
-401.223	-46.155	-0.155	0.077
-400.209	-113.038	0.229	-0.045
-399.194	-200.000	-0.020	0.304
-398.179	89.671	-0.052	-0.059
-397.165	-56.907	-0.067	0.030
-396.150	800.000	0.074	-0.227
-395.136	-55.018	-0.051	-0.023
-394.121	50.194	-0.192	-0.182
-393.106	-116.223	-0.180	-0.034
-392.092	362.450	0.219	-0.441
-391.077	-96.621	-0.271	-0.072
-390.063	-200.000	0.033	-0.193
-389.048	-200.000	0.034	-0.164
-388.033	-177.640	0.120	-0.003
-387.019	3.417	-0.168	-0.123
-386.004	0.411	-0.140	-0.100
-384.990	77.124	-0.099	0.106
-383.975	101.043	-0.115	-0.135
-382.960	164.225	0.156	-0.220
-381.946	535.806	0.103	0.246
-380.931	622.871	-0.103	-0.260
-379.917	-6.883	-0.205	0.140
-378.902	103.260	0.113	0.133
-377.888	-55.716	-0.230	0.103
-376.873	-158.139	-0.222	-0.013
-375.858	-25.715	0.177	0.105
-374.844	-113.402	0.328	0.065
-373.829	-20.210	-0.344	0.213
-372.815	-200.000	0.011	-0.299
-371.800	-41.221	-0.195	-0.101
-370.785	9.558	0.158	0.120
-369.771	-200.000	-0.029	0.240
-368.756	-3.866	-0.150	-0.104
-367.742	-147.091	-0.089	0.008
-366.727	170.147	0.098	-0.141
-365.712	283.631	0.141	0.254
-364.698	-148.864	0.168	-0.014
-363.683	240.719	0.145	0.243
-362.669	12.281	0.191	-0.148
-361.654	-72.347	-0.389	-0.145
-360.639	-116.459	-0.136	-0.025
-359.625	-60.081	0.207	-0.089
-358.610	-200.000	0.004	0.038
-357.596	-74.474	-0.192	0.070
-356.581	522.317	-0.119	-0.280
-355.566	-177.899	-0.200	0.005
-354.552	-81.626	-0.364	0.120
-353.537	-200.000	0.002	-0.042
-352.523	77.045	-0.070	-0.074
-351.508	-97.761	0.620	-0.161
-350.493	170.763	-0.021	0.030
-349.479	-32.446	-0.275	0.154
-348.464	-56.541	-0.148	-0.066
-347.450	800.000	0.136	0.382
-346.435	-40.358	-0.185	0.096
-345.420	-172.750	-0.144	0.005
-344.406	-200.000	0.035	-0.268
-343.391	-138.009	0.142	-0.016
-342.377	800.000	0.021	0.087
-341.362	-200.000	-0.012	0.232
-340.348	-46.406	-0.126	0.062
-339.333	168.365	-0.198	-0.283
-338.318	800.000	-0.012	-0.043
-337.304	-200.000	-0.004	0.026
-336.289	-22.246	-0.149	0.091
-335.275	104.986	-0.271	0.320
-334.260	325.814	-0.202	-0.387
-333.245	-200.000	0.003	0.075
-332.231	-95.725	0.220	0.059
-331.216	-200.000	-0.091	0.420
-330.202	800.000	-0.056	0.213
-329.187	77.815	0.165	0.176
-328.172	17.609	-0.024	-0.019
-327.158	-200.000	-0.026	0.240
-326.143	-18.874	-0.102	0.063
-325.129	-200.000	0.004	-0.057
-324.114	-108.305	-0.155	-0.034
-323.099	61.519	-0.407	0.405
-322.085	800.000	0.022	0.094
-321.070	90.385	0.088	-0.099
-320.056	-137.224	-0.113	-0.013
-319.041	119.282	-0.134	0.166
-318.026	-162.542	-0.066	0.003
-317.012	-72.903	-0.108	0.040
-315.997	800.000	0.040	-0.129
-314.983	-200.000	-0.003	-0.147
-313.968	-55.605	0.254	0.114
-312.953	216.403	0.079	-0.126
-311.939	-107.182	0.142	-0.031
-310.924	-200.000	0.043	-0.276
-309.910	-68.826	0.218	-0.084
-308.895	-47.639	0.112	0.055
-307.880	217.539	-0.081	-0.129
-306.866	-100.572	0.217	-0.054
-305.851	800.000	0.068	0.248
-304.837	800.000	-0.067	0.219
-303.822	48.657	0.190	0.178
-302.807	-72.105	0.025	0.009
-301.793	34.438	-0.210	-0.183
-300.778	-115.669	-0.386	0.073
-299.764	800.000	0.089	-0.342
-298.749	526.948	0.059	-0.139
-297.735	-60.609	-0.076	0.032
-296.720	-140.579	0.279	0.029
-295.705	77.237	0.215	0.229
-294.691	-54.569	-0.223	0.101
-293.676	247.552	0.126	0.213
-292.662	-1.294	0.182	-0.129
-291.647	-200.000	-0.028	0.312
-290.632	800.000	0.020	0.070
-289.618	15.142	0.143	0.112
-288.603	66.369	0.214	-0.218
-287.589	-200.000	-0.023	0.296
-286.574	-200.000	-0.009	-0.153
-285.559	800.000	0.081	0.226
-284.545	286.236	-0.150	-0.270
-283.530	670.707	-0.127	-0.328
-282.516	-101.839	-0.149	-0.036
-281.501	800.000	0.061	0.192
-280.486	126.935	0.077	-0.098
-279.472	227.689	-0.138	0.225
-278.457	-91.885	-0.414	0.117
-277.443	800.000	0.034	0.095
-276.428	117.920	-0.166	-0.204
-275.413	-83.825	0.150	0.048
-274.399	255.423	-0.137	0.234
-273.384	346.459	0.113	0.223
-272.370	800.000	0.062	0.209
-271.355	-114.911	-0.095	-0.018
-270.340	-34.644	0.324	0.177
-269.326	-110.332	-0.485	0.101
-268.311	-13.779	-0.241	0.156
-267.297	-117.532	-0.058	0.010
-266.282	702.554	0.097	-0.257
-265.267	-80.263	0.385	0.129
-264.253	800.000	0.060	-0.231
-263.238	-26.747	-0.073	-0.043
-262.224	-29.432	-0.227	0.130
-261.209	-200.000	-0.007	0.033
-260.195	389.018	0.093	0.192
-259.180	800.000	0.073	-0.229
-258.165	-141.038	0.217	0.022
-257.151	238.670	0.214	-0.355
-256.136	800.000	-0.029	-0.089
-255.122	-12.745	-0.194	-0.126
-254.107	125.925	0.056	-0.071
-253.092	154.916	0.207	-0.284
-252.078	-26.856	-0.225	0.131
-251.063	-162.301	-0.280	-0.014
-250.049	-91.236	0.156	-0.045
-249.034	-22.755	0.298	-0.180
-248.019	800.000	0.139	-0.421
-247.005	44.491	-0.206	0.189
-245.990	424.854	0.114	-0.245
-244.976	94.466	-0.139	-0.157
-243.961	-144.301	0.151	-0.014
-242.946	-200.000	0.039	0.212
-241.932	355.707	0.068	0.135
-240.917	-147.743	0.334	-0.028
-239.903	800.000	0.061	0.195
-238.888	118.932	0.031	0.038
-237.873	-200.000	-0.034	0.225
-236.859	-99.321	-0.225	-0.057
-235.844	-111.513	-0.023	-0.005
-234.830	0.185	-0.277	-0.197
-233.815	-7.013	0.297	0.201
-232.800	222.500	-0.187	-0.301
-231.786	-162.157	0.394	-0.020
-230.771	47.528	-0.162	-0.150
-229.757	-43.307	0.051	-0.026
-228.742	-136.766	0.316	-0.036
-227.727	70.280	-0.166	-0.171
-226.713	133.880	0.097	0.125
-225.698	-42.363	0.163	-0.083
-224.684	-51.082	0.127	0.059
-223.669	800.000	-0.041	0.115
-222.655	800.000	0.086	0.322
-221.640	64.578	0.318	-0.320
-220.625	-36.460	0.081	0.043
-219.611	-200.000	0.011	0.090
-218.596	32.131	-0.210	0.181
-217.582	81.460	0.105	-0.113
-216.567	358.860	-0.123	0.245
-215.552	71.641	0.030	0.031
-214.538	138.837	0.159	-0.209
-213.523	-200.000	-0.020	0.235
-212.509	60.996	-0.222	0.220
-211.494	-108.613	-0.204	-0.044
-210.479	-6.184	-0.129	0.088
-209.465	-66.820	-0.163	0.064
-208.450	-194.382	0.113	0.001
-207.436	34.432	-0.044	-0.038
-206.421	-161.658	-0.244	-0.012
-205.406	-49.398	0.364	-0.173
-204.392	-81.547	-0.221	-0.072
-203.377	-200.000	-0.061	0.382
-202.363	-95.508	-0.228	0.061
-201.348	800.000	0.019	0.071
-200.333	-107.372	0.174	-0.038
-199.319	-87.281	-0.536	0.162
-198.304	-200.000	0.056	0.257
-197.290	800.000	-0.074	0.263
-196.275	-58.581	-0.150	0.065
-195.260	-51.179	0.235	0.110
-194.246	-3.308	-0.176	-0.122
-193.231	-55.630	-0.119	-0.053
-192.217	310.247	0.219	0.408
-191.202	800.000	0.071	0.200
-190.187	800.000	0.059	-0.210
-189.173	-54.622	-0.566	0.255
-188.158	800.000	-0.083	0.323
-187.144	-48.965	-0.420	0.201
-186.129	52.542	0.176	0.168
-185.114	97.301	0.182	0.209
-184.100	-200.000	-0.008	-0.113
-183.085	-200.000	-0.000	-0.023
-182.071	30.564	-0.240	-0.205
-181.056	-116.878	0.483	0.088
-180.042	48.442	0.110	0.103
-179.027	-44.621	-0.202	0.101
-178.012	-3.539	0.277	-0.192
-176.998	129.321	0.107	0.136
-175.983	-89.106	-0.175	-0.052
-174.969	-200.000	-0.002	0.179
-173.954	19.320	0.299	0.239
-172.939	-48.110	-0.072	0.035
-171.925	-200.000	-0.025	0.234
-170.910	21.949	-0.317	0.258
-169.896	800.000	0.122	-0.364
-168.881	-59.471	-0.156	0.067
-167.866	-125.665	0.226	0.034
-166.852	156.019	-0.128	0.176
-165.837	800.000	-0.013	-0.037
-164.823	42.959	0.385	-0.350
-163.808	38.553	-0.033	0.030
-162.793	755.778	-0.015	-0.041
-161.779	-49.212	-0.171	0.081
-160.764	553.363	-0.096	0.229
-159.750	95.101	0.093	0.105
-158.735	143.435	0.189	-0.250
-157.720	-18.780	0.201	-0.125
-156.706	201.525	0.068	-0.105
-155.691	-110.409	0.137	-0.028
-154.677	118.160	0.160	-0.196
-153.662	-111.818	0.258	0.052
-152.647	-160.512	0.322	0.017
-151.633	-68.342	-0.313	0.121
-150.618	-176.710	0.119	0.003
-149.604	-200.000	-0.043	0.375
-148.589	244.174	0.128	0.214
-147.574	103.542	0.089	0.104
-146.560	10.737	0.182	0.138
-145.545	-72.918	-0.091	-0.033
-144.531	-200.000	-0.016	-0.146
-143.516	-94.512	-0.140	-0.038
-142.502	-65.082	0.114	-0.046
-141.487	-70.822	0.242	0.091
-140.472	-85.384	-0.284	-0.088
-139.458	-130.054	-0.484	0.066
-138.443	124.879	-0.229	0.287
-137.429	-136.851	0.367	0.042
-136.414	-75.685	-0.364	0.128
-135.399	-200.000	0.058	-0.273
-134.385	-54.626	-0.123	0.055
-133.370	290.475	-0.102	0.185
-132.356	35.314	0.145	0.126
-131.341	3.702	0.166	-0.120
-130.326	-172.114	-0.443	-0.014
-129.312	-200.000	-0.004	0.185
-128.297	-200.000	-0.044	0.270
-127.283	-200.000	-0.051	0.394
-126.268	-22.325	-0.230	-0.139
-125.253	-111.339	0.392	-0.079
-124.239	199.945	-0.090	-0.138
-123.224	-200.000	-0.143	0.000
-122.210	-110.456	0.292	-0.060
