DTS Sentinel unit serial number:	SN413079Multiplexer serial number:	ORYXHardware model number:	OX4-SRSoftware version number:	ORYX F/W v4.00 Oryx Data Collector v3.7.2.0data status	okinstallation	princeton_trtdifferential loss correction	single-endedforward channel	channel 1reverse channel	N/Adate	2019/09/19time	02:18:35forward acquisition time	60.00reverse acquisition time	0.00gamma	496.2192k internal	0.2344k external	0.2344temperature offset calibration	1.0019default loss term (dB/km)	0.3790temperature slope calibration	1.0000multiplexer offset coefficient	1.0000multiplexer slope coefficient	1.0000fibre end	0.00T internal ref (°C)	21.12T ext. ref 1 (°C)	0.68T ext. ref 2 (°C)	14.55length (m)	temperature (°C)	Stokes	anti-Stokes-747.200	796.929	0.117	0.322
-746.185	-58.572	-0.149	0.065
-745.171	-200.000	-0.003	-0.030
-744.156	-10.075	-0.277	-0.184
-743.142	-167.218	0.478	0.019
-742.127	176.100	0.081	0.118
-741.112	159.209	0.181	0.252
-740.098	57.667	0.132	0.129
-739.083	23.986	-0.047	0.039
-738.069	800.000	0.110	0.466
-737.054	-86.716	-0.292	0.089
-736.039	16.243	-0.233	-0.184
-735.025	-150.629	-0.129	0.010
-734.010	-37.163	-0.150	-0.080
-732.996	-200.000	-0.044	-0.286
-731.981	502.214	0.057	-0.133
-730.966	-200.000	0.041	-0.257
-729.952	-173.222	0.181	-0.006
-728.937	-117.070	-0.406	0.074
-727.923	673.927	0.095	-0.246
-726.908	-44.423	-0.171	-0.086
-725.894	-2.712	0.285	0.200
-724.879	-200.000	0.042	-0.203
-723.864	-177.820	0.075	-0.002
-722.850	-55.742	-0.148	0.066
-721.835	-49.299	-0.222	0.106
-720.821	484.760	0.103	-0.233
-719.806	83.322	-0.112	0.122
-718.791	-61.928	-0.264	-0.110
-717.777	-200.000	-0.003	-0.198
-716.762	419.453	0.110	-0.236
-715.748	179.817	0.022	0.032
-714.733	-200.000	0.177	0.000
-713.718	-59.469	-0.409	-0.176
-712.704	-21.329	0.300	-0.183
-711.689	-10.298	-0.047	-0.031
-710.675	-93.345	-0.191	-0.053
-709.660	194.008	-0.057	0.087
-708.645	-144.242	0.372	0.035
-707.631	-40.775	0.315	0.163
-706.616	-39.563	0.184	0.096
-705.602	800.000	0.022	-0.065
-704.587	715.064	-0.077	-0.204
-703.572	12.806	0.348	0.269
-702.558	429.161	-0.122	0.264
-701.543	-66.751	-0.106	-0.042
-700.529	474.650	0.016	-0.035
-699.514	363.250	0.036	0.072
-698.499	800.000	-0.118	0.330
-697.485	-46.959	0.145	0.071
-696.470	-72.113	0.194	-0.072
-695.456	-57.989	0.086	-0.037
-694.441	-62.244	0.098	-0.041
-693.426	-81.828	-0.428	0.140
-692.412	765.311	-0.159	-0.430
-691.397	-129.003	-0.152	-0.021
-690.383	108.793	0.196	0.234
-689.368	478.803	0.100	0.227
-688.354	-26.509	0.179	-0.105
-687.339	-183.393	-0.113	-0.002
-686.324	800.000	-0.040	0.146
-685.310	16.600	-0.235	-0.186
-684.295	-200.000	0.007	0.111
-683.281	-13.817	-0.340	0.219
-682.266	-152.121	0.069	-0.005
-681.251	-200.000	0.028	-0.255
-680.237	-200.000	0.005	0.245
-679.222	342.896	-0.204	0.398
-678.208	-62.162	0.174	-0.072
-677.193	-200.000	-0.042	0.206
-676.178	-98.585	-0.345	0.088
-675.164	800.000	-0.037	0.118
-674.149	-77.441	0.275	0.095
-673.135	13.295	0.311	-0.241
-672.120	137.056	-0.060	0.079
-671.105	-137.312	0.253	-0.029
-670.091	-200.000	-0.023	-0.124
-669.076	-200.000	0.002	0.025
-668.062	186.356	0.116	-0.172
-667.047	76.685	-0.084	0.088
-666.032	44.676	0.158	0.145
-665.018	-200.000	0.044	0.244
-664.003	585.553	-0.127	-0.311
-662.989	-200.000	-0.008	-0.260
-661.974	-54.420	0.122	-0.055
-660.959	33.074	-0.104	0.090
-659.945	-138.327	-0.064	-0.007
-658.930	37.099	-0.224	-0.198
-657.916	-200.000	-0.019	0.221
-656.901	-174.018	-0.382	-0.011
-655.886	-200.000	-0.085	-0.424
-654.872	-182.798	-0.246	0.004
-653.857	-0.173	-0.090	-0.064
-652.843	-26.839	-0.236	-0.138
-651.828	656.132	-0.061	0.156
-650.814	-200.000	-0.063	0.278
-649.799	-31.554	0.336	-0.188
-648.784	-200.000	-0.010	0.303
-647.770	-2.594	0.058	0.041
-646.755	63.369	-0.177	0.177
-645.741	-200.000	0.029	-0.150
-644.726	30.760	0.202	-0.172
-643.711	103.507	0.158	-0.185
-642.697	71.934	-0.277	0.287
-641.682	326.188	0.103	-0.196
-640.668	-99.644	-0.220	-0.055
-639.653	-151.022	-0.437	-0.033
-638.638	-200.000	0.015	-0.077
-637.624	-1.457	0.068	0.048
-636.609	65.634	0.123	0.125
-635.595	756.315	-0.088	0.236
-634.580	128.195	-0.149	-0.189
-633.565	55.319	0.141	-0.136
-632.551	108.806	0.122	-0.145
-631.536	-85.089	0.079	0.025
-630.522	324.679	0.068	-0.129
-629.507	-200.000	-0.027	-0.381
-628.492	-59.923	-0.115	0.049
-627.478	-111.864	0.125	0.025
-626.463	127.360	0.129	0.163
-625.449	5.936	-0.370	-0.273
-624.434	89.025	0.152	-0.168
-623.419	-149.769	-0.308	0.024
-622.405	-200.000	0.004	-0.118
-621.390	-120.884	0.347	0.058
-620.376	800.000	0.079	0.290
-619.361	510.369	-0.097	0.225
-618.346	-19.109	-0.073	-0.045
-617.332	-81.720	0.110	-0.036
-616.317	20.819	-0.164	-0.132
-615.303	-200.000	-0.053	0.272
-614.288	26.143	-0.164	-0.136
-613.273	199.432	-0.091	0.138
-612.259	800.000	-0.115	-0.340
-611.244	800.000	0.042	-0.159
-610.230	-27.868	0.322	-0.186
-609.215	-200.000	0.005	-0.174
-608.201	56.166	0.053	-0.051
-607.186	238.140	-0.050	0.083
-606.171	800.000	0.039	0.166
-605.157	90.816	0.305	0.340
-604.142	184.940	0.021	-0.031
-603.128	-200.000	0.004	0.238
-602.113	-36.593	0.106	-0.057
-601.098	-18.065	0.297	0.185
-600.084	128.006	0.024	0.030
-599.069	-95.800	-0.116	-0.031
-598.055	-70.402	-0.181	-0.068
-597.040	-96.588	-0.277	0.073
-596.025	-200.000	-0.005	0.077
-595.011	88.611	0.207	-0.229
-593.996	-124.578	0.218	0.034
-592.982	-200.000	0.041	0.252
-591.967	146.898	0.061	0.081
-590.952	-106.270	0.201	0.045
-589.938	168.854	-0.118	-0.167
-588.923	703.305	0.087	0.228
-587.909	-200.000	-0.032	0.189
-586.894	-81.877	-0.096	0.031
-585.879	43.933	0.092	-0.084
-584.865	289.654	0.102	-0.184
-583.850	86.943	-0.173	0.190
-582.836	-41.890	-0.126	0.064
-581.821	311.398	-0.143	-0.267
-580.806	-74.305	-0.084	-0.030
-579.792	-200.000	0.024	-0.178
-578.777	800.000	0.041	0.130
-577.763	-37.878	0.035	-0.018
-576.748	-200.000	-0.040	-0.417
-575.733	308.361	-0.101	-0.187
-574.719	759.974	0.050	-0.134
-573.704	-49.894	0.218	0.103
-572.690	-148.045	-0.307	0.025
-571.675	92.329	-0.133	0.149
-570.661	-28.487	-0.205	-0.117
-569.646	-167.764	-0.211	0.008
-568.631	609.121	0.095	0.235
-567.617	800.000	0.062	0.239
-566.602	81.100	-0.083	-0.089
-565.588	111.684	0.204	-0.244
-564.573	-200.000	0.007	-0.075
-563.558	-34.632	-0.381	0.207
-562.544	17.103	0.196	-0.155
-561.529	-102.522	0.149	0.035
-560.515	33.960	0.207	-0.179
-559.500	-200.000	0.009	0.153
-558.485	163.483	0.016	0.023
-557.471	-17.206	-0.188	-0.118
-556.456	-200.000	0.021	-0.179
-555.442	203.286	-0.215	0.330
-554.427	-30.700	-0.152	-0.086
-553.412	-200.000	0.015	0.226
-552.398	800.000	-0.114	0.327
-551.383	62.586	-0.248	0.246
-550.369	596.692	0.138	0.340
-549.354	800.000	-0.077	0.283
-548.339	-57.061	0.130	-0.057
-547.325	280.912	-0.050	0.089
-546.310	-116.124	0.186	0.034
-545.296	-200.000	-0.027	0.161
-544.281	-128.865	-0.224	0.031
-543.266	-78.760	0.366	0.124
-542.252	-200.000	0.016	0.296
-541.237	51.228	-0.149	-0.140
-540.223	603.066	-0.064	0.158
-539.208	-177.693	0.279	-0.007
-538.193	-200.000	0.042	0.222
-537.179	63.127	-0.167	0.166
-536.164	-200.000	0.013	0.221
-535.150	-149.542	-0.212	0.017
-534.135	226.695	-0.289	-0.466
-533.121	64.577	0.036	-0.036
-532.106	-79.855	-0.334	-0.111
-531.091	46.038	0.095	-0.087
-530.077	-10.472	-0.119	-0.078
-529.062	457.795	0.058	-0.128
-528.048	-200.000	0.018	-0.244
-527.033	127.872	0.241	0.304
-526.018	728.741	-0.043	-0.115
-525.004	251.685	0.149	0.251
-523.989	182.695	-0.176	-0.257
-522.975	734.932	-0.029	0.076
-521.960	-127.251	-0.288	-0.042
-520.945	525.688	0.150	0.350
-519.931	255.334	-0.248	0.421
-518.916	63.154	-0.215	-0.214
-517.902	-133.374	0.194	0.024
-516.887	800.000	-0.085	0.336
-515.872	37.553	-0.133	0.117
-514.858	-200.000	-0.033	0.214
-513.843	-58.987	0.197	0.085
-512.829	-200.000	-0.001	-0.188
-511.814	-151.213	0.196	-0.015
-510.799	60.794	0.189	0.186
-509.785	-93.621	-0.328	-0.090
-508.770	-152.620	0.432	0.031
-507.756	-200.000	-0.018	0.171
-506.741	35.974	0.144	0.125
-505.726	468.838	-0.065	-0.145
-504.712	800.000	-0.089	-0.320
-503.697	34.532	0.198	0.172
-502.683	80.749	-0.157	0.168
-501.668	-82.267	0.140	-0.045
-500.653	-87.841	0.225	-0.067
-499.639	-90.901	0.395	-0.113
-498.624	-88.961	0.140	-0.041
-497.610	-38.058	-0.274	-0.144
-496.595	238.033	-0.132	-0.217
-495.581	-66.258	-0.151	-0.059
-494.566	-108.560	0.087	-0.018
-493.551	133.846	-0.055	0.071
-492.537	-40.656	0.067	-0.034
-491.522	257.793	0.260	0.443
-490.508	-200.000	-0.033	-0.203
-489.493	-91.813	-0.131	-0.037
-488.478	642.687	0.112	0.284
-487.464	-56.087	-0.046	-0.020
-486.449	-17.114	0.145	0.090
-485.435	-200.000	-0.022	-0.215
-484.420	800.000	0.092	-0.307
-483.405	-63.658	0.069	-0.028
-482.391	39.967	-0.194	0.173
-481.376	-37.807	-0.073	-0.038
-480.362	632.650	-0.076	0.191
-479.347	-77.489	0.140	-0.048
-478.332	800.000	-0.034	0.103
-477.318	-141.101	-0.140	0.014
-476.303	64.231	-0.057	0.057
-475.289	-32.836	0.186	-0.103
-474.274	315.035	-0.104	-0.195
-473.259	-102.494	-0.114	-0.027
-472.245	94.192	-0.262	-0.294
-471.230	-147.745	0.350	0.029
-470.216	800.000	0.064	-0.177
-469.201	354.142	-0.113	-0.223
-468.186	234.664	0.170	0.278
-467.172	14.724	-0.353	0.273
-466.157	-200.000	0.014	-0.214
-465.143	248.850	-0.132	-0.220
-464.128	95.740	-0.113	0.128
-463.113	800.000	-0.059	0.196
-462.099	-84.994	-0.404	-0.125
-461.084	176.986	-0.088	0.126
-460.070	-200.000	-0.022	0.288
-459.055	800.000	0.064	-0.226
-458.040	393.308	-0.070	0.143
-457.026	36.810	0.091	0.080
-456.011	-136.930	0.125	0.014
-454.997	-200.000	-0.027	0.214
-453.982	800.000	0.065	0.264
-452.968	-200.000	-0.019	0.306
-451.953	-110.446	0.038	-0.008
-450.938	-72.408	0.200	-0.073
-449.924	12.414	0.149	-0.114
-448.909	-177.482	-0.176	-0.004
-447.895	-200.000	-0.017	-0.149
-446.880	110.907	0.037	0.044
-445.865	46.594	0.102	0.094
-444.851	117.472	-0.098	0.120
-443.836	-94.138	-0.048	0.013
-442.822	-200.000	-0.003	0.081
-441.807	-19.872	0.345	-0.211
-440.792	115.062	0.163	0.197
-439.778	-2.439	0.181	-0.126
-438.763	361.791	0.189	-0.375
-437.749	-200.000	0.023	-0.190
-436.734	-200.000	0.062	-0.359
-435.719	231.257	-0.093	-0.150
-434.705	343.432	0.103	-0.199
-433.690	53.478	0.167	0.159
-432.676	-150.520	-0.462	-0.035
-431.661	-2.000	-0.236	0.164
-430.646	-200.000	-0.024	-0.206
-429.632	-22.526	-0.109	-0.065
-428.617	175.468	-0.119	0.171
-427.603	-200.000	-0.023	-0.268
-426.588	-62.723	0.177	-0.072
-425.573	269.727	-0.023	0.040
-424.559	155.757	-0.087	0.118
-423.544	129.412	-0.212	-0.268
-422.530	-82.274	-0.298	-0.096
-421.515	206.510	-0.024	-0.037
-420.500	-103.559	-0.302	-0.070
-419.486	-94.059	0.310	0.084
-418.471	215.781	-0.078	0.122
-417.457	-66.626	0.398	-0.156
-416.442	361.518	0.060	0.119
-415.428	-200.000	-0.020	-0.174
-414.413	-79.100	0.085	0.028
-413.398	26.835	0.223	-0.185
-412.384	65.428	0.121	-0.121
-411.369	-136.128	-0.138	-0.016
-410.355	149.326	0.062	0.083
-409.340	-50.842	0.133	-0.062
-408.325	-53.031	0.069	0.031
-407.311	-60.342	0.161	0.068
-406.296	-52.853	0.423	-0.193
-405.282	-82.899	-0.434	-0.138
-404.267	67.452	0.300	0.302
-403.252	-42.139	-0.183	-0.093
-402.238	39.243	-0.044	-0.039
-401.223	-18.066	0.201	0.124
-400.209	563.714	-0.145	0.347
-399.194	-9.407	-0.150	0.099
-398.179	-69.539	-0.273	-0.103
-397.165	209.597	-0.046	-0.071
-396.150	-66.431	0.025	0.010
-395.136	-200.000	-0.056	-0.517
-394.121	-52.432	0.038	0.018
-393.106	197.787	-0.318	-0.480
-392.092	800.000	-0.117	0.372
-391.077	164.165	0.073	0.101
-390.063	25.761	0.040	-0.032
-389.048	437.899	0.096	-0.206
-388.033	93.533	0.273	-0.305
-387.019	768.936	-0.071	-0.190
-386.004	-117.555	0.246	-0.044
-384.990	771.596	-0.092	0.247
-383.975	241.310	0.055	-0.091
-382.960	-85.868	0.183	0.056
-381.946	-31.190	-0.273	-0.152
-380.931	-124.864	-0.131	0.020
-379.917	-154.118	-0.486	-0.032
-378.902	-200.000	-0.034	0.269
-377.888	290.770	-0.080	-0.143
-376.873	55.397	0.140	-0.134
-375.858	800.000	0.073	0.297
-374.844	184.199	0.056	-0.082
-373.829	-7.741	-0.151	-0.100
-372.815	51.315	0.236	-0.221
-371.800	443.547	-0.051	0.109
-370.785	-46.962	-0.087	0.042
-369.771	240.713	0.053	-0.087
-368.756	-104.586	-0.227	-0.052
-367.742	350.091	0.033	-0.064
-366.727	305.768	0.120	0.220
-365.712	-200.000	0.011	-0.078
-364.698	9.410	-0.163	0.122
-363.683	42.839	0.319	0.286
-362.669	40.859	-0.170	0.151
-361.654	-27.396	-0.289	0.166
-360.639	-171.231	0.232	0.008
-359.625	303.853	0.111	0.203
-358.610	376.171	-0.029	-0.058
-357.596	-74.898	-0.373	0.132
-356.581	-94.520	0.256	-0.069
-355.566	124.451	-0.208	0.258
-354.552	745.094	-0.192	0.510
-353.537	128.442	-0.100	0.126
-352.523	357.973	-0.123	0.243
-351.508	-23.022	0.164	0.098
-350.493	-97.183	-0.142	0.037
-349.479	19.684	0.379	-0.300
-348.464	65.990	0.076	0.076
-347.450	-94.598	0.294	0.079
-346.435	-200.000	0.005	0.130
-345.420	225.612	0.118	0.189
-344.406	88.568	0.075	0.082
-343.391	108.419	0.132	-0.155
-342.377	-8.717	0.048	-0.032
-341.362	126.975	-0.150	-0.187
-340.348	-118.232	-0.063	-0.011
-339.333	-2.310	0.335	0.231
-338.318	-88.239	0.163	-0.048
-337.304	-200.000	-0.033	0.231
-336.289	0.132	-0.263	0.184
-335.275	77.195	0.181	0.190
-334.260	783.566	0.126	-0.340
-333.245	290.213	-0.066	-0.117
-332.231	-130.801	-0.233	0.031
-331.216	-162.982	-0.121	-0.006
-330.202	474.842	-0.072	-0.159
-329.187	-83.914	-0.229	0.072
-328.172	-95.230	-0.155	-0.041
-327.158	496.783	-0.106	-0.240
-326.143	100.495	0.072	-0.082
-325.129	-120.490	0.083	0.014
-324.114	237.685	0.105	-0.172
-323.099	-169.548	0.413	-0.015
-322.085	7.809	-0.203	-0.150
-321.070	-68.716	-0.178	0.068
-320.056	-200.000	-0.028	0.205
-319.041	-108.793	0.476	-0.100
-318.026	-200.000	0.003	-0.089
-317.012	5.435	-0.253	0.184
-315.997	-200.000	-0.023	0.161
-314.983	-141.291	-0.020	-0.002
-313.968	-61.083	-0.172	-0.071
-312.953	-200.000	-0.055	0.276
-311.939	-60.605	-0.164	0.069
-310.924	304.557	-0.119	0.217
-309.910	800.000	0.045	0.182
-308.895	41.119	-0.347	-0.308
-307.880	145.362	-0.228	-0.300
-306.866	404.945	-0.130	0.269
-305.851	-136.365	0.264	0.030
-304.837	-41.551	-0.109	0.055
-303.822	-127.264	0.225	-0.032
-302.807	-81.063	0.126	-0.041
-301.793	178.709	-0.058	-0.083
-300.778	60.424	0.089	0.086
-299.764	13.566	0.137	-0.104
-298.749	-1.907	-0.208	0.144
-297.735	151.146	-0.194	-0.259
-296.720	349.020	0.198	0.384
-295.705	-200.000	0.022	-0.150
-294.691	284.430	0.150	-0.266
-293.676	800.000	0.018	-0.075
-292.662	488.360	0.042	-0.095
-291.647	800.000	-0.014	-0.039
-290.632	-200.000	-0.011	-0.130
-289.618	-200.000	-0.467	0.001
-288.603	533.667	-0.065	-0.152
-287.589	94.671	-0.149	0.166
-286.574	-119.911	0.178	0.030
-285.559	-200.000	0.057	0.312
-284.545	-165.938	-0.031	-0.001
-283.530	71.332	0.106	-0.108
-282.516	56.463	0.210	0.201
-281.501	69.922	-0.063	0.064
-280.486	-166.057	0.326	-0.014
-279.472	31.259	0.224	-0.189
-278.457	-65.176	-0.312	-0.124
-277.443	80.015	0.300	0.316
-276.428	-32.469	-0.138	0.075
-275.413	-70.158	0.334	0.125
-274.399	-120.608	-0.185	-0.031
-273.384	800.000	0.080	-0.269
-272.370	-200.000	-0.026	-0.192
-271.355	292.908	0.057	0.103
-270.340	-93.257	-0.362	0.099
-269.326	800.000	0.113	-0.410
-268.311	-45.453	0.281	-0.137
-267.297	-90.151	-0.341	-0.098
-266.282	-39.844	-0.332	-0.171
-265.267	800.000	0.088	0.260
-264.253	-200.000	-0.045	-0.313
-263.238	-44.483	0.031	-0.015
-262.224	111.335	0.166	-0.197
-261.209	-57.223	-0.077	-0.033
-260.195	800.000	-0.135	-0.454
-259.180	-111.327	0.199	0.040
-258.165	-200.000	-0.012	0.306
-257.151	9.831	-0.087	0.065
-256.136	176.241	-0.206	-0.293
-255.122	381.600	-0.035	0.071
-254.107	56.833	-0.252	-0.241
-253.092	318.970	0.108	0.201
-252.078	-152.762	0.107	0.007
-251.063	-50.540	-0.119	-0.055
-250.049	-142.320	0.177	-0.017
-249.034	-200.000	0.006	-0.111
-248.019	253.074	0.106	0.177
-247.005	2.212	0.152	-0.108
-245.990	-87.187	0.157	-0.047
-244.976	-68.224	-0.249	-0.095
-243.961	800.000	-0.062	-0.176
-242.946	-200.000	-0.001	0.083
-241.932	-108.605	-0.165	-0.035
-240.917	-200.000	-0.010	0.116
-239.903	-39.283	0.371	0.191
-238.888	114.744	0.105	-0.125
-237.873	-84.011	0.247	-0.077
-236.859	-75.964	-0.247	-0.086
-235.844	-159.097	0.157	-0.009
-234.830	63.869	0.130	0.128
-233.815	84.406	-0.148	-0.159
-232.800	-138.640	0.204	-0.022
-231.786	800.000	-0.069	-0.290
-230.771	800.000	-0.117	-0.344
-229.757	360.599	0.109	-0.215
-228.742	546.890	-0.093	-0.218
-227.727	-200.000	0.015	0.142
-226.713	-200.000	-0.058	-0.357
-225.698	-200.000	0.022	-0.291
-224.684	130.122	-0.034	-0.043
-223.669	-83.402	0.099	0.031
-222.655	172.645	-0.106	-0.149
-221.640	647.085	0.111	-0.278
-220.625	-95.375	0.372	-0.098
-219.611	721.813	-0.123	0.321
-218.596	800.000	0.023	-0.082
-217.582	-83.031	0.142	0.045
-216.567	-22.524	-0.216	0.128
-215.552	707.420	0.021	0.055
-214.538	-144.368	-0.262	0.024
-213.523	-200.000	-0.042	-0.279
-212.509	-200.000	0.011	0.067
-211.494	143.840	-0.163	0.213
-210.479	418.653	-0.043	0.090
-209.465	-44.781	0.177	0.087
-208.450	207.465	-0.182	0.278
-207.436	62.882	0.136	0.134
-206.421	-31.203	-0.233	0.129
-205.406	-200.000	0.015	-0.234
-204.392	-200.000	0.022	-0.322
-203.377	-126.093	-0.250	-0.037
-202.363	-200.000	0.046	-0.211
-201.348	556.303	0.116	0.274
-200.333	-200.000	-0.046	-0.237
-199.319	184.609	0.081	0.118
-198.304	-32.349	0.158	0.087
-197.290	-200.000	-0.032	0.155
-196.275	800.000	0.037	0.134
-195.260	-98.344	-0.243	0.061
-194.246	-94.553	-0.199	0.053
-193.231	73.037	-0.248	0.254
-192.217	596.345	-0.070	0.169
-191.202	-200.000	0.072	0.337
-190.187	-107.383	0.158	0.034
-189.173	111.431	0.042	-0.050
-188.158	273.322	-0.048	-0.083
-187.144	-171.196	0.258	0.009
-186.129	-61.068	0.344	-0.142
-185.114	277.221	0.215	-0.374
-184.100	-36.458	0.345	-0.182
-183.085	-193.591	-0.147	0.001
-182.071	63.409	0.131	-0.128
-181.056	-78.620	0.221	0.074
-180.042	-158.461	0.159	0.009
-179.027	-164.745	0.066	-0.003
-178.012	800.000	-0.026	0.109
-176.998	-200.000	0.131	-0.000
-175.983	360.305	0.070	0.138
-174.969	-135.763	0.199	0.023
-173.954	105.707	0.176	0.204
-172.939	-200.000	0.028	0.130
-171.925	-1.574	-0.102	-0.070
-170.910	5.770	0.092	0.066
-169.896	800.000	-0.055	-0.235
-168.881	-49.791	0.111	0.052
-167.866	-200.000	-0.010	0.163
-166.852	-95.377	-0.424	0.111
-165.837	371.869	-0.030	-0.060
-164.823	-200.000	-0.079	-0.607
-163.808	37.575	-0.066	0.057
-162.793	800.000	-0.062	0.189
-161.779	209.943	-0.027	-0.041
-160.764	-82.709	-0.035	-0.011
-159.750	350.299	0.281	0.543
-158.735	109.129	0.029	-0.034
-157.720	88.783	0.032	-0.035
-156.706	-62.060	-0.122	-0.050
-155.691	-200.000	0.015	0.176
-154.677	120.539	-0.150	-0.182
-153.662	5.979	-0.268	0.194
-152.647	-61.401	0.282	-0.116
-151.633	543.408	0.107	0.250
-150.618	-26.300	-0.109	0.063
-149.604	66.384	0.097	0.096
-148.589	-7.426	0.160	0.106
-147.574	-44.825	-0.288	0.140
-146.560	-82.976	-0.385	-0.122
-145.545	-131.043	0.688	0.090
-144.531	355.537	-0.119	0.232
-143.516	141.006	-0.158	-0.204
-142.502	-138.735	-0.292	-0.031
-141.487	190.413	0.199	0.292
-140.472	-13.634	0.167	-0.106
-139.458	-91.916	0.269	0.075
-138.443	-75.941	0.272	0.094
-137.429	312.826	-0.107	0.197
-136.414	-104.794	-0.169	-0.038
-135.399	-74.746	0.260	0.091
-134.385	800.000	-0.069	-0.221
-133.370	159.943	-0.193	0.262
-132.356	-53.297	0.378	0.170
-131.341	373.978	0.082	0.162
-130.326	-200.000	0.035	-0.216
-129.312	743.417	0.067	-0.175
-128.297	195.299	-0.242	-0.359
-127.283	1.573	0.444	-0.313
-126.268	271.293	0.116	-0.200
-125.253	-200.000	-0.016	0.356
-124.239	-200.000	-0.010	0.063
-123.224	25.371	0.089	0.073
-122.210	-41.147	-0.278	-0.140
-121.195	82.204	0.310	-0.328
