DTS Sentinel unit serial number:	SN413079Multiplexer serial number:	ORYXHardware model number:	OX4-SRSoftware version number:	ORYX F/W v4.00 Oryx Data Collector v3.7.2.0data status	okinstallation	princeton_trtdifferential loss correction	single-endedforward channel	channel 1reverse channel	N/Adate	2019/09/16time	04:10:35forward acquisition time	60.00reverse acquisition time	0.00gamma	496.2192k internal	0.2331k external	0.2331temperature offset calibration	0.9987default loss term (dB/km)	0.3790temperature slope calibration	1.0000multiplexer offset coefficient	1.0000multiplexer slope coefficient	1.0000fibre end	0.00T internal ref (°C)	27.37T ext. ref 1 (°C)	10.76T ext. ref 2 (°C)	21.38length (m)	temperature (°C)	Stokes	anti-Stokes-747.200	-131.585	0.179	-0.024
-746.185	-172.592	-0.227	-0.007
-745.171	319.728	0.053	0.101
-744.156	-200.000	-0.063	0.323
-743.142	55.140	-0.186	-0.181
-742.127	-165.065	-0.429	0.019
-741.112	-57.552	-0.247	0.109
-740.098	-37.787	-0.384	0.206
-739.083	800.000	0.122	0.445
-738.069	800.000	0.019	0.074
-737.054	800.000	-0.086	0.285
-736.039	-159.887	-0.354	0.019
-735.025	105.836	0.096	-0.114
-734.010	-56.924	-0.210	-0.093
-732.996	-200.000	-0.035	-0.268
-731.981	800.000	0.038	-0.144
-730.966	-122.241	-0.414	-0.068
-729.952	131.871	-0.036	-0.047
-728.937	317.828	-0.224	-0.427
-727.923	800.000	-0.031	-0.113
-726.908	785.374	0.082	-0.227
-725.894	366.879	-0.073	-0.148
-724.879	-200.000	0.024	-0.285
-723.864	-56.088	-0.406	-0.182
-722.850	-200.000	0.003	0.146
-721.835	-200.000	0.002	0.283
-720.821	166.078	-0.116	-0.165
-719.806	-108.920	0.042	-0.009
-718.791	-200.000	-0.037	-0.174
-717.777	669.949	0.048	0.126
-716.762	352.055	-0.204	-0.406
-715.748	-83.330	-0.177	-0.057
-714.733	602.329	0.080	0.199
-713.718	250.605	-0.054	-0.092
-712.704	-7.007	0.186	-0.127
-711.689	-52.277	0.106	-0.049
-710.675	54.426	-0.323	-0.312
-709.660	-67.538	0.070	0.028
-708.645	-131.173	0.080	-0.011
-707.631	68.239	0.117	0.121
-706.616	2.979	-0.199	-0.145
-705.602	599.882	0.126	-0.313
-704.587	70.221	0.059	-0.061
-703.572	800.000	-0.052	0.221
-702.558	-37.975	0.153	-0.082
-701.543	317.653	0.099	-0.187
-700.529	-200.000	0.053	-0.249
-699.514	-6.493	-0.294	-0.202
-698.499	328.128	0.102	0.197
-697.485	-125.800	-0.162	-0.025
-696.470	-200.000	0.031	-0.139
-695.456	-108.593	-0.408	-0.088
-694.441	-118.966	-0.169	0.030
-693.426	135.565	0.081	0.106
-692.412	-146.407	0.427	-0.037
-691.397	73.527	-0.071	0.075
-690.383	253.787	0.105	-0.180
-689.368	-194.881	0.103	0.001
-688.354	156.554	0.103	0.143
-687.339	-24.171	-0.449	-0.269
-686.324	-171.535	-0.075	-0.002
-685.310	245.286	-0.013	0.022
-684.295	-200.000	0.015	-0.086
-683.281	78.436	0.031	0.033
-682.266	-105.299	0.330	-0.075
-681.251	-172.748	-0.219	0.007
-680.237	-102.618	-0.404	0.097
-679.222	43.999	0.238	-0.219
-678.208	-151.000	-0.189	0.014
-677.193	-176.283	0.117	-0.003
-676.178	-61.601	-0.246	0.104
-675.164	-200.000	0.050	-0.260
-674.149	70.953	0.112	-0.116
-673.135	-200.000	0.002	0.045
-672.120	34.277	-0.070	0.061
-671.105	20.181	-0.244	0.198
-670.091	800.000	-0.029	0.114
-669.076	-4.321	0.042	-0.029
-668.062	-82.358	-0.198	0.064
-667.047	-45.571	0.260	0.129
-666.032	-41.922	0.231	0.119
-665.018	800.000	-0.031	0.089
-664.003	-62.634	-0.107	-0.044
-662.989	-200.000	-0.029	-0.372
-661.974	40.137	0.225	-0.203
-660.959	800.000	0.087	0.244
-659.945	127.123	0.074	0.094
-658.930	118.002	0.163	-0.202
-657.916	-27.452	0.373	-0.217
-656.901	-131.382	0.087	0.011
-655.886	-200.000	0.017	-0.080
-654.872	800.000	0.061	0.188
-653.857	-80.153	-0.226	0.076
-652.843	10.826	0.102	-0.078
-651.828	253.310	0.024	0.041
-650.814	623.810	-0.062	-0.157
-649.799	-200.000	0.019	-0.441
-648.784	48.394	-0.075	-0.070
-647.770	28.814	-0.113	-0.096
-646.755	-11.177	-0.189	-0.125
-645.741	-74.416	0.178	0.064
-644.726	749.654	-0.072	0.196
-643.711	-67.745	0.209	0.082
-642.697	-23.281	0.149	-0.090
-641.682	-25.846	0.233	-0.137
-640.668	-200.000	-0.003	-0.188
-639.653	-109.300	-0.160	-0.034
-638.638	381.565	-0.111	-0.229
-637.624	-25.133	0.285	-0.169
-636.609	-55.994	0.412	-0.184
-635.595	-143.252	-0.057	0.006
-634.580	-89.727	0.130	-0.038
-633.565	-200.000	-0.040	0.183
-632.551	-200.000	0.016	0.125
-631.536	168.989	-0.170	0.243
-630.522	-5.408	-0.105	0.072
-629.507	-70.702	-0.118	-0.044
-628.492	430.633	-0.068	0.147
-627.478	67.958	-0.109	0.111
-626.463	27.077	0.158	-0.133
-625.449	26.926	0.182	-0.152
-624.434	-200.000	0.003	-0.203
-623.419	800.000	-0.011	0.030
-622.405	-200.000	-0.022	0.178
-621.390	66.490	-0.112	-0.114
-620.376	-149.732	-0.244	0.019
-619.361	-200.000	-0.010	-0.197
-618.346	-200.000	-0.027	-0.273
-617.332	393.833	0.085	0.177
-616.317	-117.008	-0.410	0.075
-615.303	-12.682	0.169	-0.110
-614.288	-200.000	-0.018	-0.237
-613.273	-59.062	-0.260	0.113
-612.259	3.058	0.165	-0.120
-611.244	-200.000	-0.031	0.224
-610.230	-200.000	-0.002	-0.189
-609.215	102.695	-0.033	-0.038
-608.201	-200.000	-0.009	0.075
-607.186	-200.000	0.005	-0.075
-606.171	16.795	0.009	-0.007
-605.157	69.827	-0.388	-0.401
-604.142	-200.000	0.009	-0.052
-603.128	699.984	-0.128	-0.336
-602.113	247.546	0.139	0.235
-601.098	152.742	0.088	0.120
-600.084	-200.000	-0.052	-0.323
-599.069	5.917	-0.225	0.167
-598.055	93.548	-0.037	0.041
-597.040	254.713	0.073	-0.124
-596.025	800.000	-0.031	-0.096
-595.011	722.458	0.123	-0.328
-593.996	-200.000	-0.011	0.224
-592.982	-32.054	-0.203	0.114
-591.967	23.725	0.194	-0.159
-590.952	318.959	-0.102	-0.193
-589.938	135.733	-0.094	0.123
-588.923	680.445	0.073	-0.191
-587.909	-30.673	-0.216	0.122
-586.894	-200.000	0.010	0.061
-585.879	60.671	-0.298	-0.295
-584.865	-75.338	0.085	0.030
-583.850	-16.960	-0.182	-0.115
-582.836	-200.000	-0.012	-0.075
-581.821	-54.938	0.298	0.134
-580.806	-174.684	0.051	-0.001
-579.792	-118.059	0.194	0.035
-578.777	-45.023	-0.114	-0.057
-577.763	4.835	0.222	-0.163
-576.748	273.345	0.163	0.288
-575.733	-134.708	-0.269	-0.033
-574.719	213.847	-0.053	-0.084
-573.704	-200.000	0.145	0.000
-572.690	57.335	-0.223	-0.218
-571.675	-200.000	0.067	0.359
-570.661	-80.130	0.043	-0.015
-569.646	-56.723	-0.133	0.059
-568.631	521.811	-0.119	-0.280
-567.617	-79.122	0.138	0.047
-566.602	17.297	0.167	-0.133
-565.588	-17.292	0.192	-0.121
-564.573	-200.000	0.013	-0.303
-563.558	-200.000	0.241	0.001
-562.544	30.883	-0.143	0.122
-561.529	-200.000	0.040	-0.225
-560.515	-200.000	0.028	-0.136
-559.500	-200.000	0.261	0.000
-558.485	800.000	-0.118	-0.380
-557.471	-200.000	0.010	0.170
-556.456	92.152	-0.126	-0.142
-555.442	-73.724	-0.186	-0.067
-554.427	44.496	0.085	-0.078
-553.412	63.283	0.120	0.120
-552.398	208.796	-0.179	0.280
-551.383	397.502	0.116	-0.242
-550.369	-141.847	-0.130	0.013
-549.354	-200.000	-0.101	0.519
-548.339	-60.945	0.510	0.215
-547.325	-96.122	-0.218	-0.058
-546.310	-200.000	0.004	-0.343
-545.296	800.000	-0.014	0.054
-544.281	67.967	0.204	0.209
-543.266	108.449	-0.223	0.265
-542.252	-168.678	0.138	0.005
-541.237	370.456	0.069	-0.140
-540.223	-143.641	-0.283	-0.027
-539.208	-200.000	-0.042	0.209
-538.193	141.650	0.067	-0.089
-537.179	-49.536	0.299	-0.142
-536.164	18.992	0.368	0.294
-535.150	-200.000	0.057	-0.634
-534.135	800.000	-0.102	-0.286
-533.121	24.564	0.053	-0.044
-532.106	-59.380	0.555	-0.238
-531.091	38.078	-0.065	0.058
-530.077	-4.759	-0.226	-0.156
-529.062	-48.129	0.343	0.165
-528.048	-94.428	0.310	0.084
-527.033	47.552	-0.071	0.066
-526.018	-200.000	-0.021	0.387
-525.004	37.213	-0.267	0.236
-523.989	102.833	-0.155	-0.181
-522.975	-89.231	0.265	0.078
-521.960	104.020	-0.242	0.284
-520.945	-108.008	-0.259	0.056
-519.931	-42.491	0.209	0.106
-518.916	-160.707	0.192	0.010
-517.902	800.000	0.054	-0.156
-516.887	-136.547	0.255	-0.029
-515.872	-61.176	-0.102	-0.043
-514.858	-135.145	-0.185	-0.022
-513.843	-200.000	-0.064	0.329
-512.829	-200.000	0.017	0.253
-511.814	182.562	0.058	0.085
-510.799	120.992	0.029	-0.036
-509.785	-85.500	-0.138	-0.043
-508.770	-101.142	0.441	0.108
-507.756	800.000	0.084	-0.240
-506.741	274.015	-0.041	0.072
-505.726	-101.552	-0.234	-0.057
-504.712	-157.451	-0.182	0.011
-503.697	126.927	-0.008	-0.010
-502.683	-169.165	-0.531	0.020
-501.668	293.264	0.186	0.338
-500.653	-105.575	-0.299	-0.068
-499.639	32.500	0.312	-0.269
-498.624	800.000	0.035	-0.106
-497.610	-69.925	-0.309	0.118
-496.595	22.508	-0.077	0.063
-495.581	-112.822	0.374	-0.074
-494.566	12.236	0.106	-0.081
-493.551	-9.919	-0.131	-0.087
-492.537	-83.810	0.324	0.103
-491.522	-61.671	-0.161	0.067
-490.508	112.256	0.151	-0.182
-489.493	277.314	0.231	0.409
-488.478	800.000	0.015	0.066
-487.464	-60.042	-0.396	-0.169
-486.449	595.796	0.080	0.198
-485.435	-73.709	0.080	-0.029
-484.420	800.000	-0.103	0.316
-483.405	800.000	-0.038	0.160
-482.391	-100.582	-0.342	0.084
-481.376	-164.980	0.129	-0.006
-480.362	800.000	0.036	-0.122
-479.347	150.933	0.123	-0.167
-478.332	-200.000	0.013	-0.107
-477.318	508.406	-0.079	0.183
-476.303	89.654	0.132	0.147
-475.289	233.664	-0.093	0.152
-474.274	522.576	-0.075	0.175
-473.259	-125.384	-0.016	-0.002
-472.245	800.000	-0.047	-0.135
-471.230	111.531	0.339	-0.407
-470.216	235.403	-0.086	-0.142
-469.201	-128.238	-0.193	-0.027
-468.186	-200.000	-0.033	0.156
-467.172	-34.571	0.288	0.157
-466.157	141.299	-0.045	-0.059
-465.143	504.001	-0.030	-0.068
-464.128	3.082	-0.175	-0.127
-463.113	-200.000	-0.012	-0.100
-462.099	800.000	0.038	-0.164
-461.084	11.840	-0.104	-0.079
-460.070	-55.156	0.278	-0.124
-459.055	64.185	0.090	-0.090
-458.040	18.602	-0.196	0.156
-457.026	-43.940	0.368	-0.184
-456.011	-4.861	-0.071	-0.049
-454.997	205.128	0.106	-0.164
-453.982	53.413	0.086	-0.082
-452.968	783.095	-0.068	-0.186
-451.953	11.430	-0.102	0.078
-450.938	-79.456	0.238	-0.080
-449.924	-104.216	-0.229	0.053
-448.909	240.134	-0.039	0.064
-447.895	-13.541	0.153	0.098
-446.880	25.373	0.142	-0.118
-445.865	274.622	0.159	0.281
-444.851	-65.041	0.461	0.185
-443.836	-200.000	-0.008	-0.041
-442.822	-200.000	0.006	-0.031
-441.807	-200.000	0.010	0.105
-440.792	429.566	-0.071	-0.154
-439.778	-200.000	0.015	-0.256
-438.763	92.076	0.133	0.149
-437.749	-37.143	-0.213	0.113
-436.734	-200.000	0.012	0.171
-435.719	76.442	0.145	-0.152
-434.705	33.049	-0.134	0.115
-433.690	153.068	0.051	-0.070
-432.676	145.544	-0.188	0.250
-431.661	-13.881	-0.308	0.198
-430.646	249.198	0.158	0.266
-429.632	-200.000	-0.040	0.256
-428.617	800.000	0.066	0.188
-427.603	-122.173	0.201	-0.033
-426.588	-200.000	-0.002	-0.217
-425.573	101.900	-0.101	-0.117
-424.559	-69.260	0.338	0.129
-423.544	800.000	-0.125	-0.374
-422.530	220.858	0.143	0.228
-421.515	588.931	0.035	0.085
-420.500	-72.254	-0.089	0.033
-419.486	-76.007	0.026	-0.009
-418.471	-90.012	0.096	-0.028
-417.457	-200.000	-0.005	-0.238
-416.442	-56.989	-0.225	-0.098
-415.428	-47.166	-0.212	0.103
-414.413	-119.293	0.206	0.036
-413.398	-157.921	-0.439	-0.026
-412.384	318.284	0.086	-0.161
-411.369	-157.783	0.185	0.011
-410.355	-10.174	-0.173	-0.114
-409.340	-106.417	0.112	-0.025
-408.325	-200.000	-0.039	0.342
-407.311	-45.705	0.192	-0.094
-406.296	-70.882	-0.182	0.068
-405.282	473.864	-0.052	-0.117
-404.267	800.000	-0.106	-0.295
-403.252	183.238	0.079	0.116
-402.238	154.408	0.048	-0.066
-401.223	800.000	0.056	0.174
-400.209	66.054	-0.123	0.124
-399.194	25.240	0.049	-0.040
-398.179	-108.676	-0.260	0.055
-397.165	142.452	0.217	0.286
-396.150	-200.000	-0.024	0.535
-395.136	800.000	0.043	-0.174
-394.121	287.496	0.023	0.041
-393.106	-48.148	0.018	-0.009
-392.092	-99.816	0.381	-0.095
-391.077	-29.033	0.043	0.025
-390.063	-45.140	0.070	0.035
-389.048	140.456	0.245	-0.321
-388.033	-77.665	-0.233	0.080
-387.019	800.000	0.123	-0.365
-386.004	-52.783	-0.188	0.086
-384.990	-111.287	-0.345	0.070
-383.975	-3.777	0.396	-0.273
-382.960	115.487	0.035	-0.043
-381.946	30.263	-0.267	-0.226
-380.931	41.979	-0.137	0.123
-379.917	321.559	-0.077	-0.145
-378.902	-59.992	0.364	0.154
-377.888	-20.456	0.510	0.311
-376.873	-45.354	0.105	-0.052
-375.858	-11.775	0.244	-0.159
-374.844	723.874	0.096	0.253
-373.829	-82.079	-0.406	-0.132
-372.815	800.000	0.085	-0.269
-371.800	800.000	-0.016	0.056
-370.785	-200.000	-0.055	0.289
-369.771	-154.843	-0.219	-0.014
-368.756	2.812	-0.019	0.013
-367.742	-41.944	-0.180	0.091
-366.727	-2.188	0.254	0.177
-365.712	8.817	-0.219	-0.164
-364.698	800.000	0.097	0.354
-363.683	800.000	0.036	-0.142
-362.669	800.000	0.031	-0.095
-361.654	-200.000	-0.057	0.503
-360.639	-200.000	0.030	0.176
-359.625	-48.704	0.091	-0.043
-358.610	-200.000	0.019	0.139
-357.596	-200.000	0.047	0.230
-356.581	-200.000	-0.018	-0.156
-355.566	322.037	-0.102	0.193
-354.552	-200.000	0.122	-0.000
-353.537	-20.959	-0.124	-0.075
-352.523	-40.243	-0.090	0.047
-351.508	371.755	-0.083	-0.166
-350.493	330.747	-0.091	0.174
-349.479	-47.582	0.139	0.067
-348.464	747.783	-0.154	-0.411
-347.450	123.330	0.100	0.124
-346.435	-200.000	0.269	-0.001
-345.420	422.841	-0.100	0.212
-344.406	559.603	-0.077	0.183
-343.391	-38.118	-0.303	0.159
-342.377	505.134	-0.090	0.206
-341.362	-31.018	-0.382	0.214
-340.348	242.654	-0.133	-0.220
-339.333	-160.686	0.092	-0.005
-338.318	122.606	0.147	-0.182
-337.304	800.000	0.133	-0.377
-336.289	-106.542	-0.224	-0.049
-335.275	800.000	-0.086	-0.272
-334.260	21.978	0.285	-0.230
-333.245	2.883	0.087	0.063
-332.231	120.337	0.054	0.067
-331.216	-134.106	0.227	-0.028
-330.202	800.000	0.072	-0.221
-329.187	800.000	0.073	0.208
-328.172	104.147	-0.386	-0.450
-327.158	800.000	0.052	-0.156
-326.143	-54.476	-0.111	0.050
-325.129	-29.301	-0.059	0.034
-324.114	-71.267	-0.231	-0.086
-323.099	23.623	0.222	-0.181
-322.085	-166.265	-0.321	0.013
-321.070	127.591	0.181	-0.227
-320.056	367.713	0.070	0.139
-319.041	14.402	0.149	0.115
-318.026	-200.000	0.015	0.230
-317.012	728.796	-0.093	0.246
-315.997	45.698	0.067	-0.062
-314.983	55.428	-0.198	-0.189
-313.968	-28.798	0.170	0.097
-312.953	-59.315	-0.120	0.051
-311.939	-99.027	0.095	-0.024
-310.924	-173.294	-0.223	0.007
-309.910	-32.444	-0.239	0.132
-308.895	-120.998	-0.092	-0.015
-307.880	15.145	-0.114	0.089
-306.866	560.409	0.074	-0.177
-305.851	800.000	-0.068	0.261
-304.837	-200.000	0.010	0.163
-303.822	156.695	-0.135	-0.184
-302.807	-2.462	0.179	0.124
-301.793	694.978	0.113	0.292
-300.778	197.289	0.114	-0.172
-299.764	236.780	0.067	0.110
-298.749	377.140	-0.047	-0.095
-297.735	391.432	0.102	0.209
-296.720	-123.758	-0.307	0.048
-295.705	321.531	-0.079	0.149
-294.691	800.000	-0.062	-0.179
-293.676	-48.239	0.092	0.044
-292.662	-109.998	0.064	-0.013
-291.647	-40.807	0.256	-0.131
-290.632	-136.293	-0.076	-0.009
-289.618	800.000	0.019	0.063
-288.603	-132.423	0.210	0.027
-287.589	-31.476	-0.033	-0.018
-286.574	30.255	0.168	0.142
-285.559	-200.000	-0.061	0.278
-284.545	-79.032	-0.196	0.066
-283.530	27.793	-0.250	0.208
-282.516	-74.745	-0.133	0.047
-281.501	715.074	0.102	-0.268
-280.486	-122.001	-0.395	0.064
-279.472	-200.000	-0.076	-0.343
-278.457	800.000	-0.018	-0.054
-277.443	2.425	-0.127	-0.091
-276.428	-78.243	-0.274	0.093
-275.413	93.667	-0.134	0.150
-274.399	86.592	0.210	-0.229
-273.384	-200.000	-0.039	0.214
-272.370	-200.000	-0.018	-0.089
-271.355	20.356	-0.135	0.107
-270.340	-73.230	-0.227	-0.082
-269.326	-179.874	-0.199	0.004
-268.311	134.668	0.023	-0.030
-267.297	-67.268	0.270	0.105
-266.282	68.942	-0.144	0.146
-265.267	222.213	-0.142	0.226
-264.253	-39.311	-0.006	0.003
-263.238	293.936	-0.174	0.313
-262.224	-72.074	0.197	0.072
-261.209	-72.614	-0.269	0.098
-260.195	-6.542	-0.292	0.197
-259.180	323.133	0.100	-0.188
-258.165	-127.373	-0.061	0.009
-257.151	65.147	-0.202	-0.202
-256.136	-34.160	-0.239	0.129
-255.122	518.160	0.144	-0.333
-254.107	-200.000	-0.012	-0.092
-253.092	-35.990	0.126	0.067
-252.078	452.072	0.172	-0.376
-251.063	-200.000	0.060	0.287
-250.049	450.986	0.066	0.144
-249.034	4.589	0.316	-0.229
-248.019	173.710	-0.117	-0.167
-247.005	-78.814	0.122	0.041
-245.990	800.000	-0.039	-0.116
-244.976	164.008	-0.050	-0.069
-243.961	-200.000	-0.034	-0.262
-242.946	-137.158	0.204	-0.023
-241.932	-200.000	-0.018	-0.154
-240.917	-90.595	-0.203	-0.058
-239.903	76.877	0.019	-0.019
-238.888	-59.438	-0.290	-0.123
-237.873	-165.323	-0.107	0.005
-236.859	232.186	0.177	0.287
-235.844	800.000	0.140	0.472
-234.830	45.531	-0.115	0.105
-233.815	-172.244	0.386	0.012
-232.800	-200.000	0.000	-0.399
-231.786	-164.450	-0.161	-0.007
-230.771	-200.000	-0.015	-0.091
-229.757	-74.389	0.055	0.019
-228.742	-200.000	0.010	-0.076
-227.727	-80.033	-0.127	0.042
-226.713	-122.046	0.119	-0.019
-225.698	-84.801	0.284	0.088
-224.684	139.216	-0.192	-0.250
-223.669	-200.000	0.014	0.258
-222.655	-200.000	0.023	0.339
-221.640	-151.280	-0.124	-0.009
-220.625	162.690	-0.046	-0.063
-219.611	451.707	-0.164	0.357
-218.596	0.752	0.134	0.094
-217.582	800.000	0.083	0.313
-216.567	60.371	-0.164	-0.160
-215.552	-22.695	-0.034	0.021
-214.538	800.000	0.014	-0.048
-213.523	-64.609	-0.187	-0.075
-212.509	-81.236	0.256	0.083
-211.494	19.784	0.060	0.048
-210.479	-200.000	0.002	-0.098
-209.465	-200.000	-0.015	-0.121
-208.450	-26.589	-0.266	0.153
-207.436	12.067	0.151	-0.115
-206.421	-27.817	-0.205	-0.117
-205.406	-200.000	-0.007	0.162
-204.392	775.825	0.066	-0.177
-203.377	-200.000	-0.032	-0.183
-202.363	-119.883	0.127	-0.021
-201.348	-190.430	0.295	0.003
-200.333	-200.000	-0.005	0.161
-199.319	-99.302	0.202	0.050
-198.304	-139.517	-0.355	-0.037
-197.290	365.535	0.056	-0.112
-196.275	800.000	-0.074	0.275
-195.260	574.069	0.056	0.134
-194.246	-151.780	0.385	-0.028
-193.231	-129.630	-0.210	0.029
-192.217	800.000	0.112	-0.334
-191.202	170.192	0.181	-0.256
-190.187	-63.528	-0.171	0.069
-189.173	-0.676	-0.100	-0.070
-188.158	-7.768	-0.133	-0.089
-187.144	-200.000	-0.030	-0.340
-186.129	-20.669	-0.218	-0.132
-185.114	325.682	-0.042	-0.078
-184.100	-52.097	0.265	0.121
-183.085	-76.206	0.418	0.145
-182.071	210.920	-0.091	-0.141
-181.056	-26.344	-0.091	-0.053
-180.042	215.890	0.105	0.164
-179.027	-200.000	0.021	0.226
-178.012	445.377	-0.094	0.203
-176.998	-34.128	-0.124	-0.067
-175.983	37.172	-0.136	0.119
-174.969	176.267	0.149	0.213
-173.954	-7.252	0.051	0.034
-172.939	-200.000	0.022	0.226
-171.925	-142.951	0.232	0.022
-170.910	-67.236	0.126	-0.049
-169.896	517.503	0.043	-0.100
-168.881	-89.695	-0.315	0.091
-167.866	-18.422	0.315	-0.193
-166.852	-54.451	-0.325	0.145
-165.837	98.277	0.115	0.130
-164.823	-31.141	-0.081	0.045
-163.808	-56.442	0.428	-0.187
-162.793	-77.043	-0.361	-0.124
-161.779	-200.000	-0.028	0.154
-160.764	800.000	0.077	0.299
-159.750	-200.000	0.096	-0.501
-158.735	195.403	-0.067	-0.100
-157.720	-126.869	-0.324	-0.047
-156.706	186.625	0.200	0.292
-155.691	-127.629	-0.127	0.018
-154.677	-26.753	-0.242	0.139
-153.662	-127.160	0.057	-0.008
-152.647	-46.800	0.412	0.198
-151.633	82.298	0.098	0.105
-150.618	-55.920	-0.153	-0.067
-149.604	639.461	0.236	0.589
-148.589	40.968	0.270	0.239
-147.574	38.301	-0.277	0.242
-146.560	-200.000	-0.019	0.203
-145.545	-119.963	-0.380	0.064
-144.531	-200.000	-0.033	0.460
-143.516	314.397	-0.124	0.230
-142.502	-93.798	0.172	0.047
-141.487	378.647	0.222	-0.447
-140.472	587.027	0.147	-0.356
-139.458	-99.414	-0.229	-0.057
-138.443	20.627	-0.230	-0.183
-137.429	88.763	-0.135	0.148
-136.414	-139.994	-0.185	0.019
-135.399	800.000	-0.051	0.182
-134.385	-60.670	0.400	-0.167
-133.370	56.433	-0.344	-0.329
-132.356	-57.096	0.289	0.125
-131.341	-47.403	0.081	-0.039
-130.326	479.927	-0.047	-0.104
-129.312	-200.000	-0.027	0.119
-128.297	759.397	-0.057	0.151
-127.283	188.441	0.177	0.260
-126.268	775.153	-0.100	-0.269
-125.253	19.362	0.123	0.097
-124.239	-128.038	-0.043	-0.006
-123.224	-148.097	-0.365	0.030
-122.210	55.172	0.256	0.243
-121.195	-199.512	0.222	-0.001
