DTS Sentinel unit serial number:	SN413079Multiplexer serial number:	ORYXHardware model number:	OX4-SRSoftware version number:	ORYX F/W v4.00 Oryx Data Collector v3.7.2.0data status	okinstallation	princeton_trtdifferential loss correction	single-endedforward channel	channel 1reverse channel	N/Adate	2019/09/17time	20:26:35forward acquisition time	60.00reverse acquisition time	0.00gamma	496.2192k internal	0.2328k external	0.2328temperature offset calibration	0.9976default loss term (dB/km)	0.3790temperature slope calibration	1.0000multiplexer offset coefficient	1.0000multiplexer slope coefficient	1.0000fibre end	0.00T internal ref (°C)	30.92T ext. ref 1 (°C)	0.22T ext. ref 2 (°C)	21.50length (m)	temperature (°C)	Stokes	anti-Stokes-747.200	-77.548	0.386	0.135
-746.185	-200.000	-0.029	0.401
-745.171	-31.210	0.221	0.126
-744.156	-14.145	-0.178	-0.115
-743.142	800.000	-0.088	0.333
-742.127	-61.796	-0.259	0.109
-741.112	174.670	0.109	-0.159
-740.098	-99.814	-0.259	-0.065
-739.083	800.000	-0.106	0.316
-738.069	-37.691	-0.061	0.033
-737.054	230.963	-0.145	-0.239
-736.039	201.654	-0.130	-0.202
-735.025	59.294	0.161	0.160
-734.010	-70.200	0.085	-0.032
-732.996	-29.595	0.123	-0.071
-731.981	-30.612	0.052	0.030
-730.966	44.789	0.135	-0.125
-729.952	-188.724	-0.319	0.004
-728.937	-39.897	0.169	-0.089
-727.923	597.239	0.029	0.073
-726.908	-101.136	-0.066	-0.016
-725.894	-200.000	-0.562	0.002
-724.879	-24.445	0.235	0.141
-723.864	800.000	-0.074	-0.238
-722.850	-88.052	0.236	-0.071
-721.835	70.765	-0.198	-0.207
-720.821	-200.000	0.023	-0.340
-719.806	-29.353	0.125	-0.072
-718.791	-200.000	-0.021	0.178
-717.777	-107.598	0.099	-0.022
-716.762	-11.961	0.232	-0.153
-715.748	-101.346	0.221	0.054
-714.733	-122.656	0.111	-0.018
-713.718	-200.000	0.039	0.359
-712.704	-200.000	0.013	-0.134
-711.689	399.010	-0.131	0.277
-710.675	800.000	-0.055	0.180
-709.660	-200.000	-0.003	0.052
-708.645	-116.896	0.044	-0.008
-707.631	-200.000	0.080	-0.392
-706.616	432.845	0.010	0.021
-705.602	438.176	-0.082	0.180
-704.587	-117.960	-0.164	-0.030
-703.572	322.222	0.093	-0.179
-702.558	-154.740	0.243	-0.016
-701.543	-200.000	-0.010	-0.100
-700.529	-14.105	0.198	0.129
-699.514	-33.526	-0.162	-0.090
-698.499	203.859	-0.192	0.299
-697.485	-68.787	-0.257	0.100
-696.470	-200.000	0.010	-0.175
-695.456	-121.743	-0.177	0.029
-694.441	404.292	0.190	0.402
-693.426	-83.053	0.118	-0.038
-692.412	-115.506	0.279	0.053
-691.397	-52.745	-0.416	0.193
-690.383	800.000	-0.122	0.437
-689.368	800.000	-0.157	-0.452
-688.354	355.967	-0.070	-0.141
-687.339	454.108	-0.111	-0.247
-686.324	-8.418	-0.094	-0.064
-685.310	-82.038	-0.107	-0.035
-684.295	-132.969	-0.404	-0.052
-683.281	800.000	-0.114	0.377
-682.266	-43.794	0.103	-0.052
-681.251	238.615	-0.091	-0.152
-680.237	16.944	0.100	-0.080
-679.222	-152.796	-0.074	0.005
-678.208	-77.324	-0.269	-0.094
-677.193	-144.326	0.542	0.051
-676.178	-85.434	-0.031	-0.010
-675.164	675.480	-0.025	0.066
-674.149	79.004	-0.139	0.149
-673.135	85.694	-0.030	0.033
-672.120	-200.000	-0.011	0.083
-671.105	-131.875	-0.177	0.023
-670.091	-144.747	0.226	0.021
-669.076	800.000	-0.067	-0.250
-668.062	-200.000	-0.015	-0.389
-667.047	90.367	0.188	-0.211
-666.032	-169.088	-0.367	-0.014
-665.018	31.063	0.259	-0.223
-664.003	53.250	-0.159	-0.153
-662.989	-200.000	0.016	-0.320
-661.974	800.000	0.017	0.059
-660.959	-200.000	0.012	0.120
-659.945	-50.642	-0.163	-0.077
-658.930	-93.400	-0.081	-0.022
-657.916	800.000	-0.055	-0.184
-656.901	62.015	-0.176	-0.176
-655.886	-200.000	0.023	0.122
-654.872	800.000	0.077	-0.312
-653.857	-120.701	-0.226	0.038
-652.843	71.097	-0.194	-0.202
-651.828	367.590	-0.138	-0.280
-650.814	-139.721	0.239	-0.025
-649.799	404.749	0.105	-0.223
-648.784	558.212	0.074	-0.179
-647.770	-112.295	-0.181	-0.036
-646.755	77.590	0.187	-0.200
-645.741	800.000	0.100	0.374
-644.726	-107.483	-0.271	0.060
-643.711	82.917	0.133	-0.146
-642.697	-35.126	-0.363	0.199
-641.682	-200.000	-0.024	-0.278
-640.668	529.962	0.142	-0.337
-639.653	339.986	0.178	-0.349
-638.638	-200.000	-0.029	0.267
-637.624	-157.189	0.287	0.017
-636.609	-200.000	-0.001	-0.016
-635.595	-91.953	-0.309	-0.088
-634.580	146.862	0.191	-0.258
-633.565	126.650	0.126	0.161
-632.551	-200.000	-0.020	-0.094
-631.536	4.281	0.200	-0.147
-630.522	-73.440	-0.100	0.036
-629.507	800.000	-0.023	-0.078
-628.492	99.910	0.143	0.166
-627.478	234.505	-0.200	-0.331
-626.463	108.016	0.166	0.199
-625.449	800.000	-0.077	-0.311
-624.434	-200.000	0.035	-0.210
-623.419	425.046	-0.103	-0.222
-622.405	-112.117	-0.273	-0.055
-621.390	181.773	-0.207	-0.306
-620.376	-200.000	-0.014	-0.067
-619.361	-75.238	0.142	-0.051
-618.346	-92.999	0.201	0.056
-617.332	534.940	0.176	0.417
-616.317	21.226	0.357	0.290
-615.303	455.392	0.097	0.216
-614.288	800.000	-0.038	-0.152
-613.273	45.971	-0.173	-0.161
-612.259	616.644	0.075	-0.189
-611.244	121.279	-0.025	0.031
-610.230	133.068	-0.103	0.133
-609.215	800.000	0.066	-0.226
-608.201	6.162	-0.386	0.287
-607.186	-42.326	0.188	-0.096
-606.171	-179.166	0.004	0.000
-605.157	-152.712	-0.161	-0.011
-604.142	-103.398	0.293	-0.069
-603.128	152.205	0.199	0.272
-602.113	-200.000	-0.005	0.170
-601.098	-48.603	0.201	-0.097
-600.084	-49.582	-0.175	-0.084
-599.069	381.979	-0.104	-0.214
-598.055	47.591	0.069	-0.064
-597.040	-59.380	-0.200	-0.086
-596.025	8.443	-0.181	-0.137
-595.011	23.867	-0.135	-0.111
-593.996	-171.934	-0.116	-0.004
-592.982	-13.756	0.208	0.135
-591.967	793.157	-0.052	0.143
-590.952	159.984	-0.151	0.211
-589.938	-81.299	-0.215	-0.071
-588.923	-0.372	0.110	-0.078
-587.909	122.372	0.098	-0.122
-586.894	-42.013	0.079	-0.040
-585.879	-200.000	-0.061	-0.294
-584.865	409.327	-0.058	-0.122
-583.850	-200.000	0.008	0.041
-582.836	-98.108	0.200	0.052
-581.821	800.000	0.022	0.084
-580.806	800.000	-0.043	0.173
-579.792	800.000	-0.030	-0.107
-578.777	744.565	-0.164	-0.443
-577.763	-74.316	0.245	0.088
-576.748	739.600	0.053	0.142
-575.733	236.485	-0.057	-0.094
-574.719	-3.703	-0.154	-0.107
-573.704	18.718	0.114	-0.091
-572.690	-3.344	0.307	0.214
-571.675	-200.000	0.017	-0.124
-570.661	172.252	0.059	0.085
-569.646	267.236	-0.198	0.347
-568.631	-196.759	0.390	-0.003
-567.617	484.059	0.049	-0.112
-566.602	-163.057	-0.140	0.007
-565.588	-29.882	-0.146	-0.083
-564.573	188.444	-0.198	0.296
-563.558	-147.575	0.364	-0.031
-562.544	-107.752	-0.201	0.044
-561.529	-21.823	0.118	0.072
-560.515	120.779	0.065	-0.080
-559.500	-81.645	-0.414	-0.136
-558.485	-41.793	0.124	0.064
-557.471	800.000	-0.019	0.080
-556.456	-65.644	0.019	0.008
-555.442	102.765	-0.396	-0.464
-554.427	295.081	-0.208	-0.381
-553.412	800.000	0.086	-0.299
-552.398	686.771	0.078	-0.203
-551.383	-200.000	0.005	-0.114
-550.369	65.220	-0.201	0.203
-549.354	95.752	-0.246	0.281
-548.339	-200.000	-0.014	-0.346
-547.325	230.739	0.088	-0.144
-546.310	16.382	0.187	-0.147
-545.296	73.413	-0.285	-0.299
-544.281	-137.398	-0.139	0.016
-543.266	195.601	0.051	-0.077
-542.252	167.172	-0.219	-0.311
-541.237	-110.098	-0.173	0.036
-540.223	53.252	-0.351	0.336
-539.208	800.000	-0.046	-0.153
-538.193	411.429	0.038	0.081
-537.179	-55.500	-0.163	0.073
-536.164	109.028	-0.114	-0.136
-535.150	-200.000	0.015	-0.087
-534.135	800.000	0.029	0.117
-533.121	-113.854	-0.192	-0.037
-532.106	-1.587	0.065	-0.046
-531.091	65.979	-0.124	0.126
-530.077	199.208	-0.071	0.109
-529.062	-200.000	-0.057	-0.272
-528.048	-200.000	0.084	0.430
-527.033	800.000	-0.090	0.309
-526.018	-162.700	0.238	0.012
-525.004	-107.459	-0.278	-0.061
-523.989	-100.970	0.185	-0.045
-522.975	432.265	-0.152	-0.329
-521.960	38.044	-0.490	0.436
-520.945	153.303	0.294	-0.401
-519.931	-160.801	-0.122	-0.006
-518.916	-25.296	0.392	-0.231
-517.902	339.050	0.043	0.084
-516.887	17.332	0.058	-0.046
-515.872	440.424	0.082	-0.179
-514.858	230.685	-0.089	-0.146
-513.843	800.000	0.044	-0.150
-512.829	-200.000	0.014	-0.163
-511.814	-115.087	0.119	0.023
-510.799	800.000	-0.062	0.269
-509.785	-200.000	-0.017	0.130
-508.770	167.929	-0.145	0.205
-507.756	7.735	-0.183	-0.137
-506.741	-200.000	-0.007	0.153
-505.726	-76.955	0.289	-0.101
-504.712	756.199	-0.061	-0.164
-503.697	-66.718	-0.130	-0.051
-502.683	-81.983	-0.039	0.013
-501.668	800.000	0.093	-0.373
-500.653	407.497	-0.156	-0.329
-499.639	-123.358	-0.165	-0.026
-498.624	-138.965	-0.178	-0.019
-497.610	-200.000	0.003	0.025
-496.595	118.062	0.140	0.172
-495.581	800.000	0.026	0.081
-494.566	144.841	-0.148	-0.198
-493.551	27.655	-0.162	0.136
-492.537	-41.668	0.221	-0.113
-491.522	-87.430	-0.240	0.072
-490.508	-5.229	0.321	-0.220
-489.493	800.000	-0.096	0.306
-488.478	-200.000	-0.021	-0.197
-487.464	-132.058	-0.192	-0.025
-486.449	800.000	-0.136	0.377
-485.435	-200.000	0.041	-0.216
-484.420	-200.000	0.021	-0.123
-483.405	-76.840	0.240	0.084
-482.391	22.269	-0.114	-0.093
-481.376	-200.000	0.049	-0.259
-480.362	-7.923	0.062	-0.042
-479.347	-97.231	-0.202	-0.052
-478.332	-143.959	0.294	-0.028
-477.318	-188.674	-0.210	-0.003
-476.303	184.147	-0.173	0.255
-475.289	-96.665	0.275	0.072
-474.274	53.945	0.240	-0.230
-473.259	200.203	-0.133	0.204
-472.245	682.153	-0.161	-0.419
-471.230	-154.746	-0.197	0.013
-470.216	363.489	-0.180	0.361
-469.201	-73.078	-0.282	0.103
-468.186	800.000	-0.021	0.082
-467.172	-6.061	0.261	0.178
-466.157	92.120	-0.123	-0.138
-465.143	207.708	-0.131	-0.203
-464.128	102.790	0.248	0.290
-463.113	6.094	0.232	-0.172
-462.099	19.730	0.471	-0.378
-461.084	68.565	0.109	-0.111
-460.070	-115.634	0.101	0.019
-459.055	-152.182	0.134	-0.010
-458.040	-55.755	-0.229	-0.102
-457.026	-41.001	0.266	-0.137
-456.011	-74.926	0.446	0.159
-454.997	800.000	0.060	0.200
-453.982	3.896	-0.030	-0.022
-452.968	129.791	0.048	0.062
-451.953	800.000	0.069	0.254
-450.938	-51.459	0.386	-0.179
-449.924	-59.539	-0.221	0.094
-448.909	384.310	0.037	-0.076
-447.895	800.000	0.070	-0.232
-446.880	-21.073	0.230	0.140
-445.865	490.054	0.051	0.116
-444.851	-53.153	-0.121	0.055
-443.836	-73.384	0.426	-0.155
-442.822	-200.000	0.017	0.167
-441.807	449.325	0.091	0.200
-440.792	-107.723	0.321	0.070
-439.778	-200.000	0.060	-0.268
-438.763	27.546	-0.089	-0.075
-437.749	127.945	0.197	-0.249
-436.734	193.002	-0.066	0.100
-435.719	128.225	0.203	0.258
-434.705	70.963	0.228	-0.235
-433.690	119.887	-0.058	0.072
-432.676	34.579	-0.063	-0.055
-431.661	-200.000	-0.024	0.286
-430.646	-87.011	-0.046	0.014
-429.632	-55.360	-0.274	-0.122
-428.617	-31.429	0.298	0.167
-427.603	800.000	0.096	0.310
-426.588	267.258	-0.068	-0.118
-425.573	-200.000	-0.014	0.084
-424.559	1.510	0.285	0.204
-423.544	-151.054	0.229	-0.017
-422.530	800.000	0.109	-0.310
-421.515	-122.589	0.065	0.010
-420.500	232.741	0.070	-0.114
-419.486	-81.402	0.064	0.021
-418.471	86.116	0.125	-0.137
-417.457	-24.176	0.145	-0.086
-416.442	800.000	0.058	-0.169
-415.428	55.550	-0.225	-0.217
-414.413	-103.919	-0.218	-0.051
-413.398	-89.667	-0.236	0.069
-412.384	-56.485	-0.279	-0.123
-411.369	800.000	0.031	0.107
-410.355	-117.700	0.414	-0.074
-409.340	-31.960	-0.055	-0.030
-408.325	-170.578	-0.199	-0.007
-407.311	57.939	0.264	0.257
-406.296	450.010	-0.052	0.115
-405.282	153.219	0.397	0.540
-404.267	-200.000	-0.004	-0.095
-403.252	219.956	0.097	-0.154
-402.238	-200.000	0.024	0.338
-401.223	113.218	0.298	0.360
-400.209	-200.000	-0.004	-0.192
-399.194	-37.933	-0.262	0.138
-398.179	-200.000	0.049	0.263
-397.165	800.000	0.060	-0.199
-396.150	-200.000	0.006	0.068
-395.136	-85.508	-0.076	-0.024
-394.121	-100.813	0.068	-0.017
-393.106	800.000	-0.089	-0.280
-392.092	640.701	-0.087	-0.219
-391.077	96.989	0.246	-0.280
-390.063	-200.000	-0.000	0.271
-389.048	-200.000	0.034	0.364
-388.033	-155.617	0.180	-0.011
-387.019	-56.337	-0.153	-0.067
-386.004	19.340	0.323	0.258
-384.990	-139.803	-0.112	-0.012
-383.975	37.254	-0.043	-0.037
-382.960	-99.075	0.385	-0.097
-381.946	52.733	0.322	0.306
-380.931	-20.747	0.207	-0.126
-379.917	128.151	-0.042	0.053
-378.902	241.304	-0.176	-0.292
-377.888	-88.051	-0.594	0.177
-376.873	-62.836	0.397	0.163
-375.858	-200.000	0.059	-0.394
-374.844	-118.954	0.325	-0.057
-373.829	39.839	0.036	0.032
-372.815	-47.637	0.270	0.130
-371.800	-52.619	0.194	-0.089
-370.785	29.498	-0.209	-0.176
-369.771	-200.000	-0.005	0.101
-368.756	555.962	0.048	0.114
-367.742	-39.625	-0.062	0.032
-366.727	222.761	-0.186	0.298
-365.712	-200.000	0.030	0.285
-364.698	668.761	0.028	0.072
-363.683	630.038	0.050	-0.125
-362.669	-23.795	0.197	-0.117
-361.654	130.232	0.231	-0.293
-360.639	217.758	-0.139	0.221
-359.625	61.091	0.213	-0.210
-358.610	4.848	-0.232	-0.170
-357.596	78.477	0.177	-0.188
-356.581	-9.327	-0.093	-0.062
-355.566	-73.472	-0.342	0.124
-354.552	515.638	-0.054	0.125
-353.537	53.223	-0.391	0.372
-352.523	282.981	0.158	0.281
-351.508	774.456	0.207	0.559
-350.493	138.283	-0.165	0.215
-349.479	-3.897	-0.031	0.021
-348.464	-139.208	0.414	0.044
-347.450	404.114	0.097	0.202
-346.435	-73.362	0.241	0.087
-345.420	-79.351	-0.125	-0.042
-344.406	-51.865	0.235	0.109
-343.391	800.000	0.040	0.136
-342.377	-99.691	-0.117	0.029
-341.362	-200.000	-0.005	-0.181
-340.348	-61.156	-0.078	0.033
-339.333	800.000	-0.034	0.111
-338.318	95.405	-0.138	0.156
-337.304	-94.415	-0.184	-0.050
-336.289	-106.904	-0.367	0.081
-335.275	22.458	-0.125	-0.101
-334.260	-31.294	-0.054	-0.030
-333.245	78.036	0.060	0.064
-332.231	154.457	-0.179	0.243
-331.216	-48.327	-0.034	-0.016
-330.202	204.414	-0.091	-0.140
-329.187	800.000	0.074	-0.202
-328.172	128.988	-0.061	0.078
-327.158	8.652	0.245	0.183
-326.143	-104.551	-0.083	0.019
-325.129	-200.000	-0.004	-0.105
-324.114	-96.545	-0.347	-0.091
-323.099	-64.254	0.249	0.101
-322.085	159.823	-0.213	-0.294
-321.070	67.923	-0.300	-0.304
-320.056	-200.000	-0.013	-0.080
-319.041	215.989	-0.087	-0.137
-318.026	-200.000	0.004	-0.192
-317.012	-200.000	0.001	-0.112
-315.997	-73.757	-0.495	0.179
-314.983	-180.349	-0.139	-0.003
-313.968	-52.403	0.376	0.172
-312.953	146.673	-0.095	-0.126
-311.939	-48.714	-0.316	0.150
-310.924	-53.408	-0.120	0.054
-309.910	278.156	-0.071	0.125
-308.895	-44.678	-0.090	0.044
-307.880	-25.189	0.380	-0.223
-306.866	-200.000	0.046	-0.201
-305.851	99.087	0.234	-0.268
-304.837	12.753	-0.151	0.116
-303.822	-63.247	-0.301	-0.123
-302.807	138.318	-0.077	-0.100
-301.793	800.000	-0.013	-0.053
-300.778	-65.043	-0.497	0.199
-299.764	96.304	-0.136	0.154
-298.749	359.756	0.201	0.398
-297.735	16.102	-0.162	0.126
-296.720	105.978	0.204	-0.239
-295.705	-200.000	0.050	-0.279
-294.691	-39.996	-0.170	0.088
-293.676	171.709	-0.049	-0.070
-292.662	-153.734	-0.204	-0.014
-291.647	-25.738	0.408	0.238
-290.632	-97.058	-0.093	-0.024
-289.618	800.000	-0.039	0.142
-288.603	526.146	0.066	0.153
-287.589	304.653	-0.145	-0.267
-286.574	-200.000	-0.023	-0.110
-285.559	169.658	-0.059	-0.084
-284.545	145.469	-0.061	-0.081
-283.530	-7.060	-0.148	0.100
-282.516	362.094	-0.140	0.279
-281.501	-47.022	-0.084	0.041
-280.486	131.276	0.088	-0.112
-279.472	27.332	0.043	-0.035
-278.457	-53.973	-0.193	0.087
-277.443	-119.675	0.310	0.053
-276.428	123.374	0.090	-0.112
-275.413	800.000	-0.069	0.239
-274.399	183.688	-0.210	0.307
-273.384	800.000	-0.046	0.180
-272.370	-200.000	-0.010	0.184
-271.355	-76.701	0.262	-0.091
-270.340	-46.174	-0.272	-0.132
-269.326	169.746	-0.152	-0.215
-268.311	449.664	-0.084	-0.184
-267.297	1.183	0.324	0.230
-266.282	-200.000	-0.036	-0.280
-265.267	-200.000	0.027	-0.268
-264.253	536.223	-0.075	0.176
-263.238	-200.000	-0.027	0.142
-262.224	800.000	0.021	0.079
-261.209	-200.000	-0.037	0.162
-260.195	-59.842	-0.327	0.138
-259.180	588.175	0.105	-0.256
-258.165	-63.171	0.109	-0.044
-257.151	127.869	-0.340	0.428
-256.136	54.202	-0.239	-0.227
-255.122	-36.460	0.217	-0.115
-254.107	800.000	0.030	0.120
-253.092	384.120	-0.084	-0.170
-252.078	-156.508	0.274	0.017
-251.063	-46.314	-0.253	-0.123
-250.049	-53.272	-0.276	0.125
-249.034	800.000	0.056	0.182
-248.019	-74.928	-0.185	-0.066
-247.005	47.745	-0.133	-0.123
-245.990	-51.963	0.075	0.034
-244.976	41.074	-0.183	0.164
-243.961	363.327	-0.090	0.178
-242.946	-3.105	0.226	0.156
-241.932	25.123	0.247	0.202
-240.917	-200.000	-0.016	0.109
-239.903	800.000	0.066	0.194
-238.888	-29.287	-0.099	-0.056
-237.873	87.005	0.125	-0.137
-236.859	-163.376	-0.228	-0.011
-235.844	637.814	-0.091	0.227
-234.830	-30.009	-0.275	0.155
-233.815	128.176	0.099	-0.124
-232.800	46.244	-0.399	0.365
-231.786	-200.000	0.012	0.150
-230.771	-134.169	0.332	0.040
-229.757	-200.000	-0.017	-0.299
-228.742	104.629	-0.151	0.176
-227.727	-153.973	-0.158	-0.011
-226.713	602.165	-0.019	0.047
-225.698	-25.617	0.161	0.094
-224.684	50.771	0.179	-0.167
-223.669	-200.000	0.011	0.386
-222.655	99.288	-0.018	-0.021
-221.640	-89.677	-0.284	0.082
-220.625	-135.746	0.194	-0.023
-219.611	55.676	-0.041	0.039
-218.596	381.314	0.118	0.239
-217.582	631.021	-0.104	0.260
-216.567	-59.344	0.117	0.050
-215.552	-200.000	0.106	0.000
-214.538	-179.920	0.180	0.004
-213.523	-79.607	0.343	0.114
-212.509	73.637	-0.273	0.283
-211.494	-200.000	0.008	0.058
-210.479	-200.000	-0.061	0.291
-209.465	469.528	-0.047	0.104
-208.450	-163.818	-0.336	0.016
-207.436	-56.324	-0.136	-0.060
-206.421	-200.000	0.060	0.299
-205.406	573.573	0.112	-0.268
-204.392	-181.693	0.199	0.004
-203.377	-49.901	0.238	0.111
-202.363	384.017	-0.157	-0.318
-201.348	-200.000	0.004	-0.146
-200.333	800.000	-0.054	-0.149
-199.319	-49.824	-0.127	-0.060
-198.304	-87.315	-0.158	0.047
-197.290	14.086	0.115	0.088
-196.275	-200.000	-0.034	-0.153
-195.260	42.340	0.049	-0.044
-194.246	-146.624	0.114	0.010
-193.231	69.621	0.262	-0.267
-192.217	-166.060	-0.285	-0.012
-191.202	34.897	-0.081	0.070
-190.187	330.226	0.073	-0.139
-189.173	800.000	-0.021	-0.076
-188.158	372.507	0.091	0.183
-187.144	134.838	-0.054	0.069
-186.129	800.000	-0.092	0.281
-185.114	-114.622	-0.196	-0.037
-184.100	192.973	0.017	0.025
-183.085	800.000	0.122	-0.378
-182.071	-58.454	0.163	-0.070
-181.056	453.571	0.145	-0.317
-180.042	-138.769	0.260	0.028
-179.027	-200.000	-0.038	0.475
-178.012	-200.000	0.020	0.191
-176.998	545.882	-0.076	-0.180
-175.983	-200.000	-0.019	-0.182
-174.969	-102.198	0.110	0.026
-173.954	123.130	-0.149	0.183
-172.939	-0.312	-0.158	-0.111
-171.925	-146.258	0.118	-0.010
-170.910	-116.910	0.133	-0.024
-169.896	57.566	0.153	-0.147
-168.881	-74.273	-0.295	-0.105
-167.866	-200.000	0.005	0.158
-166.852	209.479	0.086	0.132
-165.837	-109.151	-0.140	0.029
-164.823	-16.857	-0.201	0.125
-163.808	-101.969	0.215	-0.051
-162.793	-43.663	0.206	-0.102
-161.779	150.728	0.107	-0.143
-160.764	234.190	-0.191	0.310
-159.750	27.410	0.234	-0.194
-158.735	-76.288	0.100	0.035
-157.720	-200.000	0.018	-0.089
-156.706	-200.000	0.059	0.336
-155.691	-30.338	-0.342	0.191
-154.677	-87.923	0.257	0.076
-153.662	-168.910	0.139	0.005
-152.647	64.734	0.152	-0.151
-151.633	21.024	0.218	-0.174
-150.618	-200.000	-0.009	0.224
-149.604	-200.000	-0.059	0.373
-148.589	196.485	0.067	0.100
-147.574	-113.420	0.321	-0.062
-146.560	155.056	-0.224	0.304
-145.545	-147.876	0.053	-0.004
-144.531	68.241	0.228	0.230
-143.516	-6.122	0.075	-0.050
-142.502	65.605	0.260	-0.259
-141.487	-65.153	0.217	-0.086
-140.472	399.679	-0.134	0.276
-139.458	270.210	-0.126	0.219
-138.443	86.107	0.027	-0.029
-137.429	50.498	0.163	-0.152
-136.414	1.085	-0.359	0.253
-135.399	-30.556	0.332	-0.185
-134.385	51.176	0.223	-0.208
-133.370	-128.618	0.215	-0.030
-132.356	-52.722	0.113	-0.051
-131.341	-189.751	0.099	-0.001
-130.326	216.038	0.104	0.163
-129.312	800.000	-0.011	0.047
-128.297	114.641	0.033	0.040
-127.283	111.330	0.291	0.345
-126.268	-200.000	0.013	-0.137
-125.253	800.000	-0.146	0.478
-124.239	-129.011	0.263	-0.036
-123.224	-200.000	-0.011	-0.121
-122.210	-105.841	0.184	0.041
-121.195	-200.000	-0.017	-0.159
