DTS Sentinel unit serial number:	SN413079Multiplexer serial number:	ORYXHardware model number:	OX4-SRSoftware version number:	ORYX F/W v4.00 Oryx Data Collector v3.7.2.0data status	okinstallation	princeton_trtdifferential loss correction	single-endedforward channel	channel 1reverse channel	N/Adate	2019/09/17time	18:14:35forward acquisition time	60.00reverse acquisition time	0.00gamma	496.2192k internal	0.2290k external	0.2290temperature offset calibration	0.9958default loss term (dB/km)	0.3790temperature slope calibration	1.0000multiplexer offset coefficient	1.0000multiplexer slope coefficient	1.0000fibre end	0.00T internal ref (°C)	43.41T ext. ref 1 (°C)	0.32T ext. ref 2 (°C)	37.53length (m)	temperature (°C)	Stokes	anti-Stokes-747.200	800.000	-0.062	0.214
-746.185	800.000	-0.127	0.389
-745.171	2.357	0.169	-0.126
-744.156	107.976	0.132	0.162
-743.142	-34.463	-0.234	0.131
-742.127	-14.756	-0.103	0.068
-741.112	800.000	-0.056	0.221
-740.098	-200.000	0.006	0.388
-739.083	-176.219	0.225	0.006
-738.069	278.049	-0.185	0.337
-737.054	-73.253	-0.230	-0.086
-736.039	-36.410	-0.199	-0.110
-735.025	-200.000	0.002	0.113
-734.010	-200.000	-0.011	-0.158
-732.996	-73.880	-0.151	0.056
-731.981	-111.821	-0.156	0.032
-730.966	742.600	0.038	0.106
-729.952	126.960	-0.183	-0.238
-728.937	-151.376	0.166	-0.013
-727.923	82.515	0.233	0.259
-726.908	-8.429	-0.059	-0.041
-725.894	800.000	-0.089	-0.283
-724.879	-91.073	-0.179	0.053
-723.864	-45.022	-0.336	0.171
-722.850	4.263	0.227	0.170
-721.835	-125.887	-0.114	-0.018
-720.821	503.579	-0.115	0.273
-719.806	-151.163	0.161	-0.012
-718.791	-72.262	-0.095	0.036
-717.777	266.967	-0.108	-0.192
-716.762	800.000	-0.058	0.256
-715.748	-26.519	-0.136	-0.081
-714.733	-25.081	-0.170	-0.103
-713.718	-115.689	0.138	0.026
-712.704	6.085	0.118	0.089
-711.689	166.042	0.129	-0.188
-710.675	-200.000	-0.010	-0.238
-709.660	-62.920	0.263	-0.111
-708.645	166.716	-0.146	-0.212
-707.631	-22.370	-0.119	0.074
-706.616	-132.707	0.197	0.026
-705.602	294.698	0.111	0.208
-704.587	284.770	0.100	-0.184
-703.572	511.627	-0.025	-0.059
-702.558	372.461	-0.139	0.288
-701.543	-137.252	-0.176	0.020
-700.529	-200.000	-0.077	0.428
-699.514	-133.545	-0.116	0.015
-698.499	-91.020	0.129	0.038
-697.485	800.000	-0.068	0.234
-696.470	116.111	-0.136	0.171
-695.456	32.349	-0.166	0.147
-694.441	-54.874	0.131	0.060
-693.426	-24.972	0.183	0.111
-692.412	-200.000	0.009	0.178
-691.397	-62.379	-0.084	-0.036
-690.383	132.198	0.211	0.277
-689.368	-67.622	-0.108	-0.043
-688.354	-101.639	-0.153	-0.038
-687.339	-23.831	-0.086	0.053
-686.324	-103.486	0.124	0.030
-685.310	154.667	-0.209	-0.293
-684.295	-200.000	0.031	-0.149
-683.281	-102.253	0.239	-0.059
-682.266	60.555	0.311	-0.315
-681.251	201.388	0.046	0.073
-680.237	800.000	-0.048	-0.192
-679.222	385.841	-0.111	-0.234
-678.208	-59.236	-0.134	0.059
-677.193	800.000	-0.032	-0.144
-676.178	67.661	-0.063	0.066
-675.164	-153.451	-0.127	0.009
-674.149	800.000	0.035	-0.127
-673.135	-111.401	0.444	-0.092
-672.120	83.178	0.178	-0.198
-671.105	231.305	0.136	0.228
-670.091	13.476	-0.225	0.178
-669.076	-11.010	-0.264	-0.178
-668.062	-200.000	-0.014	-0.240
-667.047	-40.062	0.281	0.150
-666.032	-200.000	-0.042	-0.245
-665.018	-69.899	-0.043	-0.017
-664.003	68.088	0.152	-0.159
-662.989	800.000	0.059	-0.218
-661.974	63.711	0.132	0.136
-660.959	105.415	-0.226	-0.273
-659.945	-43.347	0.112	0.058
-658.930	-118.047	-0.288	0.052
-657.916	91.281	-0.113	-0.129
-656.901	304.122	-0.191	-0.361
-655.886	-22.019	0.150	0.093
-654.872	1.897	-0.193	-0.142
-653.857	507.579	-0.092	-0.218
-652.843	73.839	0.111	-0.118
-651.828	8.462	0.315	-0.242
-650.814	-49.177	0.144	-0.070
-649.799	-163.135	0.212	-0.010
-648.784	225.510	-0.043	-0.071
-647.770	-76.351	-0.202	-0.073
-646.755	-4.524	-0.056	0.039
-645.741	165.903	-0.130	-0.188
-644.726	800.000	-0.037	-0.109
-643.711	-200.000	-0.016	-0.355
-642.697	-82.512	-0.404	0.134
-641.682	79.980	0.165	-0.181
-640.668	-200.000	-0.044	0.227
-639.653	-24.434	0.247	0.150
-638.638	604.283	0.117	-0.298
-637.624	-128.731	0.184	0.027
-636.609	-131.854	0.128	0.017
-635.595	-45.929	0.060	-0.030
-634.580	104.169	-0.284	0.341
-633.565	-63.579	-0.360	0.151
-632.551	704.348	0.122	0.329
-631.536	-120.512	-0.326	-0.056
-630.522	-44.458	-0.394	0.201
-629.507	-96.723	-0.298	-0.080
-628.492	-169.923	0.334	-0.012
-627.478	573.335	0.055	0.136
-626.463	-200.000	0.024	0.274
-625.449	-33.983	0.273	0.153
-624.434	190.541	-0.010	0.016
-623.419	-46.130	0.169	-0.085
-622.405	-128.052	0.283	0.041
-621.390	475.182	-0.103	-0.237
-620.376	-182.926	0.218	0.004
-619.361	3.175	0.168	0.125
-618.346	323.606	0.046	0.089
-617.332	45.681	0.072	0.068
-616.317	-114.661	-0.157	-0.031
-615.303	5.835	-0.428	-0.323
-614.288	-102.639	0.198	-0.048
-613.273	-79.149	-0.282	-0.098
-612.259	-94.679	0.331	-0.092
-611.244	3.625	0.121	-0.090
-610.230	-76.613	-0.179	0.064
-609.215	157.407	-0.365	-0.515
-608.201	-102.239	0.076	0.019
-607.186	-135.545	-0.107	-0.013
-606.171	-129.030	-0.233	-0.033
-605.157	-200.000	-0.008	-0.200
-604.142	-200.000	0.011	-0.088
-603.128	-23.971	-0.171	-0.104
-602.113	173.804	0.147	-0.217
-601.098	-4.937	-0.059	0.042
-600.084	-162.256	0.015	-0.001
-599.069	-137.767	-0.151	-0.017
-598.055	-50.541	0.069	0.033
-597.040	148.087	-0.089	-0.122
-596.025	430.773	-0.085	-0.187
-595.011	-159.300	-0.188	-0.011
-593.996	-200.000	0.006	-0.251
-592.982	268.244	-0.015	0.026
-591.967	191.441	-0.147	-0.226
-590.952	-200.000	0.034	-0.210
-589.938	-94.121	-0.372	-0.104
-588.923	224.264	0.082	0.134
-587.909	-106.329	-0.296	-0.068
-586.894	-63.705	0.071	-0.030
-585.879	65.897	-0.054	0.056
-584.865	-113.442	0.217	-0.043
-583.850	-54.754	-0.104	0.048
-582.836	118.971	-0.318	-0.400
-581.821	-86.269	0.592	0.186
-580.806	-47.337	-0.122	0.061
-579.792	794.299	-0.080	-0.224
-578.777	6.007	0.116	0.087
-577.763	-143.375	0.355	0.035
-576.748	-55.802	0.212	0.096
-575.733	-30.431	-0.296	0.171
-574.719	-200.000	0.023	-0.387
-573.704	473.592	-0.107	-0.244
-572.690	-20.182	-0.152	-0.095
-571.675	306.543	-0.157	-0.297
-570.661	69.147	0.153	-0.160
-569.646	12.224	0.175	0.137
-568.631	183.200	0.190	-0.286
-567.617	41.334	0.238	0.219
-566.602	-104.619	-0.239	0.056
-565.588	-69.889	-0.181	-0.070
-564.573	800.000	-0.041	0.139
-563.558	202.888	-0.070	0.110
-562.544	800.000	0.055	0.162
-561.529	-31.385	0.104	0.060
-560.515	-57.756	0.120	0.053
-559.500	-51.034	-0.292	-0.139
-558.485	800.000	0.101	-0.287
-557.471	-102.525	-0.134	0.033
-556.456	-134.218	0.270	-0.034
-555.442	800.000	0.114	-0.382
-554.427	-200.000	0.035	-0.370
-553.412	-200.000	-0.011	0.398
-552.398	198.687	-0.094	0.146
-551.383	-81.454	-0.282	-0.094
-550.369	-141.611	-0.310	-0.032
-549.354	-113.396	0.206	-0.041
-548.339	-53.255	-0.202	0.094
-547.325	-147.612	0.420	-0.036
-546.310	-145.397	0.157	0.014
-545.296	6.418	-0.108	0.082
-544.281	-104.455	0.332	-0.078
-543.266	392.315	-0.046	0.097
-542.252	-120.458	0.106	-0.018
-541.237	-10.747	0.240	-0.161
-540.223	-161.500	-0.216	-0.011
-539.208	422.230	-0.031	0.067
-538.193	800.000	0.063	0.211
-537.179	-70.011	-0.262	-0.101
-536.164	-92.138	0.221	0.063
-535.150	254.627	0.072	0.125
-534.135	-140.468	-0.330	-0.035
-533.121	14.904	0.063	-0.050
-532.106	259.633	-0.078	-0.136
-531.091	44.249	0.043	-0.040
-530.077	74.025	-0.155	0.165
-529.062	268.220	-0.169	0.300
-528.048	-200.000	0.060	0.301
-527.033	49.219	0.225	-0.215
-526.018	-116.113	-0.206	0.039
-525.004	-200.000	-0.078	-0.356
-523.989	227.744	-0.073	-0.121
-522.975	-166.430	-0.337	0.014
-521.960	-150.022	-0.054	0.004
-520.945	43.346	-0.037	-0.034
-519.931	-200.000	0.046	-0.428
-518.916	42.863	0.181	0.167
-517.902	108.956	0.090	-0.110
-516.887	800.000	-0.063	0.231
-515.872	-157.696	0.079	-0.005
-514.858	122.806	-0.094	-0.119
-513.843	-22.367	0.210	0.129
-512.829	-65.124	0.171	0.070
-511.814	133.827	0.041	-0.054
-510.799	800.000	-0.052	0.200
-509.785	-161.267	-0.336	-0.018
-508.770	-200.000	-0.005	-0.441
-507.756	106.910	0.162	-0.195
-506.741	-200.000	-0.066	0.443
-505.726	-97.964	-0.086	-0.022
-504.712	263.285	0.077	-0.137
-503.697	39.497	-0.145	-0.132
-502.683	192.040	0.098	-0.150
-501.668	27.246	0.252	0.215
-500.653	68.209	-0.096	-0.099
-499.639	118.926	0.096	0.120
-498.624	97.438	-0.377	0.439
-497.610	84.638	-0.218	0.242
-496.595	-101.368	-0.370	-0.092
-495.581	-149.766	-0.204	-0.016
-494.566	800.000	-0.014	0.050
-493.551	-59.984	0.174	-0.075
-492.537	13.922	0.042	0.033
-491.522	11.658	-0.160	-0.125
-490.508	133.176	0.190	0.249
-489.493	-200.000	0.023	0.341
-488.478	800.000	0.086	0.245
-487.464	54.862	-0.261	0.256
-486.449	19.085	-0.176	-0.143
-485.435	-118.711	0.199	0.036
-484.420	-200.000	-0.024	0.259
-483.405	-99.420	-0.077	-0.020
-482.391	-200.000	-0.027	-0.131
-481.376	473.775	-0.022	0.051
-480.362	-129.337	0.013	0.002
-479.347	-200.000	0.005	-0.272
-478.332	238.325	0.067	-0.113
-477.318	800.000	-0.079	-0.325
-476.303	800.000	0.043	-0.187
-475.289	-52.902	-0.135	0.063
-474.274	59.067	-0.227	0.226
-473.259	787.945	-0.033	-0.092
-472.245	-89.665	-0.417	0.124
-471.230	206.390	-0.231	-0.365
-470.216	-64.318	-0.269	-0.111
-469.201	340.484	-0.150	0.297
-468.186	-200.000	-0.008	-0.089
-467.172	426.755	0.052	-0.113
-466.157	-89.593	-0.147	0.044
-465.143	-83.943	0.287	0.093
-464.128	112.629	-0.018	0.021
-463.113	-27.097	-0.250	0.148
-462.099	-81.872	0.071	0.023
-461.084	559.489	0.052	-0.128
-460.070	-42.575	-0.304	-0.157
-459.055	-200.000	-0.020	-0.103
-458.040	-200.000	0.029	0.353
-457.026	-200.000	0.035	0.342
-456.011	-51.184	0.101	-0.048
-454.997	452.557	0.175	-0.391
-453.982	165.554	0.096	-0.138
-452.968	-132.733	-0.173	-0.022
-451.953	172.455	-0.102	-0.148
-450.938	111.645	-0.299	0.365
-449.924	-158.315	-0.227	-0.013
-448.909	800.000	-0.079	0.223
-447.895	-157.341	0.107	-0.007
-446.880	-129.489	-0.269	0.038
-445.865	-28.505	-0.180	-0.105
-444.851	288.999	0.205	-0.375
-443.836	800.000	-0.098	-0.334
-442.822	800.000	-0.046	0.139
-441.807	-20.779	-0.040	0.025
-440.792	800.000	0.024	-0.092
-439.778	265.043	0.106	0.187
-438.763	-83.248	0.452	-0.147
-437.749	-52.625	0.453	-0.212
-436.734	-84.845	0.202	0.064
-435.719	92.302	-0.320	-0.365
-434.705	483.490	-0.129	-0.297
-433.690	-20.536	0.249	-0.155
-432.676	-49.204	-0.238	0.115
-431.661	800.000	-0.084	-0.297
-430.646	-200.000	-0.039	0.233
-429.632	800.000	-0.041	-0.165
-428.617	293.303	0.053	-0.097
-427.603	511.271	-0.049	-0.114
-426.588	-3.782	-0.316	-0.222
-425.573	800.000	0.063	-0.268
-424.559	-200.000	-0.007	0.112
-423.544	203.782	-0.100	0.156
-422.530	180.329	-0.118	0.175
-421.515	-200.000	-0.024	-0.260
-420.500	26.519	0.076	0.065
-419.486	16.135	-0.197	-0.157
-418.471	3.300	-0.191	0.141
-417.457	-164.475	-0.248	-0.011
-416.442	-66.195	0.397	0.160
-415.428	-132.763	0.322	-0.042
-414.413	-200.000	-0.009	0.049
-413.398	800.000	0.023	-0.089
-412.384	800.000	-0.011	0.032
-411.369	-151.866	0.253	-0.019
-410.355	800.000	0.053	-0.206
-409.340	-200.000	-0.054	0.346
-408.325	-89.138	0.279	0.083
-407.311	119.662	-0.158	0.198
-406.296	-200.000	0.043	-0.214
-405.282	-147.050	0.189	-0.016
-404.267	144.906	0.088	-0.118
-403.252	46.252	-0.157	-0.147
-402.238	51.476	-0.134	-0.128
-401.223	-171.609	0.227	-0.008
-400.209	328.962	-0.063	0.122
-399.194	-200.000	0.041	0.277
-398.179	-18.936	-0.112	0.070
-397.165	-5.937	0.204	0.141
-396.150	41.282	0.302	-0.276
-395.136	-96.221	0.136	-0.036
-394.121	-17.288	0.228	-0.145
-393.106	-95.375	-0.095	0.026
-392.092	-26.219	0.127	0.076
-391.077	-200.000	0.020	0.145
-390.063	376.490	-0.128	0.264
-389.048	62.715	-0.060	-0.061
-388.033	800.000	-0.055	-0.231
-387.019	25.917	0.272	-0.229
-386.004	-200.000	0.008	-0.227
-384.990	480.026	0.153	0.350
-383.975	169.613	-0.145	0.209
-382.960	475.748	0.111	-0.253
-381.946	-65.178	-0.144	0.059
-380.931	48.454	0.101	-0.095
-379.917	-144.889	-0.242	0.022
-378.902	88.001	-0.132	0.148
-377.888	-200.000	0.014	0.176
-376.873	800.000	-0.092	0.333
-375.858	53.493	-0.213	0.206
-374.844	-40.163	-0.124	-0.065
-373.829	318.272	-0.054	0.104
-372.815	-70.781	-0.195	-0.074
-371.800	-37.605	-0.219	0.118
-370.785	84.520	0.091	0.100
-369.771	-156.568	-0.312	0.020
-368.756	88.656	0.032	-0.036
-367.742	-2.915	-0.284	0.200
-366.727	-23.240	-0.267	-0.162
-365.712	-200.000	-0.002	-0.163
-364.698	-92.565	-0.381	0.108
-363.683	39.604	-0.030	0.027
-362.669	379.188	0.050	-0.103
-361.654	52.285	0.109	-0.105
-360.639	525.280	-0.096	0.229
-359.625	53.918	0.119	0.115
-358.610	800.000	-0.051	-0.203
-357.596	-200.000	0.021	0.257
-356.581	384.802	-0.141	0.294
-355.566	251.027	0.055	-0.094
-354.552	16.990	0.064	0.051
-353.537	-200.000	0.018	-0.218
-352.523	245.800	0.012	-0.021
-351.508	800.000	-0.135	0.500
-350.493	-137.275	-0.110	-0.013
-349.479	39.636	-0.180	-0.162
-348.464	112.622	0.074	-0.090
-347.450	-200.000	0.021	0.316
-346.435	-40.719	0.180	0.094
-345.420	312.226	0.106	0.200
-344.406	-49.731	0.213	0.102
-343.391	-200.000	-0.236	0.001
-342.377	127.610	-0.213	0.272
-341.362	-200.000	0.045	0.422
-340.348	-106.539	-0.111	0.025
-339.333	38.617	-0.107	-0.096
-338.318	-152.378	0.153	0.011
-337.304	311.986	0.124	0.234
-336.289	-20.254	-0.397	-0.246
-335.275	-132.871	0.201	0.026
-334.260	-200.000	0.009	-0.098
-333.245	92.844	-0.165	0.188
-332.231	169.151	0.134	-0.192
-331.216	-30.837	0.288	0.164
-330.202	89.744	-0.250	0.281
-329.187	102.893	-0.130	-0.153
-328.172	-20.179	-0.367	-0.228
-327.158	107.292	-0.045	-0.054
-326.143	-200.000	0.009	0.048
-325.129	596.153	-0.011	0.028
-324.114	279.284	-0.041	0.073
-323.099	439.163	-0.095	0.209
-322.085	800.000	-0.032	0.132
-321.070	239.355	0.123	0.207
-320.056	800.000	-0.080	0.233
-319.041	-130.427	0.079	0.011
-318.026	-45.769	0.187	-0.093
-317.012	347.457	0.095	0.189
-315.997	-200.000	0.015	-0.172
-314.983	240.459	-0.149	-0.250
-313.968	92.518	-0.159	0.181
-312.953	773.067	-0.036	0.100
-311.939	274.145	0.171	-0.304
-310.924	82.367	-0.321	0.351
-309.910	24.826	0.127	0.106
-308.895	-64.755	-0.197	-0.080
-307.880	119.643	-0.143	0.179
-306.866	-154.820	0.305	0.020
-305.851	198.599	-0.073	-0.112
-304.837	-87.659	0.222	-0.068
-303.822	-98.030	-0.176	-0.046
-302.807	-200.000	0.032	0.316
-301.793	89.702	-0.069	0.078
-300.778	-200.000	0.005	0.177
-299.764	237.506	0.215	0.359
-298.749	433.618	0.066	0.145
-297.735	590.156	0.114	-0.284
-296.720	-200.000	-0.019	-0.186
-295.705	-84.857	-0.226	-0.072
-294.691	131.437	-0.143	0.185
-293.676	-56.766	0.263	0.117
-292.662	141.322	-0.066	0.088
-291.647	-200.000	0.011	-0.123
-290.632	52.269	-0.117	-0.112
-289.618	21.259	-0.094	0.077
-288.603	101.955	-0.103	0.121
-287.589	-48.544	-0.280	0.135
-286.574	-200.000	-0.025	0.194
-285.559	11.375	0.090	-0.069
-284.545	-103.702	0.216	0.051
-283.530	-44.056	-0.176	0.089
-282.516	-67.550	0.460	0.182
-281.501	194.707	0.224	0.342
-280.486	-59.297	-0.024	-0.010
-279.472	-130.195	0.232	0.032
-278.457	800.000	0.036	0.120
-277.443	621.498	-0.051	0.130
-276.428	-39.015	-0.155	0.082
-275.413	-126.628	-0.122	0.018
-274.399	-145.905	0.213	-0.019
-273.384	-101.375	-0.280	-0.069
-272.370	148.992	0.306	-0.416
-271.355	-118.013	0.204	0.037
-270.340	35.330	-0.049	-0.043
-269.326	-8.739	-0.225	-0.151
-268.311	-25.226	0.179	-0.107
-267.297	-24.176	-0.080	0.048
-266.282	17.759	-0.089	-0.071
-265.267	0.459	0.272	0.195
-264.253	-2.534	-0.227	0.160
-263.238	213.478	-0.044	-0.069
-262.224	-200.000	-0.003	-0.158
-261.209	-46.017	0.054	0.027
-260.195	-200.000	-0.049	0.293
-259.180	800.000	0.059	0.189
-258.165	-36.713	-0.144	-0.078
-257.151	35.840	0.038	-0.034
-256.136	-200.000	-0.031	-0.164
-255.122	-200.000	0.053	-0.257
-254.107	-50.528	0.328	-0.156
-253.092	45.593	0.328	0.305
-252.078	-200.000	0.022	-0.173
-251.063	-5.160	0.224	-0.155
-250.049	429.196	0.137	0.298
-249.034	800.000	-0.082	-0.335
-248.019	-49.413	0.424	-0.203
-247.005	800.000	0.031	-0.135
-245.990	-82.983	0.072	0.023
-244.976	-109.908	-0.162	-0.034
-243.961	-70.688	-0.203	0.077
-242.946	-200.000	0.039	0.193
-241.932	-41.087	-0.101	0.052
-240.917	-200.000	-0.011	0.228
-239.903	151.427	-0.046	0.063
-238.888	-200.000	0.030	-0.140
-237.873	212.659	0.086	0.136
-236.859	-200.000	-0.037	-0.345
-235.844	-76.018	0.196	-0.070
-234.830	35.177	-0.011	0.010
-233.815	5.535	0.335	0.249
-232.800	-70.457	0.117	0.045
-231.786	277.700	0.103	0.184
-230.771	-58.173	0.141	0.062
-229.757	28.964	0.200	-0.170
-228.742	800.000	-0.099	0.277
-227.727	-200.000	0.046	0.401
-226.713	-81.777	0.289	0.095
-225.698	63.773	0.094	-0.095
-224.684	397.669	0.137	-0.288
-223.669	-103.122	0.438	0.104
-222.655	800.000	0.026	0.082
-221.640	-20.922	-0.244	0.150
-220.625	339.343	-0.094	-0.183
-219.611	-111.474	0.316	-0.065
-218.596	13.541	-0.205	0.159
-217.582	-121.177	-0.184	0.031
-216.567	74.532	0.162	-0.171
-215.552	52.866	0.120	-0.115
-214.538	-200.000	0.020	-0.146
-213.523	-108.837	-0.085	-0.018
-212.509	-156.055	0.306	0.019
-211.494	462.029	0.104	-0.233
-210.479	-148.359	-0.121	-0.010
-209.465	-91.081	0.208	0.060
-208.450	-157.749	0.375	0.022
-207.436	800.000	0.018	0.077
-206.421	-200.000	-0.015	-0.185
-205.406	-200.000	-0.056	-0.332
-204.392	-183.220	-0.200	0.004
-203.377	800.000	0.093	0.379
-202.363	-63.258	0.197	0.081
-201.348	257.146	0.211	0.364
-200.333	800.000	-0.083	0.242
-199.319	-200.000	0.005	-0.201
-198.304	199.110	-0.051	-0.079
-197.290	170.708	0.259	0.372
-196.275	-81.269	-0.112	0.037
-195.260	-15.612	0.137	-0.088
-194.246	-47.381	0.479	0.234
-193.231	-200.000	0.023	-0.182
-192.217	142.973	0.246	-0.327
-191.202	2.181	-0.130	-0.094
-190.187	21.786	0.335	0.273
-189.173	111.638	0.059	-0.071
-188.158	-23.616	-0.173	-0.104
-187.144	800.000	0.126	-0.348
-186.129	32.206	0.206	-0.178
-185.114	2.233	-0.115	-0.083
-184.100	75.538	0.151	-0.160
-183.085	-87.552	0.146	0.044
-182.071	800.000	0.139	0.433
-181.056	-36.584	0.037	0.020
-180.042	-172.188	0.217	-0.007
-179.027	218.474	0.084	0.134
-178.012	-50.034	-0.113	0.054
-176.998	-200.000	0.003	-0.049
-175.983	-45.282	0.212	-0.105
-174.969	18.751	0.136	-0.109
-173.954	-137.025	-0.340	0.039
-172.939	238.249	0.053	0.088
-171.925	-38.981	0.325	-0.171
-170.910	194.124	-0.056	0.086
-169.896	116.220	0.070	0.086
-168.881	396.391	0.209	-0.436
-167.866	-200.000	0.014	0.328
-166.852	-200.000	-0.003	-0.346
-165.837	-99.597	-0.241	-0.061
-164.823	99.973	-0.143	-0.165
-163.808	164.552	0.090	-0.127
-162.793	22.642	0.133	0.109
-161.779	-52.897	0.088	0.041
-160.764	12.754	-0.127	0.098
-159.750	-0.520	0.140	0.100
-158.735	-25.380	-0.151	-0.089
-157.720	800.000	-0.089	-0.361
-156.706	-200.000	0.012	-0.344
-155.691	-200.000	-0.016	-0.306
-154.677	598.895	-0.149	0.370
-153.662	6.090	0.183	0.136
-152.647	-74.118	-0.095	0.035
-151.633	12.653	0.163	0.126
-150.618	800.000	-0.036	-0.144
-149.604	-18.542	-0.296	0.185
-148.589	-200.000	0.038	0.248
-147.574	-44.348	0.447	-0.224
-146.560	602.818	0.141	0.351
-145.545	800.000	0.090	0.341
-144.531	348.817	-0.114	-0.224
-143.516	-109.648	0.220	-0.046
-142.502	-50.557	-0.075	-0.035
-141.487	388.203	0.085	0.175
-140.472	-200.000	0.013	-0.147
-139.458	8.638	-0.155	0.117
-138.443	-76.528	0.195	0.069
-137.429	724.604	-0.082	0.219
-136.414	-55.999	0.320	-0.143
-135.399	-32.460	0.195	0.109
-134.385	-200.000	0.002	-0.016
-133.370	313.279	0.059	0.112
-132.356	143.094	0.079	-0.105
-131.341	86.730	0.154	-0.169
-130.326	-181.963	0.440	-0.008
-129.312	27.290	-0.083	0.070
-128.297	-200.000	-0.000	0.055
-127.283	-24.605	0.058	0.034
-126.268	46.166	-0.115	0.107
-125.253	-200.000	0.007	0.054
-124.239	-200.000	0.057	0.506
-123.224	-200.000	0.018	0.237
-122.210	156.640	0.121	-0.168
-121.195	108.099	-0.245	-0.292
-120.180	-200.000	-0.011	-0.057
