DTS Sentinel unit serial number:	SN413079Multiplexer serial number:	ORYXHardware model number:	OX4-SRSoftware version number:	ORYX F/W v4.00 Oryx Data Collector v3.7.2.0data status	okinstallation	princeton_trtdifferential loss correction	single-endedforward channel	channel 1reverse channel	N/Adate	2019/09/13time	22:54:35forward acquisition time	60.00reverse acquisition time	0.00gamma	496.2192k internal	0.2334k external	0.2334temperature offset calibration	1.0085default loss term (dB/km)	0.3790temperature slope calibration	1.0000multiplexer offset coefficient	1.0000multiplexer slope coefficient	1.0000fibre end	0.00T internal ref (°C)	27.44T ext. ref 1 (°C)	3.21T ext. ref 2 (°C)	21.50length (m)	temperature (°C)	Stokes	anti-Stokes-747.200	-55.231	-0.358	0.162
-746.185	285.073	-0.026	0.046
-745.171	800.000	0.048	-0.168
-744.156	228.666	-0.151	0.248
-743.142	190.618	-0.029	0.045
-742.127	394.510	-0.046	0.097
-741.112	-56.547	-0.315	-0.140
-740.098	297.730	0.108	0.200
-739.083	690.249	-0.087	-0.229
-738.069	-200.000	-0.065	0.320
-737.054	306.889	0.125	0.234
-736.039	-163.566	-0.287	0.014
-735.025	-59.890	-0.089	-0.038
-734.010	158.776	0.073	-0.101
-732.996	-177.894	-0.044	0.001
-731.981	12.555	0.111	-0.086
-730.966	-200.000	-0.002	-0.059
-729.952	12.465	-0.217	-0.168
-728.937	12.188	-0.456	-0.353
-727.923	-66.534	0.290	-0.116
-726.908	-200.000	-0.003	-0.051
-725.894	-92.271	-0.355	-0.100
-724.879	-57.250	-0.074	-0.033
-723.864	153.803	-0.206	-0.284
-722.850	-200.000	0.005	0.165
-721.835	236.751	0.070	-0.116
-720.821	321.158	-0.151	0.288
-719.806	-200.000	-0.004	-0.100
-718.791	81.284	-0.154	-0.167
-717.777	-22.563	0.121	-0.074
-716.762	-200.000	-0.079	-0.412
-715.748	-132.689	0.167	-0.022
-714.733	-89.381	-0.508	-0.150
-713.718	26.287	0.057	-0.048
-712.704	-63.959	0.118	0.049
-711.689	-200.000	0.027	-0.195
-710.675	224.456	-0.088	-0.142
-709.660	282.308	-0.056	0.101
-708.645	-200.000	-0.026	0.309
-707.631	-91.077	-0.149	-0.043
-706.616	-20.233	-0.150	-0.093
-705.602	-150.020	-0.188	-0.015
-704.587	-161.066	0.200	-0.011
-703.572	141.546	-0.251	-0.334
-702.558	-52.650	-0.266	-0.123
-701.543	3.478	-0.393	-0.287
-700.529	476.681	0.169	0.384
-699.514	-200.000	-0.028	0.411
-698.499	-200.000	0.005	0.129
-697.485	-200.000	0.024	-0.117
-696.470	5.086	-0.110	0.082
-695.456	-200.000	-0.000	0.114
-694.441	-170.303	-0.076	0.003
-693.426	36.749	-0.144	0.128
-692.412	-200.000	0.017	-0.176
-691.397	514.362	-0.039	-0.091
-690.383	185.755	-0.191	-0.285
-689.368	218.583	0.182	-0.291
-688.354	-76.125	-0.152	-0.054
-687.339	-200.000	-0.001	-0.454
-686.324	-200.000	-0.103	0.478
-685.310	223.046	-0.134	-0.217
-684.295	800.000	-0.077	-0.312
-683.281	800.000	0.049	-0.203
-682.266	-84.413	-0.040	0.013
-681.251	-128.706	0.167	0.024
-680.237	733.132	-0.042	-0.113
-679.222	-200.000	-0.033	-0.206
-678.208	-200.000	-0.032	0.269
-677.193	305.240	0.062	-0.115
-676.178	-131.409	-0.510	-0.068
-675.164	-134.719	-0.030	0.004
-674.149	800.000	0.047	-0.165
-673.135	-110.522	-0.106	-0.022
-672.120	-200.000	-0.010	-0.164
-671.105	-23.776	-0.163	0.098
-670.091	106.879	-0.171	-0.204
-669.076	-100.046	-0.049	0.012
-668.062	6.159	-0.132	-0.098
-667.047	263.110	0.117	-0.203
-666.032	174.738	-0.164	-0.238
-665.018	-33.394	-0.247	0.137
-664.003	11.257	0.110	-0.085
-662.989	-57.148	-0.365	-0.161
-661.974	-8.136	0.268	0.181
-660.959	365.950	-0.139	-0.281
-659.945	-7.895	0.057	-0.039
-658.930	-37.377	-0.035	-0.019
-657.916	-133.211	-0.170	0.022
-656.901	-20.665	-0.236	-0.145
-655.886	-31.535	0.045	0.025
-654.872	800.000	-0.083	-0.242
-653.857	276.354	0.026	-0.046
-652.843	-200.000	-0.007	-0.113
-651.828	-200.000	0.018	-0.235
-650.814	481.273	-0.130	-0.296
-649.799	421.913	-0.140	0.302
-648.784	-200.000	-0.030	-0.428
-647.770	12.256	0.221	0.170
-646.755	-116.450	-0.215	-0.040
-645.741	-18.163	-0.256	0.160
-644.726	99.172	-0.184	-0.213
-643.711	-102.569	0.044	0.010
-642.697	-53.575	-0.266	-0.122
-641.682	131.001	0.072	0.093
-640.668	-146.633	0.222	-0.019
-639.653	191.062	0.180	-0.272
-638.638	-200.000	0.019	0.110
-637.624	-36.800	-0.232	-0.125
-636.609	25.346	-0.184	-0.153
-635.595	-110.311	0.354	0.074
-634.580	82.411	-0.072	-0.078
-633.565	-55.952	-0.285	0.127
-632.551	800.000	0.061	-0.207
-631.536	800.000	-0.073	-0.248
-630.522	-1.594	0.385	-0.272
-629.507	800.000	-0.015	0.064
-628.492	-109.531	0.117	0.025
-627.478	-200.000	0.035	-0.326
-626.463	-200.000	-0.016	-0.127
-625.449	800.000	0.043	-0.140
-624.434	-88.294	0.162	-0.049
-623.419	-97.396	-0.060	0.016
-622.405	-74.214	0.209	-0.076
-621.390	-200.000	-0.023	-0.123
-620.376	800.000	0.051	-0.151
-619.361	-179.565	-0.253	0.006
-618.346	153.358	0.121	0.165
-617.332	-64.252	-0.085	0.035
-616.317	8.255	-0.131	-0.098
-615.303	-91.285	-0.284	0.081
-614.288	49.841	-0.107	-0.101
-613.273	247.591	-0.133	0.226
-612.259	-9.535	0.242	-0.162
-611.244	-66.751	0.105	0.041
-610.230	-200.000	-0.015	-0.404
-609.215	156.626	0.061	0.084
-608.201	-200.000	-0.028	-0.529
-607.186	-200.000	0.043	-0.553
-606.171	114.279	0.180	-0.219
-605.157	800.000	-0.023	-0.082
-604.142	-68.732	-0.342	-0.132
-603.128	-153.977	-0.289	-0.020
-602.113	-147.962	0.234	-0.019
-601.098	-27.210	-0.123	-0.071
-600.084	173.518	-0.059	0.085
-599.069	699.366	-0.145	0.381
-598.055	55.728	-0.044	0.042
-597.040	3.111	-0.170	0.124
-596.025	52.465	-0.056	-0.053
-595.011	-28.511	-0.182	-0.105
-593.996	-5.178	0.129	-0.089
-592.982	477.949	-0.083	0.187
-591.967	323.989	-0.055	-0.106
-590.952	-169.220	-0.144	-0.005
-589.938	-200.000	0.023	0.226
-588.923	800.000	-0.038	0.117
-587.909	-102.453	0.495	0.118
-586.894	-11.615	0.039	-0.026
-585.879	-67.316	-0.233	0.092
-584.865	47.601	0.294	-0.274
-583.850	-140.310	-0.246	-0.026
-582.836	-92.817	-0.068	-0.019
-581.821	7.421	-0.156	0.116
-580.806	106.133	0.077	-0.091
-579.792	-66.512	-0.295	0.117
-578.777	-42.961	0.135	-0.068
-577.763	612.354	0.062	0.154
-576.748	-200.000	0.008	0.038
-575.733	86.226	-0.129	0.142
-574.719	-200.000	-0.013	-0.144
-573.704	-200.000	-0.010	-0.071
-572.690	-200.000	-0.041	0.262
-571.675	-76.140	-0.075	0.026
-570.661	77.041	0.045	-0.048
-569.646	-200.000	0.011	-0.054
-568.631	800.000	-0.111	-0.399
-567.617	6.384	-0.076	-0.056
-566.602	800.000	0.074	-0.257
-565.588	800.000	0.046	-0.165
-564.573	620.762	0.030	-0.075
-563.558	71.521	-0.259	0.269
-562.544	-98.008	-0.020	0.005
-561.529	800.000	0.068	0.188
-560.515	-10.556	-0.117	0.077
-559.500	-200.000	0.200	-0.001
-558.485	-56.635	0.176	-0.078
-557.471	-65.419	-0.200	0.080
-556.456	-100.702	0.429	-0.106
-555.442	-47.275	-0.297	0.144
-554.427	-36.587	-0.227	-0.122
-553.412	4.996	0.170	-0.124
-552.398	213.280	-0.112	0.177
-551.383	800.000	-0.098	0.312
-550.369	40.503	-0.066	-0.059
-549.354	115.535	-0.128	-0.156
-548.339	33.126	-0.191	-0.165
-547.325	-110.110	0.255	0.053
-546.310	155.251	-0.220	-0.303
-545.296	16.631	-0.362	0.285
-544.281	-111.764	-0.133	-0.027
-543.266	-149.189	0.084	-0.007
-542.252	800.000	0.023	0.082
-541.237	771.793	-0.078	0.213
-540.223	62.306	-0.144	0.144
-539.208	-11.227	0.105	-0.069
-538.193	-116.683	-0.428	0.079
-537.179	160.578	-0.119	0.165
-536.164	-75.449	-0.104	-0.037
-535.150	-200.000	-0.024	0.169
-534.135	-50.283	0.264	0.124
-533.121	36.841	0.043	0.038
-532.106	-200.000	0.019	-0.463
-531.091	376.486	0.101	0.206
-530.077	-11.200	-0.162	-0.107
-529.062	217.753	-0.062	0.099
-528.048	703.774	0.093	0.244
-527.033	-200.000	0.004	-0.057
-526.018	-200.000	0.018	0.195
-525.004	-179.832	-0.325	-0.007
-523.989	6.514	-0.158	0.117
-522.975	61.467	-0.072	-0.071
-521.960	800.000	0.093	-0.342
-520.945	11.615	0.174	0.133
-519.931	230.052	-0.025	-0.040
-518.916	-90.072	0.187	0.054
-517.902	179.643	-0.065	0.095
-516.887	-26.050	0.123	-0.072
-515.872	-200.000	-0.013	0.121
-514.858	-93.973	-0.300	-0.082
-513.843	-200.000	0.016	0.079
-512.829	-194.259	0.129	0.001
-511.814	-76.413	0.137	-0.048
-510.799	-200.000	0.039	-0.336
-509.785	-200.000	-0.152	0.000
-508.770	225.183	0.212	0.341
-507.756	-88.433	0.067	0.020
-506.741	454.252	-0.043	-0.094
-505.726	118.102	-0.107	-0.131
-504.712	124.303	-0.184	0.230
-503.697	-13.582	0.317	0.204
-502.683	800.000	-0.128	0.384
-501.668	58.601	-0.050	0.049
-500.653	88.645	0.170	0.188
-499.639	74.152	0.279	0.291
-498.624	-86.958	-0.055	0.017
-497.610	-200.000	0.003	-0.051
-496.595	392.425	-0.191	-0.395
-495.581	-4.393	0.222	-0.153
-494.566	800.000	0.150	-0.441
-493.551	-200.000	-0.021	-0.182
-492.537	682.475	0.048	0.123
-491.522	-200.000	-0.014	-0.213
-490.508	-24.692	0.156	-0.092
-489.493	-107.557	0.248	-0.054
-488.478	-200.000	-0.041	-0.218
-487.464	-159.628	0.205	0.011
-486.449	-143.149	0.274	-0.026
-485.435	85.567	-0.168	0.184
-484.420	-38.774	-0.074	-0.039
-483.405	-122.963	0.236	-0.038
-482.391	-200.000	0.049	0.389
-481.376	-200.000	-0.030	0.181
-480.362	114.471	-0.142	0.172
-479.347	-96.582	-0.060	0.016
-478.332	800.000	0.053	-0.162
-477.318	-52.034	0.270	0.125
-476.303	800.000	-0.007	-0.025
-475.289	408.576	0.023	0.049
-474.274	-141.086	0.305	0.031
-473.259	653.669	0.061	-0.156
-472.245	664.655	-0.108	-0.276
-471.230	800.000	-0.025	0.103
-470.216	-136.384	0.187	0.022
-469.201	-29.112	-0.112	-0.064
-468.186	5.708	-0.222	-0.163
-467.172	800.000	0.029	-0.114
-466.157	123.909	-0.135	0.168
-465.143	-79.228	0.158	0.053
-464.128	-77.832	0.120	-0.041
-463.113	39.739	-0.158	-0.141
-462.099	-200.000	-0.007	0.264
-461.084	-25.886	0.134	-0.078
-460.070	93.777	0.105	0.118
-459.055	68.685	-0.217	-0.221
-458.040	-45.913	0.099	-0.049
-457.026	800.000	0.061	0.178
-456.011	50.092	-0.217	-0.203
-454.997	-131.741	0.108	0.014
-453.982	-200.000	0.033	0.317
-452.968	-5.844	0.217	0.148
-451.953	730.980	-0.075	-0.198
-450.938	616.455	-0.110	0.274
-449.924	515.614	0.062	0.143
-448.909	-10.180	-0.077	-0.051
-447.895	286.797	-0.033	-0.059
-446.880	800.000	0.097	0.326
-445.865	-147.379	-0.305	-0.026
-444.851	-70.034	0.250	-0.095
-443.836	-15.049	-0.159	-0.101
-442.822	-200.000	-0.062	0.387
-441.807	-87.588	0.113	0.034
-440.792	-45.820	0.323	0.158
-439.778	169.255	-0.163	0.231
-438.763	-200.000	0.030	0.000
-437.749	-200.000	0.027	-0.289
-436.734	359.186	0.126	0.249
-435.719	-200.000	0.024	0.165
-434.705	298.136	0.045	-0.082
-433.690	195.075	-0.106	0.160
-432.676	150.753	0.187	0.253
-431.661	110.113	-0.059	-0.071
-430.646	-92.853	0.017	0.005
-429.632	-144.007	-0.307	0.029
-428.617	-67.985	0.257	0.100
-427.603	-200.000	0.047	-0.285
-426.588	-45.866	0.177	-0.087
-425.573	-25.796	-0.117	-0.069
-424.559	-64.787	0.296	0.119
-423.544	107.057	-0.164	-0.194
-422.530	-200.000	0.002	0.129
-421.515	324.324	0.163	0.310
-420.500	-107.327	-0.259	0.056
-419.486	-200.000	-0.057	0.255
-418.471	-146.099	0.082	0.007
-417.457	-68.652	-0.258	-0.099
-416.442	800.000	0.067	0.212
-415.428	-19.124	0.245	-0.151
-414.413	419.498	-0.122	0.259
-413.398	30.445	0.144	-0.122
-412.384	230.870	-0.106	-0.172
-411.369	89.616	-0.026	-0.029
-410.355	195.542	-0.099	-0.149
-409.340	73.347	0.134	-0.139
-408.325	350.693	-0.119	-0.234
-407.311	35.234	-0.017	0.015
-406.296	72.884	-0.224	-0.232
-405.282	800.000	0.091	0.300
-404.267	686.648	-0.088	0.229
-403.252	-42.231	-0.249	0.126
-402.238	612.925	-0.051	0.126
-401.223	-200.000	0.010	-0.158
-400.209	-83.535	0.296	0.094
-399.194	-200.000	0.014	0.111
-398.179	529.586	0.205	0.481
-397.165	-14.552	0.343	0.219
-396.150	-77.488	-0.194	0.067
-395.136	-91.304	-0.384	-0.109
-394.121	-97.669	0.082	0.021
-393.106	-200.000	-0.048	0.481
-392.092	-200.000	0.051	0.241
-391.077	86.642	-0.158	0.173
-390.063	-122.619	0.236	-0.038
-389.048	-200.000	-0.019	-0.184
-388.033	800.000	0.085	-0.289
-387.019	265.481	-0.155	0.267
-386.004	-146.420	-0.201	0.017
-384.990	-200.000	0.192	-0.000
-383.975	-59.000	0.072	-0.031
-382.960	25.778	-0.082	0.068
-381.946	-130.905	-0.269	-0.036
-380.931	-200.000	0.000	-0.080
-379.917	-119.233	-0.150	0.026
-378.902	800.000	0.046	0.127
-377.888	-200.000	-0.023	-0.389
-376.873	-100.783	-0.186	0.045
-375.858	-22.285	0.229	-0.138
-374.844	119.876	0.159	-0.195
-373.829	-76.751	0.117	0.041
-372.815	-57.006	-0.387	0.169
-371.800	-84.183	-0.085	-0.027
-370.785	-37.178	0.179	0.095
-369.771	-200.000	-0.009	-0.131
-368.756	-82.029	-0.203	0.066
-367.742	800.000	0.026	-0.078
-366.727	166.248	0.076	-0.107
-365.712	6.667	-0.112	0.083
-364.698	-175.187	-0.184	0.005
-363.683	246.258	-0.142	-0.236
-362.669	119.727	0.143	-0.175
-361.654	800.000	0.053	-0.146
-360.639	157.621	0.067	0.092
-359.625	204.277	0.174	0.266
-358.610	-200.000	0.017	0.161
-357.596	-177.550	0.320	0.008
-356.581	-200.000	-0.050	-0.500
-355.566	197.100	-0.205	-0.309
-354.552	-200.000	0.034	-0.186
-353.537	-142.314	0.164	-0.016
-352.523	-63.142	0.113	0.046
-351.508	-200.000	0.049	0.382
-350.493	-96.363	0.250	0.066
-349.479	-116.082	0.185	-0.034
-348.464	116.954	0.058	0.071
-347.450	45.759	-0.218	-0.199
-346.435	84.245	0.095	0.103
-345.420	-31.605	-0.158	0.088
-344.406	-200.000	0.042	-0.194
-343.391	36.351	-0.275	0.240
-342.377	-200.000	-0.009	0.167
-341.362	-200.000	0.013	-0.232
-340.348	-43.376	0.193	0.097
-339.333	25.936	0.126	0.104
-338.318	-13.227	0.264	0.170
-337.304	-200.000	0.008	0.225
-336.289	-200.000	0.005	-0.363
-335.275	370.878	0.083	-0.166
-334.260	-131.842	-0.352	0.046
-333.245	-200.000	-0.014	-0.243
-332.231	165.704	-0.204	-0.285
-331.216	-126.713	0.202	-0.030
-330.202	-161.337	0.206	-0.011
-329.187	571.825	0.046	0.110
-328.172	168.637	0.072	0.101
-327.158	37.292	0.122	-0.107
-326.143	256.642	-0.148	0.252
-325.129	-200.000	-0.063	-0.431
-324.114	-200.000	-0.109	-0.517
-323.099	79.839	0.099	-0.105
-322.085	155.432	-0.227	0.309
-321.070	-200.000	-0.047	-0.245
-320.056	79.545	0.216	-0.229
-319.041	-200.000	-0.003	0.107
-318.026	494.708	0.075	-0.171
-317.012	148.082	0.092	-0.123
-315.997	-155.703	-0.012	0.001
-314.983	589.100	0.080	0.195
-313.968	-57.254	-0.176	0.076
-312.953	72.768	-0.138	0.142
-311.939	-68.906	0.082	0.031
-310.924	800.000	0.029	-0.116
-309.910	-200.000	0.027	-0.288
-308.895	800.000	-0.099	-0.341
-307.880	82.429	0.158	0.170
-306.866	800.000	-0.096	0.284
-305.851	746.135	-0.022	-0.058
-304.837	390.572	0.165	-0.338
-303.822	5.553	-0.233	0.170
-302.807	529.542	-0.039	0.090
-301.793	-94.920	-0.210	0.056
-300.778	42.076	0.128	0.115
-299.764	-60.247	-0.196	0.083
-298.749	24.408	-0.297	0.243
-297.735	604.475	0.152	-0.373
-296.720	-62.378	-0.224	-0.092
-295.705	-200.000	-0.022	0.276
-294.691	247.707	0.145	0.242
-293.676	-61.569	0.225	0.093
-292.662	800.000	0.062	0.245
-291.647	-96.929	0.262	0.068
-290.632	-200.000	-0.041	-0.196
-289.618	-91.369	0.032	0.009
-288.603	340.845	-0.036	0.069
-287.589	800.000	-0.052	0.162
-286.574	-85.957	-0.156	0.048
-285.559	-24.964	0.186	-0.109
-284.545	13.859	0.318	-0.244
-283.530	393.657	0.047	-0.097
-282.516	800.000	0.042	-0.157
-281.501	21.170	-0.083	-0.067
-280.486	742.784	0.084	-0.222
-279.472	-200.000	-0.012	-0.124
-278.457	-200.000	-0.043	0.226
-277.443	-114.571	-0.111	0.021
-276.428	-110.302	-0.072	0.015
-275.413	-79.797	0.114	-0.038
-274.399	253.489	-0.117	0.197
-273.384	359.731	-0.112	0.221
-272.370	800.000	0.067	0.283
-271.355	638.231	0.060	0.151
-270.340	-66.473	0.205	-0.080
-269.326	-200.000	0.012	-0.307
-268.311	-54.592	-0.508	-0.227
-267.297	-200.000	-0.022	0.199
-266.282	800.000	-0.090	0.252
-265.267	-83.299	-0.229	0.073
-264.253	73.727	0.108	-0.111
-263.238	278.756	0.141	0.248
-262.224	358.207	-0.172	-0.339
-261.209	-135.288	0.227	-0.027
-260.195	-200.000	-0.038	-0.436
-259.180	-106.138	-0.356	-0.079
-258.165	-43.695	0.166	-0.083
-257.151	-30.163	-0.186	-0.104
-256.136	68.534	0.170	0.172
-255.122	-146.247	0.298	-0.026
-254.107	-46.989	-0.113	-0.054
-253.092	614.728	-0.054	0.134
-252.078	-45.265	0.128	0.063
-251.063	-200.000	-0.035	-0.318
-250.049	-92.296	0.278	-0.077
-249.034	56.215	-0.134	-0.128
-248.019	-10.737	0.101	-0.066
-247.005	-174.231	0.161	0.005
-245.990	-200.000	-0.046	-0.524
-244.976	-200.000	-0.002	0.324
-243.961	189.838	-0.296	0.437
-242.946	800.000	-0.035	-0.148
-241.932	80.838	0.084	0.090
-240.917	800.000	0.080	-0.224
-239.903	-139.469	-0.261	-0.028
-238.888	-61.264	0.183	-0.076
-237.873	800.000	0.094	0.295
-236.859	-200.000	-0.057	-0.404
-235.844	-148.088	0.180	-0.015
-234.830	-139.692	0.085	0.009
-233.815	-102.261	-0.264	0.062
-232.800	-200.000	0.011	-0.158
-231.786	-35.657	0.176	0.094
-230.771	-200.000	-0.032	0.151
-229.757	503.982	0.072	0.164
-228.742	-133.280	-0.054	0.007
-227.727	-200.000	0.003	-0.211
-226.713	-80.670	0.173	-0.057
-225.698	-187.129	0.218	-0.003
-224.684	138.173	-0.140	0.181
-223.669	-1.255	-0.131	0.091
-222.655	143.870	-0.039	0.051
-221.640	-185.108	0.117	0.002
-220.625	-61.024	0.182	-0.076
-219.611	295.572	-0.159	0.287
-218.596	-200.000	0.032	-0.147
-217.582	93.802	0.305	0.340
-216.567	-111.921	0.338	0.067
-215.552	99.873	-0.083	-0.095
-214.538	-200.000	0.006	0.096
-213.523	38.724	0.222	0.195
-212.509	-11.194	0.176	-0.114
-211.494	-195.560	0.203	-0.001
-210.479	-71.490	-0.035	0.013
-209.465	800.000	-0.174	-0.544
-208.450	-139.220	0.144	-0.015
-207.436	168.094	0.094	-0.131
-206.421	-54.292	0.221	0.099
-205.406	-43.656	-0.332	-0.165
-204.392	13.471	0.146	0.111
-203.377	-46.507	0.203	0.098
-202.363	39.799	0.206	0.182
-201.348	-88.970	0.249	-0.073
-200.333	163.824	-0.092	-0.127
-199.319	-162.791	-0.410	-0.020
-198.304	-200.000	-0.003	-0.292
-197.290	-94.827	-0.126	0.034
-196.275	-139.893	-0.047	0.005
-195.260	715.881	0.095	0.248
-194.246	99.331	-0.074	-0.084
-193.231	69.410	0.105	0.107
-192.217	157.525	0.140	0.191
-191.202	-200.000	0.005	-0.101
-190.187	68.191	-0.096	-0.097
-189.173	-28.332	-0.288	-0.163
-188.158	11.839	-0.123	0.093
-187.144	56.518	0.135	-0.129
-186.129	-200.000	0.181	0.000
-185.114	-200.000	-0.006	-0.189
-184.100	-133.831	0.075	-0.009
-183.085	220.563	-0.067	0.105
-182.071	117.703	0.143	0.173
-181.056	-149.437	-0.137	0.011
-180.042	-200.000	-0.011	-0.367
-179.027	-200.000	-0.009	0.211
-178.012	-35.890	-0.213	0.113
-176.998	519.551	-0.091	0.210
-175.983	-2.898	-0.297	-0.204
-174.969	-70.800	-0.140	-0.052
-173.954	265.737	0.185	0.317
-172.939	-3.628	-0.057	-0.039
-171.925	800.000	0.023	-0.066
-170.910	-109.865	-0.197	0.041
-169.896	-200.000	0.030	0.187
-168.881	60.633	0.097	0.094
-167.866	-200.000	-0.004	-0.280
-166.852	-142.588	0.372	0.036
-165.837	148.088	0.171	0.227
-164.823	-96.325	0.176	0.046
-163.808	800.000	0.110	0.320
-162.793	-46.467	-0.261	0.126
-161.779	-200.000	-0.013	0.119
-160.764	-200.000	0.001	-0.143
-159.750	-16.275	0.288	0.180
-158.735	5.458	-0.248	0.180
-157.720	10.984	-0.124	0.093
-156.706	800.000	0.078	0.271
-155.691	-6.331	-0.233	0.156
-154.677	102.995	-0.155	-0.178
-153.662	109.437	0.143	-0.169
-152.647	152.215	-0.135	-0.181
-151.633	800.000	-0.106	0.401
-150.618	0.125	-0.062	-0.044
-149.604	114.500	0.263	-0.315
-148.589	486.857	0.047	0.105
-147.574	-200.000	0.034	0.410
-146.560	-200.000	-0.016	-0.125
-145.545	800.000	0.037	-0.132
-144.531	800.000	0.036	0.129
-143.516	-132.383	0.171	0.022
-142.502	-129.687	0.322	0.044
-141.487	-49.711	-0.318	0.148
-140.472	-8.673	-0.201	-0.132
-139.458	74.366	-0.305	-0.315
-138.443	-200.000	-0.005	-0.379
-137.429	774.522	-0.078	-0.210
-136.414	800.000	0.122	0.356
-135.399	704.906	-0.029	-0.074
-134.385	335.675	-0.146	0.278
-133.370	432.957	-0.180	0.384
-132.356	-101.168	-0.166	-0.040
-131.341	-46.467	0.303	-0.146
-130.326	800.000	0.046	0.173
-129.312	283.405	-0.118	-0.208
-128.297	21.981	0.261	0.209
-127.283	-10.289	-0.460	0.300
-126.268	-200.000	0.044	0.194
-125.253	-200.000	0.017	-0.168
-124.239	-53.509	-0.213	-0.096
-123.224	196.012	-0.112	-0.167
-122.210	22.368	0.314	0.252
