DTS Sentinel unit serial number:	SN413079Multiplexer serial number:	ORYXHardware model number:	OX4-SRSoftware version number:	ORYX F/W v4.00 Oryx Data Collector v3.7.2.0data status	okinstallation	princeton_trtdifferential loss correction	single-endedforward channel	channel 1reverse channel	N/Adate	2019/09/18time	19:26:35forward acquisition time	60.00reverse acquisition time	0.00gamma	496.2192k internal	0.2322k external	0.2322temperature offset calibration	1.0027default loss term (dB/km)	0.3790temperature slope calibration	1.0000multiplexer offset coefficient	1.0000multiplexer slope coefficient	1.0000fibre end	0.00T internal ref (°C)	33.27T ext. ref 1 (°C)	1.09T ext. ref 2 (°C)	22.77length (m)	temperature (°C)	Stokes	anti-Stokes-747.200	335.252	0.082	-0.161
-746.185	-3.172	0.062	-0.044
-745.171	64.117	0.101	0.102
-744.156	-109.689	-0.218	-0.046
-743.142	800.000	-0.100	0.314
-742.127	-200.000	-0.026	0.271
-741.112	-200.000	0.031	-0.184
-740.098	-146.133	-0.094	-0.008
-739.083	-200.000	0.026	-0.179
-738.069	-154.386	-0.432	-0.029
-737.054	463.466	0.049	0.110
-736.039	-45.536	-0.361	0.180
-735.025	-166.916	0.177	0.007
-734.010	111.234	-0.044	-0.053
-732.996	-166.155	-0.155	-0.007
-731.981	-175.977	-0.158	0.004
-730.966	-200.000	0.049	0.438
-729.952	45.316	-0.205	-0.191
-728.937	-200.000	-0.007	-0.347
-727.923	-81.655	-0.079	-0.026
-726.908	164.289	-0.021	-0.030
-725.894	-133.351	-0.301	-0.038
-724.879	-46.534	-0.269	-0.133
-723.864	-200.000	-0.013	-0.319
-722.850	-70.821	-0.188	-0.072
-721.835	324.288	-0.095	-0.182
-720.821	4.738	-0.212	0.157
-719.806	179.665	-0.180	0.266
-718.791	-28.107	-0.345	0.201
-717.777	-98.283	0.223	0.058
-716.762	-12.548	-0.114	-0.075
-715.748	480.036	-0.035	-0.081
-714.733	800.000	-0.128	0.448
-713.718	-108.213	0.203	-0.044
-712.704	-98.054	-0.146	-0.038
-711.689	-200.000	-0.058	-0.321
-710.675	410.412	0.036	-0.078
-709.660	2.978	-0.063	0.046
-708.645	9.101	0.224	0.171
-707.631	-42.831	-0.188	0.096
-706.616	-73.529	0.229	0.084
-705.602	-17.028	-0.183	-0.116
-704.587	-200.000	0.004	-0.068
-703.572	-86.047	-0.250	0.078
-702.558	-43.730	0.236	-0.120
-701.543	-200.000	0.051	-0.272
-700.529	-120.870	0.181	0.031
-699.514	11.592	0.179	-0.138
-698.499	-81.051	0.241	0.080
-697.485	-77.617	0.115	-0.040
-696.470	-64.170	-0.274	0.113
-695.456	78.925	0.090	0.097
-694.441	-83.251	0.303	0.098
-693.426	-105.647	-0.351	-0.080
-692.412	-200.000	0.042	-0.244
-691.397	-11.879	0.339	-0.224
-690.383	-47.482	-0.154	0.075
-689.368	-73.132	0.198	-0.073
-688.354	10.672	-0.195	0.150
-687.339	-101.071	-0.263	0.065
-686.324	-4.767	-0.126	-0.087
-685.310	104.328	-0.137	-0.163
-684.295	-158.864	-0.032	-0.002
-683.281	800.000	0.088	-0.279
-682.266	26.143	-0.271	-0.228
-681.251	-158.180	-0.195	0.012
-680.237	-91.873	-0.097	-0.028
-679.222	-200.000	-0.022	-0.151
-678.208	-33.600	0.198	-0.110
-677.193	-200.000	-0.014	0.290
-676.178	27.860	0.149	-0.127
-675.164	-67.494	-0.169	-0.067
-674.149	-200.000	0.001	0.228
-673.135	51.825	0.047	0.045
-672.120	-200.000	0.011	-0.096
-671.105	-145.938	0.162	-0.014
-670.091	-42.895	-0.184	-0.094
-669.076	-148.223	-0.058	-0.005
-668.062	77.904	0.275	-0.295
-667.047	154.165	0.067	0.092
-666.032	267.279	-0.058	-0.103
-665.018	235.955	-0.040	0.066
-664.003	112.441	-0.207	-0.252
-662.989	191.058	-0.157	-0.238
-661.974	-200.000	-0.007	-0.102
-660.959	-130.091	0.094	0.013
-659.945	352.396	-0.131	-0.262
-658.930	469.959	0.095	0.216
-657.916	167.401	-0.238	0.341
-656.901	-71.926	-0.181	0.068
-655.886	-14.359	-0.178	0.116
-654.872	800.000	-0.078	-0.268
-653.857	181.622	0.123	0.182
-652.843	147.425	-0.046	-0.063
-651.828	-200.000	0.015	0.135
-650.814	-127.836	0.429	-0.062
-649.799	-180.628	-0.119	-0.002
-648.784	-5.548	0.185	0.128
-647.770	-200.000	0.014	0.318
-646.755	-9.790	0.106	-0.071
-645.741	304.774	0.051	0.095
-644.726	407.783	0.143	-0.303
-643.711	372.627	-0.153	0.314
-642.697	-49.210	-0.160	0.077
-641.682	-200.000	0.002	0.046
-640.668	-139.660	0.275	-0.029
-639.653	-35.943	-0.275	-0.150
-638.638	-111.630	-0.216	0.044
-637.624	22.162	0.144	-0.118
-636.609	-68.469	-0.254	-0.099
-635.595	-88.157	-0.238	-0.072
-634.580	800.000	0.049	0.156
-633.565	79.881	-0.038	-0.042
-632.551	186.116	0.282	0.422
-631.536	454.062	-0.086	0.191
-630.522	-200.000	0.013	-0.134
-629.507	-170.779	-0.045	0.002
-628.492	226.577	-0.035	0.058
-627.478	48.833	-0.353	-0.333
-626.463	469.765	-0.030	0.068
-625.449	199.788	-0.326	-0.502
-624.434	207.810	-0.122	0.191
-623.419	97.988	0.160	-0.185
-622.405	5.498	0.303	-0.225
-621.390	-51.496	0.344	-0.162
-620.376	24.814	-0.031	-0.026
-619.361	-200.000	-0.056	-0.427
-618.346	-32.742	-0.046	0.026
-617.332	-146.253	-0.435	-0.038
-616.317	-109.691	-0.172	-0.036
-615.303	17.113	0.232	-0.185
-614.288	176.878	-0.149	0.218
-613.273	360.253	0.113	-0.227
-612.259	-58.255	0.096	0.042
-611.244	-200.000	0.005	-0.032
-610.230	-26.828	-0.407	-0.239
-609.215	-200.000	-0.060	-0.265
-608.201	125.756	0.115	-0.146
-607.186	-45.485	-0.054	-0.027
-606.171	267.055	0.054	0.095
-605.157	76.224	-0.032	0.034
-604.142	-200.000	0.031	-0.505
-603.128	-91.776	0.242	0.069
-602.113	482.268	0.095	-0.218
-601.098	131.151	0.086	-0.111
-600.084	-84.531	0.131	-0.042
-599.069	-29.256	0.336	-0.193
-598.055	6.124	0.176	-0.131
-597.040	800.000	0.070	-0.226
-596.025	-149.143	0.069	0.006
-595.011	-60.985	-0.223	0.095
-593.996	-200.000	0.001	-0.005
-592.982	-111.742	-0.212	-0.043
-591.967	333.989	-0.124	-0.240
-590.952	-109.776	-0.534	-0.113
-589.938	-143.271	-0.269	-0.026
-588.923	176.708	0.040	-0.059
-587.909	211.121	0.114	0.180
-586.894	207.937	-0.102	0.160
-585.879	318.619	-0.087	-0.165
-584.865	800.000	-0.109	-0.460
-583.850	66.708	-0.236	-0.241
-582.836	80.277	-0.214	-0.232
-581.821	345.718	-0.149	-0.293
-580.806	-200.000	-0.028	-0.236
-579.792	-58.577	-0.275	0.120
-578.777	-200.000	0.035	-0.157
-577.763	800.000	0.120	-0.399
-576.748	-85.676	-0.245	0.076
-575.733	-184.308	-0.347	0.006
-574.719	49.974	0.194	-0.184
-573.704	48.964	0.144	-0.136
-572.690	11.467	0.136	0.105
-571.675	-36.672	-0.116	-0.063
-570.661	-129.421	0.363	0.051
-569.646	-129.871	-0.314	-0.043
-568.631	-90.238	0.238	0.069
-567.617	71.439	-0.147	-0.153
-566.602	183.999	-0.308	-0.457
-565.588	-124.360	0.059	0.009
-564.573	24.493	0.269	-0.223
-563.558	79.725	-0.150	-0.162
-562.544	-200.000	0.041	-0.279
-561.529	228.547	0.166	0.272
-560.515	-50.836	-0.244	-0.115
-559.500	269.070	-0.032	0.056
-558.485	-63.823	-0.504	0.207
-557.471	430.664	0.124	0.268
-556.456	66.644	0.098	-0.100
-555.442	63.981	0.107	0.108
-554.427	-142.713	0.297	-0.029
-553.412	-138.180	0.253	0.028
-552.398	47.874	-0.318	0.298
-551.383	340.230	0.019	-0.038
-550.369	800.000	0.042	0.168
-549.354	-99.430	-0.081	-0.021
-548.339	800.000	0.036	-0.101
-547.325	-14.775	-0.101	0.065
-546.310	341.262	0.033	0.064
-545.296	44.929	0.204	-0.189
-544.281	-16.639	0.106	-0.068
-543.266	-10.144	0.166	0.110
-542.252	1.104	0.203	-0.146
-541.237	709.961	0.038	0.099
-540.223	-77.202	0.245	-0.086
-539.208	378.218	-0.109	-0.224
-538.193	-74.846	0.194	0.070
-537.179	17.634	-0.194	-0.155
-536.164	-200.000	0.064	-0.354
-535.150	140.465	0.115	0.152
-534.135	116.372	0.209	0.257
-533.121	8.494	0.185	-0.139
-532.106	-46.715	0.159	-0.078
-531.091	183.826	-0.029	0.043
-530.077	-200.000	-0.065	0.321
-529.062	-124.616	-0.170	0.026
-528.048	-37.715	-0.032	0.017
-527.033	-142.388	-0.067	-0.007
-526.018	197.083	0.094	0.143
-525.004	85.963	-0.181	0.199
-523.989	-16.391	-0.358	0.227
-522.975	47.943	0.093	-0.087
-521.960	117.055	-0.102	0.126
-520.945	-163.139	-0.198	-0.010
-519.931	-70.584	-0.225	0.085
-518.916	-200.000	0.016	0.316
-517.902	140.038	-0.189	0.250
-516.887	-200.000	0.009	0.090
-515.872	-147.855	0.022	-0.002
-514.858	-16.430	-0.259	-0.164
-513.843	-159.169	0.267	-0.015
-512.829	-95.770	-0.110	-0.029
-511.814	321.408	-0.171	-0.326
-510.799	-11.582	-0.229	-0.151
-509.785	-35.196	0.263	0.144
-508.770	800.000	0.049	-0.173
-507.756	35.897	-0.225	-0.198
-506.741	-83.821	0.094	-0.030
-505.726	-70.810	-0.330	0.125
-504.712	98.526	-0.195	-0.225
-503.697	469.911	0.057	0.127
-502.683	144.962	0.044	0.059
-501.668	-119.925	0.117	-0.020
-500.653	-13.031	-0.309	-0.201
-499.639	-83.600	0.171	-0.055
-498.624	-93.617	-0.177	0.049
-497.610	-200.000	-0.005	-0.155
-496.595	-106.253	0.269	0.060
-495.581	-91.954	0.089	0.025
-494.566	342.168	0.109	0.213
-493.551	379.063	-0.050	-0.102
-492.537	-200.000	-0.045	-0.206
-491.522	-76.724	-0.306	0.107
-490.508	-161.226	0.510	0.027
-489.493	12.577	0.080	0.062
-488.478	39.598	0.118	-0.106
-487.464	-200.000	-0.375	-0.000
-486.449	-158.371	0.252	0.015
-485.435	-143.636	0.135	-0.013
-484.420	-95.202	-0.060	-0.016
-483.405	800.000	-0.005	0.021
-482.391	-94.157	-0.066	-0.018
-481.376	-107.299	0.412	0.091
-480.362	-200.000	-0.040	0.182
-479.347	134.914	-0.068	-0.088
-478.332	523.766	-0.037	-0.086
-477.318	-200.000	-0.036	-0.243
-476.303	150.511	-0.091	0.124
-475.289	6.834	0.148	-0.110
-474.274	-27.521	-0.137	0.080
-473.259	49.690	0.226	-0.213
-472.245	-200.000	0.004	-0.216
-471.230	-94.397	0.104	-0.028
-470.216	-200.000	0.058	0.301
-469.201	625.817	0.067	0.169
-468.186	-108.816	0.092	-0.020
-467.172	-151.282	0.088	0.007
-466.157	-91.894	0.229	0.065
-465.143	800.000	0.068	0.260
-464.128	-200.000	0.072	0.313
-463.113	-85.416	0.352	0.110
-462.099	427.975	0.158	0.341
-461.084	-39.731	0.129	-0.067
-460.070	494.140	-0.129	0.296
-459.055	130.554	0.185	-0.237
-458.040	23.752	0.396	0.326
-457.026	-101.851	0.250	0.060
-456.011	495.225	0.098	-0.224
-454.997	125.907	-0.066	0.083
-453.982	800.000	0.110	0.366
-452.968	-200.000	0.074	0.354
-451.953	-200.000	0.009	-0.111
-450.938	-82.719	0.231	-0.075
-449.924	-133.505	0.059	0.007
-448.909	232.540	0.229	0.376
-447.895	490.482	0.156	-0.356
-446.880	57.344	0.200	0.194
-445.865	800.000	0.037	0.155
-444.851	506.845	0.127	-0.293
-443.836	126.808	-0.205	0.260
-442.822	73.784	-0.127	-0.133
-441.807	-64.647	0.104	-0.042
-440.792	223.782	0.080	0.129
-439.778	-8.624	0.135	0.090
-438.763	-150.047	-0.246	0.019
-437.749	208.544	0.085	0.133
-436.734	2.432	-0.145	0.104
-435.719	-16.771	0.191	0.121
-434.705	-200.000	0.009	-0.048
-433.690	76.217	-0.089	-0.094
-432.676	-200.000	0.036	0.319
-431.661	659.469	0.065	0.168
-430.646	-200.000	0.014	0.143
-429.632	2.164	-0.189	0.137
-428.617	420.244	-0.043	-0.093
-427.603	-40.269	-0.185	0.096
-426.588	800.000	0.092	0.332
-425.573	-200.000	0.022	-0.098
-424.559	-35.709	-0.155	0.084
-423.544	-59.406	0.276	0.118
-422.530	-67.949	0.334	-0.130
-421.515	534.980	-0.087	0.205
-420.500	-112.372	0.155	0.031
-419.486	-200.000	0.055	-0.279
-418.471	800.000	0.047	0.196
-417.457	-68.587	0.388	0.150
-416.442	-88.913	-0.121	0.036
-415.428	800.000	0.059	0.247
-414.413	-200.000	0.009	-0.298
-413.398	15.237	-0.182	-0.143
-412.384	-37.447	0.167	0.089
-411.369	-92.396	0.218	0.061
-410.355	6.330	0.172	0.128
-409.340	-200.000	0.054	-0.243
-408.325	-168.713	0.132	-0.005
-407.311	562.886	0.061	-0.146
-406.296	-200.000	-0.016	0.130
-405.282	79.499	-0.156	-0.167
-404.267	-106.705	0.118	0.026
-403.252	800.000	-0.036	-0.115
-402.238	-200.000	-0.070	-0.398
-401.223	-118.865	0.152	-0.027
-400.209	78.464	0.245	0.261
-399.194	328.926	-0.097	0.186
-398.179	-35.105	0.118	0.064
-397.165	-200.000	0.000	0.052
-396.150	-200.000	-0.066	0.312
-395.136	-45.853	-0.246	-0.121
-394.121	16.119	0.138	0.109
-393.106	-100.763	-0.046	-0.011
-392.092	-200.000	0.007	-0.129
-391.077	5.178	-0.122	-0.090
-390.063	-200.000	0.019	0.254
-389.048	-109.191	0.057	0.012
-388.033	-111.394	-0.117	-0.024
-387.019	-21.338	0.278	0.169
-386.004	338.022	-0.084	0.162
-384.990	348.425	0.136	-0.268
-383.975	791.428	-0.099	-0.271
-382.960	-82.086	-0.270	-0.088
-381.946	-124.468	0.067	0.010
-380.931	279.519	0.148	0.262
-379.917	87.212	-0.182	-0.200
-378.902	-200.000	-0.016	-0.125
-377.888	9.909	-0.080	0.060
-376.873	-29.893	-0.191	-0.108
-375.858	196.702	0.025	0.038
-374.844	-119.743	0.144	0.025
-373.829	-200.000	-0.028	0.367
-372.815	385.250	-0.078	0.159
-371.800	800.000	0.079	-0.260
-370.785	-109.946	0.257	0.054
-369.771	-9.664	-0.222	-0.147
-368.756	-115.528	-0.165	0.031
-367.742	496.353	-0.176	0.402
-366.727	-27.582	0.185	0.107
-365.712	-153.887	0.126	-0.009
-364.698	-200.000	-0.054	-0.262
-363.683	800.000	-0.055	0.175
-362.669	18.592	0.153	-0.122
-361.654	-5.904	-0.209	-0.142
-360.639	42.640	-0.047	-0.043
-359.625	295.563	-0.199	0.363
-358.610	800.000	0.057	-0.232
-357.596	-72.073	-0.334	0.123
-356.581	287.181	-0.107	-0.192
-355.566	117.461	-0.162	-0.198
-354.552	-75.249	-0.047	-0.017
-353.537	-7.177	-0.190	0.128
-352.523	-8.369	-0.120	0.080
-351.508	31.798	0.190	-0.163
-350.493	241.445	-0.084	0.140
-349.479	172.119	-0.197	0.282
-348.464	288.693	-0.124	0.223
-347.450	22.135	-0.305	0.248
-346.435	137.649	0.190	0.248
-345.420	-200.000	-0.040	0.400
-344.406	-69.277	0.368	-0.141
-343.391	800.000	-0.141	0.509
-342.377	-200.000	0.028	-0.197
-341.362	-79.634	0.226	-0.076
-340.348	74.152	-0.105	0.110
-339.333	800.000	-0.028	0.111
-338.318	-200.000	-0.009	-0.216
-337.304	-32.813	0.302	-0.167
-336.289	-81.689	0.034	0.011
-335.275	-16.966	0.148	0.093
-334.260	29.840	-0.205	-0.173
-333.245	800.000	0.039	-0.159
-332.231	118.856	-0.161	-0.197
-331.216	-17.071	-0.132	-0.083
-330.202	93.049	0.241	0.271
-329.187	-200.000	-0.019	-0.190
-328.172	-13.746	0.196	-0.126
-327.158	-115.495	-0.324	-0.061
-326.143	409.559	-0.038	-0.079
-325.129	21.226	0.088	-0.071
-324.114	194.909	0.048	0.073
-323.099	-49.483	0.088	0.042
-322.085	113.499	-0.210	0.254
-321.070	230.354	0.112	0.182
-320.056	-19.400	-0.243	0.150
-319.041	-92.176	0.109	-0.031
-318.026	-200.000	0.066	-0.331
-317.012	-200.000	-0.023	-0.123
-315.997	800.000	0.098	0.296
-314.983	86.179	-0.123	0.134
-313.968	190.216	0.104	-0.155
-312.953	-33.531	-0.287	-0.158
-311.939	-12.959	0.103	0.067
-310.924	-200.000	-0.033	-0.234
-309.910	-130.780	0.256	0.034
-308.895	-97.341	0.159	0.041
-307.880	-200.000	-0.036	0.243
-306.866	-118.136	0.224	-0.040
-305.851	-146.639	-0.289	0.025
-304.837	451.052	0.105	-0.230
-303.822	800.000	-0.084	-0.350
-302.807	-71.847	-0.031	0.011
-301.793	132.652	0.150	0.192
-300.778	-62.466	0.271	0.112
-299.764	-188.779	-0.079	-0.001
-298.749	-100.956	-0.537	-0.131
-297.735	2.561	-0.306	0.220
-296.720	360.311	0.152	0.302
-295.705	503.535	-0.018	-0.041
-294.691	433.732	-0.315	-0.678
-293.676	-18.885	0.305	-0.189
-292.662	213.373	-0.268	0.420
-291.647	293.426	0.163	0.294
-290.632	799.070	-0.099	0.272
-289.618	-129.706	-0.394	-0.054
-288.603	185.836	0.032	-0.047
-287.589	-79.543	0.143	0.048
-286.574	48.770	-0.031	0.028
-285.559	502.995	0.085	-0.195
-284.545	179.528	0.131	-0.191
-283.530	-86.720	0.128	-0.039
-282.516	87.462	-0.217	0.238
-281.501	335.745	0.048	0.093
-280.486	-200.000	-0.017	0.259
-279.472	800.000	-0.062	0.213
-278.457	-50.202	-0.213	0.100
-277.443	-200.000	0.066	0.347
-276.428	45.168	0.178	-0.163
-275.413	98.718	-0.110	0.126
-274.399	-143.184	-0.466	-0.044
-273.384	-59.582	0.061	-0.026
-272.370	-200.000	-0.016	0.111
-271.355	-184.323	0.232	-0.004
-270.340	800.000	0.062	-0.251
-269.326	-95.703	-0.178	0.047
-268.311	14.043	0.200	0.154
-267.297	-26.444	0.167	0.097
-266.282	-57.282	-0.338	0.147
-265.267	145.299	0.139	0.184
-264.253	800.000	0.067	0.202
-263.238	-153.970	0.388	0.026
-262.224	236.672	0.127	-0.209
-261.209	186.847	0.127	0.188
-260.195	800.000	-0.008	0.031
-259.180	-71.994	-0.131	0.048
-258.165	-200.000	0.001	0.074
-257.151	-200.000	-0.038	-0.204
-256.136	800.000	0.034	-0.120
-255.122	19.313	-0.234	-0.186
-254.107	-163.206	0.354	0.017
-253.092	-200.000	-0.003	0.053
-252.078	-151.704	-0.201	-0.015
-251.063	4.943	0.122	-0.089
-250.049	433.433	0.212	-0.457
-249.034	-200.000	0.027	-0.486
-248.019	-55.432	-0.181	-0.080
-247.005	222.339	-0.031	0.049
-245.990	800.000	0.064	-0.236
-244.976	21.804	-0.139	0.112
-243.961	39.899	0.224	-0.199
-242.946	-140.318	-0.306	0.032
-241.932	-141.875	-0.188	-0.019
-240.917	515.990	0.123	-0.285
-239.903	-200.000	-0.017	-0.341
-238.888	-51.545	-0.161	-0.074
-237.873	-9.072	-0.216	0.143
-236.859	18.700	-0.104	-0.083
-235.844	243.733	0.040	0.066
-234.830	-112.736	-0.148	-0.029
-233.815	-149.546	-0.213	0.017
-232.800	48.189	-0.100	0.093
-231.786	237.963	-0.078	0.129
-230.771	-17.326	-0.261	0.163
-229.757	-200.000	0.037	0.342
-228.742	61.934	-0.155	-0.152
-227.727	-200.000	-0.057	0.286
-226.713	-200.000	0.086	-0.000
-225.698	-200.000	0.000	-0.067
-224.684	676.052	-0.085	-0.219
-223.669	-112.322	0.127	-0.025
-222.655	-50.827	-0.527	-0.245
-221.640	-200.000	0.348	0.002
-220.625	-200.000	0.027	0.196
-219.611	-89.207	-0.211	-0.062
-218.596	171.089	0.093	0.132
-217.582	226.942	-0.142	0.227
-216.567	31.454	0.076	0.065
-215.552	-139.242	0.235	0.025
-214.538	-122.602	0.290	-0.047
-213.523	-127.935	-0.222	0.032
-212.509	244.999	-0.046	-0.076
-211.494	-161.070	-0.248	-0.013
-210.479	-200.000	0.005	0.213
-209.465	-14.389	0.244	0.155
-208.450	-200.000	0.053	0.431
-207.436	-54.688	0.402	0.180
-206.421	-200.000	-0.037	0.233
-205.406	-3.142	0.203	-0.140
-204.392	-200.000	0.020	0.272
-203.377	-18.716	0.351	0.216
-202.363	-3.115	0.062	-0.043
-201.348	180.607	0.037	-0.053
-200.333	-72.178	0.150	-0.055
-199.319	34.793	0.113	-0.098
-198.304	144.868	-0.052	0.069
-197.290	4.610	0.424	0.308
-196.275	65.578	0.255	0.255
-195.260	-200.000	0.044	-0.287
-194.246	-200.000	-0.038	0.393
-193.231	249.961	-0.198	0.332
-192.217	185.227	0.190	-0.279
-191.202	197.096	-0.229	-0.345
-190.187	-57.856	0.072	0.031
-189.173	368.496	-0.211	0.421
-188.158	28.454	0.081	-0.068
-187.144	-200.000	0.008	0.077
-186.129	-46.001	-0.394	0.192
-185.114	-200.000	-0.008	-0.073
-184.100	-200.000	0.028	-0.328
-183.085	34.829	0.238	-0.205
-182.071	-200.000	0.036	-0.579
-181.056	-165.216	-0.264	0.012
-180.042	-36.669	-0.205	0.109
-179.027	-89.980	-0.216	0.062
-178.012	-127.716	0.090	-0.013
-176.998	-155.938	-0.110	0.007
-175.983	8.851	-0.227	-0.169
-174.969	800.000	-0.049	0.140
-173.954	-200.000	-0.041	-0.401
-172.939	-200.000	0.031	-0.269
-171.925	800.000	-0.016	0.051
-170.910	668.725	0.078	-0.200
-169.896	800.000	-0.080	-0.242
-168.881	-200.000	-0.010	0.277
-167.866	69.969	0.196	0.199
-166.852	292.224	0.188	-0.338
-165.837	-145.368	-0.259	-0.023
-164.823	200.746	-0.091	0.139
-163.808	800.000	-0.026	-0.073
-162.793	-200.000	0.051	0.297
-161.779	-49.912	-0.168	0.079
-160.764	-94.643	0.158	0.042
-159.750	-44.267	-0.213	-0.105
-158.735	103.396	0.095	-0.110
-157.720	-162.899	-0.234	0.011
-156.706	-185.425	-0.191	0.003
-155.691	-86.635	0.375	0.113
-154.677	96.571	0.289	-0.327
-153.662	229.532	0.013	0.021
-152.647	-200.000	-0.021	-0.101
-151.633	-137.616	0.152	0.017
-150.618	-120.637	-0.420	0.070
-149.604	-36.339	-0.442	-0.235
-148.589	5.038	-0.091	-0.066
-147.574	388.686	0.184	-0.376
-146.560	800.000	-0.129	-0.404
-145.545	-120.320	0.249	-0.042
-144.531	800.000	0.063	-0.186
-143.516	-66.969	0.152	0.059
-142.502	108.375	-0.128	0.151
-141.487	-148.290	-0.414	0.034
-140.472	-155.825	0.226	-0.014
-139.458	-116.949	0.266	0.048
-138.443	-108.004	-0.328	0.070
-137.429	0.782	0.071	-0.050
-136.414	-130.278	0.269	-0.036
-135.399	-200.000	-0.017	0.344
-134.385	-200.000	-0.011	0.118
-133.370	114.658	0.123	-0.147
-132.356	157.000	0.030	-0.041
-131.341	469.926	-0.014	-0.031
-130.326	224.406	0.135	-0.216
-129.312	13.354	0.092	-0.070
-128.297	800.000	0.095	0.295
-127.283	-29.248	-0.116	0.066
-126.268	-200.000	-0.003	0.142
-125.253	-117.199	-0.399	0.072
-124.239	-137.732	0.163	-0.018
-123.224	7.544	-0.130	0.096
-122.210	173.418	-0.150	0.213
-121.195	-78.433	0.196	-0.066
