DTS Sentinel unit serial number:	SN413079Multiplexer serial number:	ORYXHardware model number:	OX4-SRSoftware version number:	ORYX F/W v4.00 Oryx Data Collector v3.7.2.0data status	okinstallation	princeton_trtdifferential loss correction	single-endedforward channel	channel 1reverse channel	N/Adate	2019/09/11time	22:12:11forward acquisition time	60.00reverse acquisition time	0.00gamma	496.2192k internal	0.2313k external	0.2313temperature offset calibration	1.0054default loss term (dB/km)	0.3790temperature slope calibration	1.0000multiplexer offset coefficient	1.0000multiplexer slope coefficient	1.0000fibre end	0.00T internal ref (°C)	35.36T ext. ref 1 (°C)	1.74T ext. ref 2 (°C)	29.82length (m)	temperature (°C)	Stokes	anti-Stokes-747.200	135.545	0.131	0.173
-746.185	-19.711	-0.326	0.204
-745.171	-200.000	0.015	0.122
-744.156	92.700	-0.290	0.333
-743.142	23.617	0.216	0.180
-742.127	596.436	-0.054	0.135
-741.112	-7.601	-0.245	-0.168
-740.098	-178.104	0.119	0.003
-739.083	-200.000	-0.018	-0.153
-738.069	-200.000	0.022	0.148
-737.054	-96.163	-0.321	-0.086
-736.039	-84.559	-0.270	0.086
-735.025	-97.788	-0.306	0.080
-734.010	-200.000	-0.046	-0.257
-732.996	364.513	-0.096	-0.196
-731.981	92.768	-0.251	0.287
-730.966	-65.442	0.325	-0.133
-729.952	-200.000	-0.015	-0.304
-728.937	503.361	-0.072	0.169
-727.923	-91.358	-0.339	0.098
-726.908	26.985	-0.115	0.098
-725.894	-146.119	-0.410	-0.037
-724.879	131.337	0.118	0.154
-723.864	148.716	-0.151	0.207
-722.850	-12.431	0.226	0.150
-721.835	-76.443	-0.255	0.091
-720.821	800.000	-0.061	-0.209
-719.806	-200.000	-0.462	-0.000
-718.791	-9.145	-0.227	0.154
-717.777	-77.406	-0.244	-0.086
-716.762	-125.891	-0.098	-0.015
-715.748	140.438	-0.276	-0.369
-714.733	-44.805	-0.417	-0.211
-713.718	800.000	0.121	-0.358
-712.704	-57.616	0.246	-0.109
-711.689	85.329	-0.237	-0.264
-710.675	47.974	-0.187	-0.177
-709.660	70.943	-0.187	0.197
-708.645	-98.692	-0.264	0.068
-707.631	-22.772	-0.203	-0.124
-706.616	-97.272	0.191	-0.050
-705.602	-55.222	-0.112	-0.051
-704.587	127.012	0.220	-0.283
-703.572	-36.169	-0.184	-0.101
-702.558	-169.129	0.442	-0.017
-701.543	161.577	-0.060	0.085
-700.529	-77.769	-0.469	0.164
-699.514	-157.080	-0.053	-0.003
-698.499	800.000	0.020	-0.084
-697.485	-200.000	-0.045	-0.465
-696.470	48.340	0.117	0.111
-695.456	180.470	-0.161	0.240
-694.441	-157.229	-0.211	-0.013
-693.426	-18.737	0.115	0.072
-692.412	-176.931	-0.122	0.003
-691.397	366.433	-0.152	0.310
-690.383	96.653	0.257	0.298
-689.368	-200.000	-0.024	-0.307
-688.354	395.724	0.180	0.381
-687.339	-95.706	-0.093	0.025
-686.324	-130.075	0.360	-0.050
-685.310	-117.510	0.221	-0.040
-684.295	-90.703	-0.248	0.072
-683.281	255.387	-0.061	-0.105
-682.266	-77.070	-0.159	-0.056
-681.251	-134.979	-0.315	0.039
-680.237	-57.271	-0.255	-0.113
-679.222	150.859	0.183	-0.252
-678.208	-101.524	-0.011	-0.003
-677.193	800.000	0.074	0.231
-676.178	227.723	-0.161	-0.265
-675.164	119.262	0.177	-0.222
-674.149	-128.731	-0.093	0.013
-673.135	-200.000	-0.007	0.072
-672.120	-96.466	0.351	0.094
-671.105	-5.855	0.379	-0.262
-670.091	13.157	0.161	0.126
-669.076	-86.463	-0.046	-0.014
-668.062	150.026	-0.206	-0.282
-667.047	17.633	0.192	0.155
-666.032	800.000	0.037	-0.150
-665.018	48.321	-0.182	0.173
-664.003	800.000	0.089	-0.347
-662.989	-200.000	0.052	0.288
-661.974	-200.000	-0.005	-0.102
-660.959	800.000	0.076	-0.323
-659.945	-10.548	-0.298	0.199
-658.930	-200.000	-0.042	-0.234
-657.916	51.698	0.050	0.048
-656.901	111.658	-0.179	0.219
-655.886	-65.612	0.066	0.027
-654.872	-120.170	-0.238	-0.041
-653.857	211.316	0.037	0.059
-652.843	-200.000	0.027	-0.212
-651.828	100.025	0.022	-0.026
-650.814	274.801	-0.146	-0.261
-649.799	-112.632	0.187	-0.038
-648.784	-159.537	-0.209	0.012
-647.770	244.962	-0.212	-0.361
-646.755	136.442	-0.022	0.029
-645.741	74.035	0.128	-0.135
-644.726	-200.000	-0.005	-0.052
-643.711	-159.516	-0.024	0.001
-642.697	-15.228	-0.101	-0.065
-641.682	282.029	0.090	-0.163
-640.668	-122.331	-0.136	-0.022
-639.653	-79.969	-0.328	0.111
-638.638	133.424	0.191	0.249
-637.624	-53.514	0.138	-0.064
-636.609	-42.604	-0.150	-0.077
-635.595	-141.326	0.190	0.019
-634.580	83.424	0.044	-0.048
-633.565	466.469	-0.190	-0.429
-632.551	287.532	-0.130	0.237
-631.536	333.510	0.117	0.229
-630.522	620.899	-0.084	0.214
-629.507	-67.459	-0.152	-0.060
-628.492	345.729	-0.218	-0.434
-627.478	-105.915	0.053	-0.012
-626.463	800.000	-0.123	-0.390
-625.449	371.666	0.126	0.259
-624.434	-67.364	0.124	-0.049
-623.419	-200.000	-0.012	-0.074
-622.405	800.000	0.026	0.101
-621.390	-74.328	0.343	0.125
-620.376	117.230	0.218	-0.271
-619.361	-200.000	0.048	-0.353
-618.346	-21.910	-0.217	-0.133
-617.332	-200.000	0.097	-0.462
-616.317	800.000	0.026	-0.088
-615.303	-36.602	0.276	-0.150
-614.288	588.964	-0.075	-0.186
-613.273	-56.200	0.389	-0.175
-612.259	-200.000	0.005	0.101
-611.244	-78.422	-0.209	-0.072
-610.230	800.000	-0.095	-0.314
-609.215	6.103	0.058	-0.043
-608.201	-34.118	0.063	-0.035
-607.186	135.244	-0.228	0.300
-606.171	168.866	-0.195	0.280
-605.157	138.707	-0.210	-0.278
-604.142	-50.908	-0.224	0.106
-603.128	-36.070	0.061	-0.033
-602.113	168.187	0.067	-0.097
-601.098	-136.110	0.123	0.015
-600.084	748.323	-0.072	-0.196
-599.069	56.939	0.314	-0.308
-598.055	-50.802	-0.229	-0.109
-597.040	438.748	0.135	0.298
-596.025	9.696	-0.043	-0.033
-595.011	527.617	0.038	-0.092
-593.996	-117.839	0.079	0.014
-592.982	220.545	-0.120	0.194
-591.967	-92.244	-0.073	0.021
-590.952	-78.878	0.257	-0.088
-589.938	557.127	-0.015	0.037
-588.923	44.945	0.046	0.042
-587.909	-46.713	0.164	0.081
-586.894	250.736	-0.101	-0.173
-585.879	-200.000	-0.047	0.230
-584.865	-200.000	-0.065	0.290
-583.850	-200.000	0.035	0.286
-582.836	54.616	-0.211	0.205
-581.821	-200.000	0.016	-0.240
-580.806	-200.000	0.030	0.199
-579.792	40.561	-0.056	-0.051
-578.777	-92.565	-0.468	0.133
-577.763	-19.879	-0.100	0.062
-576.748	-112.117	-0.065	-0.013
-575.733	520.183	-0.072	0.170
-574.719	-0.815	-0.125	-0.089
-573.704	16.642	-0.216	-0.172
-572.690	-2.208	0.392	0.277
-571.675	162.046	-0.027	0.038
-570.661	27.332	-0.132	-0.112
-569.646	-200.000	-0.012	0.145
-568.631	-19.615	0.058	-0.036
-567.617	-113.409	0.284	-0.056
-566.602	30.432	-0.306	0.264
-565.588	-2.146	0.067	0.047
-564.573	75.412	0.153	0.163
-563.558	-18.594	-0.044	-0.028
-562.544	800.000	0.065	-0.199
-561.529	-155.625	0.264	-0.017
-560.515	175.449	-0.020	0.029
-559.500	126.368	-0.110	-0.141
-558.485	12.169	0.286	-0.222
-557.471	23.731	-0.119	-0.099
-556.456	755.773	-0.044	-0.120
-555.442	-55.610	0.019	0.009
-554.427	300.493	-0.195	-0.362
-553.412	-104.293	-0.289	0.067
-552.398	-98.701	-0.157	-0.040
-551.383	-8.368	-0.203	0.138
-550.369	-93.312	0.110	0.031
-549.354	-89.643	-0.190	-0.056
-548.339	-100.323	0.520	0.130
-547.325	37.749	-0.085	-0.076
-546.310	422.448	0.123	-0.267
-545.296	-200.000	-0.017	-0.182
-544.281	-104.787	0.076	0.018
-543.266	126.182	0.165	0.210
-542.252	-200.000	0.047	0.249
-541.237	-6.515	-0.265	-0.182
-540.223	-96.809	-0.306	-0.081
-539.208	-200.000	-0.030	0.168
-538.193	-125.239	0.275	-0.042
-537.179	800.000	-0.044	0.173
-536.164	800.000	0.112	-0.440
-535.150	-200.000	0.001	0.108
-534.135	-75.625	-0.304	0.109
-533.121	-19.024	0.338	-0.212
-532.106	22.403	0.189	-0.156
-531.091	-150.915	0.174	0.013
-530.077	112.653	0.107	-0.130
-529.062	-150.491	-0.183	0.014
-528.048	-16.280	-0.169	0.108
-527.033	-106.142	-0.421	0.095
-526.018	-92.127	0.267	0.076
-525.004	572.562	0.032	0.077
-523.989	80.571	-0.203	0.220
-522.975	800.000	0.050	0.155
-521.960	47.963	0.143	-0.134
-520.945	-2.182	0.135	-0.095
-519.931	800.000	0.037	0.135
-518.916	800.000	-0.068	0.267
-517.902	-200.000	0.036	0.375
-516.887	56.597	0.280	0.274
-515.872	-13.938	-0.098	-0.064
-514.858	-127.887	-0.156	0.023
-513.843	-60.785	-0.290	0.123
-512.829	-95.658	-0.040	-0.011
-511.814	28.235	-0.246	0.209
-510.799	272.417	0.143	0.253
-509.785	-50.552	-0.277	-0.131
-508.770	23.088	-0.280	-0.231
-507.756	-200.000	-0.016	-0.082
-506.741	29.544	-0.247	0.211
-505.726	-123.010	-0.101	0.016
-504.712	-26.116	-0.098	0.058
-503.697	800.000	-0.082	-0.297
-502.683	447.693	-0.027	-0.059
-501.668	-77.981	0.448	-0.155
-500.653	-200.000	-0.026	0.245
-499.639	-110.065	-0.217	0.046
-498.624	70.963	0.042	-0.044
-497.610	75.089	-0.157	-0.166
-496.595	-200.000	-0.011	-0.176
-495.581	390.365	-0.148	0.307
-494.566	800.000	-0.044	-0.158
-493.551	-67.566	0.151	-0.060
-492.537	408.900	0.159	-0.339
-491.522	-200.000	0.020	-0.281
-490.508	223.323	-0.134	-0.216
-489.493	-24.288	0.194	-0.116
-488.478	397.282	0.109	0.228
-487.464	-32.864	-0.441	-0.246
-486.449	-130.965	-0.393	-0.053
-485.435	512.629	-0.046	-0.107
-484.420	539.358	0.097	0.231
-483.405	68.251	-0.183	0.188
-482.391	-106.215	-0.374	0.084
-481.376	-17.024	0.084	0.053
-480.362	-31.098	0.082	0.046
-479.347	65.434	-0.196	-0.199
-478.332	-85.208	-0.077	0.024
-477.318	800.000	0.030	0.092
-476.303	270.230	0.200	0.354
-475.289	625.104	0.118	0.299
-474.274	-200.000	-0.012	0.326
-473.259	234.949	-0.060	0.099
-472.245	-4.330	-0.233	-0.162
-471.230	-89.942	-0.074	0.022
-470.216	34.583	-0.159	-0.139
-469.201	-36.476	0.140	0.076
-468.186	433.659	0.044	0.095
-467.172	-119.465	0.316	0.055
-466.157	800.000	-0.024	0.095
-465.143	-113.076	-0.227	0.045
-464.128	-86.014	0.351	-0.109
-463.113	-53.613	0.081	-0.037
-462.099	40.080	-0.298	-0.268
-461.084	324.383	0.124	0.237
-460.070	-200.000	0.011	0.230
-459.055	-115.801	-0.255	0.048
-458.040	-200.000	0.004	-0.123
-457.026	789.723	-0.167	-0.461
-456.011	-112.315	-0.323	0.065
-454.997	-9.395	0.275	-0.184
-453.982	9.680	0.556	-0.423
-452.968	-1.953	-0.089	0.063
-451.953	-39.747	-0.122	-0.064
-450.938	-76.072	-0.232	0.082
-449.924	-50.466	-0.137	0.065
-448.909	800.000	0.104	-0.434
-447.895	-45.750	-0.041	0.020
-446.880	-97.159	0.260	-0.068
-445.865	-114.083	-0.093	-0.018
-444.851	-4.896	0.159	-0.110
-443.836	361.207	0.086	-0.173
-442.822	83.657	-0.190	0.207
-441.807	-26.082	0.196	-0.116
-440.792	-200.000	0.016	-0.148
-439.778	-43.338	0.098	0.049
-438.763	-157.342	-0.324	-0.020
-437.749	-45.921	0.104	-0.051
-436.734	298.823	0.098	0.181
-435.719	-200.000	-0.156	-0.001
-434.705	-8.017	-0.181	0.123
-433.690	-200.000	0.002	0.235
-432.676	-6.461	-0.087	-0.060
-431.661	800.000	0.104	-0.369
-430.646	119.065	0.112	-0.139
-429.632	800.000	0.161	-0.484
-428.617	-200.000	0.001	-0.163
-427.603	-200.000	0.026	0.174
-426.588	-200.000	-0.023	0.404
-425.573	1.553	0.062	-0.045
-424.559	-83.982	-0.217	0.069
-423.544	-56.678	-0.350	-0.155
-422.530	800.000	0.081	0.233
-421.515	0.223	-0.466	0.333
-420.500	-200.000	0.006	-0.068
-419.486	-175.688	-0.359	0.010
-418.471	-38.362	-0.067	0.035
-417.457	709.421	0.123	0.325
-416.442	268.394	-0.057	-0.100
-415.428	-200.000	0.005	-0.219
-414.413	13.441	-0.182	-0.141
-413.398	-200.000	-0.005	0.033
-412.384	-200.000	-0.044	-0.283
-411.369	88.713	-0.093	-0.104
-410.355	100.493	-0.090	-0.105
-409.340	84.336	-0.229	0.251
-408.325	-116.793	-0.187	-0.034
-407.311	-89.003	-0.106	-0.031
-406.296	79.035	0.184	0.197
-405.282	367.737	0.062	-0.126
-404.267	122.864	-0.149	0.187
-403.252	800.000	0.032	-0.131
-402.238	-22.702	-0.033	0.020
-401.223	-200.000	0.025	-0.198
-400.209	178.577	0.160	0.234
-399.194	-200.000	-0.008	0.339
-398.179	1.341	-0.277	0.199
-397.165	-75.277	0.256	0.092
-396.150	-200.000	-0.038	0.208
-395.136	-200.000	0.016	-0.169
-394.121	-129.818	0.204	-0.028
-393.106	-46.231	0.178	-0.088
-392.092	-16.039	-0.139	-0.088
-391.077	163.088	-0.015	-0.022
-390.063	-92.848	0.232	-0.065
-389.048	-81.531	-0.389	-0.128
-388.033	-26.010	-0.065	-0.038
-387.019	262.455	0.042	-0.073
-386.004	-200.000	0.028	-0.296
-384.990	-200.000	-0.048	0.339
-383.975	-34.763	-0.243	-0.133
-382.960	235.742	-0.109	-0.179
-381.946	323.363	0.077	-0.147
-380.931	173.778	-0.100	0.145
-379.917	300.653	0.137	0.254
-378.902	165.966	0.242	-0.343
-377.888	-182.202	-0.397	-0.007
-376.873	-200.000	0.015	0.269
-375.858	800.000	-0.060	-0.175
-374.844	800.000	-0.059	-0.205
-373.829	44.495	-0.064	-0.059
-372.815	-89.289	-0.270	0.080
-371.800	-150.541	0.190	0.015
-370.785	-129.960	0.552	-0.076
-369.771	-200.000	-0.027	-0.328
-368.756	-200.000	-0.059	-0.620
-367.742	800.000	0.068	0.227
-366.727	800.000	-0.080	0.333
-365.712	-55.466	-0.140	0.063
-364.698	-200.000	-0.307	0.002
-363.683	-42.111	0.085	-0.044
-362.669	-200.000	0.013	0.302
-361.654	332.103	-0.177	-0.342
-360.639	-55.148	0.166	0.075
-359.625	343.198	0.035	-0.069
-358.610	-3.801	0.190	0.132
-357.596	-193.995	-0.286	-0.002
-356.581	800.000	-0.030	-0.119
-355.566	300.365	0.108	-0.199
-354.552	-200.000	0.003	0.104
-353.537	-33.731	0.102	-0.056
-352.523	405.276	0.106	0.223
-351.508	-118.836	-0.246	0.043
-350.493	-31.459	-0.238	-0.134
-349.479	-90.297	-0.146	0.042
-348.464	-200.000	-0.004	0.049
-347.450	6.112	0.057	0.042
-346.435	-38.554	0.228	-0.120
-345.420	161.499	-0.149	-0.208
-344.406	209.593	0.275	0.431
-343.391	-162.162	0.324	0.016
-342.377	-82.411	-0.029	0.010
-341.362	10.077	-0.196	0.149
-340.348	-63.339	-0.063	0.026
-339.333	442.172	0.063	0.138
-338.318	211.474	-0.113	-0.177
-337.304	194.568	-0.195	0.295
-336.289	-147.676	-0.106	-0.009
-335.275	18.797	0.041	0.033
-334.260	-200.000	-0.026	0.347
-333.245	47.008	-0.068	0.063
-332.231	-6.353	-0.066	0.045
-331.216	-31.562	-0.192	-0.108
-330.202	-140.361	-0.235	-0.024
-329.187	9.658	-0.163	0.123
-328.172	-125.358	0.324	-0.049
-327.158	113.406	-0.173	-0.209
-326.143	800.000	-0.061	0.258
-325.129	-200.000	-0.026	-0.254
-324.114	-113.166	0.063	-0.012
-323.099	103.766	-0.113	0.133
-322.085	-124.950	0.271	-0.042
-321.070	-200.000	0.007	0.142
-320.056	17.361	0.358	0.284
-319.041	-75.985	-0.172	-0.061
-318.026	-182.898	-0.167	0.003
-317.012	800.000	0.028	0.090
-315.997	22.531	0.109	-0.089
-314.983	-116.495	-0.174	0.032
-313.968	-200.000	-0.002	-0.095
-312.953	220.994	0.084	0.134
-311.939	-90.068	-0.095	-0.028
-310.924	-6.131	0.141	0.096
-309.910	800.000	0.114	0.346
-308.895	9.667	0.068	-0.051
-307.880	13.969	0.279	-0.217
-306.866	267.368	0.133	0.233
-305.851	-78.767	-0.085	-0.029
-304.837	352.208	-0.117	-0.232
-303.822	-200.000	-0.022	-0.246
-302.807	800.000	-0.023	0.097
-301.793	800.000	-0.111	-0.311
-300.778	-33.724	0.322	0.177
-299.764	83.263	0.206	-0.224
-298.749	87.396	-0.185	-0.204
-297.735	-92.975	0.182	0.051
-296.720	-170.951	0.240	-0.008
-295.705	-157.885	0.121	-0.007
-294.691	-12.360	0.140	-0.091
-293.676	217.809	0.152	0.242
-292.662	55.584	0.197	-0.190
-291.647	800.000	-0.043	0.143
-290.632	-130.050	-0.400	0.055
-289.618	77.499	0.118	0.125
-288.603	-53.457	0.229	0.104
-287.589	475.274	-0.028	0.062
-286.574	-23.600	-0.380	-0.227
-285.559	315.391	0.129	0.243
-284.545	116.151	0.069	0.084
-283.530	-79.396	-0.089	0.030
-282.516	-71.745	0.047	0.017
-281.501	-66.479	0.372	-0.147
-280.486	-23.530	0.360	-0.215
-279.472	302.301	0.030	-0.055
-278.457	241.820	0.043	-0.071
-277.443	444.514	0.054	-0.118
-276.428	44.311	-0.041	0.038
-275.413	-200.000	0.042	0.227
-274.399	-97.166	-0.189	-0.049
-273.384	-125.040	-0.494	-0.076
-272.370	691.489	0.234	0.611
-271.355	-132.494	0.149	0.019
-270.340	-200.000	-0.007	0.213
-269.326	137.746	-0.094	0.123
-268.311	800.000	-0.042	0.172
-267.297	-200.000	-0.023	-0.179
-266.282	-12.321	0.252	-0.164
-265.267	-44.410	0.397	-0.198
-264.253	800.000	-0.016	0.048
-263.238	19.627	0.277	0.222
-262.224	-141.793	-0.028	-0.003
-261.209	185.595	0.102	0.151
-260.195	123.591	-0.164	-0.205
-259.180	9.753	0.328	-0.248
-258.165	-200.000	0.013	-0.205
-257.151	220.452	-0.211	-0.337
-256.136	-84.216	0.030	0.010
-255.122	10.795	-0.148	-0.112
-254.107	213.847	-0.030	0.048
-253.092	-3.807	0.192	-0.133
-252.078	120.533	0.169	0.209
-251.063	-48.227	0.320	-0.153
-250.049	800.000	0.127	-0.414
-249.034	-80.813	0.129	0.043
-248.019	-83.924	0.053	0.017
-247.005	-200.000	0.006	0.243
-245.990	28.073	0.033	0.028
-244.976	-157.802	0.280	0.017
-243.961	800.000	0.009	-0.031
-242.946	-99.372	-0.231	-0.058
-241.932	-183.696	-0.209	-0.004
-240.917	-97.168	0.356	0.093
-239.903	-200.000	0.054	-0.315
-238.888	48.780	-0.026	-0.025
-237.873	-40.870	-0.096	-0.050
-236.859	166.472	-0.202	0.284
-235.844	-200.000	-0.004	0.072
-234.830	84.159	0.308	-0.335
-233.815	26.061	-0.175	0.145
-232.800	-200.000	-0.035	-0.181
-231.786	-135.537	0.179	-0.021
-230.771	161.191	-0.080	0.111
-229.757	500.311	0.089	-0.203
-228.742	-200.000	0.017	0.252
-227.727	86.753	0.037	0.040
-226.713	-6.037	0.207	-0.140
-225.698	-178.382	0.090	0.002
-224.684	-62.635	0.375	0.155
-223.669	-17.203	0.298	0.187
-222.655	-102.588	-0.166	-0.039
-221.640	-200.000	0.040	-0.191
-220.625	432.116	-0.089	-0.191
-219.611	-200.000	0.004	0.400
-218.596	800.000	-0.046	-0.138
-217.582	800.000	0.058	0.185
-216.567	-154.502	0.461	0.031
-215.552	800.000	0.064	0.221
-214.538	-129.056	-0.393	-0.055
-213.523	658.567	0.153	0.391
-212.509	-139.647	-0.269	-0.028
-211.494	699.304	-0.112	-0.293
-210.479	125.623	0.321	-0.402
-209.465	-200.000	0.023	-0.180
-208.450	-65.793	-0.029	-0.012
-207.436	300.801	-0.045	-0.082
-206.421	185.056	0.094	0.139
-205.406	-21.651	0.129	0.078
-204.392	-66.227	0.116	-0.046
-203.377	56.162	0.129	0.125
-202.363	-200.000	0.010	-0.276
-201.348	142.270	0.176	0.232
-200.333	173.501	0.232	0.332
-199.319	-200.000	-0.028	0.279
-198.304	-41.006	0.290	-0.149
-197.290	-79.054	0.168	0.057
-196.275	-107.303	-0.174	-0.038
-195.260	289.434	0.134	-0.241
-194.246	-14.642	-0.247	-0.158
-193.231	-200.000	-0.041	0.449
-192.217	800.000	0.045	0.159
-191.202	483.667	-0.115	0.260
-190.187	111.501	0.060	0.072
-189.173	273.815	-0.176	0.309
-188.158	800.000	-0.020	0.060
-187.144	-200.000	-0.020	0.111
-186.129	-96.802	-0.256	-0.067
-185.114	-157.199	-0.145	-0.009
-184.100	33.471	0.318	-0.274
-183.085	-75.428	-0.231	-0.082
-182.071	334.661	-0.091	-0.174
-181.056	32.914	-0.140	0.121
-180.042	-200.000	-0.033	0.232
-179.027	800.000	-0.086	0.264
-178.012	241.426	0.175	0.290
-176.998	59.809	-0.093	0.091
-175.983	-27.049	0.122	0.070
-174.969	-172.634	-0.053	0.002
-173.954	-200.000	0.009	0.133
-172.939	656.649	0.121	-0.308
-171.925	-131.618	0.348	0.045
-170.910	-92.982	0.405	-0.112
-169.896	319.799	-0.013	0.025
-168.881	145.824	0.092	0.122
-167.866	288.222	0.065	-0.117
-166.852	-85.750	0.177	0.055
-165.837	-200.000	-0.013	0.063
-164.823	-200.000	-0.026	0.156
-163.808	-32.383	-0.087	0.048
-162.793	-106.310	0.297	0.066
-161.779	800.000	0.033	0.093
-160.764	287.768	-0.032	-0.058
-159.750	-200.000	-0.034	-0.311
-158.735	139.948	0.120	0.156
-157.720	-104.500	-0.084	0.019
-156.706	46.033	0.076	0.070
-155.691	329.205	-0.218	0.416
-154.677	659.051	0.105	-0.268
-153.662	-100.779	-0.047	-0.011
-152.647	-200.000	-0.030	0.258
-151.633	800.000	-0.058	0.233
-150.618	311.868	0.030	-0.055
-149.604	-120.594	0.290	-0.049
-148.589	-105.146	0.060	0.014
-147.574	769.713	0.103	0.278
-146.560	-200.000	0.025	0.539
-145.545	299.986	-0.117	0.214
-144.531	800.000	0.107	0.432
-143.516	609.802	0.203	-0.503
-142.502	-200.000	-0.013	-0.400
-141.487	-95.399	0.010	0.003
-140.472	-200.000	0.035	-0.184
-139.458	-200.000	0.008	-0.200
-138.443	-92.864	0.493	-0.136
-137.429	60.271	-0.152	0.149
-136.414	-117.412	-0.201	0.036
-135.399	322.860	0.144	-0.271
-134.385	-181.690	0.109	0.002
-133.370	-14.271	0.038	-0.024
-132.356	-175.462	0.380	0.010
-131.341	-200.000	-0.010	-0.102
-130.326	800.000	-0.046	0.164
-129.312	200.959	-0.149	0.226
-128.297	-74.121	0.162	-0.058
-127.283	-101.743	0.247	-0.059
-126.268	-161.539	-0.342	-0.017
-125.253	36.805	0.126	0.110
-124.239	129.820	-0.236	0.299
-123.224	-200.000	0.027	-0.120
-122.210	-108.918	-0.063	0.013
