DTS Sentinel unit serial number:	SN413079Multiplexer serial number:	ORYXHardware model number:	OX4-SRSoftware version number:	ORYX F/W v4.00 Oryx Data Collector v3.7.2.0data status	okinstallation	princeton_trtdifferential loss correction	single-endedforward channel	channel 1reverse channel	N/Adate	2019/09/13time	01:22:35forward acquisition time	60.00reverse acquisition time	0.00gamma	496.2192k internal	0.2331k external	0.2331temperature offset calibration	1.0139default loss term (dB/km)	0.3790temperature slope calibration	1.0000multiplexer offset coefficient	1.0000multiplexer slope coefficient	1.0000fibre end	0.00T internal ref (°C)	27.87T ext. ref 1 (°C)	3.72T ext. ref 2 (°C)	22.45length (m)	temperature (°C)	Stokes	anti-Stokes-747.200	-143.420	-0.422	0.041
-746.185	-200.000	-0.030	0.380
-745.171	-188.821	0.285	-0.004
-744.156	-200.000	0.013	0.146
-743.142	-103.871	0.335	0.079
-742.127	107.987	-0.345	0.414
-741.112	-200.000	0.018	-0.173
-740.098	318.625	-0.161	-0.307
-739.083	187.224	0.099	0.149
-738.069	320.843	-0.128	0.246
-737.054	-200.000	-0.014	-0.240
-736.039	800.000	-0.040	0.122
-735.025	27.225	0.310	0.262
-734.010	-200.000	-0.039	0.197
-732.996	-91.232	-0.392	-0.113
-731.981	-200.000	-0.015	-0.338
-730.966	-113.184	-0.191	-0.038
-729.952	102.083	-0.242	0.284
-728.937	63.633	-0.172	0.174
-727.923	-32.497	0.173	-0.097
-726.908	134.275	-0.213	0.278
-725.894	-200.000	-0.004	0.208
-724.879	116.485	-0.169	0.208
-723.864	800.000	0.035	0.153
-722.850	-71.487	-0.098	-0.037
-721.835	-200.000	0.043	0.243
-720.821	800.000	-0.018	0.065
-719.806	115.626	0.060	-0.074
-718.791	-177.401	0.226	-0.006
-717.777	-109.631	0.095	0.020
-716.762	217.171	-0.108	-0.173
-715.748	-46.631	0.200	0.098
-714.733	-155.592	0.047	0.003
-713.718	52.210	0.087	-0.083
-712.704	-82.710	-0.090	0.029
-711.689	175.943	-0.041	0.060
-710.675	-200.000	-0.027	-0.181
-709.660	-200.000	-0.321	0.001
-708.645	-98.144	0.075	0.020
-707.631	156.199	0.076	-0.105
-706.616	68.495	-0.154	0.159
-705.602	-42.749	-0.131	-0.067
-704.587	389.880	0.110	-0.230
-703.572	-41.269	0.248	0.128
-702.558	744.903	-0.034	-0.092
-701.543	-106.997	-0.152	-0.034
-700.529	286.588	0.061	-0.110
-699.514	-114.205	0.141	-0.027
-698.499	-17.488	-0.176	0.112
-697.485	-200.000	-0.054	0.445
-696.470	15.485	-0.123	0.097
-695.456	800.000	-0.076	-0.282
-694.441	103.094	-0.171	0.202
-693.426	-71.691	0.168	-0.063
-692.412	-200.000	-0.042	-0.304
-691.397	-98.623	0.375	-0.096
-690.383	154.532	0.085	0.117
-689.368	181.925	0.101	-0.150
-688.354	-200.000	-0.037	0.402
-687.339	121.574	0.158	-0.198
-686.324	-187.960	0.075	-0.001
-685.310	-45.943	-0.155	-0.077
-684.295	674.551	-0.142	-0.369
-683.281	-20.810	-0.218	-0.134
-682.266	800.000	-0.017	0.065
-681.251	-132.349	-0.210	-0.027
-680.237	138.445	0.092	0.121
-679.222	-135.515	-0.085	-0.010
-678.208	-200.000	0.010	-0.130
-677.193	260.396	-0.034	0.058
-676.178	208.561	0.058	0.091
-675.164	-200.000	0.045	-0.215
-674.149	-44.297	0.095	-0.048
-673.135	-168.854	0.109	-0.004
-672.120	800.000	-0.027	0.107
-671.105	-131.832	0.306	-0.040
-670.091	-142.828	0.052	0.005
-669.076	259.446	0.094	0.162
-668.062	-94.616	-0.305	-0.083
-667.047	343.666	-0.069	-0.135
-666.032	-49.604	0.088	0.042
-665.018	-14.143	-0.225	0.146
-664.003	-200.000	0.039	-0.299
-662.989	168.980	-0.288	-0.413
-661.974	-200.000	0.004	-0.416
-660.959	-76.090	0.186	-0.066
-659.945	-200.000	-0.013	-0.133
-658.930	7.312	0.314	0.235
-657.916	800.000	0.009	-0.028
-656.901	294.698	0.126	0.231
-655.886	-17.669	-0.152	0.096
-654.872	205.812	0.121	0.189
-653.857	-200.000	0.006	-0.088
-652.843	222.882	-0.032	0.051
-651.828	161.152	-0.124	0.174
-650.814	-200.000	0.022	-0.238
-649.799	2.793	-0.220	-0.160
-648.784	-200.000	0.025	0.113
-647.770	-77.172	-0.183	-0.064
-646.755	800.000	0.010	-0.031
-645.741	-85.595	0.025	0.008
-644.726	99.205	0.192	-0.223
-643.711	196.308	-0.086	-0.132
-642.697	6.059	-0.068	0.051
-641.682	11.936	0.262	-0.202
-640.668	-100.888	0.177	-0.044
-639.653	-200.000	0.007	0.227
-638.638	486.484	0.045	0.102
-637.624	800.000	0.068	0.235
-636.609	-200.000	0.042	-0.213
-635.595	90.715	-0.304	-0.341
-634.580	34.578	0.090	-0.079
-633.565	-49.797	0.209	-0.099
-632.551	41.791	-0.144	0.131
-631.536	52.591	-0.049	-0.047
-630.522	51.649	0.363	-0.346
-629.507	297.693	-0.024	0.045
-628.492	467.820	-0.029	-0.066
-627.478	97.977	-0.092	0.106
-626.463	76.865	0.149	-0.158
-625.449	13.094	0.129	-0.100
-624.434	-200.000	-0.004	0.075
-623.419	-26.329	0.095	-0.056
-622.405	-200.000	-0.003	0.114
-621.390	105.732	-0.104	-0.123
-620.376	-42.449	0.251	-0.128
-619.361	349.151	-0.234	-0.463
-618.346	-134.252	0.149	-0.018
-617.332	800.000	-0.084	-0.239
-616.317	-53.467	-0.226	-0.104
-615.303	-47.943	0.294	-0.143
-614.288	800.000	-0.034	-0.122
-613.273	-6.623	-0.113	0.077
-612.259	-78.109	-0.194	-0.067
-611.244	2.576	-0.177	-0.128
-610.230	-126.889	0.323	0.048
-609.215	170.646	0.153	-0.219
-608.201	690.400	0.066	0.172
-607.186	-200.000	-0.102	-0.449
-606.171	-121.539	0.029	0.005
-605.157	-141.036	0.179	0.018
-604.142	360.647	0.129	0.259
-603.128	499.112	-0.071	0.164
-602.113	-200.000	0.013	0.118
-601.098	-200.000	0.007	0.221
-600.084	-200.000	-0.034	0.200
-599.069	-200.000	-0.058	-0.427
-598.055	-63.854	-0.115	0.047
-597.040	-200.000	0.012	0.269
-596.025	-120.020	0.320	0.055
-595.011	-94.639	-0.082	0.022
-593.996	-55.943	-0.404	0.180
-592.982	-200.000	0.020	0.189
-591.967	800.000	0.014	0.040
-590.952	-112.983	0.270	0.053
-589.938	-200.000	-0.037	0.164
-588.923	502.393	-0.102	-0.237
-587.909	-102.680	-0.153	-0.036
-586.894	-123.087	0.138	0.022
-585.879	3.969	-0.287	-0.210
-584.865	327.574	-0.124	0.239
-583.850	-200.000	0.018	0.105
-582.836	-113.328	-0.429	0.084
-581.821	187.774	0.062	-0.092
-580.806	237.314	-0.109	0.181
-579.792	43.717	-0.085	-0.077
-578.777	107.593	0.082	0.098
-577.763	-39.491	0.165	0.087
-576.748	61.613	0.303	0.302
-575.733	-3.464	-0.160	0.112
-574.719	-135.346	0.026	-0.003
-573.704	-37.188	-0.288	-0.154
-572.690	72.738	0.082	0.086
-571.675	-200.000	-0.045	0.199
-570.661	164.648	-0.093	-0.131
-569.646	62.434	0.173	0.173
-568.631	173.186	0.107	0.154
-567.617	164.290	0.052	0.073
-566.602	-200.000	0.024	0.117
-565.588	-98.749	-0.310	-0.079
-564.573	-52.226	0.143	0.066
-563.558	288.125	-0.069	0.125
-562.544	-200.000	-0.040	0.314
-561.529	800.000	-0.050	0.179
-560.515	-31.317	-0.313	-0.176
-559.500	118.864	-0.086	-0.106
-558.485	800.000	-0.013	0.036
-557.471	37.699	-0.288	0.255
-556.456	467.918	-0.154	-0.345
-555.442	-155.933	0.204	0.013
-554.427	251.135	-0.240	0.408
-553.412	-200.000	-0.009	-0.039
-552.398	800.000	-0.091	-0.333
-551.383	-32.872	-0.227	-0.126
-550.369	-76.824	0.247	0.086
-549.354	-9.555	0.365	0.243
-548.339	75.243	0.262	0.276
-547.325	-26.988	0.199	0.116
-546.310	800.000	-0.069	0.300
-545.296	-39.867	-0.191	-0.100
-544.281	-7.926	0.209	-0.141
-543.266	-8.629	0.056	-0.037
-542.252	-173.437	0.204	0.006
-541.237	-155.991	-0.156	-0.010
-540.223	35.776	-0.162	0.142
-539.208	-25.091	-0.092	-0.055
-538.193	16.648	-0.167	0.132
-537.179	-200.000	0.008	-0.051
-536.164	95.373	0.205	-0.233
-535.150	33.385	0.264	0.229
-534.135	-200.000	-0.006	-0.243
-533.121	130.045	0.283	-0.362
-532.106	49.549	0.212	0.199
-531.091	137.066	0.136	-0.178
-530.077	272.207	0.189	-0.332
-529.062	-200.000	-0.019	-0.327
-528.048	-79.867	-0.226	0.076
-527.033	84.584	0.124	0.136
-526.018	-113.535	-0.324	-0.063
-525.004	132.979	0.078	0.100
-523.989	-64.132	-0.265	0.108
-522.975	326.476	0.111	-0.212
-521.960	127.125	-0.267	-0.338
-520.945	232.397	-0.068	-0.111
-519.931	199.936	0.198	-0.303
-518.916	-45.114	0.202	-0.100
-517.902	444.781	0.051	0.113
-516.887	-200.000	-0.042	-0.193
-515.872	160.548	0.210	0.292
-514.858	-47.782	-0.079	-0.038
-513.843	-200.000	0.057	-0.323
-512.829	-158.883	-0.113	0.006
-511.814	-99.171	-0.129	0.032
-510.799	-200.000	-0.048	-0.275
-509.785	32.224	-0.165	-0.142
-508.770	-156.246	-0.222	-0.014
-507.756	154.182	-0.170	0.233
-506.741	-117.016	0.157	0.029
-505.726	46.789	-0.176	-0.163
-504.712	-200.000	0.013	-0.092
-503.697	800.000	-0.078	0.334
-502.683	-40.948	0.098	0.050
-501.668	-89.912	0.232	-0.068
-500.653	-128.799	-0.181	-0.025
-499.639	300.115	0.033	-0.061
-498.624	-17.584	-0.172	0.108
-497.610	-172.408	0.442	0.014
-496.595	-200.000	-0.022	0.173
-495.581	-54.743	-0.244	-0.110
-494.566	-108.042	0.056	-0.012
-493.551	112.506	-0.099	-0.119
-492.537	800.000	-0.039	0.157
-491.522	-29.520	-0.252	-0.143
-490.508	21.863	0.146	0.119
-489.493	16.953	-0.185	-0.146
-488.478	262.888	-0.214	0.371
-487.464	-30.196	0.113	-0.064
-486.449	-62.507	0.290	0.120
-485.435	609.941	-0.044	-0.110
-484.420	-106.197	0.101	-0.023
-483.405	-77.729	-0.339	-0.117
-482.391	-166.679	-0.119	0.005
-481.376	-42.229	0.258	0.131
-480.362	-200.000	-0.050	-0.335
-479.347	254.409	-0.046	0.078
-478.332	508.684	-0.151	0.348
-477.318	40.788	-0.256	0.230
-476.303	203.891	0.064	-0.099
-475.289	-39.983	0.085	0.044
-474.274	322.925	0.117	-0.222
-473.259	-200.000	-0.040	0.253
-472.245	-119.818	0.185	-0.032
-471.230	-138.015	0.174	0.019
-470.216	127.468	0.321	-0.406
-469.201	-200.000	-0.069	0.311
-468.186	-120.672	0.397	-0.067
-467.172	-131.093	-0.124	-0.016
-466.157	-69.737	0.061	-0.023
-465.143	500.267	0.079	-0.180
-464.128	179.405	-0.115	-0.168
-463.113	-200.000	0.011	-0.297
-462.099	-49.739	0.517	0.245
-461.084	-37.281	0.142	0.076
-460.070	12.085	0.131	-0.101
-459.055	-31.190	-0.398	0.223
-458.040	131.224	0.007	0.008
-457.026	-119.157	0.293	0.051
-456.011	-106.852	0.044	-0.010
-454.997	800.000	-0.177	0.508
-453.982	14.756	-0.345	-0.268
-452.968	-62.567	-0.325	0.134
-451.953	-87.018	-0.444	0.135
-450.938	-158.855	0.226	0.013
-449.924	-27.211	0.121	-0.070
-448.909	419.500	-0.079	-0.168
-447.895	173.885	-0.100	0.144
-446.880	-104.361	0.114	0.026
-445.865	-170.012	0.068	0.002
-444.851	-59.145	0.343	0.147
-443.836	-157.740	0.298	-0.018
-442.822	175.541	0.041	-0.059
-441.807	-84.528	0.345	0.108
-440.792	-94.257	-0.317	-0.086
-439.778	-86.286	0.392	-0.120
-438.763	29.830	-0.082	-0.069
-437.749	56.440	-0.093	0.090
-436.734	-172.210	0.156	-0.005
-435.719	-118.209	-0.015	0.003
-434.705	800.000	0.041	0.148
-433.690	32.484	-0.125	-0.107
-432.676	89.527	0.019	-0.022
-431.661	140.388	-0.149	0.196
-430.646	-200.000	-0.044	0.217
-429.632	25.981	-0.101	-0.084
-428.617	800.000	0.092	-0.256
-427.603	23.797	-0.085	-0.069
-426.588	125.620	0.037	-0.046
-425.573	-58.738	0.069	-0.030
-424.559	147.104	-0.174	0.232
-423.544	45.051	-0.110	-0.100
-422.530	-200.000	-0.051	0.266
-421.515	32.814	0.375	-0.323
-420.500	186.950	0.059	0.088
-419.486	38.995	0.139	0.124
-418.471	-43.160	-0.391	0.197
-417.457	800.000	0.057	0.198
-416.442	-181.843	-0.456	0.009
-415.428	25.514	-0.013	-0.011
-414.413	-61.436	-0.104	-0.044
-413.398	50.162	-0.099	-0.093
-412.384	-28.257	-0.105	-0.060
-411.369	800.000	-0.023	0.083
-410.355	-93.948	0.161	-0.044
-409.340	800.000	-0.055	0.174
-408.325	90.853	0.254	0.282
-407.311	800.000	0.104	0.339
-406.296	-200.000	0.015	0.074
-405.282	-95.965	-0.468	0.124
-404.267	-200.000	0.005	-0.432
-403.252	-24.947	0.478	-0.282
-402.238	-54.765	-0.217	0.097
-401.223	-200.000	-0.068	-0.328
-400.209	-173.590	-0.252	-0.008
-399.194	117.013	0.005	0.006
-398.179	-100.121	0.025	-0.006
-397.165	138.149	0.148	0.192
-396.150	13.319	-0.206	-0.159
-395.136	-21.985	0.186	-0.112
-394.121	-200.000	-0.014	0.149
-393.106	601.223	0.184	-0.454
-392.092	-68.721	-0.014	-0.005
-391.077	-104.098	-0.213	0.049
-390.063	549.124	0.115	-0.273
-389.048	-78.390	-0.357	0.122
-388.033	-200.000	0.055	-0.313
-387.019	800.000	-0.049	-0.153
-386.004	-180.081	0.075	-0.002
-384.990	-112.091	-0.351	0.070
-383.975	-109.390	-0.042	-0.009
-382.960	117.244	0.131	-0.160
-381.946	-125.703	-0.223	-0.033
-380.931	104.474	0.316	-0.369
-379.917	-200.000	-0.013	-0.110
-378.902	-100.987	-0.200	-0.049
-377.888	-96.222	0.114	0.030
-376.873	73.568	0.012	0.013
-375.858	-107.774	-0.350	-0.076
-374.844	-200.000	-0.085	-0.438
-373.829	-72.030	-0.153	0.056
-372.815	196.372	-0.059	-0.089
-371.800	-200.000	-0.036	0.227
-370.785	-15.984	0.235	0.148
-369.771	78.770	-0.033	0.035
-368.756	136.377	-0.028	0.036
-367.742	-26.390	-0.054	-0.031
-366.727	-100.016	0.226	0.056
-365.712	-108.816	0.217	-0.046
-364.698	150.153	-0.079	0.106
-363.683	-35.791	-0.185	-0.099
-362.669	8.119	-0.120	-0.089
-361.654	47.475	-0.144	0.133
-360.639	-200.000	-0.037	-0.380
-359.625	-95.833	-0.167	0.044
-358.610	8.322	0.148	0.111
-357.596	-127.829	-0.039	0.006
-356.581	-12.512	-0.323	-0.209
-355.566	265.544	0.043	0.075
-354.552	800.000	0.070	-0.224
-353.537	-143.003	-0.255	-0.024
-352.523	800.000	0.124	0.403
-351.508	-92.263	0.228	-0.064
-350.493	127.337	0.092	-0.116
-349.479	197.271	-0.144	-0.217
-348.464	-112.779	0.131	-0.026
-347.450	346.298	0.053	0.103
-346.435	-82.717	0.120	-0.039
-345.420	42.806	-0.156	-0.141
-344.406	-200.000	-0.061	0.299
-343.391	-130.274	-0.238	-0.032
-342.377	-87.903	0.027	0.008
-341.362	-52.398	-0.063	0.029
-340.348	237.332	-0.121	0.198
-339.333	737.155	-0.129	0.343
-338.318	4.296	-0.231	0.167
-337.304	-178.696	0.107	0.002
-336.289	-180.933	0.370	-0.007
-335.275	-141.750	-0.426	-0.042
-334.260	-200.000	-0.011	-0.378
-333.245	-137.550	0.111	0.012
-332.231	-24.579	0.323	0.190
-331.216	158.685	-0.088	-0.121
-330.202	800.000	0.071	0.203
-329.187	-200.000	0.009	0.113
-328.172	-200.000	-0.067	-0.371
-327.158	533.448	-0.068	-0.160
-326.143	527.775	0.156	0.364
-325.129	-153.862	0.240	-0.016
-324.114	-164.977	-0.202	0.009
-323.099	-195.936	-0.220	0.002
-322.085	-200.000	-0.014	0.318
-321.070	-39.527	0.612	0.317
-320.056	-3.063	0.017	-0.012
-319.041	274.073	-0.078	0.137
-318.026	58.407	-0.060	0.059
-317.012	468.117	0.081	-0.181
-315.997	108.653	-0.293	-0.346
-314.983	-168.896	0.358	-0.013
-313.968	-76.117	-0.217	0.076
-312.953	-135.028	-0.107	0.013
-311.939	-96.405	-0.304	-0.080
-310.924	-74.198	0.262	0.094
-309.910	-74.386	-0.145	0.052
-308.895	251.759	-0.219	-0.370
-307.880	-0.339	-0.151	0.106
-306.866	-107.341	0.365	0.079
-305.851	800.000	-0.096	0.269
-304.837	183.329	-0.223	0.326
-303.822	0.760	-0.179	0.127
-302.807	-164.697	0.064	0.003
-301.793	-200.000	-0.019	0.431
-300.778	-200.000	0.006	0.045
-299.764	-200.000	0.016	0.093
-298.749	-41.870	-0.229	0.116
-297.735	-119.411	0.007	0.001
-296.720	-2.790	0.009	-0.006
-295.705	28.105	-0.176	-0.147
-294.691	435.512	-0.081	-0.175
-293.676	-200.000	0.029	-0.140
-292.662	-172.033	0.085	0.003
-291.647	-83.999	-0.421	0.132
-290.632	800.000	0.083	-0.260
-289.618	0.483	0.091	-0.064
-288.603	-193.889	0.258	0.002
-287.589	6.704	-0.178	0.131
-286.574	-92.402	0.134	-0.037
-285.559	-186.955	0.398	-0.005
-284.545	-2.459	0.104	0.072
-283.530	31.876	-0.088	-0.075
-282.516	97.915	0.076	-0.086
-281.501	-200.000	-0.025	0.130
-280.486	-94.472	0.250	0.067
-279.472	-114.921	0.040	0.007
-278.457	-81.553	0.378	0.123
-277.443	-200.000	-0.107	0.478
-276.428	-8.728	0.128	0.085
-275.413	-19.829	-0.271	0.165
-274.399	800.000	-0.021	0.077
-273.384	646.042	0.074	-0.186
-272.370	-200.000	0.075	0.354
-271.355	162.930	0.106	-0.147
-270.340	-198.907	0.345	-0.002
-269.326	124.790	0.279	0.347
-268.311	-165.153	0.140	0.006
-267.297	-20.892	-0.254	-0.154
-266.282	103.937	0.171	0.199
-265.267	261.061	0.157	0.268
-264.253	-200.000	0.027	0.301
-263.238	-7.573	-0.110	-0.074
-262.224	-169.239	0.279	-0.010
-261.209	800.000	-0.050	0.198
-260.195	-200.000	-0.001	0.211
-259.180	-81.330	-0.173	-0.056
-258.165	21.768	0.166	-0.134
-257.151	-24.356	-0.038	-0.022
-256.136	-64.883	0.131	-0.052
-255.122	-200.000	-0.045	0.296
-254.107	8.066	0.179	0.132
-253.092	800.000	0.060	-0.217
-252.078	99.701	-0.082	-0.093
-251.063	-16.664	0.058	-0.036
-250.049	-200.000	0.022	0.385
-249.034	-74.891	0.091	-0.032
-248.019	800.000	0.044	-0.171
-247.005	-200.000	-0.036	0.210
-245.990	230.306	-0.173	0.280
-244.976	-118.111	0.199	-0.035
-243.961	-130.618	0.156	-0.021
-242.946	176.268	0.068	-0.097
-241.932	-41.797	-0.409	0.207
-240.917	-200.000	0.031	0.264
-239.903	145.251	-0.098	0.129
-238.888	554.462	-0.090	-0.214
-237.873	-200.000	0.003	-0.162
-236.859	53.413	-0.081	-0.076
-235.844	-53.521	0.224	0.101
-234.830	544.493	-0.124	-0.293
-233.815	-200.000	0.047	-0.260
-232.800	56.200	-0.115	-0.110
-231.786	56.296	0.142	-0.136
-230.771	-82.301	0.180	-0.058
-229.757	499.397	0.077	0.176
-228.742	187.913	-0.107	-0.158
-227.727	-124.816	0.226	0.034
-226.713	-64.784	0.245	0.098
-225.698	308.689	-0.073	-0.135
-224.684	-9.476	0.048	0.032
-223.669	760.856	-0.058	-0.154
-222.655	368.696	-0.007	-0.014
-221.640	97.429	0.062	-0.070
-220.625	373.260	-0.075	-0.151
-219.611	-81.340	0.328	-0.107
-218.596	-88.052	-0.357	-0.106
-217.582	-200.000	-0.017	-0.095
-216.567	-105.719	-0.295	-0.066
-215.552	-200.000	-0.015	-0.329
-214.538	-128.456	0.261	0.037
-213.523	-100.715	0.229	-0.056
-212.509	-200.000	-0.037	-0.357
-211.494	234.622	-0.186	-0.302
-210.479	-0.086	-0.045	-0.032
-209.465	392.788	-0.018	-0.037
-208.450	-200.000	0.020	0.258
-207.436	-171.455	-0.097	0.003
-206.421	800.000	-0.039	-0.133
-205.406	-124.283	-0.075	-0.012
-204.392	-118.512	0.125	0.022
-203.377	160.524	0.238	-0.328
-202.363	54.984	-0.156	0.149
-201.348	-62.299	0.293	0.120
-200.333	-144.950	-0.353	-0.032
-199.319	206.898	-0.039	0.059
-198.304	251.784	-0.158	0.265
-197.290	472.691	0.073	-0.162
-196.275	-97.132	0.315	-0.081
-195.260	-126.534	-0.083	-0.012
-194.246	-200.000	-0.034	-0.279
-193.231	-194.810	0.143	0.001
-192.217	800.000	0.085	-0.259
-191.202	-114.336	-0.219	-0.042
-190.187	-192.436	0.076	-0.001
-189.173	188.608	-0.080	0.117
-188.158	-200.000	-0.052	0.346
-187.144	512.333	0.085	-0.196
-186.129	-53.622	-0.114	0.051
-185.114	-200.000	0.016	0.113
-184.100	4.384	0.211	0.152
-183.085	-23.036	-0.139	-0.083
-182.071	-158.441	-0.191	0.011
-181.056	-200.000	0.049	0.360
-180.042	-67.639	0.199	0.077
-179.027	-101.853	-0.260	-0.062
-178.012	30.706	0.111	-0.093
-176.998	-82.561	-0.123	-0.039
-175.983	-91.474	-0.170	0.048
-174.969	611.131	-0.127	0.313
-173.954	-19.301	-0.230	0.141
-172.939	132.378	0.159	-0.201
-171.925	-97.011	-0.119	-0.031
-170.910	272.869	0.163	-0.284
-169.896	-76.733	-0.144	-0.050
-168.881	51.988	0.153	-0.144
-167.866	196.686	-0.146	0.218
-166.852	118.263	-0.047	0.057
-165.837	-48.589	-0.283	-0.134
-164.823	89.864	0.072	-0.080
-163.808	-54.827	0.269	0.120
-162.793	85.471	0.126	-0.136
-161.779	-88.212	0.460	0.135
-160.764	11.194	0.141	-0.106
-159.750	-32.147	-0.112	0.062
-158.735	784.429	0.058	0.157
-157.720	243.450	-0.034	-0.056
-156.706	91.930	-0.157	0.174
-155.691	-81.554	0.312	-0.101
-154.677	584.146	-0.023	0.055
-153.662	-181.319	-0.484	0.009
-152.647	-106.247	0.192	0.042
-151.633	-100.998	0.184	-0.044
-150.618	800.000	0.065	-0.274
-149.604	800.000	0.024	0.067
-148.589	227.109	-0.117	0.187
-147.574	800.000	0.059	0.194
-146.560	-200.000	-0.003	-0.016
-145.545	196.612	0.223	-0.335
-144.531	-106.852	0.117	-0.025
-143.516	326.656	0.201	-0.378
-142.502	130.897	0.145	-0.183
-141.487	96.374	0.069	0.078
-140.472	-3.648	-0.380	-0.259
-139.458	171.534	0.249	-0.351
-138.443	-200.000	0.013	-0.121
-137.429	364.683	-0.143	0.282
-136.414	-126.399	0.195	-0.029
-135.399	5.863	-0.090	0.066
-134.385	72.480	0.116	-0.119
-133.370	-19.648	-0.337	0.205
-132.356	304.967	0.090	-0.164
-131.341	146.400	0.108	0.143
-130.326	-52.092	0.321	0.147
-129.312	92.905	-0.085	0.095
-128.297	-1.385	0.380	-0.264
-127.283	-27.243	0.245	-0.140
-126.268	800.000	-0.028	0.092
-125.253	-139.262	0.066	-0.007
-124.239	20.953	0.112	0.089
-123.224	-106.950	-0.263	0.057
-122.210	-90.645	-0.208	-0.059
