DTS Sentinel unit serial number:	SN413079Multiplexer serial number:	ORYXHardware model number:	OX4-SRSoftware version number:	ORYX F/W v4.00 Oryx Data Collector v3.7.2.0data status	okinstallation	princeton_trtdifferential loss correction	single-endedforward channel	channel 1reverse channel	N/Adate	2019/09/17time	05:30:35forward acquisition time	60.00reverse acquisition time	0.00gamma	496.2192k internal	0.2325k external	0.2325temperature offset calibration	0.9970default loss term (dB/km)	0.3790temperature slope calibration	1.0000multiplexer offset coefficient	1.0000multiplexer slope coefficient	1.0000fibre end	0.00T internal ref (°C)	29.25T ext. ref 1 (°C)	0.15T ext. ref 2 (°C)	23.20length (m)	temperature (°C)	Stokes	anti-Stokes-747.200	-122.595	0.162	0.026
-746.185	93.916	0.216	0.247
-745.171	-200.000	0.054	0.283
-744.156	-84.988	0.194	0.061
-743.142	-200.000	-0.018	0.455
-742.127	146.898	0.162	0.219
-741.112	-200.000	0.000	-0.254
-740.098	-111.597	0.229	0.047
-739.083	-85.248	0.265	-0.084
-738.069	-51.156	0.157	-0.074
-737.054	-104.980	-0.240	-0.056
-736.039	-146.256	-0.238	-0.021
-735.025	145.392	-0.056	-0.076
-734.010	-139.997	-0.394	0.042
-732.996	615.740	0.079	0.200
-731.981	-200.000	0.053	-0.302
-730.966	-200.000	0.041	0.292
-729.952	-200.000	-0.065	-0.380
-728.937	486.670	-0.143	0.329
-727.923	800.000	0.079	-0.222
-726.908	-1.032	0.083	0.059
-725.894	-97.202	-0.172	-0.045
-724.879	-200.000	0.001	0.206
-723.864	-200.000	-0.059	0.281
-722.850	5.716	0.028	0.021
-721.835	-106.757	-0.068	0.015
-720.821	68.671	0.152	0.158
-719.806	9.724	-0.325	-0.248
-718.791	800.000	-0.056	-0.194
-717.777	60.869	-0.068	-0.068
-716.762	-4.813	0.265	-0.184
-715.748	-115.712	-0.247	-0.047
-714.733	540.521	0.067	0.161
-713.718	-200.000	-0.035	0.246
-712.704	137.708	0.099	0.130
-711.689	402.116	-0.116	0.246
-710.675	800.000	-0.074	-0.228
-709.660	91.122	0.164	0.185
-708.645	-200.000	0.000	0.275
-707.631	-200.000	-0.028	0.362
-706.616	-200.000	-0.003	0.092
-705.602	800.000	-0.111	0.360
-704.587	177.065	0.193	0.283
-703.572	168.698	0.209	0.299
-702.558	-159.961	-0.273	0.015
-701.543	-113.138	0.398	0.079
-700.529	19.893	0.023	0.018
-699.514	800.000	0.078	-0.251
-698.499	-200.000	0.032	-0.403
-697.485	413.979	-0.125	0.269
-696.470	-128.396	-0.259	-0.037
-695.456	-200.000	-0.006	-0.035
-694.441	-200.000	-0.063	-0.392
-693.426	215.909	-0.098	0.157
-692.412	-88.280	-0.274	0.083
-691.397	4.801	-0.154	-0.114
-690.383	-121.506	-0.295	-0.049
-689.368	-115.301	0.043	0.008
-688.354	102.394	0.203	-0.239
-687.339	296.490	-0.054	0.099
-686.324	-200.000	-0.070	-0.332
-685.310	169.709	-0.167	-0.240
-684.295	800.000	0.093	0.281
-683.281	760.729	0.108	-0.294
-682.266	-114.621	-0.295	0.057
-681.251	800.000	-0.058	-0.221
-680.237	-200.000	-0.017	-0.261
-679.222	800.000	0.129	-0.371
-678.208	277.661	-0.171	-0.306
-677.193	-145.383	-0.043	0.004
-676.178	46.591	-0.340	-0.317
-675.164	-200.000	0.037	-0.193
-674.149	-11.956	-0.229	-0.151
-673.135	-200.000	0.027	0.373
-672.120	32.793	0.104	0.091
-671.105	-117.696	-0.560	-0.101
-670.091	-200.000	-0.042	0.323
-669.076	-46.757	0.363	0.179
-668.062	-1.688	0.277	0.196
-667.047	138.673	0.133	0.176
-666.032	215.233	0.141	-0.224
-665.018	109.168	0.090	0.108
-664.003	-138.787	-0.300	0.033
-662.989	-111.638	0.150	0.031
-661.974	13.757	0.275	-0.215
-660.959	-117.780	0.076	0.014
-659.945	-10.505	0.238	0.159
-658.930	-200.000	-0.014	0.151
-657.916	-13.355	0.119	-0.078
-656.901	-63.662	0.144	0.059
-655.886	800.000	-0.101	0.343
-654.872	-200.000	-0.064	0.284
-653.857	71.336	-0.086	0.090
-652.843	-180.235	-0.342	-0.007
-651.828	593.219	0.100	-0.247
-650.814	282.948	0.152	-0.274
-649.799	114.185	-0.088	-0.108
-648.784	624.728	-0.039	-0.098
-647.770	140.300	-0.347	0.460
-646.755	0.543	-0.078	0.056
-645.741	-25.347	0.396	0.236
-644.726	-157.246	0.238	0.014
-643.711	-146.226	0.284	-0.025
-642.697	-57.707	0.402	0.177
-641.682	-97.932	0.145	-0.038
-640.668	125.185	0.316	-0.400
-639.653	-85.920	-0.120	0.037
-638.638	-200.000	-0.033	-0.231
-637.624	132.344	0.079	-0.102
-636.609	218.732	0.206	-0.331
-635.595	-60.772	-0.293	-0.125
-634.580	273.149	0.197	-0.350
-633.565	-39.747	-0.303	-0.159
-632.551	-200.000	-0.016	-0.295
-631.536	-102.896	-0.239	-0.057
-630.522	30.394	0.124	0.106
-629.507	-116.642	0.156	-0.029
-628.492	26.457	-0.111	-0.093
-627.478	-181.002	0.282	0.006
-626.463	-200.000	0.031	-0.243
-625.449	46.546	0.479	0.446
-624.434	-105.006	-0.281	-0.065
-623.419	34.525	-0.167	0.146
-622.405	-122.685	-0.358	0.058
-621.390	605.631	0.098	-0.245
-620.376	399.845	0.062	-0.130
-619.361	-62.629	-0.335	-0.140
-618.346	312.013	0.120	0.226
-617.332	-86.383	0.008	0.002
-616.317	-75.428	0.188	-0.067
-615.303	52.210	-0.214	-0.205
-614.288	-200.000	-0.007	0.042
-613.273	-1.202	-0.185	0.131
-612.259	125.650	0.103	0.130
-611.244	80.440	0.130	-0.140
-610.230	164.491	-0.034	-0.048
-609.215	54.428	0.124	0.120
-608.201	81.572	-0.109	-0.118
-607.186	-200.000	-0.010	-0.213
-606.171	219.935	-0.018	0.029
-605.157	-93.044	-0.041	-0.011
-604.142	-70.712	-0.377	0.143
-603.128	-146.414	-0.120	-0.010
-602.113	-102.737	-0.278	-0.066
-601.098	800.000	0.051	0.154
-600.084	-116.788	0.098	-0.018
-599.069	800.000	0.059	-0.234
-598.055	-34.273	0.342	-0.188
-597.040	-119.937	0.182	-0.031
-596.025	-12.935	-0.165	-0.108
-595.011	-29.338	0.166	-0.095
-593.996	800.000	-0.056	0.160
-592.982	173.696	-0.066	0.096
-591.967	-52.647	-0.171	0.079
-590.952	-39.369	-0.219	-0.115
-589.938	-200.000	0.016	-0.108
-588.923	800.000	0.111	0.319
-587.909	-200.000	0.005	0.116
-586.894	-200.000	0.029	-0.204
-585.879	-72.041	0.157	0.059
-584.865	-58.381	-0.190	-0.083
-583.850	-200.000	0.036	-0.164
-582.836	433.621	-0.023	-0.050
-581.821	-43.841	0.136	-0.069
-580.806	-104.497	0.089	0.021
-579.792	100.168	0.239	0.278
-578.777	-118.405	-0.209	-0.037
-577.763	-30.192	-0.151	0.086
-576.748	-84.897	-0.054	0.017
-575.733	372.869	-0.080	0.163
-574.719	153.140	0.087	0.120
-573.704	-46.615	0.099	0.049
-572.690	-170.470	-0.120	0.004
-571.675	108.907	-0.060	0.072
-570.661	322.901	-0.218	-0.416
-569.646	197.805	0.163	0.250
-568.631	2.123	-0.097	-0.070
-567.617	306.144	0.023	-0.044
-566.602	-30.316	0.195	-0.111
-565.588	47.506	0.052	-0.048
-564.573	84.175	0.296	0.324
-563.558	-200.000	-0.029	0.157
-562.544	-76.845	0.095	-0.033
-561.529	-133.062	0.267	0.034
-560.515	229.434	-0.116	-0.189
-559.500	800.000	0.023	0.097
-558.485	705.416	-0.120	-0.318
-557.471	-50.220	0.269	-0.128
-556.456	243.704	-0.116	0.195
-555.442	27.098	0.096	0.081
-554.427	292.015	-0.246	0.448
-553.412	160.280	0.126	-0.176
-552.398	-68.363	0.466	-0.181
-551.383	-20.184	0.264	-0.163
-550.369	-20.421	-0.176	-0.109
-549.354	86.002	0.147	-0.162
-548.339	-70.423	0.131	0.050
-547.325	-136.853	-0.332	0.038
-546.310	207.598	0.119	0.186
-545.296	-74.961	-0.018	-0.006
-544.281	61.691	0.259	0.259
-543.266	-85.365	-0.195	-0.061
-542.252	-200.000	0.070	-0.355
-541.237	-200.000	0.004	0.230
-540.223	-146.488	0.165	-0.014
-539.208	-99.008	0.138	0.035
-538.193	-55.879	-0.125	0.056
-537.179	58.154	0.101	0.099
-536.164	-107.428	-0.579	-0.127
-535.150	-145.747	0.237	-0.021
-534.135	44.888	0.131	0.121
-533.121	-180.687	0.294	0.006
-532.106	20.793	-0.345	-0.280
-531.091	55.213	0.339	0.328
-530.077	-68.432	0.296	-0.115
-529.062	-44.983	-0.113	0.056
-528.048	31.082	0.103	-0.088
-527.033	79.969	-0.216	0.232
-526.018	501.525	0.118	0.274
-525.004	165.446	0.180	0.254
-523.989	-59.134	-0.246	0.106
-522.975	-87.772	-0.065	-0.020
-521.960	800.000	-0.081	0.341
-520.945	484.018	-0.126	0.287
-519.931	-200.000	0.034	0.242
-518.916	-84.492	0.450	0.142
-517.902	-200.000	0.041	0.181
-516.887	-176.717	0.253	0.006
-515.872	82.446	-0.037	-0.041
-514.858	-116.646	0.026	0.005
-513.843	171.526	-0.083	0.119
-512.829	-29.152	-0.265	-0.152
-511.814	-200.000	-0.032	-0.264
-510.799	-123.647	0.243	0.039
-509.785	10.116	0.236	-0.179
-508.770	-200.000	-0.081	0.367
-507.756	-115.666	-0.034	0.006
-506.741	125.600	-0.083	-0.105
-505.726	110.342	0.120	-0.144
-504.712	141.745	-0.170	-0.225
-503.697	-200.000	-0.003	0.092
-502.683	-57.000	0.169	-0.075
-501.668	-113.262	-0.250	0.049
-500.653	-125.993	0.061	-0.009
-499.639	-200.000	-0.044	0.302
-498.624	-153.941	0.319	-0.022
-497.610	197.025	0.060	-0.091
-496.595	-69.153	-0.276	-0.106
-495.581	-100.504	-0.604	0.149
-494.566	-167.992	0.059	0.002
-493.551	-172.490	0.266	-0.008
-492.537	186.076	-0.117	0.173
-491.522	-72.594	0.384	-0.142
-490.508	800.000	-0.054	0.170
-489.493	48.727	0.089	0.083
-488.478	-137.511	0.186	-0.021
-487.464	-121.959	-0.087	0.014
-486.449	-173.145	-0.220	0.007
-485.435	-157.697	0.219	-0.013
-484.420	-119.560	-0.206	-0.036
-483.405	24.204	0.038	-0.031
-482.391	-135.542	-0.279	-0.033
-481.376	90.962	0.173	-0.194
-480.362	414.905	-0.059	-0.125
-479.347	-162.549	-0.285	-0.014
-478.332	-200.000	0.053	-0.279
-477.318	-13.841	0.146	0.094
-476.303	-109.013	-0.055	0.012
-475.289	74.372	-0.128	-0.135
-474.274	-115.000	-0.106	0.020
-473.259	-26.168	-0.111	0.065
-472.245	800.000	0.037	-0.143
-471.230	260.986	0.060	-0.104
-470.216	800.000	-0.034	0.118
-469.201	-96.463	0.023	-0.006
-468.186	77.800	0.158	0.169
-467.172	297.920	0.218	-0.399
-466.157	-124.024	-0.243	-0.038
-465.143	72.873	-0.253	0.264
-464.128	31.978	0.110	0.095
-463.113	-200.000	0.015	-0.102
-462.099	800.000	0.056	0.215
-461.084	253.318	-0.023	0.040
-460.070	198.536	0.073	0.111
-459.055	4.228	0.232	0.169
-458.040	142.355	-0.039	0.052
-457.026	-196.061	0.113	0.001
-456.011	-200.000	0.000	0.186
-454.997	-26.654	-0.264	-0.154
-453.982	800.000	0.102	-0.330
-452.968	800.000	0.117	0.400
-451.953	367.786	-0.165	0.332
-450.938	-48.907	0.273	0.131
-449.924	-200.000	-0.048	-0.233
-448.909	-54.919	0.196	0.088
-447.895	164.515	0.066	-0.093
-446.880	-200.000	0.014	0.123
-445.865	800.000	-0.070	0.242
-444.851	65.077	-0.158	0.159
-443.836	-200.000	-0.043	0.215
-442.822	-11.372	-0.416	0.273
-441.807	124.269	0.120	-0.150
-440.792	-180.826	0.113	0.002
-439.778	-200.000	-0.014	-0.098
-438.763	4.545	0.285	-0.209
-437.749	-153.772	-0.162	-0.011
-436.734	800.000	0.122	0.360
-435.719	-62.870	0.114	0.047
-434.705	262.900	0.255	-0.442
-433.690	-200.000	-0.020	0.088
-432.676	-200.000	-0.009	-0.055
-431.661	-8.983	0.190	0.127
-430.646	640.607	0.047	0.120
-429.632	-63.233	-0.090	-0.037
-428.617	217.641	0.093	-0.148
-427.603	31.554	-0.285	0.244
-426.588	154.817	-0.055	-0.076
-425.573	73.819	-0.079	0.083
-424.559	-25.953	-0.102	-0.060
-423.544	290.772	0.062	-0.113
-422.530	65.736	0.102	-0.103
-421.515	-200.000	-0.032	0.149
-420.500	-200.000	-0.079	0.359
-419.486	70.383	0.199	0.205
-418.471	131.778	0.140	0.180
-417.457	83.852	0.105	0.115
-416.442	497.432	0.035	-0.080
-415.428	291.118	0.077	0.139
-414.413	-174.731	-0.209	-0.006
-413.398	800.000	-0.054	-0.197
-412.384	-200.000	-0.004	-0.253
-411.369	-140.360	0.152	-0.016
-410.355	-100.700	-0.150	0.037
-409.340	321.720	-0.112	0.211
-408.325	16.856	0.186	0.147
-407.311	316.923	0.080	-0.150
-406.296	-92.965	-0.338	0.094
-405.282	447.060	-0.084	-0.183
-404.267	-200.000	0.031	-0.189
-403.252	-200.000	0.009	0.111
-402.238	308.395	0.030	0.056
-401.223	-200.000	-0.013	0.106
-400.209	-43.957	-0.156	-0.078
-399.194	98.508	-0.176	0.202
-398.179	-200.000	-0.014	-0.508
-397.165	-61.698	-0.440	-0.184
-396.150	333.559	-0.103	0.198
-395.136	450.040	-0.064	0.140
-394.121	-65.331	-0.188	0.075
-393.106	800.000	-0.120	-0.479
-392.092	-200.000	0.013	-0.165
-391.077	800.000	0.048	0.147
-390.063	4.940	0.163	-0.120
-389.048	26.822	-0.168	-0.140
-388.033	29.163	-0.152	0.128
-387.019	800.000	-0.087	0.310
-386.004	-200.000	0.028	-0.273
-384.990	-83.998	-0.204	-0.065
-383.975	800.000	-0.079	0.257
-382.960	69.927	-0.157	-0.162
-381.946	-66.275	-0.093	0.037
-380.931	49.150	-0.167	-0.156
-379.917	135.750	0.084	-0.109
-378.902	390.141	0.042	0.086
-377.888	800.000	0.037	0.136
-376.873	-200.000	0.046	-0.247
-375.858	354.814	0.270	0.535
-374.844	-151.390	-0.188	-0.014
-373.829	800.000	0.011	-0.037
-372.815	29.322	0.230	0.194
-371.800	-9.718	-0.073	0.049
-370.785	-186.833	0.166	-0.002
-369.771	344.909	-0.154	-0.301
-368.756	-200.000	0.017	-0.259
-367.742	278.268	0.052	-0.091
-366.727	64.016	0.068	0.068
-365.712	-33.265	-0.067	0.037
-364.698	-158.997	0.452	-0.025
-363.683	800.000	0.007	0.024
-362.669	28.181	0.198	-0.166
-361.654	-78.434	0.243	-0.083
-360.639	-58.882	0.198	0.085
-359.625	-200.000	0.003	0.034
-358.610	299.640	0.075	-0.138
-357.596	-100.345	-0.275	-0.068
-356.581	124.685	-0.134	-0.167
-355.566	-31.282	0.355	-0.199
-354.552	-200.000	-0.038	-0.224
-353.537	-94.568	0.160	0.043
-352.523	42.147	0.140	0.127
-351.508	-126.526	0.199	-0.029
-350.493	4.289	0.170	0.124
-349.479	-48.681	0.066	0.032
-348.464	800.000	-0.064	-0.186
-347.450	-93.199	0.171	-0.047
-346.435	47.178	-0.121	0.112
-345.420	15.397	0.120	0.094
-344.406	-200.000	0.025	-0.286
-343.391	28.203	0.132	-0.111
-342.377	356.587	0.046	-0.091
-341.362	323.104	-0.074	0.140
-340.348	-200.000	0.035	-0.265
-339.333	-114.997	0.414	-0.078
-338.318	-102.918	-0.118	0.028
-337.304	-200.000	0.055	-0.351
-336.289	-50.190	0.154	-0.073
-335.275	640.401	0.117	0.296
-334.260	-154.729	-0.290	0.019
-333.245	-200.000	-0.068	0.374
-332.231	-200.000	-0.019	0.119
-331.216	-104.106	0.025	0.006
-330.202	37.675	-0.089	-0.079
-329.187	73.727	-0.107	0.111
-328.172	-185.273	0.130	0.002
-327.158	29.288	0.106	0.089
-326.143	-200.000	0.040	-0.178
-325.129	-102.827	0.112	0.026
-324.114	-141.951	0.235	0.023
-323.099	800.000	-0.110	0.315
-322.085	-100.429	-0.400	-0.098
-321.070	-75.999	-0.101	-0.035
-320.056	-18.657	-0.231	0.143
-319.041	800.000	0.132	0.413
-318.026	-173.214	0.081	-0.002
-317.012	800.000	0.030	0.114
-315.997	221.966	0.144	-0.229
-314.983	-77.390	0.135	-0.047
-313.968	-16.645	-0.523	0.329
-312.953	122.869	0.223	0.276
-311.939	800.000	-0.091	0.377
-310.924	117.507	0.152	-0.186
-309.910	-112.334	-0.199	-0.040
-308.895	32.673	0.062	0.054
-307.880	-194.536	-0.498	0.004
-306.866	184.876	-0.089	0.131
-305.851	385.224	0.028	-0.058
-304.837	800.000	0.092	-0.385
-303.822	63.761	0.122	-0.122
-302.807	125.601	0.121	-0.151
-301.793	-110.251	-0.093	0.019
-300.778	-53.878	-0.292	0.132
-299.764	-130.061	0.365	0.049
-298.749	-89.626	-0.405	-0.118
-297.735	-200.000	0.089	0.614
-296.720	363.244	0.088	0.175
-295.705	-123.295	-0.168	0.027
-294.691	112.187	-0.138	-0.165
-293.676	781.761	0.030	0.082
-292.662	5.806	-0.351	0.257
-291.647	-175.694	-0.292	-0.008
-290.632	216.319	0.116	0.183
-289.618	-73.104	-0.077	-0.028
-288.603	-145.563	0.088	0.008
-287.589	445.810	0.020	0.043
-286.574	52.191	-0.188	-0.177
-285.559	-101.508	-0.173	-0.042
-284.545	-146.060	-0.115	-0.010
-283.530	93.779	-0.101	-0.114
-282.516	51.569	-0.124	-0.117
-281.501	31.115	0.073	0.062
-280.486	631.740	-0.142	-0.356
-279.472	294.984	-0.022	-0.040
-278.457	-51.033	-0.195	-0.091
-277.443	175.018	0.089	-0.128
-276.428	55.433	-0.273	-0.262
-275.413	-68.663	0.318	0.122
-274.399	-138.183	0.145	0.016
-273.384	149.253	-0.009	-0.012
-272.370	15.209	0.082	0.063
-271.355	800.000	-0.104	0.337
-270.340	-59.961	-0.051	-0.022
-269.326	-200.000	-0.012	0.124
-268.311	800.000	0.081	0.258
-267.297	-36.663	0.254	-0.135
-266.282	-95.717	0.147	-0.039
-265.267	-15.521	-0.322	0.203
-264.253	-146.377	0.164	0.014
-263.238	800.000	0.087	-0.250
-262.224	136.871	0.121	-0.156
-261.209	163.839	-0.138	-0.193
-260.195	49.238	-0.186	-0.173
-259.180	-200.000	0.019	0.109
-258.165	-46.878	0.225	0.109
-257.151	66.953	-0.139	-0.140
-256.136	211.190	0.067	0.105
-255.122	63.696	-0.029	0.029
-254.107	-164.623	0.468	0.021
-253.092	-200.000	-0.050	0.258
-252.078	-139.550	-0.141	0.015
-251.063	-41.130	-0.144	0.074
-250.049	-89.112	-0.283	-0.083
-249.034	275.087	0.154	0.270
-248.019	-35.649	0.088	-0.047
-247.005	173.950	-0.080	-0.114
-245.990	0.393	-0.170	-0.120
-244.976	800.000	0.092	0.294
-243.961	734.905	-0.081	0.215
-242.946	104.119	0.122	0.142
-241.932	-122.231	-0.427	0.069
-240.917	195.069	-0.073	-0.110
-239.903	-160.045	-0.296	0.016
-238.888	-200.000	0.040	-0.249
-237.873	-102.780	-0.362	0.085
-236.859	-200.000	-0.064	0.300
-235.844	-200.000	0.018	-0.132
-234.830	49.756	0.204	0.190
-233.815	109.705	-0.063	0.074
-232.800	156.053	-0.015	-0.021
-231.786	590.574	-0.095	-0.233
-230.771	-200.000	-0.028	-0.322
-229.757	-83.741	0.212	-0.067
-228.742	-34.052	-0.073	0.040
-227.727	-200.000	0.058	-0.284
-226.713	-200.000	-0.034	-0.164
-225.698	-59.633	-0.393	-0.167
-224.684	34.340	-0.100	0.086
-223.669	26.720	-0.192	-0.159
-222.655	-200.000	-0.040	-0.312
-221.640	-109.849	0.203	-0.042
-220.625	-82.406	0.135	-0.043
-219.611	800.000	0.042	-0.135
-218.596	-57.075	0.256	-0.112
-217.582	236.731	0.074	-0.121
-216.567	800.000	0.142	-0.414
-215.552	-89.018	0.073	0.021
-214.538	-102.113	0.055	0.013
-213.523	62.668	-0.236	0.234
-212.509	194.914	-0.066	0.098
-211.494	56.696	-0.135	-0.130
-210.479	379.372	-0.009	-0.017
-209.465	211.747	0.067	-0.104
-208.450	-44.724	0.191	-0.094
-207.436	800.000	0.076	0.314
-206.421	383.145	0.043	0.088
-205.406	126.810	0.084	0.105
-204.392	-51.513	-0.328	-0.151
-203.377	-126.378	0.430	0.063
-202.363	43.542	-0.062	0.056
-201.348	-32.385	-0.352	0.194
-200.333	31.840	0.172	0.146
-199.319	30.916	0.084	0.071
-198.304	-38.260	0.040	0.021
-197.290	335.898	-0.065	-0.124
-196.275	-200.000	0.036	-0.454
-195.260	-97.548	-0.353	-0.091
-194.246	-95.748	-0.171	0.045
-193.231	-72.342	-0.188	-0.069
-192.217	6.568	-0.107	-0.078
-191.202	-200.000	0.009	-0.433
-190.187	39.075	-0.154	-0.136
-189.173	2.119	0.249	0.177
-188.158	-200.000	0.005	0.046
-187.144	-144.721	0.229	-0.021
-186.129	404.154	0.057	-0.119
-185.114	800.000	-0.188	0.515
-184.100	-200.000	-0.001	-0.162
-183.085	14.303	0.024	0.018
-182.071	-200.000	-0.008	0.157
-181.056	-16.212	0.142	-0.089
-180.042	97.162	-0.111	-0.126
-179.027	10.039	0.174	0.131
-178.012	-68.254	0.222	-0.085
-176.998	62.348	0.156	-0.153
-175.983	-200.000	-0.023	-0.171
-174.969	-200.000	0.010	-0.267
-173.954	-19.319	0.161	0.098
-172.939	793.685	-0.086	0.234
-171.925	133.891	-0.224	-0.286
-170.910	116.397	0.229	0.277
-169.896	-200.000	0.024	-0.365
-168.881	-92.250	-0.455	-0.127
-167.866	-7.009	0.071	-0.048
-166.852	-61.980	-0.205	-0.084
-165.837	21.781	0.162	-0.130
-164.823	-135.599	-0.049	0.006
-163.808	348.705	-0.126	0.246
-162.793	-136.356	-0.170	0.020
-161.779	-83.252	-0.214	0.068
-160.764	-25.989	0.183	0.106
-159.750	29.294	-0.334	0.279
-158.735	800.000	0.094	-0.345
-157.720	-33.524	0.224	0.122
-156.706	-19.423	0.311	-0.190
-155.691	-79.927	-0.148	-0.049
-154.677	-77.295	-0.041	0.014
-153.662	-65.747	0.071	-0.028
-152.647	46.067	0.051	0.046
-151.633	800.000	-0.156	0.459
-150.618	57.028	-0.232	-0.223
-149.604	-146.399	-0.013	-0.001
-148.589	-200.000	0.001	-0.112
-147.574	289.192	0.247	-0.442
-146.560	-18.768	0.232	-0.142
-145.545	621.438	-0.061	0.151
-144.531	-200.000	-0.020	0.153
-143.516	121.282	0.119	-0.146
-142.502	794.153	0.149	0.404
-141.487	800.000	-0.043	0.149
-140.472	554.108	0.047	-0.112
-139.458	2.847	0.340	-0.243
-138.443	-147.565	0.470	-0.039
-137.429	23.619	-0.083	-0.068
-136.414	122.661	0.067	0.082
-135.399	-150.577	-0.309	-0.023
-134.385	107.218	0.083	0.097
-133.370	-3.069	0.242	-0.166
-132.356	-95.051	0.217	0.058
-131.341	-25.824	0.275	0.160
-130.326	-200.000	-0.330	-0.001
-129.312	-123.767	0.497	-0.077
-128.297	-182.570	-0.244	-0.004
-127.283	-200.000	0.081	-0.379
-126.268	70.764	-0.080	-0.081
-125.253	-108.685	0.488	-0.103
-124.239	-70.832	0.300	-0.112
-123.224	-157.623	-0.117	0.007
-122.210	-42.494	0.248	0.125
-121.195	101.611	0.042	-0.049
