DTS Sentinel unit serial number:	SN413079Multiplexer serial number:	ORYXHardware model number:	OX4-SRSoftware version number:	ORYX F/W v4.00 Oryx Data Collector v3.7.2.0data status	okinstallation	princeton_trtdifferential loss correction	single-endedforward channel	channel 1reverse channel	N/Adate	2019/09/14time	20:38:35forward acquisition time	60.00reverse acquisition time	0.00gamma	496.2192k internal	0.2316k external	0.2316temperature offset calibration	1.0015default loss term (dB/km)	0.3790temperature slope calibration	1.0000multiplexer offset coefficient	1.0000multiplexer slope coefficient	1.0000fibre end	0.00T internal ref (°C)	33.41T ext. ref 1 (°C)	4.78T ext. ref 2 (°C)	28.05length (m)	temperature (°C)	Stokes	anti-Stokes-747.200	-25.956	-0.122	0.073
-746.185	65.265	-0.037	0.038
-745.171	-200.000	0.040	0.246
-744.156	42.691	0.342	0.316
-743.142	800.000	0.010	0.028
-742.127	-200.000	0.027	0.267
-741.112	-123.596	-0.066	0.011
-740.098	4.218	0.155	0.115
-739.083	68.254	0.181	0.188
-738.069	-40.799	0.152	-0.080
-737.054	-157.382	-0.114	-0.007
-736.039	-11.201	-0.151	0.101
-735.025	-200.000	0.079	-0.364
-734.010	-117.346	-0.140	-0.026
-732.996	-112.154	-0.359	-0.073
-731.981	224.092	0.095	-0.156
-730.966	-95.893	-0.306	0.082
-729.952	-200.000	-0.035	-0.209
-728.937	11.854	-0.172	0.134
-727.923	-139.837	-0.413	-0.044
-726.908	11.051	-0.024	0.019
-725.894	-167.596	-0.373	0.015
-724.879	800.000	0.029	0.117
-723.864	-157.938	-0.480	-0.029
-722.850	-132.254	-0.212	0.028
-721.835	-65.573	-0.082	-0.033
-720.821	60.188	-0.127	-0.127
-719.806	-160.026	-0.175	-0.010
-718.791	-46.398	0.109	-0.054
-717.777	-102.873	0.311	-0.075
-716.762	-103.816	-0.140	0.033
-715.748	800.000	-0.067	-0.193
-714.733	233.735	0.117	0.195
-713.718	-46.773	-0.349	0.173
-712.704	-21.580	0.063	-0.039
-711.689	32.535	-0.007	-0.006
-710.675	-110.883	0.102	0.021
-709.660	646.473	-0.152	-0.393
-708.645	-155.537	0.165	0.011
-707.631	-200.000	-0.018	0.170
-706.616	-19.462	-0.215	0.135
-705.602	-14.151	-0.070	-0.045
-704.587	-83.728	-0.306	0.099
-703.572	-71.156	0.173	-0.066
-702.558	-43.258	0.206	-0.105
-701.543	800.000	-0.102	-0.317
-700.529	165.725	-0.156	-0.223
-699.514	-200.000	-0.002	-0.190
-698.499	111.328	0.075	-0.092
-697.485	101.792	0.082	0.097
-696.470	-41.149	-0.175	-0.091
-695.456	407.346	0.166	-0.356
-694.441	-57.078	-0.318	-0.142
-693.426	68.350	-0.008	-0.008
-692.412	-200.000	-0.001	-0.061
-691.397	50.102	-0.114	-0.108
-690.383	43.046	-0.116	0.107
-689.368	-200.000	0.019	-0.219
-688.354	-49.495	-0.063	0.030
-687.339	-200.000	-0.057	-0.423
-686.324	-19.734	0.065	-0.040
-685.310	-81.622	-0.215	-0.071
-684.295	-134.906	-0.104	0.013
-683.281	-29.297	-0.104	0.060
-682.266	-20.079	-0.181	0.112
-681.251	-138.315	0.290	0.032
-680.237	-81.963	-0.326	-0.108
-679.222	-50.787	-0.172	-0.082
-678.208	293.904	0.048	-0.089
-677.193	-91.015	-0.188	-0.055
-676.178	-103.229	-0.053	-0.013
-675.164	-200.000	0.028	0.167
-674.149	-16.002	-0.332	-0.213
-673.135	18.741	0.106	-0.086
-672.120	-200.000	-0.080	0.416
-671.105	-22.683	-0.155	-0.094
-670.091	800.000	0.109	0.315
-669.076	-200.000	0.012	0.055
-668.062	-200.000	-0.004	-0.143
-667.047	-115.920	-0.124	-0.023
-666.032	-145.903	-0.397	0.036
-665.018	-200.000	0.026	0.208
-664.003	164.686	-0.169	0.241
-662.989	-15.759	-0.158	0.102
-661.974	-54.195	0.435	0.199
-660.959	608.581	-0.097	-0.244
-659.945	269.235	0.130	0.230
-658.930	-53.911	-0.311	-0.143
-657.916	-131.471	0.498	0.066
-656.901	44.191	0.111	-0.102
-655.886	800.000	0.018	-0.060
-654.872	-149.989	-0.092	-0.007
-653.857	464.620	-0.173	-0.390
-652.843	584.734	-0.138	-0.342
-651.828	140.125	-0.049	-0.065
-650.814	-153.109	-0.170	0.012
-649.799	-10.883	-0.036	-0.024
-648.784	-142.838	0.052	0.005
-647.770	89.763	-0.069	-0.078
-646.755	-54.478	0.227	0.104
-645.741	-47.677	-0.182	0.089
-644.726	-71.437	-0.361	-0.137
-643.711	167.983	-0.185	-0.266
-642.697	306.954	-0.098	0.185
-641.682	-200.000	0.029	0.169
-640.668	-68.774	-0.064	0.025
-639.653	-14.111	0.042	-0.027
-638.638	39.414	-0.263	0.238
-637.624	448.695	-0.091	-0.202
-636.609	-60.262	0.290	-0.125
-635.595	-108.030	0.087	0.019
-634.580	25.147	-0.114	0.096
-633.565	0.440	0.235	-0.169
-632.551	91.296	0.184	-0.208
-631.536	151.226	0.061	-0.083
-630.522	0.751	-0.099	-0.072
-629.507	-7.433	0.150	-0.102
-628.492	-35.800	-0.198	0.108
-627.478	26.620	0.219	-0.185
-626.463	-124.001	-0.274	-0.044
-625.449	800.000	0.100	0.279
-624.434	83.004	0.180	0.197
-623.419	11.341	-0.338	0.261
-622.405	-200.000	0.001	0.092
-621.390	60.042	0.160	-0.159
-620.376	60.832	-0.013	-0.013
-619.361	-172.482	-0.192	0.006
-618.346	156.476	0.162	-0.225
-617.332	170.693	-0.182	0.263
-616.317	-133.265	-0.089	0.011
-615.303	-61.977	0.167	0.070
-614.288	198.595	-0.193	-0.297
-613.273	31.557	0.115	0.100
-612.259	-35.523	0.386	-0.211
-611.244	-16.849	-0.117	-0.074
-610.230	-24.802	0.075	-0.045
-609.215	18.807	-0.211	0.171
-608.201	-200.000	-0.038	-0.327
-607.186	585.048	-0.044	-0.109
-606.171	52.496	-0.144	-0.139
-605.157	800.000	-0.051	0.212
-604.142	-55.171	-0.188	0.085
-603.128	164.029	0.051	0.073
-602.113	-127.719	-0.346	-0.050
-601.098	-200.000	0.009	-0.103
-600.084	199.731	-0.039	-0.061
-599.069	-86.112	-0.149	-0.046
-598.055	-37.008	-0.127	-0.069
-597.040	-75.896	0.133	-0.047
-596.025	-200.000	0.009	-0.147
-595.011	690.102	0.016	0.043
-593.996	73.095	-0.104	-0.110
-592.982	-200.000	-0.084	-0.000
-591.967	0.503	-0.255	0.184
-590.952	-200.000	0.007	-0.070
-589.938	-200.000	-0.001	0.200
-588.923	-84.979	0.085	0.027
-587.909	-47.369	0.294	-0.144
-586.894	15.232	-0.138	-0.109
-585.879	-34.358	0.085	-0.047
-584.865	551.177	-0.047	-0.113
-583.850	6.661	-0.193	0.144
-582.836	-162.967	-0.241	0.012
-581.821	800.000	-0.079	0.268
-580.806	10.870	-0.257	0.198
-579.792	591.601	0.030	-0.074
-578.777	460.931	0.111	0.249
-577.763	-53.569	0.218	0.100
-576.748	223.148	0.136	0.221
-575.733	64.631	-0.122	0.124
-574.719	-101.064	0.307	0.076
-573.704	-200.000	-0.027	0.329
-572.690	87.208	-0.085	0.094
-571.675	9.091	-0.268	0.204
-570.661	6.865	-0.281	-0.211
-569.646	414.799	-0.050	-0.107
-568.631	800.000	0.063	-0.198
-567.617	-22.226	-0.060	0.037
-566.602	-200.000	0.010	0.335
-565.588	-55.104	-0.145	-0.066
-564.573	-200.000	0.076	-0.519
-563.558	800.000	0.058	-0.231
-562.544	-78.916	-0.044	-0.015
-561.529	-85.581	-0.169	-0.053
-560.515	13.725	-0.119	0.093
-559.500	-65.808	-0.150	0.060
-558.485	-84.894	-0.450	-0.142
-557.471	800.000	0.064	0.179
-556.456	-200.000	-0.257	0.001
-555.442	-51.062	-0.280	0.132
-554.427	442.409	0.098	0.216
-553.412	-200.000	0.034	-0.317
-552.398	-200.000	-0.000	-0.190
-551.383	22.065	0.177	-0.145
-550.369	255.020	-0.100	0.173
-549.354	-121.612	0.364	-0.061
-548.339	-200.000	0.014	-0.227
-547.325	149.227	-0.026	-0.035
-546.310	-55.650	-0.312	-0.140
-545.296	-200.000	0.011	-0.103
-544.281	473.238	-0.058	0.132
-543.266	3.871	-0.088	-0.064
-542.252	800.000	0.030	-0.124
-541.237	-113.681	0.138	-0.027
-540.223	-70.831	-0.413	-0.156
-539.208	2.038	0.251	0.182
-538.193	800.000	0.053	0.207
-537.179	-61.371	-0.191	-0.081
-536.164	-19.013	0.308	0.193
-535.150	190.411	0.048	0.073
-534.135	-9.344	0.148	0.099
-533.121	-174.566	-0.114	0.003
-532.106	-169.273	0.109	0.004
-531.091	-61.464	0.216	-0.091
-530.077	166.752	-0.128	-0.182
-529.062	-19.345	0.180	0.112
-528.048	59.648	0.220	0.218
-527.033	347.994	-0.087	0.171
-526.018	-152.506	0.258	0.019
-525.004	-200.000	0.032	-0.171
-523.989	320.653	-0.107	-0.205
-522.975	540.038	0.077	0.183
-521.960	300.927	0.016	0.029
-520.945	102.656	0.126	-0.148
-519.931	290.997	-0.058	-0.105
-518.916	800.000	0.072	-0.291
-517.902	45.026	0.240	0.222
-516.887	800.000	-0.113	-0.482
-515.872	-44.251	0.238	-0.120
-514.858	-108.842	-0.184	-0.040
-513.843	156.541	0.029	0.041
-512.829	800.000	-0.057	-0.204
-511.814	-200.000	0.033	-0.234
-510.799	470.372	0.187	0.421
-509.785	-189.073	-0.238	0.003
-508.770	-126.661	-0.146	-0.022
-507.756	-113.056	-0.153	-0.030
-506.741	326.992	0.068	-0.131
-505.726	800.000	0.032	-0.112
-504.712	-200.000	0.001	0.180
-503.697	-200.000	0.004	-0.075
-502.683	-40.080	0.190	-0.100
-501.668	800.000	-0.042	-0.126
-500.653	-200.000	0.006	-0.096
-499.639	103.062	0.161	-0.189
-498.624	-107.355	0.286	0.063
-497.610	-70.316	0.099	0.038
-496.595	72.308	0.187	-0.196
-495.581	-59.841	0.482	0.207
-494.566	-99.234	0.317	0.080
-493.551	123.078	-0.044	-0.055
-492.537	70.147	0.108	-0.112
-491.522	-200.000	-0.061	-0.304
-490.508	-61.345	-0.264	-0.112
-489.493	23.032	0.314	-0.258
-488.478	800.000	-0.126	0.504
-487.464	20.866	-0.109	-0.089
-486.449	-99.651	-0.029	0.007
-485.435	-104.315	-0.130	-0.030
-484.420	95.619	0.099	0.113
-483.405	800.000	0.062	-0.174
-482.391	-200.000	0.014	-0.153
-481.376	-81.215	0.025	0.008
-480.362	-200.000	-0.066	-0.491
-479.347	-26.016	-0.272	-0.161
-478.332	9.221	0.186	-0.141
-477.318	398.552	-0.102	-0.214
-476.303	285.618	-0.171	-0.309
-475.289	-68.629	-0.441	-0.171
-474.274	-113.133	-0.066	-0.013
-473.259	605.093	0.014	-0.036
-472.245	245.778	0.042	0.071
-471.230	-61.366	0.188	0.079
-470.216	153.632	-0.035	-0.048
-469.201	-94.143	-0.190	-0.052
-468.186	14.165	-0.090	0.070
-467.172	-126.458	0.172	-0.026
-466.157	21.601	0.330	-0.269
-465.143	-200.000	0.049	0.224
-464.128	-51.726	0.498	-0.232
-463.113	-137.457	-0.135	0.015
-462.099	-140.837	0.091	0.009
-461.084	-179.547	-0.294	0.006
-460.070	-200.000	0.003	0.189
-459.055	-200.000	0.003	-0.092
-458.040	-200.000	-0.002	-0.057
-457.026	-200.000	0.030	-0.212
-456.011	-200.000	0.018	0.159
-454.997	89.070	0.151	-0.168
-453.982	122.158	-0.081	0.101
-452.968	28.804	-0.233	-0.197
-451.953	800.000	-0.010	-0.036
-450.938	-200.000	0.038	0.188
-449.924	-41.516	-0.248	0.127
-448.909	-108.585	-0.235	-0.051
-447.895	-77.577	-0.321	0.111
-446.880	-31.187	0.090	-0.051
-445.865	59.786	-0.228	-0.225
-444.851	117.203	0.095	-0.117
-443.836	22.455	-0.181	0.148
-442.822	-106.631	0.212	0.047
-441.807	-29.641	0.176	0.101
-440.792	137.740	0.108	0.141
-439.778	800.000	0.031	-0.125
-438.763	41.028	-0.059	-0.054
-437.749	12.741	-0.036	0.028
-436.734	-200.000	-0.002	0.019
-435.719	-143.697	-0.345	0.033
-434.705	21.915	0.201	0.164
-433.690	324.575	0.054	0.103
-432.676	226.106	-0.136	0.220
-431.661	100.486	-0.170	0.197
-430.646	-200.000	0.011	-0.119
-429.632	-145.872	-0.542	0.048
-428.617	-200.000	-0.019	-0.117
-427.603	499.242	-0.095	0.219
-426.588	443.157	-0.051	-0.112
-425.573	18.997	-0.343	0.275
-424.559	-200.000	-0.028	-0.233
-423.544	8.725	0.145	-0.110
-422.530	4.999	0.120	0.088
-421.515	-89.398	0.498	-0.146
-420.500	-96.220	-0.051	-0.013
-419.486	-87.884	-0.200	0.060
-418.471	-73.945	-0.237	0.086
-417.457	-65.575	0.235	0.094
-416.442	-167.911	-0.113	-0.004
-415.428	69.712	-0.030	0.030
-414.413	-200.000	0.004	-0.180
-413.398	-42.981	0.173	0.088
-412.384	-117.751	0.382	0.069
-411.369	362.000	0.075	-0.151
-410.355	-66.740	-0.114	0.045
-409.340	-200.000	0.055	-0.341
-408.325	-56.351	0.062	0.027
-407.311	303.938	-0.025	-0.047
-406.296	-200.000	0.024	-0.155
-405.282	90.419	0.138	0.154
-404.267	-53.834	0.125	-0.057
-403.252	158.772	0.051	0.070
-402.238	800.000	0.110	-0.358
-401.223	-122.910	0.143	-0.023
-400.209	193.480	0.049	-0.075
-399.194	-137.052	0.191	-0.022
-398.179	-132.262	-0.140	0.018
-397.165	145.084	-0.091	0.122
-396.150	-121.945	0.061	0.010
-395.136	-63.510	-0.137	0.056
-394.121	800.000	0.112	0.309
-393.106	103.073	0.075	0.088
-392.092	800.000	0.047	-0.190
-391.077	34.590	-0.269	-0.235
-390.063	-87.341	-0.076	-0.023
-389.048	-60.777	0.083	-0.035
-388.033	-200.000	-0.037	-0.236
-387.019	558.149	0.038	0.091
-386.004	46.419	0.107	-0.099
-384.990	-96.844	-0.312	0.082
-383.975	-24.934	0.024	-0.014
-382.960	-56.441	-0.332	0.147
-381.946	254.921	-0.077	0.131
-380.931	800.000	0.057	0.170
-379.917	205.299	0.100	0.156
-378.902	-62.020	-0.142	-0.059
-377.888	-6.794	0.174	-0.118
-376.873	169.266	0.149	0.212
-375.858	40.920	0.323	0.291
-374.844	12.190	0.130	0.100
-373.829	-101.227	-0.200	0.049
-372.815	441.505	-0.147	0.320
-371.800	172.855	0.103	-0.148
-370.785	175.035	-0.222	-0.321
-369.771	-30.102	-0.115	0.066
-368.756	110.228	-0.164	-0.197
-367.742	144.909	-0.195	-0.260
-366.727	-82.690	0.455	-0.147
-365.712	-152.010	0.109	0.008
-364.698	-64.318	-0.141	-0.057
-363.683	-86.359	0.094	0.029
-362.669	-59.288	0.236	0.101
-361.654	800.000	0.065	0.220
-360.639	-200.000	-0.020	-0.141
-359.625	140.831	0.181	0.238
-358.610	-9.351	-0.144	0.096
-357.596	227.205	0.110	-0.178
-356.581	800.000	-0.034	0.148
-355.566	-140.697	-0.404	-0.042
-354.552	148.606	-0.099	-0.134
-353.537	-147.788	-0.464	-0.039
-352.523	79.312	-0.272	-0.291
-351.508	107.764	-0.079	-0.094
-350.493	464.911	-0.015	0.033
-349.479	84.955	-0.203	0.221
-348.464	800.000	-0.087	-0.301
-347.450	46.825	-0.112	-0.104
-346.435	461.002	0.175	0.390
-345.420	-41.133	-0.072	-0.037
-344.406	-1.838	-0.168	-0.118
-343.391	-80.252	0.082	-0.027
-342.377	-95.202	-0.178	-0.048
-341.362	-155.954	0.045	0.003
-340.348	93.960	0.126	-0.143
-339.333	-148.422	0.139	-0.011
-338.318	-200.000	-0.063	0.441
-337.304	328.291	-0.097	0.186
-336.289	78.397	0.108	-0.115
-335.275	-175.590	0.362	-0.010
-334.260	-41.868	-0.167	-0.086
-333.245	59.956	0.045	0.044
-332.231	800.000	0.102	0.394
-331.216	-78.613	-0.144	0.049
-330.202	-47.028	-0.148	0.072
-329.187	-89.937	0.589	0.171
-328.172	253.026	0.206	0.351
-327.158	-161.217	0.085	-0.004
-326.143	800.000	-0.031	0.118
-325.129	156.587	-0.067	-0.092
-324.114	-200.000	-0.006	0.137
-323.099	154.866	0.124	0.169
-322.085	-1.716	0.362	-0.254
-321.070	-103.255	-0.157	0.037
-320.056	-82.283	-0.251	0.081
-319.041	14.737	0.063	-0.049
-318.026	-200.000	0.044	-0.201
-317.012	50.124	-0.199	0.187
-315.997	227.606	-0.231	0.375
-314.983	-83.450	0.096	-0.031
-313.968	-166.781	0.260	0.011
-312.953	-92.796	-0.379	-0.106
-311.939	-17.477	0.204	-0.128
-310.924	-75.749	-0.128	0.045
-309.910	46.419	0.247	-0.228
-308.895	-200.000	-0.011	0.097
-307.880	15.824	0.130	-0.102
-306.866	-26.761	0.270	-0.157
-305.851	-49.078	-0.325	-0.155
-304.837	347.666	-0.124	0.243
-303.822	-200.000	-0.017	0.098
-302.807	-113.894	-0.205	-0.040
-301.793	-23.186	0.101	0.061
-300.778	-79.595	-0.192	-0.064
-299.764	241.909	-0.066	-0.110
-298.749	-107.930	-0.353	0.076
-297.735	-141.304	0.333	0.034
-296.720	77.827	-0.174	0.185
-295.705	320.877	-0.075	-0.142
-294.691	84.409	0.162	0.176
-293.676	800.000	-0.184	-0.562
-292.662	-200.000	-0.070	0.309
-291.647	-14.570	0.059	0.038
-290.632	22.852	0.166	0.135
-289.618	800.000	-0.067	0.205
-288.603	53.336	0.146	0.140
-287.589	800.000	0.082	-0.323
-286.574	-167.853	-0.198	0.008
-285.559	800.000	-0.035	-0.133
-284.545	-61.960	0.161	-0.067
-283.530	34.404	0.194	0.168
-282.516	-51.418	-0.044	0.020
-281.501	200.179	0.233	0.356
-280.486	-6.252	-0.298	0.202
-279.472	-164.214	0.162	-0.007
-278.457	87.529	-0.101	-0.111
-277.443	106.498	-0.209	-0.246
-276.428	-200.000	0.018	-0.188
-275.413	274.587	-0.100	-0.175
-274.399	-0.587	0.477	0.336
-273.384	-113.921	0.118	-0.023
-272.370	-64.442	0.158	0.064
-271.355	-200.000	-0.002	-0.018
-270.340	-200.000	-0.003	0.168
-269.326	61.533	-0.108	0.107
-268.311	-139.730	-0.206	0.022
-267.297	39.848	0.070	0.063
-266.282	580.232	-0.063	0.155
-265.267	45.727	0.233	0.214
-264.253	175.460	-0.217	0.312
-263.238	800.000	-0.059	-0.231
-262.224	-200.000	-0.018	0.124
-261.209	-171.774	0.151	0.005
-260.195	-154.145	-0.237	0.016
-259.180	-81.409	0.400	-0.131
-258.165	615.409	-0.070	-0.174
-257.151	345.354	0.205	0.400
-256.136	-127.840	-0.442	0.063
-255.122	-200.000	0.037	-0.465
-254.107	-50.049	-0.436	-0.205
-253.092	-200.000	-0.025	-0.165
-252.078	-101.937	-0.164	0.039
-251.063	-13.817	0.247	0.159
-250.049	800.000	-0.038	0.131
-249.034	-25.147	-0.142	-0.083
-248.019	-70.054	-0.173	0.065
-247.005	800.000	-0.026	0.111
-245.990	-200.000	0.012	-0.172
-244.976	-145.302	0.488	0.044
-243.961	-40.784	0.339	0.174
-242.946	-37.147	0.231	0.123
-241.932	50.725	0.039	0.037
-240.917	36.445	0.020	0.018
-239.903	-200.000	0.010	-0.069
-238.888	-88.694	0.101	-0.030
-237.873	-117.988	0.228	-0.041
-236.859	43.550	-0.242	0.220
-235.844	-85.084	0.132	-0.041
-234.830	-69.337	-0.026	-0.010
-233.815	-128.182	0.366	-0.052
-232.800	-12.323	0.147	-0.095
-231.786	-140.625	0.379	-0.039
-230.771	56.441	0.193	-0.186
-229.757	-59.815	0.267	0.113
-228.742	-64.537	0.045	-0.018
-227.727	15.908	-0.189	-0.147
-226.713	-35.747	0.223	-0.120
-225.698	-200.000	0.016	0.168
-224.684	800.000	-0.064	0.207
-223.669	-146.715	-0.107	-0.009
-222.655	-200.000	-0.027	0.129
-221.640	-22.688	0.034	0.020
-220.625	274.127	-0.043	-0.075
-219.611	-105.333	-0.174	0.039
-218.596	38.921	-0.117	-0.103
-217.582	-12.787	0.008	-0.005
-216.567	-161.886	-0.292	-0.015
-215.552	-200.000	-0.006	-0.060
-214.538	-146.560	-0.202	0.017
-213.523	181.412	-0.022	0.032
-212.509	285.266	0.147	-0.263
-211.494	-157.672	-0.208	-0.012
-210.479	168.601	0.145	0.205
-209.465	-200.000	0.055	-0.372
-208.450	-90.093	-0.316	0.091
-207.436	-38.477	0.426	0.223
-206.421	354.857	0.080	-0.159
-205.406	-122.251	0.336	-0.054
-204.392	53.765	-0.050	-0.048
-203.377	-200.000	-0.021	-0.097
-202.363	-76.470	0.130	0.045
-201.348	590.487	-0.061	-0.149
-200.333	-200.000	-0.046	0.203
-199.319	-200.000	0.001	-0.134
-198.304	-29.539	-0.276	-0.157
-197.290	800.000	0.005	0.022
-196.275	-82.592	-0.249	-0.080
-195.260	-200.000	-0.002	0.060
-194.246	-36.870	0.110	0.058
-193.231	-200.000	-0.009	0.300
-192.217	695.625	-0.056	0.146
-191.202	80.024	0.241	0.256
-190.187	407.546	0.079	-0.167
-189.173	-200.000	-0.034	-0.183
-188.158	15.039	0.112	0.087
-187.144	26.596	0.069	0.058
-186.129	800.000	-0.099	0.358
-185.114	-52.762	0.142	0.065
-184.100	800.000	0.111	0.366
-183.085	-2.465	-0.121	0.084
-182.071	492.929	-0.026	-0.058
-181.056	2.357	-0.082	0.059
-180.042	140.936	-0.120	-0.157
-179.027	-200.000	-0.011	-0.303
-178.012	800.000	-0.053	0.170
-176.998	800.000	0.030	-0.093
-175.983	-27.761	0.029	0.017
-174.969	351.309	0.159	-0.312
-173.954	-45.905	0.268	-0.131
-172.939	7.289	0.478	0.354
-171.925	-7.059	-0.138	-0.093
-170.910	182.173	0.205	-0.299
-169.896	-60.361	-0.120	0.051
-168.881	5.938	0.165	-0.121
-167.866	-117.732	-0.068	0.012
-166.852	-81.703	-0.255	0.083
-165.837	-200.000	0.016	0.515
-164.823	705.728	0.049	0.127
-163.808	545.178	-0.154	0.364
-162.793	-200.000	0.002	-0.199
-161.779	800.000	0.040	-0.140
-160.764	800.000	-0.032	0.128
-159.750	104.358	-0.073	-0.085
-158.735	800.000	0.046	0.174
-157.720	-103.540	0.167	-0.039
-156.706	140.241	0.064	-0.083
-155.691	-198.268	0.386	-0.002
-154.677	0.641	0.389	0.275
-153.662	800.000	0.066	0.264
-152.647	-200.000	-0.035	0.310
-151.633	-132.081	-0.357	-0.046
-150.618	399.046	-0.029	0.059
-149.604	-121.325	0.255	-0.042
-148.589	-135.511	0.096	0.011
-147.574	-5.988	-0.148	0.100
-146.560	800.000	0.083	-0.245
-145.545	106.128	0.059	0.069
-144.531	-1.469	0.338	0.236
-143.516	63.941	0.087	-0.086
-142.502	-57.303	0.470	0.204
-141.487	284.084	0.091	-0.162
-140.472	317.564	-0.025	-0.046
-139.458	107.306	-0.056	-0.066
-138.443	-42.628	0.324	0.163
-137.429	124.761	0.197	-0.246
-136.414	-184.652	0.119	-0.002
-135.399	-200.000	0.017	0.127
-134.385	-200.000	0.164	-0.000
-133.370	-200.000	0.021	0.255
-132.356	-134.176	0.271	-0.033
-131.341	131.294	0.278	0.353
-130.326	-200.000	-0.000	0.326
-129.312	233.793	0.074	0.121
-128.297	-30.729	-0.381	0.213
-127.283	-122.243	-0.242	0.039
-126.268	46.737	-0.276	0.254
-125.253	38.417	0.120	0.106
-124.239	-98.855	-0.163	0.041
-123.224	12.031	-0.019	0.015
-122.210	-55.158	0.049	0.022
-121.195	-200.000	-0.007	0.176
