DTS Sentinel unit serial number:	SN413079Multiplexer serial number:	ORYXHardware model number:	OX4-SRSoftware version number:	ORYX F/W v4.00 Oryx Data Collector v3.7.2.0data status	okinstallation	princeton_trtdifferential loss correction	single-endedforward channel	channel 1reverse channel	N/Adate	2019/09/17time	09:18:35forward acquisition time	60.00reverse acquisition time	0.00gamma	496.2192k internal	0.2326k external	0.2326temperature offset calibration	0.9959default loss term (dB/km)	0.3790temperature slope calibration	1.0000multiplexer offset coefficient	1.0000multiplexer slope coefficient	1.0000fibre end	0.00T internal ref (°C)	28.59T ext. ref 1 (°C)	0.14T ext. ref 2 (°C)	25.57length (m)	temperature (°C)	Stokes	anti-Stokes-747.200	36.526	-0.280	0.249
-746.185	-94.332	0.202	0.056
-745.171	800.000	-0.030	0.124
-744.156	-96.867	0.159	-0.042
-743.142	205.355	-0.083	-0.130
-742.127	351.442	-0.064	0.128
-741.112	127.203	0.076	0.097
-740.098	200.675	0.132	0.204
-739.083	27.411	0.098	-0.083
-738.069	-26.934	0.332	0.195
-737.054	30.403	-0.100	0.087
-736.039	-96.410	-0.312	-0.083
-735.025	126.791	0.108	0.138
-734.010	-59.593	-0.201	-0.087
-732.996	-200.000	0.248	-0.001
-731.981	-94.481	0.210	-0.058
-730.966	133.263	0.116	-0.151
-729.952	15.383	-0.451	0.357
-728.937	-141.766	0.169	0.017
-727.923	-87.310	-0.464	0.142
-726.908	-200.000	-0.010	-0.313
-725.894	14.100	-0.124	0.097
-724.879	-6.601	-0.106	-0.073
-723.864	-125.718	-0.224	-0.034
-722.850	-200.000	0.008	-0.069
-721.835	-60.595	-0.488	-0.209
-720.821	-15.026	-0.073	0.047
-719.806	-170.605	0.072	0.003
-718.791	114.125	0.117	-0.144
-717.777	-110.932	0.117	-0.024
-716.762	-154.024	-0.326	-0.022
-715.748	91.039	-0.060	0.067
-714.733	723.810	0.032	0.087
-713.718	5.768	0.263	-0.196
-712.704	-40.571	-0.244	0.128
-711.689	-200.000	-0.005	-0.150
-710.675	-154.478	-0.234	0.016
-709.660	18.827	-0.044	-0.036
-708.645	2.682	-0.208	-0.152
-707.631	-200.000	-0.018	-0.221
-706.616	258.333	0.179	-0.311
-705.602	800.000	-0.112	0.365
-704.587	-200.000	-0.008	-0.230
-703.572	-200.000	0.057	-0.279
-702.558	-85.723	0.249	0.078
-701.543	160.395	0.042	0.059
-700.529	772.288	0.073	-0.202
-699.514	-200.000	-0.009	-0.156
-698.499	-127.340	-0.192	-0.028
-697.485	-200.000	-0.027	-0.233
-696.470	348.900	0.185	0.367
-695.456	11.615	-0.090	0.069
-694.441	800.000	0.115	-0.407
-693.426	754.029	0.046	0.125
-692.412	54.127	-0.153	-0.148
-691.397	800.000	0.095	0.391
-690.383	-124.465	-0.080	0.013
-689.368	114.477	-0.075	0.092
-688.354	800.000	-0.041	0.156
-687.339	106.258	-0.214	0.255
-686.324	-1.226	0.179	-0.127
-685.310	257.724	0.088	-0.153
-684.295	123.093	0.090	-0.114
-683.281	-200.000	0.011	-0.099
-682.266	6.189	0.037	0.028
-681.251	782.712	-0.086	0.238
-680.237	-200.000	-0.072	0.406
-679.222	-200.000	-0.010	-0.233
-678.208	800.000	0.062	0.176
-677.193	-4.954	0.057	-0.039
-676.178	800.000	0.024	0.071
-675.164	247.535	-0.058	0.099
-674.149	41.475	-0.240	0.218
-673.135	-4.295	-0.164	0.114
-672.120	800.000	0.050	0.170
-671.105	800.000	-0.057	-0.216
-670.091	33.219	-0.271	-0.236
-669.076	-74.090	-0.343	0.125
-668.062	-200.000	-0.019	0.233
-667.047	33.471	0.045	-0.039
-666.032	800.000	-0.052	0.175
-665.018	-200.000	-0.030	-0.286
-664.003	-69.370	0.429	-0.166
-662.989	-44.032	0.151	-0.076
-661.974	-200.000	-0.020	0.106
-660.959	-156.332	-0.073	-0.005
-659.945	-200.000	-0.002	-0.199
-658.930	-68.686	-0.049	0.019
-657.916	-19.124	0.256	-0.160
-656.901	-200.000	0.053	0.337
-655.886	-200.000	0.000	0.037
-654.872	-200.000	-0.008	-0.163
-653.857	-134.264	0.041	0.005
-652.843	-200.000	0.044	-0.666
-651.828	800.000	-0.039	-0.111
-650.814	570.146	-0.061	0.150
-649.799	-136.575	0.180	-0.021
-648.784	26.422	0.194	0.163
-647.770	118.302	0.147	-0.182
-646.755	48.996	-0.115	-0.109
-645.741	61.230	-0.053	-0.053
-644.726	800.000	0.078	0.239
-643.711	800.000	0.033	0.111
-642.697	-41.262	0.213	0.110
-641.682	795.071	-0.098	-0.271
-640.668	-200.000	0.043	-0.202
-639.653	114.553	0.177	-0.216
-638.638	-200.000	0.013	-0.396
-637.624	137.684	-0.088	-0.116
-636.609	-200.000	-0.017	-0.119
-635.595	-63.645	0.322	-0.133
-634.580	394.850	0.032	-0.067
-633.565	231.563	0.076	0.125
-632.551	-200.000	-0.052	-0.352
-631.536	121.185	0.060	0.075
-630.522	322.855	-0.068	0.130
-629.507	-200.000	-0.056	0.502
-628.492	-32.918	0.252	0.140
-627.478	-200.000	0.015	-0.197
-626.463	-144.326	0.092	-0.009
-625.449	800.000	-0.059	0.186
-624.434	-111.462	0.164	-0.034
-623.419	140.728	-0.100	0.133
-622.405	-79.638	-0.161	-0.055
-621.390	-200.000	0.062	0.325
-620.376	189.099	-0.209	0.315
-619.361	-200.000	0.001	0.080
-618.346	-175.063	-0.064	0.002
-617.332	66.551	0.040	0.041
-616.317	-27.007	-0.150	0.088
-615.303	-185.747	-0.143	-0.002
-614.288	163.930	0.090	-0.127
-613.273	123.423	0.172	-0.217
-612.259	19.621	0.274	-0.221
-611.244	800.000	0.023	-0.075
-610.230	-92.759	-0.147	-0.041
-609.215	-116.637	0.348	0.064
-608.201	-72.659	-0.397	-0.147
-607.186	-72.042	-0.141	0.052
-606.171	-87.797	-0.353	0.107
-605.157	-33.796	0.276	0.153
-604.142	-200.000	0.001	0.028
-603.128	-200.000	0.024	0.184
-602.113	350.012	0.107	-0.212
-601.098	90.099	-0.191	-0.215
-600.084	340.644	0.152	0.297
-599.069	-183.035	0.270	-0.005
-598.055	-85.279	-0.167	-0.052
-597.040	179.158	0.216	0.317
-596.025	118.033	0.176	0.217
-595.011	326.993	0.064	-0.122
-593.996	223.863	0.227	0.368
-592.982	-200.000	-0.001	-0.272
-591.967	800.000	-0.099	-0.296
-590.952	-200.000	-0.089	0.505
-589.938	-94.446	0.547	0.150
-588.923	-145.990	0.230	-0.020
-587.909	471.448	-0.104	0.235
-586.894	800.000	-0.033	-0.101
-585.879	30.712	-0.301	0.258
-584.865	-1.769	0.163	0.115
-583.850	-61.701	-0.259	-0.109
-582.836	-131.273	-0.212	0.028
-581.821	28.236	-0.163	0.138
-580.806	111.399	0.105	0.127
-579.792	98.682	0.138	0.160
-578.777	-35.009	0.261	-0.143
-577.763	104.071	0.110	-0.130
-576.748	-174.189	-0.084	-0.002
-575.733	-88.951	-0.420	0.125
-574.719	193.436	-0.078	-0.118
-573.704	-55.398	-0.250	0.112
-572.690	-39.034	-0.114	-0.060
-571.675	-200.000	0.018	0.168
-570.661	-176.849	-0.108	-0.003
-569.646	568.468	0.087	-0.211
-568.631	-39.126	0.084	0.044
-567.617	150.427	-0.288	-0.391
-566.602	-58.714	0.196	0.085
-565.588	199.558	0.100	0.154
-564.573	800.000	-0.095	0.273
-563.558	-48.539	-0.399	0.192
-562.544	-26.907	-0.017	-0.010
-561.529	14.823	0.156	0.122
-560.515	-6.404	0.072	0.049
-559.500	-200.000	0.007	0.150
-558.485	-130.245	0.235	0.032
-557.471	42.744	-0.048	-0.044
-556.456	117.530	-0.121	0.149
-555.442	-54.803	-0.122	0.055
-554.427	43.973	-0.417	-0.383
-553.412	-176.399	-0.308	-0.008
-552.398	-43.733	-0.198	0.100
-551.383	-3.568	0.258	-0.180
-550.369	-200.000	-0.039	-0.345
-549.354	800.000	0.063	0.243
-548.339	-130.063	-0.082	-0.011
-547.325	800.000	-0.028	0.100
-546.310	144.001	-0.282	-0.376
-545.296	154.974	0.134	0.184
-544.281	-59.180	-0.408	0.176
-543.266	225.129	0.041	0.066
-542.252	-127.042	-0.364	-0.054
-541.237	-143.216	-0.230	-0.022
-540.223	800.000	-0.084	-0.314
-539.208	-90.204	-0.260	-0.076
-538.193	-113.448	-0.165	-0.032
-537.179	800.000	0.028	0.112
-536.164	800.000	-0.104	-0.397
-535.150	16.583	-0.164	-0.130
-534.135	29.948	0.078	0.067
-533.121	-200.000	0.051	-0.244
-532.106	-65.477	-0.052	-0.021
-531.091	-110.533	0.157	-0.032
-530.077	167.512	-0.128	0.182
-529.062	-51.536	-0.049	-0.023
-528.048	-62.070	-0.046	-0.019
-527.033	-75.000	-0.197	-0.071
-526.018	-63.111	0.432	-0.178
-525.004	800.000	-0.118	0.340
-523.989	-44.393	0.206	0.103
-522.975	-25.244	0.453	-0.268
-521.960	800.000	-0.017	-0.073
-520.945	220.237	-0.126	-0.201
-519.931	800.000	-0.034	-0.137
-518.916	80.998	-0.214	-0.231
-517.902	-135.605	0.347	0.041
-516.887	-187.922	-0.148	-0.002
-515.872	-30.878	-0.227	0.128
-514.858	137.775	0.096	-0.126
-513.843	800.000	0.007	0.026
-512.829	32.373	-0.160	0.138
-511.814	-87.661	0.280	0.084
-510.799	-51.553	0.145	0.068
-509.785	-153.602	0.016	-0.001
-508.770	800.000	-0.113	0.395
-507.756	-156.257	-0.190	0.012
-506.741	277.141	0.160	0.284
-505.726	-200.000	0.040	0.254
-504.712	-45.674	0.355	0.175
-503.697	800.000	-0.025	0.083
-502.683	-200.000	0.037	0.227
-501.668	-200.000	-0.041	-0.193
-500.653	-87.587	-0.253	0.076
-499.639	213.521	0.158	-0.250
-498.624	-122.620	-0.202	-0.033
-497.610	-103.027	-0.130	-0.031
-496.595	334.881	0.096	-0.186
-495.581	-200.000	-0.040	0.244
-494.566	-133.925	-0.187	0.023
-493.551	-52.859	-0.257	0.118
-492.537	-200.000	-0.023	-0.393
-491.522	-104.270	-0.232	-0.054
-490.508	-75.339	0.201	0.072
-489.493	-8.375	0.203	-0.136
-488.478	196.997	0.183	-0.279
-487.464	-200.000	-0.170	0.001
-486.449	203.064	-0.153	-0.237
-485.435	-82.377	0.082	0.027
-484.420	441.771	0.165	-0.361
-483.405	-200.000	0.019	-0.124
-482.391	-200.000	0.043	-0.503
-481.376	477.956	0.069	-0.156
-480.362	-200.000	0.002	-0.122
-479.347	800.000	-0.075	0.271
-478.332	-200.000	-0.022	0.255
-477.318	-200.000	0.023	0.133
-476.303	-200.000	0.042	0.202
-475.289	27.327	-0.133	0.112
-474.274	-56.097	-0.203	-0.090
-473.259	-27.681	-0.238	-0.138
-472.245	300.107	-0.069	-0.127
-471.230	-200.000	-0.047	0.225
-470.216	168.596	0.139	-0.198
-469.201	139.042	-0.058	-0.076
-468.186	-112.223	-0.132	-0.026
-467.172	-11.896	0.336	-0.220
-466.157	-200.000	-0.029	-0.228
-465.143	-48.055	-0.197	-0.095
-464.128	-200.000	0.037	-0.169
-463.113	-58.823	-0.111	-0.048
-462.099	-120.275	0.237	0.040
-461.084	800.000	0.031	0.108
-460.070	154.628	0.151	-0.206
-459.055	800.000	-0.107	-0.314
-458.040	3.667	0.134	-0.098
-457.026	-37.315	0.281	-0.150
-456.011	-134.116	-0.349	0.043
-454.997	262.916	0.078	0.135
-453.982	74.644	-0.112	-0.118
-452.968	800.000	0.097	-0.413
-451.953	67.487	-0.150	-0.152
-450.938	800.000	0.036	0.106
-449.924	33.487	-0.051	-0.044
-448.909	800.000	0.012	-0.036
-447.895	-200.000	-0.060	0.452
-446.880	-150.638	-0.184	-0.014
-445.865	-200.000	-0.224	-0.000
-444.851	-67.255	-0.030	-0.012
-443.836	-130.162	-0.202	0.027
-442.822	-86.790	0.066	0.020
-441.807	-190.187	0.323	0.004
-440.792	-118.088	0.346	0.062
-439.778	197.242	-0.184	0.280
-438.763	379.871	0.089	-0.182
-437.749	-200.000	0.035	0.164
-436.734	257.144	0.067	0.115
-435.719	35.708	0.073	-0.064
-434.705	59.128	-0.160	0.157
-433.690	355.009	0.227	0.449
-432.676	-158.671	-0.315	-0.018
-431.661	565.748	0.140	0.339
-430.646	-38.043	0.358	0.189
-429.632	142.877	0.126	0.166
-428.617	800.000	-0.063	0.210
-427.603	-6.676	0.041	0.028
-426.588	-200.000	-0.037	-0.184
-425.573	-78.698	0.099	0.034
-424.559	-162.336	0.229	0.011
-423.544	800.000	0.017	-0.048
-422.530	178.262	0.164	-0.238
-421.515	96.059	-0.219	0.250
-420.500	706.105	-0.074	0.194
-419.486	-40.925	0.101	-0.052
-418.471	-152.158	0.289	0.021
-417.457	453.431	-0.099	-0.217
-416.442	-200.000	0.027	-0.215
-415.428	-65.548	0.281	0.113
-414.413	-41.207	-0.091	0.047
-413.398	-44.044	-0.081	-0.041
-412.384	-47.604	-0.121	-0.059
-411.369	452.468	0.069	-0.153
-410.355	163.174	0.059	0.083
-409.340	-35.367	0.057	0.031
-408.325	157.800	-0.129	-0.178
-407.311	-70.657	-0.155	0.058
-406.296	-94.607	0.296	-0.080
-405.282	76.214	0.252	-0.266
-404.267	-91.385	-0.149	0.043
-403.252	-150.762	0.141	-0.011
-402.238	112.491	-0.270	0.326
-401.223	-200.000	-0.018	0.151
-400.209	-200.000	0.020	-0.269
-399.194	53.829	0.042	-0.040
-398.179	-200.000	0.008	-0.179
-397.165	-96.413	-0.250	0.066
-396.150	-12.280	-0.170	0.111
-395.136	97.213	0.150	-0.172
-394.121	-9.403	0.113	0.075
-393.106	172.270	-0.192	-0.274
-392.092	140.299	0.068	-0.089
-391.077	-51.545	0.139	-0.064
-390.063	456.554	-0.096	-0.213
-389.048	-89.764	-0.421	0.123
-388.033	-200.000	-0.007	0.298
-387.019	-75.609	0.217	0.077
-386.004	-24.799	-0.112	-0.066
-384.990	251.013	-0.175	0.296
-383.975	800.000	-0.115	0.471
-382.960	508.542	-0.056	0.130
-381.946	-28.598	0.130	0.075
-380.931	-5.390	0.126	0.086
-379.917	-13.346	-0.152	0.098
-378.902	10.050	0.213	-0.161
-377.888	590.166	-0.113	-0.277
-376.873	-200.000	-0.020	0.252
-375.858	54.025	-0.117	0.112
-374.844	-200.000	-0.055	-0.240
-373.829	177.229	-0.064	-0.093
-372.815	-68.245	0.424	-0.164
-371.800	-6.416	-0.058	0.040
-370.785	47.950	0.009	0.008
-369.771	103.043	-0.059	-0.069
-368.756	733.685	-0.088	-0.235
-367.742	-37.634	-0.025	-0.013
-366.727	175.869	0.185	-0.267
-365.712	-200.000	0.019	0.128
-364.698	800.000	0.158	0.433
-363.683	-111.461	0.109	-0.022
-362.669	551.548	0.089	0.213
-361.654	43.394	-0.087	-0.079
-360.639	-56.900	-0.245	0.107
-359.625	14.236	-0.036	-0.028
-358.610	-111.465	0.255	0.052
-357.596	800.000	0.109	-0.338
-356.581	358.765	-0.114	-0.227
-355.566	216.875	0.095	-0.150
-354.552	339.875	0.113	0.220
-353.537	-32.807	0.219	-0.121
-352.523	224.809	0.121	-0.194
-351.508	232.379	0.062	0.102
-350.493	-200.000	-0.025	-0.117
-349.479	-120.255	0.312	0.053
-348.464	-10.871	-0.276	0.181
-347.450	531.797	0.148	0.348
-346.435	-33.126	0.086	-0.047
-345.420	-40.375	0.179	0.092
-344.406	-200.000	-0.022	-0.099
-343.391	48.755	-0.239	-0.223
-342.377	220.197	-0.149	0.238
-341.362	-120.412	-0.241	0.041
-340.348	-82.129	0.028	-0.009
-339.333	-119.921	0.205	0.035
-338.318	722.203	0.053	-0.139
-337.304	-84.291	-0.401	0.126
-336.289	-26.944	-0.282	-0.164
-335.275	-178.368	0.144	-0.003
-334.260	-58.985	0.029	0.013
-333.245	274.757	-0.235	-0.412
-332.231	-155.271	0.076	-0.005
-331.216	-111.747	0.196	-0.039
-330.202	800.000	0.093	0.307
-329.187	21.784	0.041	0.033
-328.172	1.129	0.125	-0.089
-327.158	-200.000	0.003	-0.290
-326.143	-6.039	0.115	0.078
-325.129	-3.863	0.116	0.080
-324.114	-34.139	0.145	0.079
-323.099	-87.398	-0.187	0.056
-322.085	39.638	-0.305	-0.272
-321.070	-200.000	-0.019	-0.153
-320.056	-200.000	-0.006	-0.312
-319.041	-63.019	0.457	0.187
-318.026	1.076	-0.047	-0.033
-317.012	-76.871	0.130	-0.045
-315.997	-200.000	0.002	-0.059
-314.983	-109.022	0.051	0.011
-313.968	4.402	0.075	0.054
-312.953	-12.108	0.193	-0.125
-311.939	130.575	-0.242	0.308
-310.924	297.858	0.207	0.377
-309.910	73.138	-0.058	-0.060
-308.895	271.640	-0.139	-0.243
-307.880	191.706	-0.221	-0.329
-306.866	-200.000	-0.081	-0.361
-305.851	130.400	0.118	-0.150
-304.837	689.481	-0.090	0.235
-303.822	-84.690	-0.090	0.028
-302.807	-0.515	0.199	0.140
-301.793	-48.220	0.083	0.040
-300.778	30.052	-0.196	-0.165
-299.764	91.094	0.047	-0.052
-298.749	107.743	0.176	-0.208
-297.735	-128.050	-0.111	-0.016
-296.720	-47.913	-0.195	-0.093
-295.705	-84.324	0.291	-0.091
-294.691	-77.664	-0.093	0.032
-293.676	-81.884	0.443	0.144
-292.662	50.518	0.146	-0.136
-291.647	-200.000	-0.023	0.140
-290.632	25.422	-0.384	0.317
-289.618	-200.000	-0.034	0.199
-288.603	-109.205	-0.307	0.065
-287.589	-59.094	0.119	-0.051
-286.574	285.617	-0.080	0.142
-285.559	800.000	0.063	-0.223
-284.545	88.126	-0.193	0.213
-283.530	-80.028	0.408	-0.136
-282.516	108.004	0.057	0.067
-281.501	-200.000	-0.026	0.207
-280.486	-200.000	-0.008	0.166
-279.472	-200.000	-0.040	0.178
-278.457	14.060	-0.059	0.045
-277.443	-200.000	0.010	-0.172
-276.428	-49.763	-0.370	-0.174
-275.413	226.773	-0.118	-0.190
-274.399	299.241	0.120	-0.218
-273.384	-125.037	-0.429	-0.065
-272.370	77.560	0.174	0.184
-271.355	-39.081	0.105	-0.055
-270.340	242.024	0.055	-0.092
-269.326	-200.000	0.027	0.135
-268.311	125.553	-0.256	0.320
-267.297	800.000	0.079	-0.274
-266.282	-108.718	-0.315	0.067
-265.267	800.000	-0.048	0.184
-264.253	-8.963	0.319	0.212
-263.238	800.000	-0.103	-0.293
-262.224	-3.997	-0.317	0.218
-261.209	3.465	0.251	0.181
-260.195	-119.735	-0.119	-0.020
-259.180	634.959	-0.190	0.478
-258.165	149.754	-0.110	-0.147
-257.151	212.739	0.089	0.139
-256.136	288.216	0.066	0.118
-255.122	-200.000	0.007	-0.476
-254.107	-200.000	0.014	0.201
-253.092	-152.972	-0.138	0.010
-252.078	-5.551	0.345	0.234
-251.063	-115.416	0.103	-0.019
-250.049	-200.000	-0.050	-0.260
-249.034	-163.351	-0.267	-0.013
-248.019	-38.603	-0.219	0.115
-247.005	800.000	-0.068	-0.249
-245.990	-50.698	0.108	-0.050
-244.976	-47.375	0.184	0.088
-243.961	-98.823	-0.181	0.046
-242.946	-148.649	-0.177	-0.014
-241.932	-108.464	0.297	0.063
-240.917	800.000	0.081	-0.301
-239.903	24.743	-0.251	0.206
-238.888	800.000	-0.074	0.272
-237.873	800.000	0.050	-0.180
-236.859	-23.088	0.234	-0.139
-235.844	-200.000	-0.007	-0.127
-234.830	800.000	-0.078	-0.278
-233.815	290.938	-0.031	-0.056
-232.800	800.000	0.018	-0.054
-231.786	87.506	0.037	0.041
-230.771	72.204	-0.197	-0.202
-229.757	-71.052	0.204	0.076
-228.742	677.895	0.075	-0.192
-227.727	17.475	0.131	0.103
-226.713	-84.655	0.139	-0.043
-225.698	-138.063	-0.171	0.019
-224.684	-200.000	0.001	-0.293
-223.669	-57.228	0.128	-0.056
-222.655	-13.188	0.208	0.134
-221.640	-200.000	-0.004	0.057
-220.625	282.877	0.048	0.085
-219.611	800.000	-0.086	-0.291
-218.596	-43.021	-0.322	0.161
-217.582	800.000	-0.034	0.100
-216.567	46.905	-0.103	-0.095
-215.552	120.948	-0.188	-0.231
-214.538	66.594	0.234	0.236
-213.523	88.180	-0.164	-0.180
-212.509	-4.001	-0.325	0.223
-211.494	-97.760	0.374	0.096
-210.479	800.000	-0.063	-0.230
-209.465	800.000	0.016	0.048
-208.450	-196.006	0.170	-0.001
-207.436	-59.005	0.064	-0.027
-206.421	48.263	0.091	0.084
-205.406	-200.000	-0.008	0.042
-204.392	243.180	0.120	0.199
-203.377	286.971	0.271	0.484
-202.363	13.103	0.154	0.118
-201.348	-200.000	-0.002	-0.259
-200.333	-49.307	-0.184	0.087
-199.319	-145.136	-0.127	-0.011
-198.304	-22.549	-0.253	0.151
-197.290	800.000	-0.097	-0.283
-196.275	-122.963	-0.342	-0.054
-195.260	800.000	0.101	-0.308
-194.246	-104.618	-0.162	0.037
-193.231	800.000	-0.037	-0.110
-192.217	-200.000	0.011	0.197
-191.202	252.452	0.129	0.218
-190.187	69.495	0.286	-0.291
-189.173	800.000	0.065	-0.263
-188.158	-0.394	0.413	0.289
-187.144	-3.509	-0.179	0.123
-186.129	-106.889	-0.280	-0.061
-185.114	-83.958	-0.249	-0.078
-184.100	587.992	0.089	-0.217
-183.085	-126.260	0.172	0.025
-182.071	20.316	0.109	-0.087
-181.056	-200.000	0.023	0.108
-180.042	-200.000	0.007	0.372
-179.027	-165.917	0.054	-0.002
-178.012	-136.090	0.133	-0.015
-176.998	-49.025	0.225	0.106
-175.983	748.882	0.088	0.235
-174.969	-97.280	0.266	0.068
-173.954	-27.223	0.375	0.216
-172.939	-200.000	0.006	0.207
-171.925	125.927	-0.280	0.348
-170.910	-96.002	-0.059	-0.016
-169.896	539.108	-0.070	-0.165
-168.881	-87.221	-0.208	-0.062
-167.866	-8.100	0.282	-0.187
-166.852	-200.000	-0.002	0.081
-165.837	184.926	0.083	0.122
-164.823	172.574	-0.144	-0.204
-163.808	330.190	0.059	-0.113
-162.793	-200.000	-0.015	-0.157
-161.779	800.000	0.052	0.152
-160.764	800.000	0.026	0.103
-159.750	91.766	0.099	-0.110
-158.735	800.000	0.094	0.306
-157.720	800.000	-0.034	-0.129
-156.706	-200.000	0.045	0.317
-155.691	-11.282	-0.221	-0.144
-154.677	800.000	-0.058	-0.176
-153.662	676.815	-0.066	0.168
-152.647	-154.813	0.051	0.003
-151.633	-200.000	-0.008	-0.094
-150.618	59.175	-0.108	-0.104
-149.604	19.732	0.097	-0.077
-148.589	319.330	0.101	0.189
-147.574	800.000	0.076	-0.286
-146.560	-200.000	-0.027	-0.428
-145.545	-70.708	0.116	0.043
-144.531	74.857	0.303	0.315
-143.516	-65.317	-0.177	-0.070
-142.502	-115.474	-0.164	0.030
-141.487	378.614	-0.015	-0.030
-140.472	-200.000	-0.007	-0.194
-139.458	800.000	0.059	0.222
-138.443	-99.780	-0.290	-0.071
-137.429	-86.492	-0.386	0.117
-136.414	26.661	0.187	-0.155
-135.399	-31.513	0.175	0.097
-134.385	125.958	-0.126	0.157
-133.370	444.438	-0.183	-0.395
-132.356	-52.717	0.398	-0.181
-131.341	557.760	-0.041	-0.096
-130.326	112.711	-0.025	0.030
-129.312	-200.000	0.024	0.291
-128.297	800.000	0.072	0.253
-127.283	-66.023	0.210	-0.083
-126.268	-16.161	-0.070	-0.044
-125.253	27.214	-0.257	0.212
-124.239	-110.279	0.004	-0.001
-123.224	35.075	0.196	0.169
-122.210	-66.880	0.440	0.171
-121.195	-21.129	-0.340	0.205
