DTS Sentinel unit serial number:	SN413079Multiplexer serial number:	ORYXHardware model number:	OX4-SRSoftware version number:	ORYX F/W v4.00 Oryx Data Collector v3.7.2.0data status	okinstallation	princeton_trtdifferential loss correction	single-endedforward channel	channel 1reverse channel	N/Adate	2019/09/16time	02:58:35forward acquisition time	60.00reverse acquisition time	0.00gamma	496.2192k internal	0.2330k external	0.2330temperature offset calibration	0.9981default loss term (dB/km)	0.3790temperature slope calibration	1.0000multiplexer offset coefficient	1.0000multiplexer slope coefficient	1.0000fibre end	0.00T internal ref (°C)	27.75T ext. ref 1 (°C)	10.40T ext. ref 2 (°C)	22.19length (m)	temperature (°C)	Stokes	anti-Stokes-747.200	30.454	-0.162	-0.139
-746.185	85.011	0.244	0.269
-745.171	-58.721	0.272	0.119
-744.156	-200.000	-0.062	0.350
-743.142	800.000	-0.083	-0.236
-742.127	-134.273	-0.706	-0.087
-741.112	231.141	-0.289	0.477
-740.098	-104.516	0.320	0.074
-739.083	-165.231	0.343	0.015
-738.069	-200.000	-0.039	0.305
-737.054	227.484	0.091	0.148
-736.039	-106.792	-0.308	-0.069
-735.025	41.053	-0.043	0.039
-734.010	-57.315	0.110	0.049
-732.996	800.000	-0.076	-0.288
-731.981	361.589	0.110	0.221
-730.966	-2.023	-0.182	-0.129
-729.952	14.676	-0.124	0.098
-728.937	726.833	-0.134	-0.359
-727.923	523.025	0.198	-0.468
-726.908	-34.610	-0.316	0.174
-725.894	-20.245	0.295	0.183
-724.879	182.911	-0.095	0.141
-723.864	73.482	0.178	0.187
-722.850	22.034	-0.256	0.210
-721.835	188.884	0.109	-0.164
-720.821	-15.681	0.030	-0.019
-719.806	-58.750	-0.163	-0.071
-718.791	-43.756	0.272	-0.138
-717.777	800.000	-0.080	-0.251
-716.762	-200.000	0.015	-0.313
-715.748	800.000	0.029	0.112
-714.733	-87.229	-0.168	-0.051
-713.718	78.009	-0.234	0.251
-712.704	639.724	0.097	-0.248
-711.689	486.463	0.051	0.116
-710.675	-84.180	0.187	0.060
-709.660	-34.971	0.171	0.094
-708.645	-200.000	0.014	-0.115
-707.631	-87.963	-0.224	0.068
-706.616	-95.375	-0.170	-0.046
-705.602	-124.568	0.108	0.017
-704.587	-200.000	-0.047	-0.266
-703.572	471.805	-0.123	0.277
-702.558	-22.949	0.211	-0.128
-701.543	141.808	-0.102	-0.135
-700.529	416.225	0.127	-0.272
-699.514	-22.172	0.434	-0.264
-698.499	294.867	-0.201	0.370
-697.485	-200.000	-0.035	-0.174
-696.470	54.189	0.306	-0.296
-695.456	-90.023	0.281	0.082
-694.441	-18.646	-0.452	-0.283
-693.426	-140.421	0.029	-0.003
-692.412	-200.000	-0.046	-0.405
-691.397	-200.000	0.064	-0.456
-690.383	245.219	0.017	0.028
-689.368	-78.180	-0.189	-0.065
-688.354	-41.042	-0.090	0.047
-687.339	-165.315	-0.240	0.011
-686.324	-8.728	0.154	0.104
-685.310	-200.000	0.019	0.163
-684.295	-103.517	0.043	-0.010
-683.281	-200.000	-0.022	0.535
-682.266	172.529	0.146	-0.210
-681.251	-69.185	-0.249	-0.096
-680.237	-190.032	0.298	0.003
-679.222	-186.394	-0.028	-0.000
-678.208	189.632	-0.068	-0.102
-677.193	119.331	0.086	0.107
-676.178	-113.286	-0.015	0.003
-675.164	-199.891	-0.345	-0.002
-674.149	-200.000	0.003	-0.213
-673.135	-141.621	0.571	0.058
-672.120	343.301	0.106	0.209
-671.105	333.625	-0.093	-0.181
-670.091	34.640	0.168	-0.148
-669.076	-127.493	0.343	0.050
-668.062	-70.154	-0.317	-0.121
-667.047	-200.000	-0.011	0.234
-666.032	-48.575	-0.158	0.076
-665.018	-200.000	-0.094	-0.502
-664.003	-73.413	0.120	-0.044
-662.989	-122.974	0.066	0.011
-661.974	68.806	0.215	0.222
-660.959	-98.356	-0.228	0.059
-659.945	123.168	0.063	-0.079
-658.930	37.962	0.334	-0.298
-657.916	-31.360	-0.402	0.227
-656.901	129.907	-0.133	0.171
-655.886	-136.800	0.091	-0.010
-654.872	147.608	-0.157	0.212
-653.857	-191.210	-0.222	-0.002
-652.843	800.000	-0.048	-0.184
-651.828	-124.361	-0.090	-0.014
-650.814	-128.850	0.033	-0.005
-649.799	-78.637	0.354	-0.121
-648.784	-98.381	0.193	-0.050
-647.770	800.000	-0.038	-0.153
-646.755	-200.000	-0.006	0.113
-645.741	-76.336	-0.219	0.077
-644.726	311.766	0.110	0.207
-643.711	259.323	-0.118	-0.204
-642.697	-35.478	-0.108	-0.059
-641.682	-89.670	-0.138	-0.041
-640.668	-200.000	0.066	0.334
-639.653	19.454	-0.195	-0.157
-638.638	-200.000	0.018	0.245
-637.624	-45.616	-0.325	0.161
-636.609	-200.000	0.038	-0.182
-635.595	-80.573	0.215	-0.072
-634.580	800.000	-0.069	-0.207
-633.565	800.000	0.042	-0.136
-632.551	85.611	-0.064	-0.070
-631.536	109.606	0.039	-0.047
-630.522	40.606	0.175	0.158
-629.507	174.562	0.169	0.245
-628.492	87.280	-0.055	-0.061
-627.478	20.626	0.177	-0.143
-626.463	-73.607	-0.506	-0.185
-625.449	800.000	-0.027	-0.113
-624.434	-18.725	-0.148	-0.092
-623.419	48.449	0.131	-0.123
-622.405	800.000	-0.014	-0.054
-621.390	-171.844	-0.107	0.004
-620.376	-53.704	-0.112	-0.051
-619.361	800.000	-0.057	-0.165
-618.346	41.450	0.234	0.212
-617.332	800.000	-0.045	0.155
-616.317	-90.889	-0.060	0.017
-615.303	-167.912	-0.319	-0.013
-614.288	-107.344	-0.107	0.023
-613.273	113.503	0.025	0.030
-612.259	-57.169	0.185	0.082
-611.244	485.608	0.120	0.274
-610.230	-159.394	-0.217	-0.012
-609.215	-200.000	0.038	0.208
-608.201	512.067	0.046	0.107
-607.186	-200.000	0.007	-0.143
-606.171	-200.000	0.101	-0.555
-605.157	-200.000	-0.044	-0.365
-604.142	-121.566	0.320	0.053
-603.128	-200.000	-0.005	0.187
-602.113	318.090	-0.028	-0.053
-601.098	-38.441	-0.187	-0.099
-600.084	730.188	-0.121	-0.324
-599.069	7.609	0.073	0.055
-598.055	-77.243	-0.309	0.108
-597.040	71.253	-0.075	-0.077
-596.025	-200.000	0.020	-0.490
-595.011	161.593	0.160	-0.224
-593.996	302.657	0.019	-0.035
-592.982	-200.000	0.031	0.672
-591.967	73.202	0.142	0.149
-590.952	-49.053	0.375	0.180
-589.938	419.321	-0.147	-0.315
-588.923	-58.638	0.153	-0.067
-587.909	-115.607	0.116	-0.022
-586.894	-131.532	-0.190	-0.025
-585.879	576.458	-0.070	-0.170
-584.865	388.806	0.052	0.108
-583.850	-86.576	-0.129	-0.039
-582.836	680.774	0.154	0.402
-581.821	290.716	-0.121	0.220
-580.806	-70.102	-0.127	0.048
-579.792	72.724	0.331	-0.346
-578.777	800.000	0.078	-0.288
-577.763	286.513	0.069	0.124
-576.748	-200.000	-0.009	-0.336
-575.733	-168.572	-0.215	0.008
-574.719	-153.804	0.352	-0.024
-573.704	-41.510	0.086	-0.044
-572.690	-121.546	-0.322	0.054
-571.675	-117.268	0.433	0.079
-570.661	800.000	-0.051	0.156
-569.646	-140.881	0.162	0.017
-568.631	575.941	0.074	-0.181
-567.617	-73.746	-0.239	-0.087
-566.602	-112.680	0.515	0.103
-565.588	-122.873	-0.337	-0.054
-564.573	-146.499	-0.161	0.014
-563.558	-144.123	-0.153	-0.014
-562.544	-63.750	0.235	-0.096
-561.529	202.429	-0.076	0.117
-560.515	-125.214	0.066	0.010
-559.500	270.175	-0.107	-0.188
-558.485	-30.296	-0.201	-0.114
-557.471	800.000	0.027	0.087
-556.456	-7.417	0.287	-0.194
-555.442	-16.519	0.174	-0.110
-554.427	-200.000	0.029	0.177
-553.412	-121.816	-0.148	0.024
-552.398	105.881	-0.092	-0.109
-551.383	217.427	0.228	-0.364
-550.369	800.000	-0.017	0.060
-549.354	-126.099	0.113	-0.017
-548.339	210.385	0.078	0.122
-547.325	167.976	-0.140	0.198
-546.310	-29.208	0.267	-0.153
-545.296	800.000	-0.060	-0.256
-544.281	-110.179	0.179	0.037
-543.266	77.577	0.229	0.243
-542.252	-24.436	-0.261	0.155
-541.237	-9.599	-0.163	0.108
-540.223	25.992	-0.120	0.100
-539.208	-97.335	0.077	-0.020
-538.193	-126.079	0.170	-0.025
-537.179	-24.913	-0.284	0.168
-536.164	-105.053	-0.160	-0.037
-535.150	531.720	-0.080	-0.190
-534.135	-98.572	-0.145	-0.037
-533.121	7.190	-0.287	-0.214
-532.106	-26.707	0.096	0.056
-531.091	229.733	-0.045	0.073
-530.077	800.000	0.058	0.174
-529.062	-12.124	-0.194	0.127
-528.048	-200.000	-0.001	-0.018
-527.033	-99.507	0.195	0.049
-526.018	150.580	-0.080	-0.108
-525.004	-200.000	0.030	0.350
-523.989	-84.136	-0.296	0.094
-522.975	-25.124	0.126	-0.075
-521.960	62.181	0.074	0.073
-520.945	24.858	0.230	0.191
-519.931	-101.154	-0.132	-0.032
-518.916	-98.717	0.144	0.037
-517.902	800.000	-0.118	-0.385
-516.887	-200.000	0.081	0.412
-515.872	290.503	0.092	-0.167
-514.858	-100.015	-0.193	0.048
-513.843	-52.450	0.175	0.081
-512.829	-138.129	-0.342	0.038
-511.814	-154.981	0.494	-0.032
-510.799	-42.355	-0.076	0.039
-509.785	623.586	0.192	-0.482
-508.770	46.783	-0.050	-0.046
-507.756	1.433	-0.106	-0.076
-506.741	41.141	-0.159	0.143
-505.726	-200.000	-0.026	0.125
-504.712	-123.502	0.152	-0.024
-503.697	386.921	-0.018	0.036
-502.683	-200.000	0.013	-0.067
-501.668	-173.881	-0.386	0.011
-500.653	706.997	0.083	0.218
-499.639	268.159	-0.061	0.106
-498.624	-119.998	0.132	-0.023
-497.610	441.919	-0.102	-0.224
-496.595	-200.000	-0.048	-0.246
-495.581	-200.000	0.052	-0.454
-494.566	18.527	-0.192	0.153
-493.551	-7.343	-0.354	-0.239
-492.537	70.020	-0.355	-0.365
-491.522	-200.000	0.014	0.095
-490.508	66.115	0.179	-0.181
-489.493	-200.000	-0.025	0.153
-488.478	-119.628	-0.378	-0.065
-487.464	-23.574	0.166	0.099
-486.449	800.000	-0.048	-0.140
-485.435	-179.710	0.106	-0.002
-484.420	122.178	-0.202	0.252
-483.405	14.323	0.038	-0.029
-482.391	-167.813	0.150	-0.006
-481.376	93.176	0.132	-0.149
-480.362	98.130	-0.193	-0.222
-479.347	-137.119	-0.318	0.036
-478.332	-106.275	0.363	0.081
-477.318	-200.000	0.006	-0.236
-476.303	-68.337	-0.129	0.050
-475.289	637.156	-0.041	0.105
-474.274	164.508	0.036	-0.051
-473.259	790.081	0.073	0.200
-472.245	-200.000	-0.027	0.157
-471.230	-147.480	-0.149	0.013
-470.216	78.814	-0.159	-0.170
-469.201	786.457	0.091	0.248
-468.186	-13.317	0.215	0.139
-467.172	-130.726	0.233	-0.031
-466.157	-200.000	-0.021	-0.157
-465.143	46.670	-0.202	-0.187
-464.128	42.646	-0.213	0.193
-463.113	177.770	0.102	-0.148
-462.099	572.019	0.125	0.303
-461.084	-116.071	0.205	-0.038
-460.070	-3.583	-0.095	0.066
-459.055	-54.982	0.117	-0.052
-458.040	-200.000	-0.098	-0.000
-457.026	427.945	-0.074	0.159
-456.011	30.701	-0.079	0.067
-454.997	158.614	-0.171	-0.237
-453.982	204.813	-0.175	-0.271
-452.968	34.291	-0.255	0.222
-451.953	5.015	-0.189	-0.138
-450.938	293.168	0.178	0.323
-449.924	-20.835	-0.172	0.105
-448.909	800.000	0.055	-0.167
-447.895	152.612	0.130	0.176
-446.880	67.584	-0.102	-0.104
-445.865	-78.250	-0.097	0.033
-444.851	269.725	-0.100	0.175
-443.836	800.000	0.037	0.149
-442.822	153.014	-0.073	-0.100
-441.807	-143.429	-0.369	0.035
-440.792	80.565	0.262	0.281
-439.778	-200.000	0.029	-0.306
-438.763	-82.454	-0.607	0.196
-437.749	-21.182	0.158	-0.096
-436.734	-9.370	0.329	-0.219
-435.719	-138.330	0.189	-0.021
-434.705	-38.272	0.066	-0.035
-433.690	-126.919	-0.107	0.016
-432.676	432.508	-0.105	-0.226
-431.661	506.798	-0.051	-0.118
-430.646	-200.000	-0.018	-0.209
-429.632	-97.740	0.444	0.114
-428.617	9.210	-0.140	0.105
-427.603	-77.304	-0.131	-0.045
-426.588	9.235	0.191	0.143
-425.573	221.744	0.157	-0.251
-424.559	55.161	-0.113	0.108
-423.544	-44.520	-0.096	0.048
-422.530	461.252	0.056	0.123
-421.515	70.344	-0.131	0.135
-420.500	203.880	0.192	0.295
-419.486	-81.924	0.053	0.017
-418.471	17.589	-0.243	-0.192
-417.457	-75.575	0.409	-0.144
-416.442	-89.060	0.224	-0.066
-415.428	135.137	-0.194	-0.251
-414.413	135.219	0.181	-0.234
-413.398	-151.101	0.335	0.025
-412.384	-60.620	0.219	0.092
-411.369	-13.818	-0.251	-0.161
-410.355	-200.000	0.017	0.090
-409.340	800.000	-0.007	-0.028
-408.325	202.963	0.157	-0.241
-407.311	-200.000	-0.011	0.298
-406.296	-92.474	0.248	-0.069
-405.282	269.131	-0.067	-0.117
-404.267	-110.492	-0.103	-0.021
-403.252	-141.916	-0.213	-0.021
-402.238	170.523	-0.109	-0.155
-401.223	-117.049	0.166	-0.030
-400.209	800.000	-0.015	0.051
-399.194	34.157	-0.045	-0.039
-398.179	-55.190	0.109	0.049
-397.165	-200.000	0.004	-0.189
-396.150	800.000	-0.099	0.328
-395.136	-200.000	-0.006	0.153
-394.121	800.000	-0.063	0.193
-393.106	-107.267	0.286	0.062
-392.092	696.088	-0.098	0.254
-391.077	183.356	0.098	0.144
-390.063	-69.043	0.176	0.067
-389.048	84.054	-0.274	0.298
-388.033	73.866	-0.142	-0.148
-387.019	-200.000	0.025	-0.151
-386.004	321.459	-0.113	-0.213
-384.990	498.556	0.075	-0.171
-383.975	-200.000	-0.025	-0.279
-382.960	-200.000	-0.029	-0.228
-381.946	30.639	-0.196	0.167
-380.931	-126.124	-0.135	0.020
-379.917	-200.000	0.035	0.566
-378.902	419.526	0.057	-0.120
-377.888	501.877	-0.138	0.316
-376.873	227.551	0.143	-0.231
-375.858	800.000	0.028	-0.088
-374.844	-96.355	-0.155	-0.041
-373.829	800.000	0.087	0.268
-372.815	48.554	0.136	0.126
-371.800	-200.000	0.044	0.227
-370.785	-36.359	-0.137	-0.073
-369.771	800.000	0.110	-0.349
-368.756	-84.491	0.373	-0.117
-367.742	-18.492	-0.229	-0.142
-366.727	295.789	0.046	-0.084
-365.712	14.866	0.111	0.086
-364.698	-146.991	-0.347	-0.029
-363.683	-200.000	-0.021	0.190
-362.669	800.000	0.110	0.356
-361.654	800.000	-0.139	0.458
-360.639	59.281	0.193	0.189
-359.625	-200.000	0.085	-0.379
-358.610	97.820	0.126	-0.143
-357.596	711.985	-0.029	-0.077
-356.581	-35.208	-0.273	0.147
-355.566	93.050	-0.026	0.029
-354.552	800.000	0.058	-0.234
-353.537	-52.058	-0.364	0.168
-352.523	-151.331	0.354	0.026
-351.508	279.247	0.055	0.097
-350.493	190.064	-0.052	-0.078
-349.479	-60.355	-0.102	0.043
-348.464	800.000	0.095	0.330
-347.450	-200.000	0.009	-0.124
-346.435	-138.513	0.385	0.042
-345.420	31.802	-0.154	-0.131
-344.406	-17.568	-0.087	0.054
-343.391	-123.411	0.279	0.044
-342.377	800.000	0.073	-0.219
-341.362	429.237	-0.071	0.152
-340.348	432.057	-0.131	0.281
-339.333	-66.544	0.072	-0.028
-338.318	-200.000	-0.032	0.195
-337.304	-55.753	0.233	0.103
-336.289	-108.732	-0.262	-0.056
-335.275	800.000	-0.038	-0.134
-334.260	142.556	0.221	-0.290
-333.245	-27.695	-0.168	0.097
-332.231	-58.352	0.378	-0.163
-331.216	-13.597	0.228	0.146
-330.202	66.333	-0.130	-0.131
-329.187	43.378	0.108	-0.098
-328.172	-200.000	-0.033	-0.248
-327.158	-152.823	-0.047	-0.003
-326.143	-200.000	-0.005	0.124
-325.129	271.747	-0.026	0.046
-324.114	-200.000	0.014	-0.087
-323.099	-108.240	0.304	0.065
-322.085	-200.000	0.021	0.461
-321.070	33.159	0.096	0.082
-320.056	112.686	0.256	-0.307
-319.041	57.288	-0.070	-0.067
-318.026	-43.201	-0.179	-0.090
-317.012	-200.000	0.042	0.371
-315.997	-105.107	-0.088	0.020
-314.983	263.929	-0.151	-0.260
-313.968	73.703	0.166	0.172
-312.953	98.573	0.108	-0.123
-311.939	2.186	-0.269	0.192
-310.924	-200.000	0.021	0.158
-309.910	179.793	0.229	0.332
-308.895	187.341	-0.148	0.218
-307.880	-200.000	0.015	-0.144
-306.866	-200.000	0.000	0.063
-305.851	220.431	-0.019	0.031
-304.837	-52.188	-0.244	0.112
-303.822	110.914	-0.169	0.202
-302.807	-117.746	-0.192	0.034
-301.793	54.892	0.136	-0.130
-300.778	-200.000	-0.008	-0.178
-299.764	152.948	-0.099	-0.135
-298.749	161.354	0.134	0.185
-297.735	-59.801	-0.195	0.082
-296.720	12.982	0.233	-0.179
-295.705	-161.051	0.115	0.006
-294.691	-82.008	-0.090	0.029
-293.676	-200.000	0.035	0.495
-292.662	-80.776	-0.134	-0.044
-291.647	-68.192	-0.213	-0.082
-290.632	69.338	-0.155	0.158
-289.618	397.616	-0.124	0.257
-288.603	39.209	-0.077	-0.068
-287.589	800.000	0.123	-0.383
-286.574	800.000	0.043	0.135
-285.559	-101.578	-0.116	-0.028
-284.545	-3.958	-0.235	0.161
-283.530	800.000	-0.037	-0.118
-282.516	-144.588	-0.191	-0.017
-281.501	616.858	-0.057	-0.141
-280.486	82.981	-0.188	0.202
-279.472	-86.509	-0.124	-0.038
-278.457	800.000	0.097	0.351
-277.443	39.056	-0.207	0.183
-276.428	-72.965	-0.189	-0.069
-275.413	-130.301	0.162	-0.022
-274.399	38.099	0.085	-0.075
-273.384	-200.000	-0.009	-0.069
-272.370	-200.000	0.017	0.085
-271.355	41.783	-0.079	-0.071
-270.340	-149.846	0.141	0.011
-269.326	-40.942	-0.062	-0.032
-268.311	144.297	-0.248	-0.327
-267.297	-58.529	0.062	-0.027
-266.282	104.658	-0.116	0.135
-265.267	-138.806	0.108	-0.012
-264.253	720.819	-0.196	0.515
-263.238	105.362	-0.134	0.157
-262.224	-200.000	0.017	-0.216
-261.209	-200.000	0.017	-0.135
-260.195	264.443	-0.177	-0.304
-259.180	-47.556	0.221	-0.106
-258.165	-200.000	-0.009	-0.252
-257.151	-53.384	-0.081	0.037
-256.136	-55.019	0.167	-0.074
-255.122	295.479	0.092	0.167
-254.107	-154.927	-0.138	0.009
-253.092	117.964	0.081	0.098
-252.078	-200.000	-0.003	-0.070
-251.063	106.139	0.039	-0.045
-250.049	800.000	-0.072	-0.230
-249.034	-79.215	-0.284	-0.095
-248.019	-138.233	0.191	0.021
-247.005	-105.404	0.247	0.056
-245.990	-166.686	0.194	0.008
-244.976	-165.544	0.429	0.018
-243.961	111.698	0.278	0.331
-242.946	800.000	-0.039	-0.152
-241.932	245.523	-0.127	0.211
-240.917	-43.431	0.132	-0.066
-239.903	106.372	-0.133	-0.156
-238.888	-200.000	0.010	0.204
-237.873	800.000	-0.008	0.024
-236.859	-77.600	-0.120	0.041
-235.844	-200.000	0.030	-0.300
-234.830	-200.000	-0.004	0.049
-233.815	-200.000	0.071	0.342
-232.800	-200.000	0.004	0.210
-231.786	-137.587	-0.194	0.022
-230.771	-187.290	-0.070	0.001
-229.757	-81.410	-0.139	0.045
-228.742	-49.511	0.313	-0.147
-227.727	92.215	0.108	0.120
-226.713	-112.082	-0.134	0.027
-225.698	77.574	0.197	-0.207
-224.684	-200.000	0.018	0.178
-223.669	-138.854	-0.339	-0.036
-222.655	80.199	0.073	-0.077
-221.640	110.299	0.118	-0.140
-220.625	94.539	0.066	0.074
-219.611	412.243	0.078	0.164
-218.596	307.440	0.035	0.064
-217.582	-200.000	-0.073	0.345
-216.567	24.770	0.159	-0.130
-215.552	-120.808	0.088	0.015
-214.538	244.993	-0.059	-0.099
-213.523	418.741	0.120	-0.253
-212.509	-87.510	0.096	0.029
-211.494	-167.704	0.310	0.012
-210.479	238.463	0.172	0.281
-209.465	-200.000	-0.004	-0.225
-208.450	660.359	-0.132	0.334
-207.436	-100.369	0.313	-0.077
-206.421	-90.133	-0.108	0.031
-205.406	354.007	-0.108	0.212
-204.392	-200.000	-0.002	-0.255
-203.377	-156.537	0.175	-0.011
-202.363	-159.813	0.175	-0.009
-201.348	321.104	0.048	0.090
-200.333	83.669	0.185	-0.198
-199.319	-200.000	0.023	-0.165
-198.304	-153.722	-0.319	-0.022
-197.290	-107.386	0.064	-0.014
-196.275	-77.796	-0.171	0.058
-195.260	422.707	0.079	-0.168
-194.246	387.051	0.161	0.327
-193.231	-200.000	-0.031	-0.208
-192.217	-107.637	-0.091	-0.020
-191.202	800.000	0.038	0.112
-190.187	-200.000	-0.011	0.150
-189.173	671.503	-0.103	-0.263
-188.158	-88.480	-0.315	0.093
-187.144	232.546	-0.314	-0.508
-186.129	67.471	-0.273	0.275
-185.114	-200.000	-0.016	0.146
-184.100	27.053	0.293	-0.242
-183.085	-200.000	0.046	0.344
-182.071	-70.065	0.435	-0.163
-181.056	-136.266	0.214	-0.025
-180.042	-91.829	-0.091	-0.025
-179.027	800.000	-0.046	0.150
-178.012	37.795	0.071	-0.062
-176.998	-4.283	-0.192	-0.131
-175.983	214.342	-0.174	-0.271
-174.969	800.000	0.104	-0.345
-173.954	635.637	0.051	0.126
-172.939	-23.155	-0.155	-0.092
-171.925	-169.453	-0.224	0.008
-170.910	179.723	0.173	-0.249
-169.896	800.000	0.118	-0.347
-168.881	-141.499	-0.158	0.016
-167.866	756.198	0.198	0.526
-166.852	-110.226	0.059	0.012
-165.837	-101.980	0.281	0.067
-164.823	800.000	0.085	-0.307
-163.808	800.000	0.042	0.127
-162.793	-200.000	-0.022	0.262
-161.779	749.378	-0.055	-0.145
-160.764	-37.912	-0.315	-0.165
-159.750	-200.000	0.005	0.208
-158.735	126.311	-0.118	0.147
-157.720	35.285	0.091	0.079
-156.706	579.995	0.074	-0.178
-155.691	-30.387	0.241	-0.134
-154.677	430.020	0.162	0.345
-153.662	800.000	-0.026	0.087
-152.647	363.583	0.059	-0.117
-151.633	154.567	0.035	-0.047
-150.618	-13.840	0.237	-0.150
-149.604	347.677	0.074	0.144
-148.589	777.070	0.027	-0.074
-147.574	-181.177	-0.283	0.006
-146.560	87.590	0.130	0.142
-145.545	-79.685	-0.242	-0.080
-144.531	-89.770	0.123	-0.036
-143.516	183.741	-0.082	-0.119
-142.502	-7.919	-0.215	-0.143
-141.487	534.892	0.255	0.595
-140.472	-52.406	-0.294	-0.134
-139.458	-79.988	0.388	0.128
-138.443	85.453	-0.056	-0.061
-137.429	-146.672	-0.135	-0.012
-136.414	-6.040	0.200	-0.135
-135.399	-18.327	-0.133	-0.082
-134.385	71.744	-0.070	-0.071
-133.370	-134.263	0.242	0.029
-132.356	-200.000	0.015	-0.071
-131.341	800.000	-0.066	-0.203
-130.326	2.383	-0.263	-0.187
-129.312	-28.261	-0.146	-0.083
-128.297	171.143	0.069	-0.097
-127.283	201.813	-0.104	-0.158
-126.268	-137.059	0.034	0.004
-125.253	-200.000	-0.015	0.114
-124.239	220.976	-0.103	-0.163
-123.224	-11.631	-0.354	-0.229
-122.210	-100.987	0.027	0.006
