DTS Sentinel unit serial number:	SN413079Multiplexer serial number:	ORYXHardware model number:	OX4-SRSoftware version number:	ORYX F/W v4.00 Oryx Data Collector v3.7.2.0data status	okinstallation	princeton_trtdifferential loss correction	single-endedforward channel	channel 1reverse channel	N/Adate	2019/09/12time	13:56:11forward acquisition time	60.00reverse acquisition time	0.00gamma	496.2192k internal	0.2293k external	0.2293temperature offset calibration	1.0052default loss term (dB/km)	0.3790temperature slope calibration	1.0000multiplexer offset coefficient	1.0000multiplexer slope coefficient	1.0000fibre end	0.00T internal ref (°C)	40.75T ext. ref 1 (°C)	2.19T ext. ref 2 (°C)	33.96length (m)	temperature (°C)	Stokes	anti-Stokes-747.200	-109.155	0.334	-0.073
-746.185	-33.735	-0.275	0.155
-745.171	32.390	-0.286	0.253
-744.156	800.000	0.126	0.451
-743.142	628.305	-0.209	0.540
-742.127	75.405	-0.226	0.244
-741.112	28.882	0.293	0.254
-740.098	408.085	0.132	0.286
-739.083	-200.000	-0.002	-0.012
-738.069	-137.279	0.235	-0.027
-737.054	-86.985	-0.189	0.059
-736.039	-200.000	-0.007	0.105
-735.025	123.522	0.184	0.235
-734.010	800.000	0.082	-0.319
-732.996	-108.288	-0.232	0.051
-731.981	-200.000	0.003	0.020
-730.966	208.742	0.218	0.348
-729.952	800.000	0.108	-0.389
-728.937	-3.607	-0.305	0.217
-727.923	-77.785	-0.177	-0.063
-726.908	95.839	-0.192	-0.225
-725.894	-106.612	-0.319	-0.073
-724.879	-200.000	-0.005	0.332
-723.864	-85.625	-0.194	-0.062
-722.850	-200.000	0.009	-0.056
-721.835	605.285	-0.112	0.284
-720.821	97.480	-0.222	-0.260
-719.806	2.775	0.111	0.082
-718.791	-183.174	0.176	-0.003
-717.777	-70.260	-0.399	-0.155
-716.762	-37.035	0.073	0.040
-715.748	33.355	-0.209	0.185
-714.733	800.000	0.083	-0.265
-713.718	331.110	0.188	-0.370
-712.704	800.000	-0.064	-0.217
-711.689	402.495	-0.070	-0.151
-710.675	-39.906	-0.312	-0.166
-709.660	-200.000	-0.015	-0.110
-708.645	800.000	-0.058	-0.244
-707.631	0.034	0.084	0.061
-706.616	-132.588	0.035	0.005
-705.602	-200.000	-0.004	-0.061
-704.587	-128.047	0.179	-0.026
-703.572	-43.573	0.223	-0.115
-702.558	6.068	0.235	0.178
-701.543	44.844	0.121	0.113
-700.529	-200.000	-0.010	0.117
-699.514	189.410	-0.167	0.255
-698.499	800.000	0.102	0.289
-697.485	-3.343	0.217	-0.155
-696.470	67.561	-0.167	0.175
-695.456	800.000	0.032	0.108
-694.441	9.348	0.213	0.164
-693.426	-62.243	-0.182	0.077
-692.412	-200.000	0.050	-0.329
-691.397	-70.161	-0.021	0.008
-690.383	-200.000	0.044	-0.427
-689.368	-143.501	0.185	-0.018
-688.354	-19.970	-0.152	0.096
-687.339	-189.002	-0.472	-0.006
-686.324	-10.219	-0.138	0.094
-685.310	78.555	-0.122	-0.133
-684.295	800.000	0.083	-0.238
-683.281	119.192	0.105	0.132
-682.266	-200.000	-0.066	0.315
-681.251	-44.703	0.157	0.080
-680.237	-68.585	0.151	0.060
-679.222	222.944	-0.018	-0.029
-678.208	-133.006	0.074	0.010
-677.193	-136.871	-0.117	-0.014
-676.178	102.621	0.240	0.287
-675.164	447.421	0.120	-0.268
-674.149	185.555	0.212	0.321
-673.135	187.615	0.101	0.153
-672.120	-91.612	-0.139	-0.040
-671.105	-139.918	-0.292	-0.031
-670.091	149.447	-0.125	-0.173
-669.076	50.523	-0.209	-0.202
-668.062	-200.000	-0.174	0.001
-667.047	140.301	-0.119	-0.160
-666.032	161.197	0.139	0.198
-665.018	50.366	-0.134	-0.129
-664.003	47.486	-0.162	0.154
-662.989	800.000	-0.081	-0.269
-661.974	155.559	-0.082	-0.116
-660.959	-200.000	0.003	-0.291
-659.945	757.588	0.123	-0.338
-658.930	-200.000	-0.004	0.026
-657.916	52.140	-0.221	-0.215
-656.901	14.589	0.242	-0.193
-655.886	41.219	0.179	0.165
-654.872	230.247	-0.098	-0.164
-653.857	86.956	0.243	-0.273
-652.843	-33.594	0.247	0.139
-651.828	-54.612	0.176	-0.081
-650.814	214.937	-0.268	-0.432
-649.799	-120.784	0.171	0.029
-648.784	800.000	0.070	0.275
-647.770	-2.179	-0.080	0.057
-646.755	800.000	0.019	0.074
-645.741	44.592	-0.096	-0.090
-644.726	-89.485	-0.053	-0.016
-643.711	235.421	-0.108	-0.181
-642.697	144.517	0.079	0.108
-641.682	-122.153	0.170	-0.028
-640.668	16.927	-0.258	-0.208
-639.653	-23.916	0.136	0.083
-638.638	235.029	0.237	0.398
-637.624	-75.472	0.165	-0.060
-636.609	199.902	-0.010	0.015
-635.595	-172.478	0.052	-0.002
-634.580	-72.230	-0.154	-0.058
-633.565	131.679	0.096	0.125
-632.551	-156.148	0.175	0.011
-631.536	62.096	-0.135	0.137
-630.522	539.516	0.048	-0.117
-629.507	-107.463	0.048	-0.011
-628.492	177.230	-0.181	0.269
-627.478	28.818	-0.152	-0.132
-626.463	397.700	-0.057	-0.122
-625.449	-136.080	0.217	-0.026
-624.434	800.000	0.094	0.312
-623.419	-33.159	0.099	0.056
-622.405	800.000	-0.029	0.111
-621.390	537.952	0.064	0.155
-620.376	25.295	-0.265	-0.224
-619.361	57.289	-0.308	-0.307
-618.346	-86.671	-0.258	0.081
-617.332	-92.509	-0.147	0.042
-616.317	95.432	-0.091	0.106
-615.303	-21.018	0.334	0.208
-614.288	-200.000	0.017	-0.100
-613.273	-145.898	0.175	0.016
-612.259	51.516	0.102	-0.099
-611.244	-89.056	0.345	-0.104
-610.230	18.465	0.356	0.290
-609.215	263.592	-0.175	-0.310
-608.201	163.186	-0.210	-0.300
-607.186	-200.000	0.014	0.305
-606.171	-98.238	0.265	-0.069
-605.157	550.673	-0.014	-0.034
-604.142	84.961	0.115	-0.128
-603.128	-183.832	0.321	-0.006
-602.113	25.550	0.283	-0.240
-601.098	-52.709	-0.261	-0.122
-600.084	102.417	0.146	-0.174
-599.069	41.479	-0.083	0.077
-598.055	-200.000	0.018	0.096
-597.040	346.495	0.071	-0.143
-596.025	800.000	-0.094	-0.264
-595.011	800.000	-0.025	0.091
-593.996	216.014	-0.110	-0.177
-592.982	800.000	0.074	0.301
-591.967	-154.136	0.216	-0.015
-590.952	-142.013	-0.387	-0.039
-589.938	-25.074	0.078	-0.047
-588.923	-19.726	-0.170	-0.107
-587.909	183.442	-0.168	-0.253
-586.894	800.000	-0.040	-0.124
-585.879	45.957	-0.253	0.238
-584.865	50.910	-0.105	-0.101
-583.850	-36.107	-0.199	-0.109
-582.836	51.411	-0.176	0.170
-581.821	298.382	0.101	-0.190
-580.806	-128.828	0.350	0.050
-579.792	-6.051	-0.146	-0.101
-578.777	130.051	0.117	0.153
-577.763	241.634	0.108	0.183
-576.748	-41.449	-0.042	0.022
-575.733	138.382	0.342	-0.456
-574.719	327.870	0.124	-0.242
-573.704	254.101	0.038	-0.066
-572.690	-67.559	0.387	-0.154
-571.675	44.318	0.183	0.171
-570.661	-129.998	-0.282	0.039
-569.646	154.070	0.112	0.157
-568.631	-50.725	-0.140	0.067
-567.617	-181.228	0.036	0.001
-566.602	-24.345	-0.194	0.118
-565.588	-136.282	0.144	-0.017
-564.573	-102.124	0.290	0.071
-563.558	-200.000	-0.006	-0.044
-562.544	228.425	-0.112	-0.185
-561.529	120.907	-0.273	-0.345
-560.515	800.000	0.063	-0.244
-559.500	292.333	0.125	0.231
-558.485	-148.772	-0.234	0.019
-557.471	-12.571	0.096	0.064
-556.456	213.015	0.028	0.046
-555.442	327.269	-0.090	-0.175
-554.427	-64.293	-0.055	-0.023
-553.412	96.569	0.235	-0.273
-552.398	-100.423	-0.237	-0.060
-551.383	30.153	-0.330	0.286
-550.369	-200.000	-0.010	0.177
-549.354	-200.000	-0.017	-0.143
-548.339	-116.079	-0.048	0.009
-547.325	-6.858	0.083	0.057
-546.310	-10.155	-0.233	-0.157
-545.296	110.135	0.176	-0.214
-544.281	-15.962	-0.037	-0.024
-543.266	-120.289	-0.413	0.072
-542.252	324.224	0.053	0.103
-541.237	-12.629	-0.072	-0.048
-540.223	-200.000	0.022	0.239
-539.208	-67.157	0.191	-0.076
-538.193	205.732	0.206	0.326
-537.179	-200.000	0.062	0.421
-536.164	62.715	0.376	0.382
-535.150	254.453	0.152	-0.264
-534.135	-200.000	0.017	-0.399
-533.121	17.507	-0.091	0.073
-532.106	-200.000	-0.002	0.293
-531.091	-159.884	0.186	0.010
-530.077	-200.000	0.005	-0.039
-529.062	-113.448	-0.179	0.036
-528.048	70.631	0.032	0.034
-527.033	294.793	0.158	0.294
-526.018	-126.997	-0.128	0.019
-525.004	-200.000	0.032	-0.213
-523.989	100.788	0.191	-0.225
-522.975	-148.382	-0.169	0.014
-521.960	800.000	0.093	0.281
-520.945	83.340	-0.163	0.181
-519.931	-23.542	0.153	-0.093
-518.916	-137.932	-0.175	0.020
-517.902	-126.719	0.050	0.008
-516.887	-39.277	0.125	-0.067
-515.872	195.505	0.107	0.166
-514.858	43.918	-0.082	-0.076
-513.843	47.838	-0.307	-0.291
-512.829	-49.936	-0.085	0.041
-511.814	-80.592	-0.238	0.080
-510.799	-33.080	-0.249	-0.140
-509.785	672.274	-0.146	-0.384
-508.770	-22.066	-0.432	-0.266
-507.756	800.000	-0.119	-0.339
-506.741	800.000	0.139	0.492
-505.726	-57.172	0.205	-0.092
-504.712	272.544	-0.085	0.152
-503.697	42.464	-0.104	0.096
-502.683	51.463	0.170	-0.164
-501.668	266.783	-0.023	-0.040
-500.653	-29.214	0.288	0.167
-499.639	375.617	0.260	-0.536
-498.624	583.305	-0.146	-0.363
-497.610	-50.981	0.114	-0.054
-496.595	-112.677	0.222	-0.045
-495.581	-19.777	-0.199	-0.125
-494.566	-45.157	0.094	-0.047
-493.551	-27.546	0.111	0.065
-492.537	-200.000	-0.033	0.307
-491.522	-200.000	0.049	0.444
-490.508	800.000	0.095	0.321
-489.493	-200.000	0.030	0.241
-488.478	-30.427	-0.155	0.089
-487.464	85.326	0.295	0.329
-486.449	-13.924	0.221	0.144
-485.435	-200.000	0.017	-0.125
-484.420	-44.516	-0.110	-0.056
-483.405	-200.000	0.413	0.002
-482.391	-40.171	-0.020	0.011
-481.376	205.120	-0.059	-0.092
-480.362	460.680	-0.054	0.123
-479.347	-8.784	0.240	0.163
-478.332	51.153	0.221	-0.212
-477.318	77.952	-0.164	-0.177
-476.303	800.000	0.139	-0.458
-475.289	-136.000	-0.045	-0.005
-474.274	99.164	-0.179	0.210
-473.259	298.411	-0.161	-0.300
-472.245	-169.931	-0.213	0.008
-471.230	-38.194	0.149	-0.080
-470.216	-40.741	0.101	0.053
-469.201	-147.032	-0.050	-0.004
-468.186	-200.000	-0.017	0.385
-467.172	0.276	0.386	0.279
-466.157	-20.316	-0.281	-0.175
-465.143	93.338	0.246	0.282
-464.128	-200.000	0.014	0.108
-463.113	484.661	-0.039	0.089
-462.099	242.196	0.071	-0.119
-461.084	-93.037	-0.184	-0.052
-460.070	89.223	0.133	0.150
-459.055	-7.969	-0.090	-0.061
-458.040	-200.000	0.037	0.171
-457.026	730.596	-0.144	-0.388
-456.011	800.000	0.076	-0.308
-454.997	800.000	-0.140	-0.491
-453.982	181.857	-0.150	-0.223
-452.968	-200.000	0.266	0.000
-451.953	800.000	-0.040	0.155
-450.938	-53.462	-0.061	-0.028
-449.924	-78.331	0.307	0.106
-448.909	-200.000	0.018	0.456
-447.895	-19.988	-0.149	-0.093
-446.880	183.472	-0.084	-0.126
-445.865	-56.858	0.211	0.094
-444.851	321.091	-0.172	-0.331
-443.836	537.407	-0.079	-0.190
-442.822	-110.583	0.146	-0.030
-441.807	123.275	-0.110	-0.140
-440.792	57.440	-0.285	-0.281
-439.778	-0.416	0.410	0.295
-438.763	184.307	0.249	-0.373
-437.749	347.530	0.074	0.148
-436.734	77.778	0.044	0.047
-435.719	-75.071	0.279	0.101
-434.705	181.720	0.110	-0.163
-433.690	-51.032	0.083	0.039
-432.676	-85.483	-0.232	-0.073
-431.661	-200.000	-0.022	0.246
-430.646	-110.204	-0.197	0.042
-429.632	-10.843	-0.200	0.134
-428.617	-131.360	0.145	0.019
-427.603	453.259	0.040	-0.090
-426.588	-49.532	0.389	0.187
-425.573	-147.053	0.365	0.032
-424.559	-126.609	-0.159	-0.024
-423.544	3.021	-0.131	0.096
-422.530	-146.863	-0.110	-0.010
-421.515	-60.989	0.117	-0.050
-420.500	15.360	-0.094	-0.075
-419.486	800.000	-0.112	0.349
-418.471	-68.783	-0.168	0.066
-417.457	283.586	-0.038	0.069
-416.442	211.170	0.043	-0.068
-415.428	-200.000	0.032	0.389
-414.413	-200.000	0.060	0.502
-413.398	-125.114	-0.188	-0.029
-412.384	131.342	-0.207	0.268
-411.369	-66.900	-0.143	0.057
-410.355	-92.220	-0.207	-0.059
-409.340	-200.000	0.020	-0.088
-408.325	67.232	-0.195	-0.201
-407.311	800.000	-0.082	0.297
-406.296	-200.000	-0.009	0.119
-405.282	402.883	-0.121	0.258
-404.267	2.383	-0.018	-0.013
-403.252	-77.806	-0.177	0.062
-402.238	-103.723	-0.079	-0.019
-401.223	559.826	-0.047	-0.114
-400.209	-77.726	-0.128	0.045
-399.194	-3.159	0.329	-0.232
-398.179	-108.157	-0.448	0.098
-397.165	-182.701	-0.292	-0.005
-396.150	-142.192	-0.104	-0.010
-395.136	-135.570	-0.219	-0.026
-394.121	238.555	0.018	0.031
-393.106	243.323	-0.190	-0.322
-392.092	517.450	0.098	-0.231
-391.077	72.239	0.190	-0.200
-390.063	433.281	-0.032	0.071
-389.048	637.494	-0.064	-0.163
-388.033	-14.813	0.275	-0.178
-387.019	-200.000	-0.024	-0.187
-386.004	5.094	-0.214	-0.159
-384.990	-61.250	-0.413	-0.176
-383.975	-200.000	0.021	0.308
-382.960	94.061	0.188	-0.215
-381.946	440.369	-0.111	-0.244
-380.931	282.812	0.108	0.196
-379.917	-200.000	0.029	0.306
-378.902	-200.000	-0.013	-0.069
-377.888	-36.688	-0.033	-0.018
-376.873	35.009	-0.174	-0.154
-375.858	-152.087	-0.404	0.030
-374.844	-59.931	0.273	-0.118
-373.829	-200.000	-0.007	0.342
-372.815	-45.692	0.137	-0.068
-371.800	549.776	-0.182	-0.441
-370.785	-24.377	0.097	-0.058
-369.771	-74.700	-0.370	0.134
-368.756	800.000	0.049	0.151
-367.742	267.384	0.038	-0.067
-366.727	-11.470	0.398	-0.264
-365.712	471.954	0.137	0.310
-364.698	800.000	0.045	0.166
-363.683	800.000	-0.074	-0.281
-362.669	800.000	0.068	0.257
-361.654	800.000	-0.107	0.423
-360.639	-131.716	0.432	0.057
-359.625	386.251	0.143	0.298
-358.610	-200.000	-0.048	-0.275
-357.596	-200.000	-0.008	-0.147
-356.581	187.505	0.145	-0.219
-355.566	-200.000	0.031	-0.391
-354.552	-200.000	-0.029	0.220
-353.537	115.410	0.102	0.126
-352.523	-59.396	-0.361	0.156
-351.508	-200.000	-0.030	-0.316
-350.493	184.315	-0.119	0.178
-349.479	541.707	-0.067	-0.161
-348.464	323.130	-0.069	0.133
-347.450	311.392	0.079	0.149
-346.435	-92.686	-0.180	-0.051
-345.420	-5.533	-0.161	0.111
-344.406	-200.000	0.007	0.252
-343.391	-138.245	0.492	-0.055
-342.377	-200.000	-0.198	0.000
-341.362	-16.539	-0.275	0.176
-340.348	72.754	-0.079	0.084
-339.333	-64.540	-0.353	-0.144
-338.318	365.035	-0.075	0.152
-337.304	214.302	-0.242	0.386
-336.289	145.428	-0.103	-0.139
-335.275	-155.056	-0.112	0.007
-334.260	230.514	-0.200	0.330
-333.245	-117.605	0.149	0.027
-332.231	213.270	-0.098	-0.156
-331.216	-114.619	-0.103	0.020
-330.202	800.000	-0.027	0.082
-329.187	-49.588	0.385	0.185
-328.172	-200.000	0.032	-0.317
-327.158	21.501	0.097	0.079
-326.143	176.813	-0.119	0.174
-325.129	-42.581	0.191	0.098
-324.114	-5.163	-0.213	-0.147
-323.099	163.661	-0.125	-0.176
-322.085	-132.347	-0.107	0.014
-321.070	-131.463	0.143	-0.019
-320.056	-200.000	-0.028	-0.269
-319.041	-200.000	0.053	-0.262
-318.026	125.025	-0.072	-0.092
-317.012	71.221	0.159	0.166
-315.997	28.844	-0.120	-0.102
-314.983	-154.984	-0.082	-0.005
-313.968	-91.243	-0.030	0.009
-312.953	-80.022	-0.403	-0.136
-311.939	-200.000	0.029	-0.134
-310.924	151.140	-0.119	-0.163
-309.910	-62.314	0.153	-0.064
-308.895	-42.425	-0.451	-0.232
-307.880	-90.880	0.203	-0.059
-306.866	13.964	-0.222	0.173
-305.851	-148.340	-0.045	-0.004
-304.837	-105.918	-0.219	0.050
-303.822	78.593	0.119	0.128
-302.807	-9.123	0.180	0.121
-301.793	-121.520	-0.399	-0.067
-300.778	-200.000	-0.059	0.285
-299.764	-58.465	0.228	-0.100
-298.749	26.555	-0.050	0.042
-297.735	-200.000	-0.025	0.281
-296.720	-79.179	-0.100	-0.034
-295.705	-25.931	0.203	-0.120
-294.691	-200.000	-0.003	0.249
-293.676	-85.092	-0.388	0.122
-292.662	-200.000	-0.074	0.589
-291.647	-19.012	0.108	0.067
-290.632	-150.077	0.280	0.022
-289.618	164.743	0.234	0.332
-288.603	100.055	-0.089	0.104
-287.589	304.147	-0.226	0.420
-286.574	-30.744	-0.329	0.187
-285.559	800.000	-0.041	0.131
-284.545	214.484	0.055	0.087
-283.530	-200.000	0.008	-0.083
-282.516	17.482	0.169	-0.135
-281.501	-30.449	-0.196	-0.112
-280.486	64.458	-0.160	0.162
-279.472	186.193	-0.077	0.115
-278.457	800.000	-0.063	0.206
-277.443	19.789	0.043	0.035
-276.428	-85.595	0.115	-0.036
-275.413	-14.898	-0.173	-0.111
-274.399	-129.624	-0.352	-0.049
-273.384	-52.553	-0.214	-0.099
-272.370	-200.000	-0.026	0.199
-271.355	-0.764	0.115	-0.082
-270.340	425.335	-0.084	0.182
-269.326	-200.000	-0.021	-0.094
-268.311	-144.205	0.260	-0.024
-267.297	-26.753	-0.161	-0.095
-266.282	270.227	-0.222	-0.392
-265.267	-43.962	0.065	0.033
-264.253	-146.069	0.275	-0.024
-263.238	138.107	0.257	0.339
-262.224	402.253	0.039	0.082
-261.209	-140.579	0.097	-0.010
-260.195	-41.914	0.248	0.127
-259.180	800.000	0.086	-0.241
-258.165	-20.171	-0.207	-0.128
-257.151	-200.000	-0.005	-0.158
-256.136	603.619	0.088	0.220
-255.122	-200.000	-0.036	0.161
-254.107	-48.797	0.188	0.090
-253.092	64.567	-0.330	0.334
-252.078	-83.497	-0.268	0.086
-251.063	18.345	0.122	0.098
-250.049	-200.000	0.007	-0.062
-249.034	-81.352	-0.073	0.024
-248.019	-103.272	0.108	0.026
-247.005	-96.560	-0.073	-0.019
-245.990	-140.537	-0.128	0.013
-244.976	86.807	0.290	-0.321
-243.961	307.473	-0.027	-0.051
-242.946	-80.220	0.316	-0.106
-241.932	800.000	0.151	-0.544
-240.917	11.776	0.096	-0.074
-239.903	358.607	0.108	0.217
-238.888	-5.026	-0.189	0.131
-237.873	16.866	-0.184	-0.146
-236.859	144.132	-0.100	0.134
-235.844	-200.000	-0.036	-0.193
-234.830	78.703	0.250	0.268
-233.815	52.149	0.120	-0.114
-232.800	-5.053	0.182	-0.126
-231.786	-86.359	0.081	0.025
-230.771	219.708	0.187	-0.300
-229.757	-116.535	-0.117	-0.022
-228.742	-116.755	0.207	-0.038
-227.727	800.000	-0.050	-0.150
-226.713	176.725	-0.149	-0.217
-225.698	800.000	0.029	-0.114
-224.684	-6.117	-0.278	-0.190
-223.669	-34.738	-0.233	0.128
-222.655	-200.000	-0.010	0.096
-221.640	-97.587	-0.110	-0.029
-220.625	8.904	0.201	-0.152
-219.611	-112.998	-0.172	-0.034
-218.596	473.612	0.096	0.217
-217.582	-39.957	-0.166	-0.087
-216.567	397.531	-0.045	-0.095
-215.552	133.606	0.095	-0.123
-214.538	213.811	-0.032	0.050
-213.523	800.000	-0.065	0.257
-212.509	760.120	-0.135	0.367
-211.494	52.002	0.369	0.352
-210.479	646.607	-0.053	0.135
-209.465	35.072	0.276	-0.242
-208.450	-46.679	0.200	0.098
-207.436	-99.243	0.250	0.063
-206.421	-23.289	0.234	0.141
-205.406	800.000	0.031	-0.113
-204.392	77.210	0.173	-0.184
-203.377	243.831	-0.160	-0.268
-202.363	-153.509	-0.430	0.030
-201.348	-63.155	-0.248	0.102
-200.333	120.191	-0.088	0.110
-199.319	-200.000	0.000	0.147
-198.304	85.276	0.188	0.206
-197.290	98.552	0.123	0.143
-196.275	733.828	-0.136	0.365
-195.260	-53.313	0.362	-0.166
-194.246	-56.627	0.102	-0.045
-193.231	800.000	0.084	-0.357
-192.217	-200.000	-0.060	-0.329
-191.202	-130.524	-0.085	0.012
-190.187	73.768	-0.064	0.068
-189.173	226.750	0.256	-0.416
-188.158	800.000	0.055	-0.223
-187.144	270.009	-0.162	-0.284
-186.129	-64.911	-0.196	0.079
-185.114	-97.718	0.301	0.078
-184.100	3.146	0.265	-0.193
-183.085	-130.352	0.317	-0.043
-182.071	140.806	-0.051	0.068
-181.056	-65.478	-0.271	0.109
-180.042	174.090	0.091	-0.132
-179.027	650.441	-0.062	0.160
-178.012	-15.404	-0.148	0.095
-176.998	-200.000	0.036	0.303
-175.983	-69.747	-0.196	-0.075
-174.969	-200.000	0.072	-0.318
-173.954	-46.396	0.309	-0.152
-172.939	-116.396	-0.074	-0.014
-171.925	800.000	0.113	-0.410
-170.910	-185.465	-0.149	-0.002
-169.896	75.066	-0.169	-0.178
-168.881	-158.521	0.019	-0.001
-167.866	-48.373	0.094	0.045
-166.852	6.390	0.421	0.313
-165.837	47.268	-0.125	0.116
-164.823	-84.876	0.319	0.100
-163.808	800.000	-0.057	-0.222
-162.793	-200.000	0.019	-0.117
-161.779	28.357	-0.188	0.159
-160.764	-49.271	0.193	-0.092
-159.750	-95.186	0.145	-0.039
-158.735	234.056	0.177	0.291
-157.720	800.000	0.027	-0.082
-156.706	99.687	0.207	-0.240
-155.691	800.000	-0.075	-0.216
-154.677	-200.000	0.040	0.231
-153.662	324.189	0.083	0.159
-152.647	152.595	0.160	-0.218
-151.633	291.701	0.136	-0.247
-150.618	718.149	0.152	0.403
-149.604	20.151	0.308	-0.249
-148.589	-74.410	0.301	-0.108
-147.574	-52.520	0.325	-0.150
-146.560	131.011	-0.269	-0.345
-145.545	-96.505	0.099	0.026
-144.531	36.335	0.094	0.083
-143.516	-200.000	-0.045	0.344
-142.502	800.000	-0.076	-0.263
-141.487	-4.139	-0.034	0.024
-140.472	99.238	-0.157	-0.181
-139.458	22.679	-0.109	0.089
-138.443	-70.703	-0.076	0.029
-137.429	178.451	-0.282	0.412
-136.414	286.103	0.098	-0.177
-135.399	-145.333	-0.219	0.020
-134.385	45.837	-0.134	-0.124
-133.370	800.000	-0.060	-0.231
-132.356	-43.976	0.222	0.112
-131.341	-200.000	0.010	-0.188
-130.326	85.942	0.091	0.100
-129.312	-62.746	0.205	-0.085
-128.297	-61.034	0.200	-0.084
-127.283	-200.000	0.007	-0.133
-126.268	-41.576	-0.113	-0.058
-125.253	105.818	-0.149	0.176
-124.239	150.633	-0.194	0.263
-123.224	276.130	-0.110	0.196
-122.210	154.912	0.032	0.044
-121.195	-57.661	0.124	-0.054
