DTS Sentinel unit serial number:	SN413079Multiplexer serial number:	ORYXHardware model number:	OX4-SRSoftware version number:	ORYX F/W v4.00 Oryx Data Collector v3.7.2.0data status	okinstallation	princeton_trtdifferential loss correction	single-endedforward channel	channel 1reverse channel	N/Adate	2019/09/16time	19:26:35forward acquisition time	60.00reverse acquisition time	0.00gamma	496.2192k internal	0.2315k external	0.2315temperature offset calibration	0.9951default loss term (dB/km)	0.3790temperature slope calibration	1.0000multiplexer offset coefficient	1.0000multiplexer slope coefficient	1.0000fibre end	0.00T internal ref (°C)	34.62T ext. ref 1 (°C)	0.06T ext. ref 2 (°C)	27.60length (m)	temperature (°C)	Stokes	anti-Stokes-747.200	89.311	-0.037	-0.041
-746.185	800.000	-0.089	0.331
-745.171	-165.758	0.240	0.011
-744.156	-87.045	0.195	0.060
-743.142	36.468	0.101	0.090
-742.127	-107.405	0.400	0.089
-741.112	25.216	-0.011	0.009
-740.098	800.000	-0.121	0.470
-739.083	116.709	0.079	0.098
-738.069	684.607	0.105	0.277
-737.054	-87.505	-0.114	-0.035
-736.039	-130.859	-0.063	-0.008
-735.025	-53.281	0.299	-0.139
-734.010	11.077	-0.069	-0.053
-732.996	-59.052	0.142	0.062
-731.981	-14.728	0.269	0.175
-730.966	48.647	-0.100	-0.095
-729.952	-17.459	-0.299	-0.191
-728.937	82.470	0.107	-0.117
-727.923	23.540	-0.031	-0.026
-726.908	434.134	-0.077	0.170
-725.894	647.672	-0.097	-0.252
-724.879	-2.484	0.175	-0.124
-723.864	-200.000	-0.004	0.137
-722.850	3.402	-0.126	-0.093
-721.835	278.046	0.066	0.119
-720.821	-60.383	0.318	0.137
-719.806	212.649	0.170	-0.271
-718.791	-49.940	-0.331	-0.159
-717.777	31.237	-0.260	0.225
-716.762	800.000	0.065	-0.267
-715.748	-28.289	-0.236	0.138
-714.733	63.768	0.185	0.188
-713.718	49.874	-0.182	-0.174
-712.704	57.241	0.320	-0.316
-711.689	-48.906	-0.347	-0.169
-710.675	68.903	-0.154	-0.160
-709.660	51.121	0.090	0.086
-708.645	-24.506	0.165	0.099
-707.631	588.949	-0.050	0.124
-706.616	-30.357	0.403	-0.231
-705.602	-50.007	-0.038	0.018
-704.587	-200.000	-0.033	-0.210
-703.572	-200.000	-0.032	0.148
-702.558	216.075	-0.119	0.191
-701.543	130.363	0.197	-0.256
-700.529	-59.933	0.112	0.049
-699.514	-21.752	0.367	0.226
-698.499	216.569	0.114	-0.184
-697.485	-194.097	0.247	0.002
-696.470	-99.851	0.195	0.049
-695.456	-118.977	-0.218	0.039
-694.441	800.000	-0.056	0.246
-693.426	-200.000	-0.014	-0.306
-692.412	-200.000	-0.013	-0.491
-691.397	800.000	0.103	-0.306
-690.383	-116.454	0.156	0.029
-689.368	-0.766	0.117	-0.084
-688.354	98.085	-0.185	-0.216
-687.339	50.974	0.142	-0.136
-686.324	-16.568	0.195	-0.125
-685.310	-14.091	0.374	0.244
-684.295	571.432	0.087	0.215
-683.281	705.125	-0.029	-0.078
-682.266	-71.484	0.095	0.036
-681.251	800.000	-0.041	0.115
-680.237	-45.788	-0.215	0.107
-679.222	151.177	0.249	0.342
-678.208	233.431	0.043	0.071
-677.193	117.958	0.113	-0.141
-676.178	-73.665	0.206	-0.076
-675.164	46.426	0.024	0.023
-674.149	-177.640	-0.267	-0.007
-673.135	-200.000	0.024	0.146
-672.120	4.008	0.153	-0.113
-671.105	-90.591	0.196	0.057
-670.091	124.562	-0.040	0.050
-669.076	800.000	-0.071	-0.237
-668.062	-47.007	-0.242	0.119
-667.047	216.942	-0.049	-0.079
-666.032	800.000	0.032	-0.110
-665.018	-119.888	-0.233	-0.041
-664.003	-200.000	0.046	0.214
-662.989	-52.752	-0.093	-0.043
-661.974	-200.000	-0.030	0.252
-660.959	133.430	0.153	-0.200
-659.945	-38.357	-0.249	0.133
-658.930	781.240	0.092	0.254
-657.916	-200.000	0.001	0.500
-656.901	800.000	0.109	-0.387
-655.886	-15.640	0.256	0.165
-654.872	116.007	-0.126	-0.155
-653.857	273.473	0.112	-0.200
-652.843	94.350	-0.088	-0.101
-651.828	-200.000	-0.001	-0.038
-650.814	800.000	-0.071	0.226
-649.799	-41.238	0.329	-0.171
-648.784	216.024	0.123	0.197
-647.770	690.273	-0.039	-0.103
-646.755	-140.241	-0.045	-0.005
-645.741	-200.000	0.076	-0.444
-644.726	-30.944	0.098	0.056
-643.711	-68.548	-0.116	0.046
-642.697	353.380	-0.145	-0.291
-641.682	-200.000	-0.004	-0.052
-640.668	526.767	0.175	-0.416
-639.653	21.554	-0.259	0.213
-638.638	-200.000	-0.006	-0.072
-637.624	800.000	0.186	-0.551
-636.609	579.306	-0.056	0.139
-635.595	-40.977	-0.265	0.138
-634.580	0.734	0.379	-0.274
-633.565	-87.838	0.051	0.015
-632.551	57.871	-0.222	-0.219
-631.536	-200.000	0.021	-0.153
-630.522	285.501	-0.276	-0.503
-629.507	-200.000	-0.056	-0.334
-628.492	-25.554	0.204	-0.122
-627.478	800.000	0.042	-0.119
-626.463	45.304	0.147	-0.137
-625.449	-81.558	-0.162	-0.054
-624.434	56.536	0.103	0.101
-623.419	-117.342	-0.254	-0.046
-622.405	-134.522	-0.108	0.013
-621.390	800.000	-0.041	0.148
-620.376	-31.987	0.142	-0.080
-619.361	172.990	0.141	0.205
-618.346	-77.978	0.355	-0.123
-617.332	-200.000	-0.005	-0.047
-616.317	-14.941	-0.046	-0.030
-615.303	43.963	0.101	-0.093
-614.288	-200.000	-0.028	0.186
-613.273	204.291	0.062	0.097
-612.259	-84.421	-0.274	0.087
-611.244	-29.630	0.148	0.085
-610.230	-0.702	-0.285	-0.203
-609.215	186.265	-0.071	0.106
-608.201	-13.564	-0.314	-0.205
-607.186	585.976	0.075	-0.185
-606.171	358.287	-0.220	0.443
-605.157	-22.001	0.332	0.204
-604.142	-41.375	0.137	-0.071
-603.128	-189.416	-0.166	-0.002
-602.113	-122.352	-0.230	-0.038
-601.098	-73.037	0.199	-0.074
-600.084	116.743	0.154	-0.190
-599.069	-155.649	0.161	-0.010
-598.055	94.244	-0.355	-0.406
-597.040	94.182	0.240	-0.275
-596.025	-5.039	0.061	-0.043
-595.011	269.408	-0.070	0.123
-593.996	187.621	0.175	0.263
-592.982	-55.928	-0.154	-0.069
-591.967	-47.372	-0.088	-0.043
-590.952	292.125	-0.142	-0.261
-589.938	-20.688	-0.411	-0.254
-588.923	114.506	-0.248	0.304
-587.909	-14.489	0.156	-0.101
-586.894	-146.467	-0.272	-0.024
-585.879	-200.000	-0.027	0.230
-584.865	-165.495	0.227	-0.010
-583.850	-148.917	-0.422	0.034
-582.836	-154.518	-0.247	0.017
-581.821	-140.683	0.399	-0.042
-580.806	469.535	-0.081	0.182
-579.792	800.000	0.038	-0.125
-578.777	533.100	-0.181	-0.432
-577.763	-121.891	-0.255	0.042
-576.748	188.412	0.088	0.132
-575.733	108.640	-0.103	-0.124
-574.719	-80.061	0.194	-0.065
-573.704	791.353	0.063	-0.175
-572.690	18.935	0.103	-0.083
-571.675	62.207	0.177	-0.178
-570.661	187.037	0.126	0.189
-569.646	-200.000	0.023	-0.120
-568.631	35.855	-0.255	0.226
-567.617	164.538	0.181	0.257
-566.602	800.000	0.070	-0.250
-565.588	800.000	-0.053	0.185
-564.573	-66.743	-0.172	0.069
-563.558	32.470	-0.185	0.161
-562.544	-78.217	-0.092	0.032
-561.529	800.000	0.052	-0.153
-560.515	30.226	0.017	0.014
-559.500	-58.247	0.081	-0.036
-558.485	739.829	0.086	0.232
-557.471	228.580	0.118	-0.193
-556.456	-131.032	-0.230	0.031
-555.442	800.000	-0.036	0.132
-554.427	-200.000	-0.017	0.216
-553.412	-104.644	-0.195	-0.045
-552.398	417.191	0.148	-0.319
-551.383	-52.594	0.238	-0.111
-550.369	5.464	0.124	-0.092
-549.354	-117.499	-0.301	0.055
-548.339	92.994	0.039	0.045
-547.325	-200.000	-0.030	0.344
-546.310	550.323	0.111	-0.267
-545.296	-4.189	0.026	0.018
-544.281	0.801	-0.290	-0.209
-543.266	-143.334	-0.300	0.029
-542.252	-107.976	0.073	-0.016
-541.237	-33.354	-0.176	-0.098
-540.223	-100.788	0.263	0.065
-539.208	749.507	0.045	-0.121
-538.193	141.997	0.057	0.076
-537.179	12.672	0.454	0.353
-536.164	264.993	-0.081	0.142
-535.150	-194.326	0.131	-0.001
-534.135	95.251	-0.211	-0.241
-533.121	-200.000	0.005	-0.163
-532.106	-92.597	-0.292	-0.082
-531.091	800.000	-0.065	0.245
-530.077	800.000	-0.025	-0.089
-529.062	-54.912	-0.053	-0.024
-528.048	-176.472	0.092	-0.002
-527.033	116.428	0.054	0.067
-526.018	387.210	-0.001	-0.003
-525.004	-74.869	-0.264	0.095
-523.989	-142.631	0.243	-0.024
-522.975	10.387	0.171	-0.131
-521.960	142.068	0.126	0.167
-520.945	181.085	0.143	-0.212
-519.931	436.345	-0.186	-0.407
-518.916	510.291	-0.128	-0.298
-517.902	387.354	-0.137	-0.285
-516.887	207.529	-0.104	0.163
-515.872	92.312	0.195	-0.221
-514.858	220.198	0.129	0.207
-513.843	-200.000	-0.060	0.318
-512.829	685.630	0.080	-0.210
-511.814	-17.268	0.133	-0.084
-510.799	-73.428	-0.434	-0.159
-509.785	610.938	0.245	0.615
-508.770	-200.000	0.062	0.312
-507.756	-18.106	0.413	-0.260
-506.741	166.746	0.068	-0.097
-505.726	-86.498	0.284	0.087
-504.712	-70.433	0.188	0.071
-503.697	800.000	-0.059	0.190
-502.683	-90.319	0.280	0.081
-501.668	33.821	-0.103	0.090
-500.653	152.617	0.135	0.185
-499.639	800.000	0.037	0.123
-498.624	120.329	0.089	-0.111
-497.610	-4.205	-0.308	0.214
-496.595	-64.625	-0.259	0.106
-495.581	-53.682	0.061	0.028
-494.566	71.850	-0.171	-0.178
-493.551	-2.039	-0.310	-0.219
-492.537	-88.761	0.209	-0.062
-491.522	-200.000	0.020	0.121
-490.508	261.403	0.148	-0.257
-489.493	222.578	-0.160	-0.259
-488.478	165.236	-0.049	-0.070
-487.464	-128.592	-0.087	0.012
-486.449	76.251	-0.079	-0.084
-485.435	339.137	-0.050	-0.098
-484.420	-74.827	0.084	-0.030
-483.405	-200.000	0.027	0.127
-482.391	-100.100	-0.291	-0.073
-481.376	-200.000	0.019	-0.199
-480.362	-46.004	-0.194	0.096
-479.347	-152.782	-0.229	0.016
-478.332	-17.435	0.154	-0.097
-477.318	-162.055	-0.144	0.007
-476.303	100.135	-0.078	0.091
-475.289	585.379	0.132	-0.326
-474.274	195.634	-0.119	-0.182
-473.259	74.970	0.175	-0.185
-472.245	232.140	-0.137	-0.225
-471.230	-200.000	-0.006	-0.120
-470.216	316.488	-0.162	0.307
-469.201	390.928	-0.102	0.211
-468.186	-109.742	0.183	-0.039
-467.172	1.645	-0.229	-0.165
-466.157	-200.000	0.060	-0.264
-465.143	-140.070	0.316	0.033
-464.128	140.167	-0.156	0.206
-463.113	-114.309	0.423	0.082
-462.099	-200.000	0.033	-0.354
-461.084	-128.388	0.064	0.009
-460.070	-40.721	0.072	0.037
-459.055	-200.000	-0.043	0.327
-458.040	-200.000	0.022	-0.369
-457.026	152.989	-0.097	0.133
-456.011	-28.012	-0.132	0.076
-454.997	-200.000	0.258	0.001
-453.982	419.169	-0.181	0.389
-452.968	-103.871	-0.096	0.022
-451.953	-200.000	0.060	0.309
-450.938	-88.455	-0.080	0.024
-449.924	-118.555	0.117	-0.021
-448.909	800.000	0.042	0.165
-447.895	800.000	0.094	0.293
-446.880	800.000	0.081	0.355
-445.865	-47.238	-0.249	0.122
-444.851	16.162	-0.095	-0.075
-443.836	-41.224	-0.344	0.178
-442.822	258.940	-0.092	-0.159
-441.807	172.375	0.203	0.293
-440.792	-27.711	-0.309	-0.179
-439.778	-200.000	-0.279	-0.001
-438.763	-122.480	-0.304	0.050
-437.749	-200.000	0.022	0.177
-436.734	-46.765	0.202	0.099
-435.719	-64.124	0.153	-0.063
-434.705	-151.114	-0.110	0.008
-433.690	87.950	0.144	0.160
-432.676	-23.055	-0.123	-0.074
-431.661	800.000	-0.018	-0.067
-430.646	196.804	0.104	-0.158
-429.632	-58.543	0.142	-0.062
-428.617	-22.105	0.237	-0.144
-427.603	-4.811	-0.105	0.072
-426.588	-62.959	-0.009	-0.004
-425.573	163.772	0.239	-0.337
-424.559	247.584	0.191	0.323
-423.544	121.625	-0.130	-0.162
-422.530	-0.659	-0.093	-0.066
-421.515	67.002	0.174	0.178
-420.500	-53.014	0.335	-0.154
-419.486	800.000	0.006	0.022
-418.471	454.788	-0.135	0.300
-417.457	643.579	0.041	0.106
-416.442	-200.000	0.007	-0.193
-415.428	381.308	-0.163	-0.336
-414.413	75.410	-0.117	-0.124
-413.398	-14.634	0.111	0.072
-412.384	800.000	-0.019	-0.073
-411.369	87.171	0.153	0.169
-410.355	-78.187	-0.119	-0.041
-409.340	-145.014	-0.336	-0.031
-408.325	800.000	-0.075	-0.227
-407.311	-200.000	-0.015	-0.216
-406.296	-145.476	-0.190	0.017
-405.282	32.839	-0.407	-0.352
-404.267	800.000	0.053	0.215
-403.252	162.706	-0.185	0.260
-402.238	-20.223	-0.205	0.126
-401.223	294.299	0.029	-0.053
-400.209	-65.882	-0.199	0.080
-399.194	-41.873	0.061	-0.031
-398.179	-85.002	-0.417	-0.131
-397.165	38.002	-0.159	-0.141
-396.150	-200.000	0.005	-0.193
-395.136	29.445	-0.213	0.181
-394.121	139.460	-0.033	0.043
-393.106	58.038	-0.241	0.235
-392.092	349.793	0.209	0.412
-391.077	-200.000	0.047	-0.208
-390.063	130.099	-0.019	0.024
-389.048	-154.002	0.264	-0.018
-388.033	5.806	-0.316	-0.234
-387.019	35.506	-0.039	0.034
-386.004	-63.373	-0.249	0.102
-384.990	-200.000	0.042	0.262
-383.975	70.139	0.138	-0.143
-382.960	87.446	-0.033	-0.036
-381.946	-146.182	-0.251	0.022
-380.931	-71.504	0.159	0.059
-379.917	351.028	-0.120	0.237
-378.902	133.104	-0.287	0.370
-377.888	312.469	-0.055	0.103
-376.873	-200.000	0.005	0.269
-375.858	148.797	-0.092	-0.124
-374.844	-161.053	-0.096	0.005
-373.829	-200.000	0.037	0.209
-372.815	-99.888	-0.359	0.090
-371.800	800.000	0.060	-0.212
-370.785	-200.000	0.026	0.179
-369.771	-112.925	0.099	0.020
-368.756	-200.000	0.039	0.323
-367.742	220.876	0.084	-0.135
-366.727	129.954	-0.237	0.303
-365.712	-27.638	0.191	-0.110
-364.698	-179.452	-0.277	0.006
-363.683	-143.374	0.111	-0.011
-362.669	-157.900	-0.236	0.014
-361.654	-148.993	0.124	-0.010
-360.639	78.971	0.274	0.293
-359.625	-153.290	0.168	0.012
-358.610	-200.000	-0.077	-0.341
-357.596	-79.842	0.201	-0.067
-356.581	799.006	-0.043	-0.117
-355.566	-10.443	0.236	0.156
-354.552	153.718	0.205	0.280
-353.537	-200.000	-0.079	-0.376
-352.523	-80.343	-0.227	0.076
-351.508	-131.882	0.041	0.005
-350.493	-95.263	-0.179	0.048
-349.479	-200.000	0.000	0.105
-348.464	2.228	-0.024	0.017
-347.450	-65.041	-0.267	0.108
-346.435	372.336	-0.056	-0.114
-345.420	-200.000	-0.007	0.164
-344.406	-92.906	0.152	0.042
-343.391	800.000	0.068	-0.287
-342.377	-200.000	-0.008	-0.108
-341.362	137.576	0.173	0.226
-340.348	105.798	0.283	-0.334
-339.333	-200.000	-0.036	-0.269
-338.318	-123.802	0.283	0.045
-337.304	-90.129	0.107	-0.031
-336.289	99.753	-0.081	-0.093
-335.275	91.554	0.154	-0.173
-334.260	473.537	0.070	-0.158
-333.245	-54.855	0.130	-0.058
-332.231	437.033	-0.119	0.258
-331.216	800.000	0.067	0.211
-330.202	76.801	-0.243	-0.257
-329.187	35.923	-0.122	-0.107
-328.172	-200.000	0.038	0.171
-327.158	386.208	-0.064	0.133
-326.143	418.143	-0.059	0.125
-325.129	800.000	-0.090	0.306
-324.114	150.781	-0.200	0.271
-323.099	413.333	0.021	0.046
-322.085	75.758	-0.261	0.275
-321.070	-120.604	-0.155	0.026
-320.056	800.000	0.100	-0.328
-319.041	68.105	-0.048	0.049
-318.026	710.154	-0.169	0.446
-317.012	-29.530	-0.212	0.121
-315.997	17.634	0.158	0.125
-314.983	-156.299	-0.270	0.017
-313.968	800.000	-0.030	0.120
-312.953	520.146	-0.114	-0.267
-311.939	356.747	-0.043	0.086
-310.924	-200.000	-0.019	-0.171
-309.910	-200.000	0.002	0.242
-308.895	328.353	-0.082	0.156
-307.880	72.192	-0.198	0.205
-306.866	71.941	0.164	0.170
-305.851	138.990	0.127	0.166
-304.837	-95.992	0.309	-0.082
-303.822	467.047	-0.107	-0.238
-302.807	-88.287	0.301	-0.090
-301.793	426.001	0.091	-0.194
-300.778	-200.000	0.023	0.166
-299.764	109.342	0.247	0.294
-298.749	-165.035	-0.215	-0.010
-297.735	-122.098	0.328	0.054
-296.720	155.995	-0.076	-0.104
-295.705	205.825	0.120	-0.186
-294.691	-200.000	-0.014	-0.137
-293.676	-200.000	-0.035	-0.248
-292.662	126.658	-0.096	-0.120
-291.647	-173.408	0.108	0.003
-290.632	-200.000	-0.006	-0.150
-289.618	-111.736	0.185	0.037
-288.603	284.389	0.221	0.396
-287.589	-19.216	0.310	-0.191
-286.574	46.906	0.161	0.149
-285.559	554.314	-0.072	0.172
-284.545	-148.933	-0.139	-0.011
-283.530	800.000	-0.054	0.181
-282.516	101.925	0.229	0.266
-281.501	-134.134	0.136	-0.017
-280.486	-186.972	-0.257	0.004
-279.472	-174.152	0.322	0.009
-278.457	-68.013	0.248	0.096
-277.443	22.288	0.124	-0.101
-276.428	342.535	0.150	-0.293
-275.413	458.841	0.042	-0.093
-274.399	-19.710	-0.203	-0.125
-273.384	132.392	0.096	0.123
-272.370	800.000	-0.067	-0.234
-271.355	-200.000	0.046	-0.203
-270.340	163.130	-0.112	0.156
-269.326	800.000	0.036	-0.156
-268.311	-130.433	0.222	-0.030
-267.297	-103.815	-0.129	-0.030
-266.282	-88.474	-0.153	0.045
-265.267	-92.128	0.546	-0.153
-264.253	-200.000	0.008	0.040
-263.238	-95.066	-0.172	0.046
-262.224	800.000	0.056	0.231
-261.209	-120.277	0.518	0.088
-260.195	-166.523	0.039	0.002
-259.180	-200.000	0.060	-0.279
-258.165	-200.000	-0.009	-0.161
-257.151	-98.632	0.044	0.011
-256.136	123.306	0.126	0.157
-255.122	-200.000	0.002	0.203
-254.107	-119.302	0.239	-0.041
-253.092	-60.638	0.172	-0.073
-252.078	-200.000	-0.033	0.497
-251.063	-162.681	-0.152	0.007
-250.049	94.846	-0.061	0.069
-249.034	-152.097	-0.251	-0.018
-248.019	201.912	-0.087	0.133
-247.005	-200.000	-0.048	-0.397
-245.990	-200.000	0.024	0.154
-244.976	89.632	-0.252	-0.280
-243.961	18.396	-0.087	0.069
-242.946	-113.838	-0.237	0.046
-241.932	-132.842	0.401	-0.051
-240.917	510.462	-0.154	-0.355
-239.903	213.271	0.206	0.324
-238.888	-200.000	-0.173	-0.001
-237.873	-128.259	0.253	-0.036
-236.859	-88.050	0.304	-0.091
-235.844	647.599	0.094	-0.238
-234.830	438.726	0.019	-0.041
-233.815	198.335	0.135	-0.205
-232.800	-24.741	0.069	-0.041
-231.786	-27.212	-0.456	-0.264
-230.771	-200.000	-0.007	0.030
-229.757	136.695	0.153	-0.199
-228.742	-6.659	0.155	-0.105
-227.727	67.602	-0.051	-0.051
-226.713	-200.000	-0.006	0.061
-225.698	-71.234	0.115	0.043
-224.684	415.444	0.175	-0.370
-223.669	-38.641	0.125	0.065
-222.655	2.058	-0.087	0.062
-221.640	-111.312	-0.183	0.037
-220.625	800.000	-0.018	0.053
-219.611	85.663	-0.038	0.042
-218.596	-136.122	0.071	0.008
-217.582	114.082	0.313	-0.378
-216.567	-200.000	-0.012	-0.156
-215.552	-108.833	0.252	0.054
-214.538	79.656	0.183	0.195
-213.523	-200.000	-0.000	-0.307
-212.509	-108.164	-0.380	0.082
-211.494	-75.488	-0.177	-0.063
-210.479	-86.098	0.326	0.100
-209.465	-58.193	0.114	-0.049
-208.450	-200.000	0.067	0.324
-207.436	-66.299	0.095	0.037
-206.421	-200.000	0.055	0.292
-205.406	-34.976	-0.038	-0.021
-204.392	-200.000	0.039	0.187
-203.377	-200.000	0.009	-0.113
-202.363	-40.278	0.259	-0.133
-201.348	-200.000	0.039	0.381
-200.333	288.011	-0.077	-0.139
-199.319	-200.000	0.004	-0.229
-198.304	-39.027	-0.166	-0.087
-197.290	-200.000	0.019	-0.230
-196.275	800.000	-0.031	-0.128
-195.260	-81.444	0.133	0.043
-194.246	-200.000	0.015	0.073
-193.231	143.826	0.233	0.308
-192.217	571.311	-0.098	0.238
-191.202	-53.912	-0.027	0.012
-190.187	-200.000	0.015	0.344
-189.173	-137.110	-0.445	-0.050
-188.158	252.447	-0.165	0.279
-187.144	-38.899	0.211	-0.110
-186.129	-200.000	-0.014	-0.301
-185.114	64.492	-0.202	-0.201
-184.100	58.293	0.266	0.259
-183.085	-70.390	0.160	0.060
-182.071	-130.411	0.407	0.055
-181.056	680.002	0.090	0.232
-180.042	195.433	-0.149	0.224
-179.027	-200.000	-0.025	-0.131
-178.012	800.000	-0.072	0.199
-176.998	800.000	0.117	0.323
-175.983	-200.000	-0.017	-0.371
-174.969	800.000	-0.081	0.289
-173.954	800.000	0.152	-0.445
-172.939	800.000	-0.082	0.350
-171.925	-145.846	0.078	-0.007
-170.910	-200.000	-0.028	0.179
-169.896	-200.000	0.024	0.223
-168.881	-8.188	-0.160	0.107
-167.866	-200.000	-0.000	-0.065
-166.852	-200.000	0.037	-0.206
-165.837	-82.302	0.111	-0.036
-164.823	-19.501	-0.226	0.139
-163.808	-6.397	0.053	-0.036
-162.793	-117.430	-0.256	0.046
-161.779	-41.792	0.269	0.137
-160.764	647.584	0.084	0.212
-159.750	-200.000	-0.074	-0.426
-158.735	-84.949	-0.102	-0.032
-157.720	800.000	-0.079	0.277
-156.706	-200.000	0.018	0.081
-155.691	-30.889	-0.059	-0.033
-154.677	-6.952	-0.155	0.104
-153.662	114.278	0.204	0.246
-152.647	527.197	-0.118	0.276
-151.633	-108.677	0.341	-0.072
-150.618	312.741	0.123	0.228
-149.604	-114.389	0.370	-0.070
-148.589	-72.636	0.156	0.057
-147.574	79.012	0.202	0.215
-146.560	428.808	0.236	-0.506
-145.545	238.982	0.047	-0.077
-144.531	-155.615	0.173	-0.011
-143.516	102.501	0.262	-0.303
-142.502	-94.654	0.229	0.062
-141.487	396.292	0.174	0.359
-140.472	-50.948	-0.267	0.124
-139.458	400.892	0.045	-0.093
-138.443	-0.298	-0.072	0.051
-137.429	-31.672	-0.068	0.038
-136.414	-56.012	-0.130	0.057
-135.399	60.887	0.256	-0.252
-134.385	-200.000	-0.003	-0.165
-133.370	-47.341	-0.353	-0.170
-132.356	-16.857	0.402	-0.251
-131.341	523.420	-0.192	-0.446
-130.326	-143.290	-0.307	-0.029
-129.312	-74.874	0.401	-0.142
-128.297	-23.300	0.319	-0.190
-127.283	287.093	0.063	-0.112
-126.268	-200.000	-0.028	-0.197
-125.253	-183.583	0.150	-0.003
-124.239	-19.201	0.178	-0.109
-123.224	127.220	-0.027	-0.034
-122.210	-131.632	-0.252	0.033
-121.195	29.079	0.221	-0.186
