DTS Sentinel unit serial number:	SN413079Multiplexer serial number:	ORYXHardware model number:	OX4-SRSoftware version number:	ORYX F/W v4.00 Oryx Data Collector v3.7.2.0data status	okinstallation	princeton_trtdifferential loss correction	single-endedforward channel	channel 1reverse channel	N/Adate	2019/09/13time	13:18:35forward acquisition time	60.00reverse acquisition time	0.00gamma	496.2192k internal	0.2304k external	0.2304temperature offset calibration	1.0165default loss term (dB/km)	0.3790temperature slope calibration	1.0000multiplexer offset coefficient	1.0000multiplexer slope coefficient	1.0000fibre end	0.00T internal ref (°C)	34.94T ext. ref 1 (°C)	4.55T ext. ref 2 (°C)	31.85length (m)	temperature (°C)	Stokes	anti-Stokes-747.200	205.291	-0.211	-0.334
-746.185	163.964	0.195	0.279
-745.171	0.668	-0.190	-0.139
-744.156	317.818	0.096	0.185
-743.142	-200.000	-0.008	0.100
-742.127	13.735	0.087	0.068
-741.112	-130.042	-0.099	-0.014
-740.098	317.893	0.090	0.173
-739.083	86.791	0.208	0.234
-738.069	184.958	-0.210	0.317
-737.054	168.582	-0.186	0.271
-736.039	30.346	0.103	0.090
-735.025	29.546	-0.275	0.238
-734.010	294.313	-0.116	-0.215
-732.996	-159.719	-0.200	0.011
-731.981	-200.000	-0.019	0.135
-730.966	-200.000	0.008	-0.085
-729.952	-107.285	-0.201	-0.045
-728.937	144.545	-0.051	0.069
-727.923	800.000	-0.100	-0.403
-726.908	-155.280	-0.545	-0.036
-725.894	-200.000	0.190	-0.001
-724.879	389.076	-0.115	0.242
-723.864	134.187	-0.187	-0.247
-722.850	800.000	0.036	-0.153
-721.835	800.000	-0.113	0.410
-720.821	-122.327	-0.032	0.005
-719.806	23.732	-0.169	-0.141
-718.791	160.841	0.070	-0.099
-717.777	171.016	-0.213	-0.311
-716.762	212.059	-0.132	0.212
-715.748	-200.000	-0.043	-0.521
-714.733	-200.000	-0.001	0.039
-713.718	3.054	0.112	-0.083
-712.704	122.293	0.301	0.382
-711.689	278.655	0.150	0.271
-710.675	247.939	0.140	0.240
-709.660	800.000	-0.008	0.034
-708.645	92.933	0.111	-0.127
-707.631	800.000	-0.052	0.200
-706.616	-200.000	0.030	0.244
-705.602	-73.818	-0.292	-0.108
-704.587	-14.601	0.168	-0.110
-703.572	-142.364	-0.161	0.016
-702.558	-70.442	-0.275	-0.106
-701.543	448.095	-0.079	-0.177
-700.529	800.000	0.069	-0.225
-699.514	398.328	-0.078	-0.166
-698.499	8.007	-0.432	-0.329
-697.485	-200.000	-0.035	-0.293
-696.470	-100.765	-0.094	-0.024
-695.456	97.768	-0.314	-0.367
-694.441	-153.219	-0.093	0.007
-693.426	-200.000	-0.100	0.505
-692.412	20.448	-0.024	0.019
-691.397	-200.000	0.005	0.232
-690.383	-121.618	0.241	0.041
-689.368	-122.479	0.108	-0.018
-688.354	-57.852	-0.091	0.041
-687.339	-186.327	-0.316	-0.005
-686.324	207.028	0.099	-0.156
-685.310	-47.658	-0.127	-0.063
-684.295	800.000	-0.045	-0.152
-683.281	28.897	-0.225	0.194
-682.266	-122.604	0.084	-0.014
-681.251	-200.000	0.007	-0.161
-680.237	-92.920	-0.023	-0.007
-679.222	38.627	-0.239	0.216
-678.208	-200.000	-0.000	-0.003
-677.193	149.429	-0.198	0.273
-676.178	2.866	-0.217	-0.160
-675.164	-200.000	0.039	0.191
-674.149	-200.000	0.035	0.242
-673.135	-200.000	0.018	-0.318
-672.120	-21.272	0.183	-0.114
-671.105	-120.810	-0.183	-0.031
-670.091	483.301	-0.064	0.148
-669.076	-111.243	0.128	-0.027
-668.062	-200.000	0.004	-0.143
-667.047	317.730	-0.125	-0.241
-666.032	126.845	0.040	-0.052
-665.018	-127.091	-0.518	0.077
-664.003	-15.161	-0.134	-0.087
-662.989	-32.377	-0.068	-0.039
-661.974	11.134	-0.276	0.214
-660.959	-99.251	0.304	0.078
-659.945	-155.934	0.136	-0.009
-658.930	-81.205	-0.651	-0.218
-657.916	180.523	0.166	-0.247
-656.901	795.927	0.018	-0.051
-655.886	-33.149	-0.327	0.184
-654.872	-39.436	0.266	0.141
-653.857	98.101	0.077	0.089
-652.843	-101.789	0.160	0.039
-651.828	-200.000	-0.028	0.187
-650.814	126.532	-0.132	0.170
-649.799	358.446	-0.118	-0.238
-648.784	-54.515	0.113	-0.052
-647.770	38.884	-0.176	0.160
-646.755	116.762	-0.125	-0.156
-645.741	800.000	-0.022	-0.066
-644.726	95.259	0.222	-0.257
-643.711	133.145	-0.136	-0.178
-642.697	-137.689	-0.301	-0.034
-641.682	-107.378	0.333	0.074
-640.668	-146.239	0.150	-0.013
-639.653	50.653	0.064	0.061
-638.638	-35.311	0.106	-0.059
-637.624	-63.931	0.082	-0.034
-636.609	635.364	-0.049	0.127
-635.595	-200.000	-0.000	0.005
-634.580	444.171	-0.068	0.152
-633.565	800.000	-0.041	0.125
-632.551	14.186	0.023	-0.018
-631.536	518.870	-0.024	-0.057
-630.522	666.982	-0.059	0.155
-629.507	125.573	0.018	0.023
-628.492	-92.548	-0.039	0.011
-627.478	-107.506	0.356	-0.079
-626.463	-1.537	0.076	0.055
-625.449	-200.000	0.015	-0.137
-624.434	725.979	0.074	0.199
-623.419	583.033	-0.048	-0.120
-622.405	800.000	0.096	-0.309
-621.390	-116.974	-0.104	-0.019
-620.376	0.838	-0.021	0.015
-619.361	-100.405	-0.195	-0.049
-618.346	-200.000	-0.019	0.114
-617.332	800.000	-0.012	-0.043
-616.317	-200.000	-0.034	-0.319
-615.303	24.707	0.051	-0.043
-614.288	-49.480	0.104	0.050
-613.273	-200.000	-0.019	-0.236
-612.259	800.000	-0.065	-0.233
-611.244	-136.018	-0.154	0.018
-610.230	-50.034	-0.090	-0.043
-609.215	-46.658	-0.072	-0.036
-608.201	-92.797	0.153	0.043
-607.186	89.707	0.086	-0.097
-606.171	-200.000	0.030	-0.152
-605.157	800.000	-0.081	-0.350
-604.142	-200.000	-0.006	-0.181
-603.128	-66.101	-0.251	0.101
-602.113	-62.928	-0.090	-0.038
-601.098	-200.000	0.009	-0.134
-600.084	495.959	0.064	0.148
-599.069	603.071	-0.040	-0.101
-598.055	163.337	-0.135	-0.192
-597.040	187.956	0.200	0.302
-596.025	-154.059	0.442	0.030
-595.011	4.191	-0.112	-0.083
-593.996	-200.000	-0.003	-0.144
-592.982	-55.631	0.191	-0.086
-591.967	-188.506	-0.274	-0.003
-590.952	-19.871	-0.096	-0.060
-589.938	399.641	-0.119	0.253
-588.923	359.100	0.101	0.204
-587.909	-200.000	0.007	-0.036
-586.894	-102.181	-0.250	0.061
-585.879	243.435	0.040	-0.067
-584.865	-100.597	-0.168	-0.042
-583.850	-18.024	-0.305	0.193
-582.836	631.618	0.092	0.234
-581.821	-150.191	-0.339	-0.027
-580.806	-112.397	0.195	0.039
-579.792	-14.508	-0.152	-0.099
-578.777	-94.739	-0.348	-0.096
-577.763	127.157	-0.159	-0.204
-576.748	72.466	0.128	-0.135
-575.733	-199.917	-0.461	0.002
-574.719	-68.004	-0.114	0.045
-573.704	4.703	0.192	0.143
-572.690	373.338	0.090	0.186
-571.675	155.624	0.118	0.165
-570.661	-40.112	-0.102	0.054
-569.646	240.687	-0.229	0.386
-568.631	-94.721	0.065	0.018
-567.617	-113.208	0.109	-0.022
-566.602	-124.427	-0.065	0.010
-565.588	172.266	0.205	-0.298
-564.573	85.518	-0.112	0.124
-563.558	564.868	-0.021	0.052
-562.544	-15.518	0.045	-0.029
-561.529	-168.061	-0.430	-0.017
-560.515	473.708	0.045	-0.102
-559.500	-100.728	-0.215	0.054
-558.485	76.876	0.026	0.028
-557.471	-155.721	-0.156	-0.010
-556.456	-141.090	0.264	0.027
-555.442	-49.592	-0.134	-0.065
-554.427	-179.063	0.377	0.009
-553.412	800.000	0.097	-0.303
-552.398	800.000	-0.087	-0.302
-551.383	146.243	0.137	0.185
-550.369	81.147	0.215	0.235
-549.354	-44.944	0.239	0.120
-548.339	-47.493	0.154	-0.076
-547.325	210.535	-0.083	0.132
-546.310	-148.492	-0.454	-0.038
-545.296	-138.439	-0.100	0.011
-544.281	800.000	-0.071	0.304
-543.266	-200.000	0.012	0.241
-542.252	-76.446	-0.291	0.103
-541.237	800.000	-0.054	-0.234
-540.223	-136.948	-0.019	0.002
-539.208	-200.000	0.022	0.282
-538.193	129.829	-0.110	-0.142
-537.179	-58.341	-0.209	-0.092
-536.164	-31.307	0.172	0.098
-535.150	-200.000	0.021	0.177
-534.135	-192.230	-0.143	-0.001
-533.121	361.673	0.188	-0.382
-532.106	40.289	0.134	-0.122
-531.091	-56.341	0.149	0.067
-530.077	507.629	-0.204	-0.477
-529.062	-200.000	0.017	0.112
-528.048	367.506	0.133	-0.272
-527.033	155.300	-0.051	0.071
-526.018	665.864	-0.026	0.068
-525.004	250.855	0.107	-0.184
-523.989	-94.407	0.093	-0.026
-522.975	-46.707	0.066	-0.033
-521.960	-57.699	-0.078	-0.034
-520.945	-179.079	-0.136	0.003
-519.931	800.000	0.075	-0.217
-518.916	-171.920	0.148	0.005
-517.902	69.704	0.128	0.133
-516.887	-137.539	-0.300	-0.034
-515.872	-3.401	-0.159	-0.111
-514.858	116.417	0.253	0.313
-513.843	-127.442	0.152	-0.022
-512.829	-141.045	0.191	-0.020
-511.814	438.119	0.184	0.406
-510.799	800.000	0.021	0.082
-509.785	-46.443	-0.239	0.118
-508.770	-200.000	-0.027	0.283
-507.756	-34.658	-0.194	0.107
-506.741	-109.679	0.065	0.014
-505.726	-140.425	-0.137	-0.014
-504.712	393.745	-0.173	0.364
-503.697	-51.701	-0.064	0.030
-502.683	-184.631	0.207	0.003
-501.668	-200.000	-0.014	0.077
-500.653	-200.000	-0.017	-0.186
-499.639	-118.176	-0.129	-0.023
-498.624	316.118	0.138	0.263
-497.610	-72.217	0.200	0.075
-496.595	154.008	0.063	-0.088
-495.581	428.510	-0.029	0.062
-494.566	-200.000	-0.031	-0.191
-493.551	-31.463	-0.240	0.136
-492.537	-60.491	0.077	0.033
-491.522	-200.000	0.037	0.342
-490.508	-113.787	0.168	0.033
-489.493	127.434	0.119	0.152
-488.478	-200.000	-0.003	-0.148
-487.464	368.805	0.051	-0.103
-486.449	33.652	0.041	0.036
-485.435	212.195	0.173	0.275
-484.420	-200.000	0.012	0.285
-483.405	-18.494	0.198	0.125
-482.391	-48.988	-0.482	0.233
-481.376	-50.536	0.294	0.140
-480.362	29.888	-0.059	-0.051
-479.347	-1.025	0.060	0.043
-478.332	-22.674	0.124	-0.075
-477.318	-200.000	0.023	-0.113
-476.303	-59.264	-0.026	0.011
-475.289	-26.790	0.127	-0.075
-474.274	-200.000	-0.050	-0.342
-473.259	-200.000	0.023	-0.161
-472.245	-200.000	0.028	-0.146
-471.230	-58.300	0.052	-0.023
-470.216	-115.665	0.079	-0.015
-469.201	-130.229	-0.218	-0.030
-468.186	768.365	-0.053	-0.147
-467.172	98.259	0.182	-0.211
-466.157	-54.502	0.114	0.052
-465.143	576.586	0.149	0.366
-464.128	415.905	0.070	-0.151
-463.113	-133.271	0.396	0.050
-462.099	-172.417	-0.261	-0.008
-461.084	-200.000	-0.003	0.140
-460.070	19.898	0.095	-0.077
-459.055	800.000	0.060	-0.177
-458.040	630.397	-0.052	0.134
-457.026	183.958	0.031	-0.047
-456.011	-133.852	0.158	-0.020
-454.997	7.130	-0.293	0.220
-453.982	-138.002	0.298	-0.033
-452.968	-164.937	0.317	-0.014
-451.953	800.000	-0.061	0.221
-450.938	122.427	-0.108	0.136
-449.924	216.386	0.085	-0.135
-448.909	422.596	-0.039	-0.083
-447.895	111.638	-0.154	-0.187
-446.880	-27.002	-0.127	0.075
-445.865	384.189	-0.101	0.209
-444.851	-174.038	0.230	0.007
-443.836	-5.915	0.305	0.210
-442.822	-129.464	-0.425	0.059
-441.807	64.278	-0.319	-0.324
-440.792	307.403	-0.068	0.127
-439.778	-16.320	-0.078	0.050
-438.763	179.075	-0.110	0.162
-437.749	-114.451	0.295	0.057
-436.734	-200.000	0.017	-0.195
-435.719	12.488	0.129	0.100
-434.705	148.951	0.167	-0.227
-433.690	800.000	-0.020	0.069
-432.676	44.170	0.063	-0.058
-431.661	398.368	-0.084	0.177
-430.646	429.774	0.036	0.079
-429.632	-200.000	0.027	-0.283
-428.617	-119.987	-0.265	0.046
-427.603	-124.217	-0.191	-0.030
-426.588	-98.680	-0.368	0.094
-425.573	148.455	0.151	0.205
-424.559	97.128	0.230	-0.265
-423.544	210.145	0.057	0.090
-422.530	136.525	0.027	0.035
-421.515	-154.308	-0.259	-0.018
-420.500	800.000	-0.127	-0.372
-419.486	800.000	-0.044	-0.132
-418.471	-56.886	0.299	-0.133
-417.457	49.555	0.079	-0.074
-416.442	69.029	0.057	0.059
-415.428	28.512	-0.043	0.037
-414.413	-108.746	-0.208	0.045
-413.398	-115.394	-0.163	0.031
-412.384	626.728	-0.061	-0.155
-411.369	-200.000	-0.018	0.085
-410.355	-200.000	-0.024	0.144
-409.340	-80.755	0.096	-0.032
-408.325	-75.788	0.223	-0.079
-407.311	-200.000	0.035	0.230
-406.296	-145.886	0.238	-0.021
-405.282	325.871	0.104	-0.200
-404.267	-147.277	-0.208	0.018
-403.252	-118.471	-0.143	0.025
-402.238	325.872	0.146	-0.280
-401.223	60.999	-0.096	0.096
-400.209	771.775	0.034	-0.094
-399.194	2.537	0.079	0.058
-398.179	-200.000	0.063	-0.353
-397.165	-200.000	-0.028	0.166
-396.150	-200.000	-0.030	-0.154
-395.136	-200.000	-0.105	-0.569
-394.121	98.595	0.182	0.211
-393.106	189.764	-0.141	0.212
-392.092	-52.314	-0.236	0.110
-391.077	-124.607	-0.188	0.029
-390.063	-19.453	0.193	0.120
-389.048	53.191	0.317	-0.305
-388.033	800.000	-0.028	-0.111
-387.019	86.246	-0.138	0.153
-386.004	-20.000	-0.031	0.019
-384.990	-200.000	-0.026	0.294
-383.975	-8.703	0.181	-0.122
-382.960	33.882	0.219	-0.192
-381.946	-2.731	-0.222	0.156
-380.931	800.000	0.073	0.235
-379.917	-200.000	-0.006	-0.230
-378.902	-29.149	0.277	-0.159
-377.888	-200.000	0.262	-0.000
-376.873	-95.446	0.103	0.028
-375.858	800.000	0.019	-0.079
-374.844	568.848	-0.094	0.229
-373.829	18.145	-0.227	0.182
-372.815	-200.000	-0.024	0.217
-371.800	337.646	-0.067	-0.131
-370.785	-70.003	-0.088	-0.034
-369.771	-36.358	0.213	-0.115
-368.756	-51.790	0.198	-0.092
-367.742	63.724	0.145	0.147
-366.727	58.175	-0.181	-0.178
-365.712	-28.017	-0.217	0.126
-364.698	383.360	-0.096	0.197
-363.683	55.198	0.149	0.145
-362.669	-200.000	0.019	0.124
-361.654	176.579	-0.137	0.200
-360.639	4.586	0.307	0.226
-359.625	-41.719	-0.209	-0.108
-358.610	-164.043	0.257	0.012
-357.596	-200.000	-0.001	-0.009
-356.581	-86.804	0.296	0.091
-355.566	23.438	0.128	0.106
-354.552	-92.367	-0.347	-0.098
-353.537	-115.416	0.418	-0.079
-352.523	800.000	-0.102	-0.403
-351.508	158.865	-0.228	0.318
-350.493	-200.000	-0.007	-0.410
-349.479	14.110	0.119	0.093
-348.464	309.075	-0.054	0.102
-347.450	-134.748	-0.194	0.024
-346.435	-65.310	0.038	0.016
-345.420	77.330	0.317	0.338
-344.406	16.884	-0.383	0.304
-343.391	-148.398	0.065	-0.005
-342.377	233.731	-0.156	0.257
-341.362	323.714	-0.043	0.083
-340.348	66.520	0.137	-0.140
-339.333	78.313	-0.092	0.098
-338.318	800.000	0.049	-0.143
-337.304	800.000	0.040	-0.135
-336.289	-200.000	0.021	-0.147
-335.275	-39.258	0.148	0.078
-334.260	-200.000	0.026	-0.118
-333.245	-5.524	-0.210	0.144
-332.231	-111.104	0.181	0.037
-331.216	-132.093	-0.372	-0.048
-330.202	800.000	0.074	0.232
-329.187	-140.255	0.281	0.029
-328.172	32.109	0.114	0.099
-327.158	50.173	0.199	0.188
-326.143	121.635	-0.263	0.329
-325.129	274.141	0.199	0.352
-324.114	235.859	0.177	0.293
-323.099	800.000	0.062	0.250
-322.085	-200.000	0.024	-0.283
-321.070	-61.821	0.241	0.101
-320.056	-169.920	-0.164	0.006
-319.041	-114.313	0.185	-0.036
-318.026	-200.000	0.034	-0.206
-317.012	27.764	-0.267	-0.226
-315.997	-72.065	-0.140	-0.052
-314.983	-160.706	-0.482	0.026
-313.968	630.728	-0.069	-0.176
-312.953	341.406	0.047	-0.091
-311.939	545.677	-0.084	0.202
-310.924	-149.392	0.187	-0.015
-309.910	-142.482	-0.365	-0.036
-308.895	210.192	0.073	0.115
-307.880	-81.607	-0.160	0.052
-306.866	-200.000	0.072	0.441
-305.851	-200.000	-0.025	0.175
-304.837	202.797	0.158	0.244
-303.822	-200.000	-0.039	0.318
-302.807	-137.594	0.163	0.018
-301.793	422.412	0.173	0.372
-300.778	-145.449	-0.049	0.004
-299.764	1.889	-0.193	-0.139
-298.749	382.981	-0.118	0.243
-297.735	57.194	-0.259	-0.253
-296.720	800.000	0.009	-0.029
-295.705	597.809	0.083	-0.205
-294.691	249.131	-0.213	-0.361
-293.676	800.000	0.082	-0.318
-292.662	-14.143	-0.374	-0.241
-291.647	512.932	0.085	0.199
-290.632	800.000	0.065	-0.181
-289.618	-56.322	-0.191	0.085
-288.603	-150.962	0.184	0.014
-287.589	-200.000	0.025	0.121
-286.574	-200.000	0.033	0.225
-285.559	138.700	0.154	-0.203
-284.545	32.983	0.332	-0.288
-283.530	800.000	-0.106	-0.307
-282.516	-112.002	-0.081	-0.016
-281.501	-17.572	0.355	0.223
-280.486	-200.000	0.002	-0.042
-279.472	-47.812	0.215	-0.104
-278.457	187.211	-0.065	-0.097
-277.443	-128.487	-0.035	-0.005
-276.428	-110.082	0.198	0.041
-275.413	188.981	-0.133	0.199
-274.399	132.960	0.108	0.139
-273.384	718.990	-0.089	0.237
-272.370	-38.131	-0.130	0.069
-271.355	-200.000	0.027	-0.225
-270.340	-80.880	-0.359	-0.119
-269.326	800.000	-0.051	0.165
-268.311	-74.616	0.311	0.112
-267.297	-200.000	0.028	0.340
-266.282	48.382	-0.151	0.141
-265.267	-99.958	0.189	-0.047
-264.253	206.588	-0.104	0.161
-263.238	-173.632	0.296	0.009
-262.224	-21.027	-0.256	-0.157
-261.209	800.000	0.048	0.134
-260.195	800.000	-0.024	-0.089
-259.180	223.798	-0.046	-0.074
-258.165	-92.000	-0.161	-0.046
-257.151	187.214	0.155	0.232
-256.136	108.386	-0.106	0.126
-255.122	-112.758	-0.150	0.030
-254.107	-200.000	-0.031	0.237
-253.092	-200.000	-0.032	0.140
-252.078	-13.562	0.058	-0.038
-251.063	-80.009	0.085	-0.028
-250.049	-33.305	0.274	-0.152
-249.034	800.000	-0.051	-0.168
-248.019	-161.192	-0.414	-0.022
-247.005	47.093	-0.126	-0.118
-245.990	-189.389	-0.377	0.004
-244.976	-39.103	-0.174	0.091
-243.961	223.558	-0.145	0.234
-242.946	49.552	0.105	-0.099
-241.932	29.448	-0.269	-0.228
-240.917	-27.374	0.192	-0.112
-239.903	-39.711	-0.292	-0.153
-238.888	86.742	0.200	0.220
-237.873	-200.000	0.035	-0.159
-236.859	-200.000	0.035	0.221
-235.844	800.000	-0.025	0.079
-234.830	95.433	0.187	0.213
-233.815	-200.000	0.007	-0.116
-232.800	-105.867	0.288	-0.065
-231.786	521.628	-0.038	-0.088
-230.771	-100.506	0.176	0.044
-229.757	-92.575	-0.169	-0.047
-228.742	13.897	-0.149	-0.115
-227.727	42.100	-0.287	-0.260
-226.713	-105.862	-0.348	0.078
-225.698	-121.136	-0.271	0.045
-224.684	732.140	0.057	-0.152
-223.669	-200.000	0.035	0.363
-222.655	-200.000	0.023	0.170
-221.640	-200.000	0.045	0.225
-220.625	-200.000	-0.030	-0.248
-219.611	-124.333	0.016	-0.003
-218.596	382.015	-0.138	-0.283
-217.582	15.463	-0.313	-0.245
-216.567	-47.681	0.198	-0.096
-215.552	100.249	0.258	0.299
-214.538	-107.107	-0.153	0.034
-213.523	800.000	0.102	0.297
-212.509	-136.195	0.228	-0.027
-211.494	412.179	0.145	0.307
-210.479	800.000	-0.165	-0.458
-209.465	-200.000	-0.021	-0.236
-208.450	-17.224	0.032	0.020
-207.436	140.942	0.147	-0.194
-206.421	-48.227	-0.039	-0.019
-205.406	-80.383	0.265	0.088
-204.392	568.211	0.116	0.280
-203.377	205.055	0.032	0.050
-202.363	-200.000	-0.063	-0.343
-201.348	-109.436	-0.406	0.086
-200.333	-200.000	0.031	0.183
-199.319	-118.878	0.098	-0.017
-198.304	674.318	0.091	-0.235
-197.290	-200.000	0.031	-0.455
-196.275	-64.545	-0.215	-0.087
-195.260	19.758	-0.068	-0.055
-194.246	-68.255	0.169	0.066
-193.231	-139.314	0.047	-0.005
-192.217	-62.875	-0.439	0.181
-191.202	-101.772	0.193	-0.046
-190.187	193.081	-0.116	0.175
-189.173	-200.000	-0.059	-0.398
-188.158	-73.357	0.159	0.058
-187.144	126.988	0.027	-0.034
-186.129	385.501	0.073	-0.150
-185.114	-200.000	-0.024	-0.427
-184.100	261.874	0.275	-0.474
-183.085	368.526	-0.041	-0.083
-182.071	-7.148	-0.232	0.157
-181.056	165.499	-0.162	-0.229
-180.042	-90.622	0.018	-0.005
-179.027	-200.000	-0.005	-0.281
-178.012	-86.058	0.251	0.077
-176.998	800.000	0.021	-0.082
-175.983	-25.780	0.120	-0.071
-174.969	327.869	-0.048	0.091
-173.954	97.668	-0.054	-0.062
-172.939	137.400	0.107	0.139
-171.925	-200.000	-0.025	-0.400
-170.910	324.986	0.062	0.117
-169.896	-152.870	0.071	0.005
-168.881	54.681	0.199	0.191
-167.866	-200.000	0.017	-0.236
-166.852	221.706	0.023	0.037
-165.837	-21.911	-0.190	-0.115
-164.823	355.877	-0.091	-0.179
-163.808	-119.989	0.329	0.056
-162.793	-35.758	0.203	0.109
-161.779	-200.000	-0.056	0.350
-160.764	-200.000	-0.009	-0.091
-159.750	-65.683	0.037	0.015
-158.735	-113.497	0.147	0.029
-157.720	800.000	-0.055	-0.186
-156.706	-200.000	0.017	-0.109
-155.691	162.348	0.138	-0.193
-154.677	-25.666	0.299	-0.176
-153.662	-5.021	-0.152	-0.104
-152.647	568.007	0.081	0.195
-151.633	100.025	0.030	0.035
-150.618	547.011	-0.089	0.212
-149.604	800.000	0.079	0.235
-148.589	800.000	0.064	0.252
-147.574	444.886	0.073	0.160
-146.560	-200.000	0.019	-0.126
-145.545	-200.000	0.008	0.160
-144.531	-92.082	-0.169	0.048
-143.516	-200.000	-0.036	0.217
-142.502	800.000	0.033	-0.120
-141.487	-51.844	0.044	0.020
-140.472	800.000	0.060	-0.210
-139.458	-200.000	-0.011	0.346
-138.443	378.997	-0.086	-0.176
-137.429	-200.000	-0.051	0.271
-136.414	161.230	0.083	-0.115
-135.399	123.862	-0.139	-0.173
-134.385	-61.194	-0.316	-0.133
-133.370	-47.883	-0.287	-0.138
-132.356	-71.655	-0.118	-0.044
-131.341	-200.000	-0.002	-0.369
-130.326	48.408	0.037	0.034
-129.312	-108.388	-0.242	0.052
-128.297	509.750	0.112	0.259
-127.283	451.675	0.275	0.604
-126.268	137.584	0.191	-0.249
-125.253	-88.960	-0.227	-0.067
-124.239	-109.609	0.067	-0.014
-123.224	-5.986	-0.298	0.203
-122.210	245.248	0.176	0.294
