DTS Sentinel unit serial number:	SN413079Multiplexer serial number:	ORYXHardware model number:	OX4-SRSoftware version number:	ORYX F/W v4.00 Oryx Data Collector v3.7.2.0data status	okinstallation	princeton_trtdifferential loss correction	single-endedforward channel	channel 1reverse channel	N/Adate	2019/09/14time	03:38:35forward acquisition time	60.00reverse acquisition time	0.00gamma	496.2192k internal	0.2335k external	0.2335temperature offset calibration	1.0078default loss term (dB/km)	0.3790temperature slope calibration	1.0000multiplexer offset coefficient	1.0000multiplexer slope coefficient	1.0000fibre end	0.00T internal ref (°C)	26.64T ext. ref 1 (°C)	3.29T ext. ref 2 (°C)	21.61length (m)	temperature (°C)	Stokes	anti-Stokes-747.200	-156.772	0.223	-0.014
-746.185	-53.486	0.142	-0.065
-745.171	362.540	-0.116	0.234
-744.156	-200.000	-0.039	0.199
-743.142	-93.851	0.307	-0.085
-742.127	6.190	-0.300	0.223
-741.112	800.000	-0.028	-0.086
-740.098	-100.760	-0.284	0.070
-739.083	-108.557	0.254	0.055
-738.069	-68.761	0.045	0.017
-737.054	-65.035	0.325	-0.132
-736.039	113.551	-0.194	-0.237
-735.025	-131.768	-0.202	0.027
-734.010	355.453	-0.184	0.368
-732.996	-113.431	-0.667	-0.131
-731.981	-51.079	-0.188	-0.088
-730.966	133.457	-0.078	0.101
-729.952	800.000	-0.065	0.265
-728.937	800.000	0.055	-0.184
-727.923	501.811	0.028	0.066
-726.908	249.356	-0.160	-0.272
-725.894	-200.000	-0.002	-0.126
-724.879	66.811	-0.131	-0.134
-723.864	-200.000	0.017	-0.328
-722.850	210.614	0.211	0.333
-721.835	443.767	-0.057	-0.126
-720.821	204.984	0.033	0.051
-719.806	-200.000	-0.023	-0.118
-718.791	-200.000	0.040	0.249
-717.777	116.926	0.343	0.423
-716.762	-150.682	0.215	0.016
-715.748	45.184	-0.159	-0.147
-714.733	5.691	0.284	-0.210
-713.718	549.448	-0.094	-0.227
-712.704	-135.089	-0.431	-0.052
-711.689	-83.464	-0.295	-0.095
-710.675	-200.000	0.060	0.266
-709.660	-6.973	-0.029	0.020
-708.645	-178.458	0.180	-0.004
-707.631	-200.000	-0.010	0.214
-706.616	188.229	-0.037	-0.056
-705.602	-129.160	0.157	0.022
-704.587	729.112	0.116	0.310
-703.572	-102.996	-0.205	0.049
-702.558	800.000	0.048	0.171
-701.543	36.076	0.147	-0.130
-700.529	283.840	0.078	0.142
-699.514	17.215	0.193	0.153
-698.499	-38.639	0.086	-0.046
-697.485	195.345	-0.209	-0.318
-696.470	-108.991	0.196	0.042
-695.456	57.078	0.058	-0.057
-694.441	-95.714	0.351	-0.094
-693.426	52.030	0.064	0.062
-692.412	-9.849	-0.169	-0.113
-691.397	-116.052	0.093	0.017
-690.383	-200.000	-0.029	-0.190
-689.368	-103.836	-0.196	-0.046
-688.354	20.113	-0.161	-0.130
-687.339	80.220	-0.236	0.255
-686.324	-200.000	0.028	-0.132
-685.310	218.912	-0.060	-0.097
-684.295	-200.000	0.003	0.164
-683.281	10.046	-0.381	-0.290
-682.266	102.996	-0.257	-0.302
-681.251	-200.000	0.035	0.343
-680.237	-200.000	-0.026	-0.144
-679.222	19.820	0.364	-0.294
-678.208	229.764	-0.132	0.217
-677.193	46.963	-0.096	0.089
-676.178	33.409	0.170	-0.148
-675.164	-79.794	-0.286	-0.097
-674.149	800.000	-0.082	-0.265
-673.135	-79.565	-0.340	-0.115
-672.120	-33.254	-0.016	-0.009
-671.105	-89.214	-0.072	-0.021
-670.091	140.838	-0.134	-0.177
-669.076	800.000	0.127	-0.390
-668.062	-80.119	0.157	0.053
-667.047	-45.560	-0.218	0.108
-666.032	420.891	-0.009	0.019
-665.018	22.849	-0.191	-0.157
-664.003	-51.979	0.330	-0.153
-662.989	50.762	-0.113	-0.107
-661.974	-74.639	-0.262	0.094
-660.959	-153.535	0.073	0.005
-659.945	471.016	0.077	-0.174
-658.930	1.714	0.141	-0.102
-657.916	-200.000	-0.049	0.237
-656.901	-44.506	0.592	0.297
-655.886	-124.958	-0.186	0.029
-654.872	-53.415	0.020	0.009
-653.857	-86.197	0.093	0.029
-652.843	73.094	-0.101	-0.106
-651.828	-200.000	0.063	-0.346
-650.814	-143.461	-0.325	0.031
-649.799	0.034	-0.365	0.260
-648.784	14.548	0.311	0.243
-647.770	46.326	0.084	-0.078
-646.755	800.000	-0.047	-0.165
-645.741	-131.025	0.234	-0.031
-644.726	123.813	-0.207	-0.259
-643.711	-17.322	0.336	0.212
-642.697	51.217	-0.233	-0.221
-641.682	39.717	0.249	0.224
-640.668	-117.271	-0.434	0.079
-639.653	-12.151	0.120	0.079
-638.638	299.746	-0.123	0.226
-637.624	800.000	0.074	-0.252
-636.609	-80.876	-0.390	-0.130
-635.595	800.000	0.115	0.335
-634.580	253.111	-0.221	0.376
-633.565	-132.146	0.136	0.018
-632.551	-124.234	-0.206	0.032
-631.536	-14.728	-0.169	-0.109
-630.522	26.154	-0.010	-0.009
-629.507	-200.000	0.081	-0.384
-628.492	-90.216	-0.206	0.060
-627.478	165.677	-0.032	-0.046
-626.463	-132.483	-0.089	-0.011
-625.449	-86.429	0.160	0.049
-624.434	129.157	0.128	-0.163
-623.419	800.000	0.025	0.084
-622.405	-200.000	0.007	-0.078
-621.390	27.385	-0.203	0.170
-620.376	-72.843	0.232	0.085
-619.361	558.636	-0.039	-0.094
-618.346	-126.037	0.157	0.024
-617.332	800.000	-0.023	0.076
-616.317	91.487	0.088	-0.099
-615.303	800.000	-0.029	-0.088
-614.288	800.000	0.067	-0.188
-613.273	176.463	-0.061	0.089
-612.259	800.000	-0.051	0.204
-611.244	800.000	-0.083	0.303
-610.230	193.168	-0.307	0.464
-609.215	-176.719	-0.106	-0.003
-608.201	-75.674	0.196	-0.069
-607.186	-51.959	-0.111	0.052
-606.171	-200.000	-0.031	0.407
-605.157	-200.000	-0.049	-0.257
-604.142	-38.122	-0.180	0.096
-603.128	800.000	0.143	0.455
-602.113	-119.350	-0.372	-0.065
-601.098	800.000	-0.091	-0.283
-600.084	-150.520	0.314	0.024
-599.069	190.173	0.187	-0.281
-598.055	-55.433	0.210	-0.094
-597.040	-108.890	-0.229	-0.049
-596.025	-26.695	0.145	-0.085
-595.011	-200.000	0.017	0.256
-593.996	334.550	-0.113	0.219
-592.982	-113.096	-0.160	0.032
-591.967	800.000	0.128	0.356
-590.952	-200.000	-0.018	0.108
-589.938	585.756	-0.100	-0.247
-588.923	-43.664	-0.258	0.130
-587.909	132.831	-0.120	-0.155
-586.894	800.000	-0.017	0.068
-585.879	-200.000	-0.001	-0.092
-584.865	-106.282	-0.427	-0.095
-583.850	-55.281	0.388	0.174
-582.836	-200.000	0.004	-0.173
-581.821	800.000	-0.073	-0.227
-580.806	-200.000	-0.013	0.141
-579.792	-27.467	-0.124	-0.072
-578.777	236.175	-0.155	-0.256
-577.763	-131.095	0.138	-0.018
-576.748	-200.000	-0.077	-0.391
-575.733	-118.665	-0.210	-0.037
-574.719	-46.212	-0.186	-0.091
-573.704	65.516	-0.085	0.086
-572.690	773.745	-0.152	-0.414
-571.675	2.021	0.034	-0.025
-570.661	423.505	0.116	-0.249
-569.646	-8.633	0.148	-0.099
-568.631	329.756	0.062	-0.120
-567.617	-53.911	-0.272	-0.124
-566.602	59.523	0.269	-0.264
-565.588	800.000	0.086	-0.258
-564.573	-58.715	0.336	0.145
-563.558	-37.135	-0.238	-0.127
-562.544	278.268	-0.079	0.141
-561.529	118.902	-0.200	-0.247
-560.515	429.230	-0.134	-0.290
-559.500	187.687	0.045	0.067
-558.485	-132.354	-0.165	0.021
-557.471	6.973	0.346	-0.257
-556.456	592.014	0.097	0.240
-555.442	-60.950	-0.375	-0.158
-554.427	-142.948	0.098	0.009
-553.412	-200.000	-0.019	-0.093
-552.398	-46.307	0.297	0.146
-551.383	64.250	0.088	-0.089
-550.369	-200.000	-0.055	-0.290
-549.354	-200.000	0.055	-0.321
-548.339	-200.000	-0.056	0.295
-547.325	-143.092	-0.128	-0.012
-546.310	-50.883	0.354	-0.166
-545.296	-200.000	0.027	0.121
-544.281	-114.045	-0.218	0.042
-543.266	591.055	-0.065	-0.161
-542.252	-200.000	-0.014	-0.280
-541.237	-200.000	0.034	-0.236
-540.223	-109.936	-0.216	0.045
-539.208	-200.000	-0.000	0.151
-538.193	-40.945	-0.071	0.037
-537.179	-90.191	0.013	0.004
-536.164	-200.000	0.028	0.336
-535.150	-116.412	0.088	0.016
-534.135	-51.554	0.201	0.093
-533.121	-200.000	-0.013	0.078
-532.106	152.818	-0.197	-0.268
-531.091	-117.527	0.065	0.012
-530.077	112.002	-0.107	0.129
-529.062	-200.000	-0.004	-0.123
-528.048	269.575	0.172	-0.301
-527.033	-75.388	0.242	0.086
-526.018	381.581	0.125	-0.256
-525.004	-59.880	-0.287	0.122
-523.989	-43.927	-0.219	-0.110
-522.975	-200.000	0.013	0.214
-521.960	425.158	-0.112	0.241
-520.945	-36.531	-0.117	-0.063
-519.931	-200.000	-0.027	-0.248
-518.916	57.103	-0.202	-0.196
-517.902	-78.156	-0.107	-0.037
-516.887	14.691	0.119	0.093
-515.872	22.359	-0.244	0.198
-514.858	-10.014	0.212	0.140
-513.843	-57.584	0.274	-0.120
-512.829	95.716	-0.247	-0.281
-511.814	70.824	0.057	0.058
-510.799	-2.391	0.198	-0.138
-509.785	-95.418	-0.192	-0.051
-508.770	-103.514	-0.268	0.063
-507.756	-49.007	-0.261	0.124
-506.741	133.450	0.071	-0.092
-505.726	40.071	0.194	-0.173
-504.712	35.428	-0.162	-0.142
-503.697	-91.138	-0.179	-0.051
-502.683	-12.839	0.177	-0.115
-501.668	209.053	0.054	-0.084
-500.653	800.000	-0.075	-0.308
-499.639	-55.818	-0.069	-0.031
-498.624	-200.000	0.037	-0.218
-497.610	-200.000	-0.012	-0.186
-496.595	-56.749	-0.107	-0.047
-495.581	-179.218	-0.223	-0.005
-494.566	-46.349	-0.498	0.244
-493.551	376.089	0.161	-0.327
-492.537	77.804	0.241	-0.255
-491.522	-113.289	0.054	0.011
-490.508	22.301	-0.087	-0.071
-489.493	-49.170	0.156	-0.074
-488.478	-200.000	0.017	-0.216
-487.464	800.000	0.054	0.168
-486.449	-200.000	0.039	0.379
-485.435	-36.294	0.224	0.120
-484.420	-200.000	0.027	0.182
-483.405	-200.000	0.016	-0.088
-482.391	-131.374	-0.132	0.017
-481.376	492.676	-0.104	0.236
-480.362	-32.870	-0.126	0.070
-479.347	-54.735	-0.084	-0.038
-478.332	-100.973	-0.297	-0.072
-477.318	-200.000	0.038	0.283
-476.303	-200.000	0.044	0.246
-475.289	30.480	-0.310	0.263
-474.274	60.569	-0.168	-0.165
-473.259	-163.122	0.279	-0.013
-472.245	17.983	-0.218	0.173
-471.230	80.659	0.354	0.379
-470.216	-17.860	0.134	0.083
-469.201	-43.096	-0.054	0.027
-468.186	-200.000	0.040	-0.268
-467.172	-98.321	-0.249	0.063
-466.157	204.612	-0.124	0.191
-465.143	-200.000	0.004	0.163
-464.128	-94.568	0.263	-0.071
-463.113	499.600	-0.126	0.289
-462.099	-95.545	-0.205	-0.055
-461.084	756.769	0.101	0.271
-460.070	-200.000	-0.025	0.309
-459.055	-63.738	-0.043	0.017
-458.040	800.000	-0.061	0.207
-457.026	767.640	-0.048	0.129
-456.011	-200.000	0.025	0.235
-454.997	-190.016	-0.077	0.001
-453.982	-200.000	0.007	-0.174
-452.968	-14.726	-0.169	-0.108
-451.953	-200.000	-0.036	-0.221
-450.938	475.756	-0.084	-0.188
-449.924	-70.628	0.188	0.070
-448.909	157.629	-0.143	0.197
-447.895	249.934	0.172	-0.289
-446.880	800.000	0.034	-0.148
-445.865	175.132	0.036	0.051
-444.851	800.000	-0.060	-0.171
-443.836	83.652	0.083	-0.090
-442.822	358.092	0.134	0.265
-441.807	151.185	0.141	0.190
-440.792	36.015	-0.149	0.131
-439.778	-81.976	0.486	0.158
-438.763	-200.000	0.036	-0.207
-437.749	270.301	-0.098	-0.170
-436.734	169.515	-0.123	-0.174
-435.719	-200.000	-0.016	0.074
-434.705	-108.022	0.148	-0.032
-433.690	-58.358	-0.273	0.118
-432.676	-11.309	-0.446	0.291
-431.661	-151.930	-0.111	0.008
-430.646	-134.096	-0.133	-0.016
-429.632	-100.032	0.174	0.043
-428.617	563.767	-0.091	-0.219
-427.603	-80.751	0.059	0.019
-426.588	-200.000	-0.043	-0.206
-425.573	359.264	-0.141	-0.280
-424.559	194.201	0.054	0.081
-423.544	448.816	0.159	0.347
-422.530	-11.096	-0.293	0.192
-421.515	-162.262	-0.387	0.019
-420.500	465.037	0.089	-0.199
-419.486	-200.000	0.036	0.160
-418.471	121.042	0.141	-0.175
-417.457	-104.608	-0.344	0.079
-416.442	-200.000	-0.031	-0.200
-415.428	-6.015	0.186	0.126
-414.413	-121.636	-0.185	-0.030
-413.398	800.000	-0.034	-0.120
-412.384	55.869	0.009	0.008
-411.369	-141.134	0.082	-0.008
-410.355	-140.706	-0.349	0.036
-409.340	196.219	0.066	0.099
-408.325	81.134	-0.049	-0.052
-407.311	-200.000	0.047	-0.254
-406.296	800.000	0.085	0.284
-405.282	-200.000	0.001	-0.068
-404.267	-24.501	-0.153	-0.090
-403.252	-36.022	-0.062	0.033
-402.238	354.127	0.090	-0.178
-401.223	-200.000	0.007	-0.231
-400.209	-74.719	-0.187	0.067
-399.194	217.694	0.116	0.183
-398.179	-107.787	-0.239	-0.052
-397.165	-5.194	0.047	0.032
-396.150	15.325	0.421	0.328
-395.136	-108.809	0.180	-0.038
-394.121	-200.000	0.021	-0.125
-393.106	-97.414	0.028	-0.007
-392.092	288.583	-0.085	0.152
-391.077	27.044	0.257	-0.214
-390.063	588.358	-0.065	-0.158
-389.048	800.000	0.005	-0.016
-388.033	61.008	-0.271	-0.266
-387.019	35.317	0.106	-0.092
-386.004	-119.408	0.347	-0.060
-384.990	-175.062	0.221	0.006
-383.975	330.309	-0.185	-0.352
-382.960	800.000	-0.009	0.037
-381.946	-127.380	0.085	0.012
-380.931	800.000	-0.036	0.130
-379.917	800.000	-0.071	0.234
-378.902	117.210	0.207	-0.252
-377.888	81.553	-0.218	-0.233
-376.873	-200.000	0.052	0.261
-375.858	141.154	0.133	-0.175
-374.844	386.658	-0.142	-0.291
-373.829	-108.042	0.180	0.039
-372.815	196.492	0.122	0.184
-371.800	74.282	-0.057	-0.059
-370.785	53.415	-0.100	-0.095
-369.771	800.000	0.072	-0.258
-368.756	-154.703	0.176	-0.012
-367.742	800.000	-0.102	-0.293
-366.727	16.293	-0.159	-0.124
-365.712	65.776	-0.091	0.092
-364.698	800.000	-0.014	-0.049
-363.683	126.602	0.090	0.113
-362.669	-153.331	-0.293	0.020
-361.654	231.869	-0.272	0.442
-360.639	800.000	0.053	-0.214
-359.625	101.761	0.073	-0.085
-358.610	-99.370	0.268	0.067
-357.596	99.510	0.139	-0.160
-356.581	-150.920	-0.294	0.022
-355.566	-11.314	0.087	0.057
-354.552	-2.342	0.187	-0.130
-353.537	-31.743	-0.184	-0.102
-352.523	-78.589	0.259	-0.088
-351.508	210.892	0.194	0.301
-350.493	522.600	-0.130	-0.301
-349.479	78.260	-0.201	0.213
-348.464	366.789	-0.193	0.385
-347.450	-200.000	0.005	-0.346
-346.435	78.326	-0.158	-0.166
-345.420	177.312	0.303	-0.437
-344.406	273.566	-0.191	-0.335
-343.391	800.000	0.070	-0.205
-342.377	221.421	-0.122	0.195
-341.362	-142.654	0.339	-0.033
-340.348	0.584	0.095	-0.067
-339.333	296.740	-0.049	-0.089
-338.318	148.678	0.238	-0.317
-337.304	138.471	-0.043	0.056
-336.289	-51.114	-0.123	-0.057
-335.275	29.201	0.350	0.294
-334.260	-110.241	0.149	0.031
-333.245	-200.000	0.074	-0.000
-332.231	-169.889	-0.155	0.006
-331.216	-200.000	-0.023	0.131
-330.202	-46.941	0.152	-0.073
-329.187	146.497	0.089	-0.118
-328.172	-144.686	-0.228	-0.021
-327.158	-200.000	-0.012	-0.129
-326.143	31.662	0.118	-0.100
-325.129	-6.150	-0.075	-0.051
-324.114	-63.495	0.163	-0.066
-323.099	167.318	-0.118	0.166
-322.085	800.000	-0.101	0.315
-321.070	22.298	0.114	0.092
-320.056	33.632	0.100	-0.086
-319.041	-136.730	-0.323	0.037
-318.026	-200.000	-0.030	-0.140
-317.012	-200.000	0.016	0.180
-315.997	148.124	-0.081	0.107
-314.983	-119.441	-0.150	-0.026
-313.968	-200.000	0.040	-0.182
-312.953	71.649	0.072	0.074
-311.939	-102.992	-0.148	0.035
-310.924	184.225	-0.065	0.096
-309.910	532.749	-0.124	0.290
-308.895	-113.219	-0.222	-0.043
-307.880	-182.382	-0.104	-0.002
-306.866	800.000	0.045	0.133
-305.851	-200.000	0.039	0.181
-304.837	-200.000	0.007	-0.158
-303.822	445.096	0.160	0.348
-302.807	-200.000	-0.018	0.368
-301.793	-165.010	0.057	-0.003
-300.778	-142.172	0.203	-0.020
-299.764	10.663	0.355	0.267
-298.749	-99.747	-0.208	-0.051
-297.735	459.600	-0.133	0.293
-296.720	37.883	-0.206	0.180
-295.705	-50.002	-0.166	-0.078
-294.691	86.200	-0.232	0.252
-293.676	-170.386	-0.261	-0.009
-292.662	21.814	0.136	0.109
-291.647	-63.864	-0.317	-0.128
-290.632	-86.785	0.230	-0.069
-289.618	43.401	-0.127	-0.115
-288.603	800.000	0.059	-0.200
-287.589	-200.000	-0.083	-0.421
-286.574	-200.000	0.019	0.239
-285.559	287.457	0.195	0.348
-284.545	16.793	-0.251	-0.196
-283.530	-113.727	0.120	0.023
-282.516	-95.983	0.018	0.005
-281.501	74.669	0.135	0.140
-280.486	-28.771	0.098	-0.056
-279.472	-200.000	-0.004	0.102
-278.457	46.403	0.109	-0.100
-277.443	800.000	-0.069	-0.287
-276.428	-59.022	0.150	0.064
-275.413	800.000	-0.125	0.362
-274.399	9.726	0.418	0.312
-273.384	800.000	-0.083	0.320
-272.370	-5.464	0.133	-0.090
-271.355	130.191	-0.245	0.309
-270.340	-200.000	0.351	0.000
-269.326	-86.291	-0.202	0.061
-268.311	416.122	0.066	0.138
-267.297	598.626	0.141	0.344
-266.282	-135.171	0.078	-0.009
-265.267	-54.597	0.133	-0.059
-264.253	-43.482	0.265	-0.132
-263.238	-93.586	-0.392	0.107
-262.224	33.223	0.161	0.138
-261.209	-5.740	0.086	0.058
-260.195	-137.405	-0.102	0.011
-259.180	344.310	-0.148	0.287
-258.165	96.283	0.160	0.180
-257.151	87.587	0.310	0.338
-256.136	-68.405	0.196	-0.075
-255.122	-94.184	0.331	0.089
-254.107	-84.639	-0.276	-0.086
-253.092	95.210	0.267	-0.299
-252.078	572.694	0.116	0.279
-251.063	-200.000	-0.021	0.403
-250.049	150.087	-0.133	-0.178
-249.034	-89.903	0.217	-0.063
-248.019	800.000	-0.085	-0.297
-247.005	-200.000	-0.011	0.296
-245.990	-24.602	0.371	-0.218
-244.976	359.147	0.160	0.315
-243.961	-150.315	0.525	0.040
-242.946	139.071	-0.086	0.112
-241.932	332.471	-0.061	0.115
-240.917	68.022	-0.068	-0.068
-239.903	593.691	0.087	0.212
-238.888	304.509	0.048	0.089
-237.873	120.687	0.122	0.149
-236.859	31.196	0.156	-0.132
-235.844	56.483	-0.188	-0.180
-234.830	-162.982	0.043	-0.002
-233.815	320.693	-0.055	0.103
-232.800	-140.968	-0.345	-0.035
-231.786	223.979	-0.093	-0.148
-230.771	-46.148	0.481	-0.233
-229.757	-22.741	0.161	-0.096
-228.742	42.780	0.342	-0.307
-227.727	-200.000	0.010	-0.081
-226.713	-96.224	0.224	0.058
-225.698	-9.838	-0.148	0.097
-224.684	-185.792	0.354	0.005
-223.669	58.549	-0.095	-0.092
-222.655	-42.826	0.377	0.189
-221.640	28.035	-0.360	-0.299
-220.625	155.532	-0.162	-0.219
-219.611	-66.112	0.083	0.033
-218.596	282.177	0.177	-0.313
-217.582	-84.303	-0.098	-0.031
-216.567	122.651	0.223	-0.274
-215.552	-200.000	0.008	0.034
-214.538	-200.000	0.007	0.098
-213.523	-109.480	0.341	-0.071
-212.509	49.811	-0.049	0.046
-211.494	-88.767	0.199	0.058
-210.479	-200.000	0.022	0.164
-209.465	-97.417	0.169	0.043
-208.450	-85.791	0.198	0.060
-207.436	293.262	0.099	-0.178
-206.421	237.641	0.091	-0.148
-205.406	-200.000	-0.020	-0.125
-204.392	-200.000	-0.014	-0.239
-203.377	-17.762	-0.137	-0.084
-202.363	442.686	-0.089	-0.191
-201.348	-57.412	-0.242	-0.104
-200.333	-28.810	0.274	0.155
-199.319	-200.000	0.010	0.049
-198.304	-109.361	-0.235	0.049
-197.290	172.014	0.215	-0.304
-196.275	152.803	-0.134	-0.180
-195.260	-13.355	-0.135	0.086
-194.246	-63.342	-0.266	-0.108
-193.231	4.685	0.273	0.197
-192.217	-200.000	0.022	0.475
-191.202	-91.315	-0.297	0.084
-190.187	-200.000	-0.022	-0.145
-189.173	-3.759	0.341	0.233
-188.158	-200.000	0.149	0.000
-187.144	800.000	0.051	-0.197
-186.129	-200.000	-0.048	0.276
-185.114	309.678	-0.078	0.143
-184.100	-4.825	-0.296	-0.201
-183.085	-37.567	0.190	-0.100
-182.071	16.569	0.153	-0.119
-181.056	61.045	0.255	0.248
-180.042	477.594	0.049	0.109
-179.027	-2.932	0.261	0.179
-178.012	-144.079	0.212	-0.020
-176.998	358.532	-0.059	0.117
-175.983	-75.489	0.141	0.049
-174.969	-200.000	0.028	-0.179
-173.954	53.091	0.163	0.154
-172.939	-19.967	-0.029	0.018
-171.925	-29.661	0.125	0.070
-170.910	-55.430	-0.305	0.134
-169.896	136.365	-0.105	-0.134
-168.881	181.660	-0.303	0.438
-167.866	55.334	-0.102	-0.097
-166.852	-128.028	0.420	-0.059
-165.837	4.634	0.162	-0.117
-164.823	-3.782	0.161	-0.110
-163.808	-120.395	-0.203	0.034
-162.793	3.325	-0.209	0.149
-161.779	-68.891	-0.047	0.018
-160.764	-36.165	0.288	0.152
-159.750	21.449	0.036	0.029
-158.735	-55.636	-0.218	0.096
-157.720	-170.695	0.223	-0.008
-156.706	38.486	-0.014	-0.012
-155.691	-123.210	-0.224	-0.035
-154.677	-63.822	-0.419	0.168
-153.662	-107.816	0.141	-0.030
-152.647	800.000	0.059	-0.183
-151.633	433.095	-0.025	0.052
-150.618	88.704	0.150	-0.163
-149.604	-75.017	0.289	0.102
-148.589	577.809	0.084	0.201
-147.574	-21.962	0.264	0.158
-146.560	-41.545	0.089	0.045
-145.545	16.253	0.175	0.135
-144.531	-28.413	0.243	-0.138
-143.516	800.000	-0.060	0.209
-142.502	180.423	0.023	0.033
-141.487	-96.168	0.206	0.054
-140.472	-34.646	0.092	-0.049
-139.458	116.974	0.057	-0.069
-138.443	-61.682	-0.168	-0.069
-137.429	-101.691	-0.079	-0.019
-136.414	213.429	-0.137	-0.212
-135.399	13.832	0.377	-0.288
-134.385	-200.000	-0.041	-0.235
-133.370	-200.000	-0.034	0.229
-132.356	440.788	0.153	-0.328
-131.341	-39.181	0.061	0.031
-130.326	-43.040	-0.037	0.018
-129.312	-3.037	0.226	0.155
-128.297	52.175	0.133	0.124
-127.283	-85.082	0.258	-0.079
-126.268	-99.188	0.069	0.017
-125.253	182.903	-0.267	-0.387
-124.239	800.000	0.031	-0.119
-123.224	800.000	0.073	0.222
-122.210	-200.000	-0.059	0.395
-121.195	-81.519	0.205	0.066
