DTS Sentinel unit serial number:	SN413079Multiplexer serial number:	ORYXHardware model number:	OX4-SRSoftware version number:	ORYX F/W v4.00 Oryx Data Collector v3.7.2.0data status	okinstallation	princeton_trtdifferential loss correction	single-endedforward channel	channel 1reverse channel	N/Adate	2019/09/15time	13:54:35forward acquisition time	60.00reverse acquisition time	0.00gamma	496.2192k internal	0.2294k external	0.2294temperature offset calibration	0.9972default loss term (dB/km)	0.3790temperature slope calibration	1.0000multiplexer offset coefficient	1.0000multiplexer slope coefficient	1.0000fibre end	0.00T internal ref (°C)	38.31T ext. ref 1 (°C)	4.97T ext. ref 2 (°C)	35.10length (m)	temperature (°C)	Stokes	anti-Stokes-747.200	-16.296	-0.085	0.056
-746.185	800.000	-0.073	0.218
-745.171	97.270	-0.022	0.026
-744.156	-34.696	-0.241	0.135
-743.142	-145.274	-0.104	0.010
-742.127	-200.000	0.017	0.275
-741.112	210.835	0.095	0.153
-740.098	173.950	0.053	0.079
-739.083	-159.448	-0.196	-0.011
-738.069	-89.311	-0.102	-0.031
-737.054	715.255	-0.062	-0.168
-736.039	53.770	-0.164	0.162
-735.025	78.488	0.147	-0.161
-734.010	263.386	0.159	0.283
-732.996	46.180	-0.075	0.071
-731.981	-45.670	0.150	-0.076
-730.966	-107.265	0.244	0.055
-729.952	-34.069	-0.174	-0.098
-728.937	234.090	0.082	0.139
-727.923	-110.940	-0.391	0.082
-726.908	-144.213	0.109	-0.010
-725.894	308.904	0.099	0.189
-724.879	507.381	0.088	-0.208
-723.864	-200.000	-0.060	-0.311
-722.850	-60.082	-0.161	0.070
-721.835	-186.339	-0.408	0.006
-720.821	-200.000	-0.096	-0.496
-719.806	-160.766	0.325	0.018
-718.791	-131.763	-0.080	0.011
-717.777	800.000	-0.094	-0.326
-716.762	358.678	0.080	-0.164
-715.748	-118.264	-0.124	0.023
-714.733	-200.000	0.010	-0.283
-713.718	-141.142	-0.183	-0.019
-712.704	374.506	0.028	-0.059
-711.689	-126.340	-0.387	0.059
-710.675	-73.458	-0.240	-0.090
-709.660	-157.500	0.294	0.018
-708.645	-112.901	0.283	0.057
-707.631	-200.000	-0.001	-0.048
-706.616	181.182	0.112	0.169
-705.602	-51.863	-0.220	-0.105
-704.587	143.421	0.124	0.169
-703.572	-38.873	0.227	0.122
-702.558	800.000	0.145	0.437
-701.543	79.865	-0.194	0.213
-700.529	399.237	0.119	-0.255
-699.514	155.538	-0.106	0.149
-698.499	-20.251	0.428	-0.269
-697.485	339.053	-0.141	0.280
-696.470	-27.652	0.129	0.076
-695.456	545.038	0.074	-0.180
-694.441	284.427	0.093	-0.170
-693.426	35.773	-0.091	0.082
-692.412	-68.367	0.146	0.058
-691.397	-113.140	-0.261	-0.053
-690.383	-197.020	0.119	-0.001
-689.368	-99.098	0.284	-0.073
-688.354	97.701	-0.189	-0.222
-687.339	-3.327	0.132	-0.093
-686.324	-57.605	-0.276	-0.124
-685.310	-111.150	-0.231	0.048
-684.295	605.324	0.109	-0.278
-683.281	-103.595	-0.236	0.057
-682.266	-200.000	0.038	0.211
-681.251	524.491	-0.029	0.070
-680.237	612.926	0.087	0.223
-679.222	324.079	0.095	0.185
-678.208	37.707	-0.364	0.330
-677.193	-23.830	0.195	0.119
-676.178	-56.767	0.303	0.137
-675.164	111.113	0.064	0.078
-674.149	16.018	-0.410	0.330
-673.135	465.646	-0.126	-0.288
-672.120	640.309	0.064	-0.167
-671.105	-121.824	-0.233	-0.039
-670.091	-200.000	0.005	0.213
-669.076	390.891	0.048	0.101
-668.062	-132.594	-0.201	-0.026
-667.047	561.431	-0.093	0.230
-666.032	17.904	-0.225	0.182
-665.018	-123.963	-0.191	0.031
-664.003	79.870	-0.157	0.172
-662.989	308.560	-0.193	-0.368
-661.974	129.669	-0.261	-0.340
-660.959	-21.997	-0.270	-0.167
-659.945	25.456	0.198	0.168
-658.930	-200.000	0.011	-0.376
-657.916	-80.737	0.322	0.109
-656.901	-96.013	0.238	-0.065
-655.886	-109.669	-0.047	-0.010
-654.872	-200.000	0.020	-0.370
-653.857	-57.460	0.195	-0.087
-652.843	458.666	0.133	-0.302
-651.828	-173.293	-0.329	0.010
-650.814	-94.107	0.219	0.061
-649.799	-37.780	-0.162	-0.088
-648.784	-73.473	-0.250	0.093
-647.770	-152.065	-0.194	0.014
-646.755	-109.759	-0.019	0.004
-645.741	-83.545	-0.058	-0.019
-644.726	-157.657	-0.048	-0.003
-643.711	-11.682	0.198	-0.133
-642.697	-88.985	-0.158	0.048
-641.682	165.444	-0.170	0.244
-640.668	600.213	0.011	0.029
-639.653	719.473	-0.058	0.158
-638.638	-200.000	-0.020	-0.136
-637.624	-39.641	-0.142	-0.076
-636.609	-52.655	0.061	-0.029
-635.595	-88.026	0.121	0.037
-634.580	-200.000	0.059	-0.413
-633.565	17.382	0.247	-0.200
-632.551	-200.000	-0.026	0.163
-631.536	800.000	0.063	-0.272
-630.522	653.819	0.069	-0.180
-629.507	-13.523	-0.224	0.148
-628.492	-17.590	-0.215	0.137
-627.478	193.373	-0.026	-0.040
-626.463	42.485	-0.137	-0.127
-625.449	800.000	0.086	-0.262
-624.434	-151.951	-0.317	-0.024
-623.419	-200.000	0.039	-0.450
-622.405	800.000	0.066	0.205
-621.390	21.937	-0.341	-0.283
-620.376	93.177	0.116	-0.134
-619.361	-84.087	-0.280	0.091
-618.346	-108.166	0.347	-0.077
-617.332	25.549	-0.107	0.091
-616.317	329.075	-0.052	0.102
-615.303	42.750	0.269	-0.249
-614.288	-50.433	0.112	0.054
-613.273	-76.937	-0.262	-0.093
-612.259	136.970	0.169	-0.225
-611.244	800.000	0.113	-0.369
-610.230	0.447	0.287	0.209
-609.215	117.669	0.085	0.107
-608.201	-145.865	0.057	-0.005
-607.186	800.000	-0.033	0.116
-606.171	-42.361	0.296	0.154
-605.157	800.000	0.020	-0.067
-604.142	460.064	0.013	-0.028
-603.128	-200.000	-0.009	-0.193
-602.113	240.174	-0.253	0.428
-601.098	132.858	0.239	0.314
-600.084	29.840	-0.159	-0.138
-599.069	533.748	-0.151	-0.363
-598.055	435.641	0.215	-0.477
-597.040	57.638	0.309	-0.307
-596.025	176.502	0.072	0.107
-595.011	-200.000	0.049	-0.335
-593.996	-154.002	0.415	-0.029
-592.982	-57.465	-0.192	-0.086
-591.967	75.173	-0.320	-0.343
-590.952	-100.057	0.280	-0.071
-589.938	393.358	0.158	-0.335
-588.923	365.456	0.023	-0.046
-587.909	91.123	0.177	-0.202
-586.894	-200.000	-0.026	-0.177
-585.879	133.437	-0.137	0.180
-584.865	163.385	-0.200	-0.286
-583.850	32.125	-0.094	0.082
-582.836	46.582	0.217	0.205
-581.821	-200.000	0.003	0.294
-580.806	-200.000	-0.076	-0.444
-579.792	-200.000	0.006	0.059
-578.777	100.970	0.055	0.065
-577.763	80.607	-0.377	-0.413
-576.748	-200.000	-0.025	-0.186
-575.733	-187.451	-0.267	-0.004
-574.719	12.170	0.272	0.213
-573.704	-156.719	-0.255	0.016
-572.690	-115.800	-0.129	0.024
-571.675	414.852	-0.048	0.105
-570.661	-171.610	0.114	0.004
-569.646	65.859	0.109	0.113
-568.631	-200.000	-0.012	0.226
-567.617	-200.000	0.010	-0.146
-566.602	-200.000	0.043	0.272
-565.588	-153.875	0.087	0.006
-564.573	-47.380	-0.191	0.095
-563.558	65.323	0.092	-0.095
-562.544	-200.000	0.022	-0.552
-561.529	120.893	0.126	-0.159
-560.515	-200.000	0.061	-0.321
-559.500	460.367	-0.181	0.410
-558.485	41.373	-0.091	0.083
-557.471	145.818	0.118	0.161
-556.456	-51.757	-0.211	-0.100
-555.442	-200.000	0.049	0.254
-554.427	-200.000	-0.065	0.542
-553.412	-200.000	0.049	0.481
-552.398	383.489	0.043	0.090
-551.383	-111.752	-0.300	0.062
-550.369	-12.605	0.292	-0.193
-549.354	-45.616	0.141	-0.071
-548.339	82.980	0.080	-0.088
-547.325	-200.000	-0.001	0.315
-546.310	-91.433	-0.150	-0.043
-545.296	35.248	-0.418	0.372
-544.281	-200.000	-0.004	0.130
-543.266	272.358	0.173	-0.309
-542.252	-5.150	-0.104	-0.073
-541.237	-200.000	0.025	-0.238
-540.223	-128.378	-0.192	0.028
-539.208	11.508	-0.102	0.080
-538.193	-85.461	-0.296	0.094
-537.179	84.696	0.286	-0.318
-536.164	-130.803	0.235	-0.032
-535.150	-102.123	0.197	-0.048
-534.135	-200.000	0.025	0.278
-533.121	-200.000	-0.015	-0.221
-532.106	-110.063	0.291	0.062
-531.091	-171.201	0.328	0.011
-530.077	-88.929	-0.285	-0.086
-529.062	-200.000	-0.008	-0.177
-528.048	222.621	-0.162	-0.264
-527.033	-29.832	0.407	-0.235
-526.018	-17.562	0.080	0.051
-525.004	122.252	0.121	0.153
-523.989	-200.000	0.004	-0.161
-522.975	-200.000	0.008	-0.058
-521.960	62.487	-0.112	-0.114
-520.945	-200.000	-0.035	-0.261
-519.931	-122.014	0.122	0.020
-518.916	-137.424	-0.091	0.010
-517.902	222.115	0.163	-0.266
-516.887	271.755	0.068	0.121
-515.872	578.517	0.057	0.141
-514.858	143.913	0.075	0.101
-513.843	-39.646	0.129	0.069
-512.829	443.328	0.140	0.310
-511.814	800.000	0.087	0.324
-510.799	73.709	-0.175	-0.185
-509.785	-173.595	-0.207	-0.006
-508.770	218.708	-0.102	0.165
-507.756	-29.404	0.357	0.207
-506.741	323.607	0.101	0.196
-505.726	254.406	-0.073	0.127
-504.712	-62.065	-0.181	0.077
-503.697	-99.150	-0.137	0.035
-502.683	-68.487	-0.150	-0.059
-501.668	800.000	0.058	0.245
-500.653	355.600	-0.224	0.452
-499.639	800.000	-0.082	0.356
-498.624	314.278	-0.060	0.114
-497.610	-13.900	-0.185	-0.121
-496.595	161.172	-0.234	0.331
-495.581	-93.864	0.085	-0.024
-494.566	-123.428	-0.221	0.036
-493.551	3.903	0.150	0.111
-492.537	-22.829	0.166	0.101
-491.522	-138.615	0.432	0.048
-490.508	-200.000	-0.009	0.042
-489.493	-108.082	-0.097	0.021
-488.478	-26.786	-0.403	-0.239
-487.464	-200.000	0.010	-0.238
-486.449	-18.074	0.051	-0.032
-485.435	800.000	-0.031	0.119
-484.420	105.590	0.211	-0.252
-483.405	234.176	-0.114	-0.191
-482.391	-60.876	-0.066	0.028
-481.376	-34.166	0.243	-0.135
-480.362	-46.647	-0.215	-0.107
-479.347	92.120	0.046	0.052
-478.332	-95.988	-0.129	-0.035
-477.318	62.111	0.144	0.146
-476.303	-200.000	-0.025	0.263
-475.289	-200.000	0.120	-0.644
-474.274	413.356	0.090	0.194
-473.259	-200.000	0.057	0.417
-472.245	800.000	-0.119	0.438
-471.230	9.422	0.465	0.356
-470.216	-200.000	-0.005	-0.144
-469.201	-156.872	-0.214	0.013
-468.186	-125.060	0.327	-0.051
-467.172	-200.000	0.005	0.055
-466.157	349.065	-0.119	-0.238
-465.143	-136.472	-0.155	0.018
-464.128	-168.919	-0.472	0.018
-463.113	580.222	0.078	0.194
-462.099	-27.144	-0.305	0.180
-461.084	42.185	0.177	0.163
-460.070	800.000	0.054	-0.217
-459.055	-132.001	-0.236	0.031
-458.040	629.919	-0.052	-0.132
-457.026	704.149	0.104	-0.276
-456.011	800.000	0.007	0.026
-454.997	33.768	-0.299	-0.263
-453.982	1.892	-0.107	0.078
-452.968	800.000	0.073	0.279
-451.953	-200.000	0.020	-0.257
-450.938	-200.000	0.023	0.414
-449.924	79.653	-0.042	0.045
-448.909	-112.758	0.435	-0.087
-447.895	800.000	0.058	0.192
-446.880	78.542	0.216	0.234
-445.865	-114.684	0.148	0.029
-444.851	-0.535	0.246	-0.177
-443.836	-200.000	-0.014	0.145
-442.822	435.141	0.156	0.344
-441.807	800.000	-0.079	0.235
-440.792	-200.000	-0.015	0.381
-439.778	487.402	0.044	-0.102
-438.763	159.998	0.210	-0.295
-437.749	-200.000	0.002	0.026
-436.734	800.000	-0.050	-0.160
-435.719	-44.697	0.188	-0.095
-434.705	-200.000	0.026	0.194
-433.690	-3.790	-0.142	-0.100
-432.676	-121.808	-0.337	0.056
-431.661	-141.191	0.221	-0.023
-430.646	-42.272	0.236	0.122
-429.632	-151.661	-0.414	-0.031
-428.617	38.081	-0.188	0.169
-427.603	96.272	0.104	-0.120
-426.588	-21.020	-0.219	-0.135
-425.573	83.298	-0.144	0.158
-424.559	119.332	-0.250	0.312
-423.544	-200.000	-0.001	0.079
-422.530	-23.407	0.135	-0.082
-421.515	-200.000	-0.046	0.221
-420.500	328.679	0.083	0.160
-419.486	438.288	0.049	0.107
-418.471	3.483	0.186	-0.137
-417.457	60.534	-0.059	0.059
-416.442	-105.196	-0.239	-0.055
-415.428	264.897	0.106	0.187
-414.413	133.448	-0.173	0.226
-413.398	444.831	0.075	-0.166
-412.384	589.896	0.175	0.436
-411.369	-11.093	0.040	-0.027
-410.355	-159.949	-0.091	0.005
-409.340	-200.000	-0.015	-0.195
-408.325	338.459	0.022	0.044
-407.311	30.585	-0.138	-0.119
-406.296	27.718	0.139	0.118
-405.282	-107.411	0.313	0.069
-404.267	754.000	-0.013	-0.035
-403.252	800.000	0.047	-0.187
-402.238	-67.549	0.123	-0.049
-401.223	-33.087	0.170	0.095
-400.209	569.198	0.113	0.277
-399.194	-119.238	-0.127	0.022
-398.179	-111.228	0.196	0.041
-397.165	-90.407	-0.014	0.004
-396.150	-166.286	-0.235	-0.010
-395.136	151.462	0.105	-0.145
-394.121	-200.000	0.002	-0.082
-393.106	-56.983	-0.288	0.128
-392.092	-44.879	0.105	0.053
-391.077	786.599	0.143	0.396
-390.063	179.795	0.124	-0.183
-389.048	-84.490	0.123	0.039
-388.033	252.897	-0.049	-0.084
-387.019	255.086	0.126	-0.218
-386.004	-122.413	0.034	0.006
-384.990	164.315	-0.078	-0.111
-383.975	-50.891	0.276	-0.131
-382.960	230.100	0.033	0.054
-381.946	-88.340	0.119	-0.036
-380.931	-37.011	0.152	-0.082
-379.917	122.783	-0.058	0.073
-378.902	-88.369	-0.196	0.059
-377.888	70.402	0.260	-0.271
-376.873	84.950	0.038	-0.042
-375.858	800.000	-0.051	0.145
-374.844	131.779	-0.091	0.117
-373.829	800.000	-0.041	0.172
-372.815	108.550	-0.227	-0.273
-371.800	-200.000	0.025	-0.179
-370.785	-23.053	-0.249	0.151
-369.771	65.418	0.121	0.124
-368.756	-200.000	-0.005	-0.106
-367.742	156.399	-0.213	-0.296
-366.727	-200.000	0.003	0.052
-365.712	800.000	-0.047	0.152
-364.698	-9.069	0.302	-0.204
-363.683	-100.819	-0.062	-0.015
-362.669	-21.333	0.063	-0.039
-361.654	192.507	0.121	-0.183
-360.639	-123.673	0.210	0.033
-359.625	-132.138	-0.281	-0.037
-358.610	-49.540	-0.179	-0.086
-357.596	85.476	0.345	0.382
-356.581	18.889	-0.145	-0.117
-355.566	-86.456	0.150	0.046
-354.552	302.131	-0.153	-0.286
-353.537	-30.959	-0.155	-0.088
-352.523	228.846	-0.040	0.066
-351.508	-200.000	0.016	-0.314
-350.493	800.000	-0.091	-0.313
-349.479	-143.137	-0.207	-0.020
-348.464	84.461	0.324	0.357
-347.450	113.991	0.126	0.154
-346.435	-75.705	-0.117	-0.042
-345.420	-71.905	0.292	-0.109
-344.406	800.000	-0.030	-0.091
-343.391	800.000	-0.062	-0.199
-342.377	299.361	-0.142	-0.264
-341.362	645.666	-0.065	0.167
-340.348	-164.991	0.319	-0.014
-339.333	-131.599	0.189	-0.025
-338.318	800.000	0.121	0.361
-337.304	-126.473	-0.385	-0.058
-336.289	-200.000	0.012	-0.209
-335.275	-200.000	0.077	-0.395
-334.260	-200.000	0.010	-0.127
-333.245	-138.917	0.232	0.025
-332.231	86.781	-0.047	-0.052
-331.216	-25.765	0.222	-0.132
-330.202	27.450	-0.324	-0.274
-329.187	-11.975	-0.175	-0.115
-328.172	-137.934	-0.224	-0.025
-327.158	178.321	-0.112	-0.165
-326.143	-200.000	0.006	-0.141
-325.129	487.764	-0.061	0.141
-324.114	49.275	0.361	-0.341
-323.099	-91.386	0.060	-0.017
-322.085	800.000	-0.077	0.335
-321.070	-154.268	0.261	-0.018
-320.056	-117.349	-0.088	0.016
-319.041	66.794	-0.092	-0.094
-318.026	31.290	-0.162	-0.140
-317.012	-87.673	-0.164	0.050
-315.997	-175.184	-0.173	-0.005
-314.983	800.000	0.026	0.102
-313.968	45.505	-0.035	0.033
-312.953	-100.492	-0.346	0.086
-311.939	13.908	0.217	0.170
-310.924	-76.270	0.067	0.024
-309.910	-200.000	0.007	0.112
-308.895	-92.421	0.188	0.053
-307.880	301.647	-0.087	0.162
-306.866	210.592	-0.151	0.239
-305.851	-200.000	0.025	0.450
-304.837	68.237	-0.124	-0.128
-303.822	530.805	0.061	0.145
-302.807	-137.852	0.322	0.036
-301.793	-79.118	0.148	0.050
-300.778	-200.000	-0.080	-0.428
-299.764	67.299	-0.047	-0.048
-298.749	-78.448	0.070	0.024
-297.735	76.579	0.111	0.118
-296.720	661.221	-0.112	0.290
-295.705	-200.000	0.069	0.456
-294.691	-67.856	-0.181	-0.071
-293.676	-83.957	-0.087	0.028
-292.662	10.130	-0.100	0.076
-291.647	291.299	0.104	-0.190
-290.632	-184.079	-0.162	-0.003
-289.618	36.232	0.189	-0.168
-288.603	-200.000	0.033	0.381
-287.589	-23.117	-0.077	-0.046
-286.574	178.811	-0.083	0.121
-285.559	-200.000	-0.008	-0.058
-284.545	13.131	0.042	0.033
-283.530	-1.952	0.058	0.041
-282.516	800.000	0.066	0.222
-281.501	-81.908	-0.167	0.055
-280.486	221.718	0.076	0.123
-279.472	-200.000	-0.004	-0.214
-278.457	-196.948	0.143	-0.001
-277.443	-15.824	-0.146	-0.094
-276.428	-67.921	0.047	0.018
-275.413	800.000	-0.099	0.377
-274.399	800.000	-0.074	0.300
-273.384	11.343	0.051	-0.040
-272.370	-146.410	-0.071	0.006
-271.355	82.070	0.096	-0.104
-270.340	-200.000	0.020	-0.136
-269.326	36.028	-0.146	0.129
-268.311	41.969	-0.050	0.045
-267.297	39.547	-0.240	0.216
-266.282	-19.645	0.009	0.005
-265.267	53.157	0.111	0.107
-264.253	554.646	-0.208	-0.503
-263.238	-34.234	0.235	0.129
-262.224	800.000	-0.094	0.391
-261.209	304.979	-0.240	0.447
-260.195	-85.562	-0.371	0.116
-259.180	44.008	0.174	0.160
-258.165	5.842	0.158	0.117
-257.151	7.681	0.131	-0.098
-256.136	-21.365	0.216	-0.132
-255.122	800.000	-0.028	0.084
-254.107	-81.898	0.073	0.024
-253.092	561.641	-0.080	-0.194
-252.078	-55.003	-0.229	-0.104
-251.063	800.000	-0.098	0.388
-250.049	800.000	0.024	0.094
-249.034	348.495	0.246	0.487
-248.019	428.261	0.007	0.015
-247.005	-110.013	0.183	-0.038
-245.990	599.088	0.013	0.032
-244.976	-200.000	0.033	-0.220
-243.961	64.515	0.106	-0.107
-242.946	61.132	-0.145	0.144
-241.932	-100.517	0.127	0.032
-240.917	-50.495	0.289	0.137
-239.903	104.016	0.271	-0.320
-238.888	50.829	-0.219	0.208
-237.873	-200.000	0.049	0.273
-236.859	550.005	0.022	0.053
-235.844	28.610	-0.242	-0.206
-234.830	454.406	0.033	-0.074
-233.815	800.000	0.106	-0.405
-232.800	9.312	-0.157	0.119
-231.786	800.000	0.117	0.420
-230.771	-1.647	-0.103	-0.073
-229.757	177.238	0.084	0.123
-228.742	-200.000	-0.023	-0.413
-227.727	-24.373	-0.050	-0.030
-226.713	-68.003	-0.222	-0.087
-225.698	-74.615	-0.192	-0.069
-224.684	558.813	0.059	-0.143
-223.669	-22.566	-0.415	-0.252
-222.655	312.491	-0.113	-0.212
-221.640	-24.622	-0.120	-0.071
-220.625	154.029	-0.096	0.133
-219.611	-200.000	0.048	0.247
-218.596	38.101	0.026	-0.023
-217.582	-99.812	0.286	-0.072
-216.567	-38.862	0.258	-0.136
-215.552	-151.663	0.084	0.006
-214.538	211.048	0.119	-0.187
-213.523	-45.510	0.118	-0.058
-212.509	-81.754	0.445	-0.146
-211.494	-100.423	0.228	-0.056
-210.479	-102.682	-0.141	0.034
-209.465	-51.987	-0.431	-0.200
-208.450	-7.170	0.298	-0.202
-207.436	800.000	-0.120	0.338
-206.421	800.000	0.133	-0.415
-205.406	800.000	-0.044	-0.142
-204.392	-147.868	0.136	0.011
-203.377	800.000	-0.059	0.231
-202.363	-54.614	0.047	-0.021
-201.348	-200.000	-0.006	-0.299
-200.333	-86.147	0.065	0.020
-199.319	-173.333	0.236	-0.007
-198.304	800.000	0.075	-0.272
-197.290	31.989	0.121	-0.105
-196.275	12.403	0.169	-0.130
-195.260	-200.000	-0.010	0.255
-194.246	800.000	-0.097	-0.412
-193.231	-107.692	-0.424	0.093
-192.217	-24.297	-0.289	-0.173
-191.202	-92.049	-0.219	0.062
-190.187	-113.678	-0.150	0.029
-189.173	258.603	0.108	-0.186
-188.158	-181.143	0.324	-0.006
-187.144	36.667	-0.152	-0.135
-186.129	-200.000	-0.047	-0.214
-185.114	800.000	-0.049	-0.177
-184.100	678.003	-0.085	0.222
-183.085	-200.000	0.014	0.126
-182.071	-11.366	-0.095	0.063
-181.056	800.000	0.099	0.294
-180.042	-54.521	-0.176	0.080
-179.027	-200.000	-0.034	0.198
-178.012	366.070	0.277	-0.558
-176.998	-200.000	-0.015	0.141
-175.983	467.323	0.069	-0.154
-174.969	-75.597	-0.295	-0.105
-173.954	19.873	-0.034	0.027
-172.939	-49.762	-0.135	-0.064
-171.925	-108.847	0.359	0.077
-170.910	51.155	-0.131	-0.125
-169.896	-111.319	-0.335	0.068
-168.881	-200.000	-0.007	0.085
-167.866	-16.141	0.150	-0.096
-166.852	-1.567	0.249	-0.175
-165.837	-9.037	0.118	-0.079
-164.823	-19.349	-0.252	-0.156
-163.808	-85.509	0.148	0.046
-162.793	794.354	-0.093	-0.256
-161.779	752.276	-0.063	0.171
-160.764	168.952	-0.132	-0.188
-159.750	-5.458	-0.219	-0.150
-158.735	367.367	-0.062	0.124
-157.720	-86.197	0.157	-0.048
-156.706	84.087	-0.139	0.152
-155.691	-200.000	-0.017	0.092
-154.677	252.399	0.132	0.226
-153.662	44.405	0.271	0.249
-152.647	66.998	-0.271	0.276
-151.633	-32.257	-0.211	0.118
-150.618	-167.444	-0.324	-0.013
-149.604	184.022	0.090	-0.133
-148.589	-43.554	0.413	0.208
-147.574	-3.509	-0.281	0.195
-146.560	-38.476	0.055	-0.029
-145.545	10.068	-0.059	-0.044
-144.531	-36.100	-0.039	-0.021
-143.516	103.163	0.100	0.117
-142.502	88.523	0.056	0.062
-141.487	33.908	-0.265	0.231
-140.472	-115.806	-0.077	0.014
-139.458	-128.463	0.382	0.054
-138.443	-33.292	0.143	-0.079
-137.429	294.250	-0.096	-0.174
-136.414	-46.704	-0.163	-0.080
-135.399	-94.473	0.094	-0.026
-134.385	-200.000	-0.037	0.256
-133.370	-54.211	0.237	-0.107
-132.356	-62.462	-0.345	0.143
-131.341	800.000	0.088	0.249
-130.326	-69.371	0.307	0.118
-129.312	-11.029	0.156	0.103
-128.297	63.619	0.173	-0.173
-127.283	-134.519	-0.214	0.026
-126.268	800.000	-0.083	0.244
-125.253	-5.968	-0.035	-0.024
-124.239	-113.856	0.191	0.037
-123.224	-100.263	0.117	0.029
-122.210	142.998	0.082	0.109
-121.195	-121.219	0.298	0.050
-120.180	-48.228	0.368	0.177
