DTS Sentinel unit serial number:	SN413079Multiplexer serial number:	ORYXHardware model number:	OX4-SRSoftware version number:	ORYX F/W v4.00 Oryx Data Collector v3.7.2.0data status	okinstallation	princeton_trtdifferential loss correction	single-endedforward channel	channel 1reverse channel	N/Adate	2019/09/15time	22:06:35forward acquisition time	60.00reverse acquisition time	0.00gamma	496.2192k internal	0.2330k external	0.2330temperature offset calibration	0.9968default loss term (dB/km)	0.3790temperature slope calibration	1.0000multiplexer offset coefficient	1.0000multiplexer slope coefficient	1.0000fibre end	0.00T internal ref (°C)	29.69T ext. ref 1 (°C)	8.57T ext. ref 2 (°C)	22.93length (m)	temperature (°C)	Stokes	anti-Stokes-747.200	-77.060	0.093	-0.033
-746.185	-200.000	0.007	-0.177
-745.171	-13.101	-0.237	-0.155
-744.156	-34.180	0.158	0.087
-743.142	-114.328	0.119	0.023
-742.127	616.792	-0.176	0.444
-741.112	800.000	0.063	-0.177
-740.098	166.188	-0.145	0.207
-739.083	205.453	0.111	-0.173
-738.069	97.460	0.174	0.201
-737.054	-200.000	-0.077	-0.342
-736.039	-64.959	-0.329	-0.134
-735.025	30.118	0.174	0.150
-734.010	472.393	0.137	0.311
-732.996	-200.000	-0.017	-0.174
-731.981	-164.729	-0.462	0.021
-730.966	-200.000	-0.008	-0.048
-729.952	362.943	-0.172	-0.348
-728.937	26.756	0.153	-0.129
-727.923	-173.029	-0.508	0.016
-726.908	72.303	0.206	-0.216
-725.894	-8.182	-0.110	-0.075
-724.879	-200.000	-0.011	0.092
-723.864	244.765	-0.109	0.184
-722.850	-142.056	0.083	0.008
-721.835	109.506	0.047	0.056
-720.821	-127.308	0.155	-0.023
-719.806	-118.669	-0.326	-0.058
-718.791	-141.885	-0.077	0.008
-717.777	28.822	-0.247	-0.211
-716.762	192.621	0.196	-0.298
-715.748	-108.239	0.223	-0.049
-714.733	-137.893	0.355	-0.040
-713.718	34.815	-0.155	-0.137
-712.704	60.497	0.094	0.093
-711.689	-119.218	-0.130	0.023
-710.675	-62.930	-0.120	-0.050
-709.660	-28.973	-0.110	0.063
-708.645	-59.766	0.206	-0.089
-707.631	-127.064	0.032	-0.005
-706.616	91.047	-0.092	0.103
-705.602	183.279	-0.102	-0.152
-704.587	37.545	-0.239	-0.213
-703.572	-200.000	-0.024	-0.116
-702.558	-17.799	-0.412	-0.260
-701.543	64.358	0.092	0.093
-700.529	-15.744	-0.233	-0.149
-699.514	-200.000	0.007	-0.100
-698.499	87.899	-0.295	0.329
-697.485	-118.181	0.099	-0.018
-696.470	-200.000	-0.014	-0.069
-695.456	314.455	0.128	-0.243
-694.441	-200.000	-0.023	-0.176
-693.426	-90.511	0.109	0.032
-692.412	-200.000	0.015	0.106
-691.397	-109.707	-0.233	-0.049
-690.383	-44.738	-0.125	-0.063
-689.368	107.371	0.171	0.205
-688.354	-200.000	-0.068	-0.349
-687.339	-53.348	0.157	-0.072
-686.324	8.300	-0.307	-0.232
-685.310	-87.969	-0.156	-0.047
-684.295	800.000	0.031	-0.131
-683.281	230.756	-0.120	-0.197
-682.266	-145.321	-0.260	-0.024
-681.251	800.000	-0.034	-0.102
-680.237	10.845	-0.351	0.269
-679.222	-131.910	0.311	-0.041
-678.208	800.000	0.067	-0.232
-677.193	319.240	0.113	0.215
-676.178	8.957	0.115	0.087
-675.164	800.000	0.097	-0.417
-674.149	-95.027	-0.146	0.040
-673.135	-121.378	-0.379	-0.063
-672.120	-200.000	-0.033	0.215
-671.105	58.866	0.154	-0.152
-670.091	19.935	-0.255	0.206
-669.076	199.143	-0.054	-0.083
-668.062	-172.812	-0.423	0.013
-667.047	800.000	0.051	-0.149
-666.032	-200.000	0.042	0.297
-665.018	92.808	-0.124	0.141
-664.003	-114.348	0.059	-0.011
-662.989	-123.627	-0.223	0.036
-661.974	-200.000	0.006	-0.097
-660.959	-200.000	0.012	-0.255
-659.945	-108.431	-0.312	0.067
-658.930	-143.855	-0.210	0.020
-657.916	490.559	0.089	-0.203
-656.901	451.017	0.109	-0.241
-655.886	56.739	0.043	0.042
-654.872	-39.334	0.198	0.104
-653.857	800.000	-0.055	0.193
-652.843	225.129	-0.101	-0.163
-651.828	-50.492	0.183	0.086
-650.814	-145.357	-0.194	0.018
-649.799	800.000	0.094	0.300
-648.784	-156.999	0.053	-0.003
-647.770	-30.332	-0.124	0.071
-646.755	-200.000	0.001	0.041
-645.741	-143.555	0.157	0.015
-644.726	-92.727	0.093	0.026
-643.711	-70.267	0.245	0.093
-642.697	227.511	-0.182	-0.297
-641.682	87.901	-0.075	-0.084
-640.668	188.426	-0.269	-0.404
-639.653	-154.617	-0.116	0.008
-638.638	800.000	0.025	0.086
-637.624	126.630	-0.041	0.052
-636.609	800.000	0.051	-0.166
-635.595	61.272	0.155	-0.154
-634.580	-145.543	0.202	0.018
-633.565	-49.792	-0.074	-0.035
-632.551	-50.325	0.200	-0.095
-631.536	-102.061	-0.163	-0.039
-630.522	598.169	0.005	-0.012
-629.507	-119.495	-0.233	0.040
-628.492	-38.029	-0.236	0.126
-627.478	-200.000	0.013	-0.328
-626.463	-111.011	0.541	-0.111
-625.449	-30.205	0.044	-0.025
-624.434	136.704	0.125	-0.164
-623.419	296.139	-0.125	-0.230
-622.405	-129.177	-0.258	-0.036
-621.390	-104.902	0.127	-0.029
-620.376	2.320	-0.127	-0.092
-619.361	237.282	-0.134	-0.222
-618.346	-50.821	0.396	-0.187
-617.332	-158.650	-0.400	-0.023
-616.317	800.000	0.099	0.273
-615.303	-20.132	0.228	-0.141
-614.288	-200.000	0.002	-0.044
-613.273	800.000	0.081	0.291
-612.259	-65.885	-0.341	-0.136
-611.244	40.263	0.043	-0.039
-610.230	800.000	-0.063	0.177
-609.215	-200.000	-0.004	0.113
-608.201	6.975	-0.109	-0.081
-607.186	-133.282	0.281	-0.035
-606.171	-156.893	-0.397	0.024
-605.157	-57.422	-0.220	0.097
-604.142	91.112	0.092	0.104
-603.128	-200.000	-0.020	0.273
-602.113	-141.450	0.117	-0.012
-601.098	-167.242	0.135	-0.005
-600.084	135.421	-0.177	0.230
-599.069	-200.000	0.029	-0.222
-598.055	-67.656	-0.116	-0.046
-597.040	161.896	-0.051	0.072
-596.025	-58.449	-0.193	0.084
-595.011	197.429	-0.123	0.187
-593.996	800.000	0.103	-0.407
-592.982	-60.773	-0.347	0.147
-591.967	-114.752	0.236	-0.045
-590.952	5.772	-0.200	-0.148
-589.938	-121.801	-0.020	0.003
-588.923	-200.000	0.012	-0.120
-587.909	191.615	0.114	-0.172
-586.894	70.970	-0.015	0.016
-585.879	-25.577	0.272	0.161
-584.865	800.000	-0.074	0.230
-583.850	-200.000	-0.013	-0.101
-582.836	800.000	-0.051	0.160
-581.821	78.105	0.081	0.086
-580.806	624.883	0.060	0.152
-579.792	22.394	-0.240	-0.196
-578.777	-26.079	0.226	-0.133
-577.763	19.975	-0.081	0.065
-576.748	-200.000	0.024	-0.156
-575.733	-154.267	-0.176	-0.012
-574.719	199.638	0.108	0.166
-573.704	-129.368	0.213	-0.030
-572.690	-117.497	-0.043	0.008
-571.675	-200.000	-0.028	0.196
-570.661	800.000	0.046	0.163
-569.646	228.680	0.065	0.105
-568.631	-117.075	-0.106	-0.019
-567.617	11.291	-0.147	-0.112
-566.602	-26.942	-0.189	0.110
-565.588	-130.071	0.122	-0.017
-564.573	800.000	0.085	0.246
-563.558	-115.366	0.221	0.042
-562.544	-37.856	-0.303	-0.161
-561.529	-95.159	-0.327	-0.088
-560.515	-64.705	-0.274	-0.111
-559.500	242.823	0.158	0.265
-558.485	-200.000	-0.027	0.287
-557.471	31.369	-0.054	0.047
-556.456	-11.407	-0.253	0.167
-555.442	185.227	0.217	-0.323
-554.427	222.726	-0.024	-0.039
-553.412	-44.187	0.414	0.208
-552.398	800.000	-0.043	0.180
-551.383	208.934	0.185	0.289
-550.369	-98.204	-0.199	0.051
-549.354	237.605	0.093	0.154
-548.339	236.544	0.074	-0.122
-547.325	185.646	-0.092	-0.136
-546.310	-87.911	-0.483	0.145
-545.296	-115.281	0.043	0.008
-544.281	800.000	0.032	0.127
-543.266	15.742	-0.240	0.188
-542.252	124.705	-0.186	0.233
-541.237	145.106	0.029	0.039
-540.223	700.327	-0.118	0.311
-539.208	657.642	0.080	-0.204
-538.193	-92.523	-0.113	-0.032
-537.179	-78.386	0.205	0.070
-536.164	-9.681	0.177	0.118
-535.150	373.678	0.122	0.249
-534.135	41.408	-0.065	0.059
-533.121	-23.183	0.038	0.023
-532.106	-0.968	0.319	0.225
-531.091	122.442	0.248	0.309
-530.077	431.894	0.046	-0.101
-529.062	-132.233	0.053	0.007
-528.048	-200.000	0.002	-0.636
-527.033	78.890	-0.185	-0.197
-526.018	-14.409	0.178	0.115
-525.004	-151.558	-0.251	-0.019
-523.989	756.061	-0.088	0.239
-522.975	-104.786	-0.227	-0.052
-521.960	646.823	0.008	0.021
-520.945	-200.000	0.037	-0.277
-519.931	148.701	-0.129	-0.174
-518.916	800.000	0.138	-0.403
-517.902	48.704	-0.181	0.170
-516.887	206.193	0.346	0.537
-515.872	-176.540	-0.219	-0.006
-514.858	-164.733	0.287	-0.013
-513.843	54.907	-0.229	-0.221
-512.829	141.603	0.149	0.197
-511.814	155.706	0.255	-0.351
-510.799	-164.273	-0.123	0.006
-509.785	-200.000	0.025	0.125
-508.770	800.000	-0.026	0.091
-507.756	419.533	0.066	-0.141
-506.741	-200.000	-0.030	-0.198
-505.726	-200.000	-0.020	-0.248
-504.712	218.974	0.163	-0.260
-503.697	408.893	-0.110	-0.232
-502.683	-169.976	-0.321	0.011
-501.668	-102.810	0.247	-0.059
-500.653	-38.069	-0.300	0.159
-499.639	248.199	0.097	-0.164
-498.624	-77.825	0.220	-0.076
-497.610	800.000	-0.084	-0.312
-496.595	-154.016	-0.283	0.019
-495.581	800.000	0.045	0.147
-494.566	68.576	-0.250	-0.256
-493.551	157.475	0.043	-0.059
-492.537	7.079	-0.166	0.123
-491.522	54.935	-0.132	0.127
-490.508	-94.804	0.081	-0.022
-489.493	-69.240	0.307	-0.118
-488.478	163.307	0.091	-0.128
-487.464	51.597	0.127	-0.121
-486.449	347.758	-0.089	-0.174
-485.435	-95.821	0.092	-0.024
-484.420	800.000	0.083	0.289
-483.405	28.584	0.139	0.117
-482.391	190.334	-0.095	0.142
-481.376	230.490	0.168	-0.274
-480.362	-156.056	-0.179	0.011
-479.347	402.328	0.040	-0.084
-478.332	-200.000	0.020	0.182
-477.318	573.758	-0.143	-0.349
-476.303	378.178	-0.182	0.372
-475.289	800.000	-0.149	0.431
-474.274	-97.535	-0.123	-0.032
-473.259	800.000	0.068	-0.205
-472.245	20.188	0.192	-0.155
-471.230	17.332	0.128	0.102
-470.216	800.000	0.107	0.341
-469.201	-72.583	-0.137	0.050
-468.186	-134.333	0.056	-0.007
-467.172	-9.152	-0.136	0.091
-466.157	-200.000	0.046	0.440
-465.143	734.354	0.174	-0.464
-464.128	800.000	0.077	0.254
-463.113	2.844	-0.115	0.083
-462.099	-200.000	-0.044	-0.308
-461.084	-86.463	0.296	0.091
-460.070	-200.000	0.020	-0.142
-459.055	231.304	0.178	-0.290
-458.040	-43.664	-0.303	-0.152
-457.026	-30.502	-0.301	-0.170
-456.011	507.314	-0.299	0.690
-454.997	266.147	-0.091	0.157
-453.982	-107.466	-0.157	0.034
-452.968	-102.291	0.163	-0.039
-451.953	-35.789	-0.069	0.037
-450.938	-61.501	0.023	-0.009
-449.924	-200.000	-0.068	-0.384
-448.909	-24.624	-0.284	0.168
-447.895	262.758	-0.044	0.076
-446.880	800.000	0.041	-0.114
-445.865	-25.327	0.103	0.060
-444.851	370.862	0.045	-0.090
-443.836	-81.850	0.083	-0.027
-442.822	-200.000	0.068	0.383
-441.807	139.921	0.253	0.332
-440.792	72.982	0.064	-0.067
-439.778	-42.908	0.149	-0.075
-438.763	-30.503	0.219	0.123
-437.749	-169.373	-0.179	-0.007
-436.734	-101.715	-0.307	0.074
-435.719	-200.000	-0.022	-0.162
-434.705	-200.000	-0.022	-0.226
-433.690	-39.351	0.385	0.201
-432.676	469.938	0.089	-0.198
-431.661	-200.000	-0.011	-0.055
-430.646	-200.000	0.036	0.162
-429.632	49.997	-0.144	0.135
-428.617	-106.674	-0.120	0.026
-427.603	105.644	0.143	-0.168
-426.588	499.998	0.120	-0.276
-425.573	-4.244	-0.101	-0.070
-424.559	12.143	-0.108	0.083
-423.544	-77.138	0.105	0.036
-422.530	800.000	-0.045	0.151
-421.515	800.000	0.135	-0.392
-420.500	-32.300	0.241	0.134
-419.486	-58.840	0.078	0.033
-418.471	9.494	0.248	-0.186
-417.457	183.180	0.073	0.107
-416.442	800.000	-0.019	0.072
-415.428	-200.000	-0.005	-0.044
-414.413	456.948	0.046	-0.102
-413.398	17.245	-0.045	-0.035
-412.384	-3.904	-0.267	0.184
-411.369	-20.562	0.305	-0.186
-410.355	-53.461	0.196	0.089
-409.340	-70.653	-0.074	-0.028
-408.325	662.005	-0.077	-0.196
-407.311	-200.000	0.065	-0.453
-406.296	-84.728	-0.271	-0.085
-405.282	-180.479	-0.224	0.005
-404.267	-1.220	0.421	0.296
-403.252	-200.000	0.004	-0.158
-402.238	-120.858	-0.270	-0.045
-401.223	-102.539	-0.307	0.073
-400.209	71.844	0.230	-0.237
-399.194	-84.263	-0.377	-0.119
-398.179	336.679	0.116	0.224
-397.165	103.960	-0.107	-0.125
-396.150	-91.051	-0.135	0.039
-395.136	-200.000	0.002	0.112
-394.121	-182.085	0.261	-0.005
-393.106	-78.499	0.261	-0.089
-392.092	-18.225	-0.283	-0.176
-391.077	800.000	0.121	0.420
-390.063	-12.259	-0.063	-0.041
-389.048	343.959	0.053	-0.103
-388.033	-61.540	-0.198	-0.083
-387.019	-200.000	-0.018	0.215
-386.004	-200.000	-0.065	-0.418
-384.990	-200.000	-0.049	-0.270
-383.975	-38.219	0.331	-0.174
-382.960	424.278	0.197	0.420
-381.946	527.353	0.037	0.088
-380.931	153.524	-0.201	-0.273
-379.917	-114.046	-0.227	-0.044
-378.902	-200.000	-0.050	0.474
-377.888	-54.940	0.033	0.015
-376.873	-177.888	-0.249	-0.006
-375.858	-200.000	0.119	0.584
-374.844	268.935	-0.164	0.285
-373.829	36.814	-0.178	0.156
-372.815	3.955	0.136	0.099
-371.800	90.209	0.053	-0.059
-370.785	-57.530	-0.234	0.102
-369.771	800.000	0.070	0.265
-368.756	-102.572	-0.216	-0.051
-367.742	78.418	0.209	0.222
-366.727	-200.000	0.001	-0.106
-365.712	177.924	0.062	-0.090
-364.698	47.309	-0.103	-0.095
-363.683	425.677	-0.112	-0.240
-362.669	41.856	0.104	-0.094
-361.654	255.417	0.119	-0.203
-360.639	-6.371	0.103	0.069
-359.625	142.628	0.307	-0.404
-358.610	-64.324	0.142	-0.057
-357.596	332.620	0.066	0.126
-356.581	43.793	-0.163	-0.148
-355.566	800.000	0.033	0.103
-354.552	-200.000	-0.005	-0.049
-353.537	-99.944	-0.106	0.026
-352.523	-7.678	-0.265	0.177
-351.508	-135.217	0.170	-0.020
-350.493	-200.000	-0.002	-0.220
-349.479	-95.992	-0.206	-0.054
-348.464	800.000	0.047	0.203
-347.450	800.000	-0.016	0.045
-346.435	-6.116	-0.235	0.159
-345.420	800.000	0.047	-0.152
-344.406	9.923	-0.256	-0.192
-343.391	414.080	-0.094	0.199
-342.377	-200.000	0.027	-0.201
-341.362	60.301	-0.264	-0.259
-340.348	-84.879	0.274	0.085
-339.333	-106.414	0.397	-0.088
-338.318	-116.550	-0.144	-0.026
-337.304	24.606	0.295	-0.242
-336.289	-200.000	0.044	0.455
-335.275	-7.600	0.246	-0.165
-334.260	800.000	0.082	-0.227
-333.245	-57.730	0.158	0.068
-332.231	-52.360	0.308	0.141
-331.216	83.324	-0.229	0.247
-330.202	-14.072	0.209	-0.134
-329.187	-170.269	0.107	0.004
-328.172	277.797	0.157	0.277
-327.158	150.348	-0.105	-0.141
-326.143	98.552	-0.135	-0.154
-325.129	-77.498	0.154	-0.053
-324.114	-200.000	-0.044	0.420
-323.099	14.781	0.057	-0.044
-322.085	-68.236	-0.234	0.090
-321.070	800.000	-0.107	-0.355
-320.056	80.072	-0.177	-0.188
-319.041	67.936	0.073	0.074
-318.026	107.661	-0.016	-0.019
-317.012	-54.341	0.168	-0.076
-315.997	-200.000	-0.013	-0.257
-314.983	52.732	-0.134	-0.127
-313.968	296.517	0.097	0.177
-312.953	800.000	-0.047	-0.167
-311.939	-200.000	-0.001	0.126
-310.924	-96.270	-0.256	-0.067
-309.910	-64.215	-0.079	-0.032
-308.895	-43.629	-0.202	0.101
-307.880	-112.719	0.264	-0.052
-306.866	-170.164	-0.220	-0.008
-305.851	26.908	0.030	0.025
-304.837	275.982	0.019	-0.033
-303.822	3.432	0.198	-0.143
-302.807	-150.668	0.335	0.025
-301.793	800.000	-0.013	0.037
-300.778	-200.000	-0.014	0.287
-299.764	-49.447	0.254	-0.120
-298.749	342.526	-0.081	-0.157
-297.735	-136.804	-0.274	0.031
-296.720	-200.000	0.030	0.239
-295.705	800.000	0.080	0.268
-294.691	155.572	-0.070	0.095
-293.676	-66.531	0.082	0.032
-292.662	294.321	-0.082	0.148
-291.647	-55.015	-0.116	-0.052
-290.632	-200.000	0.048	0.326
-289.618	62.492	0.016	0.016
-288.603	-41.069	0.273	-0.140
-287.589	583.192	0.043	0.104
-286.574	133.775	0.176	0.225
-285.559	-200.000	-0.016	-0.122
-284.545	-9.849	0.393	0.259
-283.530	-157.276	0.499	0.030
-282.516	50.597	0.067	-0.062
-281.501	-14.484	0.059	-0.037
-280.486	-68.758	-0.107	0.041
-279.472	-124.903	-0.146	0.022
-278.457	215.033	0.180	-0.283
-277.443	-200.000	0.016	-0.132
-276.428	-200.000	0.060	-0.296
-275.413	-200.000	-0.006	-0.151
-274.399	-23.444	-0.226	0.134
-273.384	800.000	-0.096	0.301
-272.370	-200.000	0.023	-0.215
-271.355	-98.337	-0.076	-0.019
-270.340	699.502	0.187	0.486
-269.326	-9.965	-0.372	-0.244
-268.311	-200.000	0.034	0.504
-267.297	-55.133	0.312	-0.139
-266.282	-48.484	0.119	-0.057
-265.267	302.847	0.137	-0.250
-264.253	-1.917	0.216	-0.150
-263.238	340.245	-0.087	0.168
-262.224	45.518	-0.194	0.177
-261.209	315.875	-0.026	-0.048
-260.195	-200.000	0.025	-0.353
-259.180	-200.000	-0.037	-0.176
-258.165	89.892	0.102	0.113
-257.151	484.741	-0.158	0.356
-256.136	59.134	0.228	0.222
-255.122	-200.000	0.040	0.195
-254.107	-11.960	-0.080	-0.052
-253.092	-200.000	0.009	-0.144
-252.078	-200.000	0.015	-0.100
-251.063	79.209	-0.248	0.262
-250.049	-16.186	0.274	-0.172
-249.034	167.421	0.098	-0.137
-248.019	800.000	-0.058	-0.162
-247.005	800.000	-0.040	-0.127
-245.990	-200.000	-0.046	0.232
-244.976	-63.240	-0.258	0.105
-243.961	-200.000	-0.006	-0.314
-242.946	-132.822	0.153	0.019
-241.932	-139.113	0.153	0.016
-240.917	-88.780	-0.186	-0.055
-239.903	26.332	0.079	-0.065
-238.888	-200.000	-0.017	0.086
-237.873	10.639	0.126	-0.094
-236.859	800.000	-0.031	-0.129
-235.844	20.584	0.306	0.244
-234.830	27.833	-0.074	0.061
-233.815	195.883	-0.124	0.187
-232.800	-200.000	-0.003	0.145
-231.786	102.650	-0.044	0.051
-230.771	-31.481	-0.144	-0.080
-229.757	25.229	-0.159	0.130
-228.742	-191.069	-0.202	-0.002
-227.727	6.625	0.307	-0.225
-226.713	359.109	0.079	0.155
-225.698	-168.775	-0.156	0.006
-224.684	270.974	0.201	0.349
-223.669	-82.628	-0.510	0.163
-222.655	-89.003	0.207	0.060
-221.640	-65.064	-0.202	-0.080
-220.625	227.982	0.069	0.111
-219.611	-136.223	-0.353	0.041
-218.596	92.093	0.112	-0.124
-217.582	-108.837	-0.299	-0.063
-216.567	103.646	-0.084	-0.097
-215.552	-19.147	-0.147	-0.090
-214.538	-134.391	0.172	0.021
-213.523	-166.840	-0.187	0.008
-212.509	-200.000	-0.012	-0.292
-211.494	57.965	0.140	0.136
-210.479	-43.439	0.300	0.149
-209.465	44.114	-0.258	-0.234
-208.450	305.151	0.241	-0.442
-207.436	-59.741	0.368	0.155
-206.421	79.673	-0.070	0.074
-205.406	62.502	-0.041	0.041
-204.392	-58.995	0.109	0.047
-203.377	39.011	-0.212	0.186
-202.363	-200.000	0.009	-0.101
-201.348	-157.716	0.174	-0.010
-200.333	800.000	-0.094	-0.273
-199.319	-200.000	-0.006	-0.308
-198.304	61.013	0.050	0.049
-197.290	0.268	-0.135	0.095
-196.275	800.000	0.058	-0.176
-195.260	352.507	0.091	0.178
-194.246	518.846	0.064	0.149
-193.231	23.302	0.252	-0.204
-192.217	282.222	-0.112	-0.198
-191.202	-200.000	-0.063	0.278
-190.187	-200.000	0.003	0.187
-189.173	-200.000	-0.034	0.193
-188.158	-3.756	-0.436	0.298
-187.144	-117.192	0.066	-0.012
-186.129	198.250	0.233	-0.351
-185.114	-200.000	0.007	0.436
-184.100	-40.583	0.160	0.082
-183.085	75.923	0.129	-0.134
-182.071	-133.934	-0.186	0.023
-181.056	-32.800	-0.106	0.058
-180.042	-200.000	0.043	-0.406
-179.027	357.226	-0.189	-0.372
-178.012	-76.836	-0.329	0.113
-176.998	175.159	0.076	-0.109
-175.983	185.002	-0.198	-0.289
-174.969	-169.085	0.158	-0.006
-173.954	-81.969	-0.199	-0.064
-172.939	-98.863	0.226	0.056
-171.925	-6.586	0.177	-0.118
-170.910	800.000	-0.028	0.091
-169.896	737.907	0.084	-0.223
-168.881	-200.000	-0.004	-0.113
-167.866	800.000	-0.090	-0.250
-166.852	144.833	-0.131	0.172
-165.837	523.891	0.100	0.231
-164.823	-200.000	-0.026	0.283
-163.808	-166.383	0.360	0.015
-162.793	56.172	-0.132	0.126
-161.779	-200.000	-0.026	0.337
-160.764	13.618	-0.187	-0.143
-159.750	-141.115	0.368	0.037
-158.735	800.000	-0.054	0.205
-157.720	-200.000	0.003	-0.069
-156.706	634.240	-0.027	-0.068
-155.691	800.000	-0.027	0.086
-154.677	106.812	0.240	-0.280
-153.662	4.716	-0.323	-0.234
-152.647	411.433	-0.061	-0.128
-151.633	-200.000	-0.005	0.100
-150.618	-182.163	-0.194	0.004
-149.604	-90.326	-0.197	-0.056
-148.589	56.625	-0.234	-0.224
-147.574	800.000	-0.106	-0.322
-146.560	-55.753	0.248	0.109
-145.545	563.465	-0.094	-0.225
-144.531	-94.628	-0.098	-0.026
-143.516	14.452	0.106	0.082
-142.502	6.512	-0.175	-0.128
-141.487	-200.000	-0.045	-0.308
-140.472	122.822	-0.129	-0.158
-139.458	-91.736	0.139	-0.039
-138.443	77.691	-0.134	-0.140
-137.429	-81.068	0.449	0.146
-136.414	-59.083	-0.318	0.135
-135.399	-102.969	-0.156	-0.036
-134.385	248.281	0.169	0.281
-133.370	-34.770	-0.116	-0.062
-132.356	-77.171	0.231	0.079
-131.341	486.340	-0.087	0.194
-130.326	800.000	-0.015	0.055
-129.312	-200.000	-0.005	-0.304
-128.297	-200.000	-0.029	0.287
-127.283	42.190	0.120	-0.107
-126.268	258.032	0.095	0.160
-125.253	-200.000	0.005	-0.026
-124.239	196.837	-0.150	0.225
-123.224	-25.754	0.271	0.157
-122.210	-200.000	0.024	-0.114
-121.195	6.359	0.257	0.188
