DTS Sentinel unit serial number:	SN413079Multiplexer serial number:	ORYXHardware model number:	OX4-SRSoftware version number:	ORYX F/W v4.00 Oryx Data Collector v3.7.2.0data status	okinstallation	princeton_trtdifferential loss correction	single-endedforward channel	channel 1reverse channel	N/Adate	2019/09/17time	19:38:35forward acquisition time	60.00reverse acquisition time	0.00gamma	496.2192k internal	0.2314k external	0.2314temperature offset calibration	0.9973default loss term (dB/km)	0.3790temperature slope calibration	1.0000multiplexer offset coefficient	1.0000multiplexer slope coefficient	1.0000fibre end	0.00T internal ref (°C)	35.66T ext. ref 1 (°C)	0.25T ext. ref 2 (°C)	24.53length (m)	temperature (°C)	Stokes	anti-Stokes-747.200	-3.208	0.299	-0.211
-746.185	661.594	-0.187	0.488
-745.171	-84.239	-0.102	-0.033
-744.156	-35.250	0.406	0.224
-743.142	185.598	-0.066	0.099
-742.127	72.970	0.249	0.264
-741.112	-200.000	0.036	-0.187
-740.098	-200.000	0.041	0.358
-739.083	-151.867	-0.125	0.009
-738.069	-120.890	-0.202	0.035
-737.054	800.000	0.045	-0.156
-736.039	180.346	-0.068	-0.101
-735.025	14.864	-0.147	0.116
-734.010	-37.097	-0.286	-0.155
-732.996	-14.578	-0.139	-0.091
-731.981	800.000	0.103	-0.346
-730.966	157.933	-0.103	-0.145
-729.952	266.134	-0.099	-0.174
-728.937	128.799	-0.086	-0.111
-727.923	-186.070	-0.234	0.003
-726.908	128.230	-0.125	-0.161
-725.894	17.514	-0.070	-0.056
-724.879	-42.474	0.159	-0.082
-723.864	800.000	-0.039	-0.162
-722.850	9.610	-0.089	0.068
-721.835	800.000	0.015	-0.059
-720.821	800.000	-0.116	0.338
-719.806	572.652	-0.107	0.264
-718.791	227.726	-0.022	-0.035
-717.777	223.615	-0.051	0.084
-716.762	315.817	-0.130	0.249
-715.748	-35.976	-0.271	-0.148
-714.733	-157.544	-0.163	-0.010
-713.718	110.118	0.134	0.163
-712.704	-200.000	-0.002	0.148
-711.689	-22.962	0.302	0.184
-710.675	85.689	-0.131	-0.146
-709.660	800.000	0.008	-0.028
-708.645	405.548	-0.071	-0.153
-707.631	-15.727	0.155	0.100
-706.616	-200.000	0.022	-0.212
-705.602	-200.000	0.010	0.188
-704.587	155.201	-0.202	-0.282
-703.572	-90.467	-0.313	-0.092
-702.558	-4.140	0.138	-0.097
-701.543	387.875	0.099	-0.208
-700.529	282.244	0.031	0.057
-699.514	32.437	-0.209	-0.182
-698.499	-200.000	0.021	-0.214
-697.485	212.989	-0.059	-0.095
-696.470	-200.000	0.014	0.191
-695.456	-139.226	0.221	-0.024
-694.441	800.000	0.026	-0.093
-693.426	73.950	0.036	0.038
-692.412	-200.000	0.011	0.124
-691.397	-117.366	-0.223	0.041
-690.383	55.123	-0.116	0.113
-689.368	182.093	0.028	-0.041
-688.354	-39.098	-0.318	0.169
-687.339	-61.992	0.065	-0.027
-686.324	379.251	-0.100	-0.207
-685.310	-200.000	0.002	-0.131
-684.295	-108.831	-0.205	-0.044
-683.281	90.718	0.134	-0.152
-682.266	800.000	-0.074	-0.316
-681.251	201.900	-0.045	0.070
-680.237	800.000	0.107	0.398
-679.222	2.154	-0.153	-0.112
-678.208	-141.120	-0.428	0.044
-677.193	-200.000	-0.029	-0.166
-676.178	28.505	-0.035	-0.030
-675.164	800.000	0.082	-0.343
-674.149	543.046	-0.191	-0.460
-673.135	134.526	-0.053	0.069
-672.120	0.120	0.103	-0.075
-671.105	-159.114	-0.329	-0.019
-670.091	-111.492	-0.164	-0.034
-669.076	10.463	-0.106	0.081
-668.062	-65.835	-0.438	0.177
-667.047	800.000	0.058	-0.213
-666.032	40.695	-0.249	-0.227
-665.018	-112.867	-0.017	-0.003
-664.003	-135.159	-0.523	-0.064
-662.989	-200.000	0.008	0.057
-661.974	-154.203	0.595	-0.041
-660.959	604.444	0.133	0.334
-659.945	154.899	0.218	-0.303
-658.930	-200.000	0.001	0.147
-657.916	241.665	0.201	0.340
-656.901	-13.361	-0.235	0.154
-655.886	-200.000	-0.009	-0.080
-654.872	800.000	-0.067	0.220
-653.857	78.670	-0.411	0.444
-652.843	167.745	0.170	0.244
-651.828	-19.849	-0.149	-0.093
-650.814	-200.000	-0.020	-0.094
-649.799	800.000	-0.081	0.300
-648.784	-140.996	0.453	-0.047
-647.770	-16.489	-0.201	0.129
-646.755	800.000	0.018	-0.053
-645.741	-36.186	-0.011	0.006
-644.726	-84.277	0.095	0.031
-643.711	-48.359	-0.191	-0.093
-642.697	-200.000	-0.043	-0.246
-641.682	800.000	-0.124	0.351
-640.668	276.068	0.064	0.115
-639.653	86.000	0.099	0.110
-638.638	800.000	0.018	-0.079
-637.624	-200.000	-0.011	0.259
-636.609	-200.000	0.001	0.212
-635.595	329.518	-0.195	-0.379
-634.580	-125.510	0.268	0.041
-633.565	-121.808	0.513	0.085
-632.551	-200.000	0.001	-0.074
-631.536	-17.563	-0.101	-0.064
-630.522	800.000	0.067	0.244
-629.507	-200.000	-0.005	0.072
-628.492	218.595	-0.093	-0.150
-627.478	174.426	-0.260	-0.379
-626.463	200.886	0.056	0.087
-625.449	-200.000	0.030	0.375
-624.434	-200.000	-0.077	0.349
-623.419	-200.000	-0.018	0.085
-622.405	-68.972	-0.177	-0.069
-621.390	602.658	0.111	-0.279
-620.376	202.542	-0.067	-0.104
-619.361	-66.342	-0.099	0.040
-618.346	-104.862	0.066	-0.015
-617.332	67.906	-0.168	-0.174
-616.317	-200.000	0.010	0.176
-615.303	800.000	-0.061	0.244
-614.288	-86.719	-0.254	-0.078
-613.273	-24.932	-0.225	0.135
-612.259	800.000	0.048	0.142
-611.244	-118.150	0.242	-0.043
-610.230	-200.000	0.032	-0.288
-609.215	-68.598	0.180	-0.070
-608.201	-200.000	-0.004	-0.018
-607.186	5.666	0.131	-0.098
-606.171	-187.530	-0.326	-0.004
-605.157	504.155	0.018	-0.043
-604.142	-200.000	0.024	0.171
-603.128	77.965	0.146	-0.157
-602.113	-17.749	0.095	-0.060
-601.098	-200.000	-0.022	-0.288
-600.084	-48.353	0.165	0.080
-599.069	800.000	-0.042	0.123
-598.055	-62.331	0.251	-0.105
-597.040	29.625	-0.157	0.135
-596.025	390.388	-0.055	0.115
-595.011	26.125	0.317	0.267
-593.996	68.293	-0.312	-0.323
-592.982	30.322	-0.175	0.151
-591.967	-200.000	0.015	-0.204
-590.952	-130.170	-0.235	0.032
-589.938	442.320	-0.156	0.345
-588.923	800.000	0.107	-0.313
-587.909	-43.005	-0.392	-0.200
-586.894	-111.004	0.052	-0.011
-585.879	-112.154	-0.232	0.047
-584.865	-170.336	-0.211	0.007
-583.850	320.350	0.114	-0.218
-582.836	-77.175	-0.263	0.092
-581.821	416.389	-0.211	0.453
-580.806	161.317	-0.271	-0.382
-579.792	75.279	0.090	0.096
-578.777	-29.961	0.238	0.136
-577.763	-200.000	-0.042	0.279
-576.748	443.169	-0.096	0.211
-575.733	149.465	0.101	-0.138
-574.719	-62.410	-0.100	-0.042
-573.704	-146.856	0.289	-0.025
-572.690	-157.488	-0.129	0.008
-571.675	800.000	-0.053	-0.186
-570.661	74.937	-0.081	-0.086
-569.646	-131.582	0.270	0.036
-568.631	-142.738	0.169	-0.017
-567.617	-73.241	0.348	-0.128
-566.602	-136.462	-0.120	0.014
-565.588	-30.078	0.035	0.020
-564.573	800.000	0.063	0.237
-563.558	-14.003	-0.176	0.114
-562.544	-200.000	0.010	0.048
-561.529	-22.339	0.109	-0.066
-560.515	7.191	-0.373	-0.280
-559.500	511.892	0.036	-0.085
-558.485	800.000	0.078	0.267
-557.471	-118.208	-0.109	0.020
-556.456	-93.187	0.384	0.107
-555.442	-107.413	0.128	0.028
-554.427	596.481	0.076	-0.190
-553.412	-85.687	0.014	0.005
-552.398	-19.233	-0.308	0.192
-551.383	-45.598	-0.162	-0.080
-550.369	204.903	0.108	-0.168
-549.354	-200.000	0.056	-0.423
-548.339	-200.000	-0.004	-0.025
-547.325	450.914	0.068	-0.151
-546.310	98.703	-0.048	0.055
-545.296	-200.000	-0.020	0.127
-544.281	-105.389	-0.245	0.056
-543.266	273.013	-0.144	0.257
-542.252	458.579	-0.198	-0.442
-541.237	10.839	-0.164	-0.126
-540.223	349.207	-0.014	0.027
-539.208	-175.742	-0.316	0.009
-538.193	800.000	0.059	-0.226
-537.179	-200.000	0.005	0.181
-536.164	-97.019	-0.172	0.045
-535.150	424.888	-0.092	0.199
-534.135	131.060	-0.046	0.059
-533.121	9.926	0.228	0.174
-532.106	109.614	0.202	0.244
-531.091	800.000	-0.164	0.481
-530.077	-200.000	0.047	0.403
-529.062	-78.923	-0.239	0.082
-528.048	177.775	-0.161	0.236
-527.033	-52.232	0.167	0.078
-526.018	-22.604	0.159	0.097
-525.004	145.860	0.039	0.053
-523.989	40.378	-0.249	-0.226
-522.975	-167.079	0.321	0.013
-521.960	-111.683	-0.126	0.026
-520.945	-150.797	0.468	0.036
-519.931	-45.234	-0.179	0.089
-518.916	621.512	-0.057	-0.145
-517.902	11.648	-0.149	0.115
-516.887	-22.659	0.304	-0.184
-515.872	-15.511	-0.326	-0.209
-514.858	-88.537	0.200	-0.060
-513.843	-79.412	-0.100	0.034
-512.829	800.000	-0.042	0.152
-511.814	11.425	0.255	-0.196
-510.799	586.002	0.109	-0.270
-509.785	10.978	0.246	0.189
-508.770	146.789	-0.053	-0.071
-507.756	-165.423	-0.268	0.012
-506.741	-200.000	-0.022	0.207
-505.726	-81.202	-0.180	-0.060
-504.712	-200.000	0.025	0.156
-503.697	-200.000	0.013	0.110
-502.683	601.273	0.079	-0.196
-501.668	-144.679	0.049	0.005
-500.653	739.938	-0.090	-0.243
-499.639	14.274	0.177	0.138
-498.624	800.000	-0.029	-0.090
-497.610	-141.011	0.205	0.021
-496.595	19.584	-0.299	0.241
-495.581	-130.413	-0.128	0.017
-494.566	-127.350	-0.136	0.020
-493.551	800.000	-0.026	0.082
-492.537	240.475	0.012	-0.020
-491.522	161.316	0.139	0.195
-490.508	-81.441	0.311	0.103
-489.493	-112.312	0.155	0.031
-488.478	800.000	0.042	-0.123
-487.464	-135.770	0.277	-0.033
-486.449	-61.916	0.211	0.089
-485.435	-75.207	-0.016	-0.006
-484.420	242.480	0.122	-0.205
-483.405	165.030	-0.197	-0.280
-482.391	-75.100	-0.283	0.102
-481.376	-200.000	-0.024	-0.175
-480.362	103.457	-0.221	0.261
-479.347	-200.000	-0.008	0.125
-478.332	2.924	-0.147	-0.107
-477.318	800.000	-0.104	-0.316
-476.303	271.330	0.082	-0.145
-475.289	-200.000	-0.006	0.444
-474.274	-164.545	-0.308	0.014
-473.259	800.000	0.030	0.109
-472.245	-200.000	0.010	-0.138
-471.230	-132.243	-0.299	-0.039
-470.216	150.026	0.056	-0.076
-469.201	15.416	-0.055	0.043
-468.186	85.539	-0.139	-0.153
-467.172	-35.289	-0.024	-0.013
-466.157	-27.228	0.122	0.071
-465.143	82.839	0.061	0.067
-464.128	401.192	0.025	0.052
-463.113	-200.000	-0.023	0.101
-462.099	32.044	-0.048	-0.042
-461.084	-133.217	-0.377	0.048
-460.070	-200.000	0.068	-0.498
-459.055	-111.609	0.467	0.095
-458.040	-117.276	0.040	-0.007
-457.026	-28.116	-0.351	-0.203
-456.011	17.454	0.093	-0.074
-454.997	800.000	0.050	0.152
-453.982	-102.666	0.311	-0.074
-452.968	737.959	0.149	-0.401
-451.953	-31.259	-0.114	-0.064
-450.938	-28.999	0.142	0.081
-449.924	-74.471	-0.037	0.013
-448.909	-200.000	0.002	-0.194
-447.895	-51.465	0.139	-0.065
-446.880	-122.837	0.171	-0.028
-445.865	-116.690	0.277	0.051
-444.851	800.000	0.108	0.324
-443.836	-200.000	-0.021	0.139
-442.822	-82.001	-0.247	0.081
-441.807	-14.834	-0.119	-0.077
-440.792	104.355	0.112	0.132
-439.778	-34.541	-0.082	0.045
-438.763	-159.552	0.118	0.007
-437.749	89.165	0.237	0.265
-436.734	-29.373	-0.148	-0.085
-435.719	800.000	-0.032	0.098
-434.705	800.000	-0.065	-0.233
-433.690	-99.117	0.397	0.101
-432.676	-200.000	-0.010	-0.329
-431.661	215.236	-0.242	-0.384
-430.646	-200.000	0.049	-0.403
-429.632	-7.269	0.080	0.054
-428.617	-124.104	-0.312	-0.049
-427.603	-26.602	0.208	0.122
-426.588	245.875	-0.128	-0.216
-425.573	21.364	0.261	0.212
-424.559	-200.000	-0.046	0.268
-423.544	-31.344	-0.171	0.097
-422.530	-200.000	-0.017	-0.314
-421.515	-62.780	-0.221	0.091
-420.500	107.740	-0.110	-0.131
-419.486	112.214	-0.212	0.257
-418.471	110.395	-0.097	0.117
-417.457	5.548	-0.148	-0.109
-416.442	15.346	0.080	0.063
-415.428	-83.223	-0.379	-0.122
-414.413	174.800	0.306	-0.443
-413.398	-17.701	-0.126	0.079
-412.384	359.912	0.165	-0.330
-411.369	-200.000	0.014	-0.323
-410.355	800.000	0.042	0.158
-409.340	157.909	0.080	0.111
-408.325	86.062	0.298	0.328
-407.311	81.928	0.106	-0.115
-406.296	800.000	-0.028	-0.103
-405.282	17.998	-0.490	0.391
-404.267	-200.000	-0.001	0.101
-403.252	-88.171	-0.169	-0.051
-402.238	57.707	0.331	0.324
-401.223	-83.125	-0.193	-0.062
-400.209	-32.509	0.029	-0.016
-399.194	426.029	-0.025	-0.053
-398.179	17.199	0.168	0.133
-397.165	800.000	0.084	0.239
-396.150	-53.379	0.202	-0.093
-395.136	386.351	-0.080	0.164
-394.121	-200.000	0.038	-0.182
-393.106	-200.000	0.018	0.250
-392.092	424.013	0.080	0.173
-391.077	172.380	0.077	-0.110
-390.063	-46.830	-0.139	-0.068
-389.048	800.000	0.057	0.205
-388.033	33.994	-0.324	-0.282
-387.019	-140.261	-0.218	0.023
-386.004	78.150	0.250	0.267
-384.990	-84.208	-0.291	0.092
-383.975	800.000	-0.016	-0.044
-382.960	-173.751	0.237	0.007
-381.946	-200.000	-0.094	0.494
-380.931	800.000	-0.058	-0.245
-379.917	-7.666	0.313	-0.211
-378.902	-69.438	0.070	0.027
-377.888	-200.000	-0.020	-0.176
-376.873	-28.848	-0.144	-0.083
-375.858	-61.809	0.375	-0.157
-374.844	47.915	0.107	0.100
-373.829	188.893	0.167	0.250
-372.815	-9.981	0.242	0.161
-371.800	249.473	0.010	-0.016
-370.785	-22.767	-0.147	0.089
-369.771	-200.000	-0.252	0.001
-368.756	215.655	0.293	-0.465
-367.742	-60.163	0.263	-0.112
-366.727	-51.441	0.247	-0.115
-365.712	38.516	0.229	0.204
-364.698	-88.623	-0.202	0.060
-363.683	-7.435	-0.137	-0.093
-362.669	671.923	0.051	-0.131
-361.654	349.356	-0.054	0.107
-360.639	-125.518	-0.026	0.004
-359.625	-200.000	0.019	-0.113
-358.610	800.000	-0.025	-0.097
-357.596	-200.000	0.003	-0.104
-356.581	355.441	0.107	0.213
-355.566	-136.147	0.308	-0.036
-354.552	599.924	0.023	0.057
-353.537	297.685	-0.114	0.209
-352.523	-102.162	-0.376	0.090
-351.508	-130.293	-0.430	0.058
-350.493	-112.499	0.166	0.033
-349.479	-73.367	0.215	-0.078
-348.464	550.155	0.109	-0.260
-347.450	-36.451	-0.051	0.028
-346.435	-145.280	0.353	0.032
-345.420	-55.041	-0.333	-0.150
-344.406	-69.531	0.093	-0.036
-343.391	36.158	0.188	0.165
-342.377	137.738	0.205	-0.268
-341.362	-200.000	0.053	-0.403
-340.348	353.389	0.140	-0.277
-339.333	170.051	0.052	-0.074
-338.318	-106.284	0.184	-0.041
-337.304	-24.521	0.230	0.137
-336.289	-60.182	0.039	-0.017
-335.275	-200.000	-0.047	0.227
-334.260	22.208	-0.209	0.170
-333.245	35.083	0.172	0.150
-332.231	800.000	-0.085	-0.274
-331.216	-54.615	0.167	0.075
-330.202	-76.573	0.324	-0.114
-329.187	251.933	-0.182	0.308
-328.172	-14.156	-0.202	0.130
-327.158	800.000	0.043	0.148
-326.143	54.305	-0.361	0.347
-325.129	41.613	-0.093	0.084
-324.114	258.795	-0.095	0.163
-323.099	-157.780	-0.222	0.013
-322.085	42.326	0.043	-0.039
-321.070	173.059	-0.088	-0.127
-320.056	-150.185	0.214	0.017
-319.041	-106.072	0.319	-0.072
-318.026	350.747	-0.034	0.067
-317.012	157.723	0.093	0.129
-315.997	268.464	0.084	0.147
-314.983	800.000	-0.011	-0.048
-313.968	165.378	-0.046	0.065
-312.953	217.091	0.010	0.017
-311.939	-62.734	-0.149	0.062
-310.924	-200.000	-0.009	0.048
-309.910	63.177	0.118	0.118
-308.895	-14.542	0.239	-0.153
-307.880	181.008	-0.183	-0.269
-306.866	118.307	0.152	0.187
-305.851	-90.751	-0.368	0.106
-304.837	-80.071	0.357	-0.119
-303.822	-200.000	0.099	0.000
-302.807	76.265	0.139	-0.147
-301.793	-89.026	0.173	0.051
-300.778	800.000	0.058	-0.173
-299.764	70.293	0.274	-0.282
-298.749	-116.194	0.322	0.059
-297.735	-107.902	0.255	-0.055
-296.720	205.372	0.177	-0.274
-295.705	-5.351	-0.151	-0.104
-294.691	-35.840	0.253	0.136
-293.676	65.533	-0.127	-0.128
-292.662	30.241	0.094	0.080
-291.647	-93.502	0.159	0.044
-290.632	-25.493	0.156	-0.092
-289.618	-66.026	-0.314	-0.125
-288.603	240.087	0.159	-0.263
-287.589	-116.324	0.038	0.007
-286.574	800.000	-0.066	-0.268
-285.559	-200.000	-0.043	-0.266
-284.545	-81.939	-0.165	0.054
-283.530	-147.993	0.333	-0.028
-282.516	87.751	-0.025	0.028
-281.501	-200.000	-0.048	0.343
-280.486	24.498	-0.296	-0.244
-279.472	-7.563	-0.095	-0.064
-278.457	-200.000	0.036	-0.362
-277.443	-1.379	0.150	-0.105
-276.428	227.680	0.145	0.234
-275.413	126.129	-0.096	-0.121
-274.399	-172.164	0.226	-0.007
-273.384	-163.665	0.233	-0.011
-272.370	-60.693	-0.064	0.027
-271.355	152.464	0.078	-0.106
-270.340	-118.878	-0.247	0.043
-269.326	-11.046	-0.280	-0.184
-268.311	375.447	-0.145	-0.295
-267.297	104.316	0.195	-0.228
-266.282	146.423	0.102	0.137
-265.267	757.005	-0.055	-0.148
-264.253	-118.389	-0.163	-0.029
-263.238	-2.734	0.202	0.140
-262.224	377.503	0.132	-0.269
-261.209	-72.609	-0.103	-0.038
-260.195	43.472	-0.281	0.255
-259.180	-142.297	0.314	0.031
-258.165	-127.809	-0.140	0.020
-257.151	800.000	-0.010	-0.033
-256.136	-82.727	0.399	-0.128
-255.122	-200.000	0.032	0.540
-254.107	354.181	0.083	-0.164
-253.092	-200.000	-0.017	0.129
-252.078	28.521	0.181	0.152
-251.063	-151.677	-0.090	-0.007
-250.049	185.622	-0.163	-0.240
-249.034	61.015	-0.157	0.155
-248.019	373.972	-0.067	0.136
-247.005	-200.000	0.000	-0.188
-245.990	-111.422	-0.086	-0.017
-244.976	-200.000	0.029	0.279
-243.961	78.879	0.247	0.263
-242.946	800.000	-0.083	0.257
-241.932	-200.000	-0.000	0.432
-240.917	-200.000	-0.050	-0.379
-239.903	317.878	-0.048	0.090
-238.888	-108.728	-0.088	-0.019
-237.873	-148.821	-0.319	-0.026
-236.859	800.000	0.090	0.333
-235.844	24.294	0.492	0.404
-234.830	470.611	-0.090	0.201
-233.815	-200.000	0.054	-0.251
-232.800	61.027	-0.075	0.074
-231.786	439.338	-0.112	0.243
-230.771	285.711	0.051	0.091
-229.757	100.945	-0.123	0.142
-228.742	-114.654	0.242	0.046
-227.727	-111.915	0.176	-0.035
-226.713	-28.878	-0.231	0.132
-225.698	-146.814	-0.084	-0.007
-224.684	800.000	0.045	0.155
-223.669	-62.905	-0.188	-0.077
-222.655	800.000	-0.005	-0.017
-221.640	-21.750	0.311	-0.188
-220.625	155.195	-0.252	-0.345
-219.611	308.177	0.148	0.274
-218.596	157.792	-0.128	0.176
-217.582	800.000	0.033	0.104
-216.567	104.339	0.064	-0.075
-215.552	36.871	-0.196	-0.172
-214.538	-98.887	-0.353	-0.089
-213.523	0.214	0.050	-0.035
-212.509	-32.333	-0.064	-0.035
-211.494	-143.447	0.166	-0.016
-210.479	-200.000	0.031	0.158
-209.465	-49.606	0.086	-0.041
-208.450	445.304	0.139	0.303
-207.436	-200.000	-0.048	0.366
-206.421	-200.000	0.014	-0.201
-205.406	800.000	0.053	-0.179
-204.392	-82.197	-0.054	-0.018
-203.377	351.143	0.161	0.316
-202.363	146.781	0.170	0.227
-201.348	-125.098	-0.343	0.052
-200.333	117.454	0.180	-0.220
-199.319	-200.000	-0.013	0.175
-198.304	488.953	0.036	0.082
-197.290	60.294	-0.374	-0.367
-196.275	800.000	-0.027	0.103
-195.260	-94.520	-0.333	0.090
-194.246	-200.000	-0.009	0.255
-193.231	-98.277	0.150	-0.038
-192.217	-182.208	-0.332	0.006
-191.202	-200.000	0.017	-0.195
-190.187	-200.000	0.002	-0.554
-189.173	-200.000	-0.030	-0.342
-188.158	100.389	-0.205	-0.236
-187.144	-78.257	-0.143	-0.049
-186.129	800.000	-0.075	-0.212
-185.114	315.695	0.090	0.168
-184.100	113.980	-0.147	0.177
-183.085	-23.402	0.300	-0.179
-182.071	15.727	0.235	-0.183
-181.056	6.416	0.172	0.127
-180.042	80.134	0.065	-0.069
-179.027	-105.854	0.233	-0.052
-178.012	-28.520	0.086	0.049
-176.998	37.972	0.005	0.004
-175.983	69.817	0.153	0.157
-174.969	-133.429	-0.387	-0.048
-173.954	313.223	-0.069	0.129
-172.939	-200.000	0.035	-0.294
-171.925	506.198	0.172	0.395
-170.910	800.000	-0.024	-0.069
-169.896	-59.569	0.080	-0.034
-168.881	80.151	-0.148	-0.158
-167.866	800.000	0.097	-0.322
-166.852	800.000	-0.073	0.276
-165.837	-117.998	-0.208	0.037
-164.823	-200.000	-0.044	-0.276
-163.808	-67.718	-0.453	-0.176
-162.793	85.773	-0.192	0.209
-161.779	-200.000	-0.023	-0.344
-160.764	92.051	-0.238	0.266
-159.750	-108.026	-0.170	-0.037
-158.735	99.974	-0.110	-0.126
-157.720	800.000	-0.016	0.051
-156.706	-56.356	-0.239	-0.105
-155.691	-200.000	0.012	0.060
-154.677	-200.000	-0.016	-0.185
-153.662	-200.000	-0.004	-0.155
-152.647	-109.610	-0.131	0.027
-151.633	-200.000	-0.036	-0.226
-150.618	-92.363	-0.246	0.069
-149.604	-200.000	-0.042	0.239
-148.589	-22.575	-0.119	-0.071
-147.574	412.747	-0.195	-0.411
-146.560	110.337	0.148	-0.177
-145.545	-71.405	-0.227	-0.084
-144.531	-200.000	-0.016	0.243
-143.516	18.335	-0.030	0.024
-142.502	-95.338	-0.216	-0.058
-141.487	-129.347	-0.162	0.022
-140.472	27.393	0.103	0.086
-139.458	800.000	-0.030	-0.115
-138.443	-45.487	0.364	0.178
-137.429	-105.719	0.170	-0.038
-136.414	434.923	0.090	0.193
-135.399	-100.615	-0.069	-0.017
-134.385	47.696	-0.189	-0.175
-133.370	91.264	0.007	-0.007
-132.356	-176.925	0.135	-0.003
-131.341	-71.750	-0.194	-0.072
-130.326	-200.000	0.011	-0.287
-129.312	358.529	0.112	-0.222
-128.297	35.146	0.360	-0.312
-127.283	-53.723	-0.132	0.059
-126.268	-200.000	0.025	0.280
-125.253	164.977	-0.061	-0.085
-124.239	180.095	0.326	-0.473
-123.224	-116.416	-0.309	-0.057
-122.210	19.713	-0.137	0.109
