DTS Sentinel unit serial number:	SN413079Multiplexer serial number:	ORYXHardware model number:	OX4-SRSoftware version number:	ORYX F/W v4.00 Oryx Data Collector v3.7.2.0data status	okinstallation	princeton_trtdifferential loss correction	single-endedforward channel	channel 1reverse channel	N/Adate	2019/09/18time	17:42:35forward acquisition time	60.00reverse acquisition time	0.00gamma	496.2192k internal	0.2291k external	0.2291temperature offset calibration	1.0004default loss term (dB/km)	0.3790temperature slope calibration	1.0000multiplexer offset coefficient	1.0000multiplexer slope coefficient	1.0000fibre end	0.00T internal ref (°C)	40.31T ext. ref 1 (°C)	0.90T ext. ref 2 (°C)	35.09length (m)	temperature (°C)	Stokes	anti-Stokes-747.200	116.576	-0.067	0.084
-746.185	-37.379	0.303	0.166
-745.171	-152.715	0.375	-0.027
-744.156	-200.000	-0.001	0.450
-743.142	800.000	0.096	0.385
-742.127	-200.000	-0.038	0.315
-741.112	-14.288	0.248	0.163
-740.098	258.838	0.057	0.101
-739.083	-200.000	0.027	-0.171
-738.069	288.162	-0.172	0.318
-737.054	162.015	0.094	0.135
-736.039	137.178	0.116	0.155
-735.025	800.000	-0.050	-0.145
-734.010	-200.000	-0.006	0.196
-732.996	398.664	0.091	-0.195
-731.981	118.833	0.287	-0.363
-730.966	43.478	-0.198	-0.186
-729.952	-137.735	-0.200	-0.023
-728.937	-41.888	0.188	0.098
-727.923	34.042	-0.167	-0.149
-726.908	-200.000	-0.055	-0.461
-725.894	-169.896	-0.378	0.014
-724.879	94.716	-0.155	-0.180
-723.864	-197.851	0.159	-0.001
-722.850	-180.311	-0.063	-0.001
-721.835	-56.033	-0.135	0.061
-720.821	218.300	-0.101	-0.165
-719.806	800.000	0.069	-0.248
-718.791	-41.631	-0.280	0.147
-717.777	570.322	-0.112	-0.278
-716.762	-200.000	-0.008	0.146
-715.748	138.271	-0.208	0.278
-714.733	-200.000	0.025	0.113
-713.718	-200.000	0.010	-0.491
-712.704	800.000	-0.101	0.314
-711.689	343.232	-0.106	-0.212
-710.675	-200.000	0.007	0.257
-709.660	243.660	-0.112	0.192
-708.645	223.077	0.146	0.240
-707.631	-82.754	0.282	0.093
-706.616	-200.000	-0.009	0.167
-705.602	355.543	-0.203	-0.413
-704.587	-200.000	0.015	-0.154
-703.572	66.934	-0.165	-0.172
-702.558	4.825	0.140	-0.105
-701.543	800.000	-0.028	-0.089
-700.529	22.703	-0.023	-0.019
-699.514	101.374	-0.096	0.115
-698.499	-200.000	0.007	-0.164
-697.485	-200.000	-0.014	-0.133
-696.470	-95.878	-0.138	-0.038
-695.456	54.279	-0.156	-0.154
-694.441	258.806	-0.138	-0.244
-693.426	-79.710	0.089	0.031
-692.412	-42.691	0.087	-0.045
-691.397	-110.627	-0.257	0.054
-690.383	-200.000	0.052	-0.256
-689.368	741.627	0.093	0.256
-688.354	-88.364	-0.221	0.068
-687.339	-106.060	0.190	-0.044
-686.324	267.566	0.153	0.274
-685.310	9.917	-0.129	0.100
-684.295	-39.937	0.180	-0.096
-683.281	220.482	-0.093	0.152
-682.266	-97.208	-0.047	-0.012
-681.251	107.384	0.129	-0.157
-680.237	-6.048	-0.267	0.187
-679.222	332.839	-0.110	0.217
-678.208	159.542	-0.228	-0.324
-677.193	-48.309	-0.141	-0.069
-676.178	18.143	-0.324	0.264
-675.164	800.000	0.022	-0.064
-674.149	-92.367	-0.283	-0.081
-673.135	165.801	-0.093	-0.135
-672.120	800.000	-0.092	0.306
-671.105	-112.178	-0.360	0.074
-670.091	88.014	-0.193	-0.218
-669.076	-65.074	0.114	0.047
-668.062	-200.000	0.051	-0.239
-667.047	800.000	-0.060	0.254
-666.032	-54.157	-0.415	0.192
-665.018	679.182	0.116	-0.307
-664.003	-200.000	-0.014	0.344
-662.989	-15.429	-0.206	-0.134
-661.974	145.153	-0.155	0.212
-660.959	283.653	-0.067	-0.123
-659.945	28.342	-0.177	0.153
-658.930	-200.000	-0.013	0.338
-657.916	-57.892	0.164	-0.073
-656.901	-18.171	-0.318	0.203
-655.886	166.780	0.062	-0.090
-654.872	-117.617	-0.224	-0.041
-653.857	258.277	-0.079	0.138
-652.843	368.220	-0.115	0.236
-651.828	682.467	0.211	0.562
-650.814	-188.510	0.308	0.004
-649.799	162.701	-0.031	-0.044
-648.784	-200.000	0.073	0.374
-647.770	-22.868	0.071	0.044
-646.755	-200.000	0.039	-0.221
-645.741	367.449	-0.076	-0.157
-644.726	112.846	0.152	-0.188
-643.711	-34.291	0.108	0.061
-642.697	75.821	0.044	-0.048
-641.682	-29.238	-0.146	-0.085
-640.668	-200.000	-0.025	0.181
-639.653	-7.758	0.068	-0.047
-638.638	-93.357	-0.089	-0.025
-637.624	-77.265	0.240	0.085
-636.609	-200.000	0.024	-0.114
-635.595	800.000	-0.013	-0.041
-634.580	205.307	-0.210	0.332
-633.565	-40.777	-0.113	0.060
-632.551	-200.000	0.010	0.079
-631.536	-50.122	-0.112	-0.054
-630.522	39.438	-0.089	-0.081
-629.507	-200.000	0.010	0.138
-628.492	204.721	-0.161	0.254
-627.478	-17.443	-0.099	0.064
-626.463	713.495	-0.086	-0.234
-625.449	-200.000	-0.037	-0.263
-624.434	-119.427	-0.296	-0.052
-623.419	-200.000	-0.000	0.189
-622.405	23.952	-0.148	0.124
-621.390	-6.673	-0.275	-0.191
-620.376	-114.846	0.133	-0.026
-619.361	-38.486	-0.296	0.159
-618.346	353.610	0.149	-0.302
-617.332	222.142	-0.122	-0.201
-616.317	72.643	0.041	-0.043
-615.303	139.300	0.090	-0.121
-614.288	-47.830	0.518	0.256
-613.273	-200.000	-0.039	0.231
-612.259	-200.000	-0.064	0.313
-611.244	335.887	0.097	-0.191
-610.230	-74.083	0.238	-0.088
-609.215	12.797	-0.420	0.330
-608.201	800.000	0.049	-0.143
-607.186	-117.697	0.140	-0.026
-606.171	149.013	-0.168	-0.232
-605.157	-136.436	-0.092	-0.011
-604.142	-200.000	0.043	-0.195
-603.128	800.000	0.013	0.056
-602.113	532.683	-0.108	-0.259
-601.098	145.542	0.240	-0.327
-600.084	-30.561	0.246	-0.142
-599.069	-12.195	-0.167	0.111
-598.055	-200.000	-0.061	-0.303
-597.040	-17.764	0.112	-0.072
-596.025	82.648	0.081	0.090
-595.011	260.359	-0.124	0.219
-593.996	433.363	-0.065	0.143
-592.982	-34.603	0.280	-0.156
-591.967	317.931	-0.149	0.287
-590.952	89.901	0.067	0.077
-589.938	9.824	0.092	-0.071
-588.923	-200.000	-0.030	-0.292
-587.909	149.936	-0.067	0.093
-586.894	92.229	0.106	0.122
-585.879	232.650	0.038	-0.064
-584.865	-121.371	-0.200	0.034
-583.850	-113.146	-0.214	-0.043
-582.836	219.387	-0.135	0.220
-581.821	84.986	0.126	-0.141
-580.806	355.832	0.054	0.110
-579.792	-200.000	-0.018	-0.150
-578.777	-200.000	-0.064	0.000
-577.763	674.485	-0.051	0.133
-576.748	155.533	-0.101	0.142
-575.733	190.515	-0.159	-0.244
-574.719	-200.000	-0.005	0.308
-573.704	-91.904	0.128	0.037
-572.690	175.533	-0.183	-0.270
-571.675	-200.000	-0.012	0.179
-570.661	-62.671	0.112	0.047
-569.646	-200.000	0.046	-0.303
-568.631	-200.000	0.006	0.174
-567.617	448.063	0.097	-0.216
-566.602	335.315	-0.094	-0.186
-565.588	-200.000	0.044	-0.253
-564.573	-200.000	0.003	-0.157
-563.558	-77.132	0.166	-0.059
-562.544	80.228	-0.182	-0.199
-561.529	79.855	-0.178	-0.195
-560.515	800.000	-0.065	-0.232
-559.500	277.745	-0.087	-0.158
-558.485	-44.002	0.262	-0.134
-557.471	-71.839	0.217	-0.082
-556.456	-90.021	0.270	-0.080
-555.442	-119.367	-0.196	0.035
-554.427	98.775	-0.038	0.044
-553.412	-165.013	0.274	-0.012
-552.398	-200.000	0.024	-0.134
-551.383	-89.440	-0.134	0.040
-550.369	-69.552	-0.141	0.055
-549.354	320.579	0.227	0.437
-548.339	-200.000	-0.021	-0.310
-547.325	244.976	-0.095	-0.162
-546.310	576.232	0.026	0.064
-545.296	-50.584	0.153	0.073
-544.281	-83.389	0.318	0.104
-543.266	-84.740	0.026	0.008
-542.252	-56.824	-0.089	0.040
-541.237	-17.012	0.251	0.161
-540.223	600.930	-0.040	-0.100
-539.208	435.291	0.026	0.057
-538.193	-200.000	0.002	-0.052
-537.179	-29.423	-0.072	0.042
-536.164	-91.483	-0.186	-0.054
-535.150	89.201	0.139	0.157
-534.135	-136.822	-0.445	-0.052
-533.121	181.888	0.241	0.361
-532.106	-200.000	0.261	-0.000
-531.091	120.750	-0.141	-0.178
-530.077	538.472	0.136	-0.327
-529.062	-39.256	0.312	0.166
-528.048	52.548	0.082	-0.079
-527.033	-114.362	0.080	0.016
-526.018	363.809	0.138	0.282
-525.004	314.159	-0.110	0.210
-523.989	-200.000	-0.041	0.314
-522.975	-200.000	0.005	0.176
-521.960	-97.941	0.138	-0.036
-520.945	-200.000	-0.014	-0.263
-519.931	800.000	-0.073	-0.305
-518.916	68.222	-0.135	-0.141
-517.902	-110.566	0.445	-0.094
-516.887	-16.884	0.124	0.080
-515.872	-148.146	-0.143	0.012
-514.858	48.575	0.117	-0.112
-513.843	215.070	-0.100	-0.161
-512.829	-200.000	0.031	-0.214
-511.814	169.977	0.066	0.096
-510.799	-29.056	-0.190	0.110
-509.785	800.000	-0.017	-0.066
-508.770	-6.038	-0.138	0.095
-507.756	41.627	0.223	0.205
-506.741	-44.116	0.190	-0.097
-505.726	101.078	0.101	0.120
-504.712	-128.527	0.354	0.051
-503.697	-130.296	-0.167	-0.023
-502.683	-21.731	-0.146	0.090
-501.668	52.125	0.186	-0.180
-500.653	128.348	-0.092	0.119
-499.639	-74.181	0.239	-0.088
-498.624	-185.170	-0.570	-0.009
-497.610	-151.643	-0.238	-0.018
-496.595	206.100	-0.104	0.164
-495.581	-131.818	0.389	-0.052
-494.566	-8.379	-0.214	0.146
-493.551	-200.000	0.002	0.138
-492.537	-110.225	-0.195	-0.041
-491.522	192.922	0.085	-0.130
-490.508	-71.153	-0.132	0.050
-489.493	154.657	-0.271	-0.377
-488.478	-200.000	-0.002	-0.283
-487.464	800.000	0.060	-0.211
-486.449	134.132	0.030	0.040
-485.435	-131.843	-0.175	-0.023
-484.420	-84.015	-0.084	-0.027
-483.405	-200.000	-0.065	0.310
-482.391	448.881	0.090	-0.201
-481.376	800.000	0.016	0.068
-480.362	800.000	-0.046	0.150
-479.347	-0.667	-0.163	-0.117
-478.332	-66.859	0.249	-0.100
-477.318	-200.000	-0.019	-0.224
-476.303	214.476	0.076	0.121
-475.289	44.347	0.123	-0.114
-474.274	-131.947	-0.420	-0.055
-473.259	-8.709	-0.217	0.148
-472.245	800.000	-0.056	-0.211
-471.230	274.302	0.162	-0.290
-470.216	-94.860	-0.197	0.054
-469.201	490.820	0.159	-0.369
-468.186	415.508	-0.042	0.091
-467.172	-35.498	0.328	0.180
-466.157	-79.251	-0.163	-0.056
-465.143	141.899	0.095	-0.128
-464.128	7.308	-0.126	0.095
-463.113	800.000	0.062	0.231
-462.099	114.343	0.080	-0.098
-461.084	189.042	0.025	-0.038
-460.070	-59.593	0.294	0.128
-459.055	15.269	0.106	-0.084
-458.040	-77.466	0.212	-0.075
-457.026	27.713	0.188	0.160
-456.011	-200.000	-0.029	0.259
-454.997	800.000	-0.122	-0.506
-453.982	-109.209	-0.161	0.035
-452.968	-200.000	-0.047	0.275
-451.953	-39.120	0.132	0.070
-450.938	-91.507	-0.399	-0.115
-449.924	-200.000	0.027	0.352
-448.909	67.966	-0.012	-0.012
-447.895	-14.847	0.191	0.124
-446.880	77.727	-0.125	-0.135
-445.865	61.500	0.046	0.046
-444.851	597.980	-0.071	-0.177
-443.836	13.263	-0.120	0.094
-442.822	-17.930	-0.238	-0.151
-441.807	-161.264	0.253	-0.013
-440.792	5.613	0.307	0.229
-439.778	121.994	-0.113	-0.143
-438.763	800.000	0.087	-0.359
-437.749	-200.000	-0.023	-0.234
-436.734	110.429	-0.096	-0.117
-435.719	-200.000	-0.046	0.315
-434.705	-87.915	0.143	0.043
-433.690	-61.065	0.402	0.171
-432.676	-70.028	-0.213	0.082
-431.661	34.920	0.353	-0.312
-430.646	488.917	0.130	0.301
-429.632	9.467	-0.207	-0.159
-428.617	252.712	-0.152	0.263
-427.603	-200.000	-0.383	0.001
-426.588	-200.000	-0.016	-0.096
-425.573	267.362	0.008	0.014
-424.559	135.908	0.096	0.127
-423.544	800.000	0.013	0.040
-422.530	133.731	0.173	0.226
-421.515	-68.125	-0.132	-0.052
-420.500	-134.457	0.096	-0.012
-419.486	-134.324	0.340	0.042
-418.471	310.416	0.096	-0.182
-417.457	-65.281	-0.091	-0.037
-416.442	-51.985	-0.106	0.050
-415.428	-200.000	-0.075	-0.357
-414.413	-200.000	-0.010	0.624
-413.398	-68.925	-0.291	0.114
-412.384	-155.324	-0.244	0.016
-411.369	-200.000	-0.014	-0.071
-410.355	-60.027	0.100	0.043
-409.340	800.000	-0.094	0.288
-408.325	-200.000	-0.024	0.200
-407.311	-150.757	-0.111	-0.009
-406.296	800.000	-0.099	-0.306
-405.282	-24.743	-0.095	-0.057
-404.267	-150.826	0.252	0.019
-403.252	-200.000	0.326	-0.001
-402.238	-26.545	-0.240	0.142
-401.223	-39.469	0.079	0.042
-400.209	-131.878	0.470	-0.062
-399.194	51.429	0.051	-0.049
-398.179	222.762	-0.131	0.213
-397.165	188.424	0.033	0.051
-396.150	-108.630	0.168	-0.037
-395.136	-200.000	0.030	0.358
-394.121	800.000	0.030	0.090
-393.106	-160.850	-0.252	-0.013
-392.092	-85.511	-0.235	-0.074
-391.077	136.944	0.103	-0.136
-390.063	11.918	-0.174	-0.135
-389.048	-60.826	0.077	-0.033
-388.033	-118.025	-0.236	0.043
-387.019	-58.303	-0.337	0.148
-386.004	-49.273	-0.326	0.157
-384.990	800.000	-0.056	-0.189
-383.975	-17.472	0.121	0.077
-382.960	273.105	0.020	0.036
-381.946	-97.340	0.112	-0.030
-380.931	-200.000	-0.024	0.125
-379.917	-36.413	-0.251	-0.136
-378.902	-138.900	-0.250	-0.027
-377.888	-29.392	0.208	-0.120
-376.873	244.521	0.233	0.396
-375.858	60.117	0.318	0.318
-374.844	-130.909	-0.173	-0.023
-373.829	-158.629	-0.263	-0.015
-372.815	-62.533	0.282	0.118
-371.800	94.673	0.109	0.125
-370.785	-200.000	-0.040	0.000
-369.771	-200.000	0.036	0.322
-368.756	-50.395	0.076	-0.036
-367.742	-200.000	-0.107	0.473
-366.727	147.384	0.145	0.197
-365.712	149.777	0.325	0.445
-364.698	-55.233	0.114	0.052
-363.683	800.000	-0.041	-0.127
-362.669	60.765	0.083	0.083
-361.654	362.976	0.065	-0.132
-360.639	108.287	-0.081	0.097
-359.625	-133.087	0.224	-0.029
-358.610	47.394	-0.242	-0.227
-357.596	800.000	-0.033	-0.143
-356.581	-124.266	0.174	0.027
-355.566	-93.170	-0.085	-0.024
-354.552	800.000	0.053	0.154
-353.537	-36.841	0.183	-0.099
-352.523	11.284	-0.202	-0.156
-351.508	-200.000	0.025	0.314
-350.493	-43.096	0.126	-0.064
-349.479	-180.835	0.108	0.002
-348.464	-200.000	-0.018	-0.113
-347.450	-15.779	0.108	0.069
-346.435	-151.863	-0.305	-0.022
-345.420	105.012	0.335	-0.399
-344.406	800.000	0.070	0.200
-343.391	110.160	-0.151	-0.183
-342.377	209.050	-0.085	-0.134
-341.362	176.308	0.104	-0.153
-340.348	237.773	0.036	-0.060
-339.333	-0.917	0.330	-0.235
-338.318	-102.433	-0.073	0.018
-337.304	-156.835	0.402	0.025
-336.289	143.149	-0.113	0.152
-335.275	-149.989	0.164	0.013
-334.260	-23.801	-0.238	-0.143
-333.245	800.000	-0.034	-0.095
-332.231	-51.906	-0.348	0.163
-331.216	294.112	0.102	0.188
-330.202	-200.000	-0.017	-0.110
-329.187	307.085	-0.124	0.232
-328.172	100.467	0.059	0.069
-327.158	160.370	-0.064	-0.090
-326.143	72.652	0.242	-0.254
-325.129	88.059	0.142	0.158
-324.114	-67.068	-0.066	0.026
-323.099	649.711	-0.088	-0.227
-322.085	-200.000	-0.013	-0.215
-321.070	-200.000	0.012	0.318
-320.056	-153.232	0.129	0.009
-319.041	50.405	0.139	0.132
-318.026	-104.246	0.116	0.027
-317.012	168.733	-0.137	0.197
-315.997	-62.314	0.262	-0.110
-314.983	-200.000	-0.007	-0.045
-313.968	-56.035	0.257	0.115
-312.953	-200.000	0.007	0.055
-311.939	-45.543	0.185	0.092
-310.924	127.349	0.050	0.064
-309.910	-200.000	0.060	0.267
-308.895	-135.517	0.570	-0.068
-307.880	31.006	0.279	-0.241
-306.866	210.583	-0.129	-0.205
-305.851	178.910	-0.202	-0.297
-304.837	11.911	-0.168	0.130
-303.822	-111.682	0.188	0.038
-302.807	122.273	-0.225	0.283
-301.793	-72.760	0.148	0.055
-300.778	88.738	-0.051	-0.057
-299.764	-200.000	0.031	-0.141
-298.749	-200.000	0.004	-0.059
-297.735	-200.000	-0.057	0.365
-296.720	26.075	-0.187	0.157
-295.705	-93.472	-0.306	0.085
-294.691	-69.703	-0.313	0.121
-293.676	3.080	0.176	-0.129
-292.662	139.531	-0.148	-0.196
-291.647	-186.788	0.236	0.003
-290.632	-73.256	-0.167	0.061
-289.618	-131.224	0.298	0.040
-288.603	-114.019	-0.246	-0.048
-287.589	-200.000	-0.025	-0.116
-286.574	578.342	0.089	0.219
-285.559	-107.537	-0.174	-0.038
-284.545	-108.852	-0.175	0.038
-283.530	-175.001	0.458	-0.013
-282.516	140.887	0.332	-0.441
-281.501	108.770	0.227	-0.273
-280.486	284.747	0.050	0.090
-279.472	-125.564	0.051	-0.008
-278.457	336.777	-0.071	0.138
-277.443	-115.661	-0.177	-0.033
-276.428	-200.000	-0.016	-0.122
-275.413	82.792	0.189	-0.207
-274.399	-200.000	0.008	0.417
-273.384	689.598	0.178	0.469
-272.370	-151.028	-0.284	0.022
-271.355	-104.188	0.254	0.059
-270.340	202.967	0.190	0.295
-269.326	63.163	-0.227	0.228
-268.311	197.616	0.087	-0.133
-267.297	800.000	-0.068	-0.229
-266.282	-84.812	0.076	-0.024
-265.267	800.000	-0.044	-0.183
-264.253	-3.338	-0.111	0.078
-263.238	-68.178	-0.353	0.138
-262.224	309.332	0.121	-0.228
-261.209	800.000	-0.057	0.237
-260.195	514.923	-0.076	0.178
-259.180	14.528	0.106	-0.083
-258.165	751.339	-0.076	-0.206
-257.151	142.370	-0.056	-0.075
-256.136	90.404	0.114	0.128
-255.122	-200.000	-0.005	-0.091
-254.107	-128.682	-0.118	0.017
-253.092	-111.740	-0.116	0.024
-252.078	-34.379	-0.084	0.046
-251.063	-28.402	-0.218	0.126
-250.049	-138.514	-0.261	0.029
-249.034	21.944	0.047	0.038
-248.019	-6.627	-0.193	-0.132
-247.005	-26.905	0.137	0.080
-245.990	-95.166	-0.125	-0.034
-244.976	-200.000	0.047	-0.282
-243.961	800.000	0.085	0.271
-242.946	-10.072	-0.201	0.134
-241.932	79.042	0.133	0.142
-240.917	800.000	0.120	-0.423
-239.903	-5.297	-0.265	0.183
-238.888	-84.444	-0.085	-0.027
-237.873	275.758	0.118	-0.211
-236.859	-63.990	-0.362	0.148
-235.844	-154.788	-0.255	-0.017
-234.830	-82.812	-0.198	-0.064
-233.815	-200.000	-0.012	0.256
-232.800	-200.000	0.008	-0.177
-231.786	436.410	-0.118	-0.257
-230.771	-50.689	0.072	0.034
-229.757	800.000	0.054	-0.180
-228.742	-98.633	-0.146	-0.037
-227.727	111.677	0.213	0.258
-226.713	135.410	-0.071	-0.093
-225.698	-128.172	-0.193	-0.028
-224.684	-108.819	0.150	0.032
-223.669	-200.000	0.020	0.339
-222.655	-143.094	-0.318	-0.031
-221.640	-22.820	0.218	-0.132
-220.625	72.212	-0.268	0.280
-219.611	-31.972	0.112	-0.063
-218.596	800.000	0.034	0.110
-217.582	-127.696	-0.232	0.034
-216.567	-200.000	-0.005	0.087
-215.552	-179.481	0.432	-0.010
-214.538	23.007	0.192	-0.158
-213.523	130.545	0.272	-0.350
-212.509	-62.264	0.349	0.146
-211.494	-200.000	-0.002	-0.146
-210.479	-47.423	0.230	-0.112
-209.465	49.646	-0.273	0.258
-208.450	-63.369	-0.438	-0.181
-207.436	-200.000	-0.043	-0.190
-206.421	102.830	0.389	0.456
-205.406	-37.889	-0.319	-0.170
-204.392	7.311	-0.047	-0.035
-203.377	800.000	-0.028	0.104
-202.363	72.970	-0.063	-0.066
-201.348	-34.300	0.089	-0.049
-200.333	165.475	-0.239	0.339
-199.319	-156.411	-0.059	-0.004
-198.304	146.666	0.196	-0.264
-197.290	213.516	-0.094	-0.149
-196.275	67.386	-0.085	-0.086
-195.260	-95.886	-0.191	0.051
-194.246	-113.004	0.348	0.069
-193.231	-108.667	0.107	0.023
-192.217	277.326	0.051	0.092
-191.202	113.918	0.019	0.023
-190.187	20.963	0.042	-0.034
-189.173	256.013	0.030	-0.052
-188.158	800.000	0.046	-0.182
-187.144	609.462	0.105	0.263
-186.129	1.358	0.089	-0.064
-185.114	271.698	-0.131	-0.232
-184.100	-94.100	0.128	-0.035
-183.085	800.000	-0.108	0.388
-182.071	-200.000	0.004	0.097
-181.056	18.545	0.142	-0.114
-180.042	82.863	0.122	-0.133
-179.027	-16.810	-0.127	0.080
-178.012	44.617	-0.210	0.193
-176.998	64.955	-0.261	-0.264
-175.983	36.389	-0.175	-0.155
-174.969	-136.922	-0.106	-0.012
-173.954	-115.742	-0.228	-0.043
-172.939	-19.569	0.120	-0.075
-171.925	-200.000	0.024	-0.218
-170.910	-200.000	0.011	0.214
-169.896	-200.000	-0.003	0.138
-168.881	154.996	0.066	0.091
-167.866	23.346	-0.182	0.150
-166.852	800.000	-0.031	-0.109
-165.837	-132.918	-0.089	0.011
-164.823	159.994	0.041	0.057
-163.808	-24.519	-0.120	-0.072
-162.793	15.634	0.087	-0.068
-161.779	-106.317	-0.175	-0.039
-160.764	67.889	0.096	-0.098
-159.750	97.151	-0.127	0.146
-158.735	21.705	0.223	0.182
-157.720	-200.000	0.020	-0.118
-156.706	271.820	-0.234	-0.413
-155.691	-200.000	0.003	-0.222
-154.677	-163.206	0.114	0.005
-153.662	-76.255	-0.147	0.052
-152.647	-109.984	-0.085	-0.018
-151.633	-128.836	0.074	-0.010
-150.618	2.553	0.037	-0.027
-149.604	-157.684	0.325	0.019
-148.589	800.000	-0.032	0.123
-147.574	-8.028	-0.093	-0.062
-146.560	-200.000	-0.038	-0.201
-145.545	-55.833	-0.204	-0.091
-144.531	136.420	0.181	0.236
-143.516	-31.906	0.423	0.237
-142.502	-100.308	-0.134	0.033
-141.487	-200.000	0.031	0.381
-140.472	800.000	0.044	0.144
-139.458	-88.931	-0.386	-0.115
-138.443	-117.880	0.229	-0.041
-137.429	-60.776	-0.427	0.181
-136.414	156.197	-0.164	0.226
-135.399	139.887	-0.029	0.039
-134.385	800.000	0.051	-0.172
-133.370	800.000	-0.077	-0.215
-132.356	286.927	-0.106	-0.191
-131.341	-124.833	0.110	-0.017
-130.326	82.892	-0.252	-0.274
-129.312	80.854	-0.203	-0.219
-128.297	650.537	-0.054	0.138
-127.283	-26.632	0.192	-0.112
-126.268	267.929	-0.060	0.106
-125.253	24.737	0.384	0.318
-124.239	220.257	0.077	-0.123
-123.224	-200.000	-0.030	0.147
-122.210	-79.031	0.449	-0.153
