DTS Sentinel unit serial number:	SN413079Multiplexer serial number:	ORYXHardware model number:	OX4-SRSoftware version number:	ORYX F/W v4.00 Oryx Data Collector v3.7.2.0data status	okinstallation	princeton_trtdifferential loss correction	single-endedforward channel	channel 1reverse channel	N/Adate	2019/09/19time	13:42:35forward acquisition time	60.00reverse acquisition time	0.00gamma	496.2192k internal	0.2326k external	0.2326temperature offset calibration	1.0019default loss term (dB/km)	0.3790temperature slope calibration	1.0000multiplexer offset coefficient	1.0000multiplexer slope coefficient	1.0000fibre end	0.00T internal ref (°C)	30.47T ext. ref 1 (°C)	1.00T ext. ref 2 (°C)	27.63length (m)	temperature (°C)	Stokes	anti-Stokes-747.200	63.255	-0.113	-0.114
-746.185	169.313	-0.113	0.162
-745.171	-121.165	-0.049	-0.008
-744.156	-30.237	-0.291	0.167
-743.142	-153.367	0.133	0.009
-742.127	-98.259	-0.326	-0.084
-741.112	171.657	-0.152	0.221
-740.098	131.435	0.155	0.201
-739.083	-167.536	0.498	-0.020
-738.069	-25.396	0.263	0.157
-737.054	-40.346	-0.297	0.156
-736.039	184.522	0.020	-0.030
-735.025	-200.000	0.018	0.202
-734.010	567.806	0.072	0.176
-732.996	-200.000	0.068	-0.321
-731.981	13.768	0.335	-0.262
-730.966	141.607	-0.070	0.094
-729.952	748.681	0.053	0.144
-728.937	800.000	-0.060	-0.255
-727.923	-157.525	0.196	-0.012
-726.908	81.338	0.110	-0.119
-725.894	-200.000	-0.013	-0.324
-724.879	-110.975	0.107	-0.022
-723.864	-200.000	0.014	-0.134
-722.850	-200.000	-0.051	-0.348
-721.835	378.838	-0.086	0.178
-720.821	800.000	0.025	-0.086
-719.806	20.769	-0.063	0.051
-718.791	67.630	0.304	-0.312
-717.777	31.601	-0.107	-0.092
-716.762	-200.000	0.262	0.001
-715.748	249.031	0.093	0.158
-714.733	8.843	0.241	-0.183
-713.718	-24.738	-0.270	-0.161
-712.704	-87.705	0.297	-0.090
-711.689	176.971	0.027	-0.040
-710.675	-37.354	0.137	-0.074
-709.660	-130.228	-0.191	-0.026
-708.645	-75.900	-0.465	-0.166
-707.631	-200.000	0.029	-0.256
-706.616	127.597	0.137	0.175
-705.602	-16.106	0.099	0.064
-704.587	800.000	-0.110	-0.403
-703.572	-32.261	0.378	-0.213
-702.558	158.063	-0.073	0.102
-701.543	53.163	0.038	0.037
-700.529	62.615	-0.126	-0.127
-699.514	-137.633	0.263	-0.030
-698.499	-200.000	-0.025	-0.117
-697.485	95.472	-0.303	-0.348
-696.470	-128.928	-0.111	0.016
-695.456	265.872	0.191	0.335
-694.441	248.930	0.260	0.442
-693.426	189.036	-0.148	0.223
-692.412	622.251	0.166	-0.421
-691.397	-200.000	0.017	-0.233
-690.383	194.841	0.238	0.363
-689.368	200.536	0.076	-0.118
-688.354	-200.000	-0.015	0.474
-687.339	-159.707	-0.339	0.019
-686.324	-200.000	-0.005	-0.058
-685.310	-100.278	0.110	-0.027
-684.295	254.273	0.034	0.058
-683.281	-28.398	0.302	0.175
-682.266	-200.000	-0.018	-0.153
-681.251	-136.768	-0.266	0.031
-680.237	800.000	-0.005	-0.022
-679.222	-160.637	0.277	-0.015
-678.208	-24.537	-0.095	-0.057
-677.193	-99.573	-0.381	-0.096
-676.178	88.676	-0.261	-0.292
-675.164	253.541	-0.139	-0.238
-674.149	-71.151	0.226	-0.085
-673.135	45.777	-0.163	0.151
-672.120	164.290	-0.158	0.223
-671.105	-142.764	0.215	0.021
-670.091	-56.073	-0.194	0.087
-669.076	800.000	0.112	-0.414
-668.062	-165.269	0.138	-0.006
-667.047	-67.270	-0.098	0.039
-666.032	800.000	-0.059	0.256
-665.018	-61.892	-0.217	0.091
-664.003	51.379	-0.157	0.150
-662.989	-37.610	0.186	0.100
-661.974	122.303	0.123	0.154
-660.959	-119.483	0.194	-0.034
-659.945	800.000	0.062	-0.186
-658.930	-18.641	0.024	0.015
-657.916	113.084	-0.112	0.137
-656.901	800.000	-0.058	-0.200
-655.886	758.071	0.021	0.057
-654.872	-200.000	-0.048	0.214
-653.857	-140.623	-0.295	0.031
-652.843	58.111	-0.133	-0.131
-651.828	-6.708	-0.184	0.126
-650.814	-112.294	0.150	0.030
-649.799	148.792	-0.078	-0.107
-648.784	800.000	-0.075	-0.296
-647.770	-45.961	-0.204	0.101
-646.755	112.187	-0.057	-0.069
-645.741	-200.000	0.043	0.553
-644.726	131.744	-0.159	-0.205
-643.711	245.105	0.090	0.153
-642.697	-200.000	-0.017	0.247
-641.682	-101.830	-0.150	-0.036
-640.668	-200.000	0.008	-0.078
-639.653	493.735	0.088	-0.203
-638.638	118.366	0.069	-0.085
-637.624	-200.000	-0.085	0.387
-636.609	-41.622	-0.093	0.048
-635.595	16.675	0.215	0.171
-634.580	-115.130	0.108	0.021
-633.565	108.977	0.080	0.096
-632.551	-200.000	0.022	-0.234
-631.536	800.000	0.101	0.331
-630.522	-133.941	0.187	-0.023
-629.507	-200.000	0.082	0.432
-628.492	218.792	-0.110	-0.176
-627.478	-176.741	-0.297	-0.008
-626.463	-33.760	-0.269	-0.149
-625.449	58.865	-0.221	-0.218
-624.434	800.000	0.090	0.328
-623.419	-125.891	0.595	-0.090
-622.405	800.000	0.062	0.196
-621.390	3.348	0.055	0.040
-620.376	-123.210	0.184	-0.030
-619.361	-76.326	-0.066	0.023
-618.346	120.533	0.278	0.347
-617.332	800.000	0.016	0.064
-616.317	344.007	-0.118	-0.233
-615.303	-101.300	-0.225	0.055
-614.288	-102.073	0.092	-0.022
-613.273	292.361	0.030	0.055
-612.259	724.111	0.064	-0.172
-611.244	-60.786	0.259	-0.110
-610.230	-55.709	0.300	-0.135
-609.215	-200.000	-0.045	-0.323
-608.201	195.409	0.053	0.081
-607.186	-18.319	0.283	0.177
-606.171	-132.514	-0.330	0.043
-605.157	130.068	0.171	0.219
-604.142	728.324	0.016	0.043
-603.128	-130.316	0.517	0.070
-602.113	-200.000	-0.014	0.186
-601.098	138.062	-0.185	0.243
-600.084	165.899	-0.219	-0.311
-599.069	145.494	0.123	0.165
-598.055	-200.000	-0.011	0.058
-597.040	800.000	-0.041	0.114
-596.025	-40.998	-0.216	-0.112
-595.011	800.000	-0.110	0.308
-593.996	159.223	0.017	0.023
-592.982	2.340	-0.100	0.073
-591.967	-79.185	-0.053	0.018
-590.952	-34.995	0.142	0.077
-589.938	134.310	-0.094	0.122
-588.923	800.000	0.054	-0.159
-587.909	-200.000	-0.059	-0.518
-586.894	26.241	0.135	0.113
-585.879	-200.000	-0.017	0.508
-584.865	-149.965	-0.171	0.013
-583.850	124.954	0.175	-0.221
-582.836	-20.453	-0.113	0.070
-581.821	282.980	0.150	-0.269
-580.806	-4.550	0.102	0.071
-579.792	-120.807	-0.214	0.036
-578.777	19.588	-0.226	0.183
-577.763	242.343	-0.020	0.034
-576.748	-46.399	-0.209	0.103
-575.733	-200.000	-0.026	-0.311
-574.719	-67.139	0.071	0.028
-573.704	-110.129	-0.014	0.003
-572.690	-44.958	-0.303	-0.151
-571.675	-166.855	0.151	-0.006
-570.661	-90.208	0.423	0.123
-569.646	-172.614	-0.396	0.012
-568.631	800.000	-0.025	-0.102
-567.617	-200.000	0.049	-0.283
-566.602	-77.111	-0.102	0.036
-565.588	-40.433	-0.173	0.090
-564.573	-156.367	0.417	0.026
-563.558	50.965	-0.061	-0.058
-562.544	800.000	-0.065	-0.212
-561.529	17.970	-0.103	0.082
-560.515	-200.000	0.002	0.028
-559.500	-200.000	0.050	-0.267
-558.485	-126.474	0.591	-0.088
-557.471	-103.284	0.107	-0.025
-556.456	-200.000	0.004	0.311
-555.442	-200.000	0.014	0.311
-554.427	800.000	0.021	0.073
-553.412	-116.550	-0.268	-0.049
-552.398	374.556	-0.110	-0.224
-551.383	-51.573	-0.092	-0.043
-550.369	-154.212	0.155	0.011
-549.354	174.786	-0.145	-0.210
-548.339	701.195	0.031	-0.082
-547.325	1.553	-0.216	0.156
-546.310	-58.877	-0.173	-0.075
-545.296	-25.021	0.273	0.162
-544.281	800.000	-0.027	0.113
-543.266	11.368	-0.164	0.126
-542.252	-104.677	-0.371	0.085
-541.237	-200.000	-0.036	-0.174
-540.223	-148.151	-0.253	-0.021
-539.208	-33.449	-0.005	0.003
-538.193	121.026	-0.046	0.057
-537.179	738.260	0.022	0.059
-536.164	800.000	-0.118	-0.372
-535.150	-56.965	0.239	0.105
-534.135	-57.725	0.123	-0.054
-533.121	-12.780	0.269	0.176
-532.106	-104.676	-0.180	-0.042
-531.091	3.051	-0.035	-0.025
-530.077	205.592	-0.066	0.103
-529.062	-16.820	0.225	0.143
-528.048	-74.414	-0.081	0.029
-527.033	-95.049	0.185	-0.050
-526.018	-95.680	-0.316	-0.084
-525.004	12.465	0.127	-0.098
-523.989	-124.102	-0.134	0.021
-522.975	149.142	-0.098	-0.132
-521.960	33.037	-0.129	0.112
-520.945	464.847	-0.061	-0.137
-519.931	800.000	-0.042	-0.117
-518.916	-200.000	0.010	0.132
-517.902	-200.000	0.030	-0.314
-516.887	-182.868	-0.422	0.008
-515.872	146.673	0.067	-0.090
-514.858	-200.000	-0.047	0.237
-513.843	20.053	-0.203	0.164
-512.829	-8.582	0.049	-0.033
-511.814	-136.289	0.063	0.007
-510.799	-200.000	0.012	-0.254
-509.785	35.126	0.075	-0.066
-508.770	62.153	0.243	0.243
-507.756	290.294	0.218	-0.395
-506.741	-170.137	0.402	0.014
-505.726	-110.190	-0.172	0.036
-504.712	57.279	0.019	-0.019
-503.697	-179.308	-0.196	-0.004
-502.683	-96.095	-0.391	0.104
-501.668	-200.000	-0.000	-0.171
-500.653	-55.461	-0.254	0.114
-499.639	-200.000	0.025	-0.284
-498.624	-120.354	-0.157	-0.027
-497.610	-200.000	0.054	-0.345
-496.595	-6.238	0.303	-0.207
-495.581	181.174	-0.231	-0.339
-494.566	666.624	-0.111	-0.286
-493.551	-41.936	0.121	-0.062
-492.537	-128.084	0.163	-0.023
-491.522	-184.968	-0.159	0.002
-490.508	14.954	-0.135	-0.106
-489.493	11.545	-0.093	-0.072
-488.478	-176.772	0.257	-0.007
-487.464	-200.000	-0.040	-0.243
-486.449	-128.064	-0.538	-0.077
-485.435	-2.706	-0.178	-0.124
-484.420	232.684	-0.112	0.184
-483.405	389.974	0.037	0.076
-482.391	-200.000	-0.026	-0.223
-481.376	128.574	-0.141	-0.179
-480.362	-20.396	-0.133	-0.082
-479.347	43.375	0.043	0.039
-478.332	-123.301	-0.318	0.051
-477.318	-200.000	-0.010	0.364
-476.303	-97.746	-0.247	0.064
-475.289	800.000	0.031	0.125
-474.274	136.739	-0.084	0.109
-473.259	-81.764	-0.201	-0.066
-472.245	441.611	-0.041	-0.089
-471.230	-108.166	-0.407	0.088
-470.216	-1.613	-0.131	0.092
-469.201	-73.964	-0.150	0.054
-468.186	-184.307	0.280	-0.005
-467.172	76.964	0.124	0.131
-466.157	401.643	-0.166	0.347
-465.143	-113.901	0.039	0.008
-464.128	-200.000	0.215	0.000
-463.113	255.603	0.185	-0.316
-462.099	-174.632	-0.100	0.003
-461.084	54.498	-0.170	-0.164
-460.070	62.452	0.086	0.085
-459.055	-29.799	0.257	0.146
-458.040	164.277	0.032	0.045
-457.026	69.056	0.243	-0.249
-456.011	800.000	-0.203	-0.642
-454.997	40.946	0.366	-0.329
-453.982	-113.832	0.236	0.046
-452.968	273.680	-0.102	0.180
-451.953	-200.000	0.037	-0.248
-450.938	46.189	0.160	0.148
-449.924	-200.000	-0.026	0.121
-448.909	-48.797	-0.065	0.031
-447.895	-200.000	0.027	-0.167
-446.880	-200.000	-0.005	-0.241
-445.865	-114.855	-0.167	-0.032
-444.851	-200.000	0.005	-0.175
-443.836	-114.788	-0.314	0.060
-442.822	-127.659	0.202	-0.029
-441.807	-20.009	-0.154	0.095
-440.792	15.093	0.237	0.185
-439.778	-200.000	0.010	0.091
-438.763	-100.963	0.076	0.019
-437.749	27.808	0.046	-0.039
-436.734	99.400	-0.277	0.320
-435.719	430.484	-0.051	0.111
-434.705	-200.000	-0.002	-0.214
-433.690	-117.083	0.454	-0.082
-432.676	-109.424	-0.367	-0.077
-431.661	-143.482	0.267	-0.025
-430.646	63.712	-0.025	0.025
-429.632	-107.729	0.215	0.047
-428.617	800.000	0.097	0.298
-427.603	25.742	-0.092	-0.077
-426.588	268.006	0.103	0.179
-425.573	-136.722	0.172	-0.020
-424.559	-121.407	-0.112	-0.019
-423.544	-109.404	0.193	0.041
-422.530	-200.000	-0.036	-0.237
-421.515	-200.000	-0.028	0.361
-420.500	800.000	0.147	-0.437
-419.486	97.710	-0.175	-0.201
-418.471	676.886	0.024	-0.063
-417.457	-0.607	-0.133	-0.094
-416.442	-37.885	-0.181	-0.096
-415.428	111.213	-0.072	0.086
-414.413	-44.819	0.338	-0.168
-413.398	-155.048	0.123	-0.008
-412.384	21.491	0.203	0.164
-411.369	387.386	0.091	0.188
-410.355	-72.328	-0.280	0.103
-409.340	550.627	0.048	0.114
-408.325	388.337	-0.029	-0.060
-407.311	229.677	0.129	0.210
-406.296	-121.114	-0.278	-0.046
-405.282	-85.371	-0.148	0.046
-404.267	460.081	-0.097	-0.215
-403.252	-81.478	-0.271	-0.089
-402.238	-25.275	0.324	-0.191
-401.223	800.000	-0.086	-0.288
-400.209	38.991	0.042	-0.037
-399.194	-153.860	-0.190	0.013
-398.179	189.060	-0.194	-0.289
-397.165	-67.909	-0.298	-0.116
-396.150	187.519	0.075	-0.111
-395.136	-71.005	0.130	0.049
-394.121	82.169	-0.418	-0.451
-393.106	800.000	-0.050	-0.187
-392.092	-4.181	0.109	0.075
-391.077	169.077	-0.083	0.118
-390.063	264.037	0.037	0.065
-389.048	59.747	-0.208	0.205
-388.033	-47.612	0.090	-0.044
-387.019	-200.000	0.004	-0.064
-386.004	-84.968	0.233	0.073
-384.990	-115.911	0.106	-0.020
-383.975	116.427	-0.029	-0.035
-382.960	338.514	0.031	0.060
-381.946	-200.000	0.022	0.227
-380.931	36.409	0.477	0.418
-379.917	297.435	0.080	0.146
-378.902	186.154	-0.055	-0.081
-377.888	471.854	0.114	-0.255
-376.873	-37.527	0.303	-0.161
-375.858	133.515	0.135	0.173
-374.844	-105.423	0.095	0.021
-373.829	92.446	0.070	-0.078
-372.815	202.712	-0.041	-0.063
-371.800	-200.000	0.067	0.349
-370.785	800.000	0.085	-0.305
-369.771	-99.226	-0.325	-0.082
-368.756	150.715	0.126	-0.170
-367.742	-191.979	0.182	0.002
-366.727	-200.000	-0.051	0.502
-365.712	-149.031	-0.154	-0.012
-364.698	52.632	-0.090	0.086
-363.683	163.968	-0.114	-0.159
-362.669	-45.614	-0.251	-0.123
-361.654	-97.574	0.190	-0.049
-360.639	270.020	0.146	0.255
-359.625	-18.742	-0.194	-0.120
-358.610	-75.964	0.381	-0.134
-357.596	-41.824	0.071	-0.036
-356.581	-7.865	0.138	0.092
-355.566	111.336	0.193	-0.231
-354.552	-79.322	0.091	-0.031
-353.537	367.301	0.088	0.177
-352.523	75.090	-0.299	-0.313
-351.508	206.855	0.112	0.173
-350.493	493.371	-0.073	-0.166
-349.479	96.440	-0.214	-0.243
-348.464	-34.796	-0.338	0.184
-347.450	-200.000	0.009	0.142
-346.435	-80.976	0.468	0.154
-345.420	-200.000	0.032	-0.141
-344.406	-200.000	-0.026	-0.345
-343.391	-46.402	0.120	-0.059
-342.377	-97.340	-0.237	0.061
-341.362	-33.355	0.016	0.009
-340.348	-51.763	-0.312	-0.144
-339.333	-131.901	-0.354	-0.046
-338.318	-66.649	0.343	0.135
-337.304	800.000	-0.100	0.374
-336.289	63.713	-0.139	-0.139
-335.275	26.292	-0.292	0.242
-334.260	-27.270	0.264	0.152
-333.245	-106.532	0.301	-0.067
-332.231	158.355	-0.158	-0.218
-331.216	-170.827	-0.249	-0.008
-330.202	-116.695	-0.101	-0.018
-329.187	324.295	0.125	0.237
-328.172	-169.904	-0.138	-0.005
-327.158	-187.412	0.158	-0.002
-326.143	-108.346	-0.110	-0.023
-325.129	-126.200	-0.171	-0.025
-324.114	-7.990	-0.108	-0.072
-323.099	250.195	0.180	-0.304
-322.085	224.563	-0.070	-0.113
-321.070	-44.770	0.043	-0.021
-320.056	52.287	0.020	-0.019
-319.041	-61.778	-0.091	-0.038
-318.026	64.483	0.086	-0.086
-317.012	29.524	0.172	-0.145
-315.997	290.451	0.051	-0.092
-314.983	-200.000	0.000	-0.184
-313.968	-139.327	0.258	0.027
-312.953	-89.723	-0.216	-0.063
-311.939	745.889	0.095	0.254
-310.924	14.307	-0.193	-0.149
-309.910	-135.830	0.262	-0.031
-308.895	342.460	0.176	0.342
-307.880	66.735	-0.318	0.321
-306.866	-63.099	-0.069	-0.028
-305.851	157.887	0.149	-0.205
-304.837	27.693	-0.220	-0.183
-303.822	-68.218	0.263	-0.102
-302.807	8.561	-0.057	0.043
-301.793	186.560	0.134	0.197
-300.778	-200.000	-0.015	0.354
-299.764	-200.000	0.046	0.201
-298.749	-47.158	-0.222	0.107
-297.735	657.788	0.023	0.059
-296.720	-10.490	-0.352	-0.231
-295.705	-2.022	-0.247	0.172
-294.691	-200.000	-0.023	-0.171
-293.676	43.538	0.098	0.089
-292.662	-182.839	-0.373	0.007
-291.647	82.671	0.207	0.223
-290.632	140.624	-0.117	0.153
-289.618	182.166	-0.219	-0.320
-288.603	94.342	-0.033	0.038
-287.589	6.861	0.166	0.122
-286.574	-85.647	0.230	0.071
-285.559	-94.363	0.213	-0.058
-284.545	-78.569	0.217	-0.074
-283.530	78.039	0.215	0.227
-282.516	-101.552	-0.147	0.035
-281.501	96.799	0.134	0.152
-280.486	-75.635	-0.176	-0.062
-279.472	-200.000	0.000	-0.131
-278.457	-87.041	-0.050	-0.015
-277.443	800.000	-0.071	-0.205
-276.428	672.945	-0.059	0.151
-275.413	800.000	0.020	-0.059
-274.399	390.904	0.028	0.057
-273.384	-88.711	0.177	-0.052
-272.370	-200.000	0.013	-0.249
-271.355	10.927	-0.361	-0.273
-270.340	-200.000	0.026	0.328
-269.326	72.779	-0.134	0.138
-268.311	-200.000	0.015	0.148
-267.297	800.000	-0.017	0.065
-266.282	-145.114	-0.269	-0.024
-265.267	-200.000	0.016	0.210
-264.253	528.228	0.108	0.253
-263.238	-131.502	0.145	-0.019
-262.224	-23.170	0.285	0.170
-261.209	-37.754	-0.092	0.049
-260.195	-44.790	-0.320	-0.158
-259.180	514.500	0.131	0.302
-258.165	246.717	0.094	-0.156
-257.151	800.000	-0.074	-0.263
-256.136	-150.793	0.130	0.010
-255.122	-51.507	-0.219	0.101
-254.107	-139.193	-0.050	0.005
-253.092	800.000	-0.132	-0.420
-252.078	55.829	0.158	0.152
-251.063	12.051	0.245	-0.187
-250.049	-200.000	-0.004	0.146
-249.034	-1.774	0.141	0.098
-248.019	94.525	-0.160	-0.179
-247.005	-200.000	-0.016	0.116
-245.990	439.364	0.039	-0.083
-244.976	-149.921	-0.313	0.024
-243.961	-125.436	0.324	-0.049
-242.946	-23.762	-0.124	0.073
-241.932	-172.352	0.246	-0.008
-240.917	-167.090	-0.118	-0.005
-239.903	800.000	-0.014	0.041
-238.888	-4.520	0.091	-0.062
-237.873	33.652	0.377	-0.324
-236.859	72.366	-0.093	-0.096
-235.844	576.187	-0.045	-0.109
-234.830	576.415	-0.083	0.200
-233.815	-200.000	-0.323	-0.001
-232.800	-200.000	-0.080	0.545
-231.786	93.127	0.285	-0.319
-230.771	-119.496	0.439	-0.075
-229.757	33.563	-0.184	-0.158
-228.742	171.505	0.183	-0.260
-227.727	800.000	0.039	0.111
-226.713	-200.000	0.015	0.264
-225.698	58.615	-0.173	-0.168
-224.684	-200.000	-0.071	-0.373
-223.669	-200.000	0.026	0.115
-222.655	-75.365	0.086	0.030
-221.640	800.000	-0.086	-0.263
-220.625	-81.260	0.172	0.056
-219.611	33.003	-0.254	0.217
-218.596	-200.000	-0.027	-0.194
-217.582	89.439	-0.141	-0.155
-216.567	-35.158	0.188	-0.101
-215.552	-93.569	0.256	-0.070
-214.538	800.000	-0.013	0.040
-213.523	37.766	0.182	0.160
-212.509	15.332	-0.272	0.210
-211.494	367.085	-0.087	0.174
-210.479	-119.652	-0.015	0.003
-209.465	22.546	-0.136	-0.110
-208.450	174.590	0.092	0.132
-207.436	732.130	0.094	0.248
-206.421	-19.902	-0.183	0.111
-205.406	143.525	-0.189	0.249
-204.392	33.180	0.096	-0.083
-203.377	156.597	0.043	0.059
-202.363	-200.000	0.009	0.051
-201.348	-200.000	-0.028	0.130
-200.333	50.179	0.137	-0.127
-199.319	-149.198	-0.056	0.004
-198.304	-143.406	0.201	-0.019
-197.290	-200.000	-0.046	-0.415
-196.275	326.307	0.116	0.218
-195.260	-200.000	-0.049	0.258
-194.246	96.380	0.034	-0.039
-193.231	320.484	0.088	-0.165
-192.217	47.427	-0.168	0.155
-191.202	77.603	-0.065	0.068
-190.187	295.491	-0.064	0.115
-189.173	-31.362	0.103	-0.057
-188.158	39.312	0.052	0.046
-187.144	-200.000	0.037	-0.236
-186.129	95.338	0.140	0.158
-185.114	-200.000	0.041	0.463
-184.100	155.887	0.127	0.173
-183.085	-200.000	-0.060	0.283
-182.071	356.048	0.119	0.234
-181.056	800.000	-0.033	-0.102
-180.042	-200.000	0.001	-0.240
-179.027	-105.373	0.422	-0.095
-178.012	45.877	-0.022	-0.020
-176.998	26.522	0.129	0.107
-175.983	-147.627	-0.238	-0.020
-174.969	-149.293	0.178	-0.014
-173.954	28.936	0.167	-0.140
-172.939	144.213	0.163	0.214
-171.925	800.000	0.083	0.338
-170.910	800.000	0.083	0.284
-169.896	614.716	0.097	-0.240
-168.881	-151.224	0.282	-0.021
-167.866	-200.000	0.014	-0.250
-166.852	179.162	-0.152	-0.219
-165.837	29.575	-0.215	0.181
-164.823	-9.018	0.302	0.199
-163.808	-118.542	0.319	0.056
-162.793	-85.305	0.102	0.031
-161.779	-23.304	-0.087	0.052
-160.764	102.715	-0.061	0.070
-159.750	800.000	0.033	0.121
-158.735	-124.774	0.302	-0.046
-157.720	6.090	-0.254	-0.186
-156.706	-62.543	-0.094	0.039
-155.691	800.000	0.075	0.205
-154.677	329.972	-0.057	0.108
-153.662	-69.105	-0.125	0.047
-152.647	-32.628	0.026	-0.014
-151.633	406.906	-0.019	0.039
-150.618	-169.454	-0.231	-0.008
-149.604	-127.356	-0.219	0.031
-148.589	-19.448	-0.331	-0.202
-147.574	347.462	0.051	0.099
-146.560	216.570	0.229	0.359
-145.545	696.738	-0.082	-0.211
-144.531	-50.538	0.266	-0.124
-143.516	-95.543	0.174	0.046
-142.502	-160.455	0.161	-0.008
-141.487	419.655	-0.159	-0.335
-140.472	-200.000	-0.007	-0.213
-139.458	-62.396	-0.150	-0.061
-138.443	-77.706	-0.273	-0.093
-137.429	432.561	-0.128	-0.273
-136.414	800.000	0.103	-0.433
-135.399	800.000	-0.093	0.293
-134.385	800.000	-0.073	-0.231
-133.370	10.139	-0.059	0.045
-132.356	53.150	0.268	-0.253
-131.341	-55.930	0.170	0.075
-130.326	-38.253	-0.081	-0.042
-129.312	577.386	-0.141	0.339
-128.297	-200.000	0.055	0.266
-127.283	-200.000	0.053	-0.406
-126.268	111.200	0.193	-0.229
-125.253	-200.000	-0.044	0.232
-124.239	-177.512	0.184	0.004
-123.224	-107.255	-0.112	-0.024
-122.210	800.000	-0.060	-0.193
-121.195	349.614	0.022	0.043
