DTS Sentinel unit serial number:	SN413079Multiplexer serial number:	ORYXHardware model number:	OX4-SRSoftware version number:	ORYX F/W v4.00 Oryx Data Collector v3.7.2.0data status	okinstallation	princeton_trtdifferential loss correction	single-endedforward channel	channel 1reverse channel	N/Adate	2019/09/12time	04:28:11forward acquisition time	60.00reverse acquisition time	0.00gamma	496.2192k internal	0.2324k external	0.2324temperature offset calibration	1.0081default loss term (dB/km)	0.3790temperature slope calibration	1.0000multiplexer offset coefficient	1.0000multiplexer slope coefficient	1.0000fibre end	0.00T internal ref (°C)	31.62T ext. ref 1 (°C)	2.24T ext. ref 2 (°C)	26.16length (m)	temperature (°C)	Stokes	anti-Stokes-747.200	-200.000	0.025	0.316
-746.185	142.961	-0.194	0.260
-745.171	201.041	-0.247	0.384
-744.156	178.174	0.117	0.173
-743.142	-4.260	0.438	-0.306
-742.127	223.087	-0.167	0.272
-741.112	-88.437	0.263	-0.079
-740.098	216.476	0.162	0.260
-739.083	-131.732	-0.236	-0.031
-738.069	-115.109	-0.264	-0.050
-737.054	332.914	0.142	-0.276
-736.039	379.179	-0.112	0.231
-735.025	1.722	-0.206	-0.150
-734.010	410.601	0.164	-0.351
-732.996	7.210	0.162	-0.122
-731.981	-200.000	0.001	0.081
-730.966	-200.000	-0.024	-0.313
-729.952	274.237	0.053	-0.095
-728.937	-200.000	-0.409	0.001
-727.923	-168.474	0.116	-0.004
-726.908	-71.256	-0.514	0.195
-725.894	800.000	-0.075	-0.256
-724.879	40.384	-0.054	-0.049
-723.864	95.164	-0.323	-0.371
-722.850	-200.000	0.034	-0.179
-721.835	405.828	0.109	0.231
-720.821	-54.187	-0.270	0.124
-719.806	391.171	-0.056	-0.118
-718.791	-200.000	-0.015	-0.104
-717.777	27.449	-0.082	-0.070
-716.762	-200.000	0.030	0.145
-715.748	-35.949	-0.013	-0.007
-714.733	-200.000	0.040	0.326
-713.718	-200.000	-0.003	0.047
-712.704	-200.000	0.048	0.242
-711.689	-85.478	0.339	-0.106
-710.675	-149.645	-0.190	0.015
-709.660	-79.276	-0.168	-0.057
-708.645	-9.516	0.191	-0.129
-707.631	35.320	-0.123	0.109
-706.616	283.350	-0.076	0.137
-705.602	29.397	-0.164	-0.140
-704.587	267.345	-0.132	-0.232
-703.572	-86.026	-0.430	-0.134
-702.558	186.237	0.097	-0.145
-701.543	493.557	0.150	-0.346
-700.529	67.261	0.198	-0.204
-699.514	800.000	-0.119	0.385
-698.499	-74.343	0.281	-0.102
-697.485	-160.234	-0.197	-0.011
-696.470	-17.743	0.205	-0.130
-695.456	-200.000	0.010	-0.445
-694.441	-83.367	0.176	0.057
-693.426	-23.758	0.299	-0.181
-692.412	-17.862	0.199	-0.125
-691.397	-7.242	0.183	-0.125
-690.383	-20.442	0.257	0.159
-689.368	21.310	-0.063	-0.052
-688.354	800.000	-0.130	-0.488
-687.339	649.866	0.078	-0.200
-686.324	-19.926	0.182	-0.113
-685.310	-98.670	0.291	-0.075
-684.295	0.243	-0.152	-0.109
-683.281	-137.890	-0.118	0.013
-682.266	-74.747	0.065	-0.023
-681.251	258.024	-0.157	0.272
-680.237	-123.628	0.118	-0.019
-679.222	-200.000	-0.007	-0.167
-678.208	266.766	-0.095	-0.168
-677.193	29.051	-0.147	0.126
-676.178	-156.006	0.135	-0.009
-675.164	148.340	0.030	0.041
-674.149	441.761	0.134	0.295
-673.135	-33.111	0.128	-0.072
-672.120	-72.540	-0.340	-0.126
-671.105	228.806	-0.097	-0.160
-670.091	47.326	-0.156	-0.146
-669.076	-81.795	-0.096	-0.032
-668.062	-146.983	-0.114	-0.010
-667.047	800.000	0.079	-0.308
-666.032	132.344	-0.171	-0.221
-665.018	714.082	-0.088	-0.236
-664.003	-59.562	-0.236	-0.102
-662.989	-2.270	-0.167	-0.118
-661.974	-200.000	0.010	0.269
-660.959	127.679	-0.128	0.163
-659.945	20.189	-0.079	-0.065
-658.930	176.073	-0.190	0.277
-657.916	-78.806	0.221	-0.076
-656.901	93.759	0.163	-0.185
-655.886	-10.177	0.099	0.066
-654.872	800.000	0.008	-0.025
-653.857	-10.253	-0.324	0.216
-652.843	-200.000	-0.033	-0.183
-651.828	71.411	0.297	0.310
-650.814	-118.079	-0.156	-0.028
-649.799	-200.000	0.011	0.169
-648.784	-132.248	-0.124	0.016
-647.770	503.905	0.018	-0.042
-646.755	800.000	-0.071	-0.296
-645.741	604.157	-0.030	-0.075
-644.726	288.772	-0.052	0.096
-643.711	271.183	-0.046	0.082
-642.697	584.849	0.033	0.081
-641.682	-13.075	-0.148	-0.097
-640.668	-181.095	-0.047	-0.001
-639.653	285.742	0.168	0.305
-638.638	-138.200	0.226	0.025
-637.624	77.774	0.061	-0.065
-636.609	581.735	-0.178	-0.439
-635.595	-168.508	0.259	-0.010
-634.580	800.000	-0.045	0.168
-633.565	-30.510	-0.090	-0.051
-632.551	-45.433	-0.339	-0.169
-631.536	627.844	-0.061	0.154
-630.522	-67.564	-0.199	0.078
-629.507	260.786	-0.046	0.080
-628.492	-2.092	-0.190	0.134
-627.478	-46.499	0.121	0.060
-626.463	-10.510	0.134	-0.089
-625.449	200.924	0.135	-0.209
-624.434	108.235	-0.174	-0.208
-623.419	800.000	-0.035	-0.127
-622.405	213.589	-0.140	-0.222
-621.390	15.166	0.170	0.134
-620.376	-75.685	-0.147	-0.052
-619.361	800.000	-0.041	-0.182
-618.346	-200.000	0.009	-0.301
-617.332	-76.358	-0.393	-0.139
-616.317	-200.000	0.044	-0.375
-615.303	187.369	-0.106	0.158
-614.288	35.521	0.109	-0.096
-613.273	90.376	0.149	-0.167
-612.259	370.345	0.111	-0.227
-611.244	251.623	-0.069	0.118
-610.230	196.342	0.304	0.464
-609.215	340.518	-0.164	-0.322
-608.201	-200.000	0.006	-0.490
-607.186	800.000	0.053	-0.155
-606.171	-48.445	-0.247	0.119
-605.157	800.000	0.089	-0.270
-604.142	205.930	0.057	-0.090
-603.128	442.287	-0.095	0.209
-602.113	-79.153	0.174	0.059
-601.098	-200.000	-0.076	0.000
-600.084	-200.000	-0.061	0.570
-599.069	800.000	-0.061	-0.186
-598.055	185.918	-0.010	-0.015
-597.040	269.444	-0.197	0.348
-596.025	-37.730	0.139	0.074
-595.011	331.223	-0.173	-0.335
-593.996	-200.000	-0.068	-0.521
-592.982	-143.720	0.218	0.021
-591.967	-6.919	0.318	-0.217
-590.952	-9.147	-0.120	-0.081
-589.938	-17.158	-0.041	-0.026
-588.923	800.000	0.150	-0.424
-587.909	154.001	-0.203	-0.279
-586.894	75.741	0.175	0.185
-585.879	-200.000	-0.002	0.113
-584.865	134.811	-0.124	-0.162
-583.850	-200.000	-0.021	-0.193
-582.836	800.000	-0.152	-0.453
-581.821	-49.060	0.250	-0.120
-580.806	800.000	-0.081	0.249
-579.792	-177.127	0.288	0.007
-578.777	44.411	0.299	0.275
-577.763	-200.000	0.002	-0.121
-576.748	-200.000	0.001	0.081
-575.733	-200.000	-0.104	-0.477
-574.719	-18.508	-0.425	0.266
-573.704	70.167	-0.117	0.121
-572.690	105.814	-0.046	0.055
-571.675	54.762	-0.209	0.202
-570.661	155.056	0.132	-0.182
-569.646	163.060	0.043	-0.061
-568.631	6.983	-0.079	0.059
-567.617	84.290	-0.218	0.239
-566.602	94.031	0.082	-0.094
-565.588	-200.000	-0.012	-0.318
-564.573	-15.001	-0.173	0.111
-563.558	-104.487	-0.295	-0.068
-562.544	46.226	0.357	-0.332
-561.529	61.678	0.084	0.083
-560.515	800.000	-0.125	-0.364
-559.500	618.839	0.017	0.043
-558.485	27.109	0.065	-0.055
-557.471	522.471	-0.079	-0.186
-556.456	76.387	-0.174	-0.185
-555.442	17.250	0.235	0.187
-554.427	800.000	-0.074	0.225
-553.412	149.661	0.128	-0.174
-552.398	2.297	0.190	-0.138
-551.383	193.407	0.162	-0.246
-550.369	800.000	-0.176	-0.528
-549.354	800.000	0.047	-0.170
-548.339	7.390	0.209	-0.157
-547.325	-21.150	-0.170	0.104
-546.310	-65.837	0.197	-0.079
-545.296	351.169	-0.083	0.165
-544.281	-105.497	0.146	-0.033
-543.266	-108.503	0.504	0.109
-542.252	-65.144	-0.308	0.125
-541.237	71.183	-0.102	-0.106
-540.223	611.117	-0.128	0.320
-539.208	800.000	-0.032	-0.119
-538.193	-200.000	0.028	-0.362
-537.179	747.433	0.090	0.243
-536.164	42.691	0.173	0.158
-535.150	-98.251	0.226	0.058
-534.135	-88.936	0.277	0.082
-533.121	34.030	0.248	-0.216
-532.106	66.933	-0.099	0.101
-531.091	54.222	-0.184	-0.177
-530.077	345.403	-0.020	-0.040
-529.062	122.503	-0.132	0.165
-528.048	641.949	0.149	-0.379
-527.033	302.925	0.017	0.031
-526.018	-59.186	0.287	-0.124
-525.004	-200.000	0.013	0.155
-523.989	-8.000	0.173	0.117
-522.975	-200.000	0.037	0.190
-521.960	-67.712	0.272	-0.106
-520.945	38.133	0.035	-0.031
-519.931	179.193	-0.114	0.167
-518.916	503.101	0.109	0.253
-517.902	-200.000	0.025	0.533
-516.887	104.465	0.153	-0.180
-515.872	-200.000	-0.088	-0.451
-514.858	228.042	-0.094	-0.153
-513.843	-148.739	-0.292	0.024
-512.829	138.252	-0.020	-0.026
-511.814	-131.891	0.167	0.022
-510.799	738.919	-0.183	0.492
-509.785	372.305	0.154	0.313
-508.770	79.085	0.087	0.093
-507.756	-94.334	-0.260	0.071
-506.741	800.000	-0.089	0.304
-505.726	-125.119	0.639	-0.098
-504.712	-200.000	0.016	-0.158
-503.697	-103.710	0.362	0.085
-502.683	-200.000	-0.052	-0.270
-501.668	-27.107	0.151	-0.088
-500.653	-200.000	0.020	0.136
-499.639	-4.900	0.132	0.091
-498.624	163.645	-0.255	0.359
-497.610	256.839	0.143	0.246
-496.595	-154.148	-0.316	-0.021
-495.581	-39.487	-0.268	0.140
-494.566	-200.000	-0.009	0.119
-493.551	-41.663	-0.260	0.133
-492.537	48.217	0.257	-0.240
-491.522	32.898	-0.102	0.089
-490.508	-108.337	0.058	0.012
-489.493	-82.386	-0.038	-0.012
-488.478	163.632	0.127	0.179
-487.464	-143.960	-0.155	-0.015
-486.449	-48.450	0.115	-0.056
-485.435	-137.385	0.232	0.026
-484.420	-26.206	-0.035	0.020
-483.405	-141.070	0.247	-0.025
-482.391	-122.336	-0.195	0.032
-481.376	-142.962	0.166	-0.016
-480.362	-100.816	0.217	0.053
-479.347	-68.005	-0.115	-0.045
-478.332	-148.273	0.089	-0.007
-477.318	-141.359	-0.289	0.029
-476.303	-12.089	0.157	0.103
-475.289	800.000	0.086	-0.249
-474.274	800.000	-0.079	-0.298
-473.259	21.709	-0.022	0.018
-472.245	779.361	0.178	0.485
-471.230	-11.236	0.072	0.047
-470.216	8.096	0.103	0.077
-469.201	-104.178	-0.240	-0.056
-468.186	-200.000	-0.060	-0.325
-467.172	-200.000	-0.028	-0.279
-466.157	-100.657	-0.272	-0.067
-465.143	-74.902	0.353	-0.127
-464.128	-50.566	0.067	-0.031
-463.113	514.071	-0.135	0.315
-462.099	-53.760	0.106	0.048
-461.084	164.106	0.145	0.204
-460.070	-200.000	-0.057	0.263
-459.055	-148.917	0.181	-0.015
-458.040	-121.236	0.136	-0.023
-457.026	545.349	-0.135	0.321
-456.011	-200.000	-0.018	0.142
-454.997	-200.000	-0.029	-0.227
-453.982	85.383	-0.358	0.392
-452.968	-101.275	-0.256	0.062
-451.953	-200.000	-0.035	-0.261
-450.938	386.371	0.140	-0.288
-449.924	-96.428	0.180	0.047
-448.909	-104.242	0.302	-0.070
-447.895	-136.594	0.186	0.021
-446.880	473.796	-0.100	-0.224
-445.865	727.830	-0.039	0.103
-444.851	532.372	0.073	-0.173
-443.836	56.640	-0.074	-0.072
-442.822	-112.955	-0.164	0.032
-441.807	-200.000	-0.000	0.338
-440.792	-46.880	-0.111	-0.054
-439.778	-135.322	-0.475	0.057
-438.763	-116.097	-0.213	-0.039
-437.749	-40.658	-0.216	-0.112
-436.734	-121.563	-0.288	0.048
-435.719	800.000	-0.090	0.340
-434.705	-98.154	-0.433	-0.111
-433.690	800.000	0.075	-0.236
-432.676	-71.670	-0.155	-0.058
-431.661	555.171	0.079	-0.190
-430.646	-200.000	-0.079	0.373
-429.632	376.219	-0.103	0.209
-428.617	25.324	0.221	0.183
-427.603	-47.742	-0.143	-0.069
-426.588	419.455	-0.167	0.356
-425.573	1.806	0.103	-0.074
-424.559	539.797	0.075	0.177
-423.544	-200.000	0.009	0.249
-422.530	354.708	0.146	0.289
-421.515	69.670	0.276	-0.284
-420.500	69.484	0.097	-0.099
-419.486	-60.778	-0.068	0.029
-418.471	-13.521	0.123	-0.079
-417.457	-63.726	-0.158	-0.065
-416.442	-200.000	-0.074	0.379
-415.428	24.637	-0.139	-0.115
-414.413	800.000	-0.088	-0.253
-413.398	-107.005	0.210	0.046
-412.384	1.396	0.132	-0.094
-411.369	182.275	-0.125	0.183
-410.355	-200.000	-0.032	-0.144
-409.340	-141.436	-0.455	0.046
-408.325	47.711	-0.171	0.159
-407.311	398.336	-0.200	0.417
-406.296	-91.762	-0.313	0.089
-405.282	83.227	-0.148	-0.161
-404.267	-78.417	0.156	-0.053
-403.252	136.571	0.176	-0.229
-402.238	-96.412	-0.144	0.038
-401.223	-23.086	0.139	0.083
-400.209	-200.000	0.014	0.126
-399.194	35.716	-0.186	0.162
-398.179	800.000	0.055	-0.176
-397.165	-200.000	-0.008	0.319
-396.150	179.610	-0.010	0.015
-395.136	-200.000	-0.019	-0.130
-394.121	199.471	-0.187	0.285
-393.106	-82.462	-0.476	-0.154
-392.092	636.847	0.179	-0.452
-391.077	669.667	0.144	-0.371
-390.063	800.000	0.096	-0.391
-389.048	800.000	0.139	0.413
-388.033	125.340	0.087	0.109
-387.019	190.151	0.050	0.075
-386.004	-200.000	0.014	0.068
-384.990	171.362	0.120	0.172
-383.975	800.000	0.011	-0.034
-382.960	102.072	0.034	0.039
-381.946	5.343	0.289	0.212
-380.931	732.480	-0.075	0.199
-379.917	-200.000	-0.003	-0.400
-378.902	-162.464	0.109	-0.005
-377.888	-200.000	0.013	-0.064
-376.873	-22.498	0.076	-0.046
-375.858	-101.532	0.319	-0.077
-374.844	49.465	0.113	-0.106
-373.829	83.674	-0.093	0.100
-372.815	-18.252	-0.124	-0.077
-371.800	-167.966	0.110	0.004
-370.785	274.515	-0.044	0.078
-369.771	43.162	-0.159	-0.144
-368.756	-154.517	0.242	-0.016
-367.742	-27.810	-0.265	0.153
-366.727	800.000	0.040	0.122
-365.712	4.299	0.055	0.040
-364.698	-200.000	-0.000	-0.036
-363.683	-28.691	-0.251	-0.143
-362.669	-62.276	0.134	-0.056
-361.654	-141.563	0.069	0.007
-360.639	497.926	0.145	-0.331
-359.625	-200.000	0.011	0.051
-358.610	-135.023	-0.089	-0.011
-357.596	704.486	0.103	0.269
-356.581	179.633	0.166	-0.241
-355.566	414.482	-0.133	-0.281
-354.552	-43.956	0.149	-0.075
-353.537	-107.533	0.174	-0.038
-352.523	750.814	0.051	0.137
-351.508	-88.841	0.252	-0.074
-350.493	-63.234	0.239	0.098
-349.479	-52.232	-0.070	0.032
-348.464	85.131	-0.051	0.055
-347.450	17.545	-0.191	0.151
-346.435	279.472	0.120	0.212
-345.420	-129.536	0.099	0.014
-344.406	-200.000	0.019	0.175
-343.391	-84.674	-0.236	-0.074
-342.377	800.000	0.091	-0.267
-341.362	459.488	-0.119	0.264
-340.348	202.702	-0.026	-0.039
-339.333	-200.000	-0.060	-0.278
-338.318	116.600	0.050	-0.061
-337.304	104.714	-0.111	-0.130
-336.289	131.755	-0.195	-0.249
-335.275	-154.016	-0.252	0.017
-334.260	-53.553	0.158	-0.072
-333.245	-125.069	-0.373	-0.057
-332.231	448.281	0.022	-0.049
-331.216	-5.737	-0.197	-0.134
-330.202	342.970	-0.091	0.178
-329.187	170.381	0.149	-0.212
-328.172	-124.743	0.063	-0.010
-327.158	-200.000	0.085	0.430
-326.143	-126.938	-0.366	0.053
-325.129	146.380	0.219	-0.292
-324.114	66.019	0.189	-0.190
-323.099	-28.736	-0.124	0.071
-322.085	-7.695	0.210	0.141
-321.070	113.263	0.234	0.282
-320.056	145.245	0.096	0.127
-319.041	-3.726	-0.470	-0.324
-318.026	-121.153	-0.158	-0.026
-317.012	-102.913	0.299	0.070
-315.997	199.492	-0.154	0.234
-314.983	25.639	-0.162	-0.134
-313.968	-200.000	-0.035	-0.158
-312.953	642.781	-0.147	0.371
-311.939	191.740	-0.034	-0.051
-310.924	-37.764	0.103	-0.054
-309.910	-200.000	0.068	0.343
-308.895	-200.000	0.028	-0.270
-307.880	72.117	-0.044	0.045
-306.866	-200.000	0.005	0.178
-305.851	-107.040	0.272	0.060
-304.837	-200.000	0.002	0.069
-303.822	154.312	0.119	0.162
-302.807	448.643	-0.079	0.173
-301.793	48.772	-0.088	0.082
-300.778	-200.000	0.036	0.316
-299.764	617.492	0.078	-0.193
-298.749	-78.966	0.181	-0.061
-297.735	-200.000	-0.037	-0.264
-296.720	-200.000	0.033	-0.190
-295.705	-56.347	-0.242	-0.107
-294.691	-71.234	0.127	0.047
-293.676	-8.555	0.263	0.175
-292.662	78.515	0.178	0.189
-291.647	197.135	0.189	0.286
-290.632	-49.384	-0.348	-0.165
-289.618	11.195	-0.242	-0.184
-288.603	-35.428	0.161	-0.087
-287.589	30.185	-0.147	-0.124
-286.574	-151.034	-0.155	0.012
-285.559	87.293	0.190	0.208
-284.545	-29.841	0.193	-0.109
-283.530	242.628	0.100	0.167
-282.516	-135.565	-0.310	-0.037
-281.501	313.538	-0.147	-0.274
-280.486	149.581	-0.043	0.058
-279.472	521.321	0.016	0.037
-278.457	-26.534	-0.405	0.235
-277.443	800.000	0.035	0.129
-276.428	-87.213	0.122	-0.037
-275.413	135.296	-0.128	0.165
-274.399	50.167	0.194	-0.181
-273.384	59.933	0.187	-0.183
-272.370	-200.000	0.013	0.133
-271.355	-186.549	-0.228	0.003
-270.340	-200.000	0.005	0.483
-269.326	42.320	0.041	-0.037
-268.311	60.361	0.182	-0.178
-267.297	-149.117	0.167	-0.013
-266.282	3.773	0.257	0.186
-265.267	-129.069	-0.260	0.036
-264.253	115.908	-0.149	-0.181
-263.238	-6.872	0.248	0.167
-262.224	800.000	-0.088	0.333
-261.209	-39.149	-0.056	0.029
-260.195	-136.459	0.361	-0.042
-259.180	426.945	-0.162	0.347
-258.165	-200.000	-0.001	0.155
-257.151	-179.388	0.222	0.005
-256.136	559.505	-0.104	0.248
-255.122	-68.902	-0.539	-0.206
-254.107	-13.367	0.127	0.082
-253.092	-70.953	0.184	0.069
-252.078	-118.679	0.143	0.025
-251.063	800.000	-0.030	-0.098
-250.049	638.107	0.062	-0.155
-249.034	-68.460	-0.200	-0.077
-248.019	450.914	0.088	0.191
-247.005	-200.000	0.022	-0.293
-245.990	-67.905	0.030	-0.012
-244.976	800.000	-0.083	0.254
-243.961	-10.749	-0.243	0.159
-242.946	353.830	-0.066	-0.130
-241.932	800.000	0.065	0.230
-240.917	-42.299	-0.107	-0.054
-239.903	240.812	-0.069	0.114
-238.888	191.965	0.125	-0.186
-237.873	-15.281	0.259	-0.164
-236.859	-200.000	0.026	0.235
-235.844	800.000	0.084	-0.282
-234.830	123.654	0.078	-0.097
-233.815	72.251	-0.394	0.406
-232.800	-194.195	-0.160	0.001
-231.786	-200.000	-0.002	0.193
-230.771	4.637	0.121	-0.088
-229.757	-200.000	-0.019	0.430
-228.742	800.000	0.127	0.394
-227.727	800.000	-0.031	0.090
-226.713	-159.563	0.045	0.002
-225.698	-130.491	0.170	-0.023
-224.684	-179.072	-0.252	0.006
-223.669	260.820	-0.084	-0.144
-222.655	-84.138	0.056	0.017
-221.640	-200.000	-0.019	-0.143
-220.625	-5.561	-0.120	-0.081
-219.611	-200.000	0.057	-0.311
-218.596	-117.870	-0.295	-0.052
-217.582	-200.000	0.003	-0.065
-216.567	-198.941	0.255	-0.001
-215.552	-51.208	0.127	0.059
-214.538	-200.000	0.005	0.290
-213.523	-98.088	-0.080	0.020
-212.509	-31.158	0.065	0.036
-211.494	106.620	0.139	0.163
-210.479	-82.168	-0.250	-0.080
-209.465	800.000	-0.047	0.172
-208.450	-11.252	0.201	0.131
-207.436	6.589	-0.324	0.238
-206.421	-140.164	0.292	-0.030
-205.406	-200.000	0.009	0.241
-204.392	-150.935	-0.101	0.008
-203.377	-10.004	0.212	-0.139
-202.363	214.362	-0.081	0.127
-201.348	-73.831	0.238	-0.086
-200.333	275.680	-0.191	-0.334
-199.319	4.350	-0.053	-0.038
-198.304	800.000	0.049	0.185
-197.290	-200.000	0.006	0.128
-196.275	-200.000	-0.028	0.159
-195.260	800.000	0.080	-0.243
-194.246	-185.973	0.430	-0.006
-193.231	-200.000	-0.003	-0.305
-192.217	-200.000	-0.017	-0.093
-191.202	800.000	0.067	-0.190
-190.187	-200.000	-0.005	-0.374
-189.173	-200.000	0.033	0.226
-188.158	-125.663	0.266	-0.040
-187.144	-44.620	0.268	-0.132
-186.129	-96.238	-0.043	0.011
-185.114	-200.000	-0.032	0.158
-184.100	-16.653	-0.149	-0.093
-183.085	57.638	0.244	0.236
-182.071	613.295	0.097	0.240
-181.056	-200.000	-0.021	0.203
-180.042	-200.000	-0.090	-0.516
-179.027	800.000	-0.102	-0.391
-178.012	-76.017	0.132	0.046
-176.998	327.564	-0.126	-0.239
-175.983	-169.287	-0.105	0.004
-174.969	-69.934	-0.482	0.181
-173.954	800.000	0.012	-0.034
-172.939	424.787	-0.120	0.254
-171.925	-121.039	-0.090	0.015
-170.910	-200.000	-0.030	-0.141
-169.896	-78.863	-0.104	0.035
-168.881	-141.396	0.158	0.016
-167.866	26.906	0.214	-0.177
-166.852	-116.389	-0.192	0.035
-165.837	-122.309	0.245	0.039
-164.823	112.436	-0.078	-0.093
-163.808	148.307	0.177	0.236
-162.793	180.008	0.178	-0.257
-161.779	-200.000	-0.084	0.461
-160.764	69.796	0.252	-0.256
-159.750	-121.804	-0.143	-0.023
-158.735	-192.770	0.047	0.000
-157.720	800.000	0.075	-0.276
-156.706	135.996	-0.334	-0.429
-155.691	-75.175	-0.186	-0.066
-154.677	-200.000	-0.024	0.149
-153.662	-118.610	-0.027	0.005
-152.647	485.273	-0.102	0.229
-151.633	-52.881	0.134	0.061
-150.618	-37.594	-0.072	0.038
-149.604	-108.417	0.245	0.052
-148.589	663.607	-0.046	0.118
-147.574	312.402	0.077	0.143
-146.560	582.340	0.040	-0.096
-145.545	-19.214	0.221	0.135
-144.531	-66.802	-0.251	0.098
-143.516	-39.750	-0.298	-0.153
-142.502	-85.557	0.435	-0.133
-141.487	15.945	-0.033	0.025
-140.472	-46.514	0.142	0.069
-139.458	-75.889	-0.350	0.122
-138.443	231.444	-0.159	0.257
-137.429	180.716	-0.170	0.247
-136.414	-200.000	0.023	0.211
-135.399	18.992	-0.221	0.174
-134.385	18.625	0.191	0.150
-133.370	390.854	-0.105	0.214
-132.356	-92.966	0.178	-0.049
-131.341	-3.261	0.145	-0.100
-130.326	-34.964	-0.258	0.139
-129.312	-24.801	0.327	0.191
-128.297	-200.000	0.043	0.408
-127.283	-136.376	-0.204	0.023
-126.268	-200.000	0.007	0.152
-125.253	746.242	0.038	0.102
-124.239	800.000	0.031	0.098
-123.224	91.571	-0.261	0.289
-122.210	-92.736	0.436	0.120
-121.195	-115.245	-0.166	-0.031
