DTS Sentinel unit serial number:	SN413079Multiplexer serial number:	ORYXHardware model number:	OX4-SRSoftware version number:	ORYX F/W v4.00 Oryx Data Collector v3.7.2.0data status	okinstallation	princeton_trtdifferential loss correction	single-endedforward channel	channel 1reverse channel	N/Adate	2019/09/12time	19:04:34forward acquisition time	15.00reverse acquisition time	0.00gamma	496.2192k internal	0.2319k external	0.2319temperature offset calibration	1.0116default loss term (dB/km)	0.3790temperature slope calibration	1.0000multiplexer offset coefficient	1.0000multiplexer slope coefficient	1.0000fibre end	0.00T internal ref (°C)	32.69T ext. ref 1 (°C)	3.02T ext. ref 2 (°C)	27.23length (m)	temperature (°C)	Stokes	anti-Stokes-747.200	-142.635	-0.369	0.037
-746.185	800.000	0.041	0.163
-745.171	-132.138	0.653	-0.086
-744.156	800.000	-0.293	-0.827
-743.142	-200.000	0.047	-0.208
-742.127	352.441	-0.092	0.184
-741.112	-200.000	-0.000	1.354
-740.098	-200.000	0.004	-0.680
-739.083	43.016	-0.299	0.276
-738.069	56.424	-0.769	-0.756
-737.054	-149.159	1.001	-0.081
-736.039	800.000	0.151	0.484
-735.025	-10.731	0.447	0.299
-734.010	800.000	-0.199	0.632
-732.996	28.222	-0.174	-0.148
-731.981	-85.986	0.262	0.082
-730.966	262.491	-0.440	-0.771
-729.952	-72.462	-0.570	-0.213
-728.937	-200.000	-0.139	0.633
-727.923	101.386	0.453	0.534
-726.908	453.381	-0.384	0.860
-725.894	547.637	0.380	-0.919
-724.879	88.304	0.691	-0.776
-723.864	-154.440	0.396	0.027
-722.850	-129.297	0.106	-0.015
-721.835	36.157	-0.279	0.248
-720.821	-123.577	-0.132	-0.021
-719.806	-59.297	-0.238	0.104
-718.791	15.169	0.220	0.174
-717.777	-26.331	0.792	-0.470
-716.762	-74.837	-0.392	0.142
-715.748	-55.944	0.162	-0.073
-714.733	105.467	-0.068	0.081
-713.718	325.014	0.407	0.787
-712.704	89.841	-0.384	0.434
-711.689	-59.486	0.621	0.270
-710.675	223.019	-0.204	-0.333
-709.660	747.327	0.147	0.400
-708.645	800.000	-0.093	-0.270
-707.631	101.411	-0.202	-0.238
-706.616	-103.811	-0.041	0.010
-705.602	203.783	0.193	0.302
-704.587	-200.000	-0.053	-0.949
-703.572	-101.314	-0.285	-0.070
-702.558	-3.203	0.301	-0.212
-701.543	-200.000	-0.069	0.702
-700.529	-118.472	-0.794	0.142
-699.514	-9.772	-0.527	-0.354
-698.499	-200.000	0.041	0.376
-697.485	-81.325	0.596	0.198
-696.470	-39.090	1.159	-0.615
-695.456	-200.000	-0.006	-0.235
-694.441	100.530	-0.280	0.328
-693.426	-98.518	0.331	0.085
-692.412	800.000	0.149	0.513
-691.397	381.435	0.170	0.352
-690.383	-200.000	0.002	-0.136
-689.368	800.000	0.209	-0.770
-688.354	-200.000	-0.121	-0.793
-687.339	381.699	0.406	-0.841
-686.324	158.105	0.097	-0.136
-685.310	-28.465	0.061	0.035
-684.295	9.531	-0.133	-0.101
-683.281	-200.000	-0.135	-0.630
-682.266	3.556	-0.410	-0.302
-681.251	-92.821	0.307	0.087
-680.237	-199.173	-0.314	0.002
-679.222	-49.926	0.450	0.216
-678.208	-200.000	0.090	-0.560
-677.193	-137.598	-0.465	0.053
-676.178	800.000	0.221	-0.772
-675.164	456.905	-0.249	0.558
-674.149	531.347	0.250	0.596
-673.135	-95.661	0.623	0.168
-672.120	-2.483	0.472	0.334
-671.105	51.722	0.518	0.497
-670.091	-64.104	-0.577	-0.237
-669.076	17.558	-0.334	-0.268
-668.062	149.024	-0.348	-0.474
-667.047	-89.380	0.662	0.196
-666.032	83.904	-0.223	0.246
-665.018	6.329	-0.281	0.210
-664.003	234.605	-0.464	0.771
-662.989	11.682	-0.583	-0.451
-661.974	800.000	0.224	-0.920
-660.959	27.116	0.276	-0.234
-659.945	378.901	-0.414	-0.855
-658.930	477.905	-0.065	-0.148
-657.916	35.200	-0.194	-0.171
-656.901	-200.000	-0.263	-1.182
-655.886	-18.403	0.252	-0.159
-654.872	-87.770	0.248	0.075
-653.857	-59.357	0.351	-0.152
-652.843	27.726	0.341	-0.289
-651.828	-141.788	0.890	0.090
-650.814	-76.281	0.453	-0.161
-649.799	101.760	0.066	-0.078
-648.784	11.362	0.326	0.252
-647.770	100.893	-0.259	-0.303
-646.755	-129.303	-0.762	0.107
-645.741	-46.883	-0.634	0.312
-644.726	-63.641	0.336	0.139
-643.711	-200.000	-0.017	-0.902
-642.697	140.594	-0.169	0.225
-641.682	-200.000	0.120	-0.674
-640.668	-200.000	0.006	-0.070
-639.653	-59.169	-0.602	-0.261
-638.638	800.000	0.047	0.138
-637.624	4.309	-0.796	0.588
-636.609	800.000	0.253	0.839
-635.595	800.000	0.301	0.908
-634.580	381.023	-0.309	0.638
-633.565	-165.142	0.541	0.024
-632.551	91.994	-0.297	0.336
-631.536	-117.408	0.258	0.047
-630.522	512.207	0.132	-0.310
-629.507	-152.068	0.811	-0.059
-628.492	45.383	0.398	-0.370
-627.478	-200.000	-0.013	-0.524
-626.463	-48.773	0.142	-0.069
-625.449	-45.138	-0.750	-0.375
-624.434	25.808	-0.751	-0.630
-623.419	-130.153	-0.583	0.080
-622.405	315.363	-0.358	-0.680
-621.390	-200.000	-0.207	0.938
-620.376	800.000	0.411	1.295
-619.361	-200.000	0.025	1.315
-618.346	39.021	0.267	-0.240
-617.332	-200.000	-0.086	0.588
-616.317	718.827	-0.236	-0.632
-615.303	144.661	-0.469	-0.630
-614.288	37.523	-0.539	-0.481
-613.273	-39.990	0.672	-0.353
-612.259	-120.147	0.633	0.109
-611.244	-200.000	0.080	0.582
-610.230	-48.114	-0.253	-0.123
-609.215	-176.914	-0.458	0.012
-608.201	21.413	-0.343	0.281
-607.186	-152.628	0.542	0.039
-606.171	-3.529	-0.433	-0.303
-605.157	-55.713	0.589	-0.265
-604.142	85.574	0.105	-0.116
-603.128	-18.815	0.432	-0.271
-602.113	112.767	0.249	0.303
-601.098	11.035	0.339	-0.260
-600.084	-109.975	-0.286	-0.060
-599.069	389.063	-0.221	0.460
-598.055	-55.578	0.684	-0.308
-597.040	800.000	0.179	0.635
-596.025	-127.919	-0.681	0.098
-595.011	153.004	0.516	-0.709
-593.996	-121.068	-0.654	-0.110
-592.982	-4.352	-0.379	-0.263
-591.967	-102.472	-0.292	0.070
-590.952	271.138	-0.476	-0.843
-589.938	-8.774	0.400	0.269
-588.923	-200.000	0.012	0.321
-587.909	164.727	-0.141	-0.199
-586.894	640.363	-0.134	0.343
-585.879	-200.000	-0.122	0.691
-584.865	275.498	-0.318	-0.566
-583.850	-88.860	-0.572	-0.171
-582.836	218.628	0.368	-0.590
-581.821	79.460	0.491	0.529
-580.806	-90.551	-0.620	-0.180
-579.792	-79.777	-0.650	0.220
-578.777	800.000	0.126	0.396
-577.763	-200.000	-0.077	-0.608
-576.748	629.093	-0.275	-0.697
-575.733	-87.472	1.031	-0.314
-574.719	69.716	0.227	-0.235
-573.704	98.144	-0.093	0.108
-572.690	-86.680	-0.221	0.068
-571.675	3.327	-0.648	-0.474
-570.661	-200.000	0.004	-0.712
-569.646	-73.114	0.983	-0.362
-568.631	-105.576	0.831	-0.189
-567.617	-119.979	0.181	0.031
-566.602	36.290	0.351	-0.311
-565.588	-80.937	-0.433	0.144
-564.573	339.091	-0.244	-0.477
-563.558	219.419	-0.286	0.460
-562.544	-200.000	-0.035	0.344
-561.529	-200.000	0.196	0.996
-560.515	275.638	-0.083	-0.147
-559.500	-53.760	0.121	0.055
-558.485	800.000	0.047	0.139
-557.471	186.289	0.342	-0.511
-556.456	419.597	0.367	-0.789
-555.442	1.003	-0.723	0.520
-554.427	-85.095	0.724	0.228
-553.412	-200.000	-0.058	-0.366
-552.398	202.950	0.587	0.911
-551.383	4.701	-0.623	0.459
-550.369	-200.000	-0.004	0.458
-549.354	286.072	-0.325	-0.589
-548.339	-16.899	0.441	0.280
-547.325	45.258	-0.478	-0.442
-546.310	658.743	0.169	-0.437
-545.296	-104.027	-0.341	-0.080
-544.281	-69.636	-0.308	-0.118
-543.266	-70.046	0.404	-0.154
-542.252	-27.113	-0.236	-0.138
-541.237	54.447	0.116	-0.112
-540.223	800.000	0.087	-0.351
-539.208	800.000	0.150	-0.505
-538.193	202.672	-0.101	0.157
-537.179	-200.000	-0.008	-0.054
-536.164	-200.000	0.037	0.228
-535.150	47.188	-0.431	0.403
-534.135	498.380	-0.292	0.674
-533.121	17.419	0.507	0.404
-532.106	-150.339	-0.646	0.050
-531.091	213.559	0.419	0.664
-530.077	-3.369	0.581	0.406
-529.062	800.000	-0.095	0.411
-528.048	309.192	0.417	0.782
-527.033	152.379	-0.342	0.468
-526.018	60.089	0.187	-0.185
-525.004	17.491	-0.569	-0.453
-523.989	-200.000	0.068	0.343
-522.975	-58.218	0.920	-0.402
-521.960	-200.000	0.028	-0.180
-520.945	-200.000	0.149	-1.090
-519.931	-82.586	-0.762	-0.248
-518.916	-200.000	-0.016	0.647
-517.902	-196.230	1.060	-0.007
-516.887	82.013	0.377	0.409
-515.872	-12.716	0.591	0.386
-514.858	-72.781	0.847	-0.313
-513.843	800.000	0.016	0.054
-512.829	-200.000	0.087	0.833
-511.814	-45.572	-0.384	0.191
-510.799	61.389	-0.274	-0.273
-509.785	42.775	-0.337	-0.308
-508.770	250.817	0.326	-0.555
-507.756	160.979	0.696	0.974
-506.741	-48.429	-0.102	-0.049
-505.726	531.154	0.160	0.378
-504.712	241.071	-0.258	0.431
-503.697	800.000	0.113	-0.329
-502.683	-130.781	-0.832	-0.112
-501.668	-108.045	-0.587	0.128
-500.653	-92.286	-0.949	-0.268
-499.639	45.338	-0.575	-0.531
-498.624	333.350	0.313	-0.606
-497.610	58.792	0.405	0.399
-496.595	-10.946	0.273	0.180
-495.581	-200.000	-0.130	1.036
-494.566	-200.000	0.115	-0.621
-493.551	-200.000	0.093	0.664
-492.537	781.559	-0.215	-0.588
-491.522	45.493	-0.114	-0.106
-490.508	127.540	-0.242	0.308
-489.493	800.000	-0.139	-0.560
-488.478	187.519	-0.517	-0.773
-487.464	14.583	-0.465	-0.364
-486.449	-104.815	-0.122	0.028
-485.435	-200.000	0.081	0.676
-484.420	800.000	-0.109	-0.329
-483.405	-160.157	-0.838	0.046
-482.391	-200.000	0.058	-0.279
-481.376	-40.700	0.652	-0.338
-480.362	-126.878	-0.430	0.063
-479.347	-200.000	0.133	0.797
-478.332	-166.718	-0.315	-0.013
-477.318	800.000	-0.174	-0.585
-476.303	-92.164	0.873	-0.247
-475.289	-24.967	-0.275	0.163
-474.274	-200.000	0.054	0.610
-473.259	-200.000	-0.052	0.280
-472.245	148.687	0.299	-0.405
-471.230	800.000	0.107	0.322
-470.216	-164.210	0.328	0.015
-469.201	-200.000	-0.031	-0.950
-468.186	800.000	-0.143	0.469
-467.172	23.201	-0.703	0.577
-466.157	267.161	-0.417	-0.729
-465.143	118.903	0.416	-0.514
-464.128	-200.000	0.022	0.132
-463.113	-165.954	0.275	0.012
-462.099	59.484	0.037	0.036
-461.084	-123.271	-0.695	-0.111
-460.070	-18.952	0.645	-0.401
-459.055	-31.836	0.719	0.403
-458.040	-95.003	0.284	-0.077
-457.026	800.000	0.243	0.824
-456.011	800.000	0.154	0.565
-454.997	127.115	-0.320	0.406
-453.982	-200.000	-0.156	0.764
-452.968	-200.000	-0.039	0.278
-451.953	-58.454	-0.642	0.279
-450.938	237.508	-0.382	0.633
-449.924	800.000	0.014	0.053
-448.909	-57.283	-0.439	-0.193
-447.895	-46.543	0.859	-0.421
-446.880	347.819	-0.378	0.746
-445.865	25.865	0.311	-0.259
-444.851	-23.618	0.270	0.162
-443.836	800.000	-0.158	-0.687
-442.822	184.140	0.531	0.787
-441.807	-200.000	-0.015	0.252
-440.792	6.703	0.748	-0.556
-439.778	82.037	-0.686	0.743
-438.763	800.000	-0.220	-0.741
-437.749	-157.987	0.691	0.041
-436.734	800.000	-0.272	-1.076
-435.719	-65.797	-0.777	-0.311
-434.705	403.913	0.454	0.956
-433.690	-200.000	0.092	0.808
-432.676	-116.059	0.797	-0.148
-431.661	87.957	-0.707	-0.784
-430.646	783.278	-0.345	0.944
-429.632	-176.275	0.700	-0.018
-428.617	165.575	-0.255	-0.360
-427.603	-13.210	-0.291	-0.189
-426.588	102.481	-0.362	0.423
-425.573	-45.142	1.093	0.543
-424.559	92.631	-0.123	0.139
-423.544	199.466	-0.473	0.724
-422.530	-79.117	0.600	-0.203
-421.515	520.835	-0.268	0.629
-420.500	-82.509	0.784	-0.254
-419.486	114.436	0.177	0.215
-418.471	114.851	0.402	-0.490
-417.457	-4.732	-0.241	-0.166
-416.442	160.672	0.375	0.523
-415.428	-200.000	-0.156	1.489
-414.413	-200.000	0.011	-0.086
-413.398	800.000	0.113	-0.356
-412.384	-200.000	-0.011	0.325
-411.369	6.201	-0.020	0.015
-410.355	-120.210	0.410	0.070
-409.340	-18.864	-0.470	0.292
-408.325	158.273	-0.301	-0.417
-407.311	-25.312	-0.271	0.160
-406.296	-82.637	-0.825	-0.267
-405.282	-61.601	0.444	0.186
-404.267	32.241	0.530	0.456
-403.252	-200.000	0.068	1.037
-402.238	309.813	-0.086	-0.161
-401.223	-200.000	0.065	-0.695
-400.209	528.288	-0.109	-0.257
-399.194	94.870	-0.361	0.409
-398.179	-89.117	0.219	0.065
-397.165	800.000	0.132	-0.421
-396.150	269.760	-0.221	-0.388
-395.136	328.589	-0.016	-0.030
-394.121	-57.332	0.410	0.180
-393.106	800.000	0.080	-0.333
-392.092	-156.413	-0.486	0.030
-391.077	-43.069	0.258	0.130
-390.063	242.157	-0.366	-0.611
-389.048	-62.122	-0.517	-0.215
-388.033	475.392	-0.356	0.803
-387.019	-111.281	-0.703	0.143
-386.004	85.731	-0.561	-0.615
-384.990	-200.000	-0.028	0.150
-383.975	389.724	-0.442	-0.913
-382.960	5.134	0.699	-0.513
-381.946	637.158	-0.183	0.465
-380.931	53.615	0.733	0.702
-379.917	800.000	-0.367	-1.296
-378.902	212.271	-0.268	0.422
-377.888	99.709	0.649	0.749
-376.873	-77.773	-0.290	0.100
-375.858	-154.647	0.292	0.019
-374.844	466.377	0.186	-0.415
-373.829	22.406	0.167	0.136
-372.815	98.852	-0.195	0.224
-371.800	800.000	-0.117	-0.357
-370.785	189.107	0.573	-0.856
-369.771	-179.759	0.313	0.007
-368.756	22.761	-0.469	0.383
-367.742	-200.000	-0.069	0.452
-366.727	21.570	-0.563	0.456
-365.712	2.030	-0.758	-0.546
-364.698	70.139	-0.422	-0.434
-363.683	617.788	0.252	0.631
-362.669	301.044	0.329	-0.606
-361.654	205.997	-0.365	-0.565
-360.639	-124.544	0.190	-0.029
-359.625	-71.359	0.752	0.281
-358.610	-135.773	-0.456	0.054
-357.596	-200.000	0.019	-0.288
-356.581	-200.000	-0.128	0.850
-355.566	800.000	0.137	0.425
-354.552	-141.174	-0.214	0.022
-353.537	-12.535	-0.543	0.353
-352.523	-200.000	-0.133	-0.710
-351.508	-200.000	-0.035	-0.516
-350.493	800.000	-0.249	-0.934
-349.479	619.551	-0.370	0.926
-348.464	180.620	0.367	-0.537
-347.450	800.000	-0.253	-0.765
-346.435	-71.372	0.431	0.161
-345.420	-8.021	-0.116	0.078
-344.406	-104.938	-0.760	0.174
-343.391	464.555	0.269	0.600
-342.377	-85.371	1.047	0.325
-341.362	213.493	0.240	-0.377
-340.348	103.039	-0.368	0.430
-339.333	-200.000	-0.037	0.547
-338.318	109.933	0.250	-0.298
-337.304	-29.056	-0.647	0.370
-336.289	142.427	-0.162	0.214
-335.275	-32.603	-0.884	0.490
-334.260	42.585	0.309	-0.280
-333.245	160.547	0.590	-0.820
-332.231	119.021	0.434	-0.534
-331.216	-91.551	-1.019	0.289
-330.202	-94.943	1.129	0.304
-329.187	287.077	-0.241	-0.434
-328.172	-200.000	0.073	0.594
-327.158	-142.546	-0.583	-0.057
-326.143	-94.982	-0.358	-0.096
-325.129	-167.630	-0.607	-0.024
-324.114	38.973	-0.429	-0.381
-323.099	-120.461	0.584	-0.099
-322.085	-92.286	0.899	-0.252
-321.070	231.183	-0.137	-0.223
-320.056	69.610	0.737	0.755
-319.041	686.054	-0.199	-0.516
-318.026	-200.000	-0.064	-0.427
-317.012	-9.700	0.239	0.159
-315.997	800.000	0.119	0.393
-314.983	5.447	0.255	-0.187
-313.968	499.305	-0.345	-0.790
-312.953	800.000	0.082	0.313
-311.939	800.000	-0.170	-0.496
-310.924	-110.152	-0.164	-0.034
-309.910	109.699	-0.128	-0.153
-308.895	408.222	-0.366	0.771
-307.880	465.987	-0.142	-0.317
-306.866	-107.084	1.030	0.226
-305.851	225.665	0.349	0.562
-304.837	-200.000	0.037	-0.351
-303.822	-2.806	0.405	0.281
-302.807	508.595	0.081	-0.186
-301.793	-18.565	0.043	-0.027
-300.778	-200.000	-0.173	-0.000
-299.764	109.640	-0.227	0.270
-298.749	-23.183	-0.123	-0.074
-297.735	800.000	0.108	-0.398
-296.720	59.872	-0.655	-0.643
-295.705	375.591	0.078	-0.159
-294.691	1.196	-0.712	0.508
-293.676	-23.250	-0.437	-0.261
-292.662	-9.020	0.115	-0.077
-291.647	516.036	0.459	-1.066
-290.632	-12.973	0.640	0.414
-289.618	479.660	0.142	-0.321
-288.603	-114.000	-0.298	0.057
-287.589	304.034	-0.304	0.561
-286.574	800.000	0.066	0.230
-285.559	-200.000	0.165	-1.363
-284.545	85.386	-0.194	-0.212
-283.530	39.605	0.206	0.184
-282.516	-116.072	0.319	0.059
-281.501	-200.000	0.087	-1.094
-280.486	261.678	-0.194	-0.334
-279.472	-200.000	0.069	0.613
-278.457	106.853	0.656	0.774
-277.443	800.000	-0.214	-0.873
-276.428	431.460	0.198	0.427
-275.413	-34.876	1.034	0.561
-274.399	-119.621	1.178	-0.202
-273.384	-106.542	0.366	0.081
-272.370	122.012	-0.462	-0.572
-271.355	-7.503	-0.552	0.371
-270.340	-200.000	0.051	0.529
-269.326	445.153	-0.311	0.678
-268.311	49.289	0.526	0.491
-267.297	-46.852	-0.572	-0.278
-266.282	415.515	0.295	0.625
-265.267	777.906	-0.103	-0.281
-264.253	479.326	0.172	-0.387
-263.238	14.967	0.459	0.357
-262.224	-190.094	-0.746	-0.008
-261.209	-171.016	0.201	-0.007
-260.195	-200.000	-0.397	-0.001
-259.180	-66.239	1.058	0.418
-258.165	379.314	0.533	-1.083
-257.151	-152.429	-0.907	-0.065
-256.136	459.830	-0.309	0.682
-255.122	-40.845	-0.511	0.262
-254.107	-200.000	-0.032	0.169
-253.092	-200.000	-0.020	-0.630
-252.078	800.000	0.198	0.562
-251.063	-200.000	-0.038	-0.292
-250.049	800.000	0.318	-0.874
-249.034	632.605	0.270	-0.677
-248.019	169.064	0.252	-0.356
-247.005	-200.000	0.057	0.827
-245.990	-39.531	0.123	-0.064
-244.976	9.234	-0.200	-0.150
-243.961	-94.131	0.483	-0.131
-242.946	31.023	-0.036	0.030
-241.932	72.122	-0.586	-0.605
-240.917	23.037	0.386	-0.314
-239.903	800.000	0.117	-0.368
-238.888	-25.416	0.554	0.325
-237.873	151.278	-0.157	0.211
-236.859	-200.000	0.162	1.282
-235.844	-128.416	0.208	0.029
-234.830	62.688	0.152	0.150
-233.815	623.326	-0.303	-0.756
-232.800	35.130	-0.190	0.165
-231.786	-200.000	-0.023	-0.326
-230.771	-24.968	0.565	-0.333
-229.757	4.494	0.520	0.379
-228.742	210.978	0.559	0.872
-227.727	609.848	0.186	0.461
-226.713	-69.382	-0.565	-0.215
-225.698	203.524	0.529	-0.812
-224.684	-200.000	-0.062	-0.371
-223.669	-52.889	-0.908	-0.415
-222.655	-200.000	-0.069	0.404
-221.640	-96.295	-0.228	-0.060
-220.625	-5.194	0.371	0.253
-219.611	779.613	0.277	0.750
-218.596	-5.820	0.343	0.233
-217.582	-165.946	-1.112	0.047
-216.567	-136.275	0.940	-0.109
-215.552	-154.780	-0.372	0.024
-214.538	-200.000	-0.129	0.563
-213.523	-21.435	-0.265	-0.160
-212.509	-200.000	0.170	0.845
-211.494	-91.395	0.933	0.264
-210.479	-200.000	-0.055	-0.717
-209.465	98.287	-0.265	-0.303
-208.450	-44.159	-0.534	-0.265
-207.436	526.092	-0.302	-0.704
-206.421	273.831	0.379	0.665
-205.406	67.600	-0.727	-0.736
-204.392	-173.636	0.180	-0.005
-203.377	220.440	-0.255	0.405
-202.363	-200.000	-0.113	-0.521
-201.348	-149.588	-0.537	-0.042
-200.333	-38.499	0.214	-0.112
-199.319	115.286	0.414	-0.500
-198.304	292.098	0.386	-0.696
-197.290	67.374	0.232	-0.235
-196.275	-166.164	0.305	-0.013
-195.260	-167.863	0.844	0.033
-194.246	276.539	-0.274	0.483
-193.231	763.891	-0.232	0.623
-192.217	-151.614	0.354	0.026
-191.202	-26.936	-0.442	-0.256
-190.187	-10.510	-0.886	0.581
-189.173	86.673	0.210	0.229
-188.158	2.340	0.193	0.138
-187.144	-43.533	0.378	-0.189
-186.129	-47.931	0.588	-0.282
-185.114	-150.628	-0.410	0.031
-184.100	-52.844	0.220	-0.100
-183.085	149.787	-0.430	-0.577
-182.071	-68.493	-1.118	-0.429
-181.056	-105.867	0.780	0.174
-180.042	147.703	0.302	-0.403
-179.027	-133.227	-0.401	0.050
-178.012	746.667	-0.114	-0.303
-176.998	-200.000	0.204	-0.931
-175.983	292.648	-0.105	-0.190
-174.969	800.000	0.197	0.676
-173.954	-49.619	0.337	0.159
-172.939	-200.000	0.003	0.358
-171.925	800.000	0.120	0.337
-170.910	789.034	0.166	-0.452
-169.896	-144.351	-0.283	-0.026
-168.881	84.735	0.460	-0.498
-167.866	154.015	-0.423	0.574
-166.852	59.626	-0.158	0.154
-165.837	52.148	0.084	-0.079
-164.823	-200.000	0.063	0.503
-163.808	-200.000	0.044	-0.246
-162.793	-98.041	-0.440	-0.112
-161.779	74.253	-0.190	-0.197
-160.764	-200.000	-0.029	-0.481
-159.750	-149.058	-0.385	0.031
-158.735	-89.371	0.024	-0.007
-157.720	-183.834	-1.124	0.019
-156.706	-69.273	0.088	0.034
-155.691	-150.291	-0.333	-0.025
-154.677	-60.043	0.338	-0.143
-153.662	-200.000	0.004	-0.138
-152.647	-158.392	0.847	-0.049
-151.633	-57.865	0.405	-0.175
-150.618	59.384	-0.448	-0.437
-149.604	358.361	-0.301	0.595
-148.589	2.381	-0.363	-0.259
-147.574	-92.992	-0.112	0.031
-146.560	-200.000	-0.003	0.556
-145.545	625.086	0.247	-0.615
-144.531	-200.000	0.075	-0.346
-143.516	70.625	-0.871	-0.891
-142.502	-200.000	0.347	1.603
-141.487	-36.877	0.581	-0.308
-140.472	248.507	-0.345	-0.578
-139.458	678.990	0.273	0.701
-138.443	-158.523	0.480	0.027
-137.429	-77.101	1.119	0.386
-136.414	75.873	-0.572	0.598
-135.399	-200.000	0.080	-0.431
-134.385	24.412	0.578	-0.472
-133.370	-140.034	0.731	-0.076
-132.356	-86.421	0.494	0.150
-131.341	-106.701	-0.147	0.032
-130.326	454.536	-0.370	-0.809
-129.312	-200.000	-0.033	0.159
-128.297	688.690	-0.319	0.825
-127.283	34.880	0.188	0.162
-126.268	81.871	-0.393	-0.420
-125.253	-55.481	0.280	0.124
-124.239	800.000	0.260	0.737
-123.224	233.131	0.367	0.596
-122.210	-200.000	-0.495	0.001
-121.195	145.451	0.357	0.472
-120.180	-52.757	0.939	0.428
