DTS Sentinel unit serial number:	SN413079Multiplexer serial number:	ORYXHardware model number:	OX4-SRSoftware version number:	ORYX F/W v4.00 Oryx Data Collector v3.7.2.0data status	okinstallation	princeton_trtdifferential loss correction	single-endedforward channel	channel 1reverse channel	N/Adate	2019/09/13time	11:30:35forward acquisition time	60.00reverse acquisition time	0.00gamma	496.2192k internal	0.2315k external	0.2315temperature offset calibration	1.0146default loss term (dB/km)	0.3790temperature slope calibration	1.0000multiplexer offset coefficient	1.0000multiplexer slope coefficient	1.0000fibre end	0.00T internal ref (°C)	32.75T ext. ref 1 (°C)	4.36T ext. ref 2 (°C)	30.25length (m)	temperature (°C)	Stokes	anti-Stokes-747.200	239.589	0.148	0.249
-746.185	538.495	0.120	0.290
-745.171	-67.901	-0.165	-0.065
-744.156	-136.359	-0.261	-0.031
-743.142	-110.126	0.216	-0.046
-742.127	800.000	-0.042	0.139
-741.112	-82.905	-0.218	-0.071
-740.098	-146.125	-0.254	-0.023
-739.083	16.853	-0.230	-0.184
-738.069	22.200	0.343	0.284
-737.054	134.384	-0.170	-0.224
-736.039	-200.000	0.021	-0.386
-735.025	800.000	0.040	-0.176
-734.010	196.887	-0.148	-0.228
-732.996	690.884	0.039	-0.103
-731.981	800.000	-0.063	-0.243
-730.966	-65.566	-0.064	0.026
-729.952	47.277	-0.093	-0.088
-728.937	800.000	-0.121	-0.393
-727.923	-147.181	0.050	-0.004
-726.908	33.889	-0.214	0.189
-725.894	7.449	-0.233	0.176
-724.879	800.000	0.089	0.296
-723.864	-133.581	0.095	0.012
-722.850	-70.854	0.155	-0.059
-721.835	-69.624	-0.185	-0.072
-720.821	327.691	-0.039	0.076
-719.806	-152.233	0.138	0.010
-718.791	29.628	-0.114	-0.098
-717.777	303.577	0.106	-0.199
-716.762	794.155	-0.025	0.071
-715.748	214.429	-0.128	-0.205
-714.733	673.251	-0.122	0.321
-713.718	116.292	-0.163	-0.203
-712.704	363.951	0.130	-0.265
-711.689	-109.542	0.204	-0.044
-710.675	-47.452	0.192	0.094
-709.660	115.418	-0.070	-0.087
-708.645	294.598	0.191	-0.353
-707.631	770.881	0.044	0.121
-706.616	-67.649	-0.150	-0.060
-705.602	27.636	0.219	0.186
-704.587	-200.000	0.015	0.149
-703.572	-200.000	-0.019	-0.157
-702.558	-200.000	0.029	-0.164
-701.543	-52.874	0.225	-0.105
-700.529	-59.720	-0.096	-0.041
-699.514	300.921	0.149	-0.277
-698.499	253.579	0.211	0.365
-697.485	-46.087	-0.145	0.072
-696.470	800.000	0.100	-0.365
-695.456	800.000	0.125	-0.478
-694.441	-87.501	-0.260	-0.080
-693.426	17.059	-0.159	0.127
-692.412	241.242	-0.147	0.248
-691.397	800.000	-0.062	-0.262
-690.383	-40.998	-0.384	-0.201
-689.368	-61.565	0.082	0.035
-688.354	706.619	-0.104	-0.278
-687.339	154.947	-0.164	0.228
-686.324	-9.101	0.185	-0.125
-685.310	-146.483	-0.128	-0.011
-684.295	-200.000	-0.041	0.227
-683.281	162.910	-0.176	-0.250
-682.266	-200.000	-0.011	-0.148
-681.251	-1.180	0.104	-0.074
-680.237	-200.000	0.062	-0.484
-679.222	-97.212	-0.305	-0.080
-678.208	-11.025	-0.097	-0.065
-677.193	-40.072	-0.175	-0.092
-676.178	-104.723	0.082	0.019
-675.164	113.963	0.160	0.196
-674.149	-30.540	0.224	0.128
-673.135	21.579	0.123	-0.102
-672.120	-26.092	-0.023	0.014
-671.105	-64.743	0.404	0.166
-670.091	-90.899	-0.348	0.101
-669.076	143.500	-0.121	-0.163
-668.062	148.525	0.176	0.240
-667.047	-25.209	-0.191	-0.114
-666.032	24.207	0.013	-0.011
-665.018	24.398	-0.222	-0.186
-664.003	-200.000	-0.026	0.291
-662.989	-200.000	0.066	-0.292
-661.974	-37.243	-0.165	-0.089
-660.959	-73.920	-0.207	0.076
-659.945	6.772	-0.127	0.096
-658.930	-163.035	0.316	0.015
-657.916	-54.437	0.108	0.049
-656.901	-200.000	0.002	-0.036
-655.886	366.477	-0.115	-0.235
-654.872	32.674	-0.090	-0.078
-653.857	-75.860	0.127	-0.045
-652.843	-9.879	-0.244	-0.164
-651.828	-200.000	-0.061	-0.349
-650.814	-51.781	0.191	0.090
-649.799	-181.249	-0.230	-0.005
-648.784	-200.000	-0.012	-0.307
-647.770	72.018	0.195	-0.205
-646.755	242.049	0.097	0.164
-645.741	68.663	0.102	0.105
-644.726	-105.459	-0.032	0.007
-643.711	-90.044	-0.294	0.086
-642.697	-25.285	0.248	-0.148
-641.682	6.655	-0.068	0.051
-640.668	-200.000	-0.022	0.184
-639.653	-200.000	0.043	0.282
-638.638	-200.000	-0.014	-0.104
-637.624	-6.660	-0.180	-0.123
-636.609	404.999	-0.084	0.179
-635.595	-3.483	-0.178	0.125
-634.580	100.850	0.101	-0.119
-633.565	-161.327	-0.116	0.006
-632.551	-31.876	-0.339	-0.191
-631.536	-101.877	0.021	0.005
-630.522	94.266	-0.185	0.212
-629.507	-99.557	-0.286	-0.072
-628.492	-8.200	0.171	0.116
-627.478	239.212	0.037	0.063
-626.463	74.677	0.074	0.078
-625.449	544.449	-0.161	0.389
-624.434	179.816	0.127	0.188
-623.419	-110.918	-0.270	-0.056
-622.405	-91.715	0.179	0.051
-621.390	-9.563	0.158	0.107
-620.376	62.736	0.179	0.180
-619.361	-200.000	-0.011	0.108
-618.346	-82.729	-0.376	-0.123
-617.332	83.499	0.136	0.149
-616.317	800.000	-0.070	-0.245
-615.303	11.239	-0.159	-0.123
-614.288	-155.114	-0.452	-0.030
-613.273	413.254	-0.073	-0.156
-612.259	800.000	-0.048	0.199
-611.244	12.477	-0.337	0.262
-610.230	550.224	0.076	-0.183
-609.215	-22.212	-0.016	-0.010
-608.201	369.222	-0.108	-0.220
-607.186	-36.859	0.223	0.120
-606.171	-133.655	-0.027	0.003
-605.157	-200.000	0.054	-0.298
-604.142	-130.087	-0.138	-0.019
-603.128	-30.691	-0.073	-0.042
-602.113	95.991	-0.078	-0.090
-601.098	656.215	0.046	-0.120
-600.084	543.448	-0.098	0.236
-599.069	74.778	-0.202	0.214
-598.055	35.643	-0.117	-0.104
-597.040	105.541	0.048	0.057
-596.025	167.343	-0.151	-0.217
-595.011	-176.220	0.107	0.003
-593.996	-200.000	-0.015	0.129
-592.982	304.967	-0.084	-0.158
-591.967	-200.000	0.042	0.212
-590.952	-200.000	-0.000	-0.189
-589.938	634.237	0.061	0.156
-588.923	800.000	0.114	-0.387
-587.909	-194.729	-0.303	0.002
-586.894	-200.000	0.020	0.100
-585.879	280.957	-0.079	0.143
-584.865	-29.022	0.335	0.194
-583.850	226.669	-0.083	-0.136
-582.836	317.347	0.057	-0.109
-581.821	-200.000	-0.022	-0.168
-580.806	26.523	-0.198	-0.167
-579.792	800.000	-0.070	0.232
-578.777	525.898	0.132	-0.313
-577.763	800.000	-0.019	0.069
-576.748	83.910	-0.179	-0.197
-575.733	-138.265	0.365	-0.041
-574.719	-75.812	-0.215	0.077
-573.704	41.480	0.073	-0.067
-572.690	53.496	-0.222	-0.215
-571.675	-88.081	-0.313	-0.094
-570.661	-17.914	0.236	0.149
-569.646	-31.653	-0.334	0.189
-568.631	-34.950	0.197	-0.108
-567.617	512.418	0.094	-0.222
-566.602	12.682	-0.222	-0.173
-565.588	205.399	0.039	0.061
-564.573	-200.000	-0.023	0.244
-563.558	-11.734	0.216	0.143
-562.544	-133.803	-0.113	0.014
-561.529	-200.000	-0.009	0.215
-560.515	90.884	-0.269	-0.304
-559.500	30.944	-0.043	-0.037
-558.485	-147.375	-0.103	-0.009
-557.471	74.363	-0.095	-0.100
-556.456	-200.000	-0.048	-0.277
-555.442	-109.035	0.124	-0.027
-554.427	-60.287	0.133	0.057
-553.412	237.823	0.105	0.175
-552.398	214.501	-0.081	-0.129
-551.383	-132.495	0.172	0.022
-550.369	-81.807	0.423	-0.139
-549.354	-200.000	0.094	0.564
-548.339	37.190	0.116	0.103
-547.325	12.386	0.084	-0.065
-546.310	-42.425	0.169	-0.087
-545.296	444.957	0.069	-0.152
-544.281	-153.681	-0.109	-0.008
-543.266	295.841	0.066	-0.122
-542.252	-27.814	-0.125	-0.073
-541.237	486.460	-0.101	0.231
-540.223	727.802	0.039	-0.105
-539.208	-200.000	0.028	-0.162
-538.193	16.450	0.069	-0.055
-537.179	-200.000	0.018	-0.214
-536.164	260.711	0.157	-0.273
-535.150	-200.000	-0.010	-0.295
-534.135	155.763	-0.124	-0.172
-533.121	-49.047	-0.175	-0.084
-532.106	27.685	-0.215	-0.182
-531.091	227.594	-0.185	-0.302
-530.077	-200.000	-0.011	-0.240
-529.062	-200.000	0.007	0.137
-528.048	-200.000	-0.010	0.123
-527.033	-96.055	0.137	0.037
-526.018	519.210	-0.117	0.274
-525.004	-25.721	-0.198	-0.118
-523.989	96.271	-0.091	0.105
-522.975	-13.040	0.267	-0.175
-521.960	-200.000	0.074	0.465
-520.945	-71.767	-0.208	-0.078
-519.931	464.514	0.106	0.238
-518.916	800.000	-0.097	-0.272
-517.902	-200.000	-0.019	0.263
-516.887	8.300	0.094	0.071
-515.872	-8.773	-0.254	-0.171
-514.858	-200.000	0.032	0.221
-513.843	-166.831	0.301	-0.012
-512.829	-200.000	-0.017	-0.263
-511.814	-37.853	-0.147	-0.078
-510.799	-16.812	-0.205	-0.130
-509.785	-57.413	-0.195	-0.086
-508.770	-77.836	0.279	-0.097
-507.756	-200.000	-0.021	0.143
-506.741	415.239	-0.107	0.228
-505.726	800.000	-0.046	0.140
-504.712	424.535	-0.120	-0.259
-503.697	38.085	0.256	-0.229
-502.683	102.915	0.156	0.183
-501.668	800.000	-0.021	0.073
-500.653	-115.781	0.446	0.084
-499.639	13.954	0.120	0.094
-498.624	-29.738	0.178	-0.102
-497.610	-35.694	-0.309	0.168
-496.595	-139.882	0.144	0.015
-495.581	-200.000	-0.006	0.077
-494.566	-200.000	0.011	0.074
-493.551	-115.501	0.060	0.011
-492.537	-93.592	-0.152	-0.042
-491.522	336.860	0.093	0.182
-490.508	-4.107	-0.123	-0.085
-489.493	-23.754	-0.130	-0.078
-488.478	-70.154	0.309	-0.118
-487.464	-200.000	-0.006	-0.385
-486.449	-200.000	-0.017	-0.133
-485.435	-38.546	0.161	0.085
-484.420	-57.942	-0.283	-0.124
-483.405	212.208	0.161	0.255
-482.391	-200.000	0.030	0.205
-481.376	-45.840	0.071	0.035
-480.362	-200.000	-0.021	0.097
-479.347	75.637	-0.198	0.210
-478.332	2.472	-0.285	0.207
-477.318	-1.882	-0.090	0.064
-476.303	-52.612	-0.217	-0.100
-475.289	-50.728	0.203	-0.096
-474.274	-200.000	-0.043	-0.260
-473.259	-200.000	0.015	-0.073
-472.245	-200.000	-0.009	0.235
-471.230	800.000	-0.059	0.235
-470.216	198.046	-0.096	0.147
-469.201	-200.000	0.018	-0.208
-468.186	-200.000	-0.038	-0.189
-467.172	-200.000	0.021	-0.167
-466.157	745.894	-0.073	-0.196
-465.143	800.000	0.092	-0.265
-464.128	-53.174	-0.271	0.125
-463.113	-200.000	0.009	0.060
-462.099	-48.091	0.191	0.093
-461.084	-166.518	-0.138	0.006
-460.070	390.293	0.044	-0.092
-459.055	-72.859	0.160	-0.059
-458.040	-151.655	0.143	0.011
-457.026	94.349	0.234	-0.266
-456.011	115.786	-0.033	-0.040
-454.997	-88.074	-0.153	-0.046
-453.982	-145.904	-0.090	-0.008
-452.968	235.746	-0.137	-0.227
-451.953	-120.092	-0.146	-0.025
-450.938	302.186	-0.006	-0.011
-449.924	-132.760	-0.160	0.020
-448.909	-27.810	0.089	0.052
-447.895	-126.788	0.074	-0.011
-446.880	16.824	0.079	-0.063
-445.865	-200.000	0.097	-0.468
-444.851	-36.027	-0.142	-0.077
-443.836	125.535	-0.112	-0.142
-442.822	-200.000	0.050	0.472
-441.807	-200.000	-0.049	0.295
-440.792	-5.716	-0.164	-0.113
-439.778	105.911	-0.133	-0.157
-438.763	-121.150	0.231	-0.039
-437.749	-20.963	0.123	0.076
-436.734	-200.000	-0.024	0.198
-435.719	-90.331	-0.118	-0.034
-434.705	-200.000	-0.043	-0.267
-433.690	428.193	-0.124	-0.267
-432.676	-113.154	-0.530	0.105
-431.661	-200.000	0.008	-0.188
-430.646	-200.000	0.008	0.064
-429.632	20.996	-0.346	0.281
-428.617	-61.217	-0.072	0.030
-427.603	480.492	0.070	0.158
-426.588	48.703	0.057	-0.053
-425.573	-200.000	0.027	0.423
-424.559	800.000	0.045	0.155
-423.544	-180.420	-0.072	0.001
-422.530	-200.000	0.032	0.268
-421.515	-200.000	0.037	-0.226
-420.500	2.708	-0.241	-0.175
-419.486	-38.020	-0.326	0.173
-418.471	439.529	0.102	0.222
-417.457	-120.801	0.115	0.019
-416.442	-79.978	0.066	-0.022
-415.428	-8.522	-0.072	-0.048
-414.413	47.048	0.189	0.176
-413.398	197.861	0.018	-0.027
-412.384	-36.221	0.288	0.156
-411.369	-41.027	0.244	0.126
-410.355	-91.141	0.070	-0.020
-409.340	-200.000	0.004	-0.332
-408.325	-200.000	0.020	-0.119
-407.311	-132.088	0.187	-0.024
-406.296	58.915	-0.032	-0.031
-405.282	800.000	0.036	0.139
-404.267	-86.789	0.064	-0.019
-403.252	462.222	0.055	-0.122
-402.238	-200.000	-0.005	-0.213
-401.223	97.656	-0.091	0.105
-400.209	328.322	-0.134	0.257
-399.194	-127.091	0.210	0.031
-398.179	110.929	0.234	0.281
-397.165	-200.000	0.035	0.274
-396.150	41.829	0.131	0.119
-395.136	-166.523	0.267	0.011
-394.121	-95.339	-0.385	0.103
-393.106	-94.253	-0.152	0.042
-392.092	218.562	0.093	0.148
-391.077	-27.150	-0.080	0.046
-390.063	-149.273	0.255	-0.020
-389.048	-7.095	0.040	-0.027
-388.033	653.042	-0.111	-0.285
-387.019	260.723	0.145	-0.250
-386.004	360.959	-0.059	-0.119
-384.990	-134.843	-0.151	0.018
-383.975	-182.081	0.197	0.004
-382.960	466.932	0.155	-0.347
-381.946	-88.659	0.168	-0.050
-380.931	29.458	0.133	0.113
-379.917	-185.061	-0.076	-0.001
-378.902	800.000	-0.035	0.136
-377.888	123.015	0.135	-0.169
-376.873	-191.787	0.104	-0.001
-375.858	-89.507	0.073	-0.021
-374.844	-90.671	-0.233	0.067
-373.829	-130.667	0.093	-0.012
-372.815	-101.573	0.128	-0.031
-371.800	-200.000	0.026	-0.147
-370.785	-200.000	-0.001	0.263
-369.771	215.999	0.249	-0.396
-368.756	73.101	0.257	-0.269
-367.742	333.452	-0.030	-0.059
-366.727	27.980	0.405	0.341
-365.712	-200.000	0.008	-0.383
-364.698	625.788	0.007	0.019
-363.683	-156.866	0.230	-0.014
-362.669	64.749	-0.116	0.116
-361.654	-40.348	0.309	-0.160
-360.639	-87.414	0.194	-0.059
-359.625	120.135	-0.028	0.035
-358.610	-175.884	-0.128	-0.003
-357.596	-30.108	-0.124	-0.071
-356.581	-78.870	0.202	0.069
-355.566	-188.854	0.281	-0.003
-354.552	-83.498	0.276	-0.088
-353.537	-120.198	-0.214	0.037
-352.523	-170.097	-0.238	-0.008
-351.508	196.531	0.079	-0.119
-350.493	-21.514	-0.067	0.041
-349.479	182.148	-0.006	0.010
-348.464	83.667	-0.196	-0.213
-347.450	-200.000	-0.009	-0.085
-346.435	-87.080	0.111	0.034
-345.420	-154.005	0.031	0.002
-344.406	-108.613	0.150	0.032
-343.391	-200.000	0.016	0.165
-342.377	217.441	-0.158	-0.252
-341.362	16.922	-0.210	-0.166
-340.348	-64.752	-0.129	0.052
-339.333	-121.406	0.281	0.047
-338.318	-200.000	0.012	0.371
-337.304	81.775	0.107	-0.115
-336.289	79.639	0.137	0.147
-335.275	-200.000	0.017	-0.334
-334.260	97.444	-0.054	-0.061
-333.245	82.776	-0.236	0.256
-332.231	693.376	0.082	0.216
-331.216	134.731	0.109	0.141
-330.202	-46.103	0.150	-0.074
-329.187	130.761	-0.269	0.345
-328.172	41.618	0.186	0.168
-327.158	-126.226	0.170	-0.025
-326.143	-86.850	-0.072	0.022
-325.129	429.408	-0.165	0.355
-324.114	-200.000	0.018	-0.094
-323.099	-43.904	0.177	-0.089
-322.085	-200.000	-0.003	-0.335
-321.070	-78.647	0.160	0.054
-320.056	800.000	-0.015	0.063
-319.041	-87.384	0.077	0.023
-318.026	-124.402	0.055	-0.009
-317.012	-88.867	-0.126	-0.037
-315.997	219.252	-0.143	0.228
-314.983	-31.315	-0.129	0.073
-313.968	-56.570	0.242	-0.107
-312.953	271.974	0.114	0.201
-311.939	-185.225	-0.375	0.006
-310.924	-200.000	0.008	0.335
-309.910	-34.733	0.220	0.120
-308.895	-71.025	-0.316	0.119
-307.880	278.169	-0.086	-0.152
-306.866	216.606	0.123	0.195
-305.851	183.098	0.103	-0.152
-304.837	791.838	0.066	-0.182
-303.822	800.000	0.079	-0.334
-302.807	39.427	0.209	-0.186
-301.793	-44.218	0.311	-0.155
-300.778	-154.558	-0.286	0.019
-299.764	139.044	-0.105	-0.137
-298.749	122.098	0.139	-0.173
-297.735	-200.000	-0.022	-0.187
-296.720	30.288	0.078	0.066
-295.705	-200.000	-0.035	0.206
-294.691	-160.640	0.269	-0.014
-293.676	58.399	0.087	0.085
-292.662	220.401	-0.127	-0.203
-291.647	-200.000	-0.004	0.110
-290.632	60.825	0.252	-0.249
-289.618	-82.851	0.065	0.021
-288.603	-3.404	-0.271	-0.188
-287.589	489.313	-0.027	-0.062
-286.574	56.198	0.172	-0.166
-285.559	-8.335	0.147	0.099
-284.545	-200.000	-0.002	-0.055
-283.530	-130.112	-0.050	0.007
-282.516	-150.839	0.130	-0.010
-281.501	-200.000	-0.006	-0.198
-280.486	80.357	0.111	-0.119
-279.472	-132.066	0.124	-0.016
-278.457	-167.112	-0.286	0.012
-277.443	40.322	0.114	0.102
-276.428	-115.558	0.111	0.021
-275.413	-200.000	0.013	0.087
-274.399	260.342	0.058	0.100
-273.384	-79.712	0.130	-0.044
-272.370	-28.560	0.061	0.035
-271.355	78.159	-0.004	0.004
-270.340	-50.911	-0.288	-0.135
-269.326	800.000	-0.088	0.354
-268.311	8.615	0.214	0.161
-267.297	-144.489	-0.074	0.007
-266.282	-107.959	0.144	-0.031
-265.267	-25.731	-0.125	-0.073
-264.253	40.592	-0.150	-0.134
-263.238	-150.793	-0.187	0.014
-262.224	-131.508	0.189	0.025
-261.209	-8.689	0.029	-0.019
-260.195	194.970	-0.026	0.040
-259.180	31.099	-0.118	-0.101
-258.165	126.824	0.172	-0.216
-257.151	-130.803	0.358	-0.048
-256.136	358.709	-0.034	-0.068
-255.122	-9.975	-0.169	-0.112
-254.107	62.146	0.080	0.079
-253.092	-43.917	0.362	-0.181
-252.078	-200.000	-0.026	-0.385
-251.063	-136.568	-0.200	-0.023
-250.049	-115.208	0.106	0.020
-249.034	-200.000	-0.073	0.404
-248.019	241.120	0.147	-0.244
-247.005	573.769	0.046	-0.112
-245.990	-110.032	0.247	0.051
-244.976	40.833	-0.111	0.099
-243.961	58.287	0.026	0.025
-242.946	99.530	0.153	-0.176
-241.932	-96.089	-0.372	0.098
-240.917	569.248	-0.085	-0.205
-239.903	-200.000	0.062	-0.430
-238.888	-17.632	0.373	-0.233
-237.873	-200.000	0.002	0.020
-236.859	-77.794	-0.319	-0.110
-235.844	-137.458	0.155	0.017
-234.830	45.261	0.139	-0.128
-233.815	-148.215	-0.217	0.018
-232.800	-200.000	0.053	0.241
-231.786	-144.605	0.235	-0.022
-230.771	-200.000	-0.052	-0.461
-229.757	-13.495	-0.095	0.061
-228.742	-200.000	-0.008	0.077
-227.727	-79.070	-0.219	0.074
-226.713	392.743	0.058	-0.120
-225.698	494.327	-0.044	-0.100
-224.684	27.868	0.307	-0.257
-223.669	-108.590	-0.371	-0.079
-222.655	-200.000	0.051	0.290
-221.640	-55.369	-0.240	0.107
-220.625	6.294	-0.036	0.026
-219.611	-15.941	-0.103	0.065
-218.596	-200.000	0.063	0.387
-217.582	109.776	-0.060	-0.072
-216.567	-200.000	-0.044	0.194
-215.552	-127.304	0.352	0.051
-214.538	-21.949	-0.191	0.115
-213.523	188.191	-0.170	0.252
-212.509	198.442	0.093	0.141
-211.494	-169.738	0.199	-0.007
-210.479	800.000	0.029	0.096
-209.465	12.711	-0.192	-0.147
-208.450	-79.311	0.254	0.085
-207.436	-71.819	-0.183	0.068
-206.421	364.189	-0.061	0.122
-205.406	800.000	-0.053	0.186
-204.392	683.617	-0.165	-0.426
-203.377	320.456	-0.116	0.218
-202.363	31.939	-0.053	-0.045
-201.348	140.656	-0.146	0.191
-200.333	-39.257	0.234	-0.122
-199.319	-200.000	-0.006	0.107
-198.304	637.848	-0.115	-0.291
-197.290	326.035	0.079	-0.150
-196.275	-200.000	-0.039	0.302
-195.260	199.528	0.117	0.179
-194.246	-134.304	-0.299	-0.037
-193.231	-134.766	0.148	0.018
-192.217	394.601	-0.216	0.446
-191.202	596.009	0.165	0.405
-190.187	-163.361	-0.132	0.006
-189.173	295.563	0.153	0.278
-188.158	432.832	-0.062	0.134
-187.144	-19.776	-0.253	0.155
-186.129	-79.284	0.418	0.140
-185.114	-200.000	-0.074	0.400
-184.100	-200.000	0.032	-0.170
-183.085	-200.000	-0.004	0.311
-182.071	800.000	0.185	0.516
-181.056	300.122	0.028	-0.052
-180.042	102.713	-0.405	0.470
-179.027	-11.004	0.187	0.123
-178.012	-96.657	-0.282	-0.074
-176.998	-200.000	0.027	0.279
-175.983	43.881	0.154	0.140
-174.969	-134.678	-0.139	-0.017
-173.954	-38.041	0.085	-0.045
-172.939	322.400	0.032	0.060
-171.925	-5.526	-0.069	0.047
-170.910	-111.840	-0.141	0.028
-169.896	-93.349	-0.170	0.047
-168.881	-95.193	-0.071	0.019
-167.866	153.261	0.182	0.247
-166.852	-200.000	0.014	0.169
-165.837	800.000	-0.075	-0.243
-164.823	131.042	0.134	-0.170
-163.808	-63.311	0.285	0.116
-162.793	-155.244	-0.292	-0.019
-161.779	-111.633	-0.145	0.029
-160.764	448.135	-0.058	-0.126
-159.750	-3.490	0.273	-0.188
-158.735	133.766	0.244	-0.313
-157.720	-155.014	0.105	-0.007
-156.706	284.020	-0.067	0.120
-155.691	-134.607	0.199	-0.024
-154.677	-24.915	0.271	-0.159
-153.662	72.640	-0.257	-0.266
-152.647	-23.133	-0.235	0.140
-151.633	-91.997	-0.312	-0.087
-150.618	-19.006	0.222	-0.136
-149.604	-135.810	0.326	-0.038
-148.589	-200.000	-0.001	-0.018
-147.574	-51.693	-0.258	-0.119
-146.560	36.830	0.255	0.223
-145.545	32.602	-0.155	-0.133
-144.531	-69.257	-0.170	-0.065
-143.516	-200.000	0.042	0.238
-142.502	-63.260	0.137	0.056
-141.487	-85.940	0.066	0.020
-140.472	-14.003	-0.029	-0.019
-139.458	-79.601	0.197	0.066
-138.443	75.471	0.055	-0.057
-137.429	470.688	0.076	-0.169
-136.414	-200.000	-0.010	-0.051
-135.399	40.685	-0.272	-0.242
-134.385	232.008	0.150	-0.243
-133.370	-200.000	0.019	-0.145
-132.356	-143.616	-0.426	-0.040
-131.341	25.380	0.189	0.156
-130.326	-69.471	0.110	-0.042
-129.312	-37.767	0.099	0.052
-128.297	272.166	-0.035	0.061
-127.283	-39.769	0.192	-0.099
-126.268	-73.582	0.202	0.073
-125.253	-200.000	-0.003	-0.068
-124.239	-200.000	0.002	-0.231
-123.224	-144.619	0.172	-0.016
-122.210	-29.504	0.073	0.041
