DTS Sentinel unit serial number:	SN413079Multiplexer serial number:	ORYXHardware model number:	OX4-SRSoftware version number:	ORYX F/W v4.00 Oryx Data Collector v3.7.2.0data status	okinstallation	princeton_trtdifferential loss correction	single-endedforward channel	channel 1reverse channel	N/Adate	2019/09/19time	06:22:35forward acquisition time	60.00reverse acquisition time	0.00gamma	496.2192k internal	0.2343k external	0.2343temperature offset calibration	1.0018default loss term (dB/km)	0.3790temperature slope calibration	1.0000multiplexer offset coefficient	1.0000multiplexer slope coefficient	1.0000fibre end	0.00T internal ref (°C)	19.06T ext. ref 1 (°C)	0.57T ext. ref 2 (°C)	12.73length (m)	temperature (°C)	Stokes	anti-Stokes-747.200	-33.795	0.441	-0.243
-746.185	105.580	-0.180	0.213
-745.171	800.000	-0.061	-0.240
-744.156	74.095	-0.341	0.358
-743.142	-150.940	0.175	0.013
-742.127	-200.000	-0.006	0.157
-741.112	-4.718	0.053	-0.036
-740.098	180.319	-0.210	0.309
-739.083	-131.262	0.040	0.005
-738.069	-200.000	-0.050	0.340
-737.054	-34.925	-0.111	-0.061
-736.039	-166.901	0.145	-0.006
-735.025	39.097	-0.128	0.114
-734.010	204.244	0.105	0.163
-732.996	800.000	0.067	-0.217
-731.981	-200.000	-0.048	0.401
-730.966	-129.916	-0.236	0.032
-729.952	-94.029	-0.275	0.075
-728.937	309.597	-0.136	-0.254
-727.923	-156.272	0.201	0.013
-726.908	-34.653	-0.197	-0.108
-725.894	249.131	-0.060	0.101
-724.879	164.694	-0.172	-0.243
-723.864	-7.635	0.350	-0.237
-722.850	800.000	-0.039	0.143
-721.835	133.784	0.066	-0.086
-720.821	434.407	-0.022	0.049
-719.806	-30.820	0.132	0.075
-718.791	-129.560	-0.046	0.006
-717.777	20.393	-0.158	0.128
-716.762	28.110	0.272	-0.230
-715.748	-108.020	-0.197	0.043
-714.733	-101.070	-0.197	0.048
-713.718	455.258	-0.040	-0.090
-712.704	56.625	0.163	0.158
-711.689	-200.000	-0.060	-0.278
-710.675	-59.879	-0.111	0.048
-709.660	-200.000	0.004	-0.209
-708.645	238.516	-0.046	-0.076
-707.631	46.593	-0.159	0.148
-706.616	-85.236	0.274	-0.086
-705.602	800.000	0.059	-0.224
-704.587	105.276	-0.086	0.102
-703.572	-143.398	-0.419	0.040
-702.558	92.687	-0.209	0.236
-701.543	-47.469	-0.086	0.042
-700.529	-200.000	0.026	-0.255
-699.514	95.252	-0.090	0.102
-698.499	362.103	-0.124	0.248
-697.485	280.326	0.144	0.257
-696.470	34.510	-0.324	0.282
-695.456	8.270	-0.014	0.010
-694.441	-133.672	-0.288	-0.036
-693.426	-157.245	-0.105	0.006
-692.412	59.479	-0.072	0.071
-691.397	800.000	-0.061	0.213
-690.383	213.959	-0.095	0.150
-689.368	173.459	0.105	-0.152
-688.354	-108.228	-0.060	-0.013
-687.339	-82.869	0.131	0.042
-686.324	381.384	-0.161	-0.330
-685.310	-200.000	-0.023	-0.299
-684.295	85.489	-0.168	0.184
-683.281	285.961	-0.256	0.462
-682.266	-26.290	-0.212	0.124
-681.251	-200.000	0.047	0.257
-680.237	-200.000	0.021	0.150
-679.222	-116.244	-0.046	0.008
-678.208	-12.875	0.328	0.213
-677.193	800.000	0.065	-0.191
-676.178	-117.707	0.293	0.053
-675.164	-76.393	0.120	0.042
-674.149	128.179	0.209	-0.265
-673.135	178.139	0.190	0.277
-672.120	112.422	-0.208	0.251
-671.105	507.531	-0.202	0.468
-670.091	-97.514	-0.279	-0.072
-669.076	186.206	0.073	-0.108
-668.062	-87.544	0.181	-0.054
-667.047	-20.125	-0.174	0.107
-666.032	172.662	-0.131	0.188
-665.018	800.000	-0.083	0.284
-664.003	79.898	0.079	-0.084
-662.989	800.000	-0.021	0.062
-661.974	246.080	0.099	-0.166
-660.959	800.000	-0.047	-0.155
-659.945	13.275	-0.169	0.131
-658.930	243.031	-0.124	-0.208
-657.916	31.673	-0.083	-0.072
-656.901	-111.451	-0.591	-0.120
-655.886	0.388	-0.055	-0.039
-654.872	205.412	0.137	-0.213
-653.857	-48.513	0.188	0.090
-652.843	-200.000	-0.001	-0.042
-651.828	-200.000	0.020	0.195
-650.814	-46.113	-0.123	0.060
-649.799	-200.000	0.010	-0.173
-648.784	-45.644	0.243	0.120
-647.770	-54.268	-0.461	-0.209
-646.755	-200.000	0.181	-0.000
-645.741	220.636	0.069	0.111
-644.726	39.785	-0.246	-0.220
-643.711	240.978	0.089	0.148
-642.697	303.635	-0.119	-0.219
-641.682	-111.012	-0.194	-0.040
-640.668	-200.000	0.055	0.266
-639.653	-200.000	0.015	-0.144
-638.638	-110.919	-0.172	-0.035
-637.624	-30.810	-0.116	0.066
-636.609	103.153	-0.113	-0.132
-635.595	-200.000	0.011	-0.188
-634.580	-113.945	-0.171	-0.033
-633.565	-200.000	0.013	-0.220
-632.551	127.595	0.054	0.068
-631.536	222.709	0.061	0.097
-630.522	94.101	-0.072	-0.081
-629.507	-151.548	-0.402	-0.030
-628.492	260.766	0.184	0.318
-627.478	207.021	0.035	0.054
-626.463	-200.000	0.002	0.020
-625.449	-69.628	0.356	0.136
-624.434	-36.920	0.227	-0.122
-623.419	98.601	-0.220	-0.253
-622.405	360.240	-0.053	-0.106
-621.390	-108.909	0.162	0.034
-620.376	98.837	-0.093	-0.107
-619.361	-133.497	0.140	0.018
-618.346	-76.934	0.192	-0.067
-617.332	-65.018	0.120	-0.048
-616.317	498.388	0.023	-0.053
-615.303	72.214	0.184	-0.190
-614.288	-20.744	-0.006	0.004
-613.273	147.881	-0.159	-0.214
-612.259	451.779	-0.075	0.165
-611.244	516.749	-0.077	0.180
-610.230	532.966	-0.102	-0.242
-609.215	219.122	-0.159	0.253
-608.201	-189.094	0.223	0.003
-607.186	-200.000	-0.011	0.156
-606.171	-200.000	0.043	0.310
-605.157	-62.099	0.215	0.089
-604.142	-200.000	-0.004	-0.161
-603.128	-73.192	0.188	-0.068
-602.113	800.000	-0.051	-0.158
-601.098	311.401	0.061	0.115
-600.084	315.474	0.168	0.315
-599.069	-7.631	0.159	-0.107
-598.055	-57.074	-0.348	-0.153
-597.040	29.511	0.040	0.034
-596.025	-127.008	-0.573	-0.084
-595.011	-38.701	0.250	-0.131
-593.996	800.000	0.040	0.123
-592.982	-15.520	-0.162	-0.103
-591.967	-200.000	0.013	-0.287
-590.952	800.000	0.066	-0.215
-589.938	218.638	-0.025	-0.040
-588.923	4.493	-0.094	-0.068
-587.909	375.313	0.031	0.063
-586.894	218.432	-0.085	0.135
-585.879	114.534	0.239	0.289
-584.865	-33.083	0.265	0.146
-583.850	629.815	-0.118	-0.298
-582.836	57.043	0.176	0.171
-581.821	162.876	0.138	0.192
-580.806	-2.002	-0.037	0.026
-579.792	4.343	-0.085	0.062
-578.777	800.000	-0.115	0.418
-577.763	64.535	0.066	-0.066
-576.748	155.470	-0.129	0.176
-575.733	364.366	-0.107	0.215
-574.719	31.590	-0.272	-0.233
-573.704	800.000	-0.037	-0.135
-572.690	-61.421	0.214	-0.090
-571.675	74.528	-0.166	-0.174
-570.661	-22.955	-0.137	0.082
-569.646	141.161	0.089	0.117
-568.631	-89.031	0.113	-0.033
-567.617	-200.000	0.017	0.097
-566.602	779.044	0.029	-0.080
-565.588	91.899	0.094	0.105
-564.573	166.911	0.066	-0.093
-563.558	-13.275	-0.190	-0.123
-562.544	800.000	0.111	-0.405
-561.529	275.994	-0.121	-0.214
-560.515	104.820	-0.213	-0.250
-559.500	154.202	0.086	0.117
-558.485	42.937	-0.387	0.351
-557.471	-200.000	-0.001	-0.050
-556.456	-110.695	-0.163	-0.034
-555.442	-200.000	-0.018	0.372
-554.427	153.105	-0.113	0.154
-553.412	-1.224	0.040	-0.028
-552.398	-150.111	-0.369	-0.029
-551.383	-89.039	0.021	0.006
-550.369	-200.000	-0.041	0.198
-549.354	-145.961	-0.425	0.037
-548.339	262.124	-0.134	0.231
-547.325	238.451	-0.154	0.254
-546.310	241.991	-0.165	0.274
-545.296	445.490	0.130	0.283
-544.281	-74.020	0.052	-0.019
-543.266	222.137	0.151	-0.242
-542.252	-132.459	-0.141	0.018
-541.237	-76.326	-0.257	-0.090
-540.223	-200.000	-0.018	-0.102
-539.208	-5.166	0.104	0.071
-538.193	-192.547	-0.307	0.003
-537.179	-100.012	-0.478	-0.118
-536.164	800.000	-0.106	0.310
-535.150	-28.245	0.191	-0.109
-534.135	-200.000	-0.008	0.039
-533.121	-39.904	0.124	0.064
-532.106	73.515	0.383	0.398
-531.091	-83.229	-0.282	0.090
-530.077	-63.644	0.157	-0.064
-529.062	29.389	0.241	-0.203
-528.048	-200.000	0.017	0.371
-527.033	-109.296	0.154	0.032
-526.018	-85.269	-0.162	0.050
-525.004	8.784	0.247	0.185
-523.989	-200.000	0.019	-0.119
-522.975	-132.621	-0.169	-0.022
-521.960	800.000	0.042	-0.154
-520.945	27.714	0.305	-0.255
-519.931	-5.392	-0.138	0.094
-518.916	-200.000	-0.010	-0.086
-517.902	-105.185	-0.119	-0.027
-516.887	137.698	-0.166	0.216
-515.872	-200.000	0.026	0.172
-514.858	52.332	0.066	-0.063
-513.843	380.002	0.043	0.088
-512.829	-88.444	-0.218	-0.064
-511.814	361.024	-0.072	-0.143
-510.799	-200.000	0.008	0.181
-509.785	-39.849	0.223	0.116
-508.770	-77.805	-0.123	-0.042
-507.756	-84.250	0.449	-0.141
-506.741	-200.000	0.015	-0.141
-505.726	268.252	-0.146	-0.254
-504.712	135.726	-0.147	0.189
-503.697	800.000	0.045	-0.192
-502.683	-95.824	-0.163	0.043
-501.668	-200.000	-0.005	0.116
-500.653	-110.706	0.091	-0.019
-499.639	-110.911	0.492	0.100
-498.624	233.004	0.052	0.084
-497.610	31.823	0.089	-0.076
-496.595	228.231	0.140	-0.226
-495.581	800.000	-0.116	0.342
-494.566	-8.304	0.358	-0.239
-493.551	171.185	-0.279	-0.397
-492.537	-200.000	0.043	0.384
-491.522	71.837	0.301	0.310
-490.508	-200.000	-0.024	-0.411
-489.493	-38.701	0.289	-0.151
-488.478	-200.000	-0.062	-0.295
-487.464	373.953	0.067	0.136
-486.449	-20.126	0.133	0.081
-485.435	10.153	-0.054	0.041
-484.420	592.673	-0.065	0.160
-483.405	-200.000	-0.005	0.070
-482.391	800.000	-0.020	0.078
-481.376	-50.216	0.113	0.053
-480.362	52.612	0.225	-0.213
-479.347	-81.467	0.040	-0.013
-478.332	-12.840	-0.280	-0.180
-477.318	-200.000	0.009	0.063
-476.303	573.203	-0.036	0.088
-475.289	-200.000	0.003	-0.261
-474.274	-200.000	-0.091	-0.454
-473.259	172.608	-0.117	-0.166
-472.245	-200.000	-0.014	0.070
-471.230	-53.867	0.148	0.067
-470.216	-58.694	0.112	0.048
-469.201	41.042	-0.074	-0.066
-468.186	292.583	-0.129	0.233
-467.172	30.989	0.063	-0.053
-466.157	12.111	-0.078	0.060
-465.143	-111.443	-0.329	0.066
-464.128	-89.440	0.156	-0.045
-463.113	-200.000	0.020	0.225
-462.099	800.000	-0.026	-0.079
-461.084	-18.421	0.250	-0.155
-460.070	-58.637	-0.245	-0.105
-459.055	-58.283	0.476	-0.205
-458.040	84.052	0.230	-0.249
-457.026	-83.738	-0.104	-0.033
-456.011	354.874	0.150	-0.294
-454.997	70.147	-0.165	-0.168
-453.982	-67.096	0.106	0.041
-452.968	536.853	0.099	-0.234
-451.953	231.932	0.056	0.090
-450.938	99.352	0.032	0.037
-449.924	163.270	0.087	-0.121
-448.909	-200.000	-0.046	0.199
-447.895	-200.000	0.064	0.368
-446.880	251.941	0.174	-0.293
-445.865	-200.000	0.017	-0.251
-444.851	800.000	0.033	-0.099
-443.836	-69.533	-0.340	0.129
-442.822	13.175	0.291	0.223
-441.807	-94.006	0.159	-0.043
-440.792	-200.000	-0.020	-0.191
-439.778	-200.000	-0.032	-0.250
-438.763	-41.098	0.093	0.047
-437.749	-90.457	0.137	-0.039
-436.734	-130.340	0.128	0.017
-435.719	-40.281	0.349	0.180
-434.705	-62.004	0.188	0.078
-433.690	-200.000	0.023	-0.199
-432.676	-156.777	0.207	0.013
-431.661	286.647	-0.144	-0.257
-430.646	-200.000	0.039	-0.320
-429.632	-200.000	0.036	0.353
-428.617	-36.219	-0.474	-0.253
-427.603	115.600	0.240	-0.291
-426.588	-143.835	0.140	-0.013
-425.573	355.273	0.053	-0.105
-424.559	18.720	0.138	0.109
-423.544	-79.083	-0.065	-0.022
-422.530	9.771	0.310	-0.233
-421.515	-200.000	0.015	-0.128
-420.500	-188.070	0.153	0.002
-419.486	45.687	0.087	-0.080
-418.471	-66.090	-0.257	-0.101
-417.457	-152.070	0.223	-0.016
-416.442	51.804	-0.278	0.262
-415.428	-71.401	0.146	0.054
-414.413	39.676	0.206	0.183
-413.398	44.930	0.043	0.039
-412.384	-18.321	-0.071	-0.044
-411.369	510.587	0.145	-0.333
-410.355	556.078	-0.126	-0.300
-409.340	-200.000	0.087	-0.395
-408.325	-106.363	-0.321	0.071
-407.311	185.991	0.079	-0.115
-406.296	400.957	-0.152	-0.314
-405.282	-200.000	0.011	0.119
-404.267	663.505	0.020	0.051
-403.252	800.000	0.075	0.292
-402.238	228.943	0.225	0.362
-401.223	-72.322	-0.382	-0.140
-400.209	33.816	0.184	-0.158
-399.194	64.321	-0.203	0.202
-398.179	800.000	-0.101	-0.328
-397.165	56.715	0.193	0.186
-396.150	-81.555	-0.316	0.102
-395.136	115.212	0.048	0.057
-394.121	-59.507	0.121	-0.051
-393.106	39.958	-0.119	0.105
-392.092	20.467	-0.096	0.077
-391.077	-58.059	0.127	0.055
-390.063	-79.274	0.195	-0.065
-389.048	-67.996	-0.278	0.107
-388.033	-200.000	-0.071	0.425
-387.019	-39.744	-0.242	0.125
-386.004	800.000	-0.034	0.141
-384.990	-200.000	-0.017	0.293
-383.975	-29.493	0.096	0.054
-382.960	-95.824	0.073	-0.019
-381.946	8.213	0.148	-0.110
-380.931	-121.646	-0.425	-0.070
-379.917	-41.471	-0.192	-0.098
-378.902	-200.000	-0.061	-0.267
-377.888	800.000	0.009	-0.031
-376.873	-200.000	0.012	0.185
-375.858	143.639	0.111	-0.146
-374.844	91.972	0.224	-0.249
-373.829	-43.825	0.125	0.062
-372.815	-61.621	-0.165	0.068
-371.800	-64.717	0.178	0.071
-370.785	800.000	0.061	0.193
-369.771	-200.000	0.068	0.415
-368.756	5.929	-0.265	0.194
-367.742	-92.249	0.339	-0.094
-366.727	-91.184	0.079	-0.022
-365.712	-92.344	0.137	0.038
-364.698	-114.580	0.274	0.052
-363.683	3.852	-0.059	-0.042
-362.669	-200.000	-0.018	0.149
-361.654	-200.000	0.002	-0.069
-360.639	-200.000	0.004	-0.316
-359.625	-200.000	0.003	-0.394
-358.610	-163.080	-0.025	0.001
-357.596	-30.255	0.206	-0.116
-356.581	-92.018	0.200	-0.056
-355.566	-184.781	-0.218	0.003
-354.552	57.018	-0.252	-0.243
-353.537	21.332	0.127	0.101
-352.523	83.194	-0.025	-0.026
-351.508	800.000	0.072	0.293
-350.493	-142.009	-0.254	-0.025
-349.479	800.000	-0.020	0.070
-348.464	-129.573	-0.207	0.028
-347.450	218.047	0.101	0.159
-346.435	69.984	-0.079	-0.081
-345.420	236.080	0.102	0.167
-344.406	-90.456	0.195	-0.056
-343.391	-24.813	-0.355	-0.208
-342.377	-12.151	0.245	-0.158
-341.362	392.517	-0.049	0.101
-340.348	79.043	0.131	0.138
-339.333	-120.845	0.045	-0.007
-338.318	69.747	0.084	0.085
-337.304	-32.644	-0.055	0.030
-336.289	373.878	-0.051	0.102
-335.275	309.657	0.074	-0.136
-334.260	107.832	-0.094	-0.111
-333.245	-81.679	-0.132	-0.043
-332.231	-200.000	0.063	0.303
-331.216	-82.281	-0.096	-0.031
-330.202	60.523	0.220	0.214
-329.187	-105.276	0.059	0.013
-328.172	-98.741	0.231	0.058
-327.158	-71.227	-0.305	0.113
-326.143	91.226	0.136	0.151
-325.129	-200.000	0.002	0.112
-324.114	-200.000	0.030	-0.164
-323.099	-72.006	0.138	0.051
-322.085	-200.000	-0.046	0.227
-321.070	65.815	0.136	-0.136
-320.056	200.396	-0.281	0.425
-319.041	-59.511	0.050	0.021
-318.026	-80.634	-0.120	-0.039
-317.012	-200.000	0.032	-0.194
-315.997	224.488	0.102	-0.163
-314.983	334.939	0.105	0.200
-313.968	344.216	0.131	-0.253
-312.953	-12.790	-0.097	0.062
-311.939	-200.000	-0.023	0.164
-310.924	-57.970	-0.243	0.104
-309.910	-200.000	0.017	0.270
-308.895	-86.016	-0.260	0.079
-307.880	-85.756	-0.409	-0.125
-306.866	289.709	-0.012	-0.022
-305.851	-50.746	-0.182	0.084
-304.837	201.368	0.088	0.133
-303.822	-141.521	0.269	-0.027
-302.807	14.408	-0.211	0.162
-301.793	-200.000	0.012	-0.162
-300.778	94.454	0.151	0.168
-299.764	197.008	0.115	0.172
-298.749	800.000	-0.012	-0.040
-297.735	407.368	0.035	0.074
-296.720	641.116	-0.088	0.220
-295.705	309.469	0.118	0.218
-294.691	39.842	0.281	0.248
-293.676	-105.592	-0.291	-0.065
-292.662	-55.600	-0.347	-0.153
-291.647	-200.000	-0.072	0.389
-290.632	-158.277	0.425	0.024
-289.618	-200.000	-0.004	-0.159
-288.603	-24.544	0.026	0.015
-287.589	-100.098	-0.085	0.021
-286.574	-145.091	-0.483	0.043
-285.559	11.394	-0.237	-0.179
-284.545	-200.000	0.000	-0.175
-283.530	-200.000	0.004	-0.023
-282.516	-200.000	0.032	0.446
-281.501	800.000	-0.028	0.093
-280.486	-87.995	0.047	-0.014
-279.472	276.484	-0.083	-0.144
-278.457	-60.662	-0.449	-0.187
-277.443	-158.635	-0.071	0.004
-276.428	800.000	-0.122	-0.472
-275.413	-67.764	-0.177	-0.068
-274.399	492.279	-0.082	-0.186
-273.384	-150.717	0.091	0.007
-272.370	-200.000	0.006	0.078
-271.355	270.467	-0.166	0.288
-270.340	-94.118	0.195	0.052
-269.326	-67.757	0.312	-0.120
-268.311	168.627	-0.129	-0.181
-267.297	499.966	0.091	-0.206
-266.282	-84.424	-0.157	0.049
-265.267	2.557	0.198	-0.141
-264.253	7.940	0.122	0.090
-263.238	72.852	-0.210	0.216
-262.224	-6.231	0.246	-0.165
-261.209	-93.687	-0.055	0.015
-260.195	-200.000	0.006	-0.154
-259.180	-200.000	-0.017	-0.153
-258.165	126.637	0.181	0.225
-257.151	800.000	0.051	0.176
-256.136	-167.856	0.039	0.001
-255.122	17.077	0.180	0.140
-254.107	-200.000	-0.022	0.347
-253.092	22.712	0.341	0.274
-252.078	35.770	-0.441	0.380
-251.063	382.928	0.159	-0.321
-250.049	-97.816	-0.251	-0.064
-249.034	71.947	-0.047	0.048
-248.019	800.000	0.029	-0.091
-247.005	800.000	0.034	-0.108
-245.990	-88.855	0.274	-0.080
-244.976	55.951	-0.182	0.173
-243.961	39.559	0.163	0.143
-242.946	-4.721	0.040	0.027
-241.932	-112.404	-0.111	-0.022
-240.917	751.562	-0.087	0.231
-239.903	34.037	0.184	0.157
-238.888	-56.435	-0.137	-0.060
-237.873	-32.910	0.334	-0.182
-236.859	-20.716	-0.219	0.132
-235.844	-111.310	0.145	-0.029
-234.830	-200.000	-0.019	0.098
-233.815	-124.414	-0.164	-0.025
-232.800	34.208	0.070	0.060
-231.786	144.197	-0.113	0.147
-230.771	296.271	0.082	0.147
-229.757	182.180	0.121	-0.174
-228.742	800.000	-0.054	-0.226
-227.727	84.627	-0.167	-0.180
-226.713	-105.613	0.281	-0.063
-225.698	117.088	-0.111	0.134
-224.684	-56.062	0.265	0.116
-223.669	22.607	-0.264	0.212
-222.655	-37.227	-0.162	0.085
-221.640	80.360	0.038	-0.040
-220.625	-87.324	-0.215	0.064
-219.611	362.251	0.175	-0.344
-218.596	-200.000	-0.006	-0.306
-217.582	800.000	-0.040	0.165
-216.567	-14.882	-0.217	-0.137
-215.552	-138.655	0.198	0.021
-214.538	56.852	0.179	-0.171
-213.523	800.000	-0.098	-0.285
-212.509	-95.222	0.213	0.056
-211.494	-84.340	0.154	-0.048
-210.479	-148.103	-0.278	-0.023
-209.465	-41.840	-0.126	0.063
-208.450	-200.000	-0.020	-0.305
-207.436	18.525	-0.302	-0.237
-206.421	-124.013	-0.270	-0.042
-205.406	-200.000	0.016	0.341
-204.392	187.100	-0.162	0.237
-203.377	-177.985	-0.128	0.003
-202.363	152.847	0.051	0.068
-201.348	-200.000	0.074	0.421
-200.333	800.000	-0.137	-0.440
-199.319	8.704	0.257	-0.190
-198.304	-192.328	0.403	-0.004
-197.290	-7.704	0.050	-0.033
-196.275	-43.878	0.249	0.123
-195.260	342.705	0.055	-0.106
-194.246	-16.918	0.185	-0.114
-193.231	139.543	-0.332	0.428
-192.217	-67.073	0.335	0.130
-191.202	136.905	0.223	-0.286
-190.187	-200.000	-0.048	0.228
-189.173	-170.096	0.264	-0.009
-188.158	272.577	-0.131	0.227
-187.144	-52.845	0.079	-0.036
-186.129	-135.691	0.213	0.025
-185.114	-128.410	-0.433	-0.060
-184.100	603.184	-0.125	-0.304
-183.085	-153.046	-0.090	-0.006
-182.071	16.805	-0.100	-0.077
-181.056	142.694	0.171	-0.222
-180.042	83.910	0.080	-0.085
-179.027	133.237	-0.227	-0.287
-178.012	-200.000	-0.016	0.171
-176.998	-200.000	-0.007	-0.215
-175.983	228.159	0.189	-0.301
-174.969	23.955	-0.091	-0.074
-173.954	-50.299	0.090	0.042
-172.939	-99.271	0.111	0.027
-171.925	112.632	0.180	-0.213
-170.910	63.373	-0.233	-0.228
-169.896	-200.000	-0.012	0.091
-168.881	319.534	0.183	-0.340
-167.866	-114.054	-0.176	0.033
-166.852	800.000	0.068	0.221
-165.837	-158.485	0.255	-0.014
-164.823	-138.859	0.159	0.017
-163.808	-26.988	0.113	-0.064
-162.793	-90.641	-0.279	0.079
-161.779	236.160	0.164	0.265
-160.764	-99.197	-0.067	-0.016
-159.750	105.879	-0.041	-0.047
-158.735	-65.644	-0.291	-0.114
-157.720	171.370	0.157	0.220
-156.706	-122.179	-0.314	-0.050
-155.691	-7.674	-0.290	0.192
-154.677	-41.541	0.250	0.126
-153.662	-107.493	-0.461	-0.099
-152.647	592.469	0.027	0.066
-151.633	262.212	-0.170	0.288
-150.618	-116.257	0.341	-0.062
-149.604	15.022	-0.177	0.136
-148.589	-56.446	0.072	-0.031
-147.574	800.000	-0.074	0.210
-146.560	-84.295	0.246	-0.076
-145.545	78.903	-0.174	0.182
-144.531	295.255	0.221	0.396
-143.516	-153.565	0.088	-0.006
-142.502	37.395	0.154	-0.133
-141.487	237.683	0.178	0.288
-140.472	73.461	0.267	0.273
-139.458	-83.477	0.121	0.038
-138.443	181.085	0.176	0.253
-137.429	-200.000	-0.056	-0.247
-136.414	-23.667	0.042	0.025
-135.399	-200.000	-0.051	-0.251
-134.385	-200.000	0.006	0.192
-133.370	-34.237	0.112	-0.060
-132.356	-136.552	-0.084	-0.009
-131.341	800.000	-0.162	0.487
-130.326	-132.821	-0.204	0.025
-129.312	-180.222	0.295	0.006
-128.297	-200.000	-0.006	-0.218
-127.283	-200.000	0.003	0.183
-126.268	16.173	-0.233	0.180
-125.253	-81.415	0.321	0.103
-124.239	78.100	0.082	0.085
-123.224	800.000	0.052	0.170
-122.210	-200.000	-0.019	-0.149
-121.195	88.739	0.035	-0.038
-120.180	-5.875	0.061	-0.041
