DTS Sentinel unit serial number:	SN413079Multiplexer serial number:	ORYXHardware model number:	OX4-SRSoftware version number:	ORYX F/W v4.00 Oryx Data Collector v3.7.2.0data status	okinstallation	princeton_trtdifferential loss correction	single-endedforward channel	channel 1reverse channel	N/Adate	2019/09/13time	02:42:35forward acquisition time	60.00reverse acquisition time	0.00gamma	496.2192k internal	0.2331k external	0.2331temperature offset calibration	1.0160default loss term (dB/km)	0.3790temperature slope calibration	1.0000multiplexer offset coefficient	1.0000multiplexer slope coefficient	1.0000fibre end	0.00T internal ref (°C)	27.44T ext. ref 1 (°C)	4.01T ext. ref 2 (°C)	22.27length (m)	temperature (°C)	Stokes	anti-Stokes-747.200	-200.000	0.013	-0.231
-746.185	284.546	-0.093	-0.168
-745.171	80.076	-0.153	-0.166
-744.156	42.468	0.028	-0.026
-743.142	-117.245	0.318	0.058
-742.127	-87.042	-0.245	-0.075
-741.112	800.000	-0.064	-0.190
-740.098	-71.906	-0.166	0.062
-739.083	291.915	0.067	0.122
-738.069	-200.000	0.060	0.283
-737.054	164.089	-0.100	0.142
-736.039	622.352	-0.103	-0.260
-735.025	-200.000	0.012	-0.083
-734.010	-100.272	-0.229	-0.057
-732.996	-128.110	-0.317	-0.046
-731.981	-144.205	0.215	0.020
-730.966	800.000	-0.096	-0.295
-729.952	-200.000	-0.057	-0.283
-728.937	800.000	-0.029	0.102
-727.923	-129.177	0.322	0.045
-726.908	-81.169	-0.057	-0.019
-725.894	220.652	-0.124	-0.199
-724.879	18.014	0.021	0.017
-723.864	-200.000	-0.048	0.224
-722.850	-101.879	-0.137	0.033
-721.835	-41.669	0.031	-0.016
-720.821	800.000	0.004	0.014
-719.806	60.129	-0.170	-0.169
-718.791	197.417	-0.213	0.327
-717.777	-94.488	0.167	-0.046
-716.762	-200.000	-0.068	-0.354
-715.748	170.670	-0.139	-0.201
-714.733	-3.920	0.261	-0.182
-713.718	-200.000	0.027	-0.420
-712.704	-121.269	-0.250	-0.042
-711.689	-200.000	0.041	0.422
-710.675	-48.892	-0.331	-0.159
-709.660	-173.873	-0.075	0.002
-708.645	-8.880	-0.228	0.154
-707.631	-162.866	-0.264	-0.013
-706.616	800.000	-0.058	-0.176
-705.602	92.613	0.169	0.191
-704.587	-122.843	-0.121	-0.020
-703.572	-93.250	-0.111	0.031
-702.558	72.324	0.249	-0.260
-701.543	-200.000	0.011	-0.266
-700.529	800.000	-0.025	-0.082
-699.514	582.033	-0.041	-0.100
-698.499	107.668	-0.129	-0.154
-697.485	96.430	0.127	-0.146
-696.470	-153.404	-0.200	-0.014
-695.456	-95.025	-0.215	-0.058
-694.441	-114.086	0.183	-0.036
-693.426	95.028	0.178	-0.204
-692.412	-200.000	0.030	-0.436
-691.397	-116.529	0.042	0.008
-690.383	-200.000	-0.044	-0.504
-689.368	64.843	-0.176	0.179
-688.354	-150.671	-0.178	0.014
-687.339	270.503	-0.091	0.161
-686.324	-42.485	0.254	-0.130
-685.310	-200.000	0.018	-0.219
-684.295	-200.000	-0.084	-0.410
-683.281	221.894	-0.122	-0.197
-682.266	-99.457	0.291	0.074
-681.251	-131.379	0.217	0.029
-680.237	-200.000	-0.008	0.042
-679.222	-3.279	0.044	-0.030
-678.208	-200.000	0.013	0.088
-677.193	118.713	-0.096	-0.119
-676.178	773.658	-0.147	-0.401
-675.164	413.943	-0.018	0.038
-674.149	-91.504	0.162	0.046
-673.135	254.305	0.101	0.173
-672.120	-45.416	0.176	0.088
-671.105	183.721	-0.153	-0.227
-670.091	-37.566	0.109	-0.058
-669.076	184.172	-0.106	0.158
-668.062	-99.404	0.162	0.041
-667.047	-148.989	-0.202	0.016
-666.032	390.232	-0.107	0.224
-665.018	138.200	-0.044	0.058
-664.003	-126.604	0.309	-0.046
-662.989	800.000	0.105	0.372
-661.974	-83.328	-0.260	-0.084
-660.959	-113.446	0.289	-0.057
-659.945	-129.682	0.163	0.023
-658.930	-176.376	-0.365	0.010
-657.916	-200.000	0.002	-0.293
-656.901	-15.352	0.289	0.185
-655.886	800.000	0.043	-0.126
-654.872	-200.000	-0.030	0.287
-653.857	-78.505	-0.133	-0.046
-652.843	-70.073	-0.195	0.074
-651.828	-182.681	-0.383	-0.007
-650.814	11.104	-0.311	0.239
-649.799	-66.450	-0.221	0.088
-648.784	215.251	0.120	-0.190
-647.770	800.000	0.097	0.349
-646.755	-9.240	-0.133	0.089
-645.741	-60.056	0.193	-0.083
-644.726	412.249	-0.091	-0.193
-643.711	800.000	-0.089	-0.289
-642.697	358.136	0.241	-0.482
-641.682	433.938	-0.216	-0.470
-640.668	-123.145	0.111	0.018
-639.653	677.403	0.076	0.197
-638.638	41.672	-0.093	0.085
-637.624	79.173	-0.275	-0.296
-636.609	321.934	-0.054	0.103
-635.595	-108.554	-0.348	0.075
-634.580	800.000	-0.051	0.197
-633.565	-61.083	0.205	0.087
-632.551	800.000	0.034	0.146
-631.536	164.082	0.075	0.105
-630.522	-200.000	-0.058	0.322
-629.507	15.493	0.131	-0.103
-628.492	800.000	-0.019	-0.074
-627.478	800.000	0.059	-0.191
-626.463	60.275	0.180	0.179
-625.449	160.410	-0.128	0.179
-624.434	23.437	0.082	0.067
-623.419	-46.813	-0.187	-0.092
-622.405	-200.000	-0.009	0.166
-621.390	-49.750	-0.050	-0.024
-620.376	142.199	-0.135	0.179
-619.361	189.583	0.236	0.355
-618.346	-200.000	-0.005	-0.140
-617.332	154.455	0.194	-0.267
-616.317	79.152	0.206	-0.221
-615.303	800.000	-0.065	-0.220
-614.288	433.785	-0.181	0.393
-613.273	800.000	0.032	-0.097
-612.259	15.497	0.284	0.223
-611.244	-52.917	-0.062	0.028
-610.230	800.000	-0.051	0.180
-609.215	800.000	-0.105	-0.293
-608.201	83.043	0.132	0.144
-607.186	56.091	-0.185	0.180
-606.171	6.740	0.260	0.193
-605.157	70.779	-0.142	0.148
-604.142	677.710	-0.098	-0.256
-603.128	-30.401	0.073	-0.041
-602.113	-80.969	-0.307	0.102
-601.098	78.570	0.233	0.249
-600.084	102.278	0.081	-0.094
-599.069	-200.000	0.023	-0.252
-598.055	-135.777	0.284	0.034
-597.040	46.306	-0.183	0.170
-596.025	657.877	0.004	0.010
-595.011	800.000	0.060	-0.189
-593.996	746.111	-0.059	-0.158
-592.982	0.910	-0.184	-0.132
-591.967	-200.000	-0.018	-0.229
-590.952	-81.595	-0.171	-0.056
-589.938	-121.540	-0.282	0.047
-588.923	-100.985	0.245	0.060
-587.909	556.634	-0.064	-0.155
-586.894	-109.845	-0.196	0.041
-585.879	-151.194	-0.163	0.012
-584.865	-119.091	-0.301	0.053
-583.850	-74.738	-0.308	-0.111
-582.836	-200.000	0.019	0.232
-581.821	256.565	-0.076	0.131
-580.806	194.575	-0.005	-0.008
-579.792	-94.470	0.249	0.068
-578.777	-200.000	-0.012	-0.261
-577.763	800.000	0.018	-0.071
-576.748	102.195	0.212	0.247
-575.733	800.000	0.038	0.145
-574.719	490.262	-0.092	-0.211
-573.704	-170.268	-0.300	0.011
-572.690	-29.889	-0.249	0.142
-571.675	282.251	-0.154	-0.277
-570.661	-110.356	-0.396	-0.082
-569.646	-200.000	-0.026	-0.176
-568.631	-94.079	-0.229	0.063
-567.617	188.176	0.048	0.071
-566.602	-49.418	0.189	-0.090
-565.588	19.833	-0.257	-0.207
-564.573	-28.638	0.600	-0.345
-563.558	800.000	-0.088	0.362
-562.544	-200.000	-0.007	-0.066
-561.529	800.000	0.074	-0.273
-560.515	-200.000	0.017	-0.286
-559.500	-115.241	-0.341	-0.064
-558.485	-60.895	0.147	0.062
-557.471	382.500	-0.072	0.149
-556.456	-90.573	-0.079	0.023
-555.442	-200.000	-0.004	0.248
-554.427	800.000	-0.088	0.318
-553.412	-59.760	0.159	0.068
-552.398	160.311	-0.212	-0.295
-551.383	-40.637	-0.145	-0.075
-550.369	104.991	0.128	0.151
-549.354	-11.352	-0.097	-0.064
-548.339	-66.675	0.178	-0.071
-547.325	-67.654	0.211	0.082
-546.310	-70.438	-0.146	-0.055
-545.296	-178.368	-0.383	0.009
-544.281	-200.000	-0.063	0.374
-543.266	70.002	0.069	0.071
-542.252	800.000	0.035	-0.113
-541.237	-200.000	0.034	0.208
-540.223	-93.663	-0.339	0.093
-539.208	-143.809	-0.172	-0.016
-538.193	-39.098	-0.208	-0.109
-537.179	757.792	-0.173	-0.467
-536.164	21.313	0.048	-0.039
-535.150	-200.000	-0.204	-0.000
-534.135	578.333	0.116	0.282
-533.121	-84.028	0.068	-0.022
-532.106	436.898	0.111	0.241
-531.091	-3.799	0.077	0.054
-530.077	86.775	-0.108	-0.119
-529.062	176.467	0.081	-0.117
-528.048	458.403	0.034	-0.076
-527.033	97.865	0.338	-0.388
-526.018	14.579	0.241	-0.188
-525.004	-30.572	-0.185	0.104
-523.989	401.531	0.079	0.165
-522.975	-200.000	-0.055	-0.250
-521.960	99.735	0.119	0.137
-520.945	-63.822	-0.122	0.050
-519.931	-109.021	-0.117	0.025
-518.916	224.275	0.094	-0.152
-517.902	-82.829	0.123	-0.040
-516.887	-68.133	-0.338	-0.131
-515.872	31.738	0.217	-0.186
-514.858	800.000	0.036	-0.130
-513.843	800.000	0.025	-0.104
-512.829	-200.000	0.008	-0.113
-511.814	-129.323	-0.255	-0.035
-510.799	800.000	-0.067	-0.232
-509.785	156.723	-0.159	-0.219
-508.770	100.638	-0.100	-0.116
-507.756	-134.681	-0.218	-0.026
-506.741	-101.543	0.324	-0.078
-505.726	800.000	0.028	0.114
-504.712	-39.231	-0.378	0.198
-503.697	167.425	0.121	-0.172
-502.683	147.881	-0.126	0.170
-501.668	579.765	0.061	0.149
-500.653	-140.191	0.200	-0.021
-499.639	-144.547	0.216	0.020
-498.624	25.348	-0.135	-0.112
-497.610	-53.063	-0.258	0.118
-496.595	134.744	0.034	0.044
-495.581	115.827	-0.120	0.146
-494.566	-200.000	-0.010	0.049
-493.551	83.204	-0.085	-0.093
-492.537	-200.000	-0.008	-0.292
-491.522	-200.000	-0.080	0.390
-490.508	-12.004	0.130	-0.085
-489.493	-200.000	-0.031	0.142
-488.478	62.044	0.226	-0.224
-487.464	-19.991	-0.126	0.077
-486.449	-200.000	-0.046	-0.242
-485.435	-103.181	-0.137	0.032
-484.420	220.972	-0.092	0.147
-483.405	-102.357	-0.187	-0.045
-482.391	-96.963	0.274	-0.072
-481.376	-200.000	-0.003	0.081
-480.362	-154.532	0.288	-0.019
-479.347	-112.886	-0.351	0.069
-478.332	152.137	-0.051	-0.069
-477.318	38.620	0.339	-0.301
-476.303	29.838	-0.059	0.050
-475.289	-43.638	0.083	-0.042
-474.274	48.315	0.221	0.206
-473.259	-20.425	0.211	-0.129
-472.245	221.932	-0.148	-0.236
-471.230	-77.842	0.215	-0.074
-470.216	-109.194	0.113	-0.024
-469.201	-102.245	0.153	-0.037
-468.186	75.098	0.069	0.073
-467.172	-54.437	0.279	-0.126
-466.157	344.368	0.123	-0.241
-465.143	-200.000	0.039	-0.309
-464.128	-156.075	-0.139	-0.009
-463.113	241.486	0.033	0.055
-462.099	800.000	0.103	0.330
-461.084	-200.000	0.026	-0.387
-460.070	-42.957	0.423	-0.213
-459.055	-55.272	0.333	0.149
-458.040	-98.024	-0.347	-0.089
-457.026	37.357	0.343	0.303
-456.011	-67.581	0.176	0.069
-454.997	17.332	0.053	0.042
-453.982	84.984	-0.177	0.193
-452.968	686.581	-0.103	-0.267
-451.953	-39.053	0.127	-0.066
-450.938	-200.000	-0.004	-0.118
-449.924	800.000	0.033	0.133
-448.909	-104.819	-0.103	-0.023
-447.895	600.967	-0.037	0.091
-446.880	37.211	-0.169	-0.149
-445.865	533.643	0.095	0.224
-444.851	-6.395	0.084	-0.057
-443.836	-81.862	-0.178	0.058
-442.822	-123.393	-0.046	-0.007
-441.807	59.619	0.133	-0.130
-440.792	-200.000	-0.005	0.059
-439.778	-200.000	0.028	-0.352
-438.763	284.252	0.104	0.187
-437.749	-81.677	0.234	-0.077
-436.734	-156.588	-0.258	0.016
-435.719	69.696	-0.218	0.223
-434.705	519.231	0.062	-0.145
-433.690	601.030	-0.084	-0.208
-432.676	291.452	0.124	0.224
-431.661	525.372	0.158	0.369
-430.646	-95.990	-0.380	0.101
-429.632	800.000	0.024	-0.079
-428.617	74.054	0.194	0.202
-427.603	121.216	0.122	0.151
-426.588	-61.455	-0.195	-0.081
-425.573	-200.000	-0.004	0.021
-424.559	23.632	0.102	0.083
-423.544	-200.000	0.003	0.052
-422.530	43.114	0.130	0.118
-421.515	12.865	0.224	0.172
-420.500	-109.260	0.235	-0.049
-419.486	800.000	0.020	0.065
-418.471	-200.000	-0.023	0.183
-417.457	800.000	0.052	0.219
-416.442	-71.580	-0.181	-0.067
-415.428	-200.000	0.046	0.211
-414.413	64.999	-0.120	-0.120
-413.398	529.982	0.070	0.165
-412.384	-29.730	0.133	0.075
-411.369	21.284	-0.141	0.114
-410.355	-200.000	0.042	0.216
-409.340	142.717	0.201	-0.265
-408.325	-200.000	-0.009	0.072
-407.311	-152.901	-0.163	-0.011
-406.296	-7.930	0.175	-0.117
-405.282	-44.726	0.105	-0.052
-404.267	232.463	0.126	-0.205
-403.252	800.000	0.051	0.145
-402.238	-60.428	0.039	-0.016
-401.223	-61.600	0.032	0.013
-400.209	88.663	0.209	0.231
-399.194	695.635	-0.025	-0.066
-398.179	800.000	-0.047	-0.173
-397.165	19.528	0.094	-0.075
-396.150	-41.023	0.047	0.024
-395.136	-121.095	0.171	0.029
-394.121	-200.000	0.022	0.174
-393.106	32.904	0.269	-0.231
-392.092	-73.233	0.076	-0.028
-391.077	-9.881	-0.235	0.155
-390.063	-89.191	0.303	-0.089
-389.048	204.809	-0.137	0.211
-388.033	-14.482	0.272	-0.173
-387.019	-78.778	-0.145	0.049
-386.004	7.126	0.381	-0.282
-384.990	-158.195	-0.123	0.007
-383.975	-36.991	0.064	0.034
-382.960	800.000	0.037	0.115
-381.946	6.339	0.360	0.265
-380.931	-117.144	-0.155	0.028
-379.917	421.262	-0.236	0.502
-378.902	-200.000	-0.008	-0.059
-377.888	-135.232	0.137	-0.016
-376.873	-104.242	-0.314	0.072
-375.858	304.739	0.186	0.343
-374.844	-110.081	0.119	0.025
-373.829	-40.541	0.238	0.122
-372.815	-200.000	-0.007	-0.166
-371.800	-200.000	-0.029	-0.294
-370.785	1.088	0.190	-0.135
-369.771	23.573	-0.252	0.206
-368.756	374.251	-0.008	-0.017
-367.742	800.000	-0.074	0.207
-366.727	800.000	-0.045	0.143
-365.712	-36.552	0.025	-0.014
-364.698	791.601	-0.040	-0.108
-363.683	11.010	-0.153	0.116
-362.669	-74.040	0.253	-0.091
-361.654	96.418	-0.125	0.141
-360.639	59.177	-0.086	-0.084
-359.625	-112.786	0.304	0.060
-358.610	514.200	0.071	-0.164
-357.596	183.764	-0.153	-0.224
-356.581	-21.880	0.218	0.131
-355.566	800.000	0.073	-0.284
-354.552	-96.662	-0.273	-0.071
-353.537	197.634	0.033	-0.051
-352.523	52.967	0.252	0.239
-351.508	-4.228	0.117	-0.080
-350.493	-123.215	-0.102	-0.016
-349.479	-55.061	-0.117	0.052
-348.464	-13.563	-0.288	-0.185
-347.450	13.310	-0.121	-0.093
-346.435	-200.000	0.013	-0.407
-345.420	58.020	-0.181	0.176
-344.406	130.265	0.144	-0.182
-343.391	590.477	0.105	0.256
-342.377	-85.494	-0.278	-0.086
-341.362	-134.682	-0.095	0.011
-340.348	-15.154	0.128	-0.081
-339.333	168.573	-0.049	0.069
-338.318	-121.150	0.158	-0.026
-337.304	258.091	-0.090	0.154
-336.289	-200.000	0.056	0.454
-335.275	48.221	-0.035	0.033
-334.260	800.000	-0.077	0.233
-333.245	-43.472	0.211	-0.106
-332.231	-108.607	-0.203	0.043
-331.216	-85.371	-0.031	0.010
-330.202	-200.000	0.009	0.107
-329.187	-152.443	0.203	-0.014
-328.172	-200.000	-0.022	-0.245
-327.158	-65.789	-0.288	0.114
-326.143	-35.220	-0.098	0.053
-325.129	-200.000	0.004	-0.166
-324.114	430.668	-0.052	-0.111
-323.099	-200.000	-0.014	-0.234
-322.085	-93.805	-0.459	-0.125
-321.070	-80.023	0.199	0.066
-320.056	516.228	-0.121	-0.279
-319.041	227.841	-0.104	0.168
-318.026	-98.099	-0.149	-0.038
-317.012	-200.000	-0.006	-0.421
-315.997	-89.770	0.167	0.048
-314.983	-187.003	-0.369	0.005
-313.968	153.781	-0.144	0.196
-312.953	104.748	-0.189	0.221
-311.939	297.477	0.033	0.059
-310.924	-139.196	0.252	0.027
-309.910	-33.600	-0.259	0.141
-308.895	319.414	0.109	0.204
-307.880	-1.788	-0.169	-0.118
-306.866	241.768	-0.051	-0.084
-305.851	800.000	0.054	-0.187
-304.837	-47.275	-0.136	0.066
-303.822	-200.000	0.022	0.233
-302.807	800.000	0.033	0.129
-301.793	-200.000	-0.011	-0.202
-300.778	33.145	0.176	-0.151
-299.764	-86.235	0.274	-0.083
-298.749	-17.506	0.112	0.069
-297.735	264.136	0.174	-0.299
-296.720	132.523	-0.063	-0.080
-295.705	157.213	-0.146	0.200
-294.691	-57.169	-0.192	-0.084
-293.676	800.000	-0.083	0.295
-292.662	-159.405	-0.377	-0.021
-291.647	-161.989	-0.215	0.011
-290.632	-146.975	0.364	0.031
-289.618	-200.000	0.026	0.205
-288.603	800.000	0.032	0.099
-287.589	270.395	0.091	-0.158
-286.574	800.000	-0.119	-0.476
-285.559	444.897	0.041	0.089
-284.545	-21.055	0.360	0.218
-283.530	-190.362	0.151	-0.002
-282.516	387.974	-0.072	-0.146
-281.501	-92.780	-0.113	-0.031
-280.486	13.484	-0.076	-0.058
-279.472	-133.697	-0.220	0.027
-278.457	800.000	-0.083	0.248
-277.443	-200.000	0.040	-0.224
-276.428	59.989	-0.145	-0.142
-275.413	-102.296	-0.249	-0.059
-274.399	97.476	0.303	0.344
-273.384	282.741	0.132	0.234
-272.370	800.000	-0.049	-0.160
-271.355	71.797	0.093	-0.095
-270.340	247.892	0.085	-0.142
-269.326	42.306	0.356	0.320
-268.311	-30.874	0.182	-0.101
-267.297	800.000	0.156	-0.494
-266.282	-33.353	-0.318	-0.174
-265.267	1.752	-0.103	0.073
-264.253	681.857	0.029	-0.074
-263.238	76.209	-0.225	0.236
-262.224	-72.400	0.285	0.104
-261.209	-76.557	0.222	-0.077
-260.195	725.588	-0.116	0.304
-259.180	-95.680	0.108	0.029
-258.165	53.415	-0.257	-0.243
-257.151	-200.000	-0.018	-0.129
-256.136	336.910	0.049	-0.095
-255.122	800.000	0.005	-0.015
-254.107	-3.996	0.358	-0.245
-253.092	-178.455	0.110	-0.003
-252.078	794.296	-0.052	-0.143
-251.063	20.810	-0.204	0.163
-250.049	432.033	0.129	0.276
-249.034	-15.581	0.163	0.103
-248.019	330.518	0.062	-0.118
-247.005	-200.000	-0.014	-0.311
-245.990	39.040	-0.205	0.181
-244.976	483.584	0.089	0.200
-243.961	148.034	0.130	0.173
-242.946	800.000	0.050	0.183
-241.932	30.739	0.200	0.169
-240.917	-137.204	-0.222	-0.025
-239.903	582.283	0.060	-0.145
-238.888	93.591	-0.275	0.307
-237.873	26.630	0.172	-0.142
-236.859	-160.570	-0.087	-0.005
-235.844	800.000	0.076	-0.244
-234.830	28.451	-0.073	-0.061
-233.815	-80.094	0.459	-0.152
-232.800	138.037	0.118	-0.153
-231.786	134.053	0.065	0.083
-230.771	-200.000	-0.017	-0.141
-229.757	-116.362	-0.364	-0.066
-228.742	-85.271	0.362	-0.112
-227.727	83.638	0.221	-0.238
-226.713	800.000	-0.043	-0.171
-225.698	-39.946	0.368	0.189
-224.684	-111.633	-0.310	0.062
-223.669	-200.000	-0.031	0.254
-222.655	-88.161	0.154	0.046
-221.640	148.418	0.047	0.062
-220.625	280.691	0.121	0.213
-219.611	373.342	-0.128	0.257
-218.596	-72.076	0.173	-0.063
-217.582	-170.430	0.039	0.001
-216.567	-191.109	0.190	0.002
-215.552	157.776	-0.062	0.085
-214.538	-140.701	-0.265	0.027
-213.523	-92.995	-0.519	0.143
-212.509	188.658	0.039	-0.057
-211.494	-200.000	0.016	-0.163
-210.479	-200.000	-0.014	-0.150
-209.465	-111.118	0.319	0.064
-208.450	86.749	-0.090	0.098
-207.436	-80.813	-0.283	-0.093
-206.421	-67.887	0.049	0.019
-205.406	-21.150	-0.270	0.163
-204.392	-200.000	0.021	-0.150
-203.377	-100.852	0.198	0.048
-202.363	201.063	-0.037	-0.057
-201.348	800.000	0.052	-0.183
-200.333	-110.021	0.186	0.038
-199.319	-104.432	-0.454	0.103
-198.304	-200.000	-0.006	0.181
-197.290	-164.120	-0.388	0.018
-196.275	322.152	0.153	-0.286
-195.260	-200.000	0.016	-0.090
-194.246	-16.682	0.292	-0.182
-193.231	-200.000	-0.036	0.155
-192.217	-200.000	0.031	0.149
-191.202	-128.973	-0.339	0.047
-190.187	-12.772	-0.158	0.101
-189.173	728.839	0.059	-0.155
-188.158	-44.207	-0.302	0.149
-187.144	-78.234	0.035	-0.012
-186.129	-167.786	0.226	0.009
-185.114	-148.779	-0.147	-0.012
-184.100	-24.415	0.294	0.172
-183.085	-113.444	-0.116	0.022
-182.071	-93.276	-0.077	0.021
-181.056	23.291	0.357	-0.289
-180.042	480.493	0.139	-0.310
-179.027	533.283	-0.044	-0.103
-178.012	-177.157	0.393	-0.010
-176.998	-76.504	0.302	0.105
-175.983	-35.505	0.229	0.122
-174.969	295.147	-0.062	0.111
-173.954	-200.000	-0.001	0.292
-172.939	-113.059	0.287	0.056
-171.925	-13.477	0.196	0.125
-170.910	-200.000	-0.005	0.037
-169.896	143.543	-0.210	-0.275
-168.881	-12.192	-0.389	-0.251
-167.866	-155.301	-0.258	0.016
-166.852	-82.188	0.143	-0.046
-165.837	-65.815	-0.179	-0.070
-164.823	22.697	-0.077	0.062
-163.808	544.962	0.055	0.130
-162.793	-75.006	-0.140	0.049
-161.779	98.434	0.210	0.238
-160.764	-48.610	-0.208	-0.099
-159.750	-153.503	-0.024	-0.002
-158.735	-40.916	0.156	0.079
-157.720	-200.000	-0.030	0.233
-156.706	-181.381	-0.070	-0.001
-155.691	275.904	-0.027	0.048
-154.677	-41.423	-0.340	0.172
-153.662	-116.987	0.187	-0.034
-152.647	-74.746	-0.309	0.109
-151.633	-11.215	-0.230	0.149
-150.618	-64.858	0.102	0.041
-149.604	70.864	-0.172	-0.175
-148.589	-41.263	-0.298	0.151
-147.574	800.000	0.061	-0.217
-146.560	10.144	-0.232	-0.174
-145.545	-133.933	-0.267	0.033
-144.531	17.032	0.269	-0.210
-143.516	348.223	0.137	0.265
-142.502	-94.756	-0.257	-0.068
-141.487	-112.374	0.284	0.056
-140.472	-124.613	0.184	-0.028
-139.458	-18.370	0.198	0.122
-138.443	-200.000	0.001	-0.263
-137.429	592.745	-0.085	0.206
-136.414	-200.000	0.010	-0.119
-135.399	800.000	-0.016	0.053
-134.385	-76.678	0.047	-0.016
-133.370	792.442	0.078	0.212
-132.356	-200.000	0.044	0.204
-131.341	452.444	0.040	0.088
-130.326	-24.146	0.351	0.206
-129.312	800.000	-0.112	-0.388
-128.297	118.048	-0.090	-0.109
-127.283	-200.000	-0.003	0.119
-126.268	2.954	-0.181	-0.129
-125.253	638.933	0.043	0.108
-124.239	-170.407	0.155	0.005
-123.224	70.758	0.125	0.127
-122.210	-124.267	-0.266	0.041
-121.195	-174.028	0.263	0.008
