DTS Sentinel unit serial number:	SN413079Multiplexer serial number:	ORYXHardware model number:	OX4-SRSoftware version number:	ORYX F/W v4.00 Oryx Data Collector v3.7.2.0data status	okinstallation	princeton_trtdifferential loss correction	single-endedforward channel	channel 1reverse channel	N/Adate	2019/09/17time	19:42:35forward acquisition time	60.00reverse acquisition time	0.00gamma	496.2192k internal	0.2315k external	0.2315temperature offset calibration	0.9978default loss term (dB/km)	0.3790temperature slope calibration	1.0000multiplexer offset coefficient	1.0000multiplexer slope coefficient	1.0000fibre end	0.00T internal ref (°C)	35.19T ext. ref 1 (°C)	0.24T ext. ref 2 (°C)	24.42length (m)	temperature (°C)	Stokes	anti-Stokes-747.200	-200.000	0.028	-0.132
-746.185	-39.762	-0.099	0.052
-745.171	-200.000	0.014	0.133
-744.156	-200.000	0.030	0.161
-743.142	21.458	-0.252	0.207
-742.127	22.597	-0.206	0.170
-741.112	747.192	0.010	0.028
-740.098	-112.152	-0.166	0.034
-739.083	-58.776	-0.361	0.158
-738.069	88.533	-0.143	0.161
-737.054	72.250	-0.179	0.189
-736.039	-56.353	-0.264	-0.119
-735.025	16.487	0.150	0.120
-734.010	800.000	0.063	0.256
-732.996	86.897	-0.143	-0.160
-731.981	-111.640	0.176	0.036
-730.966	9.374	0.085	0.065
-729.952	-200.000	0.026	0.124
-728.937	5.234	-0.187	0.140
-727.923	-54.571	0.254	-0.116
-726.908	-110.263	-0.168	-0.035
-725.894	-57.258	-0.050	0.022
-724.879	-130.544	-0.259	-0.035
-723.864	-90.314	-0.098	0.029
-722.850	43.486	-0.061	-0.057
-721.835	800.000	0.136	-0.482
-720.821	-200.000	0.009	-0.262
-719.806	289.159	0.084	-0.155
-718.791	-130.553	-0.400	-0.055
-717.777	-89.244	-0.035	-0.010
-716.762	-106.021	0.155	0.035
-715.748	49.683	0.161	-0.154
-714.733	15.917	-0.182	0.145
-713.718	800.000	0.084	0.265
-712.704	12.076	-0.311	-0.242
-711.689	-136.150	-0.301	-0.036
-710.675	-200.000	0.009	0.241
-709.660	-5.384	0.135	0.094
-708.645	-46.719	-0.294	0.146
-707.631	100.729	-0.145	0.171
-706.616	109.708	0.010	0.012
-705.602	-17.065	0.096	0.062
-704.587	-103.422	0.221	0.053
-703.572	-128.986	-0.414	0.059
-702.558	-128.393	-0.153	-0.022
-701.543	-1.171	-0.150	0.107
-700.529	-102.465	-0.073	0.018
-699.514	392.850	-0.092	-0.193
-698.499	-96.691	0.066	0.017
-697.485	800.000	-0.067	-0.265
-696.470	-189.727	-0.291	0.003
-695.456	10.412	-0.175	0.135
-694.441	-114.360	-0.305	-0.059
-693.426	-196.454	-0.104	-0.001
-692.412	-52.969	-0.376	0.175
-691.397	24.568	-0.232	0.195
-690.383	70.713	-0.294	-0.307
-689.368	-200.000	0.000	-0.018
-688.354	-167.134	0.320	0.013
-687.339	-200.000	0.013	0.124
-686.324	-200.000	0.034	-0.214
-685.310	-149.744	0.396	-0.031
-684.295	-55.242	0.252	-0.115
-683.281	497.593	-0.070	-0.163
-682.266	-50.272	-0.161	0.077
-681.251	-200.000	0.054	0.278
-680.237	-63.556	-0.199	0.083
-679.222	541.912	-0.112	0.269
-678.208	386.128	-0.074	-0.154
-677.193	687.581	-0.119	-0.314
-676.178	800.000	0.017	-0.058
-675.164	800.000	-0.086	-0.300
-674.149	800.000	0.023	-0.069
-673.135	96.313	0.165	0.190
-672.120	-68.722	0.184	-0.072
-671.105	-58.951	-0.140	0.061
-670.091	25.211	-0.171	-0.144
-669.076	72.186	-0.066	0.070
-668.062	800.000	-0.040	0.175
-667.047	206.908	0.073	-0.115
-666.032	800.000	-0.034	-0.142
-665.018	-49.453	0.253	0.122
-664.003	-40.912	-0.070	0.036
-662.989	253.004	0.088	-0.152
-661.974	-106.657	-0.269	0.060
-660.959	-133.212	0.038	-0.005
-659.945	-200.000	-0.011	0.470
-658.930	-3.821	-0.073	-0.051
-657.916	-66.256	-0.263	-0.106
-656.901	800.000	-0.072	-0.230
-655.886	562.976	0.041	-0.099
-654.872	-200.000	-0.003	-0.016
-653.857	-96.835	0.150	-0.040
-652.843	14.286	-0.116	-0.092
-651.828	-138.659	-0.147	0.016
-650.814	427.787	-0.137	-0.299
-649.799	-200.000	0.034	-0.247
-648.784	15.789	-0.174	-0.139
-647.770	800.000	-0.053	-0.148
-646.755	222.231	-0.211	-0.342
-645.741	-200.000	0.212	0.001
-644.726	-15.606	-0.193	-0.124
-643.711	372.967	0.034	0.070
-642.697	749.985	0.041	0.113
-641.682	-200.000	-0.023	-0.246
-640.668	632.185	0.112	-0.286
-639.653	41.353	-0.138	-0.126
-638.638	384.471	-0.143	-0.297
-637.624	416.707	0.107	0.231
-636.609	-71.262	-0.048	-0.018
-635.595	-91.035	-0.149	0.043
-634.580	-2.141	-0.107	-0.076
-633.565	320.130	0.043	-0.082
-632.551	800.000	-0.078	0.273
-631.536	606.196	-0.081	0.203
-630.522	-175.059	-0.200	-0.006
-629.507	-112.744	0.273	-0.055
-628.492	548.199	0.132	0.318
-627.478	215.293	-0.144	-0.230
-626.463	-67.981	-0.299	0.118
-625.449	-149.011	-0.154	-0.013
-624.434	-54.044	0.137	0.063
-623.419	657.156	-0.096	0.249
-622.405	452.707	0.027	-0.061
-621.390	194.326	0.127	-0.195
-620.376	-98.029	0.247	0.064
-619.361	-164.486	0.209	0.010
-618.346	120.772	-0.063	-0.078
-617.332	800.000	-0.021	-0.069
-616.317	-16.537	0.080	-0.051
-615.303	-12.784	0.080	0.052
-614.288	107.745	0.089	0.107
-613.273	-65.660	0.079	-0.032
-612.259	27.279	-0.228	-0.193
-611.244	388.873	0.134	-0.279
-610.230	15.979	-0.288	0.229
-609.215	-15.429	0.268	0.173
-608.201	232.395	-0.079	0.131
-607.186	-43.546	0.288	-0.147
-606.171	301.600	0.188	-0.351
-605.157	-76.520	-0.162	0.057
-604.142	183.990	-0.076	-0.113
-603.128	800.000	0.037	0.154
-602.113	800.000	-0.064	0.223
-601.098	-76.507	0.247	-0.087
-600.084	178.921	0.119	0.176
-599.069	75.912	0.169	-0.180
-598.055	116.388	-0.076	-0.094
-597.040	-145.928	-0.204	0.018
-596.025	-200.000	-0.049	0.347
-595.011	755.513	0.066	-0.181
-593.996	-177.011	0.107	0.003
-592.982	580.684	-0.040	-0.099
-591.967	489.774	0.121	-0.279
-590.952	-132.076	-0.101	-0.013
-589.938	243.305	0.162	0.274
-588.923	-200.000	-0.006	-0.217
-587.909	-136.526	-0.188	0.022
-586.894	-169.126	-0.110	0.004
-585.879	125.778	-0.066	-0.084
-584.865	800.000	-0.103	-0.334
-583.850	800.000	0.085	-0.291
-582.836	-110.113	-0.172	-0.036
-581.821	236.687	0.092	0.153
-580.806	-5.782	-0.185	0.127
-579.792	800.000	-0.074	-0.244
-578.777	-200.000	0.008	0.422
-577.763	325.498	0.110	0.212
-576.748	436.574	0.056	-0.123
-575.733	-200.000	-0.023	-0.144
-574.719	-200.000	-0.022	-0.159
-573.704	-7.238	0.116	-0.079
-572.690	68.115	0.134	-0.138
-571.675	-114.720	0.349	0.067
-570.661	800.000	-0.073	-0.240
-569.646	240.736	0.019	0.031
-568.631	-15.738	-0.227	-0.145
-567.617	53.005	0.114	-0.110
-566.602	613.471	0.042	0.106
-565.588	-35.960	-0.122	0.066
-564.573	-3.084	-0.335	-0.235
-563.558	634.758	0.146	0.373
-562.544	-200.000	-0.052	-0.259
-561.529	434.037	-0.117	0.256
-560.515	-101.382	-0.083	0.020
-559.500	42.019	0.159	0.145
-558.485	38.121	-0.334	-0.299
-557.471	-11.853	0.407	0.269
-556.456	186.800	0.042	-0.063
-555.442	38.857	-0.119	0.107
-554.427	229.485	0.039	-0.064
-553.412	-36.366	0.114	-0.062
-552.398	-12.851	0.100	-0.065
-551.383	252.312	0.227	0.389
-550.369	-160.829	0.439	-0.023
-549.354	-35.534	0.086	-0.047
-548.339	-154.044	-0.548	-0.037
-547.325	-168.976	0.287	-0.011
-546.310	-195.046	-0.065	-0.000
-545.296	-134.424	0.151	0.019
-544.281	110.148	0.140	-0.169
-543.266	317.306	0.186	0.354
-542.252	-95.635	-0.369	-0.099
-541.237	-120.881	-0.293	-0.050
-540.223	-48.057	-0.092	-0.045
-539.208	155.108	0.101	0.140
-538.193	-200.000	-0.094	0.000
-537.179	-200.000	-0.028	-0.284
-536.164	-10.839	0.154	0.102
-535.150	53.226	0.121	-0.117
-534.135	119.142	0.008	0.010
-533.121	-66.493	-0.385	0.154
-532.106	182.638	0.063	-0.093
-531.091	-105.841	-0.275	-0.062
-530.077	20.802	0.288	0.235
-529.062	-40.758	0.042	-0.022
-528.048	0.491	-0.289	0.208
-527.033	-200.000	0.015	0.332
-526.018	164.981	0.222	-0.315
-525.004	-151.329	-0.275	-0.021
-523.989	160.653	-0.156	-0.219
-522.975	-24.188	-0.057	-0.034
-521.960	51.140	-0.118	0.113
-520.945	125.381	0.077	0.098
-519.931	310.209	-0.072	-0.135
-518.916	204.418	-0.226	-0.352
-517.902	-61.280	0.230	0.097
-516.887	205.879	0.003	-0.004
-515.872	229.974	-0.163	0.268
-514.858	-77.594	0.177	0.062
-513.843	-132.367	-0.180	0.023
-512.829	89.752	0.141	-0.158
-511.814	-43.937	-0.128	-0.065
-510.799	-133.503	-0.209	-0.026
-509.785	-200.000	-0.004	-0.121
-508.770	21.239	0.065	-0.053
-507.756	-95.211	0.362	0.098
-506.741	236.030	0.092	0.153
-505.726	104.015	0.236	-0.278
-504.712	2.679	0.214	-0.156
-503.697	169.466	-0.033	-0.048
-502.683	-183.873	0.130	-0.002
-501.668	-200.000	0.005	-0.346
-500.653	-21.436	0.244	-0.149
-499.639	5.011	-0.092	0.068
-498.624	264.103	0.117	-0.204
-497.610	301.033	0.207	0.383
-496.595	454.870	-0.142	-0.317
-495.581	-140.106	0.203	-0.021
-494.566	410.815	0.018	0.039
-493.551	-147.790	0.225	-0.019
-492.537	-200.000	0.054	0.289
-491.522	710.100	-0.080	-0.212
-490.508	436.193	-0.101	0.221
-489.493	-15.467	0.308	-0.197
-488.478	554.426	0.162	0.392
-487.464	-153.653	-0.289	0.020
-486.449	163.017	-0.198	-0.279
-485.435	116.470	-0.163	0.200
-484.420	-200.000	-0.006	0.183
-483.405	-137.695	0.147	-0.017
-482.391	-77.130	-0.057	0.020
-481.376	-30.478	-0.310	0.176
-480.362	-200.000	-0.012	-0.075
-479.347	132.480	-0.131	0.169
-478.332	108.386	-0.198	0.238
-477.318	800.000	-0.010	-0.027
-476.303	800.000	0.041	0.125
-475.289	-115.745	0.089	0.017
-474.274	-127.020	-0.429	-0.063
-473.259	227.669	0.075	-0.123
-472.245	-200.000	-0.010	0.267
-471.230	-20.639	0.139	-0.086
-470.216	-57.526	0.197	0.087
-469.201	140.286	0.211	0.280
-468.186	79.712	-0.017	-0.019
-467.172	179.138	-0.253	0.371
-466.157	-200.000	0.009	-0.114
-465.143	-80.036	0.086	0.029
-464.128	-95.062	-0.293	-0.079
-463.113	-85.702	0.369	-0.115
-462.099	-81.075	0.163	-0.054
-461.084	296.320	0.063	-0.116
-460.070	-91.310	0.289	-0.083
-459.055	39.343	0.081	0.073
-458.040	501.666	-0.024	0.055
-457.026	-51.648	-0.271	-0.127
-456.011	-129.804	-0.322	0.044
-454.997	-200.000	-0.028	-0.133
-453.982	-158.563	-0.324	0.019
-452.968	800.000	-0.075	-0.250
-451.953	-113.435	-0.055	-0.011
-450.938	276.312	0.159	-0.282
-449.924	214.854	-0.099	0.157
-448.909	63.104	0.079	0.079
-447.895	-200.000	0.479	-0.002
-446.880	-200.000	0.047	-0.251
-445.865	-135.070	0.265	0.032
-444.851	-77.869	-0.115	-0.040
-443.836	-63.888	-0.230	0.094
-442.822	-59.835	-0.064	-0.027
-441.807	304.386	-0.057	-0.107
-440.792	-106.552	0.127	-0.028
-439.778	67.744	0.070	0.071
-438.763	292.929	0.116	0.212
-437.749	127.926	0.161	-0.205
-436.734	-26.354	0.049	-0.029
-435.719	-59.775	0.188	-0.081
-434.705	-55.703	-0.309	-0.138
-433.690	-16.790	-0.165	0.105
-432.676	-119.753	0.116	-0.020
-431.661	34.211	-0.019	-0.016
-430.646	82.213	-0.136	0.148
-429.632	13.422	-0.385	0.299
-428.617	-125.483	0.096	-0.015
-427.603	-94.657	-0.507	-0.138
-426.588	800.000	-0.032	0.133
-425.573	800.000	-0.057	0.160
-424.559	800.000	0.005	0.019
-423.544	-106.884	-0.203	-0.045
-422.530	-56.194	0.456	0.203
-421.515	-9.728	0.284	-0.189
-420.500	331.957	-0.107	0.206
-419.486	42.740	-0.090	0.082
-418.471	800.000	-0.034	0.111
-417.457	-90.184	0.160	-0.047
-416.442	-27.297	-0.098	-0.057
-415.428	-200.000	0.015	-0.216
-414.413	-200.000	0.000	-0.167
-413.398	-76.733	0.146	0.051
-412.384	143.128	-0.029	-0.039
-411.369	435.580	-0.030	-0.065
-410.355	-75.736	0.131	0.047
-409.340	525.850	0.065	0.152
-408.325	-127.235	0.218	0.032
-407.311	-28.280	0.163	-0.094
-406.296	-71.369	-0.283	0.106
-405.282	726.416	0.132	-0.351
-404.267	-70.886	-0.179	0.068
-403.252	800.000	0.039	-0.141
-402.238	-16.272	0.093	0.059
-401.223	-200.000	-0.007	0.275
-400.209	-146.077	-0.353	0.031
-399.194	-60.812	0.107	-0.045
-398.179	175.795	0.028	-0.041
-397.165	-60.644	-0.192	0.081
-396.150	-70.010	-0.153	-0.058
-395.136	137.452	-0.062	-0.081
-394.121	-71.741	0.153	0.057
-393.106	6.443	-0.147	-0.109
-392.092	69.088	-0.258	0.265
-391.077	-200.000	-0.057	0.557
-390.063	-200.000	0.044	-0.262
-389.048	-200.000	-0.000	0.058
-388.033	800.000	-0.106	0.438
-387.019	5.686	0.014	-0.010
-386.004	464.661	-0.104	-0.233
-384.990	-200.000	-0.001	0.068
-383.975	45.565	0.462	0.426
-382.960	64.204	-0.193	0.194
-381.946	-87.632	-0.321	0.097
-380.931	-200.000	0.011	-0.116
-379.917	341.017	-0.070	-0.136
-378.902	795.520	-0.037	-0.101
-377.888	91.505	-0.223	0.251
-376.873	-102.589	0.242	0.058
-375.858	-93.860	0.165	-0.045
-374.844	-200.000	0.018	-0.152
-373.829	219.283	-0.105	-0.168
-372.815	-100.383	0.151	-0.037
-371.800	-200.000	0.045	0.264
-370.785	285.687	0.078	-0.140
-369.771	-6.083	0.111	-0.075
-368.756	-152.975	-0.141	-0.010
-367.742	-118.446	0.269	-0.048
-366.727	28.198	0.245	-0.207
-365.712	221.404	-0.048	-0.077
-364.698	-200.000	-0.019	0.102
-363.683	-118.489	-0.338	-0.060
-362.669	177.185	-0.124	-0.180
-361.654	-200.000	-0.021	0.186
-360.639	-200.000	0.002	-0.077
-359.625	-50.361	-0.403	-0.190
-358.610	232.772	0.075	-0.123
-357.596	800.000	0.010	0.043
-356.581	-174.516	0.240	0.007
-355.566	-42.262	0.173	-0.088
-354.552	-200.000	-0.034	-0.175
-353.537	546.570	0.150	0.359
-352.523	15.824	0.234	0.184
-351.508	-152.528	-0.288	0.021
-350.493	-193.236	0.054	0.000
-349.479	-23.409	-0.042	-0.025
-348.464	-80.200	0.166	-0.055
-347.450	-67.572	0.124	-0.049
-346.435	-104.822	0.346	0.079
-345.420	-200.000	-0.003	-0.078
-344.406	800.000	0.027	-0.075
-343.391	118.510	-0.143	0.176
-342.377	-152.447	-0.339	-0.024
-341.362	-109.227	-0.269	-0.057
-340.348	800.000	-0.106	-0.447
-339.333	-106.495	0.278	0.062
-338.318	250.773	-0.069	0.117
-337.304	800.000	-0.052	-0.151
-336.289	-79.976	0.367	-0.123
-335.275	39.164	-0.019	0.017
-334.260	-84.903	0.204	-0.064
-333.245	321.630	-0.084	-0.159
-332.231	-60.822	-0.199	-0.084
-331.216	800.000	-0.122	0.352
-330.202	89.850	-0.043	-0.048
-329.187	-44.455	-0.057	0.029
-328.172	3.054	-0.324	0.234
-327.158	396.580	-0.057	0.118
-326.143	155.508	-0.073	-0.101
-325.129	-56.059	-0.433	-0.192
-324.114	93.376	-0.107	0.121
-323.099	147.566	-0.018	-0.024
-322.085	59.416	-0.184	-0.180
-321.070	-39.266	0.157	0.082
-320.056	533.032	-0.134	0.317
-319.041	14.377	-0.273	-0.212
-318.026	142.106	0.044	0.058
-317.012	316.916	-0.075	-0.141
-315.997	13.272	-0.286	-0.221
-314.983	-42.611	0.035	0.018
-313.968	751.380	-0.036	0.097
-312.953	-34.807	0.040	-0.022
-311.939	800.000	-0.040	0.121
-310.924	800.000	0.084	0.269
-309.910	-121.020	-0.046	-0.008
-308.895	800.000	0.027	0.099
-307.880	-200.000	0.004	-0.035
-306.866	-84.652	0.086	0.027
-305.851	23.429	-0.118	0.096
-304.837	128.667	0.040	-0.051
-303.822	-35.518	0.315	0.170
-302.807	89.845	-0.134	0.149
-301.793	71.607	0.219	0.226
-300.778	-131.869	0.059	0.008
-299.764	285.587	0.034	-0.062
-298.749	800.000	-0.086	0.250
-297.735	-200.000	0.033	0.171
-296.720	300.726	-0.042	-0.077
-295.705	800.000	-0.047	0.151
-294.691	-90.551	0.211	-0.061
-293.676	-81.510	-0.105	-0.034
-292.662	-200.000	0.010	-0.155
-291.647	700.069	-0.152	-0.398
-290.632	-135.665	-0.155	0.018
-289.618	-200.000	-0.016	-0.091
-288.603	-19.653	-0.220	-0.136
-287.589	47.768	-0.286	0.266
-286.574	-18.194	-0.165	0.103
-285.559	54.278	0.214	-0.205
-284.545	-83.476	-0.170	0.054
-283.530	324.845	0.110	-0.209
-282.516	6.041	0.240	0.177
-281.501	-146.984	0.072	0.006
-280.486	-16.271	0.049	0.031
-279.472	80.333	0.104	0.112
-278.457	48.009	0.157	0.146
-277.443	-51.246	-0.132	0.061
-276.428	-73.867	-0.214	-0.077
-275.413	800.000	0.075	0.294
-274.399	609.470	-0.089	0.220
-273.384	110.520	-0.223	-0.267
-272.370	-200.000	0.000	0.026
-271.355	9.301	-0.200	0.150
-270.340	-137.765	0.046	-0.005
-269.326	-200.000	0.089	0.410
-268.311	-133.943	0.030	0.004
-267.297	-64.803	0.140	0.056
-266.282	1.549	0.413	0.296
-265.267	155.764	0.045	0.062
-264.253	800.000	0.032	-0.109
-263.238	-200.000	0.033	-0.163
-262.224	-200.000	0.038	0.475
-261.209	-200.000	-0.015	0.180
-260.195	-200.000	0.001	0.158
-259.180	8.435	0.143	-0.107
-258.165	-62.877	-0.189	-0.078
-257.151	181.891	-0.117	0.172
-256.136	473.784	-0.027	-0.061
-255.122	-200.000	0.032	0.203
-254.107	-8.240	-0.168	0.113
-253.092	800.000	0.068	-0.279
-252.078	21.132	0.337	-0.272
-251.063	-66.108	-0.070	-0.028
-250.049	-71.157	-0.393	0.147
-249.034	77.949	-0.103	0.109
-248.019	-100.515	-0.111	0.027
-247.005	117.267	-0.135	0.165
-245.990	-39.515	0.203	0.106
-244.976	-170.586	-0.130	0.004
-243.961	-200.000	-0.018	-0.088
-242.946	63.909	0.130	0.130
-241.932	109.206	0.173	-0.206
-240.917	282.901	-0.144	-0.258
-239.903	51.919	0.257	-0.243
-238.888	-116.564	0.352	-0.064
-237.873	-153.648	0.289	-0.020
-236.859	-55.139	0.280	-0.125
-235.844	-10.251	-0.115	0.076
-234.830	-25.420	0.217	-0.128
-233.815	411.328	-0.063	-0.133
-232.800	242.897	0.058	-0.097
-231.786	267.008	-0.030	-0.052
-230.771	-115.587	0.464	0.087
-229.757	-42.334	-0.123	-0.062
-228.742	-87.715	0.275	-0.082
-227.727	-177.297	0.185	0.005
-226.713	182.369	0.152	0.223
-225.698	-145.126	0.098	-0.009
-224.684	737.742	-0.111	-0.296
-223.669	-200.000	-0.030	0.151
-222.655	69.984	0.168	-0.172
-221.640	-200.000	-0.020	0.252
-220.625	-200.000	0.000	-0.176
-219.611	45.716	0.276	0.253
-218.596	-200.000	-0.015	0.083
-217.582	-48.779	0.179	-0.086
-216.567	235.756	-0.080	-0.132
-215.552	-25.534	0.182	0.107
-214.538	67.646	0.251	-0.254
-213.523	167.095	-0.175	0.247
-212.509	-60.524	-0.203	-0.086
-211.494	206.863	-0.094	-0.146
-210.479	-120.268	-0.347	0.059
-209.465	226.418	-0.118	0.189
-208.450	-150.417	0.228	0.017
-207.436	-135.838	-0.277	0.032
-206.421	87.236	-0.208	-0.228
-205.406	-136.497	-0.057	-0.007
-204.392	51.492	-0.116	0.109
-203.377	102.842	-0.291	0.338
-202.363	-200.000	-0.038	0.260
-201.348	-131.874	0.093	0.012
-200.333	-9.858	-0.077	-0.051
-199.319	283.312	0.035	0.062
-198.304	-37.074	0.046	-0.025
-197.290	-44.203	0.046	0.023
-196.275	-162.457	0.215	0.011
-195.260	-49.034	-0.288	0.137
-194.246	85.768	-0.124	0.135
-193.231	90.952	0.441	-0.491
-192.217	30.598	0.184	-0.156
-191.202	800.000	0.068	-0.249
-190.187	52.303	-0.197	-0.186
-189.173	-103.684	-0.117	0.027
-188.158	-200.000	-0.016	0.071
-187.144	-62.128	0.463	0.191
-186.129	-200.000	-0.061	-0.421
-185.114	-63.263	0.248	0.101
-184.100	50.703	-0.274	0.257
-183.085	800.000	-0.133	0.453
-182.071	-106.645	-0.071	0.016
-181.056	800.000	0.111	-0.391
-180.042	-37.424	0.089	0.047
-179.027	128.422	-0.151	-0.190
-178.012	242.841	-0.154	-0.256
-176.998	129.802	-0.208	0.263
-175.983	67.000	-0.144	0.145
-174.969	-95.202	0.173	0.046
-173.954	181.199	0.161	-0.235
-172.939	-42.506	0.110	0.056
-171.925	-200.000	-0.016	0.268
-170.910	-200.000	0.047	0.235
-169.896	20.165	-0.016	-0.012
-168.881	21.903	0.077	0.062
-167.866	-200.000	-0.022	-0.167
-166.852	116.239	0.152	-0.185
-165.837	114.719	-0.310	-0.374
-164.823	-200.000	0.001	-0.027
-163.808	-37.522	0.212	0.112
-162.793	-34.723	0.194	0.105
-161.779	129.361	-0.036	0.046
-160.764	-164.449	-0.019	0.001
-159.750	800.000	0.132	-0.440
-158.735	68.595	0.248	-0.252
-157.720	185.773	-0.160	-0.235
-156.706	-200.000	0.024	0.199
-155.691	-200.000	-0.066	0.342
-154.677	-200.000	-0.017	-0.183
-153.662	800.000	0.043	0.157
-152.647	197.210	0.064	-0.096
-151.633	186.775	-0.139	0.205
-150.618	-57.101	0.115	0.050
-149.604	-156.647	-0.187	0.011
-148.589	800.000	-0.120	0.350
-147.574	-131.584	-0.317	0.041
-146.560	486.689	-0.110	-0.247
-145.545	156.209	0.153	0.210
-144.531	326.120	-0.033	0.063
-143.516	800.000	0.022	-0.090
-142.502	-200.000	-0.008	0.323
-141.487	-4.470	0.137	-0.094
-140.472	78.884	0.202	-0.214
-139.458	68.929	-0.099	-0.100
-138.443	-134.044	0.325	-0.040
-137.429	-185.412	-0.119	0.002
-136.414	97.566	-0.168	-0.191
-135.399	-125.238	0.317	-0.048
-134.385	72.058	0.168	0.173
-133.370	-200.000	0.029	0.437
-132.356	141.982	0.175	0.230
-131.341	-200.000	0.002	-0.461
-130.326	800.000	-0.081	-0.236
-129.312	-72.840	-0.030	-0.011
-128.297	-130.236	0.242	-0.033
-127.283	175.420	0.222	0.318
-126.268	289.426	-0.159	0.285
-125.253	-117.944	-0.045	-0.008
-124.239	11.030	-0.191	-0.145
-123.224	800.000	-0.123	-0.340
-122.210	-200.000	-0.019	0.314
