DTS Sentinel unit serial number:	SN413079Multiplexer serial number:	ORYXHardware model number:	OX4-SRSoftware version number:	ORYX F/W v4.00 Oryx Data Collector v3.7.2.0data status	okinstallation	princeton_trtdifferential loss correction	single-endedforward channel	channel 1reverse channel	N/Adate	2019/09/17time	18:50:35forward acquisition time	60.00reverse acquisition time	0.00gamma	496.2192k internal	0.2291k external	0.2291temperature offset calibration	0.9967default loss term (dB/km)	0.3790temperature slope calibration	1.0000multiplexer offset coefficient	1.0000multiplexer slope coefficient	1.0000fibre end	0.00T internal ref (°C)	41.78T ext. ref 1 (°C)	0.27T ext. ref 2 (°C)	31.19length (m)	temperature (°C)	Stokes	anti-Stokes-747.200	-135.285	0.122	0.015
-746.185	138.910	-0.217	0.292
-745.171	-72.585	0.291	0.110
-744.156	5.877	-0.419	0.318
-743.142	800.000	0.028	0.098
-742.127	-11.238	-0.071	0.048
-741.112	-95.548	0.297	0.081
-740.098	400.284	-0.132	-0.284
-739.083	800.000	-0.035	0.149
-738.069	21.945	0.135	-0.113
-737.054	420.824	0.115	0.252
-736.039	-52.083	-0.352	0.167
-735.025	-200.000	-0.014	0.073
-734.010	26.434	-0.158	-0.135
-732.996	800.000	-0.069	0.274
-731.981	111.757	-0.129	-0.159
-730.966	3.798	0.211	-0.158
-729.952	-200.000	0.041	0.250
-728.937	276.866	0.119	-0.216
-727.923	-123.084	0.129	0.021
-726.908	-100.510	-0.449	0.114
-725.894	-124.917	-0.445	0.070
-724.879	204.489	-0.171	-0.272
-723.864	28.194	-0.075	0.065
-722.850	8.552	-0.126	-0.097
-721.835	800.000	-0.056	-0.221
-720.821	-139.397	0.285	0.031
-719.806	128.248	0.116	-0.150
-718.791	61.139	0.123	0.125
-717.777	-155.575	0.041	0.003
-716.762	-59.911	-0.143	0.062
-715.748	-200.000	-0.015	-0.140
-714.733	6.977	0.417	-0.318
-713.718	390.360	0.110	-0.232
-712.704	-154.953	-0.408	0.027
-711.689	-200.000	0.052	-0.278
-710.675	-200.000	-0.074	0.515
-709.660	-200.000	-0.028	0.230
-708.645	238.735	-0.046	0.079
-707.631	199.108	0.120	-0.188
-706.616	-34.081	-0.236	0.132
-705.602	-200.000	0.022	0.147
-704.587	-27.148	0.228	0.136
-703.572	800.000	-0.053	-0.204
-702.558	-33.887	-0.267	-0.151
-701.543	-102.744	0.184	0.045
-700.529	-163.332	0.161	0.008
-699.514	-122.454	0.371	-0.062
-698.499	97.626	-0.189	0.222
-697.485	49.528	-0.100	-0.097
-696.470	-45.486	0.095	0.048
-695.456	-20.396	0.273	0.172
-694.441	-54.129	0.266	0.123
-693.426	338.351	0.039	0.077
-692.412	-59.524	-0.252	-0.111
-691.397	-200.000	-0.001	-0.103
-690.383	-67.533	-0.427	0.171
-689.368	-93.162	-0.498	-0.142
-688.354	323.487	0.107	-0.209
-687.339	-200.000	0.000	0.011
-686.324	-107.459	-0.111	0.025
-685.310	-41.490	0.304	-0.160
-684.295	-111.596	-0.026	0.005
-683.281	-69.326	-0.078	-0.031
-682.266	-85.548	0.202	0.064
-681.251	-53.642	0.279	-0.130
-680.237	-93.551	0.410	0.116
-679.222	320.037	0.067	0.130
-678.208	800.000	0.038	0.136
-677.193	141.460	0.113	0.153
-676.178	-61.709	-0.019	-0.008
-675.164	25.993	-0.185	0.158
-674.149	800.000	-0.031	-0.130
-673.135	133.413	0.151	0.199
-672.120	-32.962	-0.065	-0.037
-671.105	800.000	-0.081	0.302
-670.091	74.340	-0.098	-0.105
-669.076	-106.748	-0.419	-0.095
-668.062	177.771	0.114	-0.170
-667.047	19.223	0.226	0.185
-666.032	705.451	0.075	-0.201
-665.018	-200.000	-0.038	0.224
-664.003	-200.000	-0.039	0.268
-662.989	52.610	-0.152	-0.148
-661.974	51.610	0.100	-0.097
-660.959	75.314	0.035	-0.038
-659.945	-10.457	0.113	-0.076
-658.930	-153.524	-0.199	-0.014
-657.916	-141.588	0.078	-0.008
-656.901	800.000	0.065	-0.250
-655.886	-200.000	0.030	-0.235
-654.872	-200.000	-0.011	-0.503
-653.857	-128.708	0.157	-0.023
-652.843	68.126	-0.148	-0.155
-651.828	40.579	-0.113	0.104
-650.814	191.862	0.090	0.139
-649.799	10.089	0.167	0.129
-648.784	251.532	0.071	0.123
-647.770	-72.885	0.141	0.053
-646.755	78.990	-0.234	0.255
-645.741	69.080	-0.132	-0.138
-644.726	-144.148	0.243	0.023
-643.711	-139.211	0.201	0.022
-642.697	-200.000	0.065	-0.295
-641.682	267.745	-0.163	0.291
-640.668	651.396	0.118	0.308
-639.653	37.831	-0.194	-0.176
-638.638	-200.000	-0.072	-0.326
-637.624	157.194	0.062	-0.088
-636.609	-131.274	-0.241	-0.033
-635.595	-200.000	-0.040	-0.452
-634.580	-200.000	0.003	-0.147
-633.565	-1.224	0.180	0.130
-632.551	800.000	-0.042	-0.128
-631.536	-94.021	0.013	-0.004
-630.522	-59.950	0.227	0.099
-629.507	43.885	-0.250	-0.234
-628.492	609.816	0.101	-0.256
-627.478	-200.000	-0.032	0.262
-626.463	106.266	0.131	0.159
-625.449	535.872	-0.166	-0.402
-624.434	-29.860	-0.218	-0.126
-623.419	-132.205	-0.083	0.011
-622.405	-200.000	-0.013	-0.091
-621.390	-9.863	-0.293	0.199
-620.376	260.998	0.034	-0.060
-619.361	-18.475	0.284	-0.181
-618.346	35.685	-0.126	-0.112
-617.332	79.187	-0.092	-0.101
-616.317	-200.000	0.040	-0.227
-615.303	-5.880	0.048	-0.034
-614.288	-30.605	-0.223	0.129
-613.273	-200.000	0.003	-0.255
-612.259	-163.511	0.529	0.026
-611.244	-28.513	0.169	-0.099
-610.230	-24.154	0.330	0.201
-609.215	219.292	0.138	0.225
-608.201	-200.000	0.034	-0.380
-607.186	-200.000	-0.015	-0.215
-606.171	17.765	-0.077	0.063
-605.157	410.744	-0.046	-0.098
-604.142	-148.773	-0.164	0.014
-603.128	-48.653	-0.304	-0.149
-602.113	-65.705	0.088	0.036
-601.098	-200.000	-0.020	0.140
-600.084	399.051	0.018	0.038
-599.069	284.924	-0.030	-0.055
-598.055	43.759	-0.133	0.124
-597.040	-87.811	-0.209	0.064
-596.025	-116.334	0.130	0.025
-595.011	-52.291	-0.313	0.147
-593.996	-98.227	-0.157	-0.041
-592.982	-148.999	-0.070	-0.006
-591.967	189.375	-0.093	0.142
-590.952	543.696	0.047	0.114
-589.938	-82.891	0.027	-0.009
-588.923	-31.796	0.244	-0.139
-587.909	-200.000	-0.149	-0.000
-586.894	-30.195	-0.209	0.121
-585.879	-138.431	0.231	0.026
-584.865	-118.414	0.422	-0.076
-583.850	104.589	0.154	0.184
-582.836	451.341	0.055	0.123
-581.821	-2.756	-0.104	0.074
-580.806	82.087	0.202	-0.223
-579.792	6.855	-0.278	-0.210
-578.777	3.043	0.026	-0.019
-577.763	-86.590	-0.150	-0.047
-576.748	-65.895	-0.070	-0.028
-575.733	-122.890	-0.085	0.014
-574.719	-200.000	0.048	0.314
-573.704	-200.000	-0.004	-0.052
-572.690	-98.788	0.310	-0.080
-571.675	-162.391	-0.208	-0.010
-570.661	487.490	-0.063	0.147
-569.646	-21.189	-0.135	0.084
-568.631	800.000	0.040	0.173
-567.617	158.099	-0.198	-0.279
-566.602	-200.000	-0.055	-0.311
-565.588	-200.000	0.004	-0.052
-564.573	-16.474	-0.179	-0.115
-563.558	39.997	-0.163	0.148
-562.544	-200.000	0.003	0.142
-561.529	10.901	-0.203	0.158
-560.515	-53.427	-0.260	0.121
-559.500	800.000	-0.056	-0.191
-558.485	187.965	0.039	-0.060
-557.471	800.000	0.055	0.231
-556.456	252.189	-0.159	-0.276
-555.442	61.868	0.246	0.249
-554.427	-200.000	-0.123	0.000
-553.412	318.781	0.069	-0.133
-552.398	-200.000	0.011	-0.073
-551.383	-60.164	0.179	-0.078
-550.369	6.968	-0.244	0.185
-549.354	228.413	0.183	0.303
-548.339	650.542	-0.083	-0.217
-547.325	277.061	0.135	-0.245
-546.310	391.340	-0.045	0.095
-545.296	-190.741	0.449	-0.005
-544.281	81.208	0.169	0.186
-543.266	257.917	0.160	-0.279
-542.252	-200.000	-0.002	-0.219
-541.237	212.801	-0.113	-0.180
-540.223	136.675	0.151	-0.200
-539.208	800.000	-0.047	0.202
-538.193	800.000	-0.012	-0.050
-537.179	10.300	0.169	0.130
-536.164	-162.693	0.051	0.003
-535.150	470.378	-0.174	-0.396
-534.135	-113.096	-0.199	0.040
-533.121	-93.717	0.149	0.042
-532.106	-133.572	-0.107	-0.014
-531.091	800.000	0.042	0.117
-530.077	-140.179	-0.241	-0.026
-529.062	800.000	0.095	-0.340
-528.048	313.375	-0.046	-0.087
-527.033	-62.071	-0.128	0.054
-526.018	-131.635	-0.294	0.039
-525.004	-72.796	-0.315	0.118
-523.989	-106.537	-0.089	0.020
-522.975	800.000	0.080	0.326
-521.960	365.406	-0.100	-0.204
-520.945	-43.947	0.070	-0.036
-519.931	-112.825	-0.195	-0.039
-518.916	216.354	0.042	-0.068
-517.902	-118.263	0.227	-0.041
-516.887	-99.400	-0.113	-0.029
-515.872	-200.000	0.025	-0.348
-514.858	155.103	0.151	0.210
-513.843	238.996	0.172	0.290
-512.829	800.000	0.063	-0.201
-511.814	-21.954	-0.270	-0.166
-510.799	69.323	-0.177	-0.185
-509.785	-44.824	-0.125	-0.063
-508.770	-88.362	-0.315	0.095
-507.756	25.891	-0.080	-0.067
-506.741	-166.070	-0.073	0.003
-505.726	-200.000	-0.007	0.201
-504.712	800.000	0.052	-0.165
-503.697	40.053	0.127	0.116
-502.683	-123.021	-0.159	0.026
-501.668	-82.231	-0.004	-0.001
-500.653	246.397	-0.106	0.181
-499.639	-64.293	-0.082	-0.034
-498.624	-110.633	0.426	-0.089
-497.610	-108.001	-0.121	0.027
-496.595	10.448	-0.334	0.258
-495.581	-164.184	-0.171	-0.008
-494.566	-56.208	0.176	0.079
-493.551	102.247	0.145	0.172
-492.537	-40.428	0.435	-0.229
-491.522	108.184	0.083	0.100
-490.508	-127.295	0.092	-0.014
-489.493	-157.868	-0.472	-0.028
-488.478	-32.673	-0.182	-0.102
-487.464	-150.507	0.103	-0.008
-486.449	-200.000	-0.056	-0.327
-485.435	199.334	-0.198	-0.307
-484.420	-9.629	-0.135	-0.091
-483.405	30.771	-0.084	-0.073
-482.391	55.720	0.222	-0.218
-481.376	-99.818	-0.317	0.080
-480.362	-68.111	-0.116	-0.046
-479.347	130.114	0.047	-0.061
-478.332	57.141	0.168	0.166
-477.318	-40.941	-0.236	0.124
-476.303	82.308	-0.088	0.097
-475.289	-200.000	0.038	0.204
-474.274	70.482	0.088	-0.092
-473.259	649.051	0.039	-0.100
-472.245	184.041	-0.168	-0.251
-471.230	277.648	0.107	-0.193
-470.216	215.478	0.009	-0.014
-469.201	3.735	0.173	-0.128
-468.186	800.000	-0.076	-0.241
-467.172	52.803	0.075	-0.073
-466.157	-200.000	0.028	0.193
-465.143	-200.000	-0.002	-0.075
-464.128	-200.000	0.071	-0.356
-463.113	-69.862	0.084	-0.032
-462.099	-200.000	-0.028	0.160
-461.084	4.374	-0.272	-0.202
-460.070	129.289	0.290	0.374
-459.055	-59.962	0.210	0.091
-458.040	-57.264	-0.269	0.120
-457.026	320.964	-0.054	0.105
-456.011	-127.866	0.152	0.022
-454.997	226.411	-0.070	-0.115
-453.982	245.021	0.162	-0.276
-452.968	-200.000	0.040	-0.272
-451.953	-200.000	0.017	0.184
-450.938	-20.512	-0.378	-0.235
-449.924	45.626	0.167	0.156
-448.909	31.901	0.162	0.141
-447.895	-200.000	0.060	0.286
-446.880	800.000	-0.077	0.253
-445.865	-200.000	-0.013	0.386
-444.851	95.704	0.216	-0.250
-443.836	-37.030	-0.231	-0.125
-442.822	48.866	0.200	-0.190
-441.807	-9.740	0.074	0.050
-440.792	-117.852	-0.204	0.037
-439.778	33.126	0.130	-0.114
-438.763	-166.838	0.275	0.011
-437.749	267.568	-0.038	-0.068
-436.734	226.532	-0.207	0.339
-435.719	56.696	-0.084	-0.083
-434.705	-67.925	-0.119	-0.047
-433.690	-96.332	-0.199	-0.053
-432.676	-200.000	0.006	-0.132
-431.661	244.479	-0.122	0.208
-430.646	27.904	-0.105	0.090
-429.632	36.256	0.258	-0.230
-428.617	-94.526	0.104	-0.029
-427.603	-52.478	0.227	0.106
-426.588	800.000	-0.054	0.186
-425.573	-200.000	0.049	0.303
-424.559	-200.000	-0.022	0.135
-423.544	447.522	0.090	0.201
-422.530	-78.461	-0.237	0.082
-421.515	19.794	0.234	-0.190
-420.500	194.738	-0.095	0.146
-419.486	396.989	0.070	0.148
-418.471	53.866	-0.128	0.124
-417.457	187.588	-0.167	-0.251
-416.442	15.895	0.086	0.069
-415.428	-0.843	0.187	-0.134
-414.413	63.413	-0.215	-0.218
-413.398	309.697	0.098	0.186
-412.384	-187.266	-0.066	0.001
-411.369	-147.354	-0.020	0.002
-410.355	69.720	-0.408	0.425
-409.340	446.126	-0.164	0.363
-408.325	-200.000	-0.237	0.001
-407.311	248.300	-0.125	-0.214
-406.296	32.275	0.053	0.046
-405.282	207.456	0.107	-0.169
-404.267	671.692	-0.234	-0.613
-403.252	-83.431	-0.320	-0.104
-402.238	-200.000	-0.033	0.156
-401.223	-108.906	-0.205	-0.044
-400.209	-14.506	0.202	0.131
-399.194	-49.999	-0.130	-0.062
-398.179	-95.103	-0.127	-0.035
-397.165	256.189	-0.031	-0.053
-396.150	-200.000	0.010	0.215
-395.136	-0.223	-0.015	-0.010
-394.121	16.897	0.137	-0.110
-393.106	800.000	-0.063	0.182
-392.092	50.286	-0.216	-0.206
-391.077	57.331	0.156	-0.153
-390.063	-84.698	0.167	-0.053
-389.048	-136.691	-0.368	0.043
-388.033	-4.900	0.271	0.189
-387.019	64.868	0.238	0.243
-386.004	63.732	0.125	-0.127
-384.990	243.354	-0.146	-0.247
-383.975	-200.000	0.032	0.375
-382.960	-85.301	0.393	0.124
-381.946	-64.083	-0.212	-0.087
-380.931	215.462	0.067	-0.107
-379.917	143.505	-0.121	0.163
-378.902	-200.000	0.011	0.360
-377.888	70.345	0.141	-0.147
-376.873	-0.179	0.098	0.070
-375.858	-20.625	0.305	-0.189
-374.844	-104.577	0.309	0.072
-373.829	89.265	0.188	-0.212
-372.815	-8.991	-0.155	-0.105
-371.800	188.197	0.062	-0.094
-370.785	-200.000	0.035	0.185
-369.771	502.008	0.102	-0.237
-368.756	800.000	-0.071	0.203
-367.742	384.755	0.116	0.242
-366.727	67.342	0.203	-0.209
-365.712	-114.891	0.146	-0.028
-364.698	-106.356	-0.216	0.049
-363.683	500.586	-0.144	0.336
-362.669	25.942	0.051	0.043
-361.654	359.809	0.124	-0.249
-360.639	358.154	-0.105	0.212
-359.625	-200.000	-0.000	0.124
-358.610	-11.181	0.216	-0.143
-357.596	-200.000	0.053	0.390
-356.581	800.000	-0.022	-0.069
-355.566	-60.967	-0.297	-0.126
-354.552	-43.926	0.175	-0.089
-353.537	800.000	0.084	0.293
-352.523	117.724	-0.180	0.223
-351.508	800.000	-0.051	0.212
-350.493	257.675	0.093	-0.162
-349.479	-24.946	0.165	0.099
-348.464	25.441	-0.096	0.081
-347.450	-67.405	0.300	0.119
-346.435	-117.485	-0.263	-0.048
-345.420	43.972	-0.047	-0.043
-344.406	83.243	-0.331	-0.363
-343.391	-200.000	0.037	-0.207
-342.377	762.469	-0.099	-0.270
-341.362	68.966	0.067	-0.069
-340.348	72.507	-0.277	0.291
-339.333	327.509	0.124	-0.240
-338.318	35.171	-0.181	-0.160
-337.304	-200.000	0.044	-0.224
-336.289	28.452	-0.047	-0.040
-335.275	-65.666	0.195	-0.079
-334.260	631.780	-0.110	0.281
-333.245	19.447	0.151	-0.122
-332.231	-100.618	0.187	0.046
-331.216	20.276	-0.247	-0.201
-330.202	-153.012	-0.049	-0.004
-329.187	-62.057	-0.135	-0.057
-328.172	-96.013	-0.235	-0.063
-327.158	-35.377	0.115	-0.063
-326.143	-10.731	0.103	0.069
-325.129	-11.276	0.219	-0.145
-324.114	6.823	0.137	0.102
-323.099	460.943	0.182	-0.408
-322.085	-139.701	-0.293	0.031
-321.070	-47.063	-0.192	-0.094
-320.056	-62.502	0.272	0.114
-319.041	-90.236	0.210	-0.061
-318.026	-116.874	0.244	0.045
-317.012	-146.660	0.389	0.034
-315.997	-114.566	-0.111	-0.021
-314.983	-105.428	0.246	0.056
-313.968	-200.000	0.007	-0.240
-312.953	-200.000	-0.045	-0.226
-311.939	277.015	0.152	-0.272
-310.924	355.097	0.075	0.149
-309.910	-200.000	-0.006	-0.362
-308.895	316.146	0.123	0.234
-307.880	-200.000	0.005	0.297
-306.866	-44.324	-0.243	-0.123
-305.851	103.674	-0.162	-0.191
-304.837	-95.167	-0.308	0.084
-303.822	-37.421	-0.529	0.284
-302.807	-154.485	0.304	-0.020
-301.793	3.809	0.266	-0.195
-300.778	-47.881	-0.230	0.112
-299.764	-200.000	0.012	-0.215
-298.749	301.285	0.248	-0.462
-297.735	-86.408	-0.372	-0.115
-296.720	-200.000	0.016	0.340
-295.705	46.962	0.162	0.151
-294.691	-134.576	0.077	0.010
-293.676	-37.936	0.087	-0.047
-292.662	96.368	0.065	-0.075
-291.647	333.205	-0.142	0.276
-290.632	309.152	-0.091	0.171
-289.618	-19.023	0.116	-0.073
-288.603	-175.213	0.165	-0.005
-287.589	-200.000	-0.002	0.142
-286.574	-61.923	-0.252	0.106
-285.559	-199.650	-0.125	0.001
-284.545	-155.793	0.427	-0.027
-283.530	82.839	0.051	0.055
-282.516	56.316	0.046	-0.045
-281.501	800.000	-0.075	-0.245
-280.486	26.008	0.131	-0.110
-279.472	-112.591	-0.083	-0.017
-278.457	22.592	0.106	-0.088
-277.443	-0.407	0.223	-0.159
-276.428	-63.314	-0.159	-0.066
-275.413	17.239	-0.166	0.133
-274.399	-36.958	0.019	-0.010
-273.384	349.215	-0.038	-0.076
-272.370	10.116	-0.100	0.076
-271.355	128.026	0.261	0.334
-270.340	-53.495	-0.238	0.110
-269.326	32.131	-0.108	-0.093
-268.311	315.635	-0.115	-0.218
-267.297	119.873	-0.220	0.275
-266.282	800.000	0.064	0.257
-265.267	-200.000	-0.028	0.245
-264.253	51.492	-0.164	-0.157
-263.238	-82.238	-0.182	-0.059
-262.224	800.000	0.079	0.288
-261.209	-200.000	-0.027	0.157
-260.195	115.373	0.228	0.280
-259.180	403.874	-0.152	0.321
-258.165	-50.263	0.317	0.151
-257.151	-26.066	-0.040	0.023
-256.136	-0.364	-0.251	-0.179
-255.122	-64.389	0.186	0.076
-254.107	12.857	0.090	-0.070
-253.092	-88.556	0.230	0.069
-252.078	-200.000	0.018	-0.245
-251.063	-135.083	0.155	0.019
-250.049	15.857	-0.206	0.163
-249.034	145.687	-0.055	0.074
-248.019	109.381	0.064	0.077
-247.005	-200.000	-0.076	0.446
-245.990	151.877	-0.111	0.151
-244.976	-24.751	-0.085	0.051
-243.961	800.000	-0.087	0.363
-242.946	-16.381	0.037	0.023
-241.932	54.058	-0.089	0.086
-240.917	19.354	-0.181	-0.146
-239.903	-56.105	0.123	0.055
-238.888	219.631	-0.083	0.134
-237.873	-135.176	0.271	0.033
-236.859	-175.496	-0.062	0.002
-235.844	-70.394	0.227	-0.086
-234.830	800.000	-0.102	-0.377
-233.815	-136.266	0.339	0.040
-232.800	216.496	-0.206	-0.328
-231.786	800.000	0.048	0.190
-230.771	-96.923	0.208	0.055
-229.757	53.400	-0.226	0.217
-228.742	71.332	-0.245	0.255
-227.727	-108.331	-0.349	0.076
-226.713	-200.000	0.020	-0.237
-225.698	-137.503	-0.188	-0.021
-224.684	-90.470	0.213	-0.062
-223.669	50.360	0.020	0.019
-222.655	121.536	0.040	0.049
-221.640	86.046	0.088	0.098
-220.625	143.434	0.124	-0.166
-219.611	-60.837	0.228	0.097
-218.596	593.547	-0.022	0.053
-217.582	-106.995	0.211	-0.047
-216.567	-16.479	0.470	-0.299
-215.552	-200.000	0.239	0.000
-214.538	372.799	-0.113	-0.230
-213.523	-77.886	-0.253	0.088
-212.509	522.429	-0.043	-0.100
-211.494	37.145	0.130	-0.115
-210.479	-133.601	0.210	0.026
-209.465	-79.173	-0.174	0.059
-208.450	-94.428	0.319	0.087
-207.436	-119.021	-0.273	-0.048
-206.421	-117.986	-0.226	-0.041
-205.406	6.067	-0.336	-0.250
-204.392	149.940	0.166	-0.226
-203.377	-132.745	0.248	-0.032
-202.363	14.326	-0.259	-0.202
-201.348	800.000	-0.050	-0.215
-200.333	-43.513	-0.395	-0.200
-199.319	315.110	-0.171	-0.323
-198.304	303.916	-0.137	0.254
-197.290	85.997	0.107	0.118
-196.275	198.011	-0.196	0.300
-195.260	800.000	0.095	-0.294
-194.246	36.703	0.096	0.085
-193.231	588.515	-0.170	0.419
-192.217	208.727	0.121	0.190
-191.202	-49.246	0.167	-0.080
-190.187	-134.531	-0.307	-0.038
-189.173	800.000	-0.054	0.208
-188.158	-15.741	-0.119	0.076
-187.144	124.858	0.285	0.359
-186.129	252.838	0.128	-0.219
-185.114	350.397	0.077	-0.152
-184.100	-62.482	0.257	-0.107
-183.085	-200.000	-0.016	-0.147
-182.071	800.000	-0.024	-0.082
-181.056	-200.000	-0.022	-0.236
-180.042	-68.442	0.189	0.073
-179.027	-200.000	-0.044	0.355
-178.012	133.331	0.274	0.354
-176.998	-200.000	-0.023	-0.131
-175.983	-11.048	0.479	0.317
-174.969	45.198	0.283	0.262
-173.954	434.099	-0.171	0.372
-172.939	-200.000	0.001	0.262
-171.925	78.672	-0.109	0.117
-170.910	342.289	0.072	-0.142
-169.896	800.000	-0.051	0.173
-168.881	-65.736	0.299	0.120
-167.866	-200.000	0.030	-0.321
-166.852	418.378	0.131	0.281
-165.837	-106.072	-0.049	-0.011
-164.823	800.000	0.049	0.138
-163.808	-17.761	0.088	0.055
-162.793	529.593	0.145	0.344
-161.779	311.199	0.155	-0.290
-160.764	9.431	-0.259	0.196
-159.750	-89.688	0.237	-0.069
-158.735	115.771	0.185	0.227
-157.720	-76.065	-0.178	-0.063
-156.706	-21.946	0.236	-0.143
-155.691	-95.258	0.271	-0.073
-154.677	-87.496	0.140	0.042
-153.662	185.862	-0.084	-0.126
-152.647	-126.822	-0.142	0.021
-151.633	-9.034	-0.071	-0.047
-150.618	-200.000	0.016	0.106
-149.604	88.164	0.271	0.301
-148.589	800.000	0.033	-0.116
-147.574	-200.000	0.001	-0.016
-146.560	64.974	-0.090	0.091
-145.545	45.585	0.100	0.092
-144.531	98.631	-0.315	-0.363
-143.516	-200.000	-0.001	-0.048
-142.502	-132.085	-0.306	-0.040
-141.487	51.397	-0.050	0.048
-140.472	-151.543	0.056	-0.004
-139.458	421.926	0.039	0.083
-138.443	126.097	0.148	0.187
-137.429	143.924	0.089	-0.119
-136.414	-20.452	-0.106	-0.065
-135.399	800.000	0.042	-0.165
-134.385	-170.292	0.215	0.008
-133.370	72.901	-0.141	0.148
-132.356	275.717	-0.073	-0.129
-131.341	207.067	-0.104	-0.163
-130.326	189.324	0.392	0.587
-129.312	16.088	-0.051	-0.040
-128.297	33.164	0.119	0.103
-127.283	-12.089	0.050	-0.033
-126.268	121.163	-0.149	-0.185
-125.253	-39.687	0.103	-0.054
-124.239	-49.655	0.163	-0.078
-123.224	-69.004	0.376	-0.145
-122.210	7.133	0.249	0.185
-121.195	-200.000	0.009	-0.141
-120.180	58.530	-0.115	-0.113
