DTS Sentinel unit serial number:	SN413079Multiplexer serial number:	ORYXHardware model number:	OX4-SRSoftware version number:	ORYX F/W v4.00 Oryx Data Collector v3.7.2.0data status	okinstallation	princeton_trtdifferential loss correction	single-endedforward channel	channel 1reverse channel	N/Adate	2019/09/16time	01:30:35forward acquisition time	60.00reverse acquisition time	0.00gamma	496.2192k internal	0.2334k external	0.2334temperature offset calibration	0.9973default loss term (dB/km)	0.3790temperature slope calibration	1.0000multiplexer offset coefficient	1.0000multiplexer slope coefficient	1.0000fibre end	0.00T internal ref (°C)	27.30T ext. ref 1 (°C)	9.91T ext. ref 2 (°C)	22.00length (m)	temperature (°C)	Stokes	anti-Stokes-747.200	157.866	-0.179	-0.249
-746.185	17.182	-0.245	0.195
-745.171	60.524	-0.120	-0.120
-744.156	-200.000	-0.024	0.415
-743.142	-174.245	-0.200	0.006
-742.127	60.961	-0.104	0.104
-741.112	-40.926	0.164	-0.085
-740.098	-200.000	-0.077	0.461
-739.083	-58.813	0.226	0.098
-738.069	-62.573	-0.214	-0.089
-737.054	-35.651	0.015	-0.008
-736.039	-112.935	-0.423	-0.084
-735.025	-126.612	-0.097	-0.015
-734.010	-155.063	-0.261	0.017
-732.996	-191.215	-0.270	-0.003
-731.981	-200.000	0.020	-0.284
-730.966	-64.954	0.097	0.039
-729.952	-120.149	-0.194	0.033
-728.937	-167.886	-0.386	-0.015
-727.923	88.684	-0.101	-0.113
-726.908	335.593	-0.197	-0.384
-725.894	-200.000	0.006	0.130
-724.879	-200.000	0.006	-0.125
-723.864	-26.445	-0.292	-0.172
-722.850	598.889	-0.130	-0.324
-721.835	-200.000	0.001	0.268
-720.821	-36.235	0.255	-0.138
-719.806	283.885	0.112	0.202
-718.791	-200.000	-0.010	0.284
-717.777	18.585	-0.305	-0.245
-716.762	341.880	-0.130	-0.256
-715.748	64.011	0.255	0.257
-714.733	644.783	0.070	0.180
-713.718	-91.645	-0.138	-0.039
-712.704	61.890	0.039	-0.039
-711.689	197.346	0.052	0.080
-710.675	76.431	0.107	-0.114
-709.660	-128.806	0.437	-0.062
-708.645	800.000	0.026	-0.080
-707.631	-17.332	-0.273	-0.173
-706.616	-65.609	-0.126	-0.051
-705.602	-99.303	0.092	0.023
-704.587	163.325	-0.056	0.079
-703.572	-164.538	-0.101	-0.005
-702.558	800.000	-0.031	0.106
-701.543	42.676	-0.124	-0.113
-700.529	668.272	-0.145	-0.376
-699.514	-127.971	-0.258	-0.037
-698.499	-29.688	-0.348	-0.199
-697.485	9.230	-0.147	0.111
-696.470	85.753	-0.185	-0.204
-695.456	386.996	0.188	-0.389
-694.441	-35.193	0.245	-0.134
-693.426	466.367	0.051	0.114
-692.412	225.897	-0.129	0.210
-691.397	-25.480	0.169	0.100
-690.383	217.846	0.150	0.239
-689.368	96.530	0.240	-0.276
-688.354	-200.000	0.013	-0.167
-687.339	10.338	0.062	-0.047
-686.324	-82.853	-0.030	0.010
-685.310	435.571	0.163	-0.355
-684.295	144.881	-0.112	-0.150
-683.281	78.048	0.332	0.355
-682.266	-65.823	0.275	0.110
-681.251	-200.000	-0.012	-0.248
-680.237	127.082	-0.216	-0.275
-679.222	-200.000	-0.060	0.461
-678.208	-200.000	0.011	-0.169
-677.193	-200.000	0.264	-0.000
-676.178	120.342	-0.141	0.176
-675.164	73.498	-0.167	-0.176
-674.149	-93.778	0.159	0.044
-673.135	-161.515	-0.380	0.020
-672.120	-90.765	-0.086	0.025
-671.105	-2.086	-0.294	-0.207
-670.091	4.654	0.075	0.055
-669.076	116.020	0.138	0.170
-668.062	63.499	-0.229	0.231
-667.047	-200.000	0.015	0.221
-666.032	64.032	0.354	-0.356
-665.018	-200.000	-0.045	-0.332
-664.003	-145.885	-0.255	-0.023
-662.989	-101.944	0.263	0.064
-661.974	-200.000	0.001	0.092
-660.959	-150.172	0.155	-0.012
-659.945	-83.411	0.399	-0.128
-658.930	-155.578	-0.060	-0.004
-657.916	-106.016	-0.155	0.035
-656.901	-13.764	0.234	0.152
-655.886	259.941	-0.134	0.232
-654.872	-171.710	-0.203	0.007
-653.857	-72.455	-0.035	-0.013
-652.843	27.425	-0.258	-0.217
-651.828	-44.625	-0.196	0.098
-650.814	76.998	0.081	-0.086
-649.799	-131.012	0.051	0.007
-648.784	-123.422	0.194	-0.031
-647.770	62.185	0.159	-0.159
-646.755	-25.768	-0.080	-0.047
-645.741	-134.443	-0.446	-0.055
-644.726	-164.380	-0.055	0.003
-643.711	600.036	0.051	0.127
-642.697	-174.648	0.136	0.004
-641.682	-200.000	0.002	0.061
-640.668	19.012	0.308	0.247
-639.653	-82.009	-0.323	0.106
-638.638	800.000	0.066	-0.193
-637.624	71.120	0.257	0.267
-636.609	-86.373	0.232	0.072
-635.595	118.645	-0.146	0.180
-634.580	-76.317	-0.063	0.022
-633.565	-200.000	-0.045	0.300
-632.551	-105.263	-0.234	-0.053
-631.536	-45.213	-0.077	0.038
-630.522	624.753	-0.094	0.238
-629.507	449.546	-0.101	0.223
-628.492	10.042	0.180	0.137
-627.478	244.689	-0.032	-0.053
-626.463	-200.000	0.024	-0.163
-625.449	51.686	0.158	0.150
-624.434	187.060	-0.120	-0.180
-623.419	-49.390	-0.234	-0.112
-622.405	58.838	0.252	-0.248
-621.390	12.766	-0.105	0.081
-620.376	800.000	-0.093	-0.286
-619.361	-55.323	0.287	0.129
-618.346	-200.000	-0.059	0.525
-617.332	145.283	-0.110	0.147
-616.317	-87.615	0.300	0.091
-615.303	800.000	0.069	0.269
-614.288	-41.960	0.118	-0.061
-613.273	233.040	-0.186	-0.306
-612.259	-76.741	0.367	0.129
-611.244	642.692	-0.189	0.482
-610.230	-136.324	-0.265	0.031
-609.215	-13.934	-0.149	-0.097
-608.201	-200.000	-0.017	0.132
-607.186	-200.000	-0.028	0.265
-606.171	-200.000	-0.002	-0.143
-605.157	-200.000	-0.011	-0.146
-604.142	-42.328	0.248	-0.126
-603.128	98.328	0.139	-0.160
-602.113	46.758	0.209	-0.194
-601.098	-200.000	-0.026	-0.290
-600.084	119.940	0.068	0.084
-599.069	68.732	-0.114	0.117
-598.055	289.304	-0.199	0.361
-597.040	800.000	-0.045	0.144
-596.025	-49.159	-0.265	-0.127
-595.011	81.825	-0.209	0.227
-593.996	-37.288	-0.254	-0.136
-592.982	85.710	0.249	-0.273
-591.967	800.000	-0.145	-0.452
-590.952	-170.509	0.357	-0.012
-589.938	-77.051	-0.470	0.164
-588.923	-62.046	-0.373	0.156
-587.909	800.000	-0.030	0.108
-586.894	-75.345	0.380	0.135
-585.879	70.511	0.296	0.305
-584.865	115.634	-0.065	-0.079
-583.850	-17.279	-0.247	0.155
-582.836	187.228	-0.147	0.219
-581.821	202.767	0.022	0.034
-580.806	-142.633	-0.173	-0.017
-579.792	-200.000	-0.045	0.313
-578.777	-11.065	0.122	-0.080
-577.763	567.801	-0.055	0.134
-576.748	-109.529	-0.013	-0.003
-575.733	-103.623	-0.148	0.035
-574.719	-200.000	0.023	0.190
-573.704	-161.205	0.166	0.009
-572.690	-196.077	0.196	0.001
-571.675	1.640	-0.005	0.004
-570.661	473.081	0.038	-0.085
-569.646	-144.085	-0.146	0.014
-568.631	-87.695	0.189	-0.057
-567.617	800.000	-0.111	-0.365
-566.602	-200.000	0.026	0.159
-565.588	81.847	0.335	0.362
-564.573	800.000	-0.064	-0.217
-563.558	800.000	-0.020	-0.074
-562.544	13.517	0.332	-0.257
-561.529	206.941	-0.188	0.293
-560.515	-144.144	0.363	0.034
-559.500	-109.869	-0.227	-0.047
-558.485	117.804	-0.116	-0.142
-557.471	-200.000	0.014	0.480
-556.456	-89.722	-0.333	-0.097
-555.442	-113.649	0.072	-0.014
-554.427	10.736	-0.112	-0.085
-553.412	71.502	-0.223	0.231
-552.398	4.654	-0.186	-0.137
-551.383	-153.547	0.071	-0.005
-550.369	-200.000	-0.052	0.274
-549.354	-200.000	-0.021	0.166
-548.339	-200.000	-0.067	-0.310
-547.325	104.184	-0.122	0.143
-546.310	4.444	-0.189	0.138
-545.296	-51.779	0.201	0.093
-544.281	52.764	0.027	0.026
-543.266	-200.000	0.028	0.174
-542.252	-88.491	0.231	-0.069
-541.237	-132.018	0.291	0.038
-540.223	-200.000	0.029	-0.218
-539.208	280.039	-0.083	0.148
-538.193	-13.430	0.187	0.121
-537.179	133.779	-0.092	0.119
-536.164	503.405	-0.072	0.166
-535.150	-200.000	-0.021	-0.223
-534.135	-121.478	0.230	0.038
-533.121	79.753	-0.082	-0.088
-532.106	474.417	0.176	0.396
-531.091	800.000	0.019	0.070
-530.077	232.921	-0.092	-0.151
-529.062	-62.030	-0.385	0.160
-528.048	198.151	0.162	-0.247
-527.033	-68.363	0.136	-0.053
-526.018	107.901	0.065	0.077
-525.004	481.916	0.009	0.020
-523.989	-26.401	0.236	0.138
-522.975	612.311	-0.130	-0.324
-521.960	-48.586	-0.025	0.012
-520.945	800.000	-0.065	-0.202
-519.931	-183.788	-0.449	0.008
-518.916	-200.000	0.000	-0.095
-517.902	-9.057	0.202	-0.135
-516.887	-28.322	0.084	-0.048
-515.872	290.331	-0.101	-0.183
-514.858	-26.867	0.351	-0.204
-513.843	-52.332	-0.257	0.119
-512.829	-130.441	0.378	-0.051
-511.814	-200.000	-0.001	-0.149
-510.799	-78.057	0.233	-0.080
-509.785	-200.000	-0.006	0.070
-508.770	-200.000	-0.021	-0.234
-507.756	-14.701	-0.253	0.162
-506.741	-63.506	-0.350	0.143
-505.726	-200.000	0.075	-0.445
-504.712	52.143	-0.108	-0.103
-503.697	-200.000	-0.064	-0.318
-502.683	73.556	-0.035	-0.036
-501.668	-200.000	0.025	-0.428
-500.653	368.703	-0.034	-0.068
-499.639	35.306	-0.171	0.149
-498.624	310.664	0.047	0.088
-497.610	152.867	-0.313	0.426
-496.595	-20.671	-0.234	-0.143
-495.581	201.042	0.171	0.261
-494.566	33.995	-0.095	0.082
-493.551	258.056	-0.076	-0.131
-492.537	-200.000	-0.036	-0.188
-491.522	-67.828	0.351	0.137
-490.508	-44.686	-0.296	-0.147
-489.493	-200.000	-0.005	0.165
-488.478	-9.303	0.204	0.136
-487.464	378.858	-0.106	0.216
-486.449	560.528	-0.120	0.289
-485.435	-76.411	-0.154	-0.054
-484.420	800.000	0.055	-0.225
-483.405	-200.000	-0.033	0.279
-482.391	13.846	0.144	-0.112
-481.376	-138.668	-0.188	-0.020
-480.362	-172.210	-0.394	-0.013
-479.347	-142.727	0.357	0.035
-478.332	-37.103	-0.104	-0.056
-477.318	-169.347	0.240	0.009
-476.303	597.114	-0.007	0.017
-475.289	-48.054	0.136	-0.065
-474.274	38.858	0.181	-0.161
-473.259	31.554	-0.147	-0.126
-472.245	-28.270	0.139	-0.080
-471.230	-93.391	0.152	-0.042
-470.216	-12.124	0.301	-0.196
-469.201	-58.189	0.166	0.072
-468.186	-104.606	-0.107	-0.024
-467.172	800.000	0.041	0.148
-466.157	800.000	-0.077	-0.212
-465.143	-44.564	-0.124	0.061
-464.128	189.370	0.198	0.295
-463.113	-75.117	0.245	0.087
-462.099	47.503	0.096	-0.089
-461.084	279.380	-0.113	-0.201
-460.070	-200.000	-0.011	0.110
-459.055	-200.000	0.015	-0.107
-458.040	800.000	0.046	-0.141
-457.026	50.120	-0.085	0.079
-456.011	-58.493	0.245	-0.106
-454.997	-20.380	-0.098	0.060
-453.982	-120.994	-0.289	0.048
-452.968	-112.405	0.061	0.012
-451.953	114.747	0.099	-0.120
-450.938	-81.105	0.277	0.091
-449.924	450.095	-0.069	-0.151
-448.909	800.000	-0.106	0.394
-447.895	39.709	-0.162	0.145
-446.880	-200.000	-0.003	0.073
-445.865	-21.147	-0.138	-0.084
-444.851	1.630	-0.297	0.213
-443.836	-27.089	-0.283	0.164
-442.822	41.844	0.135	-0.121
-441.807	-128.285	0.442	0.063
-440.792	44.659	0.257	-0.235
-439.778	134.378	-0.015	0.019
-438.763	73.435	0.114	0.118
-437.749	800.000	-0.093	0.326
-436.734	421.875	-0.047	-0.099
-435.719	-200.000	0.034	-0.187
-434.705	-76.269	-0.200	0.070
-433.690	35.443	-0.357	-0.311
-432.676	70.977	-0.125	-0.129
-431.661	-158.171	-0.204	0.012
-430.646	17.754	0.158	-0.125
-429.632	800.000	0.122	0.439
-428.617	367.694	-0.015	0.029
-427.603	387.701	0.166	-0.341
-426.588	-200.000	-0.014	-0.132
-425.573	-200.000	0.050	0.302
-424.559	-200.000	0.037	0.197
-423.544	89.497	-0.085	0.094
-422.530	-45.373	0.099	-0.049
-421.515	800.000	-0.021	-0.087
-420.500	-1.948	0.106	-0.074
-419.486	367.469	-0.076	0.152
-418.471	-30.797	-0.298	-0.167
-417.457	-89.919	0.331	-0.096
-416.442	-52.402	0.207	0.095
-415.428	-53.592	-0.208	0.094
-414.413	-69.250	0.194	-0.074
-413.398	132.388	-0.114	-0.146
-412.384	321.735	0.095	-0.179
-411.369	-134.887	-0.218	0.026
-410.355	16.675	0.249	-0.196
-409.340	67.750	0.158	0.160
-408.325	-105.744	0.231	0.052
-407.311	-161.592	0.259	-0.013
-406.296	246.737	-0.149	0.249
-405.282	61.055	-0.105	0.104
-404.267	-200.000	-0.010	-0.079
-403.252	-30.193	-0.117	0.066
-402.238	53.719	0.051	0.049
-401.223	177.074	-0.166	0.240
-400.209	109.070	-0.079	-0.094
-399.194	549.661	-0.039	-0.092
-398.179	-93.527	0.147	-0.040
-397.165	99.910	0.077	0.088
-396.150	181.343	0.095	0.139
-395.136	216.846	0.205	0.323
-394.121	393.094	0.035	0.072
-393.106	-51.473	-0.333	-0.154
-392.092	-75.516	-0.160	-0.057
-391.077	-102.366	0.101	-0.024
-390.063	670.046	-0.050	0.127
-389.048	-94.042	-0.196	-0.053
-388.033	-147.393	0.151	0.013
-387.019	800.000	0.046	0.179
-386.004	206.403	-0.083	0.128
-384.990	123.917	-0.189	-0.236
-383.975	162.874	0.064	-0.089
-382.960	237.564	0.281	0.462
-381.946	-12.001	0.019	0.012
-380.931	-92.358	-0.257	0.072
-379.917	247.492	-0.096	-0.161
-378.902	-200.000	0.008	-0.295
-377.888	20.814	0.193	-0.155
-376.873	-200.000	0.008	0.036
-375.858	625.902	0.029	0.073
-374.844	-55.178	0.137	-0.061
-373.829	299.960	-0.076	0.140
-372.815	800.000	-0.078	0.263
-371.800	800.000	0.066	0.198
-370.785	800.000	-0.013	-0.055
-369.771	-9.450	-0.253	0.167
-368.756	120.145	0.119	-0.146
-367.742	-111.614	-0.389	-0.078
-366.727	-151.484	0.287	-0.021
-365.712	-200.000	0.009	-0.066
-364.698	455.739	0.164	0.361
-363.683	-54.790	-0.329	-0.147
-362.669	-173.707	0.201	0.006
-361.654	-74.010	-0.290	-0.104
-360.639	-102.165	0.213	-0.051
-359.625	15.934	-0.222	0.173
-358.610	800.000	0.082	-0.277
-357.596	7.760	-0.181	-0.134
-356.581	-200.000	-0.055	0.330
-355.566	-98.127	-0.093	-0.024
-354.552	35.947	0.104	-0.091
-353.537	42.164	0.178	-0.160
-352.523	-200.000	-0.039	0.316
-351.508	-182.381	-0.427	-0.008
-350.493	-85.407	0.162	0.050
-349.479	-42.699	-0.170	-0.086
-348.464	45.296	-0.288	-0.263
-347.450	154.755	-0.213	0.290
-346.435	-200.000	0.004	-0.158
-345.420	656.699	-0.046	-0.118
-344.406	136.897	0.134	0.173
-343.391	-31.229	0.192	0.107
-342.377	88.799	0.258	0.284
-341.362	84.993	0.241	0.261
-340.348	-87.660	0.243	-0.073
-339.333	282.032	-0.239	-0.424
-338.318	53.815	0.339	-0.322
-337.304	1.924	-0.132	0.094
-336.289	-30.130	-0.359	-0.202
-335.275	69.976	0.158	-0.161
-334.260	-175.602	0.194	-0.005
-333.245	734.658	-0.062	0.164
-332.231	-107.923	0.190	-0.041
-331.216	-61.491	-0.114	-0.047
-330.202	-200.000	0.044	-0.216
-329.187	53.387	-0.132	0.125
-328.172	800.000	-0.054	-0.214
-327.158	-66.698	0.105	0.041
-326.143	-200.000	0.004	-0.036
-325.129	-200.000	0.008	-0.190
-324.114	-200.000	-0.005	0.158
-323.099	-64.242	0.243	0.098
-322.085	-195.699	-0.230	0.002
-321.070	-23.600	0.060	0.036
-320.056	172.176	0.146	0.208
-319.041	800.000	-0.058	0.181
-318.026	-153.083	-0.318	0.022
-317.012	68.861	0.113	0.114
-315.997	174.574	0.176	0.252
-314.983	-52.568	-0.216	0.099
-313.968	-12.572	0.120	-0.077
-312.953	-20.385	0.160	-0.097
-311.939	800.000	0.118	-0.358
-310.924	800.000	-0.056	0.177
-309.910	800.000	-0.045	0.152
-308.895	232.152	-0.049	-0.080
-307.880	-53.847	-0.479	0.216
-306.866	-154.834	-0.250	0.016
-305.851	-9.958	-0.307	-0.202
-304.837	-128.383	-0.091	-0.013
-303.822	-200.000	-0.055	-0.384
-302.807	-115.687	-0.202	0.037
-301.793	210.797	-0.122	0.189
-300.778	-200.000	-0.045	0.283
-299.764	-200.000	-0.021	0.113
-298.749	161.446	-0.152	-0.210
-297.735	89.036	0.141	0.155
-296.720	501.221	-0.048	-0.109
-295.705	-33.186	-0.100	-0.055
-294.691	800.000	0.067	0.221
-293.676	29.050	-0.116	-0.097
-292.662	800.000	0.069	-0.231
-291.647	-133.017	-0.196	-0.025
-290.632	-149.433	0.133	0.010
-289.618	-200.000	0.008	-0.149
-288.603	-132.276	0.155	0.020
-287.589	-200.000	-0.021	0.194
-286.574	-191.242	0.143	-0.001
-285.559	77.811	-0.055	0.057
-284.545	-200.000	0.007	0.078
-283.530	-120.318	-0.378	0.064
-282.516	800.000	-0.040	-0.150
-281.501	-45.922	0.225	0.110
-280.486	800.000	0.097	-0.273
-279.472	-129.408	0.046	0.006
-278.457	-200.000	0.018	-0.135
-277.443	43.929	-0.071	0.064
-276.428	-39.580	0.344	-0.178
-275.413	288.107	-0.321	-0.573
-274.399	-162.938	-0.121	0.006
-273.384	-8.873	-0.184	0.122
-272.370	17.167	-0.129	-0.101
-271.355	353.473	0.094	0.184
-270.340	800.000	0.138	-0.390
-269.326	-200.000	-0.085	-0.496
-268.311	-200.000	0.032	-0.254
-267.297	-45.951	0.141	-0.069
-266.282	87.288	-0.162	-0.177
-265.267	125.890	0.211	0.263
-264.253	-53.234	0.176	-0.080
-263.238	800.000	0.008	0.031
-262.224	-200.000	-0.042	-0.256
-261.209	-63.191	0.231	-0.094
-260.195	291.714	0.120	-0.216
-259.180	800.000	-0.063	0.179
-258.165	-177.481	-0.364	0.009
-257.151	-63.504	-0.191	0.077
-256.136	-136.683	0.246	-0.028
-255.122	321.021	-0.084	0.157
-254.107	-8.388	-0.214	0.142
-253.092	-200.000	0.007	0.136
-252.078	27.857	-0.186	0.155
-251.063	49.313	0.098	0.091
-250.049	-116.421	0.266	-0.048
-249.034	-200.000	-0.010	0.126
-248.019	-200.000	-0.010	-0.092
-247.005	-81.211	0.304	-0.099
-245.990	-200.000	0.033	-0.146
-244.976	-200.000	0.061	-0.308
-243.961	-64.365	-0.202	0.081
-242.946	800.000	0.086	-0.359
-241.932	-200.000	0.006	0.132
-240.917	281.022	-0.160	-0.283
-239.903	800.000	-0.062	0.183
-238.888	800.000	0.033	-0.117
-237.873	-200.000	-0.010	-0.151
-236.859	-200.000	-0.008	0.325
-235.844	-123.786	-0.045	-0.007
-234.830	800.000	0.036	-0.146
-233.815	158.701	0.066	-0.090
-232.800	152.606	0.160	-0.216
-231.786	-200.000	-0.021	-0.320
-230.771	31.318	-0.298	-0.252
-229.757	192.309	0.174	-0.259
-228.742	-61.928	0.219	-0.090
-227.727	-179.135	0.376	-0.008
-226.713	-123.463	0.271	-0.042
-225.698	306.595	0.034	0.063
-224.684	-4.477	-0.133	-0.091
-223.669	-22.169	0.202	-0.121
-222.655	-105.504	-0.178	-0.040
-221.640	800.000	0.031	0.102
-220.625	800.000	0.084	-0.305
-219.611	476.191	0.048	-0.108
-218.596	800.000	-0.096	0.345
-217.582	96.350	-0.185	-0.208
-216.567	-92.933	0.117	-0.032
-215.552	394.304	0.173	0.354
-214.538	398.009	0.079	0.163
-213.523	-124.198	0.310	-0.048
-212.509	85.793	0.242	-0.262
-211.494	-32.822	0.209	0.114
-210.479	-34.133	-0.123	0.067
-209.465	656.168	-0.077	-0.194
-208.450	-178.664	-0.033	0.001
-207.436	-189.156	0.187	-0.002
-206.421	-200.000	0.052	-0.226
-205.406	-79.976	0.088	0.029
-204.392	-143.407	0.221	0.021
-203.377	-48.110	-0.112	0.053
-202.363	568.106	0.065	0.155
-201.348	49.490	0.211	-0.196
-200.333	-112.247	-0.062	0.012
-199.319	-105.305	-0.476	0.107
-198.304	-106.943	0.229	0.050
-197.290	-70.870	0.209	0.078
-196.275	-167.826	0.092	0.004
-195.260	800.000	0.021	0.078
-194.246	-80.746	0.408	-0.133
-193.231	730.831	-0.035	0.091
-192.217	714.001	-0.087	-0.226
-191.202	73.274	0.092	-0.095
-190.187	147.896	0.159	0.211
-189.173	18.763	0.201	0.158
-188.158	102.470	-0.115	-0.132
-187.144	275.235	0.017	0.029
-186.129	655.813	-0.149	-0.376
-185.114	-118.075	-0.209	-0.037
-184.100	-200.000	-0.011	0.238
-183.085	-200.000	0.005	-0.025
-182.071	-32.479	-0.171	-0.094
-181.056	292.103	0.136	0.243
-180.042	-170.378	0.163	-0.006
-179.027	-200.000	0.060	0.384
-178.012	648.393	-0.040	0.100
-176.998	654.935	-0.086	-0.218
-175.983	-200.000	-0.075	-0.401
-174.969	195.373	-0.053	-0.079
-173.954	38.021	0.255	0.223
-172.939	-200.000	0.009	0.227
-171.925	-102.741	-0.118	-0.028
-170.910	-95.238	-0.032	0.008
-169.896	229.539	0.158	0.254
-168.881	98.634	-0.163	-0.184
-167.866	-74.820	-0.109	-0.038
-166.852	105.362	-0.058	-0.067
-165.837	-94.821	-0.371	-0.099
-164.823	-2.900	0.179	-0.123
-163.808	80.653	0.223	0.236
-162.793	800.000	-0.063	0.210
-161.779	190.563	-0.046	0.068
-160.764	-75.557	0.135	0.047
-159.750	-62.381	-0.238	-0.097
-158.735	-200.000	-0.013	-0.234
-157.720	800.000	-0.064	-0.233
-156.706	-200.000	-0.015	-0.158
-155.691	140.142	-0.084	0.109
-154.677	706.781	0.096	-0.248
-153.662	401.779	-0.139	0.286
-152.647	-200.000	0.035	0.198
-151.633	-81.472	0.066	-0.021
-150.618	-33.968	-0.207	-0.112
-149.604	10.170	0.214	-0.160
-148.589	-82.904	-0.329	0.104
-147.574	-125.111	-0.457	0.069
-146.560	-144.703	-0.266	-0.024
-145.545	-15.870	-0.049	-0.031
-144.531	-30.215	-0.036	-0.020
-143.516	-200.000	-0.103	-0.456
-142.502	-112.642	-0.217	0.042
-141.487	184.473	-0.214	-0.312
-140.472	-200.000	-0.043	-0.217
-139.458	-51.327	0.133	0.061
-138.443	-200.000	0.049	-0.442
-137.429	800.000	0.022	0.062
-136.414	345.637	-0.208	0.401
-135.399	4.111	0.131	0.094
-134.385	-200.000	0.000	-0.206
-133.370	-161.969	0.147	0.007
-132.356	217.070	-0.109	-0.171
-131.341	-145.365	0.243	-0.022
-130.326	800.000	0.122	0.364
-129.312	-92.111	0.109	-0.030
-128.297	800.000	-0.074	-0.227
-127.283	-200.000	-0.068	-0.399
-126.268	-200.000	-0.054	0.305
-125.253	-200.000	0.030	-0.140
-124.239	-200.000	-0.003	0.184
-123.224	497.488	-0.054	-0.122
-122.210	120.340	-0.154	0.188
