DTS Sentinel unit serial number:	SN413079Multiplexer serial number:	ORYXHardware model number:	OX4-SRSoftware version number:	ORYX F/W v4.00 Oryx Data Collector v3.7.2.0data status	okinstallation	princeton_trtdifferential loss correction	single-endedforward channel	channel 1reverse channel	N/Adate	2019/09/12time	23:38:35forward acquisition time	60.00reverse acquisition time	0.00gamma	496.2192k internal	0.2328k external	0.2328temperature offset calibration	1.0148default loss term (dB/km)	0.3790temperature slope calibration	1.0000multiplexer offset coefficient	1.0000multiplexer slope coefficient	1.0000fibre end	0.00T internal ref (°C)	28.87T ext. ref 1 (°C)	3.78T ext. ref 2 (°C)	23.57length (m)	temperature (°C)	Stokes	anti-Stokes-747.200	228.026	0.153	-0.252
-746.185	-79.273	0.178	-0.061
-745.171	306.786	0.131	0.247
-744.156	331.785	0.152	0.295
-743.142	-200.000	0.016	-0.097
-742.127	187.048	-0.155	-0.233
-741.112	53.776	0.205	-0.199
-740.098	-52.340	-0.065	0.030
-739.083	-36.676	-0.174	-0.094
-738.069	49.195	-0.067	0.063
-737.054	-200.000	-0.031	-0.182
-736.039	-91.064	-0.204	-0.059
-735.025	-18.633	0.183	0.115
-734.010	-103.216	-0.247	0.059
-732.996	-200.000	-0.019	0.387
-731.981	-77.753	-0.164	-0.057
-730.966	195.534	-0.031	-0.047
-729.952	800.000	0.103	-0.386
-728.937	800.000	0.047	0.165
-727.923	-42.180	0.260	0.134
-726.908	-75.192	-0.322	-0.116
-725.894	296.044	-0.002	-0.003
-724.879	24.012	-0.094	-0.078
-723.864	-200.000	-0.025	-0.228
-722.850	-17.108	-0.168	-0.107
-721.835	-168.667	0.142	0.005
-720.821	108.817	-0.176	0.212
-719.806	-9.593	-0.119	0.080
-718.791	-128.014	-0.219	0.032
-717.777	-105.087	-0.237	-0.055
-716.762	-200.000	-0.037	0.221
-715.748	346.867	0.088	0.174
-714.733	-142.391	-0.129	-0.013
-713.718	147.618	-0.252	-0.342
-712.704	3.520	-0.083	0.061
-711.689	-155.199	-0.329	0.022
-710.675	-186.825	0.273	-0.004
-709.660	-45.532	-0.324	-0.161
-708.645	-42.219	0.037	-0.019
-707.631	-200.000	0.007	0.066
-706.616	353.429	-0.037	-0.074
-705.602	-25.616	0.382	-0.227
-704.587	800.000	-0.062	0.207
-703.572	-45.375	-0.227	-0.113
-702.558	800.000	-0.109	-0.339
-701.543	343.918	0.060	0.119
-700.529	-200.000	-0.016	-0.103
-699.514	-200.000	0.005	0.110
-698.499	357.270	0.087	-0.174
-697.485	-137.395	-0.228	-0.026
-696.470	-63.922	-0.105	0.043
-695.456	-77.313	0.325	-0.114
-694.441	71.691	0.277	0.290
-693.426	106.737	0.024	0.029
-692.412	69.464	-0.150	0.155
-691.397	391.435	0.025	0.052
-690.383	228.541	-0.276	0.452
-689.368	716.615	-0.086	-0.230
-688.354	199.149	0.104	0.160
-687.339	573.555	-0.113	0.277
-686.324	479.048	-0.124	0.283
-685.310	-200.000	-0.049	-0.253
-684.295	-28.481	0.136	-0.079
-683.281	72.566	0.108	0.113
-682.266	130.893	-0.122	0.157
-681.251	316.766	-0.123	-0.234
-680.237	800.000	-0.046	0.152
-679.222	-21.822	0.178	0.109
-678.208	224.848	-0.173	0.281
-677.193	800.000	0.059	-0.256
-676.178	131.420	0.030	-0.038
-675.164	101.821	0.129	-0.151
-674.149	-80.853	-0.124	-0.041
-673.135	-200.000	-0.015	-0.248
-672.120	-82.984	-0.180	0.058
-671.105	-200.000	0.003	-0.372
-670.091	-200.000	0.003	0.098
-669.076	180.125	0.154	-0.227
-668.062	142.879	-0.342	-0.457
-667.047	246.518	0.143	-0.243
-666.032	82.209	0.092	-0.100
-665.018	-120.550	-0.089	-0.015
-664.003	26.888	-0.150	-0.126
-662.989	-150.889	-0.072	0.005
-661.974	-53.335	0.061	0.028
-660.959	158.365	0.243	-0.339
-659.945	68.310	-0.034	-0.035
-658.930	-12.073	0.300	-0.197
-657.916	166.453	0.227	-0.323
-656.901	-121.011	0.096	0.016
-655.886	-115.643	-0.293	-0.055
-654.872	-122.221	0.161	-0.026
-653.857	800.000	-0.053	0.161
-652.843	800.000	-0.070	-0.231
-651.828	436.701	-0.047	0.103
-650.814	355.990	-0.071	0.142
-649.799	541.366	-0.118	0.282
-648.784	-152.662	-0.291	-0.021
-647.770	-200.000	0.051	0.299
-646.755	-191.973	-0.224	0.002
-645.741	202.253	-0.076	-0.117
-644.726	-113.699	0.104	-0.020
-643.711	-85.987	-0.231	-0.072
-642.697	-23.293	0.109	0.066
-641.682	475.672	0.060	0.136
-640.668	-200.000	-0.030	-0.356
-639.653	-200.000	-0.022	-0.269
-638.638	-105.754	-0.347	-0.079
-637.624	-100.727	-0.222	0.055
-636.609	-200.000	0.087	-0.424
-635.595	448.574	-0.142	0.314
-634.580	-25.679	0.146	-0.087
-633.565	87.415	-0.215	-0.239
-632.551	-200.000	0.011	-0.377
-631.536	-149.694	0.098	0.008
-630.522	800.000	0.013	-0.053
-629.507	-200.000	-0.023	0.199
-628.492	800.000	-0.065	0.219
-627.478	800.000	0.083	0.330
-626.463	-125.437	0.401	0.061
-625.449	131.925	0.041	-0.053
-624.434	-168.330	-0.385	-0.015
-623.419	7.255	0.143	0.107
-622.405	67.424	-0.275	-0.282
-621.390	3.235	-0.196	-0.143
-620.376	-189.243	0.158	0.002
-619.361	1.407	0.142	-0.103
-618.346	-140.129	0.282	0.030
-617.332	-34.170	-0.170	-0.094
-616.317	1.303	-0.076	0.055
-615.303	-22.276	-0.131	0.080
-614.288	194.728	-0.179	-0.273
-613.273	546.733	-0.139	-0.333
-612.259	-133.842	0.162	-0.020
-611.244	800.000	0.068	-0.263
-610.230	273.211	0.166	0.294
-609.215	-119.754	-0.370	-0.064
-608.201	-87.546	-0.195	-0.059
-607.186	209.500	-0.186	-0.293
-606.171	-200.000	-0.005	-0.362
-605.157	58.456	0.246	0.242
-604.142	-200.000	0.044	-0.327
-603.128	-154.732	-0.368	0.024
-602.113	-59.713	-0.208	0.089
-601.098	614.806	-0.185	-0.464
-600.084	-7.442	-0.080	0.054
-599.069	551.122	-0.036	-0.088
-598.055	-147.664	0.080	-0.007
-597.040	-104.401	-0.148	0.034
-596.025	-60.780	0.358	-0.152
-595.011	-21.394	-0.171	-0.105
-593.996	25.274	0.143	0.119
-592.982	91.733	-0.078	0.088
-591.967	64.071	-0.228	-0.230
-590.952	-108.696	-0.077	0.016
-589.938	139.697	0.048	0.064
-588.923	86.502	0.036	-0.040
-587.909	-49.226	0.190	0.091
-586.894	53.109	0.118	-0.113
-585.879	-200.000	-0.012	0.142
-584.865	1.469	0.142	0.102
-583.850	274.686	0.072	0.127
-582.836	-22.040	0.253	0.154
-581.821	166.614	-0.152	0.216
-580.806	120.383	0.221	0.275
-579.792	-97.420	-0.209	0.054
-578.777	45.713	-0.060	-0.056
-577.763	-146.604	-0.308	0.027
-576.748	214.145	-0.012	0.018
-575.733	-2.604	0.118	0.083
-574.719	199.573	-0.243	-0.373
-573.704	-4.964	-0.267	-0.184
-572.690	-56.725	0.144	-0.064
-571.675	-61.768	-0.118	-0.049
-570.661	415.057	-0.149	-0.318
-569.646	-88.189	0.371	0.111
-568.631	409.374	-0.075	-0.159
-567.617	-27.908	-0.263	-0.153
-566.602	-158.409	0.437	0.025
-565.588	800.000	-0.124	0.359
-564.573	-26.611	0.192	-0.112
-563.558	-151.495	-0.019	-0.001
-562.544	-170.793	-0.427	0.015
-561.529	-41.999	-0.067	-0.034
-560.515	-107.702	0.357	0.078
-559.500	-200.000	-0.003	-0.172
-558.485	-89.977	-0.169	-0.049
-557.471	79.838	0.032	0.035
-556.456	-163.407	0.308	0.015
-555.442	-127.631	-0.046	0.007
-554.427	-200.000	0.005	0.127
-553.412	378.277	-0.053	0.109
-552.398	-71.579	-0.313	0.117
-551.383	172.221	-0.045	0.064
-550.369	-80.597	0.219	0.073
-549.354	10.281	0.182	0.139
-548.339	374.422	-0.047	0.095
-547.325	398.918	-0.053	0.111
-546.310	-30.274	-0.185	0.105
-545.296	-200.000	-0.003	-0.194
-544.281	217.376	-0.116	0.184
-543.266	41.928	0.149	0.136
-542.252	-82.428	0.358	-0.116
-541.237	3.145	-0.142	0.103
-540.223	-200.000	-0.006	0.382
-539.208	-200.000	0.059	-0.369
-538.193	-100.648	0.225	-0.056
-537.179	49.091	-0.212	-0.199
-536.164	220.388	-0.110	0.175
-535.150	-200.000	0.052	0.265
-534.135	-21.338	0.130	-0.080
-533.121	130.061	-0.129	0.165
-532.106	298.781	0.112	0.205
-531.091	221.164	-0.065	-0.105
-530.077	118.951	0.042	-0.052
-529.062	302.864	0.054	0.099
-528.048	15.183	0.043	0.034
-527.033	84.234	0.125	-0.137
-526.018	-119.281	-0.118	-0.020
-525.004	142.492	0.101	0.134
-523.989	-200.000	0.003	-0.038
-522.975	-159.667	-0.200	-0.011
-521.960	200.943	-0.071	0.109
-520.945	-64.487	0.119	0.048
-519.931	-36.536	0.064	0.035
-518.916	-67.373	-0.030	0.012
-517.902	546.097	0.147	-0.351
-516.887	80.152	-0.034	0.037
-515.872	-200.000	0.025	0.169
-514.858	-53.748	0.106	0.048
-513.843	121.640	-0.151	0.188
-512.829	-200.000	0.012	0.439
-511.814	-200.000	0.003	0.052
-510.799	-170.686	-0.102	0.004
-509.785	38.367	0.160	-0.142
-508.770	-100.813	-0.090	-0.022
-507.756	-30.055	-0.268	-0.152
-506.741	-200.000	0.008	-0.170
-505.726	-77.318	0.171	0.059
-504.712	3.018	0.324	0.235
-503.697	-200.000	-0.019	-0.110
-502.683	-27.674	0.171	0.099
-501.668	442.422	-0.235	-0.514
-500.653	-200.000	0.004	0.207
-499.639	-62.819	-0.262	0.108
-498.624	-35.465	-0.125	-0.068
-497.610	800.000	-0.039	-0.147
-496.595	-28.444	0.177	-0.102
-495.581	67.529	0.119	-0.121
-494.566	-41.300	-0.042	-0.022
-493.551	-123.289	-0.401	0.064
-492.537	66.477	0.051	-0.051
-491.522	99.387	0.212	0.245
-490.508	420.236	-0.109	-0.234
-489.493	-72.919	-0.264	-0.097
-488.478	134.046	-0.097	-0.125
-487.464	-87.456	-0.182	0.055
-486.449	-200.000	-0.039	0.235
-485.435	184.597	0.076	-0.112
-484.420	24.143	0.169	-0.139
-483.405	800.000	0.079	-0.329
-482.391	-45.724	0.105	-0.052
-481.376	-6.376	-0.177	0.120
-480.362	55.511	-0.324	-0.313
-479.347	36.461	-0.071	0.062
-478.332	800.000	-0.145	-0.493
-477.318	-4.729	0.081	0.056
-476.303	-142.485	0.151	0.015
-475.289	-83.367	0.140	0.045
-474.274	158.341	0.126	-0.174
-473.259	78.504	-0.158	0.169
-472.245	100.508	0.075	0.086
-471.230	-200.000	0.004	-0.035
-470.216	-200.000	0.004	0.151
-469.201	-82.541	-0.142	-0.046
-468.186	28.856	-0.164	0.139
-467.172	-95.364	0.173	-0.046
-466.157	365.273	0.047	-0.095
-465.143	-88.531	0.175	0.052
-464.128	132.168	-0.076	-0.098
-463.113	52.037	-0.095	-0.090
-462.099	-146.292	-0.096	-0.008
-461.084	-139.928	-0.220	-0.023
-460.070	-24.729	-0.306	0.182
-459.055	-142.098	-0.199	-0.020
-458.040	280.089	0.109	-0.195
-457.026	-200.000	-0.050	-0.271
-456.011	190.908	0.139	-0.208
-454.997	-200.000	0.029	-0.209
-453.982	271.232	0.136	0.239
-452.968	-58.535	0.174	-0.075
-451.953	-117.346	-0.087	-0.016
-450.938	22.679	-0.089	0.073
-449.924	-188.707	0.323	0.004
-448.909	-200.000	0.011	-0.057
-447.895	800.000	-0.023	0.085
-446.880	484.049	0.077	-0.174
-445.865	-123.699	-0.220	0.035
-444.851	-102.023	0.137	0.033
-443.836	243.397	-0.132	0.221
-442.822	-83.400	-0.095	0.030
-441.807	-138.008	0.281	-0.031
-440.792	-118.391	0.194	0.034
-439.778	-41.346	0.201	-0.103
-438.763	290.053	-0.091	0.164
-437.749	102.003	0.018	-0.021
-436.734	-81.718	-0.085	-0.028
-435.719	184.130	-0.145	0.214
-434.705	50.334	0.197	0.185
-433.690	-117.356	-0.287	-0.052
-432.676	26.015	0.290	0.241
-431.661	800.000	0.091	-0.281
-430.646	-149.670	-0.134	-0.011
-429.632	-90.019	0.138	0.040
-428.617	800.000	0.039	0.116
-427.603	800.000	0.015	-0.046
-426.588	800.000	0.070	0.220
-425.573	-200.000	0.013	-0.077
-424.559	-48.624	-0.313	-0.150
-423.544	-71.400	-0.105	-0.039
-422.530	-200.000	0.018	0.199
-421.515	209.763	0.100	0.155
-420.500	-33.909	0.033	0.018
-419.486	40.252	0.045	0.040
-418.471	-64.172	0.204	-0.083
-417.457	354.532	0.095	-0.188
-416.442	800.000	-0.006	-0.023
-415.428	-200.000	0.068	-0.315
-414.413	-42.175	0.201	-0.102
-413.398	-89.050	-0.212	0.062
-412.384	489.325	0.075	-0.171
-411.369	58.162	-0.262	0.256
-410.355	-7.085	-0.187	0.126
-409.340	39.996	-0.230	0.205
-408.325	-47.294	-0.125	-0.061
-407.311	-96.864	-0.063	-0.016
-406.296	668.451	-0.059	0.152
-405.282	-173.437	0.235	0.007
-404.267	-41.977	0.156	0.079
-403.252	-138.693	-0.121	0.013
-402.238	526.908	-0.134	-0.314
-401.223	-140.114	-0.107	-0.011
-400.209	368.459	-0.077	-0.154
-399.194	46.986	0.291	0.269
-398.179	362.094	0.066	-0.132
-397.165	800.000	0.048	0.176
-396.150	-183.028	0.152	0.003
-395.136	445.142	-0.032	-0.069
-394.121	-200.000	0.023	0.339
-393.106	92.910	0.185	0.208
-392.092	-41.952	0.074	-0.038
-391.077	800.000	0.057	-0.168
-390.063	-121.232	-0.340	0.057
-389.048	102.147	0.054	-0.063
-388.033	-108.369	0.157	-0.034
-387.019	800.000	0.065	0.263
-386.004	-70.683	-0.352	-0.132
-384.990	800.000	0.115	0.466
-383.975	800.000	0.099	0.314
-382.960	-200.000	-0.009	-0.096
-381.946	-119.931	0.286	0.049
-380.931	48.929	-0.091	-0.085
-379.917	38.381	0.164	-0.145
-378.902	-200.000	0.067	0.347
-377.888	-108.084	0.351	-0.076
-376.873	134.804	0.161	0.208
-375.858	-168.458	-0.401	-0.015
-374.844	45.325	-0.083	0.076
-373.829	22.870	0.354	-0.288
-372.815	-9.047	-0.208	0.138
-371.800	800.000	0.013	-0.039
-370.785	-200.000	0.072	0.392
-369.771	276.092	0.048	-0.085
-368.756	-113.573	-0.233	-0.045
-367.742	-127.777	-0.226	0.032
-366.727	800.000	-0.068	0.214
-365.712	35.928	0.309	-0.270
-364.698	-20.755	-0.180	-0.109
-363.683	95.513	-0.189	0.214
-362.669	-101.933	-0.037	-0.009
-361.654	-20.471	0.193	0.118
-360.639	-89.115	-0.304	-0.089
-359.625	144.918	0.166	0.220
-358.610	119.252	0.122	-0.149
-357.596	-200.000	0.008	0.162
-356.581	321.232	0.108	0.204
-355.566	317.467	0.163	-0.307
-354.552	-156.925	-0.047	-0.003
-353.537	-200.000	0.027	0.125
-352.523	143.582	-0.168	0.222
-351.508	-127.042	-0.131	0.019
-350.493	-72.229	0.155	-0.057
-349.479	-200.000	0.002	0.239
-348.464	-9.073	-0.207	-0.137
-347.450	242.325	-0.116	0.193
-346.435	800.000	-0.012	0.052
-345.420	438.952	-0.077	-0.167
-344.406	-91.896	-0.279	-0.079
-343.391	0.039	0.323	-0.228
-342.377	-141.568	0.143	-0.014
-341.362	52.301	0.164	0.155
-340.348	-107.862	0.138	0.030
-339.333	-200.000	0.247	0.001
-338.318	-139.777	-0.112	-0.012
-337.304	84.634	0.104	-0.113
-336.289	595.591	-0.144	-0.353
-335.275	76.126	0.153	-0.161
-334.260	-73.675	0.177	0.064
-333.245	449.216	-0.059	0.130
-332.231	-80.375	0.034	-0.011
-331.216	49.640	-0.032	0.030
-330.202	-59.734	0.317	-0.135
-329.187	800.000	-0.161	0.464
-328.172	-160.133	0.029	0.002
-327.158	-124.848	0.431	-0.066
-326.143	800.000	-0.041	0.155
-325.129	-74.024	0.107	0.039
-324.114	219.692	0.089	0.141
-323.099	25.492	-0.135	-0.111
-322.085	-118.391	0.240	0.042
-321.070	33.770	-0.128	0.111
-320.056	-116.003	-0.205	0.038
-319.041	-200.000	-0.004	-0.056
-318.026	0.294	-0.244	-0.173
-317.012	800.000	-0.067	0.196
-315.997	-37.921	0.192	-0.101
-314.983	522.561	-0.166	-0.385
-313.968	-3.878	0.355	-0.244
-312.953	332.193	-0.181	0.346
-311.939	273.643	-0.090	-0.157
-310.924	195.685	-0.196	-0.295
-309.910	-84.678	-0.159	-0.050
-308.895	-98.412	0.091	-0.023
-307.880	-31.027	0.087	-0.049
-306.866	-94.522	0.102	0.028
-305.851	-107.433	0.218	-0.047
-304.837	-200.000	0.018	-0.163
-303.822	-200.000	-0.032	-0.230
-302.807	45.632	-0.186	-0.170
-301.793	36.038	0.033	0.029
-300.778	-200.000	-0.021	0.246
-299.764	-190.380	0.059	-0.001
-298.749	-200.000	0.008	0.135
-297.735	-200.000	0.025	-0.154
-296.720	-154.773	0.251	0.016
-295.705	-200.000	-0.023	0.222
-294.691	-200.000	0.020	-0.274
-293.676	46.288	-0.207	0.190
-292.662	368.931	-0.178	0.357
-291.647	8.190	0.023	-0.017
-290.632	-121.522	0.079	0.013
-289.618	-200.000	0.001	-0.068
-288.603	257.467	0.105	-0.179
-287.589	201.807	0.272	-0.415
-286.574	800.000	-0.033	-0.106
-285.559	64.518	0.069	-0.069
-284.545	105.777	-0.325	0.380
-283.530	-139.909	0.264	-0.028
-282.516	43.756	-0.196	-0.178
-281.501	205.588	-0.090	-0.138
-280.486	800.000	-0.045	0.153
-279.472	-30.323	-0.159	0.090
-278.457	64.620	0.171	0.170
-277.443	-54.367	0.307	0.138
-276.428	-26.645	-0.147	0.085
-275.413	279.177	0.077	0.135
-274.399	103.567	0.024	-0.028
-273.384	-200.000	0.019	0.308
-272.370	55.277	-0.199	0.191
-271.355	-200.000	-0.037	-0.246
-270.340	31.564	0.159	-0.135
-269.326	-200.000	-0.015	-0.088
-268.311	748.860	-0.138	0.368
-267.297	-101.215	0.173	-0.042
-266.282	-108.318	-0.099	-0.021
-265.267	578.816	0.016	-0.040
-264.253	167.279	-0.176	-0.248
-263.238	-91.965	0.170	-0.048
-262.224	80.604	-0.149	0.159
-261.209	26.192	-0.148	0.122
-260.195	-34.907	-0.059	-0.032
-259.180	60.777	-0.205	-0.201
-258.165	-200.000	-0.009	0.166
-257.151	84.607	0.278	0.301
-256.136	23.098	-0.178	0.144
-255.122	539.394	0.090	0.212
-254.107	545.240	0.141	-0.332
-253.092	-40.512	-0.091	-0.046
-252.078	570.744	0.181	0.435
-251.063	800.000	-0.048	0.166
-250.049	390.647	0.165	-0.339
-249.034	189.405	-0.111	-0.165
-248.019	-3.928	0.048	-0.033
-247.005	722.537	0.085	0.223
-245.990	-113.288	0.224	-0.043
-244.976	-141.585	0.137	-0.014
-243.961	-160.564	-0.087	0.005
-242.946	800.000	-0.045	-0.135
-241.932	800.000	-0.014	-0.059
-240.917	-81.116	-0.334	-0.109
-239.903	800.000	-0.021	0.065
-238.888	-105.555	-0.371	0.083
-237.873	-150.835	0.321	-0.024
-236.859	-79.748	0.195	-0.065
-235.844	-40.533	0.170	-0.087
-234.830	-200.000	0.017	0.315
-233.815	-1.875	0.248	-0.172
-232.800	0.330	-0.242	-0.170
-231.786	-51.693	0.447	0.206
-230.771	-38.570	0.241	0.126
-229.757	-108.248	-0.095	-0.020
-228.742	-52.029	-0.162	-0.074
-227.727	-200.000	-0.054	0.314
-226.713	216.174	-0.057	0.090
-225.698	220.784	-0.137	0.216
-224.684	5.045	0.186	-0.135
-223.669	41.296	-0.072	0.065
-222.655	800.000	0.046	0.176
-221.640	800.000	-0.067	0.184
-220.625	159.285	0.113	0.156
-219.611	-79.983	0.286	-0.095
-218.596	-68.091	-0.239	0.092
-217.582	87.569	0.053	-0.058
-216.567	-140.066	-0.521	-0.054
-215.552	-200.000	0.043	0.247
-214.538	21.857	0.181	0.146
-213.523	-66.563	-0.144	0.057
-212.509	-200.000	0.005	-0.150
-211.494	-61.931	-0.070	0.029
-210.479	-104.613	0.443	-0.101
-209.465	71.214	0.090	-0.092
-208.450	48.879	-0.139	-0.129
-207.436	-34.868	0.069	-0.037
-206.421	71.867	-0.112	-0.115
-205.406	-200.000	-0.090	-0.550
-204.392	-32.117	-0.102	-0.056
-203.377	-200.000	-0.001	0.278
-202.363	-75.677	-0.095	0.033
-201.348	10.961	0.203	0.153
-200.333	-132.231	0.348	0.044
-199.319	-75.180	-0.066	-0.023
-198.304	415.163	-0.109	0.228
-197.290	67.561	0.168	-0.169
-196.275	-48.199	-0.179	-0.085
-195.260	387.881	-0.113	0.231
-194.246	-125.374	-0.263	-0.040
-193.231	-103.506	0.100	-0.023
-192.217	-37.514	-0.071	0.037
-191.202	-200.000	-0.022	-0.233
-190.187	330.312	0.277	-0.526
-189.173	-42.331	-0.063	0.032
-188.158	-42.595	-0.215	-0.108
-187.144	128.406	0.108	0.135
-186.129	67.873	0.106	-0.107
-185.114	21.823	0.107	-0.086
-184.100	-123.849	0.079	-0.012
-183.085	298.381	0.077	-0.140
-182.071	57.034	0.368	0.354
-181.056	-115.182	-0.180	0.034
-180.042	800.000	0.009	0.026
-179.027	-110.909	-0.119	-0.024
-178.012	-114.116	0.034	-0.007
-176.998	800.000	0.033	-0.090
-175.983	85.670	0.059	0.064
-174.969	167.620	0.108	0.152
-173.954	-99.156	0.164	-0.041
-172.939	268.548	0.061	-0.106
-171.925	-37.830	0.341	0.179
-170.910	-124.145	0.313	0.048
-169.896	800.000	-0.073	0.215
-168.881	-171.565	-0.422	-0.014
-167.866	-200.000	0.004	-0.217
-166.852	221.451	-0.275	-0.435
-165.837	89.007	0.181	-0.198
-164.823	153.367	-0.223	-0.301
-163.808	478.528	-0.046	0.103
-162.793	-15.012	0.138	-0.087
-161.779	800.000	0.025	-0.095
-160.764	-200.000	0.008	-0.039
-159.750	-200.000	-0.012	0.307
-158.735	-200.000	-0.036	0.359
-157.720	-109.575	-0.203	0.042
-156.706	150.641	0.137	-0.184
-155.691	99.389	0.189	-0.215
-154.677	45.378	0.105	0.095
-153.662	-113.677	-0.151	0.029
-152.647	-146.883	0.030	0.003
-151.633	-200.000	0.002	0.142
-150.618	-181.962	0.150	-0.003
-149.604	247.663	-0.144	0.240
-148.589	-200.000	0.014	-0.299
-147.574	-10.011	0.141	-0.092
-146.560	-20.870	0.295	0.178
-145.545	-200.000	0.020	-0.335
-144.531	258.566	-0.079	-0.134
-143.516	-146.390	0.185	-0.016
-142.502	31.339	-0.276	0.233
-141.487	128.769	-0.055	0.070
-140.472	800.000	0.128	0.420
-139.458	800.000	-0.096	-0.377
-138.443	800.000	-0.049	-0.200
-137.429	-82.702	-0.025	-0.008
-136.414	581.165	-0.046	-0.111
-135.399	163.261	-0.237	-0.328
-134.385	-154.399	-0.202	-0.013
-133.370	19.653	0.244	-0.193
-132.356	179.362	-0.126	-0.181
-131.341	10.102	-0.095	0.071
-130.326	-200.000	0.004	-0.243
-129.312	-46.069	0.363	-0.176
-128.297	800.000	-0.049	-0.154
-127.283	-124.787	0.126	0.019
-126.268	28.888	-0.185	0.154
-125.253	-145.103	0.442	0.040
-124.239	19.630	0.244	-0.193
-123.224	-200.000	0.008	-0.075
-122.210	5.176	0.220	-0.159
-121.195	-136.001	-0.038	-0.004
