DTS Sentinel unit serial number:	SN413079Multiplexer serial number:	ORYXHardware model number:	OX4-SRSoftware version number:	ORYX F/W v4.00 Oryx Data Collector v3.7.2.0data status	okinstallation	princeton_trtdifferential loss correction	single-endedforward channel	channel 1reverse channel	N/Adate	2019/09/15time	06:06:35forward acquisition time	60.00reverse acquisition time	0.00gamma	496.2192k internal	0.2324k external	0.2324temperature offset calibration	0.9996default loss term (dB/km)	0.3790temperature slope calibration	1.0000multiplexer offset coefficient	1.0000multiplexer slope coefficient	1.0000fibre end	0.00T internal ref (°C)	30.58T ext. ref 1 (°C)	4.84T ext. ref 2 (°C)	25.15length (m)	temperature (°C)	Stokes	anti-Stokes-747.200	-45.230	0.247	0.124
-746.185	-48.911	0.205	0.099
-745.171	-200.000	0.011	0.241
-744.156	311.382	-0.123	-0.232
-743.142	176.219	-0.060	-0.088
-742.127	449.082	0.151	0.335
-741.112	168.161	-0.098	0.141
-740.098	157.616	-0.136	0.190
-739.083	-34.104	0.152	0.084
-738.069	-38.552	0.301	0.161
-737.054	83.860	0.194	-0.214
-736.039	-5.162	0.091	-0.063
-735.025	800.000	0.073	0.263
-734.010	658.860	-0.075	-0.196
-732.996	29.197	-0.249	-0.213
-731.981	8.740	-0.172	0.131
-730.966	85.468	-0.259	-0.287
-729.952	-131.700	-0.200	-0.026
-728.937	-3.018	-0.114	0.080
-727.923	-38.312	0.087	0.047
-726.908	19.394	-0.106	0.086
-725.894	288.752	-0.085	0.154
-724.879	800.000	-0.064	-0.253
-723.864	425.145	0.101	-0.219
-722.850	-200.000	0.019	-0.234
-721.835	-185.380	-0.181	0.003
-720.821	-200.000	0.066	0.375
-719.806	800.000	-0.035	0.122
-718.791	-200.000	-0.051	-0.241
-717.777	589.689	0.058	-0.143
-716.762	-98.201	-0.169	-0.044
-715.748	-60.750	0.304	-0.130
-714.733	-43.623	-0.212	-0.108
-713.718	-200.000	-0.024	-0.153
-712.704	134.601	0.094	0.123
-711.689	-45.378	-0.312	0.156
-710.675	-113.479	0.371	0.073
-709.660	-132.070	-0.214	0.028
-708.645	800.000	0.093	-0.333
-707.631	-89.842	0.135	-0.040
-706.616	-155.484	0.281	0.018
-705.602	-51.730	-0.327	0.154
-704.587	23.932	0.181	-0.151
-703.572	-200.000	-0.008	-0.053
-702.558	134.731	-0.146	0.191
-701.543	-18.230	-0.296	-0.187
-700.529	69.475	0.164	0.170
-699.514	529.096	-0.112	0.267
-698.499	-23.993	-0.004	0.003
-697.485	-200.000	-0.029	-0.256
-696.470	419.431	0.015	0.033
-695.456	394.195	-0.151	-0.316
-694.441	-200.000	-0.038	-0.301
-693.426	-63.746	0.207	-0.085
-692.412	118.140	-0.110	-0.137
-691.397	267.226	-0.098	0.173
-690.383	-200.000	-0.001	0.028
-689.368	755.227	0.093	-0.254
-688.354	264.020	0.056	0.098
-687.339	-55.885	-0.132	0.059
-686.324	-131.987	-0.120	0.016
-685.310	800.000	-0.018	0.052
-684.295	-200.000	-0.011	0.417
-683.281	184.914	-0.230	-0.343
-682.266	800.000	0.065	-0.194
-681.251	-36.624	-0.154	-0.083
-680.237	173.730	-0.089	0.129
-679.222	45.993	0.154	0.143
-678.208	-102.165	-0.153	0.037
-677.193	-31.245	-0.099	-0.056
-676.178	11.548	-0.162	0.125
-675.164	-131.583	0.218	0.029
-674.149	160.802	0.149	0.209
-673.135	-92.251	-0.223	-0.063
-672.120	-92.337	0.167	0.047
-671.105	379.379	-0.044	-0.090
-670.091	-186.873	-0.218	-0.003
-669.076	398.572	0.034	-0.071
-668.062	509.403	0.055	-0.128
-667.047	-180.319	-0.246	0.005
-666.032	-52.563	-0.218	-0.101
-665.018	-57.446	0.319	0.141
-664.003	255.245	-0.096	0.165
-662.989	139.495	0.103	0.136
-661.974	0.591	-0.160	-0.115
-660.959	-164.906	0.260	0.012
-659.945	-64.079	-0.263	0.108
-658.930	-52.234	0.154	0.072
-657.916	800.000	0.044	0.189
-656.901	799.917	-0.083	-0.231
-655.886	-119.892	-0.018	-0.003
-654.872	-200.000	-0.026	0.156
-653.857	-140.994	-0.362	-0.037
-652.843	-200.000	-0.066	0.341
-651.828	-79.616	-0.172	-0.058
-650.814	-93.781	0.140	-0.039
-649.799	372.901	-0.089	0.183
-648.784	800.000	0.122	0.426
-647.770	800.000	0.029	-0.110
-646.755	-114.391	0.151	0.029
-645.741	-41.461	-0.136	0.070
-644.726	800.000	-0.101	0.330
-643.711	-28.660	0.157	0.091
-642.697	387.550	0.056	0.117
-641.682	-200.000	0.007	-0.239
-640.668	-13.611	-0.306	-0.199
-639.653	265.617	-0.159	0.279
-638.638	-73.650	-0.110	-0.040
-637.624	378.879	0.189	-0.389
-636.609	-78.798	-0.120	-0.041
-635.595	-33.097	-0.192	-0.107
-634.580	-1.671	0.232	-0.164
-633.565	-104.376	-0.067	0.016
-632.551	-200.000	0.021	-0.319
-631.536	19.667	0.298	-0.241
-630.522	800.000	0.052	-0.149
-629.507	-37.660	0.214	0.114
-628.492	-200.000	-0.014	0.171
-627.478	-125.553	-0.237	-0.036
-626.463	-200.000	-0.024	-0.224
-625.449	-156.167	-0.102	0.006
-624.434	-82.079	-0.239	-0.078
-623.419	-7.488	0.143	0.097
-622.405	800.000	-0.071	-0.273
-621.390	293.466	-0.092	0.169
-620.376	-14.990	0.083	-0.054
-619.361	794.884	0.096	-0.266
-618.346	-200.000	-0.005	-0.050
-617.332	-88.241	-0.180	-0.054
-616.317	-55.374	-0.481	-0.217
-615.303	-22.749	-0.528	0.320
-614.288	199.052	-0.220	0.338
-613.273	-200.000	-0.004	0.516
-612.259	-76.916	-0.250	0.088
-611.244	52.786	0.114	0.109
-610.230	31.443	0.219	0.189
-609.215	-138.137	-0.143	-0.016
-608.201	42.321	-0.108	0.099
-607.186	-200.000	0.023	-0.316
-606.171	-200.000	0.010	-0.226
-605.157	4.100	-0.124	-0.091
-604.142	-21.969	-0.365	-0.222
-603.128	-25.562	-0.162	0.096
-602.113	114.976	0.196	0.241
-601.098	165.975	-0.065	-0.093
-600.084	-115.268	0.114	0.022
-599.069	57.885	0.139	0.137
-598.055	538.465	-0.063	-0.151
-597.040	-200.000	-0.011	-0.194
-596.025	572.571	-0.073	-0.178
-595.011	-112.477	0.059	-0.012
-593.996	-127.675	0.352	-0.051
-592.982	800.000	-0.046	-0.141
-591.967	738.824	-0.054	0.145
-590.952	200.647	-0.039	-0.060
-589.938	800.000	0.049	0.189
-588.923	232.590	0.103	0.170
-587.909	-110.896	-0.338	0.070
-586.894	41.933	-0.194	0.176
-585.879	201.940	-0.067	0.103
-584.865	191.667	0.070	0.105
-583.850	-79.737	0.143	0.048
-582.836	-21.584	-0.218	0.133
-581.821	706.457	-0.013	0.034
-580.806	-87.762	0.205	0.062
-579.792	-111.162	0.317	-0.065
-578.777	-200.000	0.001	-0.095
-577.763	75.883	-0.058	-0.062
-576.748	302.874	0.079	-0.147
-575.733	-75.863	-0.244	-0.087
-574.719	800.000	-0.139	-0.482
-573.704	51.231	0.255	-0.243
-572.690	-142.368	0.229	0.023
-571.675	40.076	-0.064	0.058
-570.661	-200.000	-0.001	0.026
-569.646	-123.435	0.229	-0.037
-568.631	183.698	-0.036	-0.054
-567.617	14.428	0.271	0.212
-566.602	-82.458	0.075	0.024
-565.588	-177.262	-0.208	0.005
-564.573	-200.000	-0.004	0.092
-563.558	55.092	-0.232	-0.225
-562.544	800.000	-0.075	-0.282
-561.529	241.932	0.166	0.278
-560.515	209.435	-0.166	0.260
-559.500	-8.698	-0.287	-0.193
-558.485	800.000	-0.060	-0.207
-557.471	210.200	0.226	-0.356
-556.456	800.000	-0.056	-0.164
-555.442	352.955	-0.117	-0.233
-554.427	-148.953	0.478	0.039
-553.412	-23.168	-0.195	-0.118
-552.398	-69.069	0.217	-0.084
-551.383	-140.185	-0.259	-0.027
-550.369	-83.466	0.288	0.092
-549.354	107.770	-0.112	-0.134
-548.339	346.481	0.023	-0.045
-547.325	38.229	0.023	0.020
-546.310	-200.000	-0.004	-0.119
-545.296	723.023	-0.070	-0.186
-544.281	800.000	-0.069	0.255
-543.266	800.000	-0.035	-0.127
-542.252	-106.884	-0.143	0.032
-541.237	-48.659	0.154	-0.074
-540.223	-20.013	0.291	0.180
-539.208	78.777	-0.191	-0.205
-538.193	-121.877	-0.081	0.013
-537.179	15.280	0.131	-0.103
-536.164	-200.000	0.070	-0.320
-535.150	98.461	-0.051	-0.058
-534.135	-73.811	-0.363	0.132
-533.121	-175.097	-0.197	0.005
-532.106	-82.961	0.239	0.077
-531.091	-200.000	-0.002	0.137
-530.077	-56.013	0.054	-0.024
-529.062	-200.000	0.038	0.179
-528.048	83.178	0.183	0.199
-527.033	-84.730	0.054	0.017
-526.018	-34.657	0.261	0.143
-525.004	213.418	0.117	-0.184
-523.989	65.220	0.207	0.210
-522.975	51.286	-0.114	-0.108
-521.960	-7.038	0.170	-0.116
-520.945	-200.000	-0.034	-0.214
-519.931	-85.416	0.176	-0.055
-518.916	10.029	0.181	0.138
-517.902	-200.000	-0.016	-0.264
-516.887	-80.187	0.153	0.051
-515.872	800.000	0.091	0.260
-514.858	-78.986	-0.092	0.031
-513.843	35.791	-0.242	-0.213
-512.829	-121.751	0.230	-0.038
-511.814	800.000	-0.133	0.471
-510.799	429.469	-0.134	-0.290
-509.785	-132.534	-0.113	-0.014
-508.770	-90.403	-0.402	0.117
-507.756	800.000	0.037	-0.146
-506.741	-51.934	-0.261	-0.122
-505.726	-200.000	-0.124	0.000
-504.712	289.822	0.189	0.343
-503.697	-100.468	0.192	-0.047
-502.683	370.685	-0.130	0.264
-501.668	-64.874	0.092	-0.037
-500.653	-38.327	-0.104	0.055
-499.639	-47.330	-0.243	-0.118
-498.624	47.648	-0.268	-0.250
-497.610	-135.697	0.371	-0.044
-496.595	-45.756	-0.223	0.110
-495.581	570.781	-0.062	0.150
-494.566	-1.151	0.107	-0.076
-493.551	143.795	0.216	0.288
-492.537	-74.538	0.113	-0.041
-491.522	21.588	0.039	-0.032
-490.508	48.933	0.080	-0.075
-489.493	800.000	-0.052	-0.226
-488.478	-193.862	0.091	-0.001
-487.464	98.495	0.135	0.156
-486.449	-68.417	-0.057	-0.022
-485.435	680.549	0.086	0.224
-484.420	-16.720	0.104	0.066
-483.405	13.158	0.115	0.089
-482.391	616.075	-0.243	0.609
-481.376	175.302	0.076	0.110
-480.362	-200.000	0.040	0.177
-479.347	65.633	-0.223	-0.226
-478.332	800.000	-0.067	-0.221
-477.318	-18.282	-0.192	0.120
-476.303	-64.316	-0.160	-0.065
-475.289	-95.920	-0.245	0.065
-474.274	226.287	0.114	-0.185
-473.259	97.013	0.119	-0.136
-472.245	-120.342	-0.175	0.030
-471.230	67.871	-0.348	-0.355
-470.216	-31.445	0.047	-0.026
-469.201	-154.921	0.188	-0.012
-468.186	800.000	-0.050	-0.161
-467.172	-200.000	0.024	0.110
-466.157	-47.919	-0.076	-0.037
-465.143	-17.025	-0.189	-0.119
-464.128	96.634	-0.132	0.151
-463.113	-57.052	0.138	0.061
-462.099	6.164	0.083	0.062
-461.084	-200.000	-0.004	-0.041
-460.070	185.383	0.160	0.237
-459.055	-200.000	-0.042	0.189
-458.040	151.718	0.084	0.115
-457.026	-152.901	0.424	0.030
-456.011	69.408	-0.112	-0.115
-454.997	-200.000	0.024	-0.235
-453.982	-200.000	-0.012	-0.079
-452.968	-64.063	-0.104	-0.042
-451.953	-37.919	-0.070	-0.037
-450.938	-139.215	0.159	0.017
-449.924	-53.096	-0.319	-0.146
-448.909	-124.823	0.113	0.017
-447.895	800.000	0.037	0.113
-446.880	-200.000	-0.221	-0.000
-445.865	105.210	0.065	0.076
-444.851	-160.272	-0.037	-0.002
-443.836	800.000	-0.071	0.259
-442.822	601.994	0.056	0.138
-441.807	89.538	0.063	-0.070
-440.792	-176.994	0.086	-0.002
-439.778	299.443	0.046	0.084
-438.763	89.262	-0.060	-0.066
-437.749	800.000	-0.062	-0.185
-436.734	436.435	0.121	0.262
-435.719	300.752	0.186	0.343
-434.705	800.000	-0.061	0.224
-433.690	-20.579	0.342	0.209
-432.676	37.102	0.138	-0.122
-431.661	251.649	0.203	-0.344
-430.646	120.529	-0.127	0.158
-429.632	274.017	-0.025	0.045
-428.617	800.000	0.058	-0.247
-427.603	-0.131	0.130	-0.092
-426.588	79.360	-0.178	0.190
-425.573	-200.000	0.020	0.462
-424.559	-200.000	0.004	-0.144
-423.544	-10.807	-0.105	-0.069
-422.530	-22.647	-0.133	-0.080
-421.515	-200.000	0.004	0.102
-420.500	-70.204	-0.149	-0.056
-419.486	397.918	0.034	-0.070
-418.471	-200.000	0.053	0.307
-417.457	157.694	-0.116	0.161
-416.442	165.528	0.079	0.112
-415.428	104.536	0.182	-0.213
-414.413	46.087	0.210	0.194
-413.398	-200.000	-0.012	0.120
-412.384	-200.000	-0.008	0.109
-411.369	800.000	0.076	-0.240
-410.355	-89.829	0.336	-0.098
-409.340	-200.000	-0.027	-0.184
-408.325	28.482	0.123	-0.104
-407.311	33.680	-0.051	0.044
-406.296	-122.842	-0.199	-0.032
-405.282	43.221	0.257	0.233
-404.267	-167.054	0.064	0.003
-403.252	-200.000	0.004	0.482
-402.238	-138.790	-0.372	0.040
-401.223	-200.000	-0.017	-0.286
-400.209	117.551	-0.211	-0.259
-399.194	81.260	-0.051	0.055
-398.179	-125.305	0.117	-0.018
-397.165	-200.000	0.007	0.107
-396.150	607.591	0.046	-0.115
-395.136	172.892	-0.130	0.186
-394.121	-86.073	-0.298	0.091
-393.106	543.528	-0.016	-0.038
-392.092	-200.000	0.038	-0.245
-391.077	-1.051	-0.144	0.102
-390.063	-83.748	-0.189	-0.060
-389.048	-111.125	0.095	0.019
-388.033	216.720	-0.157	0.248
-387.019	544.244	0.068	0.161
-386.004	86.962	0.157	-0.173
-384.990	-40.208	-0.134	-0.069
-383.975	369.134	0.056	0.113
-382.960	-99.240	-0.074	0.019
-381.946	-177.803	-0.176	0.004
-380.931	168.047	0.158	0.223
-379.917	-57.161	0.474	0.208
-378.902	-200.000	-0.018	-0.163
-377.888	-200.000	-0.023	0.289
-376.873	51.841	0.181	0.171
-375.858	800.000	0.127	0.365
-374.844	44.355	0.316	-0.289
-373.829	713.744	0.042	0.110
-372.815	63.276	0.249	0.249
-371.800	22.411	-0.209	0.170
-370.785	468.337	0.167	0.372
-369.771	800.000	0.097	0.301
-368.756	-103.685	0.358	-0.084
-367.742	-50.771	-0.030	0.014
-366.727	-24.457	-0.133	0.079
-365.712	220.348	0.200	0.319
-364.698	800.000	-0.068	-0.277
-363.683	-200.000	0.066	-0.407
-362.669	-200.000	0.019	-0.137
-361.654	-200.000	0.293	0.000
-360.639	25.245	-0.187	-0.155
-359.625	-200.000	0.017	0.180
-358.610	-138.031	0.209	-0.023
-357.596	142.903	-0.117	0.155
-356.581	115.087	0.098	0.119
-355.566	301.385	-0.143	-0.262
-354.552	45.399	-0.137	-0.126
-353.537	-13.957	0.193	0.124
-352.523	124.649	-0.098	-0.122
-351.508	45.346	0.069	-0.063
-350.493	800.000	-0.073	-0.250
-349.479	-9.749	0.082	0.055
-348.464	212.320	0.123	0.193
-347.450	87.031	-0.110	-0.121
-346.435	99.330	0.127	-0.146
-345.420	640.782	0.118	-0.299
-344.406	172.082	-0.071	-0.101
-343.391	-100.082	-0.192	-0.047
-342.377	-200.000	0.013	0.239
-341.362	-200.000	0.033	-0.152
-340.348	26.335	-0.211	0.175
-339.333	-25.865	-0.094	-0.055
-338.318	238.660	0.071	0.118
-337.304	-29.764	-0.257	0.146
-336.289	129.455	0.133	0.168
-335.275	800.000	0.086	0.334
-334.260	-49.977	-0.134	-0.063
-333.245	-84.761	-0.290	0.091
-332.231	70.754	0.055	0.056
-331.216	-90.699	0.141	-0.040
-330.202	-114.042	-0.151	-0.029
-329.187	-148.750	-0.391	0.032
-328.172	-107.632	0.305	0.066
-327.158	800.000	0.026	-0.085
-326.143	-117.987	-0.227	-0.040
-325.129	-200.000	-0.028	-0.342
-324.114	104.980	0.109	0.127
-323.099	800.000	0.048	-0.171
-322.085	12.817	-0.019	-0.015
-321.070	9.585	0.096	0.072
-320.056	247.583	-0.086	-0.145
-319.041	800.000	0.066	-0.182
-318.026	-31.392	0.057	0.032
-317.012	215.717	-0.053	-0.083
-315.997	800.000	-0.068	-0.240
-314.983	-166.744	-0.118	-0.005
-313.968	-200.000	-0.004	0.077
-312.953	-200.000	0.034	0.204
-311.939	-59.726	-0.137	0.058
-310.924	-113.315	0.237	0.046
-309.910	-100.798	-0.470	0.115
-308.895	-72.734	-0.217	-0.079
-307.880	-200.000	0.026	0.143
-306.866	-200.000	-0.001	-0.316
-305.851	-180.982	-0.363	0.007
-304.837	73.114	-0.066	-0.069
-303.822	800.000	-0.100	-0.382
-302.807	-87.775	-0.139	0.042
-301.793	55.182	0.139	-0.133
-300.778	96.644	-0.206	0.234
-299.764	-199.479	0.254	0.001
-298.749	157.218	0.229	-0.314
-297.735	16.553	0.178	-0.140
-296.720	-113.263	0.116	-0.023
-295.705	189.203	-0.131	0.194
-294.691	-41.627	0.168	0.086
-293.676	-115.802	0.259	0.048
-292.662	-4.569	0.057	0.039
-291.647	27.702	0.189	-0.158
-290.632	-7.973	-0.196	0.131
-289.618	33.486	-0.014	-0.012
-288.603	-20.536	0.279	-0.170
-287.589	566.664	0.033	0.079
-286.574	44.066	-0.058	0.053
-285.559	-106.845	0.222	-0.049
-284.545	-116.195	0.373	0.069
-283.530	288.608	0.085	-0.152
-282.516	210.874	0.171	0.266
-281.501	-15.421	-0.237	0.150
-280.486	-200.000	-0.035	-0.193
-279.472	800.000	-0.086	-0.362
-278.457	58.682	-0.176	-0.171
-277.443	-200.000	-0.042	-0.241
-276.428	375.889	-0.038	0.077
-275.413	121.195	0.171	-0.210
-274.399	-101.169	-0.077	-0.019
-273.384	-200.000	-0.006	0.159
-272.370	-47.633	-0.015	-0.007
-271.355	-55.495	-0.379	-0.168
-270.340	-137.740	0.184	-0.020
-269.326	-51.118	-0.288	0.134
-268.311	623.726	0.088	-0.220
-267.297	-84.310	0.271	0.085
-266.282	-200.000	-0.160	0.000
-265.267	117.851	-0.204	0.249
-264.253	800.000	-0.112	0.325
-263.238	-94.339	0.312	-0.084
-262.224	-200.000	0.052	-0.228
-261.209	171.454	0.178	0.252
-260.195	137.972	-0.065	0.084
-259.180	689.557	-0.018	0.046
-258.165	-0.086	-0.213	-0.150
-257.151	265.746	0.138	-0.239
-256.136	-127.703	0.073	-0.010
-255.122	-200.000	0.024	-0.180
-254.107	-140.596	0.141	-0.014
-253.092	800.000	-0.067	0.237
-252.078	3.611	-0.114	0.082
-251.063	-57.861	0.188	0.081
-250.049	298.717	-0.104	0.190
-249.034	502.847	-0.105	0.241
-248.019	27.503	0.214	0.178
-247.005	163.458	-0.071	-0.099
-245.990	792.971	-0.037	0.100
-244.976	191.188	-0.100	0.150
-243.961	-200.000	0.034	-0.249
-242.946	-18.689	-0.263	0.162
-241.932	310.228	0.126	0.234
-240.917	308.873	0.055	-0.101
-239.903	-67.733	-0.090	0.035
-238.888	-200.000	0.012	0.194
-237.873	629.966	0.043	-0.109
-236.859	-62.949	0.255	0.104
-235.844	-104.952	0.081	-0.018
-234.830	800.000	0.018	-0.056
-233.815	-22.250	0.373	0.224
-232.800	284.385	-0.251	0.447
-231.786	-58.669	-0.265	-0.114
-230.771	-148.032	-0.150	0.012
-229.757	-124.117	-0.064	-0.010
-228.742	-42.469	-0.150	-0.076
-227.727	-64.414	-0.398	-0.160
-226.713	-117.680	0.141	0.025
-225.698	800.000	-0.078	-0.318
-224.684	171.684	0.115	0.164
-223.669	-39.338	-0.314	-0.163
-222.655	393.014	0.163	-0.336
-221.640	-200.000	0.009	0.366
-220.625	800.000	-0.080	0.264
-219.611	-140.538	-0.160	0.016
-218.596	-44.357	-0.286	-0.141
-217.582	-200.000	0.053	-0.278
-216.567	128.464	-0.186	0.234
-215.552	-200.000	0.026	0.183
-214.538	-92.820	0.076	0.021
-213.523	-67.125	-0.091	0.035
-212.509	25.142	-0.127	-0.104
-211.494	-200.000	-0.039	-0.195
-210.479	-80.316	0.066	0.022
-209.465	-116.209	-0.336	0.062
-208.450	32.563	0.097	-0.083
-207.436	204.735	0.020	-0.031
-206.421	-144.827	0.321	0.029
-205.406	-87.778	0.106	-0.032
-204.392	800.000	-0.045	-0.159
-203.377	25.201	-0.237	-0.194
-202.363	-94.557	0.431	0.116
-201.348	-200.000	0.045	-0.311
-200.333	23.216	0.299	-0.243
-199.319	114.246	-0.026	-0.031
-198.304	-32.744	-0.351	0.193
-197.290	-21.685	-0.299	0.180
-196.275	45.721	0.011	-0.010
-195.260	-38.770	0.316	0.165
-194.246	382.474	0.108	-0.219
-193.231	-200.000	0.006	-0.131
-192.217	25.993	0.269	0.222
-191.202	-200.000	0.010	-0.265
-190.187	-200.000	-0.010	0.190
-189.173	341.678	-0.052	-0.101
-188.158	800.000	-0.065	0.214
-187.144	-153.669	-0.241	-0.016
-186.129	-200.000	0.053	0.278
-185.114	-200.000	0.010	0.112
-184.100	-200.000	0.014	0.104
-183.085	-61.271	0.039	0.016
-182.071	10.636	-0.277	0.208
-181.056	-34.194	0.130	-0.070
-180.042	-157.048	0.214	0.013
-179.027	800.000	0.090	-0.274
-178.012	800.000	0.127	-0.398
-176.998	-200.000	-0.037	-0.187
-175.983	800.000	0.056	-0.206
-174.969	177.400	0.012	-0.017
-173.954	800.000	-0.078	-0.329
-172.939	800.000	0.026	0.109
-171.925	201.070	-0.180	-0.273
-170.910	134.408	0.163	0.209
-169.896	-82.319	0.149	0.048
-168.881	-96.832	0.243	-0.063
-167.866	-200.000	0.044	0.310
-166.852	800.000	-0.137	0.417
-165.837	-166.323	-0.090	-0.004
-164.823	800.000	-0.016	0.054
-163.808	-28.571	0.242	0.138
-162.793	-106.691	-0.213	0.047
-161.779	-200.000	-0.028	-0.175
-160.764	-110.722	0.265	0.054
-159.750	-200.000	-0.015	-0.174
-158.735	-142.729	-0.305	-0.029
-157.720	72.215	0.134	-0.138
-156.706	-200.000	0.103	-0.462
-155.691	68.487	0.324	-0.328
-154.677	-196.799	0.169	0.001
-153.662	-200.000	0.001	0.057
-152.647	-38.325	-0.084	-0.044
-151.633	-64.889	0.161	-0.064
-150.618	331.161	-0.204	-0.388
-149.604	55.157	0.167	0.159
-148.589	471.349	-0.039	-0.087
-147.574	340.635	0.045	-0.087
-146.560	800.000	0.015	-0.063
-145.545	14.778	0.074	0.057
-144.531	371.401	-0.157	0.314
-143.516	-28.665	0.329	0.187
-142.502	778.289	-0.206	-0.554
-141.487	168.645	0.088	-0.124
-140.472	96.703	0.146	0.165
-139.458	475.031	-0.064	0.142
-138.443	-200.000	-0.020	0.220
-137.429	291.544	-0.142	-0.254
-136.414	112.204	-0.128	0.153
-135.399	106.515	0.046	0.054
-134.385	-86.110	0.094	-0.029
-133.370	800.000	0.077	0.218
-132.356	66.225	-0.114	0.114
-131.341	103.124	0.013	0.015
-130.326	-200.000	-0.009	0.278
-129.312	-200.000	-0.018	-0.251
-128.297	-157.215	0.302	0.018
-127.283	-44.013	0.391	0.193
-126.268	-200.000	-0.029	0.176
-125.253	-69.604	-0.158	-0.060
-124.239	-200.000	0.041	-0.190
-123.224	40.742	0.095	-0.084
-122.210	304.585	-0.096	-0.176
-121.195	-127.511	-0.314	0.045
