DTS Sentinel unit serial number:	SN413079Multiplexer serial number:	ORYXHardware model number:	OX4-SRSoftware version number:	ORYX F/W v4.00 Oryx Data Collector v3.7.2.0data status	okinstallation	princeton_trtdifferential loss correction	single-endedforward channel	channel 1reverse channel	N/Adate	2019/09/19time	03:10:35forward acquisition time	60.00reverse acquisition time	0.00gamma	496.2192k internal	0.2344k external	0.2344temperature offset calibration	1.0020default loss term (dB/km)	0.3790temperature slope calibration	1.0000multiplexer offset coefficient	1.0000multiplexer slope coefficient	1.0000fibre end	0.00T internal ref (°C)	20.80T ext. ref 1 (°C)	0.65T ext. ref 2 (°C)	14.28length (m)	temperature (°C)	Stokes	anti-Stokes-747.200	158.863	0.119	0.166
-746.185	-51.754	-0.285	-0.133
-745.171	448.037	0.069	0.152
-744.156	-157.930	-0.171	0.010
-743.142	290.259	0.119	0.217
-742.127	49.317	-0.218	-0.205
-741.112	-122.870	-0.202	-0.033
-740.098	284.966	0.073	0.132
-739.083	-200.000	-0.076	0.386
-738.069	-132.807	0.222	0.028
-737.054	66.615	-0.078	-0.080
-736.039	-133.456	-0.159	0.020
-735.025	133.486	0.418	0.541
-734.010	-140.035	-0.087	-0.009
-732.996	-199.733	0.163	-0.001
-731.981	-148.719	-0.060	-0.005
-730.966	-122.464	-0.261	-0.043
-729.952	-200.000	0.046	-0.269
-728.937	24.500	-0.229	-0.189
-727.923	362.863	0.204	-0.410
-726.908	-108.401	-0.287	0.062
-725.894	800.000	0.067	0.269
-724.879	98.795	-0.020	-0.023
-723.864	-51.853	0.210	0.098
-722.850	433.103	-0.152	-0.331
-721.835	-108.984	0.186	-0.040
-720.821	267.627	0.063	0.110
-719.806	-117.737	-0.149	0.027
-718.791	198.864	0.233	-0.357
-717.777	52.944	-0.175	-0.168
-716.762	77.574	-0.130	-0.138
-715.748	-200.000	-0.022	-0.307
-714.733	-106.514	-0.125	-0.028
-713.718	-200.000	-0.103	-0.528
-712.704	-45.892	-0.250	-0.123
-711.689	123.456	0.100	0.126
-710.675	50.297	0.175	-0.165
-709.660	9.907	0.132	-0.100
-708.645	-200.000	0.017	0.246
-707.631	-46.773	-0.070	0.034
-706.616	-46.374	-0.236	0.116
-705.602	94.011	0.172	0.195
-704.587	-44.717	0.199	0.099
-703.572	-200.000	0.040	0.291
-702.558	28.038	0.049	-0.042
-701.543	50.519	-0.269	0.254
-700.529	800.000	-0.014	0.060
-699.514	63.494	0.119	-0.119
-698.499	331.273	-0.169	0.326
-697.485	-200.000	0.032	0.230
-696.470	12.519	0.165	0.127
-695.456	123.128	-0.058	-0.072
-694.441	124.585	0.274	-0.345
-693.426	464.127	-0.076	0.169
-692.412	-200.000	0.028	0.232
-691.397	-61.884	-0.244	0.102
-690.383	-128.360	-0.310	0.044
-689.368	-39.829	-0.119	0.062
-688.354	800.000	0.145	-0.437
-687.339	-135.497	-0.152	0.018
-686.324	-200.000	-0.047	-0.366
-685.310	-103.191	-0.168	-0.040
-684.295	-105.861	-0.248	-0.056
-683.281	350.639	0.224	0.442
-682.266	-200.000	0.001	0.122
-681.251	2.729	0.130	-0.094
-680.237	-149.334	-0.169	-0.013
-679.222	800.000	-0.040	-0.175
-678.208	-107.282	0.229	0.050
-677.193	-61.880	-0.153	0.064
-676.178	-50.967	-0.414	0.194
-675.164	-200.000	-0.073	-0.342
-674.149	301.087	0.093	-0.171
-673.135	-86.601	-0.298	-0.091
-672.120	362.692	-0.074	0.148
-671.105	-80.786	0.328	0.109
-670.091	800.000	0.064	-0.281
-669.076	-30.721	-0.183	0.103
-668.062	800.000	0.108	-0.298
-667.047	-97.761	0.023	0.006
-666.032	96.526	-0.144	0.165
-665.018	-35.945	0.371	0.200
-664.003	-108.001	0.176	-0.038
-662.989	-138.878	-0.085	-0.009
-661.974	-72.983	-0.307	-0.112
-660.959	-187.531	0.313	-0.004
-659.945	-126.014	0.153	-0.023
-658.930	-170.319	-0.233	0.008
-657.916	-89.186	-0.342	-0.101
-656.901	800.000	0.175	-0.496
-655.886	800.000	-0.034	-0.098
-654.872	-200.000	-0.034	-0.231
-653.857	-56.153	-0.121	0.054
-652.843	-67.815	0.156	0.061
-651.828	-14.615	-0.244	0.157
-650.814	800.000	0.086	-0.243
-649.799	-200.000	-0.031	-0.187
-648.784	213.455	-0.211	-0.333
-647.770	239.491	0.060	-0.100
-646.755	589.776	0.029	0.072
-645.741	165.326	-0.256	0.360
-644.726	800.000	-0.106	-0.342
-643.711	800.000	0.025	0.108
-642.697	-176.371	-0.223	-0.006
-641.682	122.352	0.201	-0.250
-640.668	612.199	-0.046	-0.115
-639.653	10.483	0.067	0.051
-638.638	-87.828	-0.473	0.142
-637.624	-102.861	-0.216	-0.051
-636.609	481.663	-0.055	-0.125
-635.595	-97.840	-0.100	0.026
-634.580	-114.326	0.245	0.047
-633.565	-200.000	0.038	-0.306
-632.551	0.499	0.216	0.154
-631.536	-200.000	-0.073	0.459
-630.522	117.754	0.154	-0.189
-629.507	20.177	0.081	0.065
-628.492	800.000	-0.037	0.120
-627.478	115.174	-0.183	-0.222
-626.463	-139.040	-0.301	-0.032
-625.449	571.583	0.073	-0.178
-624.434	-200.000	-0.058	-0.257
-623.419	367.620	-0.063	-0.126
-622.405	-63.229	0.281	-0.115
-621.390	-200.000	-0.033	0.155
-620.376	119.971	-0.245	-0.302
-619.361	-200.000	-0.016	0.203
-618.346	106.289	0.149	-0.176
-617.332	-197.890	0.387	-0.002
-616.317	267.062	-0.166	-0.288
-615.303	-200.000	-0.045	-0.343
-614.288	128.165	-0.099	0.126
-613.273	127.693	-0.129	-0.163
-612.259	105.716	0.108	0.127
-611.244	44.123	-0.169	0.154
-610.230	156.724	0.251	-0.346
-609.215	-56.649	0.217	-0.096
-608.201	759.263	0.073	0.197
-607.186	-4.032	-0.120	0.083
-606.171	-85.728	-0.059	-0.018
-605.157	352.155	0.104	-0.205
-604.142	592.878	-0.165	0.405
-603.128	800.000	-0.030	-0.131
-602.113	19.110	0.149	-0.119
-601.098	-128.827	0.245	0.034
-600.084	62.818	0.244	0.243
-599.069	-20.318	-0.076	-0.046
-598.055	477.974	-0.138	0.311
-597.040	192.058	0.152	-0.228
-596.025	-200.000	-0.011	-0.293
-595.011	292.888	0.039	-0.071
-593.996	-135.661	-0.289	0.034
-592.982	-200.000	-0.017	0.245
-591.967	519.514	0.051	-0.118
-590.952	184.191	0.078	-0.115
-589.938	-200.000	-0.008	-0.281
-588.923	602.946	-0.106	-0.263
-587.909	-200.000	-0.042	0.229
-586.894	43.696	-0.198	0.181
-585.879	40.040	-0.118	0.105
-584.865	-200.000	-0.064	0.575
-583.850	320.216	-0.043	0.081
-582.836	-22.610	-0.176	-0.106
-581.821	800.000	0.075	0.269
-580.806	360.073	-0.044	-0.087
-579.792	75.503	0.042	0.044
-578.777	-17.611	0.143	-0.089
-577.763	180.160	-0.150	-0.219
-576.748	18.165	-0.101	0.080
-575.733	-90.190	-0.146	0.042
-574.719	119.299	0.103	0.127
-573.704	88.664	0.072	-0.080
-572.690	-200.000	-0.035	0.184
-571.675	-172.326	-0.271	-0.009
-570.661	800.000	0.046	-0.129
-569.646	-200.000	0.012	0.093
-568.631	-60.937	-0.230	0.097
-567.617	316.570	-0.046	-0.087
-566.602	752.214	0.054	0.145
-565.588	46.640	-0.287	0.265
-564.573	168.082	-0.237	0.335
-563.558	-186.788	0.181	-0.003
-562.544	800.000	-0.256	-0.792
-561.529	-54.741	0.319	0.143
-560.515	-130.602	-0.458	-0.061
-559.500	-196.254	-0.433	-0.003
-558.485	-181.391	-0.164	-0.003
-557.471	24.750	-0.240	-0.198
-556.456	-166.815	0.531	-0.022
-555.442	708.635	-0.102	0.269
-554.427	-200.000	0.021	-0.177
-553.412	126.226	-0.240	-0.301
-552.398	-118.005	0.218	-0.039
-551.383	-132.837	-0.266	-0.034
-550.369	800.000	-0.046	0.183
-549.354	51.372	-0.121	-0.114
-548.339	-123.105	-0.237	-0.038
-547.325	-35.195	-0.152	0.082
-546.310	75.847	0.114	0.120
-545.296	360.808	-0.047	0.093
-544.281	800.000	-0.073	0.318
-543.266	-126.121	0.175	0.026
-542.252	49.095	-0.112	-0.105
-541.237	8.441	0.118	-0.088
-540.223	-44.533	-0.266	0.132
-539.208	-123.318	-0.221	-0.035
-538.193	-15.705	0.276	-0.174
-537.179	800.000	-0.028	-0.108
-536.164	208.519	0.227	-0.352
-535.150	-155.659	-0.061	-0.004
-534.135	205.482	-0.140	0.216
-533.121	199.744	0.151	0.230
-532.106	32.120	-0.207	0.177
-531.091	-200.000	-0.163	0.001
-530.077	-93.161	-0.087	-0.024
-529.062	-13.972	0.143	-0.091
-528.048	143.232	-0.079	-0.104
-527.033	-81.754	0.186	-0.061
-526.018	-200.000	0.008	0.082
-525.004	341.952	0.127	0.247
-523.989	-99.528	-0.142	-0.035
-522.975	131.062	-0.084	0.107
-521.960	-1.213	0.192	-0.135
-520.945	3.364	0.218	-0.157
-519.931	718.428	0.042	-0.109
-518.916	188.485	0.077	0.114
-517.902	-89.436	-0.302	-0.088
-516.887	64.497	-0.235	0.235
-515.872	87.613	-0.125	0.138
-514.858	292.993	-0.189	-0.343
-513.843	800.000	0.028	-0.105
-512.829	76.867	-0.207	0.218
-511.814	-18.971	0.296	0.183
-510.799	81.455	0.258	0.277
-509.785	24.002	0.135	0.110
-508.770	-12.221	-0.218	0.141
-507.756	-71.821	0.346	0.128
-506.741	357.385	0.086	-0.171
-505.726	153.722	0.138	-0.188
-504.712	253.269	-0.231	0.390
-503.697	-39.324	-0.280	-0.146
-502.683	-200.000	0.059	-0.303
-501.668	78.692	0.349	-0.370
-500.653	-125.250	-0.101	0.015
-499.639	64.555	-0.219	0.219
-498.624	800.000	0.087	0.257
-497.610	-77.279	0.272	0.094
-496.595	800.000	0.030	0.112
-495.581	701.180	0.018	-0.048
-494.566	-91.971	0.115	-0.032
-493.551	369.869	0.035	0.070
-492.537	-200.000	-0.030	-0.242
-491.522	-73.420	-0.105	0.038
-490.508	-126.071	0.204	0.030
-489.493	800.000	-0.026	-0.107
-488.478	-200.000	0.063	0.289
-487.464	44.496	0.110	0.100
-486.449	-103.334	0.236	-0.055
-485.435	-104.821	0.056	-0.013
-484.420	-168.348	-0.440	-0.017
-483.405	143.734	0.275	0.364
-482.391	323.039	0.118	-0.223
-481.376	37.976	-0.029	-0.026
-480.362	-200.000	-0.005	0.229
-479.347	-20.659	0.164	-0.100
-478.332	580.737	0.012	-0.028
-477.318	-200.000	0.017	0.139
-476.303	-48.522	-0.206	0.098
-475.289	-59.104	-0.155	0.066
-474.274	800.000	0.077	-0.302
-473.259	106.629	-0.200	0.235
-472.245	13.852	0.194	-0.150
-471.230	130.783	0.147	0.187
-470.216	-187.938	-0.208	-0.003
-469.201	-200.000	-0.006	0.148
-468.186	-200.000	0.027	0.210
-467.172	-200.000	-0.042	-0.472
-466.157	800.000	0.050	-0.181
-465.143	302.574	-0.090	0.165
-464.128	-84.756	-0.276	0.086
-463.113	336.329	0.101	0.194
-462.099	252.261	0.097	-0.163
-461.084	-200.000	-0.006	-0.114
-460.070	59.395	0.192	-0.188
-459.055	-162.013	0.429	0.021
-458.040	270.223	-0.137	-0.238
-457.026	-11.520	-0.165	-0.107
-456.011	-200.000	-0.001	-0.046
-454.997	392.808	0.022	0.046
-453.982	-200.000	-0.013	0.251
-452.968	175.364	-0.101	-0.145
-451.953	213.919	-0.164	0.256
-450.938	-68.872	-0.244	0.093
-449.924	153.373	0.190	-0.257
-448.909	25.893	0.249	-0.205
-447.895	-86.257	-0.352	-0.107
-446.880	-68.719	-0.222	-0.085
-445.865	-167.622	-0.264	0.010
-444.851	332.523	0.063	0.121
-443.836	15.856	-0.127	-0.099
-442.822	150.299	0.086	-0.115
-441.807	-0.300	0.073	-0.052
-440.792	132.138	0.131	-0.167
-439.778	395.134	0.100	-0.207
-438.763	731.387	-0.078	-0.205
-437.749	5.164	-0.121	0.088
-436.734	-67.837	0.174	-0.067
-435.719	-64.424	-0.219	0.088
-434.705	10.169	-0.215	0.161
-433.690	-52.650	-0.413	0.189
-432.676	331.730	-0.041	-0.079
-431.661	506.268	0.113	0.260
-430.646	-200.000	-0.011	0.293
-429.632	122.861	-0.088	-0.109
-428.617	94.871	0.316	-0.355
-427.603	-193.334	0.120	-0.001
-426.588	-183.071	0.250	-0.004
-425.573	-200.000	-0.001	0.029
-424.559	181.495	0.162	0.235
-423.544	-129.212	0.110	0.015
-422.530	-21.777	0.345	-0.208
-421.515	63.417	-0.107	0.106
-420.500	-38.125	-0.395	0.207
-419.486	-30.541	0.061	-0.034
-418.471	-200.000	0.030	-0.246
-417.457	800.000	0.057	0.206
-416.442	-200.000	0.022	0.350
-415.428	-200.000	-0.023	0.108
-414.413	-200.000	0.006	0.045
-413.398	100.897	0.180	0.207
-412.384	-200.000	0.051	-0.561
-411.369	-47.252	-0.151	-0.073
-410.355	264.742	0.081	-0.139
-409.340	-8.844	-0.340	0.225
-408.325	-115.042	-0.449	0.084
-407.311	-150.792	-0.216	0.016
-406.296	275.304	-0.111	0.194
-405.282	-200.000	-0.013	-0.324
-404.267	56.306	-0.305	-0.293
-403.252	-12.095	-0.247	-0.160
-402.238	-58.872	-0.166	-0.071
-401.223	-103.898	0.172	0.040
-400.209	439.556	-0.112	0.243
-399.194	-151.488	0.411	0.030
-398.179	14.606	0.118	-0.091
-397.165	186.432	-0.085	-0.124
-396.150	-200.000	0.011	0.067
-395.136	99.658	0.017	-0.019
-394.121	-45.558	0.158	-0.077
-393.106	800.000	-0.040	0.153
-392.092	-103.124	0.158	-0.037
-391.077	691.236	0.078	0.203
-390.063	-200.000	-0.006	-0.167
-389.048	50.596	-0.039	0.036
-388.033	-136.177	-0.187	-0.022
-387.019	99.122	-0.131	0.149
-386.004	247.141	0.076	-0.126
-384.990	-119.991	0.399	0.068
-383.975	193.083	0.076	-0.113
-382.960	800.000	-0.013	-0.051
-381.946	236.631	-0.096	-0.157
-380.931	-200.000	0.019	0.191
-379.917	-200.000	0.004	-0.220
-378.902	-139.075	0.110	-0.012
-377.888	7.920	-0.061	0.045
-376.873	-151.649	0.257	-0.019
-375.858	-81.087	-0.489	-0.160
-374.844	-80.008	0.200	0.066
-373.829	-200.000	-0.036	0.167
-372.815	-146.359	-0.165	0.014
-371.800	-86.788	-0.194	-0.058
-370.785	226.070	0.325	0.521
-369.771	328.329	0.091	-0.173
-368.756	107.072	-0.239	-0.280
-367.742	-200.000	-0.042	0.310
-366.727	-51.570	0.164	0.076
-365.712	0.299	0.158	-0.111
-364.698	174.048	-0.173	0.246
-363.683	-200.000	0.006	0.078
-362.669	-94.171	0.299	-0.081
-361.654	-168.697	-0.300	-0.011
-360.639	-5.476	0.148	0.100
-359.625	79.441	0.205	-0.217
-358.610	-70.925	0.101	0.038
-357.596	22.487	0.073	0.059
-356.581	-134.734	0.061	0.007
-355.566	-200.000	0.004	0.088
-354.552	-200.000	-0.023	-0.339
-353.537	390.029	0.073	0.150
-352.523	133.472	-0.026	0.033
-351.508	3.151	-0.092	-0.066
-350.493	-188.514	-0.121	-0.001
-349.479	-74.230	-0.214	0.076
-348.464	-200.000	0.024	-0.267
-347.450	-200.000	-0.027	0.155
-346.435	38.438	-0.297	-0.261
-345.420	414.251	-0.149	0.312
-344.406	-49.665	0.249	0.117
-343.391	109.688	0.130	-0.154
-342.377	387.989	-0.115	-0.234
-341.362	-200.000	0.047	0.346
-340.348	-8.825	0.103	0.068
-339.333	68.362	0.212	-0.214
-338.318	800.000	0.146	-0.441
-337.304	28.716	-0.166	0.139
-336.289	800.000	-0.134	0.423
-335.275	-200.000	-0.008	-0.056
-334.260	-105.061	0.228	-0.051
-333.245	112.827	-0.058	0.069
-332.231	-200.000	0.007	-0.052
-331.216	257.880	-0.154	-0.261
-330.202	-200.000	-0.077	-0.411
-329.187	-80.833	0.217	-0.071
-328.172	-56.666	0.160	0.070
-327.158	207.163	0.159	0.244
-326.143	-39.401	-0.175	0.091
-325.129	-200.000	0.005	0.054
-324.114	-26.488	-0.181	0.104
-323.099	202.845	-0.142	-0.217
-322.085	-116.250	0.430	-0.078
-321.070	255.369	0.169	-0.285
-320.056	800.000	0.027	-0.100
-319.041	-22.868	0.096	0.057
-318.026	358.856	0.107	-0.211
-317.012	58.331	0.032	0.031
-315.997	32.764	0.159	-0.135
-314.983	1.852	0.123	-0.087
-313.968	56.828	-0.281	-0.269
-312.953	0.024	-0.120	0.084
-311.939	-185.799	0.303	0.004
-310.924	-66.511	0.222	-0.087
-309.910	-136.873	-0.202	-0.023
-308.895	45.777	0.134	0.122
-307.880	-143.647	-0.446	-0.042
-306.866	80.354	0.205	-0.217
-305.851	89.949	0.511	0.562
-304.837	350.771	0.133	0.259
-303.822	-120.221	0.254	0.043
-302.807	800.000	0.110	0.305
-301.793	-38.088	0.121	-0.063
-300.778	-49.362	-0.314	0.147
-299.764	-45.524	-0.118	0.057
-298.749	332.233	-0.038	-0.072
-297.735	91.485	0.052	-0.058
-296.720	-200.000	0.028	0.280
-295.705	-200.000	-0.015	0.195
-294.691	-200.000	-0.005	0.236
-293.676	-17.957	-0.109	0.067
-292.662	-126.661	0.261	-0.038
-291.647	54.511	0.127	-0.121
-290.632	-97.785	-0.349	-0.089
-289.618	-200.000	0.011	0.309
-288.603	-93.533	0.126	-0.034
-287.589	-104.080	-0.108	0.025
-286.574	210.745	-0.187	0.288
-285.559	145.689	0.117	-0.154
-284.545	21.622	-0.229	-0.183
-283.530	-116.314	0.132	0.024
-282.516	123.295	-0.118	0.146
-281.501	-200.000	0.006	-0.056
-280.486	-87.227	-0.304	-0.091
-279.472	-162.703	0.099	0.005
-278.457	154.488	-0.106	-0.143
-277.443	-100.308	-0.326	-0.080
-276.428	-57.526	-0.375	-0.162
-275.413	318.333	0.124	-0.230
-274.399	800.000	0.025	-0.085
-273.384	-117.174	0.179	0.032
-272.370	-59.211	-0.293	0.124
-271.355	103.206	-0.114	-0.131
-270.340	-68.855	0.370	0.141
-269.326	-124.332	0.125	-0.019
-268.311	536.873	0.133	0.309
-267.297	800.000	-0.138	0.562
-266.282	-200.000	0.059	0.296
-265.267	9.644	0.235	0.175
-264.253	-133.220	0.045	-0.006
-263.238	-108.825	0.268	-0.056
-262.224	-200.000	0.005	0.184
-261.209	-54.749	-0.226	0.100
-260.195	-106.340	0.206	0.045
-259.180	-57.783	0.172	0.074
-258.165	-58.090	0.199	0.085
-257.151	-148.208	0.357	-0.029
-256.136	-104.638	0.167	-0.038
-255.122	-161.096	0.335	0.017
-254.107	-110.761	-0.384	-0.078
-253.092	23.474	-0.091	0.074
-252.078	800.000	0.033	-0.118
-251.063	-200.000	0.050	0.545
-250.049	111.212	-0.080	0.095
-249.034	123.187	0.060	0.074
-248.019	-143.465	0.189	-0.018
-247.005	12.641	0.225	-0.171
-245.990	-61.043	-0.152	-0.063
-244.976	443.986	0.105	-0.226
-243.961	-156.269	0.249	-0.015
-242.946	-200.000	0.013	0.235
-241.932	-38.259	0.142	-0.074
-240.917	7.466	0.198	0.145
-239.903	57.304	-0.056	0.053
-238.888	-67.540	-0.476	-0.183
-237.873	-200.000	0.021	-0.191
-236.859	-74.785	-0.077	-0.027
-235.844	-200.000	0.039	0.176
-234.830	-44.917	0.152	0.074
-233.815	800.000	-0.174	-0.634
-232.800	79.381	-0.190	-0.200
-231.786	123.367	-0.060	0.073
-230.771	-101.776	-0.135	-0.032
-229.757	-17.364	-0.145	0.089
-228.742	241.499	-0.039	-0.064
-227.727	413.950	0.076	-0.159
-226.713	236.557	0.054	-0.088
-225.698	-52.117	0.285	0.130
-224.684	-23.310	-0.100	0.059
-223.669	336.289	-0.105	0.199
-222.655	-75.712	-0.157	0.055
-221.640	-52.281	-0.326	-0.148
-220.625	-200.000	0.008	-0.122
-219.611	-3.845	-0.227	-0.155
-218.596	44.750	-0.127	-0.115
-217.582	800.000	0.125	-0.352
-216.567	160.861	0.042	-0.057
-215.552	373.125	0.024	-0.049
-214.538	70.751	0.121	0.123
-213.523	95.650	-0.104	0.116
-212.509	-200.000	0.054	-0.421
-211.494	666.654	0.075	0.189
-210.479	-121.942	0.251	0.041
-209.465	46.813	-0.028	-0.025
-208.450	-39.266	0.197	0.102
-207.436	-200.000	-0.053	0.245
-206.421	29.054	-0.192	0.160
-205.406	8.215	0.370	0.273
-204.392	-128.550	0.285	0.040
-203.377	285.375	-0.074	0.131
-202.363	-93.763	-0.275	0.074
-201.348	-33.311	0.173	0.094
-200.333	-200.000	-0.007	-0.140
-199.319	-132.477	-0.230	0.029
-198.304	-62.361	-0.224	0.091
-197.290	-63.349	-0.134	0.054
-196.275	-124.758	-0.193	-0.029
-195.260	-90.116	0.139	-0.040
-194.246	-113.023	0.217	-0.042
-193.231	-200.000	-0.010	-0.079
-192.217	-181.229	0.115	-0.002
-191.202	79.851	0.160	0.169
-190.187	276.997	-0.044	-0.076
-189.173	9.617	-0.338	-0.251
-188.158	-83.733	0.214	-0.067
-187.144	107.716	-0.042	0.049
-186.129	120.284	0.024	0.029
-185.114	364.336	0.166	0.326
-184.100	-53.889	0.116	0.052
-183.085	-104.229	0.409	0.093
-182.071	-200.000	-0.159	0.000
-181.056	75.428	-0.152	0.157
-180.042	770.402	0.139	-0.371
-179.027	-120.255	-0.075	0.013
-178.012	-200.000	0.020	0.100
-176.998	-200.000	0.001	-0.297
-175.983	-68.223	-0.150	0.057
-174.969	-200.000	-0.014	0.283
-173.954	-10.655	0.083	0.054
-172.939	7.316	0.334	0.244
-171.925	230.655	-0.065	0.103
-170.910	-97.617	0.247	0.063
-169.896	-168.527	0.306	-0.011
-168.881	21.180	0.029	-0.023
-167.866	54.845	0.088	-0.083
-166.852	17.520	-0.131	-0.102
-165.837	44.822	0.094	-0.084
-164.823	-140.115	0.218	0.022
-163.808	-200.000	0.013	0.212
-162.793	-200.000	0.020	-0.380
-161.779	-0.253	-0.110	0.076
-160.764	441.668	0.044	-0.094
-159.750	-200.000	-0.038	-0.485
-158.735	-104.188	0.226	0.051
-157.720	-200.000	-0.012	-0.112
-156.706	43.733	-0.202	-0.181
-155.691	-200.000	-0.016	-0.258
-154.677	44.779	0.156	-0.140
-153.662	-67.178	0.400	0.154
-152.647	112.784	-0.056	0.067
-151.633	-200.000	-0.048	0.233
-150.618	-21.468	0.226	0.135
-149.604	-200.000	-0.030	-0.142
-148.589	-19.624	0.218	-0.132
-147.574	-49.817	0.273	-0.127
-146.560	-36.185	-0.075	-0.039
-145.545	-16.795	0.199	-0.123
-144.531	-36.982	0.239	-0.125
-143.516	-4.623	0.191	0.129
-142.502	400.952	0.045	0.093
-141.487	-24.104	-0.094	-0.055
-140.472	41.939	-0.269	0.238
-139.458	19.698	0.132	0.104
-138.443	10.272	0.348	0.259
-137.429	-33.527	0.189	0.102
-136.414	800.000	-0.059	-0.198
-135.399	81.508	0.172	-0.182
-134.385	125.327	-0.111	-0.137
-133.370	-92.916	0.185	0.050
-132.356	293.188	0.270	0.481
-131.341	73.184	-0.202	0.207
-130.326	-109.005	0.097	-0.020
-129.312	-200.000	0.000	0.212
-128.297	-25.136	-0.112	0.065
-127.283	279.590	0.083	-0.145
-126.268	148.205	-0.198	-0.261
-125.253	191.223	-0.094	-0.139
-124.239	632.977	0.050	0.123
-123.224	112.854	-0.301	0.357
-122.210	101.093	-0.043	-0.049
-121.195	-64.803	-0.074	-0.029
