DTS Sentinel unit serial number:	SN413079Multiplexer serial number:	ORYXHardware model number:	OX4-SRSoftware version number:	ORYX F/W v4.00 Oryx Data Collector v3.7.2.0data status	okinstallation	princeton_trtdifferential loss correction	single-endedforward channel	channel 1reverse channel	N/Adate	2019/09/18time	07:10:35forward acquisition time	60.00reverse acquisition time	0.00gamma	496.2192k internal	0.2340k external	0.2340temperature offset calibration	0.9978default loss term (dB/km)	0.3790temperature slope calibration	1.0000multiplexer offset coefficient	1.0000multiplexer slope coefficient	1.0000fibre end	0.00T internal ref (°C)	23.19T ext. ref 1 (°C)	0.19T ext. ref 2 (°C)	17.30length (m)	temperature (°C)	Stokes	anti-Stokes-747.200	280.358	0.101	-0.181
-746.185	-58.749	-0.184	0.080
-745.171	321.687	-0.114	0.217
-744.156	124.123	-0.260	0.327
-743.142	-156.328	0.040	0.003
-742.127	-200.000	-0.028	0.174
-741.112	6.650	-0.174	-0.130
-740.098	29.935	-0.115	0.098
-739.083	19.130	-0.097	-0.078
-738.069	-40.247	-0.232	-0.121
-737.054	84.702	0.121	-0.133
-736.039	-16.824	-0.305	-0.193
-735.025	-27.035	0.312	0.182
-734.010	29.406	0.197	0.168
-732.996	-71.802	0.104	-0.039
-731.981	35.223	0.148	-0.130
-730.966	-97.830	0.132	-0.034
-729.952	800.000	0.063	-0.185
-728.937	-74.123	0.231	0.084
-727.923	-200.000	0.050	-0.243
-726.908	800.000	0.096	-0.312
-725.894	-200.000	0.034	0.233
-724.879	-58.610	0.281	-0.122
-723.864	89.506	-0.084	0.093
-722.850	-200.000	-0.014	-0.072
-721.835	-200.000	-0.010	-0.100
-720.821	-106.574	0.244	-0.054
-719.806	-95.292	-0.203	-0.055
-718.791	-31.367	0.343	-0.193
-717.777	-200.000	-0.007	-0.131
-716.762	437.202	-0.093	-0.203
-715.748	35.576	-0.070	0.062
-714.733	-93.215	-0.039	-0.011
-713.718	179.660	0.066	0.097
-712.704	206.247	-0.080	0.125
-711.689	-74.252	0.089	-0.032
-710.675	211.182	0.215	-0.338
-709.660	272.221	0.137	-0.242
-708.645	-200.000	0.071	-0.343
-707.631	800.000	-0.059	-0.190
-706.616	517.752	-0.053	-0.124
-705.602	434.691	0.058	-0.126
-704.587	83.560	0.141	0.154
-703.572	-77.712	-0.076	-0.026
-702.558	60.847	0.135	-0.134
-701.543	-200.000	0.025	-0.418
-700.529	-138.984	-0.107	0.012
-699.514	-144.164	0.347	0.032
-698.499	-17.533	0.129	-0.081
-697.485	83.347	0.224	-0.244
-696.470	51.569	0.129	0.123
-695.456	160.724	-0.029	-0.040
-694.441	-200.000	-0.009	0.294
-693.426	-200.000	-0.060	0.376
-692.412	-28.606	0.130	0.075
-691.397	45.577	0.143	0.133
-690.383	295.958	-0.090	0.164
-689.368	-73.466	-0.116	0.042
-688.354	-80.335	-0.322	-0.108
-687.339	-43.879	-0.215	-0.108
-686.324	-80.703	0.063	-0.021
-685.310	-200.000	0.015	0.487
-684.295	245.730	-0.139	-0.234
-683.281	170.608	-0.097	0.138
-682.266	-49.410	0.098	0.047
-681.251	131.276	0.213	0.274
-680.237	800.000	-0.050	0.206
-679.222	-43.463	-0.080	-0.041
-678.208	-81.784	0.239	0.078
-677.193	590.425	-0.298	-0.734
-676.178	152.288	0.112	0.153
-675.164	-83.933	-0.151	0.048
-674.149	-200.000	-0.023	-0.215
-673.135	-200.000	0.009	0.172
-672.120	167.758	-0.064	-0.091
-671.105	800.000	-0.042	-0.126
-670.091	800.000	-0.043	-0.172
-669.076	174.166	-0.078	-0.112
-668.062	-17.378	-0.084	0.053
-667.047	185.390	-0.162	0.241
-666.032	-200.000	-0.008	-0.455
-665.018	54.147	0.140	0.135
-664.003	16.427	0.178	-0.140
-662.989	26.502	0.066	0.056
-661.974	-48.681	-0.204	-0.098
-660.959	-2.287	0.052	-0.037
-659.945	19.202	0.080	0.064
-658.930	-62.627	0.383	-0.159
-657.916	-200.000	0.028	-0.228
-656.901	-112.721	-0.351	0.070
-655.886	-200.000	0.008	-0.353
-654.872	267.724	-0.166	0.290
-653.857	64.324	-0.133	-0.134
-652.843	-200.000	0.015	0.073
-651.828	-46.761	-0.169	0.083
-650.814	800.000	-0.065	-0.220
-649.799	169.732	0.104	0.148
-648.784	-7.943	0.139	0.094
-647.770	-200.000	0.007	-0.039
-646.755	800.000	0.104	-0.369
-645.741	341.086	-0.115	-0.224
-644.726	-200.000	0.006	0.251
-643.711	-126.254	-0.293	-0.044
-642.697	-24.894	0.284	0.169
-641.682	-45.160	0.198	-0.098
-640.668	800.000	0.037	-0.129
-639.653	-46.785	-0.167	-0.082
-638.638	-64.287	0.152	0.062
-637.624	-200.000	0.010	0.073
-636.609	244.085	0.332	-0.557
-635.595	-121.661	-0.234	0.039
-634.580	32.968	-0.167	0.144
-633.565	633.618	-0.135	-0.342
-632.551	278.623	-0.174	-0.310
-631.536	-63.247	-0.312	-0.128
-630.522	800.000	-0.107	-0.377
-629.507	42.212	-0.198	-0.180
-628.492	800.000	-0.044	0.174
-627.478	328.294	0.098	0.187
-626.463	179.762	-0.210	0.307
-625.449	-55.242	-0.160	-0.072
-624.434	800.000	0.075	0.213
-623.419	-130.424	-0.224	0.030
-622.405	-115.914	0.203	0.038
-621.390	-135.662	0.231	-0.027
-620.376	463.661	0.061	-0.135
-619.361	-61.114	0.251	0.106
-618.346	-200.000	0.044	0.218
-617.332	-151.449	-0.202	-0.015
-616.317	-107.991	0.396	-0.086
-615.303	150.227	-0.029	-0.039
-614.288	800.000	0.020	-0.057
-613.273	800.000	0.032	0.128
-612.259	-200.000	0.018	0.098
-611.244	29.866	-0.094	0.080
-610.230	-13.826	0.192	-0.124
-609.215	-79.172	0.466	-0.158
-608.201	-200.000	-0.076	0.343
-607.186	34.661	-0.243	-0.212
-606.171	-200.000	-0.018	-0.200
-605.157	-111.915	-0.073	0.015
-604.142	800.000	-0.062	-0.219
-603.128	79.511	-0.223	0.239
-602.113	-48.865	0.094	-0.045
-601.098	134.111	0.166	0.215
-600.084	-200.000	0.025	-0.218
-599.069	24.301	-0.082	-0.068
-598.055	-200.000	0.029	-0.387
-597.040	251.848	-0.109	-0.185
-596.025	800.000	-0.132	-0.564
-595.011	800.000	-0.021	-0.082
-593.996	368.811	-0.122	0.246
-592.982	-200.000	-0.023	-0.142
-591.967	324.775	0.096	0.182
-590.952	270.289	-0.107	0.187
-589.938	-55.917	-0.390	-0.173
-588.923	-125.044	-0.353	-0.054
-587.909	-115.559	0.178	0.033
-586.894	17.163	-0.135	-0.107
-585.879	45.889	0.190	0.175
-584.865	-14.212	0.225	-0.144
-583.850	-200.000	0.047	-0.235
-582.836	-57.305	0.173	-0.076
-581.821	454.291	0.041	0.090
-580.806	-11.748	-0.127	0.083
-579.792	179.919	-0.128	-0.186
-578.777	-123.626	-0.065	0.010
-577.763	-72.256	-0.377	-0.139
-576.748	80.997	-0.091	0.097
-575.733	59.752	-0.043	0.043
-574.719	-74.484	0.096	0.034
-573.704	-200.000	0.033	-0.182
-572.690	80.428	-0.331	-0.355
-571.675	800.000	0.113	-0.384
-570.661	-50.253	0.343	0.162
-569.646	309.417	0.146	-0.272
-568.631	163.520	-0.179	-0.251
-567.617	-41.466	0.007	-0.004
-566.602	58.982	-0.181	0.177
-565.588	-2.740	0.302	-0.210
-564.573	107.552	0.183	-0.217
-563.558	800.000	-0.055	0.173
-562.544	59.011	-0.061	-0.060
-561.529	-88.453	-0.107	0.032
-560.515	-200.000	-0.093	-0.452
-559.500	182.681	-0.143	-0.211
-558.485	-200.000	-0.024	-0.107
-557.471	80.908	-0.143	0.154
-556.456	-200.000	-0.011	0.428
-555.442	-200.000	-0.042	0.295
-554.427	-63.294	-0.168	-0.069
-553.412	-64.317	0.364	-0.148
-552.398	-144.757	-0.248	-0.023
-551.383	-38.902	-0.051	-0.027
-550.369	-62.405	-0.207	-0.086
-549.354	8.211	-0.016	0.012
-548.339	-200.000	0.007	0.102
-547.325	-174.437	0.352	0.010
-546.310	390.719	-0.081	-0.167
-545.296	134.065	0.338	-0.436
-544.281	-87.670	-0.030	-0.009
-543.266	397.929	-0.080	-0.167
-542.252	800.000	-0.093	0.354
-541.237	-200.000	-0.002	0.030
-540.223	-42.917	-0.177	0.089
-539.208	-138.612	-0.072	-0.008
-538.193	-200.000	-0.004	-0.143
-537.179	57.589	0.122	-0.118
-536.164	615.863	-0.080	0.198
-535.150	217.305	-0.081	0.129
-534.135	4.783	-0.119	-0.087
-533.121	793.496	0.011	-0.031
-532.106	176.350	-0.129	0.186
-531.091	152.068	-0.087	0.118
-530.077	321.421	-0.038	0.071
-529.062	-140.131	0.138	-0.014
-528.048	278.473	-0.170	0.301
-527.033	163.336	-0.215	0.300
-526.018	800.000	0.077	-0.260
-525.004	24.578	-0.344	0.283
-523.989	84.856	-0.142	-0.155
-522.975	-200.000	0.021	0.233
-521.960	-200.000	-0.041	-0.436
-520.945	-200.000	0.028	0.253
-519.931	-21.711	-0.054	0.032
-518.916	-48.445	0.269	-0.128
-517.902	-61.396	0.209	0.087
-516.887	25.085	0.286	0.236
-515.872	72.299	0.133	0.138
-514.858	108.214	-0.182	-0.215
-513.843	9.764	0.145	0.110
-512.829	297.709	0.076	-0.138
-511.814	349.814	0.227	0.446
-510.799	450.237	-0.144	-0.316
-509.785	285.750	0.128	0.229
-508.770	800.000	0.080	0.259
-507.756	131.393	0.221	0.282
-506.741	-135.330	0.256	-0.030
-505.726	97.296	-0.184	0.210
-504.712	565.171	0.088	0.212
-503.697	120.090	0.059	0.072
-502.683	207.625	-0.099	0.154
-501.668	375.956	0.120	0.244
-500.653	800.000	0.054	0.157
-499.639	732.818	0.046	0.121
-498.624	234.823	0.077	-0.126
-497.610	-143.882	0.524	0.049
-496.595	800.000	-0.060	0.228
-495.581	505.766	0.057	0.131
-494.566	800.000	-0.050	0.149
-493.551	-168.804	-0.278	0.010
-492.537	-99.666	-0.081	-0.020
-491.522	-200.000	-0.002	-0.100
-490.508	-164.247	-0.269	0.012
-489.493	-55.326	-0.171	0.076
-488.478	55.027	0.238	-0.228
-487.464	74.217	0.103	-0.107
-486.449	36.467	-0.111	0.097
-485.435	42.928	-0.021	-0.019
-484.420	46.627	-0.179	-0.165
-483.405	123.153	0.099	0.123
-482.391	112.517	-0.064	-0.077
-481.376	-200.000	0.029	0.170
-480.362	-143.243	0.200	-0.019
-479.347	149.797	0.176	-0.237
-478.332	591.747	0.068	-0.167
-477.318	-47.782	-0.312	-0.150
-476.303	-67.144	0.161	0.063
-475.289	-25.930	0.043	0.025
-474.274	-141.820	0.242	-0.024
-473.259	-200.000	-0.008	-0.321
-472.245	5.128	0.387	-0.283
-471.230	-63.112	0.154	0.063
-470.216	800.000	-0.042	0.144
-469.201	146.665	-0.198	0.265
-468.186	76.546	-0.007	-0.007
-467.172	800.000	0.034	0.107
-466.157	800.000	0.022	-0.090
-465.143	170.940	0.026	0.037
-464.128	4.244	0.128	-0.093
-463.113	-69.739	0.336	-0.127
-462.099	157.232	0.057	0.078
-461.084	800.000	-0.104	0.302
-460.070	-35.300	0.175	0.094
-459.055	643.228	-0.131	0.332
-458.040	-139.666	0.055	-0.006
-457.026	-200.000	-0.085	-0.604
-456.011	-80.769	0.219	-0.072
-454.997	-59.386	-0.032	0.014
-453.982	41.218	-0.163	0.146
-452.968	-143.741	-0.223	0.021
-451.953	283.226	0.060	0.108
-450.938	800.000	-0.031	0.092
-449.924	34.761	0.059	0.052
-448.909	-127.979	0.248	-0.035
-447.895	37.755	-0.299	0.263
-446.880	139.918	0.222	0.289
-445.865	124.136	0.110	-0.137
-444.851	-200.000	0.049	-0.286
-443.836	-56.436	0.092	-0.041
-442.822	-200.000	-0.012	-0.199
-441.807	800.000	-0.051	0.146
-440.792	800.000	-0.053	0.210
-439.778	-200.000	-0.029	-0.431
-438.763	-9.396	0.146	-0.097
-437.749	159.210	0.216	-0.298
-436.734	800.000	0.020	0.071
-435.719	306.686	-0.146	-0.270
-434.705	-200.000	-0.033	0.187
-433.690	24.122	-0.050	0.041
-432.676	226.217	-0.058	-0.093
-431.661	800.000	-0.061	0.194
-430.646	259.574	0.188	0.321
-429.632	-200.000	-0.034	0.321
-428.617	413.562	-0.213	-0.449
-427.603	47.422	-0.067	-0.062
-426.588	39.050	0.279	0.247
-425.573	-14.683	-0.287	-0.183
-424.559	365.612	-0.111	0.222
-423.544	800.000	-0.013	-0.044
-422.530	433.630	0.025	-0.053
-421.515	47.776	-0.203	-0.188
-420.500	-200.000	0.018	0.095
-419.486	-104.331	-0.205	0.047
-418.471	-127.359	-0.084	0.012
-417.457	241.162	-0.069	-0.114
-416.442	-78.007	-0.320	0.109
-415.428	21.969	0.081	0.065
-414.413	-91.982	0.103	0.029
-413.398	211.813	0.122	0.190
-412.384	-200.000	-0.032	-0.213
-411.369	-37.495	-0.122	0.064
-410.355	256.644	0.015	-0.025
-409.340	-173.441	-0.501	0.015
-408.325	111.882	-0.095	-0.113
-407.311	82.502	-0.201	-0.216
-406.296	800.000	-0.030	0.089
-405.282	800.000	0.034	0.112
-404.267	-159.037	-0.214	-0.012
-403.252	800.000	-0.043	-0.131
-402.238	-200.000	0.005	0.091
-401.223	-170.279	0.158	-0.006
-400.209	-200.000	0.026	-0.210
-399.194	-200.000	-0.012	-0.249
-398.179	48.947	-0.134	-0.125
-397.165	-34.145	-0.338	0.184
-396.150	-200.000	-0.001	0.130
-395.136	270.773	-0.101	0.175
-394.121	494.770	-0.091	-0.206
-393.106	-142.936	0.086	0.008
-392.092	-200.000	0.039	-0.359
-391.077	-46.843	0.206	0.100
-390.063	-116.694	-0.117	-0.021
-389.048	2.934	-0.078	0.056
-388.033	-84.898	0.229	-0.071
-387.019	81.200	0.098	-0.105
-386.004	122.587	0.127	0.157
-384.990	-200.000	0.102	0.463
-383.975	800.000	-0.087	-0.284
-382.960	106.060	0.268	0.314
-381.946	334.252	-0.044	0.085
-380.931	8.620	0.080	0.059
-379.917	583.224	0.048	0.116
-378.902	800.000	-0.064	-0.183
-377.888	-200.000	0.002	-0.020
-376.873	-143.562	-0.226	-0.021
-375.858	-74.404	-0.169	-0.060
-374.844	714.866	0.037	-0.098
-373.829	524.405	-0.031	0.072
-372.815	210.780	-0.078	0.121
-371.800	170.344	0.043	-0.061
-370.785	49.356	0.179	0.167
-369.771	169.333	0.261	-0.368
-368.756	-168.638	-0.100	-0.004
-367.742	468.028	0.194	-0.431
-366.727	59.685	0.108	0.105
-365.712	800.000	-0.028	-0.096
-364.698	-75.316	-0.249	0.088
-363.683	-200.000	0.010	-0.125
-362.669	-200.000	-0.038	0.220
-361.654	27.858	-0.322	-0.268
-360.639	-137.397	0.113	0.013
-359.625	-52.783	0.381	0.173
-358.610	-32.026	-0.212	-0.117
-357.596	-200.000	0.067	-0.295
-356.581	-8.315	-0.286	-0.190
-355.566	344.284	-0.141	0.273
-354.552	-93.221	-0.390	0.107
-353.537	77.531	-0.095	0.100
-352.523	31.479	0.123	-0.104
-351.508	289.096	-0.209	0.374
-350.493	800.000	0.067	0.192
-349.479	-74.751	-0.336	0.119
-348.464	64.887	-0.071	-0.071
-347.450	205.859	-0.232	-0.356
-346.435	66.413	-0.242	0.243
-345.420	201.572	0.143	0.217
-344.406	-91.885	0.257	-0.072
-343.391	-82.552	-0.264	-0.085
-342.377	-35.070	-0.232	-0.125
-341.362	391.362	-0.079	0.162
-340.348	800.000	0.040	0.145
-339.333	208.610	0.345	0.532
-338.318	-103.156	0.092	0.021
-337.304	348.871	0.028	0.055
-336.289	-200.000	0.039	0.279
-335.275	-200.000	0.017	-0.104
-334.260	-200.000	0.029	0.244
-333.245	215.113	-0.111	0.174
-332.231	2.201	0.226	-0.161
-331.216	-74.771	0.118	-0.042
-330.202	450.048	0.155	0.338
-329.187	800.000	-0.100	0.304
-328.172	-200.000	-0.049	0.253
-327.158	-81.261	-0.151	-0.049
-326.143	46.293	-0.304	0.278
-325.129	-200.000	0.027	-0.161
-324.114	53.285	0.076	-0.071
-323.099	-16.876	-0.281	0.175
-322.085	-81.182	0.044	0.014
-321.070	-197.408	0.147	0.001
-320.056	273.257	0.100	-0.174
-319.041	-50.990	0.264	-0.122
-318.026	281.759	-0.158	0.279
-317.012	-140.141	-0.533	-0.055
-315.997	127.914	0.166	-0.208
-314.983	-142.190	0.234	0.023
-313.968	193.431	0.112	-0.167
-312.953	-14.592	0.138	0.087
-311.939	35.427	0.339	0.293
-310.924	-45.803	-0.220	-0.107
-309.910	-200.000	0.029	-0.232
-308.895	415.771	-0.121	-0.255
-307.880	437.122	-0.120	-0.259
-306.866	-186.638	-0.204	0.003
-305.851	-100.729	0.415	-0.101
-304.837	-23.885	-0.119	0.070
-303.822	-79.272	-0.286	-0.096
-302.807	-130.688	0.226	-0.030
-301.793	-165.699	0.114	0.005
-300.778	-121.731	0.134	-0.022
-299.764	-200.000	-0.027	-0.174
-298.749	-178.902	0.274	0.006
-297.735	-88.736	-0.324	0.095
-296.720	28.355	-0.045	0.037
-295.705	-200.000	0.033	-0.360
-294.691	-36.758	-0.088	-0.046
-293.676	-51.104	-0.185	0.086
-292.662	-16.745	0.028	0.018
-291.647	144.818	-0.224	0.295
-290.632	-146.254	-0.155	0.013
-289.618	-112.770	0.108	0.021
-288.603	-100.634	0.405	0.098
-287.589	-134.334	-0.390	-0.047
-286.574	214.362	0.037	0.058
-285.559	40.686	0.071	0.063
-284.545	-200.000	0.016	-0.169
-283.530	-200.000	0.024	0.159
-282.516	-149.601	-0.212	0.017
-281.501	-35.250	-0.147	0.079
-280.486	8.155	0.228	0.169
-279.472	-46.566	0.163	-0.079
-278.457	18.578	0.258	-0.203
-277.443	-200.000	-0.017	0.230
-276.428	-164.668	0.244	0.011
-275.413	-200.000	-0.022	-0.276
-274.399	122.969	0.116	0.143
-273.384	-90.306	-0.102	-0.029
-272.370	219.153	-0.088	-0.138
-271.355	235.213	-0.241	0.391
-270.340	10.487	-0.110	-0.083
-269.326	-166.660	-0.207	0.008
-268.311	-139.954	0.343	0.036
-267.297	-86.686	0.239	0.072
-266.282	113.569	0.194	-0.232
-265.267	-88.606	-0.222	0.065
-264.253	215.069	0.133	0.207
-263.238	-62.483	-0.051	-0.021
-262.224	-54.292	0.428	0.191
-261.209	-148.079	-0.160	0.013
-260.195	800.000	-0.077	-0.281
-259.180	59.330	-0.094	-0.091
-258.165	-195.836	-0.171	0.001
-257.151	-74.122	0.204	0.073
-256.136	186.629	-0.084	0.123
-255.122	-83.932	-0.159	0.050
-254.107	-92.784	0.565	-0.155
-253.092	-55.788	-0.096	0.042
-252.078	672.729	0.029	0.074
-251.063	475.822	-0.119	-0.265
-250.049	132.677	-0.104	0.132
-249.034	533.383	-0.057	-0.132
-248.019	454.572	-0.080	-0.174
-247.005	0.255	-0.180	-0.126
-245.990	800.000	-0.074	0.241
-244.976	598.799	0.081	0.198
-243.961	-193.673	0.317	-0.003
-242.946	-32.178	-0.201	0.110
-241.932	-155.126	0.264	0.017
-240.917	-200.000	-0.012	0.125
-239.903	-85.890	-0.262	-0.080
-238.888	-46.716	-0.390	0.188
-237.873	34.618	0.134	-0.115
-236.859	800.000	-0.046	-0.178
-235.844	-200.000	-0.023	-0.183
-234.830	-200.000	0.035	-0.307
-233.815	78.269	0.077	-0.080
-232.800	-74.619	0.125	0.044
-231.786	436.190	-0.039	0.083
-230.771	112.196	-0.331	-0.393
-229.757	800.000	0.074	0.229
-228.742	-153.919	0.085	-0.006
-227.727	-107.855	-0.156	0.033
-226.713	-148.257	-0.178	-0.014
-225.698	-93.318	0.305	0.083
-224.684	-124.712	0.238	0.036
-223.669	-200.000	0.027	0.290
-222.655	-33.836	-0.120	0.065
-221.640	-60.361	0.340	0.142
-220.625	-76.786	-0.074	-0.025
-219.611	-67.405	-0.116	0.045
-218.596	-200.000	0.009	0.182
-217.582	6.404	-0.091	0.067
-216.567	-26.649	0.217	-0.124
-215.552	25.757	-0.147	-0.121
-214.538	-119.861	-0.237	-0.040
-213.523	-59.643	-0.301	-0.127
-212.509	-200.000	0.020	-0.420
-211.494	-65.364	0.203	0.080
-210.479	103.084	0.173	0.199
-209.465	-160.732	0.308	-0.016
-208.450	-74.111	0.197	0.070
-207.436	-200.000	-0.038	-0.000
-206.421	-72.054	0.079	0.029
-205.406	361.245	0.027	0.054
-204.392	103.959	0.255	-0.294
-203.377	350.621	-0.184	-0.358
-202.363	149.932	-0.099	-0.132
-201.348	-98.924	0.052	0.013
-200.333	800.000	0.077	0.252
-199.319	77.033	-0.169	-0.176
-198.304	800.000	0.099	-0.312
-197.290	800.000	-0.019	-0.051
-196.275	-96.877	0.074	0.019
-195.260	296.562	0.136	0.245
-194.246	800.000	-0.056	-0.175
-193.231	-200.000	-0.024	-0.412
-192.217	-25.414	0.144	-0.083
-191.202	115.863	0.244	0.293
-190.187	-200.000	-0.053	0.248
-189.173	-20.346	0.299	-0.181
-188.158	560.671	0.103	0.244
-187.144	-110.263	0.208	0.042
-186.129	-40.398	-0.141	-0.072
-185.114	-25.833	-0.235	0.136
-184.100	-136.905	0.139	-0.016
-183.085	188.027	-0.205	0.301
-182.071	-200.000	0.032	-0.167
-181.056	-200.000	0.013	0.187
-180.042	-22.397	0.003	-0.002
-179.027	-78.080	0.335	0.113
-178.012	74.322	-0.189	-0.194
-176.998	81.609	0.282	-0.299
-175.983	-200.000	-0.008	-0.182
-174.969	128.090	0.156	0.194
-173.954	-115.989	0.333	-0.061
-172.939	800.000	-0.065	-0.231
-171.925	134.851	0.019	-0.024
-170.910	-44.479	-0.219	0.107
-169.896	-171.362	-0.285	0.009
-168.881	233.163	-0.120	0.194
-167.866	113.316	0.221	0.263
-166.852	800.000	0.091	-0.341
-165.837	-200.000	-0.022	0.253
-164.823	-200.000	0.027	-0.189
-163.808	12.435	0.345	0.261
-162.793	19.720	0.125	0.098
-161.779	-60.201	-0.218	0.091
-160.764	35.780	-0.066	-0.057
-159.750	14.056	-0.239	0.182
-158.735	83.113	0.106	-0.113
-157.720	-149.637	0.337	-0.026
-156.706	563.940	0.053	-0.126
-155.691	678.123	0.074	0.188
-154.677	554.019	-0.042	0.098
-153.662	-200.000	0.000	0.301
-152.647	544.393	-0.060	0.139
-151.633	-200.000	0.014	0.094
-150.618	-200.000	0.054	-0.356
-149.604	191.924	0.098	0.145
-148.589	800.000	-0.014	0.052
-147.574	-200.000	-0.017	-0.151
-146.560	196.645	0.072	0.107
-145.545	-20.025	0.208	0.126
-144.531	684.263	0.085	0.217
-143.516	-72.044	0.249	-0.090
-142.502	-50.591	0.297	-0.137
-141.487	215.386	-0.090	-0.139
-140.472	-88.998	0.448	-0.130
-139.458	-200.000	-0.092	0.529
-138.443	-200.000	0.023	-0.137
-137.429	-78.809	0.326	0.109
-136.414	-40.863	0.233	0.118
-135.399	-200.000	-0.017	-0.197
-134.385	-7.469	-0.249	0.165
-133.370	-200.000	-0.058	0.288
-132.356	-141.757	0.036	0.004
-131.341	337.963	0.105	0.199
-130.326	-115.031	0.349	-0.065
-129.312	161.737	0.207	-0.284
-128.297	111.995	0.121	-0.143
-127.283	-200.000	0.007	0.193
-126.268	-109.391	-0.296	0.061
-125.253	214.492	0.119	0.185
-124.239	28.131	-0.156	-0.129
-123.224	-19.343	0.165	-0.100
-122.210	234.851	0.153	0.247
-121.195	-47.700	-0.220	-0.104
