DTS Sentinel unit serial number:	SN413079Multiplexer serial number:	ORYXHardware model number:	OX4-SRSoftware version number:	ORYX F/W v4.00 Oryx Data Collector v3.7.2.0data status	okinstallation	princeton_trtdifferential loss correction	single-endedforward channel	channel 1reverse channel	N/Adate	2019/09/12time	08:20:11forward acquisition time	60.00reverse acquisition time	0.00gamma	496.2192k internal	0.2313k external	0.2313temperature offset calibration	1.0039default loss term (dB/km)	0.3790temperature slope calibration	1.0000multiplexer offset coefficient	1.0000multiplexer slope coefficient	1.0000fibre end	0.00T internal ref (°C)	33.48T ext. ref 1 (°C)	1.69T ext. ref 2 (°C)	30.14length (m)	temperature (°C)	Stokes	anti-Stokes-747.200	-5.281	-0.014	0.010
-746.185	-63.982	-0.266	0.110
-745.171	-47.797	0.245	0.121
-744.156	222.306	-0.136	-0.221
-743.142	666.637	0.071	0.187
-742.127	-142.217	0.162	0.016
-741.112	800.000	0.048	-0.138
-740.098	2.323	0.092	0.068
-739.083	-48.184	0.284	0.139
-738.069	184.703	-0.144	0.217
-737.054	-91.844	0.492	-0.141
-736.039	-59.982	-0.133	0.058
-735.025	-87.670	-0.375	0.115
-734.010	294.388	-0.050	0.092
-732.996	-96.027	0.098	-0.026
-731.981	-16.383	0.160	-0.103
-730.966	-25.175	-0.145	-0.087
-729.952	-118.450	-0.322	0.058
-728.937	-19.385	-0.263	0.165
-727.923	-122.338	-0.085	-0.014
-726.908	-106.494	-0.188	0.043
-725.894	-119.872	-0.071	0.012
-724.879	213.922	-0.165	0.265
-723.864	515.520	-0.062	-0.146
-722.850	67.732	-0.143	0.148
-721.835	800.000	0.020	-0.063
-720.821	-200.000	0.000	0.276
-719.806	-101.121	-0.416	0.103
-718.791	-120.718	0.255	0.044
-717.777	800.000	0.111	-0.434
-716.762	350.990	-0.134	0.269
-715.748	48.831	0.194	0.184
-714.733	-140.409	0.314	-0.033
-713.718	-105.187	-0.269	0.062
-712.704	-20.295	-0.180	0.112
-711.689	268.103	-0.128	-0.226
-710.675	800.000	-0.055	0.227
-709.660	-139.948	0.288	0.031
-708.645	800.000	0.048	-0.197
-707.631	623.250	0.048	-0.123
-706.616	-24.565	0.250	-0.151
-705.602	800.000	-0.057	0.240
-704.587	-77.707	-0.405	0.142
-703.572	-110.242	-0.351	-0.074
-702.558	-124.010	-0.251	0.040
-701.543	50.544	-0.112	0.107
-700.529	800.000	-0.130	-0.375
-699.514	163.601	-0.049	0.070
-698.499	-200.000	0.005	0.097
-697.485	800.000	0.039	0.110
-696.470	-200.000	0.031	0.320
-695.456	800.000	-0.023	0.068
-694.441	26.248	-0.091	-0.077
-693.426	89.887	0.114	-0.128
-692.412	-119.631	-0.287	-0.050
-691.397	287.228	-0.043	-0.079
-690.383	-200.000	-0.002	-0.194
-689.368	42.641	-0.137	0.126
-688.354	-84.290	0.271	-0.087
-687.339	-200.000	-0.007	-0.053
-686.324	180.105	-0.176	-0.261
-685.310	169.882	-0.123	-0.177
-684.295	-18.927	-0.252	-0.159
-683.281	21.135	-0.280	0.230
-682.266	-4.128	-0.379	-0.266
-681.251	-200.000	-0.018	-0.131
-680.237	81.084	0.209	-0.228
-679.222	800.000	-0.031	-0.091
-678.208	-124.059	-0.236	-0.038
-677.193	-200.000	0.005	-0.192
-676.178	110.386	-0.154	-0.187
-675.164	-200.000	0.037	0.324
-674.149	800.000	-0.114	-0.338
-673.135	-200.000	0.011	0.100
-672.120	-92.546	0.253	0.072
-671.105	-200.000	-0.023	0.104
-670.091	197.861	-0.087	-0.135
-669.076	82.374	0.141	0.155
-668.062	-121.987	0.043	-0.007
-667.047	-200.000	-0.009	0.170
-666.032	48.666	-0.094	0.089
-665.018	-91.867	0.221	0.064
-664.003	17.985	-0.136	0.109
-662.989	110.360	0.074	-0.090
-661.974	-70.915	-0.165	0.063
-660.959	371.955	-0.246	-0.505
-659.945	-47.265	-0.094	-0.046
-658.930	-87.014	-0.172	-0.053
-657.916	529.932	-0.263	-0.629
-656.901	-44.872	0.181	0.091
-655.886	39.989	-0.109	-0.099
-654.872	-161.064	0.075	0.004
-653.857	150.778	0.233	-0.320
-652.843	-200.000	-0.026	-0.184
-651.828	184.772	0.260	-0.390
-650.814	-67.387	0.119	0.047
-649.799	-200.000	-0.009	0.338
-648.784	-200.000	-0.046	-0.346
-647.770	63.885	-0.187	-0.190
-646.755	226.477	-0.177	-0.290
-645.741	190.570	-0.269	0.409
-644.726	800.000	-0.122	0.414
-643.711	-200.000	0.014	-0.080
-642.697	35.433	-0.189	-0.167
-641.682	124.722	-0.175	-0.223
-640.668	-30.750	0.188	0.108
-639.653	-200.000	0.012	0.108
-638.638	162.088	-0.086	0.122
-637.624	412.885	0.165	-0.354
-636.609	-49.505	-0.233	0.112
-635.595	128.538	0.082	0.106
-634.580	-200.000	-0.027	-0.139
-633.565	-200.000	-0.022	-0.117
-632.551	5.274	0.124	-0.092
-631.536	-200.000	0.013	-0.061
-630.522	8.977	-0.192	-0.146
-629.507	800.000	0.125	-0.398
-628.492	10.148	-0.087	-0.067
-627.478	-200.000	0.035	0.191
-626.463	162.295	-0.101	0.143
-625.449	-97.362	0.274	0.072
-624.434	800.000	-0.051	0.200
-623.419	-200.000	-0.022	-0.299
-622.405	171.995	-0.140	0.203
-621.390	-75.836	0.197	0.071
-620.376	-78.074	-0.041	0.014
-619.361	800.000	0.048	0.140
-618.346	-92.810	-0.481	-0.136
-617.332	-126.292	-0.049	0.007
-616.317	-28.997	0.134	0.078
-615.303	16.094	0.182	0.145
-614.288	27.636	-0.174	-0.148
-613.273	-107.998	-0.285	-0.062
-612.259	-200.000	0.045	0.215
-611.244	800.000	-0.012	0.034
-610.230	-200.000	0.030	0.209
-609.215	155.727	-0.089	0.123
-608.201	131.569	0.130	-0.168
-607.186	302.845	0.090	0.169
-606.171	-110.344	-0.400	-0.084
-605.157	-5.737	-0.126	-0.087
-604.142	238.417	0.179	-0.299
-603.128	-83.220	-0.204	-0.066
-602.113	-134.213	0.050	0.006
-601.098	-186.614	0.128	0.002
-600.084	-74.511	0.058	0.021
-599.069	-119.822	-0.039	-0.007
-598.055	213.300	-0.137	0.218
-597.040	-135.921	0.061	-0.007
-596.025	266.842	-0.085	-0.150
-595.011	419.938	-0.032	0.069
-593.996	-132.225	0.232	-0.030
-592.982	500.590	0.092	-0.215
-591.967	-172.259	-0.266	0.009
-590.952	-53.192	-0.175	-0.081
-589.938	134.650	0.095	-0.124
-588.923	-117.948	0.121	0.022
-587.909	-200.000	0.012	-0.053
-586.894	-200.000	-0.003	0.409
-585.879	-200.000	0.024	0.292
-584.865	371.987	0.022	-0.045
-583.850	635.277	0.052	-0.133
-582.836	-119.038	-0.186	0.033
-581.821	39.482	-0.079	0.072
-580.806	-34.213	-0.171	-0.095
-579.792	-61.260	-0.294	0.125
-578.777	800.000	0.029	-0.114
-577.763	-200.000	0.028	-0.218
-576.748	-43.747	0.074	-0.037
-575.733	-4.213	-0.115	-0.080
-574.719	84.912	0.138	-0.152
-573.704	144.152	0.064	-0.086
-572.690	-44.294	-0.218	-0.110
-571.675	5.248	0.237	-0.176
-570.661	-46.544	-0.144	0.071
-569.646	-44.876	-0.074	0.037
-568.631	-113.868	-0.364	0.071
-567.617	305.192	0.108	-0.202
-566.602	181.894	-0.078	0.115
-565.588	69.964	0.214	0.223
-564.573	-187.331	-0.211	0.003
-563.558	193.678	0.025	-0.038
-562.544	-18.207	-0.180	0.113
-561.529	129.764	0.130	0.168
-560.515	163.935	0.170	-0.241
-559.500	-100.560	0.184	-0.046
-558.485	-51.539	0.266	0.125
-557.471	-200.000	-0.035	0.272
-556.456	-106.361	-0.523	-0.118
-555.442	138.709	-0.253	0.335
-554.427	-102.628	0.249	-0.060
-553.412	6.398	0.155	-0.116
-552.398	146.733	-0.037	0.050
-551.383	800.000	0.063	0.194
-550.369	-21.066	0.167	0.103
-549.354	287.031	0.129	0.235
-548.339	-36.806	-0.313	0.169
-547.325	-115.367	0.096	-0.018
-546.310	-64.300	0.157	0.064
-545.296	-200.000	0.015	0.078
-544.281	-200.000	-0.025	-0.348
-543.266	-8.780	-0.100	-0.068
-542.252	86.559	-0.236	-0.262
-541.237	-148.186	-0.256	-0.021
-540.223	800.000	-0.042	0.157
-539.208	369.189	0.095	0.193
-538.193	-87.589	0.138	0.042
-537.179	38.291	-0.099	-0.089
-536.164	216.771	0.193	0.309
-535.150	-200.000	0.012	0.280
-534.135	-98.380	0.257	0.066
-533.121	615.402	0.126	-0.318
-532.106	800.000	-0.039	0.113
-531.091	-172.964	0.325	-0.010
-530.077	800.000	-0.074	-0.210
-529.062	170.389	-0.098	0.142
-528.048	800.000	0.047	0.152
-527.033	-200.000	0.006	-0.207
-526.018	118.338	0.247	-0.306
-525.004	-52.561	0.182	0.085
-523.989	-80.074	-0.307	0.104
-522.975	63.361	0.229	-0.230
-521.960	244.131	0.155	-0.261
-520.945	-200.000	0.058	0.294
-519.931	-200.000	0.003	-0.053
-518.916	423.586	-0.100	0.217
-517.902	-84.236	0.027	0.009
-516.887	-30.677	0.141	0.080
-515.872	329.729	-0.066	-0.128
-514.858	13.351	-0.082	0.064
-513.843	68.037	0.249	-0.256
-512.829	727.640	0.090	-0.241
-511.814	607.132	-0.071	-0.179
-510.799	101.288	-0.204	0.238
-509.785	-200.000	-0.012	0.155
-508.770	30.411	0.053	-0.045
-507.756	76.516	0.144	0.154
-506.741	-200.000	0.049	0.262
-505.726	146.556	0.101	0.136
-504.712	-158.553	-0.052	-0.003
-503.697	-85.900	-0.098	0.030
-502.683	-115.436	0.377	0.071
-501.668	-46.416	-0.276	-0.136
-500.653	-72.209	-0.179	-0.067
-499.639	48.229	0.181	-0.170
-498.624	-22.368	-0.166	-0.101
-497.610	-176.504	0.065	0.002
-496.595	-26.329	0.178	-0.105
-495.581	-200.000	0.506	0.002
-494.566	570.757	-0.066	-0.161
-493.551	-103.431	0.180	0.043
-492.537	297.462	0.167	-0.309
-491.522	345.198	-0.056	-0.111
-490.508	-2.854	-0.017	0.012
-489.493	96.186	-0.142	0.163
-488.478	-72.006	0.242	-0.090
-487.464	-200.000	0.010	-0.091
-486.449	-55.010	0.051	0.023
-485.435	-47.329	0.278	0.136
-484.420	-31.338	0.262	0.148
-483.405	800.000	-0.059	0.191
-482.391	35.688	-0.134	0.119
-481.376	-200.000	-0.012	-0.645
-480.362	-115.034	0.253	-0.048
-479.347	-200.000	-0.033	0.242
-478.332	-87.394	-0.270	-0.082
-477.318	50.094	0.122	-0.115
-476.303	-200.000	0.255	0.001
-475.289	-84.014	-0.283	-0.090
-474.274	-200.000	-0.026	-0.152
-473.259	115.094	0.366	0.448
-472.245	-50.047	-0.125	-0.059
-471.230	-26.187	-0.082	0.048
-470.216	-11.330	0.176	-0.116
-469.201	-200.000	0.043	0.210
-468.186	-27.844	-0.415	0.242
-467.172	154.270	-0.045	0.062
-466.157	766.780	-0.034	-0.093
-465.143	183.772	-0.128	-0.190
-464.128	39.904	-0.276	0.249
-463.113	115.417	-0.055	0.068
-462.099	800.000	0.134	0.375
-461.084	24.498	-0.118	-0.098
-460.070	-200.000	-0.009	0.117
-459.055	-132.143	-0.544	0.071
-458.040	800.000	-0.054	-0.205
-457.026	112.030	-0.185	0.225
-456.011	-95.078	0.161	-0.044
-454.997	800.000	-0.036	-0.142
-453.982	-200.000	0.036	0.191
-452.968	-114.964	-0.137	-0.026
-451.953	-99.805	0.266	0.067
-450.938	202.370	-0.152	-0.236
-449.924	-200.000	-0.121	0.543
-448.909	316.257	-0.031	-0.059
-447.895	-18.985	-0.113	-0.070
-446.880	-200.000	-0.035	-0.212
-445.865	-68.905	-0.226	0.088
-444.851	-137.127	-0.372	0.043
-443.836	6.847	-0.057	0.043
-442.822	-157.523	0.419	-0.025
-441.807	-122.932	0.502	-0.081
-440.792	112.985	-0.153	-0.185
-439.778	167.460	0.089	0.127
-438.763	116.832	0.155	-0.190
-437.749	-127.230	0.143	0.021
-436.734	-139.799	-0.584	-0.062
-435.719	537.770	0.149	0.354
-434.705	21.876	0.332	0.271
-433.690	143.512	0.144	-0.192
-432.676	235.901	0.101	-0.167
-431.661	-200.000	0.024	0.216
-430.646	-58.474	0.266	0.116
-429.632	800.000	-0.070	-0.260
-428.617	118.749	0.158	-0.195
-427.603	9.186	0.099	-0.075
-426.588	-200.000	0.013	0.257
-425.573	-114.984	-0.326	0.062
-424.559	-67.811	0.357	-0.140
-423.544	-26.018	0.177	-0.104
-422.530	-49.872	-0.165	-0.079
-421.515	-29.177	0.071	0.041
-420.500	119.910	-0.078	-0.097
-419.486	-54.211	0.115	-0.052
-418.471	-58.178	0.224	-0.098
-417.457	-200.000	-0.030	0.283
-416.442	154.428	0.063	0.086
-415.428	-73.967	0.199	-0.072
-414.413	-83.259	0.180	-0.058
-413.398	135.770	-0.086	0.112
-412.384	-145.913	0.106	0.009
-411.369	435.354	0.035	0.076
-410.355	92.746	0.075	0.084
-409.340	-200.000	-0.064	0.421
-408.325	-200.000	0.020	0.326
-407.311	753.375	-0.097	-0.262
-406.296	-200.000	-0.024	0.223
-405.282	-101.184	-0.241	-0.059
-404.267	-122.308	0.092	0.015
-403.252	-119.526	-0.145	-0.025
-402.238	-82.436	0.166	-0.054
-401.223	178.639	-0.114	-0.166
-400.209	-117.986	0.159	0.029
-399.194	236.946	-0.023	-0.037
-398.179	-200.000	-0.014	0.093
-397.165	-17.753	-0.229	-0.144
-396.150	-124.254	-0.284	-0.045
-395.136	-200.000	-0.010	-0.219
-394.121	-200.000	0.066	-0.353
-393.106	329.575	0.102	0.196
-392.092	-200.000	-0.027	0.343
-391.077	29.714	0.261	-0.222
-390.063	-68.081	0.219	-0.085
-389.048	-200.000	-0.033	-0.202
-388.033	271.681	0.066	-0.117
-387.019	174.400	-0.101	-0.146
-386.004	-91.801	0.073	-0.021
-384.990	-89.819	-0.144	-0.042
-383.975	-183.763	-0.273	0.005
-382.960	-129.314	0.293	0.041
-381.946	143.827	0.161	0.215
-380.931	-179.073	-0.383	0.009
-379.917	-200.000	-0.027	0.137
-378.902	-6.386	0.139	-0.095
-377.888	800.000	-0.026	-0.091
-376.873	25.786	0.057	-0.048
-375.858	-34.757	-0.346	-0.189
-374.844	174.098	-0.042	-0.060
-373.829	800.000	0.117	0.356
-372.815	123.089	-0.183	0.229
-371.800	-200.000	0.023	-0.304
-370.785	56.313	0.078	-0.076
-369.771	-107.544	0.097	0.021
-368.756	-185.972	0.324	-0.005
-367.742	216.622	-0.094	0.150
-366.727	-32.752	0.239	0.133
-365.712	-200.000	0.077	0.408
-364.698	-200.000	-0.011	0.288
-363.683	800.000	-0.045	-0.134
-362.669	-67.353	-0.299	0.117
-361.654	-178.906	-0.110	-0.002
-360.639	-200.000	-0.005	0.281
-359.625	-200.000	-0.019	-0.094
-358.610	-122.406	-0.177	0.029
-357.596	-119.705	-0.281	-0.049
-356.581	-116.260	-0.436	-0.081
-355.566	-75.374	-0.139	0.049
-354.552	-112.114	0.297	-0.060
-353.537	-143.348	-0.338	-0.032
-352.523	-165.573	-0.284	-0.012
-351.508	-200.000	-0.022	-0.179
-350.493	115.155	-0.197	0.241
-349.479	617.540	-0.076	-0.191
-348.464	295.090	0.151	-0.276
-347.450	-56.073	0.227	0.101
-346.435	800.000	0.059	0.165
-345.420	27.214	0.253	-0.212
-344.406	800.000	-0.019	-0.081
-343.391	-153.711	0.163	0.011
-342.377	168.713	-0.119	0.169
-341.362	2.398	0.098	0.071
-340.348	96.565	0.173	0.198
-339.333	800.000	-0.086	-0.344
-338.318	102.089	-0.063	-0.074
-337.304	105.691	-0.015	-0.018
-336.289	-4.007	-0.136	-0.094
-335.275	800.000	0.100	-0.368
-334.260	173.401	-0.265	-0.382
-333.245	-38.115	-0.189	-0.100
-332.231	57.047	0.075	0.073
-331.216	-80.980	0.377	-0.125
-330.202	16.273	0.207	-0.163
-329.187	117.714	-0.290	-0.357
-328.172	203.109	-0.129	-0.199
-327.158	800.000	0.081	0.318
-326.143	800.000	0.055	-0.157
-325.129	-200.000	0.084	0.000
-324.114	480.325	-0.044	0.101
-323.099	-58.849	-0.214	-0.092
-322.085	-200.000	-0.020	0.366
-321.070	-47.725	0.275	0.133
-320.056	10.955	0.278	-0.212
-319.041	-200.000	-0.045	-0.246
-318.026	-88.141	-0.264	0.079
-317.012	800.000	-0.077	0.229
-315.997	-125.225	-0.182	-0.028
-314.983	-63.259	0.248	0.102
-313.968	-103.776	-0.187	-0.044
-312.953	-122.012	-0.136	0.022
-311.939	663.302	0.128	0.330
-310.924	251.081	-0.063	-0.106
-309.910	800.000	0.031	-0.103
-308.895	115.635	0.126	-0.153
-307.880	-34.744	0.084	0.046
-306.866	35.675	-0.292	0.256
-305.851	122.828	-0.062	-0.078
-304.837	800.000	-0.127	0.372
-303.822	294.021	-0.069	0.126
-302.807	56.027	0.239	0.231
-301.793	179.415	0.152	0.221
-300.778	57.980	-0.239	0.233
-299.764	-90.507	-0.069	-0.020
-298.749	252.672	-0.101	0.172
-297.735	-39.636	-0.365	-0.190
-296.720	-154.350	0.249	0.017
-295.705	-200.000	0.001	-0.068
-294.691	-24.335	0.162	-0.096
-293.676	-104.035	0.291	-0.067
-292.662	-200.000	0.016	-0.167
-291.647	72.223	0.208	-0.215
-290.632	182.123	-0.073	0.108
-289.618	-44.765	-0.437	-0.217
-288.603	135.617	0.107	0.139
-287.589	-138.718	-0.064	-0.007
-286.574	-118.439	0.257	-0.045
-285.559	-25.841	-0.321	-0.188
-284.545	430.179	0.058	-0.125
-283.530	800.000	-0.055	0.189
-282.516	-200.000	-0.053	-0.445
-281.501	9.195	0.438	0.330
-280.486	-159.583	-0.066	-0.004
-279.472	-45.286	-0.175	-0.087
-278.457	600.773	0.050	-0.123
-277.443	-200.000	0.068	0.452
-276.428	800.000	0.090	0.306
-275.413	-65.519	0.140	-0.056
-274.399	18.636	0.265	0.211
-273.384	-118.023	0.328	-0.058
-272.370	40.739	-0.053	0.048
-271.355	-163.472	-0.238	0.011
-270.340	234.742	-0.104	-0.170
-269.326	244.089	-0.051	-0.086
-268.311	800.000	0.024	-0.099
-267.297	-200.000	0.043	0.199
-266.282	-140.560	0.245	0.025
-265.267	246.362	-0.143	-0.240
-264.253	-30.800	0.023	0.013
-263.238	178.545	-0.177	-0.257
-262.224	92.050	0.108	-0.121
-261.209	-200.000	-0.021	-0.130
-260.195	104.615	-0.079	0.092
-259.180	-200.000	-0.001	0.245
-258.165	-20.742	0.378	-0.231
-257.151	-48.094	0.188	0.091
-256.136	800.000	-0.085	0.256
-255.122	-91.657	0.052	0.015
-254.107	62.567	0.160	-0.159
-253.092	257.760	0.116	-0.199
-252.078	4.001	0.235	-0.171
-251.063	-153.398	0.170	-0.012
-250.049	-200.000	-0.027	-0.247
-249.034	-200.000	0.034	0.393
-248.019	-111.270	-0.377	-0.077
-247.005	800.000	0.096	0.375
-245.990	308.693	-0.120	-0.223
-244.976	155.617	-0.053	0.073
-243.961	-200.000	-0.027	0.122
-242.946	312.598	0.179	-0.335
-241.932	72.187	-0.057	-0.059
-240.917	-200.000	0.011	0.097
-239.903	204.544	0.067	0.104
-238.888	48.594	-0.123	-0.115
-237.873	-147.130	0.283	-0.024
-236.859	-29.170	0.147	0.084
-235.844	-200.000	0.009	0.259
-234.830	-58.670	-0.027	0.012
-233.815	-179.497	-0.271	-0.006
-232.800	-157.603	0.218	-0.013
-231.786	82.817	-0.182	-0.196
-230.771	-200.000	-0.002	-0.080
-229.757	-200.000	0.016	0.138
-228.742	-140.773	0.153	0.016
-227.727	-64.670	-0.322	-0.130
-226.713	-46.647	0.143	-0.070
-225.698	343.534	0.035	0.069
-224.684	-92.082	-0.193	-0.054
-223.669	-109.346	0.171	-0.036
-222.655	-200.000	-0.057	-0.277
-221.640	-200.000	0.000	0.022
-220.625	184.129	-0.095	0.139
-219.611	-200.000	0.025	0.279
-218.596	-150.574	0.227	-0.017
-217.582	232.891	-0.143	-0.233
-216.567	-19.325	0.148	-0.091
-215.552	-15.818	0.073	0.046
-214.538	417.848	0.148	-0.314
-213.523	-167.875	-0.286	0.011
-212.509	800.000	-0.043	-0.167
-211.494	103.619	-0.161	0.188
-210.479	46.558	0.281	-0.259
-209.465	800.000	-0.049	0.190
-208.450	181.739	0.095	-0.139
-207.436	-200.000	-0.019	0.182
-206.421	-18.622	-0.346	0.214
-205.406	87.035	-0.181	0.198
-204.392	-119.897	-0.052	-0.009
-203.377	361.359	0.185	-0.369
-202.363	800.000	-0.079	-0.280
-201.348	1.283	0.133	0.095
-200.333	347.006	-0.088	-0.171
-199.319	482.848	0.058	0.131
-198.304	-200.000	-0.003	-0.195
-197.290	-134.950	-0.191	0.023
-196.275	48.068	-0.230	-0.213
-195.260	-200.000	-0.018	-0.211
-194.246	635.358	0.036	-0.092
-193.231	800.000	0.036	0.112
-192.217	639.574	0.111	0.281
-191.202	-78.085	-0.118	0.040
-190.187	-200.000	-0.002	0.040
-189.173	26.333	0.175	-0.145
-188.158	234.410	0.164	-0.269
-187.144	800.000	0.023	0.083
-186.129	-167.411	0.150	-0.006
-185.114	124.135	0.109	0.135
-184.100	76.378	-0.051	-0.054
-183.085	-103.964	0.210	-0.049
-182.071	445.128	0.027	0.060
-181.056	133.589	0.044	0.057
-180.042	-170.148	-0.102	-0.004
-179.027	198.936	0.238	0.361
-178.012	29.145	0.125	-0.105
-176.998	-143.177	-0.185	0.018
-175.983	413.196	-0.217	0.458
-174.969	385.668	0.043	0.089
-173.954	-187.965	0.356	0.005
-172.939	305.035	-0.138	-0.254
-171.925	-200.000	-0.003	0.122
-170.910	800.000	-0.015	-0.053
-169.896	-11.109	-0.242	0.158
-168.881	800.000	-0.165	0.480
-167.866	80.599	0.106	-0.113
-166.852	800.000	0.068	0.285
-165.837	117.619	-0.102	-0.125
-164.823	-39.716	-0.324	0.168
-163.808	-104.967	-0.144	0.033
-162.793	-85.330	-0.242	0.075
-161.779	-3.784	0.212	-0.146
-160.764	14.124	-0.132	-0.102
-159.750	64.836	-0.196	-0.196
-158.735	-42.939	-0.106	0.054
-157.720	167.172	-0.181	-0.255
-156.706	-134.436	0.166	-0.020
-155.691	232.100	0.131	0.213
-154.677	-11.262	0.337	-0.220
-153.662	-23.469	0.172	-0.102
-152.647	800.000	0.033	0.132
-151.633	-200.000	0.032	-0.160
-150.618	325.305	0.131	-0.249
-149.604	-165.735	-0.178	-0.008
-148.589	-73.101	-0.204	-0.074
-147.574	-200.000	0.031	-0.338
-146.560	-56.139	0.409	0.180
-145.545	800.000	0.140	-0.475
-144.531	800.000	0.018	-0.072
-143.516	-200.000	-0.020	0.396
-142.502	-121.919	0.161	0.026
-141.487	-95.529	-0.151	0.040
-140.472	-66.418	-0.101	0.040
-139.458	-200.000	-0.010	-0.285
-138.443	-10.849	0.133	0.087
-137.429	-200.000	-0.008	0.074
-136.414	-200.000	-0.001	-0.107
-135.399	-38.275	-0.042	-0.022
-134.385	-200.000	0.055	0.261
-133.370	800.000	0.092	0.294
-132.356	-200.000	-0.045	0.372
-131.341	1.934	0.102	0.073
-130.326	282.972	-0.086	-0.154
-129.312	198.736	0.110	0.167
-128.297	800.000	0.052	-0.202
-127.283	152.117	-0.072	0.097
-126.268	280.094	-0.122	0.216
-125.253	24.941	0.032	-0.026
-124.239	-124.882	0.257	-0.039
-123.224	-96.198	0.073	0.019
