DTS Sentinel unit serial number:	SN413079Multiplexer serial number:	ORYXHardware model number:	OX4-SRSoftware version number:	ORYX F/W v4.00 Oryx Data Collector v3.7.2.0data status	okinstallation	princeton_trtdifferential loss correction	single-endedforward channel	channel 1reverse channel	N/Adate	2019/09/15time	18:18:35forward acquisition time	60.00reverse acquisition time	0.00gamma	496.2192k internal	0.2290k external	0.2290temperature offset calibration	0.9932default loss term (dB/km)	0.3790temperature slope calibration	1.0000multiplexer offset coefficient	1.0000multiplexer slope coefficient	1.0000fibre end	0.00T internal ref (°C)	44.44T ext. ref 1 (°C)	6.62T ext. ref 2 (°C)	39.03length (m)	temperature (°C)	Stokes	anti-Stokes-747.200	-138.151	-0.147	-0.017
-746.185	-117.272	-0.174	-0.032
-745.171	136.816	-0.050	-0.067
-744.156	758.792	-0.072	0.199
-743.142	-47.051	-0.158	0.079
-742.127	119.416	0.081	0.103
-741.112	-102.335	-0.175	0.043
-740.098	-200.000	-0.026	-0.124
-739.083	-200.000	0.038	-0.292
-738.069	-200.000	0.041	0.299
-737.054	800.000	0.086	-0.298
-736.039	14.654	-0.157	-0.125
-735.025	28.062	0.239	-0.207
-734.010	-133.389	-0.365	-0.047
-732.996	31.594	-0.341	-0.300
-731.981	10.573	-0.178	-0.139
-730.966	-200.000	-0.047	0.280
-729.952	-112.892	0.063	0.013
-728.937	165.320	-0.200	-0.289
-727.923	-200.000	-0.018	-0.122
-726.908	800.000	-0.055	-0.228
-725.894	-20.291	-0.214	-0.135
-724.879	33.192	-0.249	-0.221
-723.864	2.857	-0.254	0.189
-722.850	-200.000	-0.002	-0.057
-721.835	286.833	0.125	0.232
-720.821	-200.000	0.011	0.248
-719.806	66.198	-0.097	0.101
-718.791	12.919	-0.301	0.238
-717.777	-200.000	0.036	-0.189
-716.762	-103.436	0.186	-0.045
-715.748	250.089	0.183	0.318
-714.733	-63.493	-0.138	-0.058
-713.718	-145.503	-0.049	-0.004
-712.704	-165.535	-0.155	-0.007
-711.689	35.465	0.119	-0.107
-710.675	-83.870	-0.449	-0.146
-709.660	-112.426	0.112	0.023
-708.645	-154.644	-0.363	0.025
-707.631	-15.996	0.104	0.068
-706.616	63.938	-0.333	0.342
-705.602	240.047	0.188	0.321
-704.587	-75.772	-0.143	-0.052
-703.572	2.836	-0.107	0.080
-702.558	-200.000	0.020	-0.268
-701.543	-47.428	0.091	0.045
-700.529	438.150	0.026	-0.057
-699.514	-200.000	-0.022	-0.122
-698.499	199.990	0.169	0.266
-697.485	-200.000	-0.031	0.193
-696.470	-87.671	-0.365	0.113
-695.456	-7.435	-0.333	-0.230
-694.441	156.624	-0.029	-0.042
-693.426	-27.955	-0.160	-0.095
-692.412	-200.000	-0.064	-0.341
-691.397	-141.197	-0.050	-0.005
-690.383	-9.943	0.223	0.152
-689.368	-200.000	0.001	0.243
-688.354	800.000	-0.023	-0.098
-687.339	-109.162	0.079	0.017
-686.324	77.595	0.115	0.126
-685.310	-67.248	-0.141	0.057
-684.295	43.170	-0.352	-0.328
-683.281	-148.332	-0.137	-0.011
-682.266	-103.139	-0.336	0.081
-681.251	-200.000	-0.007	0.074
-680.237	-47.670	0.084	-0.042
-679.222	108.306	0.035	-0.043
-678.208	800.000	0.134	-0.493
-677.193	-200.000	-0.037	-0.289
-676.178	23.670	-0.353	-0.297
-675.164	572.554	0.011	0.027
-674.149	-4.737	-0.325	-0.229
-673.135	-131.761	0.262	-0.035
-672.120	80.118	-0.207	-0.228
-671.105	-54.599	0.132	0.061
-670.091	22.779	-0.099	0.083
-669.076	-27.390	-0.291	-0.173
-668.062	-200.000	0.007	-0.167
-667.047	8.581	0.169	-0.130
-666.032	-101.940	0.179	0.044
-665.018	-76.048	-0.408	0.147
-664.003	-200.000	0.017	-0.364
-662.989	-49.610	-0.168	0.082
-661.974	800.000	-0.033	0.120
-660.959	234.157	-0.110	0.185
-659.945	-160.229	0.208	0.011
-658.930	118.031	-0.257	-0.324
-657.916	100.500	-0.132	0.156
-656.901	-200.000	0.017	-0.096
-655.886	-96.882	-0.180	0.048
-654.872	78.615	0.297	-0.324
-653.857	57.997	0.144	0.144
-652.843	-62.811	-0.160	-0.068
-651.828	115.366	0.090	-0.112
-650.814	-200.000	-0.044	-0.234
-649.799	-92.093	0.105	-0.030
-648.784	28.076	-0.208	0.179
-647.770	800.000	0.035	-0.137
-646.755	-146.147	0.264	0.024
-645.741	-14.092	-0.158	-0.104
-644.726	80.760	-0.045	-0.049
-643.711	237.341	0.055	0.093
-642.697	133.972	-0.035	0.046
-641.682	-3.231	0.278	0.198
-640.668	623.800	-0.129	-0.331
-639.653	43.708	0.102	-0.095
-638.638	111.796	0.161	0.198
-637.624	120.574	-0.278	-0.352
-636.609	39.659	-0.246	0.225
-635.595	-12.483	-0.325	-0.216
-634.580	-82.631	-0.177	-0.059
-633.565	-149.697	-0.193	0.016
-632.551	-70.979	0.133	0.051
-631.536	-200.000	-0.027	0.142
-630.522	502.409	0.191	0.451
-629.507	-9.159	-0.228	-0.156
-628.492	800.000	-0.093	-0.306
-627.478	-112.915	0.387	-0.078
-626.463	-145.462	-0.123	0.011
-625.449	16.822	-0.137	0.110
-624.434	11.658	0.311	0.243
-623.419	-33.161	0.244	-0.138
-622.405	265.523	0.081	-0.144
-621.390	76.220	-0.040	0.043
-620.376	800.000	0.070	-0.248
-619.361	-34.396	-0.070	-0.039
-618.346	800.000	-0.064	-0.263
-617.332	-49.187	0.196	-0.095
-616.317	-200.000	0.018	-0.253
-615.303	-178.142	0.065	-0.002
-614.288	1.808	0.221	-0.163
-613.273	144.137	0.093	0.127
-612.259	-111.954	0.278	0.057
-611.244	-168.623	0.193	0.007
-610.230	-5.416	-0.194	0.135
-609.215	-38.198	-0.175	0.095
-608.201	103.659	-0.047	-0.056
-607.186	36.379	0.255	-0.229
-606.171	9.314	0.090	-0.069
-605.157	800.000	-0.073	0.264
-604.142	-45.495	-0.131	0.066
-603.128	-57.888	0.427	-0.190
-602.113	800.000	0.039	0.117
-601.098	661.936	-0.076	0.200
-600.084	-200.000	0.036	-0.248
-599.069	-92.351	-0.113	0.032
-598.055	-200.000	-0.029	0.370
-597.040	64.454	0.094	-0.096
-596.025	800.000	-0.089	0.286
-595.011	53.749	0.192	0.188
-593.996	-108.491	-0.306	-0.067
-592.982	800.000	-0.062	-0.272
-591.967	-6.814	0.271	0.188
-590.952	169.071	0.241	0.351
-589.938	-200.000	-0.004	-0.215
-588.923	184.566	-0.152	0.229
-587.909	88.879	0.200	-0.226
-586.894	611.903	-0.096	-0.245
-585.879	128.241	-0.098	-0.128
-584.865	257.516	-0.090	-0.157
-583.850	-133.530	-0.356	-0.045
-582.836	800.000	0.099	0.397
-581.821	-71.881	0.228	0.087
-580.806	658.880	0.053	-0.138
-579.792	-92.364	-0.208	-0.060
-578.777	78.115	0.037	0.040
-577.763	-200.000	-0.017	0.110
-576.748	284.513	-0.033	0.061
-575.733	9.776	-0.290	-0.224
-574.719	-200.000	-0.008	0.180
-573.704	-30.014	0.142	0.082
-572.690	-40.595	-0.200	0.106
-571.675	-68.715	0.411	-0.162
-570.661	55.291	0.218	0.215
-569.646	342.619	0.100	0.199
-568.631	-58.386	0.065	-0.029
-567.617	800.000	0.048	-0.213
-566.602	800.000	-0.045	0.175
-565.588	36.533	0.130	-0.117
-564.573	-120.968	-0.147	0.025
-563.558	149.027	-0.074	-0.101
-562.544	126.351	-0.139	0.179
-561.529	81.101	-0.188	-0.206
-560.515	-6.763	-0.329	-0.227
-559.500	229.783	0.113	-0.187
-558.485	211.021	-0.139	-0.222
-557.471	-2.628	0.285	-0.203
-556.456	-200.000	0.007	0.073
-555.442	598.550	0.130	0.328
-554.427	-7.433	-0.106	0.073
-553.412	162.914	0.056	-0.081
-552.398	682.317	0.112	0.298
-551.383	3.713	-0.193	0.143
-550.369	269.449	0.256	0.458
-549.354	800.000	0.026	-0.103
-548.339	-78.549	-0.425	0.148
-547.325	60.243	-0.195	-0.197
-546.310	-21.485	0.135	-0.084
-545.296	367.484	-0.169	-0.347
-544.281	-91.127	0.091	0.026
-543.266	-200.000	0.070	0.000
-542.252	40.404	-0.191	-0.175
-541.237	-56.681	-0.238	0.107
-540.223	-200.000	0.041	-0.228
-539.208	-80.619	0.200	-0.068
-538.193	-118.334	0.081	-0.015
-537.179	-200.000	0.014	0.265
-536.164	435.500	0.188	0.415
-535.150	-98.713	0.185	-0.048
-534.135	64.637	0.330	0.338
-533.121	-200.000	-0.003	0.426
-532.106	-200.000	0.040	0.185
-531.091	220.089	-0.107	0.174
-530.077	-18.021	-0.297	-0.189
-529.062	11.277	0.263	-0.205
-528.048	800.000	-0.095	-0.317
-527.033	-59.962	0.165	-0.071
-526.018	54.103	0.061	0.060
-525.004	15.249	-0.227	0.181
-523.989	16.498	-0.302	-0.242
-522.975	-200.000	-0.060	-0.281
-521.960	325.337	0.065	0.127
-520.945	-101.494	0.328	-0.081
-519.931	-99.736	-0.448	-0.114
-518.916	-154.494	-0.032	0.002
-517.902	-200.000	-0.044	0.273
-516.887	175.677	0.070	0.103
-515.872	-107.493	-0.056	0.012
-514.858	-110.945	-0.456	-0.095
-513.843	761.111	-0.007	0.019
-512.829	637.553	-0.104	-0.267
-511.814	176.401	0.117	-0.173
-510.799	292.197	-0.072	0.134
-509.785	-189.781	-0.108	0.001
-508.770	369.279	0.015	-0.032
-507.756	-200.000	-0.019	-0.113
-506.741	-97.046	-0.130	0.035
-505.726	-200.000	0.005	0.258
-504.712	5.534	-0.214	-0.161
-503.697	379.140	0.196	-0.407
-502.683	800.000	-0.049	-0.205
-501.668	-33.543	0.131	0.074
-500.653	-12.242	-0.398	0.264
-499.639	182.263	-0.034	0.051
-498.624	98.304	0.056	0.066
-497.610	-15.152	0.213	0.138
-496.595	-124.943	-0.305	-0.048
-495.581	-200.000	-0.011	-0.070
-494.566	191.439	-0.138	0.211
-493.551	-49.354	-0.479	0.232
-492.537	242.010	-0.142	0.240
-491.522	-72.885	0.242	-0.090
-490.508	-83.359	0.096	0.031
-489.493	-42.545	-0.125	-0.065
-488.478	-126.695	0.206	-0.031
-487.464	62.887	-0.046	-0.046
-486.449	-200.000	0.004	-0.150
-485.435	-200.000	0.003	0.043
-484.420	-200.000	0.003	-0.170
-483.405	42.922	-0.162	0.150
-482.391	-117.344	-0.182	-0.033
-481.376	100.134	-0.039	-0.046
-480.362	-60.815	0.129	0.056
-479.347	800.000	-0.052	-0.193
-478.332	-14.615	-0.132	0.086
-477.318	800.000	-0.074	-0.210
-476.303	800.000	0.081	-0.276
-475.289	358.045	0.055	-0.111
-474.274	492.355	0.137	-0.319
-473.259	-200.000	0.021	-0.298
-472.245	126.425	-0.097	-0.124
-471.230	637.647	-0.104	-0.267
-470.216	216.140	-0.140	-0.226
-469.201	205.882	-0.075	-0.119
-468.186	-90.874	0.206	-0.060
-467.172	-109.482	-0.126	-0.027
-466.157	-91.553	-0.163	0.047
-465.143	-200.000	-0.033	-0.242
-464.128	800.000	-0.050	0.157
-463.113	2.177	-0.101	-0.074
-462.099	249.302	-0.130	0.223
-461.084	-95.872	0.104	-0.028
-460.070	-182.254	-0.308	-0.006
-459.055	-200.000	0.017	-0.256
-458.040	67.044	-0.363	0.375
-457.026	-200.000	-0.006	0.059
-456.011	-125.008	0.180	0.028
-454.997	24.744	0.211	0.177
-453.982	-8.350	0.021	-0.014
-452.968	-103.129	0.055	0.013
-451.953	-97.720	-0.097	0.025
-450.938	392.955	0.063	0.134
-449.924	-60.160	-0.197	0.085
-448.909	-33.340	0.095	-0.053
-447.895	-200.000	0.029	-0.233
-446.880	80.830	-0.090	-0.098
-445.865	-14.257	-0.277	0.181
-444.851	-200.000	-0.083	0.528
-443.836	108.561	-0.161	-0.194
-442.822	-63.838	0.240	-0.099
-441.807	-200.000	0.033	-0.385
-440.792	-2.624	-0.087	-0.062
-439.778	419.582	-0.064	0.140
-438.763	-200.000	-0.091	0.411
-437.749	-61.518	0.113	0.048
-436.734	-28.433	-0.188	0.110
-435.719	-105.995	-0.285	0.065
-434.705	10.498	-0.061	0.047
-433.690	800.000	0.056	0.247
-432.676	503.697	0.111	-0.261
-431.661	-53.912	0.054	0.025
-430.646	777.184	0.106	-0.293
-429.632	-31.703	-0.101	0.057
-428.617	-93.932	-0.268	-0.075
-427.603	86.143	0.129	0.144
-426.588	229.449	-0.119	-0.197
-425.573	-68.407	-0.080	0.031
-424.559	197.155	-0.189	-0.292
-423.544	292.761	0.190	-0.351
-422.530	-94.936	0.129	0.035
-421.515	420.108	0.086	0.186
-420.500	337.337	-0.072	0.142
-419.486	90.356	-0.158	-0.179
-418.471	214.299	0.139	0.222
-417.457	-200.000	0.104	0.000
-416.442	-200.000	-0.015	0.263
-415.428	-151.454	0.176	0.013
-414.413	-200.000	0.013	0.124
-413.398	258.523	0.095	-0.165
-412.384	-67.437	-0.172	-0.068
-411.369	-141.109	0.220	-0.023
-410.355	-200.000	0.053	0.277
-409.340	-37.444	0.477	0.258
-408.325	-104.763	-0.168	-0.039
-407.311	142.805	0.044	0.059
-406.296	-200.000	0.060	0.360
-405.282	730.298	0.163	0.441
-404.267	-147.638	-0.127	-0.011
-403.252	-194.516	0.355	-0.003
-402.238	-124.913	-0.133	-0.021
-401.223	800.000	0.035	0.145
-400.209	-200.000	-0.002	-0.021
-399.194	-144.107	-0.069	0.006
-398.179	7.527	0.417	0.315
-397.165	249.625	-0.147	0.251
-396.150	-81.450	-0.195	0.065
-395.136	134.782	0.114	-0.149
-394.121	-112.794	-0.227	0.046
-393.106	-77.410	-0.058	-0.020
-392.092	-94.570	0.202	0.055
-391.077	800.000	-0.009	-0.033
-390.063	-23.608	0.071	0.043
-389.048	-54.108	0.152	-0.070
-388.033	567.720	-0.170	-0.416
-387.019	45.766	0.069	-0.064
-386.004	135.467	-0.037	-0.048
-384.990	22.539	0.139	0.115
-383.975	153.013	-0.040	-0.055
-382.960	-128.044	-0.034	0.005
-381.946	-64.350	-0.102	-0.042
-380.931	-100.866	0.262	0.065
-379.917	-93.421	0.240	-0.067
-378.902	-17.118	0.198	0.126
-377.888	110.884	-0.280	0.340
-376.873	-76.236	0.014	0.005
-375.858	-200.000	-0.002	-0.297
-374.844	-165.750	-0.279	0.012
-373.829	-200.000	-0.000	-0.291
-372.815	384.103	0.086	-0.178
-371.800	142.691	0.118	-0.158
-370.785	114.437	-0.092	-0.113
-369.771	800.000	0.030	-0.122
-368.756	37.548	-0.192	0.172
-367.742	215.515	0.029	-0.047
-366.727	-79.010	-0.220	0.076
-365.712	-146.548	0.102	-0.009
-364.698	109.787	0.148	0.180
-363.683	-44.989	0.311	-0.156
-362.669	264.936	-0.030	-0.053
-361.654	-80.350	0.147	0.050
-360.639	18.142	0.094	0.076
-359.625	-2.884	0.097	0.069
-358.610	-200.000	0.035	-0.323
-357.596	-80.845	-0.120	-0.040
-356.581	327.589	-0.151	0.291
-355.566	65.347	0.264	0.269
-354.552	-200.000	0.000	0.255
-353.537	200.777	0.078	0.121
-352.523	-35.429	-0.059	-0.032
-351.508	73.920	-0.080	0.085
-350.493	-30.246	-0.192	0.110
-349.479	-163.692	0.361	-0.017
-348.464	30.942	0.154	-0.133
-347.450	21.639	0.122	-0.100
-346.435	177.599	0.056	-0.082
-345.420	-104.858	0.470	-0.109
-344.406	587.110	-0.189	-0.470
-343.391	-130.691	-0.133	-0.018
-342.377	192.100	-0.133	-0.202
-341.362	-153.953	-0.059	0.004
-340.348	649.086	0.049	0.126
-339.333	51.301	0.026	-0.025
-338.318	-149.678	0.201	-0.016
-337.304	-200.000	-0.004	-0.228
-336.289	-169.067	0.240	0.009
-335.275	800.000	-0.022	-0.066
-334.260	488.302	0.139	0.321
-333.245	-106.776	-0.237	-0.053
-332.231	41.433	-0.287	-0.262
-331.216	-143.784	0.177	0.017
-330.202	-73.227	-0.111	0.041
-329.187	-93.893	0.067	-0.019
-328.172	-200.000	-0.003	0.213
-327.158	-136.706	0.163	-0.019
-326.143	26.423	-0.284	-0.239
-325.129	-92.294	-0.089	-0.025
-324.114	267.981	-0.070	0.123
-323.099	-200.000	-0.026	-0.294
-322.085	-95.299	0.294	-0.080
-321.070	-42.503	0.221	-0.114
-320.056	-75.383	0.223	-0.080
-319.041	-49.686	-0.234	-0.112
-318.026	-21.232	-0.193	0.119
-317.012	-77.790	0.200	-0.070
-315.997	-183.353	0.281	-0.005
-314.983	580.820	0.063	-0.155
-313.968	-200.000	-0.059	-0.298
-312.953	-191.759	-0.173	-0.002
-311.939	-74.904	-0.137	0.050
-310.924	800.000	0.038	0.150
-309.910	-200.000	-0.034	0.182
-308.895	269.692	-0.131	-0.231
-307.880	79.798	0.276	0.299
-306.866	-200.000	0.029	0.205
-305.851	104.564	-0.039	0.046
-304.837	-200.000	0.042	0.499
-303.822	800.000	0.058	-0.223
-302.807	-15.950	0.194	0.124
-301.793	336.129	0.169	0.331
-300.778	-178.472	0.124	-0.003
-299.764	800.000	0.060	-0.252
-298.749	-120.030	-0.011	0.002
-297.735	800.000	-0.061	0.216
-296.720	138.433	-0.102	0.135
-295.705	-66.529	0.152	0.061
-294.691	-70.815	-0.227	0.086
-293.676	105.416	0.109	-0.129
-292.662	-133.127	-0.087	0.011
-291.647	-157.876	-0.265	-0.016
-290.632	72.913	-0.184	0.194
-289.618	39.879	0.092	-0.083
-288.603	565.436	0.048	0.117
-287.589	-147.046	0.241	0.021
-286.574	137.599	0.097	0.127
-285.559	158.158	0.098	0.136
-284.545	-200.000	0.026	0.138
-283.530	-131.694	-0.071	0.009
-282.516	257.834	-0.105	-0.181
-281.501	-200.000	-0.009	0.163
-280.486	315.925	0.152	-0.289
-279.472	-102.818	0.309	-0.074
-278.457	-154.560	0.331	-0.022
-277.443	135.051	-0.073	-0.095
-276.428	60.277	0.246	-0.245
-275.413	-196.708	-0.383	-0.003
-274.399	-7.753	0.179	-0.122
-273.384	-52.380	-0.354	0.165
-272.370	70.630	0.020	0.021
-271.355	23.955	-0.009	-0.007
-270.340	511.328	0.144	-0.337
-269.326	-200.000	0.058	-0.380
-268.311	69.823	0.193	-0.200
-267.297	-37.730	0.231	0.124
-266.282	18.824	-0.336	-0.271
-265.267	-87.234	0.167	0.051
-264.253	77.209	-0.139	0.149
-263.238	-200.000	-0.001	0.201
-262.224	-5.147	0.193	-0.134
-261.209	-102.524	-0.185	0.045
-260.195	-185.544	-0.122	-0.002
-259.180	-111.787	0.206	-0.042
-258.165	-120.615	0.240	-0.041
-257.151	-6.104	0.073	0.050
-256.136	-53.875	-0.215	0.098
-255.122	10.773	0.221	0.170
-254.107	-71.121	0.217	0.082
-253.092	-15.478	0.104	0.067
-252.078	-139.238	-0.298	-0.032
-251.063	46.604	-0.286	-0.267
-250.049	-200.000	0.002	0.474
-249.034	-147.520	0.233	-0.020
-248.019	800.000	0.044	0.149
-247.005	561.811	-0.128	-0.311
-245.990	-123.710	-0.291	-0.046
-244.976	396.128	-0.011	0.024
-243.961	-20.156	0.249	0.154
-242.946	738.315	-0.149	0.401
-241.932	-141.046	-0.347	-0.036
-240.917	286.951	-0.148	0.268
-239.903	-0.897	0.240	0.171
-238.888	-118.554	-0.245	0.043
-237.873	-26.616	0.261	-0.153
-236.859	800.000	-0.091	0.303
-235.844	-200.000	-0.039	-0.283
-234.830	217.190	0.030	0.048
-233.815	670.681	-0.051	0.132
-232.800	-200.000	-0.044	0.315
-231.786	-158.381	-0.111	0.006
-230.771	178.836	-0.037	-0.054
-229.757	40.886	0.045	-0.041
-228.742	34.737	0.288	0.253
-227.727	-111.343	0.330	-0.068
-226.713	47.930	-0.235	0.220
-225.698	22.257	0.140	-0.115
-224.684	800.000	0.021	-0.093
-223.669	-200.000	0.006	-0.027
-222.655	-200.000	0.013	0.063
-221.640	-200.000	0.041	0.195
-220.625	-200.000	0.029	-0.170
-219.611	273.594	-0.188	-0.333
-218.596	-200.000	0.052	-0.320
-217.582	579.160	0.069	-0.170
-216.567	233.784	-0.116	0.192
-215.552	-148.539	-0.564	-0.046
-214.538	260.242	-0.031	-0.053
-213.523	-200.000	-0.024	-0.284
-212.509	77.974	0.092	-0.099
-211.494	44.623	0.155	-0.143
-210.479	286.750	-0.017	-0.030
-209.465	-92.628	-0.434	-0.122
-208.450	-15.683	-0.302	-0.193
-207.436	155.292	0.180	-0.249
-206.421	-137.420	0.159	-0.018
-205.406	139.750	0.207	0.274
-204.392	86.213	-0.234	0.258
-203.377	-200.000	-0.198	-0.001
-202.363	304.859	0.148	-0.276
-201.348	90.012	0.273	0.306
-200.333	2.703	0.064	-0.047
-199.319	491.171	0.093	-0.213
-198.304	-169.677	-0.095	-0.003
-197.290	-200.000	0.021	0.282
-196.275	-11.530	0.398	-0.262
-195.260	-200.000	0.015	0.139
-194.246	-200.000	0.016	-0.126
-193.231	-200.000	0.001	0.326
-192.217	-200.000	-0.038	0.233
-191.202	-68.691	-0.261	0.101
-190.187	-65.793	-0.345	-0.138
-189.173	104.260	0.135	0.159
-188.158	365.878	0.134	0.270
-187.144	26.859	-0.064	-0.054
-186.129	56.648	-0.111	0.108
-185.114	-79.595	0.166	0.056
-184.100	-3.794	0.156	0.108
-183.085	-139.711	-0.213	-0.023
-182.071	-200.000	-0.026	-0.330
-181.056	19.410	0.134	0.108
-180.042	-104.616	-0.097	-0.022
-179.027	167.315	0.034	-0.048
-178.012	30.259	-0.180	0.154
-176.998	800.000	-0.076	-0.266
-175.983	-200.000	-0.035	-0.460
-174.969	163.340	0.109	0.154
-173.954	-46.623	0.175	0.086
-172.939	59.513	0.125	0.124
-171.925	30.365	0.307	-0.263
-170.910	28.715	-0.196	-0.166
-169.896	-200.000	-0.054	0.261
-168.881	169.095	0.154	0.219
-167.866	-84.626	-0.107	-0.034
-166.852	-64.575	0.042	0.017
-165.837	-200.000	-0.015	0.107
-164.823	-106.820	-0.286	-0.063
-163.808	428.155	0.046	0.099
-162.793	-72.228	-0.500	-0.186
-161.779	225.321	0.037	-0.061
-160.764	65.068	0.057	0.058
-159.750	-200.000	-0.001	-0.306
-158.735	-200.000	-0.009	-0.132
-157.720	-36.257	0.135	0.073
-156.706	800.000	-0.080	0.251
-155.691	800.000	-0.071	-0.251
-154.677	334.909	-0.092	0.178
-153.662	469.981	0.066	0.149
-152.647	242.165	-0.067	0.112
-151.633	37.463	0.102	-0.091
-150.618	-200.000	0.033	-0.204
-149.604	800.000	-0.010	0.044
-148.589	-200.000	-0.021	0.191
-147.574	-87.728	0.134	0.041
-146.560	342.860	0.114	-0.224
-145.545	-149.394	-0.342	-0.027
-144.531	800.000	-0.104	0.343
-143.516	-57.804	0.149	0.065
-142.502	-32.735	0.199	-0.111
-141.487	-200.000	0.041	0.416
-140.472	-74.694	0.269	0.097
-139.458	-100.164	-0.205	0.051
-138.443	-77.424	0.261	-0.091
-137.429	-74.092	-0.089	0.032
-136.414	200.123	-0.291	-0.447
-135.399	-25.273	0.118	0.070
-134.385	171.141	-0.125	0.179
-133.370	-43.570	-0.372	-0.188
-132.356	-37.270	0.320	-0.171
-131.341	-200.000	-0.044	0.202
-130.326	-200.000	-0.017	0.309
-129.312	-100.824	0.102	-0.025
-128.297	139.144	0.044	-0.057
-127.283	800.000	0.044	-0.134
-126.268	25.173	-0.311	0.258
-125.253	357.655	0.112	0.224
-124.239	-83.654	-0.180	0.057
-123.224	126.536	-0.145	0.183
-122.210	-200.000	0.013	-0.144
-121.195	-9.026	-0.242	-0.162
