DTS Sentinel unit serial number:	SN413079Multiplexer serial number:	ORYXHardware model number:	OX4-SRSoftware version number:	ORYX F/W v4.00 Oryx Data Collector v3.7.2.0data status	okinstallation	princeton_trtdifferential loss correction	single-endedforward channel	channel 1reverse channel	N/Adate	2019/09/15time	13:10:35forward acquisition time	60.00reverse acquisition time	0.00gamma	496.2192k internal	0.2296k external	0.2296temperature offset calibration	0.9980default loss term (dB/km)	0.3790temperature slope calibration	1.0000multiplexer offset coefficient	1.0000multiplexer slope coefficient	1.0000fibre end	0.00T internal ref (°C)	36.92T ext. ref 1 (°C)	4.96T ext. ref 2 (°C)	34.90length (m)	temperature (°C)	Stokes	anti-Stokes-747.200	-200.000	0.008	0.225
-746.185	20.428	-0.174	0.144
-745.171	19.770	-0.128	-0.105
-744.156	715.262	-0.098	0.266
-743.142	-89.133	0.332	0.100
-742.127	25.618	0.030	0.026
-741.112	-54.999	-0.192	-0.088
-740.098	186.191	0.052	0.078
-739.083	490.132	0.076	-0.178
-738.069	800.000	0.031	0.136
-737.054	442.487	0.065	-0.146
-736.039	-151.271	-0.244	-0.019
-735.025	800.000	-0.081	0.345
-734.010	800.000	0.074	0.327
-732.996	86.254	-0.255	-0.287
-731.981	-151.118	-0.141	-0.011
-730.966	158.386	0.212	-0.300
-729.952	800.000	0.054	0.219
-728.937	-200.000	0.014	-0.104
-727.923	-100.912	0.224	0.056
-726.908	385.710	0.083	-0.175
-725.894	-200.000	0.000	0.126
-724.879	-113.890	-0.108	-0.021
-723.864	-79.667	-0.030	-0.010
-722.850	-126.315	0.112	0.017
-721.835	-161.100	-0.266	-0.014
-720.821	83.550	-0.032	-0.036
-719.806	-200.000	0.008	-0.202
-718.791	-200.000	-0.064	-0.329
-717.777	-200.000	0.021	0.340
-716.762	74.087	-0.162	0.174
-715.748	387.124	0.067	0.140
-714.733	-88.876	0.148	0.045
-713.718	352.584	-0.188	-0.380
-712.704	659.950	0.120	-0.316
-711.689	145.153	-0.094	-0.129
-710.675	501.824	-0.097	-0.229
-709.660	-200.000	0.022	-0.302
-708.645	-185.280	0.143	-0.002
-707.631	21.037	-0.075	-0.062
-706.616	-154.300	0.402	-0.028
-705.602	7.164	0.250	0.190
-704.587	800.000	0.038	0.165
-703.572	500.111	-0.070	0.165
-702.558	20.811	-0.357	-0.295
-701.543	-200.000	0.014	-0.160
-700.529	-34.083	0.059	-0.033
-699.514	-24.140	-0.297	0.181
-698.499	-16.772	0.195	-0.126
-697.485	-200.000	-0.079	-0.449
-696.470	256.863	-0.139	-0.244
-695.456	-9.762	0.149	0.101
-694.441	800.000	0.039	-0.120
-693.426	-95.694	0.333	-0.091
-692.412	-17.865	-0.340	0.218
-691.397	316.512	0.046	0.088
-690.383	-200.000	0.001	-0.099
-689.368	299.996	-0.129	0.243
-688.354	800.000	0.089	-0.364
-687.339	1.667	0.079	0.058
-686.324	-200.000	0.018	0.383
-685.310	734.214	-0.139	-0.379
-684.295	422.154	0.083	0.182
-683.281	55.838	0.102	-0.101
-682.266	51.923	-0.266	-0.258
-681.251	-200.000	-0.020	0.241
-680.237	-114.556	0.080	0.016
-679.222	-2.971	-0.139	0.099
-678.208	94.981	-0.174	-0.201
-677.193	-83.899	-0.159	0.052
-676.178	-150.723	-0.142	-0.011
-675.164	-15.166	0.338	-0.220
-674.149	-66.240	-0.400	-0.163
-673.135	-200.000	0.018	-0.103
-672.120	436.006	-0.105	-0.232
-671.105	30.831	0.281	-0.245
-670.091	422.493	0.073	-0.159
-669.076	168.181	-0.083	0.120
-668.062	-95.278	0.024	-0.007
-667.047	111.488	-0.148	0.182
-666.032	-20.829	-0.298	0.186
-665.018	-200.000	0.004	0.177
-664.003	-96.063	-0.363	-0.098
-662.989	6.826	-0.167	0.126
-661.974	-100.351	0.112	0.028
-660.959	-57.314	0.238	-0.107
-659.945	685.303	0.081	0.216
-658.930	-18.931	0.344	-0.218
-657.916	-92.381	-0.082	-0.023
-656.901	-2.374	0.052	0.037
-655.886	-192.280	-0.243	0.002
-654.872	367.305	-0.079	-0.162
-653.857	-99.866	0.097	0.025
-652.843	-132.871	-0.078	0.010
-651.828	239.173	0.210	-0.355
-650.814	332.313	0.047	0.093
-649.799	-53.317	-0.171	-0.080
-648.784	-200.000	0.031	0.233
-647.770	800.000	0.029	-0.093
-646.755	-22.212	-0.114	-0.071
-645.741	800.000	-0.034	-0.133
-644.726	-60.403	0.281	0.122
-643.711	-86.061	-0.249	0.078
-642.697	800.000	0.120	-0.358
-641.682	-157.158	-0.059	0.004
-640.668	-38.747	-0.342	-0.183
-639.653	-153.224	0.134	-0.010
-638.638	196.530	0.159	-0.246
-637.624	-200.000	-0.044	-0.325
-636.609	590.626	0.110	-0.277
-635.595	-200.000	0.017	0.221
-634.580	127.784	-0.114	0.148
-633.565	75.402	-0.166	-0.178
-632.551	-200.000	-0.010	-0.354
-631.536	-200.000	0.001	0.013
-630.522	456.506	0.090	0.203
-629.507	55.746	-0.260	-0.257
-628.492	-17.145	-0.148	-0.095
-627.478	800.000	0.070	-0.253
-626.463	1.598	0.220	-0.161
-625.449	-128.080	-0.309	-0.045
-624.434	-115.912	0.118	-0.022
-623.419	141.700	0.062	0.083
-622.405	497.036	0.114	0.266
-621.390	315.540	0.208	0.399
-620.376	163.805	0.093	0.133
-619.361	-169.463	0.152	-0.006
-618.346	-200.000	0.001	-0.089
-617.332	-200.000	-0.048	0.274
-616.317	-96.074	-0.193	0.052
-615.303	-200.000	-0.020	-0.183
-614.288	80.834	0.089	0.097
-613.273	72.433	-0.077	0.081
-612.259	-131.023	0.177	-0.024
-611.244	-76.164	0.141	0.050
-610.230	697.744	0.098	-0.262
-609.215	-161.362	0.245	0.013
-608.201	-185.908	0.331	-0.005
-607.186	-63.368	-0.174	0.073
-606.171	800.000	-0.030	-0.119
-605.157	517.770	0.049	0.116
-604.142	-200.000	0.089	0.469
-603.128	39.411	0.051	-0.047
-602.113	642.946	-0.037	0.095
-601.098	103.446	-0.165	-0.196
-600.084	-97.500	-0.207	-0.055
-599.069	-67.315	0.165	-0.066
-598.055	-68.961	-0.450	0.176
-597.040	800.000	0.067	0.241
-596.025	-120.004	0.143	0.025
-595.011	800.000	0.077	0.239
-593.996	-23.142	-0.225	-0.137
-592.982	800.000	0.081	-0.305
-591.967	-143.382	-0.457	-0.044
-590.952	800.000	0.070	0.209
-589.938	47.923	0.162	-0.154
-588.923	133.497	0.051	0.067
-587.909	-86.769	0.082	-0.025
-586.894	-200.000	-0.001	0.100
-585.879	149.360	0.081	0.112
-584.865	164.875	0.185	-0.265
-583.850	-116.667	-0.074	-0.014
-582.836	-176.590	-0.138	-0.004
-581.821	-200.000	-0.025	0.313
-580.806	800.000	-0.035	0.106
-579.792	-200.000	-0.033	-0.224
-578.777	-148.518	0.367	-0.030
-577.763	6.742	-0.274	0.207
-576.748	800.000	-0.080	0.267
-575.733	-200.000	-0.090	0.442
-574.719	-200.000	0.022	0.105
-573.704	221.532	-0.114	0.187
-572.690	-56.607	-0.216	0.097
-571.675	-63.936	0.125	-0.052
-570.661	-43.089	-0.075	-0.038
-569.646	-11.039	0.174	0.117
-568.631	-42.095	-0.238	-0.123
-567.617	-5.334	0.029	-0.020
-566.602	-12.873	0.098	-0.065
-565.588	-90.493	-0.397	-0.117
-564.573	-0.986	-0.186	0.134
-563.558	-0.593	-0.149	-0.107
-562.544	169.653	0.102	-0.148
-561.529	33.563	-0.420	-0.370
-560.515	135.184	0.133	0.176
-559.500	66.975	0.096	0.099
-558.485	-200.000	-0.009	0.147
-557.471	362.290	0.059	0.119
-556.456	-131.704	-0.086	0.011
-555.442	-88.843	-0.163	0.049
-554.427	49.155	0.092	-0.088
-553.412	-200.000	-0.044	0.217
-552.398	-78.514	0.347	0.120
-551.383	103.990	0.054	-0.065
-550.369	164.997	0.121	0.173
-549.354	-11.572	0.152	-0.101
-548.339	800.000	0.069	-0.209
-547.325	-200.000	0.020	-0.205
-546.310	-138.922	-0.126	-0.014
-545.296	269.741	0.215	-0.382
-544.281	147.345	-0.247	-0.337
-543.266	2.132	-0.211	0.155
-542.252	-200.000	0.002	-0.231
-541.237	112.714	0.265	-0.326
-540.223	-200.000	0.037	-0.177
-539.208	38.348	-0.156	0.141
-538.193	-83.603	0.179	-0.058
-537.179	-200.000	-0.010	-0.166
-536.164	-200.000	-0.053	-0.489
-535.150	64.436	-0.195	0.199
-534.135	19.281	-0.233	-0.190
-533.121	-76.942	-0.335	0.119
-532.106	-126.326	0.034	-0.005
-531.091	800.000	-0.052	-0.150
-530.077	-16.067	-0.318	0.205
-529.062	-137.607	0.214	0.024
-528.048	-33.514	-0.256	-0.143
-527.033	67.436	-0.073	0.076
-526.018	44.472	-0.308	-0.287
-525.004	-130.276	-0.380	0.052
-523.989	-111.189	-0.372	0.077
-522.975	-91.769	-0.283	0.082
-521.960	529.068	0.155	0.369
-520.945	12.333	-0.177	-0.138
-519.931	79.701	-0.232	0.252
-518.916	698.949	0.089	0.237
-517.902	-39.978	-0.103	-0.055
-516.887	-47.822	-0.104	-0.051
-515.872	88.732	-0.282	0.318
-514.858	-129.060	0.198	0.028
-513.843	-47.924	0.343	-0.168
-512.829	800.000	-0.152	0.585
-511.814	128.293	0.208	0.268
-510.799	21.496	0.265	-0.218
-509.785	-200.000	0.032	0.241
-508.770	142.921	-0.179	0.241
-507.756	-40.570	-0.228	0.120
-506.741	-94.266	0.223	0.062
-505.726	-163.494	0.367	0.018
-504.712	166.094	-0.256	-0.367
-503.697	155.972	0.056	-0.077
-502.683	186.229	-0.104	0.157
-501.668	203.047	0.194	-0.304
-500.653	172.776	-0.115	-0.168
-499.639	83.282	0.092	0.102
-498.624	-59.305	0.149	0.065
-497.610	-200.000	-0.031	-0.184
-496.595	202.882	0.134	0.209
-495.581	244.718	-0.177	-0.301
-494.566	-85.485	-0.270	-0.085
-493.551	-86.500	0.397	-0.123
-492.537	-136.869	-0.185	-0.021
-491.522	179.650	-0.073	0.109
-490.508	-9.313	0.094	0.064
-489.493	40.484	-0.208	-0.190
-488.478	33.105	0.256	0.225
-487.464	210.991	-0.134	0.214
-486.449	-20.550	-0.216	0.134
-485.435	235.659	-0.136	0.227
-484.420	345.840	0.083	-0.164
-483.405	-147.253	-0.152	-0.013
-482.391	-200.000	-0.004	-0.052
-481.376	669.263	-0.105	-0.275
-480.362	37.309	-0.253	0.227
-479.347	130.312	-0.151	-0.195
-478.332	270.349	-0.162	-0.288
-477.318	800.000	-0.066	0.248
-476.303	1.417	-0.152	0.111
-475.289	233.238	-0.144	-0.239
-474.274	265.084	-0.027	-0.047
-473.259	-200.000	-0.086	-0.391
-472.245	-61.554	0.430	-0.183
-471.230	-200.000	0.036	0.175
-470.216	102.675	0.091	0.107
-469.201	-69.483	-0.352	-0.137
-468.186	-46.908	-0.240	-0.118
-467.172	49.289	0.153	-0.145
-466.157	573.394	-0.003	-0.009
-465.143	-200.000	-0.059	0.386
-464.128	800.000	0.131	0.434
-463.113	-200.000	0.066	-0.458
-462.099	-200.000	0.005	-0.081
-461.084	331.433	0.099	-0.193
-460.070	-200.000	-0.040	0.201
-459.055	800.000	-0.036	-0.153
-458.040	-131.242	-0.225	-0.030
-457.026	-101.375	0.235	0.058
-456.011	164.653	0.246	0.350
-454.997	-21.812	-0.234	-0.144
-453.982	321.303	-0.257	-0.493
-452.968	-200.000	0.004	0.230
-451.953	-79.266	0.350	-0.120
-450.938	345.684	0.076	0.151
-449.924	-117.673	0.232	0.042
-448.909	-200.000	0.019	0.107
-447.895	65.288	0.143	0.146
-446.880	-62.601	0.234	-0.098
-445.865	-200.000	-0.008	-0.432
-444.851	153.837	-0.163	0.226
-443.836	-75.078	-0.243	-0.088
-442.822	800.000	0.010	-0.028
-441.807	800.000	0.005	-0.016
-440.792	-6.569	0.343	0.236
-439.778	-52.618	-0.220	0.102
-438.763	-56.497	0.170	0.076
-437.749	168.069	0.084	-0.121
-436.734	-34.562	0.275	0.152
-435.719	223.888	-0.156	0.254
-434.705	-13.535	-0.080	0.053
-433.690	-94.065	-0.202	0.056
-432.676	-200.000	0.004	0.080
-431.661	155.544	-0.102	0.142
-430.646	-65.527	0.178	0.072
-429.632	-200.000	0.005	0.086
-428.617	384.934	-0.100	0.207
-427.603	-200.000	-0.063	0.288
-426.588	40.679	-0.120	0.109
-425.573	-20.988	-0.238	0.147
-424.559	-200.000	0.068	-0.369
-423.544	6.200	0.167	-0.125
-422.530	145.182	0.131	-0.177
-421.515	106.695	0.122	0.147
-420.500	142.743	-0.240	-0.321
-419.486	763.834	0.048	0.132
-418.471	-11.684	0.086	0.057
-417.457	800.000	-0.118	-0.434
-416.442	-106.492	0.272	-0.061
-415.428	295.228	-0.037	0.069
-414.413	562.463	-0.032	0.078
-413.398	746.232	-0.089	0.242
-412.384	800.000	-0.062	0.271
-411.369	-66.779	-0.118	-0.047
-410.355	33.503	-0.227	-0.199
-409.340	-200.000	-0.013	0.221
-408.325	-153.326	-0.165	-0.012
-407.311	-114.172	0.510	0.099
-406.296	87.917	-0.388	0.434
-405.282	-11.911	-0.108	0.071
-404.267	759.441	-0.049	0.133
-403.252	-104.973	-0.052	-0.012
-402.238	119.824	-0.054	-0.067
-401.223	135.121	0.188	0.246
-400.209	127.695	-0.036	0.046
-399.194	292.286	0.067	0.123
-398.179	-66.302	-0.164	-0.066
-397.165	-200.000	-0.031	-0.513
-396.150	-200.000	-0.017	-0.162
-395.136	257.322	-0.213	-0.369
-394.121	38.512	0.102	0.091
-393.106	-36.558	0.410	-0.223
-392.092	182.173	-0.109	0.162
-391.077	-0.843	-0.157	0.112
-390.063	-142.228	0.269	0.027
-389.048	-200.000	0.018	0.425
-388.033	72.513	-0.230	0.242
-387.019	-186.130	0.275	0.004
-386.004	-73.633	-0.071	0.026
-384.990	-24.445	0.120	-0.072
-383.975	-200.000	0.050	0.398
-382.960	-130.415	0.232	-0.032
-381.946	-109.016	0.616	-0.132
-380.931	86.081	-0.050	0.056
-379.917	186.840	-0.156	-0.234
-378.902	-156.260	-0.271	-0.017
-377.888	-200.000	-0.018	-0.176
-376.873	-200.000	0.159	-0.001
-375.858	-200.000	-0.006	0.142
-374.844	101.005	0.263	-0.308
-373.829	64.223	-0.289	0.293
-372.815	-131.213	-0.173	0.023
-371.800	-200.000	-0.005	-0.059
-370.785	75.413	-0.080	0.085
-369.771	800.000	-0.135	0.410
-368.756	456.007	-0.045	0.101
-367.742	222.821	-0.079	0.128
-366.727	52.952	-0.174	0.168
-365.712	38.743	0.117	-0.105
-364.698	-200.000	0.081	0.367
-363.683	206.159	-0.197	-0.309
-362.669	109.787	-0.320	0.386
-361.654	771.642	-0.050	0.136
-360.639	-76.042	-0.114	-0.040
-359.625	669.767	0.043	0.113
-358.610	417.093	-0.169	-0.363
-357.596	-36.743	0.298	-0.161
-356.581	-200.000	0.012	-0.447
-355.566	-108.795	0.389	0.084
-354.552	-143.156	-0.120	-0.012
-353.537	-37.561	-0.340	-0.182
-352.523	800.000	0.089	-0.360
-351.508	800.000	-0.038	0.128
-350.493	408.699	0.138	-0.294
-349.479	-3.660	-0.103	0.072
-348.464	-88.732	-0.268	0.080
-347.450	-68.618	0.276	0.108
-346.435	349.359	0.061	-0.121
-345.420	-104.960	-0.268	-0.062
-344.406	40.255	0.312	-0.282
-343.391	-73.578	-0.185	-0.068
-342.377	91.822	0.181	-0.205
-341.362	-42.780	-0.207	0.106
-340.348	800.000	-0.040	0.110
-339.333	800.000	-0.124	0.367
-338.318	-52.757	0.052	-0.024
-337.304	259.129	0.075	-0.129
-336.289	99.549	0.203	0.236
-335.275	54.082	-0.170	-0.165
-334.260	282.291	0.072	0.129
-333.245	-145.007	0.227	-0.021
-332.231	-200.000	0.018	-0.257
-331.216	-40.797	0.173	-0.090
-330.202	-42.079	-0.083	0.043
-329.187	-49.647	-0.162	0.078
-328.172	36.055	-0.305	-0.270
-327.158	57.349	0.265	-0.260
-326.143	83.617	0.105	-0.115
-325.129	60.380	0.263	-0.261
-324.114	35.065	-0.067	-0.059
-323.099	-99.274	-0.304	-0.077
-322.085	-200.000	-0.004	-0.213
-321.070	252.513	0.103	-0.177
-320.056	-149.699	0.350	0.028
-319.041	-88.768	-0.304	0.091
-318.026	5.923	0.140	0.104
-317.012	151.743	-0.085	0.116
-315.997	40.407	-0.151	-0.136
-314.983	-11.442	0.195	-0.129
-313.968	125.828	0.092	0.117
-312.953	158.641	-0.097	0.135
-311.939	-8.482	0.063	-0.042
-310.924	5.906	0.245	0.182
-309.910	-200.000	-0.025	0.168
-308.895	-119.198	-0.333	-0.058
-307.880	-200.000	-0.004	-0.409
-306.866	678.165	0.100	0.261
-305.851	286.164	0.059	-0.107
-304.837	-148.069	0.269	-0.022
-303.822	253.044	-0.119	0.204
-302.807	-200.000	0.006	0.164
-301.793	-200.000	-0.024	0.302
-300.778	-73.057	0.356	-0.131
-299.764	-78.400	-0.278	-0.096
-298.749	-157.044	0.210	0.013
-297.735	-138.028	-0.153	-0.017
-296.720	-200.000	0.005	-0.031
-295.705	-106.844	-0.282	0.063
-294.691	-111.749	0.240	-0.049
-293.676	189.640	0.090	0.135
-292.662	10.129	0.210	0.160
-291.647	-95.364	0.206	0.056
-290.632	-115.362	0.071	0.013
-289.618	164.639	0.251	0.355
-288.603	-8.010	0.160	0.108
-287.589	69.344	-0.022	0.023
-286.574	-77.897	0.301	-0.104
-285.559	76.493	0.105	-0.111
-284.545	288.757	0.090	0.164
-283.530	-200.000	-0.038	-0.222
-282.516	313.949	-0.098	0.186
-281.501	-50.730	0.038	-0.018
-280.486	98.127	-0.096	0.111
-279.472	460.124	-0.129	0.287
-278.457	540.624	0.122	0.293
-277.443	266.183	-0.163	-0.285
-276.428	-82.974	-0.123	0.040
-275.413	-150.072	-0.395	-0.031
-274.399	-29.268	-0.047	0.027
-273.384	-91.765	-0.213	0.061
-272.370	-200.000	-0.058	-0.451
-271.355	-79.284	0.138	0.047
-270.340	116.566	0.090	0.111
-269.326	7.355	-0.210	-0.157
-268.311	-138.664	-0.046	0.005
-267.297	-4.150	0.216	0.150
-266.282	-15.751	-0.190	0.122
-265.267	511.973	-0.126	0.295
-264.253	-200.000	0.019	0.282
-263.238	800.000	0.079	-0.247
-262.224	-58.208	0.057	0.025
-261.209	-52.243	0.119	-0.055
-260.195	800.000	0.044	-0.123
-259.180	187.375	0.164	-0.245
-258.165	-11.465	-0.288	0.190
-257.151	-200.000	0.020	-0.135
-256.136	-111.848	0.392	0.079
-255.122	-75.926	0.173	0.061
-254.107	-200.000	0.038	0.281
-253.092	519.144	-0.061	-0.144
-252.078	-200.000	0.003	0.153
-251.063	576.905	0.308	-0.753
-250.049	-200.000	0.012	0.162
-249.034	581.189	-0.067	-0.163
-248.019	-93.069	0.244	-0.068
-247.005	800.000	0.024	-0.094
-245.990	-50.003	0.247	-0.117
-244.976	-29.328	0.345	-0.198
-243.961	-19.951	0.146	-0.090
-242.946	131.643	0.184	0.238
-241.932	395.691	0.040	0.084
-240.917	34.341	0.321	0.281
-239.903	74.453	0.049	0.052
-238.888	202.269	0.045	-0.069
-237.873	-200.000	-0.030	-0.219
-236.859	-112.986	0.141	0.028
-235.844	261.425	-0.118	-0.204
-234.830	-136.730	-0.129	0.015
-233.815	800.000	-0.061	-0.258
-232.800	-48.098	0.087	0.042
-231.786	92.853	0.065	0.074
-230.771	-167.414	-0.290	-0.012
-229.757	-78.086	-0.090	-0.031
-228.742	-87.540	0.231	0.070
-227.727	-200.000	-0.011	-0.092
-226.713	118.320	0.193	0.238
-225.698	148.376	-0.148	0.201
-224.684	-89.246	0.135	-0.040
-223.669	-82.529	0.191	0.062
-222.655	-111.052	0.359	0.074
-221.640	-141.044	-0.299	0.031
-220.625	800.000	0.029	-0.101
-219.611	-139.868	-0.234	0.025
-218.596	416.999	0.067	0.144
-217.582	-154.177	-0.151	0.010
-216.567	245.312	0.081	0.137
-215.552	-37.534	-0.411	-0.220
-214.538	91.310	0.176	-0.198
-213.523	391.528	0.247	-0.512
-212.509	-115.703	0.352	0.066
-211.494	800.000	-0.036	-0.141
-210.479	100.247	-0.139	-0.161
-209.465	245.236	0.125	-0.210
-208.450	264.289	0.186	0.324
-207.436	118.359	-0.156	-0.192
-206.421	-127.699	-0.153	0.022
-205.406	-161.324	0.171	0.009
-204.392	102.897	0.104	-0.122
-203.377	-23.303	-0.066	-0.040
-202.363	118.072	-0.165	-0.204
-201.348	32.510	0.214	0.185
-200.333	-58.312	-0.129	-0.056
-199.319	-200.000	0.056	0.279
-198.304	26.428	-0.178	-0.149
-197.290	-131.488	0.258	0.034
-196.275	-200.000	-0.027	0.168
-195.260	-200.000	0.043	0.228
-194.246	-54.489	0.156	0.071
-193.231	800.000	0.032	0.114
-192.217	83.120	0.259	-0.282
-191.202	-81.389	-0.067	-0.022
-190.187	379.456	-0.174	-0.357
-189.173	384.291	0.029	-0.061
-188.158	132.965	0.205	0.265
-187.144	74.110	0.283	0.297
-186.129	-130.346	-0.233	0.032
-185.114	5.735	0.373	-0.276
-184.100	-13.547	-0.232	0.150
-183.085	-200.000	-0.008	0.058
-182.071	-30.713	-0.271	0.153
-181.056	-115.947	0.307	-0.057
-180.042	-200.000	-0.024	0.117
-179.027	620.702	-0.066	-0.165
-178.012	-75.959	-0.140	-0.050
-176.998	45.547	-0.241	0.222
-175.983	-200.000	-0.012	-0.110
-174.969	-153.351	-0.377	0.026
-173.954	-15.050	-0.146	0.094
-172.939	800.000	0.070	-0.301
-171.925	800.000	0.022	0.089
-170.910	543.343	0.034	-0.082
-169.896	-200.000	0.012	0.098
-168.881	800.000	-0.035	-0.126
-167.866	-39.599	0.187	0.098
-166.852	-79.480	-0.166	0.056
-165.837	166.716	0.141	0.200
-164.823	-200.000	0.048	-0.538
-163.808	-147.730	-0.115	-0.010
-162.793	164.158	-0.153	-0.215
-161.779	-102.881	0.266	0.063
-160.764	-97.448	-0.092	0.024
-159.750	-200.000	0.008	0.035
-158.735	-96.111	0.178	-0.047
-157.720	-12.693	0.188	-0.123
-156.706	-158.153	-0.163	-0.010
-155.691	-18.447	-0.104	-0.065
-154.677	-84.088	0.139	0.044
-153.662	60.103	0.152	0.150
-152.647	256.655	-0.025	0.043
-151.633	310.436	0.127	0.238
-150.618	372.658	-0.049	-0.100
-149.604	-200.000	0.038	-0.222
-148.589	112.406	-0.191	0.231
-147.574	29.558	-0.205	0.174
-146.560	-8.492	0.285	0.191
-145.545	-51.130	0.228	-0.106
-144.531	-114.329	0.151	-0.029
-143.516	92.999	-0.101	-0.114
-142.502	800.000	0.072	-0.249
-141.487	281.490	0.160	-0.285
-140.472	123.463	0.273	-0.342
-139.458	4.202	-0.180	-0.132
-138.443	-200.000	-0.009	0.304
-137.429	319.883	0.153	-0.290
-136.414	-66.718	-0.163	-0.064
-135.399	-91.425	-0.348	-0.099
-134.385	20.705	-0.287	0.232
-133.370	800.000	0.014	0.058
-132.356	14.661	-0.127	-0.099
-131.341	-148.997	-0.354	-0.028
-130.326	-115.512	0.361	-0.068
-129.312	252.677	0.069	-0.117
-128.297	800.000	0.046	0.171
-127.283	-79.502	0.338	-0.114
-126.268	-157.816	-0.200	0.012
-125.253	102.737	0.245	-0.286
-124.239	800.000	0.007	-0.022
-123.224	-29.391	-0.198	-0.113
-122.210	-200.000	0.003	0.050
-121.195	69.889	-0.168	-0.172
