DTS Sentinel unit serial number:	SN413079Multiplexer serial number:	ORYXHardware model number:	OX4-SRSoftware version number:	ORYX F/W v4.00 Oryx Data Collector v3.7.2.0data status	okinstallation	princeton_trtdifferential loss correction	single-endedforward channel	channel 1reverse channel	N/Adate	2019/09/18time	00:26:35forward acquisition time	60.00reverse acquisition time	0.00gamma	496.2192k internal	0.2340k external	0.2340temperature offset calibration	0.9977default loss term (dB/km)	0.3790temperature slope calibration	1.0000multiplexer offset coefficient	1.0000multiplexer slope coefficient	1.0000fibre end	0.00T internal ref (°C)	23.56T ext. ref 1 (°C)	0.16T ext. ref 2 (°C)	17.15length (m)	temperature (°C)	Stokes	anti-Stokes-747.200	-200.000	-0.064	0.459
-746.185	286.371	-0.076	0.137
-745.171	800.000	0.013	0.048
-744.156	-200.000	0.006	0.606
-743.142	-200.000	0.009	-0.293
-742.127	-200.000	-0.079	0.447
-741.112	-120.570	-0.214	-0.036
-740.098	-140.159	-0.256	0.027
-739.083	260.460	-0.091	0.158
-738.069	-5.533	0.225	0.154
-737.054	-200.000	-0.038	0.227
-736.039	-112.995	-0.274	0.054
-735.025	800.000	-0.024	0.069
-734.010	-145.498	-0.317	0.029
-732.996	-74.911	-0.413	-0.148
-731.981	800.000	-0.026	-0.105
-730.966	29.871	0.387	-0.330
-729.952	800.000	-0.066	0.282
-728.937	18.631	-0.200	-0.160
-727.923	-200.000	0.025	0.204
-726.908	-200.000	-0.017	0.393
-725.894	-62.401	0.330	-0.137
-724.879	-178.255	-0.106	0.002
-723.864	-139.123	-0.254	0.028
-722.850	478.431	-0.057	0.130
-721.835	-200.000	-0.062	-0.343
-720.821	-87.148	-0.231	-0.070
-719.806	8.030	-0.224	-0.168
-718.791	-39.005	0.012	0.006
-717.777	198.170	0.105	0.161
-716.762	-90.715	-0.055	-0.016
-715.748	-200.000	0.046	-0.208
-714.733	181.363	-0.341	-0.502
-713.718	462.459	-0.047	-0.104
-712.704	17.744	-0.091	0.073
-711.689	-200.000	0.011	-0.273
-710.675	45.591	0.297	0.274
-709.660	44.579	-0.162	-0.149
-708.645	-59.760	0.234	0.100
-707.631	-78.366	-0.221	-0.076
-706.616	86.185	0.053	-0.059
-705.602	119.044	0.042	0.052
-704.587	157.574	-0.141	0.195
-703.572	-28.035	-0.045	0.026
-702.558	41.559	0.146	-0.132
-701.543	-66.195	-0.210	0.084
-700.529	-79.465	0.320	0.108
-699.514	-22.287	0.282	0.171
-698.499	115.700	-0.063	0.077
-697.485	74.878	-0.143	0.151
-696.470	398.835	-0.107	-0.224
-695.456	-40.328	-0.220	0.114
-694.441	800.000	-0.035	0.143
-693.426	547.306	0.098	-0.234
-692.412	261.498	-0.128	0.221
-691.397	571.190	-0.041	0.100
-690.383	348.357	-0.181	-0.358
-689.368	231.010	-0.241	-0.396
-688.354	161.309	0.194	-0.271
-687.339	-52.338	-0.084	-0.039
-686.324	-150.331	-0.131	0.010
-685.310	-23.117	0.060	-0.036
-684.295	-200.000	0.006	-0.119
-683.281	-124.144	-0.243	0.038
-682.266	800.000	-0.175	-0.538
-681.251	-79.451	0.086	0.029
-680.237	277.987	-0.149	0.266
-679.222	-200.000	0.004	-0.194
-678.208	120.015	0.040	-0.050
-677.193	-96.525	-0.342	0.090
-676.178	176.883	0.069	-0.101
-675.164	58.808	-0.088	-0.086
-674.149	558.475	0.075	-0.181
-673.135	276.062	0.072	-0.129
-672.120	-200.000	0.016	-0.373
-671.105	-80.741	-0.099	0.033
-670.091	-200.000	0.012	-0.151
-669.076	-72.755	-0.198	0.073
-668.062	-31.307	-0.120	0.068
-667.047	136.624	0.211	-0.276
-666.032	-154.851	-0.158	-0.010
-665.018	146.995	0.148	-0.199
-664.003	204.564	0.085	0.132
-662.989	-200.000	-0.036	-0.413
-661.974	-54.493	-0.225	-0.102
-660.959	-200.000	0.031	-0.190
-659.945	800.000	-0.060	-0.250
-658.930	76.698	0.404	0.428
-657.916	800.000	-0.024	0.080
-656.901	-115.340	0.339	-0.064
-655.886	-179.884	-0.179	0.004
-654.872	-10.692	0.111	-0.073
-653.857	27.134	0.269	-0.226
-652.843	-42.815	-0.040	-0.021
-651.828	-22.233	0.451	0.273
-650.814	-200.000	-0.049	0.421
-649.799	800.000	0.156	0.487
-648.784	-26.814	0.134	-0.078
-647.770	-200.000	-0.031	-0.405
-646.755	6.562	-0.342	-0.254
-645.741	-75.752	-0.141	-0.050
-644.726	-105.985	0.093	-0.021
-643.711	-200.000	0.060	0.283
-642.697	800.000	-0.075	0.227
-641.682	-200.000	0.016	0.114
-640.668	644.161	-0.055	-0.141
-639.653	313.296	0.097	0.183
-638.638	-200.000	-0.005	0.251
-637.624	-200.000	0.037	0.254
-636.609	-200.000	-0.030	-0.155
-635.595	-37.140	-0.279	0.149
-634.580	-75.264	-0.131	-0.047
-633.565	-176.624	0.341	0.009
-632.551	800.000	0.053	0.194
-631.536	800.000	0.041	-0.179
-630.522	800.000	-0.125	0.467
-629.507	-7.836	0.125	-0.084
-628.492	73.288	-0.094	0.098
-627.478	800.000	0.024	0.081
-626.463	-54.201	-0.162	0.073
-625.449	-34.417	-0.167	-0.091
-624.434	453.161	0.064	0.142
-623.419	-1.585	0.210	-0.147
-622.405	-67.048	-0.107	-0.042
-621.390	800.000	-0.084	0.328
-620.376	-36.663	0.227	-0.122
-619.361	-200.000	0.227	0.001
-618.346	-56.204	0.183	-0.081
-617.332	-52.236	0.244	0.113
-616.317	-76.259	-0.208	-0.073
-615.303	800.000	0.041	-0.163
-614.288	86.464	-0.159	-0.175
-613.273	196.619	0.158	0.240
-612.259	-63.797	-0.345	-0.141
-611.244	119.853	0.164	-0.203
-610.230	7.335	0.292	-0.217
-609.215	94.703	-0.097	-0.110
-608.201	-67.959	-0.171	-0.066
-607.186	-200.000	-0.013	-0.086
-606.171	67.281	0.081	0.082
-605.157	-56.686	-0.227	-0.100
-604.142	63.979	-0.217	0.218
-603.128	-102.001	0.340	0.082
-602.113	-95.937	-0.326	-0.087
-601.098	-34.263	-0.101	-0.056
-600.084	57.905	0.176	-0.171
-599.069	-162.548	-0.094	-0.005
-598.055	40.854	-0.028	-0.026
-597.040	-14.788	0.272	-0.174
-596.025	-200.000	0.010	-0.207
-595.011	149.271	-0.165	0.223
-593.996	-200.000	-0.039	0.182
-592.982	80.783	-0.094	0.101
-591.967	800.000	0.035	-0.129
-590.952	-68.780	0.123	-0.047
-589.938	23.921	0.285	0.234
-588.923	87.569	0.161	-0.177
-587.909	800.000	0.063	-0.256
-586.894	530.838	-0.087	0.205
-585.879	423.898	-0.066	0.141
-584.865	-154.770	0.250	-0.016
-583.850	144.256	-0.282	0.375
-582.836	103.914	-0.152	-0.177
-581.821	5.960	0.123	-0.090
-580.806	-17.411	0.105	0.066
-579.792	129.628	-0.120	0.153
-578.777	-39.547	-0.173	-0.090
-577.763	-75.872	0.240	0.085
-576.748	92.026	-0.068	-0.076
-575.733	-81.827	0.184	0.060
-574.719	-19.982	-0.243	0.150
-573.704	-182.233	-0.267	0.005
-572.690	-200.000	0.037	-0.224
-571.675	193.109	0.160	-0.241
-570.661	-200.000	0.033	-0.242
-569.646	-126.626	-0.191	-0.028
-568.631	-90.400	0.247	0.071
-567.617	121.648	-0.098	-0.121
-566.602	148.702	0.129	-0.173
-565.588	800.000	0.047	0.173
-564.573	-36.214	-0.245	0.132
-563.558	0.455	0.356	0.253
-562.544	-70.545	0.293	-0.111
-561.529	-96.605	0.185	-0.048
-560.515	-200.000	-0.021	-0.152
-559.500	119.423	-0.295	0.364
-558.485	-159.554	-0.363	-0.020
-557.471	219.097	-0.105	-0.168
-556.456	-200.000	-0.000	0.148
-555.442	-78.823	-0.155	-0.053
-554.427	-200.000	-0.012	0.143
-553.412	90.268	0.263	-0.293
-552.398	89.062	0.016	0.018
-551.383	-139.722	-0.054	-0.006
-550.369	74.948	0.231	0.242
-549.354	-200.000	-0.019	0.294
-548.339	-64.352	0.477	0.193
-547.325	-200.000	-0.012	-0.442
-546.310	-137.836	0.148	0.016
-545.296	-6.595	-0.060	0.041
-544.281	-200.000	-0.046	-0.411
-543.266	800.000	0.097	-0.375
-542.252	-74.439	-0.223	-0.080
-541.237	161.266	-0.248	0.345
-540.223	-120.455	0.335	-0.057
-539.208	-77.525	-0.201	0.069
-538.193	800.000	-0.048	-0.159
-537.179	-176.375	0.290	0.007
-536.164	800.000	0.017	-0.069
-535.150	-15.968	-0.032	0.020
-534.135	-200.000	0.038	0.331
-533.121	-200.000	0.034	-0.173
-532.106	41.857	-0.048	-0.043
-531.091	-104.943	-0.371	-0.084
-530.077	-87.768	0.182	0.054
-529.062	-123.871	-0.281	-0.044
-528.048	-200.000	0.003	-0.058
-527.033	-143.176	-0.139	-0.013
-526.018	79.679	0.128	-0.137
-525.004	25.674	-0.163	0.135
-523.989	46.531	0.104	0.096
-522.975	128.301	0.122	-0.154
-521.960	340.324	0.116	-0.225
-520.945	-200.000	-0.063	-0.333
-519.931	245.436	0.070	0.117
-518.916	-67.185	0.196	-0.077
-517.902	315.101	0.085	0.159
-516.887	-77.280	0.070	0.024
-515.872	70.174	0.268	-0.275
-514.858	8.367	0.204	0.153
-513.843	4.907	0.151	0.111
-512.829	-100.718	0.170	-0.042
-511.814	-200.000	-0.004	-0.147
-510.799	800.000	0.053	-0.179
-509.785	800.000	0.112	0.333
-508.770	800.000	-0.051	-0.215
-507.756	103.536	0.235	0.274
-506.741	-92.220	0.097	0.027
-505.726	-32.486	-0.249	0.138
-504.712	800.000	0.068	0.191
-503.697	800.000	-0.047	-0.192
-502.683	523.556	0.171	-0.399
-501.668	-81.220	-0.148	-0.049
-500.653	-188.683	0.151	-0.002
-499.639	-200.000	-0.001	-0.085
-498.624	-200.000	0.037	-0.254
-497.610	-99.421	-0.470	-0.118
-496.595	-31.790	-0.210	0.117
-495.581	614.795	-0.117	-0.291
-494.566	-85.657	-0.080	0.025
-493.551	-107.142	-0.165	0.036
-492.537	-200.000	0.047	0.237
-491.522	-177.162	-0.257	0.006
-490.508	-95.298	-0.367	0.098
-489.493	-21.546	0.295	0.179
-488.478	-200.000	-0.005	-0.029
-487.464	141.865	0.215	0.283
-486.449	-149.316	-0.138	0.011
-485.435	112.598	0.051	-0.061
-484.420	800.000	0.087	0.337
-483.405	-163.435	-0.213	0.010
-482.391	-6.125	0.362	-0.246
-481.376	800.000	-0.145	0.482
-480.362	-86.080	-0.232	-0.071
-479.347	137.947	-0.056	0.073
-478.332	345.728	0.124	0.242
-477.318	-38.542	0.140	-0.074
-476.303	-118.505	0.218	0.038
-475.289	108.494	0.151	-0.179
-474.274	-157.105	0.198	-0.012
-473.259	-200.000	-0.031	0.260
-472.245	-113.508	0.023	0.005
-471.230	-157.906	-0.261	-0.015
-470.216	42.577	-0.104	0.094
-469.201	-53.562	-0.160	0.073
-468.186	29.943	-0.182	-0.153
-467.172	-149.876	0.044	0.003
-466.157	67.786	0.057	0.058
-465.143	-12.850	0.270	-0.174
-464.128	178.637	-0.081	0.118
-463.113	-200.000	0.017	-0.149
-462.099	-129.130	0.179	0.025
-461.084	213.216	-0.133	0.208
-460.070	235.219	-0.167	0.274
-459.055	-86.823	-0.254	-0.077
-458.040	34.894	-0.378	-0.328
-457.026	-200.000	-0.020	-0.120
-456.011	629.341	-0.084	0.211
-454.997	207.612	0.155	-0.239
-453.982	31.347	0.171	0.146
-452.968	800.000	-0.054	-0.201
-451.953	-38.395	-0.155	0.081
-450.938	-45.487	-0.258	0.127
-449.924	-84.284	0.397	-0.125
-448.909	24.341	0.377	0.309
-447.895	-2.940	0.193	0.134
-446.880	-69.723	0.175	0.066
-445.865	-41.068	0.062	0.032
-444.851	-24.600	0.094	-0.056
-443.836	-200.000	0.059	-0.284
-442.822	-200.000	0.029	-0.296
-441.807	-34.771	-0.194	0.105
-440.792	76.974	0.239	-0.251
-439.778	-200.000	0.022	0.217
-438.763	204.167	-0.243	-0.374
-437.749	800.000	-0.024	-0.104
-436.734	135.006	-0.301	0.387
-435.719	-200.000	-0.027	0.326
-434.705	79.827	0.039	-0.042
-433.690	-200.000	-0.057	0.337
-432.676	-79.656	-0.061	0.020
-431.661	-5.468	0.091	-0.062
-430.646	-20.197	0.042	0.026
-429.632	800.000	0.085	-0.340
-428.617	-97.272	-0.498	-0.129
-427.603	389.333	-0.063	0.130
-426.588	-200.000	-0.025	-0.355
-425.573	527.692	-0.039	-0.091
-424.559	-200.000	-0.064	-0.365
-423.544	80.298	-0.267	-0.284
-422.530	64.105	-0.244	-0.243
-421.515	539.268	0.139	-0.328
-420.500	-36.471	0.249	0.132
-419.486	-120.619	-0.293	0.049
-418.471	403.020	-0.115	0.239
-417.457	22.134	0.323	0.261
-416.442	170.728	-0.103	0.146
-415.428	-200.000	0.038	0.275
-414.413	92.694	-0.235	0.262
-413.398	-167.038	0.248	0.010
-412.384	-101.897	-0.138	0.033
-411.369	-7.738	0.272	0.182
-410.355	-200.000	-0.024	0.248
-409.340	-155.841	-0.326	-0.021
-408.325	800.000	-0.076	-0.243
-407.311	76.930	0.227	-0.238
-406.296	123.974	-0.005	-0.006
-405.282	20.402	-0.350	0.280
-404.267	-200.000	-0.008	0.035
-403.252	54.161	-0.305	0.290
-402.238	229.260	-0.075	-0.121
-401.223	-168.734	-0.279	-0.010
-400.209	49.418	0.111	-0.104
-399.194	107.555	-0.053	-0.063
-398.179	24.448	0.151	0.124
-397.165	800.000	-0.041	0.115
-396.150	109.372	0.255	-0.302
-395.136	-51.536	0.194	-0.090
-394.121	800.000	0.105	-0.298
-393.106	-99.185	-0.189	-0.047
-392.092	-200.000	0.021	-0.303
-391.077	306.086	-0.072	0.133
-390.063	-200.000	0.037	0.211
-389.048	-112.930	-0.354	0.069
-388.033	-28.470	0.080	0.046
-387.019	-200.000	-0.031	-0.211
-386.004	-200.000	0.022	-0.242
-384.990	454.652	0.041	-0.089
-383.975	75.095	0.433	-0.451
-382.960	-88.482	0.118	-0.035
-381.946	-16.133	0.060	0.038
-380.931	-12.491	-0.306	0.197
-379.917	4.835	-0.176	0.128
-378.902	-19.295	0.103	0.063
-377.888	-75.466	0.441	0.155
-376.873	800.000	-0.080	-0.220
-375.858	-200.000	-0.082	0.504
-374.844	453.156	-0.205	0.449
-373.829	207.263	0.268	0.413
-372.815	-126.838	-0.259	0.038
-371.800	-46.555	0.161	0.078
-370.785	-7.467	0.123	0.083
-369.771	27.121	0.158	0.131
-368.756	-139.091	0.165	0.018
-367.742	761.305	-0.148	-0.398
-366.727	-118.438	0.266	0.047
-365.712	6.690	0.155	0.114
-364.698	-99.053	-0.146	-0.036
-363.683	158.271	-0.067	-0.091
-362.669	759.521	-0.038	0.100
-361.654	-200.000	0.071	0.431
-360.639	-68.405	-0.167	-0.064
-359.625	-155.408	0.415	0.027
-358.610	307.695	-0.151	-0.278
-357.596	-37.103	0.111	-0.059
-356.581	-60.652	-0.055	0.023
-355.566	183.545	-0.301	0.439
-354.552	-99.713	0.370	0.092
-353.537	-200.000	0.025	0.177
-352.523	-166.045	-0.100	-0.004
-351.508	241.304	-0.158	0.260
-350.493	800.000	0.034	-0.125
-349.479	490.644	-0.093	-0.211
-348.464	-88.847	0.115	-0.034
-347.450	413.488	-0.098	-0.206
-346.435	-124.968	0.091	-0.014
-345.420	790.587	-0.056	-0.151
-344.406	-200.000	0.039	-0.316
-343.391	800.000	0.046	-0.185
-342.377	250.945	0.055	-0.093
-341.362	61.674	-0.117	0.115
-340.348	41.347	0.180	0.161
-339.333	-200.000	-0.009	0.304
-338.318	800.000	-0.026	-0.103
-337.304	102.233	-0.239	-0.276
-336.289	56.361	0.154	0.148
-335.275	-14.699	0.120	-0.076
-334.260	181.717	0.198	-0.287
-333.245	692.100	0.020	0.053
-332.231	404.792	-0.045	0.094
-331.216	-155.735	0.117	0.007
-330.202	93.204	-0.173	-0.193
-329.187	-17.299	-0.259	-0.161
-328.172	-200.000	-0.031	-0.376
-327.158	-80.839	-0.317	-0.104
-326.143	-90.928	-0.068	-0.019
-325.129	-48.659	0.124	0.059
-324.114	49.386	0.213	0.198
-323.099	63.955	-0.155	0.154
-322.085	-200.000	-0.039	-0.281
-321.070	-200.000	-0.083	-0.440
-320.056	48.665	0.121	0.112
-319.041	-200.000	-0.010	0.048
-318.026	-147.195	-0.137	-0.011
-317.012	206.969	-0.128	0.197
-315.997	339.862	-0.012	0.022
-314.983	-200.000	0.084	-0.413
-313.968	24.676	0.229	-0.187
-312.953	-140.931	-0.431	-0.044
-311.939	-153.652	-0.272	-0.018
-310.924	-62.140	-0.298	0.123
-309.910	-200.000	-0.004	0.135
-308.895	220.823	-0.173	0.273
-307.880	252.030	0.026	-0.043
-306.866	-73.069	0.041	-0.015
-305.851	28.946	-0.251	0.210
-304.837	181.492	0.166	0.241
-303.822	800.000	0.055	0.237
-302.807	394.409	-0.074	0.151
-301.793	767.362	-0.107	0.288
-300.778	-35.730	-0.367	0.196
-299.764	-87.413	0.266	0.079
-298.749	-83.461	0.108	-0.034
-297.735	-134.180	-0.363	0.044
-296.720	-130.448	-0.071	0.009
-295.705	353.171	0.081	0.159
-294.691	44.019	-0.185	0.167
-293.676	-58.808	0.329	-0.140
-292.662	174.941	0.161	0.230
-291.647	800.000	-0.027	0.109
-290.632	800.000	-0.071	-0.216
-289.618	212.933	-0.070	-0.109
-288.603	-161.406	0.338	0.017
-287.589	-18.696	-0.037	-0.022
-286.574	-47.179	0.407	0.195
-285.559	248.800	-0.036	-0.060
-284.545	-30.627	-0.063	0.035
-283.530	-51.822	0.198	-0.091
-282.516	394.996	0.061	-0.125
-281.501	-200.000	0.026	-0.234
-280.486	17.883	-0.192	0.150
-279.472	-72.788	0.012	0.005
-278.457	-70.589	-0.031	0.012
-277.443	792.799	0.051	0.139
-276.428	210.619	0.158	-0.244
-275.413	-126.671	-0.192	0.028
-274.399	-200.000	-0.002	0.377
-273.384	-119.750	-0.072	-0.012
-272.370	521.999	-0.083	0.193
-271.355	-110.907	-0.118	0.024
-270.340	-40.400	0.118	-0.060
-269.326	-29.443	0.154	-0.087
-268.311	772.557	0.126	-0.337
-267.297	268.685	-0.162	-0.280
-266.282	330.540	0.128	0.243
-265.267	-29.528	-0.081	-0.046
-264.253	-200.000	-0.041	-0.206
-263.238	-104.303	0.296	0.067
-262.224	80.162	-0.105	0.111
-261.209	-200.000	0.010	0.354
-260.195	315.282	-0.175	-0.324
-259.180	77.383	-0.028	0.029
-258.165	148.006	-0.041	-0.054
-257.151	375.761	0.098	-0.197
-256.136	800.000	0.017	0.055
-255.122	-67.157	-0.197	-0.076
-254.107	-43.153	-0.209	0.104
-253.092	0.244	-0.102	-0.071
-252.078	-89.414	0.293	-0.085
-251.063	136.422	0.235	-0.301
-250.049	-138.537	0.184	0.020
-249.034	3.269	-0.269	0.192
-248.019	-200.000	0.030	-0.206
-247.005	53.589	0.314	-0.296
-245.990	800.000	0.056	-0.185
-244.976	21.587	0.179	0.143
-243.961	-21.419	-0.417	-0.250
-242.946	-200.000	0.026	-0.168
-241.932	21.023	-0.154	-0.123
-240.917	-200.000	-0.006	-0.152
-239.903	-200.000	-0.043	-0.250
-238.888	444.861	-0.178	-0.383
-237.873	-39.285	-0.367	0.189
-236.859	-200.000	-0.040	0.289
-235.844	481.218	0.088	0.196
-234.830	404.259	0.062	0.128
-233.815	12.169	-0.169	0.128
-232.800	-57.334	0.401	-0.173
-231.786	-17.255	0.228	-0.141
-230.771	-200.000	-0.001	-0.229
-229.757	800.000	-0.043	-0.147
-228.742	63.037	-0.168	-0.166
-227.727	-140.468	-0.082	0.008
-226.713	79.295	0.219	0.230
-225.698	-164.792	-0.142	-0.006
-224.684	-63.235	0.110	-0.045
-223.669	-200.000	0.003	0.033
-222.655	-163.897	0.092	0.004
-221.640	1.823	-0.326	-0.231
-220.625	-79.661	-0.278	0.092
-219.611	180.934	0.112	0.161
-218.596	37.249	-0.287	-0.249
-217.582	150.213	0.128	-0.171
-216.567	59.452	0.304	-0.294
-215.552	-128.251	-0.112	-0.016
-214.538	43.268	0.219	0.197
-213.523	617.109	0.023	-0.056
-212.509	5.989	-0.259	0.188
-211.494	72.467	0.257	-0.263
-210.479	-14.348	0.156	-0.098
-209.465	-159.285	-0.221	-0.012
-208.450	-49.501	0.378	0.177
-207.436	191.080	-0.134	0.198
-206.421	-200.000	0.041	0.320
-205.406	-200.000	-0.002	0.321
-204.392	800.000	-0.127	0.435
-203.377	-44.390	-0.307	-0.151
-202.363	800.000	-0.149	-0.465
-201.348	182.937	-0.241	0.349
-200.333	207.269	0.169	-0.259
-199.319	246.862	-0.042	-0.070
-198.304	-161.275	0.400	0.020
-197.290	-80.467	-0.084	-0.028
-196.275	-66.014	-0.133	0.052
-195.260	591.691	-0.081	-0.197
-194.246	-54.834	0.234	-0.104
-193.231	-119.674	-0.054	-0.009
-192.217	-40.322	0.151	0.077
-191.202	-200.000	0.007	-0.050
-190.187	-22.154	-0.117	0.070
-189.173	220.896	-0.167	0.263
-188.158	-17.863	-0.285	0.175
-187.144	-79.609	0.203	-0.067
-186.129	-200.000	0.030	-0.154
-185.114	800.000	0.022	-0.069
-184.100	147.621	0.102	-0.134
-183.085	160.881	-0.186	-0.255
-182.071	-21.598	-0.012	-0.007
-181.056	59.378	0.072	0.070
-180.042	436.275	-0.100	0.214
-179.027	-82.730	0.260	0.083
-178.012	264.182	0.108	0.184
-176.998	432.236	-0.090	0.191
-175.983	-116.945	-0.245	0.044
-174.969	-200.000	0.065	0.413
-173.954	648.946	0.045	-0.112
-172.939	228.801	0.189	-0.302
-171.925	15.599	0.273	0.210
-170.910	483.650	0.052	-0.116
-169.896	-106.220	-0.116	-0.026
-168.881	-174.649	0.489	0.014
-167.866	-50.985	-0.180	0.083
-166.852	-95.157	-0.227	-0.060
-165.837	-9.193	0.144	-0.094
-164.823	-85.619	-0.272	0.083
-163.808	-117.722	0.171	0.030
-162.793	800.000	-0.044	0.164
-161.779	408.166	0.104	0.216
-160.764	800.000	0.039	-0.121
-159.750	215.138	0.062	-0.097
-158.735	228.277	-0.077	0.123
-157.720	391.370	0.082	-0.166
-156.706	-132.965	0.218	-0.027
-155.691	-200.000	0.023	0.145
-154.677	133.132	0.118	-0.149
-153.662	-60.252	0.043	0.018
-152.647	5.959	-0.111	0.081
-151.633	-98.867	0.218	0.054
-150.618	-84.518	0.186	0.057
-149.604	-200.000	-0.033	0.267
-148.589	-96.435	-0.211	0.055
-147.574	18.430	0.415	0.324
-146.560	-129.133	-0.422	0.058
-145.545	-92.784	0.280	0.077
-144.531	157.415	0.376	0.509
-143.516	357.561	0.022	0.043
-142.502	800.000	-0.035	0.105
-141.487	-129.355	0.095	0.013
-140.472	146.167	-0.150	0.198
-139.458	-12.780	-0.117	0.075
-138.443	324.396	0.207	-0.386
-137.429	-200.000	-0.001	-0.050
-136.414	-6.693	-0.219	0.146
-135.399	196.740	-0.187	-0.280
-134.385	80.144	-0.178	-0.187
-133.370	-118.707	-0.332	0.057
-132.356	125.701	-0.096	0.119
-131.341	-7.979	-0.361	0.238
-130.326	-200.000	0.032	0.317
-129.312	100.479	0.111	-0.126
-128.297	-200.000	-0.009	-0.181
-127.283	3.000	0.025	-0.017
-126.268	-91.013	0.163	0.046
-125.253	-58.435	0.163	-0.069
-124.239	800.000	-0.150	0.525
-123.224	165.635	-0.241	0.334
-122.210	800.000	-0.100	0.291
-121.195	18.134	0.212	0.165
