DTS Sentinel unit serial number:	SN413079Multiplexer serial number:	ORYXHardware model number:	OX4-SRSoftware version number:	ORYX F/W v4.00 Oryx Data Collector v3.7.2.0data status	okinstallation	princeton_trtdifferential loss correction	single-endedforward channel	channel 1reverse channel	N/Adate	2019/09/11time	19:08:11forward acquisition time	60.00reverse acquisition time	0.00gamma	496.2192k internal	0.2293k external	0.2293temperature offset calibration	1.0013default loss term (dB/km)	0.3790temperature slope calibration	1.0000multiplexer offset coefficient	1.0000multiplexer slope coefficient	1.0000fibre end	0.00T internal ref (°C)	41.78T ext. ref 1 (°C)	1.26T ext. ref 2 (°C)	34.05length (m)	temperature (°C)	Stokes	anti-Stokes-747.200	-139.153	-0.237	0.026
-746.185	800.000	-0.116	0.341
-745.171	800.000	0.106	0.382
-744.156	590.304	-0.175	0.441
-743.142	-200.000	0.057	0.304
-742.127	157.225	0.192	0.271
-741.112	-111.646	0.128	-0.027
-740.098	74.225	0.019	0.021
-739.083	-98.853	-0.222	-0.058
-738.069	73.702	-0.121	0.130
-737.054	-200.000	-0.027	0.239
-736.039	-200.000	-0.009	-0.208
-735.025	-29.337	0.138	0.081
-734.010	-88.486	-0.149	0.045
-732.996	-95.435	-0.289	0.079
-731.981	28.748	-0.233	-0.202
-730.966	-114.105	0.354	-0.070
-729.952	-44.574	-0.098	0.050
-728.937	800.000	-0.035	-0.121
-727.923	-61.861	0.085	-0.036
-726.908	-80.525	-0.164	0.056
-725.894	58.964	0.019	0.019
-724.879	-40.221	-0.389	-0.207
-723.864	800.000	-0.113	-0.436
-722.850	-135.573	-0.183	0.022
-721.835	752.196	-0.067	0.186
-720.821	-70.703	-0.076	0.029
-719.806	-26.990	0.120	0.072
-718.791	77.557	-0.329	0.358
-717.777	-116.957	0.350	0.065
-716.762	-200.000	-0.010	-0.059
-715.748	101.499	0.236	-0.281
-714.733	-200.000	-0.038	0.191
-713.718	-151.426	-0.056	-0.004
-712.704	108.038	0.062	-0.075
-711.689	20.501	0.239	-0.197
-710.675	-200.000	-0.035	-0.483
-709.660	-200.000	0.014	-0.146
-708.645	229.526	-0.151	-0.252
-707.631	-200.000	0.032	-0.169
-706.616	-51.034	0.255	0.122
-705.602	800.000	0.052	0.173
-704.587	-200.000	-0.032	-0.272
-703.572	583.204	0.013	-0.033
-702.558	205.880	-0.103	0.164
-701.543	800.000	-0.141	0.473
-700.529	-48.852	0.327	0.160
-699.514	-23.865	-0.027	-0.017
-698.499	-200.000	-0.272	0.001
-697.485	-111.509	0.178	-0.037
-696.470	-191.015	0.345	-0.004
-695.456	45.244	-0.271	0.255
-694.441	157.113	0.079	-0.112
-693.426	-200.000	0.003	0.387
-692.412	-138.147	-0.377	0.043
-691.397	241.326	0.023	-0.040
-690.383	-146.942	-0.065	0.006
-689.368	-117.170	0.126	-0.023
-688.354	156.672	0.139	-0.196
-687.339	-118.580	0.282	0.051
-686.324	800.000	-0.063	-0.254
-685.310	800.000	0.037	-0.116
-684.295	487.669	-0.116	0.271
-683.281	-200.000	-0.004	-0.023
-682.266	3.235	-0.166	0.123
-681.251	-200.000	0.052	0.248
-680.237	44.890	-0.167	-0.157
-679.222	206.612	-0.179	-0.284
-678.208	-39.872	-0.150	0.080
-677.193	-24.638	0.201	0.122
-676.178	106.861	-0.212	-0.257
-675.164	41.041	-0.217	-0.200
-674.149	704.719	0.121	0.326
-673.135	2.260	-0.089	-0.065
-672.120	25.939	0.240	0.204
-671.105	-51.782	-0.186	0.088
-670.091	-100.501	-0.295	-0.074
-669.076	-200.000	0.056	0.289
-668.062	-200.000	0.001	0.177
-667.047	60.423	0.101	0.102
-666.032	-200.000	-0.000	-0.074
-665.018	-200.000	0.024	-0.138
-664.003	156.364	-0.202	0.285
-662.989	87.187	-0.091	-0.103
-661.974	126.240	0.184	0.238
-660.959	-200.000	0.011	-0.137
-659.945	-109.574	0.189	-0.041
-658.930	222.688	-0.148	-0.244
-657.916	249.863	-0.104	-0.181
-656.901	-119.263	-0.279	-0.050
-655.886	-132.625	0.302	-0.039
-654.872	240.059	0.172	-0.292
-653.857	579.412	-0.114	0.285
-652.843	553.181	0.071	-0.175
-651.828	66.577	-0.343	-0.355
-650.814	82.438	0.062	-0.068
-649.799	-200.000	-0.009	-0.130
-648.784	800.000	-0.092	0.270
-647.770	324.529	0.063	-0.123
-646.755	-22.704	-0.166	-0.102
-645.741	368.381	-0.202	0.416
-644.726	79.980	-0.065	0.071
-643.711	0.660	-0.393	-0.286
-642.697	-162.382	-0.141	0.007
-641.682	800.000	-0.053	-0.180
-640.668	69.541	0.016	-0.017
-639.653	29.936	0.227	-0.197
-638.638	87.419	0.206	0.232
-637.624	28.690	-0.167	-0.144
-636.609	92.918	-0.069	-0.079
-635.595	-200.000	0.008	0.416
-634.580	-49.768	-0.404	0.196
-633.565	41.086	-0.293	0.270
-632.551	50.599	-0.098	-0.094
-631.536	466.242	-0.091	-0.208
-630.522	-40.285	0.111	0.059
-629.507	-95.457	-0.097	0.026
-628.492	-200.000	0.036	-0.215
-627.478	-71.412	0.152	-0.058
-626.463	-63.808	0.230	0.096
-625.449	-116.119	-0.334	-0.063
-624.434	-71.577	0.217	-0.082
-623.419	-35.469	0.062	-0.034
-622.405	48.145	0.203	0.194
-621.390	433.378	0.105	0.232
-620.376	260.503	-0.115	0.202
-619.361	25.070	0.165	-0.139
-618.346	2.598	-0.043	-0.032
-617.332	238.931	-0.084	-0.141
-616.317	-200.000	0.000	-0.429
-615.303	-74.571	-0.142	-0.052
-614.288	78.727	-0.081	0.088
-613.273	-200.000	0.005	0.060
-612.259	280.303	-0.281	0.512
-611.244	-94.221	0.385	-0.107
-610.230	118.446	0.137	0.172
-609.215	63.612	-0.064	0.065
-608.201	369.571	0.076	0.158
-607.186	4.076	0.168	-0.125
-606.171	800.000	0.133	-0.589
-605.157	-139.013	0.068	-0.008
-604.142	101.852	-0.357	-0.424
-603.128	188.040	0.088	0.133
-602.113	40.132	0.283	-0.259
-601.098	-41.664	0.158	0.083
-600.084	-200.000	0.011	0.324
-599.069	-107.368	-0.046	0.010
-598.055	-6.513	0.129	-0.090
-597.040	369.942	-0.102	0.210
-596.025	-128.966	0.732	0.104
-595.011	-95.468	-0.179	-0.049
-593.996	43.560	-0.084	0.078
-592.982	235.998	-0.103	0.174
-591.967	405.035	0.147	-0.315
-590.952	81.233	0.282	-0.310
-589.938	-96.969	0.467	0.124
-588.923	-66.490	-0.262	0.106
-587.909	-145.296	-0.352	0.032
-586.894	-34.937	0.110	-0.061
-585.879	800.000	0.047	-0.204
-584.865	315.155	0.220	0.421
-583.850	-0.564	-0.077	0.056
-582.836	-8.888	-0.573	0.390
-581.821	91.850	-0.216	-0.247
-580.806	-74.600	0.272	0.100
-579.792	-167.098	0.391	0.016
-578.777	70.976	-0.079	0.083
-577.763	-91.733	-0.050	-0.015
-576.748	-131.927	-0.032	0.004
-575.733	-200.000	-0.040	0.218
-574.719	-162.603	-0.185	0.009
-573.704	107.968	0.292	-0.354
-572.690	-128.539	-0.213	0.031
-571.675	-200.000	-0.012	0.230
-570.661	254.521	0.083	-0.145
-569.646	291.342	0.230	-0.424
-568.631	-133.176	0.377	0.048
-567.617	-106.584	-0.201	-0.046
-566.602	-156.180	0.081	-0.005
-565.588	-31.149	0.250	-0.143
-564.573	-24.807	-0.201	0.121
-563.558	435.063	0.064	-0.142
-562.544	-200.000	0.028	-0.201
-561.529	652.275	-0.165	0.429
-560.515	100.007	0.181	0.213
-559.500	-79.262	0.252	-0.087
-558.485	74.563	-0.020	0.022
-557.471	-36.757	-0.284	-0.155
-556.456	-146.815	-0.547	-0.048
-555.442	282.322	0.113	-0.206
-554.427	-99.699	-0.130	-0.033
-553.412	800.000	0.030	0.103
-552.398	800.000	-0.044	-0.137
-551.383	44.697	0.116	-0.108
-550.369	104.150	0.091	-0.108
-549.354	-200.000	-0.014	0.095
-548.339	-200.000	0.025	-0.221
-547.325	-54.078	-0.372	-0.172
-546.310	-200.000	0.048	-0.213
-545.296	-65.793	-0.264	0.107
-544.281	-200.000	0.015	-0.251
-543.266	145.344	0.176	-0.239
-542.252	63.178	-0.077	-0.078
-541.237	-200.000	-0.036	-0.188
-540.223	-19.397	-0.026	-0.016
-539.208	139.541	-0.071	0.095
-538.193	90.935	0.135	-0.154
-537.179	-200.000	-0.015	0.095
-536.164	185.151	0.171	0.257
-535.150	-128.669	-0.176	-0.025
-534.135	70.224	-0.037	-0.039
-533.121	800.000	-0.082	0.308
-532.106	-56.424	-0.183	-0.082
-531.091	-0.404	0.188	-0.136
-530.077	-178.734	-0.161	0.004
-529.062	123.899	-0.096	0.122
-528.048	-14.586	-0.177	-0.116
-527.033	-2.467	-0.248	0.176
-526.018	180.763	-0.138	0.206
-525.004	-100.780	-0.043	-0.011
-523.989	-200.000	0.022	-0.431
-522.975	656.393	0.087	-0.226
-521.960	-47.163	0.159	0.079
-520.945	-148.681	0.257	-0.021
-519.931	83.940	-0.063	-0.070
-518.916	162.742	0.088	-0.125
-517.902	46.623	-0.146	0.138
-516.887	-71.564	-0.196	0.074
-515.872	765.146	-0.111	-0.307
-514.858	-8.557	-0.210	0.143
-513.843	-200.000	0.037	-0.210
-512.829	-200.000	-0.044	0.235
-511.814	74.664	-0.027	-0.028
-510.799	-27.987	0.271	-0.159
-509.785	-20.887	-0.219	-0.136
-508.770	-10.194	-0.119	-0.080
-507.756	-43.847	-0.114	-0.058
-506.741	-102.884	0.090	-0.022
-505.726	-200.000	0.013	-0.198
-504.712	-165.547	0.310	0.014
-503.697	-131.739	-0.073	0.010
-502.683	15.528	-0.186	0.148
-501.668	-68.809	0.087	-0.034
-500.653	96.085	-0.229	0.266
-499.639	32.897	-0.136	0.120
-498.624	-132.259	-0.080	0.011
-497.610	-122.568	0.193	-0.032
-496.595	-117.556	-0.400	0.073
-495.581	56.556	0.238	0.235
-494.566	-57.847	-0.308	-0.137
-493.551	800.000	-0.066	-0.213
-492.537	142.566	0.159	0.214
-491.522	461.762	0.088	0.200
-490.508	53.874	0.091	0.089
-489.493	480.608	-0.061	0.139
-488.478	800.000	0.053	0.208
-487.464	1.886	0.053	-0.038
-486.449	-71.189	0.174	0.066
-485.435	-172.401	0.206	-0.007
-484.420	-127.885	-0.267	0.039
-483.405	-91.613	0.181	0.052
-482.391	-159.776	-0.180	-0.010
-481.376	16.179	0.051	0.041
-480.362	-155.001	0.078	-0.005
-479.347	-76.643	0.126	0.045
-478.332	-200.000	-0.048	-0.306
-477.318	-200.000	-0.004	-0.196
-476.303	-101.434	-0.398	-0.098
-475.289	19.081	0.042	-0.034
-474.274	-81.014	-0.178	0.060
-473.259	-54.227	0.060	0.028
-472.245	9.703	0.118	-0.091
-471.230	9.469	0.398	-0.305
-470.216	-200.000	-0.036	-0.163
-469.201	-72.637	0.085	-0.032
-468.186	-32.037	-0.149	-0.084
-467.172	-117.358	0.428	-0.079
-466.157	-200.000	0.011	-0.062
-465.143	120.998	-0.112	0.141
-464.128	-200.000	0.026	0.299
-463.113	-12.930	0.171	0.112
-462.099	559.035	-0.047	0.115
-461.084	121.936	-0.177	-0.223
-460.070	7.939	-0.054	-0.041
-459.055	319.157	-0.081	0.155
-458.040	-99.411	0.318	-0.081
-457.026	48.046	-0.177	0.167
-456.011	90.245	-0.126	0.142
-454.997	-200.000	0.056	-0.272
-453.982	512.092	-0.101	-0.237
-452.968	-105.002	0.157	-0.036
-451.953	620.180	0.033	0.083
-450.938	19.732	0.183	0.149
-449.924	-90.276	-0.031	0.009
-448.909	34.536	0.219	0.193
-447.895	-7.015	0.284	0.195
-446.880	-94.707	-0.178	-0.049
-445.865	363.553	0.165	0.335
-444.851	13.274	-0.127	0.100
-443.836	-126.689	-0.049	0.007
-442.822	82.632	-0.109	0.120
-441.807	-200.000	0.006	-0.172
-440.792	343.302	0.040	0.079
-439.778	98.113	0.125	0.145
-438.763	505.449	0.147	0.345
-437.749	-200.000	-0.078	-0.350
-436.734	-74.018	-0.115	-0.042
-435.719	-177.824	-0.139	-0.003
-434.705	-37.030	-0.130	0.070
-433.690	-19.798	-0.182	0.114
-432.676	-200.000	-0.065	-0.335
-431.661	-57.862	-0.253	0.112
-430.646	-11.054	0.089	0.060
-429.632	-47.365	0.270	-0.133
-428.617	105.714	-0.191	-0.228
-427.603	-57.899	-0.406	0.179
-426.588	73.740	0.077	-0.081
-425.573	-65.305	0.207	-0.084
-424.559	-138.499	0.306	-0.034
-423.544	36.511	-0.142	-0.127
-422.530	800.000	-0.056	0.173
-421.515	800.000	0.110	0.351
-420.500	8.866	0.209	-0.159
-419.486	-200.000	0.011	0.170
-418.471	-200.000	-0.003	-0.060
-417.457	-135.297	-0.480	-0.058
-416.442	-148.330	-0.180	-0.015
-415.428	41.194	0.247	-0.225
-414.413	87.487	0.020	-0.022
-413.398	-200.000	0.030	0.180
-412.384	-200.000	0.001	-0.215
-411.369	800.000	-0.055	-0.221
-410.355	-12.798	-0.198	0.130
-409.340	23.402	-0.223	-0.185
-408.325	16.152	-0.318	-0.253
-407.311	-85.326	0.043	0.014
-406.296	-18.341	-0.229	0.145
-405.282	-21.811	-0.344	0.211
-404.267	-126.531	0.186	0.028
-403.252	800.000	0.019	0.079
-402.238	336.124	-0.051	-0.099
-401.223	-50.269	-0.325	0.155
-400.209	373.939	0.064	-0.131
-399.194	20.588	0.093	-0.076
-398.179	287.722	-0.130	0.237
-397.165	57.442	0.066	0.065
-396.150	-52.030	-0.361	0.169
-395.136	-198.132	0.204	0.001
-394.121	142.213	0.099	-0.133
-393.106	-30.199	-0.299	-0.172
-392.092	-200.000	0.040	0.179
-391.077	-19.628	0.470	-0.294
-390.063	45.093	-0.128	0.119
-389.048	-167.567	-0.203	0.008
-388.033	-57.867	0.356	0.157
-387.019	800.000	0.060	0.214
-386.004	449.581	-0.183	-0.408
-384.990	-200.000	0.022	-0.255
-383.975	-28.522	-0.186	0.108
-382.960	134.056	-0.098	0.129
-381.946	800.000	-0.054	0.225
-380.931	208.729	-0.110	0.174
-379.917	21.048	0.133	-0.109
-378.902	-200.000	0.034	-0.387
-377.888	-162.553	0.224	0.011
-376.873	-200.000	-0.049	0.315
-375.858	-64.418	0.164	0.067
-374.844	-168.448	0.260	-0.010
-373.829	37.515	-0.183	-0.164
-372.815	393.677	-0.076	0.160
-371.800	175.218	-0.186	0.272
-370.785	220.927	0.078	0.126
-369.771	64.888	0.121	-0.123
-368.756	-97.252	-0.309	-0.081
-367.742	-60.996	0.238	0.102
-366.727	800.000	-0.092	0.310
-365.712	-58.147	0.227	-0.100
-364.698	-200.000	-0.060	-0.404
-363.683	341.130	0.073	0.144
-362.669	-143.244	-0.028	0.003
-361.654	60.951	0.056	0.056
-360.639	132.894	-0.046	0.059
-359.625	-200.000	0.019	-0.139
-358.610	56.527	0.228	0.224
-357.596	405.010	0.186	0.395
-356.581	40.553	-0.397	0.360
-355.566	-200.000	0.035	0.284
-354.552	-174.045	0.272	0.008
-353.537	-200.000	-0.009	-0.526
-352.523	152.438	-0.143	-0.197
-351.508	-84.191	0.119	0.038
-350.493	-37.003	-0.314	-0.170
-349.479	-200.000	0.017	-0.076
-348.464	-98.149	0.204	-0.053
-347.450	-200.000	0.063	0.390
-346.435	-200.000	0.060	-0.456
-345.420	205.161	0.278	-0.434
-344.406	-200.000	0.011	0.177
-343.391	-113.551	-0.086	0.017
-342.377	-200.000	-0.000	0.025
-341.362	405.191	-0.090	-0.192
-340.348	-101.251	0.017	0.004
-339.333	23.851	-0.317	0.264
-338.318	-44.186	0.282	0.142
-337.304	577.496	-0.048	-0.119
-336.289	76.891	0.228	-0.244
-335.275	-200.000	-0.019	0.266
-334.260	-101.030	-0.204	0.050
-333.245	332.870	0.112	0.217
-332.231	-33.180	0.170	0.095
-331.216	-200.000	0.061	0.434
-330.202	-122.956	0.170	0.027
-329.187	210.621	-0.122	-0.193
-328.172	248.755	-0.056	-0.095
-327.158	-184.196	-0.363	-0.006
-326.143	-96.388	0.108	0.029
-325.129	-156.458	-0.350	0.022
-324.114	-200.000	0.002	-0.034
-323.099	800.000	-0.067	0.287
-322.085	-200.000	-0.001	0.339
-321.070	-200.000	0.016	-0.077
-320.056	-200.000	-0.003	-0.120
-319.041	776.545	0.090	0.248
-318.026	-65.989	-0.155	0.062
-317.012	203.084	0.194	-0.302
-315.997	-110.610	0.238	-0.050
-314.983	90.093	-0.253	-0.285
-313.968	-6.129	0.206	-0.142
-312.953	198.981	0.112	0.172
-311.939	-49.446	-0.361	0.173
-310.924	13.206	-0.106	0.083
-309.910	-107.772	0.043	-0.009
-308.895	102.419	-0.063	-0.074
-307.880	-200.000	0.009	-0.105
-306.866	800.000	0.155	0.534
-305.851	-164.900	0.211	0.010
-304.837	800.000	-0.054	-0.185
-303.822	88.417	0.168	-0.187
-302.807	800.000	0.113	-0.330
-301.793	-132.715	0.152	-0.020
-300.778	126.133	-0.163	0.207
-299.764	580.950	-0.057	0.141
-298.749	-30.731	-0.243	0.138
-297.735	20.744	-0.327	0.266
-296.720	334.930	0.083	0.162
-295.705	-15.443	-0.157	-0.101
-294.691	125.495	0.250	0.317
-293.676	39.843	-0.321	0.290
-292.662	216.089	0.062	0.098
-291.647	800.000	0.042	-0.145
-290.632	365.903	0.144	-0.292
-289.618	-105.857	-0.181	0.041
-288.603	-200.000	0.052	-0.377
-287.589	76.080	-0.178	-0.189
-286.574	-66.606	0.343	0.137
-285.559	91.273	-0.163	0.183
-284.545	-115.812	0.191	-0.036
-283.530	-53.067	0.089	-0.041
-282.516	173.115	0.063	-0.091
-281.501	-200.000	-0.012	-0.053
-280.486	-109.136	0.103	-0.022
-279.472	699.583	-0.029	0.077
-278.457	-93.380	0.153	0.043
-277.443	-46.427	0.191	0.094
-276.428	-0.176	-0.186	0.133
-275.413	-120.643	0.363	0.062
-274.399	-200.000	0.007	-0.154
-273.384	-103.395	0.194	0.046
-272.370	800.000	0.024	0.074
-271.355	-41.977	-0.242	-0.124
-270.340	800.000	-0.100	-0.309
-269.326	-200.000	0.026	-0.332
-268.311	424.663	0.044	0.095
-267.297	-46.741	0.034	-0.017
-266.282	5.277	-0.033	-0.024
-265.267	115.704	-0.074	-0.090
-264.253	-200.000	-0.028	-0.129
-263.238	38.576	0.263	0.236
-262.224	484.002	0.053	0.121
-261.209	-7.245	0.345	-0.235
-260.195	-41.952	-0.091	0.047
-259.180	-200.000	-0.066	-0.391
-258.165	111.684	-0.085	0.103
-257.151	-29.491	0.247	0.142
-256.136	-200.000	-0.014	0.149
-255.122	-200.000	0.022	0.180
-254.107	-63.759	-0.205	0.084
-253.092	35.124	-0.248	-0.218
-252.078	-69.276	0.100	-0.039
-251.063	0.786	0.174	0.125
-250.049	-13.388	0.104	-0.068
-249.034	-200.000	0.019	-0.307
-248.019	307.185	-0.085	-0.160
-247.005	350.281	0.128	-0.255
-245.990	169.238	0.203	-0.291
-244.976	48.195	0.120	-0.113
-243.961	-120.589	-0.365	0.062
-242.946	-200.000	-0.009	0.186
-241.932	-200.000	-0.011	0.235
-240.917	9.615	-0.021	-0.016
-239.903	-141.643	-0.097	0.010
-238.888	-58.564	-0.220	-0.096
-237.873	303.692	0.039	0.073
-236.859	-200.000	-0.056	-0.260
-235.844	-151.216	0.081	0.006
-234.830	317.201	-0.222	0.420
-233.815	-18.064	-0.091	0.057
-232.800	-167.614	0.294	0.012
-231.786	296.937	-0.141	0.259
-230.771	110.115	-0.111	0.134
-229.757	74.672	0.158	-0.167
-228.742	14.028	0.072	0.056
-227.727	-157.643	-0.272	-0.016
-226.713	800.000	-0.034	0.097
-225.698	188.115	-0.169	-0.254
-224.684	125.786	-0.185	0.235
-223.669	245.663	-0.033	-0.055
-222.655	-114.235	0.180	0.035
-221.640	-60.997	-0.090	-0.038
-220.625	1.779	0.139	0.100
-219.611	-32.224	0.255	-0.143
-218.596	466.256	0.159	0.358
-217.582	-24.410	0.191	-0.114
-216.567	191.347	0.156	0.236
-215.552	-119.239	0.176	-0.031
-214.538	-73.468	-0.167	-0.061
-213.523	-200.000	-0.033	0.269
-212.509	-66.537	-0.050	-0.020
-211.494	-31.459	-0.238	-0.134
-210.479	-80.877	0.218	-0.072
-209.465	-200.000	0.014	0.106
-208.450	800.000	-0.102	0.302
-207.436	317.588	-0.136	-0.258
-206.421	-60.101	-0.174	-0.074
-205.406	-131.530	0.399	0.053
-204.392	800.000	0.049	-0.150
-203.377	-2.193	-0.377	-0.265
-202.363	-200.000	0.018	0.188
-201.348	562.924	0.199	0.482
-200.333	297.646	0.085	-0.157
-199.319	141.819	0.134	0.178
-198.304	-143.834	0.146	-0.014
-197.290	-30.813	0.074	0.042
-196.275	800.000	0.045	-0.147
-195.260	-134.817	-0.083	0.010
-194.246	-200.000	-0.006	0.195
-193.231	42.543	0.207	0.189
-192.217	-200.000	0.070	-0.350
-191.202	493.290	0.021	-0.049
-190.187	-137.886	0.261	-0.029
-189.173	32.299	0.044	0.038
-188.158	396.805	-0.053	-0.111
-187.144	-116.316	0.023	-0.004
-186.129	-24.390	-0.325	-0.194
-185.114	-19.981	0.124	-0.076
-184.100	784.006	-0.076	0.208
-183.085	97.050	-0.106	-0.122
-182.071	800.000	0.072	-0.307
-181.056	-44.602	-0.317	0.159
-180.042	148.179	0.059	0.080
-179.027	-200.000	0.013	-0.186
-178.012	-3.909	0.130	0.090
-176.998	25.782	0.201	0.167
-175.983	-37.491	-0.243	-0.130
-174.969	-145.203	-0.336	0.030
-173.954	-7.687	-0.059	-0.040
-172.939	241.000	0.192	-0.321
-171.925	-11.607	0.164	0.108
-170.910	343.890	0.164	-0.323
-169.896	-200.000	-0.007	0.214
-168.881	78.553	0.099	0.106
-167.866	-114.008	0.368	-0.071
-166.852	-61.002	0.183	-0.077
-165.837	756.547	-0.041	0.110
-164.823	-81.518	0.442	-0.146
-163.808	340.041	0.014	0.028
-162.793	-19.870	-0.062	-0.038
-161.779	-200.000	-0.030	-0.281
-160.764	202.897	0.089	-0.137
-159.750	-151.612	-0.129	0.010
-158.735	-64.139	-0.300	-0.122
-157.720	800.000	0.108	0.307
-156.706	-200.000	0.084	0.541
-155.691	800.000	0.063	-0.212
-154.677	313.060	-0.154	0.289
-153.662	-200.000	-0.046	0.208
-152.647	311.230	-0.082	-0.154
-151.633	800.000	0.139	-0.492
-150.618	134.647	0.182	-0.236
-149.604	156.399	0.181	0.249
-148.589	-53.737	-0.281	0.128
-147.574	119.468	-0.156	-0.193
-146.560	364.457	0.098	-0.198
-145.545	667.711	0.048	0.125
-144.531	782.167	0.066	0.181
-143.516	2.404	-0.185	0.134
-142.502	-75.413	0.109	-0.039
-141.487	775.116	0.011	-0.031
-140.472	-135.330	0.265	0.032
-139.458	559.482	0.073	0.176
-138.443	-61.970	-0.219	0.092
-137.429	67.409	0.108	-0.110
-136.414	99.797	-0.132	-0.153
-135.399	-64.587	0.256	-0.104
-134.385	576.038	-0.033	0.081
-133.370	23.647	0.151	-0.124
-132.356	-200.000	-0.023	0.392
-131.341	-4.774	-0.245	-0.169
-130.326	-104.821	0.091	-0.021
-129.312	-7.359	0.162	-0.109
-128.297	8.594	0.210	-0.158
-127.283	591.169	0.073	-0.180
-126.268	610.982	0.053	0.131
-125.253	17.565	0.074	0.058
-124.239	130.354	0.219	0.280
-123.224	42.405	0.201	-0.183
-122.210	800.000	0.130	-0.366
-121.195	-110.153	-0.150	0.031
-120.180	-19.150	-0.168	0.104
