DTS Sentinel unit serial number:	SN413079Multiplexer serial number:	ORYXHardware model number:	OX4-SRSoftware version number:	ORYX F/W v4.00 Oryx Data Collector v3.7.2.0data status	okinstallation	princeton_trtdifferential loss correction	single-endedforward channel	channel 1reverse channel	N/Adate	2019/09/15time	08:42:35forward acquisition time	60.00reverse acquisition time	0.00gamma	496.2192k internal	0.2318k external	0.2318temperature offset calibration	0.9987default loss term (dB/km)	0.3790temperature slope calibration	1.0000multiplexer offset coefficient	1.0000multiplexer slope coefficient	1.0000fibre end	0.00T internal ref (°C)	32.06T ext. ref 1 (°C)	4.97T ext. ref 2 (°C)	29.25length (m)	temperature (°C)	Stokes	anti-Stokes-747.200	-76.237	0.168	0.060
-746.185	-5.994	-0.126	0.087
-745.171	-200.000	-0.040	-0.217
-744.156	38.330	-0.199	0.180
-743.142	-53.140	-0.333	-0.155
-742.127	-75.286	-0.100	-0.036
-741.112	227.315	0.117	-0.192
-740.098	764.074	0.013	0.035
-739.083	-103.331	0.300	0.072
-738.069	154.048	0.058	0.080
-737.054	32.821	-0.280	0.245
-736.039	-200.000	0.007	-0.193
-735.025	-59.316	0.127	-0.055
-734.010	630.525	0.058	0.148
-732.996	-200.000	0.005	0.123
-731.981	-109.603	0.068	-0.015
-730.966	126.255	-0.137	-0.176
-729.952	-200.000	0.029	-0.134
-728.937	267.253	-0.052	0.093
-727.923	506.501	-0.238	-0.557
-726.908	-57.584	0.165	0.073
-725.894	-200.000	-0.007	0.047
-724.879	368.176	0.063	0.129
-723.864	800.000	0.089	0.258
-722.850	-66.556	-0.344	0.138
-721.835	73.830	0.253	-0.268
-720.821	320.874	0.079	-0.151
-719.806	-200.000	0.018	0.192
-718.791	-57.382	0.099	0.044
-717.777	-28.203	0.131	0.077
-716.762	-200.000	0.018	-0.089
-715.748	-200.000	0.008	0.108
-714.733	64.369	-0.188	0.191
-713.718	-70.706	-0.289	-0.110
-712.704	-2.141	0.285	0.202
-711.689	-28.890	0.118	0.069
-710.675	-200.000	0.023	0.262
-709.660	201.532	0.167	0.260
-708.645	6.675	-0.235	0.176
-707.631	53.997	-0.154	-0.150
-706.616	800.000	0.056	-0.214
-705.602	-38.212	0.100	0.053
-704.587	-110.912	0.223	0.046
-703.572	-200.000	-0.007	-0.303
-702.558	110.623	0.025	-0.030
-701.543	-152.569	0.380	-0.027
-700.529	-145.763	-0.369	-0.033
-699.514	-107.647	-0.068	0.015
-698.499	367.716	0.087	0.177
-697.485	359.827	0.011	-0.023
-696.470	800.000	-0.092	-0.346
-695.456	-77.806	-0.070	0.025
-694.441	-200.000	-0.010	0.136
-693.426	130.543	-0.199	-0.258
-692.412	182.446	0.235	-0.351
-691.397	-109.477	-0.307	-0.065
-690.383	-78.169	0.227	-0.079
-689.368	800.000	-0.074	-0.261
-688.354	672.480	0.144	-0.377
-687.339	-200.000	0.026	0.190
-686.324	68.622	-0.148	-0.153
-685.310	115.922	-0.206	0.254
-684.295	-53.952	0.213	-0.098
-683.281	-200.000	-0.011	0.067
-682.266	0.480	0.127	0.091
-681.251	-25.497	0.272	0.163
-680.237	800.000	-0.107	0.466
-679.222	-114.213	0.126	-0.024
-678.208	-159.952	-0.181	0.010
-677.193	233.135	0.131	-0.218
-676.178	123.532	-0.206	-0.261
-675.164	-35.879	0.056	-0.031
-674.149	13.051	-0.072	0.056
-673.135	238.337	-0.044	-0.075
-672.120	-160.752	-0.102	-0.005
-671.105	-130.317	0.349	-0.048
-670.091	-139.337	-0.256	-0.028
-669.076	-76.176	0.170	0.061
-668.062	-200.000	-0.029	-0.268
-667.047	398.830	0.080	-0.169
-666.032	46.638	-0.053	-0.049
-665.018	53.955	-0.170	-0.165
-664.003	-68.450	0.071	0.028
-662.989	-35.971	-0.075	-0.041
-661.974	371.120	-0.095	-0.193
-660.959	-52.436	0.212	-0.099
-659.945	66.929	0.055	-0.056
-658.930	480.070	-0.159	-0.365
-657.916	-22.509	0.285	-0.174
-656.901	66.291	-0.192	-0.196
-655.886	-11.153	0.172	-0.114
-654.872	-200.000	0.005	-0.167
-653.857	-164.976	-0.189	0.008
-652.843	191.747	-0.215	-0.326
-651.828	-87.632	0.253	-0.077
-650.814	800.000	-0.082	-0.296
-649.799	295.690	0.044	-0.082
-648.784	-200.000	-0.051	0.422
-647.770	456.592	-0.111	-0.249
-646.755	27.087	0.248	-0.210
-645.741	423.312	-0.209	-0.453
-644.726	-34.704	-0.209	-0.115
-643.711	-200.000	-0.001	-0.279
-642.697	28.594	-0.348	-0.297
-641.682	632.468	0.079	0.201
-640.668	-200.000	-0.003	-0.564
-639.653	-148.403	-0.224	-0.019
-638.638	-91.928	-0.073	-0.021
-637.624	209.665	-0.039	0.061
-636.609	-32.453	0.169	0.095
-635.595	800.000	0.023	0.094
-634.580	17.268	-0.306	-0.245
-633.565	679.202	0.053	-0.139
-632.551	53.945	-0.180	0.174
-631.536	-131.841	0.262	-0.035
-630.522	187.214	0.051	0.077
-629.507	-200.000	0.021	0.163
-628.492	-37.768	-0.259	0.139
-627.478	331.874	-0.094	-0.183
-626.463	-85.817	-0.271	0.085
-625.449	-200.000	0.023	-0.356
-624.434	180.958	-0.065	-0.096
-623.419	172.011	0.088	0.127
-622.405	-106.431	-0.289	0.065
-621.390	-200.000	-0.346	0.002
-620.376	-72.442	0.072	0.027
-619.361	234.283	-0.103	-0.171
-618.346	-51.671	-0.289	-0.136
-617.332	418.723	-0.156	0.337
-616.317	-25.520	-0.127	0.075
-615.303	-7.969	0.171	0.116
-614.288	-153.054	0.137	0.010
-613.273	35.645	-0.091	0.081
-612.259	-200.000	0.005	-0.209
-611.244	800.000	-0.085	-0.272
-610.230	-166.955	-0.220	0.009
-609.215	128.599	-0.093	-0.120
-608.201	-85.958	-0.128	0.040
-607.186	323.221	-0.070	0.135
-606.171	277.606	-0.163	0.293
-605.157	-47.652	-0.164	-0.080
-604.142	15.450	0.068	0.053
-603.128	46.760	-0.215	0.201
-602.113	-43.568	0.140	0.071
-601.098	-54.594	0.258	0.118
-600.084	106.443	0.278	-0.332
-599.069	86.009	-0.163	-0.180
-598.055	208.737	-0.193	-0.304
-597.040	-19.311	0.170	-0.106
-596.025	-200.000	-0.016	-0.182
-595.011	298.837	-0.074	0.138
-593.996	68.977	0.178	-0.184
-592.982	48.834	-0.223	0.210
-591.967	130.867	0.065	-0.084
-590.952	-14.466	0.125	0.081
-589.938	-25.922	-0.258	0.153
-588.923	800.000	0.096	0.309
-587.909	-200.000	-0.092	-0.411
-586.894	-200.000	-0.001	-0.038
-585.879	-127.246	-0.365	0.054
-584.865	-61.764	-0.130	0.055
-583.850	-200.000	0.027	-0.145
-582.836	-146.877	-0.225	0.019
-581.821	800.000	-0.141	0.425
-580.806	-26.348	0.108	0.064
-579.792	44.500	0.050	-0.046
-578.777	43.045	0.088	-0.080
-577.763	-62.809	-0.051	-0.021
-576.748	-110.243	0.208	0.044
-575.733	-156.440	0.188	0.012
-574.719	271.624	0.041	0.072
-573.704	-193.599	0.169	-0.001
-572.690	-200.000	-0.016	0.299
-571.675	-158.400	0.524	-0.031
-570.661	800.000	0.004	-0.017
-569.646	349.631	0.141	0.279
-568.631	-68.487	0.039	-0.015
-567.617	237.470	0.251	-0.418
-566.602	435.735	0.085	-0.187
-565.588	800.000	-0.095	0.286
-564.573	-200.000	0.043	0.220
-563.558	800.000	0.151	0.641
-562.544	-54.719	0.133	0.060
-561.529	104.172	-0.197	-0.233
-560.515	612.681	-0.122	-0.306
-559.500	2.831	0.131	-0.095
-558.485	-15.963	-0.015	-0.009
-557.471	-200.000	0.016	0.183
-556.456	800.000	-0.030	0.102
-555.442	-152.856	0.178	0.013
-554.427	237.449	0.207	0.346
-553.412	271.787	-0.099	0.176
-552.398	-39.696	0.359	0.189
-551.383	-129.654	0.284	0.039
-550.369	-158.096	-0.212	0.013
-549.354	-123.713	-0.199	-0.032
-548.339	80.801	0.075	-0.082
-547.325	-61.711	-0.194	0.082
-546.310	9.552	-0.235	0.179
-545.296	-200.000	-0.007	-0.105
-544.281	-200.000	0.020	0.198
-543.266	92.288	0.068	0.077
-542.252	709.310	-0.102	0.270
-541.237	101.465	0.029	-0.034
-540.223	-131.283	0.330	0.044
-539.208	119.973	0.094	-0.116
-538.193	-188.295	0.260	0.003
-537.179	-193.510	0.055	0.000
-536.164	223.173	0.087	-0.142
-535.150	101.029	-0.172	-0.201
-534.135	-33.579	-0.250	-0.138
-533.121	-55.828	0.182	-0.082
-532.106	484.044	0.160	0.365
-531.091	529.034	-0.153	-0.361
-530.077	-45.733	-0.107	-0.053
-529.062	159.867	0.101	0.142
-528.048	-200.000	-0.010	-0.097
-527.033	-200.000	-0.016	-0.079
-526.018	6.970	-0.167	0.125
-525.004	-200.000	0.009	-0.127
-523.989	261.073	0.161	0.279
-522.975	28.717	0.155	-0.131
-521.960	-200.000	-0.011	0.092
-520.945	97.770	0.051	-0.059
-519.931	270.133	-0.130	-0.229
-518.916	-200.000	0.000	-0.266
-517.902	323.719	-0.070	-0.134
-516.887	264.231	-0.071	-0.124
-515.872	-107.732	0.231	-0.050
-514.858	5.621	-0.141	-0.105
-513.843	307.496	-0.142	-0.266
-512.829	7.766	-0.064	-0.048
-511.814	14.402	0.120	0.094
-510.799	-25.646	0.118	0.070
-509.785	-200.000	-0.013	0.096
-508.770	-8.873	-0.193	0.130
-507.756	-85.633	-0.516	-0.161
-506.741	-200.000	0.028	0.132
-505.726	186.008	0.222	-0.332
-504.712	3.745	-0.114	0.083
-503.697	-105.518	-0.084	0.019
-502.683	-200.000	-0.015	-0.217
-501.668	70.607	-0.159	-0.165
-500.653	-151.268	-0.294	0.022
-499.639	457.827	0.085	0.189
-498.624	406.786	-0.089	0.189
-497.610	420.274	0.102	0.218
-496.595	26.046	-0.207	0.173
-495.581	800.000	-0.058	0.246
-494.566	65.878	0.030	-0.030
-493.551	800.000	0.042	0.181
-492.537	-3.020	0.272	0.191
-491.522	-39.100	0.024	-0.013
-490.508	-31.351	-0.444	0.250
-489.493	-200.000	-0.013	0.174
-488.478	-74.676	0.255	0.092
-487.464	11.400	-0.107	-0.082
-486.449	800.000	-0.150	0.432
-485.435	125.510	0.038	-0.048
-484.420	800.000	-0.016	0.064
-483.405	800.000	-0.082	-0.286
-482.391	-39.280	-0.095	0.050
-481.376	67.086	-0.025	-0.026
-480.362	-146.563	0.119	-0.010
-479.347	98.368	-0.037	-0.043
-478.332	800.000	0.019	0.077
-477.318	-29.404	-0.133	-0.076
-476.303	-200.000	0.039	0.194
-475.289	-200.000	-0.009	0.094
-474.274	-92.590	0.263	-0.074
-473.259	81.697	0.076	-0.083
-472.245	63.493	0.101	-0.102
-471.230	-200.000	0.008	-0.141
-470.216	-200.000	0.080	0.426
-469.201	800.000	0.094	0.259
-468.186	-23.616	0.013	-0.008
-467.172	279.406	-0.141	-0.251
-466.157	186.049	0.250	0.373
-465.143	-200.000	0.052	-0.245
-464.128	388.383	-0.069	-0.142
-463.113	32.465	-0.192	0.166
-462.099	-86.984	0.074	0.022
-461.084	501.473	0.115	-0.265
-460.070	-90.944	0.158	0.045
-459.055	76.109	0.119	0.126
-458.040	30.881	-0.183	-0.157
-457.026	-10.296	-0.264	-0.175
-456.011	157.651	-0.056	0.077
-454.997	-36.153	0.239	0.129
-453.982	-147.851	0.215	0.018
-452.968	-140.644	0.569	0.059
-451.953	-89.572	0.314	-0.092
-450.938	374.611	0.064	-0.131
-449.924	-200.000	-0.029	0.279
-448.909	-138.311	-0.174	-0.019
-447.895	231.697	0.115	-0.189
-446.880	-200.000	-0.049	0.000
-445.865	-83.364	-0.201	0.064
-444.851	298.648	0.057	-0.105
-443.836	688.110	-0.143	-0.375
-442.822	86.658	0.203	-0.224
-441.807	458.639	-0.153	0.339
-440.792	162.811	0.104	0.146
-439.778	-167.208	-0.173	0.007
-438.763	-111.129	0.232	0.048
-437.749	800.000	0.032	-0.135
-436.734	20.416	0.328	-0.265
-435.719	273.431	-0.289	0.510
-434.705	-66.006	0.207	0.082
-433.690	-90.476	-0.063	0.018
-432.676	4.493	-0.117	-0.086
-431.661	-160.615	0.173	0.009
-430.646	-125.397	-0.273	-0.042
-429.632	-95.846	-0.158	-0.042
-428.617	763.301	0.119	-0.323
-427.603	-200.000	-0.003	-0.241
-426.588	-200.000	0.007	-0.032
-425.573	-200.000	0.004	0.024
-424.559	761.579	0.016	-0.044
-423.544	-200.000	-0.036	-0.218
-422.530	-200.000	0.005	-0.038
-421.515	-200.000	0.050	-0.288
-420.500	25.096	0.080	-0.066
-419.486	-200.000	0.033	-0.242
-418.471	-23.651	0.178	-0.107
-417.457	93.319	-0.342	0.386
-416.442	-8.637	0.124	0.083
-415.428	-200.000	0.003	0.040
-414.413	-2.476	-0.115	0.080
-413.398	13.933	0.093	0.072
-412.384	-33.720	0.075	0.041
-411.369	34.926	0.243	-0.213
-410.355	-156.573	0.208	-0.013
-409.340	94.344	-0.166	-0.189
-408.325	500.061	-0.112	-0.257
-407.311	-57.829	0.103	-0.045
-406.296	-90.173	-0.472	0.137
-405.282	-37.561	-0.119	0.063
-404.267	-107.523	0.207	0.045
-403.252	62.918	0.219	-0.219
-402.238	800.000	0.089	-0.265
-401.223	292.235	-0.244	-0.443
-400.209	-200.000	0.055	0.251
-399.194	175.038	0.144	0.209
-398.179	-170.471	0.097	-0.003
-397.165	206.658	0.161	-0.251
-396.150	5.871	-0.194	-0.143
-395.136	-200.000	-0.003	-0.265
-394.121	353.010	-0.152	0.301
-393.106	-28.927	0.079	-0.045
-392.092	-200.000	-0.008	-0.282
-391.077	800.000	0.108	0.370
-390.063	-71.739	-0.049	-0.018
-389.048	-78.466	-0.326	-0.111
-388.033	-8.141	0.291	0.195
-387.019	394.536	0.104	-0.216
-386.004	-25.746	0.277	0.163
-384.990	-64.085	0.183	-0.074
-383.975	57.004	0.119	-0.116
-382.960	67.937	-0.215	0.219
-381.946	-82.412	-0.318	0.103
-380.931	-59.929	0.320	-0.137
-379.917	24.179	0.174	-0.143
-378.902	-200.000	0.035	0.319
-377.888	-200.000	-0.004	-0.274
-376.873	-106.250	-0.143	-0.032
-375.858	-51.930	0.019	0.009
-374.844	-200.000	-0.079	0.455
-373.829	-200.000	-0.027	0.256
-372.815	-69.003	-0.112	0.043
-371.800	50.983	-0.139	0.131
-370.785	-188.119	-0.033	-0.000
-369.771	-200.000	0.040	0.207
-368.756	743.485	0.106	-0.283
-367.742	-75.117	0.376	0.134
-366.727	-200.000	0.026	0.205
-365.712	728.304	-0.026	-0.070
-364.698	-80.393	0.122	0.041
-363.683	-200.000	-0.027	0.261
-362.669	-6.466	-0.152	-0.103
-361.654	94.527	-0.133	-0.150
-360.639	712.605	-0.143	-0.378
-359.625	-51.163	-0.225	-0.105
-358.610	-156.495	-0.091	0.006
-357.596	-200.000	-0.042	-0.214
-356.581	163.830	-0.220	-0.309
-355.566	247.716	0.219	-0.368
-354.552	-53.454	0.075	-0.034
-353.537	-200.000	-0.014	0.411
-352.523	-175.801	-0.238	-0.006
-351.508	-153.396	-0.334	-0.023
-350.493	-167.971	-0.212	-0.008
-349.479	519.509	-0.103	0.241
-348.464	125.175	0.262	0.330
-347.450	-41.545	-0.277	0.142
-346.435	-14.342	-0.191	0.123
-345.420	10.374	-0.070	0.053
-344.406	-67.646	0.296	-0.116
-343.391	17.769	0.293	-0.233
-342.377	340.927	-0.108	0.210
-341.362	-158.882	-0.099	-0.006
-340.348	290.625	-0.063	0.114
-339.333	-200.000	-0.074	0.349
-338.318	-127.559	0.171	0.025
-337.304	-200.000	0.041	0.182
-336.289	363.630	0.077	0.154
-335.275	-58.742	-0.107	0.046
-334.260	122.656	0.082	-0.103
-333.245	349.622	-0.210	-0.412
-332.231	-118.488	0.514	-0.091
-331.216	117.759	-0.156	0.191
-330.202	-62.693	0.205	-0.085
-329.187	64.853	-0.165	-0.165
-328.172	354.235	0.159	-0.314
-327.158	-7.481	-0.250	0.168
-326.143	-2.269	0.126	-0.088
-325.129	-37.748	-0.221	0.117
-324.114	28.103	0.233	0.195
-323.099	16.103	0.196	0.154
-322.085	76.730	-0.140	0.148
-321.070	-160.714	0.259	0.014
-320.056	-126.449	-0.158	-0.023
-319.041	-200.000	0.021	0.185
-318.026	124.885	0.175	0.219
-317.012	147.889	0.038	0.051
-315.997	-143.553	0.274	-0.026
-314.983	-23.361	-0.151	-0.090
-313.968	570.025	0.113	-0.272
-312.953	-200.000	-0.033	0.155
-311.939	-200.000	0.025	-0.334
-310.924	-84.745	0.140	0.044
-309.910	129.915	0.067	-0.085
-308.895	-26.243	0.345	-0.202
-307.880	-200.000	0.014	0.082
-306.866	-200.000	0.022	0.225
-305.851	-35.917	0.080	-0.043
-304.837	110.600	-0.255	-0.305
-303.822	-200.000	0.024	-0.156
-302.807	-106.927	0.337	-0.074
-301.793	-200.000	-0.029	-0.208
-300.778	-84.236	-0.416	-0.131
-299.764	102.771	-0.179	0.208
-298.749	-71.294	0.240	0.089
-297.735	102.706	-0.174	0.202
-296.720	26.850	-0.210	-0.175
-295.705	51.734	0.207	0.196
-294.691	-45.737	0.150	-0.074
-293.676	-200.000	-0.003	-0.104
-292.662	-200.000	0.008	-0.236
-291.647	225.445	-0.069	0.111
-290.632	-149.214	0.151	-0.012
-289.618	-127.157	0.262	-0.038
-288.603	-68.293	0.117	-0.045
-287.589	-4.081	0.201	-0.139
-286.574	-113.171	0.322	0.063
-285.559	800.000	0.104	0.331
-284.545	-200.000	0.023	0.228
-283.530	-82.000	-0.098	-0.032
-282.516	-200.000	-0.001	-0.366
-281.501	-63.454	-0.188	-0.077
-280.486	800.000	0.102	-0.302
-279.472	132.624	0.248	-0.318
-278.457	-200.000	-0.062	-0.325
-277.443	-25.006	-0.281	-0.166
-276.428	86.554	-0.088	-0.096
-275.413	-200.000	0.028	-0.208
-274.399	272.888	-0.156	0.274
-273.384	-158.650	0.132	-0.008
-272.370	-104.778	0.129	-0.029
-271.355	-79.930	-0.253	0.084
-270.340	-56.047	-0.336	0.149
-269.326	800.000	0.026	0.085
-268.311	349.036	-0.189	0.370
-267.297	-200.000	-0.003	0.191
-266.282	-74.549	0.332	0.119
-265.267	313.394	0.076	-0.141
-264.253	-28.295	0.296	-0.170
-263.238	-115.355	-0.316	-0.059
-262.224	800.000	-0.094	0.293
-261.209	-37.110	0.028	0.015
-260.195	-50.437	-0.104	0.049
-259.180	-200.000	0.018	-0.157
-258.165	-200.000	-0.004	-0.368
-257.151	25.575	0.118	0.098
-256.136	-67.761	-0.068	-0.026
-255.122	39.342	0.174	-0.154
-254.107	-200.000	0.011	0.399
-253.092	-200.000	-0.016	0.198
-252.078	-169.940	-0.294	0.010
-251.063	-195.376	-0.226	0.002
-250.049	8.295	0.307	0.229
-249.034	-200.000	0.071	0.393
-248.019	98.093	-0.050	0.057
-247.005	-200.000	0.009	0.242
-245.990	800.000	0.033	0.115
-244.976	-57.134	0.520	0.227
-243.961	-55.984	-0.107	0.047
-242.946	-90.474	-0.155	-0.045
-241.932	162.995	0.251	0.349
-240.917	-110.523	-0.019	0.004
-239.903	-200.000	0.016	-0.251
-238.888	-169.656	-0.251	-0.009
-237.873	800.000	-0.065	0.239
-236.859	128.577	0.249	0.315
-235.844	-33.998	-0.167	0.091
-234.830	-49.232	0.405	0.192
-233.815	9.817	-0.174	0.131
-232.800	-52.167	0.043	-0.020
-231.786	-152.272	0.179	0.013
-230.771	-200.000	-0.038	-0.322
-229.757	88.724	0.171	0.189
-228.742	539.053	0.030	0.070
-227.727	36.854	0.325	0.285
-226.713	-126.352	0.151	-0.022
-225.698	562.815	-0.085	0.205
-224.684	-151.004	-0.079	-0.006
-223.669	112.317	-0.164	-0.196
-222.655	152.953	0.267	-0.362
-221.640	-23.852	-0.304	-0.181
-220.625	-200.000	-0.044	-0.237
-219.611	-200.000	-0.029	-0.149
-218.596	-200.000	-0.030	0.345
-217.582	-116.812	-0.215	-0.039
-216.567	79.934	0.185	0.198
-215.552	-200.000	0.000	-0.248
-214.538	-55.869	0.433	-0.192
-213.523	-100.939	-0.280	0.068
-212.509	-200.000	-0.011	0.196
-211.494	-200.000	-0.016	0.078
-210.479	80.860	-0.149	-0.160
-209.465	-145.360	-0.199	-0.018
-208.450	-134.653	0.233	0.028
-207.436	800.000	-0.112	0.407
-206.421	800.000	-0.099	0.303
-205.406	50.688	-0.209	-0.196
-204.392	-200.000	0.004	-0.209
-203.377	-31.515	-0.068	0.038
-202.363	111.063	-0.141	-0.168
-201.348	186.562	0.101	0.149
-200.333	-6.345	-0.111	-0.075
-199.319	709.380	-0.154	-0.403
-198.304	-57.158	0.274	-0.120
-197.290	-200.000	0.002	0.159
-196.275	528.391	-0.136	0.319
-195.260	88.594	0.428	0.471
-194.246	-82.644	-0.087	-0.028
-193.231	15.964	0.073	0.057
-192.217	595.818	0.088	0.216
-191.202	-49.905	-0.321	-0.151
-190.187	38.424	-0.174	-0.154
-189.173	53.469	-0.214	-0.203
-188.158	-73.356	-0.273	-0.099
-187.144	-104.882	0.237	0.054
-186.129	-26.078	-0.173	0.100
-185.114	12.565	-0.081	-0.062
-184.100	-22.188	0.111	-0.067
-183.085	-200.000	0.024	-0.332
-182.071	-200.000	-0.234	0.001
-181.056	48.762	0.071	-0.065
-180.042	800.000	0.172	-0.602
-179.027	3.028	0.174	-0.125
-178.012	225.165	-0.198	0.317
-176.998	800.000	-0.088	0.326
-175.983	-66.994	-0.213	0.083
-174.969	19.145	0.270	-0.214
-173.954	-200.000	-0.051	-0.281
-172.939	-200.000	0.036	-0.189
-171.925	337.289	0.120	0.231
-170.910	336.898	0.183	-0.351
-169.896	-143.989	-0.080	-0.007
-168.881	59.324	0.187	-0.182
-167.866	-182.033	0.221	-0.004
-166.852	-173.094	-0.074	0.002
-165.837	31.342	-0.178	0.151
-164.823	177.941	0.109	-0.157
-163.808	-61.009	-0.280	0.117
-162.793	-106.574	-0.362	-0.080
-161.779	-62.069	-0.208	0.086
-160.764	-112.821	0.241	-0.047
-159.750	6.264	-0.127	0.093
-158.735	-92.882	-0.076	-0.021
-157.720	-101.610	-0.176	0.042
-156.706	357.405	-0.042	-0.082
-155.691	-19.192	0.264	0.162
-154.677	-30.073	0.163	0.092
-153.662	-7.544	-0.056	-0.037
-152.647	502.055	0.036	-0.083
-151.633	6.468	0.269	0.198
-150.618	72.970	-0.211	0.218
-149.604	127.192	0.209	-0.262
-148.589	-129.959	-0.441	-0.060
-147.574	-71.028	0.249	0.093
-146.560	-200.000	-0.056	0.448
-145.545	31.450	0.242	-0.206
-144.531	-171.092	0.318	-0.011
-143.516	-200.000	-0.003	-0.044
-142.502	-110.742	0.098	0.020
-141.487	-28.606	-0.324	-0.184
-140.472	-81.402	0.379	-0.123
-139.458	2.905	-0.158	-0.113
-138.443	45.618	-0.196	0.179
-137.429	-200.000	-0.006	0.145
-136.414	59.641	-0.112	0.109
-135.399	-119.217	0.285	0.049
-134.385	366.496	0.145	-0.288
-133.370	-200.000	0.013	-0.349
-132.356	102.214	0.009	-0.010
-131.341	-159.858	-0.304	-0.016
-130.326	-92.851	0.388	0.107
-129.312	-83.806	0.312	0.098
-128.297	-104.701	0.090	-0.020
-127.283	-27.459	-0.331	0.190
-126.268	-143.215	0.321	0.030
-125.253	-25.081	-0.210	0.123
-124.239	-200.000	-0.007	-0.122
-123.224	260.429	0.116	0.198
-122.210	212.656	0.172	0.268
-121.195	-184.684	0.157	-0.002
