DTS Sentinel unit serial number:	SN413079Multiplexer serial number:	ORYXHardware model number:	OX4-SRSoftware version number:	ORYX F/W v4.00 Oryx Data Collector v3.7.2.0data status	okinstallation	princeton_trtdifferential loss correction	single-endedforward channel	channel 1reverse channel	N/Adate	2019/09/19time	11:54:35forward acquisition time	60.00reverse acquisition time	0.00gamma	496.2192k internal	0.2337k external	0.2337temperature offset calibration	1.0008default loss term (dB/km)	0.3790temperature slope calibration	1.0000multiplexer offset coefficient	1.0000multiplexer slope coefficient	1.0000fibre end	0.00T internal ref (°C)	25.89T ext. ref 1 (°C)	0.83T ext. ref 2 (°C)	21.92length (m)	temperature (°C)	Stokes	anti-Stokes-747.200	504.855	-0.157	0.365
-746.185	532.470	-0.200	0.475
-745.171	-15.906	-0.269	0.172
-744.156	-88.366	0.046	0.014
-743.142	-28.670	-0.283	0.164
-742.127	-200.000	-0.042	0.298
-741.112	-200.000	0.048	-0.247
-740.098	-83.736	0.151	0.048
-739.083	-78.222	0.052	-0.018
-738.069	359.279	0.116	-0.234
-737.054	6.280	-0.179	0.133
-736.039	64.324	0.146	-0.148
-735.025	174.673	-0.037	0.054
-734.010	32.909	-0.297	0.258
-732.996	247.876	-0.129	0.219
-731.981	800.000	0.041	0.130
-730.966	-41.164	0.081	-0.042
-729.952	-4.801	-0.300	-0.208
-728.937	-46.507	0.232	0.114
-727.923	48.071	-0.212	0.199
-726.908	70.522	-0.056	0.058
-725.894	-142.584	-0.026	0.003
-724.879	49.148	-0.326	0.308
-723.864	800.000	-0.059	0.197
-722.850	521.982	-0.056	0.132
-721.835	-128.968	-0.393	-0.055
-720.821	-92.803	0.448	-0.126
-719.806	-50.075	-0.072	-0.034
-718.791	229.250	0.054	-0.089
-717.777	-29.725	0.194	-0.111
-716.762	90.144	-0.228	0.256
-715.748	-114.976	-0.243	0.046
-714.733	-172.730	0.163	0.005
-713.718	-76.719	-0.249	0.088
-712.704	179.656	-0.262	0.385
-711.689	-179.280	-0.035	0.001
-710.675	66.694	0.086	0.087
-709.660	615.380	-0.112	-0.282
-708.645	195.319	-0.013	0.020
-707.631	94.733	0.186	-0.212
-706.616	149.905	0.160	-0.217
-705.602	-107.269	0.371	-0.082
-704.587	403.753	0.062	-0.131
-703.572	-14.958	-0.198	0.127
-702.558	-66.543	0.048	0.019
-701.543	-200.000	0.011	-0.199
-700.529	-101.615	0.231	-0.056
-699.514	-83.515	-0.363	0.116
-698.499	150.579	0.069	-0.093
-697.485	-115.875	-0.359	0.067
-696.470	-158.536	-0.433	-0.025
-695.456	235.404	-0.081	0.133
-694.441	800.000	0.023	0.091
-693.426	498.075	0.133	-0.306
-692.412	-200.000	-0.031	-0.218
-691.397	-135.841	-0.277	-0.033
-690.383	-99.433	-0.330	-0.083
-689.368	736.728	0.080	-0.214
-688.354	195.214	0.059	-0.089
-687.339	-200.000	0.093	0.415
-686.324	120.385	-0.233	0.290
-685.310	-25.969	0.158	-0.093
-684.295	-200.000	0.016	-0.086
-683.281	12.590	-0.023	-0.018
-682.266	176.217	-0.062	0.090
-681.251	-157.140	0.125	0.008
-680.237	38.253	0.118	0.106
-679.222	122.704	-0.055	0.069
-678.208	-200.000	0.042	0.413
-677.193	18.848	-0.161	0.129
-676.178	-32.914	-0.032	0.018
-675.164	-200.000	0.020	-0.231
-674.149	231.672	0.070	0.116
-673.135	-11.245	0.134	0.088
-672.120	-40.931	-0.165	0.086
-671.105	538.083	-0.209	0.497
-670.091	-11.761	0.178	0.117
-669.076	800.000	0.001	0.003
-668.062	44.907	-0.309	-0.285
-667.047	-104.747	0.079	-0.018
-666.032	-68.375	0.467	-0.181
-665.018	-44.191	-0.354	-0.178
-664.003	510.227	-0.074	0.172
-662.989	5.473	0.299	-0.221
-661.974	-110.645	0.152	-0.031
-660.959	-43.812	0.021	0.011
-659.945	-47.681	-0.244	-0.119
-658.930	426.902	0.070	0.151
-657.916	-114.747	0.141	0.027
-656.901	-90.450	0.162	-0.047
-655.886	308.152	-0.133	-0.248
-654.872	-200.000	-0.053	0.263
-653.857	-47.510	0.216	-0.105
-652.843	210.328	-0.152	0.238
-651.828	58.336	0.329	-0.323
-650.814	-14.105	0.187	-0.120
-649.799	186.654	-0.171	0.255
-648.784	94.450	-0.117	-0.133
-647.770	273.126	0.057	0.101
-646.755	800.000	-0.025	0.082
-645.741	662.015	-0.097	-0.251
-644.726	64.921	-0.083	0.084
-643.711	133.193	0.112	-0.144
-642.697	-13.210	0.277	0.180
-641.682	-112.424	-0.288	-0.058
-640.668	-200.000	0.017	-0.092
-639.653	57.894	0.072	0.070
-638.638	102.491	-0.089	0.104
-637.624	553.573	0.107	-0.257
-636.609	240.301	-0.058	0.097
-635.595	-63.805	0.115	0.047
-634.580	132.736	0.147	0.190
-633.565	-200.000	-0.030	-0.204
-632.551	-15.387	0.137	-0.088
-631.536	-128.774	-0.422	-0.059
-630.522	-7.397	-0.199	-0.135
-629.507	298.272	0.043	-0.079
-628.492	-7.042	0.209	-0.142
-627.478	-153.288	-0.046	-0.003
-626.463	112.685	-0.146	-0.177
-625.449	42.171	0.050	-0.045
-624.434	692.746	-0.181	0.473
-623.419	-72.555	-0.238	-0.088
-622.405	-40.882	0.215	0.111
-621.390	650.852	0.091	0.232
-620.376	-4.927	-0.197	0.135
-619.361	15.186	-0.215	0.168
-618.346	-200.000	-0.044	-0.227
-617.332	512.141	0.072	-0.167
-616.317	74.640	-0.200	0.210
-615.303	149.536	-0.103	0.139
-614.288	-133.262	-0.102	-0.013
-613.273	-111.985	0.286	0.058
-612.259	-200.000	0.017	-0.102
-611.244	-197.542	0.105	0.001
-610.230	-200.000	0.043	-0.222
-609.215	-99.221	-0.115	-0.029
-608.201	-30.168	0.056	0.032
-607.186	-89.942	-0.062	0.018
-606.171	800.000	-0.011	-0.035
-605.157	-99.384	-0.074	-0.019
-604.142	-188.170	-0.254	-0.003
-603.128	88.770	0.240	0.267
-602.113	-55.402	0.087	0.039
-601.098	45.220	-0.167	-0.154
-600.084	24.612	-0.126	0.104
-599.069	88.696	0.012	-0.013
-598.055	256.924	-0.054	0.092
-597.040	-58.284	0.446	0.194
-596.025	-111.768	-0.204	0.041
-595.011	-21.688	-0.062	-0.038
-593.996	43.466	0.077	-0.070
-592.982	-147.914	-0.067	0.006
-591.967	120.109	0.121	0.150
-590.952	-92.327	-0.200	-0.056
-589.938	-200.000	-0.047	-0.283
-588.923	-0.621	-0.237	0.168
-587.909	-136.659	-0.228	0.026
-586.894	2.112	0.124	-0.089
-585.879	-200.000	0.037	-0.272
-584.865	800.000	0.079	-0.265
-583.850	800.000	0.050	-0.163
-582.836	-33.561	-0.057	0.032
-581.821	-85.976	0.248	0.077
-580.806	-200.000	-0.010	0.129
-579.792	104.224	0.191	-0.224
-578.777	-14.768	0.184	0.118
-577.763	-64.168	0.267	-0.109
-576.748	-200.000	0.004	0.050
-575.733	-95.302	0.158	-0.042
-574.719	-200.000	-0.039	0.350
-573.704	-89.781	-0.104	-0.030
-572.690	-47.458	0.169	-0.082
-571.675	-200.000	0.018	0.262
-570.661	-74.286	-0.218	0.078
-569.646	-200.000	0.013	0.155
-568.631	-93.524	0.178	0.049
-567.617	522.311	0.093	0.217
-566.602	-89.821	-0.086	-0.025
-565.588	38.237	0.195	-0.173
-564.573	18.009	0.142	-0.113
-563.558	185.595	0.203	0.301
-562.544	-200.000	-0.010	-0.106
-561.529	349.282	0.073	-0.143
-560.515	800.000	-0.061	0.195
-559.500	800.000	-0.092	0.298
-558.485	-65.154	-0.147	0.059
-557.471	-74.221	0.013	0.005
-556.456	346.723	0.068	-0.134
-555.442	-107.404	0.213	0.047
-554.427	-14.278	0.213	0.137
-553.412	64.204	-0.152	-0.153
-552.398	-200.000	-0.002	-0.167
-551.383	257.180	0.028	0.048
-550.369	-145.671	-0.217	0.019
-549.354	-170.195	-0.277	-0.010
-548.339	-41.857	0.171	0.087
-547.325	-53.477	-0.608	-0.277
-546.310	214.885	-0.027	-0.042
-545.296	154.194	0.135	-0.185
-544.281	-74.388	-0.079	-0.028
-543.266	800.000	0.086	0.301
-542.252	-200.000	0.027	0.307
-541.237	-93.470	0.300	-0.083
-540.223	-33.388	0.230	-0.127
-539.208	800.000	-0.065	0.229
-538.193	159.455	0.220	-0.304
-537.179	-2.324	-0.533	0.373
-536.164	-113.788	0.090	-0.017
-535.150	-124.274	-0.141	0.022
-534.135	-34.463	-0.183	0.100
-533.121	-103.871	0.155	0.036
-532.106	-59.623	-0.199	0.085
-531.091	-200.000	-0.021	-0.271
-530.077	216.682	0.078	-0.123
-529.062	-122.352	-0.283	-0.046
-528.048	-104.061	0.258	-0.060
-527.033	-34.370	0.043	-0.023
-526.018	-200.000	0.064	0.315
-525.004	-60.222	-0.387	-0.164
-523.989	-50.981	0.186	0.087
-522.975	281.919	-0.106	0.189
-521.960	-56.160	0.143	-0.063
-520.945	-200.000	0.004	0.153
-519.931	233.348	-0.069	0.113
-518.916	287.107	-0.190	-0.341
-517.902	800.000	-0.015	0.046
-516.887	-200.000	0.005	-0.065
-515.872	7.934	0.139	-0.104
-514.858	262.636	0.165	0.285
-513.843	438.126	0.137	0.297
-512.829	-200.000	0.006	-0.057
-511.814	-27.951	-0.206	0.119
-510.799	-24.136	0.267	0.159
-509.785	120.763	0.020	0.025
-508.770	-200.000	0.025	-0.113
-507.756	-200.000	-0.015	0.141
-506.741	34.714	-0.216	0.188
-505.726	-22.578	-0.028	-0.017
-504.712	-26.807	-0.066	-0.038
-503.697	-23.742	0.140	-0.083
-502.683	256.460	0.179	0.305
-501.668	-200.000	-0.002	-0.216
-500.653	-187.150	0.340	0.005
-499.639	-49.926	-0.094	0.044
-498.624	-89.193	-0.135	0.040
-497.610	48.516	-0.193	0.180
-496.595	6.910	0.226	-0.167
-495.581	-200.000	0.009	-0.113
-494.566	800.000	0.098	0.314
-493.551	-193.336	-0.485	0.004
-492.537	136.071	-0.168	-0.218
-491.522	800.000	-0.090	-0.284
-490.508	-85.751	0.055	0.017
-489.493	150.169	0.128	0.173
-488.478	-180.037	0.233	0.005
-487.464	605.011	0.043	-0.107
-486.449	508.724	-0.063	0.146
-485.435	199.787	-0.156	-0.237
-484.420	-49.273	-0.152	-0.072
-483.405	-3.789	0.033	-0.023
-482.391	-97.822	-0.439	-0.113
-481.376	-116.326	-0.528	-0.097
-480.362	-200.000	-0.002	-0.206
-479.347	-87.267	0.343	-0.104
-478.332	25.744	0.127	0.105
-477.318	136.719	0.106	-0.137
-476.303	-59.388	0.024	0.010
-475.289	20.639	-0.245	0.197
-474.274	-125.621	0.198	0.030
-473.259	800.000	0.085	-0.302
-472.245	-0.136	-0.291	-0.206
-471.230	800.000	-0.040	0.147
-470.216	-200.000	-0.017	0.281
-469.201	1.542	-0.200	0.143
-468.186	-91.918	0.159	0.045
-467.172	-56.940	0.263	0.115
-466.157	-200.000	-0.042	-0.321
-465.143	-200.000	-0.004	-0.134
-464.128	-11.727	-0.256	-0.167
-463.113	773.146	0.061	-0.166
-462.099	800.000	0.084	0.240
-461.084	-155.050	-0.108	0.007
-460.070	800.000	-0.083	-0.324
-459.055	8.031	-0.219	-0.163
-458.040	800.000	0.040	-0.147
-457.026	-26.130	0.208	0.121
-456.011	532.378	-0.042	0.098
-454.997	-102.424	-0.215	-0.051
-453.982	-97.131	0.165	-0.043
-452.968	35.831	0.322	0.281
-451.953	800.000	0.031	0.123
-450.938	-200.000	0.005	-0.054
-449.924	800.000	-0.046	-0.129
-448.909	10.401	-0.117	0.088
-447.895	800.000	-0.043	-0.181
-446.880	-200.000	0.001	-0.010
-445.865	-130.124	-0.150	-0.020
-444.851	-200.000	0.027	-0.259
-443.836	-122.850	-0.143	-0.023
-442.822	-56.879	-0.063	-0.027
-441.807	-54.512	0.289	-0.130
-440.792	-119.907	0.273	-0.047
-439.778	-200.000	-0.008	0.301
-438.763	-118.336	-0.062	0.011
-437.749	38.523	-0.186	0.164
-436.734	800.000	-0.112	-0.365
-435.719	21.920	-0.048	0.039
-434.705	800.000	-0.050	-0.182
-433.690	142.548	0.161	0.213
-432.676	-33.385	-0.179	-0.098
-431.661	800.000	0.120	-0.439
-430.646	-22.171	0.151	0.091
-429.632	45.596	-0.291	0.267
-428.617	0.492	0.216	0.153
-427.603	21.022	0.055	0.044
-426.588	-160.884	0.197	0.010
-425.573	-45.015	-0.211	0.104
-424.559	47.289	-0.165	0.152
-423.544	-27.566	0.355	-0.205
-422.530	-3.462	0.352	-0.243
-421.515	-153.596	-0.178	0.012
-420.500	-200.000	0.003	-0.035
-419.486	800.000	0.020	-0.079
-418.471	480.739	-0.121	-0.271
-417.457	-200.000	0.012	0.099
-416.442	800.000	-0.084	-0.253
-415.428	-200.000	0.036	0.381
-414.413	539.226	0.073	0.172
-413.398	-200.000	-0.006	0.171
-412.384	-102.298	-0.051	0.012
-411.369	-177.751	-0.020	0.000
-410.355	-152.589	0.221	0.016
-409.340	49.990	-0.070	-0.066
-408.325	800.000	0.024	-0.075
-407.311	800.000	0.008	-0.023
-406.296	-41.745	0.487	0.248
-405.282	106.175	-0.043	-0.050
-404.267	82.809	-0.122	0.131
-403.252	-7.398	0.094	0.063
-402.238	88.317	0.083	0.091
-401.223	-99.314	-0.241	-0.060
-400.209	-200.000	-0.048	-0.448
-399.194	-27.421	0.167	-0.096
-398.179	-1.604	-0.203	-0.142
-397.165	-198.157	-0.158	0.001
-396.150	171.008	0.119	0.169
-395.136	247.608	0.061	0.101
-394.121	-200.000	-0.028	0.210
-393.106	134.543	0.113	-0.146
-392.092	-144.055	-0.148	0.014
-391.077	-200.000	-0.028	0.139
-390.063	240.847	-0.189	0.312
-389.048	-200.000	0.034	0.161
-388.033	11.085	-0.173	-0.131
-387.019	-158.983	0.376	0.021
-386.004	-49.286	-0.302	-0.143
-384.990	48.206	-0.152	-0.141
-383.975	-199.053	-0.128	-0.001
-382.960	126.537	0.011	-0.014
-381.946	346.835	-0.111	-0.216
-380.931	800.000	0.053	0.176
-379.917	-74.334	0.181	0.065
-378.902	36.543	0.130	-0.113
-377.888	-136.838	-0.033	-0.004
-376.873	-200.000	0.012	0.080
-375.858	-76.872	-0.201	-0.070
-374.844	800.000	0.075	0.240
-373.829	108.372	-0.204	0.241
-372.815	-200.000	-0.008	0.079
-371.800	-200.000	0.002	0.055
-370.785	-4.001	0.044	0.030
-369.771	-87.633	-0.341	0.102
-368.756	-200.000	0.015	0.356
-367.742	-108.675	-0.180	-0.038
-366.727	470.818	-0.171	-0.380
-365.712	-200.000	0.008	-0.141
-364.698	69.533	0.140	-0.142
-363.683	800.000	0.053	0.179
-362.669	242.323	0.110	-0.181
-361.654	10.806	-0.081	-0.061
-360.639	-8.002	0.206	0.138
-359.625	800.000	-0.045	0.135
-358.610	-39.862	-0.319	0.165
-357.596	-200.000	-0.006	0.174
-356.581	-38.089	0.070	-0.037
-355.566	410.684	0.111	0.234
-354.552	37.525	0.266	0.233
-353.537	506.460	-0.106	-0.243
-352.523	-200.000	0.013	-0.071
-351.508	-133.028	-0.101	-0.013
-350.493	15.887	0.243	-0.189
-349.479	218.090	-0.059	0.094
-348.464	-80.243	-0.139	-0.046
-347.450	-80.662	-0.115	-0.038
-346.435	800.000	0.142	0.518
-345.420	-150.231	-0.036	0.003
-344.406	238.376	0.079	-0.129
-343.391	30.558	0.103	0.087
-342.377	115.714	0.249	0.301
-341.362	26.648	0.225	0.186
-340.348	-125.122	0.327	-0.050
-339.333	-30.429	-0.104	-0.058
-338.318	800.000	0.040	-0.124
-337.304	800.000	-0.054	0.177
-336.289	-112.474	-0.107	-0.021
-335.275	538.955	-0.118	0.277
-334.260	25.581	-0.149	-0.122
-333.245	-53.536	0.232	0.105
-332.231	-52.467	0.056	-0.026
-331.216	800.000	-0.054	-0.183
-330.202	-57.393	-0.258	0.112
-329.187	-200.000	0.011	0.116
-328.172	71.225	0.131	-0.134
-327.158	34.466	0.315	-0.272
-326.143	277.510	-0.090	-0.158
-325.129	-200.000	-0.099	-0.536
-324.114	93.533	-0.155	-0.173
-323.099	800.000	0.099	-0.319
-322.085	112.573	0.123	-0.147
-321.070	47.078	0.156	0.143
-320.056	126.077	-0.213	-0.266
-319.041	106.198	0.199	-0.232
-318.026	85.946	-0.196	-0.213
-317.012	-176.499	-0.266	-0.007
-315.997	-80.249	0.289	0.095
-314.983	284.532	0.136	-0.242
-313.968	411.097	-0.137	-0.287
-312.953	-56.966	0.174	-0.076
-311.939	497.474	0.116	-0.264
-310.924	-92.513	-0.331	-0.092
-309.910	280.193	-0.098	-0.173
-308.895	-30.107	-0.109	-0.061
-307.880	-53.220	0.138	-0.063
-306.866	-200.000	0.047	0.300
-305.851	749.323	0.045	-0.119
-304.837	157.009	0.101	-0.137
-303.822	-192.620	-0.111	-0.001
-302.807	728.365	0.080	-0.210
-301.793	-200.000	-0.015	-0.324
-300.778	-200.000	0.012	0.141
-299.764	-16.614	-0.200	-0.125
-298.749	-70.201	0.220	-0.083
-297.735	16.570	0.272	0.212
-296.720	334.115	0.148	0.282
-295.705	-136.033	0.256	-0.030
-294.691	47.338	-0.194	0.178
-293.676	-200.000	0.044	0.232
-292.662	-200.000	-0.020	0.112
-291.647	-200.000	0.029	-0.131
-290.632	-80.576	0.132	-0.043
-289.618	274.509	-0.197	0.345
-288.603	167.565	0.184	-0.258
-287.589	-70.586	-0.147	0.055
-286.574	-200.000	-0.044	0.255
-285.559	-200.000	-0.003	0.161
-284.545	-36.826	-0.278	0.147
-283.530	800.000	0.091	0.318
-282.516	46.246	-0.025	-0.023
-281.501	800.000	0.098	0.354
-280.486	-200.000	0.031	0.237
-279.472	-200.000	0.014	0.099
-278.457	587.800	-0.149	0.361
-277.443	-78.770	-0.345	0.116
-276.428	-78.002	0.398	-0.135
-275.413	202.494	-0.107	0.163
-274.399	-25.088	0.133	0.078
-273.384	64.447	0.009	-0.009
-272.370	-200.000	-0.007	-0.195
-271.355	97.036	0.150	-0.170
-270.340	-109.711	0.086	-0.018
-269.326	105.113	0.032	0.037
-268.311	94.569	0.232	0.260
-267.297	-200.000	0.039	-0.212
-266.282	69.619	0.225	-0.228
-265.267	-141.978	-0.553	-0.054
-264.253	-200.000	-0.051	0.257
-263.238	269.459	-0.083	-0.143
-262.224	-66.924	0.350	-0.136
-261.209	143.690	-0.162	-0.212
-260.195	800.000	0.047	0.178
-259.180	62.670	0.034	-0.033
-258.165	37.313	0.212	-0.185
-257.151	-200.000	0.015	0.274
-256.136	-200.000	-0.004	0.052
-255.122	2.800	0.356	0.254
-254.107	-97.959	-0.094	0.024
-253.092	225.436	0.061	0.098
-252.078	728.752	-0.143	0.376
-251.063	108.955	0.087	0.102
-250.049	-41.864	-0.076	-0.039
-249.034	399.821	0.207	-0.428
-248.019	71.238	-0.105	0.108
-247.005	-76.601	-0.215	0.074
-245.990	684.037	-0.100	-0.258
-244.976	465.338	0.040	-0.087
-243.961	-200.000	-0.001	-0.105
-242.946	647.476	0.056	-0.142
-241.932	800.000	0.066	0.241
-240.917	-106.501	-0.346	0.076
-239.903	-48.497	0.111	-0.053
-238.888	73.249	0.073	-0.075
-237.873	-200.000	-0.040	-0.224
-236.859	610.896	0.091	0.224
-235.844	-61.784	0.067	-0.028
-234.830	-117.210	0.181	-0.032
-233.815	-36.773	0.031	0.017
-232.800	128.913	0.279	-0.350
-231.786	-23.672	0.176	0.104
-230.771	-55.059	0.030	0.013
-229.757	-200.000	0.001	0.037
-228.742	643.011	0.100	0.250
-227.727	800.000	0.110	-0.342
-226.713	-19.322	0.119	0.072
-225.698	-46.139	-0.212	0.103
-224.684	-116.348	-0.100	-0.018
-223.669	321.457	-0.031	-0.058
-222.655	800.000	-0.079	0.241
-221.640	-54.795	-0.148	0.066
-220.625	80.329	0.166	-0.175
-219.611	758.332	0.052	0.138
-218.596	-83.904	-0.223	0.070
-217.582	25.322	-0.185	0.151
-216.567	316.180	-0.125	0.231
-215.552	-200.000	0.024	0.116
-214.538	800.000	0.054	-0.224
-213.523	-132.964	0.137	-0.017
-212.509	51.366	-0.098	0.091
-211.494	2.624	-0.212	-0.151
-210.479	152.826	-0.152	0.204
-209.465	-200.000	0.015	-0.163
-208.450	-37.020	0.328	0.173
-207.436	-200.000	-0.003	-0.152
-206.421	-123.022	0.207	0.033
-205.406	-200.000	0.051	0.254
-204.392	47.884	0.206	-0.189
-203.377	0.719	-0.283	0.199
-202.363	71.139	0.085	0.087
-201.348	296.703	-0.069	0.125
-200.333	800.000	-0.043	0.120
-199.319	121.141	0.130	-0.159
-198.304	-6.583	0.243	0.163
-197.290	147.902	0.047	0.063
-196.275	-200.000	-0.017	0.294
-195.260	-126.803	-0.305	0.044
-194.246	-93.983	-0.063	-0.017
-193.231	-200.000	-0.001	0.048
-192.217	-200.000	0.051	-0.361
-191.202	267.494	-0.057	-0.098
-190.187	15.277	-0.266	-0.205
-189.173	800.000	-0.077	-0.301
-188.158	-41.338	0.219	0.111
-187.144	554.704	-0.118	-0.279
-186.129	49.280	-0.461	-0.425
-185.114	-143.360	0.138	0.013
-184.100	-112.489	-0.220	0.043
-183.085	243.444	-0.155	0.256
-182.071	60.428	-0.201	0.195
-181.056	-33.666	0.449	-0.243
-180.042	800.000	-0.097	-0.275
-179.027	176.294	0.111	-0.158
-178.012	394.815	-0.036	-0.073
-176.998	422.765	-0.083	0.175
-175.983	-74.116	-0.151	-0.054
-174.969	-57.409	0.430	-0.185
-173.954	158.157	0.080	-0.109
-172.939	-186.825	-0.177	0.002
-171.925	-130.360	0.225	0.030
-170.910	-200.000	-0.014	0.209
-169.896	-200.000	-0.011	-0.368
-168.881	-29.754	-0.147	-0.082
-167.866	-27.585	0.193	0.110
-166.852	-60.653	0.334	0.139
-165.837	30.313	0.160	0.134
-164.823	800.000	-0.002	-0.009
-163.808	3.366	0.145	0.104
-162.793	-61.734	-0.070	-0.029
-161.779	800.000	0.049	-0.169
-160.764	-200.000	-0.008	-0.074
-159.750	0.666	0.298	-0.209
-158.735	-177.224	-0.211	-0.005
-157.720	-26.338	-0.363	-0.209
-156.706	-200.000	0.003	0.048
-155.691	-148.796	-0.200	-0.016
-154.677	-108.195	-0.247	-0.052
-153.662	459.913	0.030	-0.066
-152.647	-43.482	0.259	0.128
-151.633	161.717	-0.136	-0.187
-150.618	-70.741	-0.055	0.020
-149.604	-200.000	0.015	-0.107
-148.589	341.697	0.081	-0.155
-147.574	-200.000	-0.055	0.316
-146.560	-61.868	-0.349	0.143
-145.545	-200.000	0.028	0.201
-144.531	-153.958	-0.174	0.012
-143.516	-119.257	0.097	-0.017
-142.502	800.000	-0.059	-0.188
-141.487	800.000	0.121	0.382
-140.472	-79.685	0.343	0.113
-139.458	800.000	0.061	-0.247
-138.443	-200.000	0.004	0.076
-137.429	800.000	-0.028	0.080
-136.414	-43.632	-0.153	0.075
-135.399	-200.000	-0.013	-0.394
-134.385	329.053	0.090	0.169
-133.370	183.686	0.036	-0.051
-132.356	-200.000	0.009	0.263
-131.341	-200.000	0.013	-0.272
-130.326	61.429	0.084	0.082
-129.312	-103.534	0.264	-0.061
-128.297	-107.115	-0.234	-0.051
-127.283	-200.000	-0.010	0.050
-126.268	74.773	0.240	-0.248
-125.253	63.485	-0.114	-0.113
-124.239	-200.000	-0.019	0.199
-123.224	800.000	-0.031	0.103
-122.210	48.759	-0.041	-0.038
-121.195	800.000	0.073	-0.207
-120.180	-97.794	0.172	0.044
