DTS Sentinel unit serial number:	SN413079Multiplexer serial number:	ORYXHardware model number:	OX4-SRSoftware version number:	ORYX F/W v4.00 Oryx Data Collector v3.7.2.0data status	okinstallation	princeton_trtdifferential loss correction	single-endedforward channel	channel 1reverse channel	N/Adate	2019/09/19time	11:02:35forward acquisition time	60.00reverse acquisition time	0.00gamma	496.2192k internal	0.2339k external	0.2339temperature offset calibration	1.0009default loss term (dB/km)	0.3790temperature slope calibration	1.0000multiplexer offset coefficient	1.0000multiplexer slope coefficient	1.0000fibre end	0.00T internal ref (°C)	24.94T ext. ref 1 (°C)	0.76T ext. ref 2 (°C)	20.50length (m)	temperature (°C)	Stokes	anti-Stokes-747.200	-52.617	0.240	0.111
-746.185	-200.000	0.011	-0.161
-745.171	-167.596	-0.398	0.016
-744.156	13.993	0.175	0.137
-743.142	8.956	0.185	0.140
-742.127	298.894	-0.063	-0.116
-741.112	-70.456	0.292	0.111
-740.098	219.102	-0.161	-0.257
-739.083	5.928	0.118	-0.088
-738.069	-150.440	-0.499	-0.038
-737.054	-200.000	-0.040	0.416
-736.039	-22.698	-0.118	-0.072
-735.025	-45.808	0.184	0.091
-734.010	240.197	0.095	-0.160
-732.996	-57.276	0.167	-0.074
-731.981	-82.662	-0.298	-0.097
-730.966	-140.367	0.430	0.045
-729.952	71.820	-0.167	-0.174
-728.937	800.000	-0.065	-0.212
-727.923	-45.237	-0.166	-0.083
-726.908	113.124	0.093	-0.114
-725.894	147.363	-0.122	-0.164
-724.879	-136.440	-0.125	0.015
-723.864	-200.000	0.022	0.166
-722.850	-200.000	-0.058	-0.303
-721.835	129.506	-0.138	-0.177
-720.821	-150.944	-0.174	0.013
-719.806	-180.089	0.285	-0.006
-718.791	800.000	0.054	0.155
-717.777	751.560	-0.172	0.465
-716.762	74.483	-0.101	0.106
-715.748	-32.073	-0.132	0.074
-714.733	283.549	-0.030	0.054
-713.718	-15.503	0.269	-0.172
-712.704	800.000	-0.019	0.068
-711.689	2.670	0.142	-0.103
-710.675	141.329	-0.146	0.193
-709.660	-67.871	-0.295	0.115
-708.645	800.000	0.039	0.157
-707.631	57.410	0.173	-0.170
-706.616	12.043	-0.221	0.170
-705.602	-181.928	0.146	-0.003
-704.587	800.000	0.051	-0.149
-703.572	47.311	-0.218	0.204
-702.558	287.069	-0.068	0.124
-701.543	56.021	0.076	-0.074
-700.529	-129.114	-0.230	0.032
-699.514	-173.434	0.286	0.009
-698.499	-200.000	-0.009	-0.050
-697.485	-200.000	-0.008	-0.307
-696.470	-90.440	0.136	-0.039
-695.456	129.955	0.235	0.301
-694.441	169.722	0.070	-0.099
-693.426	-135.980	-0.150	0.018
-692.412	539.583	-0.068	-0.163
-691.397	-121.310	-0.339	-0.057
-690.383	-86.860	-0.176	-0.054
-689.368	390.221	-0.050	-0.104
-688.354	-81.205	0.185	-0.061
-687.339	-1.009	0.178	0.126
-686.324	416.423	-0.145	0.310
-685.310	-43.661	-0.136	-0.068
-684.295	-98.203	-0.133	-0.034
-683.281	-59.769	0.104	0.045
-682.266	44.332	0.032	-0.029
-681.251	102.029	0.315	0.368
-680.237	-200.000	-0.002	-0.141
-679.222	-71.309	-0.066	0.025
-678.208	24.438	-0.017	-0.014
-677.193	-200.000	-0.035	-0.277
-676.178	-47.084	-0.249	-0.121
-675.164	225.546	-0.074	-0.120
-674.149	-13.996	0.236	-0.153
-673.135	-172.915	-0.295	-0.009
-672.120	-200.000	-0.049	-0.395
-671.105	-52.999	-0.210	-0.096
-670.091	351.520	0.126	-0.250
-669.076	-56.736	0.164	-0.072
-668.062	-7.796	0.150	-0.101
-667.047	207.110	0.195	-0.304
-666.032	52.424	0.053	-0.051
-665.018	210.290	-0.142	0.223
-664.003	800.000	0.055	-0.166
-662.989	-178.648	-0.338	0.008
-661.974	-138.246	-0.170	0.019
-660.959	-121.762	0.244	0.040
-659.945	-23.588	-0.080	0.048
-658.930	-200.000	0.026	0.187
-657.916	-200.000	-0.053	-0.282
-656.901	180.303	-0.121	-0.177
-655.886	28.004	-0.201	0.170
-654.872	-96.777	-0.088	0.023
-653.857	-41.380	-0.573	-0.295
-652.843	-200.000	0.019	0.121
-651.828	800.000	-0.056	0.185
-650.814	270.284	-0.078	0.136
-649.799	319.448	0.039	-0.074
-648.784	53.688	0.192	-0.184
-647.770	800.000	0.066	-0.183
-646.755	-1.333	-0.078	-0.055
-645.741	178.308	-0.101	-0.147
-644.726	19.291	-0.117	-0.094
-643.711	9.718	-0.232	0.176
-642.697	-106.387	-0.365	-0.082
-641.682	-146.127	0.337	-0.030
-640.668	-200.000	-0.005	-0.043
-639.653	800.000	0.091	-0.289
-638.638	-200.000	0.011	0.126
-637.624	800.000	0.030	0.120
-636.609	-115.452	-0.147	-0.028
-635.595	-200.000	0.001	0.245
-634.580	360.068	-0.099	0.197
-633.565	-54.194	-0.193	0.087
-632.551	-200.000	-0.019	-0.155
-631.536	-121.747	0.094	-0.015
-630.522	64.668	0.257	-0.259
-629.507	225.614	0.077	-0.124
-628.492	-100.276	-0.487	-0.121
-627.478	-33.100	-0.098	0.054
-626.463	-38.403	-0.325	0.172
-625.449	42.645	0.268	0.244
-624.434	35.027	-0.186	0.163
-623.419	-149.900	0.209	0.016
-622.405	-146.837	0.406	0.035
-621.390	77.428	-0.127	0.135
-620.376	678.801	-0.092	-0.239
-619.361	159.295	0.027	0.038
-618.346	-100.273	-0.217	-0.054
-617.332	-200.000	-0.031	0.181
-616.317	130.356	0.059	-0.075
-615.303	-130.236	-0.388	0.053
-614.288	800.000	0.114	-0.454
-613.273	800.000	-0.044	-0.139
-612.259	-11.513	0.297	0.195
-611.244	19.782	0.178	-0.143
-610.230	46.482	-0.241	-0.223
-609.215	-73.869	0.139	-0.050
-608.201	-118.486	0.312	-0.055
-607.186	-114.975	0.293	-0.056
-606.171	-130.438	-0.270	0.036
-605.157	146.549	0.347	0.465
-604.142	108.828	-0.144	-0.172
-603.128	-140.550	-0.086	-0.009
-602.113	52.320	-0.257	0.244
-601.098	800.000	-0.077	0.230
-600.084	176.272	-0.070	0.102
-599.069	1.325	0.209	-0.150
-598.055	-81.197	-0.181	0.060
-597.040	-200.000	0.467	0.002
-596.025	-52.064	-0.239	0.111
-595.011	351.745	0.076	0.151
-593.996	-49.448	0.086	0.041
-592.982	382.596	0.095	0.196
-591.967	222.490	0.065	0.104
-590.952	-0.991	-0.221	-0.156
-589.938	-200.000	-0.008	0.085
-588.923	-113.507	-0.546	-0.107
-587.909	-57.736	-0.302	0.132
-586.894	70.621	0.065	-0.067
-585.879	327.675	-0.186	0.357
-584.865	-176.310	0.086	-0.002
-583.850	800.000	0.050	0.184
-582.836	-11.092	-0.207	-0.136
-581.821	146.000	0.202	0.270
-580.806	-200.000	0.006	-0.220
-579.792	-200.000	-0.019	-0.120
-578.777	-200.000	0.036	0.178
-577.763	-84.342	-0.297	-0.094
-576.748	-67.855	0.206	-0.080
-575.733	-86.662	0.137	0.042
-574.719	-200.000	-0.010	-0.065
-573.704	-107.438	-0.242	0.053
-572.690	39.440	0.065	-0.058
-571.675	112.476	-0.082	0.099
-570.661	163.496	-0.013	-0.018
-569.646	-36.160	0.216	-0.116
-568.631	-200.000	0.040	-0.255
-567.617	-89.853	-0.289	-0.084
-566.602	100.857	-0.224	0.259
-565.588	-200.000	-0.007	0.053
-564.573	-28.997	0.247	0.141
-563.558	800.000	0.126	-0.377
-562.544	393.809	0.127	-0.264
-561.529	449.845	-0.072	0.158
-560.515	-157.072	-0.103	0.006
-559.500	106.532	0.151	-0.178
-558.485	288.829	-0.091	-0.164
-557.471	255.036	-0.035	0.059
-556.456	63.127	-0.039	-0.039
-555.442	447.893	-0.194	-0.426
-554.427	-200.000	-0.022	-0.178
-553.412	144.946	-0.105	0.140
-552.398	-115.474	0.150	-0.028
-551.383	186.936	-0.134	-0.199
-550.369	-173.326	0.250	0.008
-549.354	163.273	0.031	0.043
-548.339	172.041	-0.106	0.151
-547.325	-200.000	0.029	0.238
-546.310	138.754	0.130	0.170
-545.296	617.585	-0.065	0.163
-544.281	800.000	0.116	-0.384
-543.266	263.052	-0.083	-0.144
-542.252	351.844	0.050	-0.098
-541.237	464.491	0.099	-0.221
-540.223	760.616	0.055	0.149
-539.208	47.283	-0.181	-0.168
-538.193	369.585	-0.057	-0.115
-537.179	-21.137	0.097	-0.059
-536.164	-55.075	0.387	-0.173
-535.150	-44.715	0.143	0.071
-534.135	-51.333	0.095	-0.044
-533.121	-52.752	0.026	0.012
-532.106	-200.000	-0.016	0.175
-531.091	41.304	-0.150	0.135
-530.077	366.176	0.112	-0.224
-529.062	-96.436	0.180	-0.047
-528.048	229.486	-0.124	0.201
-527.033	-177.279	0.456	-0.011
-526.018	295.177	0.200	-0.365
-525.004	203.802	-0.161	-0.249
-523.989	-200.000	0.017	0.262
-522.975	-162.573	-0.296	-0.015
-521.960	-138.550	0.076	0.008
-520.945	800.000	0.098	0.276
-519.931	-141.243	-0.149	0.015
-518.916	-200.000	0.016	0.168
-517.902	-74.119	0.110	0.040
-516.887	3.185	0.080	-0.058
-515.872	-64.921	-0.170	0.068
-514.858	-124.648	0.036	0.006
-513.843	-102.955	0.047	0.011
-512.829	-200.000	0.023	0.103
-511.814	47.416	0.150	-0.139
-510.799	-131.539	-0.243	-0.032
-509.785	-85.279	-0.358	0.111
-508.770	51.514	0.278	0.263
-507.756	-154.405	0.160	-0.011
-506.741	-200.000	0.030	-0.270
-505.726	-114.004	0.181	0.035
-504.712	166.016	-0.169	-0.237
-503.697	62.038	-0.061	0.060
-502.683	58.708	0.148	0.144
-501.668	194.201	-0.090	-0.135
-500.653	282.869	0.087	-0.155
-499.639	-73.887	0.411	0.148
-498.624	-77.307	-0.155	-0.054
-497.610	-126.450	-0.092	-0.014
-496.595	800.000	0.059	0.224
-495.581	800.000	0.059	-0.216
-494.566	124.352	-0.027	0.034
-493.551	-92.417	-0.108	0.030
-492.537	-8.136	-0.292	0.195
-491.522	-133.155	-0.286	0.036
-490.508	-137.279	0.110	0.012
-489.493	-69.364	0.094	-0.036
-488.478	-111.447	0.188	-0.038
-487.464	-94.164	-0.242	-0.066
-486.449	-75.741	-0.266	-0.094
-485.435	75.292	-0.032	-0.034
-484.420	-33.277	-0.271	-0.149
-483.405	-97.406	-0.319	-0.083
-482.391	170.207	-0.104	-0.148
-481.376	131.956	-0.136	0.174
-480.362	-46.410	0.063	0.030
-479.347	-80.841	-0.168	0.055
-478.332	-68.052	-0.301	-0.117
-477.318	-200.000	0.024	-0.242
-476.303	-58.957	0.249	-0.107
-475.289	202.836	-0.195	-0.299
-474.274	800.000	0.024	-0.083
-473.259	-200.000	0.030	0.400
-472.245	20.271	0.062	-0.050
-471.230	-88.663	0.093	-0.027
-470.216	50.673	0.127	0.119
-469.201	-70.583	-0.407	0.153
-468.186	255.671	0.191	-0.324
-467.172	50.724	-0.058	-0.055
-466.157	121.113	0.062	0.077
-465.143	-117.998	0.271	-0.048
-464.128	-118.360	0.225	0.040
-463.113	-145.035	-0.182	-0.016
-462.099	-200.000	0.027	-0.143
-461.084	-200.000	0.040	-0.264
-460.070	124.417	0.223	-0.279
-459.055	160.323	-0.062	-0.086
-458.040	-200.000	0.022	0.158
-457.026	-200.000	-0.007	-0.262
-456.011	198.004	-0.131	-0.199
-454.997	-200.000	0.033	0.159
-453.982	185.110	0.104	0.153
-452.968	-200.000	-0.031	-0.205
-451.953	-86.330	-0.098	-0.030
-450.938	92.779	0.121	0.136
-449.924	-98.169	0.239	-0.061
-448.909	171.866	0.182	0.259
-447.895	5.354	0.168	0.123
-446.880	81.903	-0.151	-0.162
-445.865	-20.209	0.178	-0.109
-444.851	-144.471	0.047	-0.004
-443.836	-96.243	0.244	-0.064
-442.822	-109.397	-0.286	-0.060
-441.807	800.000	0.072	0.249
-440.792	95.604	0.291	0.329
-439.778	-200.000	-0.008	-0.256
-438.763	-20.481	0.310	-0.189
-437.749	800.000	-0.107	0.392
-436.734	-200.000	-0.088	0.518
-435.719	-77.464	-0.168	0.058
-434.705	-30.342	0.089	-0.050
-433.690	800.000	0.039	-0.136
-432.676	-49.155	-0.155	-0.073
-431.661	-49.498	0.215	0.101
-430.646	-200.000	-0.067	0.371
-429.632	44.434	-0.209	-0.190
-428.617	800.000	0.077	-0.243
-427.603	-193.964	0.276	0.002
-426.588	-2.466	0.109	-0.076
-425.573	-34.358	-0.107	-0.058
-424.559	-3.861	0.197	0.135
-423.544	24.957	-0.248	-0.204
-422.530	306.256	-0.039	-0.072
-421.515	-75.357	0.095	-0.034
-420.500	-41.765	-0.216	0.110
-419.486	-149.868	0.340	-0.026
-418.471	-8.899	-0.125	0.083
-417.457	-124.908	-0.192	-0.029
-416.442	44.542	0.161	-0.146
-415.428	166.845	0.147	0.207
-414.413	190.719	0.105	-0.156
-413.398	-58.583	0.172	0.074
-412.384	-187.847	-0.114	0.001
-411.369	-200.000	0.071	0.333
-410.355	199.722	0.167	-0.254
-409.340	69.430	-0.245	-0.250
-408.325	218.959	-0.060	-0.095
-407.311	184.946	0.076	0.112
-406.296	-200.000	-0.027	0.152
-405.282	4.917	0.351	0.255
-404.267	-78.463	0.331	0.112
-403.252	800.000	0.082	0.313
-402.238	758.525	-0.097	0.260
-401.223	213.625	0.150	-0.235
-400.209	-200.000	-0.023	-0.104
-399.194	191.659	0.107	-0.159
-398.179	-199.071	-0.141	-0.001
-397.165	107.629	-0.036	-0.042
-396.150	-200.000	0.003	-0.129
-395.136	-200.000	-0.013	0.132
-394.121	-200.000	0.006	0.146
-393.106	296.876	-0.109	-0.198
-392.092	159.413	-0.111	0.153
-391.077	-4.701	-0.182	0.124
-390.063	175.975	-0.087	0.125
-389.048	-21.051	0.394	0.238
-388.033	-20.257	0.214	0.130
-387.019	16.271	0.151	0.118
-386.004	-125.936	-0.299	0.045
-384.990	-200.000	-0.058	0.313
-383.975	694.566	0.048	0.126
-382.960	800.000	-0.127	0.360
-381.946	-120.291	-0.432	0.073
-380.931	183.035	0.136	0.198
-379.917	11.359	0.138	0.105
-378.902	-31.803	-0.246	0.137
-377.888	800.000	-0.088	0.248
-376.873	309.714	-0.062	0.114
-375.858	-118.780	0.247	-0.043
-374.844	179.204	0.091	-0.132
-373.829	-93.943	0.060	-0.016
-372.815	-42.409	-0.245	-0.124
-371.800	118.577	-0.156	-0.191
-370.785	-200.000	-0.073	-0.479
-369.771	-200.000	-0.001	-0.244
-368.756	23.610	-0.091	0.074
-367.742	-200.000	-0.015	-0.406
-366.727	-151.380	0.233	-0.017
-365.712	3.453	-0.332	-0.239
-364.698	800.000	0.049	0.194
-363.683	-111.852	-0.117	0.023
-362.669	-103.789	0.307	-0.071
-361.654	181.505	0.076	0.110
-360.639	54.436	0.063	-0.060
-359.625	-200.000	0.043	0.251
-358.610	195.037	0.072	-0.108
-357.596	-127.341	0.059	0.008
-356.581	225.974	0.090	-0.145
-355.566	394.132	-0.078	0.161
-354.552	-81.148	-0.227	0.074
-353.537	-200.000	-0.006	-0.183
-352.523	442.768	0.085	0.184
-351.508	205.369	-0.154	0.237
-350.493	-200.000	-0.019	0.292
-349.479	800.000	0.074	0.267
-348.464	118.147	0.129	-0.157
-347.450	-63.784	-0.078	-0.032
-346.435	192.588	0.224	0.335
-345.420	-55.533	-0.089	0.039
-344.406	99.817	0.245	0.280
-343.391	-43.137	0.114	0.057
-342.377	189.829	0.224	-0.332
-341.362	-115.000	-0.167	0.031
-340.348	-200.000	-0.013	-0.090
-339.333	104.054	0.143	-0.166
-338.318	-121.035	0.216	0.036
-337.304	96.118	-0.071	0.080
-336.289	65.463	-0.122	0.122
-335.275	448.701	0.038	-0.082
-334.260	193.585	-0.067	-0.100
-333.245	-79.344	-0.243	-0.081
-332.231	101.819	-0.154	-0.177
-331.216	-62.746	0.260	0.106
-330.202	800.000	0.022	-0.071
-329.187	-14.751	0.021	0.013
-328.172	-66.026	0.151	0.059
-327.158	-72.478	0.148	-0.054
-326.143	-55.840	-0.165	-0.073
-325.129	-23.192	-0.180	-0.107
-324.114	-200.000	-0.025	-0.185
-323.099	-200.000	-0.033	0.155
-322.085	-123.663	-0.139	-0.022
-321.070	-38.124	0.088	-0.046
-320.056	-134.728	0.127	0.015
-319.041	-52.534	0.437	-0.199
-318.026	800.000	0.023	-0.068
-317.012	9.694	-0.243	-0.182
-315.997	-110.697	-0.232	0.047
-314.983	-50.480	0.169	0.079
-313.968	-200.000	0.018	0.192
-312.953	-96.537	0.223	-0.058
-311.939	72.965	-0.406	0.418
-310.924	107.375	-0.181	0.213
-309.910	-67.529	0.454	-0.176
-308.895	800.000	0.048	0.183
-307.880	-200.000	-0.028	-0.319
-306.866	795.440	-0.035	0.094
-305.851	800.000	0.018	-0.056
-304.837	73.372	-0.108	0.112
-303.822	18.573	-0.084	-0.066
-302.807	-153.173	-0.281	0.019
-301.793	-121.784	-0.199	-0.032
-300.778	500.488	0.113	-0.257
-299.764	-91.093	-0.171	-0.048
-298.749	-56.714	0.123	-0.053
-297.735	-149.623	-0.242	-0.019
-296.720	227.003	-0.189	-0.303
-295.705	-194.057	0.213	-0.002
-294.691	26.890	0.049	0.041
-293.676	-184.375	-0.058	0.001
-292.662	-128.071	-0.250	-0.035
-291.647	-21.293	0.118	-0.071
-290.632	-39.011	0.174	-0.090
-289.618	-117.695	0.189	-0.034
-288.603	-102.029	-0.102	0.024
-287.589	106.663	-0.051	0.060
-286.574	461.136	0.122	0.268
-285.559	800.000	0.055	-0.232
-284.545	-102.201	-0.365	0.087
-283.530	-30.682	0.066	0.037
-282.516	74.656	0.113	-0.117
-281.501	-200.000	-0.024	0.203
-280.486	637.782	0.129	0.324
-279.472	800.000	0.056	0.202
-278.457	59.965	0.057	0.056
-277.443	-200.000	-0.016	0.152
-276.428	94.354	0.259	-0.290
-275.413	224.076	-0.200	-0.318
-274.399	800.000	0.057	-0.189
-273.384	-114.422	0.267	0.051
-272.370	-48.797	-0.221	0.105
-271.355	126.366	0.342	-0.426
-270.340	78.225	-0.163	0.172
-269.326	-90.129	-0.040	-0.012
-268.311	442.374	-0.094	-0.202
-267.297	511.386	0.209	0.479
-266.282	-109.465	-0.174	-0.036
-265.267	228.648	0.095	0.152
-264.253	-57.378	-0.117	-0.051
-263.238	-14.028	-0.124	-0.079
-262.224	38.240	-0.132	-0.116
-261.209	-2.002	0.192	-0.133
-260.195	-38.398	-0.328	-0.171
-259.180	122.860	0.131	0.162
-258.165	401.445	-0.115	-0.237
-257.151	-162.416	-0.221	-0.011
-256.136	-90.740	0.038	0.011
-255.122	610.650	0.091	0.224
-254.107	-160.661	-0.125	-0.007
-253.092	-70.815	-0.235	0.087
-252.078	-123.384	0.104	-0.016
-251.063	800.000	-0.064	-0.192
-250.049	-0.615	-0.266	-0.186
-249.034	-105.990	0.169	0.037
-248.019	-87.842	0.262	-0.078
-247.005	-79.008	-0.160	-0.054
-245.990	561.485	0.066	0.157
-244.976	525.121	-0.146	0.339
-243.961	-73.944	-0.049	-0.018
-242.946	-200.000	0.032	-0.200
-241.932	-200.000	-0.065	-0.401
-240.917	-71.891	0.001	0.000
-239.903	417.741	-0.061	0.128
-238.888	-98.457	-0.242	-0.061
-237.873	-51.771	-0.202	0.092
-236.859	632.466	0.067	-0.167
-235.844	-47.945	-0.426	-0.203
-234.830	3.259	0.165	-0.118
-233.815	-127.199	-0.175	0.025
-232.800	66.214	-0.211	-0.211
-231.786	118.181	0.187	-0.226
-230.771	50.378	0.230	-0.214
-229.757	-59.378	-0.238	0.101
-228.742	-200.000	-0.063	0.300
-227.727	47.456	0.210	0.193
-226.713	-200.000	-0.011	0.349
-225.698	497.645	0.146	0.330
-224.684	50.107	-0.191	0.177
-223.669	-200.000	0.036	0.206
-222.655	55.918	0.113	-0.107
-221.640	313.958	-0.195	0.361
-220.625	-200.000	-0.039	-0.215
-219.611	170.355	-0.071	0.100
-218.596	164.919	-0.261	-0.362
-217.582	49.696	0.171	-0.158
-216.567	268.822	-0.097	-0.167
-215.552	8.729	0.223	0.165
-214.538	99.294	0.088	0.100
-213.523	-200.000	0.018	-0.308
-212.509	129.644	-0.156	-0.197
-211.494	288.574	-0.161	-0.287
-210.479	63.383	0.084	-0.083
-209.465	-1.033	-0.131	-0.091
-208.450	-200.000	-0.014	0.096
-207.436	-109.692	0.028	0.006
-206.421	800.000	-0.039	0.118
-205.406	287.356	0.315	0.559
-204.392	-113.534	0.268	-0.051
-203.377	-200.000	-0.031	0.149
-202.363	-6.496	-0.152	-0.102
-201.348	63.266	0.108	-0.106
-200.333	800.000	-0.020	-0.080
-199.319	132.205	0.039	-0.049
-198.304	499.997	-0.125	0.284
-197.290	-170.425	0.372	0.013
-196.275	114.442	0.107	-0.128
-195.260	-200.000	-0.215	0.001
-194.246	-200.000	-0.019	0.130
-193.231	-200.000	-0.013	0.131
-192.217	18.441	0.091	-0.072
-191.202	35.213	0.187	0.161
-190.187	-41.488	-0.127	0.064
-189.173	-71.100	0.140	-0.052
-188.158	698.989	-0.037	0.096
-187.144	149.446	-0.236	-0.313
-186.129	-52.419	0.169	0.077
-185.114	70.898	0.051	-0.052
-184.100	-37.950	-0.143	-0.075
-183.085	-200.000	-0.023	0.374
-182.071	-147.859	0.082	0.007
-181.056	99.130	0.064	0.072
-180.042	2.660	0.183	-0.130
-179.027	36.714	0.290	-0.252
-178.012	800.000	-0.097	-0.292
-176.998	87.536	-0.142	0.154
-175.983	62.846	-0.208	0.204
-174.969	192.535	-0.079	0.117
-173.954	-122.968	-0.421	0.066
-172.939	128.811	-0.280	-0.351
-171.925	124.447	0.140	0.173
-170.910	460.638	0.068	0.149
-169.896	-200.000	-0.008	0.086
-168.881	110.692	0.315	-0.372
-167.866	-200.000	0.028	-0.412
-166.852	-200.000	-0.017	0.099
-165.837	-62.670	0.165	0.067
-164.823	237.587	0.071	0.116
-163.808	-100.558	0.014	0.003
-162.793	-43.058	-0.154	0.077
-161.779	179.896	0.032	0.047
-160.764	-156.902	0.096	0.006
-159.750	-3.048	0.205	0.140
-158.735	-86.356	-0.158	-0.048
-157.720	-8.579	-0.318	0.210
-156.706	-131.959	0.203	0.026
-155.691	-200.000	0.033	0.177
-154.677	489.973	0.060	0.134
-153.662	13.970	0.402	-0.307
-152.647	-114.623	0.081	0.015
-151.633	-200.000	-0.049	0.540
-150.618	-16.614	0.267	-0.166
-149.604	110.687	0.073	-0.086
-148.589	20.492	0.168	0.133
-147.574	-200.000	-0.009	0.149
-146.560	-200.000	-0.079	-0.358
-145.545	-200.000	0.039	-0.226
-144.531	87.482	0.192	0.209
-143.516	412.280	0.085	-0.177
-142.502	9.544	-0.232	0.172
-141.487	140.780	-0.018	0.023
-140.472	-54.999	0.281	-0.124
-139.458	106.033	-0.050	0.059
-138.443	0.088	-0.106	0.074
-137.429	225.235	0.116	0.184
-136.414	78.426	0.149	0.156
-135.399	-100.579	0.332	-0.080
-134.385	-200.000	-0.050	-0.402
-133.370	456.148	-0.083	-0.180
-132.356	62.759	0.171	0.167
-131.341	563.570	0.045	-0.107
-130.326	-14.271	0.220	0.139
-129.312	-200.000	-0.007	0.201
-128.297	-150.904	0.094	-0.007
-127.283	168.101	0.240	0.335
-126.268	654.329	0.030	0.077
-125.253	-49.533	0.308	0.144
-124.239	3.207	0.141	0.101
-123.224	297.931	-0.219	0.395
-122.210	302.139	0.183	0.331
-121.195	-190.278	0.175	-0.002
